DTS Sentinel unit serial number:	SN413079Multiplexer serial number:	ORYXHardware model number:	OX4-SRSoftware version number:	ORYX F/W v4.00 Oryx Data Collector v3.7.2.0data status	okinstallation	princeton_trtdifferential loss correction	single-endedforward channel	channel 3reverse channel	N/Adate	2019/09/16time	17:12:34forward acquisition time	60.00reverse acquisition time	0.00gamma	496.2192k internal	0.2296k external	0.2296temperature offset calibration	0.9946default loss term (dB/km)	0.3790temperature slope calibration	1.0000multiplexer offset coefficient	1.0000multiplexer slope coefficient	1.0000fibre end	0.00T internal ref (°C)	39.00T ext. ref 1 (°C)	15.36T ext. ref 2 (°C)	33.05length (m)	temperature (°C)	Stokes	anti-Stokes-747.200	83.297	-0.202	-0.225
-746.185	-26.757	-0.238	0.142
-745.171	-200.000	-0.025	0.166
-744.156	800.000	0.071	0.302
-743.142	485.924	-0.063	0.146
-742.127	800.000	0.070	0.262
-741.112	48.219	0.158	0.151
-740.098	-9.386	0.032	-0.022
-739.083	107.085	-0.273	-0.331
-738.069	-46.183	-0.310	-0.156
-737.054	800.000	-0.022	0.086
-736.039	203.235	-0.168	-0.266
-735.025	35.244	0.311	-0.278
-734.010	134.592	-0.141	-0.187
-732.996	-200.000	-0.022	0.226
-731.981	-144.484	-0.171	-0.016
-730.966	191.218	0.085	0.130
-729.952	-153.707	-0.279	0.020
-728.937	-133.034	-0.209	0.027
-727.923	800.000	0.013	0.053
-726.908	185.133	-0.125	-0.190
-725.894	-32.297	-0.219	-0.125
-724.879	763.816	-0.077	0.213
-723.864	0.340	-0.080	0.058
-722.850	-200.000	0.003	0.211
-721.835	-128.782	0.243	-0.035
-720.821	-106.404	-0.176	0.040
-719.806	-148.384	-0.449	-0.038
-718.791	150.050	-0.289	0.399
-717.777	-61.877	0.098	0.042
-716.762	108.226	0.218	0.265
-715.748	-109.674	-0.295	-0.063
-714.733	75.663	0.082	0.088
-713.718	192.899	0.078	0.120
-712.704	-79.788	-0.363	0.125
-711.689	498.337	-0.058	0.136
-710.675	-200.000	-0.056	-0.419
-709.660	203.004	0.145	-0.228
-708.645	-102.340	-0.252	0.062
-707.631	-200.000	-0.003	-0.077
-706.616	31.372	0.179	0.157
-705.602	-99.036	0.233	-0.060
-704.587	102.826	-0.283	0.338
-703.572	-200.000	0.015	0.270
-702.558	800.000	-0.092	-0.258
-701.543	-141.592	0.238	-0.024
-700.529	-200.000	-0.016	-0.092
-699.514	-86.342	0.106	-0.033
-698.499	20.917	-0.185	-0.153
-697.485	249.180	-0.200	0.346
-696.470	-200.000	-0.068	0.574
-695.456	116.411	-0.179	-0.224
-694.441	266.770	-0.160	-0.285
-693.426	-64.413	-0.348	-0.144
-692.412	384.775	-0.099	-0.207
-691.397	-200.000	-0.014	0.263
-690.383	-200.000	-0.026	0.238
-689.368	153.342	-0.073	0.102
-688.354	8.041	0.095	0.072
-687.339	-115.358	0.231	0.045
-686.324	-200.000	-0.007	0.414
-685.310	-64.646	-0.171	0.071
-684.295	800.000	0.121	-0.381
-683.281	247.725	0.091	-0.157
-682.266	709.740	0.029	0.079
-681.251	-91.548	-0.109	0.032
-680.237	-146.138	-0.292	-0.026
-679.222	41.992	0.125	-0.116
-678.208	124.679	0.087	-0.111
-677.193	-173.147	0.253	0.008
-676.178	-158.950	-0.345	-0.020
-675.164	376.550	-0.014	0.029
-674.149	-22.977	-0.118	0.072
-673.135	57.815	-0.147	-0.147
-672.120	-55.902	0.139	0.063
-671.105	15.135	0.106	-0.085
-670.091	-200.000	0.036	0.195
-669.076	-158.953	0.420	-0.024
-668.062	-42.365	-0.472	-0.245
-667.047	800.000	-0.078	-0.246
-666.032	133.397	-0.059	0.078
-665.018	-200.000	-0.010	-0.082
-664.003	-63.875	0.349	-0.145
-662.989	124.806	0.203	0.260
-661.974	136.331	0.133	-0.176
-660.959	-200.000	-0.028	-0.367
-659.945	800.000	-0.028	0.099
-658.930	-200.000	-0.028	-0.283
-657.916	-200.000	-0.043	-0.298
-656.901	-89.704	-0.326	-0.097
-655.886	-13.295	-0.378	0.250
-654.872	-51.089	-0.245	-0.117
-653.857	-200.000	0.008	-0.061
-652.843	-200.000	-0.007	0.185
-651.828	800.000	-0.074	0.217
-650.814	212.729	0.343	0.551
-649.799	-16.788	0.111	-0.072
-648.784	-200.000	0.014	0.159
-647.770	-76.280	-0.119	-0.043
-646.755	-200.000	0.144	-0.001
-645.741	19.568	0.066	0.054
-644.726	25.551	0.171	0.144
-643.711	479.798	0.031	0.071
-642.697	-200.000	-0.008	0.053
-641.682	-49.673	-0.146	-0.071
-640.668	-25.140	0.223	-0.134
-639.653	326.228	-0.056	-0.109
-638.638	-200.000	-0.027	-0.211
-637.624	-76.969	0.023	-0.008
-636.609	38.064	-0.132	0.120
-635.595	-126.636	-0.241	0.036
-634.580	800.000	-0.063	-0.182
-633.565	800.000	0.118	0.354
-632.551	51.627	-0.171	0.165
-631.536	-197.216	0.196	-0.001
-630.522	32.727	-0.056	-0.049
-629.507	-50.558	0.096	-0.046
-628.492	-107.987	0.206	0.045
-627.478	-104.647	-0.206	-0.048
-626.463	-101.324	-0.324	-0.080
-625.449	727.768	0.038	-0.103
-624.434	-44.558	0.286	-0.145
-623.419	-24.244	-0.145	0.088
-622.405	-31.192	0.208	-0.119
-621.390	800.000	-0.045	-0.175
-620.376	-66.403	-0.147	0.059
-619.361	-92.172	0.013	-0.004
-618.346	67.988	-0.225	-0.234
-617.332	-160.764	-0.241	0.013
-616.317	-133.829	0.147	0.019
-615.303	-200.000	0.288	0.000
-614.288	423.970	0.070	-0.152
-613.273	-67.788	-0.051	-0.020
-612.259	89.073	-0.165	0.186
-611.244	699.268	-0.110	-0.293
-610.230	110.406	-0.149	-0.182
-609.215	-200.000	-0.001	0.098
-608.201	-29.577	0.085	0.049
-607.186	-113.384	-0.481	0.096
-606.171	231.617	0.140	-0.233
-605.157	58.294	0.122	-0.122
-604.142	-88.406	-0.155	-0.047
-603.128	-116.150	0.060	-0.011
-602.113	1.523	-0.076	0.056
-601.098	26.714	0.147	-0.125
-600.084	174.866	0.083	-0.123
-599.069	800.000	-0.078	0.247
-598.055	50.485	0.136	0.131
-597.040	-200.000	0.047	0.259
-596.025	-200.000	0.010	0.050
-595.011	-89.828	0.292	-0.087
-593.996	-194.252	-0.122	-0.001
-592.982	-40.156	0.193	-0.102
-591.967	-26.109	-0.234	-0.140
-590.952	-72.208	0.259	-0.098
-589.938	-151.927	-0.173	-0.013
-588.923	-78.373	-0.440	-0.153
-587.909	23.908	-0.213	0.178
-586.894	11.196	0.120	0.093
-585.879	144.900	-0.255	-0.347
-584.865	21.467	0.055	0.045
-583.850	352.650	0.122	0.245
-582.836	205.010	0.223	-0.352
-581.821	-200.000	-0.039	-0.195
-580.806	-110.759	0.243	0.051
-579.792	800.000	0.049	0.145
-578.777	6.111	-0.140	0.105
-577.763	547.730	0.039	0.094
-576.748	30.008	0.108	-0.094
-575.733	67.113	-0.173	0.179
-574.719	-64.108	0.229	-0.095
-573.704	166.584	-0.130	0.187
-572.690	-200.000	-0.056	0.324
-571.675	-3.284	-0.284	0.200
-570.661	-200.000	0.070	0.377
-569.646	-72.085	0.174	-0.066
-568.631	-79.782	-0.130	0.045
-567.617	-200.000	-0.070	0.326
-566.602	2.016	-0.130	-0.095
-565.588	-70.904	-0.144	-0.055
-564.573	124.126	-0.012	0.016
-563.558	48.705	-0.072	0.069
-562.544	-28.032	-0.471	-0.277
-561.529	213.874	0.050	0.080
-560.515	-20.950	-0.294	0.182
-559.500	-200.000	-0.009	0.068
-558.485	-76.498	0.086	-0.031
-557.471	6.807	-0.117	0.089
-556.456	159.778	-0.222	-0.313
-555.442	-96.749	0.221	-0.059
-554.427	46.405	-0.147	-0.138
-553.412	-200.000	0.028	0.135
-552.398	800.000	-0.031	-0.100
-551.383	-162.218	-0.175	-0.009
-550.369	800.000	-0.011	0.033
-549.354	166.752	-0.133	-0.191
-548.339	-73.873	-0.245	-0.090
-547.325	-200.000	-0.015	0.233
-546.310	193.593	-0.261	-0.400
-545.296	-3.258	0.151	-0.107
-544.281	221.986	0.052	-0.085
-543.266	800.000	0.056	0.191
-542.252	800.000	-0.102	0.287
-541.237	800.000	-0.078	0.332
-540.223	-22.337	0.357	0.219
-539.208	654.860	-0.060	-0.156
-538.193	754.061	0.071	0.195
-537.179	-200.000	-0.007	0.046
-536.164	11.393	-0.186	-0.145
-535.150	800.000	-0.024	0.087
-534.135	-77.403	0.164	0.058
-533.121	-200.000	0.043	0.341
-532.106	-178.892	0.371	0.009
-531.091	-200.000	-0.009	-0.442
-530.077	-200.000	-0.009	-0.248
-529.062	-151.192	0.137	0.010
-528.048	20.221	0.102	-0.083
-527.033	-13.463	0.216	-0.142
-526.018	800.000	0.071	0.207
-525.004	800.000	-0.033	0.131
-523.989	800.000	-0.037	-0.130
-522.975	-200.000	-0.031	-0.336
-521.960	12.530	0.244	-0.191
-520.945	-200.000	0.062	0.358
-519.931	-200.000	0.005	-0.104
-518.916	-85.710	-0.343	-0.108
-517.902	800.000	0.110	0.429
-516.887	-87.448	-0.180	0.055
-515.872	-200.000	-0.006	0.221
-514.858	364.313	-0.118	0.240
-513.843	-41.497	0.242	0.126
-512.829	-69.340	0.276	-0.107
-511.814	0.735	-0.270	-0.195
-510.799	91.693	0.068	-0.078
-509.785	-87.805	0.071	-0.022
-508.770	-87.206	0.094	-0.029
-507.756	-106.146	0.290	0.066
-506.741	-103.313	0.137	0.033
-505.726	-57.053	-0.241	0.108
-504.712	-116.741	-0.198	0.037
-503.697	-90.588	-0.194	0.057
-502.683	50.644	-0.212	-0.203
-501.668	191.664	-0.032	-0.048
-500.653	477.119	0.087	-0.198
-499.639	800.000	-0.049	-0.144
-498.624	-137.552	-0.222	-0.025
-497.610	-56.609	0.144	0.065
-496.595	-200.000	0.035	-0.230
-495.581	-178.922	-0.470	0.011
-494.566	-102.853	0.127	0.031
-493.551	-200.000	-0.030	-0.182
-492.537	800.000	0.063	-0.259
-491.522	-64.682	-0.531	-0.218
-490.508	-200.000	-0.059	-0.288
-489.493	67.330	-0.157	0.162
-488.478	800.000	0.029	0.091
-487.464	171.546	-0.155	0.224
-486.449	-200.000	-0.014	0.080
-485.435	-200.000	-0.006	0.064
-484.420	800.000	0.114	-0.361
-483.405	-200.000	-0.024	0.132
-482.391	35.380	0.269	-0.239
-481.376	-34.340	-0.094	0.052
-480.362	-66.629	-0.141	-0.056
-479.347	344.667	-0.063	0.125
-478.332	-110.208	0.383	-0.081
-477.318	-187.740	0.195	0.003
-476.303	-80.497	-0.373	0.126
-475.289	-88.949	-0.167	-0.050
-474.274	-94.216	0.223	-0.062
-473.259	-69.076	-0.392	-0.153
-472.245	786.029	0.098	0.272
-471.230	-95.483	-0.051	0.014
-470.216	573.778	-0.062	0.152
-469.201	38.956	-0.350	-0.316
-468.186	343.633	0.028	-0.055
-467.172	228.219	0.173	-0.285
-466.157	-60.700	-0.156	0.067
-465.143	-52.257	-0.147	0.069
-464.128	-39.319	-0.180	-0.095
-463.113	800.000	0.055	-0.242
-462.099	-200.000	-0.031	-0.223
-461.084	-200.000	-0.024	0.160
-460.070	137.450	-0.174	-0.231
-459.055	431.137	-0.068	0.149
-458.040	-122.411	0.091	-0.015
-457.026	-48.959	0.081	-0.039
-456.011	2.571	0.095	-0.070
-454.997	-200.000	-0.005	0.095
-453.982	133.176	-0.114	0.149
-452.968	85.803	0.250	0.278
-451.953	166.607	0.198	0.283
-450.938	314.820	-0.125	-0.238
-449.924	-69.934	-0.125	-0.048
-448.909	-83.233	0.246	-0.080
-447.895	-153.257	-0.284	0.020
-446.880	209.672	0.115	-0.182
-445.865	-200.000	-0.001	0.389
-444.851	-200.000	-0.017	-0.391
-443.836	-48.426	0.172	0.084
-442.822	-147.084	0.243	0.021
-441.807	337.385	-0.070	0.137
-440.792	180.001	-0.102	-0.151
-439.778	30.432	0.320	0.276
-438.763	341.390	-0.046	-0.091
-437.749	532.153	-0.057	-0.135
-436.734	144.892	-0.182	0.245
-435.719	-200.000	0.017	0.356
-434.705	800.000	0.048	0.162
-433.690	-200.000	0.009	-0.124
-432.676	-28.394	0.315	-0.183
-431.661	653.303	0.089	-0.231
-430.646	-117.247	-0.068	0.013
-429.632	-119.432	0.236	0.041
-428.617	-31.875	-0.205	-0.116
-427.603	49.564	0.182	0.173
-426.588	485.734	-0.078	0.178
-425.573	131.152	-0.058	-0.075
-424.559	-200.000	-0.008	-0.193
-423.544	800.000	-0.066	-0.188
-422.530	53.117	0.079	0.076
-421.515	-200.000	-0.001	0.217
-420.500	-171.468	-0.082	-0.003
-419.486	251.371	0.097	0.167
-418.471	-200.000	-0.043	0.265
-417.457	-17.417	-0.178	0.113
-416.442	-132.308	0.205	-0.027
-415.428	75.767	0.157	0.168
-414.413	-175.154	0.035	-0.001
-413.398	81.321	-0.153	-0.167
-412.384	-118.505	-0.070	-0.013
-411.369	123.808	0.121	0.153
-410.355	132.091	-0.216	0.280
-409.340	-4.366	-0.107	-0.075
-408.325	-128.405	-0.111	0.016
-407.311	57.185	0.122	-0.120
-406.296	234.859	0.046	-0.077
-405.282	155.259	0.038	0.052
-404.267	800.000	0.037	-0.106
-403.252	-200.000	0.031	-0.214
-402.238	-133.592	0.360	-0.045
-401.223	-32.806	0.146	0.082
-400.209	-20.333	0.367	-0.228
-399.194	-20.359	0.135	0.084
-398.179	-44.778	-0.325	-0.164
-397.165	20.303	-0.129	-0.105
-396.150	80.641	0.273	0.297
-395.136	-21.841	0.211	-0.130
-394.121	800.000	-0.044	0.136
-393.106	382.485	-0.090	0.187
-392.092	-46.856	0.306	0.151
-391.077	-3.471	0.155	0.109
-390.063	800.000	-0.013	-0.045
-389.048	-200.000	0.007	-0.090
-388.033	682.918	0.013	-0.035
-387.019	-12.848	0.064	0.042
-386.004	171.346	0.174	-0.252
-384.990	-200.000	0.025	-0.307
-383.975	146.246	-0.211	0.285
-382.960	579.445	0.158	0.391
-381.946	800.000	-0.062	0.210
-380.931	313.357	-0.178	0.338
-379.917	-0.023	0.144	-0.103
-378.902	559.809	-0.086	0.208
-377.888	116.473	-0.330	0.408
-376.873	185.068	-0.119	0.177
-375.858	67.686	0.041	-0.042
-374.844	-149.177	0.470	0.038
-373.829	800.000	-0.074	-0.230
-372.815	-173.603	-0.168	0.005
-371.800	-124.545	-0.377	-0.059
-370.785	-200.000	0.004	-0.028
-369.771	75.576	-0.183	0.194
-368.756	800.000	0.160	-0.496
-367.742	209.270	-0.068	-0.107
-366.727	-96.951	0.095	0.025
-365.712	-150.918	0.137	0.010
-364.698	-200.000	-0.015	-0.178
-363.683	-89.292	0.060	0.018
-362.669	-105.291	-0.314	0.072
-361.654	224.047	-0.102	0.165
-360.639	7.387	-0.254	-0.191
-359.625	800.000	0.032	0.125
-358.610	-78.696	-0.219	0.075
-357.596	-136.069	-0.140	0.017
-356.581	-91.736	-0.157	-0.045
-355.566	-9.477	-0.095	0.064
-354.552	-200.000	0.065	-0.591
-353.537	800.000	-0.108	0.302
-352.523	-83.284	0.139	-0.045
-351.508	-200.000	0.072	0.384
-350.493	40.152	0.222	0.201
-349.479	-200.000	0.040	-0.190
-348.464	800.000	-0.086	0.307
-347.450	372.926	0.041	-0.085
-346.435	20.884	0.200	-0.163
-345.420	321.403	0.206	-0.394
-344.406	174.054	-0.184	-0.267
-343.391	-200.000	0.050	-0.244
-342.377	78.751	-0.407	-0.437
-341.362	-67.214	-0.179	-0.071
-340.348	-58.044	-0.188	0.083
-339.333	174.054	-0.176	0.255
-338.318	800.000	-0.037	-0.135
-337.304	-19.151	-0.204	0.128
-336.289	197.697	0.019	0.029
-335.275	333.913	-0.113	0.220
-334.260	15.516	-0.174	0.137
-333.245	667.251	-0.129	0.335
-332.231	-200.000	-0.018	0.190
-331.216	800.000	0.036	0.129
-330.202	30.832	-0.132	-0.114
-329.187	-57.373	-0.093	0.041
-328.172	-162.406	-0.344	-0.017
-327.158	800.000	-0.011	-0.044
-326.143	145.266	0.069	-0.092
-325.129	-40.666	0.216	0.113
-324.114	249.662	0.025	-0.043
-323.099	-8.009	-0.142	-0.096
-322.085	-175.712	-0.116	0.003
-321.070	800.000	-0.014	0.053
-320.056	754.698	-0.170	0.462
-319.041	155.657	-0.288	0.399
-318.026	-200.000	0.017	0.210
-317.012	-79.808	-0.296	0.100
-315.997	-81.135	0.366	0.122
-314.983	-200.000	-0.003	0.226
-313.968	-134.555	0.258	0.032
-312.953	19.032	0.257	0.207
-311.939	-154.523	-0.054	0.004
-310.924	40.049	-0.294	-0.266
-309.910	-152.836	0.375	-0.027
-308.895	800.000	-0.080	-0.234
-307.880	-200.000	0.068	0.373
-306.866	123.130	0.191	0.241
-305.851	-133.728	0.183	0.023
-304.837	-200.000	0.029	-0.499
-303.822	-12.470	-0.183	0.120
-302.807	-200.000	-0.088	-0.431
-301.793	-180.818	0.057	-0.001
-300.778	-155.490	0.148	-0.010
-299.764	-100.821	-0.166	0.041
-298.749	655.379	-0.106	0.272
-297.735	-92.948	0.220	-0.062
-296.720	728.775	0.050	-0.135
-295.705	198.657	-0.196	-0.301
-294.691	-52.220	0.179	-0.083
-293.676	-137.785	0.079	0.009
-292.662	148.961	0.109	-0.148
-291.647	-59.873	-0.099	-0.043
-290.632	-117.854	0.367	-0.066
-289.618	238.381	0.153	-0.255
-288.603	12.535	0.164	0.127
-287.589	800.000	-0.044	-0.143
-286.574	121.670	0.152	-0.191
-285.559	54.671	0.196	-0.189
-284.545	11.810	0.236	0.182
-283.530	83.636	-0.123	0.135
-282.516	800.000	0.045	-0.133
-281.501	800.000	-0.035	0.124
-280.486	-200.000	-0.031	0.283
-279.472	154.663	0.074	-0.102
-278.457	-200.000	-0.020	0.173
-277.443	-13.452	-0.114	-0.074
-276.428	338.202	0.089	-0.173
-275.413	190.626	0.085	0.128
-274.399	-128.808	0.299	-0.042
-273.384	82.308	0.108	0.117
-272.370	-41.724	-0.205	0.106
-271.355	-200.000	0.038	-0.220
-270.340	-200.000	-0.054	-0.237
-269.326	-200.000	-0.012	0.114
-268.311	-132.903	0.218	0.028
-267.297	91.695	-0.089	0.100
-266.282	-20.993	0.143	0.088
-265.267	-69.545	-0.171	-0.066
-264.253	-112.027	0.205	0.041
-263.238	-155.796	-0.137	0.009
-262.224	800.000	0.057	-0.228
-261.209	-13.746	0.225	-0.146
-260.195	-200.000	0.057	-0.336
-259.180	-26.932	-0.250	0.146
-258.165	663.867	0.040	-0.103
-257.151	-11.888	0.304	0.200
-256.136	6.848	0.088	-0.066
-255.122	340.629	-0.155	-0.303
-254.107	396.296	-0.159	-0.333
-253.092	-65.184	-0.023	-0.009
-252.078	-200.000	-0.040	-0.258
-251.063	-200.000	-0.025	0.307
-250.049	638.766	-0.059	0.150
-249.034	-200.000	-0.001	-0.041
-248.019	11.603	0.112	0.086
-247.005	-200.000	0.014	-0.101
-245.990	261.616	-0.150	0.260
-244.976	43.341	0.118	-0.108
-243.961	-77.950	0.236	-0.082
-242.946	92.394	-0.109	0.123
-241.932	88.634	0.081	0.090
-240.917	800.000	0.154	-0.512
-239.903	5.535	0.335	0.248
-238.888	-163.080	0.058	-0.003
-237.873	579.097	-0.040	0.097
-236.859	3.565	0.185	0.135
-235.844	800.000	-0.021	0.066
-234.830	102.548	0.074	0.086
-233.815	-127.724	0.065	0.009
-232.800	-110.114	0.162	0.034
-231.786	164.623	0.164	0.232
-230.771	85.930	0.045	0.050
-229.757	800.000	-0.083	0.255
-228.742	-93.193	-0.486	0.135
-227.727	-119.417	0.276	0.048
-226.713	89.033	0.052	0.058
-225.698	-200.000	-0.005	0.036
-224.684	-159.532	-0.285	-0.016
-223.669	314.976	-0.098	-0.184
-222.655	52.019	0.166	0.158
-221.640	284.932	0.028	0.050
-220.625	-88.986	-0.253	-0.075
-219.611	-94.130	0.171	0.047
-218.596	-36.660	0.235	-0.126
-217.582	133.151	0.235	-0.304
-216.567	95.986	0.216	-0.247
-215.552	-200.000	0.001	0.116
-214.538	-192.992	-0.417	0.004
-213.523	-124.637	-0.319	0.049
-212.509	713.088	-0.058	0.154
-211.494	-77.999	-0.154	0.053
-210.479	-140.823	-0.346	-0.036
-209.465	-32.841	-0.309	0.172
-208.450	-76.673	0.211	0.074
-207.436	-152.811	-0.189	0.013
-206.421	439.008	0.073	0.160
-205.406	175.510	-0.073	0.106
-204.392	-200.000	0.071	-0.375
-203.377	800.000	0.082	0.252
-202.363	-194.552	0.257	-0.002
-201.348	800.000	0.023	-0.099
-200.333	-166.754	0.286	-0.012
-199.319	800.000	0.041	0.140
-198.304	-22.254	0.202	0.122
-197.290	-54.496	-0.224	0.101
-196.275	-50.439	0.172	-0.081
-195.260	-101.858	0.340	0.082
-194.246	491.686	0.163	-0.373
-193.231	-22.364	0.070	0.043
-192.217	95.295	-0.140	0.159
-191.202	-96.596	0.303	0.080
-190.187	-158.141	-0.098	-0.006
-189.173	-141.509	0.484	0.049
-188.158	39.405	-0.141	-0.126
-187.144	-200.000	-0.051	-0.384
-186.129	-84.596	0.179	0.056
-185.114	-92.165	-0.149	0.042
-184.100	133.104	-0.203	0.262
-183.085	164.979	0.088	-0.124
-182.071	-200.000	-0.020	0.209
-181.056	-200.000	0.021	-0.104
-180.042	-200.000	0.021	-0.214
-179.027	-200.000	0.021	-0.125
-178.012	348.683	0.165	-0.324
-176.998	-96.712	0.141	0.037
-175.983	-60.134	-0.028	-0.012
-174.969	-200.000	-0.009	0.070
-173.954	14.491	-0.119	-0.093
-172.939	-49.266	0.119	0.057
-171.925	143.254	-0.108	-0.144
-170.910	-42.276	-0.026	-0.013
-169.896	-81.345	0.272	-0.090
-168.881	800.000	0.025	-0.088
-167.866	256.346	-0.155	0.265
-166.852	-161.821	-0.303	-0.015
-165.837	6.648	-0.313	0.233
-164.823	800.000	-0.072	0.292
-163.808	-52.132	0.150	-0.069
-162.793	-200.000	0.011	-0.289
-161.779	427.622	-0.053	0.114
-160.764	213.170	-0.017	0.026
-159.750	-15.999	0.168	0.107
-158.735	449.970	-0.149	-0.328
-157.720	40.465	0.089	-0.080
-156.706	-200.000	-0.068	-0.339
-155.691	-1.957	-0.146	-0.103
-154.677	69.934	0.163	-0.168
-153.662	-132.013	0.194	0.025
-152.647	-63.859	0.160	0.065
-151.633	-70.092	0.314	0.119
-150.618	800.000	0.122	-0.346
-149.604	-52.225	-0.360	0.167
-148.589	-200.000	-0.052	0.305
-147.574	23.021	0.292	0.239
-146.560	-81.005	0.302	-0.100
-145.545	211.853	0.022	-0.034
-144.531	146.034	-0.222	0.298
-143.516	67.339	0.187	0.191
-142.502	-92.307	0.124	-0.035
-141.487	90.658	0.120	-0.135
-140.472	-24.824	-0.110	-0.065
-139.458	41.920	-0.117	0.106
-138.443	-200.000	-0.007	-0.167
-137.429	-154.477	-0.123	0.008
-136.414	-7.325	-0.414	0.280
-135.399	-200.000	-0.017	0.292
-134.385	-57.496	-0.072	0.032
-133.370	800.000	0.027	-0.082
-132.356	-49.972	0.239	0.113
-131.341	73.885	0.414	-0.433
-130.326	-200.000	0.000	-0.402
-129.312	778.863	0.079	0.215
-128.297	-200.000	-0.002	-0.235
-127.283	138.044	-0.061	0.079
-126.268	-53.267	-0.270	0.124
-125.253	-200.000	0.042	0.271
-124.239	396.044	-0.053	0.111
-123.224	-27.739	0.263	-0.152
-122.210	120.523	-0.055	0.068
-121.195	-52.675	0.342	0.158
