DTS Sentinel unit serial number:	SN413079Multiplexer serial number:	ORYXHardware model number:	OX4-SRSoftware version number:	ORYX F/W v4.00 Oryx Data Collector v3.7.2.0data status	okinstallation	princeton_trtdifferential loss correction	single-endedforward channel	channel 3reverse channel	N/Adate	2019/09/14time	20:12:35forward acquisition time	60.00reverse acquisition time	0.00gamma	496.2192k internal	0.2314k external	0.2314temperature offset calibration	1.0009default loss term (dB/km)	0.3790temperature slope calibration	1.0000multiplexer offset coefficient	1.0000multiplexer slope coefficient	1.0000fibre end	0.00T internal ref (°C)	33.83T ext. ref 1 (°C)	4.86T ext. ref 2 (°C)	28.25length (m)	temperature (°C)	Stokes	anti-Stokes-747.200	-93.143	0.438	0.124
-746.185	-200.000	-0.017	0.191
-745.171	451.546	0.073	-0.164
-744.156	104.118	-0.079	-0.094
-743.142	-16.619	-0.343	0.220
-742.127	138.472	-0.008	-0.010
-741.112	-78.168	-0.115	-0.040
-740.098	-84.308	-0.284	0.091
-739.083	110.063	-0.056	-0.069
-738.069	43.250	-0.038	0.036
-737.054	-49.824	-0.309	0.149
-736.039	-126.564	-0.139	-0.021
-735.025	4.694	-0.083	0.062
-734.010	6.867	-0.038	-0.029
-732.996	-151.706	-0.059	-0.004
-731.981	352.901	0.114	-0.229
-730.966	-100.951	-0.366	0.091
-729.952	-137.570	-0.283	-0.032
-728.937	-69.458	0.010	0.004
-727.923	-133.087	-0.361	-0.046
-726.908	66.951	-0.289	-0.299
-725.894	-81.104	-0.320	-0.107
-724.879	-200.000	-0.051	-0.235
-723.864	316.987	0.220	-0.421
-722.850	352.345	0.222	-0.445
-721.835	604.182	-0.125	-0.315
-720.821	4.103	-0.473	-0.351
-719.806	-200.000	-0.010	-0.123
-718.791	-122.485	0.296	-0.049
-717.777	795.658	-0.124	0.346
-716.762	800.000	-0.055	0.182
-715.748	-25.617	0.140	-0.084
-714.733	401.003	-0.219	0.465
-713.718	-141.418	-0.211	-0.022
-712.704	-191.644	-0.377	-0.004
-711.689	800.000	-0.031	-0.135
-710.675	-107.469	-0.263	0.058
-709.660	250.583	-0.099	-0.170
-708.645	-91.820	0.109	0.031
-707.631	-59.460	0.042	0.018
-706.616	173.547	0.019	0.027
-705.602	-45.275	-0.317	-0.159
-704.587	2.174	-0.156	-0.114
-703.572	-200.000	0.072	-0.342
-702.558	403.434	0.108	0.229
-701.543	318.228	0.166	0.318
-700.529	233.311	-0.083	-0.138
-699.514	-131.424	-0.303	-0.041
-698.499	-140.990	-0.191	0.020
-697.485	-200.000	-0.027	-0.301
-696.470	79.701	0.013	0.015
-695.456	-50.382	-0.247	0.118
-694.441	493.261	0.062	-0.145
-693.426	422.029	-0.046	0.101
-692.412	-200.000	-0.026	-0.229
-691.397	8.548	0.075	-0.057
-690.383	17.953	-0.198	0.160
-689.368	31.963	0.092	-0.080
-688.354	-136.793	-0.376	-0.044
-687.339	-65.501	-0.205	0.083
-686.324	265.931	0.148	-0.261
-685.310	8.295	-0.183	0.139
-684.295	800.000	0.033	0.109
-683.281	-61.210	-0.079	0.034
-682.266	-68.221	-0.222	0.087
-681.251	800.000	0.047	0.172
-680.237	-135.904	-0.423	0.050
-679.222	-200.000	-0.037	-0.327
-678.208	800.000	-0.032	0.102
-677.193	299.169	-0.285	0.531
-676.178	2.097	-0.131	-0.096
-675.164	115.178	-0.187	-0.231
-674.149	-65.820	0.057	-0.023
-673.135	-101.051	0.109	-0.027
-672.120	219.092	0.089	0.144
-671.105	-200.000	-0.028	0.316
-670.091	-82.029	-0.331	0.109
-669.076	-200.000	0.053	-0.250
-668.062	-70.704	0.186	0.071
-667.047	-200.000	-0.045	-0.219
-666.032	-16.411	-0.194	0.124
-665.018	-200.000	-0.008	-0.120
-664.003	2.497	-0.120	0.088
-662.989	800.000	-0.016	0.059
-661.974	-114.774	0.175	0.034
-660.959	-6.242	-0.015	0.011
-659.945	-72.734	0.069	-0.026
-658.930	-200.000	-0.044	-0.358
-657.916	-21.289	-0.062	0.038
-656.901	800.000	-0.106	0.412
-655.886	-129.316	-0.078	0.011
-654.872	800.000	0.061	0.172
-653.857	-58.124	0.288	-0.127
-652.843	-88.133	-0.183	0.055
-651.828	222.925	-0.053	0.087
-650.814	-113.061	-0.250	-0.050
-649.799	-0.881	0.065	0.047
-648.784	42.985	0.107	0.099
-647.770	-26.501	-0.092	0.054
-646.755	2.060	0.222	0.162
-645.741	800.000	-0.062	0.201
-644.726	-200.000	0.015	0.224
-643.711	-146.432	-0.199	0.018
-642.697	-23.164	-0.314	0.191
-641.682	103.586	-0.118	-0.140
-640.668	73.418	-0.081	-0.085
-639.653	-200.000	-0.007	0.210
-638.638	-168.251	0.134	-0.005
-637.624	800.000	-0.091	-0.257
-636.609	7.290	0.078	0.059
-635.595	-14.124	-0.296	-0.193
-634.580	-200.000	0.014	-0.435
-633.565	-120.335	-0.327	0.056
-632.551	-176.957	-0.065	-0.002
-631.536	-168.661	-0.195	0.007
-630.522	-160.593	0.218	-0.012
-629.507	266.621	-0.128	0.226
-628.492	32.661	0.072	0.063
-627.478	-193.088	0.488	-0.004
-626.463	-81.496	-0.538	0.179
-625.449	88.528	-0.252	0.283
-624.434	293.919	-0.012	-0.021
-623.419	800.000	-0.017	-0.072
-622.405	23.765	-0.285	0.237
-621.390	-122.536	0.191	-0.031
-620.376	457.126	0.054	0.122
-619.361	-50.197	-0.051	0.024
-618.346	800.000	-0.059	0.223
-617.332	-70.115	0.361	0.139
-616.317	190.549	-0.172	-0.260
-615.303	-128.088	0.098	-0.014
-614.288	-123.005	-0.615	0.100
-613.273	64.090	-0.012	-0.012
-612.259	800.000	0.073	0.253
-611.244	-200.000	0.011	-0.129
-610.230	-77.307	-0.155	0.054
-609.215	800.000	-0.036	-0.126
-608.201	728.304	0.105	-0.283
-607.186	47.455	-0.064	0.060
-606.171	-22.701	0.159	-0.097
-605.157	325.698	-0.139	-0.268
-604.142	-105.778	0.113	0.026
-603.128	-115.426	-0.201	-0.038
-602.113	278.795	0.152	-0.272
-601.098	31.274	-0.208	-0.180
-600.084	60.286	-0.059	-0.059
-599.069	-144.625	-0.112	0.010
-598.055	13.483	0.178	-0.139
-597.040	-78.615	-0.006	-0.002
-596.025	-200.000	0.034	-0.258
-595.011	-13.813	-0.255	-0.166
-593.996	-102.818	-0.032	0.008
-592.982	321.505	-0.063	-0.121
-591.967	165.357	-0.113	0.161
-590.952	315.630	-0.032	-0.061
-589.938	-30.275	0.178	-0.102
-588.923	-35.751	0.212	0.116
-587.909	565.329	-0.091	0.223
-586.894	-107.954	-0.076	0.017
-585.879	-200.000	-0.029	-0.325
-584.865	231.703	-0.114	0.188
-583.850	-57.104	0.182	-0.081
-582.836	-23.819	0.274	-0.166
-581.821	79.313	-0.310	-0.335
-580.806	-200.000	-0.041	0.230
-579.792	682.873	-0.100	0.262
-578.777	551.526	0.038	-0.091
-577.763	562.765	-0.053	-0.130
-576.748	-55.874	0.237	-0.106
-575.733	76.741	0.094	-0.100
-574.719	800.000	0.005	-0.020
-573.704	-78.886	-0.196	0.067
-572.690	-174.871	-0.459	0.013
-571.675	-51.924	0.267	0.125
-570.661	214.197	-0.111	0.177
-569.646	800.000	-0.044	-0.140
-568.631	800.000	-0.063	0.217
-567.617	-200.000	0.016	0.328
-566.602	-170.579	0.100	-0.004
-565.588	251.610	0.192	0.329
-564.573	-41.517	-0.107	-0.056
-563.558	-75.593	0.183	-0.066
-562.544	779.426	-0.071	0.195
-561.529	702.049	-0.122	-0.323
-560.515	466.298	0.106	0.239
-559.500	800.000	-0.129	-0.413
-558.485	-13.084	0.322	-0.210
-557.471	307.168	-0.161	-0.302
-556.456	-200.000	0.009	-0.098
-555.442	482.882	-0.118	0.270
-554.427	-8.521	-0.144	0.098
-553.412	-124.630	-0.098	0.015
-552.398	-34.380	0.164	-0.091
-551.383	800.000	-0.064	0.282
-550.369	-200.000	-0.009	0.195
-549.354	800.000	0.011	-0.034
-548.339	15.958	0.203	0.161
-547.325	-133.459	0.058	-0.007
-546.310	-4.965	0.148	-0.103
-545.296	-89.624	-0.171	-0.050
-544.281	-100.336	0.320	0.080
-543.266	800.000	0.057	0.247
-542.252	-185.547	-0.179	0.003
-541.237	-200.000	0.025	-0.258
-540.223	-200.000	0.027	0.348
-539.208	295.208	0.166	-0.306
-538.193	141.710	-0.197	-0.262
-537.179	139.617	0.092	-0.121
-536.164	-56.695	0.063	0.028
-535.150	-120.947	0.101	-0.017
-534.135	182.431	0.067	0.100
-533.121	750.940	-0.034	-0.094
-532.106	-144.896	-0.405	-0.037
-531.091	800.000	0.089	0.350
-530.077	-200.000	-0.027	0.324
-529.062	800.000	0.081	0.300
-528.048	595.882	0.018	-0.044
-527.033	-145.742	-0.052	-0.005
-526.018	-2.738	0.200	-0.141
-525.004	341.481	-0.111	0.217
-523.989	800.000	0.058	0.207
-522.975	227.884	0.124	-0.203
-521.960	191.552	0.108	0.164
-520.945	-200.000	0.013	0.219
-519.931	91.310	0.028	0.031
-518.916	-200.000	0.045	0.266
-517.902	-200.000	0.012	-0.093
-516.887	616.211	-0.092	0.231
-515.872	340.473	0.037	-0.072
-514.858	-84.593	0.121	-0.038
-513.843	-0.333	0.400	0.286
-512.829	-200.000	0.079	0.471
-511.814	518.493	-0.052	0.122
-510.799	2.403	0.155	-0.113
-509.785	448.180	-0.132	0.292
-508.770	181.955	-0.053	0.079
-507.756	104.439	-0.163	-0.193
-506.741	800.000	0.086	0.367
-505.726	40.399	-0.083	-0.075
-504.712	126.063	-0.031	0.040
-503.697	373.181	-0.073	-0.150
-502.683	-112.848	-0.296	0.059
-501.668	112.275	0.150	-0.183
-500.653	-190.331	0.268	0.003
-499.639	19.166	0.025	0.020
-498.624	24.384	-0.093	-0.077
-497.610	440.540	-0.092	0.202
-496.595	-104.682	0.132	0.030
-495.581	-17.087	-0.220	-0.139
-494.566	-31.356	0.103	0.058
-493.551	-164.656	0.087	-0.004
-492.537	-117.220	-0.118	-0.022
-491.522	-43.577	0.209	0.106
-490.508	-200.000	0.032	-0.183
-489.493	320.993	-0.057	-0.108
-488.478	-73.206	-0.439	0.162
-487.464	296.668	0.066	0.122
-486.449	39.351	0.143	-0.129
-485.435	-82.584	0.203	-0.066
-484.420	42.998	-0.215	-0.197
-483.405	-200.000	-0.021	0.190
-482.391	174.411	-0.109	-0.159
-481.376	82.564	0.184	0.200
-480.362	-36.545	-0.214	-0.116
-479.347	27.163	-0.117	0.098
-478.332	-200.000	-0.024	0.115
-477.318	-44.918	0.300	0.150
-476.303	-26.761	-0.143	0.084
-475.289	53.197	0.121	-0.117
-474.274	-200.000	0.053	0.284
-473.259	-134.752	-0.071	0.009
-472.245	-131.780	-0.154	0.020
-471.230	285.221	0.190	-0.343
-470.216	-104.795	-0.078	0.018
-469.201	-22.929	-0.071	-0.043
-468.186	60.483	-0.342	-0.340
-467.172	-200.000	-0.040	-0.336
-466.157	-110.038	0.121	0.025
-465.143	800.000	0.061	-0.215
-464.128	-25.574	-0.236	-0.139
-463.113	-95.448	0.365	-0.098
-462.099	131.766	0.104	-0.134
-461.084	800.000	0.024	-0.075
-460.070	-200.000	0.022	0.194
-459.055	-150.233	-0.191	-0.015
-458.040	121.148	0.200	-0.250
-457.026	226.064	-0.039	-0.063
-456.011	-24.897	0.140	0.083
-454.997	310.177	-0.103	-0.194
-453.982	402.604	0.212	-0.447
-452.968	-157.548	-0.283	-0.017
-451.953	-145.312	0.202	-0.018
-450.938	-145.407	-0.060	0.005
-449.924	454.567	-0.019	0.043
-448.909	70.720	-0.096	0.099
-447.895	-103.969	-0.049	0.012
-446.880	-13.943	0.334	-0.216
-445.865	3.297	-0.177	-0.129
-444.851	-63.201	-0.128	0.053
-443.836	-200.000	-0.008	0.154
-442.822	-200.000	0.002	-0.117
-441.807	-9.987	-0.355	-0.237
-440.792	717.464	-0.026	-0.070
-439.778	109.401	-0.159	-0.191
-438.763	-69.884	-0.194	0.074
-437.749	215.226	-0.132	0.210
-436.734	74.116	0.135	0.142
-435.719	147.255	-0.122	-0.165
-434.705	-76.574	-0.330	0.116
-433.690	-120.752	-0.227	-0.038
-432.676	-34.685	-0.272	-0.149
-431.661	-124.914	-0.164	0.025
-430.646	394.010	-0.171	0.357
-429.632	-200.000	-0.042	-0.273
-428.617	-55.747	-0.052	0.023
-427.603	-103.450	0.306	0.072
-426.588	353.284	-0.027	0.054
-425.573	145.268	-0.159	-0.213
-424.559	22.931	-0.033	-0.027
-423.544	-59.062	0.174	-0.075
-422.530	-35.997	-0.154	0.083
-421.515	800.000	-0.030	0.130
-420.500	-139.958	0.230	-0.024
-419.486	-77.298	-0.275	-0.096
-418.471	-194.953	-0.166	-0.001
-417.457	-73.969	0.270	-0.098
-416.442	178.180	0.172	-0.252
-415.428	158.034	0.104	-0.144
-414.413	-200.000	-0.017	0.130
-413.398	-70.553	-0.083	0.032
-412.384	800.000	-0.081	-0.326
-411.369	-163.193	-0.247	0.012
-410.355	-137.080	0.368	-0.042
-409.340	-43.841	-0.207	-0.104
-408.325	-35.334	0.140	0.076
-407.311	-71.449	-0.090	0.034
-406.296	42.158	0.200	-0.182
-405.282	141.300	-0.116	0.153
-404.267	595.954	-0.076	-0.187
-403.252	159.202	-0.076	0.106
-402.238	413.713	0.148	-0.314
-401.223	800.000	0.073	-0.252
-400.209	-200.000	-0.036	0.231
-399.194	-120.632	0.125	0.021
-398.179	-115.898	-0.303	0.057
-397.165	270.184	-0.037	0.065
-396.150	800.000	-0.063	-0.244
-395.136	-200.000	0.015	-0.084
-394.121	-79.335	-0.167	0.056
-393.106	9.810	-0.164	-0.124
-392.092	-200.000	0.028	0.200
-391.077	104.706	0.262	0.308
-390.063	-134.779	0.220	-0.027
-389.048	800.000	0.032	-0.113
-388.033	334.831	-0.050	0.097
-387.019	-79.154	-0.265	-0.090
-386.004	178.051	0.216	0.315
-384.990	-200.000	0.033	-0.199
-383.975	-58.058	-0.235	-0.102
-382.960	357.428	0.084	-0.167
-381.946	-200.000	-0.023	0.273
-380.931	338.506	0.092	-0.178
-379.917	-82.916	-0.234	0.075
-378.902	-53.035	0.224	0.103
-377.888	-200.000	0.033	-0.147
-376.873	56.266	0.243	-0.236
-375.858	-163.551	0.102	-0.005
-374.844	-200.000	-0.013	0.306
-373.829	87.435	-0.077	0.085
-372.815	-200.000	-0.010	-0.077
-371.800	-7.349	-0.168	0.114
-370.785	71.332	0.195	0.202
-369.771	800.000	-0.093	0.309
-368.756	-111.546	-0.108	0.022
-367.742	107.695	-0.086	-0.102
-366.727	-27.038	-0.071	-0.041
-365.712	28.241	0.181	0.152
-364.698	800.000	-0.030	0.107
-363.683	243.812	0.112	-0.187
-362.669	-116.425	-0.469	-0.087
-361.654	132.612	-0.019	0.025
-360.639	454.956	0.030	-0.067
-359.625	-12.360	0.272	0.178
-358.610	-200.000	0.002	0.293
-357.596	-200.000	-0.021	-0.388
-356.581	5.103	0.129	0.095
-355.566	-200.000	0.003	-0.014
-354.552	-90.816	-0.049	0.014
-353.537	-157.489	0.222	-0.013
-352.523	14.172	-0.227	0.176
-351.508	-94.284	-0.137	-0.038
-350.493	508.652	0.092	-0.213
-349.479	502.185	0.169	-0.391
-348.464	-29.960	0.107	0.061
-347.450	-34.462	0.159	-0.087
-346.435	511.819	-0.044	-0.102
-345.420	107.425	-0.082	0.098
-344.406	-124.125	-0.366	-0.057
-343.391	-200.000	-0.003	0.062
-342.377	58.082	0.092	0.090
-341.362	156.419	-0.068	0.094
-340.348	-200.000	-0.013	-0.164
-339.333	-200.000	0.005	-0.255
-338.318	775.162	0.053	0.146
-337.304	-200.000	-0.002	-0.291
-336.289	-115.536	-0.153	0.029
-335.275	-200.000	0.009	0.109
-334.260	-200.000	-0.003	-0.056
-333.245	273.878	0.049	-0.086
-332.231	502.545	-0.110	-0.254
-331.216	509.108	-0.160	-0.370
-330.202	-126.785	-0.096	0.014
-329.187	-112.311	0.451	-0.090
-328.172	-20.065	-0.062	0.038
-327.158	-7.729	0.300	-0.202
-326.143	-200.000	-0.008	0.068
-325.129	127.984	-0.218	-0.276
-324.114	-37.212	0.140	0.075
-323.099	-53.833	0.083	-0.038
-322.085	-200.000	-0.002	-0.095
-321.070	8.686	0.144	-0.108
-320.056	78.668	0.021	-0.022
-319.041	364.647	-0.192	0.386
-318.026	286.894	-0.150	0.271
-317.012	360.905	0.141	-0.282
-315.997	145.203	0.145	-0.193
-314.983	-200.000	0.055	-0.320
-313.968	800.000	0.034	0.100
-312.953	-200.000	0.060	0.283
-311.939	-119.819	0.103	-0.018
-310.924	-78.649	0.046	0.016
-309.910	169.702	-0.145	0.206
-308.895	137.766	-0.121	0.158
-307.880	-7.717	-0.443	0.299
-306.866	-77.505	0.163	0.056
-305.851	133.685	0.185	0.238
-304.837	-19.139	0.483	0.299
-303.822	-118.664	0.047	0.008
-302.807	800.000	-0.115	-0.352
-301.793	800.000	-0.042	-0.129
-300.778	92.809	0.035	0.040
-299.764	-200.000	-0.018	-0.164
-298.749	-200.000	0.008	-0.229
-297.735	-200.000	-0.054	0.266
-296.720	86.724	0.155	-0.171
-295.705	-200.000	-0.033	0.274
-294.691	9.853	-0.146	-0.110
-293.676	-194.065	0.431	0.004
-292.662	-200.000	-0.005	-0.187
-291.647	32.799	0.197	-0.169
-290.632	-7.264	-0.161	0.109
-289.618	103.415	0.165	-0.193
-288.603	330.206	-0.157	0.300
-287.589	647.466	0.129	0.329
-286.574	-152.677	0.100	-0.007
-285.559	649.087	0.046	-0.116
-284.545	-73.490	-0.203	-0.074
-283.530	315.836	-0.080	0.151
-282.516	-51.945	0.381	-0.176
-281.501	111.474	0.171	-0.206
-280.486	-71.440	-0.021	-0.008
-279.472	62.964	-0.145	0.144
-278.457	619.856	0.125	0.314
-277.443	800.000	0.064	0.218
-276.428	-78.780	0.025	-0.009
-275.413	19.143	-0.152	-0.121
-274.399	-200.000	-0.003	-0.156
-273.384	676.245	0.054	-0.139
-272.370	800.000	-0.067	0.235
-271.355	-107.422	0.341	-0.074
-270.340	-57.817	-0.031	-0.014
-269.326	-84.954	0.003	-0.001
-268.311	114.028	0.047	-0.057
-267.297	-76.862	-0.177	0.062
-266.282	97.267	0.245	0.279
-265.267	117.818	-0.236	0.290
-264.253	-200.000	-0.010	0.150
-263.238	-131.992	0.041	0.005
-262.224	-165.486	0.118	0.005
-261.209	-24.095	0.064	0.038
-260.195	53.185	-0.126	0.120
-259.180	-200.000	-0.006	0.047
-258.165	348.210	0.071	-0.139
-257.151	-97.716	0.126	0.033
-256.136	263.857	0.014	0.024
-255.122	362.178	0.184	-0.367
-254.107	283.590	0.095	0.171
-253.092	-37.186	0.199	0.106
-252.078	-200.000	0.004	0.271
-251.063	-122.525	0.218	0.035
-250.049	-119.760	0.010	0.002
-249.034	-200.000	0.000	-0.209
-248.019	241.492	-0.110	-0.183
-247.005	227.884	-0.202	-0.326
-245.990	22.426	0.055	0.045
-244.976	800.000	0.127	-0.436
-243.961	510.238	-0.075	-0.172
-242.946	-69.377	-0.181	-0.069
-241.932	130.802	-0.088	-0.112
-240.917	-72.564	0.332	0.122
-239.903	82.408	-0.221	0.238
-238.888	-33.252	-0.291	0.160
-237.873	12.642	0.064	-0.049
-236.859	-43.889	0.229	0.114
-235.844	124.920	0.164	-0.206
-234.830	28.562	0.167	-0.140
-233.815	66.171	-0.152	0.153
-232.800	-66.762	0.115	-0.045
-231.786	-135.649	-0.139	0.016
-230.771	-19.743	-0.380	-0.234
-229.757	-53.379	-0.218	-0.099
-228.742	-200.000	0.006	0.094
-227.727	-174.233	-0.060	-0.002
-226.713	-24.099	0.207	-0.123
-225.698	-200.000	-0.026	0.134
-224.684	215.457	0.119	0.187
-223.669	-99.391	-0.268	0.067
-222.655	597.519	0.070	0.172
-221.640	-80.476	0.117	-0.039
-220.625	69.302	-0.033	-0.034
-219.611	-103.535	0.159	-0.037
-218.596	-126.607	0.411	-0.060
-217.582	14.890	0.145	0.113
-216.567	169.317	0.271	0.384
-215.552	176.093	0.201	0.290
-214.538	7.526	0.241	0.179
-213.523	148.835	0.156	-0.209
-212.509	-91.327	-0.335	0.095
-211.494	52.996	-0.139	-0.132
-210.479	-113.007	0.255	-0.050
-209.465	346.460	-0.080	-0.156
-208.450	-200.000	-0.043	-0.252
-207.436	-200.000	0.006	-0.112
-206.421	-21.249	0.228	0.139
-205.406	10.745	-0.056	-0.042
-204.392	-200.000	-0.010	0.265
-203.377	63.513	0.268	0.267
-202.363	-158.409	0.284	-0.016
-201.348	-76.747	0.304	0.106
-200.333	204.640	0.116	0.179
-199.319	-19.213	-0.173	0.107
-198.304	-30.322	-0.378	-0.213
-197.290	-42.808	0.108	0.054
-196.275	37.915	0.102	-0.090
-195.260	512.607	0.101	-0.233
-194.246	-58.519	0.369	0.159
-193.231	800.000	0.077	0.219
-192.217	-48.846	0.395	-0.188
-191.202	71.524	-0.222	-0.228
-190.187	-66.849	-0.107	0.042
-189.173	-18.671	-0.061	-0.038
-188.158	0.911	-0.260	0.185
-187.144	-200.000	0.037	0.281
-186.129	-200.000	-0.005	-0.107
-185.114	100.456	0.170	0.196
-184.100	18.894	0.179	-0.142
-183.085	-130.818	-0.342	0.046
-182.071	-200.000	0.014	-0.113
-181.056	143.480	0.111	-0.146
-180.042	698.760	-0.035	-0.090
-179.027	-200.000	0.029	0.167
-178.012	-200.000	-0.039	0.203
-176.998	27.737	-0.180	0.150
-175.983	76.988	-0.045	-0.047
-174.969	-142.132	-0.408	-0.040
-173.954	-128.720	0.040	0.006
-172.939	-105.464	-0.124	0.028
-171.925	16.499	0.202	-0.158
-170.910	-138.120	0.072	-0.008
-169.896	-82.046	0.324	0.105
-168.881	-114.147	0.141	-0.027
-167.866	-165.359	-0.151	-0.007
-166.852	800.000	-0.036	-0.150
-165.837	-200.000	-0.004	-0.079
-164.823	60.527	-0.193	0.189
-163.808	-33.640	-0.155	-0.085
-162.793	-166.801	-0.325	0.013
-161.779	24.285	0.062	0.051
-160.764	-200.000	-0.001	-0.494
-159.750	800.000	-0.064	0.239
-158.735	50.468	0.089	-0.084
-157.720	487.945	0.064	0.144
-156.706	-155.629	0.134	-0.009
-155.691	184.094	-0.074	-0.108
-154.677	-183.487	0.022	-0.000
-153.662	800.000	0.021	0.084
-152.647	-200.000	-0.001	0.405
-151.633	139.151	-0.133	-0.173
-150.618	-200.000	0.078	-0.402
-149.604	800.000	-0.042	0.180
-148.589	-167.821	-0.276	-0.011
-147.574	-200.000	-0.022	0.244
-146.560	19.039	0.188	-0.149
-145.545	-200.000	-0.032	-0.214
-144.531	155.981	-0.104	-0.142
-143.516	-165.828	0.147	-0.006
-142.502	278.930	-0.134	0.236
-141.487	125.440	0.241	0.301
-140.472	597.007	0.055	0.135
-139.458	405.243	-0.064	0.133
-138.443	-103.052	0.359	0.084
-137.429	-146.272	-0.040	-0.003
-136.414	800.000	-0.081	-0.317
-135.399	-200.000	0.001	-0.086
-134.385	-37.728	-0.122	0.064
-133.370	292.683	0.143	0.257
-132.356	25.027	-0.115	-0.095
-131.341	-103.924	0.089	-0.021
-130.326	495.258	0.053	0.120
-129.312	55.404	0.259	0.248
-128.297	172.621	0.131	0.186
-127.283	-153.012	0.027	0.002
-126.268	41.869	-0.082	0.074
-125.253	603.215	0.006	0.015
-124.239	-70.629	-0.403	-0.151
-123.224	26.568	0.272	-0.226
-122.210	-46.143	-0.165	0.081
