DTS Sentinel unit serial number:	SN413079Multiplexer serial number:	ORYXHardware model number:	OX4-SRSoftware version number:	ORYX F/W v4.00 Oryx Data Collector v3.7.2.0data status	okinstallation	princeton_trtdifferential loss correction	single-endedforward channel	channel 3reverse channel	N/Adate	2019/09/18time	12:28:35forward acquisition time	60.00reverse acquisition time	0.00gamma	496.2192k internal	0.2320k external	0.2320temperature offset calibration	0.9965default loss term (dB/km)	0.3790temperature slope calibration	1.0000multiplexer offset coefficient	1.0000multiplexer slope coefficient	1.0000fibre end	0.00T internal ref (°C)	32.14T ext. ref 1 (°C)	0.52T ext. ref 2 (°C)	29.44length (m)	temperature (°C)	Stokes	anti-Stokes-747.200	0.565	-0.178	0.129
-746.185	-107.932	0.279	0.061
-745.171	-104.679	0.101	0.023
-744.156	-200.000	-0.083	0.377
-743.142	-200.000	-0.018	0.350
-742.127	-74.182	0.140	0.051
-741.112	800.000	0.098	-0.286
-740.098	-93.458	-0.280	0.078
-739.083	-200.000	0.084	-0.381
-738.069	-35.145	-0.160	0.088
-737.054	253.259	-0.065	0.112
-736.039	800.000	-0.058	-0.209
-735.025	195.960	0.197	0.304
-734.010	-200.000	-0.033	0.173
-732.996	514.868	-0.092	-0.217
-731.981	159.879	0.120	-0.168
-730.966	204.293	0.090	0.141
-729.952	-143.779	-0.307	-0.029
-728.937	-41.698	0.253	-0.131
-727.923	229.299	-0.143	-0.235
-726.908	-158.362	-0.089	-0.005
-725.894	380.577	-0.057	0.117
-724.879	-146.067	-0.289	0.026
-723.864	-113.278	0.277	0.055
-722.850	-23.965	0.205	-0.124
-721.835	15.786	-0.375	0.298
-720.821	-183.290	0.295	-0.005
-719.806	-71.145	-0.172	-0.065
-718.791	800.000	-0.061	-0.252
-717.777	304.128	0.168	0.314
-716.762	-137.525	-0.273	-0.031
-715.748	-7.093	-0.056	0.038
-714.733	-141.971	0.162	-0.016
-713.718	131.692	-0.175	0.227
-712.704	800.000	0.055	-0.192
-711.689	-80.793	-0.086	-0.029
-710.675	-139.361	-0.334	0.036
-709.660	68.659	0.196	-0.203
-708.645	800.000	0.080	0.253
-707.631	-73.845	-0.295	-0.108
-706.616	122.591	-0.187	-0.236
-705.602	-12.952	0.314	0.206
-704.587	-9.633	-0.218	-0.147
-703.572	108.334	-0.086	0.103
-702.558	-200.000	-0.044	0.239
-701.543	87.231	0.101	0.113
-700.529	800.000	-0.019	-0.061
-699.514	-116.191	0.166	-0.031
-698.499	253.527	0.077	0.133
-697.485	-138.056	-0.264	-0.030
-696.470	-74.353	0.253	-0.092
-695.456	-94.516	0.135	0.037
-694.441	-200.000	-0.011	0.122
-693.426	800.000	0.174	0.555
-692.412	-99.284	0.288	-0.073
-691.397	64.382	-0.084	-0.085
-690.383	800.000	0.045	0.132
-689.368	545.681	0.083	-0.201
-688.354	-98.448	-0.463	-0.120
-687.339	-115.319	0.408	0.078
-686.324	-27.273	0.093	0.055
-685.310	6.241	0.267	-0.200
-684.295	-200.000	0.002	-0.236
-683.281	221.417	0.033	-0.054
-682.266	132.852	-0.110	-0.143
-681.251	-123.386	0.145	-0.023
-680.237	-200.000	-0.049	-0.348
-679.222	151.624	-0.110	-0.151
-678.208	-178.253	0.026	-0.001
-677.193	-176.564	-0.305	0.008
-676.178	-200.000	0.013	0.133
-675.164	52.277	-0.252	-0.242
-674.149	374.633	-0.079	-0.162
-673.135	210.180	0.091	0.144
-672.120	567.576	-0.164	0.400
-671.105	69.254	0.115	-0.119
-670.091	-200.000	0.091	-0.000
-669.076	196.040	-0.086	0.132
-668.062	800.000	0.085	-0.281
-667.047	-200.000	-0.086	-0.510
-666.032	800.000	0.061	-0.234
-665.018	589.873	0.023	-0.057
-664.003	71.545	0.154	-0.161
-662.989	800.000	0.040	-0.120
-661.974	53.477	0.173	0.167
-660.959	60.715	-0.298	-0.297
-659.945	54.936	0.113	-0.110
-658.930	-200.000	-0.024	-0.425
-657.916	800.000	0.038	-0.140
-656.901	72.715	-0.063	0.066
-655.886	545.384	0.100	-0.240
-654.872	-200.000	0.016	-0.097
-653.857	-65.910	-0.121	-0.049
-652.843	59.152	0.112	-0.111
-651.828	800.000	0.183	-0.515
-650.814	-117.500	0.323	-0.059
-649.799	-137.260	0.149	0.017
-648.784	169.245	0.113	0.163
-647.770	-30.880	-0.189	0.108
-646.755	-142.976	-0.147	0.014
-645.741	-55.525	0.150	-0.068
-644.726	-59.957	-0.288	-0.124
-643.711	-82.314	-0.295	-0.097
-642.697	71.653	0.168	-0.176
-641.682	-6.030	-0.214	-0.147
-640.668	-16.986	0.138	-0.088
-639.653	38.526	0.111	-0.100
-638.638	-89.302	0.259	-0.077
-637.624	800.000	-0.104	0.406
-636.609	-115.090	0.122	-0.023
-635.595	-8.979	0.337	0.227
-634.580	48.360	-0.072	-0.067
-633.565	233.614	0.151	0.251
-632.551	584.826	-0.125	-0.309
-631.536	111.094	-0.171	0.207
-630.522	639.892	0.094	-0.241
-629.507	800.000	0.066	0.224
-628.492	426.223	-0.102	-0.222
-627.478	182.452	-0.178	-0.265
-626.463	800.000	0.062	0.252
-625.449	344.368	0.104	-0.206
-624.434	-29.270	-0.167	-0.096
-623.419	405.020	0.171	-0.363
-622.405	-35.933	-0.084	0.046
-621.390	364.481	-0.109	0.222
-620.376	-51.887	-0.209	0.098
-619.361	-103.847	0.050	0.012
-618.346	58.259	0.056	-0.055
-617.332	-6.305	-0.038	-0.026
-616.317	-58.952	-0.299	0.130
-615.303	263.058	0.082	-0.144
-614.288	-81.207	-0.115	-0.038
-613.273	-64.221	-0.168	0.069
-612.259	149.526	-0.255	-0.347
-611.244	776.534	-0.122	0.335
-610.230	9.233	-0.097	0.074
-609.215	800.000	-0.112	-0.376
-608.201	-65.416	0.371	0.150
-607.186	-83.688	0.118	-0.038
-606.171	110.427	-0.344	-0.416
-605.157	129.940	-0.187	-0.240
-604.142	-200.000	-0.056	-0.250
-603.128	-56.740	0.125	0.056
-602.113	149.537	0.039	-0.054
-601.098	-132.999	0.143	0.018
-600.084	-66.320	0.080	0.032
-599.069	682.143	0.107	-0.281
-598.055	580.402	-0.089	0.220
-597.040	-57.727	-0.151	0.067
-596.025	-98.151	-0.214	-0.055
-595.011	-13.425	0.349	0.228
-593.996	16.126	-0.280	0.222
-592.982	-57.253	-0.088	-0.039
-591.967	-200.000	-0.027	0.169
-590.952	-200.000	0.037	-0.247
-589.938	-99.495	0.059	0.015
-588.923	-63.286	-0.179	-0.074
-587.909	-85.184	0.208	-0.065
-586.894	299.232	-0.174	-0.322
-585.879	-77.126	-0.052	-0.018
-584.865	-200.000	-0.020	-0.368
-583.850	443.423	0.050	0.111
-582.836	2.748	0.097	0.070
-581.821	-200.000	-0.013	-0.197
-580.806	306.464	0.095	-0.177
-579.792	300.673	0.083	-0.155
-578.777	234.554	-0.028	-0.046
-577.763	-200.000	0.006	0.141
-576.748	-200.000	0.061	0.321
-575.733	249.420	0.081	-0.139
-574.719	43.100	-0.083	-0.076
-573.704	604.810	-0.069	0.172
-572.690	-200.000	-0.016	0.273
-571.675	130.608	-0.187	0.241
-570.661	-75.095	0.377	0.135
-569.646	-44.702	-0.256	-0.128
-568.631	245.660	-0.130	0.221
-567.617	465.689	0.113	-0.254
-566.602	85.691	0.015	0.016
-565.588	-89.464	-0.283	-0.084
-564.573	-130.924	-0.146	-0.020
-563.558	-66.260	-0.122	0.049
-562.544	-97.480	-0.151	0.039
-561.529	-55.845	0.123	-0.055
-560.515	-117.287	0.139	-0.025
-559.500	491.545	-0.078	0.180
-558.485	151.884	-0.110	-0.151
-557.471	-54.175	-0.171	-0.078
-556.456	-95.902	-0.480	0.128
-555.442	-134.963	-0.335	-0.041
-554.427	-98.214	-0.287	-0.074
-553.412	-200.000	0.000	0.103
-552.398	-35.509	0.104	0.057
-551.383	38.020	-0.081	-0.072
-550.369	-13.026	-0.210	-0.137
-549.354	132.445	0.173	-0.224
-548.339	-28.179	-0.172	0.100
-547.325	307.027	0.122	0.228
-546.310	36.213	0.195	-0.173
-545.296	-51.064	0.118	-0.055
-544.281	60.512	0.030	-0.029
-543.266	-4.067	-0.235	0.163
-542.252	800.000	0.071	-0.281
-541.237	-36.243	0.210	0.114
-540.223	800.000	0.070	0.238
-539.208	800.000	0.101	0.324
-538.193	-200.000	0.045	-0.275
-537.179	800.000	0.052	-0.158
-536.164	-7.765	-0.318	-0.216
-535.150	-94.527	0.370	0.101
-534.135	30.053	0.084	0.072
-533.121	-147.579	0.282	-0.024
-532.106	-122.954	-0.131	0.021
-531.091	-40.037	-0.221	0.116
-530.077	-200.000	-0.016	0.089
-529.062	430.357	-0.067	-0.146
-528.048	-32.997	-0.418	-0.233
-527.033	-120.856	0.068	0.011
-526.018	267.444	0.044	0.077
-525.004	66.686	0.073	-0.074
-523.989	143.293	-0.088	-0.118
-522.975	69.657	-0.193	0.200
-521.960	-62.241	0.314	0.131
-520.945	800.000	0.082	0.243
-519.931	-143.163	0.363	-0.035
-518.916	-200.000	-0.036	0.278
-517.902	-47.966	-0.069	0.033
-516.887	800.000	0.054	-0.150
-515.872	-185.134	0.248	-0.004
-514.858	-200.000	-0.079	-0.397
-513.843	-200.000	0.005	-0.271
-512.829	800.000	0.072	0.206
-511.814	-76.760	-0.398	-0.140
-510.799	35.829	-0.195	0.172
-509.785	-200.000	0.023	-0.187
-508.770	-200.000	-0.013	-0.110
-507.756	-200.000	0.007	0.181
-506.741	-200.000	-0.016	0.116
-505.726	82.612	-0.110	-0.120
-504.712	246.490	-0.140	-0.237
-503.697	-54.796	-0.096	-0.043
-502.683	17.678	0.124	-0.099
-501.668	-200.000	-0.012	-0.449
-500.653	624.172	0.054	0.136
-499.639	48.406	-0.143	0.134
-498.624	-200.000	0.021	0.238
-497.610	733.819	-0.077	-0.206
-496.595	307.051	0.142	-0.264
-495.581	606.285	-0.033	-0.081
-494.566	105.720	-0.082	-0.098
-493.551	-200.000	-0.011	0.370
-492.537	7.605	0.370	-0.277
-491.522	-31.017	-0.313	0.177
-490.508	83.802	-0.249	-0.272
-489.493	31.453	-0.182	0.156
-488.478	129.483	-0.066	0.084
-487.464	-153.919	-0.122	-0.008
-486.449	800.000	0.053	0.224
-485.435	800.000	0.079	0.227
-484.420	415.593	0.198	0.422
-483.405	-139.359	0.264	-0.028
-482.391	-200.000	-0.008	-0.100
-481.376	324.242	0.089	0.169
-480.362	-6.019	-0.219	0.150
-479.347	-75.136	0.371	-0.133
-478.332	212.576	0.075	-0.119
-477.318	-1.183	0.247	-0.174
-476.303	-81.115	-0.236	-0.078
-475.289	-77.138	0.174	0.061
-474.274	100.226	-0.114	0.133
-473.259	-153.957	-0.177	-0.012
-472.245	430.744	0.092	0.199
-471.230	-200.000	-0.013	0.244
-470.216	-22.455	-0.122	-0.074
-469.201	-200.000	-0.037	0.200
-468.186	-133.999	0.472	-0.058
-467.172	-147.083	0.246	0.021
-466.157	-200.000	-0.002	0.125
-465.143	87.863	0.041	-0.045
-464.128	111.807	-0.271	-0.327
-463.113	-200.000	0.019	-0.493
-462.099	-200.000	-0.040	0.226
-461.084	-200.000	0.036	0.170
-460.070	45.865	0.230	-0.213
-459.055	-155.449	-0.345	-0.022
-458.040	130.475	-0.109	0.140
-457.026	-200.000	0.009	-0.130
-456.011	196.615	-0.052	-0.079
-454.997	-35.754	0.389	0.211
-453.982	-126.075	-0.432	0.065
-452.968	-8.628	0.308	0.207
-451.953	-106.387	-0.274	-0.061
-450.938	-104.227	-0.271	-0.063
-449.924	75.042	-0.261	0.275
-448.909	-170.786	-0.384	0.013
-447.895	-91.225	0.230	-0.066
-446.880	77.744	0.175	-0.187
-445.865	79.371	0.140	-0.150
-444.851	800.000	0.048	-0.194
-443.836	-60.702	-0.140	-0.059
-442.822	-78.835	0.349	-0.119
-441.807	13.670	0.277	-0.215
-440.792	177.161	0.052	-0.076
-439.778	-200.000	-0.009	-0.189
-438.763	-102.911	0.132	0.031
-437.749	124.731	0.246	0.310
-436.734	-39.702	-0.186	-0.097
-435.719	375.164	-0.082	-0.166
-434.705	69.100	0.183	0.188
-433.690	-62.210	0.286	0.119
-432.676	148.362	-0.264	-0.355
-431.661	-200.000	-0.001	-0.037
-430.646	-182.896	-0.148	0.003
-429.632	295.367	0.043	0.078
-428.617	90.012	0.136	0.152
-427.603	800.000	0.070	-0.193
-426.588	60.573	-0.077	-0.076
-425.573	296.324	0.186	0.341
-424.559	60.375	0.149	0.147
-423.544	15.113	0.111	0.087
-422.530	-42.411	-0.139	-0.071
-421.515	-200.000	0.022	-0.161
-420.500	-16.279	0.097	-0.062
-419.486	800.000	-0.082	0.269
-418.471	127.504	-0.123	-0.156
-417.457	-100.630	0.320	-0.079
-416.442	-26.942	-0.566	-0.330
-415.428	-99.508	0.329	-0.083
-414.413	11.426	-0.048	0.037
-413.398	109.526	0.138	-0.166
-412.384	800.000	0.027	-0.114
-411.369	-200.000	-0.006	-0.206
-410.355	-200.000	0.002	-0.068
-409.340	-50.159	0.190	-0.090
-408.325	-200.000	-0.056	-0.329
-407.311	-184.286	-0.178	-0.003
-406.296	12.260	0.080	-0.062
-405.282	291.878	-0.078	-0.141
-404.267	-3.148	-0.314	-0.219
-403.252	169.311	0.164	-0.234
-402.238	221.995	0.082	0.131
-401.223	-87.051	-0.415	0.126
-400.209	599.602	0.136	-0.337
-399.194	-200.000	-0.018	-0.162
-398.179	-131.592	0.128	0.017
-397.165	-25.085	0.206	0.122
-396.150	-9.756	0.251	-0.167
-395.136	-200.000	-0.063	0.350
-394.121	-116.038	0.163	0.030
-393.106	-200.000	0.019	0.164
-392.092	-200.000	-0.002	0.202
-391.077	-200.000	-0.026	-0.116
-390.063	-200.000	-0.060	-0.271
-389.048	800.000	-0.158	-0.482
-388.033	-200.000	0.038	-0.239
-387.019	-39.384	-0.042	-0.022
-386.004	-200.000	0.064	0.339
-384.990	-33.586	-0.233	-0.128
-383.975	-200.000	-0.071	0.363
-382.960	-149.556	0.154	-0.012
-381.946	-20.609	0.239	0.146
-380.931	155.829	0.135	-0.185
-379.917	413.012	0.108	-0.229
-378.902	-200.000	-0.024	0.402
-377.888	647.581	-0.012	0.030
-376.873	-200.000	-0.093	0.459
-375.858	20.704	0.162	0.131
-374.844	-25.129	0.034	0.020
-373.829	-117.409	0.105	-0.019
-372.815	-5.730	-0.212	0.144
-371.800	798.315	0.020	-0.054
-370.785	-200.000	0.052	0.293
-369.771	-200.000	-0.046	0.420
-368.756	-39.546	-0.054	-0.028
-367.742	800.000	0.064	0.188
-366.727	30.588	0.133	0.113
-365.712	-48.942	0.144	0.069
-364.698	-118.724	0.374	0.066
-363.683	7.380	-0.138	0.103
-362.669	-85.486	0.355	0.110
-361.654	-107.889	-0.184	-0.040
-360.639	-81.084	-0.176	-0.058
-359.625	-99.942	-0.364	-0.091
-358.610	191.897	0.048	-0.072
-357.596	517.866	-0.120	-0.280
-356.581	503.221	0.166	-0.382
-355.566	-100.547	0.216	-0.053
-354.552	-200.000	-0.012	-0.263
-353.537	-172.718	0.220	-0.007
-352.523	-64.421	-0.097	0.039
-351.508	800.000	0.025	-0.074
-350.493	-96.135	-0.246	0.065
-349.479	-164.015	-0.093	0.004
-348.464	13.566	-0.114	-0.088
-347.450	-121.761	-0.193	0.032
-346.435	-200.000	0.006	-0.145
-345.420	-135.711	-0.087	0.010
-344.406	-200.000	0.004	0.126
-343.391	-200.000	0.041	-0.262
-342.377	326.813	0.259	0.495
-341.362	417.320	0.056	-0.118
-340.348	727.110	0.074	-0.197
-339.333	-200.000	-0.105	0.000
-338.318	-200.000	-0.004	0.064
-337.304	202.530	0.033	-0.050
-336.289	-78.565	0.265	0.090
-335.275	800.000	-0.134	-0.496
-334.260	-200.000	0.078	-0.373
-333.245	-160.513	0.159	-0.008
-332.231	800.000	-0.046	0.130
-331.216	-149.810	-0.199	0.016
-330.202	287.089	0.015	0.027
-329.187	132.959	0.293	-0.376
-328.172	-152.287	-0.175	-0.013
-327.158	36.873	-0.180	0.158
-326.143	-200.000	0.001	0.255
-325.129	-8.017	0.127	-0.085
-324.114	-145.434	-0.183	0.016
-323.099	-177.398	-0.031	-0.001
-322.085	-200.000	-0.043	-0.293
-321.070	101.659	-0.343	0.398
-320.056	-129.181	-0.062	0.009
-319.041	800.000	0.062	-0.258
-318.026	-98.709	0.106	-0.027
-317.012	800.000	0.116	-0.358
-315.997	-38.752	0.065	-0.034
-314.983	147.165	0.100	0.134
-313.968	800.000	-0.095	0.320
-312.953	-110.051	0.110	-0.023
-311.939	26.033	-0.251	-0.208
-310.924	24.792	0.136	0.112
-309.910	47.134	-0.136	-0.126
-308.895	-62.379	0.308	0.128
-307.880	115.911	-0.207	0.252
-306.866	682.084	-0.066	0.172
-305.851	-16.686	-0.092	-0.058
-304.837	275.554	0.055	0.096
-303.822	-200.000	-0.024	-0.112
-302.807	36.261	-0.257	-0.225
-301.793	800.000	0.010	-0.043
-300.778	800.000	0.051	0.212
-299.764	800.000	0.058	0.203
-298.749	-16.914	-0.202	-0.127
-297.735	181.123	0.102	-0.149
-296.720	-16.592	0.139	-0.087
-295.705	-144.443	0.362	-0.033
-294.691	800.000	0.080	0.224
-293.676	-200.000	0.042	0.194
-292.662	266.712	-0.129	0.224
-291.647	-182.774	-0.176	0.003
-290.632	-107.450	0.081	0.018
-289.618	123.240	-0.101	-0.126
-288.603	-93.811	0.168	0.046
-287.589	-161.145	-0.177	-0.009
-286.574	-100.467	-0.102	0.025
-285.559	356.093	-0.067	-0.133
-284.545	55.803	-0.191	0.184
-283.530	800.000	-0.135	0.445
-282.516	-34.043	-0.226	0.124
-281.501	-151.189	-0.059	0.004
-280.486	247.460	0.060	-0.101
-279.472	248.516	0.137	-0.230
-278.457	-200.000	-0.029	0.237
-277.443	-5.277	0.392	0.268
-276.428	-164.975	-0.212	-0.009
-275.413	-200.000	-0.046	-0.263
-274.399	147.402	0.187	-0.250
-273.384	-200.000	-0.040	-0.185
-272.370	800.000	0.060	-0.178
-271.355	-200.000	0.086	0.438
-270.340	734.466	-0.193	0.513
-269.326	-122.865	0.151	-0.024
-268.311	27.320	0.219	0.183
-267.297	159.980	-0.167	0.230
-266.282	800.000	0.047	-0.196
-265.267	53.383	0.139	0.132
-264.253	466.736	-0.109	-0.243
-263.238	125.665	-0.085	-0.107
-262.224	-200.000	-0.053	0.300
-261.209	800.000	-0.022	0.063
-260.195	-125.532	-0.129	0.019
-259.180	-200.000	0.006	-0.219
-258.165	-55.796	0.221	0.098
-257.151	0.503	-0.111	-0.079
-256.136	24.617	-0.126	-0.103
-255.122	102.927	-0.232	0.269
-254.107	545.383	0.116	0.276
-253.092	-166.075	0.395	0.017
-252.078	197.250	-0.167	0.252
-251.063	-178.221	0.129	0.003
-250.049	147.647	-0.137	0.183
-249.034	434.236	-0.180	-0.388
-248.019	-112.913	-0.177	0.035
-247.005	-31.302	0.114	-0.063
-245.990	43.529	-0.221	0.201
-244.976	-38.693	-0.323	-0.169
-243.961	-23.176	-0.185	-0.110
-242.946	-21.266	0.050	-0.030
-241.932	-50.888	-0.179	0.083
-240.917	-111.221	-0.200	-0.040
-239.903	-66.316	0.187	0.074
-238.888	800.000	0.046	0.131
-237.873	-21.010	0.441	0.268
-236.859	-103.540	-0.045	-0.010
-235.844	760.959	0.121	0.325
-234.830	43.770	0.168	0.152
-233.815	-108.843	-0.458	0.097
-232.800	-178.205	-0.252	-0.006
-231.786	121.018	-0.175	-0.216
-230.771	-141.760	0.172	0.017
-229.757	-89.598	-0.225	-0.065
-228.742	-200.000	0.015	-0.262
-227.727	8.141	-0.184	-0.137
-226.713	191.403	-0.072	-0.108
-225.698	-9.194	-0.280	0.186
-224.684	26.045	0.225	-0.186
-223.669	231.665	0.146	0.237
-222.655	-200.000	0.078	0.504
-221.640	-107.972	0.376	-0.081
-220.625	-200.000	0.008	0.193
-219.611	16.764	0.178	0.140
-218.596	34.405	0.056	-0.048
-217.582	-92.969	-0.119	0.033
-216.567	-200.000	0.017	0.132
-215.552	6.248	0.206	0.152
-214.538	454.449	0.043	-0.094
-213.523	-200.000	0.015	-0.069
-212.509	-179.804	-0.121	0.003
-211.494	507.549	0.069	-0.158
-210.479	-151.094	-0.077	-0.006
-209.465	248.568	0.073	0.123
-208.450	-200.000	0.004	-0.068
-207.436	800.000	0.055	0.213
-206.421	-200.000	-0.002	0.139
-205.406	37.911	0.267	0.235
-204.392	-61.648	-0.196	-0.082
-203.377	-200.000	0.002	-0.015
-202.363	-200.000	-0.025	-0.177
-201.348	-99.537	0.229	-0.057
-200.333	397.553	-0.129	0.266
-199.319	190.227	-0.042	-0.062
-198.304	-102.267	-0.117	-0.028
-197.290	-200.000	-0.016	0.380
-196.275	-8.692	0.113	-0.075
-195.260	-50.666	0.099	-0.046
-194.246	800.000	0.086	-0.282
-193.231	800.000	0.129	-0.369
-192.217	-200.000	-0.057	0.305
-191.202	81.106	-0.029	-0.031
-190.187	-190.655	0.149	-0.002
-189.173	137.311	0.047	-0.061
-188.158	394.672	0.114	-0.236
-187.144	-200.000	-0.028	0.169
-186.129	-76.030	-0.330	-0.115
-185.114	51.710	0.135	0.127
-184.100	800.000	-0.025	0.097
-183.085	175.706	0.077	0.111
-182.071	-200.000	-0.001	0.135
-181.056	109.384	-0.130	-0.154
-180.042	-70.994	0.493	-0.183
-179.027	-151.270	0.203	-0.015
-178.012	113.903	-0.068	0.082
-176.998	32.320	-0.340	-0.290
-175.983	209.677	-0.137	0.213
-174.969	67.900	0.160	0.162
-173.954	23.177	0.272	0.221
-172.939	25.991	0.307	0.253
-171.925	-200.000	0.035	0.274
-170.910	800.000	-0.085	0.269
-169.896	219.876	0.249	-0.395
-168.881	-91.728	0.063	-0.018
-167.866	138.498	0.105	-0.136
-166.852	-48.681	0.510	-0.242
-165.837	-76.134	0.108	-0.038
-164.823	28.184	0.179	-0.149
-163.808	-15.976	-0.297	0.187
-162.793	162.295	-0.102	0.141
-161.779	163.735	0.149	0.207
-160.764	-115.591	0.186	-0.035
-159.750	438.955	-0.018	0.038
-158.735	74.321	-0.140	0.145
-157.720	255.661	-0.136	-0.230
-156.706	800.000	-0.028	-0.110
-155.691	-200.000	0.042	0.278
-154.677	35.803	0.154	0.133
-153.662	-93.808	0.162	0.044
-152.647	-88.953	-0.315	0.092
-151.633	-40.311	0.232	-0.119
-150.618	87.110	-0.040	-0.043
-149.604	-58.862	-0.280	0.120
-148.589	-71.403	0.268	-0.099
-147.574	89.307	-0.123	0.136
-146.560	26.650	0.119	0.098
-145.545	800.000	-0.060	-0.228
-144.531	427.204	0.101	-0.215
-143.516	-147.382	-0.212	-0.018
-142.502	-91.361	0.050	0.014
-141.487	-92.054	0.254	0.071
-140.472	10.493	0.213	-0.160
-139.458	-30.740	0.108	-0.060
-138.443	800.000	0.133	-0.466
-137.429	-190.719	0.358	0.004
-136.414	-134.361	0.139	0.017
-135.399	150.963	-0.046	0.062
-134.385	8.775	-0.093	-0.069
-133.370	9.257	0.330	-0.246
-132.356	91.563	0.151	-0.168
-131.341	574.269	-0.120	-0.289
-130.326	-77.575	-0.112	-0.038
-129.312	221.516	-0.219	0.347
-128.297	18.318	0.250	0.197
-127.283	-68.643	-0.140	-0.054
-126.268	-90.461	-0.315	0.090
-125.253	-38.728	0.240	-0.125
-124.239	-46.033	0.159	0.077
-123.224	-102.567	0.097	-0.023
-122.210	800.000	-0.089	-0.249
