DTS Sentinel unit serial number:	SN413079Multiplexer serial number:	ORYXHardware model number:	OX4-SRSoftware version number:	ORYX F/W v4.00 Oryx Data Collector v3.7.2.0data status	okinstallation	princeton_trtdifferential loss correction	single-endedforward channel	channel 3reverse channel	N/Adate	2019/09/18time	10:56:34forward acquisition time	60.00reverse acquisition time	0.00gamma	496.2192k internal	0.2327k external	0.2327temperature offset calibration	0.9952default loss term (dB/km)	0.3790temperature slope calibration	1.0000multiplexer offset coefficient	1.0000multiplexer slope coefficient	1.0000fibre end	0.00T internal ref (°C)	29.17T ext. ref 1 (°C)	0.38T ext. ref 2 (°C)	25.58length (m)	temperature (°C)	Stokes	anti-Stokes-747.200	322.156	0.063	0.121
-746.185	800.000	0.062	0.264
-745.171	312.250	0.026	0.050
-744.156	-119.775	0.199	0.035
-743.142	800.000	-0.047	0.199
-742.127	-89.444	-0.221	-0.065
-741.112	-34.047	0.069	0.038
-740.098	-25.289	-0.238	0.142
-739.083	-4.625	0.312	-0.217
-738.069	25.651	0.012	-0.010
-737.054	-200.000	0.012	0.238
-736.039	-113.575	-0.566	0.111
-735.025	-160.541	-0.352	-0.019
-734.010	38.863	-0.075	0.067
-732.996	-200.000	0.026	-0.223
-731.981	-200.000	-0.019	-0.486
-730.966	-129.908	0.409	-0.056
-729.952	-200.000	-0.001	-0.111
-728.937	40.028	-0.050	-0.045
-727.923	191.588	-0.039	-0.059
-726.908	483.456	0.093	-0.213
-725.894	560.022	-0.175	-0.426
-724.879	-175.607	-0.260	-0.007
-723.864	123.152	0.053	0.067
-722.850	-200.000	-0.021	-0.174
-721.835	-200.000	0.007	-0.132
-720.821	483.757	-0.170	-0.390
-719.806	-87.945	0.129	0.039
-718.791	-51.500	-0.134	0.063
-717.777	85.115	-0.041	-0.046
-716.762	31.120	0.079	-0.068
-715.748	-132.661	0.357	0.046
-714.733	-118.776	0.175	0.031
-713.718	-200.000	0.008	-0.220
-712.704	-200.000	0.051	-0.285
-711.689	-53.758	-0.208	0.096
-710.675	-169.973	-0.145	0.005
-709.660	10.181	0.245	0.188
-708.645	137.780	-0.168	0.222
-707.631	-50.042	-0.096	0.046
-706.616	-200.000	0.029	-0.232
-705.602	-200.000	0.016	-0.159
-704.587	-40.601	-0.156	0.081
-703.572	-130.465	-0.387	0.053
-702.558	-34.644	-0.144	-0.079
-701.543	-145.650	0.254	-0.023
-700.529	138.239	0.198	0.262
-699.514	465.161	0.161	0.363
-698.499	-118.596	0.292	-0.052
-697.485	-200.000	0.016	-0.209
-696.470	-200.000	0.012	-0.184
-695.456	800.000	0.053	-0.181
-694.441	65.623	-0.244	0.248
-693.426	283.837	-0.104	0.187
-692.412	-135.282	0.197	0.024
-691.397	2.821	0.453	0.331
-690.383	126.075	0.130	-0.165
-689.368	104.642	0.094	-0.111
-688.354	-96.221	0.185	0.049
-687.339	281.152	-0.131	0.236
-686.324	-121.549	-0.203	0.034
-685.310	151.344	0.153	-0.210
-684.295	-200.000	-0.061	-0.331
-683.281	-20.746	0.054	0.033
-682.266	-5.987	-0.251	-0.173
-681.251	-168.701	0.384	0.015
-680.237	89.038	-0.085	-0.096
-679.222	591.246	-0.048	0.120
-678.208	250.821	-0.059	0.101
-677.193	101.681	0.046	-0.054
-676.178	-200.000	-0.006	-0.230
-675.164	95.966	0.061	0.070
-674.149	-182.561	-0.195	0.004
-673.135	121.776	-0.136	-0.170
-672.120	410.639	-0.047	0.100
-671.105	-200.000	-0.023	0.101
-670.091	-200.000	-0.038	0.342
-669.076	95.062	0.087	-0.100
-668.062	-69.454	-0.110	-0.042
-667.047	800.000	0.104	-0.348
-666.032	800.000	0.050	-0.140
-665.018	-45.893	0.180	0.089
-664.003	-45.909	0.068	-0.034
-662.989	-111.933	-0.335	0.068
-661.974	353.347	-0.037	0.074
-660.959	95.915	-0.102	0.117
-659.945	11.504	-0.161	0.124
-658.930	227.010	0.109	-0.178
-657.916	199.594	-0.194	0.299
-656.901	44.506	0.260	-0.240
-655.886	-44.266	0.369	0.186
-654.872	-80.334	0.324	-0.109
-653.857	-200.000	-0.055	-0.249
-652.843	-200.000	-0.002	0.131
-651.828	-39.778	0.282	0.148
-650.814	-2.144	-0.288	-0.203
-649.799	-16.474	0.107	0.068
-648.784	-200.000	-0.031	-0.241
-647.770	357.951	0.027	0.054
-646.755	783.415	-0.082	-0.226
-645.741	36.250	0.252	-0.223
-644.726	688.288	-0.052	-0.138
-643.711	-117.919	0.198	-0.036
-642.697	-59.110	-0.077	-0.033
-641.682	330.498	-0.126	-0.243
-640.668	-22.314	0.190	0.116
-639.653	-39.794	0.124	-0.065
-638.638	-79.613	-0.161	-0.055
-637.624	-171.747	-0.098	-0.003
-636.609	85.777	-0.220	-0.243
-635.595	-48.219	0.151	-0.073
-634.580	-26.504	0.018	0.011
-633.565	-81.509	-0.334	0.110
-632.551	7.188	-0.095	0.071
-631.536	72.328	-0.168	-0.175
-630.522	-200.000	-0.016	0.515
-629.507	-200.000	-0.025	-0.122
-628.492	-17.777	0.333	-0.210
-627.478	800.000	-0.028	0.093
-626.463	800.000	0.080	0.324
-625.449	324.636	-0.126	0.242
-624.434	-168.393	-0.243	-0.009
-623.419	-64.345	-0.483	0.197
-622.405	133.136	-0.161	-0.208
-621.390	-79.453	0.355	0.120
-620.376	-200.000	0.047	0.339
-619.361	-120.461	-0.069	0.012
-618.346	-200.000	-0.022	-0.255
-617.332	-29.109	0.096	0.055
-616.317	-22.082	0.414	0.252
-615.303	-175.299	-0.233	0.006
-614.288	-85.024	0.194	-0.061
-613.273	-134.278	0.170	-0.021
-612.259	-196.120	0.387	-0.003
-611.244	149.579	0.059	-0.081
-610.230	585.098	-0.080	-0.197
-609.215	-136.604	0.172	-0.020
-608.201	-200.000	-0.027	-0.259
-607.186	345.170	-0.196	0.386
-606.171	-200.000	-0.052	-0.229
-605.157	29.341	-0.165	-0.141
-604.142	-144.072	-0.051	-0.005
-603.128	-15.019	-0.080	0.051
-602.113	-160.016	0.387	0.021
-601.098	-53.462	0.332	0.152
-600.084	71.553	0.139	0.145
-599.069	-29.288	0.488	-0.280
-598.055	-200.000	0.026	-0.214
-597.040	-200.000	-0.003	-0.167
-596.025	-47.343	-0.285	-0.139
-595.011	112.495	0.263	0.319
-593.996	7.061	0.214	0.160
-592.982	401.613	-0.078	-0.164
-591.967	-200.000	-0.072	0.333
-590.952	-200.000	0.003	0.144
-589.938	71.333	0.129	0.134
-588.923	-82.674	0.259	0.084
-587.909	292.842	0.028	-0.051
-586.894	765.649	-0.062	0.170
-585.879	36.772	0.100	0.088
-584.865	-27.747	0.303	-0.176
-583.850	476.138	0.131	0.297
-582.836	-48.440	-0.069	-0.033
-581.821	800.000	-0.066	0.249
-580.806	156.614	-0.172	-0.239
-579.792	-200.000	0.062	0.382
-578.777	-151.498	0.472	0.035
-577.763	-190.763	-0.227	-0.002
-576.748	800.000	0.057	-0.213
-575.733	110.407	-0.214	-0.258
-574.719	-64.764	-0.058	-0.024
-573.704	-93.207	-0.097	-0.027
-572.690	123.068	0.228	0.285
-571.675	-72.679	0.064	0.024
-570.661	800.000	-0.078	-0.336
-569.646	-144.453	-0.243	-0.023
-568.631	314.393	-0.077	0.145
-567.617	129.020	0.245	0.313
-566.602	4.349	-0.237	0.174
-565.588	-60.422	-0.269	-0.115
-564.573	28.378	-0.138	-0.117
-563.558	800.000	0.031	0.093
-562.544	-142.233	0.236	-0.023
-561.529	306.536	0.091	-0.169
-560.515	-200.000	0.102	-0.483
-559.500	29.753	0.048	-0.041
-558.485	298.307	-0.126	0.232
-557.471	326.652	0.060	0.114
-556.456	136.388	-0.127	0.166
-555.442	-84.991	-0.189	0.059
-554.427	541.744	0.087	-0.207
-553.412	-50.735	-0.165	-0.078
-552.398	289.695	-0.129	-0.234
-551.383	43.649	0.166	-0.152
-550.369	-45.071	-0.244	-0.122
-549.354	-200.000	0.006	0.184
-548.339	-200.000	-0.010	0.133
-547.325	96.161	0.063	0.072
-546.310	-54.642	-0.050	-0.023
-545.296	-200.000	-0.014	-0.260
-544.281	-129.929	0.105	0.014
-543.266	-71.295	-0.307	-0.115
-542.252	800.000	0.018	-0.061
-541.237	-51.936	-0.097	0.045
-540.223	-46.649	0.027	-0.013
-539.208	794.539	-0.037	0.102
-538.193	-200.000	0.004	-0.197
-537.179	18.827	-0.112	0.090
-536.164	-169.508	-0.365	-0.013
-535.150	14.267	-0.410	0.320
-534.135	187.207	-0.225	0.335
-533.121	-200.000	-0.073	-0.388
-532.106	-154.715	-0.151	-0.010
-531.091	1.406	0.180	-0.129
-530.077	-76.834	0.014	0.005
-529.062	-200.000	0.000	-0.039
-528.048	711.078	0.031	-0.083
-527.033	800.000	0.051	-0.162
-526.018	333.656	0.025	0.048
-525.004	-80.516	-0.143	-0.047
-523.989	800.000	0.039	-0.137
-522.975	-87.903	-0.159	0.048
-521.960	-138.702	-0.194	0.021
-520.945	155.622	-0.018	-0.025
-519.931	342.726	-0.088	-0.173
-518.916	-124.751	0.089	0.014
-517.902	-25.346	-0.280	-0.166
-516.887	101.983	0.453	-0.528
-515.872	-200.000	-0.003	-0.383
-514.858	-200.000	0.011	0.126
-513.843	20.372	-0.036	0.029
-512.829	83.512	0.242	-0.264
-511.814	-69.536	0.367	0.140
-510.799	-200.000	-0.045	0.266
-509.785	194.080	-0.165	0.250
-508.770	-200.000	-0.015	-0.100
-507.756	-2.056	0.147	-0.103
-506.741	510.808	-0.225	-0.523
-505.726	153.040	0.100	-0.137
-504.712	800.000	-0.067	-0.203
-503.697	-30.647	-0.063	0.036
-502.683	244.723	0.140	-0.235
-501.668	400.800	-0.156	0.327
-500.653	-54.050	-0.300	-0.136
-499.639	100.037	-0.231	0.267
-498.624	800.000	0.091	-0.310
-497.610	-135.910	-0.266	-0.031
-496.595	45.309	0.038	0.035
-495.581	31.183	-0.089	-0.076
-494.566	-78.690	0.212	-0.072
-493.551	-200.000	-0.032	-0.407
-492.537	235.220	0.096	-0.159
-491.522	-126.459	-0.148	-0.022
-490.508	83.783	0.037	-0.040
-489.493	-19.993	-0.445	-0.274
-488.478	-128.968	-0.148	0.021
-487.464	-30.706	-0.115	0.065
-486.449	-81.774	-0.210	-0.069
-485.435	-178.683	-0.096	-0.002
-484.420	-103.708	0.220	-0.051
-483.405	800.000	-0.051	-0.224
-482.391	-128.210	-0.080	-0.011
-481.376	196.990	0.054	0.083
-480.362	-6.105	0.264	0.180
-479.347	-164.825	-0.375	0.017
-478.332	103.417	0.157	0.184
-477.318	-5.673	0.084	0.058
-476.303	78.683	0.065	-0.069
-475.289	-200.000	-0.040	-0.430
-474.274	25.426	-0.051	0.042
-473.259	200.502	-0.027	0.041
-472.245	204.396	-0.218	0.337
-471.230	-200.000	-0.009	0.292
-470.216	800.000	0.065	-0.245
-469.201	311.044	-0.114	-0.214
-468.186	104.356	-0.160	0.188
-467.172	800.000	-0.075	-0.305
-466.157	-63.924	-0.126	-0.051
-465.143	-56.049	-0.178	0.079
-464.128	4.080	-0.129	-0.094
-463.113	-62.365	-0.082	0.034
-462.099	-200.000	0.062	0.330
-461.084	-88.036	0.118	-0.035
-460.070	-128.583	0.101	-0.014
-459.055	-13.473	0.361	0.234
-458.040	-42.099	-0.188	-0.096
-457.026	-130.038	-0.079	-0.011
-456.011	561.106	0.048	-0.115
-454.997	85.332	0.110	0.121
-453.982	74.080	-0.090	-0.095
-452.968	26.333	-0.213	-0.178
-451.953	-200.000	0.005	-0.066
-450.938	-200.000	-0.020	-0.158
-449.924	-200.000	0.044	0.280
-448.909	-200.000	0.031	-0.207
-447.895	-82.079	0.078	0.025
-446.880	578.696	0.061	-0.149
-445.865	107.683	-0.260	0.308
-444.851	34.509	-0.179	0.156
-443.836	213.340	-0.097	0.153
-442.822	543.961	-0.057	-0.136
-441.807	-190.625	0.184	-0.002
-440.792	-87.396	0.007	0.002
-439.778	68.466	-0.196	-0.200
-438.763	44.138	0.124	-0.114
-437.749	240.764	-0.054	0.090
-436.734	800.000	-0.070	-0.265
-435.719	800.000	-0.090	0.363
-434.705	49.173	-0.070	-0.065
-433.690	-43.148	0.121	0.061
-432.676	-69.533	-0.274	-0.105
-431.661	600.840	-0.055	0.137
-430.646	2.777	-0.212	0.154
-429.632	-109.169	0.219	-0.046
-428.617	461.483	0.112	0.249
-427.603	513.040	-0.029	0.067
-426.588	-200.000	-0.010	-0.069
-425.573	-15.685	0.496	-0.315
-424.559	253.413	-0.103	0.174
-423.544	-23.634	-0.410	-0.245
-422.530	195.923	0.121	0.184
-421.515	-64.632	0.114	0.046
-420.500	-160.235	0.235	0.013
-419.486	23.065	-0.048	-0.039
-418.471	-60.735	0.084	0.035
-417.457	139.689	0.128	0.168
-416.442	-200.000	0.050	-0.222
-415.428	7.086	0.154	-0.114
-414.413	394.370	-0.059	-0.121
-413.398	44.822	-0.146	-0.134
-412.384	5.104	-0.171	-0.125
-411.369	-52.869	0.300	0.138
-410.355	-173.473	0.458	-0.014
-409.340	800.000	-0.079	-0.221
-408.325	-200.000	0.014	0.279
-407.311	179.054	-0.110	-0.160
-406.296	-200.000	-0.007	0.262
-405.282	108.696	-0.282	0.335
-404.267	195.845	0.089	0.135
-403.252	372.616	-0.025	0.051
-402.238	186.059	0.152	0.224
-401.223	160.361	-0.048	-0.066
-400.209	-166.053	-0.253	0.011
-399.194	-163.126	-0.420	0.020
-398.179	-200.000	-0.029	0.233
-397.165	-106.039	0.169	-0.038
-396.150	-200.000	0.044	-0.257
-395.136	-82.000	-0.165	0.053
-394.121	11.144	0.157	0.120
-393.106	-185.119	-0.255	0.004
-392.092	-200.000	-0.005	-0.062
-391.077	-197.702	0.422	-0.003
-390.063	431.528	0.059	-0.127
-389.048	401.285	-0.141	-0.294
-388.033	452.686	0.024	0.054
-387.019	-200.000	-0.017	0.369
-386.004	-95.326	-0.130	-0.035
-384.990	-24.831	-0.125	-0.074
-383.975	-198.018	0.232	0.001
-382.960	713.026	-0.063	0.166
-381.946	-76.476	-0.343	-0.120
-380.931	434.576	0.070	0.152
-379.917	-134.959	-0.404	0.049
-378.902	179.199	-0.154	0.224
-377.888	45.051	-0.118	-0.108
-376.873	-105.144	0.295	-0.067
-375.858	125.104	-0.154	0.193
-374.844	-59.808	-0.512	0.218
-373.829	-181.241	0.315	-0.006
-372.815	-79.151	0.072	-0.024
-371.800	-24.293	0.311	-0.184
-370.785	800.000	0.050	-0.182
-369.771	-76.584	0.201	0.070
-368.756	-68.850	-0.277	0.106
-367.742	-200.000	-0.231	0.001
-366.727	-142.050	0.159	-0.016
-365.712	800.000	0.038	0.116
-364.698	56.218	-0.180	-0.174
-363.683	-63.742	-0.264	0.108
-362.669	-96.273	0.351	-0.092
-361.654	-30.302	0.252	0.142
-360.639	93.509	-0.206	-0.232
-359.625	-115.497	0.074	-0.014
-358.610	95.004	-0.186	0.210
-357.596	7.481	-0.131	0.097
-356.581	275.134	0.052	0.092
-355.566	59.492	-0.050	-0.049
-354.552	-128.725	0.193	-0.027
-353.537	95.082	0.123	-0.139
-352.523	-200.000	0.015	-0.264
-351.508	546.561	0.031	-0.074
-350.493	-49.988	-0.278	0.131
-349.479	678.662	0.030	-0.078
-348.464	-200.000	0.011	0.162
-347.450	116.345	0.221	0.269
-346.435	-116.217	0.269	-0.050
-345.420	-97.289	-0.228	0.059
-344.406	-86.908	-0.125	0.038
-343.391	-74.372	-0.050	-0.018
-342.377	309.888	-0.043	-0.080
-341.362	-29.912	0.391	0.221
-340.348	488.592	-0.023	0.052
-339.333	315.602	0.082	0.154
-338.318	-104.346	0.185	0.043
-337.304	65.059	-0.173	-0.173
-336.289	136.696	0.103	0.133
-335.275	171.445	-0.040	0.057
-334.260	-200.000	-0.012	0.059
-333.245	376.152	0.223	0.452
-332.231	-200.000	-0.030	-0.268
-331.216	75.351	-0.105	-0.110
-330.202	-200.000	-0.063	-0.286
-329.187	160.665	-0.231	0.320
-328.172	80.805	0.163	0.175
-327.158	-127.548	-0.327	0.047
-326.143	25.411	0.129	-0.107
-325.129	-89.534	-0.267	0.078
-324.114	-60.790	-0.136	0.057
-323.099	800.000	0.040	-0.115
-322.085	-200.000	-0.001	0.006
-321.070	-56.695	0.049	0.022
-320.056	146.856	0.013	-0.017
-319.041	199.535	-0.172	0.261
-318.026	-45.603	0.148	-0.073
-317.012	11.501	-0.024	-0.018
-315.997	187.619	0.141	0.209
-314.983	-37.160	0.261	0.138
-313.968	-11.990	0.126	-0.082
-312.953	273.953	0.146	-0.255
-311.939	-34.459	0.328	-0.178
-310.924	-84.143	0.286	-0.090
-309.910	-200.000	0.001	-0.031
-308.895	10.307	0.186	0.140
-307.880	-200.000	-0.009	0.119
-306.866	-112.660	0.358	-0.071
-305.851	-125.637	-0.167	0.025
-304.837	126.842	0.257	0.323
-303.822	11.613	-0.072	-0.055
-302.807	-99.415	0.213	0.053
-301.793	50.111	0.110	-0.103
-300.778	49.769	-0.125	0.116
-299.764	-80.265	0.185	-0.061
-298.749	-200.000	0.030	0.203
-297.735	-116.943	-0.117	0.021
-296.720	79.665	-0.093	-0.099
-295.705	25.215	0.059	-0.049
-294.691	-200.000	0.051	0.331
-293.676	94.739	0.229	0.258
-292.662	428.341	-0.038	-0.082
-291.647	85.659	-0.107	-0.117
-290.632	-30.555	0.319	0.179
-289.618	-64.557	-0.431	0.173
-288.603	26.404	0.188	0.156
-287.589	80.369	0.030	-0.032
-286.574	-138.911	0.210	0.023
-285.559	800.000	-0.079	0.251
-284.545	13.480	0.159	-0.122
-283.530	-30.479	0.363	0.204
-282.516	26.393	-0.234	0.194
-281.501	236.206	-0.146	-0.239
-280.486	182.964	0.085	0.124
-279.472	-38.040	0.401	-0.211
-278.457	191.017	-0.272	-0.405
-277.443	-83.785	0.303	-0.096
-276.428	336.218	0.069	-0.133
-275.413	-200.000	-0.057	0.420
-274.399	391.670	0.206	0.423
-273.384	-7.416	0.171	0.115
-272.370	95.966	0.076	0.086
-271.355	714.252	0.057	0.149
-270.340	-200.000	-0.007	-0.210
-269.326	79.058	-0.273	-0.289
-268.311	402.827	-0.071	-0.149
-267.297	-15.006	0.202	0.128
-266.282	800.000	0.034	-0.127
-265.267	200.972	-0.061	-0.093
-264.253	74.611	0.180	-0.188
-263.238	24.932	0.102	-0.084
-262.224	32.906	-0.372	0.319
-261.209	462.742	-0.084	-0.185
-260.195	-166.045	0.062	-0.003
-259.180	-152.252	-0.275	0.020
-258.165	-37.000	-0.297	0.158
-257.151	-171.434	-0.159	-0.005
-256.136	-200.000	0.000	-0.262
-255.122	63.264	-0.128	0.126
-254.107	-93.507	0.116	0.032
-253.092	-75.563	0.246	0.086
-252.078	800.000	0.115	0.418
-251.063	-85.320	0.270	0.083
-250.049	-200.000	-0.024	-0.156
-249.034	-79.836	0.270	0.090
-248.019	217.679	-0.316	-0.498
-247.005	-22.938	0.369	0.220
-245.990	357.145	0.134	-0.264
-244.976	626.733	-0.032	-0.079
-243.961	355.038	-0.158	-0.310
-242.946	577.940	0.013	-0.031
-241.932	207.881	-0.054	-0.083
-240.917	-93.831	-0.195	0.053
-239.903	-200.000	0.005	-0.231
-238.888	240.892	-0.285	-0.470
-237.873	-200.000	0.014	0.301
-236.859	-200.000	-0.057	-0.309
-235.844	-200.000	-0.028	-0.233
-234.830	-153.239	-0.106	-0.007
-233.815	-48.858	-0.174	0.083
-232.800	-158.406	-0.113	0.006
-231.786	-200.000	-0.035	0.182
-230.771	-102.521	-0.211	0.050
-229.757	-200.000	0.011	-0.154
-228.742	-40.593	0.097	0.050
-227.727	309.872	-0.126	0.232
-226.713	-6.523	-0.046	0.031
-225.698	800.000	0.066	0.182
-224.684	-43.510	-0.156	-0.078
-223.669	800.000	-0.045	-0.134
-222.655	-42.099	0.131	0.066
-221.640	-200.000	-0.049	0.243
-220.625	-116.233	-0.225	0.041
-219.611	319.647	-0.057	0.107
-218.596	19.120	0.043	0.034
-217.582	102.485	0.092	0.106
-216.567	-135.943	0.396	0.046
-215.552	-90.378	-0.394	-0.113
-214.538	-104.309	0.235	-0.054
-213.523	160.207	0.170	-0.234
-212.509	-114.725	-0.088	0.017
-211.494	-200.000	0.068	-0.294
-210.479	-65.334	0.239	-0.095
-209.465	-60.198	0.222	0.093
-208.450	-200.000	0.023	0.294
-207.436	176.823	0.270	-0.388
-206.421	179.488	-0.092	-0.132
-205.406	-29.901	-0.099	-0.056
-204.392	75.037	-0.180	0.187
-203.377	183.092	0.184	0.268
-202.363	153.444	-0.082	0.110
-201.348	800.000	0.082	0.258
-200.333	-17.420	0.334	0.207
-199.319	412.688	0.082	0.172
-198.304	-92.946	-0.119	0.033
-197.290	800.000	0.136	0.383
-196.275	-124.591	0.344	-0.053
-195.260	48.660	0.070	-0.065
-194.246	339.035	-0.152	-0.293
-193.231	43.649	0.047	0.043
-192.217	63.123	0.086	-0.085
-191.202	-200.000	-0.052	0.234
-190.187	348.059	-0.021	-0.041
-189.173	506.072	0.097	-0.223
-188.158	-110.917	-0.208	0.042
-187.144	306.018	0.214	-0.392
-186.129	800.000	0.090	-0.287
-185.114	-99.261	0.295	-0.074
-184.100	-11.780	-0.138	0.089
-183.085	463.054	0.003	0.006
-182.071	73.778	-0.194	-0.200
-181.056	44.422	-0.098	-0.088
-180.042	385.013	0.026	0.053
-179.027	-107.320	-0.156	0.034
-178.012	16.572	-0.289	-0.225
-176.998	-18.732	0.321	0.197
-175.983	-200.000	0.015	0.083
-174.969	676.072	-0.054	0.137
-173.954	521.119	-0.086	0.198
-172.939	231.864	-0.037	0.060
-171.925	230.876	-0.170	0.274
-170.910	800.000	-0.078	-0.318
-169.896	-58.753	-0.115	-0.049
-168.881	550.185	0.144	-0.341
-167.866	-200.000	0.044	0.360
-166.852	-200.000	-0.002	-0.090
-165.837	11.879	0.081	0.062
-164.823	235.572	0.166	0.271
-163.808	-200.000	0.020	-0.180
-162.793	341.721	-0.146	-0.281
-161.779	-184.855	0.320	0.005
-160.764	800.000	-0.044	0.151
-159.750	-14.979	-0.134	0.085
-158.735	-106.516	-0.106	-0.023
-157.720	-200.000	0.004	-0.159
-156.706	266.098	0.167	0.287
-155.691	334.030	0.226	0.431
-154.677	-65.491	-0.149	0.059
-153.662	136.450	-0.102	-0.132
-152.647	-76.186	-0.120	-0.042
-151.633	-200.000	0.007	0.209
-150.618	-200.000	-0.025	0.159
-149.604	99.020	-0.061	-0.069
-148.589	183.197	-0.113	-0.165
-147.574	-105.293	0.105	-0.023
-146.560	174.604	-0.142	0.202
-145.545	800.000	0.017	0.054
-144.531	266.820	0.168	-0.289
-143.516	-200.000	0.063	0.307
-142.502	265.862	0.105	-0.181
-141.487	-103.931	0.301	-0.069
-140.472	40.394	-0.344	0.305
-139.458	228.317	0.062	0.099
-138.443	391.319	-0.070	-0.144
-137.429	114.561	-0.128	0.154
-136.414	58.940	0.051	0.049
-135.399	377.168	-0.153	0.308
-134.385	-200.000	-0.041	0.390
-133.370	-7.915	0.175	0.117
-132.356	-52.895	0.209	-0.095
-131.341	800.000	0.170	0.496
-130.326	-92.742	0.232	-0.064
-129.312	50.476	0.198	0.184
-128.297	-106.566	-0.223	0.049
-127.283	800.000	-0.138	-0.406
-126.268	24.742	-0.261	0.213
-125.253	-71.757	-0.072	-0.026
-124.239	-122.896	-0.062	-0.010
-123.224	204.748	0.158	-0.242
-122.210	112.049	0.067	0.079
-121.195	-200.000	-0.019	-0.086
