DTS Sentinel unit serial number:	SN413079Multiplexer serial number:	ORYXHardware model number:	OX4-SRSoftware version number:	ORYX F/W v4.00 Oryx Data Collector v3.7.2.0data status	okinstallation	princeton_trtdifferential loss correction	single-endedforward channel	channel 3reverse channel	N/Adate	2019/09/15time	11:16:35forward acquisition time	60.00reverse acquisition time	0.00gamma	496.2192k internal	0.2307k external	0.2307temperature offset calibration	0.9973default loss term (dB/km)	0.3790temperature slope calibration	1.0000multiplexer offset coefficient	1.0000multiplexer slope coefficient	1.0000fibre end	0.00T internal ref (°C)	34.31T ext. ref 1 (°C)	5.01T ext. ref 2 (°C)	29.72length (m)	temperature (°C)	Stokes	anti-Stokes-747.200	-200.000	0.054	-0.240
-746.185	800.000	-0.060	0.176
-745.171	-200.000	0.044	-0.305
-744.156	-200.000	-0.327	0.000
-743.142	51.919	0.290	-0.280
-742.127	-16.581	-0.177	0.114
-741.112	800.000	0.071	-0.204
-740.098	800.000	-0.040	-0.128
-739.083	40.242	-0.248	0.227
-738.069	-200.000	-0.029	0.220
-737.054	161.243	-0.129	0.183
-736.039	111.364	-0.181	-0.222
-735.025	-130.835	-0.101	-0.014
-734.010	148.612	-0.011	0.015
-732.996	278.443	-0.229	-0.416
-731.981	229.766	-0.234	-0.389
-730.966	-127.069	0.271	-0.040
-729.952	-83.970	-0.161	0.052
-728.937	103.570	-0.167	-0.200
-727.923	49.426	0.201	-0.192
-726.908	698.262	-0.099	-0.266
-725.894	-19.361	-0.200	-0.126
-724.879	131.168	-0.223	-0.291
-723.864	324.201	-0.074	-0.143
-722.850	-200.000	0.052	-0.473
-721.835	-200.000	0.014	0.163
-720.821	-51.458	-0.195	-0.093
-719.806	333.721	-0.101	-0.199
-718.791	-200.000	0.011	-0.331
-717.777	-11.254	-0.059	-0.040
-716.762	-114.337	-0.192	-0.038
-715.748	-92.785	0.099	0.028
-714.733	44.772	-0.220	0.205
-713.718	269.611	-0.147	-0.263
-712.704	37.363	-0.180	0.162
-711.689	124.331	-0.098	-0.125
-710.675	-200.000	0.010	0.232
-709.660	-58.942	-0.026	0.012
-708.645	-64.832	0.346	-0.142
-707.631	285.341	-0.132	-0.241
-706.616	-25.445	0.151	0.090
-705.602	-106.514	0.075	-0.017
-704.587	-200.000	-0.001	0.108
-703.572	-48.736	0.285	0.139
-702.558	-99.464	-0.217	-0.055
-701.543	-5.779	0.079	0.055
-700.529	33.840	0.286	0.253
-699.514	800.000	0.103	-0.321
-698.499	-50.625	-0.138	0.066
-697.485	-24.523	-0.075	-0.045
-696.470	-200.000	-0.006	0.183
-695.456	-1.516	-0.051	-0.036
-694.441	258.263	0.050	-0.088
-693.426	270.457	0.038	0.068
-692.412	273.495	0.075	-0.135
-691.397	16.883	0.171	0.138
-690.383	-105.204	-0.456	-0.106
-689.368	-200.000	0.015	-0.131
-688.354	90.243	0.070	0.080
-687.339	800.000	-0.041	-0.163
-686.324	-125.249	-0.150	0.023
-685.310	21.753	-0.212	-0.175
-684.295	45.008	-0.115	0.108
-683.281	800.000	0.076	-0.323
-682.266	62.328	-0.174	-0.176
-681.251	78.266	0.335	-0.363
-680.237	-145.035	0.118	0.011
-679.222	-125.268	-0.119	0.018
-678.208	194.321	0.183	-0.281
-677.193	-200.000	-0.067	0.000
-676.178	120.552	0.083	0.104
-675.164	800.000	-0.117	-0.512
-674.149	-141.443	0.090	-0.009
-673.135	-72.120	0.291	-0.109
-672.120	-140.010	-0.245	-0.026
-671.105	35.917	-0.242	0.216
-670.091	-156.648	-0.422	-0.026
-669.076	-9.596	-0.276	0.187
-668.062	41.658	-0.064	0.059
-667.047	11.310	-0.117	-0.091
-666.032	-107.514	-0.350	-0.078
-665.018	-23.615	-0.327	-0.199
-664.003	168.465	0.099	-0.143
-662.989	-200.000	0.020	-0.248
-661.974	799.899	-0.037	0.102
-660.959	-68.189	-0.027	-0.011
-659.945	-115.174	0.078	-0.015
-658.930	800.000	0.043	-0.164
-657.916	37.020	-0.197	-0.177
-656.901	381.185	0.127	-0.264
-655.886	332.473	0.043	-0.085
-654.872	-0.387	0.242	0.174
-653.857	-0.592	-0.206	0.148
-652.843	28.888	-0.067	0.058
-651.828	-200.000	0.078	-0.350
-650.814	153.320	0.079	0.109
-649.799	-200.000	-0.066	0.345
-648.784	800.000	0.046	-0.182
-647.770	45.127	-0.018	0.017
-646.755	-22.600	0.036	-0.022
-645.741	284.704	0.091	0.166
-644.726	-200.000	-0.037	0.313
-643.711	3.031	0.146	-0.107
-642.697	202.546	-0.153	-0.239
-641.682	26.199	0.106	0.089
-640.668	-61.394	0.197	0.084
-639.653	-11.635	-0.386	-0.257
-638.638	734.382	0.075	0.204
-637.624	-80.205	0.209	0.071
-636.609	-109.714	-0.404	-0.086
-635.595	222.688	0.057	0.093
-634.580	800.000	0.037	-0.115
-633.565	-30.232	0.154	-0.089
-632.551	-2.566	-0.130	0.092
-631.536	309.110	-0.075	0.142
-630.522	-200.000	-0.004	-0.124
-629.507	-200.000	-0.035	-0.221
-628.492	-200.000	0.012	-0.066
-627.478	129.514	0.074	0.095
-626.463	226.318	0.095	0.156
-625.449	11.476	0.130	-0.101
-624.434	273.058	0.150	-0.268
-623.419	43.141	0.255	0.235
-622.405	321.247	-0.043	-0.082
-621.390	580.487	0.046	0.113
-620.376	-200.000	0.003	-0.504
-619.361	40.285	-0.109	-0.100
-618.346	-200.000	-0.029	0.140
-617.332	-18.246	-0.310	0.196
-616.317	-61.666	0.070	-0.030
-615.303	-200.000	-0.033	-0.150
-614.288	219.963	0.081	0.132
-613.273	-41.963	0.380	0.197
-612.259	97.245	0.201	0.233
-611.244	384.541	0.115	0.239
-610.230	-200.000	-0.049	-0.256
-609.215	-200.000	0.051	0.385
-608.201	59.312	-0.119	-0.118
-607.186	59.195	-0.106	0.106
-606.171	10.304	-0.172	0.133
-605.157	-128.623	0.209	-0.030
-604.142	97.681	0.087	-0.102
-603.128	-80.770	0.278	0.093
-602.113	-199.181	-0.111	0.001
-601.098	-200.000	-0.021	-0.114
-600.084	800.000	-0.024	-0.068
-599.069	-116.974	0.185	-0.034
-598.055	-88.017	0.222	-0.067
-597.040	-195.932	-0.404	0.003
-596.025	43.477	0.016	0.015
-595.011	-13.921	0.242	-0.158
-593.996	-62.034	-0.198	-0.084
-592.982	-200.000	0.037	0.212
-591.967	-174.326	0.061	-0.002
-590.952	-17.127	-0.253	-0.162
-589.938	-142.322	0.192	0.019
-588.923	144.104	-0.123	-0.165
-587.909	435.236	-0.109	-0.241
-586.894	-26.468	0.043	0.025
-585.879	-6.388	-0.121	0.083
-584.865	-145.996	0.381	-0.034
-583.850	-122.977	0.143	-0.023
-582.836	247.505	-0.080	-0.137
-581.821	-32.625	-0.535	-0.301
-580.806	-142.134	-0.230	0.023
-579.792	-200.000	-0.007	0.119
-578.777	-99.456	0.354	-0.090
-577.763	-190.137	0.265	0.003
-576.748	-51.662	0.199	0.094
-575.733	-200.000	-0.051	0.319
-574.719	45.647	-0.140	-0.131
-573.704	-31.834	-0.144	0.081
-572.690	199.577	-0.157	-0.243
-571.675	406.228	0.128	-0.272
-570.661	388.817	-0.124	0.259
-569.646	377.543	0.105	0.217
-568.631	-107.531	-0.133	0.029
-567.617	133.126	0.023	0.030
-566.602	-200.000	0.056	-0.289
-565.588	361.049	0.080	-0.161
-564.573	-200.000	0.033	-0.233
-563.558	-39.924	-0.206	-0.108
-562.544	-64.292	0.139	-0.057
-561.529	-44.451	-0.211	-0.107
-560.515	-7.034	-0.148	-0.102
-559.500	-45.554	0.131	0.066
-558.485	-107.343	0.192	0.042
-557.471	60.536	0.245	-0.245
-556.456	425.021	0.082	-0.178
-555.442	382.136	-0.040	-0.084
-554.427	-200.000	-0.004	0.253
-553.412	-58.636	-0.405	0.177
-552.398	82.489	-0.175	-0.192
-551.383	-23.459	0.199	-0.121
-550.369	83.319	0.046	0.051
-549.354	89.813	0.222	-0.250
-548.339	152.194	0.172	-0.237
-547.325	-200.000	-0.067	-0.663
-546.310	800.000	-0.053	0.203
-545.296	800.000	0.013	0.056
-544.281	-108.552	-0.138	-0.030
-543.266	377.797	0.087	0.179
-542.252	-200.000	-0.029	-0.368
-541.237	-78.017	0.190	0.066
-540.223	400.574	-0.052	-0.109
-539.208	-29.057	-0.228	-0.132
-538.193	-200.000	-0.044	-0.422
-537.179	534.241	0.058	-0.138
-536.164	58.198	0.039	-0.039
-535.150	-115.348	0.381	0.073
-534.135	-190.477	-0.210	-0.002
-533.121	88.181	-0.121	0.135
-532.106	41.518	0.181	0.165
-531.091	800.000	-0.032	0.113
-530.077	-24.823	0.126	0.076
-529.062	-159.308	-0.333	-0.019
-528.048	-200.000	0.004	-0.082
-527.033	96.426	-0.142	0.164
-526.018	-43.093	-0.123	-0.063
-525.004	568.065	0.020	0.049
-523.989	-200.000	0.022	-0.202
-522.975	-95.916	-0.244	-0.066
-521.960	70.205	-0.310	-0.322
-520.945	-200.000	-0.056	-0.346
-519.931	474.354	0.073	0.165
-518.916	-80.886	0.175	-0.059
-517.902	-80.106	0.261	-0.088
-516.887	800.000	-0.101	0.355
-515.872	-200.000	-0.025	-0.279
-514.858	94.600	-0.242	0.277
-513.843	-126.244	0.247	0.037
-512.829	-48.038	-0.202	-0.098
-511.814	-200.000	-0.006	0.035
-510.799	-5.183	-0.140	0.097
-509.785	800.000	0.020	-0.077
-508.770	-69.807	0.185	-0.071
-507.756	-52.628	-0.082	0.038
-506.741	5.831	0.145	-0.108
-505.726	-25.920	0.043	0.026
-504.712	-200.000	0.006	0.337
-503.697	-39.012	-0.036	0.019
-502.683	800.000	0.042	0.143
-501.668	-171.690	-0.185	-0.006
-500.653	-200.000	0.002	0.348
-499.639	12.438	-0.127	-0.099
-498.624	-80.493	0.169	-0.057
-497.610	80.304	0.127	-0.138
-496.595	81.057	-0.179	-0.194
-495.581	-184.730	-0.198	0.003
-494.566	345.745	-0.155	-0.307
-493.551	-7.584	-0.184	0.125
-492.537	347.834	-0.178	-0.354
-491.522	-144.802	0.108	-0.010
-490.508	-14.170	0.161	0.104
-489.493	441.694	-0.024	0.054
-488.478	-101.384	0.214	-0.053
-487.464	227.958	-0.009	0.014
-486.449	25.430	-0.253	0.212
-485.435	61.423	-0.145	-0.145
-484.420	-84.041	0.382	-0.122
-483.405	228.294	-0.130	0.213
-482.391	-110.416	0.581	0.121
-481.376	-121.235	-0.168	0.028
-480.362	-69.906	0.090	0.035
-479.347	-129.508	-0.086	-0.012
-478.332	-87.425	-0.156	0.047
-477.318	800.000	0.059	0.184
-476.303	238.798	-0.134	-0.224
-475.289	-5.737	-0.298	-0.206
-474.274	471.849	0.134	0.304
-473.259	230.448	-0.093	-0.153
-472.245	-127.283	-0.129	0.019
-471.230	58.416	-0.046	0.045
-470.216	800.000	-0.075	-0.284
-469.201	-200.000	0.008	0.066
-468.186	-89.591	-0.110	0.032
-467.172	-200.000	0.036	-0.265
-466.157	379.876	0.076	-0.157
-465.143	-92.692	-0.499	0.141
-464.128	116.674	0.125	0.155
-463.113	-200.000	-0.009	-0.300
-462.099	800.000	-0.118	-0.338
-461.084	-101.554	-0.440	0.108
-460.070	-96.011	0.175	0.047
-459.055	14.690	0.155	0.122
-458.040	-156.144	-0.145	-0.009
-457.026	-100.808	-0.173	-0.043
-456.011	-3.122	0.088	0.062
-454.997	-39.851	-0.270	0.142
-453.982	-76.527	0.199	-0.070
-452.968	-86.548	0.329	-0.102
-451.953	-20.341	0.027	-0.017
-450.938	37.852	0.189	-0.169
-449.924	196.618	-0.155	-0.237
-448.909	132.208	-0.167	-0.217
-447.895	-200.000	0.017	-0.103
-446.880	-114.936	0.034	-0.007
-445.865	800.000	-0.060	0.176
-444.851	-200.000	-0.015	0.136
-443.836	-200.000	0.014	0.110
-442.822	36.228	-0.191	-0.169
-441.807	800.000	0.052	-0.155
-440.792	-116.494	-0.354	-0.066
-439.778	-200.000	0.004	-0.042
-438.763	137.546	-0.078	0.103
-437.749	-200.000	-0.013	-0.067
-436.734	-37.184	0.297	-0.160
-435.719	650.619	0.036	0.092
-434.705	60.207	-0.069	0.069
-433.690	340.346	0.012	0.024
-432.676	640.001	0.147	-0.377
-431.661	9.792	0.127	-0.097
-430.646	-146.080	0.317	-0.028
-429.632	-24.530	0.234	-0.140
-428.617	167.237	-0.178	0.254
-427.603	800.000	-0.068	0.287
-426.588	-200.000	0.002	-0.020
-425.573	60.943	0.137	-0.136
-424.559	-162.621	0.110	-0.005
-423.544	800.000	0.085	-0.240
-422.530	-26.484	-0.166	0.098
-421.515	27.568	-0.092	0.077
-420.500	-200.000	-0.008	-0.247
-419.486	-200.000	0.010	0.046
-418.471	312.495	-0.029	0.055
-417.457	-135.089	-0.369	0.045
-416.442	-103.702	-0.097	0.023
-415.428	-200.000	0.004	-0.188
-414.413	-122.321	-0.076	-0.013
-413.398	-200.000	0.035	-0.428
-412.384	-58.465	0.131	0.057
-411.369	105.441	0.145	0.172
-410.355	80.952	0.077	0.083
-409.340	-200.000	0.004	0.194
-408.325	800.000	-0.130	-0.459
-407.311	-112.311	-0.038	0.008
-406.296	-69.942	0.220	0.084
-405.282	-188.336	-0.211	0.003
-404.267	-30.238	-0.078	-0.044
-403.252	800.000	-0.015	0.048
-402.238	800.000	-0.088	0.314
-401.223	-130.025	-0.320	-0.044
-400.209	-71.527	-0.132	-0.050
-399.194	723.805	0.041	0.109
-398.179	42.269	0.213	0.194
-397.165	63.400	-0.286	-0.288
-396.150	-44.358	-0.074	-0.037
-395.136	-34.456	0.353	0.194
-394.121	800.000	0.030	0.110
-393.106	456.392	0.118	0.262
-392.092	704.483	0.182	0.482
-391.077	218.436	-0.191	0.306
-390.063	-47.929	0.225	0.109
-389.048	16.475	-0.107	0.085
-388.033	-140.657	0.451	0.047
-387.019	-101.704	0.276	0.067
-386.004	27.590	-0.104	0.088
-384.990	78.095	0.238	0.254
-383.975	467.626	-0.174	-0.391
-382.960	-83.109	0.146	-0.047
-381.946	-8.167	-0.391	-0.264
-380.931	-19.348	-0.163	0.101
-379.917	20.383	-0.089	0.072
-378.902	-200.000	0.011	0.123
-377.888	-41.118	0.277	-0.143
-376.873	800.000	0.064	-0.212
-375.858	-3.530	-0.096	-0.067
-374.844	-79.744	-0.015	0.005
-373.829	800.000	0.071	-0.269
-372.815	-182.527	-0.113	-0.002
-371.800	199.601	-0.176	0.270
-370.785	-4.687	0.180	0.124
-369.771	390.629	-0.100	0.208
-368.756	-34.785	-0.109	-0.060
-367.742	194.584	-0.054	-0.082
-366.727	90.775	0.217	-0.243
-365.712	561.090	0.052	0.126
-364.698	311.398	-0.128	0.240
-363.683	20.717	0.107	-0.087
-362.669	-200.000	-0.044	0.502
-361.654	800.000	-0.054	0.208
-360.639	-188.027	-0.333	-0.004
-359.625	-29.173	-0.273	0.157
-358.610	-60.682	0.153	-0.065
-357.596	71.286	-0.053	-0.055
-356.581	281.668	0.071	0.127
-355.566	-200.000	0.018	-0.279
-354.552	169.988	-0.098	0.140
-353.537	23.036	-0.096	0.079
-352.523	800.000	0.139	0.431
-351.508	104.829	0.137	0.162
-350.493	-200.000	0.001	0.181
-349.479	181.931	-0.054	0.080
-348.464	-2.553	-0.084	0.059
-347.450	297.503	0.064	-0.118
-346.435	800.000	0.057	0.201
-345.420	367.600	-0.143	0.290
-344.406	-71.951	0.305	0.113
-343.391	-79.736	-0.343	0.116
-342.377	-50.281	0.315	-0.149
-341.362	189.540	0.216	-0.323
-340.348	-7.339	-0.057	-0.038
-339.333	-48.048	0.067	-0.032
-338.318	-104.706	0.205	0.047
-337.304	-10.619	0.240	0.159
-336.289	-33.473	-0.381	0.211
-335.275	41.518	0.117	-0.106
-334.260	-94.164	-0.511	0.140
-333.245	82.483	0.304	-0.330
-332.231	325.082	-0.124	-0.237
-331.216	-200.000	-0.008	0.139
-330.202	6.866	-0.166	0.124
-329.187	-17.096	-0.008	0.005
-328.172	33.916	0.139	-0.121
-327.158	85.193	-0.231	0.253
-326.143	800.000	0.145	0.457
-325.129	-200.000	0.005	-0.032
-324.114	-105.860	0.254	0.057
-323.099	35.233	-0.242	-0.212
-322.085	13.810	0.191	-0.148
-321.070	-66.911	0.041	-0.016
-320.056	-100.870	0.073	0.018
-319.041	-161.326	0.419	-0.022
-318.026	70.481	-0.157	-0.162
-317.012	-28.853	0.164	-0.094
-315.997	-91.013	-0.160	0.046
-314.983	-11.210	-0.186	-0.122
-313.968	217.913	-0.145	-0.231
-312.953	-200.000	-0.026	0.286
-311.939	53.250	-0.042	-0.040
-310.924	-56.470	0.206	0.091
-309.910	-67.097	-0.084	0.033
-308.895	-14.145	-0.176	-0.114
-307.880	-126.595	0.204	0.030
-306.866	-126.629	0.128	-0.019
-305.851	800.000	0.062	0.252
-304.837	-200.000	0.013	0.196
-303.822	-95.277	0.159	0.043
-302.807	-25.694	-0.134	-0.079
-301.793	-89.481	-0.135	0.040
-300.778	-200.000	-0.007	-0.064
-299.764	-130.564	-0.346	-0.047
-298.749	188.905	0.047	0.071
-297.735	-77.426	-0.240	0.083
-296.720	-200.000	0.037	-0.165
-295.705	207.372	-0.142	-0.222
-294.691	640.164	-0.153	0.388
-293.676	-82.156	-0.280	0.091
-292.662	20.207	0.083	-0.067
-291.647	169.703	-0.207	-0.295
-290.632	-13.101	0.283	-0.184
-289.618	800.000	0.017	0.048
-288.603	303.929	0.114	0.211
-287.589	-77.192	0.190	0.066
-286.574	-66.656	-0.240	-0.095
-285.559	506.383	-0.073	-0.170
-284.545	6.761	0.267	0.198
-283.530	-63.817	-0.371	0.152
-282.516	143.653	0.228	0.304
-281.501	-200.000	-0.022	0.397
-280.486	56.618	-0.158	-0.153
-279.472	33.602	0.050	0.043
-278.457	-101.192	-0.215	0.052
-277.443	138.104	0.036	-0.048
-276.428	16.087	0.155	-0.122
-275.413	136.991	0.249	-0.325
-274.399	378.106	0.072	0.148
-273.384	-200.000	0.020	0.200
-272.370	315.355	0.119	-0.225
-271.355	-122.939	0.170	-0.027
-270.340	182.990	0.055	0.081
-269.326	122.186	0.123	-0.153
-268.311	40.488	-0.352	0.317
-267.297	50.416	0.187	0.177
-266.282	-200.000	0.035	0.191
-265.267	0.374	0.193	-0.137
-264.253	-105.753	0.177	0.040
-263.238	-111.117	0.122	-0.025
-262.224	-174.224	-0.166	0.005
-261.209	-155.812	-0.205	-0.013
-260.195	-102.428	-0.227	0.054
-259.180	800.000	-0.056	0.156
-258.165	-19.489	-0.273	0.169
-257.151	800.000	0.024	-0.097
-256.136	-200.000	-0.010	0.348
-255.122	-200.000	0.005	0.166
-254.107	450.244	-0.122	0.268
-253.092	-29.675	0.283	-0.161
-252.078	268.841	-0.079	-0.138
-251.063	-166.127	0.168	-0.007
-250.049	800.000	0.059	-0.248
-249.034	-159.608	0.215	0.012
-248.019	800.000	0.054	0.165
-247.005	-31.828	-0.188	-0.105
-245.990	-200.000	0.009	-0.110
-244.976	-180.991	-0.466	0.009
-243.961	800.000	0.038	-0.129
-242.946	-200.000	-0.033	0.171
-241.932	490.795	-0.083	0.189
-240.917	3.377	0.125	0.091
-239.903	-200.000	0.007	0.254
-238.888	800.000	0.084	-0.262
-237.873	-16.247	0.278	0.176
-236.859	-20.314	0.212	-0.130
-235.844	800.000	0.038	-0.126
-234.830	-85.847	0.190	0.059
-233.815	61.622	0.374	-0.371
-232.800	-200.000	-0.012	0.090
-231.786	227.234	0.113	0.182
-230.771	314.813	0.105	0.197
-229.757	800.000	-0.043	0.172
-228.742	141.278	0.122	-0.161
-227.727	-200.000	0.005	0.092
-226.713	-94.710	0.222	0.060
-225.698	-86.018	-0.429	0.132
-224.684	-92.420	0.186	0.052
-223.669	2.374	-0.382	0.275
-222.655	541.366	0.072	-0.172
-221.640	-148.349	0.282	-0.023
-220.625	-50.111	-0.163	0.077
-219.611	-200.000	0.024	0.224
-218.596	-200.000	-0.020	0.183
-217.582	-200.000	-0.017	0.090
-216.567	67.507	-0.114	0.116
-215.552	600.330	-0.035	-0.086
-214.538	-95.465	-0.327	-0.087
-213.523	-179.426	-0.091	-0.002
-212.509	121.291	0.049	0.060
-211.494	-200.000	0.047	0.235
-210.479	267.588	0.201	0.350
-209.465	88.267	-0.067	-0.075
-208.450	-54.919	-0.061	-0.027
-207.436	-131.490	0.161	-0.021
-206.421	-111.540	0.116	-0.024
-205.406	70.694	0.029	0.030
-204.392	460.981	-0.116	-0.257
-203.377	137.556	-0.165	0.215
-202.363	-96.839	-0.095	0.025
-201.348	279.711	0.148	0.263
-200.333	-85.113	-0.163	0.051
-199.319	555.806	0.071	-0.170
-198.304	-133.658	-0.215	-0.027
-197.290	-157.707	-0.216	0.013
-196.275	-34.663	-0.178	-0.097
-195.260	-200.000	0.040	-0.385
-194.246	-50.433	-0.147	0.069
-193.231	285.489	-0.168	-0.302
-192.217	430.891	0.116	-0.251
-191.202	771.199	-0.024	-0.064
-190.187	-200.000	-0.007	-0.178
-189.173	114.435	-0.201	-0.244
-188.158	702.369	0.051	0.133
-187.144	257.373	0.142	-0.244
-186.129	800.000	-0.030	-0.095
-185.114	-166.511	-0.270	0.011
-184.100	10.290	0.028	-0.021
-183.085	-23.870	0.052	0.031
-182.071	23.418	-0.004	-0.003
-181.056	-200.000	-0.019	0.331
-180.042	800.000	0.024	0.082
-179.027	-57.240	0.164	-0.072
-178.012	800.000	-0.048	-0.136
-176.998	800.000	-0.068	-0.230
-175.983	9.214	0.113	-0.085
-174.969	100.457	0.223	-0.258
-173.954	-200.000	-0.020	-0.232
-172.939	-199.024	0.151	-0.001
-171.925	111.402	0.212	-0.254
-170.910	112.991	-0.064	0.077
-169.896	-180.667	-0.204	0.004
-168.881	-74.463	0.284	-0.102
-167.866	-43.856	-0.050	0.025
-166.852	-200.000	-0.008	0.307
-165.837	-200.000	0.002	0.113
-164.823	54.552	0.423	-0.405
-163.808	-200.000	-0.023	0.109
-162.793	130.736	0.118	-0.151
-161.779	150.196	0.165	-0.223
-160.764	425.578	0.110	0.235
-159.750	502.580	-0.145	0.333
-158.735	85.590	-0.040	0.044
-157.720	-72.841	-0.171	-0.063
-156.706	-200.000	0.022	0.231
-155.691	-42.547	0.316	0.160
-154.677	-95.645	-0.126	-0.034
-153.662	99.166	0.155	-0.178
-152.647	-117.110	0.276	-0.050
-151.633	800.000	-0.040	0.168
-150.618	-200.000	-0.003	0.328
-149.604	-91.521	-0.242	-0.069
-148.589	25.203	0.206	-0.170
-147.574	76.251	0.230	-0.242
-146.560	-53.353	0.084	-0.038
-145.545	-69.094	-0.211	0.081
-144.531	248.833	-0.101	-0.170
-143.516	-147.008	0.244	-0.021
-142.502	60.688	0.114	0.112
-141.487	-127.746	-0.146	-0.021
-140.472	419.624	-0.109	-0.231
-139.458	60.141	0.084	-0.082
-138.443	-170.592	0.136	0.005
-137.429	-200.000	-0.010	-0.232
-136.414	-108.532	0.068	-0.014
-135.399	-102.336	-0.227	-0.054
-134.385	-78.350	-0.155	-0.053
-133.370	800.000	-0.026	0.090
-132.356	-200.000	-0.013	-0.063
-131.341	280.264	-0.079	-0.141
-130.326	-200.000	-0.025	0.170
-129.312	-200.000	0.006	-0.100
-128.297	800.000	-0.113	-0.363
-127.283	-152.805	0.164	0.012
-126.268	-200.000	0.040	-0.193
-125.253	164.837	0.073	0.102
-124.239	247.300	0.036	-0.060
-123.224	-200.000	-0.003	-0.346
-122.210	14.425	0.058	0.045
-121.195	-64.625	-0.154	0.062
