DTS Sentinel unit serial number:	SN413079Multiplexer serial number:	ORYXHardware model number:	OX4-SRSoftware version number:	ORYX F/W v4.00 Oryx Data Collector v3.7.2.0data status	okinstallation	princeton_trtdifferential loss correction	single-endedforward channel	channel 3reverse channel	N/Adate	2019/09/15time	11:00:34forward acquisition time	60.00reverse acquisition time	0.00gamma	496.2192k internal	0.2307k external	0.2307temperature offset calibration	0.9975default loss term (dB/km)	0.3790temperature slope calibration	1.0000multiplexer offset coefficient	1.0000multiplexer slope coefficient	1.0000fibre end	0.00T internal ref (°C)	34.27T ext. ref 1 (°C)	5.05T ext. ref 2 (°C)	29.93length (m)	temperature (°C)	Stokes	anti-Stokes-747.200	268.708	0.052	0.092
-746.185	56.527	-0.369	0.365
-745.171	-41.082	0.268	0.140
-744.156	800.000	0.117	0.334
-743.142	686.907	-0.055	0.145
-742.127	-200.000	-0.012	0.324
-741.112	10.826	-0.099	0.077
-740.098	-73.197	0.120	0.045
-739.083	-85.355	-0.154	0.049
-738.069	800.000	0.093	0.390
-737.054	120.366	-0.046	0.059
-736.039	438.692	-0.038	-0.084
-735.025	800.000	0.096	-0.363
-734.010	-33.415	-0.278	-0.156
-732.996	265.677	-0.097	-0.171
-731.981	0.761	0.129	-0.094
-730.966	-30.693	0.099	0.057
-729.952	-24.044	0.179	0.109
-728.937	-25.806	-0.168	-0.101
-727.923	-29.043	-0.238	0.139
-726.908	-162.171	-0.054	-0.003
-725.894	171.768	0.126	-0.184
-724.879	66.375	0.059	-0.061
-723.864	800.000	-0.036	-0.142
-722.850	-94.908	-0.130	0.036
-721.835	-82.980	-0.469	-0.154
-720.821	-200.000	0.007	-0.078
-719.806	468.463	-0.046	0.105
-718.791	120.003	-0.292	-0.368
-717.777	-200.000	0.011	0.250
-716.762	790.164	0.070	-0.196
-715.748	51.884	0.081	-0.078
-714.733	-66.217	0.194	0.079
-713.718	-200.000	-0.024	-0.267
-712.704	93.140	0.050	0.057
-711.689	-200.000	-0.003	0.065
-710.675	40.603	-0.069	-0.063
-709.660	105.672	0.186	0.223
-708.645	353.528	-0.069	-0.140
-707.631	268.393	0.141	0.250
-706.616	135.530	-0.242	0.320
-705.602	-29.978	-0.099	-0.057
-704.587	-59.918	0.105	-0.046
-703.572	-200.000	0.024	-0.243
-702.558	406.954	0.048	0.103
-701.543	-200.000	-0.033	-0.168
-700.529	279.510	0.174	0.315
-699.514	-26.114	0.099	-0.059
-698.499	-51.520	-0.110	0.052
-697.485	-200.000	0.010	0.261
-696.470	-32.840	-0.069	-0.039
-695.456	746.888	-0.040	-0.109
-694.441	-146.412	0.180	-0.016
-693.426	-80.206	0.214	0.073
-692.412	98.102	0.067	-0.078
-691.397	-57.556	-0.292	0.130
-690.383	162.986	-0.066	0.095
-689.368	550.884	-0.113	0.275
-688.354	-200.000	0.010	-0.133
-687.339	-200.000	-0.009	-0.192
-686.324	219.794	-0.177	0.288
-685.310	-50.304	-0.153	-0.073
-684.295	43.875	0.032	-0.029
-683.281	-200.000	-0.007	-0.251
-682.266	-133.359	-0.084	-0.011
-681.251	-114.432	-0.163	-0.032
-680.237	-200.000	-0.008	0.321
-679.222	-41.962	-0.070	0.036
-678.208	300.354	0.034	-0.064
-677.193	-25.605	0.177	-0.106
-676.178	800.000	-0.085	-0.310
-675.164	302.541	-0.067	0.125
-674.149	-200.000	-0.089	-0.549
-673.135	-26.984	0.285	-0.169
-672.120	-101.260	-0.194	0.048
-671.105	29.212	-0.128	0.110
-670.091	359.537	0.117	-0.238
-669.076	800.000	0.047	-0.163
-668.062	800.000	0.044	-0.146
-667.047	-4.956	-0.212	-0.148
-666.032	113.648	0.124	0.153
-665.018	-101.134	-0.076	0.019
-664.003	-68.591	-0.226	-0.089
-662.989	186.984	0.100	-0.151
-661.974	-123.212	0.268	-0.043
-660.959	-26.437	0.175	0.104
-659.945	-200.000	-0.033	0.324
-658.930	-200.000	0.011	0.119
-657.916	89.576	-0.115	-0.130
-656.901	161.119	-0.082	-0.116
-655.886	-170.628	0.462	0.016
-654.872	93.897	-0.193	0.222
-653.857	800.000	0.066	0.210
-652.843	-29.653	0.041	-0.024
-651.828	58.805	-0.086	-0.086
-650.814	-200.000	-0.007	-0.082
-649.799	-134.675	0.192	0.024
-648.784	444.729	0.052	0.115
-647.770	-45.315	0.201	-0.101
-646.755	140.948	0.181	-0.243
-645.741	-88.544	0.052	0.016
-644.726	-46.269	-0.184	0.092
-643.711	176.689	-0.082	-0.121
-642.697	466.986	0.171	-0.388
-641.682	223.994	-0.086	0.140
-640.668	53.772	-0.037	-0.036
-639.653	-200.000	-0.012	0.298
-638.638	171.894	-0.127	-0.185
-637.624	11.543	-0.252	-0.196
-636.609	317.755	-0.140	-0.268
-635.595	33.219	0.250	0.220
-634.580	-200.000	0.034	-0.178
-633.565	-33.578	0.205	-0.115
-632.551	-74.354	-0.300	-0.110
-631.536	92.464	0.202	-0.230
-630.522	-128.940	-0.015	0.002
-629.507	-136.017	0.253	0.030
-628.492	15.509	0.133	0.105
-627.478	217.162	-0.044	0.072
-626.463	-77.473	0.180	-0.063
-625.449	91.466	0.096	0.109
-624.434	78.474	-0.079	-0.085
-623.419	-200.000	0.038	0.228
-622.405	800.000	-0.061	0.255
-621.390	800.000	-0.020	0.078
-620.376	112.786	-0.045	-0.056
-619.361	-108.233	-0.284	-0.062
-618.346	-200.000	-0.005	0.070
-617.332	-18.305	0.162	0.103
-616.317	-85.042	-0.261	0.083
-615.303	800.000	-0.100	-0.369
-614.288	194.106	-0.106	-0.163
-613.273	-200.000	-0.093	-0.473
-612.259	-200.000	0.004	-0.109
-611.244	92.506	-0.120	-0.137
-610.230	180.492	0.105	0.156
-609.215	181.804	0.123	-0.184
-608.201	277.474	0.157	0.282
-607.186	25.626	0.068	0.057
-606.171	-97.726	-0.026	0.007
-605.157	-200.000	0.012	0.229
-604.142	286.872	0.077	0.140
-603.128	-155.974	0.156	-0.010
-602.113	-184.787	-0.261	0.004
-601.098	-79.873	0.268	0.091
-600.084	-87.363	-0.090	-0.028
-599.069	-27.048	-0.291	-0.171
-598.055	528.494	-0.080	-0.192
-597.040	436.593	-0.093	-0.204
-596.025	-120.358	0.305	-0.053
-595.011	-90.727	0.377	0.110
-593.996	127.155	-0.148	-0.190
-592.982	-78.510	0.136	0.047
-591.967	-200.000	-0.015	-0.111
-590.952	254.891	0.316	-0.548
-589.938	-188.629	-0.233	-0.003
-588.923	-67.465	0.331	-0.131
-587.909	-29.816	0.065	-0.037
-586.894	-2.983	0.225	-0.159
-585.879	-69.713	-0.080	-0.031
-584.865	-72.410	-0.109	-0.041
-583.850	60.767	-0.095	-0.095
-582.836	-200.000	0.046	0.264
-581.821	115.115	0.039	0.048
-580.806	-200.000	-0.011	0.351
-579.792	800.000	-0.042	-0.146
-578.777	-27.611	-0.176	-0.103
-577.763	-200.000	0.041	-0.323
-576.748	800.000	-0.025	-0.085
-575.733	-108.075	0.317	-0.069
-574.719	-105.493	-0.276	0.063
-573.704	800.000	0.077	0.247
-572.690	-105.252	-0.074	0.017
-571.675	31.038	-0.052	-0.045
-570.661	800.000	-0.022	0.072
-569.646	800.000	0.156	-0.538
-568.631	535.796	0.190	0.456
-567.617	-28.926	-0.348	0.202
-566.602	800.000	-0.100	-0.353
-565.588	-92.622	-0.331	0.094
-564.573	99.735	0.067	0.078
-563.558	217.301	0.067	0.108
-562.544	-200.000	-0.057	0.279
-561.529	-179.535	-0.232	-0.005
-560.515	-200.000	-0.025	-0.125
-559.500	800.000	-0.110	0.310
-558.485	114.216	-0.180	0.221
-557.471	-140.533	-0.281	-0.029
-556.456	62.470	0.246	-0.249
-555.442	800.000	0.034	0.146
-554.427	293.938	0.168	0.310
-553.412	-200.000	-0.008	0.299
-552.398	772.521	0.108	0.297
-551.383	-72.060	-0.132	-0.050
-550.369	0.413	0.164	-0.118
-549.354	-84.866	-0.055	0.017
-548.339	-194.133	0.095	0.001
-547.325	-100.282	0.380	-0.095
-546.310	12.170	0.104	0.081
-545.296	234.812	0.206	-0.343
-544.281	-31.392	-0.280	0.159
-543.266	800.000	0.019	-0.061
-542.252	-200.000	0.007	-0.156
-541.237	146.910	0.203	-0.276
-540.223	800.000	0.174	-0.544
-539.208	-101.283	0.063	-0.016
-538.193	124.241	-0.139	0.176
-537.179	-58.471	-0.171	-0.075
-536.164	-77.399	-0.212	0.074
-535.150	-40.469	-0.406	0.213
-534.135	800.000	0.035	0.101
-533.121	200.031	-0.171	-0.266
-532.106	-146.770	0.183	0.016
-531.091	40.315	0.170	-0.154
-530.077	-37.693	0.239	-0.129
-529.062	378.696	0.108	-0.223
-528.048	-134.800	-0.186	0.023
-527.033	700.215	-0.090	0.239
-526.018	-200.000	0.019	0.236
-525.004	-118.749	0.203	0.036
-523.989	-200.000	-0.052	-0.377
-522.975	101.956	0.138	0.162
-521.960	25.600	-0.344	-0.289
-520.945	-200.000	0.008	-0.168
-519.931	-66.975	0.149	-0.059
-518.916	13.652	0.135	0.106
-517.902	-200.000	0.006	-0.124
-516.887	800.000	0.053	0.153
-515.872	-200.000	-0.016	0.154
-514.858	-76.272	0.220	-0.078
-513.843	-135.112	-0.272	-0.033
-512.829	173.723	-0.144	0.210
-511.814	150.890	0.160	-0.219
-510.799	100.971	-0.246	-0.288
-509.785	222.014	-0.151	0.244
-508.770	-200.000	0.004	-0.049
-507.756	-200.000	-0.028	-0.132
-506.741	-105.692	0.303	0.069
-505.726	81.371	-0.163	-0.177
-504.712	-76.379	0.236	-0.084
-503.697	-200.000	0.034	-0.216
-502.683	187.833	-0.104	-0.157
-501.668	-123.139	0.187	0.030
-500.653	-200.000	0.013	-0.316
-499.639	702.002	0.079	-0.208
-498.624	267.936	0.066	0.116
-497.610	-81.326	-0.130	0.043
-496.595	-118.072	0.407	-0.073
-495.581	-43.731	0.347	-0.176
-494.566	326.264	0.092	-0.177
-493.551	-200.000	-0.017	-0.224
-492.537	800.000	0.018	0.057
-491.522	223.855	0.154	-0.250
-490.508	108.176	0.021	0.025
-489.493	465.088	0.146	0.329
-488.478	638.730	-0.082	-0.209
-487.464	20.081	0.204	-0.165
-486.449	327.149	0.067	-0.129
-485.435	177.463	0.120	-0.175
-484.420	88.102	0.330	-0.369
-483.405	287.855	-0.175	-0.320
-482.391	-200.000	-0.011	-0.156
-481.376	-200.000	0.008	-0.064
-480.362	-200.000	-0.000	0.129
-479.347	15.136	-0.014	-0.011
-478.332	-30.901	-0.058	0.033
-477.318	210.385	0.142	0.224
-476.303	-176.627	0.221	0.006
-475.289	-60.858	-0.189	-0.080
-474.274	-200.000	0.031	0.213
-473.259	-125.136	0.269	-0.041
-472.245	-111.247	0.185	0.038
-471.230	-14.187	0.167	-0.109
-470.216	-14.987	-0.377	-0.243
-469.201	-200.000	-0.006	-0.158
-468.186	-130.132	-0.118	0.016
-467.172	-99.161	-0.139	-0.035
-466.157	107.151	-0.035	0.042
-465.143	319.038	0.025	-0.048
-464.128	-200.000	0.015	0.171
-463.113	-149.894	0.404	0.032
-462.099	800.000	0.061	0.251
-461.084	42.460	-0.255	-0.233
-460.070	577.292	-0.049	0.120
-459.055	-200.000	-0.019	-0.154
-458.040	-172.180	0.250	0.008
-457.026	-200.000	-0.037	0.259
-456.011	20.625	0.080	0.065
-454.997	-198.837	-0.072	-0.000
-453.982	-32.970	0.212	0.118
-452.968	20.794	-0.089	0.072
-451.953	-200.000	-0.005	0.389
-450.938	-200.000	0.041	-0.204
-449.924	30.796	-0.213	0.183
-448.909	1.757	0.360	-0.261
-447.895	506.007	0.125	-0.291
-446.880	800.000	-0.064	0.208
-445.865	-180.817	0.418	-0.009
-444.851	-181.888	0.160	-0.003
-443.836	-59.669	0.206	0.089
-442.822	800.000	-0.009	0.033
-441.807	-11.975	-0.206	0.136
-440.792	114.814	-0.036	0.044
-439.778	-86.812	0.142	0.044
-438.763	-125.017	-0.152	-0.024
-437.749	43.595	-0.385	0.353
-436.734	-66.274	-0.298	0.119
-435.719	85.992	-0.194	0.214
-434.705	-47.753	-0.140	0.068
-433.690	-61.968	0.342	0.144
-432.676	54.381	0.212	0.205
-431.661	800.000	-0.007	0.024
-430.646	299.274	0.068	-0.126
-429.632	139.729	-0.106	-0.140
-428.617	2.963	-0.350	0.256
-427.603	307.551	0.111	-0.208
-426.588	94.495	0.046	-0.053
-425.573	36.318	-0.037	-0.033
-424.559	250.224	-0.084	0.143
-423.544	-165.092	0.059	-0.003
-422.530	-16.993	0.107	-0.068
-421.515	97.689	-0.015	-0.017
-420.500	4.023	-0.191	-0.140
-419.486	281.787	0.136	0.245
-418.471	-38.083	0.079	0.042
-417.457	138.902	0.283	0.373
-416.442	800.000	-0.053	0.153
-415.428	144.016	-0.064	-0.086
-414.413	-157.602	0.260	0.016
-413.398	600.557	-0.117	-0.292
-412.384	62.785	0.091	0.091
-411.369	92.590	0.160	-0.181
-410.355	39.107	-0.090	-0.081
-409.340	-75.092	-0.018	-0.006
-408.325	343.216	-0.039	0.077
-407.311	800.000	0.061	0.185
-406.296	-200.000	0.008	-0.319
-405.282	62.396	0.143	-0.144
-404.267	-173.947	-0.124	-0.004
-403.252	-40.882	0.334	0.173
-402.238	-115.124	-0.075	0.014
-401.223	-106.804	0.466	-0.104
-400.209	17.435	0.281	0.224
-399.194	370.236	0.069	0.140
-398.179	-139.732	-0.067	0.007
-397.165	557.241	0.098	-0.236
-396.150	-200.000	0.049	0.297
-395.136	119.879	-0.197	0.245
-394.121	-63.646	-0.205	-0.084
-393.106	800.000	0.048	0.146
-392.092	-76.623	-0.050	-0.018
-391.077	233.293	-0.063	0.104
-390.063	159.559	-0.071	-0.099
-389.048	-69.953	0.264	0.101
-388.033	170.072	-0.072	0.103
-387.019	-1.881	0.133	0.094
-386.004	412.217	0.087	-0.185
-384.990	-110.496	-0.164	0.034
-383.975	-61.209	0.326	0.138
-382.960	84.621	-0.182	0.200
-381.946	-57.584	-0.361	-0.158
-380.931	491.157	0.011	-0.025
-379.917	-186.235	-0.170	-0.002
-378.902	800.000	-0.116	0.450
-377.888	-114.025	-0.138	-0.027
-376.873	-91.312	-0.264	0.076
-375.858	139.201	0.271	0.358
-374.844	-118.169	0.287	0.051
-373.829	-89.619	0.299	0.088
-372.815	-11.722	-0.350	-0.231
-371.800	168.780	-0.212	-0.303
-370.785	-200.000	-0.038	-0.430
-369.771	11.196	-0.049	-0.038
-368.756	-151.827	0.170	0.013
-367.742	-1.133	-0.100	-0.071
-366.727	-200.000	0.069	-0.352
-365.712	-81.075	0.133	0.044
-364.698	195.474	-0.177	-0.269
-363.683	-78.159	-0.260	-0.090
-362.669	-64.008	-0.254	0.104
-361.654	-36.129	0.155	-0.084
-360.639	13.135	-0.057	-0.044
-359.625	-57.176	0.358	0.158
-358.610	-119.637	-0.065	0.011
-357.596	-71.191	-0.191	0.072
-356.581	-10.380	-0.293	0.195
-355.566	98.786	0.328	0.379
-354.552	-121.856	-0.258	-0.043
-353.537	800.000	0.090	-0.252
-352.523	-33.375	0.284	-0.157
-351.508	-91.875	0.159	0.045
-350.493	-200.000	-0.017	0.118
-349.479	-91.406	-0.243	0.069
-348.464	-200.000	0.069	0.000
-347.450	-5.784	-0.113	0.078
-346.435	-145.942	0.136	0.012
-345.420	259.823	0.149	0.258
-344.406	-200.000	-0.044	-0.204
-343.391	-45.574	0.189	0.094
-342.377	-77.972	-0.077	-0.027
-341.362	-18.049	0.142	-0.089
-340.348	469.717	-0.101	-0.228
-339.333	377.309	-0.079	0.161
-338.318	237.516	0.092	-0.153
-337.304	800.000	0.062	0.230
-336.289	111.042	-0.077	-0.093
-335.275	0.449	-0.121	-0.087
-334.260	-90.326	-0.177	-0.052
-333.245	-200.000	0.034	0.458
-332.231	-20.885	0.175	-0.107
-331.216	-101.064	0.518	0.127
-330.202	-104.915	0.372	0.085
-329.187	-200.000	0.021	-0.133
-328.172	800.000	-0.055	-0.170
-327.158	-131.031	-0.252	-0.034
-326.143	-39.048	0.212	0.112
-325.129	386.311	0.060	0.125
-324.114	-90.625	-0.243	0.070
-323.099	-200.000	0.035	0.275
-322.085	-200.000	0.059	0.445
-321.070	800.000	-0.073	0.292
-320.056	278.887	0.199	0.354
-319.041	800.000	-0.144	0.462
-318.026	-200.000	-0.025	0.160
-317.012	-3.233	-0.139	0.097
-315.997	-58.582	-0.235	0.102
-314.983	800.000	-0.122	0.366
-313.968	-89.241	-0.181	-0.053
-312.953	140.113	0.048	0.064
-311.939	800.000	-0.069	0.212
-310.924	16.001	-0.278	0.219
-309.910	397.015	0.082	0.171
-308.895	-200.000	-0.008	0.235
-307.880	-16.983	-0.418	-0.264
-306.866	458.910	-0.070	-0.157
-305.851	-16.840	0.296	0.187
-304.837	-155.023	-0.272	0.018
-303.822	72.047	0.088	-0.092
-302.807	260.615	-0.037	-0.064
-301.793	-127.514	-0.279	0.041
-300.778	-88.643	0.181	-0.054
-299.764	115.531	0.170	-0.208
-298.749	-181.675	0.228	-0.004
-297.735	800.000	0.061	0.194
-296.720	23.213	0.140	-0.115
-295.705	-148.777	0.115	-0.009
-294.691	4.267	0.222	0.162
-293.676	332.028	-0.023	-0.045
-292.662	464.420	-0.156	-0.348
-291.647	-21.483	0.139	-0.085
-290.632	-200.000	-0.014	0.080
-289.618	-23.162	-0.151	0.091
-288.603	-31.820	-0.076	-0.042
-287.589	34.208	-0.117	0.102
-286.574	652.381	-0.088	-0.225
-285.559	84.663	-0.178	-0.195
-284.545	113.473	0.167	0.203
-283.530	-200.000	0.021	0.208
-282.516	78.306	-0.124	-0.132
-281.501	-122.200	0.415	-0.068
-280.486	-200.000	-0.019	-0.105
-279.472	-25.736	-0.178	0.105
-278.457	-0.282	-0.373	0.265
-277.443	-200.000	0.021	0.178
-276.428	116.316	-0.164	-0.201
-275.413	-115.954	0.139	-0.026
-274.399	37.722	0.125	0.111
-273.384	-200.000	-0.036	0.375
-272.370	-40.001	-0.418	0.217
-271.355	130.611	-0.208	-0.267
-270.340	-159.961	-0.198	-0.011
-269.326	51.310	-0.226	-0.214
-268.311	-200.000	-0.025	-0.147
-267.297	800.000	-0.027	0.095
-266.282	114.650	-0.039	-0.047
-265.267	-100.519	-0.059	-0.015
-264.253	-200.000	-0.025	0.136
-263.238	-70.788	0.329	-0.124
-262.224	143.608	-0.057	-0.075
-261.209	-172.593	-0.134	0.004
-260.195	-200.000	-0.052	-0.359
-259.180	-57.458	-0.111	0.049
-258.165	-200.000	0.004	0.108
-257.151	800.000	-0.121	0.335
-256.136	211.654	0.056	0.088
-255.122	-59.609	-0.081	0.035
-254.107	270.819	0.127	-0.224
-253.092	249.199	-0.052	0.089
-252.078	-93.024	-0.342	-0.095
-251.063	-102.577	-0.414	0.099
-250.049	477.530	-0.038	0.086
-249.034	-200.000	-0.029	0.233
-248.019	-113.746	-0.150	-0.029
-247.005	-45.251	0.053	-0.026
-245.990	763.191	0.063	0.170
-244.976	-59.379	0.026	-0.011
-243.961	-15.162	0.146	-0.093
-242.946	-63.104	0.190	-0.078
-241.932	105.601	-0.109	-0.129
-240.917	-0.327	0.287	0.204
-239.903	-22.673	-0.095	0.057
-238.888	89.967	0.247	-0.276
-237.873	-188.110	0.027	0.000
-236.859	193.376	-0.129	0.194
-235.844	-132.890	0.136	0.017
-234.830	-142.134	-0.245	-0.024
-233.815	38.946	0.225	-0.201
-232.800	-81.169	0.192	0.063
-231.786	-34.804	-0.228	-0.124
-230.771	-15.654	-0.110	0.070
-229.757	-200.000	-0.021	0.265
-228.742	-200.000	0.003	0.044
-227.727	-7.158	0.076	-0.052
-226.713	-200.000	-0.262	0.001
-225.698	-105.930	-0.165	0.037
-224.684	521.495	-0.090	-0.211
-223.669	35.584	-0.116	-0.101
-222.655	-132.139	0.340	0.044
-221.640	-132.366	0.168	0.022
-220.625	-145.222	-0.323	0.029
-219.611	154.474	0.061	0.084
-218.596	97.740	0.176	-0.201
-217.582	37.687	-0.166	-0.147
-216.567	-79.355	-0.061	0.021
-215.552	45.272	-0.373	0.343
-214.538	-35.102	-0.090	-0.049
-213.523	-0.102	-0.112	-0.079
-212.509	98.988	-0.164	-0.189
-211.494	-76.847	0.125	0.044
-210.479	-0.919	-0.194	-0.137
-209.465	800.000	-0.041	-0.150
-208.450	-8.090	-0.140	0.094
-207.436	205.945	0.180	0.279
-206.421	-122.370	-0.183	-0.030
-205.406	11.669	-0.241	-0.184
-204.392	525.884	-0.114	0.266
-203.377	-71.558	-0.117	0.043
-202.363	-80.065	0.198	-0.066
-201.348	88.353	-0.123	0.135
-200.333	414.338	0.035	0.074
-199.319	711.925	0.079	0.208
-198.304	113.091	0.135	-0.163
-197.290	679.275	0.019	-0.049
-196.275	-55.940	-0.213	0.095
-195.260	-200.000	0.002	-0.104
-194.246	111.861	-0.093	0.112
-193.231	218.835	-0.096	-0.152
-192.217	800.000	-0.048	-0.173
-191.202	-200.000	-0.172	0.000
-190.187	64.459	0.166	-0.166
-189.173	800.000	-0.060	0.208
-188.158	41.490	-0.030	-0.027
-187.144	-200.000	-0.039	-0.239
-186.129	628.663	0.081	0.204
-185.114	47.031	-0.181	0.167
-184.100	-27.374	0.187	0.108
-183.085	146.294	0.115	0.154
-182.071	-24.629	-0.179	0.106
-181.056	291.927	0.035	-0.063
-180.042	-200.000	0.053	0.288
-179.027	279.463	0.187	0.331
-178.012	800.000	0.075	-0.307
-176.998	-91.336	0.221	0.063
-175.983	-200.000	0.030	-0.223
-174.969	744.495	-0.106	-0.283
-173.954	-200.000	-0.058	0.334
-172.939	52.466	0.120	-0.114
-171.925	39.658	0.107	-0.095
-170.910	-45.358	-0.075	-0.037
-169.896	-46.487	-0.637	0.311
-168.881	149.216	-0.188	-0.253
-167.866	-107.668	0.320	-0.069
-166.852	148.610	0.130	-0.174
-165.837	-200.000	-0.020	0.135
-164.823	-200.000	0.011	0.112
-163.808	-58.561	0.306	-0.132
-162.793	-120.106	-0.338	-0.057
-161.779	800.000	-0.031	-0.118
-160.764	-177.760	-0.375	-0.009
-159.750	-96.942	0.230	-0.060
-158.735	-100.593	0.463	-0.114
-157.720	82.758	0.222	-0.240
-156.706	44.437	-0.393	-0.359
-155.691	-31.692	-0.237	0.132
-154.677	-59.713	0.157	-0.067
-153.662	147.996	-0.069	0.093
-152.647	800.000	0.074	0.283
-151.633	110.751	-0.231	-0.276
-150.618	27.226	-0.234	0.195
-149.604	205.472	-0.106	0.164
-148.589	-184.190	-0.475	-0.008
-147.574	-200.000	0.034	-0.207
-146.560	-113.568	0.207	-0.040
-145.545	-117.712	0.202	-0.036
-144.531	-200.000	-0.015	0.106
-143.516	-167.516	0.379	0.015
-142.502	-60.391	-0.227	-0.096
-141.487	800.000	-0.007	0.023
-140.472	24.392	-0.113	0.092
-139.458	110.346	0.321	0.383
-138.443	-200.000	-0.210	-0.001
-137.429	120.134	0.087	0.108
-136.414	463.194	-0.074	-0.165
-135.399	606.584	-0.090	0.223
-134.385	-188.787	-0.358	0.004
-133.370	-64.500	-0.259	-0.104
-132.356	-81.078	-0.145	0.048
-131.341	-200.000	-0.005	-0.054
-130.326	-95.284	-0.337	-0.090
-129.312	-58.893	-0.172	-0.074
-128.297	-4.991	0.171	-0.117
-127.283	117.841	0.073	0.089
-126.268	-48.035	0.208	-0.100
-125.253	-65.671	0.236	-0.094
-124.239	221.658	0.051	-0.082
-123.224	376.500	0.127	0.257
-122.210	56.191	-0.199	-0.191
