DTS Sentinel unit serial number:	SN413079Multiplexer serial number:	ORYXHardware model number:	OX4-SRSoftware version number:	ORYX F/W v4.00 Oryx Data Collector v3.7.2.0data status	okinstallation	princeton_trtdifferential loss correction	single-endedforward channel	channel 3reverse channel	N/Adate	2019/09/13time	09:08:35forward acquisition time	60.00reverse acquisition time	0.00gamma	496.2192k internal	0.2327k external	0.2327temperature offset calibration	1.0139default loss term (dB/km)	0.3790temperature slope calibration	1.0000multiplexer offset coefficient	1.0000multiplexer slope coefficient	1.0000fibre end	0.00T internal ref (°C)	28.73T ext. ref 1 (°C)	4.39T ext. ref 2 (°C)	26.17length (m)	temperature (°C)	Stokes	anti-Stokes-747.200	136.861	-0.054	-0.071
-746.185	-21.886	-0.196	-0.120
-745.171	352.248	-0.133	-0.265
-744.156	-200.000	-0.022	-0.153
-743.142	223.146	-0.174	-0.283
-742.127	-30.290	-0.261	0.150
-741.112	800.000	0.017	-0.063
-740.098	-21.490	-0.181	-0.111
-739.083	376.456	0.092	0.189
-738.069	-200.000	0.004	0.298
-737.054	262.709	-0.220	-0.385
-736.039	174.419	-0.134	-0.196
-735.025	-5.841	0.448	0.309
-734.010	355.894	-0.091	-0.182
-732.996	43.319	0.132	-0.122
-731.981	-200.000	-0.045	-0.267
-730.966	9.022	0.240	0.182
-729.952	-52.309	0.042	-0.020
-728.937	251.164	0.190	-0.326
-727.923	-200.000	0.005	0.481
-726.908	95.874	-0.206	-0.237
-725.894	21.464	-0.153	-0.125
-724.879	-73.032	-0.291	0.108
-723.864	-70.334	0.116	-0.044
-722.850	-183.823	0.082	0.001
-721.835	-200.000	0.009	-0.121
-720.821	800.000	-0.016	0.059
-719.806	-80.281	-0.060	-0.020
-718.791	-200.000	0.004	0.303
-717.777	19.265	0.195	-0.158
-716.762	-108.487	-0.314	-0.068
-715.748	-20.532	0.275	-0.170
-714.733	173.390	-0.215	0.312
-713.718	-145.586	-0.206	0.019
-712.704	87.843	0.183	0.204
-711.689	-200.000	-0.023	-0.156
-710.675	-200.000	0.045	-0.261
-709.660	-149.560	0.145	-0.012
-708.645	132.228	0.116	-0.150
-707.631	-49.173	0.312	-0.150
-706.616	-33.107	0.193	0.108
-705.602	17.827	-0.369	-0.296
-704.587	77.012	0.073	0.078
-703.572	-72.755	0.228	0.085
-702.558	-9.704	-0.294	-0.197
-701.543	338.089	0.182	0.356
-700.529	45.085	0.210	0.195
-699.514	-7.757	-0.267	-0.182
-698.499	249.553	-0.009	0.015
-697.485	-200.000	0.010	-0.073
-696.470	-200.000	0.020	-0.139
-695.456	800.000	0.038	0.127
-694.441	25.972	0.044	0.037
-693.426	-53.663	-0.170	0.078
-692.412	115.771	0.123	-0.152
-691.397	-200.000	0.035	-0.551
-690.383	-36.652	0.130	0.070
-689.368	200.324	-0.175	0.271
-688.354	-40.185	-0.061	-0.032
-687.339	-200.000	-0.013	0.376
-686.324	-200.000	-0.029	-0.180
-685.310	800.000	-0.088	0.335
-684.295	-45.220	0.060	-0.030
-683.281	557.384	-0.078	0.188
-682.266	-141.999	0.087	-0.009
-681.251	144.292	0.193	0.259
-680.237	800.000	0.088	0.248
-679.222	-156.883	0.146	-0.009
-678.208	-49.787	-0.200	0.095
-677.193	351.387	-0.016	-0.032
-676.178	52.586	-0.202	-0.194
-675.164	-139.131	0.159	-0.017
-674.149	-63.969	-0.186	-0.076
-673.135	-200.000	0.009	0.102
-672.120	66.639	0.178	-0.182
-671.105	252.551	0.067	-0.115
-670.091	-34.620	0.112	-0.062
-669.076	800.000	-0.032	-0.111
-668.062	664.745	-0.040	0.103
-667.047	-106.553	-0.368	-0.083
-666.032	-200.000	-0.020	-0.191
-665.018	413.029	-0.057	-0.123
-664.003	249.538	0.080	-0.136
-662.989	-160.632	0.137	0.007
-661.974	-165.949	0.115	0.005
-660.959	-36.439	-0.082	0.045
-659.945	144.104	0.138	-0.185
-658.930	-51.493	0.376	0.177
-657.916	-127.799	-0.315	0.046
-656.901	-174.440	-0.248	0.007
-655.886	800.000	0.095	-0.309
-654.872	-153.717	0.121	0.008
-653.857	36.372	-0.174	0.155
-652.843	-156.183	0.380	0.024
-651.828	-186.892	-0.133	-0.002
-650.814	800.000	-0.100	-0.306
-649.799	-200.000	0.022	-0.324
-648.784	-149.329	0.206	0.017
-647.770	142.071	-0.154	-0.206
-646.755	14.867	0.171	-0.135
-645.741	-78.345	-0.166	0.057
-644.726	21.924	-0.147	0.120
-643.711	41.101	-0.119	0.108
-642.697	300.297	-0.115	-0.214
-641.682	-79.000	-0.154	0.053
-640.668	-200.000	0.014	0.145
-639.653	800.000	-0.025	-0.077
-638.638	-177.813	0.281	-0.007
-637.624	-87.435	-0.224	0.068
-636.609	-200.000	-0.009	-0.507
-635.595	-16.986	0.111	-0.070
-634.580	61.007	0.140	-0.140
-633.565	-200.000	-0.037	-0.211
-632.551	-126.552	0.277	-0.041
-631.536	800.000	-0.052	0.224
-630.522	-139.773	0.229	0.024
-629.507	-28.352	-0.225	0.130
-628.492	-24.275	0.333	0.200
-627.478	197.932	-0.089	-0.136
-626.463	-83.594	-0.297	0.095
-625.449	-49.560	-0.267	-0.127
-624.434	800.000	-0.023	-0.085
-623.419	-9.038	-0.024	-0.016
-622.405	-156.234	0.145	-0.009
-621.390	12.095	0.300	-0.232
-620.376	-55.599	-0.220	0.099
-619.361	483.711	-0.117	-0.268
-618.346	800.000	-0.041	0.139
-617.332	229.455	0.093	-0.152
-616.317	-53.186	-0.296	-0.136
-615.303	-97.267	0.348	0.091
-614.288	-200.000	0.140	0.623
-613.273	-77.192	-0.280	0.098
-612.259	-72.844	0.034	0.013
-611.244	800.000	-0.071	-0.263
-610.230	800.000	-0.013	0.040
-609.215	128.326	0.096	0.123
-608.201	-200.000	0.088	-0.433
-607.186	-200.000	0.029	-0.161
-606.171	800.000	-0.131	-0.410
-605.157	6.020	-0.275	0.204
-604.142	-200.000	0.024	-0.204
-603.128	-73.742	0.110	-0.040
-602.113	-200.000	-0.006	0.107
-601.098	800.000	0.050	-0.158
-600.084	800.000	-0.113	-0.349
-599.069	99.766	0.102	-0.119
-598.055	110.435	0.172	0.208
-597.040	-200.000	-0.167	-0.001
-596.025	104.457	0.095	-0.112
-595.011	513.097	0.107	-0.250
-593.996	-59.662	0.213	0.091
-592.982	-200.000	-0.049	0.252
-591.967	-120.127	-0.219	0.038
-590.952	-110.750	0.128	-0.026
-589.938	6.365	-0.263	0.196
-588.923	79.488	-0.223	-0.240
-587.909	18.843	0.274	-0.220
-586.894	-5.923	-0.356	-0.244
-585.879	-47.700	0.284	-0.138
-584.865	-114.822	0.185	0.035
-583.850	-200.000	-0.012	-0.221
-582.836	27.012	-0.169	0.142
-581.821	-200.000	0.043	-0.493
-580.806	800.000	-0.046	-0.169
-579.792	-200.000	0.029	-0.187
-578.777	186.318	-0.102	0.152
-577.763	-22.372	-0.118	0.072
-576.748	-200.000	0.012	-0.103
-575.733	44.531	0.160	0.147
-574.719	800.000	0.110	0.383
-573.704	307.158	0.154	-0.286
-572.690	-78.787	0.217	-0.074
-571.675	292.937	0.140	0.256
-570.661	-74.929	0.163	-0.058
-569.646	-42.137	0.156	0.080
-568.631	-58.115	0.358	0.156
-567.617	-136.077	-0.215	-0.025
-566.602	570.936	0.098	-0.238
-565.588	162.245	0.073	-0.102
-564.573	520.020	-0.037	0.088
-563.558	-33.353	0.263	-0.146
-562.544	800.000	0.057	-0.225
-561.529	-200.000	-0.001	0.061
-560.515	-200.000	0.033	0.310
-559.500	682.700	-0.062	-0.161
-558.485	800.000	0.088	0.356
-557.471	109.896	-0.150	0.181
-556.456	71.977	-0.064	-0.067
-555.442	340.234	0.028	0.055
-554.427	-17.165	0.262	0.165
-553.412	-200.000	-0.005	0.315
-552.398	1.078	-0.162	-0.117
-551.383	78.382	0.025	-0.027
-550.369	-88.472	0.338	-0.101
-549.354	-200.000	-0.018	-0.090
-548.339	-22.290	-0.018	-0.011
-547.325	-200.000	-0.011	-0.195
-546.310	-57.694	-0.158	-0.069
-545.296	-170.505	-0.373	-0.013
-544.281	-106.190	-0.253	0.057
-543.266	286.605	0.152	-0.275
-542.252	-11.130	0.036	-0.024
-541.237	49.323	-0.207	0.194
-540.223	-200.000	-0.036	0.190
-539.208	-73.241	0.046	0.017
-538.193	-128.650	-0.178	0.025
-537.179	-98.065	-0.118	-0.030
-536.164	22.684	-0.047	0.038
-535.150	800.000	0.020	0.084
-534.135	-25.432	-0.186	0.110
-533.121	-98.163	-0.143	0.037
-532.106	-78.417	-0.120	0.041
-531.091	117.463	-0.154	-0.189
-530.077	800.000	0.004	0.016
-529.062	67.670	-0.282	-0.288
-528.048	368.767	-0.083	-0.168
-527.033	-152.790	0.121	-0.009
-526.018	800.000	-0.148	-0.428
-525.004	800.000	0.075	-0.218
-523.989	-121.593	-0.116	-0.019
-522.975	-200.000	-0.015	0.138
-521.960	23.028	0.327	-0.268
-520.945	46.413	-0.199	-0.185
-519.931	-68.960	-0.279	0.108
-518.916	-48.400	-0.225	-0.108
-517.902	246.179	0.100	0.168
-516.887	-74.926	0.250	0.089
-515.872	415.839	-0.100	0.213
-514.858	-129.328	-0.325	0.045
-513.843	-200.000	-0.010	0.047
-512.829	800.000	0.082	-0.281
-511.814	800.000	-0.049	-0.166
-510.799	800.000	-0.043	0.141
-509.785	133.862	0.087	-0.112
-508.770	800.000	0.044	0.151
-507.756	-52.843	0.131	-0.060
-506.741	-89.087	-0.267	0.079
-505.726	-127.066	-0.095	0.014
-504.712	-200.000	0.009	-0.319
-503.697	800.000	-0.095	0.397
-502.683	-200.000	0.040	-0.215
-501.668	574.821	0.070	-0.170
-500.653	-200.000	-0.011	0.148
-499.639	-65.189	0.273	-0.110
-498.624	800.000	-0.094	0.372
-497.610	140.150	0.080	0.105
-496.595	318.566	-0.082	-0.155
-495.581	-91.427	-0.311	-0.089
-494.566	-120.182	-0.120	-0.020
-493.551	297.186	0.110	-0.202
-492.537	-142.673	0.140	0.014
-491.522	-90.529	-0.122	-0.035
-490.508	-200.000	0.050	-0.350
-489.493	239.965	0.115	0.192
-488.478	-165.364	-0.185	-0.008
-487.464	317.786	0.060	0.114
-486.449	100.124	-0.257	0.297
-485.435	239.390	0.113	-0.188
-484.420	-12.796	-0.065	-0.042
-483.405	157.251	-0.315	0.435
-482.391	-106.101	-0.342	-0.077
-481.376	112.261	0.225	-0.272
-480.362	-11.485	0.040	0.026
-479.347	-200.000	0.019	0.189
-478.332	-46.108	-0.011	0.005
-477.318	-23.433	0.060	-0.036
-476.303	-148.284	0.401	0.033
-475.289	68.175	-0.069	-0.070
-474.274	227.462	0.146	-0.236
-473.259	435.290	-0.143	-0.310
-472.245	-27.265	-0.019	-0.011
-471.230	-30.286	-0.079	0.045
-470.216	-200.000	-0.008	-0.050
-469.201	-66.969	-0.106	0.042
-468.186	-122.877	-0.196	0.031
-467.172	51.611	0.372	0.353
-466.157	124.621	-0.050	0.062
-465.143	800.000	0.041	0.149
-464.128	7.056	0.135	0.100
-463.113	68.870	-0.080	-0.082
-462.099	-200.000	0.007	-0.175
-461.084	800.000	0.054	-0.234
-460.070	-39.749	-0.058	0.030
-459.055	-102.149	-0.322	-0.077
-458.040	256.778	0.098	0.168
-457.026	-95.220	-0.319	0.086
-456.011	-200.000	0.003	-0.395
-454.997	-60.651	0.221	-0.094
-453.982	-89.469	-0.489	0.143
-452.968	800.000	-0.086	0.268
-451.953	612.456	0.151	-0.378
-450.938	-65.617	0.080	0.032
-449.924	360.353	-0.065	-0.129
-448.909	151.328	0.186	-0.253
-447.895	756.922	-0.089	-0.239
-446.880	-15.649	-0.039	-0.025
-445.865	211.889	0.196	-0.307
-444.851	14.597	0.270	-0.210
-443.836	120.144	0.099	0.123
-442.822	800.000	0.098	0.304
-441.807	-95.840	0.123	-0.033
-440.792	-200.000	-0.006	0.254
-439.778	-145.915	-0.125	0.011
-438.763	371.282	-0.073	-0.147
-437.749	800.000	0.074	0.250
-436.734	412.318	-0.083	0.176
-435.719	-200.000	-0.108	0.502
-434.705	45.637	0.259	0.238
-433.690	-33.722	-0.129	0.071
-432.676	89.583	-0.156	0.173
-431.661	-93.173	0.140	-0.039
-430.646	632.424	-0.062	-0.156
-429.632	410.345	-0.025	0.052
-428.617	800.000	0.084	0.245
-427.603	800.000	-0.053	-0.151
-426.588	31.115	-0.173	0.148
-425.573	800.000	-0.031	-0.134
-424.559	82.311	0.111	-0.120
-423.544	31.175	0.111	-0.095
-422.530	-200.000	-0.050	-0.403
-421.515	-16.909	0.274	-0.172
-420.500	-78.623	0.038	-0.013
-419.486	-22.583	0.060	-0.036
-418.471	-98.543	0.348	-0.089
-417.457	96.862	0.075	-0.086
-416.442	-55.686	-0.151	-0.067
-415.428	-47.383	0.084	-0.040
-414.413	-45.519	0.353	-0.174
-413.398	-87.959	-0.185	-0.055
-412.384	-69.091	-0.204	-0.078
-411.369	5.070	-0.188	0.138
-410.355	222.364	0.097	0.156
-409.340	-200.000	0.013	0.214
-408.325	-118.841	-0.445	0.078
-407.311	-7.922	-0.329	0.221
-406.296	172.967	0.039	-0.056
-405.282	18.435	0.201	-0.160
-404.267	31.645	0.401	0.343
-403.252	163.895	0.127	-0.178
-402.238	265.499	0.042	0.073
-401.223	-49.597	0.246	-0.117
-400.209	-200.000	0.004	-0.063
-399.194	59.861	0.273	0.269
-398.179	212.018	-0.039	0.061
-397.165	131.882	0.088	-0.112
-396.150	34.592	0.096	-0.083
-395.136	-89.358	0.212	0.062
-394.121	60.552	0.048	-0.047
-393.106	-3.407	-0.147	0.102
-392.092	-156.573	0.203	0.013
-391.077	-77.722	-0.374	0.128
-390.063	800.000	0.118	-0.335
-389.048	-22.656	-0.059	-0.036
-388.033	-200.000	-0.005	-0.508
-387.019	12.218	0.145	0.111
-386.004	-129.158	0.160	-0.022
-384.990	-200.000	0.037	0.186
-383.975	29.818	0.301	0.255
-382.960	226.818	-0.098	-0.158
-381.946	644.884	-0.105	-0.266
-380.931	-105.183	0.031	-0.007
-379.917	144.568	0.306	-0.406
-378.902	-116.862	0.171	-0.031
-377.888	-200.000	0.006	0.122
-376.873	224.122	0.282	-0.453
-375.858	-200.000	-0.017	0.350
-374.844	161.894	-0.225	0.313
-373.829	-200.000	-0.047	0.337
-372.815	-123.761	0.169	-0.027
-371.800	800.000	-0.066	-0.236
-370.785	-34.715	-0.253	0.138
-369.771	-120.740	-0.316	-0.053
-368.756	4.569	0.100	0.073
-367.742	-200.000	-0.001	-0.100
-366.727	-140.688	-0.285	0.029
-365.712	128.906	0.102	0.130
-364.698	-200.000	-0.019	-0.144
-363.683	-129.080	0.312	-0.043
-362.669	-200.000	-0.054	0.332
-361.654	312.794	0.096	0.178
-360.639	85.277	0.149	-0.163
-359.625	800.000	-0.107	0.430
-358.610	203.005	-0.132	0.203
-357.596	-200.000	0.018	-0.212
-356.581	221.526	-0.121	-0.194
-355.566	193.034	-0.191	0.286
-354.552	-200.000	-0.001	0.090
-353.537	-200.000	-0.104	-0.489
-352.523	-13.511	0.278	0.179
-351.508	800.000	0.016	0.067
-350.493	-200.000	-0.036	-0.271
-349.479	-108.118	0.178	-0.038
-348.464	43.984	-0.151	0.137
-347.450	76.282	0.104	0.110
-346.435	290.650	0.071	0.128
-345.420	-49.664	-0.213	0.100
-344.406	800.000	0.099	0.306
-343.391	-83.952	0.306	-0.096
-342.377	236.444	-0.127	0.209
-341.362	-85.119	0.035	0.011
-340.348	-54.661	-0.122	-0.055
-339.333	-153.739	0.034	-0.002
-338.318	729.927	0.032	-0.085
-337.304	-138.488	-0.073	0.008
-336.289	60.973	0.043	-0.042
-335.275	-200.000	0.019	-0.242
-334.260	-125.117	-0.250	0.038
-333.245	758.425	-0.080	0.216
-332.231	-104.560	0.380	0.087
-331.216	318.025	-0.096	0.180
-330.202	19.242	0.132	0.105
-329.187	-200.000	0.092	0.501
-328.172	1.223	0.267	0.190
-327.158	800.000	-0.152	0.505
-326.143	-4.960	0.149	-0.102
-325.129	-60.618	0.238	-0.100
-324.114	-54.779	-0.158	0.071
-323.099	769.079	0.112	0.302
-322.085	-197.476	0.103	0.001
-321.070	-46.827	0.196	0.095
-320.056	-200.000	0.007	-0.098
-319.041	-100.441	-0.070	-0.017
-318.026	-50.908	-0.144	-0.067
-317.012	-200.000	0.110	0.485
-315.997	-21.015	-0.131	-0.079
-314.983	80.000	-0.282	-0.300
-313.968	-200.000	0.008	0.065
-312.953	222.362	-0.026	0.041
-311.939	74.158	0.046	-0.048
-310.924	34.906	0.122	0.106
-309.910	-176.456	-0.177	-0.005
-308.895	-141.079	0.052	0.005
-307.880	-44.755	-0.154	0.076
-306.866	-91.788	0.115	-0.032
-305.851	80.307	0.076	0.081
-304.837	-200.000	-0.010	0.159
-303.822	-47.546	-0.411	0.198
-302.807	-200.000	0.022	0.127
-301.793	241.798	0.091	0.151
-300.778	501.971	-0.146	0.334
-299.764	603.590	-0.134	-0.330
-298.749	-32.541	-0.294	-0.162
-297.735	53.557	0.238	-0.227
-296.720	-200.000	-0.005	-0.120
-295.705	172.410	-0.121	-0.173
-294.691	-170.342	-0.134	0.005
-293.676	-49.510	0.301	-0.142
-292.662	800.000	0.057	-0.237
-291.647	574.865	0.076	0.183
-290.632	-200.000	-0.020	0.165
-289.618	-29.694	0.096	-0.054
-288.603	21.677	-0.342	0.275
-287.589	-200.000	0.021	0.210
-286.574	-200.000	0.007	0.132
-285.559	800.000	-0.040	0.153
-284.545	800.000	-0.017	-0.071
-283.530	159.837	-0.155	0.214
-282.516	719.188	-0.130	0.341
-281.501	-200.000	0.019	-0.082
-280.486	800.000	-0.057	0.163
-279.472	-29.191	-0.201	-0.114
-278.457	20.982	-0.259	-0.208
-277.443	-104.175	0.191	-0.044
-276.428	101.424	-0.143	-0.165
-275.413	36.482	-0.280	0.244
-274.399	-63.899	0.298	-0.121
-273.384	-200.000	-0.053	0.250
-272.370	-118.888	0.166	0.029
-271.355	105.283	-0.058	0.068
-270.340	-7.256	-0.223	0.150
-269.326	218.386	0.062	0.098
-268.311	800.000	-0.031	0.101
-267.297	800.000	0.060	0.181
-266.282	98.556	0.271	0.310
-265.267	-102.248	0.408	0.097
-264.253	49.527	0.156	0.145
-263.238	800.000	-0.068	-0.216
-262.224	246.539	-0.072	-0.120
-261.209	158.990	-0.132	0.182
-260.195	277.666	0.169	-0.297
-259.180	242.641	-0.120	-0.199
-258.165	800.000	-0.090	0.302
-257.151	63.590	-0.130	-0.130
-256.136	800.000	-0.034	-0.111
-255.122	-80.465	0.121	0.040
-254.107	74.061	0.048	-0.049
-253.092	-4.382	0.156	0.107
-252.078	-68.841	0.282	0.108
-251.063	-56.959	0.298	-0.130
-250.049	-174.032	-0.330	-0.010
-249.034	592.254	-0.065	0.159
-248.019	184.281	-0.089	0.131
-247.005	38.216	0.030	-0.027
-245.990	157.443	0.214	-0.293
-244.976	-146.974	-0.175	0.015
-243.961	149.548	-0.077	-0.104
-242.946	800.000	-0.119	-0.346
-241.932	-139.830	0.157	-0.016
-240.917	16.971	-0.128	0.100
-239.903	74.857	-0.105	-0.110
-238.888	-200.000	-0.020	-0.233
-237.873	-15.297	0.382	0.241
-236.859	-84.290	-0.138	-0.043
-235.844	219.822	-0.034	-0.054
-234.830	-113.618	0.186	-0.036
-233.815	14.142	-0.044	-0.034
-232.800	-53.178	-0.101	0.046
-231.786	638.410	-0.097	-0.243
-230.771	-200.000	-0.002	0.194
-229.757	800.000	0.045	0.165
-228.742	800.000	0.037	-0.117
-227.727	-47.958	0.163	-0.078
-226.713	0.568	0.007	0.005
-225.698	-200.000	-0.006	-0.079
-224.684	3.928	0.077	-0.055
-223.669	-4.044	-0.148	0.101
-222.655	-11.065	-0.300	-0.195
-221.640	3.079	-0.152	0.109
-220.625	-80.513	-0.169	-0.056
-219.611	-178.876	-0.446	0.010
-218.596	-52.506	0.062	0.029
-217.582	98.135	0.116	0.132
-216.567	-84.188	0.368	0.115
-215.552	-200.000	0.003	-0.110
-214.538	-200.000	-0.016	0.275
-213.523	28.664	0.219	0.183
-212.509	133.246	0.071	-0.091
-211.494	-47.351	-0.097	-0.047
-210.479	-200.000	-0.018	0.148
-209.465	800.000	-0.031	0.089
-208.450	-200.000	-0.022	0.407
-207.436	380.653	-0.061	-0.124
-206.421	61.335	0.331	0.324
-205.406	-200.000	0.039	0.326
-204.392	73.212	-0.201	-0.207
-203.377	-84.910	-0.052	-0.016
-202.363	-105.278	0.096	0.022
-201.348	-200.000	0.056	-0.326
-200.333	800.000	-0.048	0.141
-199.319	329.807	0.206	-0.391
-198.304	800.000	-0.027	-0.080
-197.290	174.076	0.253	-0.360
-196.275	-135.740	0.228	-0.027
-195.260	175.310	-0.257	-0.367
-194.246	800.000	-0.023	0.063
-193.231	235.015	-0.174	0.283
-192.217	164.981	-0.205	0.286
-191.202	-11.412	-0.246	-0.160
-190.187	265.836	-0.080	0.137
-189.173	43.131	0.053	-0.048
-188.158	1.143	0.050	0.035
-187.144	-138.921	0.060	-0.006
-186.129	-200.000	-0.014	0.401
-185.114	-78.622	-0.279	0.094
-184.100	103.544	-0.149	0.173
-183.085	134.405	0.256	0.328
-182.071	68.952	-0.088	-0.089
-181.056	67.369	-0.139	-0.140
-180.042	-83.166	-0.128	0.041
-179.027	-16.681	0.081	0.050
-178.012	73.750	-0.240	0.248
-176.998	-110.900	-0.350	0.071
-175.983	-200.000	-0.007	-0.048
-174.969	-45.450	0.344	-0.168
-173.954	-48.568	0.122	0.058
-172.939	67.575	-0.106	-0.107
-171.925	201.666	0.132	0.201
-170.910	113.558	0.099	0.118
-169.896	-70.612	-0.117	0.043
-168.881	-105.977	-0.139	-0.031
-167.866	-180.906	0.106	0.002
-166.852	-49.052	0.085	-0.040
-165.837	-32.669	-0.369	0.202
-164.823	800.000	0.085	-0.231
-163.808	116.444	0.163	-0.197
-162.793	800.000	-0.059	-0.211
-161.779	-120.980	-0.062	-0.010
-160.764	330.387	0.055	-0.105
-159.750	-16.580	0.256	-0.160
-158.735	-200.000	0.066	-0.355
-157.720	-130.708	-0.161	0.021
-156.706	-85.438	0.385	0.118
-155.691	-78.887	0.172	-0.058
-154.677	14.556	-0.194	-0.149
-153.662	-40.271	0.197	0.101
-152.647	-200.000	0.011	0.322
-151.633	33.913	0.261	-0.224
-150.618	-200.000	0.014	0.383
-149.604	-48.102	0.254	0.121
-148.589	-200.000	0.003	0.116
-147.574	-32.964	0.232	-0.127
-146.560	-4.455	0.279	0.190
-145.545	800.000	-0.027	-0.079
-144.531	13.101	0.107	0.081
-143.516	-181.129	0.345	-0.007
-142.502	-200.000	-0.027	0.236
-141.487	-153.992	-0.224	0.015
-140.472	800.000	-0.029	0.121
-139.458	-75.427	0.050	0.018
-138.443	-97.487	0.109	0.028
-137.429	-180.250	-0.149	-0.003
-136.414	-29.442	-0.297	-0.167
-135.399	-200.000	-0.039	-0.353
-134.385	326.485	0.203	0.382
-133.370	-200.000	-0.015	0.249
-132.356	286.661	0.048	0.086
-131.341	5.535	0.133	-0.096
-130.326	105.385	0.112	0.130
-129.312	76.648	-0.255	0.266
-128.297	227.451	0.046	-0.074
-127.283	96.518	-0.143	-0.161
-126.268	235.505	-0.135	0.219
-125.253	-92.809	0.237	0.065
-124.239	-21.119	-0.120	-0.072
-123.224	-98.294	0.222	-0.056
-122.210	800.000	0.098	0.284
-121.195	377.177	0.073	0.147
