DTS Sentinel unit serial number:	SN413079Multiplexer serial number:	ORYXHardware model number:	OX4-SRSoftware version number:	ORYX F/W v4.00 Oryx Data Collector v3.7.2.0data status	okinstallation	princeton_trtdifferential loss correction	single-endedforward channel	channel 3reverse channel	N/Adate	2019/09/10time	17:46:11forward acquisition time	60.00reverse acquisition time	0.00gamma	496.2192k internal	0.2299k external	0.2299temperature offset calibration	0.9914default loss term (dB/km)	0.3790temperature slope calibration	1.0000multiplexer offset coefficient	1.0000multiplexer slope coefficient	1.0000fibre end	0.00T internal ref (°C)	37.52T ext. ref 1 (°C)	-0.34T ext. ref 2 (°C)	30.48length (m)	temperature (°C)	Stokes	anti-Stokes-747.200	-83.928	0.309	0.100
-746.185	-200.000	-0.047	0.225
-745.171	-46.473	0.197	-0.099
-744.156	-200.000	0.070	0.360
-743.142	-49.527	-0.181	0.088
-742.127	250.622	-0.072	0.125
-741.112	69.200	0.186	-0.195
-740.098	800.000	0.051	0.203
-739.083	445.821	-0.144	-0.322
-738.069	236.484	0.186	0.314
-737.054	-42.754	-0.163	0.084
-736.039	-200.000	0.010	0.192
-735.025	270.929	0.199	-0.357
-734.010	-29.379	0.116	0.068
-732.996	291.545	-0.077	0.143
-731.981	148.444	-0.317	0.437
-730.966	800.000	-0.035	0.130
-729.952	-12.454	-0.396	-0.264
-728.937	7.252	0.051	-0.039
-727.923	-45.409	-0.242	0.122
-726.908	-37.524	-0.284	0.154
-725.894	-118.858	0.094	0.017
-724.879	-200.000	-0.058	0.394
-723.864	-38.952	-0.148	0.079
-722.850	-104.051	-0.316	0.075
-721.835	-107.009	-0.362	-0.082
-720.821	144.432	0.200	-0.273
-719.806	-73.045	-0.230	-0.086
-718.791	-200.000	0.062	-0.281
-717.777	-70.628	-0.229	0.088
-716.762	631.390	0.064	0.166
-715.748	-189.527	-0.262	-0.003
-714.733	301.002	0.090	-0.170
-713.718	445.410	0.042	0.095
-712.704	-200.000	-0.033	-0.308
-711.689	800.000	-0.067	0.247
-710.675	-168.830	-0.431	0.017
-709.660	190.767	0.117	0.179
-708.645	15.067	-0.264	0.211
-707.631	75.012	0.168	0.180
-706.616	162.517	0.193	-0.275
-705.602	-74.203	-0.186	0.069
-704.587	800.000	0.064	-0.224
-703.572	-34.365	-0.183	-0.102
-702.558	-0.055	0.118	0.086
-701.543	151.661	-0.046	-0.064
-700.529	800.000	-0.112	-0.358
-699.514	-152.734	-0.285	0.021
-698.499	-200.000	0.004	-0.320
-697.485	-200.000	-0.005	0.077
-696.470	-37.481	0.161	-0.087
-695.456	61.135	-0.051	-0.051
-694.441	62.902	-0.381	-0.388
-693.426	-200.000	0.025	-0.153
-692.412	-24.059	-0.201	-0.122
-691.397	126.443	0.100	0.129
-690.383	469.153	0.115	0.262
-689.368	-200.000	-0.104	0.000
-688.354	53.394	-0.154	-0.150
-687.339	-136.010	0.132	0.016
-686.324	-89.762	0.120	-0.036
-685.310	-126.195	-0.109	0.017
-684.295	-9.631	-0.270	-0.183
-683.281	627.742	-0.012	-0.031
-682.266	29.023	0.136	0.117
-681.251	128.099	-0.119	-0.154
-680.237	-200.000	-0.004	-0.248
-679.222	-79.002	-0.171	0.059
-678.208	-200.000	0.006	-0.036
-677.193	30.922	-0.182	0.158
-676.178	740.708	0.114	-0.311
-675.164	800.000	-0.009	-0.029
-674.149	405.129	-0.082	0.175
-673.135	-200.000	0.040	-0.306
-672.120	-92.342	-0.334	0.096
-671.105	800.000	0.075	0.286
-670.091	651.984	-0.042	0.110
-669.076	122.943	0.163	-0.208
-668.062	-200.000	-0.011	-0.138
-667.047	-61.563	-0.073	-0.031
-666.032	-117.272	0.098	-0.018
-665.018	48.716	-0.078	-0.074
-664.003	-102.659	-0.044	-0.011
-662.989	-200.000	-0.015	-0.201
-661.974	-172.620	0.076	-0.002
-660.959	-28.977	-0.068	-0.040
-659.945	89.583	-0.217	-0.246
-658.930	800.000	0.113	-0.364
-657.916	-100.698	-0.350	0.088
-656.901	-200.000	0.006	-0.075
-655.886	-200.000	-0.008	-0.090
-654.872	106.074	0.189	-0.228
-653.857	-200.000	0.001	-0.041
-652.843	-19.701	0.167	0.105
-651.828	800.000	0.038	-0.161
-650.814	693.749	-0.053	-0.142
-649.799	-34.255	-0.154	-0.086
-648.784	-55.426	-0.234	0.106
-647.770	-141.352	-0.404	-0.042
-646.755	-200.000	-0.014	-0.331
-645.741	-34.838	0.083	0.046
-644.726	-174.467	-0.357	0.010
-643.711	90.737	0.389	-0.443
-642.697	-74.337	0.122	0.045
-641.682	-105.567	-0.382	0.088
-640.668	-200.000	0.041	-0.285
-639.653	12.267	-0.211	-0.165
-638.638	262.721	0.186	-0.329
-637.624	800.000	-0.091	0.265
-636.609	800.000	-0.018	0.063
-635.595	-102.585	-0.177	0.043
-634.580	54.301	-0.116	-0.113
-633.565	-65.931	0.197	-0.080
-632.551	52.949	-0.163	0.158
-631.536	-200.000	0.045	-0.258
-630.522	-126.119	-0.303	-0.046
-629.507	111.368	0.070	0.086
-628.492	-200.000	0.023	-0.229
-627.478	14.111	-0.125	-0.099
-626.463	-61.530	-0.139	-0.059
-625.449	-20.872	-0.278	-0.173
-624.434	-200.000	0.023	-0.106
-623.419	-3.035	-0.231	-0.164
-622.405	73.775	-0.071	-0.076
-621.390	-197.162	0.124	-0.001
-620.376	259.438	-0.039	0.069
-619.361	264.627	0.157	-0.278
-618.346	89.211	-0.238	0.269
-617.332	-56.701	0.111	-0.050
-616.317	253.305	-0.113	0.196
-615.303	-59.457	-0.098	0.043
-614.288	588.405	-0.207	0.517
-613.273	19.016	0.073	0.060
-612.259	-83.233	0.148	0.048
-611.244	168.374	-0.159	-0.230
-610.230	-200.000	-0.014	0.122
-609.215	-200.000	0.025	0.111
-608.201	-200.000	0.019	0.168
-607.186	19.064	-0.066	0.054
-606.171	-7.303	-0.232	0.159
-605.157	-75.612	0.189	0.068
-604.142	86.440	-0.151	-0.169
-603.128	47.751	-0.168	-0.159
-602.113	-43.321	0.359	-0.184
-601.098	-117.240	-0.285	-0.053
-600.084	1.385	0.265	-0.193
-599.069	334.336	-0.174	-0.341
-598.055	284.458	-0.039	0.071
-597.040	-34.411	0.023	0.013
-596.025	39.540	-0.237	-0.215
-595.011	-50.049	0.190	0.091
-593.996	726.290	0.064	-0.173
-592.982	-200.000	0.012	0.130
-591.967	473.662	-0.128	-0.292
-590.952	74.381	-0.081	-0.087
-589.938	-79.868	0.249	-0.085
-588.923	-38.870	-0.088	0.047
-587.909	13.859	0.116	-0.091
-586.894	800.000	-0.086	-0.269
-585.879	166.423	-0.056	0.081
-584.865	-18.195	-0.158	0.100
-583.850	37.767	0.100	-0.090
-582.836	-34.639	0.075	-0.041
-581.821	117.921	0.185	0.231
-580.806	-111.992	-0.142	-0.029
-579.792	275.347	0.101	-0.182
-578.777	124.669	-0.177	-0.226
-577.763	-86.337	0.387	-0.121
-576.748	730.639	-0.052	-0.142
-575.733	-152.365	-0.250	0.018
-574.719	-64.784	0.198	-0.081
-573.704	29.188	-0.093	-0.080
-572.690	253.302	0.117	0.202
-571.675	800.000	-0.054	0.169
-570.661	-200.000	0.041	0.244
-569.646	-12.396	-0.102	-0.068
-568.631	20.160	0.130	0.107
-567.617	-200.000	-0.038	0.521
-566.602	331.668	-0.075	0.146
-565.588	-200.000	-0.048	0.216
-564.573	204.201	0.141	-0.221
-563.558	-60.741	-0.278	0.120
-562.544	-129.821	0.302	-0.042
-561.529	-200.000	-0.003	0.040
-560.515	-200.000	-0.062	-0.444
-559.500	800.000	-0.058	0.190
-558.485	-32.020	0.415	0.235
-557.471	-143.525	-0.109	0.011
-556.456	-200.000	-0.018	0.232
-555.442	319.459	-0.047	-0.091
-554.427	507.942	-0.034	-0.080
-553.412	20.007	-0.139	0.113
-552.398	-31.420	0.078	0.045
-551.383	77.247	0.298	-0.321
-550.369	-117.645	0.103	0.019
-549.354	-136.171	0.185	0.022
-548.339	147.762	-0.115	-0.157
-547.325	-42.128	0.259	0.134
-546.310	-143.994	-0.274	0.026
-545.296	325.317	-0.111	0.214
-544.281	-200.000	-0.128	0.000
-543.266	-46.756	0.193	0.096
-542.252	-4.602	0.296	0.207
-541.237	-200.000	-0.105	-0.479
-540.223	1.736	0.172	0.125
-539.208	-57.645	-0.142	-0.063
-538.193	-132.629	-0.224	-0.029
-537.179	-107.216	-0.484	-0.108
-536.164	97.890	0.161	0.187
-535.150	800.000	-0.112	-0.346
-534.135	260.868	-0.213	-0.372
-533.121	99.797	0.278	0.325
-532.106	674.182	0.124	-0.325
-531.091	-118.408	-0.114	-0.020
-530.077	-105.467	0.084	0.019
-529.062	-153.638	-0.119	0.008
-528.048	-79.384	-0.115	-0.039
-527.033	3.427	0.210	0.155
-526.018	-91.725	-0.274	0.079
-525.004	-112.758	0.153	0.031
-523.989	-66.929	0.303	-0.121
-522.975	-26.135	0.223	0.133
-521.960	800.000	0.106	-0.307
-520.945	195.224	0.155	-0.238
-519.931	-200.000	-0.019	-0.273
-518.916	-103.902	-0.143	0.034
-517.902	245.377	0.069	-0.117
-516.887	-42.849	-0.217	0.112
-515.872	31.773	-0.125	-0.108
-514.858	47.011	0.042	0.039
-513.843	-183.008	0.153	0.003
-512.829	-63.543	0.140	0.058
-511.814	-200.000	-0.001	0.081
-510.799	-122.014	0.101	0.017
-509.785	-123.972	0.479	0.076
-508.770	1.422	0.314	-0.228
-507.756	120.490	0.123	0.155
-506.741	-200.000	-0.017	-0.146
-505.726	800.000	0.036	0.146
-504.712	540.389	0.007	-0.016
-503.697	800.000	0.069	-0.252
-502.683	-148.867	0.162	0.013
-501.668	-127.938	0.074	0.011
-500.653	-131.418	-0.244	-0.033
-499.639	-200.000	0.053	-0.254
-498.624	-200.000	-0.021	0.103
-497.610	100.050	0.076	0.089
-496.595	-128.979	-0.201	0.028
-495.581	-102.159	-0.145	0.035
-494.566	20.441	0.275	-0.225
-493.551	-90.220	-0.322	0.095
-492.537	154.535	0.088	-0.123
-491.522	-68.863	0.225	-0.088
-490.508	-48.436	-0.075	0.036
-489.493	800.000	0.047	0.187
-488.478	53.972	0.076	0.074
-487.464	429.001	-0.139	0.304
-486.449	115.556	-0.115	0.142
-485.435	-23.293	0.088	-0.054
-484.420	800.000	-0.068	0.290
-483.405	-10.046	-0.210	0.141
-482.391	-66.532	-0.473	-0.190
-481.376	588.314	0.062	-0.155
-480.362	552.123	-0.032	0.079
-479.347	274.561	-0.037	-0.065
-478.332	-200.000	0.004	0.265
-477.318	-15.841	0.163	0.105
-476.303	-200.000	-0.005	-0.064
-475.289	-67.672	-0.106	0.042
-474.274	-200.000	0.035	0.163
-473.259	-200.000	-0.023	0.239
-472.245	-161.655	0.293	-0.015
-471.230	101.125	0.128	-0.150
-470.216	-200.000	-0.043	-0.242
-469.201	-81.281	0.246	-0.082
-468.186	328.720	-0.234	-0.454
-467.172	800.000	0.121	0.423
-466.157	99.613	-0.211	0.246
-465.143	-200.000	-0.032	0.157
-464.128	-49.871	0.268	0.129
-463.113	-152.976	0.203	-0.014
-462.099	-200.000	-0.014	-0.735
-461.084	-57.297	-0.241	0.107
-460.070	-127.636	0.126	-0.018
-459.055	467.517	-0.089	0.202
-458.040	568.341	-0.099	0.242
-457.026	89.980	-0.208	0.234
-456.011	-200.000	-0.031	0.398
-454.997	688.281	-0.068	-0.179
-453.982	-17.089	-0.119	-0.076
-452.968	208.376	0.060	-0.095
-451.953	-200.000	-0.042	0.193
-450.938	-41.825	-0.152	-0.079
-449.924	263.339	-0.081	0.142
-448.909	-83.942	0.419	-0.134
-447.895	-64.722	0.032	-0.013
-446.880	171.729	0.131	-0.190
-445.865	72.783	-0.034	0.036
-444.851	-79.056	0.305	0.105
-443.836	51.629	0.373	0.358
-442.822	-127.745	0.474	-0.069
-441.807	-115.761	0.309	-0.058
-440.792	-12.337	-0.246	0.162
-439.778	-200.000	-0.029	0.198
-438.763	800.000	-0.069	0.208
-437.749	-129.295	0.241	-0.034
-436.734	800.000	-0.049	-0.196
-435.719	-144.716	0.182	-0.017
-434.705	-118.573	-0.221	0.039
-433.690	-200.000	0.132	-0.000
-432.676	-117.309	-0.011	0.002
-431.661	14.037	0.415	-0.326
-430.646	176.991	0.086	0.126
-429.632	-200.000	-0.018	-0.112
-428.617	-189.031	0.250	-0.003
-427.603	345.885	-0.017	-0.033
-426.588	-200.000	-0.002	0.478
-425.573	-200.000	-0.035	0.420
-424.559	74.519	0.151	-0.160
-423.544	-39.238	-0.203	-0.107
-422.530	-200.000	0.018	-0.227
-421.515	-51.632	-0.241	0.113
-420.500	81.764	-0.203	0.222
-419.486	-125.741	0.446	-0.068
-418.471	-58.175	0.338	-0.148
-417.457	427.706	0.084	0.183
-416.442	119.546	0.201	0.251
-415.428	567.917	0.081	-0.197
-414.413	-200.000	-0.017	0.179
-413.398	-200.000	-0.012	0.281
-412.384	800.000	0.017	0.048
-411.369	-200.000	-0.015	-0.086
-410.355	-116.251	-0.179	-0.033
-409.340	-138.493	-0.229	-0.025
-408.325	57.268	-0.135	0.132
-407.311	1.632	-0.112	-0.081
-406.296	-200.000	-0.034	0.175
-405.282	800.000	-0.032	0.132
-404.267	8.368	0.406	0.308
-403.252	-200.000	0.030	0.182
-402.238	383.978	0.051	-0.105
-401.223	-146.889	-0.308	-0.027
-400.209	-200.000	0.032	-0.248
-399.194	-200.000	0.005	0.096
-398.179	-200.000	-0.004	0.089
-397.165	-34.289	-0.575	0.318
-396.150	-72.198	-0.264	-0.098
-395.136	-200.000	-0.021	-0.108
-394.121	-200.000	0.003	-0.138
-393.106	-94.192	-0.468	-0.129
-392.092	800.000	0.019	-0.063
-391.077	150.982	-0.086	-0.118
-390.063	800.000	-0.062	0.186
-389.048	22.029	0.184	0.151
-388.033	408.510	0.135	-0.287
-387.019	-200.000	-0.022	0.170
-386.004	93.972	-0.072	-0.082
-384.990	44.364	0.093	0.086
-383.975	19.764	0.051	-0.041
-382.960	128.807	0.053	0.068
-381.946	-86.800	0.196	-0.060
-380.931	-200.000	0.022	0.415
-379.917	40.868	0.156	0.141
-378.902	41.812	0.027	-0.025
-377.888	-106.931	-0.313	-0.070
-376.873	12.228	0.115	0.089
-375.858	-136.855	-0.368	0.042
-374.844	-24.203	-0.267	-0.160
-373.829	-79.608	0.290	0.099
-372.815	-38.543	0.332	-0.176
-371.800	-2.223	-0.293	0.207
-370.785	-55.320	0.181	-0.082
-369.771	181.970	0.201	-0.298
-368.756	267.714	-0.071	-0.125
-367.742	275.011	-0.117	0.209
-366.727	-200.000	0.028	-0.211
-365.712	349.350	-0.049	0.098
-364.698	800.000	-0.104	-0.399
-363.683	278.025	-0.087	0.156
-362.669	-200.000	0.009	-0.284
-361.654	-200.000	0.004	0.169
-360.639	123.832	0.115	-0.145
-359.625	225.059	-0.174	-0.283
-358.610	-71.404	-0.039	-0.015
-357.596	-200.000	-0.057	-0.358
-356.581	800.000	0.040	0.158
-355.566	-200.000	0.004	-0.144
-354.552	-122.357	0.395	0.065
-353.537	-85.954	0.208	0.065
-352.523	800.000	0.026	-0.087
-351.508	-23.919	-0.029	-0.017
-350.493	199.168	-0.079	0.122
-349.479	-184.276	0.516	0.009
-348.464	-76.354	-0.191	0.067
-347.450	-1.329	0.233	0.165
-346.435	-36.193	0.072	-0.039
-345.420	109.069	0.091	-0.109
-344.406	50.696	0.233	-0.221
-343.391	-67.899	-0.052	0.021
-342.377	95.357	-0.285	0.326
-341.362	481.144	0.147	-0.335
-340.348	419.107	0.008	-0.017
-339.333	-200.000	0.005	-0.152
-338.318	-200.000	-0.042	0.196
-337.304	220.870	-0.066	-0.107
-336.289	441.885	-0.103	-0.227
-335.275	800.000	0.061	0.178
-334.260	-169.284	-0.121	0.004
-333.245	800.000	-0.061	0.183
-332.231	467.897	0.132	0.297
-331.216	-200.000	-0.054	-0.291
-330.202	800.000	0.049	0.136
-329.187	-200.000	0.011	0.206
-328.172	-30.245	0.147	0.084
-327.158	-200.000	-0.037	0.315
-326.143	-83.123	-0.375	0.121
-325.129	800.000	0.101	0.327
-324.114	685.151	0.053	0.138
-323.099	385.934	-0.047	-0.098
-322.085	221.814	-0.057	-0.092
-321.070	-200.000	0.007	0.150
-320.056	-29.572	0.034	-0.020
-319.041	-200.000	-0.000	-0.031
-318.026	166.250	-0.205	0.291
-317.012	-17.081	-0.120	-0.076
-315.997	-6.787	0.099	-0.068
-314.983	-33.461	-0.289	0.160
-313.968	-200.000	0.013	-0.173
-312.953	21.033	0.026	-0.022
-311.939	-200.000	0.039	-0.175
-310.924	28.742	-0.262	-0.222
-309.910	-19.035	0.201	-0.126
-308.895	-139.838	0.107	0.011
-307.880	-70.240	-0.445	-0.169
-306.866	-200.000	0.002	0.031
-305.851	32.759	0.335	0.291
-304.837	-140.656	0.376	-0.039
-303.822	59.365	0.171	0.169
-302.807	230.456	0.037	0.061
-301.793	-128.130	0.373	0.054
-300.778	-5.126	-0.281	0.194
-299.764	800.000	0.019	0.055
-298.749	-56.055	0.311	0.139
-297.735	38.289	0.034	0.031
-296.720	-200.000	-0.014	0.116
-295.705	32.765	0.188	-0.163
-294.691	11.554	-0.122	0.094
-293.676	800.000	0.043	-0.135
-292.662	-105.682	0.119	0.027
-291.647	109.888	0.035	0.042
-290.632	800.000	-0.073	-0.255
-289.618	138.887	0.138	-0.182
-288.603	195.045	-0.121	0.184
-287.589	-200.000	0.012	-0.358
-286.574	-44.396	0.146	0.073
-285.559	-113.606	-0.097	-0.019
-284.545	257.134	0.162	-0.279
-283.530	9.315	0.097	0.074
-282.516	78.357	-0.153	0.164
-281.501	-104.547	-0.186	0.043
-280.486	800.000	0.063	0.258
-279.472	47.264	0.219	0.204
-278.457	7.631	-0.083	0.063
-277.443	-98.366	-0.080	-0.020
-276.428	377.905	-0.025	0.050
-275.413	-40.025	-0.079	-0.041
-274.399	-127.816	-0.256	-0.037
-273.384	-30.421	0.244	0.139
-272.370	800.000	-0.016	0.069
-271.355	-200.000	0.078	-0.365
-270.340	101.160	-0.064	-0.074
-269.326	-97.280	-0.101	-0.026
-268.311	324.128	-0.108	0.206
-267.297	-200.000	0.019	-0.111
-266.282	-200.000	-0.005	-0.078
-265.267	120.449	-0.079	0.098
-264.253	-76.686	0.237	-0.083
-263.238	800.000	-0.019	-0.060
-262.224	-200.000	0.040	0.184
-261.209	-36.440	-0.284	0.153
-260.195	800.000	-0.038	0.153
-259.180	-58.264	-0.142	0.062
-258.165	286.783	0.212	-0.383
-257.151	-200.000	-0.009	-0.144
-256.136	-10.963	0.218	0.144
-255.122	800.000	-0.011	0.045
-254.107	800.000	-0.073	-0.241
-253.092	-69.734	-0.117	0.045
-252.078	-200.000	-0.071	0.392
-251.063	322.878	0.140	0.268
-250.049	-95.585	-0.205	0.055
-249.034	-18.219	0.215	-0.134
-248.019	-34.514	-0.249	-0.136
-247.005	-128.932	-0.241	-0.034
-245.990	-200.000	-0.010	-0.069
-244.976	-132.775	0.118	0.015
-243.961	-200.000	0.019	-0.298
-242.946	800.000	-0.031	0.107
-241.932	117.365	-0.148	-0.182
-240.917	-81.816	0.101	0.033
-239.903	-11.832	0.044	-0.029
-238.888	-57.521	0.241	-0.106
-237.873	-121.100	-0.354	-0.059
-236.859	800.000	-0.096	-0.338
-235.844	237.653	0.148	-0.246
-234.830	36.100	-0.307	-0.271
-233.815	799.907	-0.151	-0.418
-232.800	-200.000	0.252	0.001
-231.786	-69.656	0.307	-0.117
-230.771	-176.151	-0.089	-0.002
-229.757	-56.785	-0.275	0.121
-228.742	-59.330	0.254	0.109
-227.727	-81.440	0.137	-0.045
-226.713	-76.322	0.338	0.119
-225.698	-91.307	0.226	-0.065
-224.684	-132.857	-0.336	-0.043
-223.669	203.693	-0.040	0.061
-222.655	-119.821	0.345	0.059
-221.640	-122.709	0.250	0.040
-220.625	800.000	-0.084	-0.280
-219.611	341.686	-0.107	0.208
-218.596	4.622	0.127	0.093
-217.582	-19.615	-0.303	0.188
-216.567	800.000	-0.113	0.325
-215.552	33.764	0.051	-0.045
-214.538	53.940	-0.097	0.093
-213.523	96.834	0.161	0.185
-212.509	-60.298	-0.163	-0.070
-211.494	-49.005	0.182	-0.087
-210.479	8.946	-0.183	0.138
-209.465	186.022	-0.185	0.275
-208.450	-180.454	-0.078	-0.002
-207.436	10.148	-0.267	0.203
-206.421	-19.840	0.148	-0.092
-205.406	800.000	-0.021	-0.065
-204.392	-0.509	-0.286	-0.203
-203.377	-200.000	-0.006	-0.280
-202.363	193.491	-0.024	-0.037
-201.348	340.123	0.138	0.269
-200.333	-118.564	-0.209	-0.037
-199.319	-117.800	-0.237	-0.042
-198.304	-78.652	0.079	-0.027
-197.290	-117.094	0.074	0.013
-196.275	-200.000	0.003	-0.028
-195.260	10.502	0.249	-0.189
-194.246	388.300	-0.101	0.208
-193.231	-16.608	0.055	-0.035
-192.217	45.529	-0.285	-0.263
-191.202	-31.651	-0.198	0.111
-190.187	-200.000	0.047	-0.246
-189.173	179.579	-0.167	0.244
-188.158	-200.000	0.057	0.296
-187.144	526.308	-0.057	0.133
-186.129	13.392	0.252	0.195
-185.114	-157.356	-0.210	-0.013
-184.100	-47.973	0.524	-0.253
-183.085	191.435	-0.280	0.421
-182.071	-30.421	0.125	-0.071
-181.056	-200.000	-0.047	-0.209
-180.042	49.997	-0.247	-0.232
-179.027	81.824	-0.164	0.178
-178.012	186.041	0.179	0.265
-176.998	237.410	-0.209	-0.346
-175.983	175.806	0.198	0.287
-174.969	22.835	-0.224	0.183
-173.954	38.928	-0.086	-0.077
-172.939	327.426	-0.084	0.161
-171.925	176.934	0.086	-0.125
-170.910	18.064	0.109	0.087
-169.896	243.878	-0.062	0.104
-168.881	17.379	0.313	0.248
-167.866	-91.905	-0.133	0.038
-166.852	403.558	-0.095	-0.200
-165.837	227.411	0.116	-0.188
-164.823	29.656	0.080	-0.068
-163.808	652.974	-0.067	-0.171
-162.793	13.963	0.257	-0.199
-161.779	-200.000	0.046	0.393
-160.764	-200.000	0.014	0.217
-159.750	361.638	-0.055	-0.110
-158.735	-200.000	-0.008	-0.076
-157.720	-106.081	0.298	0.067
-156.706	63.552	-0.219	-0.220
-155.691	-41.999	-0.265	-0.135
-154.677	30.755	0.036	0.030
-153.662	800.000	0.056	-0.221
-152.647	144.716	0.069	-0.093
-151.633	-63.485	-0.211	0.086
-150.618	-200.000	0.008	-0.386
-149.604	-28.070	0.227	0.131
-148.589	536.788	0.044	0.104
-147.574	25.044	0.239	0.198
-146.560	-64.837	0.440	0.177
-145.545	16.118	0.202	0.159
-144.531	13.432	0.077	-0.059
-143.516	-200.000	0.000	-0.062
-142.502	47.715	-0.302	0.281
-141.487	240.590	0.196	0.326
-140.472	-5.018	0.274	0.188
-139.458	-28.009	0.132	-0.076
-138.443	59.605	-0.092	0.090
-137.429	543.470	0.031	0.073
-136.414	383.208	-0.080	-0.164
-135.399	800.000	-0.136	-0.413
-134.385	397.188	-0.077	-0.161
-133.370	209.217	0.076	-0.118
-132.356	-160.650	-0.183	0.010
-131.341	-61.865	-0.260	0.108
-130.326	58.359	0.174	0.170
-129.312	-88.535	-0.411	-0.122
-128.297	376.257	0.169	0.344
-127.283	-148.633	-0.161	-0.013
-126.268	800.000	0.053	0.219
-125.253	800.000	-0.075	-0.224
-124.239	560.881	0.086	-0.208
-123.224	-77.866	0.282	0.097
-122.210	-49.241	0.061	-0.029
-121.195	-77.846	0.168	-0.058
