DTS Sentinel unit serial number:	SN413079Multiplexer serial number:	ORYXHardware model number:	OX4-SRSoftware version number:	ORYX F/W v4.00 Oryx Data Collector v3.7.2.0data status	okinstallation	princeton_trtdifferential loss correction	single-endedforward channel	channel 3reverse channel	N/Adate	2019/09/15time	08:00:35forward acquisition time	60.00reverse acquisition time	0.00gamma	496.2192k internal	0.2323k external	0.2323temperature offset calibration	0.9987default loss term (dB/km)	0.3790temperature slope calibration	1.0000multiplexer offset coefficient	1.0000multiplexer slope coefficient	1.0000fibre end	0.00T internal ref (°C)	30.75T ext. ref 1 (°C)	4.99T ext. ref 2 (°C)	26.49length (m)	temperature (°C)	Stokes	anti-Stokes-747.200	800.000	-0.042	-0.147
-746.185	-200.000	0.013	0.130
-745.171	76.102	0.109	-0.117
-744.156	377.227	-0.017	0.035
-743.142	-40.085	-0.093	-0.049
-742.127	265.530	-0.154	0.271
-741.112	-200.000	0.038	-0.298
-740.098	-200.000	-0.056	0.266
-739.083	-200.000	0.052	0.457
-738.069	49.664	0.122	0.116
-737.054	-48.312	0.218	-0.106
-736.039	202.283	-0.189	-0.294
-735.025	239.060	0.094	0.157
-734.010	-200.000	-0.006	0.284
-732.996	143.367	-0.067	-0.090
-731.981	377.670	-0.228	-0.470
-730.966	296.158	0.117	0.216
-729.952	-120.523	-0.192	0.033
-728.937	-56.664	-0.518	0.231
-727.923	800.000	-0.090	0.361
-726.908	8.163	-0.271	0.206
-725.894	-27.451	-0.293	-0.172
-724.879	102.050	-0.146	-0.172
-723.864	16.860	-0.365	-0.292
-722.850	424.644	0.050	0.109
-721.835	89.069	0.223	0.251
-720.821	800.000	-0.033	0.117
-719.806	143.705	-0.241	-0.323
-718.791	251.110	0.166	0.285
-717.777	-200.000	0.019	-0.126
-716.762	-57.565	-0.381	0.169
-715.748	-68.180	0.213	0.084
-714.733	-200.000	0.000	-0.172
-713.718	-28.560	0.152	0.088
-712.704	-117.422	-0.291	0.053
-711.689	-182.721	-0.347	-0.006
-710.675	4.137	0.400	-0.295
-709.660	19.551	0.109	-0.088
-708.645	-63.257	-0.289	0.120
-707.631	372.866	0.080	-0.165
-706.616	800.000	-0.031	0.124
-705.602	-61.974	-0.211	-0.089
-704.587	-8.193	-0.168	-0.114
-703.572	197.843	0.079	-0.122
-702.558	-158.180	-0.163	0.010
-701.543	139.045	-0.051	0.068
-700.529	176.754	0.053	-0.078
-699.514	366.210	-0.024	0.048
-698.499	800.000	-0.051	0.154
-697.485	-34.410	-0.257	0.142
-696.470	-174.196	-0.340	-0.010
-695.456	-22.892	0.062	-0.038
-694.441	244.747	0.143	-0.242
-693.426	37.660	-0.182	-0.163
-692.412	380.023	0.054	-0.112
-691.397	336.875	0.077	-0.151
-690.383	-117.950	-0.119	-0.022
-689.368	-200.000	0.013	-0.071
-688.354	-200.000	0.034	0.425
-687.339	441.162	-0.077	-0.170
-686.324	22.505	-0.133	-0.110
-685.310	23.639	-0.211	-0.175
-684.295	78.766	0.143	-0.154
-683.281	-200.000	-0.013	-0.352
-682.266	-71.604	-0.273	-0.103
-681.251	423.022	0.083	0.181
-680.237	186.773	-0.097	0.146
-679.222	48.793	-0.063	0.059
-678.208	-15.152	-0.084	-0.054
-677.193	-200.000	-0.034	-0.160
-676.178	-45.779	-0.341	-0.170
-675.164	-93.650	-0.085	0.024
-674.149	246.225	0.053	-0.090
-673.135	-118.925	-0.409	-0.072
-672.120	576.800	-0.132	-0.324
-671.105	-200.000	0.014	0.125
-670.091	800.000	-0.060	-0.178
-669.076	166.869	-0.040	0.058
-668.062	800.000	0.169	0.580
-667.047	227.311	0.046	0.075
-666.032	105.773	0.084	-0.101
-665.018	137.233	-0.103	-0.135
-664.003	-128.356	0.175	0.025
-662.989	56.473	-0.184	0.180
-661.974	-138.568	0.028	-0.003
-660.959	-45.505	-0.307	-0.153
-659.945	155.352	0.231	-0.320
-658.930	-200.000	0.026	-0.347
-657.916	-88.267	-0.161	0.048
-656.901	-200.000	0.020	0.102
-655.886	-1.387	-0.384	-0.273
-654.872	-200.000	0.005	-0.211
-653.857	-51.826	-0.078	-0.036
-652.843	-200.000	0.012	-0.078
-651.828	-200.000	-0.030	0.268
-650.814	39.449	-0.118	-0.106
-649.799	413.469	-0.098	-0.210
-648.784	2.533	0.126	0.092
-647.770	-36.037	0.261	-0.142
-646.755	-200.000	-0.032	-0.234
-645.741	-25.253	0.166	0.099
-644.726	11.978	0.110	0.085
-643.711	-156.529	0.353	0.022
-642.697	-129.037	-0.329	0.046
-641.682	43.546	-0.256	0.235
-640.668	-75.285	0.118	-0.042
-639.653	-3.458	0.275	-0.192
-638.638	-200.000	-0.033	-0.155
-637.624	-6.616	-0.180	-0.123
-636.609	58.593	0.204	-0.202
-635.595	388.093	0.131	0.272
-634.580	-81.910	-0.112	0.037
-633.565	800.000	-0.055	-0.200
-632.551	256.514	-0.085	0.147
-631.536	-200.000	-0.027	-0.124
-630.522	-21.128	0.118	0.073
-629.507	-200.000	0.047	-0.297
-628.492	-156.429	-0.385	-0.024
-627.478	-139.398	-0.403	-0.043
-626.463	177.377	-0.088	-0.128
-625.449	-80.057	-0.343	-0.116
-624.434	800.000	-0.116	0.355
-623.419	149.286	0.105	-0.143
-622.405	289.687	-0.063	0.115
-621.390	-200.000	0.006	0.350
-620.376	96.636	-0.248	0.285
-619.361	173.219	-0.081	0.118
-618.346	-26.063	0.211	0.125
-617.332	-200.000	-0.018	0.093
-616.317	-200.000	0.056	-0.354
-615.303	-99.137	0.491	0.125
-614.288	-142.200	-0.151	0.015
-613.273	-200.000	-0.023	-0.123
-612.259	800.000	-0.074	-0.274
-611.244	426.792	-0.116	0.251
-610.230	800.000	0.029	-0.098
-609.215	-111.074	0.595	0.123
-608.201	42.942	-0.092	0.084
-607.186	119.514	-0.252	-0.313
-606.171	-77.974	0.177	0.061
-605.157	-55.144	0.177	-0.080
-604.142	-16.970	-0.129	0.082
-603.128	35.349	0.017	-0.015
-602.113	-200.000	0.046	0.421
-601.098	-145.437	-0.164	-0.015
-600.084	-200.000	-0.002	0.103
-599.069	116.828	-0.324	0.400
-598.055	-17.559	0.026	0.016
-597.040	-90.603	-0.135	0.039
-596.025	-64.409	0.065	-0.027
-595.011	561.562	-0.034	-0.084
-593.996	-200.000	0.020	0.261
-592.982	800.000	-0.037	0.139
-591.967	71.499	-0.220	0.229
-590.952	73.766	0.177	0.187
-589.938	-81.751	-0.358	-0.118
-588.923	-87.226	-0.312	-0.095
-587.909	-139.667	-0.204	-0.022
-586.894	661.762	0.093	0.240
-585.879	502.798	-0.057	0.133
-584.865	-37.916	-0.169	-0.090
-583.850	49.760	-0.287	0.272
-582.836	34.049	-0.186	-0.163
-581.821	-127.293	0.195	0.028
-580.806	-81.120	-0.372	0.123
-579.792	-145.639	0.233	-0.021
-578.777	60.801	-0.185	0.184
-577.763	-149.292	-0.057	-0.005
-576.748	-200.000	0.010	0.229
-575.733	-134.219	-0.142	0.018
-574.719	330.187	0.099	0.192
-573.704	-83.693	-0.354	-0.113
-572.690	800.000	-0.076	0.279
-571.675	-160.634	-0.419	-0.022
-570.661	-86.298	0.572	-0.177
-569.646	484.326	-0.065	0.148
-568.631	-94.673	0.249	-0.068
-567.617	206.209	0.044	0.068
-566.602	-135.019	-0.525	-0.063
-565.588	800.000	0.038	0.155
-564.573	-200.000	-0.032	-0.174
-563.558	-200.000	0.011	-0.195
-562.544	-200.000	0.038	0.175
-561.529	108.561	0.115	-0.137
-560.515	92.609	-0.107	-0.121
-559.500	-53.732	0.329	-0.150
-558.485	800.000	-0.086	-0.298
-557.471	-13.470	0.072	-0.047
-556.456	517.055	-0.073	0.172
-555.442	637.033	-0.084	0.213
-554.427	-24.062	-0.074	-0.044
-553.412	-31.079	0.466	-0.264
-552.398	416.955	-0.157	0.337
-551.383	-45.882	0.072	0.036
-550.369	477.131	-0.098	-0.221
-549.354	-64.986	-0.165	0.067
-548.339	-77.762	0.277	0.096
-547.325	-113.715	-0.317	0.062
-546.310	-102.302	0.129	0.031
-545.296	-200.000	-0.044	-0.216
-544.281	-156.346	-0.253	0.016
-543.266	34.980	-0.234	0.206
-542.252	626.715	0.082	0.207
-541.237	23.666	-0.212	0.175
-540.223	27.107	0.232	0.195
-539.208	453.989	-0.100	-0.222
-538.193	-200.000	-0.009	0.122
-537.179	-13.088	-0.138	-0.090
-536.164	-200.000	-0.025	-0.277
-535.150	-133.595	0.326	0.041
-534.135	54.582	0.342	0.330
-533.121	553.732	-0.042	0.101
-532.106	-200.000	0.018	0.162
-531.091	-200.000	0.023	-0.211
-530.077	-97.018	0.230	0.060
-529.062	-84.930	0.054	0.017
-528.048	-81.578	-0.390	-0.128
-527.033	388.797	0.189	-0.391
-526.018	-200.000	0.013	-0.070
-525.004	-180.074	0.274	0.006
-523.989	173.665	-0.121	-0.174
-522.975	-137.759	0.042	-0.005
-521.960	-72.790	0.215	0.079
-520.945	228.473	0.149	0.244
-519.931	-200.000	0.011	-0.477
-518.916	-8.546	-0.119	0.080
-517.902	-94.575	-0.219	-0.060
-516.887	61.361	-0.218	-0.217
-515.872	26.655	0.073	0.061
-514.858	800.000	0.075	0.286
-513.843	800.000	0.077	-0.310
-512.829	625.116	-0.057	0.143
-511.814	121.701	0.147	-0.183
-510.799	36.134	0.158	-0.139
-509.785	183.433	0.191	0.282
-508.770	-23.846	-0.382	-0.229
-507.756	406.288	-0.038	-0.079
-506.741	-103.309	-0.180	0.042
-505.726	99.958	0.171	0.198
-504.712	-200.000	0.039	-0.193
-503.697	-183.024	0.398	0.007
-502.683	-55.993	0.406	-0.181
-501.668	-14.512	-0.290	0.186
-500.653	-25.708	0.093	0.055
-499.639	132.116	0.062	0.080
-498.624	-200.000	0.005	-0.028
-497.610	-81.142	0.180	0.060
-496.595	-144.370	-0.198	-0.018
-495.581	685.014	-0.139	-0.362
-494.566	57.129	-0.118	-0.115
-493.551	-122.793	0.306	0.050
-492.537	34.581	-0.074	0.065
-491.522	-125.543	0.294	0.045
-490.508	-84.312	-0.050	0.016
-489.493	-200.000	0.044	0.299
-488.478	-148.452	-0.263	0.022
-487.464	-112.873	-0.166	-0.033
-486.449	32.193	0.121	-0.105
-485.435	-25.169	-0.028	-0.017
-484.420	57.066	-0.254	-0.248
-483.405	-7.396	-0.188	0.127
-482.391	-70.186	0.257	-0.098
-481.376	-63.262	0.075	-0.031
-480.362	425.408	0.079	0.170
-479.347	800.000	0.126	-0.424
-478.332	29.568	0.348	-0.296
-477.318	30.708	-0.160	0.137
-476.303	-200.000	-0.012	0.483
-475.289	119.836	0.284	-0.352
-474.274	-90.025	-0.110	0.032
-473.259	-200.000	-0.049	-0.222
-472.245	-91.759	0.199	-0.056
-471.230	-68.633	-0.230	0.089
-470.216	91.714	-0.116	0.131
-469.201	-124.941	-0.205	0.032
-468.186	223.252	0.078	-0.125
-467.172	336.437	0.113	0.219
-466.157	-96.639	0.414	-0.109
-465.143	-200.000	-0.007	0.102
-464.128	412.045	-0.085	0.180
-463.113	665.154	0.052	0.133
-462.099	3.269	-0.074	-0.054
-461.084	-89.906	-0.141	0.041
-460.070	-200.000	0.006	0.521
-459.055	554.007	-0.127	-0.305
-458.040	-9.109	-0.202	-0.135
-457.026	-101.039	-0.213	-0.052
-456.011	-135.120	0.292	-0.035
-454.997	63.905	-0.226	0.226
-453.982	-91.950	-0.177	0.050
-452.968	21.960	-0.110	-0.090
-451.953	-135.369	-0.092	0.011
-450.938	28.605	-0.187	-0.158
-449.924	18.419	-0.091	-0.072
-448.909	169.569	-0.212	0.303
-447.895	-200.000	0.045	-0.226
-446.880	-7.628	0.112	0.076
-445.865	-200.000	-0.009	0.076
-444.851	-200.000	0.024	0.298
-443.836	-200.000	-0.048	0.268
-442.822	29.650	0.137	0.117
-441.807	-54.993	0.138	-0.062
-440.792	61.123	0.173	0.171
-439.778	-79.928	0.209	-0.070
-438.763	-94.068	-0.280	0.077
-437.749	78.636	-0.119	-0.127
-436.734	-32.908	0.217	0.120
-435.719	-200.000	0.021	0.143
-434.705	-56.115	-0.262	0.116
-433.690	-32.067	-0.107	0.060
-432.676	-57.587	0.190	-0.083
-431.661	-54.597	0.052	-0.023
-430.646	-200.000	-0.019	-0.148
-429.632	-97.269	-0.102	-0.027
-428.617	321.953	0.120	0.228
-427.603	732.689	0.081	-0.217
-426.588	30.240	-0.134	0.114
-425.573	-16.860	0.069	0.043
-424.559	-166.455	-0.438	-0.018
-423.544	-52.491	0.276	0.127
-422.530	723.950	0.052	0.137
-421.515	-177.453	-0.211	-0.005
-420.500	-80.446	-0.291	0.097
-419.486	800.000	-0.069	-0.218
-418.471	-200.000	0.034	-0.208
-417.457	-95.857	0.298	-0.079
-416.442	-188.451	0.331	0.004
-415.428	258.398	-0.154	-0.264
-414.413	800.000	-0.032	0.139
-413.398	800.000	0.030	-0.092
-412.384	-165.381	0.347	-0.015
-411.369	-83.216	0.262	0.084
-410.355	163.922	0.130	-0.183
-409.340	15.396	0.162	-0.127
-408.325	800.000	0.065	0.220
-407.311	-87.522	-0.265	0.080
-406.296	-15.338	0.155	0.099
-405.282	78.501	-0.164	0.175
-404.267	-200.000	-0.083	0.000
-403.252	-200.000	0.071	-0.312
-402.238	-200.000	-0.011	0.054
-401.223	-54.230	0.146	-0.066
-400.209	-53.209	-0.108	-0.049
-399.194	-200.000	0.006	-0.111
-398.179	38.199	-0.136	0.120
-397.165	-200.000	-0.010	0.059
-396.150	-30.534	-0.142	-0.080
-395.136	-123.482	0.213	-0.034
-394.121	-200.000	0.046	0.357
-393.106	81.171	-0.162	-0.174
-392.092	-111.476	0.330	-0.067
-391.077	100.546	-0.127	-0.147
-390.063	315.799	0.060	-0.113
-389.048	-141.303	-0.135	0.014
-388.033	-80.786	0.534	0.177
-387.019	-66.195	0.137	0.054
-386.004	-157.354	0.180	0.011
-384.990	64.777	-0.044	-0.044
-383.975	800.000	-0.027	-0.080
-382.960	800.000	-0.103	-0.348
-381.946	-200.000	-0.007	-0.446
-380.931	-200.000	-0.014	-0.152
-379.917	-197.506	0.236	0.001
-378.902	-200.000	0.019	-0.346
-377.888	122.893	-0.123	0.153
-376.873	-117.016	0.193	-0.035
-375.858	-101.782	-0.180	-0.043
-374.844	-8.530	0.140	-0.094
-373.829	47.700	-0.063	-0.058
-372.815	-185.951	0.149	-0.002
-371.800	-200.000	-0.048	-0.260
-370.785	800.000	0.075	-0.283
-369.771	-61.314	0.180	-0.075
-368.756	438.679	-0.112	-0.244
-367.742	267.641	-0.174	0.303
-366.727	314.889	0.077	-0.145
-365.712	800.000	-0.014	0.061
-364.698	-47.655	0.164	0.079
-363.683	800.000	0.049	-0.211
-362.669	390.131	-0.147	0.303
-361.654	270.388	0.179	0.313
-360.639	9.957	-0.290	0.219
-359.625	71.669	-0.214	0.221
-358.610	117.618	-0.038	0.047
-357.596	105.304	-0.274	-0.321
-356.581	800.000	-0.015	0.055
-355.566	800.000	-0.014	0.040
-354.552	-200.000	-0.032	-0.185
-353.537	-200.000	-0.004	-0.290
-352.523	540.267	-0.096	-0.228
-351.508	-200.000	0.016	-0.335
-350.493	-200.000	0.005	0.078
-349.479	31.289	0.266	0.227
-348.464	-66.921	-0.210	0.082
-347.450	142.759	-0.252	-0.332
-346.435	27.070	0.102	-0.085
-345.420	800.000	-0.013	-0.052
-344.406	-119.145	-0.132	0.023
-343.391	-200.000	0.040	-0.196
-342.377	-200.000	-0.051	-0.319
-341.362	-53.959	-0.199	-0.090
-340.348	-33.811	0.105	0.058
-339.333	-10.920	-0.179	0.117
-338.318	-185.406	-0.245	0.004
-337.304	85.814	-0.125	0.137
-336.289	-136.448	0.341	0.039
-335.275	261.305	0.047	0.082
-334.260	-41.058	-0.128	0.066
-333.245	66.683	-0.133	-0.134
-332.231	429.048	0.015	0.033
-331.216	-114.681	-0.290	0.055
-330.202	469.518	0.119	0.266
-329.187	-42.776	0.164	0.083
-328.172	252.185	-0.063	-0.107
-327.158	-151.732	-0.251	0.018
-326.143	-88.119	0.099	-0.029
-325.129	-95.472	0.204	-0.054
-324.114	98.855	0.149	0.171
-323.099	101.092	0.052	0.060
-322.085	800.000	0.118	0.438
-321.070	22.834	0.246	0.200
-320.056	-54.039	0.445	0.201
-319.041	-146.295	-0.238	0.021
-318.026	90.412	0.197	0.219
-317.012	323.332	0.059	0.112
-315.997	-29.300	-0.118	0.067
-314.983	-44.235	-0.178	-0.089
-313.968	-155.942	-0.385	-0.024
-312.953	-200.000	-0.008	-0.193
-311.939	-96.600	-0.335	-0.088
-310.924	-164.451	0.348	-0.016
-309.910	-61.041	0.205	-0.086
-308.895	337.714	-0.060	0.115
-307.880	-42.509	-0.129	-0.065
-306.866	584.729	0.040	-0.096
-305.851	278.078	-0.223	-0.394
-304.837	122.980	-0.074	0.092
-303.822	-114.296	0.567	-0.109
-302.807	-43.717	0.098	0.049
-301.793	-67.791	-0.376	0.146
-300.778	800.000	0.024	-0.100
-299.764	18.060	-0.037	0.029
-298.749	689.360	0.071	-0.185
-297.735	39.784	0.178	-0.159
-296.720	-73.361	-0.116	-0.042
-295.705	-55.438	-0.201	-0.089
-294.691	67.693	-0.127	-0.128
-293.676	-125.330	-0.297	-0.045
-292.662	-200.000	-0.071	-0.322
-291.647	-101.563	-0.217	-0.052
-290.632	22.710	-0.048	-0.039
-289.618	-200.000	0.010	0.240
-288.603	-179.929	-0.162	-0.003
-287.589	-116.812	-0.355	0.065
-286.574	81.497	-0.242	0.260
-285.559	-143.606	-0.115	-0.011
-284.545	87.591	0.335	-0.368
-283.530	800.000	0.060	0.218
-282.516	-0.302	0.145	0.102
-281.501	-74.992	-0.231	0.082
-280.486	137.960	0.183	0.238
-279.472	-122.891	0.125	-0.020
-278.457	800.000	-0.073	-0.202
-277.443	-200.000	-0.016	-0.191
-276.428	800.000	-0.077	-0.212
-275.413	-200.000	0.028	0.185
-274.399	94.678	-0.096	0.108
-273.384	8.753	-0.264	0.197
-272.370	-36.465	0.185	0.099
-271.355	437.450	0.046	-0.099
-270.340	-57.033	-0.088	0.039
-269.326	-94.080	-0.124	-0.034
-268.311	40.299	0.128	-0.114
-267.297	-200.000	-0.002	0.096
-266.282	691.026	0.043	-0.112
-265.267	800.000	0.055	-0.220
-264.253	-200.000	-0.021	-0.274
-263.238	37.679	0.071	-0.063
-262.224	726.046	-0.030	0.079
-261.209	-27.937	0.131	-0.075
-260.195	-107.273	-0.188	0.041
-259.180	-51.257	-0.179	0.083
-258.165	-69.549	-0.296	0.112
-257.151	202.425	-0.125	0.191
-256.136	800.000	-0.099	-0.275
-255.122	233.051	-0.137	0.224
-254.107	182.301	0.180	0.262
-253.092	107.937	0.084	-0.099
-252.078	201.796	0.035	-0.054
-251.063	-122.972	0.243	0.039
-250.049	121.956	0.149	0.184
-249.034	-3.506	0.105	-0.072
-248.019	-168.600	-0.275	0.010
-247.005	295.298	-0.175	0.316
-245.990	356.607	-0.188	0.371
-244.976	800.000	0.047	0.191
-243.961	463.061	0.116	-0.256
-242.946	-110.535	0.238	0.049
-241.932	-200.000	0.017	0.339
-240.917	-191.373	0.071	-0.001
-239.903	158.942	-0.154	-0.212
-238.888	-200.000	-0.021	0.169
-237.873	-9.838	-0.160	0.106
-236.859	-139.774	-0.155	-0.016
-235.844	493.989	-0.273	-0.620
-234.830	-200.000	0.019	-0.380
-233.815	10.093	0.170	-0.128
-232.800	-151.204	0.194	-0.014
-231.786	-163.433	-0.322	-0.015
-230.771	-34.418	0.171	0.093
-229.757	-113.144	-0.098	0.019
-228.742	336.906	-0.031	-0.059
-227.727	567.746	-0.130	-0.312
-226.713	-111.961	0.450	0.090
-225.698	-33.795	0.367	0.200
-224.684	-84.886	-0.061	-0.019
-223.669	-181.017	-0.218	-0.004
-222.655	-89.168	0.286	0.084
-221.640	-46.216	0.128	0.062
-220.625	152.608	0.018	0.024
-219.611	273.963	-0.223	-0.390
-218.596	27.548	0.099	0.083
-217.582	-200.000	-0.041	0.181
-216.567	84.876	-0.243	-0.263
-215.552	120.370	0.181	-0.222
-214.538	-200.000	-0.049	-0.240
-213.523	-200.000	-0.002	0.158
-212.509	-126.480	0.204	-0.030
-211.494	-23.603	0.266	-0.158
-210.479	-200.000	-0.015	-0.201
-209.465	158.663	0.071	0.098
-208.450	-137.136	0.127	-0.014
-207.436	690.235	-0.077	0.199
-206.421	-33.003	0.139	-0.076
-205.406	-92.370	0.047	0.013
-204.392	1.635	0.163	-0.116
-203.377	119.806	-0.196	0.240
-202.363	800.000	0.024	0.091
-201.348	-50.893	0.125	0.058
-200.333	-52.126	-0.244	-0.112
-199.319	522.095	-0.040	-0.094
-198.304	-113.406	-0.216	0.042
-197.290	-17.828	0.092	0.057
-196.275	-31.034	0.022	0.012
-195.260	-67.015	0.166	0.065
-194.246	-83.292	0.326	0.103
-193.231	-89.536	0.236	0.069
-192.217	-107.549	0.068	-0.015
-191.202	800.000	-0.068	-0.245
-190.187	20.658	-0.111	0.088
-189.173	800.000	-0.068	-0.250
-188.158	207.578	0.044	0.067
-187.144	-69.139	-0.096	-0.037
-186.129	4.839	-0.177	-0.129
-185.114	96.936	-0.088	-0.100
-184.100	800.000	0.026	0.109
-183.085	317.361	0.066	-0.124
-182.071	95.796	0.042	-0.048
-181.056	51.464	0.144	0.135
-180.042	-0.080	0.207	0.145
-179.027	94.036	0.225	0.252
-178.012	233.209	-0.198	-0.322
-176.998	-125.021	0.142	0.022
-175.983	264.418	0.071	0.121
-174.969	769.941	0.026	-0.071
-173.954	-132.234	0.301	0.038
-172.939	-3.354	0.296	0.203
-171.925	164.789	0.091	0.127
-170.910	-200.000	0.023	0.413
-169.896	-110.547	-0.134	0.027
-168.881	-200.000	0.332	0.001
-167.866	482.937	0.061	0.138
-166.852	45.731	-0.195	-0.178
-165.837	70.193	0.166	0.169
-164.823	-200.000	-0.024	-0.107
-163.808	800.000	-0.026	0.107
-162.793	-149.020	0.071	-0.006
-161.779	-200.000	0.085	0.369
-160.764	17.810	-0.161	-0.127
-159.750	663.526	-0.102	-0.261
-158.735	-62.420	0.119	-0.049
-157.720	79.366	0.254	0.269
-156.706	115.219	0.117	-0.141
-155.691	-34.527	0.178	-0.096
-154.677	-76.172	0.287	-0.100
-153.662	-195.776	0.122	-0.001
-152.647	7.049	-0.123	-0.090
-151.633	800.000	0.071	0.202
-150.618	-30.763	0.258	0.144
-149.604	-75.446	-0.388	-0.136
-148.589	-48.702	-0.127	-0.060
-147.574	-68.291	0.015	0.006
-146.560	122.125	0.200	-0.246
-145.545	-111.618	0.168	0.034
-144.531	-108.420	0.518	0.110
-143.516	-8.291	0.092	0.061
-142.502	688.092	-0.033	-0.085
-141.487	344.367	0.048	-0.093
-140.472	-60.550	-0.158	0.066
-139.458	12.971	0.134	-0.102
-138.443	552.111	0.077	-0.183
-137.429	747.985	-0.067	0.178
-136.414	12.439	-0.219	0.167
-135.399	-200.000	-0.011	0.411
-134.385	800.000	-0.083	0.327
-133.370	113.784	0.146	0.175
-132.356	-141.082	0.207	0.021
-131.341	27.005	-0.246	-0.204
-130.326	4.135	0.248	0.179
-129.312	412.749	-0.058	0.122
-128.297	-118.643	-0.130	-0.023
-127.283	98.266	0.102	-0.116
-126.268	-49.927	-0.180	0.084
-125.253	203.927	0.054	-0.083
-124.239	800.000	0.031	-0.128
-123.224	-158.391	0.509	0.029
-122.210	800.000	-0.077	0.263
-121.195	-200.000	0.014	-0.424
