DTS Sentinel unit serial number:	SN413079Multiplexer serial number:	ORYXHardware model number:	OX4-SRSoftware version number:	ORYX F/W v4.00 Oryx Data Collector v3.7.2.0data status	okinstallation	princeton_trtdifferential loss correction	single-endedforward channel	channel 3reverse channel	N/Adate	2019/09/19time	00:12:35forward acquisition time	60.00reverse acquisition time	0.00gamma	496.2192k internal	0.2346k external	0.2346temperature offset calibration	0.9991default loss term (dB/km)	0.3790temperature slope calibration	1.0000multiplexer offset coefficient	1.0000multiplexer slope coefficient	1.0000fibre end	0.00T internal ref (°C)	22.81T ext. ref 1 (°C)	0.75T ext. ref 2 (°C)	15.84length (m)	temperature (°C)	Stokes	anti-Stokes-747.200	359.793	-0.036	0.072
-746.185	800.000	0.069	-0.246
-745.171	12.401	0.220	-0.170
-744.156	109.664	0.076	0.091
-743.142	34.265	0.130	-0.113
-742.127	800.000	0.061	0.243
-741.112	267.240	-0.070	0.123
-740.098	58.353	-0.263	0.258
-739.083	-200.000	-0.020	0.258
-738.069	207.200	0.217	0.338
-737.054	800.000	-0.046	0.139
-736.039	-44.290	-0.158	0.079
-735.025	221.807	0.101	-0.163
-734.010	800.000	0.034	-0.117
-732.996	-125.762	0.178	-0.027
-731.981	800.000	-0.023	-0.101
-730.966	-77.256	-0.196	-0.068
-729.952	800.000	0.086	-0.238
-728.937	198.303	0.064	-0.098
-727.923	800.000	-0.128	-0.497
-726.908	-104.187	-0.168	0.039
-725.894	126.721	-0.051	0.065
-724.879	99.755	0.126	-0.145
-723.864	224.244	-0.109	-0.176
-722.850	3.596	-0.209	-0.152
-721.835	-163.712	-0.185	-0.009
-720.821	193.592	-0.195	-0.294
-719.806	-200.000	-0.020	-0.226
-718.791	-144.575	-0.086	-0.008
-717.777	800.000	-0.046	0.141
-716.762	800.000	-0.064	-0.277
-715.748	-200.000	0.000	0.284
-714.733	-50.389	-0.172	-0.081
-713.718	-200.000	0.056	0.307
-712.704	237.564	0.090	0.149
-711.689	-141.825	-0.178	-0.018
-710.675	20.458	-0.077	0.062
-709.660	-4.251	0.104	-0.072
-708.645	-87.345	-0.180	0.054
-707.631	-16.489	0.248	0.157
-706.616	800.000	0.110	-0.372
-705.602	-136.258	-0.153	0.018
-704.587	-200.000	0.017	-0.185
-703.572	78.448	-0.100	0.107
-702.558	-153.301	-0.201	0.014
-701.543	371.223	-0.154	0.311
-700.529	-127.495	0.170	-0.025
-699.514	-68.201	0.047	-0.018
-698.499	-114.617	0.227	-0.043
-697.485	-100.711	-0.327	-0.081
-696.470	43.189	-0.169	0.154
-695.456	57.036	-0.178	0.173
-694.441	-110.218	0.078	0.016
-693.426	67.245	0.107	0.108
-692.412	-67.876	0.229	-0.089
-691.397	-23.184	0.187	0.112
-690.383	-17.254	-0.041	-0.026
-689.368	-174.801	-0.161	-0.005
-688.354	316.643	0.216	-0.408
-687.339	55.344	-0.180	0.174
-686.324	-28.982	0.249	-0.143
-685.310	-35.854	-0.175	-0.095
-684.295	260.990	-0.085	0.147
-683.281	800.000	0.016	0.052
-682.266	-200.000	0.001	0.081
-681.251	-86.514	0.394	0.121
-680.237	15.013	0.110	-0.086
-679.222	-49.029	-0.065	0.031
-678.208	164.571	-0.129	-0.181
-677.193	-16.751	-0.053	-0.033
-676.178	-17.047	-0.208	-0.131
-675.164	17.463	-0.106	0.084
-674.149	21.583	-0.111	-0.090
-673.135	-200.000	0.045	0.335
-672.120	53.641	-0.126	0.120
-671.105	15.305	-0.104	0.081
-670.091	534.427	0.084	0.199
-669.076	-200.000	-0.018	-0.287
-668.062	-121.113	-0.203	-0.034
-667.047	52.470	0.142	-0.135
-666.032	800.000	0.081	-0.301
-665.018	-19.067	-0.182	-0.112
-664.003	36.527	-0.026	0.023
-662.989	-117.910	-0.127	0.023
-661.974	154.724	-0.147	-0.201
-660.959	218.732	0.075	0.119
-659.945	55.111	0.231	0.223
-658.930	409.150	0.065	0.137
-657.916	-119.772	-0.121	0.021
-656.901	-25.148	-0.118	0.069
-655.886	-81.128	0.254	0.084
-654.872	-90.279	-0.198	0.057
-653.857	239.431	0.033	0.055
-652.843	569.178	0.068	-0.164
-651.828	-200.000	-0.002	0.087
-650.814	-90.530	0.124	0.036
-649.799	800.000	-0.023	-0.089
-648.784	242.683	0.019	0.032
-647.770	41.091	0.123	-0.111
-646.755	-59.230	-0.128	-0.055
-645.741	-181.151	0.334	-0.007
-644.726	-157.418	-0.263	0.016
-643.711	527.581	-0.135	0.316
-642.697	-149.107	-0.122	0.010
-641.682	800.000	0.112	-0.391
-640.668	663.047	0.094	-0.242
-639.653	104.797	-0.160	-0.187
-638.638	-65.551	-0.280	-0.112
-637.624	-200.000	0.014	0.202
-636.609	-57.098	0.418	0.183
-635.595	95.576	-0.153	0.173
-634.580	113.938	0.316	0.383
-633.565	82.517	0.238	-0.257
-632.551	800.000	0.123	-0.425
-631.536	-104.692	-0.245	0.056
-630.522	-127.463	0.061	0.009
-629.507	362.882	-0.122	-0.243
-628.492	613.200	-0.244	-0.607
-627.478	-200.000	-0.083	-0.478
-626.463	800.000	-0.032	0.125
-625.449	-200.000	0.043	0.197
-624.434	14.758	0.179	-0.140
-623.419	-51.237	-0.436	0.203
-622.405	61.516	-0.212	0.210
-621.390	278.453	-0.134	-0.237
-620.376	800.000	0.125	-0.382
-619.361	294.432	-0.161	-0.294
-618.346	442.266	-0.018	0.039
-617.332	259.874	0.181	-0.311
-616.317	-185.868	0.225	0.003
-615.303	-5.093	-0.158	-0.108
-614.288	-200.000	-0.011	-0.086
-613.273	-66.421	-0.243	-0.096
-612.259	32.541	0.173	-0.149
-611.244	345.029	-0.137	0.267
-610.230	-200.000	-0.031	-0.269
-609.215	17.331	0.392	-0.310
-608.201	-148.728	-0.236	0.019
-607.186	-200.000	-0.015	-0.085
-606.171	404.457	0.082	-0.171
-605.157	13.693	0.198	-0.153
-604.142	-141.950	0.152	-0.015
-603.128	800.000	0.088	-0.292
-602.113	800.000	-0.145	0.399
-601.098	-32.998	-0.113	-0.062
-600.084	800.000	-0.086	-0.323
-599.069	431.853	-0.053	-0.114
-598.055	93.199	-0.340	-0.382
-597.040	-103.399	-0.280	-0.066
-596.025	-200.000	0.022	0.457
-595.011	-130.653	-0.137	-0.018
-593.996	-80.613	-0.101	-0.033
-592.982	-200.000	-0.085	-0.642
-591.967	97.880	-0.088	-0.101
-590.952	453.146	0.078	0.171
-589.938	62.886	0.200	-0.199
-588.923	-88.646	0.542	0.160
-587.909	60.236	0.114	-0.112
-586.894	17.416	0.157	-0.124
-585.879	460.176	-0.186	0.413
-584.865	72.752	-0.211	-0.219
-583.850	220.757	-0.027	-0.043
-582.836	-200.000	-0.056	-0.315
-581.821	-88.616	0.107	-0.032
-580.806	-100.578	-0.091	-0.022
-579.792	392.849	-0.026	-0.053
-578.777	163.238	0.085	-0.119
-577.763	-89.834	-0.221	0.064
-576.748	-200.000	-0.020	0.086
-575.733	-81.481	0.207	-0.068
-574.719	170.289	-0.272	0.387
-573.704	-200.000	0.015	0.427
-572.690	-104.210	-0.288	0.066
-571.675	-200.000	0.005	0.191
-570.661	155.817	0.234	-0.320
-569.646	133.275	-0.247	0.318
-568.631	-86.572	-0.237	0.072
-567.617	-200.000	0.003	0.131
-566.602	378.293	-0.118	0.240
-565.588	-200.000	-0.006	0.219
-564.573	800.000	0.037	0.139
-563.558	800.000	0.120	0.401
-562.544	-200.000	-0.032	0.307
-561.529	-138.638	-0.216	0.024
-560.515	-200.000	0.021	-0.135
-559.500	-200.000	-0.040	-0.189
-558.485	14.943	-0.179	0.139
-557.471	-200.000	0.002	-0.110
-556.456	208.838	-0.051	0.079
-555.442	-14.601	-0.232	-0.148
-554.427	-1.700	0.258	-0.180
-553.412	154.677	0.085	0.116
-552.398	159.993	-0.121	0.167
-551.383	104.815	0.105	0.122
-550.369	-27.964	-0.184	-0.106
-549.354	159.620	0.079	0.109
-548.339	48.815	-0.154	0.143
-547.325	2.928	-0.071	0.051
-546.310	63.916	0.136	0.136
-545.296	166.691	0.162	-0.228
-544.281	146.634	-0.437	-0.582
-543.266	377.973	-0.095	-0.192
-542.252	800.000	0.104	-0.293
-541.237	-200.000	0.064	0.353
-540.223	800.000	0.040	0.173
-539.208	559.760	-0.176	-0.423
-538.193	38.088	0.044	0.039
-537.179	800.000	0.045	0.176
-536.164	800.000	-0.131	-0.383
-535.150	800.000	-0.119	-0.362
-534.135	-200.000	-0.006	0.267
-533.121	-140.641	-0.290	0.030
-532.106	-200.000	-0.040	-0.184
-531.091	-200.000	0.006	-0.346
-530.077	-5.738	-0.189	0.128
-529.062	-200.000	-0.012	-0.292
-528.048	-121.387	0.160	-0.026
-527.033	-196.586	-0.325	-0.002
-526.018	282.079	-0.105	0.187
-525.004	234.048	-0.051	0.083
-523.989	698.702	0.138	0.359
-522.975	-170.237	-0.167	0.006
-521.960	800.000	-0.033	0.130
-520.945	-37.271	0.137	0.073
-519.931	-65.592	-0.141	-0.056
-518.916	-97.745	-0.361	0.093
-517.902	-120.664	0.342	0.057
-516.887	-80.603	0.065	0.021
-515.872	113.943	0.087	-0.105
-514.858	800.000	0.083	0.246
-513.843	20.064	-0.161	-0.129
-512.829	-200.000	-0.055	-0.244
-511.814	-200.000	0.018	-0.174
-510.799	18.116	-0.084	-0.066
-509.785	-13.245	0.068	-0.044
-508.770	-49.787	0.096	0.045
-507.756	-200.000	-0.017	-0.169
-506.741	-200.000	0.022	0.164
-505.726	-200.000	-0.007	0.099
-504.712	-76.557	-0.188	-0.065
-503.697	90.918	0.224	-0.249
-502.683	-50.641	-0.100	0.047
-501.668	-98.567	0.125	-0.032
-500.653	-200.000	-0.052	-0.263
-499.639	358.041	0.088	-0.173
-498.624	-142.316	0.031	-0.003
-497.610	-105.976	0.040	0.009
-496.595	-55.092	0.135	0.060
-495.581	282.029	0.082	0.145
-494.566	680.426	0.160	0.412
-493.551	169.201	0.125	0.177
-492.537	143.658	0.049	0.065
-491.522	231.758	0.014	-0.023
-490.508	19.888	-0.101	-0.081
-489.493	-200.000	-0.032	0.172
-488.478	80.868	-0.048	-0.051
-487.464	-85.405	0.057	-0.018
-486.449	171.271	-0.132	-0.187
-485.435	331.938	0.243	0.465
-484.420	-120.813	-0.245	0.041
-483.405	97.434	0.074	0.084
-482.391	-155.888	0.232	-0.015
-481.376	118.500	-0.137	-0.167
-480.362	-124.652	0.313	0.048
-479.347	800.000	0.121	-0.397
-478.332	800.000	0.063	0.222
-477.318	106.770	0.291	0.342
-476.303	674.254	-0.152	0.391
-475.289	-147.921	-0.120	-0.010
-474.274	12.831	0.295	-0.226
-473.259	39.696	-0.284	-0.252
-472.245	-59.097	0.233	0.100
-471.230	290.304	0.006	0.011
-470.216	-200.000	-0.044	0.262
-469.201	567.616	0.097	0.232
-468.186	-95.381	-0.325	0.086
-467.172	522.172	-0.018	0.041
-466.157	-75.071	-0.149	-0.053
-465.143	800.000	-0.086	-0.238
-464.128	-60.885	-0.127	-0.053
-463.113	-150.410	0.372	0.028
-462.099	91.849	-0.297	-0.331
-461.084	-200.000	-0.023	-0.243
-460.070	-200.000	-0.003	0.174
-459.055	800.000	0.128	0.443
-458.040	-200.000	-0.062	-0.545
-457.026	-200.000	-0.020	-0.092
-456.011	-118.731	0.153	0.027
-454.997	-29.562	-0.161	-0.091
-453.982	73.753	0.048	0.050
-452.968	-135.354	0.050	-0.006
-451.953	-200.000	0.030	-0.250
-450.938	356.494	-0.086	-0.169
-449.924	-36.214	-0.312	-0.166
-448.909	800.000	-0.023	-0.085
-447.895	-46.473	0.142	-0.069
-446.880	-149.184	-0.142	-0.011
-445.865	136.999	0.199	0.257
-444.851	800.000	0.077	0.249
-443.836	124.967	0.073	-0.091
-442.822	-39.721	-0.058	0.030
-441.807	360.882	-0.270	-0.535
-440.792	800.000	0.036	0.151
-439.778	-200.000	-0.015	0.330
-438.763	-114.746	0.345	0.065
-437.749	639.706	-0.111	0.279
-436.734	150.668	0.064	-0.086
-435.719	5.271	-0.159	-0.116
-434.705	96.591	-0.223	0.252
-433.690	8.979	0.016	0.012
-432.676	720.426	0.100	-0.264
-431.661	-84.378	0.196	-0.061
-430.646	-200.000	0.024	-0.112
-429.632	-59.677	-0.103	0.043
-428.617	-18.794	-0.117	0.072
-427.603	-125.362	-0.332	-0.050
-426.588	-41.109	-0.120	0.061
-425.573	51.785	0.054	-0.051
-424.559	247.583	-0.098	-0.164
-423.544	549.025	-0.048	-0.114
-422.530	364.016	0.046	-0.091
-421.515	-103.991	0.188	0.043
-420.500	-200.000	-0.005	0.065
-419.486	346.346	-0.117	0.228
-418.471	-52.172	-0.160	-0.073
-417.457	458.190	0.073	-0.160
-416.442	-100.162	-0.453	-0.111
-415.428	-93.266	0.190	-0.052
-414.413	183.735	0.186	0.272
-413.398	576.413	0.136	0.328
-412.384	36.392	0.157	0.137
-411.369	-200.000	0.041	0.238
-410.355	129.758	0.178	0.225
-409.340	133.664	0.049	-0.062
-408.325	800.000	0.050	0.164
-407.311	76.245	-0.257	-0.268
-406.296	-3.412	0.264	-0.182
-405.282	110.409	0.125	0.149
-404.267	160.622	0.016	-0.022
-403.252	365.533	-0.084	0.166
-402.238	-41.196	-0.278	0.142
-401.223	-19.574	0.264	-0.161
-400.209	-126.624	-0.382	-0.056
-399.194	-200.000	-0.028	0.320
-398.179	-200.000	-0.032	-0.270
-397.165	132.859	-0.142	-0.180
-396.150	218.709	0.037	-0.058
-395.136	-95.696	-0.169	-0.044
-394.121	-169.828	-0.107	-0.004
-393.106	87.034	0.183	-0.200
-392.092	-33.490	-0.248	-0.135
-391.077	724.298	0.024	-0.062
-390.063	-200.000	-0.012	-0.091
-389.048	58.019	0.188	0.181
-388.033	17.852	-0.271	0.213
-387.019	180.707	-0.177	0.256
-386.004	54.705	0.412	0.392
-384.990	-93.720	-0.290	-0.079
-383.975	-12.227	-0.195	0.126
-382.960	588.651	0.087	-0.210
-381.946	-200.000	-0.058	-0.316
-380.931	-200.000	0.019	-0.236
-379.917	-99.286	-0.241	0.060
-378.902	-123.067	0.092	0.015
-377.888	800.000	-0.112	0.354
-376.873	-22.355	-0.104	-0.062
-375.858	91.505	0.352	-0.389
-374.844	7.807	-0.370	-0.273
-373.829	-44.226	0.168	0.083
-372.815	-200.000	0.010	0.137
-371.800	640.965	-0.107	0.269
-370.785	-117.167	-0.014	0.002
-369.771	-47.917	0.122	0.058
-368.756	-200.000	0.013	0.079
-367.742	-63.891	-0.214	0.086
-366.727	-199.138	0.325	-0.002
-365.712	76.272	0.085	0.088
-364.698	231.674	0.093	0.150
-363.683	-128.162	-0.444	0.063
-362.669	-200.000	0.029	-0.286
-361.654	25.023	0.176	-0.144
-360.639	55.780	0.103	0.098
-359.625	800.000	0.085	-0.334
-358.610	-44.120	0.168	-0.083
-357.596	68.152	-0.141	-0.142
-356.581	-59.992	0.183	0.077
-355.566	-2.592	0.177	-0.122
-354.552	215.519	0.158	0.248
-353.537	-200.000	-0.051	0.383
-352.523	56.743	0.206	0.198
-351.508	-3.449	0.142	-0.098
-350.493	-144.975	0.158	0.014
-349.479	-200.000	0.002	0.087
-348.464	-200.000	-0.023	0.321
-347.450	571.891	0.177	0.424
-346.435	800.000	0.071	0.245
-345.420	800.000	-0.046	0.175
-344.406	-80.594	-0.152	-0.050
-343.391	-78.174	0.167	-0.057
-342.377	800.000	0.051	0.156
-341.362	-75.375	-0.159	-0.056
-340.348	-134.730	-0.108	0.013
-339.333	203.947	-0.200	0.305
-338.318	112.074	0.108	-0.129
-337.304	-168.071	-0.055	0.002
-336.289	-50.739	0.104	-0.048
-335.275	209.819	0.181	0.279
-334.260	-1.256	-0.082	0.057
-333.245	290.970	0.200	0.358
-332.231	-101.002	-0.240	-0.058
-331.216	437.805	-0.071	0.152
-330.202	-136.194	-0.214	-0.025
-329.187	-186.014	-0.160	-0.002
-328.172	-64.477	-0.391	-0.156
-327.158	-43.978	-0.058	-0.028
-326.143	-152.448	-0.024	0.002
-325.129	-30.849	-0.070	-0.039
-324.114	465.721	0.080	0.175
-323.099	-21.263	0.316	0.190
-322.085	800.000	0.002	0.005
-321.070	-200.000	0.013	-0.156
-320.056	-73.553	-0.203	-0.073
-319.041	-112.604	0.382	-0.075
-318.026	-200.000	-0.014	0.081
-317.012	58.911	0.301	-0.291
-315.997	121.731	0.134	0.165
-314.983	-27.020	-0.242	0.139
-313.968	410.249	-0.124	-0.258
-312.953	135.759	0.132	0.169
-311.939	271.838	0.086	-0.149
-310.924	17.584	0.150	0.118
-309.910	33.121	-0.122	-0.104
-308.895	-200.000	0.001	0.319
-307.880	-116.806	-0.202	0.036
-306.866	10.716	-0.071	-0.053
-305.851	800.000	0.101	-0.419
-304.837	30.163	-0.063	-0.053
-303.822	796.329	-0.037	-0.099
-302.807	8.916	-0.035	-0.026
-301.793	-90.202	0.311	0.089
-300.778	-123.704	-0.302	-0.047
-299.764	-200.000	0.002	-0.086
-298.749	-200.000	-0.039	-0.178
-297.735	800.000	0.059	0.170
-296.720	544.494	0.114	-0.268
-295.705	-175.013	-0.166	-0.005
-294.691	-200.000	0.002	-0.335
-293.676	101.485	-0.168	0.192
-292.662	800.000	-0.093	-0.340
-291.647	-200.000	0.035	-0.203
-290.632	-28.062	0.083	0.047
-289.618	-104.578	-0.319	0.072
-288.603	-182.179	0.255	-0.005
-287.589	-178.982	0.285	-0.006
-286.574	252.479	0.016	0.027
-285.559	75.562	0.179	-0.186
-284.545	-200.000	0.000	-0.082
-283.530	-101.382	-0.258	-0.062
-282.516	44.135	0.278	-0.251
-281.501	-92.531	0.073	-0.020
-280.486	692.610	-0.115	-0.297
-279.472	-31.999	0.329	-0.181
-278.457	17.251	0.304	0.237
-277.443	356.841	-0.155	-0.303
-276.428	111.084	-0.011	0.013
-275.413	-200.000	0.008	0.194
-274.399	-72.311	0.273	-0.099
-273.384	-165.829	0.290	-0.012
-272.370	-200.000	-0.039	0.346
-271.355	-72.242	-0.072	-0.026
-270.340	-200.000	0.022	0.118
-269.326	19.303	-0.146	-0.115
-268.311	800.000	0.017	0.067
-267.297	-92.207	0.211	0.059
-266.282	800.000	-0.088	-0.330
-265.267	442.091	0.035	-0.076
-264.253	142.155	-0.217	0.283
-263.238	-75.593	-0.327	0.114
-262.224	800.000	-0.072	0.221
-261.209	-69.430	0.335	-0.126
-260.195	43.582	-0.227	-0.204
-259.180	-49.485	-0.057	0.026
-258.165	-63.090	0.421	0.170
-257.151	117.139	-0.264	0.318
-256.136	640.291	0.076	0.190
-255.122	800.000	0.058	0.160
-254.107	23.988	0.274	0.222
-253.092	800.000	-0.093	-0.286
-252.078	152.052	-0.050	0.067
-251.063	-113.408	-0.100	-0.019
-250.049	-200.000	-0.016	-0.165
-249.034	302.963	0.098	0.179
-248.019	472.189	0.055	-0.122
-247.005	-155.009	0.423	0.027
-245.990	-119.466	0.109	-0.019
-244.976	-69.683	0.193	-0.072
-243.961	157.575	-0.147	0.199
-242.946	-200.000	-0.014	0.166
-241.932	-77.115	-0.194	0.066
-240.917	48.043	-0.551	0.505
-239.903	800.000	-0.025	-0.102
-238.888	-200.000	0.047	0.388
-237.873	57.209	-0.131	0.125
-236.859	-194.112	0.306	-0.002
-235.844	-200.000	-0.031	0.169
-234.830	-65.089	0.304	0.120
-233.815	-82.914	0.314	0.099
-232.800	48.173	0.161	0.148
-231.786	800.000	-0.060	0.198
-230.771	283.513	-0.033	-0.057
-229.757	-62.620	0.329	0.134
-228.742	-200.000	0.018	0.181
-227.727	-200.000	0.008	-0.075
-226.713	-82.648	-0.286	-0.091
-225.698	-70.552	-0.338	0.126
-224.684	185.594	0.176	0.256
-223.669	205.411	0.102	-0.156
-222.655	-69.555	0.222	-0.083
-221.640	29.505	0.092	-0.077
-220.625	-116.274	0.144	0.026
-219.611	-200.000	-0.023	-0.226
-218.596	-200.000	-0.094	0.408
-217.582	140.537	-0.111	0.144
-216.567	-138.170	0.461	0.050
-215.552	156.781	0.042	0.057
-214.538	65.027	0.115	0.114
-213.523	-124.867	-0.461	0.070
-212.509	800.000	-0.103	-0.332
-211.494	800.000	0.059	0.178
-210.479	-60.027	-0.228	0.095
-209.465	-90.967	0.165	0.047
-208.450	-92.227	0.127	-0.035
-207.436	-200.000	0.084	0.384
-206.421	-6.453	0.147	-0.098
-205.406	143.002	-0.164	-0.214
-204.392	235.745	0.180	0.292
-203.377	-162.822	-0.070	-0.003
-202.363	-149.181	0.215	-0.017
-201.348	-8.548	-0.155	-0.102
-200.333	-200.000	-0.041	-0.418
-199.319	-3.183	0.171	0.117
-198.304	-40.867	0.188	-0.095
-197.290	-104.130	-0.048	-0.011
-196.275	144.231	0.157	0.206
-195.260	-42.474	0.321	-0.160
-194.246	-200.000	-0.006	0.057
-193.231	-200.000	-0.014	-0.273
-192.217	160.978	0.162	-0.222
-191.202	444.701	0.161	0.345
-190.187	-200.000	0.061	0.461
-189.173	187.073	-0.054	0.079
-188.158	49.701	-0.170	0.156
-187.144	-105.002	0.169	-0.038
-186.129	-200.000	0.003	-0.399
-185.114	-200.000	0.019	-0.181
-184.100	-136.636	-0.089	-0.010
-183.085	383.601	-0.110	0.222
-182.071	-90.513	0.200	0.057
-181.056	-77.714	-0.044	-0.015
-180.042	131.440	0.016	0.020
-179.027	-200.000	-0.028	-0.277
-178.012	32.685	0.110	0.093
-176.998	-200.000	0.063	-0.337
-175.983	271.000	0.106	-0.182
-174.969	582.326	-0.039	0.094
-173.954	-200.000	0.029	-0.227
-172.939	647.605	-0.184	0.460
-171.925	-122.680	-0.227	-0.036
-170.910	169.677	-0.313	0.437
-169.896	-103.165	0.113	-0.026
-168.881	-193.288	-0.196	0.002
-167.866	116.845	0.293	-0.352
-166.852	-200.000	-0.003	0.380
-165.837	800.000	0.035	0.119
-164.823	-200.000	-0.100	0.000
-163.808	505.896	-0.019	-0.043
-162.793	362.092	0.240	-0.470
-161.779	-16.931	-0.200	-0.123
-160.764	55.488	0.124	-0.117
-159.750	150.414	-0.088	0.117
-158.735	-200.000	0.025	-0.183
-157.720	-200.000	-0.021	-0.122
-156.706	-33.124	0.233	0.126
-155.691	-147.672	-0.410	0.034
-154.677	-28.975	0.228	-0.128
-153.662	28.241	0.149	0.123
-152.647	-200.000	-0.026	0.139
-151.633	356.330	-0.043	0.084
-150.618	37.513	0.068	-0.059
-149.604	208.777	-0.042	0.064
-148.589	151.342	-0.142	-0.189
-147.574	-200.000	0.011	0.353
-146.560	-200.000	0.087	0.382
-145.545	-200.000	-0.000	-0.174
-144.531	51.393	0.236	-0.219
-143.516	-200.000	-0.022	-0.157
-142.502	800.000	0.110	0.321
-141.487	-27.926	0.079	-0.044
-140.472	23.959	0.073	0.059
-139.458	114.795	0.036	0.043
-138.443	32.209	-0.099	-0.083
-137.429	72.649	0.210	0.214
-136.414	-200.000	0.017	0.190
-135.399	493.862	-0.147	0.330
-134.385	-87.732	0.258	-0.076
-133.370	190.777	-0.280	0.411
-132.356	69.804	-0.084	0.084
-131.341	173.808	-0.054	-0.076
-130.326	-200.000	0.023	0.209
-129.312	48.948	-0.066	-0.060
-128.297	190.367	-0.155	0.228
-127.283	-200.000	0.028	0.522
-126.268	-163.059	-0.262	0.012
-125.253	800.000	-0.088	-0.314
-124.239	256.899	-0.185	-0.310
-123.224	376.780	0.076	-0.151
-122.210	-107.499	0.178	0.038
