DTS Sentinel unit serial number:	SN413079Multiplexer serial number:	ORYXHardware model number:	OX4-SRSoftware version number:	ORYX F/W v4.00 Oryx Data Collector v3.7.2.0data status	okinstallation	princeton_trtdifferential loss correction	single-endedforward channel	channel 3reverse channel	N/Adate	2019/09/12time	20:32:35forward acquisition time	60.00reverse acquisition time	0.00gamma	496.2192k internal	0.2324k external	0.2324temperature offset calibration	1.0124default loss term (dB/km)	0.3790temperature slope calibration	1.0000multiplexer offset coefficient	1.0000multiplexer slope coefficient	1.0000fibre end	0.00T internal ref (°C)	31.25T ext. ref 1 (°C)	3.58T ext. ref 2 (°C)	25.77length (m)	temperature (°C)	Stokes	anti-Stokes-747.200	-35.480	-0.093	-0.051
-746.185	641.077	0.201	0.516
-745.171	-200.000	0.034	0.192
-744.156	233.898	-0.049	0.082
-743.142	65.903	-0.189	-0.193
-742.127	800.000	-0.123	0.478
-741.112	800.000	0.158	0.454
-740.098	-200.000	0.009	0.058
-739.083	-133.903	0.339	-0.043
-738.069	-97.359	0.433	0.114
-737.054	-109.346	0.174	-0.037
-736.039	81.388	-0.293	-0.320
-735.025	508.815	-0.072	0.169
-734.010	-114.954	0.094	0.018
-732.996	-71.048	-0.349	-0.133
-731.981	536.279	0.154	0.369
-730.966	-21.102	0.070	-0.043
-729.952	-44.246	0.070	-0.035
-728.937	550.206	-0.115	-0.278
-727.923	213.549	-0.112	-0.178
-726.908	-75.929	0.419	-0.150
-725.894	-42.485	0.064	0.033
-724.879	-200.000	-0.074	-0.518
-723.864	507.643	0.050	0.118
-722.850	34.907	0.062	0.055
-721.835	192.959	-0.124	0.189
-720.821	-51.963	-0.269	0.126
-719.806	37.630	-0.135	-0.121
-718.791	-151.891	0.152	-0.011
-717.777	-80.043	-0.341	-0.115
-716.762	586.529	0.058	0.143
-715.748	105.821	0.167	-0.200
-714.733	-156.833	-0.302	0.019
-713.718	-82.260	0.085	0.028
-712.704	-62.404	-0.190	-0.080
-711.689	-200.000	-0.026	0.198
-710.675	-108.011	-0.071	0.015
-709.660	-133.321	-0.185	0.023
-708.645	-200.000	0.040	-0.400
-707.631	193.837	-0.131	-0.200
-706.616	800.000	-0.054	-0.201
-705.602	240.399	0.060	0.101
-704.587	-200.000	0.002	0.388
-703.572	-87.651	-0.187	-0.057
-702.558	-49.577	-0.311	-0.149
-701.543	74.835	0.089	-0.095
-700.529	-200.000	-0.034	-0.186
-699.514	800.000	0.064	-0.205
-698.499	-112.302	-0.138	0.028
-697.485	-78.914	-0.305	-0.105
-696.470	32.674	0.124	0.108
-695.456	-54.106	-0.182	0.084
-694.441	800.000	0.019	0.059
-693.426	-19.366	-0.130	0.081
-692.412	-200.000	0.049	0.296
-691.397	71.278	0.132	0.137
-690.383	717.164	-0.097	0.260
-689.368	-147.371	0.096	0.008
-688.354	-152.594	-0.281	0.020
-687.339	-45.785	-0.172	-0.086
-686.324	-109.986	0.254	-0.053
-685.310	305.657	-0.100	0.187
-684.295	800.000	0.060	-0.215
-683.281	117.320	0.133	0.164
-682.266	-104.748	-0.155	0.036
-681.251	-65.182	-0.274	0.111
-680.237	800.000	-0.023	-0.095
-679.222	146.435	0.037	-0.050
-678.208	-200.000	0.021	0.132
-677.193	-45.185	-0.324	-0.162
-676.178	178.699	-0.119	-0.176
-675.164	-200.000	0.035	-0.197
-674.149	-48.312	0.086	0.042
-673.135	-5.376	-0.139	0.096
-672.120	39.148	-0.172	0.155
-671.105	12.697	-0.077	0.060
-670.091	800.000	-0.135	0.387
-669.076	-170.285	-0.269	0.010
-668.062	-116.168	-0.554	0.104
-667.047	19.405	-0.035	-0.028
-666.032	-13.281	-0.179	0.117
-665.018	-200.000	-0.008	0.091
-664.003	-63.343	-0.371	-0.154
-662.989	-105.475	0.132	-0.030
-661.974	800.000	-0.058	-0.187
-660.959	-111.613	0.054	0.011
-659.945	-65.976	-0.377	0.152
-658.930	101.986	0.070	-0.083
-657.916	-165.553	-0.133	0.006
-656.901	95.497	0.110	0.126
-655.886	-91.768	-0.290	0.083
-654.872	471.409	0.069	-0.156
-653.857	-55.961	0.477	0.214
-652.843	-119.581	-0.168	-0.029
-651.828	-24.636	0.291	-0.174
-650.814	-200.000	0.035	-0.285
-649.799	238.995	-0.153	-0.256
-648.784	-146.835	0.321	-0.028
-647.770	-24.309	-0.033	0.020
-646.755	73.149	-0.044	0.046
-645.741	-200.000	-0.005	0.028
-644.726	-67.894	-0.280	0.110
-643.711	800.000	0.093	-0.319
-642.697	29.243	-0.083	-0.071
-641.682	169.847	-0.018	-0.026
-640.668	-200.000	-0.043	0.299
-639.653	-188.466	-0.287	0.004
-638.638	-52.832	0.074	-0.034
-637.624	87.746	-0.219	-0.244
-636.609	76.416	0.068	0.073
-635.595	-200.000	0.061	-0.291
-634.580	15.140	0.158	-0.125
-633.565	-137.786	-0.426	-0.048
-632.551	-200.000	-0.029	-0.140
-631.536	-43.498	-0.217	0.110
-630.522	47.068	-0.198	0.185
-629.507	800.000	-0.027	0.110
-628.492	-90.304	-0.108	0.031
-627.478	-101.572	0.120	-0.029
-626.463	205.958	-0.077	-0.121
-625.449	28.084	0.229	0.194
-624.434	-59.548	0.228	0.098
-623.419	-29.775	0.236	-0.135
-622.405	645.905	0.025	-0.064
-621.390	103.761	-0.158	0.186
-620.376	-13.215	-0.085	-0.056
-619.361	-32.593	-0.167	0.093
-618.346	800.000	0.018	0.066
-617.332	800.000	0.082	-0.340
-616.317	165.581	0.091	-0.129
-615.303	-111.026	-0.405	-0.083
-614.288	-64.446	-0.186	0.076
-613.273	-109.222	-0.107	0.023
-612.259	227.941	-0.166	0.272
-611.244	-151.122	0.300	-0.023
-610.230	434.449	-0.093	-0.204
-609.215	-31.898	0.140	-0.079
-608.201	-200.000	-0.027	-0.198
-607.186	24.441	-0.208	-0.173
-606.171	145.489	-0.021	0.028
-605.157	405.726	-0.104	-0.219
-604.142	-72.703	0.379	-0.140
-603.128	226.185	0.085	0.138
-602.113	33.601	0.164	-0.144
-601.098	-17.439	0.215	-0.136
-600.084	-68.109	0.261	0.102
-599.069	27.601	-0.051	-0.043
-598.055	238.140	-0.037	0.061
-597.040	-125.925	0.450	0.068
-596.025	-108.155	-0.353	-0.077
-595.011	-200.000	0.032	-0.175
-593.996	-8.455	0.219	-0.148
-592.982	-200.000	0.004	0.028
-591.967	28.188	-0.222	-0.188
-590.952	82.716	-0.141	-0.154
-589.938	4.568	0.082	-0.061
-588.923	83.760	0.141	0.154
-587.909	-54.224	-0.222	-0.101
-586.894	145.893	0.074	0.100
-585.879	-200.000	0.002	0.230
-584.865	-200.000	-0.034	-0.161
-583.850	324.760	0.069	-0.131
-582.836	11.608	-0.226	-0.174
-581.821	800.000	-0.021	0.064
-580.806	302.760	-0.177	-0.328
-579.792	342.895	0.043	-0.084
-578.777	-84.397	0.197	0.062
-577.763	-200.000	0.013	-0.140
-576.748	337.768	0.124	-0.242
-575.733	11.564	-0.133	0.103
-574.719	-69.371	-0.127	0.049
-573.704	126.952	0.178	0.226
-572.690	-40.424	0.172	-0.090
-571.675	-44.463	0.318	-0.159
-570.661	-200.000	-0.059	-0.299
-569.646	-200.000	-0.015	0.092
-568.631	-110.509	0.234	0.049
-567.617	-84.087	-0.200	-0.064
-566.602	-114.143	-0.361	0.070
-565.588	75.697	-0.027	-0.029
-564.573	-135.539	0.274	0.033
-563.558	8.456	-0.358	0.270
-562.544	99.076	0.105	0.122
-561.529	-175.364	0.193	-0.005
-560.515	-200.000	0.051	0.276
-559.500	8.252	-0.273	-0.206
-558.485	445.592	0.161	-0.354
-557.471	116.202	0.026	0.032
-556.456	-69.203	-0.190	-0.073
-555.442	-200.000	-0.018	-0.154
-554.427	-158.367	-0.350	0.020
-553.412	800.000	-0.079	0.270
-552.398	-28.159	-0.196	-0.114
-551.383	800.000	-0.086	0.284
-550.369	-14.949	-0.096	0.062
-549.354	156.509	0.107	-0.148
-548.339	800.000	0.060	-0.229
-547.325	146.242	-0.135	0.182
-546.310	-124.714	0.138	0.021
-545.296	-3.243	0.112	0.078
-544.281	-116.429	-0.185	0.034
-543.266	434.750	-0.069	-0.149
-542.252	-200.000	0.033	0.410
-541.237	148.851	0.074	-0.100
-540.223	57.694	-0.246	0.241
-539.208	372.987	0.235	0.478
-538.193	537.226	0.042	-0.100
-537.179	619.000	-0.088	-0.221
-536.164	-145.896	-0.178	-0.016
-535.150	315.798	0.102	-0.193
-534.135	-136.498	-0.095	0.011
-533.121	800.000	0.068	0.266
-532.106	-200.000	0.017	-0.102
-531.091	25.711	0.274	-0.229
-530.077	800.000	-0.043	-0.122
-529.062	214.624	0.093	-0.147
-528.048	800.000	-0.046	-0.134
-527.033	800.000	-0.048	-0.155
-526.018	108.742	0.056	-0.067
-525.004	800.000	0.085	-0.253
-523.989	-200.000	0.009	0.074
-522.975	-200.000	-0.008	0.095
-521.960	-32.402	0.219	0.122
-520.945	-60.001	0.139	0.059
-519.931	-140.539	-0.054	-0.006
-518.916	40.571	0.056	0.050
-517.902	27.257	0.084	0.070
-516.887	122.670	-0.265	-0.332
-515.872	269.517	-0.142	-0.249
-514.858	105.980	-0.048	-0.057
-513.843	-41.428	0.108	-0.056
-512.829	-200.000	0.027	0.200
-511.814	-200.000	-0.008	0.064
-510.799	-56.545	-0.178	0.079
-509.785	-160.068	-0.360	0.020
-508.770	800.000	-0.091	-0.336
-507.756	800.000	-0.031	0.094
-506.741	-11.742	0.300	-0.197
-505.726	-142.491	-0.141	-0.014
-504.712	294.908	0.070	0.129
-503.697	-200.000	-0.032	-0.219
-502.683	800.000	-0.107	-0.328
-501.668	-69.439	0.024	-0.009
-500.653	-120.858	0.066	-0.011
-499.639	-177.028	-0.270	-0.007
-498.624	-114.861	-0.108	0.020
-497.610	34.260	0.164	-0.143
-496.595	800.000	0.054	0.179
-495.581	174.844	0.170	-0.246
-494.566	-34.593	-0.260	0.142
-493.551	438.854	0.013	0.027
-492.537	-200.000	0.046	0.300
-491.522	800.000	0.012	0.036
-490.508	-35.471	0.111	0.060
-489.493	800.000	-0.097	0.271
-488.478	-200.000	-0.046	-0.482
-487.464	336.876	-0.133	-0.258
-486.449	-178.315	0.373	-0.009
-485.435	287.743	-0.190	0.344
-484.420	800.000	-0.206	0.592
-483.405	241.429	0.101	0.169
-482.391	294.608	-0.037	-0.067
-481.376	-152.287	-0.128	0.009
-480.362	218.850	-0.063	0.101
-479.347	160.879	-0.157	0.219
-478.332	-200.000	-0.000	0.197
-477.318	-122.213	-0.259	-0.042
-476.303	-178.282	0.096	0.002
-475.289	27.960	0.204	-0.172
-474.274	-15.425	0.416	0.265
-473.259	64.777	-0.163	0.164
-472.245	-114.390	-0.269	-0.052
-471.230	-200.000	0.005	-0.487
-470.216	-142.390	0.325	-0.032
-469.201	-8.240	-0.121	-0.082
-468.186	800.000	-0.064	0.180
-467.172	236.562	-0.049	-0.082
-466.157	23.464	-0.213	-0.175
-465.143	800.000	-0.063	-0.232
-464.128	107.794	-0.102	-0.121
-463.113	25.838	0.120	0.100
-462.099	-167.722	0.196	0.008
-461.084	399.653	-0.169	0.353
-460.070	355.076	-0.042	-0.083
-459.055	800.000	-0.032	-0.088
-458.040	-76.301	0.017	-0.006
-457.026	-7.494	-0.199	-0.135
-456.011	-200.000	-0.013	-0.175
-454.997	281.268	-0.014	0.026
-453.982	130.958	0.162	0.207
-452.968	-28.102	-0.273	-0.158
-451.953	185.834	-0.059	-0.088
-450.938	-200.000	0.080	0.402
-449.924	-146.697	-0.152	-0.013
-448.909	-200.000	0.021	0.200
-447.895	-31.835	0.121	-0.067
-446.880	-152.700	-0.287	0.020
-445.865	-61.119	0.300	-0.126
-444.851	-22.576	-0.153	-0.092
-443.836	521.285	-0.102	0.240
-442.822	-77.703	-0.040	-0.014
-441.807	-17.112	-0.237	0.149
-440.792	-147.032	-0.246	-0.021
-439.778	-200.000	0.026	-0.130
-438.763	51.081	-0.107	-0.101
-437.749	800.000	0.077	-0.227
-436.734	-76.679	0.219	0.077
-435.719	175.162	0.264	0.381
-434.705	-92.934	0.128	-0.036
-433.690	800.000	0.027	0.090
-432.676	800.000	-0.098	0.345
-431.661	-39.479	-0.356	-0.186
-430.646	-42.579	-0.130	-0.066
-429.632	-87.223	0.094	0.028
-428.617	-200.000	-0.103	-0.508
-427.603	323.145	-0.144	-0.274
-426.588	601.649	-0.113	0.280
-425.573	66.708	-0.135	0.137
-424.559	-76.828	0.489	-0.171
-423.544	-105.064	0.181	-0.041
-422.530	519.871	-0.049	0.116
-421.515	-78.626	0.269	-0.092
-420.500	-45.462	-0.377	-0.187
-419.486	-43.053	-0.254	-0.128
-418.471	800.000	0.096	0.353
-417.457	221.406	-0.082	-0.131
-416.442	89.867	0.191	0.213
-415.428	51.384	-0.170	-0.161
-414.413	-98.046	0.335	0.086
-413.398	-13.257	0.075	0.048
-412.384	260.252	-0.151	0.260
-411.369	-56.056	-0.279	-0.124
-410.355	-101.324	0.145	-0.035
-409.340	272.645	0.111	-0.195
-408.325	-14.228	0.154	-0.099
-407.311	-81.293	-0.068	0.022
-406.296	108.949	-0.033	-0.040
-405.282	178.982	0.072	0.105
-404.267	-200.000	-0.074	0.330
-403.252	-43.343	0.149	-0.075
-402.238	348.997	-0.117	0.230
-401.223	4.555	0.084	-0.061
-400.209	-159.544	-0.264	-0.015
-399.194	13.374	-0.174	0.135
-398.179	-58.632	0.348	-0.150
-397.165	-200.000	-0.015	-0.182
-396.150	316.713	0.060	-0.114
-395.136	517.596	-0.085	-0.198
-394.121	-0.892	0.108	-0.076
-393.106	377.854	0.155	-0.316
-392.092	554.758	0.085	-0.203
-391.077	800.000	0.042	0.140
-390.063	-200.000	-0.031	0.147
-389.048	-164.603	0.203	-0.009
-388.033	225.090	0.057	0.091
-387.019	345.108	-0.114	0.224
-386.004	-57.764	0.223	0.097
-384.990	-110.472	0.169	-0.035
-383.975	-200.000	-0.026	-0.154
-382.960	-24.913	-0.386	-0.228
-381.946	2.324	-0.186	-0.134
-380.931	199.829	-0.023	0.035
-379.917	-70.195	-0.057	0.021
-378.902	-165.425	-0.319	-0.014
-377.888	-63.093	-0.130	0.054
-376.873	-123.680	-0.258	0.041
-375.858	-16.656	0.249	0.157
-374.844	114.290	-0.136	0.165
-373.829	2.145	-0.098	0.071
-372.815	-56.508	-0.157	0.069
-371.800	-200.000	-0.016	0.151
-370.785	-200.000	0.023	-0.136
-369.771	381.433	-0.105	0.215
-368.756	345.753	0.028	-0.054
-367.742	-182.125	0.331	-0.006
-366.727	-103.834	-0.205	0.048
-365.712	-82.473	-0.370	0.119
-364.698	40.557	-0.116	-0.104
-363.683	21.837	-0.215	0.175
-362.669	-65.201	-0.178	0.072
-361.654	-200.000	0.022	0.211
-360.639	736.493	0.114	0.305
-359.625	-79.186	0.164	-0.055
-358.610	-126.360	-0.479	-0.071
-357.596	-83.958	-0.216	-0.068
-356.581	800.000	-0.028	-0.107
-355.566	-24.325	-0.248	0.147
-354.552	-57.534	-0.332	0.145
-353.537	-129.794	0.340	0.046
-352.523	-54.990	0.369	-0.165
-351.508	800.000	0.026	0.080
-350.493	-200.000	-0.023	-0.188
-349.479	-200.000	0.040	-0.199
-348.464	-200.000	-0.009	-0.190
-347.450	-29.632	0.236	-0.134
-346.435	-123.129	0.211	0.034
-345.420	-121.070	0.374	-0.062
-344.406	170.292	-0.080	-0.114
-343.391	42.671	0.201	-0.182
-342.377	-173.430	-0.267	0.008
-341.362	206.386	0.123	-0.190
-340.348	-153.486	0.329	-0.023
-339.333	-36.192	0.222	-0.119
-338.318	4.578	0.185	-0.135
-337.304	-145.349	-0.400	-0.036
-336.289	75.258	-0.273	0.286
-335.275	-200.000	-0.051	-0.278
-334.260	211.267	0.101	0.159
-333.245	-200.000	0.013	-0.084
-332.231	-132.229	0.258	0.033
-331.216	201.793	-0.218	-0.334
-330.202	-60.827	-0.156	0.066
-329.187	800.000	-0.064	0.184
-328.172	800.000	0.024	0.094
-327.158	-101.369	0.136	-0.033
-326.143	256.379	0.048	-0.082
-325.129	-79.238	0.296	0.100
-324.114	-72.814	0.232	-0.085
-323.099	-17.828	0.167	-0.104
-322.085	800.000	-0.080	0.228
-321.070	-200.000	0.020	0.123
-320.056	800.000	-0.084	-0.237
-319.041	159.854	-0.190	-0.263
-318.026	800.000	-0.025	-0.092
-317.012	-156.527	-0.106	0.007
-315.997	284.909	-0.089	-0.159
-314.983	-21.460	0.245	0.148
-313.968	-9.504	0.189	0.125
-312.953	145.572	0.179	-0.238
-311.939	-104.866	-0.284	-0.065
-310.924	-67.111	-0.216	-0.085
-309.910	-106.874	0.353	0.078
-308.895	-111.391	-0.212	-0.043
-307.880	-36.663	-0.511	0.272
-306.866	371.112	-0.064	-0.129
-305.851	-116.040	-0.101	-0.019
-304.837	0.454	-0.286	-0.203
-303.822	74.629	0.173	0.180
-302.807	105.553	0.300	0.352
-301.793	-200.000	0.031	-0.236
-300.778	800.000	0.041	-0.120
-299.764	68.031	0.030	0.031
-298.749	-200.000	0.006	0.168
-297.735	1.077	0.199	-0.141
-296.720	387.886	0.133	-0.274
-295.705	65.624	0.150	-0.151
-294.691	-200.000	0.051	0.314
-293.676	142.452	0.142	0.187
-292.662	-94.056	0.375	0.102
-291.647	800.000	-0.044	0.161
-290.632	-23.172	0.177	0.106
-289.618	149.539	-0.131	-0.176
-288.603	64.826	0.131	0.131
-287.589	141.074	-0.200	0.262
-286.574	77.686	0.184	0.195
-285.559	253.256	-0.068	0.115
-284.545	-0.187	0.298	0.210
-283.530	-200.000	0.009	0.049
-282.516	-31.947	-0.182	-0.101
-281.501	375.282	-0.035	-0.071
-280.486	41.502	-0.172	0.155
-279.472	243.278	-0.186	0.309
-278.457	-181.990	-0.176	0.003
-277.443	-51.056	-0.194	-0.090
-276.428	220.702	0.077	0.122
-275.413	-63.265	0.089	-0.036
-274.399	800.000	0.069	-0.256
-273.384	-115.610	-0.150	0.028
-272.370	-61.942	0.178	0.074
-271.355	284.650	0.211	-0.377
-270.340	179.317	-0.133	0.192
-269.326	503.563	-0.206	0.471
-268.311	470.350	-0.167	0.372
-267.297	800.000	-0.032	0.092
-266.282	-44.847	-0.138	-0.068
-265.267	-76.345	0.135	-0.047
-264.253	-111.312	-0.154	0.031
-263.238	-182.412	0.406	0.007
-262.224	414.283	0.093	0.196
-261.209	-129.165	-0.257	-0.036
-260.195	68.428	0.252	-0.256
-259.180	800.000	0.111	-0.348
-258.165	48.488	0.284	0.264
-257.151	800.000	0.018	0.062
-256.136	186.105	-0.044	0.065
-255.122	45.811	0.317	0.290
-254.107	-132.003	-0.166	0.021
-253.092	-200.000	-0.037	0.167
-252.078	-32.336	0.124	-0.068
-251.063	45.106	-0.208	0.190
-250.049	800.000	-0.017	0.055
-249.034	-128.695	-0.189	-0.026
-248.019	-118.090	-0.252	-0.045
-247.005	-95.575	-0.152	0.040
-245.990	27.742	-0.190	0.159
-244.976	21.463	-0.125	0.100
-243.961	92.912	0.230	0.258
-242.946	231.126	0.024	0.039
-241.932	-200.000	-0.055	-0.248
-240.917	37.455	-0.197	-0.173
-239.903	69.054	-0.190	-0.193
-238.888	47.075	-0.105	0.096
-237.873	-128.909	0.107	0.015
-236.859	-96.398	0.190	-0.050
-235.844	800.000	0.078	-0.307
-234.830	-108.376	0.415	-0.089
-233.815	-200.000	-0.028	-0.338
-232.800	-149.156	0.222	-0.018
-231.786	-200.000	0.012	0.443
-230.771	-115.379	0.207	-0.039
-229.757	276.441	0.092	0.162
-228.742	-71.509	0.081	-0.030
-227.727	109.835	-0.150	0.178
-226.713	-63.918	0.444	0.180
-225.698	-106.843	0.127	0.028
-224.684	-60.242	0.110	0.046
-223.669	-24.029	0.037	0.022
-222.655	-200.000	0.017	0.088
-221.640	366.921	-0.110	0.219
-220.625	-200.000	-0.066	-0.331
-219.611	-40.172	-0.236	0.122
-218.596	800.000	0.050	-0.145
-217.582	85.535	0.198	-0.215
-216.567	-103.682	-0.236	-0.055
-215.552	514.806	-0.017	0.040
-214.538	113.193	0.071	-0.085
-213.523	-74.212	-0.192	0.069
-212.509	-81.210	-0.069	0.022
-211.494	-127.727	0.497	-0.071
-210.479	-75.774	0.116	0.041
-209.465	-91.863	-0.093	0.026
-208.450	-90.451	-0.051	-0.015
-207.436	184.131	-0.017	-0.024
-206.421	-139.956	0.372	-0.039
-205.406	-126.782	0.193	-0.028
-204.392	81.609	-0.097	0.103
-203.377	381.850	0.216	0.439
-202.363	358.564	0.176	-0.347
-201.348	-80.072	-0.300	-0.099
-200.333	-11.678	-0.233	-0.151
-199.319	129.869	0.093	-0.117
-198.304	-174.747	-0.473	0.013
-197.290	42.828	0.280	0.252
-196.275	800.000	-0.129	-0.405
-195.260	234.553	0.106	0.173
-194.246	-200.000	0.003	0.105
-193.231	332.185	0.100	0.191
-192.217	-14.396	0.211	0.135
-191.202	-20.172	-0.104	0.063
-190.187	-154.336	-0.223	-0.015
-189.173	22.424	0.203	0.164
-188.158	-116.398	-0.206	0.038
-187.144	-189.277	0.136	-0.002
-186.129	78.129	0.190	0.200
-185.114	-30.955	0.157	0.087
-184.100	125.198	0.147	0.183
-183.085	571.484	-0.096	-0.231
-182.071	357.592	0.060	0.118
-181.056	38.823	-0.162	0.143
-180.042	68.261	0.207	0.209
-179.027	-146.973	0.292	-0.025
-178.012	-200.000	-0.021	-0.258
-176.998	16.979	0.106	-0.083
-175.983	24.558	-0.040	0.033
-174.969	800.000	-0.095	0.291
-173.954	-74.390	0.141	0.050
-172.939	70.672	0.177	0.181
-171.925	159.866	0.125	0.172
-170.910	67.055	0.154	-0.155
-169.896	-9.463	0.161	-0.106
-168.881	-170.017	-0.242	0.008
-167.866	-142.574	0.208	-0.020
-166.852	99.100	-0.078	0.089
-165.837	566.600	0.110	0.263
-164.823	-107.754	0.225	0.049
-163.808	800.000	-0.054	0.178
-162.793	91.175	-0.189	-0.209
-161.779	19.664	0.099	0.078
-160.764	41.027	0.126	0.112
-159.750	-35.271	0.223	0.120
-158.735	-43.947	-0.233	-0.116
-157.720	-200.000	0.000	0.153
-156.706	41.313	0.349	-0.312
-155.691	-55.866	-0.351	-0.154
-154.677	257.006	0.058	0.098
-153.662	68.897	-0.115	0.116
-152.647	87.758	0.240	-0.262
-151.633	563.033	0.029	0.069
-150.618	-107.110	-0.122	-0.027
-149.604	120.262	0.108	0.132
-148.589	355.921	0.093	0.182
-147.574	-134.151	0.110	0.013
-146.560	23.960	-0.116	0.095
-145.545	-200.000	-0.041	0.252
-144.531	-57.971	0.237	0.102
-143.516	72.147	-0.216	-0.221
-142.502	151.916	-0.083	0.112
-141.487	185.811	0.165	0.242
-140.472	-200.000	-0.016	0.156
-139.458	728.447	-0.078	0.205
-138.443	-200.000	-0.003	-0.438
-137.429	677.186	0.098	0.251
-136.414	-137.649	0.238	0.026
-135.399	-67.373	-0.191	0.074
-134.385	-200.000	0.027	0.146
-133.370	-200.000	0.062	-0.314
-132.356	104.252	-0.042	0.049
-131.341	319.172	-0.113	-0.211
-130.326	69.314	0.061	0.062
-129.312	441.741	-0.029	0.062
-128.297	-72.245	0.231	0.084
-127.283	-200.000	-0.035	-0.187
-126.268	-117.128	-0.502	0.090
-125.253	-9.794	0.054	0.036
-124.239	92.641	0.132	0.147
-123.224	55.297	0.042	-0.040
-122.210	-82.680	0.232	-0.074
-121.195	-103.908	0.127	0.029
