DTS Sentinel unit serial number:	SN413079Multiplexer serial number:	ORYXHardware model number:	OX4-SRSoftware version number:	ORYX F/W v4.00 Oryx Data Collector v3.7.2.0data status	okinstallation	princeton_trtdifferential loss correction	single-endedforward channel	channel 3reverse channel	N/Adate	2019/09/15time	19:04:35forward acquisition time	60.00reverse acquisition time	0.00gamma	496.2192k internal	0.2292k external	0.2292temperature offset calibration	0.9936default loss term (dB/km)	0.3790temperature slope calibration	1.0000multiplexer offset coefficient	1.0000multiplexer slope coefficient	1.0000fibre end	0.00T internal ref (°C)	41.67T ext. ref 1 (°C)	7.06T ext. ref 2 (°C)	31.11length (m)	temperature (°C)	Stokes	anti-Stokes-747.200	-20.065	0.134	0.084
-746.185	800.000	-0.103	0.313
-745.171	-200.000	0.018	0.207
-744.156	-87.125	-0.238	-0.074
-743.142	587.210	-0.075	-0.189
-742.127	-105.845	-0.283	-0.065
-741.112	21.269	0.292	-0.243
-740.098	800.000	-0.159	0.466
-739.083	-93.530	0.129	-0.036
-738.069	82.629	0.098	0.109
-737.054	134.723	0.186	0.248
-736.039	-162.988	-0.463	-0.023
-735.025	-107.339	-0.119	0.027
-734.010	182.264	0.134	-0.202
-732.996	800.000	-0.039	-0.137
-731.981	257.841	-0.162	-0.285
-730.966	117.032	0.098	-0.123
-729.952	-5.924	-0.309	-0.216
-728.937	-72.336	0.227	-0.086
-727.923	-6.098	-0.080	-0.056
-726.908	91.565	-0.108	0.124
-725.894	-130.461	-0.158	-0.022
-724.879	379.004	-0.173	0.363
-723.864	358.900	-0.101	0.207
-722.850	800.000	0.109	0.459
-721.835	-200.000	0.009	-0.149
-720.821	-77.379	-0.129	-0.046
-719.806	-44.252	0.271	0.139
-718.791	39.054	0.074	0.068
-717.777	-39.959	0.142	0.076
-716.762	-57.247	0.213	0.096
-715.748	-94.070	-0.352	-0.099
-714.733	-6.170	0.178	-0.125
-713.718	-200.000	-0.001	-0.371
-712.704	213.039	-0.069	-0.111
-711.689	-92.628	0.305	0.087
-710.675	-130.735	-0.193	-0.027
-709.660	-200.000	0.040	0.294
-708.645	-166.129	-0.336	0.015
-707.631	-200.000	0.024	-0.132
-706.616	-45.788	-0.174	-0.088
-705.602	165.972	-0.068	-0.098
-704.587	691.300	-0.069	0.185
-703.572	798.058	-0.009	0.024
-702.558	193.738	-0.073	-0.112
-701.543	-200.000	0.003	-0.107
-700.529	75.384	-0.129	-0.139
-699.514	149.547	-0.089	-0.124
-698.499	-81.661	0.187	0.063
-697.485	59.643	-0.060	0.060
-696.470	-68.220	-0.086	0.034
-695.456	212.178	0.252	0.406
-694.441	-117.764	-0.173	0.032
-693.426	22.126	0.143	0.119
-692.412	-44.352	-0.113	0.058
-691.397	-152.400	0.268	0.020
-690.383	327.299	-0.096	-0.189
-689.368	800.000	0.064	0.208
-688.354	-175.378	0.036	-0.001
-687.339	-200.000	-0.073	-0.332
-686.324	-32.247	-0.372	0.212
-685.310	-30.683	-0.081	0.047
-684.295	-104.446	0.073	-0.017
-683.281	394.883	0.076	0.162
-682.266	34.413	0.188	-0.167
-681.251	-200.000	0.015	-0.180
-680.237	284.944	0.086	0.157
-679.222	-73.202	-0.147	0.055
-678.208	-200.000	0.027	0.218
-677.193	-85.987	-0.180	-0.057
-676.178	-38.954	-0.150	-0.080
-675.164	94.818	-0.127	0.148
-674.149	89.339	-0.098	0.111
-673.135	-200.000	-0.004	0.043
-672.120	-19.090	-0.127	-0.081
-671.105	481.323	0.090	0.209
-670.091	-124.378	-0.127	-0.020
-669.076	-200.000	0.038	-0.285
-668.062	722.379	-0.053	-0.145
-667.047	-200.000	-0.005	-0.189
-666.032	-2.384	-0.120	0.086
-665.018	800.000	0.090	-0.310
-664.003	-174.131	0.550	0.016
-662.989	-52.724	-0.051	-0.024
-661.974	800.000	-0.015	-0.060
-660.959	-95.658	-0.524	0.143
-659.945	-72.751	-0.115	0.043
-658.930	24.070	-0.156	0.131
-657.916	800.000	0.048	0.136
-656.901	236.445	-0.122	-0.206
-655.886	493.444	-0.083	-0.194
-654.872	200.011	-0.345	-0.541
-653.857	225.584	-0.131	-0.217
-652.843	-200.000	-0.027	0.208
-651.828	400.544	0.189	0.404
-650.814	226.032	-0.263	-0.435
-649.799	124.307	-0.108	-0.139
-648.784	800.000	-0.101	-0.307
-647.770	101.757	-0.191	-0.228
-646.755	-119.171	-0.261	-0.047
-645.741	800.000	-0.038	-0.118
-644.726	-105.735	0.021	0.005
-643.711	183.166	-0.128	-0.193
-642.697	156.563	-0.100	-0.141
-641.682	-160.913	0.173	-0.009
-640.668	7.560	0.113	-0.086
-639.653	10.999	-0.230	0.179
-638.638	490.948	-0.042	-0.099
-637.624	68.506	-0.187	-0.196
-636.609	121.098	-0.010	-0.012
-635.595	749.257	-0.129	0.354
-634.580	-200.000	-0.066	-0.310
-633.565	296.533	-0.075	-0.139
-632.551	-200.000	0.055	-0.359
-631.536	-148.539	0.254	0.021
-630.522	124.467	-0.105	-0.135
-629.507	-115.308	-0.176	0.034
-628.492	112.695	0.158	-0.195
-627.478	-200.000	-0.010	0.104
-626.463	-2.600	-0.140	-0.100
-625.449	-37.538	0.225	-0.122
-624.434	-144.088	-0.183	-0.017
-623.419	800.000	-0.061	0.237
-622.405	29.496	0.174	-0.151
-621.390	-200.000	-0.041	-0.307
-620.376	-200.000	-0.080	-0.475
-619.361	-172.428	-0.286	0.009
-618.346	-94.353	-0.103	-0.029
-617.332	-147.415	-0.508	0.044
-616.317	800.000	0.121	0.499
-615.303	-200.000	0.028	-0.147
-614.288	-21.196	-0.159	-0.099
-613.273	224.364	-0.062	0.102
-612.259	99.874	0.194	0.229
-611.244	-200.000	0.045	-0.298
-610.230	344.193	-0.050	-0.099
-609.215	-13.285	0.232	-0.153
-608.201	-200.000	0.040	-0.245
-607.186	58.967	0.146	0.146
-606.171	594.945	-0.062	0.156
-605.157	303.828	-0.119	-0.224
-604.142	800.000	-0.038	0.150
-603.128	-70.511	-0.377	0.145
-602.113	-170.623	-0.209	-0.007
-601.098	-200.000	-0.012	-0.100
-600.084	-147.918	0.358	0.030
-599.069	61.146	0.273	-0.276
-598.055	-113.243	-0.190	-0.038
-597.040	246.356	-0.187	-0.321
-596.025	-200.000	0.006	0.251
-595.011	688.181	-0.068	0.180
-593.996	-51.243	0.311	0.148
-592.982	657.540	-0.112	0.292
-591.967	76.481	0.191	-0.206
-590.952	4.265	-0.096	0.072
-589.938	288.510	-0.101	0.186
-588.923	44.379	0.170	-0.159
-587.909	432.572	-0.090	-0.198
-586.894	-200.000	0.000	-0.085
-585.879	-112.055	-0.273	0.056
-584.865	-22.260	-0.240	0.148
-583.850	-44.100	-0.034	-0.017
-582.836	-200.000	-0.021	-0.221
-581.821	800.000	-0.057	0.194
-580.806	58.106	-0.085	-0.085
-579.792	-105.703	-0.465	0.107
-578.777	-200.000	-0.028	-0.132
-577.763	800.000	-0.041	-0.119
-576.748	800.000	-0.051	-0.172
-575.733	800.000	0.037	0.150
-574.719	-200.000	-0.095	-0.495
-573.704	-200.000	0.062	0.423
-572.690	800.000	-0.062	0.207
-571.675	-92.907	0.168	-0.048
-570.661	-200.000	-0.029	-0.345
-569.646	54.561	-0.042	-0.041
-568.631	-1.195	0.197	-0.142
-567.617	196.353	0.112	-0.173
-566.602	108.622	-0.196	-0.238
-565.588	-26.719	-0.221	0.131
-564.573	9.482	0.390	-0.300
-563.558	88.200	-0.264	-0.298
-562.544	-78.914	-0.060	-0.021
-561.529	-120.497	0.345	0.060
-560.515	21.952	0.225	-0.186
-559.500	86.129	-0.180	0.202
-558.485	75.577	-0.125	0.134
-557.471	198.401	0.063	0.097
-556.456	-73.604	-0.214	0.079
-555.442	106.129	0.101	-0.121
-554.427	-33.919	0.131	0.073
-553.412	-22.081	-0.205	-0.127
-552.398	-107.596	-0.098	0.022
-551.383	387.466	-0.102	0.215
-550.369	-63.259	-0.260	0.109
-549.354	374.879	-0.030	0.061
-548.339	800.000	0.059	0.182
-547.325	118.135	0.245	0.307
-546.310	-200.000	0.020	0.257
-545.296	47.756	0.109	-0.103
-544.281	-103.158	-0.056	0.013
-543.266	-200.000	0.058	0.271
-542.252	352.265	-0.079	0.159
-541.237	-146.245	-0.154	-0.014
-540.223	19.291	0.071	0.058
-539.208	82.334	0.057	-0.063
-538.193	-200.000	0.029	-0.364
-537.179	800.000	0.035	-0.112
-536.164	183.958	-0.067	0.101
-535.150	194.335	-0.010	-0.015
-534.135	290.257	-0.148	-0.273
-533.121	543.236	-0.036	-0.086
-532.106	324.324	-0.067	-0.131
-531.091	113.906	-0.134	0.165
-530.077	11.540	-0.251	0.195
-529.062	-101.435	-0.107	-0.026
-528.048	-200.000	-0.005	0.237
-527.033	800.000	-0.033	-0.096
-526.018	48.867	-0.108	0.102
-525.004	490.945	-0.049	0.114
-523.989	-92.725	0.247	-0.070
-522.975	-94.397	0.044	0.012
-521.960	-119.093	-0.157	-0.028
-520.945	-19.299	0.062	-0.039
-519.931	-40.903	0.139	0.073
-518.916	109.275	0.107	0.130
-517.902	130.486	0.295	0.384
-516.887	-85.739	0.006	0.002
-515.872	226.064	-0.098	-0.162
-514.858	800.000	0.091	0.358
-513.843	425.790	0.090	0.196
-512.829	-200.000	0.021	-0.234
-511.814	-104.755	-0.149	-0.035
-510.799	-43.092	0.059	0.030
-509.785	-37.911	-0.104	-0.056
-508.770	-109.578	-0.521	0.111
-507.756	57.721	0.069	0.068
-506.741	17.624	0.374	0.302
-505.726	517.030	0.016	0.037
-504.712	-63.738	0.185	-0.077
-503.697	-200.000	-0.026	-0.254
-502.683	434.686	-0.100	-0.220
-501.668	800.000	0.061	0.204
-500.653	512.835	0.093	-0.219
-499.639	-54.773	0.029	-0.013
-498.624	120.788	0.325	-0.410
-497.610	-119.905	-0.177	-0.031
-496.595	413.425	0.152	0.329
-495.581	674.659	0.060	0.158
-494.566	-200.000	0.006	0.105
-493.551	-12.517	-0.234	0.155
-492.537	-70.806	-0.279	0.107
-491.522	-200.000	0.022	0.252
-490.508	-55.620	-0.100	0.045
-489.493	380.708	0.038	0.078
-488.478	-200.000	-0.012	0.218
-487.464	-200.000	-0.032	-0.316
-486.449	800.000	-0.057	0.163
-485.435	35.580	0.173	-0.154
-484.420	204.431	0.218	-0.342
-483.405	-166.074	0.422	-0.018
-482.391	-59.618	0.128	0.056
-481.376	-200.000	-0.065	0.415
-480.362	-200.000	0.006	0.029
-479.347	-200.000	0.000	0.027
-478.332	-8.879	-0.195	0.132
-477.318	-54.712	0.086	-0.039
-476.303	-19.047	-0.153	-0.097
-475.289	-153.501	0.323	-0.023
-474.274	49.858	-0.062	-0.059
-473.259	-36.485	0.088	-0.048
-472.245	-200.000	-0.004	-0.304
-471.230	-200.000	-0.025	-0.133
-470.216	-131.094	0.228	0.031
-469.201	16.982	-0.082	0.066
-468.186	-200.000	-0.042	0.205
-467.172	-150.372	-0.267	0.021
-466.157	309.658	-0.134	0.253
-465.143	206.566	-0.043	0.067
-464.128	39.350	0.138	0.125
-463.113	-200.000	-0.008	0.221
-462.099	-10.859	0.076	-0.051
-461.084	-200.000	0.032	0.373
-460.070	60.562	-0.190	-0.190
-459.055	-26.984	-0.074	-0.044
-458.040	35.777	-0.206	0.183
-457.026	-2.660	-0.108	-0.076
-456.011	-112.603	0.224	-0.045
-454.997	800.000	-0.091	-0.268
-453.982	-57.451	-0.030	0.013
-452.968	328.076	-0.078	0.152
-451.953	-87.729	0.059	0.018
-450.938	-133.451	0.166	-0.021
-449.924	-200.000	-0.020	-0.153
-448.909	-38.318	0.196	-0.105
-447.895	450.000	0.113	-0.252
-446.880	188.264	-0.170	0.257
-445.865	-69.770	-0.284	0.110
-444.851	186.228	-0.043	-0.065
-443.836	-200.000	-0.010	0.083
-442.822	206.899	-0.087	-0.138
-441.807	800.000	-0.111	0.392
-440.792	-167.392	-0.076	-0.003
-439.778	800.000	-0.042	-0.184
-438.763	165.694	0.089	0.128
-437.749	450.117	-0.133	-0.298
-436.734	-53.297	-0.068	-0.032
-435.719	-98.785	0.101	0.026
-434.705	-105.955	0.054	-0.012
-433.690	234.383	-0.106	0.176
-432.676	78.666	0.258	0.279
-431.661	-76.606	0.122	0.043
-430.646	-181.908	0.144	-0.003
-429.632	114.986	0.186	0.230
-428.617	-114.291	0.248	0.048
-427.603	-200.000	-0.038	-0.292
-426.588	-200.000	-0.002	-0.009
-425.573	108.300	0.112	-0.135
-424.559	351.901	-0.135	-0.271
-423.544	-73.206	0.103	0.038
-422.530	5.651	-0.214	-0.160
-421.515	54.674	0.084	0.081
-420.500	-200.000	0.012	-0.123
-419.486	-69.127	-0.281	0.109
-418.471	800.000	0.077	0.268
-417.457	166.127	-0.125	0.180
-416.442	800.000	0.101	0.426
-415.428	-74.074	0.153	0.056
-414.413	32.752	-0.208	0.182
-413.398	87.254	0.243	0.271
-412.384	-38.280	-0.157	-0.084
-411.369	47.100	0.072	-0.068
-410.355	-165.788	-0.349	0.015
-409.340	-109.897	-0.348	-0.074
-408.325	-200.000	0.004	0.082
-407.311	-141.125	0.152	0.016
-406.296	800.000	0.096	-0.302
-405.282	-200.000	0.017	-0.257
-404.267	-106.327	0.306	0.069
-403.252	-135.797	0.288	-0.034
-402.238	9.321	0.216	-0.165
-401.223	467.184	0.042	0.096
-400.209	-104.771	-0.267	0.062
-399.194	-104.645	0.458	-0.107
-398.179	-132.895	0.121	-0.016
-397.165	-2.618	-0.241	0.170
-396.150	800.000	-0.049	-0.150
-395.136	800.000	0.022	0.094
-394.121	-200.000	0.038	0.223
-393.106	-200.000	0.011	0.144
-392.092	467.629	0.040	-0.090
-391.077	-200.000	0.006	-0.178
-390.063	146.680	0.149	0.202
-389.048	-174.006	0.208	-0.006
-388.033	800.000	-0.133	0.414
-387.019	-108.358	0.090	0.020
-386.004	429.772	0.045	0.099
-384.990	-76.953	-0.176	-0.062
-383.975	-66.467	-0.261	-0.104
-382.960	-55.527	0.049	0.022
-381.946	-200.000	0.004	-0.267
-380.931	215.888	0.017	0.028
-379.917	347.319	0.057	0.113
-378.902	600.360	-0.039	-0.099
-377.888	142.378	0.228	0.306
-376.873	268.801	0.014	-0.025
-375.858	24.163	0.125	0.104
-374.844	35.870	0.149	0.132
-373.829	325.422	-0.167	0.322
-372.815	66.919	0.184	-0.189
-371.800	-197.537	0.183	-0.001
-370.785	234.792	0.020	0.034
-369.771	186.591	-0.211	0.317
-368.756	38.156	0.090	-0.081
-367.742	800.000	-0.077	0.249
-366.727	-58.603	-0.005	0.002
-365.712	364.298	0.111	-0.225
-364.698	800.000	-0.013	-0.037
-363.683	-200.000	0.029	0.289
-362.669	-128.223	-0.130	0.019
-361.654	-5.719	-0.144	-0.100
-360.639	303.098	0.183	0.343
-359.625	-60.388	-0.197	-0.084
-358.610	-116.119	-0.087	0.016
-357.596	-33.326	-0.149	-0.083
-356.581	-200.000	0.029	0.246
-355.566	-159.460	0.239	0.013
-354.552	-50.224	0.131	0.062
-353.537	24.650	0.227	-0.190
-352.523	-150.352	-0.143	-0.011
-351.508	-110.493	0.235	0.049
-350.493	-75.682	-0.301	0.108
-349.479	-200.000	0.036	0.211
-348.464	168.831	-0.162	-0.233
-347.450	-11.959	-0.249	0.164
-346.435	186.647	-0.028	-0.042
-345.420	800.000	0.056	-0.205
-344.406	-95.444	0.196	-0.053
-343.391	8.347	-0.148	0.112
-342.377	-200.000	-0.019	0.108
-341.362	800.000	-0.077	0.232
-340.348	-200.000	-0.019	0.101
-339.333	203.634	0.060	-0.094
-338.318	-200.000	-0.006	-0.086
-337.304	-10.742	0.212	0.141
-336.289	800.000	0.082	0.234
-335.275	-200.000	-0.026	-0.236
-334.260	64.711	-0.123	-0.125
-333.245	-200.000	-0.013	0.271
-332.231	-114.598	0.315	0.061
-331.216	-99.778	0.223	0.056
-330.202	26.660	-0.163	0.137
-329.187	-200.000	0.020	-0.283
-328.172	-29.853	-0.200	-0.115
-327.158	-152.659	0.084	-0.006
-326.143	187.705	0.024	-0.037
-325.129	402.473	-0.071	0.150
-324.114	197.743	0.192	-0.295
-323.099	-117.028	0.187	-0.034
-322.085	172.620	0.074	-0.108
-321.070	-16.339	-0.073	0.046
-320.056	235.443	-0.171	0.285
-319.041	504.866	0.175	0.408
-318.026	-147.976	0.210	0.018
-317.012	121.113	-0.243	0.305
-315.997	-130.659	-0.279	-0.038
-314.983	-168.906	-0.109	-0.004
-313.968	-200.000	-0.009	-0.086
-312.953	-103.567	0.384	0.091
-311.939	-200.000	-0.004	-0.275
-310.924	800.000	0.042	-0.118
-309.910	260.121	0.040	0.069
-308.895	-200.000	-0.030	-0.174
-307.880	146.911	0.126	-0.171
-306.866	368.512	0.039	0.079
-305.851	800.000	-0.052	0.186
-304.837	-200.000	0.002	-0.141
-303.822	695.963	0.146	-0.385
-302.807	-157.334	-0.023	0.001
-301.793	74.960	-0.060	0.064
-300.778	-42.499	-0.115	-0.059
-299.764	800.000	0.035	-0.105
-298.749	-106.415	-0.374	-0.084
-297.735	34.309	0.189	-0.166
-296.720	215.313	0.252	-0.403
-295.705	124.096	0.050	0.063
-294.691	-46.706	0.401	-0.198
-293.676	-200.000	0.006	0.262
-292.662	-36.778	-0.152	-0.082
-291.647	281.354	-0.167	0.300
-290.632	-99.605	0.269	0.068
-289.618	800.000	-0.022	-0.081
-288.603	-10.884	0.126	0.084
-287.589	-142.691	-0.057	0.006
-286.574	-55.041	0.196	-0.089
-285.559	27.481	-0.079	-0.067
-284.545	401.996	0.101	-0.214
-283.530	800.000	-0.044	0.157
-282.516	244.526	0.222	0.375
-281.501	2.380	0.298	0.217
-280.486	180.430	0.050	-0.074
-279.472	800.000	0.092	-0.265
-278.457	-200.000	-0.014	0.268
-277.443	-88.175	0.163	0.049
-276.428	80.828	0.097	-0.105
-275.413	-200.000	0.009	0.179
-274.399	-200.000	0.009	0.389
-273.384	-185.974	0.286	-0.004
-272.370	109.093	0.187	0.224
-271.355	-92.353	0.111	-0.031
-270.340	-127.425	-0.522	-0.076
-269.326	187.591	-0.092	-0.138
-268.311	18.326	-0.056	-0.045
-267.297	140.868	0.083	0.110
-266.282	51.757	0.202	-0.193
-265.267	800.000	0.034	0.114
-264.253	-145.097	0.312	-0.028
-263.238	800.000	0.049	0.180
-262.224	-46.418	-0.158	-0.078
-261.209	-97.619	-0.327	0.085
-260.195	-85.386	0.344	0.108
-259.180	-108.954	-0.149	-0.032
-258.165	-96.705	-0.078	-0.021
-257.151	-21.524	-0.154	-0.094
-256.136	-163.496	0.382	-0.018
-255.122	200.269	0.049	0.075
-254.107	-23.453	-0.206	0.124
-253.092	800.000	0.063	-0.216
-252.078	-88.882	0.218	-0.065
-251.063	-17.702	-0.245	0.155
-250.049	7.823	-0.350	0.263
-249.034	-200.000	0.002	-0.096
-248.019	52.255	-0.306	-0.293
-247.005	225.089	0.187	0.304
-245.990	-200.000	0.046	0.395
-244.976	233.632	0.144	-0.237
-243.961	-200.000	0.099	-0.538
-242.946	-6.756	0.239	-0.163
-241.932	-7.663	0.125	0.085
-240.917	-17.267	0.073	-0.046
-239.903	147.247	-0.165	-0.224
-238.888	-122.808	-0.209	-0.034
-237.873	-18.626	-0.107	-0.067
-236.859	478.705	0.100	-0.227
-235.844	-109.978	0.134	-0.028
-234.830	193.719	0.056	-0.085
-233.815	800.000	-0.017	0.061
-232.800	-58.901	0.133	0.058
-231.786	-51.855	0.073	0.034
-230.771	-57.191	-0.149	-0.066
-229.757	776.706	0.078	-0.214
-228.742	800.000	0.049	-0.204
-227.727	-200.000	0.007	-0.130
-226.713	-30.501	-0.158	-0.090
-225.698	-25.220	-0.271	-0.161
-224.684	64.709	0.266	-0.269
-223.669	800.000	0.036	0.134
-222.655	-200.000	0.021	-0.176
-221.640	-64.197	0.302	-0.124
-220.625	617.735	0.089	-0.224
-219.611	-200.000	-0.024	0.161
-218.596	-94.180	0.155	-0.043
-217.582	-125.154	0.066	-0.010
-216.567	-116.920	0.232	-0.043
-215.552	78.590	0.098	0.105
-214.538	800.000	-0.074	0.308
-213.523	17.050	0.280	-0.222
-212.509	800.000	-0.094	-0.276
-211.494	-200.000	-0.046	0.269
-210.479	493.380	-0.031	0.072
-209.465	-102.322	-0.203	-0.049
-208.450	115.098	0.306	0.374
-207.436	101.123	-0.045	-0.053
-206.421	-154.211	0.545	-0.037
-205.406	237.639	-0.145	0.241
-204.392	398.231	-0.037	0.077
-203.377	6.531	-0.061	-0.046
-202.363	581.807	0.103	-0.253
-201.348	-200.000	0.021	-0.203
-200.333	-78.895	-0.246	-0.084
-199.319	-162.859	0.279	-0.014
-198.304	-114.694	-0.163	0.031
-197.290	23.617	0.214	-0.176
-196.275	202.962	0.135	-0.208
-195.260	-90.564	-0.178	-0.052
-194.246	-90.496	-0.026	-0.008
-193.231	-200.000	0.044	-0.228
-192.217	800.000	-0.062	0.226
-191.202	-200.000	0.015	-0.087
-190.187	-200.000	0.035	0.362
-189.173	133.851	0.107	0.139
-188.158	-51.122	-0.395	-0.185
-187.144	-123.748	-0.042	0.007
-186.129	-62.398	0.087	-0.036
-185.114	231.318	-0.096	0.158
-184.100	-145.151	-0.128	-0.012
-183.085	150.678	-0.237	0.323
-182.071	49.082	-0.072	0.068
-181.056	800.000	0.032	-0.122
-180.042	126.134	-0.169	0.214
-179.027	-77.549	0.387	-0.134
-178.012	384.099	0.155	-0.319
-176.998	-124.518	-0.265	0.041
-175.983	113.257	-0.128	-0.156
-174.969	800.000	0.038	-0.164
-173.954	544.495	-0.075	0.179
-172.939	265.698	-0.078	-0.136
-171.925	-200.000	-0.032	0.312
-170.910	-130.673	-0.093	-0.013
-169.896	-200.000	-0.051	0.224
-168.881	-69.444	-0.174	0.067
-167.866	62.608	-0.121	0.121
-166.852	254.247	0.031	0.054
-165.837	-132.236	-0.341	-0.044
-164.823	-128.906	0.231	-0.032
-163.808	800.000	-0.057	0.181
-162.793	800.000	-0.037	0.150
-161.779	58.537	-0.155	0.152
-160.764	16.530	0.161	-0.127
-159.750	-69.267	-0.011	-0.004
-158.735	-200.000	0.029	0.175
-157.720	269.829	-0.127	-0.224
-156.706	479.812	0.115	-0.260
-155.691	800.000	-0.075	-0.275
-154.677	-200.000	0.003	-0.026
-153.662	27.143	-0.224	-0.188
-152.647	1.057	-0.391	-0.280
-151.633	800.000	0.066	0.216
-150.618	105.367	-0.194	-0.229
-149.604	8.072	-0.080	0.060
-148.589	70.932	-0.197	0.204
-147.574	-6.480	-0.154	-0.105
-146.560	8.318	0.062	-0.046
-145.545	-72.268	0.231	0.086
-144.531	184.961	-0.152	0.225
-143.516	-68.068	-0.245	0.096
-142.502	-200.000	0.018	-0.348
-141.487	518.400	-0.106	0.247
-140.472	-125.024	0.163	0.025
-139.458	24.914	-0.258	0.214
-138.443	-143.101	0.173	0.017
-137.429	800.000	-0.077	-0.295
-136.414	111.679	-0.060	-0.073
-135.399	-168.903	-0.267	-0.010
-134.385	-200.000	0.000	-0.038
-133.370	-48.997	-0.112	0.054
-132.356	800.000	-0.036	-0.140
-131.341	406.244	-0.064	0.134
-130.326	-200.000	0.027	0.136
-129.312	36.250	-0.095	0.084
-128.297	-61.406	-0.334	-0.141
-127.283	-200.000	-0.007	-0.297
-126.268	-53.991	-0.234	-0.107
-125.253	-107.643	0.293	-0.064
-124.239	132.102	0.078	0.100
-123.224	-43.192	0.056	-0.028
