DTS Sentinel unit serial number:	SN413079Multiplexer serial number:	ORYXHardware model number:	OX4-SRSoftware version number:	ORYX F/W v4.00 Oryx Data Collector v3.7.2.0data status	okinstallation	princeton_trtdifferential loss correction	single-endedforward channel	channel 3reverse channel	N/Adate	2019/09/10time	17:18:10forward acquisition time	60.00reverse acquisition time	0.00gamma	496.2192k internal	0.2298k external	0.2298temperature offset calibration	0.9911default loss term (dB/km)	0.3790temperature slope calibration	1.0000multiplexer offset coefficient	1.0000multiplexer slope coefficient	1.0000fibre end	0.00T internal ref (°C)	37.62T ext. ref 1 (°C)	-0.38T ext. ref 2 (°C)	32.06length (m)	temperature (°C)	Stokes	anti-Stokes-747.200	25.160	-0.128	-0.108
-746.185	606.009	-0.092	0.233
-745.171	558.835	0.060	-0.148
-744.156	271.825	0.052	-0.094
-743.142	800.000	-0.062	0.231
-742.127	232.874	-0.258	0.432
-741.112	-200.000	0.040	-0.216
-740.098	196.412	-0.185	0.287
-739.083	800.000	0.007	0.028
-738.069	-200.000	0.018	0.225
-737.054	-153.735	0.254	0.018
-736.039	-77.750	-0.274	0.097
-735.025	-200.000	-0.393	-0.001
-734.010	-107.558	-0.201	0.045
-732.996	-200.000	-0.029	-0.347
-731.981	-118.870	-0.392	-0.070
-730.966	-200.000	-0.143	-0.000
-729.952	800.000	0.059	-0.229
-728.937	57.394	-0.210	-0.209
-727.923	-121.129	-0.092	0.016
-726.908	-93.565	0.193	-0.055
-725.894	-80.393	0.054	-0.019
-724.879	45.798	-0.157	0.148
-723.864	-117.438	-0.142	0.026
-722.850	-72.613	-0.257	-0.097
-721.835	-183.711	0.096	0.002
-720.821	64.091	0.168	0.172
-719.806	140.660	-0.101	0.136
-718.791	-10.937	-0.170	-0.114
-717.777	241.330	-0.096	-0.164
-716.762	10.959	-0.449	-0.350
-715.748	556.767	0.026	0.064
-714.733	-200.000	-0.017	0.087
-713.718	-32.353	0.077	-0.044
-712.704	800.000	-0.045	-0.131
-711.689	317.393	0.040	0.077
-710.675	74.055	0.166	-0.178
-709.660	-39.004	0.232	-0.124
-708.645	-200.000	-0.006	-0.257
-707.631	7.816	-0.175	0.134
-706.616	11.306	-0.225	-0.176
-705.602	800.000	-0.140	-0.450
-704.587	298.621	-0.184	-0.344
-703.572	29.083	0.248	0.214
-702.558	-117.301	-0.307	-0.057
-701.543	-69.308	-0.161	-0.063
-700.529	-200.000	-0.053	0.365
-699.514	-90.484	0.166	-0.049
-698.499	-34.447	0.229	-0.128
-697.485	-200.000	0.001	0.084
-696.470	222.820	-0.108	-0.177
-695.456	44.519	0.175	-0.164
-694.441	-200.000	-0.031	-0.385
-693.426	800.000	0.068	-0.244
-692.412	800.000	0.086	0.263
-691.397	337.922	-0.073	0.145
-690.383	677.612	-0.095	-0.250
-689.368	144.601	-0.174	-0.237
-688.354	-200.000	-0.010	-0.411
-687.339	-52.224	0.098	0.046
-686.324	-200.000	-0.004	-0.503
-685.310	-145.417	-0.183	0.017
-684.295	749.066	-0.096	-0.265
-683.281	-64.524	0.171	0.071
-682.266	-200.000	0.075	-0.602
-681.251	51.544	-0.225	-0.218
-680.237	-150.265	-0.319	0.025
-679.222	123.805	0.183	-0.233
-678.208	37.137	0.013	-0.012
-677.193	-79.936	0.097	-0.033
-676.178	129.309	-0.179	-0.232
-675.164	-115.278	0.246	-0.047
-674.149	-97.013	-0.036	0.010
-673.135	8.422	0.066	0.051
-672.120	190.580	-0.104	-0.160
-671.105	-94.858	0.221	-0.061
-670.091	384.709	0.173	-0.362
-669.076	-200.000	0.027	0.156
-668.062	-142.735	-0.266	-0.026
-667.047	-62.060	-0.184	0.078
-666.032	-31.167	0.235	-0.135
-665.018	484.527	0.080	0.185
-664.003	176.485	0.101	0.150
-662.989	150.405	-0.100	-0.138
-661.974	-200.000	0.007	-0.238
-660.959	3.500	0.164	0.121
-659.945	270.637	0.101	-0.181
-658.930	-107.427	0.338	0.076
-657.916	-57.782	-0.207	0.092
-656.901	3.996	-0.152	0.113
-655.886	329.080	0.091	0.177
-654.872	-104.630	-0.338	0.079
-653.857	-15.314	0.096	-0.063
-652.843	-70.131	0.276	0.107
-651.828	800.000	-0.020	-0.077
-650.814	-46.860	0.273	0.136
-649.799	-103.827	0.094	-0.022
-648.784	248.750	0.131	-0.226
-647.770	-185.890	0.186	-0.003
-646.755	83.830	0.038	0.042
-645.741	800.000	-0.048	0.139
-644.726	238.898	-0.043	-0.073
-643.711	-107.487	-0.053	0.012
-642.697	-200.000	-0.068	0.346
-641.682	-200.000	-0.002	0.303
-640.668	765.019	0.014	0.037
-639.653	-121.679	-0.187	-0.031
-638.638	-2.262	-0.378	-0.270
-637.624	800.000	-0.037	-0.141
-636.609	-200.000	0.020	-0.312
-635.595	44.830	0.036	-0.034
-634.580	202.590	-0.224	-0.352
-633.565	28.289	0.082	0.071
-632.551	72.339	-0.038	-0.040
-631.536	-159.160	0.347	-0.020
-630.522	-13.801	-0.115	-0.076
-629.507	-143.882	-0.153	-0.015
-628.492	-200.000	-0.064	0.292
-627.478	-27.880	-0.263	0.155
-626.463	4.923	0.073	0.054
-625.449	144.123	-0.071	0.097
-624.434	-141.855	-0.054	-0.005
-623.419	-142.796	0.206	0.020
-622.405	15.482	0.110	-0.088
-621.390	12.315	-0.136	-0.106
-620.376	111.895	0.113	-0.138
-619.361	280.892	-0.109	-0.199
-618.346	216.506	0.096	-0.155
-617.332	42.361	-0.080	-0.074
-616.317	49.672	-0.074	0.070
-615.303	129.642	0.121	-0.157
-614.288	-79.841	0.376	-0.128
-613.273	338.915	0.111	-0.220
-612.259	371.737	0.172	-0.354
-611.244	-51.875	-0.139	-0.066
-610.230	800.000	0.154	-0.453
-609.215	107.299	-0.054	0.065
-608.201	16.804	-0.137	0.110
-607.186	104.311	-0.090	0.107
-606.171	-200.000	0.007	0.116
-605.157	351.954	-0.070	-0.140
-604.142	-27.813	0.189	-0.111
-603.128	-127.814	-0.202	-0.030
-602.113	84.898	0.148	-0.165
-601.098	800.000	-0.025	-0.105
-600.084	-200.000	0.020	0.187
-599.069	155.240	-0.125	-0.174
-598.055	10.854	-0.062	0.048
-597.040	-65.710	0.149	-0.061
-596.025	294.055	0.086	-0.160
-595.011	-200.000	0.034	-0.225
-593.996	-107.764	-0.114	-0.025
-592.982	800.000	-0.157	-0.497
-591.967	-56.520	-0.282	0.127
-590.952	-68.020	-0.153	-0.060
-589.938	-95.206	-0.236	0.065
-588.923	657.650	-0.059	0.154
-587.909	-147.205	-0.194	0.017
-586.894	483.484	-0.122	-0.281
-585.879	800.000	0.034	-0.118
-584.865	600.182	0.095	-0.240
-583.850	453.966	-0.139	-0.313
-582.836	24.258	0.145	0.122
-581.821	-8.510	-0.114	0.078
-580.806	-72.862	0.530	-0.198
-579.792	102.646	0.226	0.268
-578.777	-102.221	-0.319	-0.078
-577.763	-200.000	0.005	-0.080
-576.748	-41.600	0.127	0.066
-575.733	1.189	0.259	0.188
-574.719	-110.669	0.225	0.047
-573.704	-14.997	-0.150	0.097
-572.690	800.000	-0.094	0.327
-571.675	-200.000	0.085	-0.395
-570.661	16.446	-0.230	-0.184
-569.646	-111.679	-0.082	0.017
-568.631	-38.626	-0.135	-0.072
-567.617	18.860	0.123	0.100
-566.602	5.577	0.179	0.134
-565.588	800.000	0.085	0.317
-564.573	1.574	0.254	0.185
-563.558	800.000	-0.030	0.090
-562.544	-40.207	-0.090	-0.047
-561.529	-50.377	0.191	0.092
-560.515	-47.573	-0.118	-0.058
-559.500	224.828	-0.105	-0.172
-558.485	-94.553	-0.149	-0.041
-557.471	-43.587	0.100	-0.051
-556.456	800.000	0.071	-0.223
-555.442	710.230	0.021	-0.055
-554.427	-95.023	-0.352	-0.096
-553.412	-147.179	0.284	-0.025
-552.398	800.000	0.120	-0.340
-551.383	115.379	0.274	0.339
-550.369	-164.761	0.221	0.010
-549.354	800.000	0.107	-0.430
-548.339	147.166	0.117	-0.159
-547.325	-200.000	0.083	-0.548
-546.310	800.000	-0.126	-0.357
-545.296	-100.904	0.217	0.054
-544.281	2.614	0.178	0.130
-543.266	800.000	0.070	-0.244
-542.252	4.727	-0.172	0.128
-541.237	250.520	-0.158	0.272
-540.223	-181.510	0.361	0.007
-539.208	217.870	-0.082	0.133
-538.193	-80.178	-0.030	-0.010
-537.179	13.024	-0.056	0.044
-536.164	-69.234	0.261	0.102
-535.150	-200.000	0.012	-0.262
-534.135	12.402	-0.174	0.136
-533.121	150.026	-0.118	0.162
-532.106	312.119	0.009	0.018
-531.091	-200.000	0.007	0.257
-530.077	64.554	-0.150	-0.153
-529.062	-31.266	-0.212	0.121
-528.048	-110.573	0.263	-0.055
-527.033	46.867	0.327	-0.307
-526.018	-93.398	-0.086	0.024
-525.004	-200.000	0.051	-0.290
-523.989	-171.402	0.131	-0.004
-522.975	-34.079	0.069	0.038
-521.960	800.000	-0.050	-0.154
-520.945	800.000	-0.046	0.132
-519.931	800.000	-0.072	-0.219
-518.916	-82.433	0.283	0.093
-517.902	20.994	0.323	-0.265
-516.887	104.692	0.202	-0.241
-515.872	-109.725	0.303	-0.065
-514.858	-200.000	0.018	0.261
-513.843	-160.177	0.222	0.012
-512.829	-68.656	0.098	-0.038
-511.814	-7.505	-0.347	-0.238
-510.799	800.000	-0.074	-0.259
-509.785	25.243	0.098	0.082
-508.770	141.729	0.091	0.122
-507.756	-43.284	-0.119	0.061
-506.741	-200.000	-0.016	0.355
-505.726	-143.214	-0.201	-0.020
-504.712	-108.078	0.109	0.024
-503.697	-34.844	0.121	-0.067
-502.683	-158.038	-0.325	0.019
-501.668	800.000	-0.057	-0.243
-500.653	44.122	0.066	-0.062
-499.639	175.627	-0.074	0.109
-498.624	800.000	-0.020	-0.084
-497.610	800.000	0.014	0.059
-496.595	169.400	0.234	-0.338
-495.581	90.000	-0.250	0.283
-494.566	-169.983	-0.346	0.012
-493.551	-37.557	0.206	-0.111
-492.537	424.908	-0.107	0.233
-491.522	115.380	-0.171	-0.211
-490.508	800.000	-0.025	0.091
-489.493	-3.827	0.105	0.073
-488.478	-54.400	-0.414	0.190
-487.464	-125.685	-0.421	0.064
-486.449	-127.084	-0.095	0.014
-485.435	-141.367	0.106	0.011
-484.420	120.305	0.087	0.110
-483.405	608.529	-0.060	0.150
-482.391	-86.765	0.079	-0.024
-481.376	14.324	0.265	0.209
-480.362	-200.000	0.014	0.149
-479.347	123.861	-0.167	0.211
-478.332	-76.642	-0.275	-0.097
-477.318	7.429	-0.135	0.102
-476.303	11.150	0.046	0.035
-475.289	-41.032	-0.128	0.067
-474.274	-200.000	0.067	-0.408
-473.259	-162.551	-0.289	0.014
-472.245	91.914	0.212	-0.241
-471.230	-109.478	-0.246	-0.052
-470.216	59.321	0.371	0.369
-469.201	160.329	-0.134	0.188
-468.186	148.986	-0.047	-0.064
-467.172	-108.570	0.267	0.058
-466.157	-42.363	0.306	0.158
-465.143	-15.564	-0.319	0.206
-464.128	-38.589	0.300	-0.160
-463.113	-200.000	0.025	-0.115
-462.099	717.782	0.158	-0.423
-461.084	-200.000	-0.037	-0.289
-460.070	-41.031	-0.171	-0.089
-459.055	477.500	-0.101	0.230
-458.040	477.670	0.077	0.175
-457.026	-114.843	-0.244	0.047
-456.011	5.814	-0.114	0.085
-454.997	777.028	0.039	-0.106
-453.982	-200.000	0.003	0.119
-452.968	0.861	0.202	-0.146
-451.953	800.000	-0.045	0.183
-450.938	-44.053	0.250	-0.126
-449.924	-25.977	0.212	0.126
-448.909	-10.969	0.110	0.073
-447.895	158.518	0.161	0.225
-446.880	174.950	-0.170	0.248
-445.865	-200.000	0.060	0.396
-444.851	100.658	-0.056	-0.065
-443.836	-105.323	0.059	-0.014
-442.822	-136.026	-0.223	0.026
-441.807	-56.014	-0.151	-0.068
-440.792	-156.584	0.128	0.008
-439.778	76.125	0.239	0.255
-438.763	-200.000	-0.004	-0.149
-437.749	3.194	0.216	0.159
-436.734	-62.673	0.328	0.137
-435.719	-34.366	0.179	0.099
-434.705	-75.842	0.142	-0.051
-433.690	800.000	0.061	0.208
-432.676	563.959	0.069	0.168
-431.661	290.986	0.072	-0.132
-430.646	-200.000	-0.006	0.128
-429.632	73.802	-0.142	0.150
-428.617	50.651	0.015	-0.015
-427.603	-103.276	-0.178	0.042
-426.588	-200.000	-0.059	-0.476
-425.573	38.476	-0.323	0.290
-424.559	190.879	0.208	0.316
-423.544	-155.113	0.169	0.011
-422.530	-65.895	-0.443	0.179
-421.515	-55.953	0.069	0.031
-420.500	522.761	0.106	-0.250
-419.486	747.213	-0.120	0.325
-418.471	-132.461	0.495	0.064
-417.457	-142.565	0.375	-0.037
-416.442	-97.934	-0.367	-0.095
-415.428	-166.473	-0.175	-0.007
-414.413	555.145	0.026	0.063
-413.398	-200.000	0.026	0.185
-412.384	134.151	-0.231	-0.302
-411.369	-68.324	0.132	-0.052
-410.355	151.137	-0.075	0.103
-409.340	-121.442	-0.229	-0.038
-408.325	-102.452	0.189	-0.046
-407.311	1.513	-0.087	0.063
-406.296	-174.335	-0.153	0.004
-405.282	49.397	-0.098	0.093
-404.267	-200.000	-0.004	0.288
-403.252	87.074	0.092	0.102
-402.238	-37.769	-0.081	-0.044
-401.223	-47.842	0.212	0.103
-400.209	50.021	0.107	-0.101
-399.194	-32.670	-0.153	0.086
-398.179	-75.413	0.340	-0.122
-397.165	239.901	-0.080	0.134
-396.150	800.000	-0.056	-0.197
-395.136	-52.195	0.103	-0.048
-394.121	-104.189	-0.279	-0.065
-393.106	350.231	0.028	-0.056
-392.092	542.488	-0.126	-0.303
-391.077	-200.000	-0.002	0.200
-390.063	-116.736	-0.132	-0.024
-389.048	-64.735	0.130	0.053
-388.033	-200.000	-0.020	-0.226
-387.019	-30.630	-0.080	-0.046
-386.004	-200.000	0.007	-0.127
-384.990	-200.000	-0.011	-0.253
-383.975	800.000	-0.068	-0.222
-382.960	800.000	-0.041	0.134
-381.946	113.335	-0.102	0.125
-380.931	96.041	0.113	-0.130
-379.917	800.000	0.090	0.312
-378.902	478.058	-0.054	-0.122
-377.888	357.854	-0.095	-0.190
-376.873	-127.611	-0.299	-0.044
-375.858	-12.859	0.100	0.065
-374.844	347.241	-0.080	0.158
-373.829	209.201	-0.087	0.137
-372.815	-77.358	-0.058	0.020
-371.800	-97.287	-0.418	0.110
-370.785	-200.000	-0.030	0.135
-369.771	-200.000	0.014	-0.364
-368.756	-106.181	0.325	-0.073
-367.742	583.793	0.102	-0.253
-366.727	-6.946	-0.357	-0.244
-365.712	159.647	0.119	-0.167
-364.698	626.345	-0.076	-0.193
-363.683	325.272	-0.042	0.080
-362.669	-111.364	-0.245	0.050
-361.654	800.000	-0.053	-0.189
-360.639	-200.000	0.029	-0.148
-359.625	13.993	-0.076	-0.059
-358.610	-200.000	-0.052	-0.359
-357.596	492.878	0.157	-0.362
-356.581	118.183	-0.105	-0.130
-355.566	-107.537	0.286	-0.063
-354.552	-26.889	0.093	0.054
-353.537	-197.733	0.119	-0.001
-352.523	127.085	-0.082	-0.104
-351.508	-132.162	0.218	0.028
-350.493	-14.163	-0.131	0.085
-349.479	800.000	0.017	0.050
-348.464	-85.181	-0.140	0.044
-347.450	800.000	-0.107	-0.378
-346.435	-59.380	0.119	-0.051
-345.420	563.119	0.123	-0.299
-344.406	-131.125	-0.157	0.021
-343.391	57.335	0.099	-0.098
-342.377	54.684	0.171	-0.165
-341.362	572.122	0.054	0.133
-340.348	63.747	0.119	-0.120
-339.333	537.040	-0.127	-0.303
-338.318	49.395	0.175	-0.165
-337.304	-200.000	-0.024	0.211
-336.289	-200.000	-0.008	-0.293
-335.275	-98.903	0.277	0.071
-334.260	-200.000	0.010	0.053
-333.245	-200.000	0.021	0.191
-332.231	193.876	-0.147	-0.223
-331.216	800.000	-0.062	-0.250
-330.202	506.906	0.051	-0.119
-329.187	1.341	0.139	0.100
-328.172	-102.409	-0.425	-0.102
-327.158	-104.341	0.082	-0.019
-326.143	-16.090	-0.063	-0.040
-325.129	-81.541	0.319	0.105
-324.114	236.365	-0.100	0.166
-323.099	100.611	-0.133	-0.156
-322.085	-73.789	-0.339	0.124
-321.070	246.489	0.086	0.146
-320.056	800.000	0.105	-0.309
-319.041	258.102	0.094	0.163
-318.026	-127.713	-0.315	-0.046
-317.012	-128.677	0.242	-0.034
-315.997	800.000	0.099	-0.376
-314.983	-200.000	-0.122	0.000
-313.968	-200.000	0.009	-0.110
-312.953	-194.986	-0.095	-0.001
-311.939	21.826	-0.288	0.235
-310.924	5.109	0.153	0.113
-309.910	325.738	-0.202	-0.387
-308.895	65.742	-0.121	0.123
-307.880	301.830	-0.074	-0.138
-306.866	11.012	-0.213	0.164
-305.851	695.251	-0.069	-0.183
-304.837	736.369	0.005	-0.014
-303.822	483.632	0.060	0.138
-302.807	800.000	-0.009	-0.030
-301.793	137.897	-0.163	0.214
-300.778	-168.424	0.378	0.015
-299.764	151.378	0.118	0.161
-298.749	86.565	0.053	-0.059
-297.735	628.744	0.126	0.319
-296.720	-200.000	0.053	0.282
-295.705	44.499	0.065	-0.060
-294.691	-46.943	0.185	-0.091
-293.676	-40.620	-0.342	-0.178
-292.662	-86.117	0.103	0.032
-291.647	-90.049	0.112	0.033
-290.632	3.680	-0.139	-0.102
-289.618	-156.870	-0.055	-0.003
-288.603	299.072	-0.092	-0.170
-287.589	-28.984	-0.154	0.088
-286.574	-165.571	-0.299	-0.013
-285.559	-38.102	0.098	0.052
-284.545	800.000	0.080	0.224
-283.530	111.357	0.086	-0.104
-282.516	-92.339	-0.071	0.020
-281.501	168.761	-0.181	0.259
-280.486	36.524	0.315	0.278
-279.472	-179.173	0.121	0.003
-278.457	800.000	0.090	0.256
-277.443	-200.000	-0.026	0.159
-276.428	-119.220	0.099	0.017
-275.413	800.000	0.028	-0.080
-274.399	57.952	-0.261	0.256
-273.384	-200.000	-0.004	0.325
-272.370	91.983	-0.250	-0.282
-271.355	-118.999	0.260	0.046
-270.340	-126.526	-0.170	0.025
-269.326	127.404	0.107	0.136
-268.311	323.065	-0.060	0.115
-267.297	-200.000	0.058	0.300
-266.282	541.198	-0.068	-0.162
-265.267	467.703	0.109	-0.246
-264.253	-77.921	-0.141	0.049
-263.238	166.089	-0.297	-0.421
-262.224	780.923	-0.068	0.187
-261.209	-165.751	0.361	0.016
-260.195	-200.000	0.012	0.227
-259.180	-154.916	-0.184	-0.012
-258.165	379.508	-0.070	0.144
-257.151	-19.657	-0.106	0.066
-256.136	234.848	0.198	0.327
-255.122	290.629	0.124	0.225
-254.107	17.597	0.214	0.170
-253.092	104.865	0.147	0.173
-252.078	322.245	0.140	0.267
-251.063	-112.021	-0.055	-0.011
-250.049	-76.059	0.235	-0.083
-249.034	97.127	-0.314	-0.360
-248.019	253.932	-0.069	-0.118
-247.005	135.252	-0.115	0.150
-245.990	800.000	0.092	-0.299
-244.976	330.101	0.179	0.345
-243.961	60.874	0.158	0.157
-242.946	-115.992	0.216	0.040
-241.932	-53.720	-0.266	-0.122
-240.917	-200.000	0.011	-0.119
-239.903	-126.661	-0.262	-0.039
-238.888	36.042	-0.237	0.209
-237.873	-14.750	-0.091	0.059
-236.859	203.471	0.118	-0.183
-235.844	-77.025	0.341	0.119
-234.830	800.000	0.140	0.428
-233.815	-200.000	0.005	-0.167
-232.800	68.569	0.070	-0.072
-231.786	11.077	0.184	0.141
-230.771	345.799	-0.161	-0.317
-229.757	296.647	0.080	0.147
-228.742	183.854	-0.105	-0.156
-227.727	-129.465	-0.201	-0.028
-226.713	146.666	-0.211	0.283
-225.698	83.180	-0.131	0.143
-224.684	302.360	0.056	-0.104
-223.669	115.342	0.040	-0.049
-222.655	62.723	-0.075	-0.075
-221.640	800.000	-0.081	0.291
-220.625	-200.000	0.022	0.201
-219.611	800.000	-0.178	0.499
-218.596	-47.665	-0.091	-0.044
-217.582	-19.877	0.523	0.323
-216.567	-200.000	0.013	-0.085
-215.552	-200.000	-0.040	0.202
-214.538	-30.759	-0.431	0.244
-213.523	-200.000	-0.007	0.198
-212.509	-200.000	-0.124	0.653
-211.494	-24.316	-0.107	-0.064
-210.479	127.481	-0.120	-0.152
-209.465	383.391	0.028	-0.057
-208.450	156.353	0.157	-0.216
-207.436	-200.000	0.024	-0.175
-206.421	0.638	-0.156	0.111
-205.406	-124.440	0.178	-0.028
-204.392	-200.000	-0.006	0.039
-203.377	34.644	-0.322	0.282
-202.363	-22.737	-0.026	0.015
-201.348	-138.785	-0.327	0.036
-200.333	-113.732	0.041	0.008
-199.319	-200.000	-0.007	0.216
-198.304	-41.572	0.223	0.115
-197.290	579.922	0.037	0.090
-196.275	-116.844	0.221	-0.040
-195.260	219.212	-0.139	-0.223
-194.246	71.681	-0.136	-0.142
-193.231	-84.182	-0.183	0.058
-192.217	391.337	0.059	0.123
-191.202	553.333	0.034	0.081
-190.187	465.914	-0.227	-0.508
-189.173	96.510	-0.093	-0.106
-188.158	-53.100	0.198	0.091
-187.144	57.153	0.118	0.115
-186.129	800.000	-0.035	0.147
-185.114	285.549	-0.072	-0.129
-184.100	34.893	0.317	-0.277
-183.085	-173.325	0.157	0.005
-182.071	39.949	0.034	-0.030
-181.056	-139.438	-0.127	-0.014
-180.042	587.079	-0.118	-0.290
-179.027	-8.053	-0.098	0.066
-178.012	184.529	0.045	-0.066
-176.998	275.273	-0.050	0.089
-175.983	32.473	0.069	-0.059
-174.969	188.326	0.205	0.306
-173.954	-151.394	-0.310	0.023
-172.939	548.433	0.148	0.354
-171.925	-200.000	0.007	0.165
-170.910	-40.547	-0.271	0.140
-169.896	136.899	0.137	0.179
-168.881	392.596	-0.020	-0.042
-167.866	-200.000	0.025	0.228
-166.852	239.102	0.105	-0.174
-165.837	-28.026	0.154	0.089
-164.823	-96.375	0.155	0.041
-163.808	-200.000	0.016	0.258
-162.793	48.343	-0.075	-0.070
-161.779	-150.509	0.232	-0.018
-160.764	-61.721	0.160	-0.067
-159.750	-59.580	0.111	0.048
-158.735	51.853	0.040	0.038
-157.720	-200.000	-0.014	-0.124
-156.706	-200.000	0.026	0.213
-155.691	-155.631	-0.281	0.018
-154.677	-95.347	0.136	0.036
-153.662	-109.322	-0.188	-0.040
-152.647	-200.000	0.015	0.080
-151.633	-127.326	0.200	0.029
-150.618	800.000	-0.142	0.512
-149.604	50.127	-0.100	0.094
-148.589	232.147	0.134	0.219
-147.574	439.663	-0.211	0.460
-146.560	-24.543	0.031	0.019
-145.545	36.033	0.064	0.057
-144.531	117.687	0.252	-0.309
-143.516	-200.000	-0.036	-0.324
-142.502	205.724	-0.106	0.164
-141.487	268.560	-0.149	-0.260
-140.472	64.533	0.164	0.165
-139.458	-62.098	0.147	0.061
-138.443	-200.000	-0.039	-0.194
-137.429	220.522	-0.193	-0.309
-136.414	8.686	0.150	-0.113
-135.399	-109.678	-0.155	0.033
-134.385	198.664	0.223	0.341
-133.370	-23.169	0.050	-0.030
-132.356	-27.096	0.333	-0.194
-131.341	417.692	-0.123	-0.263
-130.326	422.322	0.151	0.323
-129.312	3.876	-0.083	0.061
-128.297	-12.624	0.249	0.162
-127.283	139.481	0.143	-0.188
-126.268	800.000	-0.025	-0.084
-125.253	-170.978	0.254	0.009
-124.239	-34.223	0.270	0.148
-123.224	1.453	0.209	0.150
-122.210	-76.553	-0.437	-0.153
-121.195	-131.960	0.301	0.039
-120.180	0.788	0.167	0.119
