DTS Sentinel unit serial number:	SN413079Multiplexer serial number:	ORYXHardware model number:	OX4-SRSoftware version number:	ORYX F/W v4.00 Oryx Data Collector v3.7.2.0data status	okinstallation	princeton_trtdifferential loss correction	single-endedforward channel	channel 3reverse channel	N/Adate	2019/09/14time	01:20:34forward acquisition time	60.00reverse acquisition time	0.00gamma	496.2192k internal	0.2340k external	0.2340temperature offset calibration	1.0054default loss term (dB/km)	0.3790temperature slope calibration	1.0000multiplexer offset coefficient	1.0000multiplexer slope coefficient	1.0000fibre end	0.00T internal ref (°C)	26.42T ext. ref 1 (°C)	3.19T ext. ref 2 (°C)	21.40length (m)	temperature (°C)	Stokes	anti-Stokes-747.200	-36.385	0.218	-0.118
-746.185	283.042	-0.104	0.187
-745.171	800.000	-0.047	-0.185
-744.156	800.000	0.061	-0.217
-743.142	326.482	0.059	-0.114
-742.127	121.267	-0.157	0.196
-741.112	-13.927	-0.129	0.083
-740.098	147.921	0.076	-0.103
-739.083	-200.000	0.066	-0.372
-738.069	55.598	-0.395	0.384
-737.054	-138.870	0.325	-0.035
-736.039	-120.142	0.204	-0.035
-735.025	-129.531	-0.307	-0.043
-734.010	152.980	-0.106	0.146
-732.996	-88.266	-0.109	0.033
-731.981	-109.817	-0.232	-0.049
-730.966	-200.000	-0.006	-0.440
-729.952	501.239	0.137	-0.317
-728.937	-197.844	-0.075	0.000
-727.923	121.166	-0.148	0.184
-726.908	-141.743	-0.472	0.047
-725.894	800.000	-0.026	-0.103
-724.879	800.000	-0.082	-0.333
-723.864	-101.757	-0.240	0.058
-722.850	-200.000	0.028	-0.410
-721.835	-200.000	0.004	-0.171
-720.821	588.188	0.161	-0.397
-719.806	19.212	0.244	-0.196
-718.791	800.000	-0.066	-0.183
-717.777	88.474	0.106	-0.118
-716.762	110.112	0.158	0.190
-715.748	-173.422	0.309	0.009
-714.733	261.756	0.055	0.095
-713.718	-200.000	0.033	0.226
-712.704	-143.003	0.148	-0.014
-711.689	-122.667	-0.200	0.032
-710.675	-165.218	0.181	-0.008
-709.660	17.933	0.220	-0.176
-708.645	51.317	-0.197	0.188
-707.631	-23.956	0.135	0.081
-706.616	-176.634	-0.150	0.004
-705.602	-37.087	0.246	0.132
-704.587	-200.000	0.058	-0.284
-703.572	-200.000	-0.012	-0.209
-702.558	67.489	0.206	-0.210
-701.543	261.342	0.006	-0.011
-700.529	-56.884	-0.410	0.181
-699.514	420.155	0.039	-0.084
-698.499	-187.196	0.327	0.004
-697.485	-200.000	0.019	-0.256
-696.470	-200.000	-0.001	0.085
-695.456	6.702	0.054	-0.040
-694.441	-101.647	-0.072	-0.017
-693.426	72.498	0.087	-0.090
-692.412	259.961	-0.207	0.358
-691.397	237.308	0.135	0.224
-690.383	122.591	0.244	0.305
-689.368	-117.760	-0.326	-0.059
-688.354	-51.636	-0.326	-0.152
-687.339	309.075	0.138	-0.257
-686.324	384.252	-0.124	-0.255
-685.310	-144.712	0.387	-0.036
-684.295	800.000	-0.035	-0.152
-683.281	-200.000	-0.017	-0.221
-682.266	-173.988	-0.146	-0.004
-681.251	-200.000	0.018	-0.372
-680.237	72.458	-0.230	-0.240
-679.222	-136.406	0.067	-0.008
-678.208	-116.307	-0.259	-0.048
-677.193	296.508	0.130	-0.239
-676.178	153.931	-0.112	-0.153
-675.164	-200.000	-0.102	0.458
-674.149	231.809	-0.050	0.083
-673.135	-70.019	-0.177	0.067
-672.120	-131.748	-0.549	-0.072
-671.105	-71.035	0.273	-0.103
-670.091	-200.000	0.009	0.311
-669.076	-200.000	-0.013	0.189
-668.062	800.000	-0.016	-0.061
-667.047	29.208	0.201	-0.170
-666.032	-76.797	-0.145	0.051
-665.018	-27.587	-0.215	-0.125
-664.003	529.120	-0.068	-0.161
-662.989	-8.594	-0.115	-0.077
-661.974	109.318	0.012	-0.014
-660.959	-200.000	0.009	-0.220
-659.945	350.759	-0.040	0.079
-658.930	152.594	0.066	-0.091
-657.916	-41.381	0.286	-0.147
-656.901	-89.946	0.109	-0.032
-655.886	-200.000	-0.052	0.237
-654.872	-166.898	-0.343	-0.014
-653.857	800.000	0.141	-0.537
-652.843	-165.439	0.105	-0.005
-651.828	-88.775	0.176	-0.052
-650.814	406.418	-0.064	-0.134
-649.799	800.000	0.068	0.222
-648.784	-84.962	0.265	0.083
-647.770	305.490	0.072	0.134
-646.755	372.245	0.099	0.200
-645.741	88.365	0.196	-0.218
-644.726	-41.325	-0.390	-0.201
-643.711	-200.000	-0.002	-0.017
-642.697	23.017	0.073	0.060
-641.682	-46.670	0.271	0.133
-640.668	207.329	0.023	-0.037
-639.653	40.605	-0.314	-0.282
-638.638	-105.284	-0.361	-0.082
-637.624	-80.084	0.219	-0.073
-636.609	-9.812	-0.170	0.113
-635.595	800.000	0.051	0.157
-634.580	-200.000	0.032	-0.265
-633.565	-102.739	0.234	-0.056
-632.551	244.224	-0.140	0.234
-631.536	261.592	0.223	-0.386
-630.522	-84.418	-0.108	-0.034
-629.507	130.263	0.181	-0.232
-628.492	77.819	-0.127	0.135
-627.478	715.313	-0.101	-0.267
-626.463	-200.000	-0.007	-0.042
-625.449	101.234	0.103	-0.120
-624.434	37.594	-0.146	-0.129
-623.419	202.120	0.083	0.128
-622.405	724.173	0.138	-0.366
-621.390	17.760	-0.297	-0.236
-620.376	-89.656	-0.154	-0.045
-619.361	-200.000	-0.032	0.173
-618.346	104.525	-0.127	-0.150
-617.332	800.000	-0.057	0.225
-616.317	-33.481	0.339	0.187
-615.303	-5.679	0.183	0.125
-614.288	-200.000	-0.009	0.055
-613.273	-200.000	0.062	-0.531
-612.259	53.629	-0.117	-0.112
-611.244	800.000	0.079	-0.296
-610.230	-145.354	-0.176	-0.016
-609.215	166.906	-0.112	-0.158
-608.201	-200.000	0.014	-0.132
-607.186	413.803	-0.077	0.164
-606.171	800.000	0.148	-0.444
-605.157	-86.056	0.102	0.031
-604.142	-200.000	-0.010	-0.043
-603.128	-125.260	-0.107	0.016
-602.113	-57.333	-0.169	-0.074
-601.098	-26.905	-0.281	0.164
-600.084	197.708	-0.063	0.097
-599.069	267.515	0.092	-0.160
-598.055	-200.000	-0.032	-0.212
-597.040	109.238	-0.270	-0.323
-596.025	118.337	0.137	0.169
-595.011	-22.567	0.334	0.201
-593.996	-200.000	-0.006	-0.157
-592.982	-200.000	-0.005	0.246
-591.967	91.043	-0.116	0.130
-590.952	-155.121	0.291	0.019
-589.938	-200.000	0.005	0.029
-588.923	373.959	0.205	0.416
-587.909	-147.538	0.399	0.034
-586.894	-200.000	-0.005	-0.025
-585.879	800.000	0.074	0.275
-584.865	-200.000	0.021	-0.115
-583.850	-180.309	-0.234	-0.005
-582.836	-150.822	0.253	-0.019
-581.821	373.624	-0.224	-0.453
-580.806	-200.000	-0.055	-0.337
-579.792	7.192	-0.254	0.189
-578.777	-62.721	-0.398	-0.164
-577.763	-111.501	0.308	-0.062
-576.748	-130.527	-0.120	-0.016
-575.733	18.828	-0.220	0.175
-574.719	-118.024	-0.226	0.040
-573.704	-141.798	0.322	-0.032
-572.690	-200.000	0.088	0.580
-571.675	-200.000	0.017	0.246
-570.661	487.514	-0.178	0.404
-569.646	182.665	-0.087	0.128
-568.631	497.127	-0.063	-0.144
-567.617	72.268	0.113	-0.117
-566.602	-64.208	0.111	-0.045
-565.588	-194.661	-0.452	-0.004
-564.573	52.696	-0.332	0.316
-563.558	-200.000	-0.012	0.096
-562.544	-200.000	-0.031	-0.331
-561.529	-20.964	-0.057	-0.035
-560.515	-200.000	0.003	-0.026
-559.500	115.800	-0.123	-0.149
-558.485	-22.040	-0.118	0.071
-557.471	-85.857	-0.039	-0.012
-556.456	800.000	0.043	-0.181
-555.442	800.000	-0.066	0.189
-554.427	-79.967	-0.177	-0.059
-553.412	-198.785	-0.353	0.002
-552.398	-48.551	-0.103	-0.050
-551.383	-82.868	-0.185	-0.060
-550.369	-116.596	-0.347	0.064
-549.354	15.064	0.058	0.045
-548.339	800.000	-0.083	-0.231
-547.325	-65.044	-0.263	-0.106
-546.310	-71.245	0.064	0.024
-545.296	-147.165	0.071	-0.006
-544.281	-66.942	-0.055	0.022
-543.266	-200.000	0.015	-0.215
-542.252	-68.488	0.276	0.106
-541.237	800.000	-0.100	0.310
-540.223	-119.931	0.205	-0.035
-539.208	800.000	-0.089	0.273
-538.193	800.000	-0.117	0.352
-537.179	255.611	0.081	-0.139
-536.164	786.614	-0.134	-0.365
-535.150	-200.000	-0.002	-0.286
-534.135	-84.350	0.151	0.048
-533.121	800.000	0.025	0.104
-532.106	-38.138	0.245	0.129
-531.091	-27.814	0.097	-0.056
-530.077	275.130	-0.119	-0.211
-529.062	281.715	-0.199	0.354
-528.048	-200.000	0.038	0.230
-527.033	22.898	-0.119	0.097
-526.018	31.383	-0.163	-0.139
-525.004	-200.000	0.037	-0.247
-523.989	-68.450	-0.165	0.063
-522.975	123.803	-0.073	0.091
-521.960	206.813	-0.074	0.115
-520.945	75.496	-0.064	-0.067
-519.931	-200.000	-0.012	-0.188
-518.916	-200.000	-0.116	0.000
-517.902	800.000	-0.027	0.100
-516.887	76.080	-0.130	-0.137
-515.872	-173.148	0.165	-0.005
-514.858	-148.491	0.159	0.013
-513.843	-200.000	0.024	0.189
-512.829	-81.471	-0.086	-0.028
-511.814	-200.000	0.051	-0.319
-510.799	-52.697	-0.054	0.025
-509.785	-125.552	-0.050	-0.008
-508.770	-82.843	-0.187	-0.060
-507.756	-200.000	-0.031	0.169
-506.741	329.392	-0.031	0.060
-505.726	800.000	0.055	-0.163
-504.712	175.574	0.124	-0.179
-503.697	-129.543	0.094	0.013
-502.683	357.296	0.040	-0.078
-501.668	-101.025	-0.153	0.037
-500.653	323.337	0.157	0.296
-499.639	-161.219	0.198	-0.010
-498.624	444.559	0.184	0.402
-497.610	-198.129	0.355	-0.002
-496.595	-87.283	-0.123	0.037
-495.581	52.952	-0.115	-0.109
-494.566	169.710	-0.225	0.320
-493.551	-93.531	-0.039	-0.011
-492.537	-200.000	-0.029	0.265
-491.522	-200.000	0.005	-0.198
-490.508	-200.000	0.005	-0.216
-489.493	800.000	0.064	-0.216
-488.478	-200.000	-0.005	0.079
-487.464	-200.000	-0.023	-0.140
-486.449	-144.024	0.099	0.009
-485.435	-200.000	0.024	-0.191
-484.420	-200.000	-0.021	-0.179
-483.405	688.781	0.128	-0.332
-482.391	-19.475	0.143	-0.088
-481.376	248.933	-0.112	-0.189
-480.362	-21.868	0.160	0.097
-479.347	800.000	0.066	-0.265
-478.332	-83.155	0.499	-0.159
-477.318	36.714	0.217	0.190
-476.303	168.751	-0.116	0.165
-475.289	800.000	-0.032	-0.089
-474.274	-117.229	0.261	0.047
-473.259	67.373	-0.232	0.235
-472.245	-82.467	0.367	0.118
-471.230	-200.000	-0.014	-0.259
-470.216	170.979	-0.146	-0.207
-469.201	110.293	-0.119	0.141
-468.186	25.075	0.336	0.276
-467.172	-55.708	0.144	0.064
-466.157	-41.980	0.271	-0.138
-465.143	-131.372	0.279	0.037
-464.128	-169.565	0.189	0.007
-463.113	800.000	-0.036	0.134
-462.099	455.626	0.147	0.322
-461.084	-19.822	-0.096	0.059
-460.070	45.358	-0.167	-0.153
-459.055	-200.000	-0.001	-0.065
-458.040	-152.035	-0.353	0.026
-457.026	90.889	-0.155	0.172
-456.011	42.454	-0.079	0.071
-454.997	106.641	0.120	-0.141
-453.982	-26.367	-0.232	0.135
-452.968	97.604	0.059	-0.067
-451.953	370.277	0.033	-0.066
-450.938	298.142	0.037	0.068
-449.924	800.000	-0.098	0.273
-448.909	69.206	0.127	-0.130
-447.895	-57.439	0.303	0.132
-446.880	-14.034	0.066	0.042
-445.865	-99.093	0.116	-0.029
-444.851	-117.637	0.192	0.034
-443.836	166.201	-0.115	-0.162
-442.822	700.325	0.126	0.330
-441.807	-200.000	0.024	0.112
-440.792	-200.000	-0.029	0.181
-439.778	564.369	0.045	0.108
-438.763	-200.000	-0.032	-0.170
-437.749	-154.774	0.425	0.028
-436.734	-143.625	-0.228	0.022
-435.719	450.299	0.142	-0.310
-434.705	-74.000	-0.090	-0.032
-433.690	68.320	-0.192	-0.195
-432.676	29.110	-0.095	-0.079
-431.661	518.417	-0.140	-0.324
-430.646	800.000	-0.028	-0.103
-429.632	-57.834	0.296	0.128
-428.617	226.574	-0.134	0.216
-427.603	-32.870	0.013	0.007
-426.588	-102.808	-0.276	-0.065
-425.573	-200.000	0.000	-0.025
-424.559	-121.947	0.302	0.049
-423.544	-123.512	0.401	-0.063
-422.530	443.003	0.070	-0.152
-421.515	-200.000	-0.032	0.175
-420.500	32.562	0.154	-0.132
-419.486	-12.732	0.181	-0.117
-418.471	267.912	0.124	0.215
-417.457	-63.936	-0.165	0.067
-416.442	-33.271	0.073	-0.040
-415.428	79.059	0.051	0.054
-414.413	121.127	-0.097	0.120
-413.398	59.729	-0.169	0.165
-412.384	-55.978	0.432	0.191
-411.369	-162.359	-0.253	-0.012
-410.355	91.719	-0.222	-0.247
-409.340	-200.000	-0.025	0.170
-408.325	655.941	-0.148	-0.376
-407.311	-80.440	0.177	0.058
-406.296	83.766	-0.077	-0.083
-405.282	-200.000	0.021	0.176
-404.267	800.000	0.009	-0.037
-403.252	395.692	0.057	-0.118
-402.238	-200.000	0.026	0.140
-401.223	195.564	-0.126	0.190
-400.209	-50.919	0.125	0.058
-399.194	353.953	0.110	-0.215
-398.179	34.350	-0.335	-0.289
-397.165	716.684	0.048	0.127
-396.150	800.000	-0.049	0.209
-395.136	-5.463	0.054	0.037
-394.121	-147.179	-0.239	0.020
-393.106	800.000	0.075	-0.272
-392.092	22.872	0.213	-0.172
-391.077	-144.332	0.269	-0.025
-390.063	32.483	0.170	-0.145
-389.048	-30.262	0.087	-0.049
-388.033	417.674	-0.125	-0.263
-387.019	800.000	-0.047	0.139
-386.004	-200.000	-0.014	0.089
-384.990	19.934	0.147	0.117
-383.975	275.211	-0.188	0.329
-382.960	-0.100	-0.092	0.065
-381.946	-127.594	0.211	0.030
-380.931	24.984	0.151	0.124
-379.917	5.461	0.098	0.072
-378.902	-200.000	-0.006	0.071
-377.888	-159.747	0.269	-0.015
-376.873	-200.000	-0.046	-0.225
-375.858	-34.834	-0.227	-0.123
-374.844	167.235	0.156	-0.219
-373.829	565.245	-0.012	0.028
-372.815	-32.713	0.136	-0.075
-371.800	-104.357	0.085	-0.020
-370.785	-73.951	-0.131	0.047
-369.771	-200.000	0.018	-0.402
-368.756	800.000	-0.016	0.056
-367.742	39.664	-0.143	0.127
-366.727	-11.954	-0.162	-0.105
-365.712	-75.212	0.150	-0.053
-364.698	-70.490	0.111	0.042
-363.683	-33.842	0.169	0.092
-362.669	-200.000	-0.005	0.031
-361.654	-90.086	-0.161	0.046
-360.639	800.000	0.036	0.111
-359.625	-200.000	0.053	0.343
-358.610	391.624	-0.094	-0.193
-357.596	210.251	-0.094	-0.146
-356.581	800.000	-0.094	-0.298
-355.566	-186.131	-0.020	-0.000
-354.552	800.000	-0.112	0.339
-353.537	126.351	0.049	0.061
-352.523	31.546	-0.241	-0.205
-351.508	60.324	0.105	0.103
-350.493	-163.387	-0.193	0.009
-349.479	373.324	-0.069	0.140
-348.464	-48.471	-0.167	-0.079
-347.450	19.635	0.260	0.206
-346.435	-100.697	-0.029	-0.007
-345.420	13.167	-0.185	0.141
-344.406	203.532	-0.144	-0.220
-343.391	-55.521	0.119	0.053
-342.377	265.320	-0.046	-0.080
-341.362	800.000	0.025	-0.087
-340.348	-92.710	-0.165	0.046
-339.333	90.287	0.131	0.144
-338.318	800.000	-0.015	-0.050
-337.304	727.818	0.066	-0.175
-336.289	165.523	-0.070	-0.098
-335.275	479.902	0.122	0.272
-334.260	56.891	0.259	0.249
-333.245	118.863	-0.137	-0.167
-332.231	195.002	0.077	0.115
-331.216	-136.136	-0.298	-0.034
-330.202	-200.000	0.022	0.233
-329.187	-90.408	0.034	0.010
-328.172	800.000	0.041	0.136
-327.158	39.890	-0.176	-0.156
-326.143	-88.249	0.235	0.069
-325.129	-6.709	-0.171	0.115
-324.114	-200.000	-0.044	-0.307
-323.099	-93.019	-0.244	-0.067
-322.085	37.610	-0.123	-0.108
-321.070	-26.548	-0.287	0.166
-320.056	-64.428	-0.199	0.080
-319.041	60.031	0.147	0.144
-318.026	-39.054	-0.119	-0.062
-317.012	189.666	0.172	-0.255
-315.997	30.846	-0.192	-0.163
-314.983	622.753	0.047	0.116
-313.968	493.899	0.112	0.253
-312.953	628.939	-0.107	0.268
-311.939	-200.000	-0.006	0.393
-310.924	-113.217	0.364	-0.071
-309.910	73.277	-0.248	-0.256
-308.895	-51.665	-0.075	-0.034
-307.880	159.828	-0.112	0.154
-306.866	-21.638	-0.174	0.104
-305.851	135.700	0.274	0.352
-304.837	800.000	0.099	-0.368
-303.822	-200.000	0.009	-0.097
-302.807	416.237	-0.043	-0.090
-301.793	-108.536	0.072	-0.015
-300.778	800.000	0.024	0.085
-299.764	309.507	0.123	0.227
-298.749	-76.926	-0.087	0.030
-297.735	-93.128	-0.436	-0.120
-296.720	-155.395	0.244	0.016
-295.705	-87.606	-0.205	0.061
-294.691	-65.878	0.157	-0.062
-293.676	-21.935	-0.212	-0.127
-292.662	-178.555	-0.560	-0.013
-291.647	113.329	-0.082	0.098
-290.632	-180.135	0.171	0.004
-289.618	14.098	0.145	0.112
-288.603	24.810	-0.126	-0.103
-287.589	-52.524	0.093	0.042
-286.574	-200.000	-0.025	-0.133
-285.559	285.797	0.216	-0.384
-284.545	128.653	-0.219	0.275
-283.530	-110.335	-0.351	0.072
-282.516	-19.847	0.341	-0.207
-281.501	145.862	0.217	0.286
-280.486	-114.045	0.226	-0.043
-279.472	188.646	-0.170	0.250
-278.457	800.000	-0.082	0.261
-277.443	-162.747	0.061	-0.003
-276.428	-173.170	-0.246	-0.007
-275.413	-200.000	0.048	-0.410
-274.399	-200.000	0.010	-0.382
-273.384	-68.321	0.222	-0.085
-272.370	10.909	0.101	0.076
-271.355	241.053	-0.180	0.295
-270.340	-200.000	0.031	-0.201
-269.326	800.000	-0.035	0.127
-268.311	6.136	-0.400	0.292
-267.297	-171.111	0.321	0.011
-266.282	-200.000	0.061	-0.401
-265.267	-200.000	0.006	-0.114
-264.253	-143.498	-0.264	0.025
-263.238	-200.000	-0.013	0.227
-262.224	-200.000	-0.008	0.089
-261.209	-107.491	-0.296	-0.064
-260.195	104.547	-0.137	0.158
-259.180	-155.875	0.090	-0.006
-258.165	-200.000	-0.020	-0.439
-257.151	-70.145	-0.195	-0.073
-256.136	-22.723	-0.045	0.027
-255.122	302.254	0.057	0.103
-254.107	-200.000	-0.001	-0.322
-253.092	-164.031	0.273	0.012
-252.078	-147.254	0.245	0.020
-251.063	-86.063	0.159	-0.048
-250.049	555.937	0.012	-0.028
-249.034	72.189	0.107	-0.109
-248.019	-200.000	-0.001	0.087
-247.005	-80.930	0.296	-0.097
-245.990	-3.097	-0.252	-0.173
-244.976	-55.092	-0.210	0.093
-243.961	-200.000	-0.005	0.092
-242.946	800.000	0.052	0.169
-241.932	-101.191	0.138	-0.033
-240.917	101.604	0.259	-0.297
-239.903	-50.933	0.228	-0.105
-238.888	20.531	-0.132	-0.105
-237.873	-52.465	0.192	0.087
-236.859	1.882	0.313	-0.222
-235.844	49.681	-0.248	0.230
-234.830	-190.626	0.072	0.001
-233.815	641.358	0.053	0.133
-232.800	6.406	-0.157	-0.114
-231.786	-47.276	0.460	-0.220
-230.771	-77.015	0.091	0.031
-229.757	159.359	-0.172	0.235
-228.742	-57.503	0.347	-0.150
-227.727	281.646	-0.055	-0.096
-226.713	13.977	-0.202	0.154
-225.698	-200.000	0.068	0.314
-224.684	52.672	-0.049	0.046
-223.669	69.249	-0.313	0.316
-222.655	51.169	-0.233	-0.217
-221.640	-98.064	-0.131	0.033
-220.625	-125.994	-0.085	-0.013
-219.611	236.659	0.200	0.326
-218.596	338.746	0.196	-0.375
-217.582	800.000	0.044	-0.154
-216.567	-200.000	-0.018	0.120
-215.552	100.862	-0.126	-0.144
-214.538	-200.000	0.043	-0.230
-213.523	0.213	0.279	0.195
-212.509	42.442	0.209	-0.187
-211.494	-200.000	0.019	0.228
-210.479	-200.000	-0.006	-0.174
-209.465	-86.600	0.329	-0.099
-208.450	-200.000	-0.034	-0.433
-207.436	460.172	-0.122	0.267
-206.421	-162.885	0.314	0.015
-205.406	152.716	0.068	-0.092
-204.392	23.020	0.180	0.145
-203.377	637.078	0.010	-0.026
-202.363	69.076	0.110	0.110
-201.348	175.427	0.218	0.311
-200.333	-135.349	-0.189	-0.022
-199.319	600.740	0.088	0.213
-198.304	-26.253	-0.149	0.086
-197.290	-200.000	-0.012	-0.167
-196.275	800.000	-0.078	0.272
-195.260	80.837	-0.145	0.154
-194.246	-105.994	0.339	0.075
-193.231	12.221	-0.119	-0.090
-192.217	253.281	-0.098	-0.164
-191.202	-8.103	0.232	0.153
-190.187	135.816	0.062	-0.079
-189.173	10.224	-0.090	-0.067
-188.158	181.522	0.068	-0.098
-187.144	-73.247	-0.288	0.103
-186.129	-200.000	-0.005	-0.230
-185.114	-200.000	-0.047	0.334
-184.100	800.000	0.104	0.346
-183.085	-13.032	-0.126	-0.081
-182.071	113.686	-0.120	0.143
-181.056	462.651	-0.148	0.325
-180.042	800.000	-0.066	0.189
-179.027	-123.655	0.027	0.004
-178.012	800.000	0.020	0.076
-176.998	-101.268	-0.193	0.046
-175.983	280.743	0.089	0.156
-174.969	408.792	0.009	0.018
-173.954	-77.562	0.264	0.090
-172.939	173.081	-0.119	0.169
-171.925	385.868	0.115	0.233
-170.910	70.902	-0.146	-0.148
-169.896	-4.461	0.071	-0.048
-168.881	-8.711	-0.158	-0.104
-167.866	-200.000	-0.002	-0.208
-166.852	-73.301	-0.184	-0.066
-165.837	95.687	0.086	0.096
-164.823	800.000	-0.041	0.155
-163.808	-9.121	-0.247	-0.162
-162.793	-131.213	0.197	-0.026
-161.779	-139.260	-0.285	-0.030
-160.764	-120.048	0.275	0.046
-159.750	427.198	-0.145	-0.307
-158.735	-8.006	-0.171	0.113
-157.720	199.939	0.119	0.179
-156.706	-101.648	-0.188	-0.045
-155.691	38.994	0.373	-0.327
-154.677	-76.669	0.260	0.089
-153.662	-200.000	-0.025	0.356
-152.647	-152.677	0.157	-0.011
-151.633	8.110	-0.435	-0.320
-150.618	149.881	0.220	0.293
-149.604	-53.293	0.324	-0.146
-148.589	800.000	-0.097	0.290
-147.574	36.128	0.126	-0.109
-146.560	-33.648	0.129	0.070
-145.545	800.000	0.135	0.445
-144.531	243.196	0.131	0.216
-143.516	20.171	-0.124	-0.098
-142.502	-200.000	0.013	-0.231
-141.487	-136.008	-0.576	-0.066
-140.472	96.450	-0.110	0.123
-139.458	-62.834	0.356	0.144
-138.443	800.000	-0.074	0.250
-137.429	51.760	-0.274	0.255
-136.414	-105.020	-0.247	-0.055
-135.399	-146.520	-0.551	-0.047
-134.385	20.061	-0.170	-0.134
-133.370	-200.000	-0.007	0.446
-132.356	187.903	-0.176	0.258
-131.341	46.305	-0.395	0.358
-130.326	800.000	-0.012	-0.049
-129.312	-153.079	-0.142	-0.010
-128.297	-39.159	0.163	0.084
-127.283	-200.000	0.023	0.188
-126.268	441.452	0.081	-0.173
-125.253	-58.272	0.288	-0.123
-124.239	70.796	-0.059	-0.060
-123.224	252.638	0.077	-0.129
-122.210	205.722	0.038	-0.057
