DTS Sentinel unit serial number:	SN413079Multiplexer serial number:	ORYXHardware model number:	OX4-SRSoftware version number:	ORYX F/W v4.00 Oryx Data Collector v3.7.2.0data status	okinstallation	princeton_trtdifferential loss correction	single-endedforward channel	channel 3reverse channel	N/Adate	2019/09/15time	02:40:34forward acquisition time	60.00reverse acquisition time	0.00gamma	496.2192k internal	0.2322k external	0.2322temperature offset calibration	0.9967default loss term (dB/km)	0.3790temperature slope calibration	1.0000multiplexer offset coefficient	1.0000multiplexer slope coefficient	1.0000fibre end	0.00T internal ref (°C)	31.42T ext. ref 1 (°C)	4.57T ext. ref 2 (°C)	25.84length (m)	temperature (°C)	Stokes	anti-Stokes-747.200	-52.015	0.131	0.062
-746.185	-25.807	-0.383	0.228
-745.171	52.648	0.276	0.267
-744.156	-200.000	0.020	0.254
-743.142	-73.264	0.308	0.114
-742.127	-48.909	-0.157	-0.076
-741.112	-181.767	0.389	0.008
-740.098	800.000	0.092	0.298
-739.083	18.153	0.259	-0.209
-738.069	-200.000	-0.013	-0.167
-737.054	-52.158	-0.181	-0.085
-736.039	-37.209	-0.141	-0.076
-735.025	547.586	0.136	0.329
-734.010	299.240	0.033	0.062
-732.996	16.602	-0.085	-0.068
-731.981	93.576	-0.273	-0.313
-730.966	800.000	-0.041	-0.146
-729.952	-94.573	-0.219	-0.060
-728.937	-156.190	0.147	0.009
-727.923	-38.293	-0.154	-0.083
-726.908	-93.415	-0.203	0.057
-725.894	-70.766	-0.218	0.083
-724.879	-200.000	0.032	0.257
-723.864	-200.000	-0.026	0.133
-722.850	54.358	0.174	0.169
-721.835	67.948	-0.317	-0.327
-720.821	-36.962	0.110	0.060
-719.806	800.000	-0.053	-0.170
-718.791	800.000	0.035	0.123
-717.777	-65.204	0.444	0.181
-716.762	62.789	-0.297	-0.300
-715.748	-200.000	0.028	0.294
-714.733	-200.000	0.035	-0.413
-713.718	-200.000	0.019	0.363
-712.704	-93.727	0.375	-0.104
-711.689	-200.000	0.011	-0.172
-710.675	36.418	-0.162	0.144
-709.660	51.941	0.204	-0.196
-708.645	-200.000	-0.010	-0.063
-707.631	158.717	-0.141	-0.198
-706.616	-200.000	0.058	-0.264
-705.602	-14.832	0.346	-0.224
-704.587	20.648	0.176	-0.143
-703.572	800.000	0.093	-0.292
-702.558	114.144	-0.202	-0.248
-701.543	-52.363	0.231	-0.108
-700.529	608.627	0.119	-0.299
-699.514	425.500	-0.183	0.398
-698.499	800.000	0.012	-0.043
-697.485	414.544	-0.246	-0.529
-696.470	207.934	0.158	-0.249
-695.456	-106.999	-0.168	-0.037
-694.441	235.717	0.121	-0.202
-693.426	800.000	-0.091	-0.263
-692.412	-93.801	-0.363	-0.101
-691.397	8.716	0.415	-0.315
-690.383	99.553	0.053	0.062
-689.368	-56.597	0.146	-0.065
-688.354	-68.246	-0.078	-0.030
-687.339	203.379	-0.142	0.221
-686.324	63.273	-0.066	0.067
-685.310	25.052	-0.109	0.091
-684.295	307.183	-0.089	0.168
-683.281	266.193	-0.105	-0.184
-682.266	-74.170	-0.334	-0.122
-681.251	-92.821	0.432	-0.122
-680.237	-36.119	-0.086	-0.047
-679.222	-107.546	0.061	-0.013
-678.208	-200.000	-0.055	-0.381
-677.193	800.000	-0.025	-0.102
-676.178	-55.421	-0.271	0.122
-675.164	-110.333	-0.098	-0.021
-674.149	100.231	0.342	-0.400
-673.135	-24.878	0.037	0.022
-672.120	-167.465	0.470	0.019
-671.105	366.543	0.071	0.144
-670.091	269.159	0.093	-0.164
-669.076	800.000	0.047	0.203
-668.062	179.164	-0.195	0.287
-667.047	-107.737	0.148	0.032
-666.032	-200.000	0.002	0.212
-665.018	76.955	0.115	-0.123
-664.003	-139.417	-0.086	0.009
-662.989	-147.213	0.470	-0.040
-661.974	800.000	0.024	0.086
-660.959	-188.276	-0.441	0.006
-659.945	39.252	0.127	-0.114
-658.930	264.520	-0.177	-0.310
-657.916	221.586	-0.147	0.238
-656.901	-139.265	-0.171	0.019
-655.886	-200.000	-0.045	0.436
-654.872	-125.060	-0.284	-0.044
-653.857	94.519	0.083	-0.095
-652.843	-158.764	-0.201	0.012
-651.828	-200.000	0.025	-0.243
-650.814	584.758	-0.076	-0.187
-649.799	33.004	0.238	-0.208
-648.784	-177.752	-0.348	0.008
-647.770	-40.817	0.313	-0.163
-646.755	800.000	-0.072	-0.243
-645.741	-200.000	0.021	-0.150
-644.726	226.615	-0.092	-0.150
-643.711	-200.000	-0.031	-0.142
-642.697	800.000	-0.146	-0.424
-641.682	212.765	-0.148	0.235
-640.668	-51.722	-0.258	-0.121
-639.653	204.676	0.130	0.204
-638.638	-200.000	-0.049	-0.243
-637.624	-200.000	-0.008	0.074
-636.609	-200.000	-0.000	-0.107
-635.595	-55.264	0.314	0.142
-634.580	196.857	0.159	0.245
-633.565	-64.067	0.514	-0.211
-632.551	57.551	-0.180	0.177
-631.536	13.965	-0.156	-0.122
-630.522	800.000	0.015	-0.060
-629.507	-200.000	0.005	0.186
-628.492	-95.118	-0.504	0.137
-627.478	-200.000	0.005	-0.109
-626.463	57.925	-0.234	0.230
-625.449	165.942	0.227	-0.322
-624.434	800.000	0.110	-0.395
-623.419	-43.751	0.315	-0.160
-622.405	266.279	-0.146	0.256
-621.390	-79.438	0.102	-0.035
-620.376	-120.310	-0.277	-0.047
-619.361	27.901	-0.216	0.183
-618.346	-200.000	0.028	0.191
-617.332	-22.618	-0.294	0.179
-616.317	-100.989	-0.289	0.071
-615.303	-90.591	-0.285	0.083
-614.288	336.674	-0.045	0.087
-613.273	157.950	0.036	-0.050
-612.259	-94.252	-0.221	-0.061
-611.244	101.321	0.162	0.190
-610.230	9.890	0.150	-0.114
-609.215	-200.000	-0.040	0.213
-608.201	42.302	-0.324	0.296
-607.186	-29.418	0.300	-0.172
-606.171	-200.000	-0.015	-0.328
-605.157	224.693	0.077	-0.125
-604.142	-200.000	-0.011	-0.152
-603.128	-19.742	-0.277	-0.172
-602.113	240.374	0.101	-0.169
-601.098	602.416	0.099	-0.248
-600.084	-137.002	0.300	0.035
-599.069	22.359	0.017	0.014
-598.055	-30.579	-0.207	-0.118
-597.040	30.022	0.174	-0.149
-596.025	-200.000	0.067	-0.360
-595.011	-183.951	-0.221	-0.004
-593.996	789.215	0.031	-0.086
-592.982	-200.000	0.076	0.403
-591.967	4.589	-0.161	-0.118
-590.952	-200.000	-0.041	0.200
-589.938	800.000	0.111	0.444
-588.923	-100.783	0.356	0.088
-587.909	-92.204	0.239	0.068
-586.894	508.123	-0.172	-0.402
-585.879	574.454	-0.061	-0.149
-584.865	-200.000	-0.080	-0.375
-583.850	-16.932	0.238	-0.151
-582.836	117.694	0.112	-0.139
-581.821	-21.735	0.060	-0.037
-580.806	-189.947	-0.120	-0.001
-579.792	338.912	-0.031	0.061
-578.777	-109.195	-0.236	0.050
-577.763	253.410	0.085	0.146
-576.748	-13.385	0.133	-0.086
-575.733	497.126	-0.029	0.066
-574.719	-170.127	-0.180	-0.006
-573.704	359.259	0.059	-0.118
-572.690	-25.298	-0.409	0.243
-571.675	120.465	-0.068	0.084
-570.661	221.003	-0.184	-0.296
-569.646	-154.881	-0.056	-0.004
-568.631	-200.000	-0.062	-0.292
-567.617	756.845	-0.046	0.125
-566.602	-60.637	0.121	-0.051
-565.588	620.370	0.055	-0.139
-564.573	-129.017	0.264	0.037
-563.558	800.000	0.066	0.196
-562.544	17.858	-0.088	0.070
-561.529	-3.722	0.155	0.108
-560.515	146.156	-0.407	-0.548
-559.500	204.964	0.121	-0.188
-558.485	-136.946	0.138	-0.016
-557.471	170.307	0.123	-0.177
-556.456	100.523	-0.018	0.021
-555.442	-118.176	-0.339	0.061
-554.427	103.487	-0.144	-0.170
-553.412	-23.522	0.325	-0.196
-552.398	-13.813	0.103	-0.067
-551.383	73.020	0.198	0.207
-550.369	-83.992	-0.094	0.030
-549.354	-200.000	-0.018	-0.082
-548.339	261.565	0.206	-0.358
-547.325	40.256	-0.149	-0.134
-546.310	-200.000	-0.003	0.084
-545.296	355.472	0.073	0.145
-544.281	19.524	0.175	0.141
-543.266	-9.556	-0.094	0.063
-542.252	-200.000	0.078	-0.371
-541.237	275.271	-0.043	-0.077
-540.223	637.730	-0.159	0.406
-539.208	-81.518	0.332	-0.109
-538.193	93.513	0.076	0.086
-537.179	89.943	-0.080	0.089
-536.164	349.528	0.215	0.426
-535.150	53.458	0.187	-0.179
-534.135	-200.000	-0.008	-0.104
-533.121	800.000	-0.043	0.156
-532.106	-200.000	0.010	-0.082
-531.091	800.000	0.038	0.115
-530.077	124.862	-0.128	-0.162
-529.062	271.038	-0.108	-0.191
-528.048	-56.861	0.030	0.013
-527.033	40.716	-0.055	-0.049
-526.018	482.835	-0.083	0.188
-525.004	-200.000	-0.004	0.175
-523.989	126.788	-0.122	-0.155
-522.975	-54.718	0.262	0.118
-521.960	-141.003	0.242	0.025
-520.945	-27.402	-0.354	-0.206
-519.931	-157.504	-0.057	-0.003
-518.916	-36.336	0.035	0.019
-517.902	-119.914	-0.149	0.026
-516.887	-121.098	0.282	0.047
-515.872	800.000	-0.050	-0.207
-514.858	-87.009	0.327	-0.100
-513.843	-37.480	-0.263	0.141
-512.829	-118.537	0.152	-0.027
-511.814	-108.018	0.214	0.046
-510.799	90.402	-0.174	0.195
-509.785	800.000	0.036	0.157
-508.770	-200.000	0.060	0.483
-507.756	136.708	-0.124	-0.162
-506.741	8.289	0.154	0.116
-505.726	131.581	-0.072	-0.092
-504.712	-67.340	0.182	-0.071
-503.697	-110.260	-0.224	-0.047
-502.683	250.011	-0.136	0.232
-501.668	62.029	-0.087	0.087
-500.653	-200.000	0.042	0.405
-499.639	141.739	-0.159	0.211
-498.624	-200.000	0.035	0.205
-497.610	-2.196	0.204	-0.143
-496.595	-200.000	-0.029	-0.127
-495.581	174.359	0.066	-0.096
-494.566	-87.069	0.136	-0.041
-493.551	-83.821	0.123	0.039
-492.537	415.426	0.137	0.293
-491.522	49.145	0.103	-0.097
-490.508	-74.052	-0.362	-0.131
-489.493	55.380	-0.157	-0.152
-488.478	353.869	0.166	-0.329
-487.464	352.023	0.115	-0.227
-486.449	264.303	-0.127	0.220
-485.435	53.855	-0.134	0.129
-484.420	173.636	0.267	-0.385
-483.405	112.132	0.169	0.204
-482.391	-103.061	0.143	0.034
-481.376	-46.262	0.148	-0.073
-480.362	44.029	-0.101	0.092
-479.347	88.771	-0.150	-0.166
-478.332	350.684	-0.028	-0.056
-477.318	-66.701	0.116	-0.046
-476.303	271.837	-0.144	-0.253
-475.289	-129.452	0.188	0.026
-474.274	-20.711	0.090	0.055
-473.259	-200.000	-0.010	-0.133
-472.245	-95.153	-0.190	-0.051
-471.230	-78.810	-0.068	-0.023
-470.216	12.491	0.154	-0.119
-469.201	17.473	-0.208	0.165
-468.186	118.100	0.144	0.178
-467.172	630.670	0.092	-0.232
-466.157	800.000	0.033	-0.118
-465.143	800.000	-0.004	0.017
-464.128	-87.445	0.372	0.113
-463.113	683.039	-0.076	0.199
-462.099	-200.000	-0.069	0.500
-461.084	-181.604	-0.206	0.004
-460.070	46.146	0.197	-0.182
-459.055	62.895	-0.062	-0.062
-458.040	48.134	0.154	-0.144
-457.026	-200.000	-0.000	-0.620
-456.011	-73.189	-0.310	-0.113
-454.997	800.000	0.009	-0.026
-453.982	22.670	0.168	0.137
-452.968	-200.000	0.068	0.302
-451.953	-200.000	-0.025	-0.112
-450.938	-86.051	0.259	0.080
-449.924	-130.023	-0.247	-0.034
-448.909	-200.000	0.045	0.209
-447.895	800.000	0.050	0.160
-446.880	370.279	0.282	0.571
-445.865	776.720	0.024	-0.066
-444.851	-200.000	0.039	0.239
-443.836	276.561	0.196	-0.348
-442.822	800.000	-0.087	0.298
-441.807	82.429	-0.114	-0.124
-440.792	-111.521	-0.108	0.022
-439.778	-200.000	0.038	0.223
-438.763	800.000	-0.024	-0.098
-437.749	-114.133	0.237	0.046
-436.734	-200.000	0.051	-0.282
-435.719	-16.711	-0.231	-0.146
-434.705	-157.957	0.115	0.007
-433.690	-200.000	0.003	0.090
-432.676	117.007	-0.117	0.144
-431.661	-190.717	0.210	-0.002
-430.646	267.833	0.037	-0.065
-429.632	192.474	0.099	-0.149
-428.617	-200.000	0.060	0.382
-427.603	87.863	0.027	0.030
-426.588	-166.421	0.028	0.001
-425.573	96.582	0.208	-0.238
-424.559	-18.083	-0.190	0.119
-423.544	800.000	-0.047	-0.199
-422.530	-200.000	0.002	0.237
-421.515	-200.000	-0.019	0.243
-420.500	314.946	-0.094	0.178
-419.486	-155.551	-0.090	0.006
-418.471	97.108	0.066	-0.076
-417.457	800.000	-0.123	-0.487
-416.442	800.000	-0.057	-0.244
-415.428	800.000	0.018	-0.057
-414.413	94.399	0.150	-0.170
-413.398	800.000	0.068	-0.209
-412.384	-82.583	0.403	0.130
-411.369	75.005	-0.130	0.136
-410.355	-51.211	-0.107	0.050
-409.340	90.854	0.299	0.335
-408.325	800.000	-0.047	-0.144
-407.311	-73.116	-0.097	-0.036
-406.296	43.129	0.197	0.179
-405.282	-75.682	-0.307	0.109
-404.267	85.852	0.157	-0.173
-403.252	-40.310	0.316	0.164
-402.238	-200.000	0.023	-0.370
-401.223	-200.000	-0.012	0.256
-400.209	58.015	-0.149	-0.145
-399.194	-200.000	0.102	-0.000
-398.179	-117.520	-0.184	-0.033
-397.165	7.705	0.122	-0.091
-396.150	-54.798	0.289	0.130
-395.136	-200.000	-0.020	-0.507
-394.121	-25.949	-0.031	-0.018
-393.106	800.000	-0.074	-0.244
-392.092	800.000	0.057	0.191
-391.077	-62.363	0.168	-0.070
-390.063	-2.276	-0.294	0.206
-389.048	389.114	-0.167	-0.345
-388.033	-37.448	-0.115	-0.061
-387.019	-8.034	-0.064	0.043
-386.004	82.064	0.090	-0.097
-384.990	-200.000	-0.020	0.244
-383.975	207.317	0.097	-0.150
-382.960	-0.618	0.242	0.171
-381.946	-182.544	-0.139	-0.003
-380.931	-200.000	-0.036	0.353
-379.917	-102.851	-0.337	0.080
-378.902	800.000	0.059	-0.180
-377.888	334.197	0.044	-0.084
-376.873	91.843	0.037	-0.041
-375.858	189.721	-0.137	0.204
-374.844	800.000	0.009	-0.034
-373.829	-24.151	0.122	0.073
-372.815	-48.731	0.156	-0.074
-371.800	-200.000	-0.059	0.271
-370.785	-177.862	-0.204	0.005
-369.771	-136.869	-0.318	-0.036
-368.756	-108.728	0.170	-0.036
-367.742	1.556	-0.158	0.113
-366.727	680.652	0.082	0.213
-365.712	-78.224	0.346	0.118
-364.698	-125.286	-0.258	-0.039
-363.683	62.616	-0.089	-0.088
-362.669	-51.593	-0.216	-0.100
-361.654	-154.336	-0.055	0.004
-360.639	-132.401	0.172	0.022
-359.625	490.867	0.110	0.251
-358.610	-97.545	-0.170	-0.044
-357.596	91.226	-0.181	0.202
-356.581	800.000	-0.021	-0.087
-355.566	-141.846	0.220	0.022
-354.552	13.882	-0.170	-0.132
-353.537	-51.907	-0.252	0.117
-352.523	-135.507	-0.163	-0.019
-351.508	63.266	0.048	0.048
-350.493	-200.000	-0.035	-0.211
-349.479	-13.269	0.123	0.079
-348.464	-21.213	-0.167	-0.102
-347.450	159.002	-0.164	0.227
-346.435	-200.000	0.022	0.163
-345.420	800.000	0.099	-0.331
-344.406	-179.147	-0.401	-0.009
-343.391	-83.708	-0.217	0.069
-342.377	175.425	0.062	-0.089
-341.362	484.758	-0.046	-0.105
-340.348	-103.811	-0.215	0.050
-339.333	156.936	0.033	-0.045
-338.318	-55.350	-0.022	0.010
-337.304	-200.000	0.016	-0.124
-336.289	800.000	-0.098	0.273
-335.275	-77.121	-0.121	0.042
-334.260	-169.988	0.242	0.009
-333.245	5.975	0.400	0.294
-332.231	800.000	-0.078	-0.220
-331.216	-177.547	0.349	-0.008
-330.202	800.000	-0.063	0.216
-329.187	800.000	-0.146	0.489
-328.172	-49.408	-0.245	0.116
-327.158	-23.913	0.356	-0.212
-326.143	-53.646	0.474	0.215
-325.129	-113.361	-0.236	0.046
-324.114	87.190	-0.262	0.288
-323.099	-43.144	0.271	-0.137
-322.085	-35.110	-0.035	-0.019
-321.070	-200.000	-0.015	-0.178
-320.056	-198.263	-0.409	0.002
-319.041	-80.480	0.331	0.110
-318.026	-21.378	0.140	0.085
-317.012	-120.625	-0.221	0.037
-315.997	150.401	0.185	-0.249
-314.983	374.312	0.002	0.004
-313.968	-128.469	-0.105	0.015
-312.953	-2.043	0.299	0.209
-311.939	25.273	0.082	0.067
-310.924	393.463	0.036	0.074
-309.910	254.818	0.156	-0.265
-308.895	-200.000	0.057	-0.250
-307.880	112.168	-0.079	-0.095
-306.866	-200.000	0.030	-0.190
-305.851	-200.000	0.018	0.171
-304.837	-76.626	-0.327	0.114
-303.822	800.000	-0.113	-0.369
-302.807	-72.575	0.212	-0.078
-301.793	-60.112	0.385	0.163
-300.778	513.234	0.070	0.163
-299.764	-200.000	-0.017	-0.408
-298.749	800.000	0.080	-0.308
-297.735	-83.451	0.314	0.100
-296.720	395.170	-0.062	0.129
-295.705	800.000	0.102	-0.322
-294.691	-54.671	-0.043	-0.019
-293.676	43.523	0.119	0.108
-292.662	-200.000	0.037	-0.328
-291.647	-64.563	0.236	0.095
-290.632	-1.913	0.421	0.294
-289.618	-139.353	0.303	-0.032
-288.603	344.967	0.156	-0.304
-287.589	-200.000	-0.008	-0.146
-286.574	-132.848	-0.174	0.022
-285.559	441.026	-0.170	-0.370
-284.545	-98.857	0.161	0.041
-283.530	236.418	0.103	0.168
-282.516	112.780	0.204	0.246
-281.501	-200.000	-0.365	-0.001
-280.486	-160.791	-0.299	0.016
-279.472	-200.000	-0.006	0.094
-278.457	11.629	-0.093	0.071
-277.443	2.256	-0.148	-0.106
-276.428	-200.000	-0.013	-0.191
-275.413	-200.000	-0.014	0.211
-274.399	-123.100	0.196	0.031
-273.384	-70.586	0.087	0.033
-272.370	20.146	-0.220	0.176
-271.355	522.945	-0.119	-0.278
-270.340	800.000	0.044	-0.160
-269.326	382.410	0.118	0.240
-268.311	-28.310	0.039	-0.023
-267.297	37.450	-0.160	-0.141
-266.282	800.000	-0.033	0.094
-265.267	572.138	-0.156	0.377
-264.253	-200.000	-0.013	0.293
-263.238	22.891	-0.329	-0.267
-262.224	-76.012	-0.093	-0.032
-261.209	-200.000	-0.001	0.443
-260.195	207.911	0.071	-0.109
-259.180	20.511	0.271	0.217
-258.165	457.613	0.101	0.222
-257.151	-49.442	-0.204	-0.096
-256.136	-152.460	0.402	0.029
-255.122	46.169	0.350	0.321
-254.107	800.000	0.049	0.190
-253.092	-200.000	0.098	0.629
-252.078	39.213	-0.109	-0.096
-251.063	-200.000	0.124	-0.000
-250.049	-200.000	-0.003	-0.132
-249.034	9.209	-0.078	0.058
-248.019	-200.000	-0.038	-0.207
-247.005	-71.604	-0.214	-0.079
-245.990	-51.196	-0.268	0.124
-244.976	-138.445	-0.211	-0.023
-243.961	-200.000	0.031	0.358
-242.946	-1.151	-0.385	0.270
-241.932	-200.000	0.022	-0.154
-240.917	272.492	0.033	-0.058
-239.903	800.000	-0.060	0.226
-238.888	-28.426	0.252	-0.144
-237.873	314.354	-0.097	-0.181
-236.859	-152.881	0.652	0.046
-235.844	27.833	-0.284	0.237
-234.830	800.000	-0.088	0.309
-233.815	10.166	-0.216	0.162
-232.800	-56.356	0.210	-0.092
-231.786	-200.000	-0.000	-0.045
-230.771	-200.000	0.047	-0.238
-229.757	-174.661	-0.215	0.006
-228.742	703.501	-0.127	0.332
-227.727	-92.099	0.285	0.080
-226.713	193.332	-0.138	0.206
-225.698	-37.527	0.203	-0.107
-224.684	-185.252	-0.233	-0.004
-223.669	-114.622	-0.205	0.039
-222.655	-104.164	-0.053	-0.012
-221.640	539.155	-0.101	-0.237
-220.625	204.085	-0.047	-0.072
-219.611	57.561	-0.140	-0.136
-218.596	800.000	0.026	-0.084
-217.582	-200.000	-0.047	-0.382
-216.567	-40.668	-0.166	0.085
-215.552	-200.000	-0.001	-0.104
-214.538	-24.517	-0.046	-0.027
-213.523	-48.620	-0.317	0.151
-212.509	78.645	-0.173	-0.183
-211.494	-128.592	-0.203	-0.028
-210.479	-140.441	-0.449	0.046
-209.465	-181.248	0.047	-0.001
-208.450	95.886	0.184	-0.208
-207.436	13.270	-0.089	0.068
-206.421	-2.429	0.320	-0.222
-205.406	-84.743	-0.191	0.060
-204.392	-173.550	-0.149	0.004
-203.377	79.554	-0.022	-0.023
-202.363	-200.000	0.046	0.221
-201.348	-113.972	0.206	0.039
-200.333	-200.000	-0.003	-0.267
-199.319	-200.000	0.013	0.101
-198.304	88.400	-0.064	0.070
-197.290	-146.283	0.287	0.025
-196.275	800.000	0.102	0.302
-195.260	204.841	-0.128	0.197
-194.246	440.619	-0.101	-0.218
-193.231	-200.000	-0.021	-0.262
-192.217	-103.356	0.120	-0.028
-191.202	-200.000	0.030	-0.299
-190.187	-5.359	0.337	0.229
-189.173	221.244	0.036	-0.058
-188.158	800.000	-0.040	0.119
-187.144	39.426	-0.339	0.301
-186.129	378.711	0.087	0.175
-185.114	-92.806	0.124	0.034
-184.100	800.000	-0.017	-0.063
-183.085	-101.338	0.130	-0.031
-182.071	-200.000	0.081	-0.639
-181.056	-21.110	-0.121	0.073
-180.042	32.476	0.177	0.151
-179.027	-118.468	-0.152	-0.027
-178.012	-200.000	-0.047	0.472
-176.998	446.916	-0.089	0.194
-175.983	800.000	0.007	0.027
-174.969	-200.000	0.014	0.158
-173.954	-68.172	-0.182	0.070
-172.939	800.000	-0.068	-0.198
-171.925	73.391	0.086	0.089
-170.910	-92.495	-0.277	-0.077
-169.896	114.534	-0.030	0.036
-168.881	1.780	0.263	-0.187
-167.866	-33.822	0.311	-0.170
-166.852	386.756	0.069	-0.140
-165.837	-63.408	-0.258	-0.105
-164.823	-145.415	-0.177	0.016
-163.808	60.158	-0.269	0.262
-162.793	52.030	0.185	0.174
-161.779	-200.000	0.059	0.457
-160.764	-200.000	0.014	0.233
-159.750	239.072	-0.067	-0.110
-158.735	54.148	0.124	0.118
-157.720	-63.793	-0.139	0.056
-156.706	-84.991	-0.338	-0.105
-155.691	-200.000	0.007	0.046
-154.677	-68.653	-0.170	-0.065
-153.662	800.000	0.137	-0.444
-152.647	800.000	-0.077	-0.235
-151.633	-33.812	0.152	-0.082
-150.618	800.000	-0.098	0.335
-149.604	7.842	0.168	0.124
-148.589	37.962	-0.222	-0.194
-147.574	-78.746	0.113	-0.038
-146.560	-200.000	-0.062	-0.285
-145.545	-108.752	0.213	0.045
-144.531	425.041	0.086	-0.182
-143.516	-65.355	-0.134	0.053
-142.502	-200.000	-0.051	0.263
-141.487	429.353	0.046	-0.098
-140.472	142.964	-0.063	0.083
-139.458	-194.975	0.119	-0.001
-138.443	115.093	0.120	0.144
-137.429	-200.000	0.024	0.139
-136.414	-26.626	0.049	0.028
-135.399	-158.099	-0.148	0.009
-134.385	-37.704	0.295	-0.155
-133.370	800.000	-0.067	-0.242
-132.356	-163.210	-0.060	-0.003
-131.341	-200.000	-0.038	0.207
-130.326	-77.678	-0.386	-0.132
-129.312	-55.171	0.195	-0.086
-128.297	-43.569	0.281	0.140
-127.283	-7.432	-0.300	-0.200
-126.268	345.744	0.047	0.091
-125.253	388.153	0.109	-0.222
-124.239	156.914	0.265	-0.361
-123.224	274.456	-0.137	0.240
-122.210	70.915	0.105	0.108
