DTS Sentinel unit serial number:	SN413079Multiplexer serial number:	ORYXHardware model number:	OX4-SRSoftware version number:	ORYX F/W v4.00 Oryx Data Collector v3.7.2.0data status	okinstallation	princeton_trtdifferential loss correction	single-endedforward channel	channel 3reverse channel	N/Adate	2019/09/14time	15:04:35forward acquisition time	60.00reverse acquisition time	0.00gamma	496.2192k internal	0.2293k external	0.2293temperature offset calibration	1.0060default loss term (dB/km)	0.3790temperature slope calibration	1.0000multiplexer offset coefficient	1.0000multiplexer slope coefficient	1.0000fibre end	0.00T internal ref (°C)	39.06T ext. ref 1 (°C)	5.07T ext. ref 2 (°C)	34.86length (m)	temperature (°C)	Stokes	anti-Stokes-747.200	-129.965	0.390	-0.055
-746.185	412.803	-0.163	0.354
-745.171	-67.988	0.092	0.037
-744.156	271.291	-0.045	-0.081
-743.142	800.000	0.050	0.192
-742.127	-137.836	0.042	0.005
-741.112	-200.000	-0.037	-0.273
-740.098	-20.763	0.045	0.028
-739.083	800.000	-0.045	-0.187
-738.069	396.717	-0.141	0.301
-737.054	800.000	0.040	-0.140
-736.039	-200.000	0.010	-0.046
-735.025	-200.000	0.046	0.235
-734.010	-126.057	-0.337	-0.052
-732.996	-161.158	-0.244	-0.013
-731.981	800.000	0.047	-0.182
-730.966	-121.044	0.156	-0.027
-729.952	-86.171	-0.380	-0.120
-728.937	149.995	-0.184	-0.255
-727.923	800.000	0.100	-0.367
-726.908	-200.000	-0.004	-0.435
-725.894	62.177	-0.466	-0.475
-724.879	-59.665	-0.362	-0.159
-723.864	800.000	-0.020	-0.071
-722.850	-200.000	-0.027	-0.143
-721.835	-52.456	-0.237	0.112
-720.821	-116.263	0.233	0.044
-719.806	11.554	0.187	0.147
-718.791	32.180	0.246	-0.217
-717.777	-24.764	-0.217	-0.132
-716.762	76.730	-0.167	0.181
-715.748	701.130	-0.073	-0.198
-714.733	800.000	-0.132	0.417
-713.718	-200.000	-0.008	-0.081
-712.704	441.998	-0.024	0.055
-711.689	-32.469	0.070	0.040
-710.675	-200.000	-0.027	-0.311
-709.660	-135.091	0.376	-0.046
-708.645	-54.512	-0.186	0.086
-707.631	55.857	-0.129	-0.127
-706.616	672.217	-0.107	-0.285
-705.602	-200.000	-0.017	0.169
-704.587	-200.000	0.010	-0.341
-703.572	-6.417	-0.210	-0.146
-702.558	-27.103	-0.143	0.085
-701.543	71.857	0.097	-0.103
-700.529	-77.031	0.276	-0.098
-699.514	-200.000	-0.018	-0.106
-698.499	617.642	-0.110	-0.283
-697.485	800.000	0.106	-0.451
-696.470	-200.000	-0.029	-0.275
-695.456	-143.547	0.314	-0.031
-694.441	-200.000	0.000	0.098
-693.426	1.396	-0.066	-0.048
-692.412	46.501	0.146	0.138
-691.397	-100.042	-0.120	-0.031
-690.383	-200.000	0.021	-0.195
-689.368	-200.000	-0.023	0.143
-688.354	-66.513	-0.143	0.058
-687.339	-81.602	-0.330	-0.111
-686.324	-53.738	-0.187	-0.087
-685.310	-60.045	0.257	-0.112
-684.295	-51.386	0.361	0.172
-683.281	-63.397	-0.250	-0.105
-682.266	43.340	0.133	0.124
-681.251	-200.000	-0.023	-0.208
-680.237	-200.000	-0.047	-0.253
-679.222	638.857	-0.089	0.231
-678.208	492.005	-0.200	-0.469
-677.193	-42.793	0.476	0.247
-676.178	800.000	0.097	0.286
-675.164	249.140	0.050	0.086
-674.149	800.000	-0.014	-0.045
-673.135	-145.028	0.183	-0.017
-672.120	19.058	-0.380	-0.311
-671.105	85.038	0.080	-0.089
-670.091	-115.754	-0.367	0.070
-669.076	174.678	-0.152	-0.224
-668.062	-200.000	-0.007	-0.184
-667.047	59.456	-0.140	0.140
-666.032	-90.806	0.321	-0.094
-665.018	130.391	-0.080	-0.105
-664.003	201.365	-0.183	0.288
-662.989	-37.875	-0.075	-0.041
-661.974	-118.113	0.229	-0.042
-660.959	178.070	-0.078	0.116
-659.945	-105.084	0.300	-0.070
-658.930	800.000	0.005	0.021
-657.916	8.399	0.084	0.065
-656.901	-200.000	-0.009	-0.493
-655.886	140.980	-0.113	0.152
-654.872	23.501	-0.154	0.130
-653.857	-105.950	0.022	0.005
-652.843	-44.154	0.300	0.154
-651.828	74.442	0.280	0.300
-650.814	45.344	0.120	0.113
-649.799	378.327	0.150	0.313
-648.784	800.000	0.117	-0.336
-647.770	800.000	0.065	0.223
-646.755	800.000	-0.022	-0.098
-645.741	800.000	-0.060	-0.213
-644.726	-200.000	-0.004	-0.124
-643.711	-147.677	-0.151	0.013
-642.697	109.456	0.082	-0.100
-641.682	-5.458	0.113	-0.079
-640.668	125.762	-0.124	0.159
-639.653	131.935	0.095	-0.125
-638.638	-200.000	0.109	-0.497
-637.624	-200.000	0.057	0.287
-636.609	-43.778	0.130	0.067
-635.595	-118.269	-0.196	0.036
-634.580	-200.000	-0.005	-0.155
-633.565	448.692	0.137	0.308
-632.551	32.137	-0.097	-0.085
-631.536	-146.072	0.206	-0.019
-630.522	124.569	0.152	-0.195
-629.507	106.531	0.144	0.174
-628.492	520.791	-0.066	-0.158
-627.478	264.335	-0.303	-0.537
-626.463	800.000	-0.081	-0.332
-625.449	-84.438	0.059	-0.019
-624.434	13.902	0.132	0.105
-623.419	-55.302	0.177	0.081
-622.405	-128.294	-0.117	0.017
-621.390	-200.000	0.003	0.192
-620.376	79.039	-0.172	-0.188
-619.361	28.790	-0.213	-0.184
-618.346	19.090	0.086	0.070
-617.332	-200.000	0.003	-0.075
-616.317	-76.679	0.369	-0.132
-615.303	-125.728	0.344	-0.053
-614.288	177.510	0.072	-0.107
-613.273	186.957	-0.111	0.168
-612.259	-92.675	0.225	-0.064
-611.244	-180.183	0.320	0.007
-610.230	-200.000	0.044	-0.324
-609.215	-159.425	-0.091	-0.005
-608.201	800.000	-0.078	-0.332
-607.186	-200.000	-0.065	-0.329
-606.171	-157.054	0.387	-0.024
-605.157	800.000	-0.060	-0.203
-604.142	42.038	-0.122	-0.113
-603.128	800.000	0.017	-0.075
-602.113	-42.857	0.166	-0.086
-601.098	-200.000	-0.025	-0.129
-600.084	-200.000	0.006	0.451
-599.069	-200.000	-0.012	0.230
-598.055	800.000	-0.071	-0.230
-597.040	-200.000	-0.010	-0.097
-596.025	-58.441	0.165	-0.073
-595.011	42.019	-0.144	-0.133
-593.996	-83.962	0.497	-0.161
-592.982	-102.809	-0.316	0.077
-591.967	118.076	0.163	0.205
-590.952	143.403	0.117	0.159
-589.938	-80.815	-0.287	0.097
-588.923	446.660	0.073	-0.164
-587.909	529.538	-0.111	-0.267
-586.894	30.563	-0.055	-0.048
-585.879	-156.311	0.284	0.018
-584.865	39.857	0.177	-0.162
-583.850	-157.377	-0.291	0.018
-582.836	-33.642	-0.095	0.053
-581.821	-74.188	-0.256	-0.094
-580.806	-76.458	0.122	-0.043
-579.792	58.232	-0.129	-0.128
-578.777	-56.050	-0.184	-0.083
-577.763	545.479	-0.122	0.296
-576.748	800.000	0.026	0.111
-575.733	243.360	0.053	0.090
-574.719	6.818	-0.147	0.112
-573.704	800.000	-0.028	0.120
-572.690	-132.558	0.209	-0.027
-571.675	620.814	0.114	-0.292
-570.661	140.648	0.094	0.126
-569.646	-181.423	0.150	0.003
-568.631	-14.384	-0.193	0.127
-567.617	-200.000	0.023	-0.219
-566.602	-50.290	-0.400	-0.192
-565.588	-61.092	-0.278	0.119
-564.573	-162.391	-0.531	-0.027
-563.558	724.711	0.008	0.022
-562.544	-67.818	0.056	-0.022
-561.529	-200.000	-0.003	-0.186
-560.515	800.000	-0.063	-0.178
-559.500	188.770	-0.157	-0.239
-558.485	-31.296	0.156	-0.089
-557.471	12.828	0.068	-0.054
-556.456	-107.019	0.098	-0.022
-555.442	390.302	0.025	-0.052
-554.427	-38.110	0.116	0.062
-553.412	800.000	-0.112	0.387
-552.398	-200.000	-0.003	-0.043
-551.383	-49.879	-0.260	0.125
-550.369	800.000	-0.050	0.142
-549.354	-200.000	-0.066	0.355
-548.339	16.845	-0.096	-0.077
-547.325	266.454	0.027	-0.048
-546.310	800.000	-0.068	0.214
-545.296	-39.080	-0.203	0.109
-544.281	-200.000	0.026	0.204
-543.266	22.133	0.236	-0.195
-542.252	-111.316	-0.112	-0.023
-541.237	-191.875	-0.061	0.001
-540.223	-81.073	0.140	-0.047
-539.208	-49.583	0.183	-0.088
-538.193	-50.055	-0.073	-0.035
-537.179	-200.000	-0.006	-0.130
-536.164	800.000	0.083	-0.340
-535.150	48.143	-0.216	-0.205
-534.135	800.000	0.029	0.105
-533.121	800.000	-0.054	0.186
-532.106	494.949	-0.106	-0.248
-531.091	-46.954	-0.262	-0.130
-530.077	277.502	0.054	0.097
-529.062	800.000	-0.060	-0.216
-528.048	-100.316	0.026	0.006
-527.033	-106.462	0.014	0.003
-526.018	-77.035	0.498	-0.176
-525.004	614.461	0.185	-0.471
-523.989	-103.023	0.329	-0.079
-522.975	-0.030	0.193	-0.139
-521.960	-147.591	-0.230	0.020
-520.945	-57.876	-0.394	-0.175
-519.931	-31.918	-0.245	0.139
-518.916	64.728	0.050	-0.051
-517.902	-143.384	-0.348	-0.034
-516.887	-200.000	0.025	-0.137
-515.872	48.619	0.331	-0.314
-514.858	-40.347	-0.128	-0.067
-513.843	-26.714	-0.291	-0.173
-512.829	144.034	-0.162	0.219
-511.814	182.970	-0.042	-0.062
-510.799	800.000	-0.013	-0.054
-509.785	800.000	-0.064	-0.188
-508.770	335.218	0.132	-0.260
-507.756	65.710	0.130	-0.134
-506.741	72.390	0.349	0.369
-505.726	-27.850	0.089	-0.052
-504.712	-80.150	-0.090	0.030
-503.697	68.236	0.085	-0.088
-502.683	35.893	-0.188	-0.167
-501.668	-46.153	0.325	0.162
-500.653	-200.000	0.033	0.462
-499.639	-87.403	-0.038	-0.012
-498.624	-111.124	-0.200	-0.042
-497.610	144.223	0.215	-0.290
-496.595	296.449	-0.030	-0.056
-495.581	464.066	0.128	-0.289
-494.566	-8.419	0.241	0.164
-493.551	-98.225	0.392	0.102
-492.537	179.461	0.103	-0.153
-491.522	-66.391	0.083	0.033
-490.508	-145.895	-0.028	0.003
-489.493	800.000	0.022	-0.073
-488.478	-200.000	-0.025	0.226
-487.464	-37.254	-0.265	-0.143
-486.449	610.147	0.173	-0.437
-485.435	-200.000	-0.023	-0.174
-484.420	18.953	-0.348	-0.283
-483.405	-200.000	-0.010	-0.123
-482.391	-53.325	-0.410	-0.190
-481.376	-200.000	-0.024	0.210
-480.362	-200.000	-0.006	-0.149
-479.347	612.417	-0.120	0.303
-478.332	-20.408	-0.230	0.143
-477.318	-1.236	-0.254	0.181
-476.303	800.000	-0.136	0.462
-475.289	-200.000	-0.004	0.075
-474.274	-200.000	-0.008	-0.108
-473.259	-174.462	0.371	-0.011
-472.245	748.496	0.103	0.280
-471.230	-88.657	0.209	0.063
-470.216	-200.000	-0.002	-0.203
-469.201	-82.986	-0.058	0.019
-468.186	-200.000	-0.011	0.151
-467.172	-8.142	0.089	-0.060
-466.157	-99.398	0.127	0.033
-465.143	-27.139	-0.070	0.042
-464.128	32.701	0.210	0.184
-463.113	-131.520	0.427	-0.057
-462.099	660.063	-0.024	-0.063
-461.084	360.743	-0.062	0.125
-460.070	58.548	0.091	-0.091
-459.055	-137.514	-0.493	-0.056
-458.040	-128.291	-0.209	-0.030
-457.026	-200.000	-0.027	-0.240
-456.011	622.309	0.093	0.236
-454.997	-87.058	0.190	0.059
-453.982	-109.704	-0.181	0.038
-452.968	-184.942	0.285	-0.005
-451.953	81.852	0.120	0.131
-450.938	-200.000	-0.060	0.349
-449.924	771.922	0.105	-0.290
-448.909	-70.539	-0.416	-0.159
-447.895	-200.000	-0.007	0.208
-446.880	-12.440	-0.261	-0.173
-445.865	467.555	-0.047	-0.106
-444.851	-200.000	0.087	0.468
-443.836	-142.035	0.218	0.022
-442.822	-5.614	-0.180	-0.125
-441.807	191.179	0.064	-0.097
-440.792	800.000	0.028	0.091
-439.778	-180.769	0.187	-0.004
-438.763	16.705	-0.167	0.134
-437.749	-200.000	0.006	-0.039
-436.734	800.000	-0.054	0.153
-435.719	257.203	-0.148	0.257
-434.705	800.000	0.110	-0.370
-433.690	156.416	0.142	-0.198
-432.676	-200.000	-0.001	0.015
-431.661	1.531	-0.177	-0.129
-430.646	736.901	-0.047	-0.127
-429.632	-200.000	-0.003	0.055
-428.617	74.114	0.060	-0.064
-427.603	-103.529	0.196	0.046
-426.588	12.188	0.084	-0.065
-425.573	-7.157	0.170	-0.116
-424.559	800.000	0.075	0.240
-423.544	800.000	0.018	-0.078
-422.530	-200.000	-0.165	-0.000
-421.515	-41.604	0.022	-0.012
-420.500	-200.000	0.054	0.287
-419.486	-1.048	0.196	0.140
-418.471	102.179	-0.090	-0.107
-417.457	34.030	-0.136	-0.120
-416.442	0.870	-0.123	0.089
-415.428	-88.584	0.290	-0.087
-414.413	4.036	0.158	0.117
-413.398	-90.163	0.135	-0.040
-412.384	-88.551	-0.162	0.049
-411.369	458.976	-0.147	0.331
-410.355	-3.240	0.445	0.313
-409.340	-149.619	0.132	-0.011
-408.325	16.926	0.029	-0.023
-407.311	-98.884	0.227	0.058
-406.296	800.000	-0.080	-0.248
-405.282	-200.000	-0.020	0.115
-404.267	81.122	0.142	0.155
-403.252	23.585	-0.196	0.163
-402.238	800.000	-0.029	0.115
-401.223	-174.671	-0.202	0.006
-400.209	-120.851	0.203	-0.035
-399.194	-67.018	-0.351	0.140
-398.179	266.813	-0.066	0.117
-397.165	190.347	-0.024	0.037
-396.150	-96.816	-0.186	0.049
-395.136	119.299	-0.188	0.235
-394.121	-105.056	-0.354	-0.082
-393.106	-200.000	-0.014	-0.241
-392.092	642.330	-0.078	0.200
-391.077	-200.000	0.016	0.209
-390.063	106.502	0.184	0.221
-389.048	-200.000	-0.051	0.426
-388.033	-6.935	0.142	-0.097
-387.019	52.493	-0.133	-0.128
-386.004	252.633	-0.187	-0.321
-384.990	-200.000	-0.303	0.000
-383.975	96.357	0.200	-0.231
-382.960	800.000	-0.029	-0.098
-381.946	-59.001	0.175	-0.076
-380.931	-106.626	-0.238	-0.053
-379.917	105.754	0.213	-0.255
-378.902	52.573	0.352	0.339
-377.888	800.000	-0.031	0.097
-376.873	72.391	0.070	0.073
-375.858	181.654	-0.121	-0.180
-374.844	114.661	-0.251	0.308
-373.829	800.000	-0.115	0.346
-372.815	-200.000	-0.013	0.258
-371.800	800.000	0.127	0.404
-370.785	-200.000	0.016	-0.413
-369.771	-25.933	0.211	0.125
-368.756	-135.919	0.205	0.024
-367.742	576.928	0.005	-0.012
-366.727	12.795	0.094	-0.073
-365.712	-14.015	-0.336	-0.219
-364.698	160.809	-0.083	0.116
-363.683	-190.468	0.411	0.004
-362.669	-200.000	-0.011	-0.286
-361.654	-90.973	-0.390	0.113
-360.639	-2.540	0.155	0.110
-359.625	-40.626	0.456	0.238
-358.610	-128.131	0.070	0.010
-357.596	101.569	-0.114	-0.133
-356.581	-8.780	0.189	0.128
-355.566	-94.704	0.086	0.024
-354.552	-191.767	0.059	-0.001
-353.537	208.441	-0.056	0.089
-352.523	-126.238	0.310	0.047
-351.508	396.995	-0.116	0.243
-350.493	-200.000	0.004	-0.198
-349.479	672.785	0.081	-0.211
-348.464	-200.000	0.022	-0.136
-347.450	-14.331	-0.181	-0.118
-346.435	40.747	0.181	0.165
-345.420	-49.171	-0.376	0.181
-344.406	22.175	-0.104	-0.086
-343.391	800.000	0.118	0.343
-342.377	208.082	0.043	0.068
-341.362	-200.000	0.001	0.208
-340.348	-53.183	-0.097	-0.045
-339.333	-30.021	0.189	-0.108
-338.318	800.000	-0.076	-0.262
-337.304	243.271	0.074	0.126
-336.289	-123.758	0.116	0.018
-335.275	98.666	-0.383	0.445
-334.260	295.575	0.127	0.235
-333.245	307.659	0.047	0.088
-332.231	-52.316	0.053	-0.025
-331.216	375.539	-0.034	0.070
-330.202	-8.553	-0.152	0.103
-329.187	-200.000	-0.007	0.057
-328.172	95.528	-0.152	0.175
-327.158	-52.407	-0.034	-0.016
-326.143	-200.000	0.003	-0.012
-325.129	15.168	0.172	0.136
-324.114	-55.252	0.221	0.100
-323.099	-114.635	0.124	0.024
-322.085	-200.000	-0.063	0.354
-321.070	-20.012	0.255	0.159
-320.056	73.303	-0.404	-0.426
-319.041	-76.769	0.312	-0.110
-318.026	-200.000	-0.008	0.199
-317.012	108.632	0.091	0.109
-315.997	0.122	0.266	-0.191
-314.983	-17.408	-0.338	-0.214
-313.968	800.000	0.072	-0.292
-312.953	57.917	-0.091	-0.090
-311.939	764.254	0.160	0.436
-310.924	14.403	0.414	0.325
-309.910	-200.000	0.000	-0.066
-308.895	-123.148	0.092	0.015
-307.880	141.723	-0.080	-0.106
-306.866	-200.000	0.014	-0.092
-305.851	-157.837	-0.105	0.006
-304.837	101.023	0.168	-0.197
-303.822	-200.000	0.005	0.103
-302.807	520.675	0.048	-0.114
-301.793	-101.872	-0.150	0.036
-300.778	-31.549	0.384	0.217
-299.764	-200.000	0.012	0.163
-298.749	-200.000	-0.030	-0.189
-297.735	-73.892	-0.234	-0.086
-296.720	-200.000	-0.020	0.172
-295.705	-160.702	0.128	-0.007
-294.691	14.571	-0.353	0.277
-293.676	57.414	0.155	0.152
-292.662	572.649	0.036	-0.088
-291.647	-138.801	-0.204	-0.022
-290.632	11.108	-0.227	-0.175
-289.618	-200.000	-0.017	-0.145
-288.603	378.255	-0.122	0.251
-287.589	123.943	0.033	0.042
-286.574	27.043	-0.017	-0.015
-285.559	-144.932	-0.042	0.004
-284.545	800.000	-0.044	-0.182
-283.530	496.922	-0.072	0.165
-282.516	-200.000	0.010	0.155
-281.501	390.181	0.037	0.077
-280.486	-48.679	-0.229	0.111
-279.472	188.450	0.076	-0.115
-278.457	-54.698	0.047	0.022
-277.443	-77.182	-0.198	0.069
-276.428	-140.301	-0.184	0.019
-275.413	262.164	-0.076	0.132
-274.399	24.941	-0.302	0.252
-273.384	31.087	-0.155	0.134
-272.370	-61.627	-0.173	0.073
-271.355	800.000	0.080	-0.264
-270.340	-171.045	0.103	-0.004
-269.326	800.000	-0.126	0.439
-268.311	-9.520	0.284	0.190
-267.297	-118.632	-0.166	0.029
-266.282	389.937	-0.175	-0.364
-265.267	800.000	0.064	0.243
-264.253	750.897	-0.053	-0.144
-263.238	457.821	0.104	-0.233
-262.224	-200.000	-0.017	-0.187
-261.209	-65.846	0.172	-0.069
-260.195	-44.939	-0.279	-0.140
-259.180	82.078	0.219	-0.238
-258.165	145.692	0.043	-0.058
-257.151	249.259	0.147	0.249
-256.136	-13.103	-0.280	0.183
-255.122	-43.764	0.200	0.101
-254.107	53.502	-0.081	-0.078
-253.092	170.651	0.135	0.193
-252.078	-200.000	0.046	0.290
-251.063	94.928	0.217	0.248
-250.049	800.000	0.117	-0.352
-249.034	157.299	-0.157	0.219
-248.019	26.084	-0.101	-0.084
-247.005	-107.230	0.110	0.024
-245.990	-133.827	-0.267	-0.033
-244.976	796.524	-0.156	0.432
-243.961	-164.885	0.134	-0.006
-242.946	551.318	0.147	-0.355
-241.932	67.084	0.035	0.036
-240.917	54.979	-0.043	-0.042
-239.903	251.053	-0.062	-0.105
-238.888	800.000	-0.024	-0.092
-237.873	-47.562	-0.258	-0.126
-236.859	-200.000	-0.001	-0.256
-235.844	440.046	-0.022	-0.048
-234.830	627.916	0.133	0.338
-233.815	-200.000	0.001	-0.241
-232.800	-200.000	0.015	0.145
-231.786	15.443	0.038	0.030
-230.771	-200.000	0.006	0.082
-229.757	800.000	-0.016	0.057
-228.742	87.031	-0.250	-0.277
-227.727	48.337	-0.095	-0.089
-226.713	796.814	-0.037	0.102
-225.698	170.070	-0.156	-0.224
-224.684	159.602	-0.104	0.146
-223.669	-200.000	0.005	0.132
-222.655	800.000	0.075	0.220
-221.640	-104.130	-0.170	-0.040
-220.625	42.886	-0.197	0.180
-219.611	-5.016	0.219	0.151
-218.596	21.853	0.261	-0.213
-217.582	800.000	0.023	0.089
-216.567	514.398	-0.087	0.204
-215.552	297.304	-0.095	0.176
-214.538	-152.029	0.216	0.016
-213.523	-200.000	0.009	-0.092
-212.509	667.527	0.050	-0.130
-211.494	-148.905	0.427	-0.035
-210.479	106.721	-0.118	0.140
-209.465	-200.000	0.023	-0.253
-208.450	72.352	-0.027	-0.028
-207.436	33.620	0.151	0.132
-206.421	-200.000	0.021	0.184
-205.406	-115.768	0.142	0.027
-204.392	-68.891	0.322	-0.125
-203.377	-42.616	-0.166	0.085
-202.363	-49.062	0.310	-0.149
-201.348	288.063	-0.034	-0.062
-200.333	21.982	-0.253	-0.207
-199.319	40.742	0.044	0.040
-198.304	407.797	-0.121	0.257
-197.290	286.588	-0.109	0.197
-196.275	-45.347	0.245	-0.122
-195.260	-53.282	0.229	-0.105
-194.246	-58.526	-0.114	-0.049
-193.231	349.124	0.160	-0.316
-192.217	-97.308	-0.052	0.014
-191.202	215.620	-0.091	-0.145
-190.187	41.628	0.034	-0.031
-189.173	327.151	-0.130	-0.249
-188.158	220.296	-0.174	-0.280
-187.144	-34.381	-0.316	0.173
-186.129	110.342	-0.150	0.181
-185.114	-68.047	0.172	-0.067
-184.100	-200.000	-0.046	0.244
-183.085	10.849	0.062	-0.048
-182.071	16.884	-0.101	0.080
-181.056	-154.212	0.223	-0.015
-180.042	-11.612	0.123	-0.081
-179.027	57.063	0.124	-0.121
-178.012	383.605	-0.077	0.159
-176.998	-28.573	0.055	-0.032
-175.983	-34.634	-0.139	-0.076
-174.969	-200.000	-0.030	-0.352
-173.954	800.000	0.042	-0.148
-172.939	-200.000	0.038	0.201
-171.925	-200.000	0.040	-0.313
-170.910	495.837	0.087	-0.199
-169.896	79.083	-0.162	0.174
-168.881	79.995	0.122	-0.131
-167.866	674.325	-0.061	-0.158
-166.852	800.000	-0.063	-0.273
-165.837	345.735	0.088	-0.173
-164.823	800.000	0.012	0.041
-163.808	-200.000	-0.008	0.084
-162.793	235.544	0.240	0.396
-161.779	800.000	-0.153	0.439
-160.764	26.143	-0.046	-0.039
-159.750	-43.448	0.258	0.130
-158.735	149.191	-0.091	0.123
-157.720	-16.983	-0.065	-0.041
-156.706	235.164	-0.156	0.257
-155.691	-39.789	-0.248	0.129
-154.677	-156.437	-0.291	0.018
-153.662	-200.000	-0.013	-0.111
-152.647	-83.433	-0.038	-0.012
-151.633	-22.093	-0.169	0.103
-150.618	-148.001	0.221	-0.018
-149.604	130.373	0.097	0.124
-148.589	800.000	0.049	-0.194
-147.574	16.036	-0.153	0.120
-146.560	-101.995	0.173	-0.042
-145.545	392.136	-0.020	0.041
-144.531	153.558	0.133	-0.182
-143.516	-134.481	0.181	-0.022
-142.502	97.826	0.184	-0.211
-141.487	131.090	0.128	0.164
-140.472	448.457	-0.104	-0.230
-139.458	447.239	-0.046	0.100
-138.443	81.259	-0.222	0.240
-137.429	-200.000	-0.004	0.040
-136.414	-84.210	0.217	-0.069
-135.399	155.902	0.052	0.072
-134.385	-98.264	-0.122	0.031
-133.370	-91.651	-0.208	0.059
-132.356	88.704	-0.114	0.127
-131.341	-200.000	-0.007	0.237
-130.326	-64.494	0.105	-0.043
-129.312	254.669	-0.004	-0.006
-128.297	-43.532	-0.059	-0.030
-127.283	-40.690	0.201	-0.104
-126.268	-200.000	0.086	-0.482
-125.253	-164.247	-0.288	0.013
-124.239	-200.000	-0.016	0.226
-123.224	-200.000	-0.002	0.016
-122.210	184.607	-0.106	0.157
