DTS Sentinel unit serial number:	SN413079Multiplexer serial number:	ORYXHardware model number:	OX4-SRSoftware version number:	ORYX F/W v4.00 Oryx Data Collector v3.7.2.0data status	okinstallation	princeton_trtdifferential loss correction	single-endedforward channel	channel 3reverse channel	N/Adate	2019/09/15time	16:36:35forward acquisition time	60.00reverse acquisition time	0.00gamma	496.2192k internal	0.2288k external	0.2288temperature offset calibration	0.9932default loss term (dB/km)	0.3790temperature slope calibration	1.0000multiplexer offset coefficient	1.0000multiplexer slope coefficient	1.0000fibre end	0.00T internal ref (°C)	44.06T ext. ref 1 (°C)	5.63T ext. ref 2 (°C)	40.36length (m)	temperature (°C)	Stokes	anti-Stokes-747.200	-200.000	0.024	0.208
-746.185	49.233	0.370	0.357
-745.171	-39.976	0.057	0.031
-744.156	111.058	0.080	0.099
-743.142	459.122	0.081	0.185
-742.127	588.211	0.062	-0.157
-741.112	-200.000	0.028	-0.282
-740.098	-30.559	0.368	0.214
-739.083	30.070	-0.136	-0.119
-738.069	-200.000	0.059	0.264
-737.054	-45.904	-0.213	-0.108
-736.039	-86.847	-0.194	0.061
-735.025	-104.643	0.238	-0.056
-734.010	800.000	-0.143	-0.485
-732.996	-45.886	-0.229	0.116
-731.981	-78.096	-0.119	-0.042
-730.966	28.627	0.111	-0.096
-729.952	-119.560	0.087	0.015
-728.937	-200.000	-0.030	-0.178
-727.923	-200.000	0.036	-0.259
-726.908	-106.364	-0.313	0.072
-725.894	-119.332	-0.412	-0.074
-724.879	462.125	0.056	-0.129
-723.864	253.277	-0.075	-0.131
-722.850	692.504	-0.142	-0.381
-721.835	-200.000	0.011	-0.340
-720.821	371.218	-0.162	-0.337
-719.806	-38.843	0.048	-0.026
-718.791	-14.777	0.109	0.072
-717.777	96.061	-0.033	-0.038
-716.762	-171.442	-0.343	0.012
-715.748	62.545	0.021	0.022
-714.733	-200.000	-0.001	-0.135
-713.718	155.115	-0.170	-0.240
-712.704	21.240	-0.296	-0.247
-711.689	-157.236	-0.037	0.002
-710.675	265.357	0.063	0.112
-709.660	-105.254	-0.070	-0.016
-708.645	-104.197	0.092	-0.022
-707.631	25.519	0.130	-0.111
-706.616	278.129	-0.088	0.161
-705.602	-63.805	0.102	-0.043
-704.587	-92.949	-0.211	0.060
-703.572	-118.674	-0.092	-0.017
-702.558	-130.839	0.339	0.047
-701.543	59.888	0.276	-0.279
-700.529	-149.860	-0.129	0.010
-699.514	-54.506	-0.254	-0.118
-698.499	-138.957	-0.092	0.010
-697.485	210.338	-0.046	-0.074
-696.470	-200.000	-0.009	-0.175
-695.456	-200.000	-0.005	0.174
-694.441	-27.011	0.161	-0.096
-693.426	-50.361	0.212	-0.102
-692.412	64.284	0.105	-0.109
-691.397	62.171	-0.119	0.121
-690.383	-88.559	0.068	0.021
-689.368	367.238	0.050	-0.103
-688.354	50.710	-0.074	0.071
-687.339	68.120	0.123	0.129
-686.324	2.751	-0.091	-0.068
-685.310	-111.613	-0.315	-0.065
-684.295	800.000	0.058	0.248
-683.281	116.617	-0.152	0.191
-682.266	800.000	0.090	-0.385
-681.251	227.109	-0.084	0.140
-680.237	800.000	-0.086	-0.290
-679.222	-126.318	0.219	0.033
-678.208	-200.000	-0.007	-0.224
-677.193	-2.010	0.188	-0.135
-676.178	-1.902	0.393	-0.283
-675.164	-200.000	-0.049	-0.263
-674.149	508.003	-0.144	-0.341
-673.135	76.994	-0.184	0.200
-672.120	315.038	0.153	-0.295
-671.105	300.367	-0.104	-0.197
-670.091	800.000	0.043	-0.138
-669.076	800.000	0.038	0.112
-668.062	76.657	-0.062	0.068
-667.047	-88.417	-0.293	-0.089
-666.032	594.611	-0.054	0.137
-665.018	-200.000	-0.018	-0.086
-664.003	188.447	-0.161	-0.247
-662.989	800.000	-0.077	0.234
-661.974	-183.404	0.102	-0.002
-660.959	-200.000	-0.039	-0.350
-659.945	614.951	0.079	0.204
-658.930	-110.341	-0.262	-0.056
-657.916	-200.000	-0.032	-0.262
-656.901	741.494	-0.070	0.192
-655.886	800.000	0.073	0.274
-654.872	-108.042	0.186	-0.041
-653.857	-124.479	0.180	0.029
-652.843	704.757	-0.055	-0.148
-651.828	75.848	-0.137	-0.148
-650.814	387.663	-0.128	-0.270
-649.799	255.648	-0.081	-0.142
-648.784	-38.363	0.285	-0.154
-647.770	-200.000	0.036	-0.245
-646.755	-78.822	0.226	-0.079
-645.741	36.657	0.062	0.056
-644.726	251.871	0.077	-0.133
-643.711	800.000	-0.082	0.235
-642.697	43.200	-0.102	0.095
-641.682	-51.153	-0.174	-0.083
-640.668	-94.176	0.087	-0.024
-639.653	79.523	-0.077	-0.085
-638.638	-200.000	0.011	0.257
-637.624	-103.766	-0.112	0.027
-636.609	-200.000	-0.008	-0.129
-635.595	32.503	0.086	-0.076
-634.580	-17.054	0.344	0.222
-633.565	800.000	0.125	0.368
-632.551	441.773	0.141	0.314
-631.536	-108.549	-0.384	0.084
-630.522	800.000	-0.124	-0.404
-629.507	-23.425	-0.267	-0.164
-628.492	134.221	-0.128	-0.169
-627.478	-55.802	-0.302	-0.138
-626.463	776.049	0.081	-0.227
-625.449	-22.583	-0.241	0.149
-624.434	-133.841	-0.292	0.037
-623.419	132.393	-0.050	-0.065
-622.405	173.859	0.049	0.072
-621.390	-128.594	0.192	0.028
-620.376	-200.000	-0.035	-0.277
-619.361	188.463	-0.015	-0.023
-618.346	-200.000	-0.019	-0.262
-617.332	-152.917	0.282	0.020
-616.317	-112.092	0.160	0.033
-615.303	-159.127	-0.088	-0.005
-614.288	-137.777	-0.094	0.011
-613.273	-22.412	-0.193	-0.119
-612.259	800.000	-0.018	0.066
-611.244	-200.000	0.016	-0.292
-610.230	-107.355	-0.272	-0.061
-609.215	800.000	0.045	0.176
-608.201	-200.000	0.009	0.297
-607.186	-200.000	-0.007	0.259
-606.171	147.706	0.249	0.342
-605.157	-1.000	-0.188	0.136
-604.142	723.227	-0.061	-0.164
-603.128	-114.288	-0.214	-0.042
-602.113	16.306	-0.085	0.068
-601.098	58.966	-0.184	0.184
-600.084	756.652	-0.086	-0.238
-599.069	-61.388	0.114	0.049
-598.055	-28.092	-0.185	0.109
-597.040	88.783	-0.255	-0.289
-596.025	312.240	-0.138	-0.264
-595.011	111.792	-0.038	0.046
-593.996	800.000	0.067	0.241
-592.982	-64.027	0.227	0.095
-591.967	-27.583	-0.366	-0.217
-590.952	-31.903	-0.063	-0.036
-589.938	-67.823	-0.340	0.135
-588.923	-77.549	-0.191	-0.068
-587.909	-90.320	-0.100	0.029
-586.894	-200.000	-0.042	-0.276
-585.879	-200.000	-0.003	0.112
-584.865	-200.000	0.000	0.173
-583.850	800.000	0.052	0.205
-582.836	-97.124	0.172	-0.046
-581.821	171.148	0.028	-0.041
-580.806	291.373	-0.145	-0.270
-579.792	-53.021	-0.099	-0.046
-578.777	50.159	-0.110	-0.106
-577.763	38.810	-0.186	-0.169
-576.748	-164.609	0.208	0.010
-575.733	436.896	0.025	0.054
-574.719	-200.000	-0.034	-0.322
-573.704	-80.937	0.084	-0.028
-572.690	4.299	0.445	-0.332
-571.675	800.000	-0.029	-0.107
-570.661	-8.246	-0.031	-0.021
-569.646	-119.635	-0.281	0.049
-568.631	604.898	-0.148	-0.376
-567.617	-67.044	0.330	-0.133
-566.602	-129.094	-0.168	0.024
-565.588	312.030	-0.085	-0.163
-564.573	800.000	-0.084	-0.244
-563.558	318.237	0.059	-0.114
-562.544	114.872	0.269	-0.333
-561.529	42.512	0.213	0.197
-560.515	8.551	0.176	0.135
-559.500	-200.000	0.030	-0.203
-558.485	-65.208	-0.115	0.047
-557.471	27.792	0.189	0.162
-556.456	-200.000	0.024	0.228
-555.442	6.411	-0.319	-0.241
-554.427	-128.553	0.377	-0.054
-553.412	283.713	-0.105	0.193
-552.398	800.000	0.013	-0.052
-551.383	-93.858	0.176	-0.049
-550.369	285.549	0.090	0.165
-549.354	752.575	0.158	0.433
-548.339	10.194	-0.120	0.093
-547.325	95.266	-0.241	0.279
-546.310	-27.056	0.180	-0.107
-545.296	800.000	0.007	-0.024
-544.281	16.556	0.315	-0.253
-543.266	6.735	0.060	-0.046
-542.252	-165.298	-0.119	0.005
-541.237	-34.230	0.053	0.030
-540.223	61.767	-0.078	-0.079
-539.208	110.995	-0.081	0.099
-538.193	-67.469	0.247	0.099
-537.179	-110.179	0.157	-0.033
-536.164	-153.179	0.273	0.019
-535.150	-200.000	0.023	-0.156
-534.135	42.214	-0.084	-0.078
-533.121	195.281	-0.125	-0.193
-532.106	364.751	0.190	-0.388
-531.091	98.522	0.068	0.080
-530.077	569.102	0.075	0.185
-529.062	-127.396	0.215	0.032
-528.048	32.011	0.185	-0.162
-527.033	23.792	-0.191	-0.160
-526.018	-7.340	0.153	-0.105
-525.004	395.265	-0.205	-0.434
-523.989	-59.987	0.167	-0.073
-522.975	639.236	0.074	-0.191
-521.960	-200.000	0.030	-0.263
-520.945	355.576	0.228	-0.461
-519.931	52.154	0.075	0.073
-518.916	-200.000	0.032	0.275
-517.902	-72.556	0.169	-0.063
-516.887	76.216	-0.204	-0.220
-515.872	523.109	-0.147	0.351
-514.858	-200.000	-0.044	-0.298
-513.843	27.238	0.115	0.098
-512.829	-60.037	0.108	0.047
-511.814	-77.185	0.344	0.122
-510.799	800.000	0.046	-0.130
-509.785	-58.049	-0.266	-0.118
-508.770	-19.578	-0.241	0.151
-507.756	-23.194	-0.135	-0.082
-506.741	-105.916	0.168	0.039
-505.726	-34.466	-0.340	-0.190
-504.712	-4.837	-0.165	-0.115
-503.697	-200.000	-0.046	0.316
-502.683	-200.000	-0.022	0.158
-501.668	118.254	0.094	-0.117
-500.653	-102.162	0.060	-0.015
-499.639	359.519	-0.134	0.272
-498.624	457.085	0.085	0.192
-497.610	-116.115	0.113	-0.021
-496.595	308.106	-0.079	0.150
-495.581	800.000	-0.042	0.168
-494.566	800.000	-0.060	-0.193
-493.551	35.834	0.187	0.167
-492.537	-21.471	0.063	-0.039
-491.522	662.008	0.049	0.129
-490.508	76.238	0.046	0.050
-489.493	-200.000	-0.048	-0.472
-488.478	-90.099	-0.050	-0.015
-487.464	68.985	0.132	0.138
-486.449	0.311	0.164	-0.119
-485.435	17.342	0.078	-0.063
-484.420	446.737	-0.077	-0.171
-483.405	800.000	0.107	0.314
-482.391	-200.000	-0.003	0.274
-481.376	-200.000	0.016	0.202
-480.362	360.908	-0.066	-0.135
-479.347	800.000	0.086	-0.356
-478.332	-136.003	0.059	0.007
-477.318	330.449	-0.100	0.196
-476.303	-193.295	0.159	0.001
-475.289	87.988	-0.108	-0.121
-474.274	800.000	-0.108	-0.302
-473.259	451.026	-0.101	0.227
-472.245	-143.967	-0.217	0.021
-471.230	-13.614	0.172	0.113
-470.216	-112.721	0.079	0.016
-469.201	-122.582	0.204	-0.034
-468.186	402.188	-0.074	0.158
-467.172	-200.000	0.040	-0.235
-466.157	-84.715	0.312	-0.100
-465.143	56.276	-0.290	0.285
-464.128	291.879	-0.073	0.134
-463.113	-63.132	0.293	0.123
-462.099	-200.000	-0.015	0.091
-461.084	800.000	0.054	0.190
-460.070	-46.034	0.076	-0.038
-459.055	-35.375	-0.147	0.081
-458.040	-22.177	0.237	0.146
-457.026	-59.631	-0.296	0.129
-456.011	64.939	0.277	0.283
-454.997	800.000	-0.060	-0.214
-453.982	-6.585	0.391	-0.270
-452.968	206.146	0.054	-0.085
-451.953	284.941	-0.148	0.271
-450.938	240.672	0.105	-0.177
-449.924	29.407	-0.100	-0.086
-448.909	-200.000	-0.013	-0.198
-447.895	120.717	0.124	-0.156
-446.880	167.026	0.120	0.172
-445.865	73.297	-0.233	-0.247
-444.851	-117.339	-0.085	0.016
-443.836	135.537	0.115	-0.151
-442.822	-163.361	-0.050	-0.002
-441.807	-131.837	0.324	0.043
-440.792	31.843	-0.280	-0.244
-439.778	114.897	-0.122	-0.151
-438.763	180.198	0.179	0.266
-437.749	1.731	0.075	0.055
-436.734	152.975	0.171	0.237
-435.719	800.000	-0.034	-0.124
-434.705	-11.073	-0.265	-0.177
-433.690	-100.089	-0.224	-0.056
-432.676	-194.888	-0.117	-0.001
-431.661	124.153	0.086	-0.110
-430.646	-145.388	0.478	0.044
-429.632	67.810	-0.045	-0.046
-428.617	-85.455	-0.388	0.122
-427.603	-200.000	0.029	-0.155
-426.588	-12.205	0.230	0.152
-425.573	-69.130	0.377	-0.147
-424.559	193.772	-0.071	0.109
-423.544	292.687	-0.235	0.434
-422.530	5.327	0.014	-0.010
-421.515	102.893	-0.129	0.153
-420.500	-200.000	-0.016	0.188
-419.486	52.145	0.143	0.138
-418.471	-200.000	-0.022	-0.154
-417.457	126.416	0.156	0.200
-416.442	800.000	-0.026	0.107
-415.428	39.578	-0.345	0.313
-414.413	208.484	0.104	0.165
-413.398	-46.014	-0.438	0.219
-412.384	-118.953	0.092	0.016
-411.369	-21.189	-0.073	-0.045
-410.355	-67.925	-0.103	-0.041
-409.340	-102.037	0.298	-0.073
-408.325	292.778	0.067	0.124
-407.311	-200.000	0.007	0.158
-406.296	-36.526	-0.080	-0.044
-405.282	324.339	-0.165	0.319
-404.267	142.617	-0.051	-0.068
-403.252	719.713	0.018	0.048
-402.238	-200.000	-0.035	0.393
-401.223	425.214	-0.066	0.145
-400.209	800.000	-0.089	-0.366
-399.194	49.140	0.284	-0.270
-398.179	-59.532	-0.236	-0.103
-397.165	333.516	0.121	-0.237
-396.150	89.509	-0.099	-0.112
-395.136	150.170	0.081	-0.111
-394.121	112.007	0.202	-0.246
-393.106	-200.000	-0.005	0.155
-392.092	800.000	-0.148	0.422
-391.077	-79.189	-0.069	-0.024
-390.063	357.509	0.025	-0.050
-389.048	-169.840	0.349	-0.013
-388.033	241.453	-0.120	-0.202
-387.019	155.877	0.115	0.160
-386.004	126.283	-0.143	0.183
-384.990	-115.925	0.183	-0.035
-383.975	-47.203	0.010	0.005
-382.960	800.000	-0.054	-0.211
-381.946	508.986	0.113	-0.265
-380.931	-103.145	-0.311	0.074
-379.917	-29.028	-0.144	0.083
-378.902	26.052	0.316	0.267
-377.888	153.779	-0.028	-0.038
-376.873	-18.540	0.226	0.142
-375.858	-107.849	-0.155	-0.034
-374.844	-67.890	0.362	-0.143
-373.829	-200.000	0.003	0.199
-372.815	82.791	-0.104	0.114
-371.800	71.310	-0.090	0.095
-370.785	-109.516	-0.150	-0.032
-369.771	-47.969	-0.184	0.090
-368.756	-115.799	0.405	0.077
-367.742	155.308	-0.296	0.412
-366.727	-10.927	-0.339	-0.226
-365.712	-200.000	-0.058	-0.281
-364.698	770.118	-0.028	0.077
-363.683	800.000	-0.054	-0.193
-362.669	-111.839	-0.138	-0.028
-361.654	-200.000	-0.032	0.145
-360.639	-31.932	0.220	-0.124
-359.625	772.618	0.098	-0.270
-358.610	133.150	-0.095	0.124
-357.596	-28.214	-0.344	-0.201
-356.581	-200.000	0.010	-0.084
-355.566	-88.786	-0.271	-0.081
-354.552	-33.103	0.303	-0.170
-353.537	-200.000	-0.002	-0.199
-352.523	-122.709	-0.291	-0.048
-351.508	800.000	-0.011	-0.043
-350.493	258.996	-0.122	0.213
-349.479	-200.000	-0.007	0.202
-348.464	50.632	-0.128	-0.122
-347.450	-200.000	-0.083	0.475
-346.435	44.801	-0.253	-0.235
-345.420	7.841	0.290	-0.220
-344.406	-119.498	-0.148	0.026
-343.391	-131.196	-0.217	-0.029
-342.377	-53.547	0.111	0.051
-341.362	96.990	-0.219	-0.253
-340.348	19.440	0.164	-0.133
-339.333	571.775	0.063	0.154
-338.318	-200.000	-0.018	0.257
-337.304	118.166	-0.213	-0.264
-336.289	626.672	-0.070	-0.179
-335.275	800.000	0.091	0.326
-334.260	70.023	0.163	-0.170
-333.245	-30.883	0.073	-0.041
-332.231	-168.348	-0.323	-0.013
-331.216	-35.810	0.120	0.066
-330.202	343.883	0.107	0.211
-329.187	154.002	0.107	-0.148
-328.172	800.000	0.102	-0.291
-327.158	-5.683	0.103	-0.071
-326.143	377.468	0.063	-0.130
-325.129	-200.000	0.037	0.271
-324.114	122.912	-0.150	-0.189
-323.099	-131.283	-0.111	0.015
-322.085	-200.000	0.058	-0.277
-321.070	473.365	-0.085	-0.193
-320.056	352.452	0.142	0.284
-319.041	-200.000	0.015	0.211
-318.026	207.172	-0.206	-0.324
-317.012	1.281	-0.095	-0.069
-315.997	-175.536	0.095	0.003
-314.983	-200.000	0.064	-0.439
-313.968	-94.380	-0.059	0.016
-312.953	-100.082	-0.323	-0.081
-311.939	-200.000	-0.004	-0.095
-310.924	35.061	-0.130	-0.114
-309.910	-81.402	-0.449	-0.149
-308.895	800.000	0.160	-0.462
-307.880	-39.636	-0.124	-0.066
-306.866	-200.000	0.001	0.064
-305.851	-168.781	-0.283	-0.011
-304.837	141.177	0.021	0.028
-303.822	800.000	-0.063	0.222
-302.807	-200.000	0.010	0.056
-301.793	-4.439	-0.287	-0.200
-300.778	-200.000	0.027	-0.129
-299.764	-190.402	-0.128	-0.001
-298.749	-82.982	-0.175	0.057
-297.735	97.559	0.097	0.113
-296.720	38.856	0.083	0.074
-295.705	20.800	-0.298	0.243
-294.691	105.123	0.301	0.358
-293.676	-120.923	-0.071	0.012
-292.662	-33.927	0.099	-0.055
-291.647	125.583	-0.137	0.174
-290.632	709.402	0.092	0.246
-289.618	-82.367	-0.274	0.090
-288.603	67.190	0.051	0.052
-287.589	-26.357	0.161	-0.095
-286.574	716.866	0.077	-0.205
-285.559	-81.528	0.108	0.036
-284.545	13.117	-0.148	0.115
-283.530	-92.642	0.202	0.057
-282.516	216.557	-0.101	0.162
-281.501	-129.612	0.105	-0.015
-280.486	21.208	-0.293	0.240
-279.472	43.651	0.103	-0.095
-278.457	20.812	0.340	-0.277
-277.443	-61.589	0.285	0.120
-276.428	-200.000	-0.005	0.385
-275.413	800.000	-0.120	0.395
-274.399	192.073	0.150	0.228
-273.384	-44.994	0.374	0.188
-272.370	-45.128	0.107	-0.054
-271.355	359.949	0.169	0.341
-270.340	800.000	0.039	-0.109
-269.326	-200.000	-0.088	0.419
-268.311	280.550	0.081	0.146
-267.297	82.725	0.333	-0.365
-266.282	-123.308	0.153	-0.025
-265.267	45.116	-0.358	0.332
-264.253	-52.029	-0.169	-0.079
-263.238	57.913	-0.033	0.032
-262.224	800.000	-0.048	0.148
-261.209	137.460	0.155	0.204
-260.195	202.033	0.051	-0.079
-259.180	-147.453	0.332	-0.028
-258.165	-76.604	-0.171	-0.060
-257.151	-200.000	0.020	-0.318
-256.136	245.632	0.147	-0.249
-255.122	-200.000	-0.045	-0.241
-254.107	-12.619	0.409	0.268
-253.092	-18.424	0.063	-0.040
-252.078	73.053	0.083	-0.087
-251.063	-32.612	0.201	0.113
-250.049	-157.497	0.162	0.010
-249.034	800.000	0.067	0.234
-248.019	-200.000	-0.029	0.135
-247.005	-138.787	0.252	-0.028
-245.990	37.528	0.137	0.122
-244.976	800.000	-0.094	-0.289
-243.961	19.431	-0.240	-0.194
-242.946	-200.000	0.016	0.132
-241.932	-200.000	-0.008	0.112
-240.917	-200.000	0.039	-0.177
-239.903	-62.997	-0.297	0.123
-238.888	-137.025	-0.260	0.030
-237.873	-10.371	-0.095	0.063
-236.859	800.000	0.054	-0.189
-235.844	-200.000	0.031	-0.176
-234.830	-30.785	0.101	0.057
-233.815	81.583	0.172	0.187
-232.800	-81.667	-0.120	0.040
-231.786	-65.968	0.181	0.073
-230.771	-88.289	-0.273	0.082
-229.757	-200.000	0.028	-0.197
-228.742	20.895	-0.228	-0.186
-227.727	-200.000	-0.044	-0.323
-226.713	656.653	0.067	-0.173
-225.698	80.077	-0.232	-0.251
-224.684	-200.000	0.022	-0.104
-223.669	91.769	0.253	-0.286
-222.655	800.000	-0.127	0.353
-221.640	113.628	-0.048	-0.058
-220.625	271.651	-0.215	-0.381
-219.611	-200.000	0.016	-0.084
-218.596	-2.457	0.305	-0.215
-217.582	-90.346	0.295	-0.086
-216.567	71.581	-0.108	-0.113
-215.552	-200.000	-0.022	0.386
-214.538	46.056	0.135	-0.125
-213.523	-105.711	0.285	-0.065
-212.509	722.108	0.140	0.373
-211.494	107.246	0.143	0.170
-210.479	-157.608	-0.202	-0.012
-209.465	800.000	0.067	-0.272
-208.450	-72.474	-0.261	-0.097
-207.436	800.000	-0.086	0.367
-206.421	321.054	-0.051	0.097
-205.406	-53.315	0.028	0.013
-204.392	-36.211	-0.185	-0.100
-203.377	-200.000	-0.039	-0.315
-202.363	-200.000	0.008	-0.039
-201.348	-143.133	-0.155	-0.015
-200.333	-169.845	-0.167	0.006
-199.319	276.834	0.108	0.192
-198.304	156.581	-0.045	-0.063
-197.290	206.019	0.160	-0.250
-196.275	-116.950	-0.031	-0.006
-195.260	174.611	-0.165	0.240
-194.246	-100.787	-0.101	-0.025
-193.231	167.347	0.083	0.118
-192.217	102.631	0.213	0.250
-191.202	-200.000	-0.007	0.164
-190.187	-50.976	-0.131	0.062
-189.173	-200.000	-0.035	0.176
-188.158	-9.763	0.375	0.251
-187.144	368.397	0.286	0.579
-186.129	71.259	0.184	-0.191
-185.114	-105.063	0.102	-0.023
-184.100	-47.619	0.132	-0.064
-183.085	-182.330	-0.293	0.005
-182.071	-55.599	0.235	0.106
-181.056	-77.903	-0.411	-0.142
-180.042	800.000	0.075	0.232
-179.027	-7.186	0.246	-0.167
-178.012	498.113	0.018	0.041
-176.998	73.820	-0.086	-0.090
-175.983	-147.249	-0.241	-0.021
-174.969	-200.000	0.046	0.208
-173.954	-68.896	0.254	0.098
-172.939	800.000	-0.048	-0.180
-171.925	-200.000	0.005	0.208
-170.910	-113.048	0.459	0.091
-169.896	-6.430	-0.064	0.044
-168.881	373.993	-0.194	0.397
-167.866	-149.467	-0.212	0.017
-166.852	800.000	0.096	0.334
-165.837	-166.062	0.047	-0.002
-164.823	-200.000	0.018	0.100
-163.808	215.839	-0.097	0.155
-162.793	-38.011	0.183	-0.098
-161.779	-101.624	-0.044	0.011
-160.764	-80.878	0.066	0.022
-159.750	-160.482	0.217	-0.012
-158.735	-39.371	-0.378	-0.199
-157.720	-200.000	0.011	0.253
-156.706	-200.000	-0.005	-0.045
-155.691	117.478	-0.007	-0.008
-154.677	48.037	0.011	0.011
-153.662	-162.656	-0.225	0.011
-152.647	372.278	0.089	-0.180
-151.633	71.554	-0.222	0.231
-150.618	-96.654	0.178	0.047
-149.604	68.937	-0.197	0.203
-148.589	-149.095	-0.128	-0.010
-147.574	172.306	-0.214	-0.308
-146.560	800.000	-0.035	-0.110
-145.545	-200.000	-0.043	0.262
-144.531	82.646	-0.053	0.058
-143.516	-30.529	0.343	-0.195
-142.502	296.382	-0.148	0.271
-141.487	-200.000	0.042	0.274
-140.472	-102.712	0.227	0.054
-139.458	-0.884	-0.216	-0.154
-138.443	-165.809	0.152	-0.007
-137.429	-89.523	-0.057	0.017
-136.414	192.478	-0.145	-0.219
-135.399	95.639	-0.103	-0.117
-134.385	738.152	-0.097	-0.261
-133.370	-200.000	0.046	-0.404
-132.356	19.179	-0.135	-0.108
-131.341	34.948	0.114	-0.100
-130.326	17.028	0.131	-0.104
-129.312	-200.000	0.038	-0.208
-128.297	-86.465	-0.209	0.064
-127.283	-19.273	0.306	0.190
-126.268	766.539	-0.114	0.310
-125.253	-200.000	-0.014	0.148
-124.239	-200.000	-0.007	0.216
-123.224	-63.109	-0.328	0.136
-122.210	800.000	0.103	-0.308
