DTS Sentinel unit serial number:	SN413079Multiplexer serial number:	ORYXHardware model number:	OX4-SRSoftware version number:	ORYX F/W v4.00 Oryx Data Collector v3.7.2.0data status	okinstallation	princeton_trtdifferential loss correction	single-endedforward channel	channel 3reverse channel	N/Adate	2019/09/15time	05:56:35forward acquisition time	60.00reverse acquisition time	0.00gamma	496.2192k internal	0.2324k external	0.2324temperature offset calibration	0.9981default loss term (dB/km)	0.3790temperature slope calibration	1.0000multiplexer offset coefficient	1.0000multiplexer slope coefficient	1.0000fibre end	0.00T internal ref (°C)	30.62T ext. ref 1 (°C)	4.87T ext. ref 2 (°C)	25.33length (m)	temperature (°C)	Stokes	anti-Stokes-747.200	-139.033	-0.130	-0.014
-746.185	-136.770	0.153	-0.018
-745.171	-171.689	-0.106	0.004
-744.156	-135.086	0.119	-0.014
-743.142	800.000	-0.126	-0.371
-742.127	101.799	0.084	0.099
-741.112	388.973	-0.101	0.212
-740.098	76.202	-0.253	0.270
-739.083	-200.000	-0.047	0.239
-738.069	179.571	-0.119	0.176
-737.054	-148.395	0.240	-0.020
-736.039	-184.808	-0.076	-0.001
-735.025	-200.000	0.006	-0.151
-734.010	-200.000	0.017	-0.170
-732.996	-200.000	0.093	-0.477
-731.981	-200.000	-0.022	0.332
-730.966	-12.734	-0.178	0.117
-729.952	-200.000	0.000	0.071
-728.937	-200.000	0.046	-0.443
-727.923	-164.153	0.240	-0.011
-726.908	43.684	-0.086	0.079
-725.894	474.217	0.034	0.077
-724.879	-200.000	0.031	-0.302
-723.864	195.926	0.138	0.212
-722.850	-137.580	0.062	0.007
-721.835	342.464	-0.053	0.105
-720.821	-200.000	-0.012	0.097
-719.806	170.982	0.133	0.192
-718.791	202.007	0.243	0.378
-717.777	-120.740	0.146	-0.025
-716.762	-200.000	0.034	-0.265
-715.748	90.523	-0.184	0.208
-714.733	57.487	0.016	-0.016
-713.718	800.000	-0.061	0.264
-712.704	-137.778	-0.174	-0.020
-711.689	73.205	0.190	-0.200
-710.675	-49.969	-0.110	0.053
-709.660	-23.448	-0.322	-0.195
-708.645	-150.020	-0.057	-0.004
-707.631	-1.436	0.072	-0.051
-706.616	-117.374	0.212	-0.039
-705.602	347.260	-0.087	-0.173
-704.587	800.000	-0.091	-0.253
-703.572	160.248	-0.051	0.071
-702.558	-178.862	-0.473	0.011
-701.543	-200.000	-0.031	-0.177
-700.529	-54.818	0.127	0.058
-699.514	-61.862	-0.058	0.025
-698.499	279.051	-0.242	-0.435
-697.485	-50.684	-0.298	-0.141
-696.470	-165.503	0.521	-0.023
-695.456	764.327	-0.130	-0.356
-694.441	-90.191	-0.126	-0.037
-693.426	219.022	0.076	-0.123
-692.412	-170.800	-0.172	-0.006
-691.397	-6.424	0.220	0.151
-690.383	-200.000	-0.035	0.278
-689.368	-30.368	-0.304	0.174
-688.354	-200.000	-0.042	-0.259
-687.339	509.363	-0.156	-0.364
-686.324	658.376	0.103	0.267
-685.310	-76.496	0.469	-0.166
-684.295	-200.000	-0.008	0.202
-683.281	-170.626	-0.273	-0.010
-682.266	679.051	0.216	-0.565
-681.251	-40.400	-0.173	-0.091
-680.237	-35.799	0.255	0.139
-679.222	303.206	0.073	-0.136
-678.208	-28.769	-0.059	-0.034
-677.193	0.970	0.057	-0.041
-676.178	21.027	0.147	0.120
-675.164	20.033	0.137	-0.111
-674.149	-152.586	0.293	-0.021
-673.135	457.890	-0.073	-0.162
-672.120	-200.000	0.003	-0.039
-671.105	85.683	0.051	-0.056
-670.091	5.853	-0.134	-0.100
-669.076	800.000	0.035	0.152
-668.062	61.273	-0.255	-0.255
-667.047	177.584	0.082	0.120
-666.032	-19.484	0.309	-0.193
-665.018	800.000	-0.047	0.206
-664.003	-165.849	-0.271	0.012
-662.989	-38.908	-0.082	-0.044
-661.974	315.728	0.074	0.141
-660.959	226.000	0.028	-0.045
-659.945	-0.550	-0.161	0.115
-658.930	-200.000	0.005	-0.224
-657.916	-200.000	-0.013	-0.093
-656.901	-200.000	-0.044	-0.329
-655.886	-200.000	0.059	0.272
-654.872	-31.489	-0.121	-0.068
-653.857	-113.469	0.328	0.065
-652.843	800.000	-0.114	-0.380
-651.828	267.889	-0.157	-0.276
-650.814	-48.460	-0.134	0.065
-649.799	456.859	0.023	-0.052
-648.784	123.842	-0.120	0.152
-647.770	-60.369	0.294	0.126
-646.755	-147.186	-0.424	-0.036
-645.741	800.000	0.028	0.083
-644.726	220.303	0.195	0.315
-643.711	111.672	-0.022	-0.026
-642.697	-36.983	-0.398	-0.214
-641.682	800.000	0.033	0.093
-640.668	-7.266	-0.213	-0.145
-639.653	-114.195	-0.124	-0.024
-638.638	-107.347	0.325	-0.072
-637.624	62.041	0.137	0.137
-636.609	799.959	0.095	-0.263
-635.595	-74.084	0.067	-0.024
-634.580	-200.000	-0.091	-0.492
-633.565	-200.000	0.020	-0.290
-632.551	219.161	-0.142	-0.228
-631.536	501.881	0.066	0.154
-630.522	-37.619	0.200	-0.107
-629.507	-39.614	-0.219	0.115
-628.492	-2.747	0.298	0.209
-627.478	-128.055	-0.162	-0.023
-626.463	-200.000	0.007	0.112
-625.449	-117.164	0.210	-0.038
-624.434	-149.549	0.353	0.028
-623.419	257.072	0.141	-0.244
-622.405	800.000	-0.166	-0.466
-621.390	153.194	-0.047	0.064
-620.376	135.900	0.078	0.102
-619.361	-200.000	-0.029	0.206
-618.346	66.320	-0.092	0.094
-617.332	94.702	0.097	0.111
-616.317	-53.858	0.200	0.092
-615.303	-92.676	-0.270	-0.076
-614.288	-200.000	-0.029	0.172
-613.273	19.215	0.076	-0.061
-612.259	-110.756	0.132	0.027
-611.244	48.535	-0.191	0.180
-610.230	-200.000	0.055	0.249
-609.215	-200.000	-0.024	0.255
-608.201	-72.350	0.282	-0.105
-607.186	510.296	0.053	0.124
-606.171	160.304	0.151	0.211
-605.157	-134.592	0.117	0.014
-604.142	99.830	-0.068	-0.079
-603.128	-200.000	-0.025	-0.228
-602.113	-50.596	0.393	0.186
-601.098	-31.701	-0.179	0.101
-600.084	-96.365	0.167	-0.044
-599.069	-83.859	0.208	-0.067
-598.055	250.898	-0.179	-0.305
-597.040	477.838	0.038	-0.085
-596.025	-200.000	0.022	-0.253
-595.011	-200.000	0.050	-0.230
-593.996	-200.000	0.026	0.159
-592.982	70.468	-0.268	0.278
-591.967	55.843	0.294	-0.286
-590.952	-91.095	0.359	0.103
-589.938	-51.091	-0.294	-0.138
-588.923	-200.000	0.008	-0.252
-587.909	-171.846	0.099	0.003
-586.894	62.927	0.073	0.073
-585.879	800.000	-0.100	-0.317
-584.865	60.705	-0.189	0.188
-583.850	-82.431	-0.256	0.084
-582.836	28.485	0.381	-0.323
-581.821	-108.892	0.184	-0.039
-580.806	157.871	-0.249	0.346
-579.792	-51.020	-0.186	-0.088
-578.777	7.193	-0.238	-0.178
-577.763	-120.474	-0.156	-0.027
-576.748	18.819	0.224	0.180
-575.733	-18.947	0.115	0.072
-574.719	114.757	-0.131	-0.161
-573.704	-86.273	-0.179	0.055
-572.690	150.989	0.103	-0.141
-571.675	-90.421	0.264	0.077
-570.661	-61.884	-0.226	-0.095
-569.646	-200.000	0.016	-0.077
-568.631	-200.000	-0.023	-0.656
-567.617	-93.249	-0.078	-0.022
-566.602	286.481	-0.094	0.170
-565.588	-200.000	-0.008	0.193
-564.573	-111.190	0.234	0.048
-563.558	-163.578	0.298	-0.014
-562.544	800.000	-0.053	0.165
-561.529	-100.174	-0.374	0.093
-560.515	-185.811	0.259	-0.004
-559.500	-142.405	0.093	0.009
-558.485	-0.697	-0.116	-0.083
-557.471	-200.000	-0.007	-0.268
-556.456	-108.878	0.039	0.008
-555.442	-87.955	-0.290	-0.087
-554.427	-200.000	-0.011	-0.120
-553.412	5.041	0.157	-0.116
-552.398	-52.335	-0.362	-0.168
-551.383	-50.863	0.141	0.066
-550.369	60.080	0.060	0.059
-549.354	-200.000	-0.030	-0.143
-548.339	-200.000	-0.012	-0.468
-547.325	-127.937	0.085	0.012
-546.310	800.000	-0.064	0.238
-545.296	-175.194	0.149	0.004
-544.281	170.561	-0.087	0.124
-543.266	-143.597	0.180	-0.017
-542.252	-147.780	0.234	-0.020
-541.237	-14.046	-0.087	-0.056
-540.223	-23.720	0.329	-0.197
-539.208	6.229	0.326	-0.242
-538.193	-52.845	-0.057	0.026
-537.179	-200.000	0.025	-0.269
-536.164	-53.454	0.094	-0.043
-535.150	-4.403	0.305	0.211
-534.135	65.595	-0.140	-0.142
-533.121	-26.098	-0.074	0.044
-532.106	307.223	-0.107	-0.200
-531.091	212.484	-0.123	-0.194
-530.077	-200.000	0.034	0.261
-529.062	-48.606	0.116	0.056
-528.048	36.712	0.224	-0.198
-527.033	79.742	-0.153	-0.164
-526.018	331.869	-0.104	-0.200
-525.004	-109.051	0.178	0.038
-523.989	85.107	-0.207	-0.227
-522.975	-200.000	-0.057	-0.628
-521.960	-200.000	0.237	-0.001
-520.945	-200.000	0.024	0.120
-519.931	-200.000	-0.038	-0.233
-518.916	800.000	-0.031	0.123
-517.902	-200.000	0.029	-0.295
-516.887	-0.858	0.251	-0.178
-515.872	-7.168	-0.059	-0.040
-514.858	800.000	0.102	-0.371
-513.843	489.503	-0.085	0.193
-512.829	117.712	-0.215	0.264
-511.814	46.008	0.026	0.024
-510.799	691.970	0.011	0.028
-509.785	17.635	-0.153	0.121
-508.770	-62.002	-0.337	-0.141
-507.756	632.272	-0.093	-0.235
-506.741	-114.745	-0.270	0.052
-505.726	-119.188	-0.335	-0.058
-504.712	-140.478	0.236	-0.025
-503.697	83.224	-0.132	0.143
-502.683	103.336	0.257	0.301
-501.668	-200.000	-0.016	-0.082
-500.653	-200.000	-0.051	-0.237
-499.639	-126.659	0.090	0.013
-498.624	25.245	-0.153	0.127
-497.610	-200.000	-0.036	0.330
-496.595	-158.221	0.200	0.012
-495.581	-200.000	-0.004	-0.129
-494.566	278.721	0.145	0.259
-493.551	-126.058	-0.056	-0.008
-492.537	-200.000	0.033	-0.290
-491.522	139.474	0.169	-0.223
-490.508	-116.737	-0.027	-0.005
-489.493	351.539	-0.080	0.159
-488.478	-2.583	0.070	-0.049
-487.464	-133.849	-0.307	0.038
-486.449	-91.075	-0.436	0.125
-485.435	-200.000	0.004	0.069
-484.420	3.308	-0.201	0.146
-483.405	80.415	0.024	-0.026
-482.391	-55.936	-0.529	-0.236
-481.376	175.545	0.261	0.378
-480.362	83.151	0.205	0.223
-479.347	-31.345	-0.094	-0.053
-478.332	60.821	-0.061	-0.061
-477.318	-135.601	0.454	-0.054
-476.303	-24.379	-0.251	-0.149
-475.289	8.970	0.169	-0.127
-474.274	6.392	0.234	-0.173
-473.259	-30.932	0.178	0.100
-472.245	207.963	-0.242	0.378
-471.230	-107.726	-0.126	0.027
-470.216	-200.000	-0.090	0.424
-469.201	-132.850	-0.107	0.014
-468.186	-200.000	0.076	-0.401
-467.172	10.574	0.372	-0.283
-466.157	-200.000	0.013	0.103
-465.143	-87.069	-0.112	-0.034
-464.128	15.620	0.142	0.111
-463.113	501.062	-0.034	0.078
-462.099	800.000	-0.092	-0.269
-461.084	36.766	0.238	0.210
-460.070	-156.543	-0.141	0.009
-459.055	-34.491	-0.059	0.032
-458.040	-23.370	0.175	0.105
-457.026	-200.000	-0.024	-0.140
-456.011	-200.000	-0.023	0.215
-454.997	-137.515	-0.212	0.024
-453.982	-165.537	-0.469	-0.020
-452.968	668.825	-0.123	0.317
-451.953	303.997	0.030	0.055
-450.938	-86.886	0.333	0.101
-449.924	70.177	0.136	0.140
-448.909	7.038	-0.252	0.187
-447.895	-200.000	0.009	-0.300
-446.880	181.989	-0.022	-0.033
-445.865	46.624	0.134	-0.124
-444.851	-125.002	0.303	0.046
-443.836	-155.928	0.116	0.007
-442.822	279.290	0.124	-0.221
-441.807	-141.314	-0.158	0.016
-440.792	-9.849	0.108	-0.071
-439.778	409.138	-0.085	-0.179
-438.763	800.000	-0.033	-0.100
-437.749	152.899	-0.162	0.221
-436.734	19.963	0.273	-0.220
-435.719	133.908	-0.157	-0.203
-434.705	88.709	0.050	-0.055
-433.690	52.585	-0.152	-0.145
-432.676	355.401	-0.095	-0.188
-431.661	-71.939	0.059	-0.022
-430.646	5.788	-0.062	-0.046
-429.632	-19.356	0.120	0.074
-428.617	-200.000	0.020	0.269
-427.603	371.298	-0.092	-0.186
-426.588	-21.567	0.275	-0.167
-425.573	273.762	-0.107	0.188
-424.559	-114.806	0.157	0.030
-423.544	-200.000	0.007	0.144
-422.530	-9.839	-0.195	0.130
-421.515	-200.000	-0.044	0.423
-420.500	-200.000	0.034	-0.213
-419.486	64.795	0.242	-0.243
-418.471	-107.601	0.171	0.037
-417.457	-2.406	-0.140	0.098
-416.442	219.586	-0.120	0.192
-415.428	466.411	-0.135	-0.301
-414.413	272.304	0.116	0.203
-413.398	-101.552	-0.220	-0.053
-412.384	-200.000	-0.060	-0.401
-411.369	-200.000	-0.046	0.370
-410.355	-103.659	-0.269	-0.063
-409.340	-200.000	-0.001	-0.136
-408.325	85.926	-0.264	0.289
-407.311	-200.000	-0.006	-0.037
-406.296	480.265	0.109	-0.245
-405.282	-23.804	0.188	0.112
-404.267	220.156	-0.185	0.295
-403.252	-127.015	-0.207	-0.030
-402.238	-200.000	-0.003	0.072
-401.223	-200.000	-0.024	0.322
-400.209	-82.985	-0.148	0.047
-399.194	154.336	-0.071	-0.097
-398.179	-124.310	-0.290	-0.045
-397.165	-75.332	0.251	0.089
-396.150	-200.000	-0.029	0.280
-395.136	34.697	-0.307	-0.267
-394.121	53.520	-0.183	0.175
-393.106	-102.276	0.135	0.032
-392.092	800.000	-0.048	-0.178
-391.077	-200.000	0.002	-0.168
-390.063	465.135	-0.159	0.354
-389.048	10.608	0.164	-0.124
-388.033	-174.238	-0.158	0.005
-387.019	800.000	0.068	0.209
-386.004	800.000	-0.114	-0.436
-384.990	29.991	0.120	-0.102
-383.975	-0.310	0.109	-0.077
-382.960	128.229	-0.128	0.163
-381.946	-200.000	0.006	0.084
-380.931	-14.449	-0.114	-0.073
-379.917	103.404	-0.172	-0.201
-378.902	135.809	0.120	-0.155
-377.888	114.921	0.216	0.262
-376.873	324.811	0.113	0.214
-375.858	-171.588	-0.157	0.005
-374.844	-200.000	0.048	0.383
-373.829	-200.000	0.016	-0.262
-372.815	-75.765	0.210	-0.074
-371.800	225.220	0.157	-0.253
-370.785	-200.000	0.027	0.337
-369.771	-200.000	0.018	0.084
-368.756	-200.000	-0.054	-0.246
-367.742	-200.000	0.012	0.065
-366.727	-200.000	-0.011	-0.127
-365.712	-116.395	0.279	-0.051
-364.698	-80.398	0.176	0.058
-363.683	93.381	-0.160	-0.180
-362.669	-116.818	-0.161	-0.029
-361.654	-200.000	-0.076	-0.490
-360.639	-200.000	-0.036	0.293
-359.625	-74.209	-0.190	-0.068
-358.610	71.181	0.169	-0.174
-357.596	-57.962	-0.158	-0.068
-356.581	-200.000	0.007	0.099
-355.566	-200.000	-0.015	0.118
-354.552	119.596	-0.047	-0.058
-353.537	-81.323	-0.365	-0.119
-352.523	-1.021	0.344	0.242
-351.508	-145.357	0.088	-0.008
-350.493	-111.920	0.157	-0.031
-349.479	194.309	-0.066	-0.099
-348.464	-85.053	-0.148	0.046
-347.450	10.579	0.069	0.052
-346.435	-93.113	-0.479	-0.132
-345.420	-18.800	-0.105	0.065
-344.406	800.000	0.087	0.276
-343.391	76.419	-0.117	0.123
-342.377	-122.852	-0.295	-0.047
-341.362	-185.194	0.354	0.005
-340.348	24.929	-0.115	-0.095
-339.333	10.100	0.065	0.049
-338.318	631.151	-0.080	-0.202
-337.304	65.576	-0.167	0.168
-336.289	-156.628	-0.057	0.004
-335.275	-134.094	0.288	0.035
-334.260	-160.544	0.305	-0.016
-333.245	-132.319	-0.413	-0.053
-332.231	279.015	-0.024	-0.043
-331.216	800.000	0.029	-0.081
-330.202	39.354	0.153	0.136
-329.187	20.304	-0.184	0.148
-328.172	-120.645	-0.197	-0.033
-327.158	263.015	-0.041	0.070
-326.143	-24.924	0.166	-0.098
-325.129	800.000	0.097	0.323
-324.114	800.000	0.123	0.414
-323.099	800.000	-0.071	-0.291
-322.085	38.516	0.154	0.136
-321.070	-14.070	0.101	-0.065
-320.056	-200.000	-0.057	0.410
-319.041	119.115	-0.143	-0.176
-318.026	250.292	-0.050	-0.084
-317.012	-200.000	0.014	0.159
-315.997	-200.000	0.021	0.351
-314.983	-102.614	-0.475	0.113
-313.968	-35.998	-0.129	0.069
-312.953	-82.476	-0.190	0.061
-311.939	-108.376	-0.431	0.092
-310.924	84.322	0.093	-0.101
-309.910	-42.311	0.307	0.155
-308.895	294.473	-0.026	-0.047
-307.880	-90.652	0.149	-0.043
-306.866	-95.790	-0.216	0.057
-305.851	743.864	-0.072	0.192
-304.837	236.759	-0.032	-0.053
-303.822	-46.774	-0.275	-0.134
-302.807	83.053	-0.121	0.130
-301.793	-44.663	0.170	-0.084
-300.778	-200.000	0.011	0.067
-299.764	134.898	-0.186	0.239
-298.749	-126.542	-0.234	-0.034
-297.735	-140.493	-0.152	0.016
-296.720	450.046	0.147	-0.322
-295.705	-31.766	0.039	-0.022
-294.691	98.220	-0.150	-0.172
-293.676	-64.010	0.162	0.066
-292.662	428.938	0.050	-0.108
-291.647	-185.135	-0.424	-0.007
-290.632	-5.335	-0.027	-0.019
-289.618	62.893	0.207	-0.205
-288.603	-94.278	0.023	-0.006
-287.589	11.656	0.235	-0.179
-286.574	7.888	-0.072	0.053
-285.559	800.000	-0.036	0.131
-284.545	783.860	-0.121	0.329
-283.530	227.258	-0.039	0.062
-282.516	111.691	-0.190	-0.228
-281.501	-143.868	-0.115	0.011
-280.486	350.713	-0.020	-0.038
-279.472	800.000	-0.043	-0.183
-278.457	289.419	0.082	-0.148
-277.443	4.064	-0.027	0.020
-276.428	-65.637	-0.132	-0.053
-275.413	197.897	-0.120	0.182
-274.399	454.546	-0.142	0.312
-273.384	-45.117	-0.089	-0.044
-272.370	-139.033	-0.099	0.011
-271.355	-2.356	-0.298	-0.207
-270.340	544.953	-0.092	-0.219
-269.326	-200.000	-0.025	-0.119
-268.311	-200.000	0.016	0.505
-267.297	126.265	0.246	-0.308
-266.282	242.088	0.166	0.274
-265.267	562.102	0.044	-0.105
-264.253	59.038	-0.130	0.127
-263.238	-11.172	-0.155	0.101
-262.224	148.113	0.053	0.071
-261.209	-200.000	-0.007	0.041
-260.195	96.823	-0.226	-0.257
-259.180	800.000	-0.019	0.064
-258.165	194.564	-0.102	-0.153
-257.151	-182.978	0.313	-0.006
-256.136	-26.033	-0.266	0.155
-255.122	53.404	0.280	-0.266
-254.107	167.831	-0.126	0.177
-253.092	-200.000	-0.044	-0.454
-252.078	-11.127	-0.205	-0.134
-251.063	129.959	0.061	0.077
-250.049	-68.805	0.386	-0.148
-249.034	-200.000	-0.103	0.475
-248.019	-85.536	-0.344	-0.106
-247.005	39.412	0.113	0.100
-245.990	-24.102	0.101	0.060
-244.976	446.588	-0.084	0.184
-243.961	44.029	0.153	-0.139
-242.946	-200.000	-0.003	-0.016
-241.932	-109.368	0.159	0.033
-240.917	-26.667	0.256	0.149
-239.903	-171.043	-0.247	0.008
-238.888	-200.000	0.013	-0.144
-237.873	-108.825	0.412	-0.087
-236.859	135.523	-0.090	-0.116
-235.844	-13.452	0.246	0.158
-234.830	633.805	-0.198	-0.498
-233.815	-5.429	0.133	0.090
-232.800	-129.967	0.137	0.019
-231.786	800.000	0.078	-0.226
-230.771	7.949	0.080	0.059
-229.757	-200.000	-0.017	-0.128
-228.742	-114.529	-0.186	-0.035
-227.727	-69.262	0.097	-0.037
-226.713	-79.397	0.177	-0.059
-225.698	24.143	-0.183	-0.149
-224.684	-200.000	-0.048	-0.529
-223.669	15.572	0.025	0.019
-222.655	193.378	0.164	0.245
-221.640	-200.000	0.045	-0.320
-220.625	39.535	0.039	0.035
-219.611	-140.249	0.091	-0.009
-218.596	-97.921	-0.205	-0.052
-217.582	-200.000	0.293	0.001
-216.567	-84.139	0.188	0.059
-215.552	-200.000	0.003	0.223
-214.538	-200.000	0.083	0.495
-213.523	-34.511	0.184	0.100
-212.509	-9.113	0.132	-0.087
-211.494	-99.989	0.161	0.040
-210.479	-87.661	0.195	0.058
-209.465	-125.507	0.157	0.024
-208.450	-200.000	0.041	0.362
-207.436	188.003	-0.110	0.163
-206.421	-120.998	-0.183	-0.030
-205.406	-30.773	0.343	0.192
-204.392	-200.000	0.002	0.198
-203.377	92.293	0.214	0.238
-202.363	-177.921	0.278	-0.007
-201.348	-192.093	0.091	0.001
-200.333	23.401	0.328	0.266
-199.319	269.556	0.306	0.531
-198.304	-184.900	-0.287	-0.004
-197.290	85.480	0.092	0.100
-196.275	312.848	-0.340	0.631
-195.260	70.208	0.088	0.090
-194.246	-74.602	0.171	-0.061
-193.231	800.000	-0.041	-0.113
-192.217	-7.727	-0.236	-0.157
-191.202	-200.000	-0.038	0.275
-190.187	35.218	0.103	0.089
-189.173	-59.587	0.172	0.073
-188.158	-70.849	-0.065	0.024
-187.144	-200.000	-0.008	0.739
-186.129	235.301	0.032	0.052
-185.114	800.000	-0.068	0.204
-184.100	-109.282	0.274	-0.057
-183.085	489.255	-0.102	0.230
-182.071	18.472	-0.234	0.185
-181.056	270.987	-0.030	-0.052
-180.042	-200.000	-0.006	0.266
-179.027	-144.783	0.244	-0.022
-178.012	-200.000	-0.010	0.200
-176.998	67.938	-0.196	-0.198
-175.983	-35.082	-0.102	-0.055
-174.969	-57.441	0.127	0.055
-173.954	-200.000	0.028	-0.282
-172.939	516.707	-0.099	-0.229
-171.925	-174.553	-0.080	-0.002
-170.910	-42.319	0.029	-0.014
-169.896	232.557	0.115	-0.186
-168.881	-45.803	0.223	-0.109
-167.866	26.965	-0.121	0.100
-166.852	425.998	0.173	0.368
-165.837	-39.654	-0.215	-0.111
-164.823	-200.000	-0.008	-0.083
-163.808	800.000	-0.028	-0.085
-162.793	800.000	0.056	-0.189
-161.779	51.210	0.041	-0.038
-160.764	-58.025	0.223	-0.096
-159.750	-200.000	0.025	0.339
-158.735	-200.000	0.084	0.412
-157.720	7.490	-0.214	-0.158
-156.706	-200.000	0.015	-0.097
-155.691	-68.116	0.425	-0.163
-154.677	-200.000	0.017	-0.124
-153.662	256.543	-0.120	-0.203
-152.647	-200.000	0.073	-0.342
-151.633	-200.000	0.022	0.128
-150.618	343.843	-0.028	0.054
-149.604	413.875	0.141	-0.296
-148.589	459.108	-0.118	-0.260
-147.574	-200.000	-0.021	0.123
-146.560	237.755	0.055	0.091
-145.545	68.691	-0.058	0.059
-144.531	114.563	0.185	0.222
-143.516	-27.615	-0.120	-0.069
-142.502	-200.000	-0.021	-0.092
-141.487	75.813	0.072	-0.075
-140.472	-48.727	0.142	0.067
-139.458	-84.260	0.524	-0.164
-138.443	166.473	-0.133	-0.186
-137.429	768.097	0.130	-0.349
-136.414	800.000	-0.127	0.435
-135.399	800.000	-0.070	-0.210
-134.385	-149.837	0.317	0.024
-133.370	-120.413	0.428	0.072
-132.356	-69.374	0.031	0.012
-131.341	-200.000	0.009	-0.248
-130.326	57.586	0.216	-0.208
-129.312	-55.594	-0.172	0.076
-128.297	84.175	0.031	0.033
-127.283	-122.835	-0.151	0.024
-126.268	144.281	0.221	-0.290
-125.253	-200.000	-0.012	-0.186
-124.239	-12.267	0.339	0.218
-123.224	80.163	-0.079	0.083
-122.210	26.209	0.193	-0.159
