DTS Sentinel unit serial number:	SN413079Multiplexer serial number:	ORYXHardware model number:	OX4-SRSoftware version number:	ORYX F/W v4.00 Oryx Data Collector v3.7.2.0data status	okinstallation	princeton_trtdifferential loss correction	single-endedforward channel	channel 3reverse channel	N/Adate	2019/09/16time	22:48:35forward acquisition time	60.00reverse acquisition time	0.00gamma	496.2192k internal	0.2325k external	0.2325temperature offset calibration	0.9944default loss term (dB/km)	0.3790temperature slope calibration	1.0000multiplexer offset coefficient	1.0000multiplexer slope coefficient	1.0000fibre end	0.00T internal ref (°C)	30.52T ext. ref 1 (°C)	0.07T ext. ref 2 (°C)	24.14length (m)	temperature (°C)	Stokes	anti-Stokes-747.200	78.572	0.159	-0.171
-746.185	333.519	0.052	0.101
-745.171	65.690	-0.106	0.108
-744.156	437.943	0.090	-0.199
-743.142	-2.755	-0.281	-0.198
-742.127	-50.171	-0.177	-0.084
-741.112	172.850	0.162	0.236
-740.098	125.972	0.080	0.102
-739.083	262.324	0.059	-0.103
-738.069	109.434	-0.166	0.201
-737.054	77.265	-0.130	-0.140
-736.039	246.538	-0.142	-0.241
-735.025	-13.804	0.136	0.088
-734.010	-127.084	-0.345	0.051
-732.996	-200.000	-0.006	0.197
-731.981	-6.525	-0.293	0.202
-730.966	415.743	-0.147	-0.317
-729.952	-148.832	-0.277	0.023
-728.937	-99.220	-0.209	-0.053
-727.923	197.939	0.052	0.080
-726.908	800.000	0.144	0.481
-725.894	86.141	-0.166	0.184
-724.879	169.225	-0.199	-0.286
-723.864	24.529	0.176	0.147
-722.850	-69.779	-0.392	0.151
-721.835	-19.056	-0.082	0.051
-720.821	-9.252	0.101	0.068
-719.806	66.842	0.156	-0.160
-718.791	-200.000	0.025	0.182
-717.777	-200.000	0.017	-0.198
-716.762	-200.000	0.003	-0.086
-715.748	-193.041	-0.074	-0.001
-714.733	12.213	0.207	0.160
-713.718	-120.268	-0.129	-0.022
-712.704	-200.000	0.031	0.136
-711.689	99.363	0.238	-0.278
-710.675	-97.050	0.298	-0.079
-709.660	362.441	0.059	-0.120
-708.645	53.261	0.055	0.053
-707.631	171.892	0.054	0.079
-706.616	-36.861	0.083	0.045
-705.602	-200.000	-0.039	-0.374
-704.587	-200.000	-0.019	0.089
-703.572	273.094	-0.159	-0.283
-702.558	123.223	-0.061	0.077
-701.543	-152.665	-0.545	0.039
-700.529	-49.687	-0.082	0.039
-699.514	-65.006	-0.103	-0.042
-698.499	-95.937	0.125	0.033
-697.485	279.832	-0.191	0.343
-696.470	-200.000	-0.004	0.083
-695.456	47.182	0.272	-0.255
-694.441	800.000	0.033	-0.107
-693.426	-13.249	-0.362	-0.237
-692.412	130.399	0.165	0.213
-691.397	40.864	-0.235	-0.214
-690.383	-164.687	0.290	-0.013
-689.368	800.000	0.038	-0.127
-688.354	-200.000	0.000	-0.245
-687.339	71.178	-0.283	-0.296
-686.324	800.000	-0.041	-0.152
-685.310	594.393	0.063	0.156
-684.295	94.999	-0.051	-0.058
-683.281	-80.039	-0.193	-0.065
-682.266	124.825	0.223	-0.283
-681.251	87.305	0.074	-0.083
-680.237	-200.000	-0.018	0.194
-679.222	267.885	-0.205	-0.362
-678.208	-200.000	0.030	-0.179
-677.193	-200.000	0.009	-0.153
-676.178	45.117	0.047	-0.043
-675.164	-72.864	-0.112	-0.041
-674.149	254.731	0.078	0.135
-673.135	18.814	-0.219	-0.177
-672.120	-180.458	-0.086	0.002
-671.105	157.338	0.161	-0.224
-670.091	-200.000	0.026	-0.215
-669.076	-107.768	0.234	-0.051
-668.062	-111.205	-0.351	0.072
-667.047	-200.000	0.000	0.171
-666.032	800.000	-0.046	-0.144
-665.018	-91.336	0.289	-0.083
-664.003	800.000	0.086	0.257
-662.989	-116.022	-0.256	0.048
-661.974	133.738	0.128	-0.167
-660.959	108.092	0.145	0.174
-659.945	-200.000	0.022	-0.411
-658.930	-200.000	-0.013	0.201
-657.916	138.539	0.123	-0.162
-656.901	-148.852	0.229	-0.019
-655.886	-108.485	-0.147	0.032
-654.872	226.885	0.106	0.173
-653.857	-136.179	-0.223	-0.026
-652.843	38.215	-0.155	0.139
-651.828	264.228	-0.203	0.355
-650.814	-145.905	0.262	0.023
-649.799	-107.662	-0.087	0.019
-648.784	-148.772	-0.179	0.015
-647.770	800.000	-0.095	-0.356
-646.755	-200.000	0.020	-0.220
-645.741	-41.493	0.218	0.113
-644.726	-120.309	0.334	0.057
-643.711	655.179	-0.096	0.247
-642.697	76.566	-0.023	-0.025
-641.682	122.189	-0.130	0.163
-640.668	-200.000	0.010	-0.092
-639.653	-3.558	0.120	-0.084
-638.638	16.070	-0.098	0.077
-637.624	126.205	-0.186	0.237
-636.609	-45.891	0.236	-0.117
-635.595	-19.106	-0.066	0.041
-634.580	179.891	-0.151	-0.222
-633.565	800.000	0.156	-0.434
-632.551	-65.825	-0.177	0.071
-631.536	-142.190	0.097	-0.010
-630.522	-4.210	0.060	0.042
-629.507	-154.689	-0.289	0.019
-628.492	43.479	0.180	0.166
-627.478	-142.372	-0.276	0.027
-626.463	-51.979	-0.247	-0.115
-625.449	800.000	0.039	-0.122
-624.434	-6.112	-0.050	-0.034
-623.419	-200.000	-0.017	0.479
-622.405	17.589	-0.155	-0.123
-621.390	-71.677	-0.183	-0.069
-620.376	98.166	-0.118	0.136
-619.361	-200.000	-0.013	-0.092
-618.346	44.986	-0.039	-0.036
-617.332	240.851	0.080	0.134
-616.317	-37.061	0.073	0.039
-615.303	490.181	0.082	0.189
-614.288	44.323	-0.250	-0.230
-613.273	72.833	0.314	-0.329
-612.259	-55.533	0.192	0.086
-611.244	700.429	0.084	-0.223
-610.230	-200.000	0.047	0.387
-609.215	218.511	-0.206	0.329
-608.201	46.770	0.055	-0.052
-607.186	-190.402	0.202	-0.002
-606.171	10.228	-0.108	0.083
-605.157	800.000	-0.039	0.163
-604.142	27.000	-0.089	-0.075
-603.128	-200.000	-0.008	-0.047
-602.113	-103.114	-0.159	-0.038
-601.098	668.089	-0.117	0.303
-600.084	-97.364	0.243	0.064
-599.069	153.319	0.126	0.173
-598.055	147.779	-0.363	0.491
-597.040	-1.308	-0.321	-0.227
-596.025	-103.138	-0.175	-0.041
-595.011	-200.000	0.004	-0.345
-593.996	-22.066	-0.145	0.088
-592.982	-139.098	0.187	-0.020
-591.967	-54.264	0.205	-0.093
-590.952	-36.462	0.174	-0.094
-589.938	-200.000	0.020	0.180
-588.923	36.954	-0.228	0.202
-587.909	-138.032	-0.205	-0.023
-586.894	-27.427	-0.075	0.044
-585.879	-84.651	-0.395	-0.125
-584.865	800.000	0.121	-0.368
-583.850	274.049	-0.206	-0.365
-582.836	-200.000	-0.007	-0.128
-581.821	93.443	0.182	0.207
-580.806	14.616	0.307	-0.240
-579.792	-73.354	-0.222	0.081
-578.777	-48.807	0.261	0.125
-577.763	-69.350	-0.136	0.052
-576.748	-23.978	-0.160	-0.096
-575.733	59.904	0.063	0.062
-574.719	-200.000	-0.027	-0.309
-573.704	-200.000	0.014	-0.235
-572.690	-98.408	-0.163	-0.042
-571.675	407.701	0.208	-0.442
-570.661	-159.305	0.196	0.011
-569.646	-21.311	0.174	-0.106
-568.631	800.000	0.071	-0.235
-567.617	113.892	0.092	-0.112
-566.602	-200.000	-0.032	-0.186
-565.588	327.103	0.167	0.321
-564.573	-10.995	0.088	0.058
-563.558	-60.056	0.018	-0.008
-562.544	-174.751	-0.272	-0.008
-561.529	488.287	0.167	0.381
-560.515	523.325	-0.129	-0.304
-559.500	-116.737	0.276	0.051
-558.485	710.279	-0.092	0.244
-557.471	-200.000	0.052	0.283
-556.456	-79.355	0.349	-0.118
-555.442	108.853	0.192	-0.229
-554.427	-175.972	-0.139	-0.004
-553.412	46.996	0.092	-0.085
-552.398	51.689	-0.097	0.093
-551.383	-200.000	-0.035	0.248
-550.369	800.000	-0.086	0.341
-549.354	-200.000	0.035	0.193
-548.339	-89.192	-0.047	-0.014
-547.325	-200.000	-0.009	0.154
-546.310	800.000	-0.108	-0.310
-545.296	173.736	0.116	0.167
-544.281	-200.000	0.042	-0.187
-543.266	-130.124	-0.337	0.046
-542.252	-200.000	-0.005	0.197
-541.237	-41.766	-0.085	0.044
-540.223	800.000	0.038	0.143
-539.208	171.206	0.123	0.176
-538.193	-140.303	0.102	0.011
-537.179	800.000	0.094	0.394
-536.164	175.019	0.088	0.128
-535.150	-200.000	-0.169	0.000
-534.135	-200.000	0.019	-0.180
-533.121	-200.000	0.005	0.051
-532.106	800.000	-0.138	-0.509
-531.091	158.585	0.149	-0.207
-530.077	496.683	-0.031	0.072
-529.062	174.500	-0.083	-0.120
-528.048	-119.990	-0.173	0.030
-527.033	-154.720	-0.035	-0.002
-526.018	-18.993	-0.201	-0.125
-525.004	-23.875	-0.326	0.195
-523.989	-0.859	-0.165	0.117
-522.975	800.000	-0.064	0.216
-521.960	22.460	0.247	0.202
-520.945	136.641	-0.122	0.159
-519.931	295.549	0.159	0.291
-518.916	-29.590	0.311	0.178
-517.902	-90.041	0.282	-0.082
-516.887	-62.919	-0.141	0.058
-515.872	46.440	0.185	-0.171
-514.858	-112.891	-0.266	0.053
-513.843	68.308	0.031	-0.032
-512.829	-106.872	0.187	0.041
-511.814	-64.468	-0.330	-0.134
-510.799	47.932	0.145	0.135
-509.785	-200.000	0.017	-0.474
-508.770	235.380	-0.032	-0.053
-507.756	0.925	-0.204	-0.147
-506.741	-59.461	-0.095	-0.041
-505.726	-48.022	-0.353	0.170
-504.712	39.458	0.073	0.065
-503.697	-200.000	0.003	0.425
-502.683	-55.532	-0.077	-0.035
-501.668	11.453	-0.117	0.090
-500.653	163.150	0.117	0.164
-499.639	-185.498	0.145	-0.002
-498.624	-6.092	0.230	-0.157
-497.610	-85.020	-0.244	0.076
-496.595	155.235	0.043	-0.060
-495.581	800.000	-0.063	-0.251
-494.566	653.981	0.103	-0.263
-493.551	800.000	0.029	-0.091
-492.537	-163.554	0.253	0.012
-491.522	22.662	-0.355	0.290
-490.508	236.082	-0.175	0.289
-489.493	-200.000	-0.027	-0.243
-488.478	-83.224	0.077	-0.025
-487.464	-200.000	-0.003	-0.042
-486.449	-144.299	-0.116	0.011
-485.435	101.151	-0.184	-0.214
-484.420	35.747	0.207	-0.182
-483.405	1.325	-0.071	0.051
-482.391	64.395	0.233	-0.235
-481.376	411.180	-0.187	0.397
-480.362	-46.261	0.378	0.186
-479.347	-150.622	-0.317	-0.024
-478.332	141.668	-0.166	0.219
-477.318	-102.505	0.148	0.035
-476.303	99.560	0.177	0.205
-475.289	53.846	-0.267	0.256
-474.274	-137.816	-0.187	0.021
-473.259	-126.692	0.199	0.029
-472.245	-63.933	-0.054	-0.022
-471.230	-32.236	0.153	-0.085
-470.216	105.412	-0.062	0.073
-469.201	736.610	0.106	0.282
-468.186	136.121	-0.040	-0.051
-467.172	-200.000	0.027	-0.204
-466.157	-109.807	-0.222	0.047
-465.143	-163.008	0.129	-0.006
-464.128	-200.000	-0.036	-0.231
-463.113	-136.401	0.159	0.018
-462.099	-66.100	-0.185	0.074
-461.084	267.990	-0.074	0.130
-460.070	355.954	0.091	0.180
-459.055	-10.949	0.255	-0.168
-458.040	745.158	0.064	-0.171
-457.026	-200.000	-0.035	-0.330
-456.011	9.574	0.176	0.133
-454.997	53.390	-0.158	0.151
-453.982	-200.000	-0.002	0.117
-452.968	-123.596	0.310	0.049
-451.953	23.119	-0.092	-0.075
-450.938	452.422	0.024	-0.053
-449.924	-200.000	-0.008	-0.212
-448.909	-167.364	-0.151	-0.006
-447.895	208.902	0.087	-0.136
-446.880	-131.561	-0.019	0.003
-445.865	-0.141	-0.295	-0.209
-444.851	-200.000	0.005	0.064
-443.836	159.423	0.054	-0.075
-442.822	702.510	0.062	0.164
-441.807	-148.640	-0.392	0.032
-440.792	-200.000	-0.029	-0.201
-439.778	19.839	-0.130	0.104
-438.763	-200.000	0.006	0.435
-437.749	800.000	0.055	-0.171
-436.734	800.000	0.019	-0.057
-435.719	-26.454	0.170	-0.099
-434.705	-107.462	0.157	-0.034
-433.690	-200.000	0.008	0.164
-432.676	800.000	-0.046	0.160
-431.661	-200.000	0.006	-0.090
-430.646	-142.393	-0.183	0.018
-429.632	97.975	-0.180	-0.206
-428.617	-200.000	-0.008	0.040
-427.603	510.953	0.073	-0.168
-426.588	-200.000	-0.042	-0.266
-425.573	-19.487	0.149	0.092
-424.559	-119.703	-0.230	0.040
-423.544	-200.000	0.039	-0.174
-422.530	15.932	-0.234	-0.183
-421.515	-131.701	-0.304	-0.040
-420.500	-140.659	0.292	0.030
-419.486	-75.839	-0.334	0.118
-418.471	191.013	0.209	0.313
-417.457	-90.213	0.022	0.006
-416.442	-106.620	0.136	0.030
-415.428	80.028	0.131	0.141
-414.413	-118.563	-0.363	0.064
-413.398	57.145	0.315	0.306
-412.384	256.828	0.051	-0.087
-411.369	-80.317	-0.095	0.032
-410.355	162.578	-0.184	0.257
-409.340	-200.000	-0.012	-0.075
-408.325	800.000	0.105	0.421
-407.311	-71.539	0.470	-0.175
-406.296	800.000	0.037	0.117
-405.282	182.860	-0.078	0.115
-404.267	-20.676	-0.226	0.138
-403.252	-121.723	-0.141	-0.023
-402.238	-30.974	0.047	0.026
-401.223	-14.234	0.119	-0.077
-400.209	-20.159	0.109	-0.067
-399.194	800.000	0.031	-0.112
-398.179	-198.595	-0.156	-0.001
-397.165	195.517	0.101	-0.153
-396.150	-200.000	-0.038	0.372
-395.136	-139.686	0.219	0.023
-394.121	-200.000	0.051	-0.310
-393.106	-50.233	-0.220	0.103
-392.092	-200.000	0.062	0.352
-391.077	-35.207	0.190	0.103
-390.063	15.725	-0.237	-0.185
-389.048	146.252	0.056	0.074
-388.033	12.581	-0.362	0.278
-387.019	-51.779	0.048	-0.022
-386.004	371.360	0.104	-0.210
-384.990	-200.000	-0.048	0.307
-383.975	41.454	0.096	0.087
-382.960	-97.263	0.134	0.035
-381.946	187.092	-0.149	-0.221
-380.931	456.494	0.110	0.243
-379.917	-200.000	-0.057	-0.360
-378.902	302.334	0.145	0.267
-377.888	46.536	-0.045	-0.042
-376.873	22.891	0.103	-0.084
-375.858	263.664	-0.126	0.218
-374.844	-118.021	0.177	0.032
-373.829	-136.591	0.424	-0.049
-372.815	-119.845	-0.260	0.044
-371.800	-200.000	0.014	-0.150
-370.785	800.000	0.054	0.236
-369.771	20.677	-0.063	-0.051
-368.756	-13.611	-0.164	-0.105
-367.742	-29.852	0.173	-0.098
-366.727	-143.222	0.318	-0.030
-365.712	-200.000	0.046	-0.252
-364.698	-200.000	-0.013	-0.287
-363.683	58.477	0.048	-0.047
-362.669	656.842	0.072	0.185
-361.654	-75.855	0.117	0.041
-360.639	723.173	-0.081	-0.213
-359.625	-200.000	0.001	0.358
-358.610	88.638	0.137	0.151
-357.596	-107.687	0.066	-0.014
-356.581	178.766	0.108	-0.157
-355.566	800.000	0.068	0.203
-354.552	-160.160	-0.161	0.009
-353.537	-34.534	0.010	-0.005
-352.523	-200.000	0.022	-0.107
-351.508	175.013	0.058	-0.083
-350.493	800.000	-0.032	0.105
-349.479	800.000	-0.045	0.141
-348.464	800.000	0.023	0.075
-347.450	-131.011	0.232	-0.031
-346.435	-200.000	-0.025	-0.132
-345.420	8.179	0.227	0.169
-344.406	-36.051	-0.297	0.160
-343.391	-200.000	-0.065	0.341
-342.377	-46.770	-0.136	0.066
-341.362	162.368	-0.100	0.139
-340.348	499.106	-0.062	0.142
-339.333	585.105	-0.117	-0.285
-338.318	-35.677	-0.294	-0.158
-337.304	-59.177	-0.184	-0.079
-336.289	800.000	0.098	-0.285
-335.275	261.470	-0.036	-0.062
-334.260	-111.975	0.106	0.021
-333.245	104.625	0.162	0.189
-332.231	-119.871	0.357	0.061
-331.216	233.611	-0.126	-0.205
-330.202	-200.000	0.000	0.035
-329.187	-200.000	-0.011	-0.374
-328.172	-43.043	-0.186	-0.094
-327.158	60.202	-0.149	-0.147
-326.143	-117.357	-0.446	0.080
-325.129	96.895	-0.225	0.256
-324.114	800.000	0.026	-0.099
-323.099	-98.984	0.095	0.024
-322.085	184.355	0.160	-0.235
-321.070	-200.000	-0.020	-0.102
-320.056	800.000	0.052	-0.148
-319.041	44.072	0.254	-0.231
-318.026	800.000	0.060	-0.177
-317.012	-76.499	0.134	0.047
-315.997	-85.489	-0.128	0.039
-314.983	179.776	0.131	-0.190
-313.968	77.874	-0.116	0.123
-312.953	791.306	-0.108	0.295
-311.939	204.609	-0.073	0.112
-310.924	-89.912	0.272	-0.079
-309.910	-105.881	0.244	0.055
-308.895	-140.317	-0.439	-0.046
-307.880	-3.613	0.035	-0.024
-306.866	-98.117	-0.193	0.049
-305.851	25.762	0.165	0.137
-304.837	-200.000	0.028	0.154
-303.822	800.000	-0.068	0.223
-302.807	-92.156	0.250	-0.070
-301.793	-16.751	0.194	-0.122
-300.778	-18.325	-0.102	-0.064
-299.764	115.985	0.091	-0.111
-298.749	-123.071	0.188	-0.030
-297.735	-20.088	-0.303	0.186
-296.720	800.000	0.061	-0.183
-295.705	-101.698	0.244	0.059
-294.691	44.513	0.085	0.077
-293.676	800.000	0.015	0.060
-292.662	170.431	-0.131	-0.185
-291.647	-200.000	0.039	-0.375
-290.632	-85.439	0.280	-0.086
-289.618	-174.159	-0.064	-0.002
-288.603	-200.000	0.039	0.329
-287.589	-110.324	-0.240	-0.050
-286.574	-80.393	-0.116	-0.038
-285.559	-200.000	-0.038	-0.180
-284.545	427.930	-0.074	0.158
-283.530	-200.000	0.019	0.248
-282.516	-146.602	0.202	0.017
-281.501	454.504	0.111	0.243
-280.486	-49.874	0.220	0.103
-279.472	-200.000	-0.003	0.335
-278.457	-111.670	-0.162	-0.033
-277.443	800.000	0.053	0.226
-276.428	-9.113	0.135	0.089
-275.413	-152.981	-0.220	-0.015
-274.399	-90.202	-0.383	0.110
-273.384	800.000	-0.054	-0.166
-272.370	-41.506	0.258	0.132
-271.355	-120.001	-0.580	-0.099
-270.340	35.355	-0.317	0.276
-269.326	-112.659	0.034	-0.007
-268.311	162.161	-0.070	-0.098
-267.297	-5.343	0.256	-0.174
-266.282	-200.000	-0.003	0.145
-265.267	333.179	0.066	0.126
-264.253	-153.690	-0.090	0.006
-263.238	-200.000	-0.001	-0.081
-262.224	800.000	0.076	-0.241
-261.209	800.000	-0.038	-0.107
-260.195	-42.983	-0.141	-0.071
-259.180	-122.408	0.328	-0.053
-258.165	67.882	0.167	-0.169
-257.151	800.000	-0.056	-0.226
-256.136	35.512	0.168	0.146
-255.122	141.942	-0.068	0.089
-254.107	124.563	-0.176	0.220
-253.092	145.956	0.088	0.117
-252.078	-24.714	0.083	0.049
-251.063	41.502	-0.132	-0.119
-250.049	-54.157	0.163	-0.073
-249.034	-55.618	0.114	-0.051
-248.019	10.624	-0.087	0.065
-247.005	-106.499	0.104	-0.023
-245.990	218.163	0.059	0.093
-244.976	-129.678	-0.126	-0.017
-243.961	-78.262	0.360	0.122
-242.946	-24.273	-0.354	-0.209
-241.932	131.129	-0.131	-0.166
-240.917	46.202	0.123	-0.113
-239.903	-200.000	-0.053	-0.271
-238.888	2.429	-0.138	-0.099
-237.873	-37.251	0.177	-0.094
-236.859	239.218	-0.038	-0.062
-235.844	13.726	-0.191	-0.147
-234.830	-62.515	-0.040	-0.017
-233.815	-96.723	0.332	-0.086
-232.800	800.000	0.060	-0.174
-231.786	81.572	-0.165	0.177
-230.771	-162.718	0.207	-0.010
-229.757	152.415	0.163	0.220
-228.742	66.775	0.108	0.109
-227.727	1.284	0.190	0.135
-226.713	481.950	0.067	0.151
-225.698	39.634	-0.165	0.147
-224.684	55.920	-0.057	-0.055
-223.669	-19.981	0.189	-0.115
-222.655	-32.193	-0.310	-0.172
-221.640	97.039	-0.038	0.043
-220.625	88.332	-0.418	-0.459
-219.611	7.467	-0.038	0.028
-218.596	359.344	0.101	-0.200
-217.582	-104.040	0.121	0.028
-216.567	15.689	0.280	0.218
-215.552	91.285	0.234	0.260
-214.538	49.196	-0.071	-0.066
-213.523	-113.981	-0.342	0.066
-212.509	800.000	-0.061	-0.189
-211.494	-166.206	0.184	-0.008
-210.479	-200.000	-0.073	0.349
-209.465	-28.177	0.324	0.185
-208.450	800.000	-0.098	-0.272
-207.436	-40.554	-0.017	0.009
-206.421	-200.000	0.003	-0.180
-205.406	-108.039	0.300	-0.064
-204.392	609.355	0.038	0.093
-203.377	21.290	0.062	0.050
-202.363	674.551	0.097	-0.250
-201.348	4.828	-0.291	0.212
-200.333	117.064	0.079	-0.096
-199.319	-200.000	0.010	-0.182
-198.304	592.200	0.091	-0.223
-197.290	-118.883	0.284	-0.049
-196.275	-56.787	-0.227	-0.099
-195.260	139.162	0.156	-0.203
-194.246	800.000	0.066	-0.189
-193.231	243.194	-0.181	0.299
-192.217	800.000	0.041	0.157
-191.202	-110.148	0.271	-0.056
-190.187	-200.000	0.047	0.260
-189.173	-153.087	0.193	0.013
-188.158	48.465	0.155	-0.143
-187.144	188.750	0.052	-0.076
-186.129	-200.000	0.036	0.179
-185.114	-26.230	0.090	0.052
-184.100	13.300	0.191	0.146
-183.085	800.000	-0.122	-0.378
-182.071	93.820	-0.144	0.161
-181.056	-38.995	0.307	-0.159
-180.042	706.545	0.213	0.554
-179.027	38.655	0.136	-0.119
-178.012	800.000	0.149	-0.506
-176.998	-63.602	0.405	0.164
-175.983	800.000	0.036	0.103
-174.969	236.317	-0.208	-0.339
-173.954	159.936	-0.071	0.097
-172.939	117.625	0.006	-0.007
-171.925	267.616	-0.015	-0.025
-170.910	16.985	-0.160	-0.125
-169.896	-200.000	-0.023	0.223
-168.881	-125.594	-0.125	0.019
-167.866	-200.000	-0.019	-0.443
-166.852	-93.095	-0.295	0.081
-165.837	-151.641	-0.297	-0.022
-164.823	57.694	0.255	0.246
-163.808	-200.000	0.019	-0.113
-162.793	-165.221	-0.310	-0.013
-161.779	-93.886	-0.276	0.075
-160.764	-13.017	-0.084	-0.054
-159.750	800.000	0.168	-0.485
-158.735	-200.000	-0.025	-0.480
-157.720	-87.147	0.197	0.059
-156.706	140.830	-0.083	-0.108
-155.691	-200.000	0.004	0.030
-154.677	800.000	-0.055	-0.157
-153.662	-200.000	-0.012	0.070
-152.647	-30.303	-0.313	0.175
-151.633	95.150	0.200	-0.225
-150.618	182.000	-0.178	0.258
-149.604	50.238	0.210	0.196
-148.589	128.772	0.145	-0.182
-147.574	-109.061	0.074	-0.016
-146.560	-200.000	-0.069	0.325
-145.545	-105.950	-0.458	0.102
-144.531	-128.260	0.275	0.039
-143.516	-16.108	0.206	0.129
-142.502	-114.714	0.258	-0.049
-141.487	161.201	0.167	0.229
-140.472	121.552	-0.186	0.229
-139.458	457.148	-0.130	0.284
-138.443	271.810	0.191	-0.331
-137.429	-200.000	0.059	-0.349
-136.414	-200.000	0.026	0.245
-135.399	-170.669	0.303	-0.010
-134.385	238.245	-0.056	-0.091
-133.370	-105.969	0.043	0.010
-132.356	-51.074	0.149	-0.069
-131.341	-200.000	0.015	-0.106
-130.326	-200.000	0.004	0.021
-129.312	4.952	-0.157	0.114
-128.297	-65.774	-0.311	0.123
-127.283	-200.000	0.208	0.001
-126.268	-200.000	-0.035	0.196
-125.253	45.952	0.297	-0.271
-124.239	-200.000	-0.018	0.125
-123.224	207.564	-0.058	-0.089
-122.210	84.605	-0.106	0.115
-121.195	2.691	-0.267	0.191
