DTS Sentinel unit serial number:	SN413079Multiplexer serial number:	ORYXHardware model number:	OX4-SRSoftware version number:	ORYX F/W v4.00 Oryx Data Collector v3.7.2.0data status	okinstallation	princeton_trtdifferential loss correction	single-endedforward channel	channel 3reverse channel	N/Adate	2019/09/14time	05:16:34forward acquisition time	60.00reverse acquisition time	0.00gamma	496.2192k internal	0.2337k external	0.2337temperature offset calibration	1.0053default loss term (dB/km)	0.3790temperature slope calibration	1.0000multiplexer offset coefficient	1.0000multiplexer slope coefficient	1.0000fibre end	0.00T internal ref (°C)	26.94T ext. ref 1 (°C)	3.39T ext. ref 2 (°C)	21.99length (m)	temperature (°C)	Stokes	anti-Stokes-747.200	-200.000	0.024	0.147
-746.185	-75.657	-0.212	-0.076
-745.171	445.868	-0.100	0.221
-744.156	800.000	0.032	-0.138
-743.142	-200.000	0.043	-0.266
-742.127	-200.000	0.028	0.326
-741.112	-119.522	-0.218	0.038
-740.098	-200.000	-0.032	0.301
-739.083	800.000	-0.097	-0.271
-738.069	-79.000	-0.371	0.127
-737.054	-26.172	-0.156	-0.092
-736.039	800.000	-0.123	-0.521
-735.025	-200.000	0.024	-0.144
-734.010	-51.153	-0.341	0.160
-732.996	567.434	0.084	-0.205
-731.981	-113.539	-0.529	-0.104
-730.966	413.589	0.084	0.180
-729.952	127.175	-0.214	-0.272
-728.937	-63.916	-0.081	-0.033
-727.923	-81.389	-0.038	-0.012
-726.908	123.155	-0.139	0.174
-725.894	476.348	-0.192	-0.436
-724.879	171.944	-0.087	0.126
-723.864	-106.251	-0.619	0.139
-722.850	198.577	0.059	0.091
-721.835	5.837	0.160	0.118
-720.821	-200.000	0.008	-0.058
-719.806	31.035	-0.082	0.070
-718.791	-200.000	0.006	-0.201
-717.777	62.472	-0.116	-0.116
-716.762	-30.457	0.116	-0.066
-715.748	231.636	-0.082	-0.135
-714.733	800.000	-0.073	0.261
-713.718	800.000	0.051	0.149
-712.704	-173.313	-0.123	0.004
-711.689	-98.616	0.087	0.022
-710.675	180.850	-0.155	-0.228
-709.660	93.518	-0.160	0.182
-708.645	800.000	-0.136	-0.429
-707.631	-8.315	-0.265	-0.178
-706.616	144.021	-0.005	0.007
-705.602	197.342	-0.112	0.172
-704.587	-120.901	-0.129	0.022
-703.572	794.989	-0.075	-0.208
-702.558	342.498	0.112	-0.220
-701.543	23.454	-0.023	-0.019
-700.529	-52.452	-0.122	-0.056
-699.514	622.597	0.130	0.329
-698.499	-93.625	0.165	0.046
-697.485	321.708	0.081	-0.155
-696.470	55.251	-0.109	0.106
-695.456	-200.000	-0.019	0.148
-694.441	-24.996	-0.080	-0.047
-693.426	14.969	0.084	0.066
-692.412	-0.259	0.427	-0.304
-691.397	-25.405	-0.160	-0.095
-690.383	248.354	-0.060	-0.101
-689.368	87.036	-0.183	0.203
-688.354	-138.586	-0.027	-0.003
-687.339	-23.382	0.097	-0.058
-686.324	61.588	0.098	-0.098
-685.310	97.967	-0.066	0.076
-684.295	-83.880	-0.602	0.192
-683.281	121.285	-0.190	-0.237
-682.266	-200.000	0.001	0.035
-681.251	-200.000	-0.049	-0.325
-680.237	-192.484	0.154	-0.001
-679.222	406.621	0.064	-0.136
-678.208	1.608	0.099	0.071
-677.193	30.973	0.195	0.167
-676.178	50.485	-0.078	0.074
-675.164	-200.000	-0.028	0.266
-674.149	70.997	0.045	0.047
-673.135	79.155	0.101	0.109
-672.120	-200.000	0.033	0.179
-671.105	-29.378	0.168	-0.096
-670.091	-128.498	0.150	-0.021
-669.076	-47.579	0.478	-0.232
-668.062	800.000	0.032	-0.137
-667.047	-38.956	-0.065	0.034
-666.032	-200.000	0.010	0.100
-665.018	-94.642	-0.193	0.053
-664.003	32.568	0.360	-0.311
-662.989	112.050	0.281	-0.340
-661.974	800.000	0.026	-0.108
-660.959	800.000	-0.086	-0.259
-659.945	-86.733	0.279	-0.086
-658.930	-89.890	-0.162	-0.047
-657.916	169.556	0.069	-0.099
-656.901	-200.000	-0.019	0.092
-655.886	284.797	0.056	-0.101
-654.872	30.476	-0.241	-0.206
-653.857	-68.958	0.181	-0.070
-652.843	520.029	-0.070	-0.164
-651.828	-93.377	-0.519	0.144
-650.814	120.753	-0.091	0.113
-649.799	-35.754	0.261	0.142
-648.784	-176.899	0.186	0.005
-647.770	800.000	-0.041	-0.122
-646.755	460.332	0.033	0.074
-645.741	248.130	-0.058	-0.099
-644.726	176.321	-0.091	0.132
-643.711	26.139	0.126	0.105
-642.697	49.505	-0.311	0.292
-641.682	-23.646	0.079	0.048
-640.668	167.981	-0.121	-0.171
-639.653	-158.902	-0.196	0.011
-638.638	177.603	-0.138	0.200
-637.624	-159.330	0.109	0.006
-636.609	-111.975	0.201	0.040
-635.595	215.376	-0.131	0.208
-634.580	-82.500	0.086	-0.028
-633.565	-200.000	0.014	-0.262
-632.551	689.463	-0.170	-0.445
-631.536	29.518	-0.167	-0.142
-630.522	-185.142	-0.278	-0.004
-629.507	214.742	0.063	0.100
-628.492	42.999	0.190	0.173
-627.478	-200.000	-0.053	-0.349
-626.463	-114.202	0.424	-0.082
-625.449	325.067	-0.018	0.035
-624.434	668.329	0.099	-0.256
-623.419	-13.667	0.154	0.100
-622.405	-49.372	0.289	-0.138
-621.390	-114.045	0.356	-0.069
-620.376	-200.000	0.003	-0.020
-619.361	-200.000	-0.030	-0.221
-618.346	-200.000	-0.022	-0.280
-617.332	800.000	-0.046	-0.199
-616.317	-54.673	0.234	0.106
-615.303	-154.278	-0.149	-0.010
-614.288	800.000	0.089	0.265
-613.273	-172.377	-0.236	-0.008
-612.259	68.692	0.178	-0.183
-611.244	-200.000	0.014	-0.190
-610.230	44.520	0.173	-0.159
-609.215	225.475	-0.026	-0.042
-608.201	-0.097	-0.208	-0.148
-607.186	-37.053	0.263	0.141
-606.171	-133.545	-0.304	-0.038
-605.157	13.802	0.231	-0.179
-604.142	-53.167	-0.238	0.109
-603.128	-68.834	0.141	0.054
-602.113	-200.000	-0.011	-0.214
-601.098	44.049	0.020	-0.018
-600.084	-98.140	0.190	-0.049
-599.069	-119.546	-0.079	-0.014
-598.055	-37.510	-0.292	0.155
-597.040	-32.219	-0.164	0.091
-596.025	-64.017	0.110	-0.045
-595.011	195.550	-0.053	0.080
-593.996	136.485	-0.204	0.265
-592.982	800.000	-0.033	-0.112
-591.967	-140.481	0.112	-0.012
-590.952	-18.495	-0.244	-0.152
-589.938	-200.000	-0.032	-0.290
-588.923	15.584	-0.234	-0.184
-587.909	201.427	-0.095	0.146
-586.894	92.212	-0.133	0.149
-585.879	-200.000	0.025	-0.305
-584.865	800.000	-0.062	0.248
-583.850	517.924	-0.036	0.085
-582.836	-200.000	-0.031	0.170
-581.821	800.000	-0.047	0.139
-580.806	-97.046	-0.140	0.037
-579.792	340.150	0.163	-0.318
-578.777	-3.734	-0.300	-0.208
-577.763	-111.942	-0.146	0.029
-576.748	-85.706	-0.290	0.090
-575.733	8.357	0.113	0.085
-574.719	-95.235	0.245	0.066
-573.704	-110.766	-0.440	0.090
-572.690	-200.000	-0.014	0.088
-571.675	421.542	-0.055	-0.118
-570.661	-156.047	0.441	-0.028
-569.646	800.000	0.055	0.206
-568.631	-190.052	0.395	-0.004
-567.617	-111.827	-0.169	0.034
-566.602	554.939	0.043	-0.104
-565.588	-66.584	0.210	0.083
-564.573	-105.091	-0.342	0.078
-563.558	317.262	0.139	0.261
-562.544	800.000	0.033	0.094
-561.529	90.287	-0.110	-0.123
-560.515	281.184	-0.106	-0.188
-559.500	-74.535	0.170	-0.061
-558.485	131.101	-0.183	0.234
-557.471	-87.847	0.146	-0.044
-556.456	-87.097	-0.422	0.128
-555.442	487.734	-0.071	0.161
-554.427	-45.090	-0.077	0.038
-553.412	446.272	0.064	-0.141
-552.398	77.186	-0.345	-0.365
-551.383	-200.000	0.013	0.164
-550.369	113.911	-0.139	-0.169
-549.354	168.967	-0.035	0.049
-548.339	-65.852	-0.213	0.085
-547.325	-172.174	-0.158	-0.005
-546.310	105.735	-0.230	-0.271
-545.296	-10.337	0.312	-0.206
-544.281	-35.718	-0.025	0.014
-543.266	-48.544	-0.274	0.132
-542.252	-200.000	0.003	0.148
-541.237	-162.382	-0.118	-0.006
-540.223	-14.407	0.246	0.158
-539.208	290.126	0.078	-0.142
-538.193	-6.127	-0.142	0.097
-537.179	-173.396	-0.225	0.007
-536.164	49.819	0.117	-0.110
-535.150	-13.747	-0.335	0.216
-534.135	285.119	-0.113	-0.203
-533.121	800.000	0.025	0.096
-532.106	-67.470	0.262	0.103
-531.091	-148.489	0.371	0.030
-530.077	-200.000	0.031	-0.210
-529.062	-61.846	0.221	-0.092
-528.048	429.822	-0.124	-0.267
-527.033	651.368	-0.091	-0.232
-526.018	-200.000	0.072	-0.378
-525.004	-200.000	-0.031	-0.394
-523.989	7.682	-0.077	0.058
-522.975	-200.000	-0.023	-0.208
-521.960	30.573	-0.229	-0.195
-520.945	800.000	0.039	-0.159
-519.931	8.998	0.318	-0.239
-518.916	-143.476	0.303	0.029
-517.902	-161.681	0.234	0.012
-516.887	-18.484	0.121	-0.075
-515.872	70.988	-0.070	-0.072
-514.858	136.129	0.114	-0.148
-513.843	800.000	0.058	0.186
-512.829	-71.420	0.189	0.071
-511.814	-200.000	-0.045	-0.398
-510.799	-122.740	0.081	-0.013
-509.785	-200.000	0.026	0.120
-508.770	-38.060	-0.287	-0.152
-507.756	-200.000	0.027	0.145
-506.741	-197.755	-0.289	0.002
-505.726	227.690	0.186	0.301
-504.712	160.942	0.036	0.049
-503.697	-33.614	-0.327	-0.180
-502.683	-200.000	0.004	0.036
-501.668	-94.919	-0.092	-0.025
-500.653	233.534	0.114	0.187
-499.639	-86.059	0.313	0.096
-498.624	227.135	-0.099	-0.159
-497.610	-39.375	0.225	-0.117
-496.595	-73.942	-0.348	-0.126
-495.581	24.673	-0.110	0.090
-494.566	-50.461	-0.054	-0.025
-493.551	-200.000	-0.018	-0.269
-492.537	-21.940	0.155	0.094
-491.522	800.000	-0.014	-0.059
-490.508	-82.514	-0.129	-0.042
-489.493	111.229	0.141	0.168
-488.478	-200.000	-0.056	0.284
-487.464	59.629	0.057	0.056
-486.449	34.212	-0.194	-0.168
-485.435	21.609	0.226	-0.183
-484.420	800.000	-0.170	0.485
-483.405	83.898	0.190	0.206
-482.391	-16.612	-0.101	0.063
-481.376	800.000	0.050	-0.207
-480.362	-164.422	-0.137	0.006
-479.347	126.148	0.117	-0.147
-478.332	-184.814	-0.073	0.001
-477.318	206.351	-0.151	-0.234
-476.303	-161.850	-0.101	-0.005
-475.289	100.320	0.031	0.035
-474.274	-191.265	0.310	-0.003
-473.259	-65.183	0.206	0.083
-472.245	-200.000	0.027	-0.142
-471.230	463.676	-0.070	0.156
-470.216	652.441	0.155	0.395
-469.201	34.151	0.148	0.128
-468.186	80.433	-0.140	-0.149
-467.172	54.299	0.153	-0.146
-466.157	-143.837	-0.117	0.011
-465.143	-8.051	0.058	0.039
-464.128	59.476	0.094	0.092
-463.113	-101.132	0.347	0.084
-462.099	-200.000	-0.015	-0.296
-461.084	-118.845	-0.391	0.068
-460.070	800.000	-0.026	-0.099
-459.055	511.303	-0.175	0.403
-458.040	-176.084	0.064	-0.002
-457.026	-200.000	0.018	-0.136
-456.011	14.737	-0.165	0.128
-454.997	-136.577	-0.171	0.020
-453.982	527.286	-0.075	0.176
-452.968	-112.412	-0.284	-0.056
-451.953	-24.390	0.169	-0.100
-450.938	-0.955	-0.065	-0.045
-449.924	6.095	-0.186	-0.137
-448.909	-200.000	-0.068	-0.397
-447.895	61.005	0.393	-0.387
-446.880	-26.051	-0.232	-0.136
-445.865	-163.321	-0.168	0.008
-444.851	-132.379	0.217	0.028
-443.836	-60.669	-0.051	-0.021
-442.822	-108.614	0.061	0.013
-441.807	800.000	-0.098	-0.359
-440.792	-22.535	-0.150	-0.090
-439.778	507.583	0.056	0.129
-438.763	347.211	-0.102	0.198
-437.749	800.000	-0.031	0.124
-436.734	-16.320	0.094	-0.059
-435.719	-154.013	0.073	-0.005
-434.705	12.061	0.098	-0.075
-433.690	-29.116	0.134	-0.076
-432.676	-102.806	0.374	-0.088
-431.661	800.000	0.031	-0.111
-430.646	800.000	-0.016	-0.063
-429.632	-98.796	-0.128	-0.032
-428.617	-146.555	0.209	0.018
-427.603	631.283	0.082	-0.207
-426.588	-113.912	0.158	-0.030
-425.573	69.980	-0.155	0.158
-424.559	-70.023	-0.124	0.047
-423.544	-155.878	0.326	0.021
-422.530	-200.000	0.004	0.104
-421.515	-39.325	0.217	-0.113
-420.500	239.751	0.069	-0.114
-419.486	-200.000	-0.033	0.162
-418.471	170.277	-0.187	0.266
-417.457	62.651	0.203	0.202
-416.442	-98.702	-0.059	0.015
-415.428	-200.000	0.016	0.178
-414.413	-27.426	0.035	-0.020
-413.398	369.061	0.094	0.188
-412.384	-200.000	-0.047	0.245
-411.369	343.958	-0.018	0.034
-410.355	-130.245	-0.109	-0.015
-409.340	22.503	0.271	0.220
-408.325	25.881	0.069	0.057
-407.311	-17.479	-0.147	-0.092
-406.296	187.938	-0.184	0.272
-405.282	-98.594	-0.140	-0.035
-404.267	-164.015	0.337	-0.016
-403.252	-200.000	-0.033	0.355
-402.238	-70.795	0.060	-0.022
-401.223	-200.000	0.107	0.000
-400.209	-58.635	-0.377	-0.162
-399.194	466.052	-0.017	0.038
-398.179	472.557	0.166	0.370
-397.165	800.000	-0.092	0.273
-396.150	50.730	-0.141	-0.133
-395.136	31.051	0.058	-0.049
-394.121	800.000	0.041	-0.132
-393.106	-51.948	-0.298	0.137
-392.092	-148.258	-0.666	-0.054
-391.077	-200.000	0.017	-0.092
-390.063	37.821	-0.196	0.172
-389.048	599.159	-0.036	-0.089
-388.033	-91.429	0.078	-0.022
-387.019	-90.480	0.162	-0.046
-386.004	-155.270	0.087	-0.006
-384.990	133.371	0.020	0.025
-383.975	385.109	-0.023	-0.047
-382.960	175.004	0.228	-0.327
-381.946	16.343	-0.066	0.052
-380.931	800.000	0.068	0.187
-379.917	-63.270	-0.242	-0.099
-378.902	30.055	-0.270	-0.228
-377.888	15.702	-0.145	-0.113
-376.873	-200.000	0.036	0.187
-375.858	-200.000	-0.010	0.096
-374.844	-180.011	0.287	0.006
-373.829	144.743	-0.084	0.111
-372.815	-200.000	-0.022	0.130
-371.800	-82.512	0.124	-0.040
-370.785	469.171	0.167	-0.371
-369.771	72.597	0.160	0.165
-368.756	-200.000	0.010	0.159
-367.742	-121.928	0.207	-0.034
-366.727	153.256	-0.105	-0.143
-365.712	49.241	-0.165	0.153
-364.698	-191.343	0.165	-0.002
-363.683	139.771	0.117	-0.152
-362.669	344.770	0.227	0.441
-361.654	260.734	0.137	-0.235
-360.639	53.909	0.091	0.087
-359.625	62.767	-0.089	-0.088
-358.610	45.538	-0.240	-0.219
-357.596	292.818	0.018	0.032
-356.581	-22.079	0.110	-0.066
-355.566	800.000	0.018	-0.049
-354.552	118.599	0.072	0.088
-353.537	800.000	-0.050	0.150
-352.523	39.695	0.168	-0.149
-351.508	800.000	-0.023	-0.096
-350.493	800.000	-0.061	0.191
-349.479	172.605	0.114	0.163
-348.464	-51.547	0.215	0.099
-347.450	303.451	0.115	-0.210
-346.435	-45.299	-0.193	-0.095
-345.420	603.653	-0.037	-0.091
-344.406	27.122	-0.076	-0.063
-343.391	-83.240	0.265	-0.084
-342.377	-50.449	0.325	0.151
-341.362	-58.974	0.030	0.013
-340.348	103.732	0.107	-0.124
-339.333	58.388	-0.171	-0.166
-338.318	-60.968	0.262	-0.109
-337.304	-126.635	-0.174	0.025
-336.289	800.000	-0.150	-0.421
-335.275	-200.000	-0.003	-0.503
-334.260	-165.712	-0.083	0.004
-333.245	-156.161	0.232	0.014
-332.231	113.809	0.115	-0.138
-331.216	-200.000	0.007	-0.151
-330.202	36.756	0.243	0.212
-329.187	322.273	0.152	0.287
-328.172	-200.000	-0.094	0.462
-327.158	152.416	-0.095	0.129
-326.143	-39.177	0.075	0.039
-325.129	92.237	0.090	-0.101
-324.114	-200.000	0.000	0.297
-323.099	-200.000	-0.045	-0.217
-322.085	757.332	-0.122	-0.327
-321.070	36.203	0.084	0.073
-320.056	39.825	-0.129	-0.114
-319.041	-120.020	-0.184	-0.031
-318.026	405.759	0.073	-0.152
-317.012	-200.000	0.028	0.289
-315.997	-200.000	0.013	-0.163
-314.983	-5.797	-0.103	0.070
-313.968	184.253	-0.441	-0.644
-312.953	-200.000	0.038	0.190
-311.939	72.706	0.190	0.195
-310.924	-93.069	0.252	-0.069
-309.910	-6.373	-0.262	0.176
-308.895	-183.181	0.091	-0.002
-307.880	-153.381	-0.083	-0.006
-306.866	278.986	0.191	-0.337
-305.851	-200.000	-0.035	-0.290
-304.837	-200.000	0.017	0.171
-303.822	98.175	0.179	-0.204
-302.807	-200.000	-0.010	-0.070
-301.793	322.472	-0.131	-0.246
-300.778	-200.000	-0.019	0.159
-299.764	800.000	0.083	0.351
-298.749	218.944	-0.171	0.270
-297.735	429.351	-0.050	-0.106
-296.720	281.883	0.082	-0.145
-295.705	-47.800	0.134	0.064
-294.691	-1.249	-0.193	-0.134
-293.676	-173.982	-0.221	-0.006
-292.662	-155.651	-0.179	0.011
-291.647	330.573	0.080	-0.152
-290.632	-26.650	-0.194	0.112
-289.618	496.999	0.049	0.112
-288.603	-57.787	0.111	-0.048
-287.589	9.141	-0.168	-0.125
-286.574	-120.797	0.491	0.082
-285.559	-123.303	-0.245	-0.039
-284.545	800.000	0.077	-0.263
-283.530	-200.000	0.036	-0.304
-282.516	-37.385	0.077	-0.040
-281.501	800.000	0.028	0.090
-280.486	76.051	-0.203	0.212
-279.472	-200.000	-0.055	0.381
-278.457	7.489	-0.090	0.066
-277.443	-42.954	-0.420	0.210
-276.428	36.699	0.285	0.248
-275.413	-56.263	0.257	0.113
-274.399	272.353	0.111	0.193
-273.384	800.000	-0.067	0.184
-272.370	215.837	0.166	0.259
-271.355	-100.038	0.217	0.053
-270.340	-93.223	-0.327	-0.090
-269.326	-36.286	0.189	0.101
-268.311	-132.726	-0.059	0.007
-267.297	-97.087	-0.417	0.107
-266.282	800.000	-0.053	-0.172
-265.267	-81.894	0.139	-0.045
-264.253	1.654	0.070	-0.049
-263.238	4.621	-0.191	0.138
-262.224	-200.000	0.009	0.269
-261.209	-73.157	-0.098	-0.035
-260.195	-8.863	0.191	0.126
-259.180	-103.240	-0.325	-0.076
-258.165	493.501	-0.071	0.160
-257.151	355.769	-0.029	0.058
-256.136	-200.000	-0.023	0.323
-255.122	27.145	-0.157	-0.130
-254.107	369.496	0.121	-0.242
-253.092	-64.317	-0.114	-0.046
-252.078	148.287	0.054	-0.072
-251.063	-15.596	-0.193	0.121
-250.049	-151.920	0.273	0.020
-249.034	800.000	-0.036	-0.099
-248.019	800.000	-0.007	0.028
-247.005	501.288	0.051	-0.116
-245.990	-108.676	0.068	0.014
-244.976	-60.832	-0.275	0.115
-243.961	-10.562	0.076	0.050
-242.946	-141.203	0.311	0.031
-241.932	148.158	-0.222	-0.296
-240.917	362.867	0.094	0.186
-239.903	661.939	-0.100	-0.253
-238.888	-200.000	0.037	0.198
-237.873	-200.000	0.024	0.414
-236.859	80.262	0.089	0.094
-235.844	73.319	-0.191	0.196
-234.830	-149.852	-0.087	-0.007
-233.815	-161.128	0.031	-0.002
-232.800	800.000	0.081	0.229
-231.786	263.104	-0.090	-0.154
-230.771	176.269	0.100	-0.143
-229.757	-28.897	-0.283	0.160
-228.742	-41.059	0.254	-0.129
-227.727	312.040	0.126	-0.234
-226.713	-200.000	-0.021	0.410
-225.698	353.386	0.207	0.404
-224.684	94.590	-0.206	-0.231
-223.669	-126.399	0.200	-0.029
-222.655	-91.552	0.446	0.125
-221.640	237.971	-0.041	-0.068
-220.625	10.571	-0.055	-0.042
-219.611	717.499	0.085	-0.222
-218.596	37.630	-0.128	0.112
-217.582	-168.569	-0.141	-0.005
-216.567	-77.985	0.159	0.054
-215.552	631.330	0.082	0.205
-214.538	800.000	0.059	0.232
-213.523	-101.967	0.039	-0.009
-212.509	-23.429	0.272	-0.160
-211.494	383.845	0.058	0.118
-210.479	339.257	0.051	0.097
-209.465	-2.907	-0.228	-0.157
-208.450	56.625	-0.135	-0.129
-207.436	-98.540	0.043	0.011
-206.421	123.784	-0.074	-0.091
-205.406	-126.171	0.296	-0.044
-204.392	800.000	0.026	0.071
-203.377	301.568	0.048	-0.088
-202.363	71.236	-0.206	0.210
-201.348	14.692	-0.089	-0.068
-200.333	-200.000	0.012	-0.233
-199.319	58.061	0.072	-0.069
-198.304	585.178	-0.126	0.304
-197.290	230.968	-0.063	-0.102
-196.275	-63.337	0.261	-0.106
-195.260	-108.408	-0.046	0.010
-194.246	-200.000	0.021	0.119
-193.231	-18.437	0.341	0.209
-192.217	126.326	-0.246	0.306
-191.202	226.067	0.237	0.378
-190.187	-81.708	-0.229	-0.074
-189.173	-35.019	0.163	-0.087
-188.158	144.850	-0.129	-0.169
-187.144	-200.000	0.029	-0.259
-186.129	234.012	-0.127	0.206
-185.114	789.795	-0.053	0.142
-184.100	-200.000	-0.321	0.001
-183.085	220.580	0.019	-0.029
-182.071	747.684	-0.096	0.254
-181.056	384.148	-0.059	0.120
-180.042	-96.543	0.320	0.083
-179.027	800.000	0.212	0.617
-178.012	-194.754	0.294	-0.002
-176.998	-200.000	-0.010	0.171
-175.983	-81.506	0.138	0.045
-174.969	707.356	-0.051	0.134
-173.954	-67.339	-0.109	-0.042
-172.939	166.760	-0.041	0.056
-171.925	72.918	-0.131	-0.134
-170.910	353.604	-0.113	0.220
-169.896	83.125	-0.129	-0.138
-168.881	6.200	-0.026	-0.019
-167.866	287.628	0.090	-0.160
-166.852	-85.151	-0.008	0.002
-165.837	-97.724	0.400	-0.102
-164.823	-22.710	-0.264	-0.157
-163.808	800.000	-0.028	-0.106
-162.793	-141.168	-0.206	0.021
-161.779	-73.712	-0.016	0.006
-160.764	-200.000	0.008	-0.099
-159.750	41.086	0.149	0.132
-158.735	93.913	0.066	-0.073
-157.720	153.574	-0.085	0.115
-156.706	-123.163	0.172	-0.027
-155.691	77.334	-0.189	-0.197
-154.677	5.040	-0.191	0.138
-153.662	623.120	0.045	-0.112
-152.647	-26.640	-0.149	0.086
-151.633	-73.936	0.175	-0.062
-150.618	-107.734	0.323	-0.069
-149.604	204.011	0.162	0.246
-148.589	71.359	-0.234	0.238
-147.574	33.908	-0.155	-0.132
-146.560	59.977	0.120	-0.116
-145.545	-103.017	-0.031	0.007
-144.531	62.095	-0.140	0.137
-143.516	-200.000	0.011	-0.092
-142.502	-200.000	-0.001	-0.332
-141.487	-168.647	0.417	0.016
-140.472	-200.000	0.008	-0.196
-139.458	-200.000	-0.042	0.248
-138.443	316.987	0.043	-0.080
-137.429	-143.311	-0.310	0.029
-136.414	-57.822	0.075	0.032
-135.399	-83.055	-0.085	-0.027
-134.385	-200.000	-0.018	-0.136
-133.370	-30.892	-0.262	-0.145
-132.356	-169.410	0.122	-0.004
-131.341	-0.910	-0.097	0.068
-130.326	-24.530	0.081	0.048
-129.312	232.182	-0.037	0.060
-128.297	418.689	0.068	-0.142
-127.283	-124.975	-0.252	-0.038
-126.268	-8.069	0.078	0.052
-125.253	-116.574	0.041	-0.007
-124.239	-108.999	0.298	-0.062
-123.224	186.443	0.209	0.305
-122.210	-200.000	-0.058	0.454
-121.195	98.764	-0.200	-0.226
