DTS Sentinel unit serial number:	SN413079Multiplexer serial number:	ORYXHardware model number:	OX4-SRSoftware version number:	ORYX F/W v4.00 Oryx Data Collector v3.7.2.0data status	okinstallation	princeton_trtdifferential loss correction	single-endedforward channel	channel 3reverse channel	N/Adate	2019/09/16time	06:20:35forward acquisition time	60.00reverse acquisition time	0.00gamma	496.2192k internal	0.2334k external	0.2334temperature offset calibration	0.9960default loss term (dB/km)	0.3790temperature slope calibration	1.0000multiplexer offset coefficient	1.0000multiplexer slope coefficient	1.0000fibre end	0.00T internal ref (°C)	27.41T ext. ref 1 (°C)	11.33T ext. ref 2 (°C)	21.62length (m)	temperature (°C)	Stokes	anti-Stokes-747.200	-181.582	-0.214	-0.004
-746.185	-200.000	0.001	0.224
-745.171	90.286	-0.096	-0.108
-744.156	-200.000	-0.036	0.272
-743.142	83.630	0.112	-0.123
-742.127	90.118	-0.236	0.265
-741.112	-200.000	-0.000	-0.030
-740.098	-200.000	0.057	0.439
-739.083	12.582	0.212	0.164
-738.069	-171.581	0.083	-0.003
-737.054	800.000	0.083	0.318
-736.039	173.760	-0.051	-0.075
-735.025	105.373	0.098	0.116
-734.010	49.089	-0.041	0.039
-732.996	-200.000	-0.030	-0.156
-731.981	-110.861	-0.216	0.045
-730.966	179.114	-0.122	0.180
-729.952	-112.054	-0.188	0.038
-728.937	800.000	0.108	-0.304
-727.923	-95.068	0.206	-0.056
-726.908	-200.000	0.016	-0.203
-725.894	43.921	0.188	-0.173
-724.879	280.574	0.020	-0.037
-723.864	-36.207	0.044	-0.024
-722.850	-50.034	-0.251	-0.119
-721.835	-162.255	-0.182	0.009
-720.821	800.000	-0.073	0.210
-719.806	420.345	-0.066	0.142
-718.791	84.286	-0.185	-0.203
-717.777	609.339	0.067	0.168
-716.762	-74.619	0.113	0.041
-715.748	183.172	0.146	0.217
-714.733	330.435	0.088	0.170
-713.718	800.000	0.105	-0.315
-712.704	-105.694	-0.145	0.033
-711.689	-13.405	0.111	-0.073
-710.675	-86.150	-0.200	0.062
-709.660	50.345	-0.192	-0.182
-708.645	420.042	-0.053	0.113
-707.631	167.943	0.227	-0.324
-706.616	-121.645	-0.149	0.025
-705.602	-39.594	-0.271	-0.142
-704.587	38.242	-0.315	-0.282
-703.572	10.539	0.146	0.112
-702.558	334.208	-0.050	-0.098
-701.543	-149.753	0.089	-0.007
-700.529	-96.603	-0.217	0.057
-699.514	-125.450	-0.153	-0.023
-698.499	800.000	-0.027	0.116
-697.485	-150.015	-0.090	-0.007
-696.470	800.000	-0.042	-0.123
-695.456	800.000	-0.020	0.078
-694.441	506.774	-0.038	-0.088
-693.426	-19.176	-0.063	0.039
-692.412	-85.373	0.143	0.045
-691.397	800.000	-0.037	0.143
-690.383	-45.782	0.274	-0.136
-689.368	800.000	-0.034	0.105
-688.354	346.873	0.154	-0.304
-687.339	407.905	0.083	-0.177
-686.324	-122.245	-0.280	-0.046
-685.310	170.105	0.044	-0.063
-684.295	321.315	-0.089	-0.169
-683.281	9.775	0.062	-0.047
-682.266	-140.037	0.205	-0.022
-681.251	-159.747	0.068	-0.004
-680.237	419.380	-0.095	-0.204
-679.222	-111.597	0.201	0.041
-678.208	654.646	-0.123	-0.316
-677.193	91.297	-0.128	0.144
-676.178	-97.998	-0.301	-0.078
-675.164	800.000	-0.110	0.406
-674.149	-50.984	-0.436	0.205
-673.135	111.176	-0.115	0.139
-672.120	401.283	-0.056	0.117
-671.105	-159.391	0.306	0.017
-670.091	-69.279	-0.170	0.066
-669.076	535.719	0.064	0.152
-668.062	-154.691	-0.220	0.015
-667.047	-145.042	-0.337	0.031
-666.032	-96.914	-0.343	0.090
-665.018	-21.927	-0.124	0.075
-664.003	-31.555	0.092	0.052
-662.989	800.000	0.099	0.292
-661.974	119.929	-0.118	0.147
-660.959	800.000	0.015	0.055
-659.945	-31.758	-0.180	0.101
-658.930	-33.652	0.240	-0.133
-657.916	-200.000	0.018	-0.128
-656.901	454.317	0.118	-0.261
-655.886	34.326	-0.217	-0.189
-654.872	96.473	0.277	0.318
-653.857	99.522	-0.374	0.433
-652.843	800.000	-0.043	-0.165
-651.828	-122.217	-0.374	0.061
-650.814	-200.000	-0.026	0.386
-649.799	11.833	0.221	-0.170
-648.784	-24.141	0.079	-0.047
-647.770	-200.000	-0.026	-0.334
-646.755	-57.945	-0.259	-0.113
-645.741	-18.949	-0.012	0.007
-644.726	68.946	0.190	0.196
-643.711	86.749	-0.341	-0.377
-642.697	-97.522	0.195	0.051
-641.682	-13.999	-0.226	-0.146
-640.668	63.553	0.114	-0.115
-639.653	-120.015	-0.175	-0.030
-638.638	800.000	0.075	0.227
-637.624	-102.668	-0.187	-0.045
-636.609	-151.834	0.229	-0.017
-635.595	-142.620	-0.290	0.028
-634.580	800.000	0.083	-0.235
-633.565	29.713	0.106	0.090
-632.551	-200.000	0.018	0.348
-631.536	-174.633	-0.371	-0.011
-630.522	561.680	-0.109	-0.263
-629.507	325.632	0.195	0.372
-628.492	-200.000	-0.024	0.308
-627.478	-200.000	0.084	0.370
-626.463	-121.996	0.269	-0.044
-625.449	125.560	-0.085	0.107
-624.434	24.212	-0.138	-0.114
-623.419	-98.116	-0.247	-0.064
-622.405	280.737	-0.241	0.432
-621.390	174.331	0.303	-0.438
-620.376	-24.224	0.111	-0.066
-619.361	320.923	-0.149	-0.284
-618.346	-32.512	0.151	0.084
-617.332	-95.111	-0.190	-0.051
-616.317	214.115	0.112	-0.178
-615.303	-78.031	0.305	-0.105
-614.288	-29.131	0.186	0.107
-613.273	-101.542	-0.502	0.122
-612.259	91.383	-0.298	0.334
-611.244	211.576	0.142	-0.223
-610.230	-156.751	-0.323	0.020
-609.215	52.914	0.087	-0.083
-608.201	-57.115	0.270	-0.119
-607.186	-200.000	0.041	-0.284
-606.171	-100.254	-0.339	-0.084
-605.157	-200.000	-0.027	0.485
-604.142	800.000	-0.035	0.139
-603.128	380.324	0.083	-0.171
-602.113	-173.516	-0.126	-0.004
-601.098	22.999	-0.235	-0.193
-600.084	-20.606	-0.378	0.232
-599.069	34.561	0.150	0.131
-598.055	127.912	-0.199	0.253
-597.040	-96.951	-0.118	-0.031
-596.025	219.598	-0.226	-0.362
-595.011	267.061	-0.137	0.239
-593.996	485.993	0.122	-0.279
-592.982	-200.000	-0.036	0.358
-591.967	-98.782	0.147	0.037
-590.952	185.104	-0.032	0.047
-589.938	800.000	-0.063	-0.215
-588.923	-129.725	-0.219	-0.030
-587.909	6.173	0.155	-0.115
-586.894	-30.434	0.036	-0.021
-585.879	-200.000	-0.017	-0.200
-584.865	800.000	0.045	-0.178
-583.850	374.439	-0.106	-0.215
-582.836	13.696	-0.192	0.149
-581.821	86.179	0.152	0.167
-580.806	-107.792	-0.114	0.025
-579.792	10.211	-0.369	-0.280
-578.777	-200.000	0.053	0.314
-577.763	-200.000	-0.023	-0.233
-576.748	71.014	-0.037	-0.039
-575.733	-30.375	0.150	-0.085
-574.719	-97.548	0.079	0.020
-573.704	-153.527	0.424	-0.029
-572.690	-200.000	-0.012	-0.437
-571.675	51.537	-0.274	-0.260
-570.661	136.610	-0.174	-0.226
-569.646	-51.600	-0.245	0.114
-568.631	33.365	-0.163	0.141
-567.617	-98.718	-0.135	0.034
-566.602	200.086	0.106	0.163
-565.588	144.036	-0.051	0.068
-564.573	527.196	-0.071	-0.168
-563.558	-47.433	0.268	0.130
-562.544	-159.306	0.299	0.017
-561.529	-5.358	0.112	-0.077
-560.515	800.000	-0.036	-0.132
-559.500	-101.296	-0.262	-0.064
-558.485	-103.322	0.310	0.073
-557.471	747.785	0.065	-0.176
-556.456	82.319	0.275	0.298
-555.442	696.136	-0.054	0.141
-554.427	800.000	0.051	0.186
-553.412	-90.091	-0.065	0.019
-552.398	33.426	0.040	0.034
-551.383	-148.126	0.157	-0.013
-550.369	155.427	0.313	-0.429
-549.354	-90.201	0.233	0.068
-548.339	27.152	0.086	0.072
-547.325	32.469	0.249	0.215
-546.310	166.770	-0.134	-0.190
-545.296	181.737	0.226	-0.332
-544.281	-200.000	-0.052	-0.269
-543.266	-31.735	0.359	-0.201
-542.252	-28.864	-0.133	-0.076
-541.237	-200.000	-0.031	-0.263
-540.223	126.231	0.104	-0.131
-539.208	4.436	-0.109	-0.080
-538.193	20.136	0.173	0.139
-537.179	-200.000	0.036	-0.412
-536.164	19.147	-0.169	0.136
-535.150	256.981	-0.083	0.142
-534.135	16.247	0.112	0.088
-533.121	116.468	-0.108	-0.132
-532.106	45.963	-0.141	0.130
-531.091	800.000	-0.049	0.163
-530.077	388.811	0.085	0.176
-529.062	-55.977	0.061	-0.027
-528.048	-200.000	-0.070	-0.495
-527.033	-12.814	-0.059	-0.038
-526.018	-150.473	0.534	-0.041
-525.004	32.125	0.116	-0.100
-523.989	-56.189	-0.328	-0.145
-522.975	112.838	0.387	0.467
-521.960	140.857	-0.045	-0.060
-520.945	-156.651	0.453	-0.028
-519.931	-97.162	-0.133	0.035
-518.916	166.933	0.140	0.197
-517.902	-174.513	-0.207	0.006
-516.887	440.636	-0.063	0.136
-515.872	13.496	0.367	0.284
-514.858	45.233	0.124	-0.114
-513.843	-83.573	0.181	0.058
-512.829	43.691	-0.127	0.116
-511.814	159.108	-0.250	-0.346
-510.799	42.053	0.155	-0.140
-509.785	107.800	-0.139	-0.165
-508.770	512.224	0.061	0.142
-507.756	-16.451	-0.201	0.127
-506.741	-186.902	-0.059	-0.001
-505.726	356.093	0.053	-0.105
-504.712	91.019	0.112	0.126
-503.697	-5.797	0.173	-0.118
-502.683	108.588	-0.325	-0.386
-501.668	460.125	0.116	-0.257
-500.653	-155.663	-0.328	-0.021
-499.639	-61.252	0.111	-0.046
-498.624	46.599	-0.029	0.026
-497.610	-78.917	0.174	0.059
-496.595	-200.000	-0.004	0.087
-495.581	-116.291	-0.178	-0.033
-494.566	800.000	-0.108	-0.341
-493.551	800.000	-0.026	0.086
-492.537	409.774	-0.164	0.346
-491.522	-50.745	-0.242	-0.113
-490.508	-200.000	-0.082	0.425
-489.493	-200.000	-0.011	0.066
-488.478	-110.772	-0.318	-0.065
-487.464	-116.462	0.192	0.035
-486.449	136.213	-0.152	-0.198
-485.435	-49.789	0.310	0.147
-484.420	-200.000	-0.005	0.135
-483.405	66.208	0.207	0.209
-482.391	-93.828	-0.099	0.027
-481.376	708.154	0.049	-0.129
-480.362	-85.222	-0.242	-0.075
-479.347	-45.753	0.062	0.030
-478.332	62.173	-0.129	0.128
-477.318	-163.358	-0.196	0.009
-476.303	-200.000	-0.028	0.215
-475.289	416.558	0.129	0.274
-474.274	158.094	-0.336	-0.463
-473.259	-51.881	-0.105	-0.049
-472.245	35.557	-0.030	-0.026
-471.230	800.000	-0.097	0.341
-470.216	-28.917	-0.240	-0.137
-469.201	-32.157	0.304	0.169
-468.186	280.299	-0.069	-0.123
-467.172	300.649	-0.132	-0.243
-466.157	-93.010	-0.298	-0.083
-465.143	800.000	-0.039	0.133
-464.128	-200.000	-0.025	-0.282
-463.113	-200.000	-0.022	-0.245
-462.099	-19.480	-0.302	0.186
-461.084	-200.000	0.060	0.470
-460.070	-175.701	0.219	0.006
-459.055	81.078	0.149	0.159
-458.040	229.843	0.074	0.120
-457.026	-175.776	-0.127	0.003
-456.011	85.871	-0.166	0.181
-454.997	224.134	-0.119	-0.191
-453.982	678.966	0.010	0.026
-452.968	-87.801	-0.154	-0.046
-451.953	-200.000	0.024	-0.108
-450.938	238.960	-0.213	-0.353
-449.924	-15.503	0.186	0.118
-448.909	-69.594	-0.131	0.050
-447.895	-200.000	-0.033	-0.241
-446.880	-200.000	-0.017	-0.144
-445.865	290.637	0.031	0.057
-444.851	-105.232	0.086	0.020
-443.836	12.558	-0.042	0.032
-442.822	-189.951	-0.374	-0.004
-441.807	-200.000	-0.020	0.137
-440.792	-73.603	0.103	0.037
-439.778	-43.830	-0.167	-0.083
-438.763	-58.404	-0.144	-0.062
-437.749	800.000	-0.183	0.513
-436.734	345.054	-0.040	-0.079
-435.719	-152.832	-0.117	0.008
-434.705	215.817	-0.166	-0.263
-433.690	5.177	0.197	-0.144
-432.676	800.000	-0.126	-0.362
-431.661	-89.351	0.216	0.063
-430.646	-129.830	0.235	-0.032
-429.632	-110.136	0.149	0.031
-428.617	314.683	0.007	-0.013
-427.603	-77.822	0.245	0.084
-426.588	7.159	-0.070	-0.052
-425.573	-200.000	0.017	-0.191
-424.559	-40.049	-0.360	-0.186
-423.544	-200.000	0.006	0.209
-422.530	-200.000	-0.032	0.168
-421.515	604.224	0.118	-0.292
-420.500	-39.653	0.183	-0.095
-419.486	-200.000	-0.007	0.361
-418.471	329.589	0.054	0.104
-417.457	800.000	-0.090	0.275
-416.442	357.120	0.037	0.074
-415.428	-200.000	0.028	0.197
-414.413	8.833	-0.276	-0.207
-413.398	703.385	-0.035	0.093
-412.384	-67.865	-0.031	-0.012
-411.369	800.000	0.029	-0.082
-410.355	164.992	-0.064	0.089
-409.340	304.030	0.058	0.106
-408.325	800.000	-0.146	0.427
-407.311	-52.994	0.110	-0.050
-406.296	-100.747	0.192	-0.047
-405.282	-65.915	0.229	0.091
-404.267	-134.883	0.182	-0.022
-403.252	-200.000	0.070	0.000
-402.238	-200.000	0.056	-0.279
-401.223	21.643	-0.238	-0.192
-400.209	-106.876	0.305	-0.067
-399.194	-70.062	0.224	-0.084
-398.179	229.529	0.095	0.154
-397.165	-7.137	0.260	-0.175
-396.150	-104.034	-0.185	-0.043
-395.136	-28.212	-0.143	-0.082
-394.121	-68.793	-0.242	0.093
-393.106	121.872	-0.186	-0.230
-392.092	-118.867	-0.317	-0.055
-391.077	-200.000	-0.041	0.220
-390.063	-10.712	0.399	0.261
-389.048	736.597	-0.039	-0.103
-388.033	30.547	0.078	0.066
-387.019	-70.717	0.249	-0.093
-386.004	-200.000	0.008	0.147
-384.990	194.603	-0.261	0.393
-383.975	-200.000	-0.033	-0.319
-382.960	-165.003	-0.206	0.009
-381.946	-200.000	0.035	0.210
-380.931	-200.000	-0.031	0.193
-379.917	67.289	0.242	-0.244
-378.902	800.000	0.025	0.075
-377.888	800.000	-0.043	-0.119
-376.873	-200.000	0.053	-0.279
-375.858	-136.351	0.287	-0.033
-374.844	-94.332	-0.177	0.048
-373.829	-200.000	-0.002	-0.036
-372.815	-200.000	0.008	0.153
-371.800	-200.000	0.012	-0.117
-370.785	-200.000	-0.000	0.022
-369.771	108.701	-0.170	0.201
-368.756	-117.070	0.319	0.058
-367.742	-200.000	-0.016	0.243
-366.727	84.087	-0.171	-0.185
-365.712	106.392	0.225	-0.264
-364.698	633.263	-0.025	-0.063
-363.683	328.062	0.186	0.354
-362.669	87.513	-0.087	0.095
-361.654	-106.847	-0.241	0.053
-360.639	800.000	-0.044	0.159
-359.625	-200.000	0.059	-0.498
-358.610	383.219	0.099	-0.203
-357.596	-0.513	-0.113	0.079
-356.581	469.301	-0.049	0.110
-355.566	-184.946	0.169	0.003
-354.552	497.635	0.112	-0.256
-353.537	800.000	-0.099	0.311
-352.523	186.326	0.223	-0.329
-351.508	-41.671	0.165	-0.084
-350.493	-47.550	-0.193	-0.093
-349.479	-22.141	-0.237	0.142
-348.464	13.395	0.167	-0.128
-347.450	-54.141	0.317	-0.143
-346.435	0.791	0.164	-0.116
-345.420	-96.610	-0.090	-0.023
-344.406	-33.661	0.189	0.103
-343.391	-200.000	0.034	-0.228
-342.377	45.005	0.121	-0.110
-341.362	-200.000	-0.053	-0.254
-340.348	17.696	-0.299	-0.236
-339.333	104.733	-0.133	-0.155
-338.318	-182.970	0.248	-0.004
-337.304	-200.000	-0.022	0.109
-336.289	34.305	0.153	0.132
-335.275	-160.488	0.139	0.007
-334.260	133.419	-0.111	-0.142
-333.245	106.536	0.144	-0.168
-332.231	-151.446	0.273	0.020
-331.216	-200.000	-0.004	0.369
-330.202	-142.029	-0.076	-0.007
-329.187	-58.291	-0.248	0.107
-328.172	-18.618	-0.058	0.036
-327.158	-34.931	-0.250	-0.135
-326.143	-144.676	-0.232	-0.021
-325.129	-200.000	-0.035	0.260
-324.114	-200.000	0.003	0.438
-323.099	125.197	-0.190	0.237
-322.085	107.074	0.174	-0.204
-321.070	800.000	0.052	-0.199
-320.056	800.000	0.061	0.191
-319.041	800.000	0.029	-0.110
-318.026	-58.901	-0.302	-0.129
-317.012	231.522	-0.077	-0.125
-315.997	-200.000	-0.001	0.020
-314.983	800.000	-0.028	-0.120
-313.968	2.295	0.148	-0.106
-312.953	-89.542	0.188	0.055
-311.939	-200.000	0.035	0.267
-310.924	16.685	-0.012	0.009
-309.910	84.058	-0.046	-0.049
-308.895	-40.973	0.288	0.147
-307.880	-200.000	-0.026	0.139
-306.866	-200.000	0.015	0.266
-305.851	-200.000	0.012	0.127
-304.837	-200.000	-0.012	-0.124
-303.822	158.423	-0.086	0.119
-302.807	-26.112	0.305	-0.177
-301.793	-170.010	-0.432	-0.015
-300.778	-200.000	-0.056	0.295
-299.764	235.682	-0.091	-0.148
-298.749	299.596	-0.118	0.214
-297.735	-99.029	-0.074	0.019
-296.720	54.772	0.280	0.267
-295.705	-197.217	-0.248	-0.002
-294.691	2.408	0.169	0.121
-293.676	16.568	0.083	-0.065
-292.662	800.000	-0.073	-0.212
-291.647	-63.631	0.340	-0.138
-290.632	281.909	0.162	0.286
-289.618	330.455	0.184	0.350
-288.603	155.628	-0.152	0.207
-287.589	-187.952	0.099	-0.001
-286.574	-200.000	-0.027	0.173
-285.559	502.328	0.124	-0.282
-284.545	274.279	0.112	0.196
-283.530	79.370	-0.300	-0.317
-282.516	-138.107	-0.046	0.005
-281.501	-163.367	0.146	-0.007
-280.486	355.648	-0.037	0.074
-279.472	-200.000	-0.037	0.268
-278.457	73.021	0.225	-0.232
-277.443	68.324	0.141	0.142
-276.428	-200.000	-0.021	0.200
-275.413	-64.780	0.186	0.074
-274.399	314.264	0.158	-0.293
-273.384	-128.697	0.228	-0.032
-272.370	520.073	-0.027	-0.063
-271.355	-200.000	-0.018	-0.228
-270.340	-142.379	-0.165	-0.016
-269.326	137.098	0.114	0.148
-268.311	-50.994	-0.138	0.064
-267.297	-200.000	-0.013	0.080
-266.282	54.291	-0.335	0.318
-265.267	417.436	-0.056	-0.118
-264.253	521.934	-0.176	0.408
-263.238	800.000	-0.038	0.112
-262.224	121.609	0.183	0.225
-261.209	-148.095	-0.150	0.012
-260.195	-90.365	0.304	0.087
-259.180	29.592	-0.196	0.164
-258.165	-75.188	0.041	-0.015
-257.151	-200.000	-0.288	-0.001
-256.136	646.556	-0.061	0.153
-255.122	197.538	0.045	0.067
-254.107	-145.739	-0.048	-0.004
-253.092	798.438	0.004	0.012
-252.078	-116.018	0.578	0.106
-251.063	-200.000	-0.001	0.128
-250.049	-200.000	0.037	0.387
-249.034	-58.197	0.144	0.062
-248.019	789.646	-0.055	-0.150
-247.005	-200.000	-0.011	-0.110
-245.990	-200.000	-0.046	0.242
-244.976	800.000	-0.128	0.415
-243.961	210.456	-0.118	0.183
-242.946	675.188	0.022	-0.057
-241.932	544.704	-0.135	-0.318
-240.917	4.959	0.221	-0.161
-239.903	-16.765	-0.109	-0.068
-238.888	-200.000	-0.007	-0.110
-237.873	800.000	0.089	0.289
-236.859	-32.533	0.334	0.184
-235.844	-116.272	0.491	-0.090
-234.830	-94.569	0.288	-0.077
-233.815	-37.752	-0.149	-0.078
-232.800	800.000	-0.045	-0.136
-231.786	544.385	0.065	0.152
-230.771	23.064	0.230	0.186
-229.757	-95.593	-0.156	-0.041
-228.742	685.017	0.033	-0.085
-227.727	-200.000	0.038	0.265
-226.713	-200.000	0.054	-0.292
-225.698	-200.000	0.033	-0.439
-224.684	464.011	0.155	-0.342
-223.669	-9.849	0.078	-0.051
-222.655	-95.529	-0.569	-0.150
-221.640	-200.000	-0.011	-0.297
-220.625	-20.162	-0.257	0.156
-219.611	538.033	0.100	-0.234
-218.596	800.000	-0.044	0.130
-217.582	31.310	-0.349	0.295
-216.567	-92.969	-0.211	0.058
-215.552	-200.000	-0.019	-0.142
-214.538	225.928	0.125	0.200
-213.523	800.000	0.057	-0.240
-212.509	58.431	0.201	-0.194
-211.494	-31.431	-0.277	0.153
-210.479	639.407	-0.117	-0.293
-209.465	499.988	-0.161	-0.366
-208.450	72.948	-0.091	0.094
-207.436	-200.000	0.020	0.244
-206.421	-200.000	0.025	-0.154
-205.406	43.027	-0.147	0.132
-204.392	-54.472	0.061	-0.027
-203.377	216.201	0.061	0.095
-202.363	-97.451	-0.138	-0.035
-201.348	-179.464	0.390	0.008
-200.333	-44.047	0.129	0.064
-199.319	179.863	0.015	-0.021
-198.304	-79.680	0.333	-0.111
-197.290	-200.000	0.036	-0.158
-196.275	-110.615	-0.320	0.065
-195.260	61.630	-0.228	-0.224
-194.246	141.691	-0.054	0.071
-193.231	50.614	0.092	0.085
-192.217	-97.564	0.029	-0.007
-191.202	744.672	-0.034	-0.090
-190.187	55.426	0.207	-0.197
-189.173	251.509	0.017	-0.029
-188.158	-39.601	0.151	-0.078
-187.144	528.959	-0.038	0.088
-186.129	6.116	-0.038	-0.027
-185.114	-107.250	-0.164	0.035
-184.100	-168.446	0.376	0.014
-183.085	-139.998	0.176	-0.018
-182.071	-98.901	-0.364	0.091
-181.056	71.305	-0.084	0.086
-180.042	98.522	0.293	-0.332
-179.027	-200.000	-0.072	-0.435
-178.012	-65.262	-0.239	0.095
-176.998	-200.000	0.036	-0.238
-175.983	800.000	0.025	0.077
-174.969	509.894	0.139	-0.318
-173.954	42.755	0.132	-0.118
-172.939	-104.513	0.261	-0.059
-171.925	-157.413	-0.269	-0.016
-170.910	506.016	0.054	0.124
-169.896	800.000	0.100	0.403
-168.881	225.247	-0.044	-0.070
-167.866	-119.281	0.300	0.051
-166.852	800.000	0.064	0.240
-165.837	-64.954	-0.082	0.032
-164.823	673.055	0.102	0.260
-163.808	-122.542	-0.391	0.062
-162.793	-133.567	0.201	-0.025
-161.779	331.436	-0.107	0.202
-160.764	624.512	-0.176	0.436
-159.750	-118.913	-0.149	-0.026
-158.735	547.494	0.146	0.344
-157.720	755.495	0.084	0.224
-156.706	-188.122	-0.191	-0.002
-155.691	-132.188	-0.055	-0.007
-154.677	-57.667	0.266	-0.115
-153.662	800.000	0.116	0.364
-152.647	432.505	-0.103	-0.219
-151.633	-37.978	0.226	-0.118
-150.618	225.723	0.080	-0.127
-149.604	-35.715	-0.039	-0.021
-148.589	-200.000	0.010	-0.221
-147.574	-200.000	0.026	0.554
-146.560	424.890	0.071	0.151
-145.545	-188.613	-0.079	0.001
-144.531	73.095	0.159	0.163
-143.516	-127.137	0.246	-0.035
-142.502	-200.000	0.047	-0.310
-141.487	30.486	-0.181	0.152
-140.472	800.000	-0.035	-0.148
-139.458	10.008	-0.146	-0.109
-138.443	12.446	-0.191	0.145
-137.429	-114.910	0.096	0.018
-136.414	471.677	0.204	-0.451
-135.399	-59.076	0.309	0.131
-134.385	-39.828	-0.299	0.153
-133.370	383.489	-0.122	-0.247
-132.356	137.316	0.170	0.218
-131.341	-84.232	0.151	-0.047
-130.326	216.285	0.142	-0.221
-129.312	-200.000	0.000	-0.009
-128.297	-39.218	0.085	-0.044
-127.283	-146.987	-0.110	0.009
-126.268	800.000	0.010	0.031
-125.253	259.197	-0.113	-0.191
-124.239	-138.179	-0.085	-0.009
-123.224	-200.000	0.019	0.247
-122.210	-67.392	-0.241	0.093
