DTS Sentinel unit serial number:	SN413079Multiplexer serial number:	ORYXHardware model number:	OX4-SRSoftware version number:	ORYX F/W v4.00 Oryx Data Collector v3.7.2.0data status	okinstallation	princeton_trtdifferential loss correction	single-endedforward channel	channel 3reverse channel	N/Adate	2019/09/17time	11:44:34forward acquisition time	60.00reverse acquisition time	0.00gamma	496.2192k internal	0.2322k external	0.2322temperature offset calibration	0.9957default loss term (dB/km)	0.3790temperature slope calibration	1.0000multiplexer offset coefficient	1.0000multiplexer slope coefficient	1.0000fibre end	0.00T internal ref (°C)	30.87T ext. ref 1 (°C)	0.40T ext. ref 2 (°C)	26.64length (m)	temperature (°C)	Stokes	anti-Stokes-747.200	210.088	0.193	0.306
-746.185	528.159	0.084	0.200
-745.171	800.000	-0.028	0.103
-744.156	130.034	0.028	-0.036
-743.142	-2.454	-0.447	-0.316
-742.127	31.822	-0.148	0.129
-741.112	294.891	-0.086	-0.159
-740.098	-19.263	0.216	0.135
-739.083	218.836	-0.076	-0.122
-738.069	58.134	-0.176	0.174
-737.054	-200.000	0.003	-0.284
-736.039	-200.000	0.064	0.353
-735.025	-200.000	0.045	0.439
-734.010	-26.244	-0.202	0.120
-732.996	67.305	0.136	0.140
-731.981	27.927	0.099	-0.084
-730.966	-54.577	-0.232	-0.106
-729.952	800.000	0.078	-0.275
-728.937	-85.139	0.109	-0.035
-727.923	-48.471	-0.191	-0.093
-726.908	-170.305	-0.434	0.015
-725.894	-19.425	-0.107	0.067
-724.879	23.525	0.301	0.250
-723.864	800.000	-0.056	0.240
-722.850	-200.000	-0.073	-0.493
-721.835	320.161	0.121	-0.232
-720.821	5.383	0.135	-0.101
-719.806	-15.453	-0.291	-0.188
-718.791	741.507	0.055	-0.148
-717.777	-200.000	0.011	0.225
-716.762	30.766	-0.133	0.115
-715.748	-45.769	0.175	0.087
-714.733	393.950	-0.052	0.110
-713.718	-63.800	-0.368	0.152
-712.704	800.000	0.038	-0.156
-711.689	535.589	0.076	0.182
-710.675	800.000	0.216	-0.723
-709.660	113.139	-0.083	0.102
-708.645	5.878	-0.262	-0.195
-707.631	233.030	-0.197	-0.327
-706.616	-23.291	0.070	-0.042
-705.602	341.808	0.163	-0.322
-704.587	-200.000	0.012	-0.373
-703.572	173.363	0.239	-0.348
-702.558	-116.050	0.285	-0.054
-701.543	32.114	-0.315	-0.274
-700.529	-200.000	0.040	-0.212
-699.514	125.301	-0.171	0.218
-698.499	118.166	0.127	0.158
-697.485	-200.000	-0.036	-0.220
-696.470	-77.230	0.267	-0.094
-695.456	735.085	-0.103	0.279
-694.441	135.519	0.179	-0.235
-693.426	-33.282	-0.144	-0.080
-692.412	-163.670	0.231	0.011
-691.397	24.804	0.208	-0.174
-690.383	-22.720	0.150	-0.091
-689.368	143.958	0.138	0.185
-688.354	272.615	0.136	-0.243
-687.339	-200.000	-0.007	0.142
-686.324	-141.851	-0.248	0.025
-685.310	-111.547	-0.210	0.043
-684.295	-97.867	0.581	0.151
-683.281	-200.000	-0.004	-0.094
-682.266	-63.765	-0.032	0.013
-681.251	704.208	0.090	-0.238
-680.237	-84.920	0.271	-0.086
-679.222	192.755	0.043	0.066
-678.208	140.459	-0.106	0.141
-677.193	135.199	-0.130	-0.170
-676.178	-200.000	0.009	-0.117
-675.164	16.335	0.269	-0.214
-674.149	-200.000	-0.021	-0.338
-673.135	-15.701	-0.167	-0.107
-672.120	-83.114	-0.155	0.050
-671.105	800.000	0.071	0.257
-670.091	-31.684	-0.263	-0.149
-669.076	40.034	-0.127	0.115
-668.062	-168.552	-0.436	-0.017
-667.047	15.405	0.132	0.104
-666.032	219.526	-0.081	-0.130
-665.018	-200.000	0.221	0.001
-664.003	-200.000	0.009	0.099
-662.989	26.245	-0.138	0.116
-661.974	-200.000	0.021	-0.348
-660.959	188.189	0.116	-0.174
-659.945	800.000	0.028	-0.086
-658.930	-200.000	-0.014	0.088
-657.916	1.615	-0.120	-0.087
-656.901	145.469	0.084	0.113
-655.886	-134.997	-0.198	-0.024
-654.872	-75.641	0.162	-0.058
-653.857	341.812	0.065	-0.127
-652.843	226.724	0.215	0.351
-651.828	0.990	0.025	-0.018
-650.814	56.197	0.088	0.086
-649.799	800.000	0.035	-0.117
-648.784	-83.063	0.128	0.042
-647.770	-90.103	-0.271	-0.079
-646.755	800.000	-0.091	-0.380
-645.741	-200.000	0.013	-0.209
-644.726	408.197	0.041	0.086
-643.711	-149.151	-0.142	-0.011
-642.697	-122.834	-0.304	0.049
-641.682	-14.677	-0.317	0.205
-640.668	800.000	-0.126	-0.364
-639.653	-34.771	0.249	0.137
-638.638	37.429	-0.149	0.133
-637.624	40.737	0.058	-0.053
-636.609	-128.891	-0.161	-0.023
-635.595	-49.610	0.198	-0.095
-634.580	91.146	0.161	0.181
-633.565	800.000	-0.025	-0.100
-632.551	-20.737	-0.096	0.059
-631.536	800.000	-0.040	-0.168
-630.522	5.926	0.171	0.127
-629.507	-200.000	-0.055	-0.258
-628.492	-128.914	0.282	-0.040
-627.478	-198.911	0.430	-0.002
-626.463	800.000	-0.042	0.133
-625.449	90.672	0.161	-0.182
-624.434	-77.221	0.349	0.122
-623.419	-15.544	0.247	0.159
-622.405	86.136	0.214	0.237
-621.390	-200.000	-0.001	-0.113
-620.376	-54.924	-0.584	-0.265
-619.361	-85.139	-0.112	0.035
-618.346	91.671	-0.223	-0.252
-617.332	1.855	-0.260	0.189
-616.317	-200.000	0.023	0.180
-615.303	2.891	-0.314	-0.229
-614.288	155.376	0.180	-0.249
-613.273	-200.000	0.035	0.279
-612.259	-193.344	-0.291	0.003
-611.244	30.014	0.158	0.135
-610.230	430.090	0.080	0.174
-609.215	-200.000	-0.003	-0.112
-608.201	800.000	-0.072	0.297
-607.186	529.473	0.118	0.281
-606.171	-139.111	0.295	0.032
-605.157	-200.000	-0.010	0.404
-604.142	-106.528	-0.174	0.039
-603.128	-200.000	-0.003	-0.058
-602.113	284.237	-0.150	-0.270
-601.098	586.833	-0.153	-0.378
-600.084	-93.481	-0.183	-0.051
-599.069	800.000	-0.120	0.460
-598.055	231.664	-0.103	0.169
-597.040	-200.000	0.004	-0.109
-596.025	-42.663	-0.245	-0.125
-595.011	24.349	0.091	0.076
-593.996	-35.004	0.198	0.109
-592.982	77.027	0.212	-0.226
-591.967	414.292	-0.076	-0.162
-590.952	5.796	0.099	0.073
-589.938	-15.812	-0.207	-0.133
-588.923	-13.093	-0.401	-0.262
-587.909	-62.641	0.101	-0.042
-586.894	-33.545	-0.264	-0.146
-585.879	123.898	0.128	0.162
-584.865	-122.057	0.288	0.047
-583.850	-200.000	-0.058	0.576
-582.836	-11.686	0.221	0.146
-581.821	-27.238	-0.209	0.122
-580.806	234.120	-0.156	-0.257
-579.792	18.452	0.145	-0.117
-578.777	344.435	0.178	-0.351
-577.763	-130.504	0.187	-0.025
-576.748	316.528	-0.060	0.114
-575.733	800.000	0.116	0.373
-574.719	555.176	-0.102	0.247
-573.704	111.329	-0.126	0.152
-572.690	657.861	0.119	-0.307
-571.675	-104.935	-0.203	-0.047
-570.661	82.623	0.126	-0.138
-569.646	800.000	-0.079	0.318
-568.631	324.755	0.145	-0.278
-567.617	-200.000	-0.003	-0.066
-566.602	621.248	-0.051	0.130
-565.588	181.339	-0.045	-0.066
-564.573	346.741	-0.094	0.185
-563.558	-60.740	0.159	-0.068
-562.544	538.992	-0.188	-0.449
-561.529	800.000	0.084	-0.268
-560.515	130.305	0.080	-0.103
-559.500	-136.777	-0.158	-0.018
-558.485	-27.429	-0.128	-0.075
-557.471	-191.625	0.308	-0.003
-556.456	-36.011	0.135	0.073
-555.442	-127.411	-0.211	-0.031
-554.427	130.462	-0.055	0.070
-553.412	-200.000	0.033	0.226
-552.398	5.437	0.026	0.019
-551.383	-58.188	-0.376	0.164
-550.369	-200.000	0.003	0.464
-549.354	-69.975	-0.165	0.063
-548.339	150.760	-0.162	-0.221
-547.325	184.427	-0.030	0.044
-546.310	-200.000	0.023	-0.172
-545.296	-132.331	0.215	-0.028
-544.281	231.107	0.135	-0.222
-543.266	800.000	0.096	-0.383
-542.252	148.440	0.131	0.177
-541.237	54.500	0.201	0.194
-540.223	-67.193	0.263	-0.104
-539.208	-61.605	0.201	-0.084
-538.193	-51.105	-0.135	-0.063
-537.179	-61.748	0.452	-0.190
-536.164	-39.073	-0.086	-0.045
-535.150	-63.936	0.117	0.048
-534.135	-156.162	-0.364	-0.023
-533.121	-99.142	0.047	0.012
-532.106	-58.675	0.189	0.082
-531.091	141.268	-0.089	-0.118
-530.077	107.075	0.257	-0.306
-529.062	-148.362	-0.152	0.012
-528.048	-77.749	-0.240	-0.083
-527.033	-18.002	0.104	-0.065
-526.018	-169.950	-0.066	0.002
-525.004	-21.307	-0.204	0.125
-523.989	-152.743	0.189	-0.013
-522.975	-22.549	-0.145	0.088
-521.960	179.651	0.085	0.125
-520.945	-9.705	-0.110	-0.074
-519.931	-200.000	0.013	0.097
-518.916	-29.749	0.286	0.163
-517.902	139.958	-0.368	-0.485
-516.887	562.884	-0.078	-0.188
-515.872	-127.124	0.297	0.044
-514.858	-200.000	0.035	-0.179
-513.843	-136.346	-0.422	-0.049
-512.829	-4.251	0.123	0.085
-511.814	10.079	-0.110	-0.083
-510.799	521.221	-0.055	0.130
-509.785	168.951	0.145	0.207
-508.770	-200.000	-0.009	0.195
-507.756	-200.000	0.001	-0.132
-506.741	228.392	-0.147	-0.241
-505.726	-22.790	-0.303	0.183
-504.712	-117.268	0.105	0.019
-503.697	330.405	-0.121	-0.233
-502.683	-133.448	0.065	-0.008
-501.668	20.990	-0.129	-0.105
-500.653	-140.190	-0.092	0.010
-499.639	-153.260	0.344	-0.024
-498.624	-200.000	0.007	0.318
-497.610	-200.000	0.146	0.000
-496.595	-73.149	0.262	0.096
-495.581	-200.000	-0.028	0.176
-494.566	-10.187	-0.128	0.085
-493.551	228.648	0.107	-0.175
-492.537	85.696	0.114	0.125
-491.522	-85.188	-0.245	-0.077
-490.508	-31.190	0.265	0.149
-489.493	143.133	-0.070	-0.093
-488.478	303.019	0.109	-0.201
-487.464	-200.000	0.029	-0.149
-486.449	311.608	0.051	0.096
-485.435	-145.847	-0.169	0.015
-484.420	-51.261	0.042	-0.020
-483.405	-80.949	0.059	0.020
-482.391	279.018	-0.120	0.214
-481.376	-92.785	0.094	0.026
-480.362	800.000	0.079	-0.293
-479.347	18.272	-0.369	0.294
-478.332	-200.000	0.045	0.201
-477.318	87.877	0.075	-0.083
-476.303	-200.000	0.003	-0.016
-475.289	-69.130	0.339	0.130
-474.274	340.366	-0.031	-0.060
-473.259	-126.858	0.087	-0.013
-472.245	-73.148	0.355	-0.130
-471.230	51.570	-0.103	0.098
-470.216	27.829	-0.280	0.236
-469.201	-126.932	0.235	0.035
-468.186	-200.000	0.000	0.103
-467.172	425.840	0.062	-0.134
-466.157	390.106	-0.168	-0.347
-465.143	2.152	0.158	-0.114
-464.128	-179.169	-0.334	0.007
-463.113	-60.668	0.199	-0.084
-462.099	149.679	0.132	-0.178
-461.084	-185.423	-0.223	-0.003
-460.070	-71.170	0.185	-0.069
-459.055	461.894	0.081	0.180
-458.040	800.000	0.116	-0.426
-457.026	-200.000	-0.042	-0.533
-456.011	82.311	-0.019	0.021
-454.997	800.000	0.084	0.342
-453.982	-70.991	-0.449	0.169
-452.968	-120.873	0.320	-0.054
-451.953	22.068	-0.114	-0.093
-450.938	225.856	0.085	0.137
-449.924	345.008	-0.178	0.349
-448.909	-137.123	-0.351	-0.040
-447.895	-51.448	-0.200	0.093
-446.880	-67.407	-0.374	0.147
-445.865	800.000	0.080	-0.264
-444.851	-52.946	0.358	0.165
-443.836	337.300	-0.178	-0.346
-442.822	-77.873	0.143	0.049
-441.807	800.000	0.063	-0.255
-440.792	-101.853	-0.028	0.007
-439.778	47.045	0.186	0.173
-438.763	-115.974	0.153	-0.028
-437.749	-124.296	-0.028	0.004
-436.734	-47.293	-0.254	0.123
-435.719	753.761	0.057	0.153
-434.705	-40.098	-0.277	0.144
-433.690	-54.781	-0.230	0.104
-432.676	-200.000	-0.009	-0.118
-431.661	800.000	0.040	0.130
-430.646	-200.000	-0.013	0.132
-429.632	273.721	0.034	-0.059
-428.617	790.095	0.169	0.463
-427.603	283.497	-0.089	0.160
-426.588	-26.426	-0.277	-0.162
-425.573	75.316	0.142	-0.149
-424.559	-24.347	-0.135	0.080
-423.544	31.195	0.259	-0.221
-422.530	-33.912	0.036	0.020
-421.515	-174.816	-0.115	-0.003
-420.500	-67.292	0.225	0.088
-419.486	-103.222	0.173	0.041
-418.471	-81.207	0.313	-0.103
-417.457	-81.538	-0.340	0.111
-416.442	65.324	0.162	0.163
-415.428	236.829	0.119	0.196
-414.413	-200.000	-0.012	0.193
-413.398	335.379	0.018	-0.036
-412.384	315.636	0.072	-0.136
-411.369	-54.961	-0.192	0.086
-410.355	52.235	0.309	-0.294
-409.340	-140.744	0.188	-0.019
-408.325	554.213	0.095	0.229
-407.311	-97.172	0.062	-0.016
-406.296	-95.838	-0.336	0.089
-405.282	-200.000	-0.056	0.367
-404.267	-13.082	-0.105	-0.068
-403.252	-200.000	0.001	0.253
-402.238	104.751	0.130	0.153
-401.223	-52.150	0.192	-0.089
-400.209	90.079	0.215	-0.240
-399.194	-85.934	-0.099	0.030
-398.179	567.230	0.032	-0.078
-397.165	132.362	-0.116	-0.149
-396.150	-20.649	0.104	-0.063
-395.136	-200.000	0.040	-0.457
-394.121	-200.000	-0.034	-0.353
-393.106	48.288	0.348	0.325
-392.092	-200.000	0.002	-0.018
-391.077	-200.000	0.018	0.163
-390.063	568.577	0.124	-0.301
-389.048	32.924	-0.159	-0.137
-388.033	-147.993	-0.295	-0.024
-387.019	-159.866	-0.507	-0.028
-386.004	237.754	-0.129	-0.213
-384.990	800.000	-0.059	-0.180
-383.975	-40.227	0.135	0.070
-382.960	65.208	0.142	0.143
-381.946	800.000	0.070	-0.270
-380.931	-174.097	0.322	0.009
-379.917	11.406	-0.139	0.106
-378.902	18.500	0.025	-0.020
-377.888	17.963	-0.280	0.222
-376.873	49.042	-0.120	0.112
-375.858	-94.755	0.208	0.056
-374.844	180.440	-0.111	0.162
-373.829	-200.000	0.010	0.118
-372.815	271.028	-0.207	-0.363
-371.800	383.310	0.126	0.257
-370.785	121.834	0.101	-0.126
-369.771	-5.614	0.192	-0.131
-368.756	-60.879	-0.149	0.063
-367.742	0.517	-0.193	-0.137
-366.727	30.926	-0.151	0.128
-365.712	-133.575	-0.256	-0.032
-364.698	-107.092	-0.263	0.058
-363.683	124.858	0.105	0.132
-362.669	-59.373	0.346	0.148
-361.654	-200.000	-0.004	0.250
-360.639	205.298	-0.125	0.193
-359.625	-81.728	-0.298	-0.097
-358.610	-1.434	-0.118	0.083
-357.596	-113.723	0.248	0.048
-356.581	-200.000	-0.006	-0.190
-355.566	-52.181	-0.312	0.144
-354.552	-115.136	0.117	-0.022
-353.537	601.400	0.079	0.194
-352.523	127.226	-0.232	0.293
-351.508	-200.000	-0.020	0.208
-350.493	408.604	-0.107	0.226
-349.479	800.000	-0.040	-0.159
-348.464	-65.469	-0.202	-0.081
-347.450	-41.562	0.250	-0.128
-346.435	-155.351	0.169	-0.011
-345.420	-172.492	0.198	0.006
-344.406	31.844	0.110	0.094
-343.391	294.750	0.081	-0.147
-342.377	605.062	0.144	-0.356
-341.362	-52.665	0.117	-0.054
-340.348	-34.394	0.355	0.194
-339.333	-200.000	0.006	0.125
-338.318	-28.688	0.028	-0.016
-337.304	-86.143	0.159	0.049
-336.289	-119.095	0.291	-0.051
-335.275	260.531	-0.089	-0.153
-334.260	-200.000	0.003	-0.435
-333.245	-66.024	-0.268	0.106
-332.231	-87.046	0.256	-0.078
-331.216	-200.000	0.017	0.320
-330.202	-127.345	0.117	0.017
-329.187	123.601	-0.101	0.126
-328.172	159.588	-0.042	0.058
-327.158	-200.000	-0.047	-0.317
-326.143	227.840	-0.203	-0.329
-325.129	-108.794	-0.110	-0.023
-324.114	515.394	-0.017	-0.038
-323.099	800.000	-0.077	0.258
-322.085	-99.022	0.105	-0.026
-321.070	-67.833	-0.154	0.060
-320.056	461.157	0.063	-0.138
-319.041	-177.995	0.119	-0.003
-318.026	-200.000	-0.040	0.262
-317.012	21.613	-0.235	-0.190
-315.997	93.265	-0.066	-0.074
-314.983	-110.483	0.453	-0.093
-313.968	37.415	-0.302	-0.266
-312.953	-46.113	0.225	-0.110
-311.939	-200.000	-0.012	0.160
-310.924	-152.044	-0.117	-0.008
-309.910	-200.000	0.029	-0.156
-308.895	136.737	-0.182	-0.236
-307.880	-42.440	0.205	-0.104
-306.866	-200.000	-0.008	0.120
-305.851	-84.735	-0.277	0.087
-304.837	-6.606	-0.291	-0.197
-303.822	41.705	-0.352	-0.317
-302.807	270.865	0.070	0.122
-301.793	53.115	0.061	0.058
-300.778	282.704	-0.073	0.130
-299.764	-200.000	0.076	-0.336
-298.749	800.000	-0.021	-0.074
-297.735	-200.000	-0.002	0.039
-296.720	232.797	-0.055	0.089
-295.705	192.522	0.057	-0.086
-294.691	-49.807	-0.125	-0.059
-293.676	-92.113	-0.203	0.057
-292.662	-94.806	0.220	0.059
-291.647	-65.161	-0.189	0.076
-290.632	-200.000	0.031	0.387
-289.618	37.704	-0.017	0.015
-288.603	-49.368	0.150	-0.071
-287.589	500.207	-0.094	-0.216
-286.574	246.243	0.134	0.225
-285.559	-200.000	0.000	-0.088
-284.545	18.039	0.160	0.127
-283.530	-200.000	0.010	0.161
-282.516	2.462	-0.096	-0.069
-281.501	-45.936	-0.120	-0.059
-280.486	-154.222	0.345	-0.023
-279.472	31.675	-0.169	-0.144
-278.457	29.750	0.315	0.266
-277.443	-166.530	-0.148	0.006
-276.428	-72.156	-0.305	0.112
-275.413	-132.172	0.325	0.042
-274.399	-18.430	0.306	-0.190
-273.384	-200.000	0.026	0.301
-272.370	28.323	-0.079	0.066
-271.355	-155.405	-0.333	0.021
-270.340	-200.000	0.264	0.001
-269.326	-4.194	0.218	-0.149
-268.311	-34.040	-0.260	0.142
-267.297	187.438	0.072	-0.107
-266.282	-34.651	-0.116	0.063
-265.267	-89.549	-0.206	-0.060
-264.253	101.651	-0.214	0.248
-263.238	96.832	0.229	-0.260
-262.224	-116.854	-0.216	-0.039
-261.209	331.490	0.134	-0.255
-260.195	-39.598	-0.154	0.080
-259.180	-123.840	-0.083	0.013
-258.165	-200.000	-0.018	-0.082
-257.151	383.185	0.116	-0.236
-256.136	-98.172	-0.212	0.054
-255.122	-200.000	0.010	-0.069
-254.107	-200.000	0.005	-0.103
-253.092	457.168	0.175	0.385
-252.078	-4.254	-0.142	-0.098
-251.063	-200.000	0.024	0.204
-250.049	310.123	0.132	0.245
-249.034	192.509	-0.107	0.160
-248.019	800.000	-0.028	-0.079
-247.005	-152.102	0.408	0.029
-245.990	-94.087	-0.436	0.118
-244.976	69.768	-0.085	-0.087
-243.961	633.073	0.147	0.370
-242.946	-97.846	-0.126	0.032
-241.932	800.000	0.036	0.125
-240.917	-90.510	0.062	-0.018
-239.903	405.075	-0.043	0.090
-238.888	-200.000	0.010	-0.182
-237.873	-81.628	-0.151	0.049
-236.859	-200.000	-0.006	0.086
-235.844	42.525	0.200	0.180
-234.830	61.688	-0.160	0.158
-233.815	-9.504	0.107	-0.071
-232.800	57.995	0.150	-0.146
-231.786	-200.000	-0.013	-0.207
-230.771	457.103	0.055	0.121
-229.757	-81.150	0.290	-0.095
-228.742	800.000	0.021	-0.063
-227.727	129.805	-0.043	-0.054
-226.713	-124.432	-0.107	-0.017
-225.698	-102.304	0.375	0.089
-224.684	-200.000	-0.037	-0.171
-223.669	-90.032	-0.118	-0.034
-222.655	52.798	0.053	0.050
-221.640	178.655	-0.113	-0.164
-220.625	394.982	-0.118	-0.244
-219.611	-71.069	-0.083	0.031
-218.596	-27.294	0.123	-0.071
-217.582	157.027	0.115	0.158
-216.567	-50.184	0.286	-0.134
-215.552	-157.627	-0.213	0.013
-214.538	800.000	0.032	-0.099
-213.523	-200.000	0.023	-0.322
-212.509	-200.000	0.003	0.113
-211.494	-3.465	0.161	0.111
-210.479	-200.000	-0.043	0.450
-209.465	-114.505	-0.447	-0.085
-208.450	-124.177	-0.497	0.077
-207.436	-200.000	-0.003	0.116
-206.421	69.243	0.213	-0.217
-205.406	286.243	0.101	0.180
-204.392	-200.000	0.006	-0.206
-203.377	84.466	-0.053	0.057
-202.363	-157.460	0.186	-0.011
-201.348	15.932	0.037	-0.029
-200.333	5.715	0.244	-0.179
-199.319	-117.438	-0.333	-0.060
-198.304	-200.000	0.048	-0.207
-197.290	-200.000	-0.019	0.087
-196.275	-146.413	-0.140	-0.012
-195.260	-57.084	0.167	-0.073
-194.246	-85.052	-0.428	0.132
-193.231	-122.973	0.097	-0.015
-192.217	80.476	0.202	-0.215
-191.202	-200.000	-0.003	0.135
-190.187	36.814	-0.165	-0.145
-189.173	-200.000	-0.034	-0.215
-188.158	-90.118	0.109	-0.031
-187.144	-200.000	-0.019	0.208
-186.129	166.997	0.154	0.216
-185.114	800.000	-0.047	-0.177
-184.100	42.478	0.068	0.061
-183.085	298.599	0.170	-0.310
-182.071	-200.000	0.003	0.140
-181.056	50.133	-0.024	-0.022
-180.042	-80.977	0.111	-0.036
-179.027	-200.000	0.005	0.030
-178.012	28.212	0.228	-0.190
-176.998	-62.552	0.353	0.145
-175.983	238.788	-0.169	0.277
-174.969	-120.319	0.155	0.026
-173.954	51.626	0.270	0.254
-172.939	800.000	-0.052	-0.155
-171.925	-138.488	0.163	0.018
-170.910	248.621	0.107	0.178
-169.896	1.609	0.230	-0.164
-168.881	-146.402	0.208	0.018
-167.866	-200.000	0.007	0.068
-166.852	-124.049	-0.318	0.049
-165.837	406.378	-0.095	0.197
-164.823	9.523	0.203	-0.152
-163.808	-114.941	-0.070	0.013
-162.793	-171.583	-0.490	-0.016
-161.779	-183.047	-0.129	0.002
-160.764	346.612	-0.185	0.360
-159.750	-75.986	0.176	-0.062
-158.735	-200.000	0.021	-0.310
-157.720	-76.693	0.330	0.114
-156.706	219.433	0.040	-0.063
-155.691	186.548	-0.180	0.265
-154.677	800.000	-0.062	0.172
-153.662	84.516	-0.277	0.299
-152.647	-200.000	-0.000	-0.049
-151.633	56.396	0.186	-0.179
-150.618	-16.609	0.127	-0.079
-149.604	-124.986	0.254	0.039
-148.589	37.922	0.091	0.080
-147.574	430.061	-0.248	0.529
-146.560	-200.000	0.054	-0.256
-145.545	390.591	-0.158	-0.324
-144.531	-200.000	-0.022	-0.156
-143.516	12.566	0.348	0.265
-142.502	-200.000	0.005	-0.291
-141.487	0.451	0.307	-0.216
-140.472	-43.330	0.176	0.088
-139.458	-65.321	0.411	-0.163
-138.443	-118.344	0.340	-0.060
-137.429	442.569	-0.089	-0.192
-136.414	-200.000	0.014	0.151
-135.399	-200.000	0.028	0.196
-134.385	-133.008	-0.245	-0.031
-133.370	436.134	-0.021	0.046
-132.356	-200.000	-0.076	0.000
-131.341	130.096	0.092	0.117
-130.326	12.100	-0.033	-0.025
-129.312	-23.234	-0.095	0.057
-128.297	-200.000	0.017	0.103
-127.283	14.857	0.104	0.080
-126.268	800.000	0.099	0.292
-125.253	25.561	0.123	0.101
-124.239	-44.633	-0.086	0.042
-123.224	217.979	-0.081	0.128
-122.210	-36.971	0.235	-0.124
-121.195	-99.830	0.307	0.076
-120.180	-200.000	-0.004	-0.098
