DTS Sentinel unit serial number:	SN413079Multiplexer serial number:	ORYXHardware model number:	OX4-SRSoftware version number:	ORYX F/W v4.00 Oryx Data Collector v3.7.2.0data status	okinstallation	princeton_trtdifferential loss correction	single-endedforward channel	channel 3reverse channel	N/Adate	2019/09/17time	01:44:35forward acquisition time	60.00reverse acquisition time	0.00gamma	496.2192k internal	0.2324k external	0.2324temperature offset calibration	0.9940default loss term (dB/km)	0.3790temperature slope calibration	1.0000multiplexer offset coefficient	1.0000multiplexer slope coefficient	1.0000fibre end	0.00T internal ref (°C)	29.58T ext. ref 1 (°C)	0.12T ext. ref 2 (°C)	24.55length (m)	temperature (°C)	Stokes	anti-Stokes-747.200	-30.281	0.088	0.050
-746.185	314.617	0.069	-0.132
-745.171	-70.385	-0.241	-0.092
-744.156	-117.719	0.134	0.024
-743.142	190.986	-0.294	-0.446
-742.127	56.681	0.323	0.317
-741.112	-200.000	-0.006	0.103
-740.098	-200.000	0.041	0.252
-739.083	240.014	-0.264	0.445
-738.069	40.859	-0.293	0.266
-737.054	-97.915	0.103	0.027
-736.039	-112.800	-0.285	-0.057
-735.025	-53.727	0.182	0.084
-734.010	-84.438	0.161	-0.051
-732.996	439.192	0.064	-0.140
-731.981	-200.000	0.025	0.304
-730.966	379.373	-0.184	-0.381
-729.952	-124.811	-0.110	-0.017
-728.937	87.931	-0.118	-0.133
-727.923	6.830	-0.063	0.047
-726.908	-200.000	0.009	0.230
-725.894	51.958	0.117	0.112
-724.879	-190.013	-0.073	0.001
-723.864	165.786	0.057	-0.081
-722.850	-14.350	-0.094	-0.061
-721.835	-200.000	0.007	0.144
-720.821	-69.307	-0.110	0.043
-719.806	707.088	-0.057	-0.152
-718.791	-145.159	0.029	0.003
-717.777	-146.783	0.097	0.008
-716.762	127.063	-0.118	0.150
-715.748	-63.969	0.173	-0.071
-714.733	-200.000	-0.064	0.411
-713.718	146.148	0.223	0.301
-712.704	-127.036	-0.350	-0.052
-711.689	-147.277	0.514	-0.044
-710.675	253.025	-0.180	0.309
-709.660	-9.719	-0.119	-0.080
-708.645	87.741	0.103	0.115
-707.631	-200.000	-0.039	0.174
-706.616	-71.503	-0.315	-0.119
-705.602	-200.000	0.042	-0.329
-704.587	-4.942	0.207	-0.144
-703.572	-77.916	0.135	0.047
-702.558	211.790	0.224	-0.355
-701.543	-94.377	0.214	0.059
-700.529	-200.000	-0.005	-0.032
-699.514	-200.000	-0.042	-0.257
-698.499	-122.031	0.327	-0.054
-697.485	324.168	-0.150	-0.289
-696.470	114.565	-0.074	-0.091
-695.456	385.662	-0.105	-0.219
-694.441	-200.000	-0.041	-0.249
-693.426	-116.144	-0.171	0.032
-692.412	158.155	-0.179	-0.251
-691.397	-200.000	0.050	-0.290
-690.383	642.602	-0.073	-0.189
-689.368	-52.930	0.098	-0.046
-688.354	-108.772	-0.345	0.074
-687.339	173.290	-0.049	-0.071
-686.324	474.543	0.094	-0.214
-685.310	-200.000	0.022	0.298
-684.295	-121.496	0.047	0.008
-683.281	341.161	0.146	0.287
-682.266	547.651	-0.068	-0.163
-681.251	-200.000	-0.235	0.001
-680.237	-29.570	-0.187	-0.108
-679.222	-200.000	-0.018	0.278
-678.208	-152.678	-0.318	0.023
-677.193	-117.523	-0.187	0.034
-676.178	-200.000	-0.038	0.215
-675.164	-115.548	-0.078	-0.015
-674.149	-200.000	0.030	0.194
-673.135	14.856	-0.332	0.262
-672.120	800.000	0.075	-0.225
-671.105	-111.652	0.065	0.013
-670.091	-200.000	0.046	0.236
-669.076	4.005	-0.120	0.088
-668.062	-7.309	0.376	-0.256
-667.047	-98.958	0.349	0.089
-666.032	-186.834	0.279	-0.004
-665.018	462.191	-0.251	0.563
-664.003	800.000	0.071	0.200
-662.989	-119.581	-0.350	-0.061
-661.974	771.524	-0.072	0.197
-660.959	800.000	-0.028	0.121
-659.945	-81.614	0.158	-0.052
-658.930	-42.604	-0.127	0.065
-657.916	-24.083	-0.229	0.138
-656.901	8.633	-0.294	-0.222
-655.886	-200.000	0.049	0.255
-654.872	467.330	-0.145	0.328
-653.857	-69.701	-0.153	-0.059
-652.843	-7.721	0.137	-0.093
-651.828	-106.204	0.181	0.041
-650.814	-151.117	-0.362	0.027
-649.799	556.480	0.047	-0.113
-648.784	-200.000	-0.072	0.444
-647.770	-198.738	-0.254	0.001
-646.755	-36.222	0.070	0.038
-645.741	43.669	0.076	-0.070
-644.726	-89.769	-0.281	-0.083
-643.711	-200.000	-0.001	-0.109
-642.697	14.609	0.359	0.282
-641.682	-162.045	0.165	-0.008
-640.668	100.400	0.149	0.174
-639.653	-200.000	0.020	0.208
-638.638	200.031	0.269	0.416
-637.624	-96.243	-0.246	-0.066
-636.609	800.000	0.083	-0.319
-635.595	237.290	-0.123	0.205
-634.580	800.000	0.055	0.177
-633.565	-120.444	-0.217	0.037
-632.551	-52.430	0.044	0.021
-631.536	-82.276	0.226	-0.074
-630.522	-105.777	-0.193	0.044
-629.507	-61.310	-0.116	-0.049
-628.492	-44.718	-0.223	-0.112
-627.478	-29.352	-0.155	-0.089
-626.463	-14.843	0.263	-0.170
-625.449	-200.000	0.019	0.221
-624.434	446.614	-0.171	-0.379
-623.419	-97.901	-0.254	0.066
-622.405	386.360	-0.171	-0.355
-621.390	49.067	0.260	0.246
-620.376	-200.000	0.035	0.243
-619.361	-47.946	-0.032	-0.016
-618.346	-53.678	-0.256	0.118
-617.332	184.367	-0.114	-0.170
-616.317	14.544	0.056	0.044
-615.303	-79.472	0.212	0.072
-614.288	413.014	-0.065	-0.138
-613.273	-113.682	-0.094	-0.018
-612.259	180.021	-0.305	0.449
-611.244	-49.563	0.297	0.142
-610.230	-110.220	-0.270	-0.057
-609.215	-200.000	-0.015	0.292
-608.201	101.003	0.122	-0.142
-607.186	686.308	0.122	-0.321
-606.171	-27.176	-0.177	-0.103
-605.157	75.157	-0.129	0.137
-604.142	-64.274	0.106	-0.043
-603.128	202.915	0.063	-0.097
-602.113	162.461	-0.226	-0.319
-601.098	-200.000	-0.041	0.279
-600.084	-114.473	-0.347	0.067
-599.069	21.542	0.063	-0.051
-598.055	167.670	0.091	-0.131
-597.040	-119.512	0.247	0.043
-596.025	226.211	0.105	0.171
-595.011	275.031	0.114	-0.203
-593.996	-30.305	-0.136	0.078
-592.982	-152.081	0.202	-0.015
-591.967	-66.419	0.150	-0.060
-590.952	-44.481	0.278	-0.140
-589.938	-83.831	-0.453	-0.145
-588.923	214.444	-0.341	-0.542
-587.909	800.000	0.072	-0.259
-586.894	430.202	-0.083	-0.180
-585.879	-200.000	0.008	0.112
-584.865	-200.000	0.032	0.155
-583.850	-85.701	-0.187	0.058
-582.836	-5.355	-0.167	-0.115
-581.821	582.659	0.094	0.231
-580.806	207.947	0.043	0.067
-579.792	268.955	0.097	0.171
-578.777	-200.000	-0.011	-0.185
-577.763	381.766	0.131	0.270
-576.748	74.609	0.179	-0.189
-575.733	75.927	-0.218	-0.231
-574.719	6.750	0.143	-0.107
-573.704	-97.811	0.031	-0.008
-572.690	-200.000	-0.015	0.196
-571.675	471.921	-0.171	-0.385
-570.661	800.000	0.037	0.118
-569.646	-37.952	-0.200	0.106
-568.631	-68.042	-0.283	-0.111
-567.617	-94.232	0.250	-0.069
-566.602	800.000	0.124	-0.392
-565.588	65.486	-0.091	0.092
-564.573	256.463	-0.110	-0.190
-563.558	-18.000	0.163	-0.103
-562.544	28.706	0.088	0.075
-561.529	-49.576	-0.170	0.081
-560.515	-19.135	-0.085	-0.053
-559.500	-118.487	-0.322	0.057
-558.485	800.000	-0.055	-0.157
-557.471	570.424	-0.070	0.171
-556.456	-200.000	-0.033	-0.146
-555.442	-200.000	0.005	-0.120
-554.427	800.000	-0.110	0.325
-553.412	-14.496	-0.223	-0.144
-552.398	-3.770	-0.219	0.153
-551.383	-108.436	-0.249	-0.054
-550.369	276.981	-0.083	0.148
-549.354	375.605	0.125	0.255
-548.339	257.811	0.014	0.025
-547.325	30.081	0.191	0.163
-546.310	-45.859	0.267	-0.132
-545.296	340.450	-0.069	0.136
-544.281	-134.570	-0.247	-0.030
-543.266	41.639	0.256	-0.233
-542.252	-50.330	-0.053	-0.025
-541.237	-58.971	-0.181	-0.078
-540.223	-111.390	-0.192	0.039
-539.208	-110.337	0.112	0.023
-538.193	67.969	0.038	-0.039
-537.179	52.527	-0.247	0.236
-536.164	-64.212	0.302	-0.123
-535.150	225.018	-0.167	-0.271
-534.135	318.368	0.069	-0.130
-533.121	-42.706	-0.333	-0.170
-532.106	-149.634	-0.056	0.004
-531.091	-200.000	-0.080	0.360
-530.077	-200.000	0.035	-0.265
-529.062	-36.679	-0.277	-0.149
-528.048	-200.000	-0.039	0.314
-527.033	-67.691	0.498	0.195
-526.018	800.000	-0.053	-0.165
-525.004	-9.170	0.149	0.100
-523.989	-160.732	-0.186	-0.010
-522.975	377.102	0.097	-0.198
-521.960	101.396	-0.058	-0.067
-520.945	-73.230	0.176	-0.065
-519.931	800.000	0.089	-0.276
-518.916	-169.713	-0.193	0.007
-517.902	-162.659	-0.286	0.014
-516.887	98.306	0.148	-0.170
-515.872	-200.000	-0.040	-0.296
-514.858	-86.466	0.391	-0.120
-513.843	520.083	-0.078	-0.183
-512.829	-11.386	0.150	0.099
-511.814	-133.994	0.223	-0.028
-510.799	-200.000	-0.020	-0.134
-509.785	-200.000	0.012	-0.139
-508.770	-119.607	0.229	0.040
-507.756	172.952	0.124	-0.179
-506.741	-119.731	-0.132	-0.023
-505.726	366.757	-0.015	-0.030
-504.712	-123.500	0.278	-0.044
-503.697	-200.000	-0.032	0.147
-502.683	-59.780	0.419	-0.179
-501.668	-64.593	0.166	0.068
-500.653	-116.722	0.167	0.031
-499.639	125.451	0.052	0.065
-498.624	100.737	0.125	0.145
-497.610	-44.263	-0.326	0.163
-496.595	6.821	0.153	-0.114
-495.581	-200.000	0.020	-0.382
-494.566	-20.646	0.333	-0.204
-493.551	-37.996	0.215	-0.114
-492.537	42.104	0.103	0.093
-491.522	-49.064	0.144	0.069
-490.508	248.873	0.140	0.237
-489.493	800.000	-0.024	-0.080
-488.478	-100.576	0.304	0.075
-487.464	65.627	-0.156	0.157
-486.449	122.652	0.095	-0.119
-485.435	727.033	-0.133	-0.356
-484.420	-200.000	-0.018	0.123
-483.405	109.636	0.271	-0.325
-482.391	-200.000	-0.041	-0.187
-481.376	153.904	-0.054	0.074
-480.362	800.000	-0.081	0.346
-479.347	139.158	0.274	0.359
-478.332	-109.888	-0.140	-0.029
-477.318	-63.357	0.164	-0.067
-476.303	789.976	-0.052	-0.144
-475.289	253.839	0.079	-0.134
-474.274	800.000	0.094	0.281
-473.259	328.671	-0.106	0.204
-472.245	-200.000	0.014	-0.097
-471.230	-131.724	-0.211	-0.028
-470.216	-63.670	0.109	0.045
-469.201	-130.832	0.198	-0.026
-468.186	-132.595	0.051	-0.007
-467.172	-97.728	0.232	-0.060
-466.157	800.000	0.020	-0.057
-465.143	-168.868	-0.311	0.012
-464.128	800.000	-0.074	0.249
-463.113	217.122	-0.106	0.169
-462.099	53.964	-0.259	-0.248
-461.084	-200.000	0.106	0.474
-460.070	488.079	0.086	0.196
-459.055	13.563	-0.116	-0.090
-458.040	318.158	0.065	-0.122
-457.026	800.000	-0.118	-0.339
-456.011	55.081	-0.084	-0.081
-454.997	458.713	-0.045	0.099
-453.982	-177.569	-0.091	-0.002
-452.968	491.143	-0.035	0.081
-451.953	237.263	0.143	-0.236
-450.938	-124.215	0.044	0.007
-449.924	91.542	0.170	-0.190
-448.909	1.140	0.261	0.187
-447.895	-97.620	0.134	-0.035
-446.880	800.000	-0.010	0.035
-445.865	-200.000	-0.024	0.227
-444.851	-31.368	0.135	-0.076
-443.836	-200.000	0.033	0.360
-442.822	328.372	0.109	0.209
-441.807	113.061	-0.164	-0.198
-440.792	-41.470	0.231	-0.119
-439.778	-85.422	0.315	0.098
-438.763	800.000	-0.077	-0.312
-437.749	139.563	-0.107	0.140
-436.734	-154.775	0.235	-0.016
-435.719	-84.415	-0.209	-0.066
-434.705	-200.000	0.001	0.173
-433.690	-145.507	0.104	-0.009
-432.676	693.839	0.123	0.321
-431.661	-11.488	-0.038	-0.025
-430.646	-200.000	-0.052	-0.295
-429.632	-80.900	0.077	-0.026
-428.617	27.867	0.324	-0.273
-427.603	138.428	-0.225	0.295
-426.588	-17.521	-0.167	0.105
-425.573	164.862	0.089	0.125
-424.559	497.536	0.131	0.301
-423.544	-134.810	-0.108	0.013
-422.530	-74.218	0.546	0.197
-421.515	34.764	-0.199	0.174
-420.500	312.182	-0.132	0.248
-419.486	130.476	0.248	0.317
-418.471	800.000	-0.103	0.340
-417.457	-26.486	-0.319	0.186
-416.442	-200.000	0.006	0.047
-415.428	-56.855	0.222	0.098
-414.413	-200.000	0.060	-0.283
-413.398	-99.338	-0.114	0.029
-412.384	-200.000	-0.024	-0.302
-411.369	-150.185	0.152	0.012
-410.355	214.214	-0.049	0.077
-409.340	-200.000	-0.020	0.108
-408.325	-5.506	0.356	0.243
-407.311	-108.370	-0.167	-0.036
-406.296	-172.970	0.186	0.006
-405.282	-87.717	0.377	0.113
-404.267	187.164	-0.046	0.069
-403.252	-200.000	-0.011	0.287
-402.238	-24.356	0.254	0.151
-401.223	440.604	0.079	-0.171
-400.209	-200.000	0.057	-0.303
-399.194	664.408	0.049	-0.127
-398.179	21.121	-0.122	-0.099
-397.165	-99.274	0.235	0.059
-396.150	70.541	-0.251	-0.258
-395.136	34.325	-0.286	0.249
-394.121	-56.424	-0.051	-0.023
-393.106	108.441	0.025	0.030
-392.092	349.816	-0.032	-0.064
-391.077	-79.823	0.176	-0.059
-390.063	800.000	0.030	-0.110
-389.048	-147.135	0.478	-0.041
-388.033	58.139	-0.250	-0.244
-387.019	26.645	0.342	-0.285
-386.004	-200.000	0.034	-0.408
-384.990	-156.231	-0.282	0.018
-383.975	33.618	0.152	0.131
-382.960	-200.000	0.000	0.009
-381.946	-76.516	-0.079	0.028
-380.931	-200.000	0.006	0.146
-379.917	-35.508	-0.151	-0.081
-378.902	-61.032	0.178	-0.075
-377.888	800.000	-0.036	-0.148
-376.873	-42.938	0.276	0.140
-375.858	58.545	-0.124	-0.121
-374.844	14.655	0.067	-0.052
-373.829	-200.000	-0.019	0.140
-372.815	93.227	0.039	0.044
-371.800	104.828	0.130	-0.152
-370.785	-39.247	0.125	-0.065
-369.771	-101.127	0.473	0.115
-368.756	37.098	0.268	0.236
-367.742	168.891	0.063	0.090
-366.727	149.596	-0.100	0.135
-365.712	90.260	0.185	0.206
-364.698	-24.463	-0.407	0.241
-363.683	226.840	-0.109	0.177
-362.669	73.386	-0.091	0.095
-361.654	-200.000	-0.007	0.218
-360.639	205.838	-0.101	-0.155
-359.625	494.914	0.123	-0.281
-358.610	-200.000	0.037	-0.168
-357.596	-200.000	-0.030	0.402
-356.581	-16.404	0.260	0.164
-355.566	403.346	-0.024	-0.050
-354.552	800.000	-0.036	-0.098
-353.537	-200.000	0.041	-0.340
-352.523	-116.964	0.034	-0.006
-351.508	800.000	0.012	0.040
-350.493	18.863	0.190	0.151
-349.479	80.700	-0.166	0.177
-348.464	-200.000	0.028	-0.224
-347.450	-200.000	0.001	0.216
-346.435	9.762	-0.105	-0.079
-345.420	-54.782	0.037	-0.017
-344.406	32.322	-0.114	-0.098
-343.391	-31.759	0.153	0.085
-342.377	-70.330	-0.342	-0.129
-341.362	-18.445	0.238	0.148
-340.348	436.083	0.112	-0.242
-339.333	-200.000	0.008	0.134
-338.318	-94.120	0.090	0.025
-337.304	-66.151	0.259	0.103
-336.289	23.209	-0.179	0.146
-335.275	-200.000	-0.035	0.311
-334.260	67.633	-0.260	0.263
-333.245	31.435	-0.319	0.272
-332.231	-60.768	0.216	-0.091
-331.216	-200.000	0.017	0.174
-330.202	-116.135	-0.381	0.070
-329.187	415.639	0.132	0.279
-328.172	584.061	-0.070	0.171
-327.158	192.839	-0.150	0.224
-326.143	96.938	0.140	0.160
-325.129	800.000	0.039	0.140
-324.114	-200.000	-0.013	-0.364
-323.099	800.000	-0.117	-0.344
-322.085	80.249	-0.102	-0.109
-321.070	55.531	-0.312	0.300
-320.056	616.172	0.150	0.373
-319.041	22.182	-0.239	-0.194
-318.026	8.196	0.052	-0.039
-317.012	84.082	-0.330	0.358
-315.997	-200.000	0.040	0.214
-314.983	800.000	0.045	0.148
-313.968	-82.731	-0.195	0.063
-312.953	-200.000	0.005	0.213
-311.939	91.918	0.370	-0.414
-310.924	29.873	0.039	0.033
-309.910	-200.000	-0.027	0.248
-308.895	12.229	-0.267	0.204
-307.880	800.000	0.150	-0.490
-306.866	-51.616	0.221	0.102
-305.851	254.533	-0.141	-0.239
-304.837	365.830	-0.107	0.214
-303.822	231.719	-0.055	-0.090
-302.807	-51.020	-0.127	0.059
-301.793	-1.436	-0.125	0.087
-300.778	-125.787	0.295	0.044
-299.764	-200.000	0.024	-0.115
-298.749	381.101	0.038	0.077
-297.735	400.056	0.191	0.398
-296.720	34.792	0.105	0.091
-295.705	-200.000	0.003	-0.257
-294.691	-47.694	-0.283	-0.136
-293.676	800.000	-0.022	-0.066
-292.662	215.723	-0.145	-0.228
-291.647	62.852	-0.099	-0.098
-290.632	-200.000	0.014	-0.127
-289.618	-22.712	-0.236	0.141
-288.603	-66.118	0.100	-0.040
-287.589	-58.376	-0.193	0.083
-286.574	-38.821	0.368	0.193
-285.559	46.360	-0.190	0.174
-284.545	-200.000	0.000	-0.348
-283.530	2.476	-0.139	-0.100
-282.516	124.389	0.102	0.128
-281.501	393.832	0.099	0.205
-280.486	373.977	0.059	-0.118
-279.472	-160.471	-0.257	-0.014
-278.457	-200.000	-0.018	-0.234
-277.443	-118.173	-0.200	0.035
-276.428	0.257	-0.378	0.267
-275.413	-99.074	-0.374	-0.094
-274.399	-95.420	0.131	0.035
-273.384	-200.000	-0.059	-0.272
-272.370	-81.430	-0.227	0.074
-271.355	800.000	0.090	-0.307
-270.340	800.000	-0.038	-0.145
-269.326	-16.230	-0.280	-0.176
-268.311	-200.000	0.062	-0.646
-267.297	658.011	-0.075	-0.192
-266.282	-200.000	0.025	-0.252
-265.267	378.375	0.077	-0.156
-264.253	329.585	-0.137	0.261
-263.238	-12.743	-0.264	0.170
-262.224	-200.000	0.018	0.100
-261.209	111.062	0.124	-0.148
-260.195	227.526	0.044	0.071
-259.180	-17.927	0.291	0.181
-258.165	-182.589	0.235	0.004
-257.151	-200.000	0.018	-0.301
-256.136	-3.175	0.057	-0.040
-255.122	221.572	-0.264	-0.420
-254.107	-77.874	0.081	-0.028
-253.092	-200.000	-0.004	0.194
-252.078	-10.843	-0.120	0.078
-251.063	210.126	-0.147	-0.228
-250.049	800.000	0.043	0.129
-249.034	8.295	0.082	-0.061
-248.019	347.371	-0.083	0.162
-247.005	-143.929	0.154	-0.014
-245.990	-139.961	-0.106	-0.011
-244.976	-3.094	0.107	-0.074
-243.961	-62.436	-0.396	0.163
-242.946	-133.725	-0.308	-0.038
-241.932	-200.000	-0.089	-0.466
-240.917	424.982	-0.024	-0.051
-239.903	9.334	0.176	0.132
-238.888	113.380	0.399	-0.479
-237.873	-200.000	-0.006	0.196
-236.859	-200.000	0.006	0.046
-235.844	-200.000	-0.013	-0.188
-234.830	535.839	0.034	-0.079
-233.815	-57.555	0.149	-0.065
-232.800	159.686	0.084	0.115
-231.786	280.229	-0.084	-0.149
-230.771	-36.261	-0.189	-0.101
-229.757	-200.000	-0.007	0.039
-228.742	-47.730	0.055	-0.026
-227.727	35.544	-0.233	-0.203
-226.713	-200.000	0.025	-0.203
-225.698	410.638	-0.118	-0.248
-224.684	800.000	-0.088	-0.277
-223.669	800.000	0.044	0.130
-222.655	800.000	-0.074	-0.278
-221.640	-59.296	-0.198	0.084
-220.625	126.941	-0.167	0.209
-219.611	222.070	-0.077	0.123
-218.596	-75.406	0.112	0.040
-217.582	-145.739	-0.284	0.025
-216.567	16.837	0.232	0.182
-215.552	-200.000	-0.043	-0.360
-214.538	-200.000	-0.004	-0.059
-213.523	486.563	0.102	-0.230
-212.509	72.186	-0.235	-0.242
-211.494	-142.976	-0.094	-0.009
-210.479	108.782	0.241	0.284
-209.465	-118.461	0.149	-0.026
-208.450	-93.813	-0.220	0.060
-207.436	-200.000	-0.014	-0.077
-206.421	-69.459	0.344	-0.130
-205.406	-38.690	0.316	-0.165
-204.392	-200.000	-0.066	0.342
-203.377	315.259	0.061	-0.114
-202.363	800.000	-0.084	-0.359
-201.348	-200.000	0.010	0.184
-200.333	-165.365	-0.500	-0.022
-199.319	158.260	0.073	0.100
-198.304	-39.169	0.069	0.036
-197.290	-71.617	0.177	-0.065
-196.275	-180.203	-0.236	0.005
-195.260	-45.728	0.196	-0.096
-194.246	800.000	0.042	0.180
-193.231	337.759	-0.087	0.167
-192.217	143.297	-0.035	0.046
-191.202	-200.000	-0.016	-0.075
-190.187	-113.400	-0.516	0.100
-189.173	-60.378	-0.341	0.143
-188.158	-14.373	-0.040	0.026
-187.144	-200.000	0.025	0.133
-186.129	-73.505	0.327	-0.118
-185.114	106.979	0.208	-0.244
-184.100	-93.301	0.329	-0.090
-183.085	8.208	-0.053	-0.039
-182.071	-68.991	0.154	-0.059
-181.056	-113.375	-0.301	-0.058
-180.042	17.871	0.498	0.392
-179.027	-99.526	-0.111	-0.028
-178.012	-43.464	-0.243	-0.121
-176.998	236.837	0.255	0.416
-175.983	9.910	0.223	-0.167
-174.969	-156.140	-0.466	-0.029
-173.954	-139.389	0.064	-0.007
-172.939	205.683	-0.171	0.263
-171.925	-97.957	0.169	0.043
-170.910	75.700	0.056	-0.058
-169.896	-24.696	0.063	0.037
-168.881	-102.399	0.292	0.069
-167.866	800.000	-0.023	0.098
-166.852	0.211	0.017	-0.012
-165.837	-200.000	0.032	0.214
-164.823	-118.049	-0.254	-0.045
-163.808	800.000	0.068	-0.202
-162.793	45.742	-0.137	0.125
-161.779	47.322	0.068	-0.063
-160.764	248.755	-0.141	0.236
-159.750	-124.971	-0.356	0.054
-158.735	-43.635	0.153	0.076
-157.720	159.381	0.129	0.177
-156.706	-200.000	-0.010	0.055
-155.691	145.932	0.086	-0.113
-154.677	-200.000	-0.005	0.106
-153.662	-21.116	-0.360	0.217
-152.647	-200.000	-0.020	-0.152
-151.633	-3.999	0.190	0.130
-150.618	-94.264	0.241	-0.065
-149.604	615.792	-0.105	-0.260
-148.589	800.000	-0.031	0.107
-147.574	-62.039	-0.184	-0.076
-146.560	-33.445	0.315	-0.172
-145.545	477.019	-0.066	-0.147
-144.531	-197.596	0.063	0.000
-143.516	32.343	0.396	0.337
-142.502	800.000	0.082	0.288
-141.487	-200.000	-0.031	0.155
-140.472	121.350	0.119	-0.146
-139.458	554.924	0.102	-0.242
-138.443	186.398	0.226	0.331
-137.429	81.234	0.146	0.156
-136.414	53.768	-0.112	0.106
-135.399	-200.000	-0.080	-0.393
-134.385	39.682	0.074	0.065
-133.370	99.618	-0.087	0.100
-132.356	-200.000	-0.064	0.297
-131.341	632.194	-0.104	0.258
-130.326	246.232	-0.051	-0.085
-129.312	800.000	0.059	0.197
-128.297	-200.000	0.002	-0.247
-127.283	-47.161	0.091	0.044
-126.268	800.000	-0.048	-0.134
-125.253	170.050	-0.236	-0.332
-124.239	-25.456	-0.330	0.192
-123.224	-18.593	0.111	-0.068
-122.210	210.795	-0.215	-0.334
-121.195	75.454	0.153	-0.159
