DTS Sentinel unit serial number:	SN413079Multiplexer serial number:	ORYXHardware model number:	OX4-SRSoftware version number:	ORYX F/W v4.00 Oryx Data Collector v3.7.2.0data status	okinstallation	princeton_trtdifferential loss correction	single-endedforward channel	channel 3reverse channel	N/Adate	2019/09/12time	21:08:34forward acquisition time	60.00reverse acquisition time	0.00gamma	496.2192k internal	0.2325k external	0.2325temperature offset calibration	1.0127default loss term (dB/km)	0.3790temperature slope calibration	1.0000multiplexer offset coefficient	1.0000multiplexer slope coefficient	1.0000fibre end	0.00T internal ref (°C)	30.75T ext. ref 1 (°C)	3.62T ext. ref 2 (°C)	25.26length (m)	temperature (°C)	Stokes	anti-Stokes-747.200	-124.255	-0.374	-0.059
-746.185	240.875	-0.224	0.378
-745.171	-167.915	0.441	-0.017
-744.156	800.000	0.032	-0.131
-743.142	-8.864	0.025	0.017
-742.127	-200.000	0.036	0.521
-741.112	-15.216	0.115	0.074
-740.098	800.000	0.036	0.103
-739.083	266.128	-0.147	-0.258
-738.069	-200.000	0.002	0.054
-737.054	-6.305	0.130	0.090
-736.039	-115.192	-0.298	0.057
-735.025	800.000	-0.095	0.350
-734.010	49.906	-0.172	-0.163
-732.996	19.092	0.172	-0.139
-731.981	-2.667	-0.233	0.164
-730.966	-19.471	0.083	-0.052
-729.952	435.550	-0.041	0.090
-728.937	377.056	-0.077	-0.158
-727.923	-37.895	0.308	0.165
-726.908	-200.000	0.068	-0.324
-725.894	576.312	-0.061	-0.151
-724.879	756.643	-0.089	0.243
-723.864	800.000	-0.046	0.134
-722.850	91.553	-0.029	-0.033
-721.835	65.102	0.158	0.161
-720.821	254.572	-0.034	0.058
-719.806	104.916	0.068	-0.081
-718.791	794.542	0.046	-0.129
-717.777	-121.948	-0.281	-0.047
-716.762	800.000	-0.124	0.374
-715.748	-28.152	-0.207	-0.121
-714.733	-39.438	-0.250	-0.132
-713.718	-105.295	-0.296	0.068
-712.704	189.340	-0.216	0.326
-711.689	800.000	-0.098	-0.409
-710.675	-200.000	-0.099	-0.000
-709.660	-200.000	-0.013	0.097
-708.645	47.272	-0.221	-0.208
-707.631	768.240	-0.083	-0.227
-706.616	-200.000	0.034	0.157
-705.602	47.883	-0.170	-0.160
-704.587	-13.186	0.253	0.166
-703.572	-75.533	-0.202	-0.072
-702.558	-200.000	-0.044	0.441
-701.543	-162.515	0.117	-0.006
-700.529	-200.000	-0.018	0.136
-699.514	-112.821	0.469	0.094
-698.499	79.199	-0.230	0.248
-697.485	116.289	-0.203	-0.251
-696.470	501.824	0.128	-0.298
-695.456	-105.677	-0.065	-0.015
-694.441	77.121	-0.149	0.160
-693.426	-155.420	-0.090	0.006
-692.412	194.799	-0.166	0.253
-691.397	272.924	-0.051	0.091
-690.383	-123.687	-0.240	0.038
-689.368	800.000	-0.120	-0.395
-688.354	537.127	0.047	0.112
-687.339	-138.194	-0.110	0.012
-686.324	800.000	-0.145	0.544
-685.310	288.779	-0.019	0.034
-684.295	85.266	0.351	-0.388
-683.281	213.542	-0.039	0.061
-682.266	-167.211	-0.285	0.012
-681.251	40.194	0.055	0.050
-680.237	56.138	0.119	-0.116
-679.222	-144.954	0.146	0.013
-678.208	-191.967	-0.162	-0.002
-677.193	-200.000	0.038	-0.189
-676.178	-200.000	-0.185	-0.001
-675.164	193.864	0.100	-0.153
-674.149	-75.991	-0.024	-0.009
-673.135	800.000	0.031	0.101
-672.120	376.649	-0.084	0.172
-671.105	-116.893	-0.297	-0.055
-670.091	159.860	0.097	0.135
-669.076	439.946	0.025	-0.055
-668.062	800.000	-0.056	0.219
-667.047	-101.969	0.332	-0.081
-666.032	800.000	-0.005	-0.020
-665.018	-12.593	-0.217	0.142
-664.003	800.000	0.128	0.359
-662.989	-200.000	0.019	-0.088
-661.974	-106.539	0.352	-0.079
-660.959	9.855	0.180	-0.137
-659.945	-20.345	0.129	-0.080
-658.930	-88.934	-0.059	-0.018
-657.916	-107.622	0.186	-0.041
-656.901	-27.160	-0.025	-0.014
-655.886	740.903	-0.090	0.244
-654.872	-200.000	-0.008	-0.297
-653.857	79.893	0.169	-0.183
-652.843	426.740	-0.088	0.191
-651.828	-88.231	0.070	-0.021
-650.814	-133.775	-0.310	0.039
-649.799	-116.844	-0.139	0.026
-648.784	-200.000	0.028	0.245
-647.770	-165.033	-0.442	0.020
-646.755	573.834	0.035	0.087
-645.741	-200.000	0.028	0.233
-644.726	9.758	-0.275	0.209
-643.711	-23.156	0.325	-0.197
-642.697	18.133	-0.108	-0.087
-641.682	-89.571	0.101	0.030
-640.668	45.840	0.267	-0.248
-639.653	-200.000	0.014	-0.202
-638.638	0.337	0.031	-0.022
-637.624	264.677	-0.211	0.369
-636.609	-60.497	-0.217	0.093
-635.595	12.247	-0.284	0.220
-634.580	69.333	0.165	-0.170
-633.565	184.316	0.233	-0.347
-632.551	75.032	-0.172	0.182
-631.536	4.663	-0.046	0.034
-630.522	-64.497	-0.238	-0.097
-629.507	-182.490	-0.292	0.005
-628.492	-51.946	-0.310	-0.145
-627.478	800.000	0.125	-0.470
-626.463	-78.003	-0.233	0.081
-625.449	-28.445	0.321	-0.186
-624.434	397.064	-0.142	-0.298
-623.419	256.065	0.168	0.290
-622.405	112.282	0.151	0.183
-621.390	-88.317	0.105	-0.031
-620.376	303.038	0.059	-0.109
-619.361	-200.000	0.022	0.329
-618.346	-149.693	0.153	-0.012
-617.332	-200.000	-0.046	0.233
-616.317	-113.000	-0.087	0.017
-615.303	-86.170	-0.295	0.091
-614.288	125.782	0.021	0.026
-613.273	-200.000	-0.036	-0.358
-612.259	141.819	0.072	0.096
-611.244	-200.000	0.023	-0.245
-610.230	-56.076	0.372	-0.166
-609.215	604.056	-0.091	-0.228
-608.201	77.992	0.166	-0.177
-607.186	38.073	-0.091	0.081
-606.171	-60.249	-0.381	0.163
-605.157	-82.959	-0.141	-0.046
-604.142	42.424	0.048	-0.044
-603.128	-145.821	0.094	-0.008
-602.113	-82.906	0.020	0.006
-601.098	-53.929	0.096	-0.044
-600.084	-29.452	-0.092	-0.053
-599.069	-200.000	0.011	-0.257
-598.055	61.412	-0.075	0.075
-597.040	-97.141	-0.417	-0.109
-596.025	800.000	0.122	-0.373
-595.011	-200.000	-0.006	-0.176
-593.996	3.193	-0.319	-0.233
-592.982	-128.591	0.078	-0.011
-591.967	-51.685	-0.179	0.084
-590.952	544.609	-0.069	-0.166
-589.938	94.826	-0.082	-0.094
-588.923	-200.000	-0.018	0.209
-587.909	-116.858	0.608	-0.112
-586.894	-54.327	0.245	-0.111
-585.879	800.000	-0.041	0.156
-584.865	-65.662	-0.134	-0.054
-583.850	163.967	0.173	0.244
-582.836	800.000	-0.058	-0.165
-581.821	-200.000	-0.054	-0.419
-580.806	-110.576	0.080	-0.017
-579.792	106.819	0.106	0.126
-578.777	171.543	-0.079	-0.114
-577.763	781.134	-0.114	0.314
-576.748	-119.804	0.189	-0.033
-575.733	-92.053	0.368	0.104
-574.719	-46.992	0.257	-0.126
-573.704	99.413	0.047	0.055
-572.690	57.189	-0.207	-0.202
-571.675	-58.960	0.285	-0.124
-570.661	-3.838	0.264	-0.183
-569.646	-200.000	-0.043	-0.233
-568.631	339.953	0.038	0.075
-567.617	344.315	0.041	-0.081
-566.602	-154.063	-0.452	0.031
-565.588	-158.372	-0.383	-0.022
-564.573	40.461	-0.193	-0.174
-563.558	800.000	0.100	-0.287
-562.544	86.692	-0.230	0.254
-561.529	102.187	0.075	-0.088
-560.515	-20.259	0.134	-0.083
-559.500	104.425	0.264	-0.312
-558.485	-20.187	-0.245	-0.151
-557.471	-200.000	0.027	-0.332
-556.456	47.898	0.385	0.360
-555.442	-4.330	0.320	-0.222
-554.427	-200.000	-0.000	-0.105
-553.412	-90.637	0.175	-0.051
-552.398	-72.054	-0.169	-0.063
-551.383	90.827	-0.338	0.379
-550.369	-14.942	-0.246	0.158
-549.354	546.064	-0.072	-0.171
-548.339	-200.000	0.033	-0.230
-547.325	-142.616	-0.037	-0.004
-546.310	-135.440	-0.028	0.003
-545.296	108.244	0.131	-0.156
-544.281	348.826	0.076	0.151
-543.266	-146.173	-0.208	-0.018
-542.252	484.461	0.088	-0.201
-541.237	736.083	0.039	-0.106
-540.223	-20.528	-0.211	0.130
-539.208	800.000	0.084	0.276
-538.193	-73.451	-0.314	-0.115
-537.179	513.564	0.078	-0.182
-536.164	-4.514	0.348	-0.241
-535.150	86.372	0.213	-0.235
-534.135	189.493	-0.080	0.120
-533.121	-64.507	-0.496	0.201
-532.106	-134.235	0.157	0.019
-531.091	-176.155	0.114	-0.003
-530.077	800.000	0.093	0.326
-529.062	-2.621	-0.460	-0.322
-528.048	-55.673	0.220	0.098
-527.033	170.374	-0.168	0.241
-526.018	-32.878	-0.332	-0.185
-525.004	-67.925	0.339	-0.132
-523.989	-200.000	-0.026	0.213
-522.975	250.834	0.134	0.229
-521.960	33.849	0.045	-0.039
-520.945	-0.411	0.375	-0.267
-519.931	53.293	-0.087	0.084
-518.916	-200.000	-0.022	-0.181
-517.902	64.481	-0.208	-0.209
-516.887	316.165	-0.140	-0.263
-515.872	81.354	0.178	-0.192
-514.858	131.707	-0.089	0.114
-513.843	659.945	0.044	-0.113
-512.829	-21.793	-0.051	0.031
-511.814	-60.082	-0.385	-0.164
-510.799	194.770	0.211	-0.320
-509.785	-93.988	-0.206	0.057
-508.770	-200.000	0.007	0.208
-507.756	193.862	0.072	-0.109
-506.741	103.467	-0.113	0.133
-505.726	-40.078	-0.129	-0.067
-504.712	394.241	-0.042	-0.087
-503.697	-111.642	0.205	-0.042
-502.683	-158.076	-0.195	-0.011
-501.668	307.012	0.055	-0.103
-500.653	-194.727	0.252	-0.002
-499.639	-123.461	0.092	0.015
-498.624	293.559	-0.081	-0.147
-497.610	38.753	0.109	0.098
-496.595	-200.000	-0.023	0.302
-495.581	-39.251	-0.267	0.140
-494.566	-23.724	-0.380	0.227
-493.551	-91.082	0.450	-0.129
-492.537	314.605	-0.242	0.456
-491.522	134.237	0.098	0.127
-490.508	256.455	-0.244	-0.418
-489.493	-130.728	0.155	0.021
-488.478	-200.000	-0.010	0.380
-487.464	-79.018	-0.173	0.059
-486.449	780.129	-0.031	-0.086
-485.435	464.407	-0.109	-0.244
-484.420	-172.661	-0.126	0.004
-483.405	-200.000	0.014	0.101
-482.391	220.897	0.105	0.168
-481.376	-110.738	0.026	-0.005
-480.362	-200.000	0.025	0.154
-479.347	-200.000	-0.001	0.214
-478.332	-173.345	0.336	0.010
-477.318	22.918	0.102	-0.084
-476.303	-8.130	0.360	-0.242
-475.289	-38.302	0.241	-0.127
-474.274	-200.000	-0.008	0.054
-473.259	32.366	-0.218	-0.188
-472.245	130.447	-0.210	0.269
-471.230	31.670	-0.032	-0.027
-470.216	-200.000	0.033	0.218
-469.201	-38.788	0.167	-0.088
-468.186	193.855	-0.216	-0.327
-467.172	190.810	-0.082	-0.123
-466.157	-52.280	0.109	-0.050
-465.143	-200.000	0.067	-0.409
-464.128	-200.000	0.017	0.217
-463.113	-51.568	-0.196	-0.091
-462.099	-148.609	0.078	0.006
-461.084	220.602	0.084	-0.135
-460.070	-200.000	0.080	-0.422
-459.055	121.632	0.105	-0.131
-458.040	-107.245	0.173	0.038
-457.026	-200.000	0.013	-0.130
-456.011	-168.875	-0.327	0.012
-454.997	800.000	0.039	0.170
-453.982	-129.056	0.476	-0.066
-452.968	-60.133	-0.222	-0.095
-451.953	-181.530	-0.372	0.007
-450.938	-131.467	0.149	0.020
-449.924	-117.452	-0.134	-0.024
-448.909	-39.840	0.388	-0.202
-447.895	-65.846	0.252	-0.100
-446.880	-89.186	0.244	0.072
-445.865	-83.878	0.200	0.063
-444.851	-29.802	-0.096	-0.054
-443.836	800.000	0.033	-0.108
-442.822	-41.849	0.268	0.137
-441.807	-200.000	0.036	0.214
-440.792	284.943	0.105	-0.189
-439.778	-75.747	-0.214	0.076
-438.763	-200.000	0.000	0.019
-437.749	800.000	-0.079	-0.224
-436.734	800.000	-0.005	-0.014
-435.719	-200.000	-0.008	-0.083
-434.705	-13.447	-0.401	-0.259
-433.690	164.747	0.139	-0.195
-432.676	82.851	-0.231	-0.250
-431.661	243.517	0.153	-0.256
-430.646	477.184	0.038	-0.085
-429.632	-109.194	0.121	-0.026
-428.617	800.000	0.019	0.059
-427.603	-89.956	-0.246	0.071
-426.588	496.535	0.115	0.263
-425.573	103.632	-0.250	0.293
-424.559	-73.329	0.228	0.083
-423.544	89.750	0.059	0.066
-422.530	-123.429	-0.196	0.031
-421.515	-200.000	0.032	-0.237
-420.500	355.252	0.096	0.189
-419.486	-96.105	0.219	0.058
-418.471	-200.000	0.020	0.384
-417.457	-122.199	-0.246	-0.040
-416.442	-200.000	0.014	0.288
-415.428	-142.541	0.212	0.021
-414.413	88.681	-0.155	-0.171
-413.398	118.965	-0.085	0.104
-412.384	65.528	0.023	0.023
-411.369	-125.095	-0.193	-0.030
-410.355	30.198	-0.120	0.102
-409.340	800.000	-0.078	0.240
-408.325	-63.685	-0.286	-0.117
-407.311	117.843	0.143	-0.175
-406.296	555.117	-0.059	-0.141
-405.282	216.343	-0.209	0.331
-404.267	112.800	-0.126	-0.152
-403.252	636.082	-0.164	0.414
-402.238	1.273	0.022	0.016
-401.223	343.932	0.031	0.061
-400.209	-70.510	-0.163	0.061
-399.194	800.000	-0.001	0.006
-398.179	637.695	-0.188	-0.475
-397.165	625.357	-0.081	0.203
-396.150	27.988	0.243	0.204
-395.136	-200.000	-0.016	0.260
-394.121	-74.954	-0.289	0.103
-393.106	88.330	-0.117	0.129
-392.092	-114.275	-0.213	0.041
-391.077	95.550	0.135	0.153
-390.063	-113.892	0.494	0.096
-389.048	-17.671	-0.380	-0.237
-388.033	-48.215	-0.255	-0.123
-387.019	-113.065	0.294	0.058
-386.004	-55.704	-0.218	-0.097
-384.990	3.478	0.239	-0.173
-383.975	800.000	-0.029	-0.085
-382.960	397.537	0.204	0.425
-381.946	-160.494	-0.074	-0.004
-380.931	-108.836	0.083	-0.018
-379.917	800.000	0.091	0.318
-378.902	-200.000	0.036	0.302
-377.888	-200.000	-0.013	-0.164
-376.873	-174.631	0.206	-0.006
-375.858	480.520	-0.094	0.213
-374.844	38.353	-0.168	0.149
-373.829	638.759	0.095	0.239
-372.815	103.450	0.178	-0.207
-371.800	59.894	-0.127	0.125
-370.785	-200.000	0.036	0.328
-369.771	-163.152	-0.219	-0.010
-368.756	65.076	0.247	-0.248
-367.742	800.000	0.045	-0.166
-366.727	-62.624	0.468	-0.193
-365.712	-108.283	-0.263	0.057
-364.698	-169.859	0.439	0.016
-363.683	800.000	0.109	-0.383
-362.669	-17.756	-0.103	-0.064
-361.654	54.079	-0.106	0.101
-360.639	-200.000	0.017	0.352
-359.625	360.337	-0.063	0.125
-358.610	800.000	0.102	0.344
-357.596	157.994	-0.116	0.160
-356.581	141.567	-0.136	0.180
-355.566	511.796	0.085	0.196
-354.552	800.000	0.119	0.471
-353.537	133.931	0.113	0.146
-352.523	800.000	-0.054	0.230
-351.508	79.374	-0.095	-0.101
-350.493	-33.616	-0.112	0.062
-349.479	123.477	-0.207	0.258
-348.464	800.000	-0.109	0.330
-347.450	4.489	0.096	-0.070
-346.435	-95.488	-0.044	0.012
-345.420	85.121	-0.148	0.162
-344.406	800.000	0.096	-0.385
-343.391	-121.133	0.088	0.015
-342.377	-92.687	-0.159	-0.044
-341.362	198.497	-0.094	-0.143
-340.348	-200.000	0.007	-0.066
-339.333	-200.000	0.022	0.124
-338.318	-200.000	-0.021	0.100
-337.304	70.276	0.111	0.114
-336.289	92.157	0.137	0.154
-335.275	-22.059	0.238	-0.144
-334.260	-47.763	-0.196	0.094
-333.245	324.263	0.107	-0.203
-332.231	-200.000	-0.010	0.219
-331.216	498.980	-0.107	-0.244
-330.202	-200.000	-0.024	0.111
-329.187	93.024	-0.221	0.248
-328.172	139.454	-0.061	-0.080
-327.158	-19.998	-0.166	-0.102
-326.143	120.006	-0.288	0.354
-325.129	-200.000	0.009	-0.048
-324.114	-24.972	0.051	0.030
-323.099	62.507	0.186	0.185
-322.085	-112.458	-0.143	-0.028
-321.070	-180.487	0.185	-0.004
-320.056	239.391	0.199	0.329
-319.041	-47.530	-0.351	0.169
-318.026	200.272	0.168	0.256
-317.012	-200.000	-0.040	-0.192
-315.997	800.000	0.086	-0.288
-314.983	-194.392	-0.173	0.001
-313.968	402.762	-0.087	-0.181
-312.953	-177.256	0.237	0.006
-311.939	-79.013	-0.172	-0.058
-310.924	98.336	0.225	0.257
-309.910	800.000	0.043	0.138
-308.895	292.682	0.084	-0.152
-307.880	-200.000	0.020	-0.151
-306.866	299.317	-0.102	0.186
-305.851	-200.000	-0.023	0.161
-304.837	-72.717	-0.242	0.088
-303.822	-200.000	-0.036	-0.369
-302.807	98.704	0.115	-0.131
-301.793	-77.271	-0.063	-0.022
-300.778	-24.031	-0.287	-0.170
-299.764	-39.943	0.135	-0.070
-298.749	-84.512	-0.155	-0.048
-297.735	60.996	0.089	-0.087
-296.720	-11.096	-0.130	-0.085
-295.705	68.653	-0.168	-0.170
-294.691	-200.000	0.008	0.097
-293.676	-130.625	-0.139	-0.019
-292.662	-77.305	-0.140	-0.048
-291.647	-167.752	-0.213	-0.008
-290.632	-167.159	-0.342	-0.014
-289.618	715.801	0.078	0.206
-288.603	-200.000	0.028	0.202
-287.589	-184.840	0.082	0.001
-286.574	-100.168	0.296	0.073
-285.559	-200.000	-0.020	-0.431
-284.545	-200.000	0.049	-0.305
-283.530	-200.000	-0.014	-0.158
-282.516	-64.314	-0.129	-0.052
-281.501	-72.784	0.171	-0.062
-280.486	-75.468	0.263	-0.093
-279.472	-97.572	-0.287	-0.074
-278.457	206.816	-0.088	-0.135
-277.443	800.000	-0.068	0.197
-276.428	-81.576	-0.240	0.078
-275.413	-66.450	-0.179	-0.070
-274.399	792.924	-0.104	0.282
-273.384	314.069	-0.068	0.127
-272.370	-150.305	0.420	0.032
-271.355	-200.000	0.041	0.424
-270.340	-2.762	0.299	0.207
-269.326	-151.163	-0.403	0.030
-268.311	222.098	-0.100	0.160
-267.297	800.000	0.017	0.056
-266.282	-132.785	0.220	0.028
-265.267	-1.405	0.209	0.146
-264.253	-200.000	-0.042	-0.207
-263.238	-72.623	-0.353	-0.129
-262.224	21.749	0.119	0.096
-261.209	-200.000	0.002	-0.199
-260.195	274.486	0.077	0.135
-259.180	5.681	-0.137	-0.101
-258.165	-131.293	-0.243	-0.032
-257.151	-200.000	0.036	0.405
-256.136	-132.498	-0.297	-0.038
-255.122	65.148	-0.143	-0.143
-254.107	-34.631	-0.205	0.111
-253.092	-168.557	-0.140	0.005
-252.078	39.873	0.024	-0.022
-251.063	-107.325	0.174	0.038
-250.049	352.109	0.161	0.316
-249.034	800.000	0.134	0.400
-248.019	134.892	-0.226	-0.291
-247.005	-200.000	0.023	0.221
-245.990	66.437	0.276	0.278
-244.976	6.653	-0.136	-0.100
-243.961	-83.924	0.198	0.062
-242.946	-114.391	0.057	0.011
-241.932	-48.553	-0.172	0.082
-240.917	100.913	0.271	0.312
-239.903	554.611	0.120	0.284
-238.888	-93.398	-0.079	-0.022
-237.873	-16.240	0.030	-0.019
-236.859	132.416	-0.126	0.161
-235.844	-200.000	0.002	0.048
-234.830	-88.529	0.355	-0.105
-233.815	-200.000	0.001	-0.118
-232.800	-33.714	0.293	-0.160
-231.786	-80.498	0.260	0.086
-230.771	17.489	-0.063	-0.050
-229.757	-136.125	0.308	0.036
-228.742	800.000	0.054	-0.222
-227.727	-44.462	0.136	-0.067
-226.713	-16.041	-0.164	-0.103
-225.698	800.000	-0.042	0.174
-224.684	75.378	0.184	-0.192
-223.669	60.833	0.028	0.028
-222.655	-200.000	-0.017	-0.152
-221.640	-59.355	0.231	0.098
-220.625	11.187	0.074	-0.056
-219.611	-117.626	-0.050	-0.009
-218.596	428.631	0.159	0.339
-217.582	-87.632	-0.105	-0.031
-216.567	-78.334	0.086	-0.029
-215.552	-38.997	0.030	-0.016
-214.538	11.982	0.189	-0.143
-213.523	-200.000	0.036	0.364
-212.509	455.130	0.101	0.222
-211.494	-132.272	0.186	0.024
-210.479	-76.548	0.255	0.088
-209.465	90.552	-0.118	0.130
-208.450	626.980	-0.049	0.123
-207.436	-2.026	0.267	-0.186
-206.421	-66.938	-0.427	-0.167
-205.406	-16.554	-0.071	0.045
-204.392	-99.351	-0.288	0.072
-203.377	197.583	0.109	-0.165
-202.363	-24.157	0.226	-0.133
-201.348	-30.404	0.350	0.196
-200.333	76.367	-0.039	-0.041
-199.319	-200.000	-0.020	0.131
-198.304	128.617	0.112	0.141
-197.290	603.121	0.141	0.347
-196.275	243.536	0.035	0.059
-195.260	-19.221	-0.244	-0.149
-194.246	148.707	-0.187	-0.249
-193.231	-88.612	0.161	-0.047
-192.217	800.000	-0.101	-0.382
-191.202	-23.149	0.131	-0.078
-190.187	-51.878	0.310	-0.143
-189.173	-163.895	0.202	-0.009
-188.158	121.857	-0.099	0.122
-187.144	-120.140	-0.214	0.036
-186.129	196.858	-0.133	-0.200
-185.114	-200.000	-0.042	-0.190
-184.100	262.544	-0.106	0.182
-183.085	18.231	0.170	0.134
-182.071	20.956	0.183	-0.146
-181.056	484.450	0.081	0.182
-180.042	800.000	-0.082	0.235
-179.027	212.524	0.089	0.138
-178.012	-18.301	-0.080	-0.049
-176.998	-160.781	0.117	0.006
-175.983	32.520	-0.166	-0.141
-174.969	-9.359	0.205	-0.135
-173.954	27.431	-0.214	-0.177
-172.939	800.000	0.056	-0.227
-171.925	-126.490	-0.162	-0.024
-170.910	120.919	-0.149	0.182
-169.896	800.000	0.105	-0.295
-168.881	26.464	-0.069	0.057
-167.866	800.000	-0.024	-0.101
-166.852	-200.000	0.049	-0.248
-165.837	449.439	0.095	-0.206
-164.823	-200.000	-0.040	0.278
-163.808	-35.861	-0.126	-0.067
-162.793	323.157	-0.132	0.248
-161.779	-200.000	0.013	-0.086
-160.764	-57.674	0.357	-0.154
-159.750	184.309	-0.133	-0.195
-158.735	330.307	-0.046	0.087
-157.720	800.000	-0.054	0.186
-156.706	-200.000	-0.015	0.172
-155.691	138.247	0.120	-0.155
-154.677	-77.875	0.170	-0.058
-153.662	-32.955	0.344	-0.189
-152.647	-49.442	0.369	0.173
-151.633	-82.405	0.019	-0.006
-150.618	2.138	-0.070	0.050
-149.604	800.000	0.139	0.394
-148.589	-200.000	-0.032	0.560
-147.574	-38.518	-0.100	0.052
-146.560	-162.811	-0.252	-0.012
-145.545	38.630	0.075	0.066
-144.531	800.000	-0.104	0.333
-143.516	800.000	-0.013	-0.035
-142.502	800.000	0.060	-0.257
-141.487	-97.097	-0.251	-0.065
-140.472	179.412	-0.062	-0.089
-139.458	-149.462	0.387	0.030
-138.443	-200.000	-0.008	-0.074
-137.429	800.000	-0.030	-0.129
-136.414	-82.769	0.464	-0.148
-135.399	-200.000	0.002	-0.195
-134.385	-71.465	-0.241	0.089
-133.370	-200.000	-0.046	0.250
-132.356	-200.000	0.042	0.402
-131.341	208.910	-0.093	0.143
-130.326	-83.655	0.193	0.061
-129.312	379.368	-0.106	-0.213
-128.297	225.576	0.046	0.074
-127.283	-200.000	-0.008	0.275
-126.268	-200.000	-0.046	0.318
-125.253	-200.000	0.006	0.183
-124.239	-115.552	-0.238	-0.044
-123.224	-4.051	0.060	-0.041
-122.210	-25.933	-0.292	-0.169
