DTS Sentinel unit serial number:	SN413079Multiplexer serial number:	ORYXHardware model number:	OX4-SRSoftware version number:	ORYX F/W v4.00 Oryx Data Collector v3.7.2.0data status	okinstallation	princeton_trtdifferential loss correction	single-endedforward channel	channel 3reverse channel	N/Adate	2019/09/14time	17:04:34forward acquisition time	60.00reverse acquisition time	0.00gamma	496.2192k internal	0.2295k external	0.2295temperature offset calibration	1.0027default loss term (dB/km)	0.3790temperature slope calibration	1.0000multiplexer offset coefficient	1.0000multiplexer slope coefficient	1.0000fibre end	0.00T internal ref (°C)	38.00T ext. ref 1 (°C)	5.00T ext. ref 2 (°C)	33.10length (m)	temperature (°C)	Stokes	anti-Stokes-747.200	47.936	0.060	-0.057
-746.185	-200.000	-0.007	-0.127
-745.171	-200.000	0.018	0.201
-744.156	-9.014	-0.113	-0.077
-743.142	800.000	0.031	0.109
-742.127	-200.000	0.065	0.302
-741.112	-63.794	0.192	0.080
-740.098	-45.790	0.215	0.109
-739.083	45.183	-0.218	0.205
-738.069	-200.000	-0.073	0.466
-737.054	-71.208	-0.312	0.120
-736.039	-143.103	-0.319	0.031
-735.025	529.755	-0.086	0.206
-734.010	-2.808	-0.263	0.188
-732.996	-200.000	-0.029	-0.345
-731.981	-123.021	0.045	0.007
-730.966	-200.000	-0.037	0.209
-729.952	-200.000	-0.341	0.000
-728.937	128.569	-0.113	0.147
-727.923	-91.380	0.104	-0.030
-726.908	602.126	-0.073	-0.186
-725.894	800.000	-0.062	-0.267
-724.879	-200.000	-0.049	-0.280
-723.864	-34.374	-0.159	-0.089
-722.850	84.056	-0.263	-0.293
-721.835	800.000	-0.135	-0.409
-720.821	-136.951	-0.212	0.025
-719.806	6.530	-0.110	0.083
-718.791	-120.666	-0.112	-0.019
-717.777	-16.977	-0.034	0.022
-716.762	99.125	0.105	0.124
-715.748	-62.997	0.384	0.162
-714.733	75.661	0.182	0.196
-713.718	97.263	-0.130	-0.153
-712.704	73.894	-0.186	-0.199
-711.689	800.000	0.040	0.117
-710.675	151.593	-0.154	0.215
-709.660	54.037	0.096	0.094
-708.645	220.126	-0.083	-0.136
-707.631	-73.249	-0.450	-0.168
-706.616	-129.174	-0.346	0.049
-705.602	-200.000	0.169	-0.001
-704.587	-52.856	-0.266	-0.125
-703.572	800.000	0.042	-0.175
-702.558	-200.000	-0.004	0.160
-701.543	479.773	-0.036	-0.084
-700.529	-200.000	0.015	-0.399
-699.514	800.000	-0.110	0.328
-698.499	186.126	0.147	0.223
-697.485	-200.000	-0.018	0.274
-696.470	757.399	-0.099	0.273
-695.456	-43.919	0.052	-0.027
-694.441	257.179	0.095	-0.167
-693.426	-114.170	-0.065	-0.013
-692.412	-131.907	0.252	-0.034
-691.397	5.314	0.103	-0.077
-690.383	-17.274	-0.044	-0.028
-689.368	-113.718	0.280	0.056
-688.354	114.716	0.245	-0.305
-687.339	152.502	0.036	-0.050
-686.324	-200.000	-0.016	-0.148
-685.310	-200.000	0.058	-0.351
-684.295	-20.171	-0.158	-0.099
-683.281	-109.101	0.142	0.031
-682.266	-84.304	-0.162	-0.052
-681.251	65.860	-0.296	0.306
-680.237	-144.633	0.215	-0.020
-679.222	-10.593	-0.306	-0.206
-678.208	-49.846	0.190	-0.092
-677.193	-1.489	-0.097	-0.070
-676.178	-134.505	-0.189	0.024
-675.164	137.999	-0.187	-0.250
-674.149	-200.000	-0.004	-0.068
-673.135	105.593	-0.145	0.175
-672.120	800.000	-0.083	0.315
-671.105	-59.828	-0.046	0.020
-670.091	769.718	0.049	0.136
-669.076	-18.736	-0.367	-0.233
-668.062	-59.525	-0.353	-0.154
-667.047	800.000	-0.152	-0.448
-666.032	166.568	0.185	-0.268
-665.018	412.809	-0.028	-0.060
-664.003	-98.925	-0.135	-0.035
-662.989	-34.860	-0.132	-0.074
-661.974	-2.592	-0.167	0.119
-660.959	-80.621	0.133	0.045
-659.945	-112.572	-0.012	-0.002
-658.930	-174.775	0.359	-0.010
-657.916	114.609	-0.130	0.161
-656.901	-96.252	-0.155	-0.042
-655.886	-7.606	0.313	-0.215
-654.872	-56.796	0.198	-0.089
-653.857	-99.569	-0.224	0.057
-652.843	-51.942	0.204	-0.097
-651.828	800.000	-0.019	0.073
-650.814	-155.680	0.366	0.024
-649.799	-104.330	0.080	0.019
-648.784	-41.534	0.098	0.051
-647.770	320.658	0.050	0.097
-646.755	182.022	-0.148	-0.222
-645.741	-200.000	-0.030	0.182
-644.726	107.250	-0.094	0.114
-643.711	42.257	0.083	-0.077
-642.697	-108.608	-0.028	0.006
-641.682	-200.000	0.030	0.220
-640.668	-200.000	0.049	-0.350
-639.653	-200.000	-0.057	-0.340
-638.638	5.744	-0.215	-0.162
-637.624	531.599	-0.040	-0.097
-636.609	-200.000	-0.008	-0.066
-635.595	-35.411	-0.193	-0.107
-634.580	18.407	0.132	0.108
-633.565	54.383	0.196	-0.192
-632.551	720.905	-0.200	-0.541
-631.536	-200.000	-0.014	-0.206
-630.522	-79.085	-0.339	-0.117
-629.507	70.445	-0.128	0.135
-628.492	54.395	0.230	0.226
-627.478	800.000	-0.101	-0.413
-626.463	51.760	-0.163	-0.158
-625.449	347.329	0.151	0.303
-624.434	-144.268	-0.066	0.006
-623.419	-69.398	-0.157	0.061
-622.405	-50.150	0.068	-0.033
-621.390	206.223	-0.198	0.314
-620.376	420.485	-0.153	0.334
-619.361	-200.000	0.018	0.209
-618.346	560.655	-0.201	0.494
-617.332	528.618	0.046	-0.111
-616.317	-48.954	-0.207	-0.101
-615.303	61.365	0.151	0.153
-614.288	-25.540	-0.394	-0.237
-613.273	60.098	0.084	-0.085
-612.259	-8.177	0.015	0.010
-611.244	175.666	-0.086	-0.127
-610.230	349.533	-0.036	-0.073
-609.215	800.000	-0.084	0.244
-608.201	-80.443	-0.100	0.034
-607.186	420.466	0.112	0.244
-606.171	95.792	-0.086	-0.099
-605.157	193.551	0.072	0.110
-604.142	-200.000	0.001	-0.220
-603.128	-81.160	0.238	-0.080
-602.113	-35.094	0.119	0.066
-601.098	800.000	0.031	0.091
-600.084	-200.000	-0.010	-0.144
-599.069	-53.558	-0.210	0.098
-598.055	800.000	-0.052	0.162
-597.040	-200.000	0.042	0.215
-596.025	8.913	0.125	-0.096
-595.011	-67.189	0.047	0.019
-593.996	249.568	0.146	0.251
-592.982	80.149	0.015	0.016
-591.967	27.539	0.112	-0.096
-590.952	-200.000	-0.067	0.357
-589.938	-100.042	-0.045	-0.011
-588.923	641.030	0.097	-0.251
-587.909	543.578	-0.046	0.111
-586.894	-38.043	-0.359	0.194
-585.879	-93.513	0.088	0.025
-584.865	167.669	0.250	-0.361
-583.850	-3.679	-0.122	-0.086
-582.836	-47.859	-0.210	-0.103
-581.821	-200.000	-0.016	0.176
-580.806	-65.682	0.348	-0.142
-579.792	179.524	-0.149	-0.222
-578.777	196.968	-0.022	0.034
-577.763	-50.491	0.131	-0.063
-576.748	-2.166	-0.106	-0.075
-575.733	-127.459	-0.223	0.033
-574.719	329.680	-0.051	-0.099
-573.704	244.763	0.122	-0.209
-572.690	-23.284	-0.164	-0.100
-571.675	312.468	-0.157	-0.300
-570.661	-200.000	-0.377	0.000
-569.646	-81.566	0.358	0.119
-568.631	800.000	-0.044	-0.144
-567.617	-200.000	-0.052	-0.304
-566.602	-123.936	-0.139	0.022
-565.588	-106.597	0.087	0.020
-564.573	-132.837	-0.084	-0.011
-563.558	-200.000	0.005	0.160
-562.544	119.817	0.118	-0.148
-561.529	800.000	0.070	-0.265
-560.515	800.000	0.006	-0.024
-559.500	180.537	-0.057	-0.085
-558.485	-57.241	0.222	-0.099
-557.471	122.411	-0.190	-0.241
-556.456	228.309	0.036	0.059
-555.442	-159.463	-0.175	-0.010
-554.427	-200.000	0.011	-0.090
-553.412	-51.870	-0.110	0.052
-552.398	2.192	-0.264	-0.194
-551.383	-139.468	-0.278	0.030
-550.369	-26.348	0.388	0.231
-549.354	-65.659	0.289	0.117
-548.339	-150.926	-0.069	0.005
-547.325	-126.579	-0.078	0.012
-546.310	-200.000	0.031	-0.294
-545.296	775.315	0.052	-0.143
-544.281	-200.000	-0.015	0.318
-543.266	327.457	-0.092	-0.179
-542.252	-171.147	-0.414	0.014
-541.237	179.028	-0.196	0.291
-540.223	-200.000	0.005	0.198
-539.208	29.049	-0.251	-0.216
-538.193	800.000	0.105	-0.354
-537.179	29.044	0.130	-0.112
-536.164	-200.000	0.003	-0.241
-535.150	-107.054	-0.178	-0.040
-534.135	800.000	-0.072	-0.220
-533.121	-91.672	0.366	-0.106
-532.106	47.668	0.052	-0.049
-531.091	-122.849	0.084	0.014
-530.077	-69.870	-0.264	0.102
-529.062	111.547	-0.165	0.201
-528.048	-106.309	-0.206	0.047
-527.033	-78.214	-0.297	0.103
-526.018	-200.000	-0.016	0.081
-525.004	235.686	0.125	-0.209
-523.989	126.918	-0.220	0.282
-522.975	-78.049	0.396	0.138
-521.960	108.053	0.176	0.213
-520.945	-200.000	0.006	-0.071
-519.931	-178.003	-0.261	-0.006
-518.916	59.672	0.201	-0.200
-517.902	-200.000	0.012	-0.168
-516.887	-96.680	0.103	-0.028
-515.872	-200.000	0.150	0.000
-514.858	-118.900	0.046	-0.008
-513.843	150.020	-0.281	0.386
-512.829	-1.376	-0.054	-0.038
-511.814	-179.310	0.333	-0.007
-510.799	188.694	0.071	0.108
-509.785	-200.000	0.015	-0.079
-508.770	-7.555	0.119	0.082
-507.756	-99.092	-0.119	0.031
-506.741	800.000	0.102	-0.450
-505.726	-42.257	0.115	0.059
-504.712	-42.803	0.022	0.011
-503.697	-155.364	0.101	0.007
-502.683	-79.293	-0.315	-0.108
-501.668	-96.952	-0.115	0.030
-500.653	262.565	0.130	-0.229
-499.639	-200.000	-0.015	0.116
-498.624	-99.654	0.199	-0.051
-497.610	-93.749	0.196	0.055
-496.595	125.357	-0.138	-0.176
-495.581	-34.260	-0.225	-0.125
-494.566	182.821	-0.086	-0.129
-493.551	-113.774	-0.170	0.034
-492.537	-162.458	0.341	0.017
-491.522	403.580	-0.005	0.011
-490.508	43.103	-0.082	-0.075
-489.493	148.141	-0.176	-0.240
-488.478	-152.009	0.456	-0.034
-487.464	333.840	0.053	0.104
-486.449	-60.672	0.259	0.111
-485.435	-36.822	0.228	0.124
-484.420	-165.735	-0.304	-0.013
-483.405	-110.935	-0.129	-0.027
-482.391	418.336	-0.166	-0.360
-481.376	499.351	-0.061	0.143
-480.362	24.948	0.119	-0.100
-479.347	-55.232	0.085	-0.038
-478.332	390.810	0.109	-0.230
-477.318	-200.000	0.038	-0.243
-476.303	703.957	0.108	0.288
-475.289	-72.774	0.068	0.025
-474.274	800.000	0.128	0.410
-473.259	-200.000	-0.039	-0.264
-472.245	335.369	0.101	-0.197
-471.230	-41.480	-0.206	0.107
-470.216	321.616	-0.105	-0.203
-469.201	-200.000	-0.017	-0.145
-468.186	37.601	0.158	-0.142
-467.172	-47.291	-0.131	0.064
-466.157	-76.869	0.093	-0.033
-465.143	441.478	-0.078	-0.173
-464.128	-140.091	0.276	0.029
-463.113	-79.827	-0.111	0.038
-462.099	-116.743	0.224	-0.041
-461.084	-61.627	0.152	-0.065
-460.070	-51.550	0.155	0.073
-459.055	162.193	0.075	0.106
-458.040	800.000	0.066	0.288
-457.026	-53.099	0.341	0.158
-456.011	-65.562	-0.130	0.053
-454.997	-41.787	-0.116	-0.060
-453.982	-156.470	-0.128	0.008
-452.968	478.679	-0.088	-0.201
-451.953	800.000	-0.052	-0.227
-450.938	226.652	0.249	0.409
-449.924	800.000	-0.110	0.362
-448.909	70.428	0.204	0.213
-447.895	-43.378	0.092	0.047
-446.880	-200.000	-0.040	0.345
-445.865	34.673	0.016	0.014
-444.851	-157.342	-0.230	0.014
-443.836	20.788	0.270	0.221
-442.822	-200.000	-0.053	-0.000
-441.807	-200.000	-0.040	0.267
-440.792	-26.710	-0.084	0.050
-439.778	800.000	0.058	0.201
-438.763	-0.490	-0.112	0.080
-437.749	-200.000	-0.019	0.169
-436.734	-171.746	0.127	-0.004
-435.719	-104.868	-0.251	0.058
-434.705	-200.000	-0.001	-0.233
-433.690	537.241	-0.060	-0.144
-432.676	288.797	0.146	-0.267
-431.661	-200.000	-0.027	0.163
-430.646	368.384	0.170	-0.348
-429.632	800.000	0.006	-0.022
-428.617	-64.031	0.229	0.094
-427.603	-94.872	0.192	-0.052
-426.588	-136.250	0.059	0.007
-425.573	25.806	0.252	-0.212
-424.559	128.624	0.223	-0.286
-423.544	-150.364	0.043	-0.003
-422.530	327.662	0.108	0.209
-421.515	-4.643	0.158	0.110
-420.500	-113.325	0.287	-0.057
-419.486	-121.647	-0.160	-0.027
-418.471	446.741	0.039	0.087
-417.457	125.754	0.164	-0.209
-416.442	-200.000	-0.018	-0.143
-415.428	381.578	-0.154	-0.319
-414.413	-184.325	-0.164	-0.003
-413.398	-91.173	-0.126	-0.037
-412.384	113.927	0.094	0.115
-411.369	-86.732	0.117	0.036
-410.355	281.702	-0.098	-0.177
-409.340	304.329	-0.134	0.250
-408.325	-98.441	0.145	0.037
-407.311	-200.000	0.002	0.054
-406.296	-118.650	0.110	-0.020
-405.282	800.000	0.107	0.326
-404.267	-29.027	-0.157	0.091
-403.252	-3.080	0.294	-0.207
-402.238	-200.000	-0.001	-0.007
-401.223	-74.130	-0.137	0.050
-400.209	124.736	-0.089	-0.113
-399.194	33.023	-0.087	-0.076
-398.179	29.055	-0.153	-0.131
-397.165	-2.379	-0.015	0.011
-396.150	-200.000	-0.012	0.196
-395.136	-7.599	0.158	0.107
-394.121	342.127	-0.073	0.144
-393.106	-13.161	0.182	0.119
-392.092	-139.835	-0.159	-0.017
-391.077	800.000	0.006	0.017
-390.063	-113.000	0.096	0.019
-389.048	-57.027	0.159	0.071
-388.033	-94.958	-0.373	-0.102
-387.019	228.417	0.073	0.120
-386.004	524.372	-0.047	-0.112
-384.990	353.671	-0.133	-0.266
-383.975	175.770	0.240	-0.351
-382.960	-51.809	-0.083	-0.039
-381.946	135.712	0.101	0.133
-380.931	-6.261	-0.412	0.283
-379.917	-200.000	-0.003	0.049
-378.902	559.542	0.097	-0.236
-377.888	-53.582	-0.169	0.078
-376.873	-200.000	-0.030	0.178
-375.858	-200.000	-0.022	0.113
-374.844	-200.000	-0.010	0.392
-373.829	184.737	-0.118	-0.176
-372.815	318.689	0.107	-0.204
-371.800	-38.149	-0.104	-0.056
-370.785	28.096	0.117	-0.100
-369.771	47.593	0.117	0.110
-368.756	58.257	0.124	-0.122
-367.742	44.106	0.108	0.100
-366.727	800.000	-0.016	0.069
-365.712	139.313	-0.142	-0.188
-364.698	84.718	-0.114	0.126
-363.683	-200.000	0.026	0.153
-362.669	278.768	-0.091	0.163
-361.654	20.603	-0.151	0.123
-360.639	-200.000	-0.092	-0.414
-359.625	661.544	-0.067	0.175
-358.610	-200.000	-0.047	0.512
-357.596	-99.730	-0.190	0.048
-356.581	-27.895	-0.251	-0.146
-355.566	-93.041	-0.330	0.092
-354.552	-99.973	0.524	0.132
-353.537	-108.326	0.021	-0.005
-352.523	68.493	-0.131	0.135
-351.508	-4.735	-0.156	-0.109
-350.493	695.102	-0.060	0.158
-349.479	-100.633	0.389	-0.097
-348.464	51.153	0.166	-0.158
-347.450	800.000	0.020	0.058
-346.435	-138.577	-0.077	0.008
-345.420	343.749	0.072	0.141
-344.406	-200.000	-0.001	0.010
-343.391	-80.044	0.041	0.014
-342.377	-98.986	0.462	-0.118
-341.362	197.920	0.079	0.121
-340.348	-200.000	0.004	0.039
-339.333	-110.873	0.115	0.024
-338.318	-200.000	-0.001	0.087
-337.304	537.075	0.128	-0.306
-336.289	800.000	-0.057	-0.234
-335.275	-30.449	-0.190	-0.109
-334.260	-50.874	-0.410	-0.194
-333.245	234.313	0.127	-0.211
-332.231	116.134	0.035	-0.043
-331.216	-43.283	0.269	-0.137
-330.202	109.830	-0.092	0.111
-329.187	326.324	0.061	-0.117
-328.172	176.942	-0.069	-0.101
-327.158	-73.147	-0.206	0.076
-326.143	51.629	0.198	-0.189
-325.129	-56.026	-0.332	-0.149
-324.114	800.000	0.016	-0.048
-323.099	242.741	-0.043	0.072
-322.085	-125.060	0.150	-0.023
-321.070	-200.000	0.032	-0.345
-320.056	20.337	-0.281	-0.228
-319.041	-73.710	-0.161	-0.059
-318.026	166.770	-0.042	-0.060
-317.012	164.403	0.110	0.156
-315.997	132.912	-0.099	0.129
-314.983	-90.687	-0.019	0.006
-313.968	58.020	-0.176	0.173
-312.953	-144.319	0.221	0.021
-311.939	286.410	0.189	0.342
-310.924	-200.000	0.045	0.215
-309.910	-32.624	0.185	0.103
-308.895	-34.758	0.058	0.032
-307.880	52.405	0.162	0.156
-306.866	-54.396	-0.137	-0.062
-305.851	26.191	0.034	0.029
-304.837	-171.201	-0.138	0.005
-303.822	-60.428	-0.207	0.088
-302.807	164.594	0.202	-0.287
-301.793	-128.915	-0.434	-0.061
-300.778	90.078	0.102	0.114
-299.764	-111.896	-0.235	-0.048
-298.749	11.424	0.360	0.277
-297.735	430.538	-0.079	0.171
-296.720	-21.040	-0.245	-0.151
-295.705	165.821	0.102	-0.144
-294.691	800.000	0.072	-0.308
-293.676	-158.993	-0.199	0.011
-292.662	-200.000	-0.038	-0.288
-291.647	-91.622	0.136	-0.039
-290.632	-62.002	-0.178	-0.075
-289.618	-200.000	-0.037	0.269
-288.603	-200.000	0.016	0.427
-287.589	-200.000	-0.006	0.481
-286.574	-126.179	0.261	-0.039
-285.559	-12.559	-0.223	-0.146
-284.545	-32.785	-0.300	0.168
-283.530	-23.165	0.225	-0.136
-282.516	-157.567	0.267	-0.016
-281.501	-200.000	-0.021	0.240
-280.486	0.979	0.197	0.142
-279.472	-5.121	-0.143	0.099
-278.457	800.000	-0.047	-0.166
-277.443	800.000	0.070	0.229
-276.428	375.556	0.098	0.201
-275.413	377.819	-0.180	-0.369
-274.399	712.810	-0.029	-0.078
-273.384	-57.202	0.370	0.164
-272.370	193.030	0.205	0.311
-271.355	393.328	-0.092	-0.193
-270.340	22.391	-0.243	0.199
-269.326	-38.982	-0.099	-0.052
-268.311	351.343	-0.074	-0.146
-267.297	247.561	-0.145	-0.247
-266.282	0.034	0.213	0.152
-265.267	-44.427	0.078	-0.039
-264.253	800.000	-0.058	0.251
-263.238	714.821	-0.073	0.195
-262.224	-200.000	0.004	-0.053
-261.209	89.078	0.064	-0.072
-260.195	-104.704	-0.221	0.051
-259.180	438.124	-0.126	-0.275
-258.165	-188.537	0.100	-0.001
-257.151	-78.958	0.283	0.097
-256.136	-13.573	0.369	0.239
-255.122	-123.066	0.244	0.039
-254.107	488.073	0.029	0.067
-253.092	538.161	0.123	-0.293
-252.078	185.969	0.092	-0.138
-251.063	-130.408	-0.130	-0.018
-250.049	800.000	-0.104	0.315
-249.034	-71.212	-0.305	-0.115
-248.019	-200.000	-0.008	-0.185
-247.005	-146.199	0.317	0.028
-245.990	33.191	-0.165	0.143
-244.976	-47.515	-0.065	0.031
-243.961	-77.555	-0.337	0.117
-242.946	800.000	-0.079	0.220
-241.932	-126.497	-0.290	-0.043
-240.917	-99.613	0.269	0.068
-239.903	-200.000	0.006	0.155
-238.888	-200.000	0.014	-0.255
-237.873	24.509	0.131	-0.109
-236.859	404.776	0.211	0.445
-235.844	11.231	-0.089	0.068
-234.830	50.584	-0.210	0.199
-233.815	-151.980	-0.337	-0.025
-232.800	-51.893	-0.075	-0.035
-231.786	-92.287	0.157	-0.044
-230.771	800.000	0.024	-0.101
-229.757	119.165	0.053	-0.065
-228.742	174.143	-0.130	-0.188
-227.727	-160.816	-0.152	-0.008
-226.713	-200.000	-0.002	-0.071
-225.698	52.661	0.100	-0.096
-224.684	105.426	-0.061	-0.073
-223.669	-200.000	-0.077	-0.341
-222.655	-56.553	-0.171	0.076
-221.640	-147.464	-0.176	-0.015
-220.625	-7.252	0.153	-0.104
-219.611	163.670	-0.162	-0.229
-218.596	487.159	0.031	0.070
-217.582	306.022	-0.002	-0.004
-216.567	-22.165	-0.318	0.193
-215.552	-24.552	0.017	-0.010
-214.538	800.000	0.079	0.250
-213.523	-85.718	0.189	-0.059
-212.509	-18.573	0.183	0.114
-211.494	409.748	-0.098	-0.208
-210.479	-87.892	0.243	-0.073
-209.465	465.660	-0.053	-0.119
-208.450	195.159	-0.102	-0.156
-207.436	390.182	0.095	-0.197
-206.421	62.470	-0.140	-0.140
-205.406	113.736	0.120	-0.146
-204.392	745.125	0.098	-0.263
-203.377	800.000	-0.023	0.077
-202.363	-124.046	0.050	-0.008
-201.348	-200.000	0.047	0.230
-200.333	-200.000	-0.005	0.039
-199.319	-200.000	0.059	0.265
-198.304	-120.568	-0.469	-0.080
-197.290	-4.300	0.216	-0.150
-196.275	-9.249	0.179	0.119
-195.260	-200.000	-0.045	0.270
-194.246	-104.556	0.194	-0.045
-193.231	-18.396	0.114	-0.071
-192.217	-200.000	-0.022	0.334
-191.202	-41.560	-0.332	-0.171
-190.187	800.000	-0.063	-0.265
-189.173	102.619	0.043	0.050
-188.158	-100.910	0.328	-0.081
-187.144	-158.144	0.077	-0.005
-186.129	800.000	0.011	0.035
-185.114	-73.208	0.179	-0.066
-184.100	178.073	-0.083	0.121
-183.085	51.094	-0.366	-0.347
-182.071	199.873	0.045	0.069
-181.056	-158.749	0.400	0.023
-180.042	177.152	0.035	0.051
-179.027	-200.000	-0.001	0.434
-178.012	-171.080	-0.286	0.010
-176.998	-114.315	0.174	0.034
-175.983	-34.558	0.243	-0.133
-174.969	17.842	-0.169	-0.134
-173.954	50.557	0.172	0.162
-172.939	-23.408	0.205	0.123
-171.925	-154.841	-0.116	-0.008
-170.910	-200.000	0.011	-0.069
-169.896	-200.000	0.015	0.198
-168.881	-130.285	0.436	0.059
-167.866	47.216	-0.133	0.124
-166.852	26.483	0.129	-0.108
-165.837	-101.373	0.105	0.026
-164.823	129.308	0.132	0.168
-163.808	800.000	0.024	-0.099
-162.793	800.000	-0.024	-0.070
-161.779	-92.735	-0.195	0.054
-160.764	-200.000	0.003	-0.322
-159.750	-200.000	0.011	0.075
-158.735	-34.971	0.179	0.098
-157.720	-200.000	0.011	0.124
-156.706	-73.837	0.314	0.114
-155.691	-200.000	0.021	0.347
-154.677	-148.278	-0.262	0.022
-153.662	640.260	-0.102	0.260
-152.647	-200.000	-0.042	0.262
-151.633	-200.000	-0.072	0.334
-150.618	62.400	0.042	0.042
-149.604	679.597	-0.081	-0.212
-148.589	196.544	0.077	0.117
-147.574	800.000	-0.021	0.077
-146.560	-200.000	-0.049	0.247
-145.545	-200.000	0.037	-0.274
-144.531	623.732	-0.100	-0.252
-143.516	-71.860	-0.163	-0.061
-142.502	780.150	-0.092	0.251
-141.487	497.269	-0.063	0.145
-140.472	-32.967	0.240	-0.133
-139.458	800.000	-0.091	-0.297
-138.443	-134.167	0.102	0.013
-137.429	99.836	-0.336	0.389
-136.414	122.846	-0.080	-0.100
-135.399	-66.129	0.334	-0.133
-134.385	-200.000	0.021	-0.252
-133.370	-111.522	-0.275	-0.056
-132.356	-200.000	-0.003	0.139
-131.341	292.291	0.179	-0.326
-130.326	-200.000	-0.031	-0.198
-129.312	699.419	-0.078	0.206
-128.297	-117.226	0.208	-0.038
-127.283	-148.743	-0.218	0.018
-126.268	800.000	-0.048	0.183
-125.253	81.218	0.066	-0.071
-124.239	412.215	-0.138	-0.292
-123.224	46.968	0.104	0.097
-122.210	-200.000	0.001	0.022
