DTS Sentinel unit serial number:	SN413079Multiplexer serial number:	ORYXHardware model number:	OX4-SRSoftware version number:	ORYX F/W v4.00 Oryx Data Collector v3.7.2.0data status	okinstallation	princeton_trtdifferential loss correction	single-endedforward channel	channel 3reverse channel	N/Adate	2019/09/19time	03:04:34forward acquisition time	60.00reverse acquisition time	0.00gamma	496.2192k internal	0.2348k external	0.2348temperature offset calibration	0.9993default loss term (dB/km)	0.3790temperature slope calibration	1.0000multiplexer offset coefficient	1.0000multiplexer slope coefficient	1.0000fibre end	0.00T internal ref (°C)	20.81T ext. ref 1 (°C)	0.65T ext. ref 2 (°C)	14.45length (m)	temperature (°C)	Stokes	anti-Stokes-747.200	182.242	0.191	0.282
-746.185	-158.147	-0.240	-0.014
-745.171	-142.771	0.263	0.026
-744.156	-40.040	-0.126	0.065
-743.142	-85.882	0.159	0.049
-742.127	119.025	0.170	0.210
-741.112	-33.434	-0.096	0.053
-740.098	800.000	-0.097	0.390
-739.083	297.977	-0.149	0.273
-738.069	-63.797	-0.109	-0.045
-737.054	-133.177	-0.403	-0.051
-736.039	800.000	0.058	0.184
-735.025	144.301	-0.153	-0.204
-734.010	-66.035	-0.270	0.108
-732.996	-200.000	-0.055	0.250
-731.981	501.590	0.189	0.435
-730.966	-32.237	-0.039	-0.022
-729.952	-104.485	0.168	-0.039
-728.937	53.657	0.223	-0.214
-727.923	27.596	-0.257	0.216
-726.908	-200.000	-0.008	0.075
-725.894	601.002	-0.097	-0.241
-724.879	-64.074	-0.178	0.073
-723.864	-10.901	-0.106	-0.070
-722.850	277.162	-0.135	0.240
-721.835	193.165	-0.114	0.172
-720.821	-200.000	0.007	0.040
-719.806	-166.446	-0.074	-0.003
-718.791	130.294	0.119	-0.152
-717.777	-13.958	-0.232	-0.149
-716.762	447.374	-0.065	0.144
-715.748	-50.747	0.136	-0.064
-714.733	-86.298	-0.225	0.069
-713.718	36.498	0.023	-0.020
-712.704	33.638	0.075	-0.065
-711.689	698.999	0.064	-0.168
-710.675	-200.000	0.017	-0.168
-709.660	95.946	0.103	0.118
-708.645	-200.000	-0.014	0.221
-707.631	155.555	-0.138	0.190
-706.616	44.071	-0.113	0.103
-705.602	50.201	-0.256	0.241
-704.587	103.471	-0.106	-0.124
-703.572	-100.382	0.072	0.018
-702.558	-160.258	0.147	0.008
-701.543	-74.424	-0.251	0.090
-700.529	625.617	0.039	0.098
-699.514	1.381	-0.290	0.208
-698.499	-200.000	-0.007	-0.119
-697.485	-59.090	0.231	-0.099
-696.470	-200.000	-0.000	-0.180
-695.456	800.000	-0.053	0.191
-694.441	-127.109	-0.392	0.057
-693.426	-79.500	-0.131	0.044
-692.412	-111.314	-0.174	0.035
-691.397	41.500	-0.194	-0.176
-690.383	-92.347	-0.306	0.086
-689.368	-200.000	0.004	0.229
-688.354	800.000	0.105	0.301
-687.339	-96.381	-0.313	-0.082
-686.324	-46.945	0.339	-0.165
-685.310	197.502	0.116	0.177
-684.295	-200.000	-0.009	-0.095
-683.281	416.342	-0.118	-0.251
-682.266	332.690	0.175	-0.337
-681.251	-93.659	-0.442	-0.122
-680.237	-200.000	-0.255	-0.001
-679.222	213.450	0.112	-0.176
-678.208	109.860	-0.049	0.059
-677.193	50.634	-0.195	-0.184
-676.178	-177.642	-0.291	-0.007
-675.164	11.914	-0.063	-0.048
-674.149	-62.949	0.141	0.058
-673.135	91.176	0.053	-0.059
-672.120	91.092	-0.038	-0.042
-671.105	-200.000	-0.020	0.187
-670.091	6.141	-0.145	-0.107
-669.076	236.482	0.034	0.056
-668.062	99.093	-0.118	0.136
-667.047	629.486	0.079	-0.199
-666.032	196.066	-0.170	0.258
-665.018	-39.854	0.042	-0.022
-664.003	-49.065	-0.163	0.078
-662.989	-200.000	0.028	-0.189
-661.974	19.080	0.383	0.306
-660.959	194.385	0.077	-0.117
-659.945	302.467	0.053	-0.097
-658.930	-199.709	0.061	0.000
-657.916	800.000	-0.048	-0.161
-656.901	-64.089	0.309	0.125
-655.886	-55.815	0.145	0.064
-654.872	149.380	-0.093	0.125
-653.857	6.388	-0.126	0.093
-652.843	-10.628	0.205	0.135
-651.828	-200.000	0.023	0.136
-650.814	-200.000	0.006	-0.162
-649.799	124.346	0.203	-0.254
-648.784	57.205	0.205	-0.199
-647.770	-80.673	0.165	-0.055
-646.755	-156.001	0.162	0.010
-645.741	48.074	0.077	-0.072
-644.726	214.399	-0.090	-0.141
-643.711	-103.020	-0.242	-0.057
-642.697	34.569	0.234	-0.203
-641.682	458.290	-0.164	-0.363
-640.668	800.000	0.104	-0.335
-639.653	496.208	0.102	0.232
-638.638	-70.882	-0.227	-0.085
-637.624	-119.196	-0.444	0.077
-636.609	800.000	-0.018	-0.057
-635.595	417.504	0.030	0.063
-634.580	47.667	-0.070	-0.065
-633.565	800.000	-0.027	-0.102
-632.551	-46.735	0.244	0.119
-631.536	-200.000	0.015	0.291
-630.522	52.067	0.019	-0.018
-629.507	-122.181	-0.567	-0.092
-628.492	295.896	-0.113	0.206
-627.478	333.126	-0.048	0.093
-626.463	-200.000	0.018	-0.419
-625.449	-95.161	-0.152	0.041
-624.434	-99.478	0.107	0.027
-623.419	-200.000	-0.031	-0.472
-622.405	-122.840	0.181	0.029
-621.390	-200.000	0.084	-0.000
-620.376	-93.088	-0.093	0.026
-619.361	-84.790	0.146	0.046
-618.346	-152.039	-0.189	0.014
-617.332	247.174	0.171	0.287
-616.317	-19.517	0.099	-0.061
-615.303	84.146	-0.091	0.099
-614.288	-119.010	0.345	0.060
-613.273	299.894	-0.055	-0.101
-612.259	-118.334	0.270	-0.048
-611.244	548.050	0.055	-0.132
-610.230	-26.534	0.187	-0.109
-609.215	-200.000	-0.029	-0.257
-608.201	71.332	-0.168	0.173
-607.186	-77.012	0.424	0.147
-606.171	77.707	-0.208	-0.220
-605.157	-200.000	-0.017	0.301
-604.142	800.000	-0.072	0.242
-603.128	-3.292	-0.147	-0.102
-602.113	-200.000	0.048	0.247
-601.098	-43.720	0.234	-0.117
-600.084	81.985	-0.022	0.024
-599.069	210.795	0.101	-0.158
-598.055	800.000	-0.058	-0.210
-597.040	226.049	-0.251	-0.405
-596.025	44.131	0.088	-0.080
-595.011	302.297	-0.068	0.125
-593.996	13.949	0.154	-0.119
-592.982	264.875	-0.087	0.151
-591.967	280.324	0.081	0.143
-590.952	41.038	-0.042	-0.037
-589.938	-95.498	-0.202	0.054
-588.923	114.909	0.040	0.048
-587.909	-200.000	0.039	-0.266
-586.894	-200.000	-0.010	0.136
-585.879	800.000	0.007	-0.022
-584.865	800.000	0.020	0.082
-583.850	-161.671	0.099	-0.005
-582.836	89.811	0.208	0.231
-581.821	333.300	0.096	-0.184
-580.806	-61.860	0.067	0.028
-579.792	-57.954	0.105	0.046
-578.777	613.945	0.007	0.018
-577.763	-77.248	0.070	-0.024
-576.748	-133.608	0.175	0.022
-575.733	59.150	0.256	-0.251
-574.719	285.341	0.178	-0.319
-573.704	-131.187	-0.307	0.040
-572.690	-63.162	0.205	-0.084
-571.675	295.047	-0.247	-0.448
-570.661	702.558	0.044	-0.115
-569.646	-138.916	0.098	-0.011
-568.631	-30.436	0.100	-0.057
-567.617	-134.530	0.395	0.048
-566.602	58.851	0.183	-0.178
-565.588	800.000	-0.066	0.204
-564.573	800.000	-0.078	0.314
-563.558	-102.844	0.183	0.043
-562.544	72.572	-0.183	-0.190
-561.529	-150.141	-0.112	0.009
-560.515	-200.000	0.021	-0.176
-559.500	397.570	0.016	-0.033
-558.485	166.371	-0.042	-0.060
-557.471	800.000	-0.056	0.227
-556.456	233.015	0.143	0.233
-555.442	-200.000	-0.009	-0.171
-554.427	-79.994	-0.247	0.082
-553.412	800.000	0.031	0.098
-552.398	42.646	-0.061	0.055
-551.383	10.671	-0.212	0.160
-550.369	-101.805	-0.284	0.068
-549.354	-200.000	-0.040	0.295
-548.339	-105.291	-0.185	-0.042
-547.325	800.000	-0.068	-0.223
-546.310	209.343	0.188	0.293
-545.296	-11.151	-0.147	-0.096
-544.281	800.000	0.040	0.121
-543.266	-81.110	0.097	-0.032
-542.252	800.000	0.131	-0.431
-541.237	90.511	-0.084	-0.093
-540.223	-135.988	0.251	-0.029
-539.208	-37.392	-0.273	-0.145
-538.193	-200.000	0.080	0.492
-537.179	-76.695	-0.239	-0.083
-536.164	800.000	0.024	-0.099
-535.150	800.000	0.060	0.167
-534.135	-181.100	-0.154	0.003
-533.121	-200.000	0.039	-0.368
-532.106	-58.422	-0.108	0.047
-531.091	-3.479	0.134	0.093
-530.077	-110.392	-0.197	-0.041
-529.062	-4.183	-0.108	-0.074
-528.048	-7.970	0.154	0.103
-527.033	800.000	0.024	-0.068
-526.018	-97.466	0.046	0.012
-525.004	47.498	-0.065	0.060
-523.989	109.043	-0.118	0.140
-522.975	50.396	-0.438	0.410
-521.960	491.753	0.094	-0.213
-520.945	-200.000	-0.018	-0.146
-519.931	-97.808	-0.318	-0.081
-518.916	-76.256	0.161	-0.056
-517.902	-4.747	0.358	0.245
-516.887	83.244	0.048	0.052
-515.872	-123.910	0.166	-0.026
-514.858	-125.359	0.236	-0.036
-513.843	-200.000	0.027	-0.350
-512.829	344.582	-0.063	0.122
-511.814	69.986	0.094	0.096
-510.799	800.000	-0.075	0.226
-509.785	16.835	-0.066	-0.052
-508.770	-200.000	-0.037	0.276
-507.756	-77.318	0.172	0.059
-506.741	-12.019	-0.313	0.203
-505.726	786.598	-0.135	0.367
-504.712	56.770	0.096	0.093
-503.697	-183.497	-0.134	0.002
-502.683	-135.469	-0.577	0.068
-501.668	221.845	0.074	-0.118
-500.653	-200.000	0.040	0.290
-499.639	53.936	0.089	0.084
-498.624	-200.000	-0.007	-0.102
-497.610	121.056	-0.080	-0.099
-496.595	-53.983	0.206	0.093
-495.581	-50.176	-0.219	0.103
-494.566	800.000	-0.079	0.276
-493.551	127.385	0.082	-0.103
-492.537	-200.000	-0.010	0.045
-491.522	133.467	-0.126	-0.161
-490.508	-200.000	-0.020	0.201
-489.493	800.000	-0.057	-0.238
-488.478	98.813	-0.193	0.220
-487.464	252.215	0.047	-0.079
-486.449	101.068	-0.089	-0.102
-485.435	26.723	0.292	0.242
-484.420	79.893	0.126	-0.134
-483.405	0.285	0.248	0.175
-482.391	417.725	0.104	0.219
-481.376	-101.071	-0.221	-0.054
-480.362	-101.841	0.184	0.044
-479.347	-102.892	-0.127	-0.030
-478.332	-200.000	0.029	0.339
-477.318	6.927	-0.275	0.203
-476.303	800.000	0.036	-0.128
-475.289	-12.159	0.233	0.151
-474.274	490.553	-0.028	0.064
-473.259	-200.000	-0.036	-0.260
-472.245	-188.294	0.155	0.002
-471.230	202.312	-0.133	-0.203
-470.216	-47.945	0.204	-0.098
-469.201	-140.986	-0.040	0.004
-468.186	800.000	0.170	0.556
-467.172	79.365	0.074	0.078
-466.157	800.000	-0.083	-0.322
-465.143	30.499	0.155	-0.131
-464.128	170.519	-0.166	0.235
-463.113	-189.364	-0.172	-0.002
-462.099	-200.000	0.030	0.201
-461.084	-196.262	-0.229	0.002
-460.070	-49.155	0.091	-0.043
-459.055	402.152	0.113	0.234
-458.040	-100.250	-0.089	-0.022
-457.026	-200.000	0.003	0.287
-456.011	800.000	-0.071	0.258
-454.997	800.000	0.142	-0.389
-453.982	27.144	-0.127	0.106
-452.968	123.676	-0.074	0.092
-451.953	116.642	-0.270	-0.328
-450.938	-77.303	-0.073	-0.025
-449.924	-143.200	0.512	0.049
-448.909	-200.000	0.002	-0.057
-447.895	338.679	-0.084	-0.161
-446.880	-145.461	-0.231	0.021
-445.865	96.191	0.123	-0.139
-444.851	-66.997	0.247	0.096
-443.836	214.657	-0.135	-0.212
-442.822	-200.000	-0.006	-0.207
-441.807	-200.000	-0.073	-0.372
-440.792	800.000	0.042	0.131
-439.778	657.180	-0.119	-0.301
-438.763	577.583	0.105	0.254
-437.749	34.499	0.081	-0.070
-436.734	183.449	-0.322	0.470
-435.719	2.396	0.122	0.087
-434.705	-200.000	-0.025	-0.344
-433.690	674.161	-0.074	-0.191
-432.676	-200.000	-0.001	0.037
-431.661	800.000	0.101	-0.299
-430.646	-14.864	-0.245	0.155
-429.632	-97.554	-0.095	-0.024
-428.617	-7.299	0.247	-0.165
-427.603	-200.000	-0.063	0.276
-426.588	-200.000	0.030	-0.265
-425.573	800.000	0.038	0.147
-424.559	-84.463	-0.331	0.103
-423.544	170.713	0.110	0.156
-422.530	-142.266	-0.197	0.019
-421.515	800.000	0.040	0.116
-420.500	298.970	-0.057	-0.104
-419.486	-200.000	0.112	0.000
-418.471	-32.350	0.179	0.099
-417.457	500.424	0.100	-0.227
-416.442	-72.008	-0.355	-0.130
-415.428	800.000	0.094	-0.334
-414.413	89.853	0.291	-0.321
-413.398	-200.000	-0.011	0.079
-412.384	218.544	-0.172	0.271
-411.369	483.412	0.259	-0.580
-410.355	800.000	0.049	-0.172
-409.340	364.395	0.151	0.299
-408.325	800.000	0.095	0.297
-407.311	2.406	-0.204	0.145
-406.296	29.179	0.240	0.201
-405.282	30.539	-0.177	-0.149
-404.267	-90.476	0.335	-0.096
-403.252	-77.262	0.220	-0.075
-402.238	11.619	0.277	-0.210
-401.223	-75.566	-0.255	-0.090
-400.209	-200.000	-0.013	-0.155
-399.194	-200.000	0.003	-0.103
-398.179	121.653	-0.069	0.084
-397.165	-80.845	0.279	-0.091
-396.150	347.241	0.030	0.058
-395.136	800.000	-0.024	-0.101
-394.121	-173.508	0.187	0.006
-393.106	87.200	-0.090	0.098
-392.092	-105.537	0.249	-0.056
-391.077	-200.000	0.017	-0.398
-390.063	20.152	0.225	0.179
-389.048	526.602	0.078	0.181
-388.033	-191.961	-0.240	0.002
-387.019	-200.000	-0.026	-0.218
-386.004	17.205	0.070	-0.055
-384.990	-59.130	0.162	-0.069
-383.975	-123.419	-0.223	0.035
-382.960	-200.000	-0.002	0.087
-381.946	800.000	-0.047	0.149
-380.931	-200.000	-0.025	-0.135
-379.917	33.875	-0.092	0.079
-378.902	-200.000	0.019	0.271
-377.888	320.485	-0.190	-0.356
-376.873	682.480	0.066	0.170
-375.858	-124.342	0.248	0.038
-374.844	-2.307	-0.390	-0.269
-373.829	800.000	-0.087	-0.266
-372.815	167.800	0.111	0.156
-371.800	497.184	-0.026	0.058
-370.785	800.000	0.070	0.247
-369.771	-25.714	-0.303	0.176
-368.756	634.116	-0.090	0.223
-367.742	404.617	0.036	-0.075
-366.727	-164.940	0.111	-0.005
-365.712	186.889	-0.244	-0.357
-364.698	253.049	-0.162	-0.272
-363.683	255.672	0.091	0.154
-362.669	119.117	-0.114	-0.139
-361.654	-200.000	-0.013	-0.258
-360.639	434.216	-0.065	0.139
-359.625	-200.000	0.003	-0.026
-358.610	-54.369	0.097	0.043
-357.596	786.308	0.134	-0.361
-356.581	-2.659	0.039	0.027
-355.566	14.862	0.224	0.173
-354.552	-35.432	0.223	0.119
-353.537	-200.000	-0.021	0.574
-352.523	223.498	-0.118	0.187
-351.508	324.464	0.159	0.298
-350.493	-133.129	-0.341	-0.043
-349.479	425.625	0.165	0.350
-348.464	223.681	-0.223	0.354
-347.450	-2.392	-0.113	-0.078
-346.435	-34.001	0.075	0.040
-345.420	211.643	0.079	0.122
-344.406	-98.382	0.380	0.096
-343.391	-19.085	-0.114	0.069
-342.377	122.424	-0.085	-0.104
-341.362	44.887	-0.186	0.169
-340.348	199.198	0.067	0.102
-339.333	11.625	-0.080	-0.061
-338.318	800.000	-0.045	-0.191
-337.304	-75.856	-0.128	0.045
-336.289	10.308	0.142	0.106
-335.275	-200.000	-0.015	0.280
-334.260	-200.000	-0.016	-0.082
-333.245	-123.110	-0.604	0.095
-332.231	-42.020	-0.136	-0.069
-331.216	223.269	0.167	-0.265
-330.202	150.255	-0.026	-0.035
-329.187	-200.000	-0.039	-0.255
-328.172	-200.000	-0.038	-0.450
-327.158	-11.658	-0.202	-0.131
-326.143	99.259	0.246	0.280
-325.129	-60.559	-0.198	-0.083
-324.114	43.657	-0.066	-0.059
-323.099	-70.485	-0.242	0.090
-322.085	-200.000	-0.014	0.077
-321.070	-200.000	-0.004	0.079
-320.056	-154.188	0.067	0.004
-319.041	-105.182	0.500	0.112
-318.026	-200.000	-0.011	0.075
-317.012	800.000	0.022	-0.086
-315.997	-200.000	0.009	-0.277
-314.983	398.013	0.136	-0.280
-313.968	-79.179	0.150	-0.050
-312.953	107.304	0.095	0.111
-311.939	-139.255	0.155	-0.016
-310.924	800.000	-0.057	-0.236
-309.910	800.000	-0.059	-0.165
-308.895	110.375	0.116	0.137
-307.880	566.441	0.016	-0.039
-306.866	26.574	0.121	0.099
-305.851	-200.000	0.019	0.151
-304.837	-35.277	-0.120	-0.064
-303.822	340.257	-0.107	0.205
-302.807	192.325	0.083	-0.123
-301.793	-8.427	0.262	0.173
-300.778	-6.657	0.058	0.039
-299.764	-188.808	-0.247	-0.003
-298.749	800.000	-0.104	0.319
-297.735	-16.810	-0.244	-0.151
-296.720	-102.059	0.235	0.056
-295.705	190.432	-0.279	0.412
-294.691	364.963	0.108	-0.214
-293.676	710.055	-0.025	-0.064
-292.662	-200.000	-0.006	-0.085
-291.647	62.408	-0.216	0.212
-290.632	-24.112	-0.281	-0.165
-289.618	-200.000	-0.048	0.443
-288.603	-200.000	-0.001	-0.074
-287.589	-200.000	0.001	-0.104
-286.574	-193.879	0.063	0.001
-285.559	-86.559	0.268	0.081
-284.545	-200.000	-0.015	0.134
-283.530	664.967	0.089	-0.225
-282.516	-200.000	-0.051	-0.448
-281.501	800.000	-0.095	-0.300
-280.486	-102.636	-0.350	0.082
-279.472	364.015	-0.045	-0.090
-278.457	225.905	-0.049	-0.078
-277.443	2.387	0.298	-0.212
-276.428	-97.440	0.053	0.013
-275.413	260.899	-0.131	-0.222
-274.399	70.166	-0.251	-0.254
-273.384	-59.412	-0.134	-0.057
-272.370	-99.440	0.183	-0.045
-271.355	-200.000	0.086	0.371
-270.340	-98.525	-0.134	-0.034
-269.326	-200.000	0.023	0.143
-268.311	485.932	-0.127	-0.284
-267.297	-200.000	0.003	0.037
-266.282	-47.383	0.054	-0.026
-265.267	-24.994	-0.046	-0.027
-264.253	-200.000	0.006	0.137
-263.238	187.546	0.166	-0.242
-262.224	-61.090	-0.083	0.034
-261.209	800.000	0.032	-0.113
-260.195	337.895	0.096	0.183
-259.180	98.103	0.255	0.288
-258.165	22.986	-0.179	0.144
-257.151	-88.442	0.354	0.104
-256.136	-3.145	-0.121	-0.083
-255.122	480.363	0.080	-0.179
-254.107	800.000	0.037	0.110
-253.092	208.269	0.123	0.189
-252.078	190.735	0.152	-0.225
-251.063	139.627	-0.283	-0.366
-250.049	-110.800	-0.371	-0.075
-249.034	-200.000	-0.022	-0.277
-248.019	45.145	0.152	0.137
-247.005	0.445	0.197	0.138
-245.990	112.366	-0.101	-0.120
-244.976	-129.992	0.204	0.027
-243.961	302.391	-0.124	-0.225
-242.946	58.581	-0.053	0.051
-241.932	185.618	-0.052	0.075
-240.917	-90.708	-0.426	0.121
-239.903	-26.535	0.104	-0.060
-238.888	4.284	-0.219	0.157
-237.873	237.034	0.071	0.115
-236.859	288.190	0.075	0.132
-235.844	21.128	0.299	0.238
-234.830	73.002	-0.224	0.229
-233.815	-20.826	0.218	-0.131
-232.800	800.000	-0.119	-0.332
-231.786	23.643	-0.020	0.016
-230.771	-30.512	0.119	0.066
-229.757	-200.000	-0.007	0.061
-228.742	-159.721	0.044	0.002
-227.727	435.078	-0.150	0.319
-226.713	404.976	-0.187	0.386
-225.698	4.731	-0.151	-0.108
-224.684	-19.669	0.102	0.062
-223.669	-77.823	0.433	-0.147
-222.655	-134.821	0.160	-0.019
-221.640	-76.544	-0.053	0.018
-220.625	800.000	-0.048	-0.174
-219.611	-200.000	0.049	0.408
-218.596	308.830	-0.112	0.204
-217.582	-8.711	-0.111	0.073
-216.567	-98.397	-0.299	0.075
-215.552	-179.978	0.160	-0.003
-214.538	13.786	-0.086	-0.065
-213.523	800.000	0.047	0.160
-212.509	800.000	0.075	0.282
-211.494	800.000	0.090	0.262
-210.479	145.266	0.112	-0.146
-209.465	-17.087	0.080	-0.050
-208.450	-86.061	-0.034	0.010
-207.436	225.261	-0.216	0.341
-206.421	800.000	0.063	0.232
-205.406	278.478	0.131	-0.229
-204.392	-200.000	-0.033	-0.160
-203.377	156.083	0.040	-0.054
-202.363	-83.962	0.199	0.062
-201.348	-200.000	-0.034	-0.422
-200.333	-200.000	-0.020	0.101
-199.319	-131.150	-0.290	-0.038
-198.304	34.188	0.297	0.253
-197.290	52.783	-0.240	-0.224
-196.275	0.160	-0.162	-0.113
-195.260	-200.000	-0.108	0.464
-194.246	68.107	-0.331	0.331
-193.231	401.000	0.057	0.117
-192.217	-65.225	-0.028	0.011
-191.202	-144.686	0.123	0.011
-190.187	14.622	0.161	-0.123
-189.173	-200.000	-0.012	-0.527
-188.158	247.602	0.048	0.079
-187.144	-90.171	0.176	-0.050
-186.129	372.280	0.093	0.185
-185.114	270.980	0.043	0.074
-184.100	800.000	0.044	-0.139
-183.085	-145.300	0.253	0.022
-182.071	-13.743	-0.126	-0.080
-181.056	-200.000	0.008	-0.325
-180.042	445.122	-0.056	0.120
-179.027	83.028	0.231	0.246
-178.012	-3.168	-0.190	0.129
-176.998	-200.000	0.021	-0.199
-175.983	-36.995	-0.185	-0.097
-174.969	523.001	0.125	0.287
-173.954	231.542	-0.203	-0.325
-172.939	-200.000	-0.030	-0.160
-171.925	112.500	0.131	0.155
-170.910	-171.217	-0.034	0.001
-169.896	-195.357	0.182	-0.001
-168.881	-89.219	0.140	0.040
-167.866	318.843	-0.110	-0.204
-166.852	100.516	0.116	0.131
-165.837	653.752	-0.158	-0.396
-164.823	52.040	-0.070	0.065
-163.808	560.495	0.072	-0.171
-162.793	-200.000	0.059	-0.481
-161.779	-71.845	-0.274	-0.100
-160.764	-38.724	0.069	-0.036
-159.750	-160.168	0.168	-0.009
-158.735	800.000	0.053	0.147
-157.720	-94.528	0.283	-0.075
-156.706	800.000	-0.091	0.332
-155.691	117.441	0.092	0.110
-154.677	-74.790	0.154	0.054
-153.662	-155.574	-0.262	-0.016
-152.647	271.558	-0.135	0.232
-151.633	-111.503	-0.202	0.040
-150.618	-94.695	0.193	0.051
-149.604	-200.000	-0.043	-0.435
-148.589	467.657	0.133	-0.292
-147.574	800.000	0.016	-0.059
-146.560	286.568	-0.172	-0.303
-145.545	-57.672	0.326	0.139
-144.531	247.593	-0.095	-0.156
-143.516	-47.971	-0.351	-0.166
-142.502	28.109	-0.155	0.128
-141.487	800.000	-0.037	-0.149
-140.472	-200.000	-0.007	0.050
-139.458	-167.888	0.220	-0.008
-138.443	217.009	0.144	0.223
-137.429	-0.356	0.367	-0.254
-136.414	-75.133	0.076	0.026
-135.399	800.000	-0.029	-0.110
-134.385	590.528	0.131	-0.315
-133.370	-171.528	-0.201	-0.007
-132.356	507.757	0.061	-0.139
-131.341	-200.000	-0.087	0.398
-130.326	800.000	-0.046	0.147
-129.312	744.339	0.094	0.246
-128.297	270.642	0.193	0.331
-127.283	-91.167	-0.065	-0.018
-126.268	-99.238	-0.077	-0.019
-125.253	243.551	0.199	0.326
-124.239	-83.664	-0.460	0.143
-123.224	-33.735	0.373	-0.201
-122.210	-191.653	-0.375	0.004
-121.195	178.554	-0.275	-0.391
-120.180	228.222	-0.093	0.148
