DTS Sentinel unit serial number:	SN413079Multiplexer serial number:	ORYXHardware model number:	OX4-SRSoftware version number:	ORYX F/W v4.00 Oryx Data Collector v3.7.2.0data status	okinstallation	princeton_trtdifferential loss correction	single-endedforward channel	channel 3reverse channel	N/Adate	2019/09/19time	12:32:35forward acquisition time	60.00reverse acquisition time	0.00gamma	496.2192k internal	0.2335k external	0.2335temperature offset calibration	0.9987default loss term (dB/km)	0.3790temperature slope calibration	1.0000multiplexer offset coefficient	1.0000multiplexer slope coefficient	1.0000fibre end	0.00T internal ref (°C)	27.16T ext. ref 1 (°C)	0.88T ext. ref 2 (°C)	24.72length (m)	temperature (°C)	Stokes	anti-Stokes-747.200	-38.005	0.215	-0.115
-746.185	492.942	-0.019	0.044
-745.171	314.019	-0.148	0.280
-744.156	-68.733	-0.159	-0.062
-743.142	-123.962	0.353	-0.056
-742.127	-54.838	-0.117	0.053
-741.112	258.029	0.102	0.177
-740.098	-60.511	0.255	0.109
-739.083	179.348	-0.131	-0.193
-738.069	44.316	-0.199	0.183
-737.054	0.782	0.094	0.068
-736.039	-9.423	-0.341	0.229
-735.025	160.792	0.201	0.282
-734.010	138.915	0.139	-0.184
-732.996	-12.965	-0.322	-0.210
-731.981	13.755	-0.198	0.155
-730.966	-1.444	0.376	0.266
-729.952	-200.000	-0.024	0.285
-728.937	-200.000	-0.016	0.129
-727.923	-200.000	0.013	0.218
-726.908	54.448	0.068	-0.066
-725.894	-157.809	0.333	-0.020
-724.879	-156.818	0.097	0.006
-723.864	709.905	0.075	-0.199
-722.850	24.945	-0.063	0.052
-721.835	-48.606	-0.120	0.058
-720.821	-177.806	-0.217	0.005
-719.806	-46.877	-0.162	0.079
-718.791	50.926	0.201	-0.191
-717.777	489.356	0.041	-0.093
-716.762	-200.000	-0.046	-0.245
-715.748	-200.000	0.036	-0.257
-714.733	127.141	-0.135	0.172
-713.718	-35.338	0.108	-0.059
-712.704	-113.996	0.030	0.006
-711.689	-75.296	-0.453	0.162
-710.675	800.000	-0.094	-0.346
-709.660	-160.898	0.201	-0.011
-708.645	-62.576	-0.268	-0.112
-707.631	356.712	-0.062	-0.124
-706.616	800.000	0.079	0.247
-705.602	91.466	-0.112	-0.126
-704.587	-200.000	0.003	-0.370
-703.572	-101.159	-0.525	-0.129
-702.558	-86.474	0.286	-0.088
-701.543	-16.555	-0.139	-0.088
-700.529	4.386	0.114	0.084
-699.514	-200.000	0.012	0.088
-698.499	61.467	-0.305	-0.304
-697.485	-200.000	-0.022	-0.229
-696.470	110.744	-0.220	0.265
-695.456	318.538	-0.086	0.164
-694.441	309.091	-0.091	-0.171
-693.426	-200.000	-0.041	0.238
-692.412	154.921	0.138	-0.191
-691.397	-178.106	-0.096	0.002
-690.383	78.229	0.062	0.067
-689.368	-94.549	0.504	0.138
-688.354	-34.729	0.094	-0.051
-687.339	-98.724	-0.334	0.085
-686.324	800.000	0.056	0.169
-685.310	-134.431	0.110	0.014
-684.295	800.000	0.036	-0.158
-683.281	3.981	-0.188	-0.138
-682.266	248.025	-0.105	0.179
-681.251	-5.926	-0.283	-0.194
-680.237	-150.664	0.296	-0.023
-679.222	-9.566	-0.127	0.085
-678.208	-56.066	0.397	-0.177
-677.193	83.652	-0.142	-0.155
-676.178	415.237	0.095	-0.204
-675.164	800.000	-0.091	0.310
-674.149	17.645	-0.113	-0.090
-673.135	184.143	0.048	-0.071
-672.120	357.539	-0.067	-0.135
-671.105	-127.791	-0.149	0.022
-670.091	800.000	0.088	0.254
-669.076	262.199	-0.153	-0.266
-668.062	-8.271	-0.282	-0.190
-667.047	-77.404	-0.221	-0.077
-666.032	358.460	-0.122	-0.244
-665.018	-200.000	-0.023	-0.152
-664.003	-83.130	0.079	-0.025
-662.989	145.840	-0.092	-0.123
-661.974	7.911	0.165	-0.124
-660.959	209.409	0.294	-0.461
-659.945	-76.098	0.091	-0.032
-658.930	-200.000	0.004	-0.202
-657.916	-150.252	-0.378	0.029
-656.901	-136.337	0.154	0.018
-655.886	-90.607	0.233	0.068
-654.872	-30.130	-0.135	0.077
-653.857	-29.620	0.121	-0.069
-652.843	108.002	-0.030	0.036
-651.828	800.000	0.042	-0.158
-650.814	-200.000	-0.021	-0.302
-649.799	226.782	-0.134	-0.218
-648.784	-36.507	0.277	0.149
-647.770	-160.734	0.276	-0.015
-646.755	-200.000	0.020	0.173
-645.741	53.293	0.239	-0.229
-644.726	-128.000	-0.258	0.037
-643.711	165.735	-0.068	-0.096
-642.697	-127.913	0.449	-0.065
-641.682	704.773	-0.070	-0.184
-640.668	19.559	0.079	0.063
-639.653	-82.880	-0.184	0.060
-638.638	-8.429	-0.059	0.040
-637.624	-200.000	-0.071	-0.346
-636.609	-80.059	0.311	-0.104
-635.595	-157.850	-0.267	-0.016
-634.580	-131.342	-0.241	-0.032
-633.565	418.407	-0.122	0.260
-632.551	-36.017	0.143	0.077
-631.536	69.120	-0.066	-0.068
-630.522	-200.000	0.043	-0.264
-629.507	241.605	-0.185	-0.309
-628.492	800.000	0.052	-0.188
-627.478	481.948	0.074	0.168
-626.463	-200.000	0.005	0.037
-625.449	41.364	-0.106	-0.096
-624.434	800.000	-0.094	0.313
-623.419	800.000	0.047	0.196
-622.405	-3.953	-0.183	0.127
-621.390	800.000	0.005	0.014
-620.376	316.222	-0.026	0.049
-619.361	-25.830	-0.152	-0.089
-618.346	21.457	-0.530	0.431
-617.332	-200.000	-0.044	0.218
-616.317	81.938	0.119	0.128
-615.303	-42.826	-0.601	0.305
-614.288	-9.559	0.032	0.021
-613.273	-200.000	0.028	0.176
-612.259	-200.000	0.000	-0.144
-611.244	800.000	0.096	-0.299
-610.230	-200.000	0.028	-0.287
-609.215	-11.981	0.129	-0.084
-608.201	83.363	-0.079	0.086
-607.186	-41.932	-0.076	-0.039
-606.171	62.322	0.143	-0.143
-605.157	70.280	-0.228	-0.235
-604.142	-200.000	-0.022	-0.235
-603.128	-200.000	-0.027	-0.301
-602.113	-200.000	-0.035	0.247
-601.098	-120.155	-0.320	0.055
-600.084	-191.885	0.249	0.002
-599.069	11.305	0.041	0.032
-598.055	5.820	-0.187	-0.138
-597.040	-200.000	-0.017	-0.314
-596.025	9.127	0.035	0.026
-595.011	-155.625	-0.212	-0.014
-593.996	-84.490	-0.063	-0.020
-592.982	0.760	-0.146	0.104
-591.967	-100.920	0.149	0.037
-590.952	-80.238	-0.159	0.053
-589.938	-200.000	-0.002	0.039
-588.923	-102.289	0.372	-0.089
-587.909	-200.000	0.007	0.288
-586.894	-40.574	-0.026	0.014
-585.879	-115.076	0.166	-0.032
-584.865	-142.440	0.227	0.022
-583.850	-90.649	-0.135	0.039
-582.836	733.273	0.055	-0.146
-581.821	-69.863	-0.114	-0.044
-580.806	167.850	0.145	0.206
-579.792	800.000	-0.045	-0.151
-578.777	-59.842	0.169	0.072
-577.763	54.841	0.076	0.073
-576.748	285.966	-0.125	0.225
-575.733	203.827	0.149	0.230
-574.719	-200.000	-0.026	-0.135
-573.704	369.409	-0.094	-0.190
-572.690	708.400	0.168	-0.444
-571.675	24.727	-0.199	-0.165
-570.661	-30.972	-0.070	-0.040
-569.646	-125.401	-0.114	-0.017
-568.631	800.000	-0.052	-0.159
-567.617	-182.613	0.125	0.002
-566.602	-91.227	0.062	0.018
-565.588	25.962	0.140	-0.116
-564.573	-34.914	0.261	-0.142
-563.558	-138.985	0.412	-0.045
-562.544	-52.130	-0.207	0.096
-561.529	269.255	-0.213	0.374
-560.515	300.275	-0.022	-0.040
-559.500	546.286	-0.071	-0.169
-558.485	-60.805	0.222	0.094
-557.471	189.182	-0.131	-0.196
-556.456	74.016	-0.356	-0.373
-555.442	-158.612	0.025	-0.001
-554.427	-30.086	-0.071	0.040
-553.412	-161.031	-0.300	-0.016
-552.398	-200.000	0.019	-0.156
-551.383	-83.903	0.187	-0.059
-550.369	-183.826	0.261	-0.004
-549.354	800.000	-0.034	-0.135
-548.339	-193.796	0.119	-0.001
-547.325	117.343	0.042	-0.052
-546.310	-127.988	0.163	0.023
-545.296	-124.125	0.123	-0.019
-544.281	723.198	-0.053	-0.141
-543.266	-91.829	-0.133	-0.038
-542.252	55.137	-0.200	-0.193
-541.237	-74.587	-0.146	0.052
-540.223	800.000	-0.131	-0.367
-539.208	385.001	0.066	0.135
-538.193	-20.733	-0.049	-0.030
-537.179	67.274	-0.211	0.214
-536.164	65.998	0.238	0.241
-535.150	54.853	0.036	-0.035
-534.135	-200.000	-0.005	-0.119
-533.121	277.103	-0.073	0.128
-532.106	20.415	0.023	0.018
-531.091	-78.847	-0.230	-0.078
-530.077	-200.000	0.008	-0.238
-529.062	201.528	-0.102	0.157
-528.048	129.059	0.363	0.462
-527.033	261.610	-0.117	0.201
-526.018	-200.000	0.013	0.323
-525.004	14.128	-0.398	-0.309
-523.989	-152.175	-0.187	0.014
-522.975	-132.616	0.414	0.053
-521.960	-156.102	0.078	0.005
-520.945	800.000	-0.077	-0.220
-519.931	51.937	0.062	0.059
-518.916	69.443	0.078	0.080
-517.902	14.672	0.206	-0.160
-516.887	7.672	0.157	-0.117
-515.872	-126.745	-0.299	0.044
-514.858	751.343	0.018	0.048
-513.843	-26.046	-0.359	-0.210
-512.829	90.192	-0.267	-0.297
-511.814	-19.464	-0.121	-0.075
-510.799	-73.455	0.229	-0.083
-509.785	-184.438	-0.149	0.002
-508.770	-150.883	-0.278	0.021
-507.756	795.984	-0.041	0.112
-506.741	-155.904	0.105	-0.007
-505.726	385.958	-0.137	0.281
-504.712	800.000	-0.099	-0.289
-503.697	103.788	0.090	0.105
-502.683	230.472	-0.055	-0.089
-501.668	-60.698	0.188	0.079
-500.653	20.394	-0.098	0.079
-499.639	-47.991	0.136	0.065
-498.624	-93.543	-0.160	0.044
-497.610	147.280	0.114	-0.153
-496.595	60.304	0.165	-0.163
-495.581	-170.758	0.339	0.012
-494.566	800.000	-0.101	-0.393
-493.551	-200.000	0.056	-0.271
-492.537	639.781	-0.054	-0.135
-491.522	-88.065	0.090	0.027
-490.508	-3.485	0.248	0.172
-489.493	-152.024	0.142	0.010
-488.478	-58.609	0.278	0.120
-487.464	120.959	-0.125	0.155
-486.449	18.325	-0.087	0.069
-485.435	104.500	0.130	-0.152
-484.420	-161.089	-0.085	-0.004
-483.405	305.630	-0.089	-0.164
-482.391	-200.000	-0.007	0.095
-481.376	-75.934	-0.220	0.077
-480.362	-3.256	-0.181	0.125
-479.347	68.588	0.238	-0.243
-478.332	800.000	-0.047	-0.134
-477.318	800.000	0.070	0.224
-476.303	800.000	-0.102	0.307
-475.289	-94.762	0.085	-0.023
-474.274	114.297	0.077	0.093
-473.259	48.291	-0.096	0.089
-472.245	-140.412	0.169	0.018
-471.230	0.632	-0.089	-0.063
-470.216	-38.444	-0.196	-0.103
-469.201	187.466	-0.069	0.103
-468.186	63.598	-0.169	0.169
-467.172	-200.000	0.060	-0.440
-466.157	800.000	-0.020	0.060
-465.143	-172.450	0.347	-0.011
-464.128	-126.212	-0.162	0.024
-463.113	-147.508	-0.046	0.004
-462.099	291.704	0.139	0.252
-461.084	117.045	0.240	0.293
-460.070	333.124	0.131	-0.252
-459.055	-200.000	-0.024	-0.326
-458.040	-200.000	0.018	-0.131
-457.026	-109.367	0.071	-0.015
-456.011	348.082	0.034	-0.066
-454.997	-22.326	0.181	0.109
-453.982	-36.442	0.113	-0.060
-452.968	-102.133	-0.208	-0.050
-451.953	-149.829	0.255	-0.020
-450.938	800.000	-0.019	-0.058
-449.924	242.998	-0.105	-0.175
-448.909	-95.111	-0.491	-0.132
-447.895	-27.119	0.218	0.126
-446.880	374.715	0.095	0.192
-445.865	261.422	-0.106	0.182
-444.851	-95.364	-0.192	-0.051
-443.836	-108.689	0.186	0.039
-442.822	-66.725	0.265	0.104
-441.807	-200.000	0.031	0.147
-440.792	550.497	0.149	0.354
-439.778	287.137	0.190	0.341
-438.763	800.000	-0.054	0.173
-437.749	-161.130	-0.194	-0.010
-436.734	-200.000	0.009	-0.418
-435.719	-84.448	0.203	-0.064
-434.705	236.905	-0.115	0.190
-433.690	-15.617	-0.167	-0.106
-432.676	68.239	0.193	0.196
-431.661	137.096	-0.082	-0.107
-430.646	-140.659	0.318	0.033
-429.632	-43.348	-0.138	-0.069
-428.617	-200.000	0.012	-0.176
-427.603	-56.172	0.125	-0.055
-426.588	234.516	0.056	-0.092
-425.573	754.577	-0.091	0.245
-424.559	13.995	0.516	0.398
-423.544	1.332	0.109	-0.078
-422.530	-64.471	0.131	-0.053
-421.515	209.700	-0.089	-0.138
-420.500	-200.000	0.006	0.300
-419.486	-200.000	-0.007	0.549
-418.471	554.613	0.085	0.204
-417.457	175.693	0.059	0.084
-416.442	-200.000	-0.018	0.127
-415.428	107.974	0.151	0.178
-414.413	-193.345	-0.235	-0.002
-413.398	-141.979	-0.218	-0.022
-412.384	56.990	0.091	0.088
-411.369	-106.187	0.049	-0.011
-410.355	-51.733	0.079	0.036
-409.340	-200.000	0.011	0.139
-408.325	261.016	-0.023	0.039
-407.311	800.000	-0.046	-0.175
-406.296	273.971	-0.174	-0.305
-405.282	301.673	0.079	0.145
-404.267	-94.038	0.341	-0.093
-403.252	125.791	0.071	0.089
-402.238	-132.346	0.253	0.032
-401.223	-18.940	0.028	0.017
-400.209	-200.000	0.022	-0.179
-399.194	-200.000	0.009	-0.171
-398.179	24.417	-0.208	-0.171
-397.165	20.277	0.111	0.089
-396.150	114.825	-0.106	-0.128
-395.136	-157.632	-0.074	-0.004
-394.121	800.000	-0.062	-0.197
-393.106	-5.608	-0.277	-0.188
-392.092	-4.342	-0.100	-0.068
-391.077	-77.335	-0.107	0.037
-390.063	52.848	-0.124	0.117
-389.048	-116.033	-0.090	0.017
-388.033	800.000	0.113	-0.329
-387.019	101.280	-0.148	-0.171
-386.004	-32.269	0.104	-0.058
-384.990	44.644	0.288	-0.263
-383.975	-83.830	0.066	-0.021
-382.960	-168.356	0.248	-0.009
-381.946	-121.574	0.385	0.063
-380.931	478.627	-0.048	0.109
-379.917	-183.398	-0.213	-0.004
-378.902	-200.000	-0.031	-0.299
-377.888	127.838	0.145	0.183
-376.873	800.000	0.100	0.286
-375.858	242.534	-0.207	-0.343
-374.844	-169.428	-0.112	0.004
-373.829	1.290	-0.064	-0.045
-372.815	-200.000	0.009	-0.086
-371.800	-200.000	0.015	0.194
-370.785	148.973	0.025	0.034
-369.771	181.597	-0.237	-0.345
-368.756	-91.745	-0.139	-0.039
-367.742	-200.000	-0.060	0.539
-366.727	139.613	0.078	0.102
-365.712	267.239	-0.003	-0.004
-364.698	85.112	0.098	-0.106
-363.683	-129.532	-0.490	-0.067
-362.669	-171.815	-0.140	-0.005
-361.654	21.341	0.127	0.102
-360.639	800.000	-0.042	-0.142
-359.625	-103.125	0.056	-0.013
-358.610	-11.309	-0.350	0.228
-357.596	-21.518	0.223	-0.135
-356.581	172.343	-0.193	0.274
-355.566	672.366	-0.014	0.037
-354.552	127.766	-0.186	0.234
-353.537	-200.000	0.033	-0.253
-352.523	117.938	0.201	-0.245
-351.508	-11.944	0.172	0.111
-350.493	-110.916	-0.070	-0.014
-349.479	68.906	0.110	-0.112
-348.464	-6.236	-0.166	0.112
-347.450	-130.023	0.511	-0.069
-346.435	-14.207	0.144	-0.092
-345.420	-200.000	-0.046	0.220
-344.406	-40.845	0.201	-0.103
-343.391	43.852	0.165	0.149
-342.377	-140.722	-0.319	-0.033
-341.362	140.530	-0.204	0.267
-340.348	119.688	0.029	-0.036
-339.333	-22.021	-0.051	-0.031
-338.318	389.827	0.061	-0.126
-337.304	75.369	-0.093	0.097
-336.289	14.604	-0.224	-0.173
-335.275	79.373	-0.174	-0.184
-334.260	800.000	0.118	-0.347
-333.245	56.339	-0.142	-0.136
-332.231	-38.697	-0.173	0.090
-331.216	-8.867	0.154	0.102
-330.202	-33.120	0.219	0.120
-329.187	-200.000	-0.006	-0.167
-328.172	-20.315	-0.199	0.121
-327.158	-154.314	0.145	0.010
-326.143	98.501	0.205	0.233
-325.129	27.948	-0.271	0.226
-324.114	505.678	0.125	0.287
-323.099	137.008	-0.057	0.073
-322.085	15.508	0.098	0.076
-321.070	-106.010	-0.110	0.025
-320.056	-200.000	-0.011	0.313
-319.041	163.815	0.142	0.198
-318.026	1.158	-0.106	-0.075
-317.012	-85.145	-0.182	0.056
-315.997	-44.436	0.152	0.075
-314.983	44.030	0.066	-0.060
-313.968	800.000	-0.049	-0.193
-312.953	-200.000	0.012	-0.228
-311.939	-79.537	-0.175	-0.059
-310.924	-134.411	-0.052	0.006
-309.910	800.000	0.028	0.084
-308.895	-77.710	-0.455	0.155
-307.880	46.689	-0.201	-0.184
-306.866	-3.856	-0.189	-0.130
-305.851	-200.000	0.065	0.325
-304.837	-17.520	0.441	0.274
-303.822	800.000	-0.046	0.131
-302.807	688.018	0.022	0.057
-301.793	515.054	0.113	0.261
-300.778	-89.688	0.251	-0.073
-299.764	-200.000	0.017	-0.089
-298.749	-26.068	-0.123	0.071
-297.735	-52.266	-0.178	-0.081
-296.720	-200.000	-0.004	0.092
-295.705	190.680	0.131	0.195
-294.691	-35.835	0.055	-0.029
-293.676	-32.488	-0.256	-0.141
-292.662	320.452	-0.097	0.182
-291.647	600.856	0.068	0.166
-290.632	-125.401	0.375	-0.056
-289.618	-175.784	-0.013	0.000
-288.603	-162.406	0.045	-0.002
-287.589	738.854	-0.085	0.224
-286.574	-33.284	-0.079	-0.043
-285.559	-86.436	0.138	-0.042
-284.545	-200.000	0.011	-0.112
-283.530	800.000	-0.012	0.040
-282.516	-200.000	-0.011	-0.109
-281.501	-114.941	-0.184	-0.035
-280.486	800.000	-0.031	0.106
-279.472	325.828	-0.050	0.094
-278.457	1.266	-0.198	0.141
-277.443	-12.369	0.346	0.223
-276.428	-89.382	0.070	-0.020
-275.413	-200.000	-0.010	-0.457
-274.399	-85.142	-0.183	0.056
-273.384	-154.579	0.267	0.018
-272.370	520.389	-0.066	-0.153
-271.355	193.163	0.119	0.177
-270.340	175.666	-0.029	-0.041
-269.326	299.868	-0.147	0.267
-268.311	800.000	-0.024	0.072
-267.297	69.814	-0.137	0.139
-266.282	37.645	0.290	-0.254
-265.267	12.620	-0.335	-0.255
-264.253	-43.091	-0.196	0.098
-263.238	387.200	0.052	0.106
-262.224	299.129	0.098	0.178
-261.209	-200.000	-0.003	-0.118
-260.195	9.682	0.182	0.136
-259.180	142.646	0.245	0.321
-258.165	-200.000	0.039	-0.242
-257.151	-64.338	-0.174	0.070
-256.136	116.818	0.038	-0.046
-255.122	43.569	-0.052	-0.047
-254.107	-67.205	-0.124	0.048
-253.092	-92.776	0.278	0.077
-252.078	-82.118	-0.206	0.066
-251.063	-113.380	0.248	0.048
-250.049	-44.193	0.108	0.054
-249.034	-200.000	-0.013	-0.382
-248.019	-200.000	0.027	0.430
-247.005	-200.000	0.050	-0.225
-245.990	-146.077	-0.185	0.016
-244.976	-41.427	-0.189	-0.096
-243.961	-98.131	0.077	-0.020
-242.946	370.055	0.060	0.119
-241.932	-200.000	-0.027	0.346
-240.917	-174.033	-0.110	0.003
-239.903	132.508	-0.192	-0.244
-238.888	-200.000	0.030	-0.257
-237.873	81.734	-0.118	-0.126
-236.859	-200.000	-0.045	-0.387
-235.844	-153.719	-0.324	-0.022
-234.830	126.352	0.113	0.141
-233.815	177.115	0.108	0.155
-232.800	538.285	0.050	-0.117
-231.786	800.000	0.058	-0.185
-230.771	40.176	0.233	-0.207
-229.757	-200.000	0.022	0.296
-228.742	-45.406	-0.168	-0.082
-227.727	-200.000	0.040	0.379
-226.713	-61.607	-0.386	-0.159
-225.698	-79.731	-0.185	0.061
-224.684	-29.968	-0.253	-0.142
-223.669	102.096	0.364	0.419
-222.655	0.841	0.242	-0.170
-221.640	-200.000	0.021	-0.109
-220.625	-200.000	0.041	-0.200
-219.611	-131.877	-0.275	-0.035
-218.596	-200.000	0.045	-0.244
-217.582	-17.958	0.416	-0.257
-216.567	800.000	0.089	0.328
-215.552	-77.510	-0.186	-0.064
-214.538	-200.000	-0.059	-0.308
-213.523	-87.946	0.068	-0.020
-212.509	-52.715	-0.473	-0.215
-211.494	-70.983	0.045	0.017
-210.479	51.674	0.084	-0.079
-209.465	250.257	-0.096	-0.160
-208.450	-93.545	0.106	0.029
-207.436	84.980	-0.154	-0.166
-206.421	800.000	-0.069	-0.196
-205.406	-71.731	-0.063	0.023
-204.392	65.358	-0.069	-0.069
-203.377	-108.163	0.093	0.020
-202.363	228.562	0.147	0.235
-201.348	-93.232	0.223	0.061
-200.333	-15.248	0.424	0.267
-199.319	-183.241	0.122	0.002
-198.304	-200.000	-0.006	-0.290
-197.290	-107.893	-0.085	0.018
-196.275	7.798	0.094	0.069
-195.260	58.372	0.098	0.095
-194.246	-200.000	0.016	-0.258
-193.231	33.853	0.161	-0.138
-192.217	697.578	-0.058	0.151
-191.202	-46.967	0.230	0.111
-190.187	116.138	-0.037	0.044
-189.173	-80.046	0.084	0.028
-188.158	-103.578	0.479	0.111
-187.144	45.596	-0.271	0.246
-186.129	265.552	0.117	-0.200
-185.114	-200.000	-0.062	0.000
-184.100	-200.000	-0.005	-0.119
-183.085	348.786	-0.036	-0.069
-182.071	-200.000	0.000	-0.213
-181.056	800.000	-0.037	0.110
-180.042	-35.517	-0.173	-0.092
-179.027	-89.336	-0.167	-0.048
-178.012	417.396	0.051	0.108
-176.998	-127.242	-0.514	-0.074
-175.983	261.028	-0.104	0.177
-174.969	539.703	0.160	-0.373
-173.954	115.491	0.019	0.023
-172.939	114.278	0.245	0.293
-171.925	53.871	0.213	0.201
-170.910	277.969	-0.127	0.222
-169.896	-102.862	-0.069	0.016
-168.881	-200.000	0.007	0.163
-167.866	173.271	-0.158	0.223
-166.852	96.232	0.055	-0.062
-165.837	17.831	0.190	0.149
-164.823	-129.651	0.069	0.009
-163.808	20.539	0.246	-0.196
-162.793	-144.698	-0.206	-0.019
-161.779	-200.000	-0.084	0.395
-160.764	-34.866	0.139	0.074
-159.750	-29.909	0.058	-0.032
-158.735	191.941	-0.150	0.223
-157.720	589.388	-0.002	0.005
-156.706	-5.795	-0.186	0.125
-155.691	-67.850	0.151	0.058
-154.677	-83.388	0.083	0.026
-153.662	68.592	0.268	-0.270
-152.647	-16.620	0.013	-0.008
-151.633	-34.418	-0.110	-0.059
-150.618	-200.000	0.002	0.099
-149.604	258.486	-0.045	0.076
-148.589	559.033	-0.119	0.281
-147.574	-107.124	-0.271	0.059
-146.560	-200.000	0.015	-0.140
-145.545	-26.357	-0.222	0.128
-144.531	-10.636	-0.024	0.016
-143.516	-75.323	0.296	-0.104
-142.502	800.000	-0.170	-0.473
-141.487	-110.854	0.250	0.051
-140.472	77.164	0.062	-0.065
-139.458	-12.224	-0.062	0.039
-138.443	-34.002	0.195	-0.105
-137.429	-200.000	0.005	0.210
-136.414	-108.319	-0.268	-0.057
-135.399	157.084	0.185	-0.251
-134.385	398.227	0.121	-0.249
-133.370	-41.155	0.312	-0.158
-132.356	-200.000	-0.040	-0.401
-131.341	44.327	-0.254	-0.228
-130.326	-134.985	0.042	-0.005
-129.312	-200.000	0.001	-0.145
-128.297	12.537	-0.364	0.276
-127.283	176.045	0.234	-0.333
-126.268	223.489	-0.060	0.094
-125.253	96.700	0.219	-0.246
-124.239	412.755	0.022	0.046
-123.224	29.947	-0.114	0.096
-122.210	509.447	0.122	0.277
-121.195	-188.229	0.305	-0.004
