DTS Sentinel unit serial number:	SN413079Multiplexer serial number:	ORYXHardware model number:	OX4-SRSoftware version number:	ORYX F/W v4.00 Oryx Data Collector v3.7.2.0data status	okinstallation	princeton_trtdifferential loss correction	single-endedforward channel	channel 3reverse channel	N/Adate	2019/09/19time	12:08:35forward acquisition time	60.00reverse acquisition time	0.00gamma	496.2192k internal	0.2340k external	0.2340temperature offset calibration	0.9986default loss term (dB/km)	0.3790temperature slope calibration	1.0000multiplexer offset coefficient	1.0000multiplexer slope coefficient	1.0000fibre end	0.00T internal ref (°C)	26.27T ext. ref 1 (°C)	0.84T ext. ref 2 (°C)	22.75length (m)	temperature (°C)	Stokes	anti-Stokes-747.200	-157.188	0.229	0.014
-746.185	-74.575	-0.366	0.132
-745.171	119.982	0.095	0.118
-744.156	800.000	-0.050	0.158
-743.142	-200.000	-0.002	-0.186
-742.127	250.235	-0.088	0.150
-741.112	124.421	0.226	-0.285
-740.098	577.807	-0.057	-0.139
-739.083	-101.618	-0.240	-0.058
-738.069	-200.000	-0.017	0.243
-737.054	-98.817	-0.068	-0.017
-736.039	-126.943	-0.238	0.035
-735.025	90.424	0.383	0.429
-734.010	-136.469	-0.156	0.018
-732.996	422.862	0.022	-0.047
-731.981	272.001	-0.163	0.287
-730.966	-106.270	-0.207	0.046
-729.952	208.795	-0.222	-0.349
-728.937	210.530	0.077	-0.121
-727.923	-63.311	-0.233	-0.096
-726.908	-2.025	0.387	0.272
-725.894	571.878	0.155	0.378
-724.879	84.735	0.066	0.073
-723.864	-55.268	-0.310	0.139
-722.850	-46.321	0.154	-0.076
-721.835	-6.381	0.155	0.106
-720.821	116.237	0.081	0.100
-719.806	-200.000	-0.020	-0.120
-718.791	-118.070	-0.247	-0.044
-717.777	299.490	0.054	0.100
-716.762	-61.260	-0.027	0.011
-715.748	-95.970	0.290	-0.077
-714.733	-24.418	0.017	0.010
-713.718	-129.848	0.118	0.016
-712.704	90.600	-0.094	0.106
-711.689	662.387	0.115	-0.296
-710.675	-200.000	0.031	0.151
-709.660	9.285	0.043	-0.033
-708.645	-118.218	0.405	0.072
-707.631	139.505	0.062	-0.082
-706.616	-133.068	-0.131	0.017
-705.602	-120.452	-0.186	-0.032
-704.587	-200.000	-0.029	-0.213
-703.572	-200.000	0.005	-0.095
-702.558	126.280	-0.240	-0.304
-701.543	-92.612	-0.246	0.069
-700.529	245.082	0.018	0.030
-699.514	355.883	0.074	0.147
-698.499	-78.498	0.087	-0.030
-697.485	657.996	-0.093	-0.239
-696.470	182.009	-0.104	-0.153
-695.456	800.000	-0.084	-0.276
-694.441	-137.199	0.186	0.021
-693.426	-98.575	0.288	0.074
-692.412	-45.444	0.213	0.105
-691.397	248.719	0.099	0.168
-690.383	12.524	-0.219	-0.169
-689.368	5.152	0.128	0.095
-688.354	-200.000	0.004	0.080
-687.339	115.350	-0.112	0.137
-686.324	-0.382	0.089	-0.063
-685.310	800.000	-0.088	-0.302
-684.295	-96.280	0.155	0.041
-683.281	613.594	0.083	-0.208
-682.266	-55.981	-0.106	-0.047
-681.251	-83.052	0.368	-0.118
-680.237	-39.067	0.143	0.075
-679.222	320.822	-0.131	-0.249
-678.208	-47.138	0.179	-0.087
-677.193	478.666	-0.168	0.381
-676.178	-84.248	0.182	0.058
-675.164	-3.403	0.124	0.086
-674.149	-138.964	-0.314	0.034
-673.135	-18.288	0.116	0.072
-672.120	223.835	0.170	0.275
-671.105	-122.099	0.166	-0.027
-670.091	491.515	0.059	0.134
-669.076	800.000	0.107	0.304
-668.062	-14.517	-0.177	-0.114
-667.047	-74.829	-0.367	0.132
-666.032	800.000	0.064	-0.196
-665.018	416.371	-0.136	0.290
-664.003	169.718	-0.090	0.129
-662.989	-149.277	-0.421	0.034
-661.974	-39.284	-0.039	0.020
-660.959	-54.476	-0.108	0.049
-659.945	800.000	0.035	-0.133
-658.930	800.000	-0.066	0.263
-657.916	99.667	-0.086	-0.099
-656.901	-14.161	0.227	-0.146
-655.886	-88.097	-0.091	0.027
-654.872	675.914	0.095	0.246
-653.857	135.553	0.078	0.101
-652.843	-67.910	-0.024	0.009
-651.828	800.000	-0.090	0.328
-650.814	117.049	0.113	0.139
-649.799	59.399	0.123	-0.121
-648.784	-200.000	0.007	0.161
-647.770	-141.613	0.231	0.023
-646.755	340.087	-0.018	-0.034
-645.741	-137.686	-0.044	-0.005
-644.726	-200.000	-0.044	-0.273
-643.711	-167.898	0.186	-0.007
-642.697	-92.543	-0.118	0.033
-641.682	404.645	0.189	-0.398
-640.668	-200.000	0.033	0.157
-639.653	800.000	0.024	-0.092
-638.638	-200.000	0.028	0.192
-637.624	-134.118	-0.399	0.049
-636.609	35.052	0.170	0.148
-635.595	-74.438	0.200	0.072
-634.580	14.246	0.039	0.031
-633.565	133.301	-0.102	-0.132
-632.551	-13.358	0.172	0.111
-631.536	-200.000	-0.028	-0.130
-630.522	-27.633	-0.209	0.121
-629.507	223.018	-0.148	0.238
-628.492	-108.584	-0.340	-0.073
-627.478	82.751	0.075	0.081
-626.463	-200.000	-0.047	-0.273
-625.449	8.388	-0.205	-0.154
-624.434	800.000	-0.090	-0.299
-623.419	567.285	-0.087	-0.211
-622.405	387.903	-0.233	-0.480
-621.390	800.000	-0.048	-0.136
-620.376	0.763	0.176	-0.126
-619.361	-200.000	-0.026	-0.293
-618.346	61.867	0.140	0.139
-617.332	173.897	-0.180	0.259
-616.317	-65.803	-0.225	0.090
-615.303	-142.057	0.160	-0.016
-614.288	570.093	-0.014	0.033
-613.273	-132.533	-0.080	0.010
-612.259	78.015	-0.077	-0.081
-611.244	149.729	0.174	0.235
-610.230	676.448	-0.050	0.129
-609.215	695.074	0.069	0.181
-608.201	409.872	0.073	-0.155
-607.186	-51.419	0.089	-0.042
-606.171	-33.810	-0.251	-0.138
-605.157	615.935	-0.089	0.222
-604.142	-103.438	0.289	0.068
-603.128	-97.029	-0.177	0.046
-602.113	28.723	-0.154	0.130
-601.098	30.376	0.318	0.271
-600.084	-18.251	-0.114	-0.071
-599.069	356.291	0.151	0.301
-598.055	-47.647	-0.053	0.026
-597.040	-23.424	-0.072	0.043
-596.025	-133.202	-0.123	-0.016
-595.011	-200.000	0.062	-0.283
-593.996	-37.728	0.241	-0.128
-592.982	-10.480	-0.314	-0.207
-591.967	57.441	-0.190	-0.185
-590.952	575.849	-0.188	0.457
-589.938	-5.152	-0.254	-0.174
-588.923	-200.000	0.017	0.088
-587.909	-33.765	-0.396	0.218
-586.894	-200.000	0.028	0.230
-585.879	-200.000	-0.001	0.031
-584.865	445.580	0.097	-0.213
-583.850	110.955	0.176	0.212
-582.836	-200.000	-0.047	0.336
-581.821	428.813	-0.157	-0.339
-580.806	96.168	-0.102	0.116
-579.792	-90.095	-0.175	-0.051
-578.777	85.202	-0.225	-0.245
-577.763	4.836	-0.158	-0.116
-576.748	-200.000	-0.018	0.185
-575.733	-3.513	0.103	-0.071
-574.719	33.689	-0.210	-0.182
-573.704	-200.000	0.336	-0.001
-572.690	729.265	-0.160	-0.426
-571.675	-53.779	0.233	-0.106
-570.661	-38.299	-0.264	-0.139
-569.646	92.340	0.183	0.206
-568.631	-200.000	0.007	0.189
-567.617	-200.000	0.021	-0.324
-566.602	-95.148	-0.254	-0.068
-565.588	-200.000	-0.019	0.127
-564.573	35.873	0.178	0.156
-563.558	657.949	-0.032	0.081
-562.544	800.000	0.023	-0.083
-561.529	-128.839	-0.115	-0.016
-560.515	71.787	0.070	0.073
-559.500	-200.000	0.018	0.330
-558.485	800.000	-0.067	0.273
-557.471	-200.000	-0.047	-0.210
-556.456	-164.382	0.052	0.002
-555.442	164.816	0.027	0.038
-554.427	-200.000	-0.027	-0.233
-553.412	-200.000	-0.057	0.308
-552.398	218.485	0.092	0.147
-551.383	-105.926	0.247	-0.055
-550.369	-200.000	0.072	0.321
-549.354	-4.858	0.310	0.213
-548.339	-109.303	0.170	-0.036
-547.325	-109.565	0.225	0.047
-546.310	800.000	-0.010	0.038
-545.296	-27.361	-0.141	0.082
-544.281	130.829	0.162	0.207
-543.266	484.995	-0.091	-0.205
-542.252	174.865	-0.297	-0.428
-541.237	-161.205	-0.041	0.002
-540.223	272.812	0.025	0.045
-539.208	-200.000	0.037	0.209
-538.193	237.141	0.053	0.087
-537.179	85.187	-0.222	-0.242
-536.164	-200.000	-0.001	-0.123
-535.150	-153.398	0.221	0.015
-534.135	155.104	0.061	-0.084
-533.121	-200.000	0.022	-0.452
-532.106	800.000	0.113	-0.397
-531.091	800.000	0.061	-0.239
-530.077	62.943	0.034	-0.034
-529.062	592.004	-0.164	0.402
-528.048	-47.588	0.294	-0.142
-527.033	81.644	-0.132	0.142
-526.018	487.876	-0.087	-0.197
-525.004	698.474	-0.148	-0.386
-523.989	-79.281	0.030	0.010
-522.975	-102.407	-0.380	-0.090
-521.960	423.977	0.138	-0.295
-520.945	42.263	-0.081	-0.073
-519.931	-86.223	0.313	0.096
-518.916	800.000	0.110	0.341
-517.902	210.862	0.111	0.174
-516.887	42.486	-0.020	-0.018
-515.872	220.567	0.101	0.161
-514.858	-200.000	0.006	-0.048
-513.843	-123.300	0.126	0.020
-512.829	-100.228	-0.152	-0.038
-511.814	-72.746	0.150	0.055
-510.799	228.029	0.046	0.075
-509.785	-142.859	0.323	-0.031
-508.770	74.092	0.164	0.171
-507.756	-17.686	-0.168	0.105
-506.741	340.907	0.059	0.114
-505.726	149.291	-0.128	0.173
-504.712	800.000	0.046	0.144
-503.697	800.000	-0.030	-0.113
-502.683	131.673	-0.163	-0.208
-501.668	117.960	-0.096	-0.117
-500.653	559.940	0.119	-0.286
-499.639	-200.000	0.008	0.121
-498.624	330.929	-0.118	-0.226
-497.610	-120.356	-0.199	-0.034
-496.595	-102.010	-0.337	-0.081
-495.581	-200.000	0.030	-0.178
-494.566	800.000	0.114	-0.327
-493.551	-200.000	-0.007	0.208
-492.537	-200.000	0.002	0.093
-491.522	-46.801	-0.420	-0.204
-490.508	154.335	0.105	-0.143
-489.493	187.548	-0.117	-0.173
-488.478	39.594	-0.190	-0.169
-487.464	-6.861	0.074	-0.050
-486.449	-200.000	-0.040	-0.287
-485.435	-78.140	0.605	-0.206
-484.420	-71.191	0.203	0.076
-483.405	-56.116	0.198	-0.087
-482.391	-27.333	0.223	0.129
-481.376	-16.432	-0.146	-0.092
-480.362	428.507	0.066	-0.141
-479.347	243.627	-0.156	-0.259
-478.332	20.994	-0.086	-0.069
-477.318	-130.660	-0.138	-0.018
-476.303	-162.203	-0.105	0.005
-475.289	-171.328	0.106	0.004
-474.274	-77.695	0.303	-0.104
-473.259	-200.000	0.023	-0.168
-472.245	-81.020	-0.296	0.097
-471.230	-0.800	0.113	0.080
-470.216	-118.384	0.084	-0.015
-469.201	-200.000	-0.094	-0.508
-468.186	-200.000	-0.043	-0.214
-467.172	355.520	0.058	-0.115
-466.157	-200.000	-0.014	0.221
-465.143	34.592	0.087	0.075
-464.128	-46.983	-0.299	-0.145
-463.113	800.000	-0.019	0.056
-462.099	800.000	0.121	0.390
-461.084	-200.000	-0.169	-0.000
-460.070	-81.949	-0.385	0.125
-459.055	800.000	-0.025	-0.086
-458.040	-93.359	-0.110	-0.030
-457.026	-123.581	-0.338	0.053
-456.011	-4.762	0.141	0.096
-454.997	38.499	-0.018	-0.016
-453.982	214.300	-0.118	0.186
-452.968	416.282	-0.068	-0.145
-451.953	-50.154	0.290	0.136
-450.938	-105.335	-0.137	0.031
-449.924	-41.574	0.209	-0.106
-448.909	96.751	-0.131	0.148
-447.895	-200.000	-0.110	-0.495
-446.880	-56.321	-0.273	0.120
-445.865	-9.912	-0.140	0.093
-444.851	137.578	-0.132	0.172
-443.836	162.158	0.104	0.144
-442.822	104.179	-0.296	-0.344
-441.807	-64.159	0.154	0.062
-440.792	73.775	0.030	-0.032
-439.778	800.000	0.063	-0.182
-438.763	-29.876	0.196	-0.110
-437.749	-74.133	0.259	0.093
-436.734	-159.661	-0.193	-0.011
-435.719	-200.000	-0.042	-0.203
-434.705	255.320	0.074	-0.125
-433.690	-7.931	0.146	-0.098
-432.676	-34.568	0.066	0.036
-431.661	3.748	-0.172	0.124
-430.646	-153.072	0.277	-0.019
-429.632	176.257	-0.102	-0.147
-428.617	256.234	0.026	-0.044
-427.603	-61.986	0.316	0.131
-426.588	800.000	-0.035	0.147
-425.573	800.000	0.026	0.072
-424.559	-38.720	0.017	-0.009
-423.544	57.225	0.084	-0.081
-422.530	-200.000	-0.052	0.242
-421.515	-88.232	0.082	0.024
-420.500	-200.000	-0.025	0.121
-419.486	-57.392	-0.191	-0.083
-418.471	-29.031	0.054	0.031
-417.457	-8.509	-0.341	0.227
-416.442	344.213	0.099	-0.193
-415.428	26.791	-0.130	-0.108
-414.413	-21.217	0.049	0.030
-413.398	643.815	0.113	0.284
-412.384	557.256	-0.060	-0.142
-411.369	175.375	0.083	-0.118
-410.355	800.000	0.037	0.128
-409.340	-23.141	0.388	0.231
-408.325	151.813	-0.096	-0.130
-407.311	37.769	0.057	-0.050
-406.296	220.093	-0.190	-0.302
-405.282	-10.163	0.190	0.125
-404.267	46.112	0.402	0.368
-403.252	405.752	0.014	0.029
-402.238	-45.126	0.099	-0.049
-401.223	-200.000	-0.018	-0.085
-400.209	-200.000	-0.017	0.113
-399.194	6.805	-0.154	-0.113
-398.179	168.462	0.264	-0.372
-397.165	800.000	0.036	0.149
-396.150	-109.608	0.384	-0.080
-395.136	356.920	0.037	-0.073
-394.121	150.052	-0.171	0.229
-393.106	23.919	-0.227	0.185
-392.092	-200.000	0.010	0.093
-391.077	681.810	-0.049	-0.126
-390.063	-1.925	0.100	-0.070
-389.048	-9.967	-0.109	0.072
-388.033	-94.232	-0.364	0.099
-387.019	-200.000	-0.031	-0.262
-386.004	195.746	-0.173	0.261
-384.990	-200.000	-0.004	-0.069
-383.975	41.825	-0.319	-0.286
-382.960	-49.505	0.076	0.036
-381.946	800.000	-0.066	-0.268
-380.931	90.806	-0.131	0.145
-379.917	-60.613	0.182	0.076
-378.902	800.000	0.033	-0.100
-377.888	-102.089	0.084	0.020
-376.873	274.284	-0.086	0.150
-375.858	-39.959	0.138	-0.071
-374.844	800.000	0.024	0.096
-373.829	-200.000	0.030	0.200
-372.815	408.704	-0.080	-0.167
-371.800	-2.816	0.302	-0.209
-370.785	160.258	-0.124	-0.171
-369.771	2.193	-0.244	0.174
-368.756	-51.286	0.319	0.147
-367.742	-61.733	-0.169	0.070
-366.727	-139.762	0.432	0.045
-365.712	-99.572	-0.150	0.037
-364.698	-116.214	0.356	-0.065
-363.683	532.098	0.135	-0.315
-362.669	212.760	0.146	0.228
-361.654	800.000	0.049	0.166
-360.639	-54.863	-0.149	-0.066
-359.625	59.605	-0.185	-0.180
-358.610	-23.541	0.101	-0.060
-357.596	-200.000	0.001	0.225
-356.581	-200.000	0.007	-0.164
-355.566	-200.000	-0.048	-0.328
-354.552	375.208	-0.039	0.078
-353.537	-200.000	0.025	0.207
-352.523	-62.053	0.293	-0.121
-351.508	-94.847	0.075	-0.020
-350.493	-25.470	0.201	0.117
-349.479	-200.000	0.014	-0.129
-348.464	-67.676	0.291	0.112
-347.450	149.326	0.179	-0.239
-346.435	800.000	-0.051	-0.180
-345.420	26.565	0.120	-0.099
-344.406	-1.912	0.127	-0.088
-343.391	800.000	-0.012	-0.042
-342.377	-13.811	-0.323	0.206
-341.362	81.501	-0.089	0.095
-340.348	-35.990	0.036	0.019
-339.333	-14.381	-0.283	0.180
-338.318	218.410	-0.118	0.186
-337.304	64.801	0.085	0.085
-336.289	22.061	0.262	0.211
-335.275	-103.963	0.116	0.027
-334.260	800.000	0.031	-0.109
-333.245	800.000	0.097	-0.286
-332.231	-59.848	0.118	-0.050
-331.216	-127.203	0.031	-0.004
-330.202	-88.904	-0.184	0.054
-329.187	-89.946	0.148	-0.043
-328.172	121.410	0.209	-0.256
-327.158	-118.986	-0.212	0.037
-326.143	-200.000	0.015	0.210
-325.129	34.599	0.097	-0.083
-324.114	800.000	0.074	0.298
-323.099	-120.448	-0.488	-0.082
-322.085	-200.000	0.032	-0.332
-321.070	-36.270	0.166	-0.088
-320.056	88.447	0.133	0.145
-319.041	-49.260	0.282	0.133
-318.026	-66.050	0.245	0.096
-317.012	-200.000	0.089	-0.413
-315.997	-30.696	-0.487	-0.272
-314.983	17.204	-0.166	0.130
-313.968	9.410	-0.126	-0.094
-312.953	658.582	-0.050	0.127
-311.939	400.240	0.078	0.161
-310.924	76.744	-0.282	0.295
-309.910	-200.000	-0.111	0.515
-308.895	-200.000	0.044	0.211
-307.880	-200.000	0.044	-0.327
-306.866	-78.279	0.130	-0.044
-305.851	312.322	-0.144	0.267
-304.837	-200.000	-0.013	0.174
-303.822	126.787	-0.053	0.066
-302.807	-176.422	-0.239	-0.006
-301.793	-112.919	-0.060	-0.012
-300.778	-200.000	0.070	0.421
-299.764	57.164	-0.062	-0.059
-298.749	206.091	0.142	0.218
-297.735	552.088	-0.015	0.035
-296.720	512.720	0.086	0.197
-295.705	168.890	0.134	-0.188
-294.691	68.517	-0.194	0.196
-293.676	327.563	-0.110	0.207
-292.662	603.367	-0.024	0.058
-291.647	-127.695	0.233	-0.033
-290.632	-200.000	-0.002	0.220
-289.618	42.855	0.107	0.096
-288.603	-46.341	-0.093	0.045
-287.589	800.000	-0.105	0.299
-286.574	113.844	-0.252	0.301
-285.559	121.440	0.237	0.291
-284.545	800.000	0.071	-0.235
-283.530	-42.211	0.149	0.075
-282.516	16.600	0.154	0.120
-281.501	67.012	0.205	0.205
-280.486	85.347	0.131	0.142
-279.472	-47.556	0.330	-0.158
-278.457	-200.000	0.079	-0.480
-277.443	-18.778	-0.176	-0.108
-276.428	192.506	0.153	0.227
-275.413	159.530	0.110	0.151
-274.399	123.825	-0.075	0.093
-273.384	800.000	-0.020	-0.078
-272.370	59.526	0.022	0.022
-271.355	-152.759	-0.131	-0.009
-270.340	800.000	0.042	0.149
-269.326	227.327	-0.189	-0.302
-268.311	-47.419	-0.153	-0.073
-267.297	-1.849	-0.105	0.073
-266.282	800.000	-0.054	0.151
-265.267	156.029	0.124	-0.169
-264.253	67.043	0.232	-0.233
-263.238	-200.000	-0.061	-0.265
-262.224	-37.112	0.209	-0.110
-261.209	44.420	-0.212	0.191
-260.195	800.000	0.053	-0.177
-259.180	179.163	0.087	0.125
-258.165	800.000	0.043	0.163
-257.151	539.409	-0.063	-0.148
-256.136	-11.463	-0.103	0.067
-255.122	-65.482	-0.282	0.112
-254.107	-200.000	-0.005	-0.132
-253.092	151.897	0.109	-0.146
-252.078	111.154	-0.207	-0.245
-251.063	106.495	-0.140	-0.163
-250.049	-77.826	0.207	-0.070
-249.034	-95.933	-0.421	0.110
-248.019	-200.000	-0.038	-0.164
-247.005	-63.760	-0.033	-0.013
-245.990	-62.716	0.143	-0.058
-244.976	86.720	-0.067	0.072
-243.961	263.793	0.106	-0.182
-242.946	565.272	0.103	0.245
-241.932	-200.000	0.075	0.552
-240.917	138.986	-0.244	0.316
-239.903	800.000	0.077	0.240
-238.888	-32.240	0.159	0.088
-237.873	-200.000	0.038	0.238
-236.859	-142.758	0.229	-0.022
-235.844	45.151	0.126	-0.114
-234.830	-89.126	-0.094	-0.027
-233.815	41.076	0.060	-0.053
-232.800	-158.346	-0.176	-0.010
-231.786	-200.000	-0.064	0.385
-230.771	-153.627	-0.365	-0.025
-229.757	-134.334	0.251	0.030
-228.742	335.417	0.078	-0.149
-227.727	-96.441	-0.131	-0.034
-226.713	-83.190	-0.165	0.052
-225.698	-37.342	-0.172	-0.090
-224.684	-57.276	0.136	-0.059
-223.669	396.525	0.122	0.250
-222.655	-179.915	0.175	-0.004
-221.640	-200.000	0.031	-0.298
-220.625	146.089	-0.017	0.022
-219.611	73.064	-0.036	-0.037
-218.596	34.299	0.329	0.282
-217.582	-112.317	0.093	0.018
-216.567	-86.799	0.102	0.031
-215.552	800.000	0.134	0.413
-214.538	18.348	-0.193	0.151
-213.523	-88.263	0.245	-0.072
-212.509	-130.779	-0.175	-0.023
-211.494	92.367	-0.090	0.100
-210.479	800.000	-0.003	0.014
-209.465	800.000	-0.045	0.158
-208.450	390.859	-0.139	-0.282
-207.436	-22.509	-0.139	-0.082
-206.421	-200.000	0.001	0.109
-205.406	234.884	-0.158	-0.256
-204.392	-1.920	-0.270	-0.186
-203.377	219.741	0.096	-0.151
-202.363	15.651	0.282	-0.218
-201.348	-17.860	-0.085	-0.052
-200.333	-88.214	0.405	0.119
-199.319	-104.242	0.133	-0.030
-198.304	-23.011	0.304	-0.180
-197.290	389.556	0.122	-0.249
-196.275	-13.449	-0.210	0.133
-195.260	-143.865	-0.295	-0.027
-194.246	14.424	0.238	0.182
-193.231	340.773	0.175	0.336
-192.217	-31.150	0.380	0.210
-191.202	687.264	-0.063	0.161
-190.187	163.331	-0.147	0.202
-189.173	186.657	-0.275	0.402
-188.158	174.842	-0.206	0.292
-187.144	783.830	-0.031	-0.083
-186.129	-200.000	-0.013	0.275
-185.114	-61.801	0.253	0.104
-184.100	22.475	-0.174	-0.140
-183.085	2.619	0.238	0.169
-182.071	42.108	0.313	-0.278
-181.056	-200.000	0.007	-0.234
-180.042	0.177	0.134	0.094
-179.027	-135.230	-0.275	-0.032
-178.012	109.534	0.107	0.126
-176.998	-34.595	0.225	-0.121
-175.983	-15.257	-0.197	-0.124
-174.969	25.314	-0.263	-0.214
-173.954	-135.730	-0.276	-0.032
-172.939	-200.000	0.036	-0.240
-171.925	-127.894	0.109	-0.015
-170.910	116.732	0.064	0.077
-169.896	92.805	0.063	0.069
-168.881	8.934	0.151	0.112
-167.866	213.425	-0.068	-0.105
-166.852	-77.195	-0.428	-0.146
-165.837	-200.000	-0.035	-0.552
-164.823	45.526	-0.035	-0.032
-163.808	150.776	-0.050	0.067
-162.793	284.251	-0.026	-0.045
-161.779	-124.223	0.063	0.010
-160.764	123.161	-0.232	-0.284
-159.750	-52.638	0.210	0.095
-158.735	-173.419	-0.091	-0.003
-157.720	-155.244	-0.350	-0.022
-156.706	800.000	0.134	0.515
-155.691	-25.130	-0.209	0.121
-154.677	12.202	-0.202	-0.152
-153.662	751.742	-0.078	-0.207
-152.647	254.654	0.153	0.257
-151.633	-93.923	0.189	-0.051
-150.618	800.000	-0.134	-0.398
-149.604	-113.108	0.267	0.052
-148.589	45.116	0.200	-0.180
-147.574	45.599	-0.266	-0.241
-146.560	3.351	0.105	0.075
-145.545	345.471	0.089	0.172
-144.531	-75.506	0.030	-0.011
-143.516	-200.000	0.042	0.345
-142.502	14.777	0.131	0.101
-141.487	-200.000	-0.022	-0.171
-140.472	-8.270	0.282	-0.186
-139.458	411.588	0.060	-0.125
-138.443	-200.000	0.001	0.108
-137.429	1.641	-0.144	0.102
-136.414	378.200	-0.118	-0.236
-135.399	160.324	-0.120	0.164
-134.385	800.000	-0.040	0.144
-133.370	-200.000	0.283	0.000
-132.356	-193.005	0.216	0.002
-131.341	-169.745	0.171	-0.006
-130.326	-15.142	-0.183	-0.114
-129.312	-155.270	-0.086	-0.005
-128.297	5.005	0.168	0.121
-127.283	-200.000	0.031	0.162
-126.268	-200.000	0.034	0.306
-125.253	800.000	-0.056	-0.193
-124.239	144.526	0.138	0.180
-123.224	800.000	-0.049	0.177
-122.210	-200.000	-0.006	0.087
-121.195	-44.919	0.202	-0.099
-120.180	536.082	0.066	0.154
-119.166	731.062	-0.045	0.119
