DTS Sentinel unit serial number:	SN413079Multiplexer serial number:	ORYXHardware model number:	OX4-SRSoftware version number:	ORYX F/W v4.00 Oryx Data Collector v3.7.2.0data status	okinstallation	princeton_trtdifferential loss correction	single-endedforward channel	channel 3reverse channel	N/Adate	2019/09/14time	08:20:35forward acquisition time	60.00reverse acquisition time	0.00gamma	496.2192k internal	0.2331k external	0.2331temperature offset calibration	1.0051default loss term (dB/km)	0.3790temperature slope calibration	1.0000multiplexer offset coefficient	1.0000multiplexer slope coefficient	1.0000fibre end	0.00T internal ref (°C)	27.94T ext. ref 1 (°C)	3.61T ext. ref 2 (°C)	26.09length (m)	temperature (°C)	Stokes	anti-Stokes-747.200	130.329	-0.134	0.173
-746.185	-200.000	0.098	0.611
-745.171	-139.700	0.351	0.038
-744.156	62.176	-0.379	0.381
-743.142	167.970	-0.096	-0.137
-742.127	244.775	-0.267	0.451
-741.112	271.032	0.090	-0.159
-740.098	-176.646	0.215	0.006
-739.083	-200.000	-0.038	0.552
-738.069	-200.000	0.037	-0.238
-737.054	-89.544	0.131	0.039
-736.039	-64.206	-0.505	-0.207
-735.025	103.002	-0.291	0.343
-734.010	-49.853	0.213	-0.102
-732.996	140.655	-0.185	-0.246
-731.981	-200.000	0.014	0.213
-730.966	800.000	0.042	0.182
-729.952	76.958	-0.177	0.190
-728.937	-200.000	-0.052	0.399
-727.923	-100.651	-0.388	-0.096
-726.908	-200.000	-0.012	-0.153
-725.894	-131.452	-0.231	0.031
-724.879	-200.000	-0.042	0.200
-723.864	41.841	-0.270	-0.246
-722.850	-134.889	-0.194	0.024
-721.835	87.712	-0.235	-0.262
-720.821	-125.751	0.487	0.074
-719.806	800.000	0.015	0.059
-718.791	198.939	-0.108	0.166
-717.777	-20.171	-0.194	0.120
-716.762	314.793	0.061	-0.116
-715.748	-104.056	-0.251	0.059
-714.733	-178.031	0.359	0.009
-713.718	-128.508	0.291	-0.042
-712.704	39.870	0.095	0.086
-711.689	468.729	0.112	0.253
-710.675	-200.000	-0.050	-0.273
-709.660	-2.887	-0.169	-0.118
-708.645	18.338	-0.244	-0.196
-707.631	-200.000	-0.028	-0.158
-706.616	83.446	0.052	-0.057
-705.602	-155.121	-0.425	0.028
-704.587	-55.170	0.101	-0.046
-703.572	-200.000	-0.035	0.443
-702.558	475.140	0.045	-0.102
-701.543	-190.889	0.233	-0.002
-700.529	-46.592	-0.308	-0.152
-699.514	-126.872	-0.313	0.046
-698.499	327.919	-0.107	-0.207
-697.485	-200.000	-0.039	-0.210
-696.470	277.482	-0.142	0.253
-695.456	-84.300	0.211	0.067
-694.441	-200.000	0.022	-0.143
-693.426	800.000	0.065	-0.225
-692.412	46.073	-0.127	-0.118
-691.397	-200.000	-0.011	-0.096
-690.383	-53.839	-0.274	0.125
-689.368	734.885	-0.137	-0.368
-688.354	-26.180	-0.180	-0.106
-687.339	-90.935	0.190	-0.055
-686.324	-85.890	0.246	-0.076
-685.310	723.685	-0.085	0.227
-684.295	14.774	-0.246	0.193
-683.281	292.370	0.020	0.037
-682.266	-105.317	0.250	0.057
-681.251	800.000	0.125	0.397
-680.237	800.000	0.018	0.055
-679.222	-99.339	0.293	0.074
-678.208	20.807	0.131	-0.107
-677.193	619.568	-0.141	0.356
-676.178	701.519	0.025	-0.067
-675.164	138.588	-0.065	-0.086
-674.149	-124.868	0.192	0.030
-673.135	-46.397	0.250	0.123
-672.120	-115.831	-0.209	-0.039
-671.105	-55.676	0.074	-0.033
-670.091	-200.000	0.044	0.349
-669.076	-108.915	-0.208	-0.045
-668.062	-137.436	-0.382	0.043
-667.047	31.756	-0.136	0.117
-666.032	57.586	0.206	-0.202
-665.018	11.627	0.078	-0.060
-664.003	112.538	0.089	0.108
-662.989	96.517	-0.119	0.136
-661.974	800.000	-0.029	0.119
-660.959	800.000	0.052	0.222
-659.945	-200.000	-0.065	0.303
-658.930	-200.000	-0.022	-0.134
-657.916	-200.000	-0.016	0.121
-656.901	-200.000	0.017	0.280
-655.886	-200.000	-0.034	0.224
-654.872	-1.652	-0.095	0.067
-653.857	377.552	-0.177	0.363
-652.843	-56.210	-0.106	0.047
-651.828	-200.000	-0.010	0.126
-650.814	800.000	0.040	-0.116
-649.799	66.218	0.117	-0.119
-648.784	-91.899	0.189	-0.054
-647.770	22.637	-0.162	0.133
-646.755	-101.354	0.367	-0.090
-645.741	-140.070	0.328	-0.035
-644.726	-200.000	0.005	-0.081
-643.711	49.379	0.146	-0.137
-642.697	603.404	-0.169	-0.421
-641.682	-146.792	-0.073	0.006
-640.668	-200.000	-0.013	0.154
-639.653	369.012	-0.056	0.114
-638.638	-67.545	-0.110	-0.043
-637.624	-129.057	-0.131	0.018
-636.609	34.120	-0.072	-0.063
-635.595	-200.000	-0.034	-0.187
-634.580	800.000	-0.060	-0.242
-633.565	12.705	0.117	-0.090
-632.551	37.519	0.316	-0.281
-631.536	800.000	0.024	-0.083
-630.522	-135.332	-0.174	0.021
-629.507	-149.807	0.305	-0.024
-628.492	-200.000	0.055	0.259
-627.478	-200.000	-0.020	-0.224
-626.463	-178.712	-0.231	-0.005
-625.449	-200.000	-0.007	0.202
-624.434	-138.096	0.217	-0.024
-623.419	-200.000	0.033	0.167
-622.405	110.056	-0.180	0.217
-621.390	439.168	0.030	-0.065
-620.376	-31.153	-0.296	0.167
-619.361	-44.170	0.305	-0.153
-618.346	-113.170	-0.313	0.062
-617.332	-38.570	0.068	0.036
-616.317	-72.385	-0.388	-0.144
-615.303	-33.595	0.169	0.094
-614.288	170.613	-0.228	-0.328
-613.273	-129.036	0.245	-0.034
-612.259	36.884	0.113	-0.100
-611.244	15.494	-0.308	-0.243
-610.230	187.719	0.063	-0.094
-609.215	-31.701	0.178	0.100
-608.201	-200.000	-0.003	0.248
-607.186	-99.364	0.156	0.039
-606.171	-102.335	-0.261	0.063
-605.157	-188.791	-0.046	0.001
-604.142	-101.635	0.242	0.059
-603.128	-200.000	0.001	-0.047
-602.113	-70.562	0.097	-0.037
-601.098	102.825	0.039	0.045
-600.084	187.131	-0.091	0.136
-599.069	250.421	-0.122	0.208
-598.055	-116.059	0.184	0.034
-597.040	446.293	-0.035	0.076
-596.025	-108.609	-0.513	-0.110
-595.011	800.000	0.069	-0.223
-593.996	-50.601	-0.089	0.042
-592.982	612.367	0.126	-0.316
-591.967	16.802	0.130	-0.103
-590.952	-30.908	0.100	-0.056
-589.938	218.733	0.156	-0.250
-588.923	517.648	-0.132	-0.309
-587.909	-21.509	0.069	-0.042
-586.894	800.000	-0.085	0.299
-585.879	-200.000	-0.061	0.270
-584.865	-70.762	0.265	-0.100
-583.850	460.079	0.090	-0.201
-582.836	-200.000	-0.004	0.065
-581.821	144.774	-0.241	-0.322
-580.806	114.446	-0.217	0.264
-579.792	-200.000	0.015	0.357
-578.777	537.946	-0.120	-0.286
-577.763	-63.838	-0.228	0.093
-576.748	-157.783	-0.437	0.026
-575.733	-122.918	0.271	0.044
-574.719	-200.000	-0.089	0.429
-573.704	-107.614	-0.350	-0.076
-572.690	-116.390	-0.337	-0.062
-571.675	-9.685	0.219	0.146
-570.661	123.315	0.091	0.114
-569.646	-200.000	-0.012	0.163
-568.631	672.063	0.154	-0.399
-567.617	50.194	-0.144	-0.136
-566.602	-20.580	0.099	0.061
-565.588	-106.599	0.275	-0.061
-564.573	218.606	-0.072	-0.115
-563.558	800.000	0.066	-0.235
-562.544	378.865	-0.109	0.223
-561.529	-200.000	0.011	0.203
-560.515	419.644	-0.075	-0.160
-559.500	-200.000	0.003	-0.014
-558.485	-79.680	0.365	-0.123
-557.471	264.493	0.032	-0.056
-556.456	-25.344	-0.206	-0.122
-555.442	-95.587	-0.216	0.058
-554.427	800.000	0.125	-0.403
-553.412	-143.391	-0.167	-0.016
-552.398	-200.000	0.010	-0.349
-551.383	-200.000	0.018	-0.124
-550.369	-175.696	0.128	-0.003
-549.354	-200.000	0.025	-0.254
-548.339	481.916	0.142	0.322
-547.325	3.225	0.171	-0.124
-546.310	-200.000	0.000	-0.140
-545.296	-29.887	0.133	-0.076
-544.281	800.000	0.049	0.170
-543.266	192.048	-0.011	-0.016
-542.252	309.919	0.154	-0.288
-541.237	-53.084	0.325	-0.149
-540.223	-105.441	-0.215	-0.049
-539.208	-171.274	0.122	-0.004
-538.193	-200.000	0.008	0.168
-537.179	35.064	0.155	0.135
-536.164	-32.887	0.342	0.190
-535.150	800.000	0.047	0.153
-534.135	-170.497	0.214	-0.007
-533.121	-200.000	0.016	0.213
-532.106	-24.461	-0.160	0.095
-531.091	134.021	0.111	0.144
-530.077	-15.505	0.069	-0.044
-529.062	70.657	0.256	-0.264
-528.048	176.858	0.067	0.097
-527.033	147.470	-0.087	0.118
-526.018	-18.347	-0.077	0.048
-525.004	-200.000	0.004	-0.355
-523.989	544.875	0.139	0.331
-522.975	-83.129	-0.342	0.110
-521.960	199.203	0.111	-0.170
-520.945	-200.000	-0.001	-0.197
-519.931	-200.000	-0.004	0.093
-518.916	-126.624	0.144	-0.021
-517.902	75.617	0.175	-0.184
-516.887	800.000	-0.049	-0.202
-515.872	276.259	0.165	-0.292
-514.858	136.679	-0.119	-0.155
-513.843	206.765	0.149	0.231
-512.829	-200.000	0.006	-0.096
-511.814	-200.000	-0.000	-0.073
-510.799	-115.131	-0.062	0.012
-509.785	-130.031	-0.220	-0.030
-508.770	-94.772	-0.382	0.103
-507.756	-60.596	0.176	0.075
-506.741	-97.874	0.295	0.076
-505.726	800.000	0.058	0.197
-504.712	-200.000	-0.031	0.156
-503.697	21.524	-0.114	0.093
-502.683	-61.720	-0.251	-0.105
-501.668	-190.146	0.258	-0.003
-500.653	243.369	0.134	0.224
-499.639	34.401	-0.294	-0.256
-498.624	-80.713	0.168	-0.056
-497.610	-106.752	-0.059	-0.013
-496.595	-149.663	-0.135	-0.011
-495.581	800.000	0.052	-0.205
-494.566	-200.000	-0.021	-0.187
-493.551	93.138	0.057	0.064
-492.537	219.156	-0.098	0.157
-491.522	75.415	0.109	0.114
-490.508	-20.705	-0.229	0.140
-489.493	-200.000	-0.015	0.400
-488.478	66.898	0.165	-0.167
-487.464	-200.000	-0.057	-0.269
-486.449	-200.000	-0.052	-0.308
-485.435	100.714	-0.151	0.175
-484.420	-74.742	-0.290	0.104
-483.405	-8.900	-0.086	-0.058
-482.391	-200.000	0.010	0.056
-481.376	241.323	-0.090	0.150
-480.362	239.166	0.089	-0.147
-479.347	179.448	0.224	-0.327
-478.332	510.848	-0.097	0.224
-477.318	-64.457	-0.166	-0.067
-476.303	-28.228	0.123	-0.071
-475.289	518.110	0.208	-0.486
-474.274	160.012	-0.075	0.104
-473.259	-21.460	-0.322	0.196
-472.245	-128.502	-0.508	-0.072
-471.230	289.887	0.126	-0.228
-470.216	641.207	0.083	-0.211
-469.201	-7.824	0.109	0.073
-468.186	-130.475	0.101	-0.014
-467.172	-45.005	-0.418	0.207
-466.157	-58.518	0.244	-0.106
-465.143	-36.893	-0.097	0.052
-464.128	-200.000	0.008	-0.124
-463.113	698.407	-0.102	0.267
-462.099	-90.323	0.191	-0.055
-461.084	-200.000	-0.009	0.186
-460.070	311.269	-0.116	-0.217
-459.055	139.622	-0.214	-0.281
-458.040	10.185	-0.251	0.190
-457.026	800.000	-0.026	0.083
-456.011	220.682	-0.072	0.115
-454.997	-200.000	0.041	-0.226
-453.982	197.266	-0.066	0.100
-452.968	-19.142	-0.126	-0.078
-451.953	289.664	-0.026	0.047
-450.938	-55.952	-0.033	-0.014
-449.924	-110.105	-0.350	-0.073
-448.909	-200.000	-0.003	0.126
-447.895	-121.891	0.126	0.021
-446.880	-54.345	-0.198	0.089
-445.865	193.669	-0.070	0.105
-444.851	-183.902	-0.170	-0.003
-443.836	551.304	-0.080	-0.192
-442.822	-105.128	0.241	-0.055
-441.807	-26.659	0.188	0.109
-440.792	-112.872	-0.334	0.066
-439.778	-110.146	-0.353	-0.073
-438.763	-200.000	0.019	-0.084
-437.749	-41.508	0.122	-0.062
-436.734	-116.640	0.174	0.032
-435.719	292.175	0.104	0.188
-434.705	800.000	-0.053	0.227
-433.690	72.110	0.213	-0.220
-432.676	706.115	0.072	0.190
-431.661	-96.343	-0.435	0.115
-430.646	-56.633	-0.229	0.101
-429.632	-200.000	0.018	0.080
-428.617	-200.000	0.035	0.182
-427.603	800.000	-0.034	0.096
-426.588	-12.467	0.085	-0.055
-425.573	17.591	0.144	-0.114
-424.559	152.497	0.082	-0.111
-423.544	-200.000	0.004	-0.096
-422.530	65.481	0.070	0.070
-421.515	16.213	-0.057	-0.045
-420.500	186.392	-0.038	-0.056
-419.486	108.920	-0.123	-0.146
-418.471	195.298	-0.117	0.177
-417.457	-51.900	-0.084	-0.039
-416.442	-200.000	0.010	-0.607
-415.428	117.202	0.184	0.225
-414.413	-17.307	-0.053	0.033
-413.398	118.185	-0.261	-0.320
-412.384	-200.000	0.017	-0.086
-411.369	-41.003	-0.278	-0.143
-410.355	13.039	-0.198	-0.152
-409.340	800.000	-0.058	0.163
-408.325	545.743	-0.063	0.150
-407.311	550.369	0.141	0.337
-406.296	139.203	-0.038	-0.049
-405.282	-54.650	0.069	-0.031
-404.267	351.553	-0.089	-0.174
-403.252	247.609	-0.072	-0.122
-402.238	30.734	-0.267	0.227
-401.223	-200.000	0.008	-0.115
-400.209	800.000	0.067	0.200
-399.194	-6.191	0.222	0.151
-398.179	-200.000	-0.071	0.315
-397.165	-200.000	-0.031	-0.152
-396.150	-93.549	0.085	0.023
-395.136	455.435	0.171	0.376
-394.121	725.162	-0.054	0.144
-393.106	-194.811	-0.127	-0.001
-392.092	-0.440	-0.123	0.086
-391.077	-13.272	0.037	-0.024
-390.063	-115.724	-0.330	0.061
-389.048	-200.000	-0.004	0.059
-388.033	58.281	0.167	0.163
-387.019	-68.493	0.068	-0.026
-386.004	47.746	-0.140	0.130
-384.990	185.734	0.100	0.147
-383.975	469.680	-0.120	-0.267
-382.960	800.000	-0.020	0.087
-381.946	-174.499	-0.257	-0.007
-380.931	-119.337	-0.328	0.057
-379.917	-91.773	0.604	-0.170
-378.902	269.744	0.133	-0.232
-377.888	-64.806	-0.100	0.040
-376.873	608.606	0.098	0.244
-375.858	232.915	0.131	-0.213
-374.844	-53.994	-0.208	0.094
-373.829	-66.742	-0.373	0.147
-372.815	-80.005	0.312	-0.104
-371.800	-27.595	-0.155	-0.090
-370.785	-61.550	0.179	-0.074
-369.771	72.235	0.143	0.147
-368.756	-200.000	0.006	-0.261
-367.742	-9.100	0.181	-0.120
-366.727	463.671	0.151	0.335
-365.712	-77.739	-0.326	0.112
-364.698	-62.660	0.405	-0.167
-363.683	-96.309	-0.211	0.056
-362.669	800.000	-0.165	0.499
-361.654	44.878	0.180	-0.164
-360.639	-174.930	0.383	-0.011
-359.625	-188.815	0.341	0.004
-358.610	425.091	-0.171	0.365
-357.596	18.564	-0.101	0.080
-356.581	343.079	0.031	0.059
-355.566	385.999	0.027	-0.055
-354.552	-72.235	-0.134	0.049
-353.537	638.289	0.123	0.309
-352.523	154.725	-0.212	-0.289
-351.508	18.171	0.215	0.170
-350.493	36.011	-0.153	0.133
-349.479	227.835	-0.128	-0.207
-348.464	118.624	-0.190	0.232
-347.450	-200.000	-0.015	-0.169
-346.435	-32.734	0.036	-0.020
-345.420	261.621	-0.124	0.214
-344.406	19.847	0.188	0.150
-343.391	168.889	-0.168	0.237
-342.377	139.306	-0.180	-0.235
-341.362	-61.191	-0.137	0.057
-340.348	-3.105	0.363	0.251
-339.333	214.708	0.126	-0.198
-338.318	-20.421	0.370	0.225
-337.304	-3.128	-0.207	-0.143
-336.289	-200.000	-0.014	-0.082
-335.275	165.922	-0.076	-0.107
-334.260	-200.000	-0.036	-0.303
-333.245	-75.693	-0.030	0.011
-332.231	69.323	0.188	0.192
-331.216	-84.870	0.283	-0.088
-330.202	-23.042	0.143	0.085
-329.187	442.222	0.031	-0.068
-328.172	-47.530	0.102	-0.049
-327.158	-200.000	0.019	0.257
-326.143	27.766	-0.214	0.179
-325.129	-200.000	0.010	-0.062
-324.114	800.000	0.018	-0.076
-323.099	51.209	-0.132	-0.124
-322.085	-200.000	-0.006	-0.061
-321.070	125.433	0.068	0.085
-320.056	131.366	-0.110	-0.140
-319.041	-116.522	0.357	-0.065
-318.026	-87.252	-0.191	0.058
-317.012	331.625	-0.016	-0.031
-315.997	0.032	-0.053	-0.037
-314.983	-43.964	0.197	0.098
-313.968	-200.000	0.126	-0.001
-312.953	285.559	0.131	-0.234
-311.939	-8.759	0.096	-0.064
-310.924	75.413	0.371	0.388
-309.910	171.559	-0.053	-0.075
-308.895	-105.970	-0.202	0.045
-307.880	24.410	-0.172	0.141
-306.866	232.461	0.248	-0.404
-305.851	141.075	0.125	-0.164
-304.837	172.722	0.068	0.097
-303.822	-136.345	0.231	-0.027
-302.807	153.587	-0.117	-0.159
-301.793	-40.136	0.172	0.089
-300.778	195.503	0.037	0.055
-299.764	-200.000	-0.032	0.205
-298.749	-131.531	0.211	-0.028
-297.735	-29.696	0.130	0.073
-296.720	494.247	0.023	-0.053
-295.705	-51.634	0.202	0.093
-294.691	-75.779	-0.163	0.057
-293.676	-84.310	-0.134	-0.042
-292.662	-15.428	-0.263	0.166
-291.647	17.170	-0.218	0.171
-290.632	-83.124	0.198	0.063
-289.618	-4.229	-0.065	-0.044
-288.603	-61.362	-0.132	0.055
-287.589	-108.426	0.195	0.042
-286.574	-77.080	0.241	-0.083
-285.559	290.471	-0.061	0.110
-284.545	-200.000	-0.007	-0.322
-283.530	-200.000	0.030	-0.277
-282.516	-32.207	0.417	-0.230
-281.501	167.268	-0.146	0.205
-280.486	-71.852	-0.325	-0.120
-279.472	-47.243	-0.312	-0.150
-278.457	-200.000	-0.021	-0.248
-277.443	33.018	0.097	0.083
-276.428	80.230	-0.235	-0.250
-275.413	567.791	0.114	-0.275
-274.399	659.260	0.053	-0.135
-273.384	165.891	-0.046	0.065
-272.370	-35.333	0.049	0.026
-271.355	-108.749	0.145	0.031
-270.340	-189.347	0.093	-0.001
-269.326	107.391	-0.295	0.346
-268.311	-58.505	0.178	-0.076
-267.297	-60.442	-0.201	0.085
-266.282	-54.990	0.196	-0.087
-265.267	-124.182	-0.068	0.010
-264.253	-34.910	-0.168	-0.090
-263.238	83.842	0.240	0.259
-262.224	42.941	-0.136	-0.122
-261.209	-150.623	0.107	0.008
-260.195	-43.973	-0.159	0.079
-259.180	-200.000	0.003	-0.145
-258.165	800.000	0.081	0.330
-257.151	108.315	-0.172	0.203
-256.136	-55.107	-0.356	-0.158
-255.122	-102.947	0.142	0.033
-254.107	-133.843	0.066	0.008
-253.092	249.603	-0.063	-0.105
-252.078	-196.771	-0.381	0.002
-251.063	-47.962	0.053	-0.025
-250.049	-58.057	-0.071	0.031
-249.034	-25.426	-0.086	-0.050
-248.019	-200.000	0.008	-0.142
-247.005	-117.985	-0.371	-0.066
-245.990	512.113	-0.020	-0.046
-244.976	-2.616	-0.230	0.159
-243.961	800.000	-0.090	0.247
-242.946	-25.816	0.237	0.138
-241.932	164.087	-0.213	0.296
-240.917	-200.000	-0.075	-0.358
-239.903	190.292	-0.099	-0.146
-238.888	330.675	-0.087	0.166
-237.873	194.025	0.230	0.344
-236.859	55.433	-0.179	-0.171
-235.844	-117.396	0.202	-0.036
-234.830	13.544	-0.177	0.135
-233.815	-200.000	-0.011	-0.292
-232.800	-200.000	-0.047	-0.211
-231.786	-200.000	0.011	-0.156
-230.771	-35.731	-0.111	0.060
-229.757	117.636	-0.163	0.198
-228.742	800.000	0.053	-0.188
-227.727	-7.537	-0.194	-0.129
-226.713	43.442	0.198	-0.179
-225.698	87.681	-0.142	0.156
-224.684	-200.000	-0.005	0.055
-223.669	308.636	0.219	0.403
-222.655	-200.000	-0.071	0.327
-221.640	582.013	0.054	-0.131
-220.625	116.420	-0.202	-0.244
-219.611	-39.812	-0.066	0.034
-218.596	-121.131	0.114	0.019
-217.582	0.189	0.155	-0.109
-216.567	327.887	-0.118	-0.224
-215.552	-30.285	0.183	-0.102
-214.538	9.078	0.259	0.193
-213.523	-51.664	-0.310	0.143
-212.509	7.427	0.296	-0.218
-211.494	800.000	0.037	0.140
-210.479	800.000	0.042	0.131
-209.465	-104.657	0.304	-0.069
-208.450	-68.472	0.344	-0.132
-207.436	800.000	0.078	0.255
-206.421	800.000	-0.089	-0.276
-205.406	538.639	0.033	0.078
-204.392	-200.000	-0.035	0.333
-203.377	-161.499	-0.251	0.013
-202.363	135.276	0.245	0.313
-201.348	-1.060	-0.229	0.160
-200.333	301.440	-0.036	-0.066
-199.319	-80.370	0.335	0.110
-198.304	147.159	-0.176	0.234
-197.290	-200.000	-0.067	0.288
-196.275	-200.000	-0.006	0.091
-195.260	276.338	0.157	-0.275
-194.246	-18.886	0.263	0.161
-193.231	-158.259	0.249	-0.014
-192.217	-153.819	-0.159	0.011
-191.202	-60.398	0.151	0.063
-190.187	-157.153	0.120	0.007
-189.173	-200.000	0.012	-0.311
-188.158	485.428	0.077	-0.173
-187.144	139.936	0.192	-0.250
-186.129	9.686	0.012	0.009
-185.114	-100.352	0.373	0.091
-184.100	157.003	0.147	-0.200
-183.085	-200.000	0.026	0.171
-182.071	800.000	-0.084	-0.247
-181.056	-48.244	0.049	-0.023
-180.042	-107.358	0.444	0.096
-179.027	-27.575	-0.112	-0.064
-178.012	800.000	-0.086	-0.309
-176.998	-54.650	0.271	0.121
-175.983	12.533	0.071	0.054
-174.969	-200.000	-0.032	0.369
-173.954	64.917	0.213	0.211
-172.939	427.503	-0.132	0.281
-171.925	-200.000	0.008	-0.314
-170.910	-86.399	-0.278	-0.084
-169.896	256.399	0.139	0.235
-168.881	47.861	-0.083	0.076
-167.866	-33.881	0.228	-0.124
-166.852	-2.393	-0.243	-0.168
-165.837	358.313	0.077	0.150
-164.823	-97.133	0.211	-0.054
-163.808	800.000	-0.035	-0.113
-162.793	-102.482	-0.405	0.095
-161.779	800.000	-0.010	0.035
-160.764	590.566	-0.135	0.327
-159.750	800.000	0.047	0.199
-158.735	28.591	0.054	0.045
-157.720	611.558	0.184	0.452
-156.706	-38.164	-0.279	0.146
-155.691	88.459	0.039	-0.043
-154.677	163.935	-0.048	-0.066
-153.662	785.461	-0.064	0.172
-152.647	226.807	0.099	-0.158
-151.633	-200.000	-0.064	-0.384
-150.618	121.516	-0.160	-0.196
-149.604	-190.678	0.359	0.004
-148.589	-200.000	-0.059	-0.294
-147.574	-200.000	-0.007	-0.365
-146.560	-132.104	0.397	-0.051
-145.545	-76.100	-0.329	0.114
-144.531	-131.450	-0.172	0.022
-143.516	-73.564	0.074	-0.027
-142.502	-140.542	-0.136	-0.014
-141.487	-73.310	0.297	0.107
-140.472	751.559	0.016	0.043
-139.458	160.589	-0.235	0.322
-138.443	62.306	0.140	-0.137
-137.429	141.786	0.218	0.284
-136.414	-200.000	-0.006	0.256
-135.399	-98.891	-0.283	0.071
-134.385	-163.713	0.258	-0.012
-133.370	800.000	-0.041	0.138
-132.356	390.014	0.180	-0.366
-131.341	-200.000	-0.059	-0.406
-130.326	800.000	0.034	-0.129
-129.312	-66.221	-0.098	0.039
-128.297	800.000	-0.062	0.176
-127.283	86.051	-0.207	0.224
-126.268	-200.000	-0.051	0.325
-125.253	-51.822	0.157	-0.072
-124.239	89.368	0.167	0.183
-123.224	-17.051	-0.203	-0.126
-122.210	-7.348	0.046	-0.031
