DTS Sentinel unit serial number:	SN413079Multiplexer serial number:	ORYXHardware model number:	OX4-SRSoftware version number:	ORYX F/W v4.00 Oryx Data Collector v3.7.2.0data status	okinstallation	princeton_trtdifferential loss correction	single-endedforward channel	channel 3reverse channel	N/Adate	2019/09/10time	18:26:10forward acquisition time	60.00reverse acquisition time	0.00gamma	496.2192k internal	0.2305k external	0.2305temperature offset calibration	0.9917default loss term (dB/km)	0.3790temperature slope calibration	1.0000multiplexer offset coefficient	1.0000multiplexer slope coefficient	1.0000fibre end	0.00T internal ref (°C)	36.05T ext. ref 1 (°C)	-0.34T ext. ref 2 (°C)	28.11length (m)	temperature (°C)	Stokes	anti-Stokes-747.200	94.116	0.145	-0.168
-746.185	160.608	0.170	0.242
-745.171	800.000	0.053	-0.204
-744.156	-40.463	-0.410	0.217
-743.142	519.585	-0.111	0.266
-742.127	-200.000	-0.065	0.604
-741.112	800.000	0.103	-0.371
-740.098	-200.000	0.018	-0.171
-739.083	-71.965	0.145	0.055
-738.069	-3.255	0.225	-0.160
-737.054	800.000	0.087	-0.246
-736.039	158.635	-0.152	-0.215
-735.025	-200.000	0.007	0.041
-734.010	131.133	-0.110	-0.143
-732.996	800.000	0.078	-0.234
-731.981	524.438	-0.069	0.164
-730.966	79.139	0.199	-0.217
-729.952	-68.353	-0.223	-0.088
-728.937	-136.416	-0.153	-0.018
-727.923	-78.041	0.135	-0.047
-726.908	-171.433	-0.147	0.005
-725.894	149.455	0.095	-0.131
-724.879	46.149	-0.207	-0.195
-723.864	-82.760	0.105	-0.034
-722.850	5.285	-0.300	-0.225
-721.835	-7.250	-0.136	-0.094
-720.821	-200.000	-0.024	-0.284
-719.806	25.246	-0.067	0.057
-718.791	-105.486	-0.341	-0.079
-717.777	-113.358	-0.117	0.023
-716.762	118.535	0.091	0.114
-715.748	250.289	-0.037	-0.064
-714.733	800.000	-0.047	0.154
-713.718	-19.841	-0.155	0.098
-712.704	-59.260	-0.290	-0.127
-711.689	-51.938	-0.330	-0.156
-710.675	300.980	-0.094	-0.177
-709.660	-200.000	-0.009	-0.088
-708.645	800.000	0.081	0.228
-707.631	-149.749	0.206	0.016
-706.616	18.669	0.078	0.063
-705.602	-91.938	0.199	0.057
-704.587	-87.641	0.140	0.043
-703.572	-25.725	0.086	-0.052
-702.558	-200.000	-0.017	0.216
-701.543	-200.000	-0.051	-0.380
-700.529	-13.827	-0.450	-0.296
-699.514	447.020	0.160	-0.357
-698.499	-38.386	-0.088	0.048
-697.485	25.535	-0.153	0.129
-696.470	-85.875	0.129	0.040
-695.456	-41.960	0.173	-0.090
-694.441	72.234	-0.128	-0.135
-693.426	-172.729	-0.187	0.006
-692.412	-15.120	-0.173	-0.112
-691.397	-193.794	-0.380	-0.003
-690.383	800.000	0.126	0.448
-689.368	128.765	0.101	0.131
-688.354	74.846	-0.095	0.102
-687.339	-200.000	0.021	0.152
-686.324	-115.066	-0.089	-0.017
-685.310	-163.086	-0.324	0.016
-684.295	800.000	-0.084	0.272
-683.281	800.000	0.056	0.162
-682.266	-50.632	-0.151	0.072
-681.251	-72.687	-0.261	-0.098
-680.237	-200.000	-0.001	-0.115
-679.222	170.024	0.123	-0.179
-678.208	-8.048	-0.155	0.106
-677.193	-120.006	0.209	-0.036
-676.178	-200.000	0.010	0.091
-675.164	-200.000	-0.005	-0.104
-674.149	-200.000	-0.004	-0.164
-673.135	-11.390	-0.094	-0.063
-672.120	153.646	0.028	-0.039
-671.105	568.492	0.115	-0.284
-670.091	41.150	0.169	-0.155
-669.076	-179.871	-0.586	-0.013
-668.062	-154.848	-0.196	0.013
-667.047	-105.519	0.267	0.061
-666.032	52.938	0.086	0.084
-665.018	-27.774	0.054	-0.032
-664.003	800.000	-0.088	-0.361
-662.989	-200.000	0.155	-0.001
-661.974	-160.069	-0.425	-0.023
-660.959	169.399	-0.122	-0.177
-659.945	38.992	-0.185	0.168
-658.930	-120.056	-0.232	0.040
-657.916	-18.848	-0.064	0.041
-656.901	-74.774	0.099	0.036
-655.886	73.827	-0.133	-0.142
-654.872	196.545	-0.140	-0.216
-653.857	557.032	-0.028	0.069
-652.843	-177.410	0.250	0.006
-651.828	-200.000	0.017	-0.116
-650.814	502.074	-0.071	0.166
-649.799	-200.000	0.008	-0.137
-648.784	-200.000	0.034	-0.281
-647.770	800.000	-0.110	-0.341
-646.755	-114.933	0.129	-0.025
-645.741	-97.005	0.130	-0.035
-644.726	-96.020	-0.166	0.045
-643.711	-114.478	0.098	0.019
-642.697	-200.000	0.000	0.234
-641.682	-29.718	0.297	0.172
-640.668	-118.099	0.217	0.039
-639.653	-163.316	-0.287	0.014
-638.638	-200.000	0.039	-0.289
-637.624	28.649	-0.136	0.117
-636.609	800.000	-0.070	-0.220
-635.595	63.574	0.180	0.183
-634.580	-96.249	-0.455	-0.122
-633.565	-122.889	-0.357	0.058
-632.551	-200.000	-0.002	0.095
-631.536	-9.846	-0.028	0.019
-630.522	-15.246	-0.364	0.236
-629.507	96.373	0.092	0.107
-628.492	-43.463	0.105	-0.054
-627.478	128.859	-0.189	-0.244
-626.463	434.157	-0.080	-0.176
-625.449	75.969	0.188	-0.201
-624.434	-18.438	-0.243	0.154
-623.419	800.000	-0.083	0.333
-622.405	-32.010	-0.229	0.130
-621.390	175.579	-0.081	-0.119
-620.376	-200.000	0.045	0.264
-619.361	559.322	0.071	-0.174
-618.346	606.975	-0.052	0.132
-617.332	208.523	-0.207	0.328
-616.317	219.839	0.270	0.439
-615.303	800.000	-0.036	0.142
-614.288	71.228	0.135	-0.141
-613.273	110.511	-0.172	-0.209
-612.259	-89.218	-0.153	-0.046
-611.244	-53.239	-0.174	0.081
-610.230	172.199	0.309	-0.450
-609.215	-64.553	0.047	-0.019
-608.201	650.105	-0.019	0.050
-607.186	682.406	-0.121	-0.318
-606.171	130.491	-0.171	-0.222
-605.157	800.000	-0.027	0.112
-604.142	-200.000	-0.007	-0.117
-603.128	-200.000	0.046	0.212
-602.113	99.871	0.193	-0.226
-601.098	-37.518	-0.043	-0.023
-600.084	-81.618	0.176	0.059
-599.069	-200.000	-0.033	0.167
-598.055	25.302	-0.225	0.189
-597.040	103.325	0.188	0.223
-596.025	-182.937	0.139	-0.003
-595.011	-200.000	-0.006	-0.060
-593.996	171.751	-0.079	0.115
-592.982	800.000	-0.045	-0.161
-591.967	-12.976	-0.332	-0.218
-590.952	126.950	0.297	-0.381
-589.938	631.189	-0.046	-0.118
-588.923	250.840	0.075	0.130
-587.909	-75.708	0.159	0.057
-586.894	-164.735	-0.574	-0.026
-585.879	441.732	0.110	0.243
-584.865	218.135	0.216	0.348
-583.850	-200.000	-0.012	-0.206
-582.836	-147.295	-0.106	0.009
-581.821	7.146	-0.081	-0.061
-580.806	-200.000	0.024	-0.292
-579.792	-150.410	-0.055	-0.004
-578.777	-200.000	0.020	0.271
-577.763	-110.757	0.294	0.061
-576.748	800.000	0.150	-0.447
-575.733	-106.101	-0.198	-0.045
-574.719	-1.432	0.090	-0.064
-573.704	0.387	0.215	0.155
-572.690	800.000	0.082	-0.252
-571.675	-200.000	-0.063	-0.370
-570.661	-101.974	-0.220	0.054
-569.646	-155.394	0.192	-0.013
-568.631	800.000	-0.090	-0.292
-567.617	-40.360	-0.371	-0.195
-566.602	-80.216	-0.196	0.066
-565.588	85.541	-0.178	0.198
-564.573	183.844	0.097	-0.144
-563.558	800.000	0.050	0.207
-562.544	57.482	-0.139	-0.137
-561.529	264.112	-0.065	0.115
-560.515	-12.100	-0.204	-0.135
-559.500	-182.584	-0.329	-0.006
-558.485	-43.902	-0.165	-0.084
-557.471	-170.887	0.219	-0.008
-556.456	273.217	-0.150	-0.268
-555.442	-188.589	0.060	0.001
-554.427	183.673	-0.178	0.267
-553.412	-142.721	-0.140	0.014
-552.398	-200.000	0.058	-0.422
-551.383	-200.000	-0.010	0.180
-550.369	30.109	0.113	0.097
-549.354	-200.000	-0.044	-0.227
-548.339	-200.000	0.005	-0.056
-547.325	800.000	0.164	0.549
-546.310	-73.074	0.163	-0.060
-545.296	-200.000	0.017	-0.075
-544.281	84.705	-0.038	0.042
-543.266	800.000	0.137	0.526
-542.252	800.000	-0.034	-0.143
-541.237	800.000	-0.088	0.289
-540.223	-113.054	-0.401	0.080
-539.208	-200.000	-0.046	0.234
-538.193	108.812	0.169	0.204
-537.179	3.208	-0.246	-0.181
-536.164	161.356	0.165	-0.233
-535.150	87.980	0.217	-0.243
-534.135	-92.960	-0.237	-0.067
-533.121	-200.000	0.019	0.288
-532.106	-105.766	-0.219	-0.050
-531.091	-107.958	0.285	-0.062
-530.077	190.670	0.180	-0.273
-529.062	30.718	0.192	-0.166
-528.048	-153.243	-0.287	-0.020
-527.033	-124.847	-0.115	-0.018
-526.018	800.000	0.070	-0.229
-525.004	-96.300	0.145	-0.039
-523.989	800.000	-0.025	0.107
-522.975	524.515	-0.031	-0.074
-521.960	161.068	-0.169	0.239
-520.945	108.099	-0.052	0.063
-519.931	-150.420	-0.168	0.013
-518.916	-94.906	-0.085	-0.023
-517.902	44.112	0.137	0.126
-516.887	-115.719	-0.153	0.029
-515.872	485.328	-0.139	0.319
-514.858	-21.103	0.088	0.055
-513.843	-200.000	-0.029	-0.162
-512.829	-15.432	-0.098	0.063
-511.814	55.937	0.160	-0.156
-510.799	-9.411	-0.147	0.099
-509.785	218.548	-0.108	-0.174
-508.770	48.392	0.083	-0.079
-507.756	269.532	0.114	0.201
-506.741	-200.000	-0.021	0.146
-505.726	-150.580	0.451	0.035
-504.712	220.108	0.210	-0.339
-503.697	-200.000	0.013	0.065
-502.683	372.251	-0.089	-0.182
-501.668	-73.775	-0.097	0.036
-500.653	15.697	-0.135	0.107
-499.639	-50.194	0.311	0.149
-498.624	-79.325	-0.401	0.137
-497.610	-94.804	0.211	0.058
-496.595	469.514	0.128	-0.289
-495.581	538.082	0.177	0.424
-494.566	256.344	-0.023	0.040
-493.551	94.004	0.194	0.222
-492.537	-67.720	-0.114	-0.045
-491.522	-67.564	-0.158	-0.062
-490.508	679.472	-0.140	0.367
-489.493	-111.848	-0.314	0.064
-488.478	-200.000	0.036	0.235
-487.464	39.221	-0.096	-0.087
-486.449	-54.234	0.147	0.067
-485.435	-70.120	0.156	0.060
-484.420	-128.999	-0.088	-0.012
-483.405	-200.000	-0.010	0.079
-482.391	-21.660	0.173	-0.106
-481.376	24.191	0.077	0.064
-480.362	-87.361	0.043	-0.013
-479.347	-58.447	0.086	-0.037
-478.332	115.987	0.091	-0.113
-477.318	-101.263	-0.083	-0.021
-476.303	-58.652	0.199	0.087
-475.289	26.801	-0.335	-0.283
-474.274	602.326	-0.121	0.302
-473.259	-81.154	0.065	-0.022
-472.245	800.000	-0.052	-0.172
-471.230	45.628	-0.172	0.160
-470.216	-200.000	0.035	0.186
-469.201	-92.102	0.078	-0.022
-468.186	-200.000	-0.048	-0.303
-467.172	-200.000	0.017	0.256
-466.157	97.330	0.313	-0.362
-465.143	74.023	-0.290	-0.306
-464.128	51.797	0.163	-0.157
-463.113	-200.000	0.008	0.277
-462.099	-174.024	-0.251	-0.007
-461.084	16.036	0.197	0.156
-460.070	-3.548	0.283	0.198
-459.055	-17.497	0.136	0.086
-458.040	-39.333	0.086	-0.045
-457.026	60.297	-0.195	0.194
-456.011	46.298	0.221	-0.207
-454.997	10.239	-0.102	-0.078
-453.982	25.473	-0.174	-0.146
-452.968	800.000	-0.037	-0.111
-451.953	164.769	0.133	0.189
-450.938	800.000	0.018	-0.062
-449.924	206.469	-0.206	-0.322
-448.909	6.146	0.286	-0.213
-447.895	-104.780	0.258	-0.060
-446.880	-186.712	0.224	-0.003
-445.865	299.889	0.095	0.177
-444.851	256.361	0.275	-0.474
-443.836	-73.870	-0.218	0.080
-442.822	-52.933	0.191	0.088
-441.807	141.476	0.069	0.092
-440.792	-200.000	-0.002	0.024
-439.778	130.523	-0.110	0.142
-438.763	-5.826	-0.026	0.018
-437.749	-109.452	0.123	-0.026
-436.734	-55.451	0.311	0.140
-435.719	-183.063	0.290	-0.005
-434.705	55.506	-0.167	-0.163
-433.690	-129.535	0.157	-0.022
-432.676	-81.812	0.345	-0.114
-431.661	75.421	0.033	-0.035
-430.646	-52.028	-0.103	-0.048
-429.632	-200.000	0.002	-0.245
-428.617	-131.364	-0.304	0.040
-427.603	800.000	-0.012	0.036
-426.588	167.466	-0.037	0.053
-425.573	681.185	-0.057	0.149
-424.559	-90.059	0.415	-0.122
-423.544	789.761	0.064	0.177
-422.530	-200.000	0.048	0.264
-421.515	-200.000	0.033	0.405
-420.500	-177.898	-0.491	0.012
-419.486	-189.228	-0.137	-0.002
-418.471	127.071	-0.118	-0.151
-417.457	-17.619	0.069	-0.043
-416.442	-37.167	-0.123	-0.066
-415.428	8.791	0.214	-0.162
-414.413	496.205	-0.022	0.050
-413.398	167.087	-0.084	-0.120
-412.384	-41.779	-0.091	0.047
-411.369	61.042	-0.193	0.193
-410.355	800.000	0.070	0.296
-409.340	-37.694	0.243	0.130
-408.325	-137.274	0.272	-0.031
-407.311	-200.000	-0.023	-0.200
-406.296	192.876	-0.029	-0.044
-405.282	20.465	-0.193	-0.157
-404.267	-0.125	0.199	-0.142
-403.252	-70.780	0.427	0.162
-402.238	-1.290	-0.042	-0.030
-401.223	800.000	0.055	0.196
-400.209	-98.336	0.337	-0.087
-399.194	-200.000	-0.003	-0.299
-398.179	800.000	0.031	-0.127
-397.165	-190.983	-0.155	-0.002
-396.150	245.694	0.146	-0.247
-395.136	-132.783	-0.212	-0.027
-394.121	-54.203	-0.091	0.042
-393.106	-150.686	0.227	-0.017
-392.092	-176.656	0.250	-0.006
-391.077	-118.105	-0.194	-0.035
-390.063	453.913	-0.216	-0.481
-389.048	-178.239	0.069	-0.002
-388.033	-152.338	-0.182	0.013
-387.019	-107.827	0.509	0.111
-386.004	233.609	-0.095	0.157
-384.990	418.463	0.022	0.047
-383.975	-102.074	-0.095	-0.023
-382.960	800.000	0.028	-0.081
-381.946	137.673	-0.026	-0.034
-380.931	-56.788	0.321	-0.142
-379.917	50.127	0.158	-0.150
-378.902	52.793	-0.177	-0.170
-377.888	61.943	0.050	0.050
-376.873	13.739	0.201	-0.157
-375.858	304.987	0.184	-0.344
-374.844	40.651	0.062	-0.056
-373.829	-74.472	-0.270	-0.098
-372.815	-8.446	-0.277	0.187
-371.800	-200.000	0.026	-0.244
-370.785	-200.000	-0.047	-0.414
-369.771	-31.377	-0.071	0.040
-368.756	-2.765	-0.247	-0.173
-367.742	32.514	-0.097	-0.084
-366.727	-10.690	-0.156	0.103
-365.712	-115.130	0.307	-0.058
-364.698	150.054	-0.026	0.036
-363.683	-200.000	0.014	0.109
-362.669	-200.000	-0.009	-0.168
-361.654	-200.000	0.044	-0.259
-360.639	-200.000	-0.023	-0.209
-359.625	-8.870	-0.144	0.097
-358.610	-141.194	-0.406	-0.042
-357.596	-116.681	0.248	0.046
-356.581	-200.000	0.017	0.216
-355.566	800.000	-0.045	0.181
-354.552	800.000	-0.062	-0.242
-353.537	-80.057	-0.393	-0.132
-352.523	-200.000	0.000	0.025
-351.508	38.195	-0.067	0.060
-350.493	800.000	0.112	-0.406
-349.479	399.957	0.031	-0.065
-348.464	130.613	-0.253	-0.325
-347.450	-60.534	0.081	0.035
-346.435	800.000	-0.021	-0.066
-345.420	-101.860	0.306	-0.074
-344.406	800.000	0.023	-0.101
-343.391	74.314	-0.166	-0.175
-342.377	-95.905	-0.270	0.072
-341.362	713.766	-0.080	0.212
-340.348	-200.000	-0.001	0.523
-339.333	76.033	-0.087	-0.092
-338.318	328.671	-0.181	-0.349
-337.304	48.679	0.291	-0.273
-336.289	800.000	0.054	0.156
-335.275	-200.000	0.018	0.314
-334.260	124.388	-0.134	0.169
-333.245	-83.258	-0.091	0.029
-332.231	-51.065	-0.390	-0.183
-331.216	-59.158	-0.313	0.135
-330.202	-33.679	-0.092	0.051
-329.187	-200.000	0.001	-0.058
-328.172	8.437	0.231	-0.174
-327.158	111.675	0.215	-0.259
-326.143	-200.000	-0.035	-0.333
-325.129	-200.000	0.054	-0.321
-324.114	-200.000	-0.012	-0.121
-323.099	800.000	0.025	-0.071
-322.085	-200.000	0.030	-0.339
-321.070	-3.044	0.112	0.078
-320.056	-8.835	0.172	-0.115
-319.041	-16.635	0.016	-0.010
-318.026	198.169	-0.046	-0.071
-317.012	49.742	-0.102	-0.096
-315.997	-153.361	0.447	-0.031
-314.983	661.348	-0.026	0.067
-313.968	-126.145	-0.138	0.021
-312.953	614.879	-0.039	-0.099
-311.939	731.665	-0.052	0.140
-310.924	-80.904	0.192	0.064
-309.910	800.000	0.085	0.295
-308.895	-200.000	0.016	-0.079
-307.880	-46.077	0.363	-0.179
-306.866	116.256	-0.232	0.284
-305.851	-89.484	0.155	0.046
-304.837	9.406	-0.538	-0.407
-303.822	9.038	-0.188	-0.142
-302.807	-149.629	-0.157	-0.012
-301.793	116.156	0.296	-0.363
-300.778	-115.149	-0.158	-0.030
-299.764	-70.646	-0.340	-0.128
-298.749	59.353	0.236	-0.233
-297.735	-200.000	0.018	-0.098
-296.720	55.482	-0.107	-0.103
-295.705	62.917	0.259	0.259
-294.691	94.793	0.079	-0.090
-293.676	101.966	0.261	-0.305
-292.662	-200.000	-0.012	0.487
-291.647	800.000	-0.097	0.271
-290.632	573.859	0.083	-0.203
-289.618	800.000	-0.023	0.064
-288.603	219.917	0.193	0.310
-287.589	-130.634	0.230	-0.031
-286.574	-68.259	-0.158	-0.062
-285.559	-139.445	0.111	0.012
-284.545	-156.220	0.272	-0.017
-283.530	649.145	0.008	-0.021
-282.516	800.000	-0.056	0.172
-281.501	20.826	-0.065	0.053
-280.486	-200.000	-0.046	0.323
-279.472	34.847	-0.252	0.221
-278.457	-115.699	-0.291	0.055
-277.443	262.437	0.188	0.326
-276.428	166.980	-0.167	0.237
-275.413	-22.198	-0.179	0.109
-274.399	-64.754	0.083	-0.034
-273.384	116.897	-0.357	0.438
-272.370	-127.952	-0.244	0.035
-271.355	-191.164	-0.159	0.002
-270.340	-179.970	0.457	0.010
-269.326	-120.869	0.196	0.033
-268.311	52.358	-0.114	-0.108
-267.297	-56.118	-0.201	-0.090
-266.282	-81.925	-0.055	0.018
-265.267	-94.513	0.243	0.066
-264.253	257.835	-0.129	0.221
-263.238	-55.417	-0.075	0.034
-262.224	-200.000	-0.013	0.306
-261.209	800.000	0.048	-0.149
-260.195	-63.618	0.309	0.126
-259.180	404.504	-0.174	0.365
-258.165	-200.000	0.024	0.155
-257.151	-94.992	-0.247	0.067
-256.136	374.423	0.108	0.219
-255.122	55.139	-0.156	-0.150
-254.107	-113.054	-0.190	0.037
-253.092	-73.002	0.182	-0.067
-252.078	-30.147	0.271	0.154
-251.063	260.305	-0.054	-0.094
-250.049	205.211	-0.044	-0.068
-249.034	800.000	0.036	-0.151
-248.019	554.490	0.080	0.192
-247.005	281.623	0.075	0.133
-245.990	181.127	-0.078	0.114
-244.976	421.934	-0.098	-0.210
-243.961	237.708	0.024	0.040
-242.946	-164.625	-0.282	-0.013
-241.932	127.159	-0.051	-0.064
-240.917	28.838	0.163	-0.137
-239.903	185.019	0.224	-0.332
-238.888	-55.432	-0.176	0.079
-237.873	-192.619	-0.204	0.002
-236.859	-6.456	-0.043	-0.029
-235.844	-40.907	0.148	-0.076
-234.830	39.377	0.356	-0.318
-233.815	339.064	-0.145	0.281
-232.800	-117.066	0.244	-0.044
-231.786	-3.491	-0.280	0.194
-230.771	-200.000	-0.022	0.118
-229.757	-200.000	-0.043	0.288
-228.742	-162.369	-0.278	0.014
-227.727	23.397	-0.068	-0.055
-226.713	-17.027	-0.130	-0.082
-225.698	702.716	0.102	-0.268
-224.684	800.000	-0.050	-0.153
-223.669	-200.000	0.032	0.142
-222.655	-81.264	0.273	0.090
-221.640	302.591	-0.066	-0.123
-220.625	-69.935	0.206	-0.078
-219.611	-107.948	0.423	0.092
-218.596	800.000	0.012	0.041
-217.582	-200.000	-0.025	-0.348
-216.567	81.876	0.128	0.138
-215.552	201.845	0.199	-0.306
-214.538	-48.696	0.148	-0.071
-213.523	172.779	0.127	-0.182
-212.509	-200.000	-0.010	-0.159
-211.494	-200.000	0.003	0.263
-210.479	800.000	-0.041	0.165
-209.465	415.496	0.080	-0.169
-208.450	-200.000	0.033	-0.160
-207.436	800.000	0.079	-0.305
-206.421	-62.431	-0.314	0.130
-205.406	395.735	-0.161	0.334
-204.392	-70.337	-0.123	0.047
-203.377	800.000	0.106	0.321
-202.363	-200.000	0.054	0.252
-201.348	-88.960	-0.130	0.038
-200.333	435.101	0.096	0.209
-199.319	-45.352	-0.274	0.135
-198.304	608.870	-0.070	0.175
-197.290	-79.252	0.205	0.069
-196.275	-103.450	-0.042	-0.010
-195.260	103.196	-0.044	-0.052
-194.246	-130.906	0.449	0.060
-193.231	-60.196	0.120	-0.051
-192.217	-93.949	-0.285	0.078
-191.202	800.000	-0.036	0.117
-190.187	-47.431	-0.216	-0.105
-189.173	-110.206	0.165	0.034
-188.158	-52.168	0.260	0.120
-187.144	215.609	-0.230	0.364
-186.129	341.743	0.080	-0.156
-185.114	800.000	-0.033	-0.137
-184.100	194.057	-0.071	0.108
-183.085	800.000	-0.072	-0.270
-182.071	-138.637	-0.171	0.019
-181.056	470.612	0.029	-0.064
-180.042	-181.123	0.150	0.003
-179.027	-200.000	-0.038	-0.338
-178.012	800.000	-0.027	-0.094
-176.998	-200.000	-0.026	0.174
-175.983	800.000	0.080	-0.226
-174.969	452.387	-0.095	0.210
-173.954	79.697	0.040	-0.043
-172.939	-104.269	0.218	0.050
-171.925	-11.739	0.092	0.060
-170.910	-144.008	0.263	0.025
-169.896	-200.000	-0.007	0.323
-168.881	-200.000	-0.029	0.323
-167.866	257.672	-0.140	0.240
-166.852	-75.783	0.277	0.098
-165.837	476.154	0.089	0.199
-164.823	151.101	0.233	-0.315
-163.808	-200.000	-0.010	0.057
-162.793	15.741	-0.095	0.074
-161.779	-200.000	0.015	0.338
-160.764	800.000	-0.051	0.221
-159.750	19.563	0.196	-0.157
-158.735	2.407	-0.350	0.252
-157.720	-200.000	0.026	0.191
-156.706	-45.860	0.361	0.177
-155.691	-91.066	-0.199	0.057
-154.677	94.285	0.118	-0.133
-153.662	800.000	-0.050	0.151
-152.647	-200.000	0.038	0.529
-151.633	28.185	-0.059	0.049
-150.618	-4.330	-0.180	-0.124
-149.604	-54.431	0.313	0.141
-148.589	-107.659	0.157	0.034
-147.574	-139.268	0.123	-0.013
-146.560	800.000	0.036	0.124
-145.545	124.710	0.149	0.186
-144.531	-200.000	0.028	-0.147
-143.516	-47.063	0.216	0.105
-142.502	-26.609	0.269	0.157
-141.487	181.049	0.121	0.177
-140.472	384.337	0.071	-0.146
-139.458	-181.727	0.031	0.001
-138.443	120.548	0.186	0.229
-137.429	-200.000	0.046	-0.276
-136.414	-200.000	-0.015	0.137
-135.399	800.000	0.043	0.128
-134.385	-32.929	0.194	0.107
-133.370	-102.739	0.175	-0.041
-132.356	107.677	0.235	-0.279
-131.341	229.930	0.212	-0.343
-130.326	182.226	-0.120	0.175
-129.312	-200.000	-0.024	0.108
-128.297	159.788	0.288	0.398
-127.283	-76.750	-0.248	0.086
-126.268	-27.065	0.136	0.079
-125.253	-49.211	0.139	-0.066
-124.239	-5.275	-0.164	0.112
-123.224	-128.477	-0.197	0.028
-122.210	86.634	0.274	0.300
