DTS Sentinel unit serial number:	SN413079Multiplexer serial number:	ORYXHardware model number:	OX4-SRSoftware version number:	ORYX F/W v4.00 Oryx Data Collector v3.7.2.0data status	okinstallation	princeton_trtdifferential loss correction	single-endedforward channel	channel 3reverse channel	N/Adate	2019/09/17time	11:04:34forward acquisition time	60.00reverse acquisition time	0.00gamma	496.2192k internal	0.2323k external	0.2323temperature offset calibration	0.9946default loss term (dB/km)	0.3790temperature slope calibration	1.0000multiplexer offset coefficient	1.0000multiplexer slope coefficient	1.0000fibre end	0.00T internal ref (°C)	30.36T ext. ref 1 (°C)	0.20T ext. ref 2 (°C)	25.90length (m)	temperature (°C)	Stokes	anti-Stokes-747.200	-67.889	-0.148	0.058
-746.185	276.153	0.113	0.203
-745.171	-20.043	0.160	-0.100
-744.156	-28.344	-0.268	-0.156
-743.142	516.101	-0.091	0.214
-742.127	-110.532	-0.331	-0.069
-741.112	800.000	-0.081	-0.302
-740.098	17.881	-0.238	0.191
-739.083	-61.161	0.363	0.155
-738.069	-200.000	-0.009	0.272
-737.054	800.000	0.061	0.182
-736.039	185.610	-0.275	-0.412
-735.025	800.000	0.024	0.068
-734.010	-148.529	-0.092	0.008
-732.996	-119.204	0.165	0.029
-731.981	-71.005	-0.320	0.121
-730.966	-17.714	-0.082	0.052
-729.952	13.414	-0.152	-0.119
-728.937	-98.218	-0.285	-0.074
-727.923	-57.220	-0.272	0.121
-726.908	-138.089	-0.094	-0.011
-725.894	-200.000	-0.016	0.085
-724.879	10.683	-0.186	-0.143
-723.864	270.163	0.081	-0.144
-722.850	66.794	0.155	0.159
-721.835	-200.000	-0.025	-0.159
-720.821	295.037	0.060	-0.111
-719.806	411.773	-0.018	0.038
-718.791	800.000	-0.081	0.252
-717.777	-200.000	-0.027	0.168
-716.762	-200.000	-0.008	0.233
-715.748	-200.000	-0.039	-0.358
-714.733	347.899	0.126	-0.251
-713.718	800.000	0.070	-0.254
-712.704	-200.000	-0.008	-0.252
-711.689	30.950	0.322	0.279
-710.675	217.816	-0.099	-0.159
-709.660	168.179	0.224	0.322
-708.645	-54.966	0.275	-0.125
-707.631	38.361	0.197	-0.177
-706.616	-69.498	-0.071	0.027
-705.602	175.235	0.094	-0.138
-704.587	43.722	-0.148	-0.137
-703.572	174.348	0.330	0.481
-702.558	91.512	-0.067	-0.076
-701.543	-178.996	-0.219	-0.005
-700.529	-185.250	-0.214	0.003
-699.514	106.144	-0.088	0.105
-698.499	100.239	-0.227	-0.265
-697.485	800.000	0.018	-0.062
-696.470	79.835	0.193	-0.209
-695.456	217.106	-0.134	-0.215
-694.441	800.000	-0.045	-0.165
-693.426	124.706	0.223	-0.283
-692.412	-12.597	-0.059	-0.039
-691.397	140.042	-0.167	0.222
-690.383	-200.000	-0.003	0.235
-689.368	270.291	-0.153	0.271
-688.354	800.000	0.051	-0.217
-687.339	205.849	-0.223	-0.349
-686.324	-81.904	-0.093	0.031
-685.310	302.810	0.090	0.169
-684.295	-127.811	0.183	-0.027
-683.281	-193.022	0.024	0.000
-682.266	800.000	-0.059	0.187
-681.251	-200.000	0.036	-0.169
-680.237	-22.794	0.280	-0.170
-679.222	15.161	-0.127	-0.100
-678.208	43.439	0.078	0.072
-677.193	-200.000	-0.008	-0.095
-676.178	-142.686	0.198	0.020
-675.164	-69.349	-0.098	0.038
-674.149	-73.254	0.075	0.028
-673.135	599.911	-0.105	0.263
-672.120	-12.310	-0.141	0.093
-671.105	-37.027	0.189	0.102
-670.091	62.131	0.144	0.144
-669.076	-6.219	0.130	0.089
-668.062	-155.542	0.138	0.009
-667.047	36.850	-0.076	0.068
-666.032	-57.119	0.266	0.118
-665.018	621.128	-0.180	0.456
-664.003	800.000	0.014	-0.052
-662.989	-200.000	-0.016	0.174
-661.974	26.504	-0.131	0.111
-660.959	50.552	-0.084	-0.080
-659.945	-114.009	-0.357	0.070
-658.930	58.442	-0.097	-0.096
-657.916	-200.000	0.003	-0.030
-656.901	-61.702	0.118	-0.050
-655.886	-7.659	-0.209	0.142
-654.872	-57.105	0.210	-0.093
-653.857	65.989	-0.185	0.189
-652.843	-35.002	-0.099	0.054
-651.828	-44.542	0.060	-0.030
-650.814	-77.458	-0.036	0.013
-649.799	-92.876	-0.222	-0.062
-648.784	-200.000	-0.002	-0.028
-647.770	800.000	-0.042	-0.121
-646.755	125.805	0.062	-0.079
-645.741	-65.084	-0.157	0.064
-644.726	25.805	0.078	0.065
-643.711	-50.413	-0.100	-0.048
-642.697	24.268	-0.041	0.034
-641.682	397.007	0.115	-0.241
-640.668	306.636	0.084	-0.157
-639.653	-200.000	0.034	-0.151
-638.638	-142.340	-0.448	-0.044
-637.624	-96.968	0.083	-0.022
-636.609	263.670	0.093	0.162
-635.595	800.000	0.042	-0.120
-634.580	183.149	-0.170	0.253
-633.565	-150.437	-0.207	0.016
-632.551	-86.278	-0.375	-0.116
-631.536	-55.489	0.214	-0.097
-630.522	800.000	-0.054	0.208
-629.507	379.095	-0.155	-0.319
-628.492	447.251	-0.023	0.051
-627.478	10.568	-0.274	-0.210
-626.463	800.000	-0.206	-0.574
-625.449	-55.678	-0.104	-0.047
-624.434	-129.464	0.264	0.037
-623.419	-99.437	0.148	-0.038
-622.405	-62.548	0.305	0.127
-621.390	-47.825	-0.038	-0.019
-620.376	800.000	-0.097	0.325
-619.361	-116.688	0.240	-0.044
-618.346	-89.583	-0.079	-0.023
-617.332	108.098	0.046	-0.056
-616.317	240.730	-0.111	0.187
-615.303	-97.333	0.136	-0.036
-614.288	179.100	-0.178	-0.261
-613.273	800.000	0.100	-0.302
-612.259	-13.320	-0.284	0.185
-611.244	173.011	0.131	0.190
-610.230	18.052	0.072	0.058
-609.215	330.715	0.099	-0.192
-608.201	-32.519	-0.197	0.111
-607.186	-110.089	0.087	-0.018
-606.171	193.259	0.135	-0.205
-605.157	800.000	0.061	-0.181
-604.142	176.764	0.064	-0.093
-603.128	-83.196	0.055	0.018
-602.113	594.669	-0.050	0.123
-601.098	176.817	-0.242	0.354
-600.084	-8.992	-0.327	0.220
-599.069	-134.947	0.621	0.075
-598.055	800.000	0.050	0.179
-597.040	-58.498	-0.127	0.055
-596.025	306.405	0.049	0.091
-595.011	270.711	0.130	0.229
-593.996	788.890	-0.086	-0.238
-592.982	-86.091	0.194	0.060
-591.967	800.000	-0.013	-0.046
-590.952	-91.484	0.421	-0.120
-589.938	-174.339	-0.294	0.009
-588.923	104.459	0.085	-0.100
-587.909	-71.357	-0.144	0.054
-586.894	133.334	-0.093	0.121
-585.879	-96.382	0.170	-0.045
-584.865	-66.506	-0.285	0.114
-583.850	-200.000	-0.040	-0.222
-582.836	163.054	-0.069	0.097
-581.821	-175.872	0.164	-0.004
-580.806	-21.971	-0.252	0.154
-579.792	-85.542	-0.496	-0.155
-578.777	-39.350	0.151	0.079
-577.763	-123.994	-0.084	0.013
-576.748	0.705	-0.102	0.073
-575.733	-77.524	0.178	-0.062
-574.719	-3.030	0.096	0.067
-573.704	800.000	0.103	-0.311
-572.690	-1.989	0.391	-0.275
-571.675	-178.857	0.186	-0.004
-570.661	77.484	-0.121	-0.129
-569.646	-96.776	-0.177	-0.047
-568.631	-16.636	-0.278	-0.177
-567.617	-138.256	-0.090	0.010
-566.602	-19.081	0.036	-0.022
-565.588	192.954	0.092	0.140
-564.573	-136.985	-0.121	0.014
-563.558	367.300	-0.048	0.098
-562.544	135.478	-0.110	-0.143
-561.529	-115.477	-0.082	-0.016
-560.515	471.523	0.101	0.228
-559.500	-200.000	-0.021	-0.113
-558.485	-36.706	-0.194	-0.105
-557.471	-93.947	0.170	-0.047
-556.456	-92.843	-0.182	0.051
-555.442	-60.586	-0.240	-0.102
-554.427	-102.764	0.255	-0.061
-553.412	393.169	-0.139	-0.289
-552.398	346.074	0.194	-0.382
-551.383	-131.650	0.321	0.042
-550.369	-177.533	-0.070	0.002
-549.354	168.833	0.127	-0.181
-548.339	64.576	-0.126	-0.127
-547.325	-200.000	0.029	-0.244
-546.310	-93.615	-0.405	-0.112
-545.296	800.000	0.098	0.341
-544.281	144.835	0.221	0.296
-543.266	-1.274	0.117	-0.083
-542.252	14.938	0.076	-0.059
-541.237	-33.605	0.143	0.079
-540.223	-39.164	-0.245	0.129
-539.208	-62.355	-0.404	0.169
-538.193	-82.037	0.206	0.067
-537.179	-54.950	-0.144	0.065
-536.164	131.453	-0.052	0.066
-535.150	-189.209	-0.043	0.001
-534.135	-200.000	0.056	0.417
-533.121	55.577	0.137	0.133
-532.106	-200.000	-0.066	0.414
-531.091	-147.352	0.216	-0.018
-530.077	-200.000	-0.021	-0.462
-529.062	141.490	0.098	0.130
-528.048	-200.000	-0.012	-0.334
-527.033	-43.491	0.153	0.077
-526.018	-200.000	0.024	0.272
-525.004	-85.983	-0.182	0.056
-523.989	800.000	0.065	0.263
-522.975	349.552	-0.091	-0.179
-521.960	437.935	0.134	-0.293
-520.945	-139.496	0.287	-0.031
-519.931	-24.670	0.021	0.012
-518.916	53.681	-0.407	-0.391
-517.902	37.928	-0.179	-0.159
-516.887	315.225	0.032	0.060
-515.872	-200.000	-0.017	-0.107
-514.858	298.019	-0.182	-0.335
-513.843	27.657	-0.123	-0.103
-512.829	-114.671	0.101	0.019
-511.814	329.655	0.066	-0.127
-510.799	-80.238	0.301	0.101
-509.785	28.602	-0.073	-0.062
-508.770	-200.000	-0.034	-0.235
-507.756	-129.183	-0.247	0.034
-506.741	-200.000	0.021	-0.223
-505.726	-200.000	0.060	0.343
-504.712	-200.000	-0.031	0.266
-503.697	-9.506	0.323	0.215
-502.683	800.000	-0.059	-0.209
-501.668	-81.917	0.187	-0.061
-500.653	787.489	-0.078	0.215
-499.639	-84.493	-0.105	-0.033
-498.624	50.484	0.123	0.116
-497.610	405.272	0.111	-0.235
-496.595	-52.485	-0.156	0.072
-495.581	-106.759	0.208	-0.046
-494.566	-200.000	-0.011	0.320
-493.551	-165.785	-0.312	0.013
-492.537	800.000	-0.094	-0.271
-491.522	133.606	0.166	0.215
-490.508	800.000	-0.055	-0.230
-489.493	70.400	0.041	0.042
-488.478	-0.412	-0.103	-0.073
-487.464	27.811	-0.091	0.077
-486.449	800.000	0.041	0.170
-485.435	497.508	-0.114	-0.262
-484.420	-200.000	0.018	-0.386
-483.405	800.000	0.049	0.179
-482.391	191.924	-0.149	0.224
-481.376	-64.668	0.137	-0.056
-480.362	-75.379	-0.129	-0.046
-479.347	252.538	-0.098	0.166
-478.332	-80.112	0.245	0.082
-477.318	97.784	-0.164	0.188
-476.303	800.000	-0.052	-0.182
-475.289	-13.038	-0.091	-0.059
-474.274	-169.175	0.058	0.002
-473.259	-90.310	0.568	-0.165
-472.245	-200.000	-0.002	0.097
-471.230	561.023	-0.101	0.244
-470.216	-142.437	-0.447	-0.044
-469.201	-200.000	0.020	0.471
-468.186	155.054	0.154	-0.212
-467.172	800.000	0.099	0.345
-466.157	-200.000	-0.029	0.170
-465.143	-200.000	-0.042	-0.286
-464.128	-19.937	0.060	-0.037
-463.113	54.179	0.152	-0.146
-462.099	-200.000	0.009	0.059
-461.084	-200.000	-0.043	-0.201
-460.070	318.418	0.161	0.305
-459.055	113.427	0.073	-0.088
-458.040	368.213	0.016	-0.032
-457.026	18.203	-0.319	-0.254
-456.011	-4.820	0.208	0.143
-454.997	-59.477	-0.281	-0.120
-453.982	750.381	-0.081	-0.218
-452.968	443.609	-0.119	0.260
-451.953	490.285	-0.188	0.430
-450.938	-22.876	-0.270	-0.162
-449.924	363.573	-0.048	-0.096
-448.909	-200.000	-0.007	0.456
-447.895	-105.412	0.124	-0.028
-446.880	-77.697	0.364	0.126
-445.865	74.018	0.089	-0.093
-444.851	32.749	-0.148	0.128
-443.836	-200.000	-0.050	-0.244
-442.822	-200.000	0.035	-0.171
-441.807	-147.725	0.190	0.016
-440.792	706.725	-0.044	-0.115
-439.778	-51.929	0.065	0.030
-438.763	537.832	-0.141	0.335
-437.749	-181.323	-0.230	-0.005
-436.734	-18.447	-0.292	0.182
-435.719	86.601	-0.194	-0.214
-434.705	-120.724	0.080	-0.014
-433.690	-200.000	-0.043	0.189
-432.676	-200.000	0.025	0.294
-431.661	800.000	0.118	0.340
-430.646	148.105	-0.155	0.208
-429.632	629.297	0.026	-0.065
-428.617	4.794	0.174	-0.128
-427.603	800.000	-0.026	0.080
-426.588	-60.927	0.198	-0.084
-425.573	-200.000	0.045	0.237
-424.559	151.306	-0.107	0.145
-423.544	-69.308	-0.284	-0.109
-422.530	48.733	-0.117	-0.110
-421.515	800.000	0.099	-0.373
-420.500	-130.658	-0.253	-0.034
-419.486	-200.000	-0.043	0.241
-418.471	-130.558	0.280	-0.038
-417.457	201.895	-0.119	0.184
-416.442	-200.000	-0.077	-0.357
-415.428	800.000	0.104	-0.434
-414.413	-200.000	0.021	0.250
-413.398	-127.407	-0.252	0.037
-412.384	-155.918	-0.296	-0.019
-411.369	-158.545	-0.241	0.014
-410.355	143.391	-0.185	0.246
-409.340	-200.000	0.058	0.262
-408.325	-142.980	-0.313	-0.030
-407.311	-200.000	-0.026	0.177
-406.296	-1.219	-0.057	-0.040
-405.282	-134.691	0.434	0.053
-404.267	-200.000	0.007	-0.080
-403.252	257.704	0.069	0.119
-402.238	-52.437	-0.066	-0.030
-401.223	261.548	-0.120	-0.207
-400.209	469.598	-0.092	-0.205
-399.194	52.885	0.242	0.231
-398.179	-81.433	0.001	-0.000
-397.165	-92.104	-0.185	-0.052
-396.150	-32.823	-0.266	0.147
-395.136	7.749	0.204	-0.152
-394.121	222.774	-0.132	-0.212
-393.106	128.454	0.117	-0.149
-392.092	-54.717	0.075	0.034
-391.077	-167.939	0.161	0.006
-390.063	-32.824	0.172	-0.095
-389.048	83.041	-0.136	0.148
-388.033	-71.993	0.163	-0.060
-387.019	365.312	0.152	-0.306
-386.004	766.015	0.058	0.157
-384.990	8.113	0.132	0.099
-383.975	14.619	0.079	-0.062
-382.960	18.822	-0.119	0.095
-381.946	-128.991	-0.257	0.036
-380.931	419.703	-0.109	0.233
-379.917	44.703	0.153	0.140
-378.902	-200.000	-0.035	0.379
-377.888	-200.000	-0.026	-0.677
-376.873	-28.854	0.355	0.203
-375.858	-200.000	-0.009	0.251
-374.844	-123.864	-0.287	-0.045
-373.829	800.000	0.062	0.205
-372.815	100.886	0.046	-0.054
-371.800	21.899	-0.154	-0.125
-370.785	800.000	-0.046	-0.140
-369.771	-46.276	0.239	0.117
-368.756	201.596	0.188	0.288
-367.742	-62.388	-0.122	0.051
-366.727	-88.540	0.227	-0.067
-365.712	-126.668	0.497	-0.073
-364.698	726.056	0.076	-0.201
-363.683	195.001	-0.222	0.335
-362.669	-107.044	-0.112	-0.025
-361.654	43.456	0.224	-0.204
-360.639	-200.000	-0.001	-0.063
-359.625	-84.242	-0.169	0.053
-358.610	800.000	0.037	0.161
-357.596	-44.320	-0.206	0.103
-356.581	-200.000	-0.025	-0.184
-355.566	-200.000	0.102	-0.486
-354.552	-200.000	0.112	0.542
-353.537	800.000	-0.015	0.062
-352.523	96.524	-0.144	0.164
-351.508	-166.692	-0.398	0.016
-350.493	-200.000	-0.019	-0.210
-349.479	-200.000	-0.050	-0.308
-348.464	800.000	0.054	-0.163
-347.450	-61.965	-0.324	0.135
-346.435	128.201	-0.085	0.108
-345.420	-101.452	-0.330	0.080
-344.406	-71.865	0.202	0.075
-343.391	34.574	-0.179	0.156
-342.377	-47.298	-0.170	-0.082
-341.362	-87.766	-0.205	0.061
-340.348	-51.745	-0.216	-0.100
-339.333	-10.441	-0.267	-0.176
-338.318	447.937	-0.182	0.398
-337.304	-34.808	0.035	-0.019
-336.289	269.415	-0.094	-0.163
-335.275	-92.396	0.165	0.046
-334.260	-8.961	0.379	0.252
-333.245	-200.000	-0.063	-0.354
-332.231	331.902	0.174	0.334
-331.216	-49.438	-0.129	-0.061
-330.202	-200.000	-0.021	-0.125
-329.187	181.376	-0.163	-0.238
-328.172	800.000	-0.027	0.090
-327.158	-107.814	-0.215	0.047
-326.143	-28.755	-0.116	0.067
-325.129	-102.609	0.109	-0.026
-324.114	-70.471	0.230	-0.086
-323.099	800.000	0.065	0.179
-322.085	800.000	-0.102	-0.325
-321.070	-76.562	0.367	0.128
-320.056	73.012	-0.078	-0.081
-319.041	375.232	-0.074	-0.149
-318.026	-26.397	0.111	0.065
-317.012	-59.321	0.037	0.016
-315.997	56.587	0.170	-0.164
-314.983	169.024	-0.068	-0.096
-313.968	800.000	-0.085	-0.313
-312.953	-111.272	-0.104	0.021
-311.939	350.790	-0.140	-0.275
-310.924	-44.304	0.067	0.033
-309.910	173.159	0.195	-0.280
-308.895	-133.479	0.091	-0.011
-307.880	-4.808	-0.058	0.040
-306.866	-114.780	0.281	-0.053
-305.851	-200.000	0.012	0.134
-304.837	49.698	-0.305	0.285
-303.822	-134.049	0.108	-0.013
-302.807	800.000	0.129	-0.358
-301.793	501.948	0.111	0.255
-300.778	239.180	0.277	0.457
-299.764	-172.161	-0.211	-0.007
-298.749	-176.286	0.174	-0.005
-297.735	-115.765	-0.290	-0.054
-296.720	546.685	-0.098	-0.232
-295.705	200.508	-0.162	0.247
-294.691	800.000	-0.096	0.331
-293.676	-135.693	0.529	-0.062
-292.662	51.820	-0.277	0.261
-291.647	-60.952	0.417	0.175
-290.632	-52.453	-0.192	0.088
-289.618	-200.000	-0.043	-0.249
-288.603	-129.590	-0.377	-0.052
-287.589	-8.928	0.144	0.095
-286.574	800.000	-0.031	-0.133
-285.559	-75.448	-0.059	-0.021
-284.545	-22.581	-0.302	-0.181
-283.530	97.029	0.079	-0.090
-282.516	-200.000	-0.025	-0.266
-281.501	-37.154	-0.172	-0.091
-280.486	618.140	-0.010	-0.025
-279.472	326.979	-0.063	-0.119
-278.457	95.316	-0.221	-0.250
-277.443	-71.501	-0.234	-0.087
-276.428	190.606	0.108	-0.161
-275.413	-200.000	0.005	-0.199
-274.399	-200.000	-0.026	0.545
-273.384	331.957	-0.039	0.075
-272.370	800.000	0.054	0.154
-271.355	-47.134	0.171	-0.083
-270.340	-134.205	-0.182	0.022
-269.326	-29.185	-0.066	-0.037
-268.311	14.375	0.146	-0.113
-267.297	308.641	-0.021	0.039
-266.282	162.534	0.126	0.175
-265.267	-200.000	-0.028	0.303
-264.253	-105.456	0.418	0.094
-263.238	-165.182	-0.127	-0.006
-262.224	-200.000	0.019	-0.210
-261.209	266.581	0.147	-0.255
-260.195	-35.540	0.105	0.057
-259.180	-200.000	-0.031	-0.162
-258.165	107.066	0.153	0.180
-257.151	24.803	0.098	-0.081
-256.136	39.640	0.221	-0.196
-255.122	-91.209	-0.156	-0.044
-254.107	800.000	-0.095	-0.368
-253.092	52.597	0.165	-0.156
-252.078	25.440	-0.136	-0.112
-251.063	-34.011	0.071	-0.038
-250.049	130.002	0.113	0.143
-249.034	-50.215	0.355	0.166
-248.019	-88.923	-0.132	0.039
-247.005	16.730	-0.275	-0.215
-245.990	-34.500	0.188	0.102
-244.976	56.382	-0.080	0.077
-243.961	-131.877	0.119	0.015
-242.946	203.061	0.058	0.089
-241.932	21.093	-0.063	0.050
-240.917	181.615	-0.188	-0.274
-239.903	58.483	-0.137	-0.133
-238.888	-200.000	-0.012	-0.185
-237.873	-200.000	0.044	-0.220
-236.859	-143.164	0.166	-0.016
-235.844	102.874	0.069	-0.080
-234.830	27.112	-0.172	-0.143
-233.815	130.140	0.132	0.168
-232.800	-70.519	0.251	0.094
-231.786	-128.340	-0.205	0.029
-230.771	224.170	-0.088	-0.140
-229.757	800.000	-0.063	-0.190
-228.742	-4.334	-0.111	-0.076
-227.727	-51.903	0.197	0.091
-226.713	-159.957	-0.136	-0.007
-225.698	-112.964	-0.286	0.056
-224.684	154.578	0.262	0.356
-223.669	800.000	-0.154	0.497
-222.655	310.557	0.086	0.159
-221.640	-4.210	0.318	0.218
-220.625	-200.000	0.038	0.318
-219.611	-70.140	0.219	-0.082
-218.596	117.357	-0.155	0.188
-217.582	-24.653	0.223	-0.131
-216.567	-200.000	0.027	0.225
-215.552	-66.891	-0.246	0.096
-214.538	-156.261	0.364	0.023
-213.523	498.487	0.062	0.141
-212.509	90.080	-0.071	-0.079
-211.494	-16.530	0.139	0.087
-210.479	-32.047	0.182	0.100
-209.465	800.000	-0.039	-0.153
-208.450	194.924	0.091	-0.136
-207.436	-64.994	0.267	0.107
-206.421	226.138	0.174	0.280
-205.406	67.099	0.290	0.292
-204.392	392.208	0.021	0.044
-203.377	-200.000	0.021	-0.165
-202.363	800.000	0.070	-0.265
-201.348	51.408	0.197	-0.185
-200.333	-200.000	-0.010	0.066
-199.319	-45.339	0.330	0.162
-198.304	54.411	0.235	0.224
-197.290	208.652	-0.050	0.077
-196.275	148.452	-0.057	-0.077
-195.260	-89.428	0.248	-0.072
-194.246	800.000	0.101	0.383
-193.231	-104.144	0.166	0.038
-192.217	37.236	-0.356	0.312
-191.202	43.918	0.144	-0.130
-190.187	627.745	0.064	-0.160
-189.173	-200.000	0.009	0.060
-188.158	-200.000	0.009	-0.043
-187.144	-138.519	-0.193	-0.021
-186.129	-56.365	0.454	0.199
-185.114	-156.304	-0.246	0.015
-184.100	-71.514	-0.012	0.004
-183.085	422.518	0.052	-0.111
-182.071	-200.000	-0.037	0.254
-181.056	-200.000	-0.011	0.257
-180.042	-200.000	0.074	-0.348
-179.027	-78.275	-0.187	0.063
-178.012	-2.850	0.190	0.131
-176.998	-121.491	-0.297	-0.049
-175.983	-200.000	0.040	-0.268
-174.969	-107.281	0.131	0.029
-173.954	543.677	-0.078	0.183
-172.939	-200.000	0.069	0.487
-171.925	268.760	-0.210	-0.363
-170.910	-116.705	0.210	0.038
-169.896	-146.744	0.166	-0.014
-168.881	-200.000	-0.032	-0.345
-167.866	125.673	-0.172	-0.214
-166.852	133.609	0.103	-0.132
-165.837	-200.000	-0.000	-0.172
-164.823	-31.264	0.333	-0.185
-163.808	336.538	-0.118	0.225
-162.793	143.670	0.134	-0.176
-161.779	698.020	0.096	-0.249
-160.764	-200.000	0.006	0.182
-159.750	-153.099	0.226	0.016
-158.735	381.084	0.144	0.292
-157.720	-200.000	-0.025	0.122
-156.706	30.544	-0.258	-0.217
-155.691	-123.548	-0.248	0.039
-154.677	-97.760	0.366	0.093
-153.662	35.980	-0.140	-0.122
-152.647	-200.000	0.196	-0.001
-151.633	-142.381	0.031	-0.003
-150.618	-88.350	0.326	0.096
-149.604	118.904	0.187	-0.229
-148.589	260.389	0.122	0.208
-147.574	250.380	0.175	0.293
-146.560	237.557	0.025	-0.041
-145.545	800.000	0.068	-0.234
-144.531	-123.301	0.300	0.047
-143.516	-200.000	0.002	-0.085
-142.502	353.792	-0.106	0.208
-141.487	-7.755	-0.248	0.165
-140.472	75.668	-0.120	-0.125
-139.458	-200.000	0.086	-0.376
-138.443	167.139	0.215	0.301
-137.429	282.160	-0.047	0.083
-136.414	-200.000	0.009	0.067
-135.399	800.000	0.051	-0.152
-134.385	-200.000	-0.023	-0.205
-133.370	167.672	-0.154	-0.216
-132.356	-200.000	0.015	-0.247
-131.341	202.202	-0.074	-0.112
-130.326	142.061	-0.143	0.187
-129.312	-200.000	0.003	0.073
-128.297	800.000	-0.090	-0.354
-127.283	371.701	0.150	0.301
-126.268	-200.000	0.018	-0.084
-125.253	800.000	-0.052	0.220
-124.239	-200.000	0.048	-0.233
-123.224	-126.510	0.270	0.040
-122.210	-23.162	-0.145	-0.086
