DTS Sentinel unit serial number:	SN413079Multiplexer serial number:	ORYXHardware model number:	OX4-SRSoftware version number:	ORYX F/W v4.00 Oryx Data Collector v3.7.2.0data status	okinstallation	princeton_trtdifferential loss correction	single-endedforward channel	channel 3reverse channel	N/Adate	2019/09/12time	18:14:04forward acquisition time	15.00reverse acquisition time	0.00gamma	496.2192k internal	0.2316k external	0.2316temperature offset calibration	1.0097default loss term (dB/km)	0.3790temperature slope calibration	1.0000multiplexer offset coefficient	1.0000multiplexer slope coefficient	1.0000fibre end	0.00T internal ref (°C)	33.50T ext. ref 1 (°C)	2.98T ext. ref 2 (°C)	28.07length (m)	temperature (°C)	Stokes	anti-Stokes-747.200	-135.858	-0.175	-0.021
-746.185	-79.813	-0.300	-0.102
-745.171	800.000	0.161	0.624
-744.156	-120.824	-0.301	0.051
-743.142	594.868	0.219	0.549
-742.127	33.508	-0.515	-0.453
-741.112	546.633	0.135	0.327
-740.098	200.506	-0.340	-0.529
-739.083	-115.220	0.843	0.162
-738.069	304.593	-0.228	-0.429
-737.054	121.086	-0.420	-0.529
-736.039	800.000	-0.040	0.164
-735.025	90.041	-0.375	0.424
-734.010	-125.058	-0.525	0.082
-732.996	4.909	0.181	-0.135
-731.981	-10.587	0.856	-0.574
-730.966	7.023	0.333	0.251
-729.952	509.416	0.291	-0.686
-728.937	162.185	-0.369	-0.523
-727.923	-20.894	-0.315	-0.195
-726.908	-162.768	0.171	0.008
-725.894	-141.948	-0.463	0.047
-724.879	-200.000	-0.059	0.272
-723.864	-128.332	-0.583	-0.084
-722.850	130.311	0.592	-0.767
-721.835	-200.000	0.149	-0.819
-720.821	-136.244	-1.079	0.128
-719.806	-68.966	-0.524	-0.205
-718.791	41.774	0.370	0.339
-717.777	6.120	0.226	0.169
-716.762	509.600	-0.189	-0.444
-715.748	-60.389	0.340	-0.146
-714.733	24.073	0.291	-0.243
-713.718	-174.606	0.727	0.021
-712.704	-117.359	-0.553	0.101
-711.689	83.579	-0.476	0.525
-710.675	154.875	0.592	0.823
-709.660	41.814	0.141	-0.130
-708.645	90.414	-0.413	0.467
-707.631	-200.000	0.015	0.145
-706.616	28.754	0.161	-0.138
-705.602	-16.451	0.270	-0.173
-704.587	225.525	0.360	-0.590
-703.572	-5.191	0.281	-0.196
-702.558	75.710	-0.219	0.234
-701.543	-192.246	0.925	-0.009
-700.529	121.180	0.510	0.641
-699.514	-66.114	-0.322	0.130
-698.499	-110.801	-0.863	-0.180
-697.485	14.389	0.123	0.097
-696.470	-130.890	-0.823	0.111
-695.456	412.530	0.452	-0.971
-694.441	-6.082	0.490	-0.338
-693.426	453.870	-0.051	0.114
-692.412	-153.723	0.491	-0.034
-691.397	-116.943	-0.671	-0.124
-690.383	-61.875	-0.241	0.102
-689.368	228.933	0.091	0.151
-688.354	466.933	-0.319	0.723
-687.339	-18.387	-1.047	0.661
-686.324	347.903	0.571	1.138
-685.310	-200.000	0.028	-0.450
-684.295	-38.195	-0.920	0.493
-683.281	-23.746	-0.086	-0.052
-682.266	-200.000	-0.012	-0.360
-681.251	204.534	0.123	0.193
-680.237	800.000	0.088	0.309
-679.222	29.135	0.245	0.210
-678.208	-200.000	0.109	-0.526
-677.193	800.000	-0.310	-1.352
-676.178	-166.944	0.294	0.012
-675.164	-0.093	-0.248	-0.178
-674.149	109.392	-0.227	-0.275
-673.135	-11.460	-0.702	-0.466
-672.120	108.527	-0.399	0.481
-671.105	-26.324	0.413	0.245
-670.091	-148.003	-0.641	0.054
-669.076	-105.527	0.984	0.226
-668.062	-71.840	-0.351	0.132
-667.047	-23.615	0.548	-0.332
-666.032	-37.882	-0.694	0.373
-665.018	-141.491	-1.295	-0.132
-664.003	224.608	-0.046	-0.076
-662.989	62.870	-0.514	0.519
-661.974	-200.000	-0.057	-0.435
-660.959	-68.839	-0.204	-0.080
-659.945	156.389	0.249	0.347
-658.930	772.893	-0.186	-0.512
-657.916	435.851	0.326	-0.716
-656.901	451.006	-0.302	0.673
-655.886	61.976	0.117	-0.118
-654.872	-200.000	0.150	-0.815
-653.857	536.204	-0.171	-0.410
-652.843	13.698	0.450	-0.353
-651.828	800.000	0.066	-0.231
-650.814	800.000	0.142	-0.544
-649.799	-92.433	0.205	-0.058
-648.784	22.556	0.145	0.119
-647.770	-124.135	-1.457	0.231
-646.755	800.000	0.274	-0.835
-645.741	181.244	-0.262	-0.389
-644.726	-55.255	0.403	0.183
-643.711	61.055	0.614	-0.615
-642.697	-200.000	0.014	0.282
-641.682	-51.720	-0.534	0.251
-640.668	78.689	-0.218	-0.235
-639.653	800.000	0.063	0.226
-638.638	800.000	0.294	-0.899
-637.624	-200.000	0.199	0.934
-636.609	-173.368	-0.487	0.015
-635.595	29.311	-0.392	0.336
-634.580	-200.000	-0.069	0.384
-633.565	800.000	-0.129	-0.435
-632.551	13.080	0.278	-0.217
-631.536	-80.519	0.249	-0.084
-630.522	-99.265	-0.185	-0.047
-629.507	800.000	0.103	-0.322
-628.492	-200.000	-0.108	0.619
-627.478	-200.000	-0.073	0.606
-626.463	-172.843	0.496	0.016
-625.449	113.947	0.285	-0.350
-624.434	92.973	0.417	0.475
-623.419	722.929	-0.109	0.292
-622.405	800.000	0.215	0.601
-621.390	33.465	0.300	0.263
-620.376	412.886	0.330	-0.708
-619.361	-200.000	0.076	0.803
-618.346	78.139	0.527	0.567
-617.332	601.580	-0.108	-0.270
-616.317	-194.583	0.433	0.003
-615.303	-101.031	-0.543	0.134
-614.288	800.000	-0.128	0.496
-613.273	-119.556	0.509	0.089
-612.259	301.207	-0.547	1.017
-611.244	39.143	-0.123	-0.111
-610.230	-8.825	-0.621	0.420
-609.215	800.000	-0.202	-0.607
-608.201	9.013	-0.412	-0.313
-607.186	-164.204	0.184	0.009
-606.171	-42.514	0.878	-0.451
-605.157	-200.000	0.058	-0.345
-604.142	-200.000	0.020	0.286
-603.128	800.000	0.081	0.243
-602.113	156.512	0.377	-0.525
-601.098	-7.739	-0.759	-0.516
-600.084	139.133	0.522	-0.692
-599.069	-71.333	-0.677	0.256
-598.055	733.807	-0.169	-0.455
-597.040	-14.461	0.277	0.180
-596.025	-17.867	0.373	-0.235
-595.011	800.000	0.205	0.795
-593.996	-71.595	-0.181	-0.068
-592.982	-50.860	0.656	-0.311
-591.967	85.067	0.194	0.214
-590.952	-92.808	-0.735	0.207
-589.938	-66.185	0.692	0.278
-588.923	-200.000	0.050	0.776
-587.909	231.293	-0.009	-0.015
-586.894	527.278	-0.115	-0.272
-585.879	-77.918	0.805	-0.280
-584.865	-200.000	-0.138	1.126
-583.850	95.153	-0.218	-0.250
-582.836	37.374	0.567	0.506
-581.821	-200.000	-0.171	0.803
-580.806	-25.795	0.706	-0.419
-579.792	-79.304	0.387	0.132
-578.777	-200.000	0.926	0.003
-577.763	171.825	0.464	-0.671
-576.748	-200.000	0.097	-0.931
-575.733	-200.000	0.084	-0.539
-574.719	628.494	0.436	-1.110
-573.704	54.554	-0.493	0.478
-572.690	-17.930	-0.935	0.590
-571.675	800.000	-0.143	0.549
-570.661	-181.265	0.387	-0.008
-569.646	-116.112	-0.520	-0.097
-568.631	99.126	-0.448	0.520
-567.617	-78.129	0.584	0.202
-566.602	417.995	-0.172	-0.370
-565.588	-58.141	-0.481	0.211
-564.573	-18.406	0.393	-0.247
-563.558	-31.841	-0.485	0.273
-562.544	-161.842	0.126	0.006
-561.529	-200.000	0.010	-1.318
-560.515	13.150	-0.304	-0.237
-559.500	-116.505	0.680	-0.126
-558.485	-14.387	-0.833	0.539
-557.471	-200.000	-0.052	-0.845
-556.456	-28.204	0.610	-0.354
-555.442	-103.749	-0.314	0.074
-554.427	95.338	0.601	0.688
-553.412	-57.824	-0.617	0.271
-552.398	-200.000	-0.020	-0.180
-551.383	-25.545	-0.197	0.117
-550.369	-175.998	0.772	0.021
-549.354	-75.998	0.306	-0.109
-548.339	-76.753	-0.405	0.142
-547.325	145.278	0.296	0.399
-546.310	55.327	-0.941	-0.915
-545.296	71.879	-0.480	0.501
-544.281	11.249	-0.311	0.240
-543.266	23.484	0.920	0.761
-542.252	-200.000	0.127	0.676
-541.237	475.165	-0.221	0.501
-540.223	-197.954	-0.080	0.000
-539.208	-200.000	0.037	0.798
-538.193	-140.187	0.542	0.057
-537.179	-200.000	0.033	-0.796
-536.164	-115.415	0.659	-0.125
-535.150	800.000	0.128	-0.499
-534.135	142.833	-0.494	-0.660
-533.121	-153.043	0.751	-0.053
-532.106	356.571	-0.171	-0.342
-531.091	141.575	-0.427	-0.569
-530.077	415.075	-0.345	-0.738
-529.062	372.146	-0.203	0.415
-528.048	-47.041	0.334	-0.164
-527.033	202.042	-0.372	0.576
-526.018	-200.000	-0.040	-0.485
-525.004	-200.000	-0.012	-0.377
-523.989	149.370	0.461	-0.627
-522.975	800.000	0.054	0.156
-521.960	581.242	0.223	0.549
-520.945	36.410	-0.501	-0.444
-519.931	-200.000	0.021	-0.186
-518.916	359.582	0.161	0.322
-517.902	98.336	-0.629	0.728
-516.887	-140.998	-0.715	0.074
-515.872	800.000	-0.058	0.217
-514.858	-8.036	0.532	-0.360
-513.843	-160.248	0.454	0.025
-512.829	-200.000	0.072	0.319
-511.814	-28.557	0.755	0.436
-510.799	-200.000	0.113	-0.659
-509.785	77.041	-0.222	0.236
-508.770	65.855	0.236	-0.240
-507.756	-113.493	-0.386	-0.076
-506.741	548.676	-0.204	0.490
-505.726	-129.361	-0.416	0.058
-504.712	509.478	0.058	-0.135
-503.697	-151.745	-0.834	-0.062
-502.683	-156.112	-0.445	-0.028
-501.668	-200.000	0.055	-0.256
-500.653	-138.516	0.299	-0.033
-499.639	45.965	-0.468	-0.435
-498.624	-124.570	-0.159	-0.025
-497.610	290.075	-0.205	-0.374
-496.595	-151.117	-0.116	0.009
-495.581	-56.286	-0.266	0.118
-494.566	106.110	0.621	-0.738
-493.551	-200.000	0.075	-0.552
-492.537	-200.000	0.011	0.523
-491.522	65.516	-0.218	0.222
-490.508	39.032	-0.766	-0.687
-489.493	188.558	0.244	-0.366
-488.478	-83.383	-0.782	-0.251
-487.464	-13.118	0.944	0.615
-486.449	800.000	0.063	-0.219
-485.435	1.395	-0.393	0.283
-484.420	-64.941	0.229	-0.093
-483.405	-18.381	0.717	-0.449
-482.391	75.971	0.295	-0.312
-481.376	-149.407	0.413	0.033
-480.362	-171.295	0.458	-0.015
-479.347	197.073	-0.317	-0.484
-478.332	-125.059	0.630	-0.097
-477.318	498.821	0.058	-0.135
-476.303	41.036	-0.360	-0.326
-475.289	-129.716	-0.140	-0.019
-474.274	287.989	0.279	0.506
-473.259	178.809	-0.169	0.248
-472.245	47.744	-0.419	-0.392
-471.230	-200.000	0.083	-0.443
-470.216	-27.320	0.424	0.247
-469.201	-32.636	0.714	-0.398
-468.186	-37.900	0.639	-0.340
-467.172	21.574	-0.326	-0.265
-466.157	134.070	0.593	0.769
-465.143	-43.412	0.223	-0.113
-464.128	-101.963	-0.400	0.097
-463.113	17.555	-0.320	0.255
-462.099	88.489	0.561	0.625
-461.084	-126.707	0.324	-0.048
-460.070	74.476	-0.207	-0.218
-459.055	-200.000	0.119	-0.872
-458.040	17.363	-0.646	-0.514
-457.026	800.000	-0.035	-0.105
-456.011	-25.558	-0.188	-0.111
-454.997	-41.518	-0.381	-0.196
-453.982	-162.560	-0.654	0.032
-452.968	-117.630	0.217	0.039
-451.953	-19.974	0.019	-0.012
-450.938	-161.648	0.797	-0.041
-449.924	-1.108	-0.334	-0.236
-448.909	703.203	0.384	1.013
-447.895	800.000	0.024	-0.069
-446.880	-200.000	0.034	0.189
-445.865	-90.118	-0.697	0.203
-444.851	87.390	0.188	0.208
-443.836	-88.772	0.327	0.097
-442.822	55.227	-0.230	-0.223
-441.807	-9.335	-0.343	-0.229
-440.792	157.086	-0.299	-0.414
-439.778	-8.307	-0.069	0.047
-438.763	-200.000	0.010	0.309
-437.749	-108.211	0.552	0.119
-436.734	-200.000	-0.026	0.679
-435.719	664.420	0.241	0.623
-434.705	-12.455	-0.491	-0.321
-433.690	-110.278	-0.963	0.201
-432.676	385.986	0.251	0.518
-431.661	-20.287	0.935	-0.576
-430.646	-31.980	-0.998	0.559
-429.632	-49.417	-0.562	-0.268
-428.617	530.291	0.147	0.347
-427.603	-106.037	-0.826	-0.186
-426.588	170.453	0.310	0.444
-425.573	-108.551	0.131	-0.028
-424.559	227.202	0.197	0.320
-423.544	244.167	-0.493	0.828
-422.530	-121.197	0.350	-0.059
-421.515	-99.831	-0.228	0.057
-420.500	-74.435	-0.758	0.273
-419.486	35.328	-0.540	0.473
-418.471	800.000	0.035	0.132
-417.457	-200.000	-0.088	1.078
-416.442	-116.624	0.770	-0.142
-415.428	-200.000	-0.073	0.527
-414.413	-200.000	0.013	1.002
-413.398	-200.000	-0.006	-0.056
-412.384	-149.954	0.559	-0.044
-411.369	99.365	-0.507	0.586
-410.355	-44.574	-0.570	0.285
-409.340	16.256	0.261	-0.206
-408.325	800.000	-0.109	0.334
-407.311	-14.398	-0.281	-0.181
-406.296	134.808	0.459	0.596
-405.282	-147.239	-0.501	0.043
-404.267	-31.006	-0.576	0.325
-403.252	-200.000	-0.047	-0.621
-402.238	-200.000	-0.005	0.335
-401.223	21.586	-0.241	-0.196
-400.209	-9.211	0.781	-0.522
-399.194	-200.000	0.024	0.567
-398.179	-114.202	-0.400	0.077
-397.165	-55.819	0.093	-0.042
-396.150	-80.849	-1.011	0.335
-395.136	26.920	0.324	0.272
-394.121	-69.138	-0.633	0.243
-393.106	-200.000	0.004	0.272
-392.092	63.426	-0.160	-0.160
-391.077	247.175	-0.464	-0.783
-390.063	800.000	-0.073	-0.262
-389.048	52.138	-0.349	-0.332
-388.033	-200.000	0.068	0.439
-387.019	-167.805	0.260	-0.010
-386.004	-200.000	0.019	0.502
-384.990	800.000	0.104	-0.436
-383.975	-171.311	0.487	0.016
-382.960	312.555	-0.365	-0.684
-381.946	-200.000	0.061	0.556
-380.931	90.545	0.618	-0.691
-379.917	20.760	0.259	-0.209
-378.902	800.000	0.092	0.368
-377.888	-156.566	0.714	0.044
-376.873	146.644	0.311	-0.418
-375.858	-27.225	-0.333	-0.193
-374.844	119.887	0.308	0.381
-373.829	-200.000	0.142	0.713
-372.815	-200.000	-0.073	-0.702
-371.800	-200.000	-0.062	0.499
-370.785	20.366	-0.547	-0.441
-369.771	39.602	-0.228	-0.204
-368.756	-117.674	-0.480	-0.086
-367.742	539.540	-0.050	-0.119
-366.727	-71.971	-0.433	-0.161
-365.712	800.000	0.356	1.024
-364.698	167.568	0.266	-0.377
-363.683	-145.968	0.389	0.034
-362.669	-200.000	-0.036	0.721
-361.654	-200.000	0.015	-0.932
-360.639	-143.542	1.386	0.132
-359.625	-53.599	0.611	-0.279
-358.610	-90.475	-0.591	-0.171
-357.596	-50.815	-0.988	-0.463
-356.581	-200.000	-0.184	-0.855
-355.566	36.709	-0.220	-0.194
-354.552	-200.000	-0.037	0.560
-353.537	-200.000	-0.092	0.676
-352.523	-26.713	-0.672	0.392
-351.508	-91.306	-0.389	0.111
-350.493	-88.305	-0.436	0.130
-349.479	183.598	-0.028	-0.041
-348.464	-25.472	-0.496	0.292
-347.450	12.359	0.552	-0.424
-346.435	-200.000	-0.021	0.427
-345.420	-45.129	-0.043	-0.022
-344.406	234.430	-0.490	-0.805
-343.391	-78.621	-0.266	-0.091
-342.377	96.370	0.196	0.224
-341.362	18.701	-0.289	-0.230
-340.348	69.142	0.151	-0.154
-339.333	800.000	0.272	-1.176
-338.318	-200.000	-0.086	-0.787
-337.304	-65.427	0.762	0.305
-336.289	-60.110	-0.674	0.287
-335.275	-162.986	0.177	0.009
-334.260	-45.271	-0.264	-0.131
-333.245	169.508	-0.218	0.311
-332.231	-200.000	0.091	0.871
-331.216	-60.582	0.546	0.231
-330.202	36.402	0.655	0.576
-329.187	227.722	0.396	0.643
-328.172	-11.904	-0.394	-0.257
-327.158	24.402	-0.200	0.165
-326.143	294.048	-0.340	0.618
-325.129	-200.000	-0.011	-0.284
-324.114	281.754	0.196	0.349
-323.099	-200.000	0.029	0.397
-322.085	11.077	-0.655	0.499
-321.070	-200.000	-0.019	-0.221
-320.056	238.463	0.465	0.770
-319.041	16.757	-0.474	-0.374
-318.026	717.550	-0.134	0.355
-317.012	75.710	0.565	0.595
-315.997	-115.786	-0.291	0.054
-314.983	-180.538	0.419	-0.009
-313.968	218.359	0.202	-0.321
-312.953	27.588	-0.359	-0.301
-311.939	-24.760	-0.214	0.127
-310.924	-200.000	-0.034	0.258
-309.910	-200.000	-0.021	0.157
-308.895	-122.972	-0.873	-0.140
-307.880	-27.505	0.169	0.098
-306.866	-200.000	-0.090	-0.693
-305.851	19.577	-0.726	0.581
-304.837	100.442	-0.187	-0.216
-303.822	-157.716	-0.282	0.017
-302.807	266.610	-0.037	-0.064
-301.793	-200.000	-0.025	-0.521
-300.778	389.391	-0.198	-0.409
-299.764	135.870	0.310	0.402
-298.749	-114.500	-0.696	-0.133
-297.735	-142.235	-0.204	-0.020
-296.720	-183.228	0.274	-0.005
-295.705	800.000	-0.318	0.925
-294.691	-21.599	-0.287	0.174
-293.676	-131.499	0.621	0.082
-292.662	-27.929	-0.566	0.326
-291.647	354.625	0.275	-0.545
-290.632	-84.029	-0.956	-0.302
-289.618	7.465	0.206	-0.153
-288.603	-159.863	-0.110	-0.006
-287.589	-19.538	0.277	-0.171
-286.574	705.891	-0.066	-0.174
-285.559	-200.000	-0.014	0.547
-284.545	-200.000	-0.095	-0.490
-283.530	55.851	0.307	0.296
-282.516	-78.963	-0.139	0.047
-281.501	731.105	0.337	0.896
-280.486	220.308	-0.383	-0.610
-279.472	-200.000	-0.040	0.402
-278.457	-93.106	0.767	-0.212
-277.443	-30.066	0.517	0.293
-276.428	-50.832	0.823	-0.385
-275.413	-200.000	0.063	-0.453
-274.399	45.720	0.540	0.496
-273.384	-200.000	-0.012	-0.422
-272.370	26.281	0.094	0.078
-271.355	697.970	0.327	-0.855
-270.340	-200.000	0.120	-0.753
-269.326	72.050	-0.345	-0.357
-268.311	-152.965	-1.198	-0.084
-267.297	-138.681	-0.442	-0.048
-266.282	-200.000	-0.076	0.358
-265.267	-2.574	0.491	-0.342
-264.253	109.370	-0.473	0.563
-263.238	-60.897	0.564	-0.237
-262.224	31.496	-0.677	0.578
-261.209	-66.244	-0.295	0.117
-260.195	0.823	-0.053	0.038
-259.180	-200.000	-0.012	0.325
-258.165	9.488	-0.652	0.491
-257.151	151.819	0.344	0.467
-256.136	-182.415	0.365	-0.007
-255.122	109.779	-0.199	-0.237
-254.107	-113.351	0.554	0.108
-253.092	-22.862	0.591	0.355
-252.078	800.000	0.070	0.213
-251.063	-97.874	-1.193	0.306
-250.049	800.000	0.297	-1.075
-249.034	-15.206	0.805	0.512
-248.019	142.112	0.232	-0.306
-247.005	-200.000	-0.099	-0.598
-245.990	720.075	0.279	-0.736
-244.976	800.000	0.160	0.531
-243.961	-155.725	-0.349	-0.022
-242.946	-74.105	0.376	0.135
-241.932	684.913	-0.174	-0.451
-240.917	-35.067	0.577	0.312
-239.903	612.893	-0.235	-0.583
-238.888	-22.150	-0.422	0.255
-237.873	110.528	0.605	-0.722
-236.859	-144.922	0.597	-0.054
-235.844	148.952	0.494	-0.663
-234.830	102.135	0.477	-0.553
-233.815	800.000	0.219	-0.806
-232.800	505.499	-0.037	0.086
-231.786	-138.841	0.948	0.102
-230.771	800.000	0.077	0.323
-229.757	800.000	0.137	-0.482
-228.742	329.729	-0.131	-0.251
-227.727	201.242	0.243	-0.371
-226.713	-52.176	-0.842	-0.388
-225.698	5.377	-0.808	-0.591
-224.684	-41.983	0.688	-0.350
-223.669	121.169	0.065	-0.081
-222.655	193.711	-0.592	-0.890
-221.640	-10.933	0.365	-0.239
-220.625	133.613	-0.316	-0.405
-219.611	379.321	-0.560	-1.139
-218.596	-200.000	-0.089	-0.471
-217.582	42.391	-0.596	-0.538
-216.567	-200.000	-0.099	0.631
-215.552	-46.493	-0.599	0.291
-214.538	-200.000	0.059	0.881
-213.523	-64.336	0.814	-0.329
-212.509	-5.427	0.385	-0.262
-211.494	-84.856	-0.084	0.026
-210.479	67.443	0.298	0.302
-209.465	-12.026	0.809	0.526
-208.450	-200.000	0.103	0.550
-207.436	-131.184	0.494	-0.065
-206.421	-200.000	0.041	0.333
-205.406	-39.430	-0.399	0.207
-204.392	119.084	0.092	0.113
-203.377	679.750	-0.136	0.351
-202.363	31.689	0.248	-0.212
-201.348	-75.525	-0.632	0.223
-200.333	58.730	0.086	0.084
-199.319	-38.644	0.317	-0.166
-198.304	304.351	0.247	-0.455
-197.290	791.541	0.215	0.587
-196.275	-169.588	0.443	-0.016
-195.260	-94.471	0.627	-0.169
-194.246	-82.588	-0.308	-0.099
-193.231	81.581	0.603	-0.646
-192.217	-15.371	-0.237	-0.150
-191.202	-200.000	-0.071	0.861
-190.187	-200.000	0.051	-0.543
-189.173	-11.414	0.341	0.223
-188.158	-137.916	-0.442	0.049
-187.144	-200.000	0.057	0.872
-186.129	-200.000	0.007	0.784
-185.114	266.712	-0.199	-0.345
-184.100	-42.373	0.266	-0.134
-183.085	-98.728	-0.887	0.224
-182.071	-176.950	-0.374	-0.009
-181.056	14.598	0.386	0.299
-180.042	93.446	0.504	-0.566
-179.027	800.000	0.086	-0.273
-178.012	-64.829	0.707	-0.284
-176.998	173.717	0.545	0.780
-175.983	800.000	-0.092	-0.330
-174.969	35.374	0.365	0.317
-173.954	113.822	0.359	0.433
-172.939	-104.006	0.608	-0.140
-171.925	-200.000	-0.048	-0.321
-170.910	401.121	-0.134	0.278
-169.896	-10.716	0.536	0.351
-168.881	-200.000	-0.143	-0.809
-167.866	68.166	-0.595	-0.603
-166.852	-93.053	-0.673	0.186
-165.837	800.000	-0.322	-0.880
-164.823	-103.926	-0.140	0.032
-163.808	109.351	0.056	0.066
-162.793	312.723	0.192	0.357
-161.779	-3.832	0.173	-0.119
-160.764	-90.012	-0.465	-0.134
-159.750	-56.594	-0.464	0.203
-158.735	-7.521	-0.606	-0.406
-157.720	800.000	0.220	-0.837
-156.706	61.656	0.343	0.338
-155.691	109.728	-0.514	0.609
-154.677	108.026	-0.335	0.395
-153.662	-200.000	0.070	-0.419
-152.647	157.658	0.403	0.552
-151.633	469.044	-0.273	-0.607
-150.618	13.257	-0.353	0.271
-149.604	-200.000	-0.010	0.156
-148.589	34.579	-0.200	-0.173
-147.574	-30.685	0.397	-0.222
-146.560	125.483	-0.212	-0.265
-145.545	-40.938	-0.353	0.180
-144.531	-200.000	-0.137	0.893
-143.516	-200.000	-0.011	-0.181
-142.502	38.619	-0.544	0.480
-141.487	211.585	0.324	-0.504
-140.472	-149.166	0.875	0.069
-139.458	773.348	-0.069	0.187
-138.443	-200.000	-0.051	-0.436
-137.429	-28.529	0.163	0.093
-136.414	800.000	-0.376	-1.390
-135.399	5.833	-0.132	0.097
-134.385	800.000	-0.166	0.493
-133.370	-121.146	0.332	0.055
-132.356	-11.179	0.579	0.377
-131.341	-200.000	-0.069	0.526
-130.326	-200.000	0.097	-0.463
-129.312	-33.340	0.205	0.112
-128.297	44.305	-0.631	0.572
-127.283	509.409	0.139	-0.319
-126.268	583.931	0.266	0.646
-125.253	-157.902	-0.265	0.015
-124.239	423.302	0.189	0.402
-123.224	-57.485	0.490	-0.213
-122.210	295.530	0.156	0.283
-121.195	800.000	0.119	-0.333
