DTS Sentinel unit serial number:	SN413079Multiplexer serial number:	ORYXHardware model number:	OX4-SRSoftware version number:	ORYX F/W v4.00 Oryx Data Collector v3.7.2.0data status	okinstallation	princeton_trtdifferential loss correction	single-endedforward channel	channel 3reverse channel	N/Adate	2019/09/17time	17:48:35forward acquisition time	60.00reverse acquisition time	0.00gamma	496.2192k internal	0.2289k external	0.2289temperature offset calibration	0.9948default loss term (dB/km)	0.3790temperature slope calibration	1.0000multiplexer offset coefficient	1.0000multiplexer slope coefficient	1.0000fibre end	0.00T internal ref (°C)	43.44T ext. ref 1 (°C)	0.34T ext. ref 2 (°C)	38.71length (m)	temperature (°C)	Stokes	anti-Stokes-747.200	-83.984	0.085	-0.028
-746.185	-144.335	-0.247	0.024
-745.171	205.641	-0.056	-0.089
-744.156	-42.724	-0.159	0.083
-743.142	-118.447	-0.318	-0.058
-742.127	-200.000	-0.019	0.187
-741.112	195.039	-0.129	0.201
-740.098	122.257	-0.103	0.132
-739.083	-200.000	0.003	0.089
-738.069	800.000	0.009	0.029
-737.054	198.794	-0.019	0.030
-736.039	-37.731	-0.318	-0.173
-735.025	-73.032	-0.229	-0.086
-734.010	133.832	-0.177	-0.234
-732.996	-106.721	-0.154	0.035
-731.981	-134.703	-0.129	-0.016
-730.966	209.037	0.014	0.022
-729.952	-200.000	0.010	-0.274
-728.937	-200.000	-0.020	-0.428
-727.923	295.390	-0.091	-0.170
-726.908	209.432	-0.253	-0.406
-725.894	92.190	0.110	-0.127
-724.879	-120.825	-0.384	-0.066
-723.864	-55.710	-0.329	0.150
-722.850	0.534	0.070	0.051
-721.835	-136.634	0.417	0.049
-720.821	-115.995	-0.141	0.027
-719.806	-133.327	0.214	-0.028
-718.791	-148.743	0.194	-0.016
-717.777	-200.000	-0.038	-0.223
-716.762	-50.483	-0.141	-0.068
-715.748	-10.528	-0.224	-0.152
-714.733	-78.746	0.228	0.080
-713.718	800.000	0.024	0.097
-712.704	47.475	-0.109	0.104
-711.689	31.237	0.214	0.188
-710.675	-44.684	-0.180	-0.092
-709.660	-14.617	-0.249	0.164
-708.645	-24.948	0.123	0.074
-707.631	-200.000	0.004	-0.039
-706.616	-200.000	-0.006	-0.199
-705.602	39.361	0.125	-0.115
-704.587	-27.897	-0.178	0.105
-703.572	209.459	-0.057	-0.092
-702.558	800.000	0.038	-0.108
-701.543	510.774	0.036	0.086
-700.529	-32.425	-0.031	-0.018
-699.514	-47.011	0.069	0.035
-698.499	124.240	-0.159	0.204
-697.485	172.953	0.127	0.188
-696.470	-47.525	-0.321	-0.159
-695.456	195.624	0.210	0.327
-694.441	800.000	-0.132	0.384
-693.426	-123.316	-0.367	0.060
-692.412	219.729	0.082	0.134
-691.397	53.368	-0.141	-0.138
-690.383	106.297	0.027	0.033
-689.368	-136.700	-0.255	0.030
-688.354	800.000	-0.039	-0.118
-687.339	-69.348	-0.108	0.042
-686.324	-109.816	-0.228	-0.049
-685.310	-107.572	-0.261	0.058
-684.295	-9.339	-0.158	0.108
-683.281	-200.000	0.208	-0.000
-682.266	88.495	-0.048	-0.054
-681.251	800.000	0.079	-0.330
-680.237	-109.362	-0.160	-0.035
-679.222	-153.049	0.124	-0.009
-678.208	159.123	0.134	-0.190
-677.193	-67.207	0.238	-0.096
-676.178	-200.000	-0.012	0.264
-675.164	23.475	-0.064	-0.054
-674.149	-200.000	0.007	0.065
-673.135	-77.861	0.144	-0.051
-672.120	-91.976	-0.090	0.026
-671.105	474.946	0.093	0.214
-670.091	674.058	-0.150	0.399
-669.076	-11.287	0.308	0.208
-668.062	224.044	-0.131	0.216
-667.047	-60.651	0.163	0.071
-666.032	800.000	-0.133	0.414
-665.018	-4.849	-0.209	0.147
-664.003	-122.876	-0.068	-0.011
-662.989	-70.264	-0.084	0.032
-661.974	33.616	-0.239	0.212
-660.959	138.266	-0.048	0.065
-659.945	-137.479	-0.323	-0.037
-658.930	-200.000	0.033	0.226
-657.916	405.728	-0.124	0.268
-656.901	104.574	-0.075	-0.091
-655.886	289.484	-0.154	0.286
-654.872	81.214	-0.172	-0.189
-653.857	-200.000	0.004	-0.019
-652.843	-200.000	-0.011	0.084
-651.828	-200.000	0.015	-0.246
-650.814	-75.865	0.117	-0.042
-649.799	800.000	0.056	-0.195
-648.784	86.350	0.135	0.152
-647.770	-30.456	0.103	0.059
-646.755	576.418	-0.094	0.236
-645.741	-169.976	0.188	0.007
-644.726	800.000	0.067	-0.282
-643.711	-200.000	-0.005	0.318
-642.697	800.000	-0.043	0.182
-641.682	-7.832	-0.221	0.152
-640.668	-130.466	-0.384	0.053
-639.653	-1.680	0.178	-0.128
-638.638	83.155	0.112	-0.124
-637.624	-200.000	-0.039	-0.401
-636.609	-122.165	-0.445	0.074
-635.595	144.826	-0.113	0.154
-634.580	-156.451	0.097	0.006
-633.565	-186.666	-0.023	0.000
-632.551	381.189	-0.153	-0.321
-631.536	-117.226	-0.218	-0.040
-630.522	-200.000	-0.019	0.163
-629.507	-138.688	-0.248	-0.028
-628.492	239.277	-0.080	0.136
-627.478	-111.445	0.368	0.076
-626.463	138.059	-0.228	0.305
-625.449	-200.000	0.177	0.000
-624.434	-200.000	0.076	-0.414
-623.419	-136.105	-0.222	-0.027
-622.405	168.261	0.096	0.140
-621.390	34.172	-0.189	-0.168
-620.376	445.078	0.075	0.168
-619.361	42.091	-0.033	0.031
-618.346	139.252	0.181	0.243
-617.332	476.180	0.101	-0.233
-616.317	-187.182	-0.168	0.002
-615.303	-196.123	-0.297	0.002
-614.288	-200.000	-0.011	0.203
-613.273	-59.777	0.036	0.016
-612.259	-48.146	-0.283	-0.139
-611.244	-55.433	-0.356	-0.163
-610.230	-200.000	-0.304	-0.001
-609.215	-161.552	-0.090	-0.005
-608.201	723.488	-0.073	-0.198
-607.186	800.000	-0.083	0.254
-606.171	248.233	-0.186	-0.320
-605.157	-194.776	0.089	-0.001
-604.142	134.001	-0.230	-0.303
-603.128	60.123	-0.057	-0.057
-602.113	-88.313	0.124	0.038
-601.098	32.574	-0.093	0.082
-600.084	450.334	0.026	0.059
-599.069	-200.000	-0.032	0.158
-598.055	85.763	0.144	0.161
-597.040	-76.589	-0.103	-0.037
-596.025	-189.674	-0.276	0.003
-595.011	-9.176	-0.260	0.177
-593.996	150.658	-0.107	0.148
-592.982	216.585	0.072	0.117
-591.967	-200.000	-0.036	-0.277
-590.952	266.569	0.079	0.141
-589.938	-89.862	0.186	-0.055
-588.923	-78.895	0.203	0.070
-587.909	800.000	-0.019	0.053
-586.894	319.276	0.058	0.112
-585.879	-200.000	0.020	0.118
-584.865	108.652	-0.171	0.208
-583.850	269.343	0.084	0.150
-582.836	25.094	0.225	-0.190
-581.821	96.836	0.092	-0.107
-580.806	-57.098	0.111	0.050
-579.792	-52.372	0.257	0.121
-578.777	205.441	0.092	-0.145
-577.763	-41.390	0.261	-0.137
-576.748	533.251	0.129	0.310
-575.733	-113.885	0.077	-0.015
-574.719	570.343	0.057	0.140
-573.704	95.746	0.028	0.033
-572.690	-68.448	-0.069	0.027
-571.675	-141.834	-0.098	-0.010
-570.661	-73.733	0.081	0.030
-569.646	-111.710	0.469	0.097
-568.631	-59.030	0.091	-0.040
-567.617	-89.377	-0.366	0.110
-566.602	169.390	0.253	-0.368
-565.588	-200.000	0.002	-0.114
-564.573	444.788	-0.096	0.215
-563.558	173.702	0.105	-0.154
-562.544	-78.117	-0.240	-0.084
-561.529	-200.000	0.055	0.303
-560.515	-78.015	-0.114	0.040
-559.500	206.750	-0.148	-0.234
-558.485	800.000	-0.056	-0.193
-557.471	77.085	-0.190	0.206
-556.456	-63.472	0.078	-0.033
-555.442	83.223	0.190	-0.210
-554.427	766.380	0.058	-0.160
-553.412	69.994	-0.292	-0.306
-552.398	800.000	-0.064	-0.213
-551.383	166.797	-0.070	0.101
-550.369	104.221	0.168	-0.201
-549.354	-79.162	-0.183	-0.063
-548.339	-200.000	-0.007	-0.209
-547.325	-61.899	-0.140	-0.059
-546.310	-70.874	-0.296	-0.113
-545.296	-80.566	0.241	0.082
-544.281	166.676	0.123	-0.177
-543.266	788.410	0.103	0.288
-542.252	24.525	0.164	-0.138
-541.237	-77.790	-0.292	0.103
-540.223	-200.000	-0.027	-0.293
-539.208	-9.853	-0.135	-0.091
-538.193	-97.025	0.287	-0.076
-537.179	84.005	0.142	-0.158
-536.164	175.289	-0.063	-0.093
-535.150	112.795	-0.110	-0.135
-534.135	-200.000	0.001	-0.337
-533.121	-67.533	0.134	0.053
-532.106	174.494	0.124	0.182
-531.091	442.111	0.084	0.187
-530.077	-4.066	-0.091	0.064
-529.062	-200.000	0.019	0.499
-528.048	800.000	0.028	-0.087
-527.033	-182.972	-0.141	-0.003
-526.018	88.320	-0.348	0.392
-525.004	-51.597	0.210	0.099
-523.989	283.321	0.198	-0.360
-522.975	-112.500	-0.163	-0.033
-521.960	-58.463	0.434	-0.192
-520.945	104.098	0.195	0.233
-519.931	613.922	0.043	0.108
-518.916	-76.300	-0.023	0.008
-517.902	-97.288	-0.195	0.052
-516.887	-23.376	-0.209	0.127
-515.872	-124.806	-0.588	-0.092
-514.858	573.694	-0.163	-0.404
-513.843	800.000	0.054	0.205
-512.829	69.192	-0.135	-0.141
-511.814	-89.584	0.197	0.059
-510.799	-22.863	-0.191	0.117
-509.785	-200.000	-0.003	-0.067
-508.770	611.500	0.064	0.163
-507.756	352.748	0.091	0.182
-506.741	299.020	-0.095	0.178
-505.726	160.370	-0.130	-0.184
-504.712	192.019	0.125	0.191
-503.697	800.000	0.161	-0.503
-502.683	-177.750	-0.213	-0.005
-501.668	34.098	-0.141	-0.125
-500.653	59.798	-0.175	-0.175
-499.639	4.977	0.166	-0.124
-498.624	-17.503	-0.349	0.223
-497.610	12.504	0.131	-0.103
-496.595	320.289	-0.077	-0.148
-495.581	20.138	0.174	-0.142
-494.566	390.738	-0.173	-0.364
-493.551	-4.694	-0.383	0.268
-492.537	-88.195	0.292	0.089
-491.522	-111.369	0.200	-0.041
-490.508	125.708	0.132	-0.169
-489.493	-5.802	-0.205	-0.142
-488.478	-64.617	0.296	0.122
-487.464	218.419	-0.212	0.343
-486.449	-76.478	-0.076	-0.027
-485.435	552.403	0.045	-0.111
-484.420	-87.697	-0.156	-0.048
-483.405	-32.204	-0.136	0.077
-482.391	-101.430	-0.152	0.037
-481.376	0.103	-0.255	0.184
-480.362	63.349	0.225	0.229
-479.347	-200.000	0.056	0.444
-478.332	7.749	-0.110	-0.083
-477.318	800.000	0.156	0.530
-476.303	800.000	0.008	-0.035
-475.289	-200.000	-0.016	-0.538
-474.274	-149.189	-0.134	-0.011
-473.259	-72.763	-0.147	-0.055
-472.245	-43.080	-0.237	-0.122
-471.230	-175.398	0.036	-0.001
-470.216	-107.646	-0.211	-0.047
-469.201	-200.000	0.057	0.423
-468.186	-47.514	0.035	0.017
-467.172	-60.449	0.300	0.129
-466.157	-200.000	-0.008	0.162
-465.143	402.681	-0.160	-0.342
-464.128	-86.261	0.363	0.113
-463.113	154.958	-0.073	0.102
-462.099	-137.150	0.228	0.026
-461.084	800.000	-0.088	-0.383
-460.070	-200.000	0.020	-0.150
-459.055	-200.000	0.023	-0.183
-458.040	-143.275	-0.292	0.028
-457.026	-138.299	0.239	0.027
-456.011	678.556	0.073	0.192
-454.997	-112.893	0.255	0.051
-453.982	-47.408	0.108	-0.053
-452.968	-37.371	0.185	0.100
-451.953	-144.182	-0.069	0.006
-450.938	277.698	-0.112	0.202
-449.924	-157.354	0.349	0.021
-448.909	-200.000	0.082	-0.391
-447.895	-200.000	-0.022	0.133
-446.880	800.000	-0.044	-0.191
-445.865	35.700	0.128	0.114
-444.851	-160.897	-0.238	-0.013
-443.836	132.836	0.031	-0.040
-442.822	54.702	0.142	-0.139
-441.807	-200.000	-0.027	0.157
-440.792	800.000	0.131	0.427
-439.778	-70.585	0.193	-0.074
-438.763	-200.000	0.008	-0.292
-437.749	233.033	0.175	0.291
-436.734	380.072	-0.148	0.308
-435.719	800.000	-0.107	0.328
-434.705	-200.000	0.044	-0.241
-433.690	361.272	-0.009	0.018
-432.676	122.931	0.266	0.338
-431.661	-42.547	0.054	-0.028
-430.646	-152.978	0.307	-0.022
-429.632	-11.130	0.050	-0.033
-428.617	-18.711	0.121	-0.076
-427.603	108.976	0.282	0.341
-426.588	-98.363	-0.147	-0.038
-425.573	220.692	-0.223	-0.362
-424.559	255.847	0.134	0.232
-423.544	-200.000	-0.038	-0.264
-422.530	-114.750	-0.195	-0.038
-421.515	260.013	-0.112	-0.196
-420.500	800.000	-0.041	-0.149
-419.486	-87.163	0.315	0.097
-418.471	800.000	-0.063	0.189
-417.457	72.024	-0.091	-0.095
-416.442	-32.378	0.090	-0.051
-415.428	-200.000	0.009	-0.121
-414.413	-164.800	0.030	0.001
-413.398	-180.212	0.019	0.000
-412.384	-11.424	-0.143	0.095
-411.369	-41.858	0.153	0.080
-410.355	-200.000	0.026	0.250
-409.340	-62.679	0.118	-0.050
-408.325	-200.000	-0.057	-0.275
-407.311	-200.000	0.023	0.354
-406.296	-200.000	0.009	0.146
-405.282	-59.096	0.135	-0.059
-404.267	-131.731	-0.265	0.035
-403.252	28.609	0.079	0.068
-402.238	-200.000	0.001	-0.083
-401.223	-91.801	0.118	-0.034
-400.209	288.744	0.125	0.229
-399.194	459.985	0.061	0.138
-398.179	-18.588	-0.089	0.056
-397.165	-77.055	0.475	-0.168
-396.150	-25.492	0.100	-0.060
-395.136	-98.073	0.145	-0.038
-394.121	800.000	0.030	0.084
-393.106	-200.000	0.002	-0.015
-392.092	-27.119	0.313	-0.185
-391.077	-200.000	0.012	-0.510
-390.063	22.528	0.396	0.327
-389.048	228.226	-0.180	-0.297
-388.033	800.000	-0.091	0.301
-387.019	521.499	-0.058	-0.139
-386.004	-200.000	-0.003	-0.074
-384.990	800.000	-0.053	-0.165
-383.975	103.342	-0.155	-0.184
-382.960	800.000	0.043	0.129
-381.946	99.485	-0.150	-0.175
-380.931	0.175	-0.114	0.082
-379.917	190.582	0.156	-0.238
-378.902	800.000	-0.061	-0.209
-377.888	-200.000	-0.004	0.070
-376.873	-103.556	-0.137	-0.033
-375.858	103.746	-0.068	0.081
-374.844	-126.755	0.484	-0.072
-373.829	-200.000	-0.067	-0.373
-372.815	-6.874	0.326	0.224
-371.800	-64.006	0.271	-0.112
-370.785	800.000	0.047	0.186
-369.771	-200.000	0.010	0.228
-368.756	35.097	0.194	0.172
-367.742	-21.282	-0.262	0.162
-366.727	10.962	-0.215	-0.166
-365.712	800.000	0.035	-0.115
-364.698	-152.319	0.201	0.015
-363.683	-92.391	-0.246	0.070
-362.669	-200.000	0.039	0.353
-361.654	-145.717	-0.169	-0.015
-360.639	-41.840	0.094	0.049
-359.625	-101.657	0.213	0.052
-358.610	-200.000	-0.007	-0.365
-357.596	55.582	0.133	-0.130
-356.581	277.695	0.089	-0.161
-355.566	58.327	-0.211	0.209
-354.552	246.407	-0.115	0.196
-353.537	800.000	-0.031	-0.124
-352.523	336.923	0.068	0.134
-351.508	800.000	-0.059	-0.169
-350.493	157.333	-0.236	-0.329
-349.479	144.953	-0.086	-0.116
-348.464	800.000	-0.106	0.354
-347.450	151.390	0.088	-0.121
-346.435	-51.301	-0.060	0.028
-345.420	553.083	-0.091	-0.222
-344.406	-1.926	-0.234	-0.166
-343.391	-133.041	-0.392	0.050
-342.377	148.564	0.231	-0.314
-341.362	146.979	0.185	-0.251
-340.348	133.461	-0.144	0.188
-339.333	-35.852	0.304	0.166
-338.318	151.943	-0.085	-0.116
-337.304	122.011	0.041	-0.052
-336.289	26.713	-0.083	-0.070
-335.275	507.037	-0.108	-0.254
-334.260	96.182	-0.087	-0.100
-333.245	-26.258	0.019	0.011
-332.231	-200.000	0.047	0.261
-331.216	-200.000	-0.011	-0.157
-330.202	81.569	-0.131	-0.143
-329.187	-91.960	0.167	-0.048
-328.172	739.818	-0.055	-0.150
-327.158	62.739	-0.259	0.261
-326.143	-41.347	0.125	0.065
-325.129	-77.902	0.200	0.070
-324.114	78.689	0.148	0.160
-323.099	35.663	0.092	-0.082
-322.085	-103.071	-0.313	0.075
-321.070	10.757	0.198	0.152
-320.056	-12.286	-0.328	0.216
-319.041	28.649	-0.255	-0.218
-318.026	800.000	0.079	-0.312
-317.012	160.443	0.093	-0.130
-315.997	110.660	0.104	0.126
-314.983	156.716	-0.115	0.160
-313.968	61.875	0.126	-0.126
-312.953	199.739	0.135	0.208
-311.939	-200.000	-0.047	-0.225
-310.924	209.325	-0.083	-0.131
-309.910	102.615	0.118	0.139
-308.895	4.517	-0.271	-0.200
-307.880	-33.431	-0.219	0.122
-306.866	9.451	0.404	-0.308
-305.851	-23.799	0.165	-0.100
-304.837	-31.090	-0.402	0.228
-303.822	596.473	0.083	0.207
-302.807	549.029	-0.077	-0.186
-301.793	-200.000	0.112	-0.000
-300.778	99.983	0.104	-0.121
-299.764	273.117	-0.249	-0.444
-298.749	-84.811	-0.158	-0.050
-297.735	-200.000	0.012	0.204
-296.720	477.896	-0.107	0.243
-295.705	-93.009	-0.124	-0.035
-294.691	89.567	0.181	0.203
-293.676	800.000	0.047	-0.169
-292.662	-47.421	0.161	-0.079
-291.647	6.853	0.123	0.092
-290.632	-200.000	0.077	0.772
-289.618	-31.082	0.064	0.036
-288.603	443.059	0.026	-0.057
-287.589	69.619	0.043	0.045
-286.574	-51.574	-0.087	0.041
-285.559	800.000	-0.068	0.216
-284.545	282.272	-0.209	-0.377
-283.530	-165.915	0.149	-0.006
-282.516	227.572	-0.084	0.138
-281.501	-146.040	-0.244	-0.022
-280.486	377.253	-0.057	0.116
-279.472	800.000	0.133	0.444
-278.457	212.479	0.024	-0.038
-277.443	-140.368	-0.193	0.020
-276.428	-123.661	0.245	-0.039
-275.413	-46.574	-0.272	0.134
-274.399	-200.000	0.026	0.209
-273.384	-200.000	0.021	0.306
-272.370	754.902	0.125	0.340
-271.355	130.609	0.056	0.072
-270.340	-59.097	-0.372	-0.161
-269.326	298.962	0.126	0.233
-268.311	440.379	-0.104	-0.228
-267.297	-139.402	0.214	0.023
-266.282	-200.000	-0.003	-0.154
-265.267	144.107	0.329	-0.442
-264.253	-200.000	0.063	0.426
-263.238	93.038	-0.201	0.228
-262.224	793.722	-0.049	0.135
-261.209	-45.530	-0.131	-0.065
-260.195	93.245	0.145	0.165
-259.180	-86.563	-0.042	-0.013
-258.165	-93.440	-0.262	-0.073
-257.151	-171.984	0.137	-0.004
-256.136	800.000	-0.070	0.294
-255.122	28.122	-0.194	-0.165
-254.107	296.948	0.074	0.137
-253.092	-123.908	0.338	-0.054
-252.078	120.665	-0.270	-0.337
-251.063	-44.435	-0.109	0.055
-250.049	-200.000	-0.038	-0.262
-249.034	800.000	-0.078	-0.299
-248.019	-108.737	0.079	-0.017
-247.005	-20.601	-0.234	-0.145
-245.990	800.000	-0.058	0.233
-244.976	800.000	-0.081	-0.241
-243.961	-200.000	0.021	-0.306
-242.946	800.000	-0.030	-0.099
-241.932	-134.318	-0.308	0.038
-240.917	-26.476	-0.218	-0.128
-239.903	-60.496	0.216	-0.092
-238.888	800.000	-0.060	-0.231
-237.873	-25.116	-0.159	-0.095
-236.859	29.708	0.192	-0.164
-235.844	800.000	-0.048	0.165
-234.830	219.878	-0.076	-0.122
-233.815	-58.169	-0.077	0.034
-232.800	15.175	0.320	-0.252
-231.786	164.535	-0.129	0.182
-230.771	5.230	0.182	-0.135
-229.757	800.000	-0.004	0.018
-228.742	34.345	0.075	-0.066
-227.727	-29.051	0.196	0.113
-226.713	179.044	-0.006	0.009
-225.698	-200.000	-0.019	-0.237
-224.684	557.159	0.052	0.127
-223.669	-17.915	-0.321	0.202
-222.655	-30.002	-0.313	-0.179
-221.640	-30.002	0.238	-0.136
-220.625	-156.119	-0.276	0.017
-219.611	335.897	0.142	-0.277
-218.596	800.000	0.096	-0.336
-217.582	788.461	-0.097	-0.268
-216.567	-22.186	-0.092	0.056
-215.552	549.284	0.114	0.275
-214.538	800.000	-0.026	-0.086
-213.523	82.061	0.187	-0.204
-212.509	-200.000	-0.021	-0.133
-211.494	781.132	-0.107	0.295
-210.479	800.000	0.065	-0.200
-209.465	235.729	-0.014	-0.023
-208.450	800.000	0.114	0.329
-207.436	151.867	0.081	0.110
-206.421	-137.555	0.245	0.028
-205.406	-62.102	-0.199	-0.083
-204.392	-200.000	-0.041	0.317
-203.377	-28.873	0.130	0.075
-202.363	-200.000	0.014	0.154
-201.348	769.625	0.156	-0.427
-200.333	20.090	0.205	0.166
-199.319	90.299	0.041	-0.046
-198.304	800.000	-0.091	-0.261
-197.290	303.696	-0.092	-0.171
-196.275	-129.502	0.194	-0.027
-195.260	43.756	0.311	0.285
-194.246	-44.964	-0.186	-0.093
-193.231	800.000	0.132	0.406
-192.217	-10.615	-0.214	0.142
-191.202	-200.000	0.056	0.500
-190.187	-48.081	0.194	-0.094
-189.173	201.731	0.206	-0.318
-188.158	133.350	0.024	-0.031
-187.144	-76.496	-0.142	-0.050
-186.129	58.407	-0.052	-0.051
-185.114	800.000	-0.028	0.120
-184.100	800.000	-0.059	-0.206
-183.085	-154.320	0.226	-0.015
-182.071	577.700	0.127	0.312
-181.056	-70.411	0.105	-0.040
-180.042	-200.000	-0.190	0.001
-179.027	196.523	0.056	0.086
-178.012	800.000	-0.060	0.237
-176.998	-137.096	-0.341	0.039
-175.983	-27.724	0.187	0.109
-174.969	-200.000	-0.047	0.300
-173.954	800.000	0.051	0.172
-172.939	-200.000	-0.019	0.114
-171.925	581.102	0.119	-0.292
-170.910	-200.000	-0.001	-0.153
-169.896	-122.924	-0.077	-0.012
-168.881	-27.235	-0.292	0.171
-167.866	-29.698	0.049	-0.028
-166.852	110.780	-0.137	0.165
-165.837	-200.000	0.011	-0.080
-164.823	45.863	0.241	-0.223
-163.808	-32.631	-0.222	-0.124
-162.793	800.000	0.114	0.404
-161.779	729.411	0.070	0.187
-160.764	-200.000	0.012	-0.070
-159.750	-147.225	0.423	-0.036
-158.735	-75.037	-0.153	0.055
-157.720	-40.417	0.064	0.033
-156.706	-200.000	-0.018	0.234
-155.691	-55.876	0.263	0.117
-154.677	66.355	0.255	-0.259
-153.662	-35.011	-0.115	0.063
-152.647	-59.879	0.302	0.129
-151.633	-22.189	0.023	0.014
-150.618	-10.051	0.090	0.060
-149.604	-95.667	0.282	-0.076
-148.589	-200.000	0.049	0.216
-147.574	102.047	0.042	0.049
-146.560	-125.198	0.103	0.016
-145.545	800.000	-0.188	-0.534
-144.531	576.296	-0.044	-0.107
-143.516	63.332	-0.052	-0.052
-142.502	-194.892	-0.207	-0.002
-141.487	-22.315	-0.115	-0.070
-140.472	-200.000	0.024	-0.253
-139.458	269.094	-0.056	-0.098
-138.443	4.116	0.078	-0.057
-137.429	-110.752	-0.131	0.027
-136.414	800.000	-0.101	0.408
-135.399	-5.119	-0.321	0.221
-134.385	-200.000	-0.027	0.192
-133.370	-200.000	0.082	0.363
-132.356	-56.185	-0.116	0.051
-131.341	43.951	-0.081	0.074
-130.326	-77.937	-0.234	-0.081
-129.312	800.000	-0.051	0.180
-128.297	607.255	-0.056	-0.139
-127.283	-200.000	0.025	-0.214
-126.268	-200.000	0.022	0.129
-125.253	-200.000	-0.006	0.253
-124.239	117.873	0.052	-0.064
-123.224	-188.746	0.318	-0.004
-122.210	-200.000	-0.001	-0.057
-121.195	11.140	-0.179	0.137
