DTS Sentinel unit serial number:	SN413079Multiplexer serial number:	ORYXHardware model number:	OX4-SRSoftware version number:	ORYX F/W v4.00 Oryx Data Collector v3.7.2.0data status	okinstallation	princeton_trtdifferential loss correction	single-endedforward channel	channel 3reverse channel	N/Adate	2019/09/17time	06:36:34forward acquisition time	60.00reverse acquisition time	0.00gamma	496.2192k internal	0.2331k external	0.2331temperature offset calibration	0.9947default loss term (dB/km)	0.3790temperature slope calibration	1.0000multiplexer offset coefficient	1.0000multiplexer slope coefficient	1.0000fibre end	0.00T internal ref (°C)	28.00T ext. ref 1 (°C)	0.12T ext. ref 2 (°C)	21.37length (m)	temperature (°C)	Stokes	anti-Stokes-747.200	0.554	-0.055	0.039
-746.185	-200.000	0.004	0.132
-745.171	158.156	-0.220	0.306
-744.156	370.074	0.042	-0.086
-743.142	227.876	-0.198	0.324
-742.127	271.997	-0.041	0.073
-741.112	-159.613	0.255	0.014
-740.098	345.278	-0.028	-0.056
-739.083	459.720	-0.063	0.142
-738.069	-5.766	-0.055	-0.038
-737.054	273.513	-0.138	-0.246
-736.039	-131.265	0.295	0.039
-735.025	-104.274	0.110	0.026
-734.010	41.679	-0.399	-0.363
-732.996	-153.081	-0.478	0.034
-731.981	-164.669	0.085	0.004
-730.966	-16.781	0.159	-0.101
-729.952	800.000	-0.058	0.179
-728.937	-6.356	-0.131	-0.090
-727.923	131.599	-0.171	-0.221
-726.908	-200.000	0.046	-0.230
-725.894	108.615	0.048	-0.057
-724.879	800.000	0.116	0.357
-723.864	-116.613	-0.357	-0.066
-722.850	254.614	-0.066	-0.114
-721.835	463.831	-0.060	-0.136
-720.821	-143.182	-0.449	-0.043
-719.806	-137.348	0.470	0.054
-718.791	-1.497	-0.030	-0.021
-717.777	215.655	0.143	-0.228
-716.762	508.123	0.099	0.231
-715.748	800.000	-0.111	-0.319
-714.733	-132.167	-0.172	-0.022
-713.718	-200.000	0.002	-0.149
-712.704	191.627	-0.266	-0.402
-711.689	133.843	-0.274	-0.356
-710.675	-27.335	-0.277	0.162
-709.660	288.811	-0.052	0.094
-708.645	410.957	-0.067	0.143
-707.631	443.860	-0.118	-0.260
-706.616	44.122	0.174	-0.160
-705.602	21.100	0.087	0.071
-704.587	-200.000	-0.006	0.168
-703.572	229.263	-0.181	-0.296
-702.558	133.220	-0.014	0.018
-701.543	-12.260	-0.061	-0.040
-700.529	418.813	-0.101	-0.217
-699.514	138.121	0.126	-0.167
-698.499	-133.635	0.171	-0.022
-697.485	-128.467	0.195	0.028
-696.470	-110.711	-0.272	0.056
-695.456	-71.583	0.396	0.149
-694.441	264.283	-0.115	0.201
-693.426	-200.000	-0.011	-0.070
-692.412	-98.909	-0.214	0.055
-691.397	-27.218	0.091	0.053
-690.383	64.955	-0.134	-0.136
-689.368	711.618	-0.092	0.245
-688.354	57.835	-0.010	0.010
-687.339	-22.692	0.162	-0.098
-686.324	800.000	-0.079	0.313
-685.310	-58.556	0.157	-0.068
-684.295	163.590	-0.131	-0.185
-683.281	-94.693	0.162	0.044
-682.266	206.503	0.201	-0.315
-681.251	45.090	0.109	0.101
-680.237	800.000	0.055	-0.214
-679.222	496.222	-0.021	-0.050
-678.208	-62.124	0.130	-0.054
-677.193	130.886	0.026	0.034
-676.178	118.466	0.119	-0.148
-675.164	-47.959	-0.062	-0.030
-674.149	-74.580	0.071	-0.026
-673.135	-56.833	0.020	0.009
-672.120	-89.905	-0.325	-0.095
-671.105	-187.722	-0.159	0.002
-670.091	-110.751	0.334	0.069
-669.076	-14.622	-0.285	-0.184
-668.062	37.025	-0.369	0.328
-667.047	89.525	0.251	-0.280
-666.032	242.427	0.190	0.318
-665.018	-200.000	0.028	0.285
-664.003	98.727	0.167	-0.193
-662.989	800.000	-0.087	-0.358
-661.974	-83.003	-0.255	0.082
-660.959	98.339	0.086	0.100
-659.945	-13.531	-0.007	0.005
-658.930	-107.869	0.289	-0.063
-657.916	14.942	-0.062	0.048
-656.901	202.134	-0.172	-0.267
-655.886	-7.941	0.289	-0.196
-654.872	-200.000	0.032	-0.149
-653.857	625.315	0.089	0.225
-652.843	75.917	-0.187	-0.198
-651.828	-119.048	-0.416	0.073
-650.814	-78.693	-0.123	0.042
-649.799	-200.000	-0.028	0.193
-648.784	47.235	-0.140	-0.131
-647.770	309.388	-0.127	-0.237
-646.755	-124.394	-0.428	0.067
-645.741	800.000	0.030	-0.110
-644.726	358.171	0.011	-0.021
-643.711	545.284	-0.238	-0.570
-642.697	9.736	-0.122	-0.093
-641.682	357.087	-0.166	0.332
-640.668	28.509	0.222	0.189
-639.653	-74.027	-0.245	-0.089
-638.638	-171.145	0.058	0.002
-637.624	-96.514	-0.315	-0.083
-636.609	-200.000	0.009	-0.166
-635.595	144.179	0.261	-0.349
-634.580	-200.000	-0.007	0.165
-633.565	-53.069	0.303	0.140
-632.551	-126.961	-0.312	0.046
-631.536	-69.017	0.157	0.061
-630.522	800.000	-0.057	0.241
-629.507	145.784	0.172	-0.231
-628.492	-125.582	-0.354	-0.054
-627.478	800.000	0.055	-0.180
-626.463	-200.000	-0.051	-0.281
-625.449	446.819	0.161	-0.354
-624.434	-200.000	0.011	0.117
-623.419	-200.000	-0.010	-0.046
-622.405	-200.000	0.000	-0.150
-621.390	-200.000	-0.007	0.203
-620.376	-120.005	-0.398	-0.068
-619.361	-200.000	-0.030	0.286
-618.346	-21.754	-0.159	0.097
-617.332	-116.196	0.228	-0.042
-616.317	-111.421	0.164	0.033
-615.303	-121.287	0.088	0.015
-614.288	77.944	-0.159	0.170
-613.273	-77.196	-0.240	0.084
-612.259	-43.793	0.306	-0.154
-611.244	70.173	0.149	0.154
-610.230	554.223	0.063	0.151
-609.215	-83.077	0.465	0.150
-608.201	-91.653	0.210	0.060
-607.186	800.000	-0.013	0.050
-606.171	-14.863	0.144	-0.093
-605.157	-200.000	-0.015	-0.155
-604.142	800.000	-0.054	-0.229
-603.128	800.000	-0.018	0.065
-602.113	46.337	-0.098	0.091
-601.098	78.449	-0.207	0.222
-600.084	796.516	-0.071	0.195
-599.069	283.735	-0.162	-0.291
-598.055	-57.761	-0.102	0.045
-597.040	32.673	-0.075	0.065
-596.025	-77.361	-0.216	0.075
-595.011	216.659	-0.081	-0.129
-593.996	-200.000	-0.008	-0.118
-592.982	800.000	-0.027	0.107
-591.967	800.000	-0.040	-0.121
-590.952	109.629	-0.101	0.121
-589.938	-137.522	0.269	0.030
-588.923	208.374	-0.105	-0.164
-587.909	131.279	0.114	-0.146
-586.894	-200.000	-0.015	-0.161
-585.879	-115.734	-0.290	-0.054
-584.865	-9.688	0.362	-0.241
-583.850	218.945	-0.009	0.014
-582.836	303.033	0.089	-0.165
-581.821	581.423	0.036	0.089
-580.806	-200.000	0.001	-0.046
-579.792	154.176	0.155	-0.212
-578.777	69.215	0.188	0.194
-577.763	14.595	-0.186	0.145
-576.748	-200.000	0.039	0.232
-575.733	-109.619	-0.156	-0.033
-574.719	-149.609	-0.301	-0.024
-573.704	665.122	0.096	0.248
-572.690	203.826	-0.170	0.263
-571.675	-106.847	-0.369	0.082
-570.661	99.594	0.170	0.197
-569.646	42.321	-0.084	-0.076
-568.631	344.290	-0.104	0.203
-567.617	-3.466	-0.088	-0.061
-566.602	-40.362	0.133	-0.069
-565.588	0.902	0.363	0.260
-564.573	-156.198	-0.295	0.019
-563.558	-7.425	-0.169	0.114
-562.544	-99.310	-0.052	-0.013
-561.529	209.957	0.092	-0.144
-560.515	-124.895	-0.172	-0.027
-559.500	800.000	-0.092	0.274
-558.485	-136.603	0.353	-0.041
-557.471	262.316	-0.119	-0.206
-556.456	149.887	-0.143	-0.193
-555.442	0.957	0.343	-0.246
-554.427	13.941	0.216	-0.168
-553.412	-4.279	0.132	0.091
-552.398	166.489	0.173	-0.245
-551.383	-200.000	-0.028	-0.153
-550.369	372.149	0.063	0.129
-549.354	373.185	-0.122	-0.248
-548.339	800.000	-0.088	-0.242
-547.325	-20.705	0.164	0.101
-546.310	14.918	0.097	-0.076
-545.296	800.000	0.135	-0.391
-544.281	-96.368	-0.138	-0.036
-543.266	-111.612	-0.185	0.038
-542.252	-200.000	-0.025	0.221
-541.237	-74.071	0.443	0.160
-540.223	-163.848	-0.324	-0.015
-539.208	-200.000	0.021	-0.403
-538.193	-18.460	-0.100	-0.062
-537.179	-200.000	0.009	-0.055
-536.164	5.628	0.354	-0.261
-535.150	98.646	-0.135	0.155
-534.135	-132.733	0.309	0.039
-533.121	800.000	0.090	-0.257
-532.106	-134.670	-0.173	0.021
-531.091	-200.000	-0.039	-0.262
-530.077	-74.081	0.253	0.092
-529.062	184.860	-0.195	0.289
-528.048	-63.296	0.220	-0.090
-527.033	-30.350	0.225	-0.127
-526.018	355.380	0.130	-0.257
-525.004	34.819	0.078	-0.068
-523.989	233.175	0.087	-0.142
-522.975	28.169	-0.123	0.103
-521.960	800.000	0.089	0.309
-520.945	-151.783	0.174	-0.013
-519.931	30.748	0.149	0.128
-518.916	800.000	0.045	-0.169
-517.902	-52.979	-0.224	-0.103
-516.887	-200.000	0.008	0.103
-515.872	-141.140	0.124	-0.013
-514.858	-149.818	-0.271	-0.021
-513.843	-108.157	-0.084	-0.018
-512.829	438.174	0.032	0.069
-511.814	-200.000	0.006	0.057
-510.799	800.000	-0.069	0.203
-509.785	177.847	-0.200	0.291
-508.770	-191.363	0.076	0.001
-507.756	15.339	0.180	-0.141
-506.741	-200.000	-0.047	-0.333
-505.726	42.165	-0.069	-0.063
-504.712	800.000	0.100	0.366
-503.697	-40.869	-0.228	-0.118
-502.683	9.945	-0.082	-0.062
-501.668	-200.000	-0.027	-0.209
-500.653	-96.916	-0.147	-0.039
-499.639	800.000	0.081	-0.223
-498.624	-45.052	0.328	-0.163
-497.610	516.104	-0.035	-0.081
-496.595	-42.072	0.125	0.064
-495.581	-172.284	-0.232	0.007
-494.566	312.518	-0.079	-0.148
-493.551	4.432	-0.111	-0.081
-492.537	-200.000	-0.008	0.085
-491.522	-200.000	0.044	0.260
-490.508	-200.000	-0.063	0.368
-489.493	-30.091	0.046	0.026
-488.478	323.319	-0.155	0.294
-487.464	136.011	-0.084	-0.109
-486.449	-143.548	-0.448	-0.043
-485.435	-144.352	-0.250	0.023
-484.420	800.000	-0.069	-0.196
-483.405	-139.740	-0.212	-0.022
-482.391	278.119	0.097	-0.171
-481.376	-113.229	0.114	0.022
-480.362	-56.287	-0.061	-0.027
-479.347	617.519	-0.090	-0.225
-478.332	615.760	0.120	-0.299
-477.318	-34.249	0.073	-0.040
-476.303	800.000	0.049	0.198
-475.289	-28.262	-0.078	0.045
-474.274	358.247	0.059	0.118
-473.259	-200.000	-0.006	-0.388
-472.245	-200.000	-0.018	0.241
-471.230	0.127	-0.158	-0.112
-470.216	-200.000	-0.055	0.354
-469.201	32.579	-0.143	-0.123
-468.186	-112.471	-0.063	-0.013
-467.172	-156.034	0.153	-0.010
-466.157	-92.228	-0.094	0.026
-465.143	-152.570	0.144	-0.010
-464.128	-102.683	0.185	-0.044
-463.113	581.649	0.068	-0.166
-462.099	-152.480	0.079	0.006
-461.084	38.556	0.102	0.090
-460.070	275.879	-0.115	-0.202
-459.055	2.538	-0.181	0.130
-458.040	-92.797	0.162	-0.045
-457.026	-156.039	-0.365	0.023
-456.011	42.306	0.038	0.034
-454.997	483.644	-0.065	0.146
-453.982	50.851	0.164	0.154
-452.968	-63.395	0.329	-0.135
-451.953	431.568	-0.074	0.159
-450.938	-200.000	0.042	0.405
-449.924	-95.696	-0.447	0.119
-448.909	-85.964	0.150	-0.046
-447.895	-34.911	-0.270	0.147
-446.880	-33.463	0.189	-0.104
-445.865	342.396	0.218	0.425
-444.851	-41.889	0.473	-0.241
-443.836	756.484	0.084	-0.226
-442.822	-64.113	-0.300	0.122
-441.807	156.076	0.245	0.337
-440.792	800.000	-0.125	0.411
-439.778	-53.007	0.146	-0.067
-438.763	-165.832	0.170	-0.007
-437.749	800.000	0.080	0.241
-436.734	356.274	0.091	0.180
-435.719	-27.403	-0.176	-0.102
-434.705	-155.210	-0.043	0.003
-433.690	12.330	0.035	-0.027
-432.676	321.095	0.089	0.168
-431.661	196.942	0.047	0.072
-430.646	-200.000	0.149	0.000
-429.632	-25.832	0.371	-0.217
-428.617	195.366	0.144	0.217
-427.603	141.162	-0.030	-0.039
-426.588	-38.326	0.118	0.062
-425.573	-189.956	-0.281	0.003
-424.559	-115.595	0.129	-0.024
-423.544	76.352	-0.110	-0.116
-422.530	-200.000	0.040	0.208
-421.515	117.937	0.147	0.179
-420.500	135.847	-0.346	0.447
-419.486	-62.921	0.330	-0.136
-418.471	-57.066	-0.042	-0.018
-417.457	53.215	-0.217	0.207
-416.442	-168.342	0.310	0.012
-415.428	-53.799	-0.399	0.181
-414.413	663.102	0.040	0.102
-413.398	16.671	0.065	-0.051
-412.384	19.966	0.124	-0.099
-411.369	137.590	-0.280	-0.365
-410.355	-161.989	0.118	0.006
-409.340	800.000	-0.023	-0.075
-408.325	171.739	-0.278	-0.396
-407.311	358.505	-0.069	-0.137
-406.296	800.000	-0.064	-0.267
-405.282	-2.036	0.099	0.069
-404.267	-116.281	0.255	0.047
-403.252	-200.000	-0.006	0.232
-402.238	-73.957	-0.144	-0.052
-401.223	362.908	-0.109	0.218
-400.209	800.000	0.096	0.328
-399.194	44.921	0.333	-0.304
-398.179	-117.397	0.001	-0.000
-397.165	-15.478	-0.194	0.123
-396.150	-81.604	-0.325	-0.106
-395.136	4.940	-0.202	-0.147
-394.121	507.015	0.148	0.341
-393.106	800.000	-0.092	0.288
-392.092	-29.478	0.149	0.085
-391.077	800.000	-0.021	-0.058
-390.063	8.623	-0.152	-0.114
-389.048	238.583	0.160	-0.264
-388.033	367.430	0.181	-0.363
-387.019	-23.892	-0.263	0.156
-386.004	408.901	-0.110	-0.231
-384.990	-200.000	0.047	-0.504
-383.975	49.852	-0.047	0.044
-382.960	646.857	-0.036	0.090
-381.946	-200.000	0.003	0.014
-380.931	-116.911	-0.165	0.030
-379.917	197.468	-0.103	0.156
-378.902	28.872	0.205	0.172
-377.888	800.000	0.030	-0.130
-376.873	138.544	0.177	0.231
-375.858	-15.055	-0.085	0.054
-374.844	-158.530	0.271	-0.016
-373.829	-95.165	0.202	-0.054
-372.815	-20.079	-0.239	0.146
-371.800	-42.999	0.144	-0.072
-370.785	655.713	0.171	0.436
-369.771	151.904	0.165	0.223
-368.756	-200.000	0.000	-0.163
-367.742	39.324	0.144	-0.128
-366.727	17.035	-0.331	0.260
-365.712	9.504	-0.178	0.134
-364.698	-200.000	0.021	-0.280
-363.683	166.230	-0.104	0.147
-362.669	-62.480	0.353	0.145
-361.654	-16.471	0.167	0.105
-360.639	-22.991	0.240	-0.144
-359.625	-32.963	0.140	0.077
-358.610	68.477	0.068	-0.069
-357.596	165.647	0.128	0.180
-356.581	95.808	-0.190	-0.215
-355.566	-200.000	-0.004	0.072
-354.552	-57.947	-0.165	-0.071
-353.537	-135.069	-0.405	-0.048
-352.523	376.905	0.104	-0.211
-351.508	89.524	0.032	0.036
-350.493	17.548	0.213	0.168
-349.479	-200.000	0.003	0.016
-348.464	-200.000	-0.014	-0.262
-347.450	36.409	-0.446	-0.390
-346.435	-200.000	-0.019	-0.204
-345.420	800.000	0.110	0.348
-344.406	774.894	-0.065	0.176
-343.391	-200.000	0.005	-0.086
-342.377	-120.075	-0.212	0.036
-341.362	-200.000	-0.005	0.065
-340.348	800.000	0.107	0.301
-339.333	354.791	-0.060	0.119
-338.318	65.587	-0.152	-0.153
-337.304	8.283	0.130	0.097
-336.289	0.531	-0.305	0.216
-335.275	725.269	0.043	0.114
-334.260	-150.064	-0.158	0.012
-333.245	-200.000	-0.042	0.517
-332.231	800.000	-0.057	-0.245
-331.216	-123.784	-0.355	0.056
-330.202	488.912	-0.010	-0.024
-329.187	-63.855	0.181	0.073
-328.172	-178.384	0.252	0.006
-327.158	573.437	0.109	-0.264
-326.143	800.000	0.053	-0.205
-325.129	-128.910	0.362	-0.050
-324.114	800.000	-0.039	0.169
-323.099	-200.000	-0.050	0.270
-322.085	390.070	-0.053	0.109
-321.070	-200.000	0.043	-0.259
-320.056	24.854	0.177	0.145
-319.041	-114.451	-0.331	-0.063
-318.026	-92.179	0.196	0.055
-317.012	-11.314	-0.210	-0.137
-315.997	-101.567	-0.123	-0.029
-314.983	30.940	0.174	-0.147
-313.968	-200.000	0.010	0.125
-312.953	29.903	-0.317	-0.268
-311.939	-200.000	-0.006	-0.163
-310.924	800.000	-0.005	0.020
-309.910	-49.898	-0.017	-0.008
-308.895	-3.452	0.185	0.127
-307.880	502.397	-0.081	0.186
-306.866	456.998	0.028	0.062
-305.851	-62.878	-0.163	0.067
-304.837	-21.486	-0.062	0.038
-303.822	-200.000	0.063	-0.420
-302.807	-80.273	0.020	0.007
-301.793	-171.043	0.127	-0.004
-300.778	-200.000	0.059	0.330
-299.764	322.976	-0.021	0.039
-298.749	-146.234	-0.152	-0.013
-297.735	800.000	-0.014	0.050
-296.720	-57.854	0.160	-0.069
-295.705	140.923	0.120	0.156
-294.691	-93.867	-0.199	-0.054
-293.676	57.282	0.053	-0.051
-292.662	-92.477	-0.366	-0.102
-291.647	500.187	-0.053	0.120
-290.632	70.915	-0.115	0.118
-289.618	395.408	-0.141	-0.292
-288.603	-175.981	-0.198	-0.005
-287.589	147.245	0.055	0.073
-286.574	75.799	-0.316	-0.331
-285.559	9.143	-0.387	-0.289
-284.545	-200.000	-0.011	-0.103
-283.530	308.385	0.054	0.100
-282.516	7.449	0.121	-0.090
-281.501	-200.000	0.199	0.001
-280.486	84.089	-0.167	0.180
-279.472	149.779	-0.101	-0.135
-278.457	98.910	0.077	-0.088
-277.443	800.000	-0.160	0.633
-276.428	800.000	-0.002	0.007
-275.413	-164.855	0.070	-0.003
-274.399	-76.671	-0.380	0.132
-273.384	112.379	0.244	-0.292
-272.370	49.015	-0.340	-0.315
-271.355	-200.000	0.000	0.282
-270.340	800.000	0.078	0.218
-269.326	-200.000	0.006	-0.082
-268.311	-200.000	-0.058	-0.280
-267.297	84.717	0.128	0.139
-266.282	800.000	-0.056	0.160
-265.267	12.671	0.157	0.120
-264.253	800.000	0.177	-0.595
-263.238	304.778	-0.121	-0.222
-262.224	10.157	-0.138	0.103
-261.209	-89.194	-0.358	0.104
-260.195	53.589	0.215	0.204
-259.180	-32.036	-0.104	-0.058
-258.165	-147.602	0.182	-0.015
-257.151	77.865	0.075	-0.079
-256.136	172.539	-0.170	-0.242
-255.122	-79.045	-0.147	-0.049
-254.107	-87.318	0.098	0.029
-253.092	118.150	-0.255	0.310
-252.078	34.657	0.100	-0.087
-251.063	281.874	-0.125	0.222
-250.049	214.079	-0.053	0.083
-249.034	388.182	-0.040	-0.082
-248.019	-65.702	0.232	0.092
-247.005	-38.705	0.361	0.188
-245.990	800.000	0.002	0.007
-244.976	-64.622	0.291	0.117
-243.961	-57.853	-0.101	-0.043
-242.946	5.088	-0.064	0.047
-241.932	-20.150	0.256	-0.156
-240.917	27.970	0.102	-0.085
-239.903	-200.000	-0.016	0.126
-238.888	-29.296	-0.483	0.273
-237.873	-172.194	-0.243	0.008
-236.859	136.362	0.142	-0.183
-235.844	5.010	-0.184	-0.134
-234.830	133.206	0.040	-0.051
-233.815	-139.764	0.296	-0.031
-232.800	584.921	0.144	-0.350
-231.786	-200.000	0.001	-0.058
-230.771	279.890	-0.121	-0.214
-229.757	432.173	-0.098	-0.210
-228.742	-38.472	0.248	-0.129
-227.727	-64.044	0.214	0.086
-226.713	-32.222	0.224	0.123
-225.698	-75.999	-0.079	0.028
-224.684	-200.000	-0.006	0.294
-223.669	461.282	0.192	-0.422
-222.655	-14.283	0.238	0.151
-221.640	269.395	0.059	-0.102
-220.625	298.203	0.100	0.182
-219.611	-116.483	0.165	0.030
-218.596	345.277	0.124	-0.240
-217.582	0.330	0.247	0.174
-216.567	1.664	0.320	0.227
-215.552	220.690	-0.077	-0.122
-214.538	339.764	-0.067	0.129
-213.523	-50.479	-0.326	-0.152
-212.509	608.576	0.053	0.131
-211.494	115.289	-0.105	0.126
-210.479	114.954	-0.039	-0.047
-209.465	572.577	-0.047	0.114
-208.450	-200.000	-0.006	-0.028
-207.436	-126.573	0.305	0.045
-206.421	800.000	0.089	-0.252
-205.406	-200.000	0.251	-0.000
-204.392	-10.299	0.165	-0.108
-203.377	4.245	-0.361	0.261
-202.363	-111.408	0.278	-0.056
-201.348	-57.403	-0.212	-0.092
-200.333	800.000	0.058	0.172
-199.319	-3.701	-0.392	0.268
-198.304	-8.210	-0.193	0.128
-197.290	31.496	0.212	-0.179
-196.275	374.693	-0.056	-0.113
-195.260	-200.000	0.005	0.547
-194.246	-59.504	-0.372	0.158
-193.231	4.237	-0.300	-0.216
-192.217	-200.000	0.021	-0.339
-191.202	217.840	0.064	0.101
-190.187	110.865	-0.137	-0.162
-189.173	151.856	0.078	-0.105
-188.158	800.000	0.023	0.065
-187.144	-200.000	-0.003	0.104
-186.129	-16.726	-0.169	-0.105
-185.114	800.000	-0.048	0.152
-184.100	259.314	-0.161	-0.273
-183.085	800.000	-0.077	0.216
-182.071	32.707	0.256	-0.218
-181.056	178.679	0.041	0.058
-180.042	-82.480	0.057	-0.018
-179.027	-62.989	0.172	-0.070
-178.012	-115.320	0.315	-0.059
-176.998	47.262	0.110	-0.101
-175.983	63.114	0.077	0.076
-174.969	237.681	-0.059	-0.096
-173.954	90.785	-0.041	0.045
-172.939	128.200	0.255	0.320
-171.925	-50.490	0.128	-0.060
-170.910	233.734	0.182	-0.295
-169.896	-200.000	0.011	-0.206
-168.881	61.158	0.209	0.204
-167.866	-22.690	-0.070	-0.041
-166.852	-53.853	0.211	0.095
-165.837	331.866	0.167	0.318
-164.823	84.533	0.091	0.098
-163.808	-137.970	0.035	0.004
-162.793	800.000	-0.062	-0.217
-161.779	-200.000	0.090	-0.482
-160.764	-200.000	-0.038	0.254
-159.750	62.437	0.180	0.177
-158.735	-200.000	0.050	0.432
-157.720	-24.643	0.151	0.088
-156.706	796.806	-0.046	0.124
-155.691	31.750	0.150	-0.127
-154.677	-173.256	-0.124	-0.004
-153.662	38.029	0.083	0.073
-152.647	-190.350	-0.318	-0.003
-151.633	-200.000	-0.017	-0.461
-150.618	702.903	0.210	0.545
-149.604	214.714	0.149	-0.232
-148.589	26.942	0.231	0.191
-147.574	641.758	0.040	0.099
-146.560	43.143	0.128	-0.115
-145.545	-96.066	0.235	0.061
-144.531	-139.121	-0.131	0.014
-143.516	-109.913	-0.217	-0.045
-142.502	800.000	-0.026	0.097
-141.487	36.416	-0.195	0.169
-140.472	159.997	0.050	-0.068
-139.458	258.060	0.076	0.129
-138.443	-200.000	0.005	0.209
-137.429	7.932	-0.070	-0.051
-136.414	269.505	0.052	-0.089
-135.399	63.001	0.172	-0.169
-134.385	298.320	0.036	-0.065
-133.370	-140.709	-0.165	-0.017
-132.356	7.821	-0.244	-0.180
-131.341	-139.917	-0.374	-0.039
-130.326	-200.000	-0.031	-0.154
-129.312	130.453	-0.214	0.270
-128.297	158.822	0.222	0.302
-127.283	-200.000	0.009	0.114
-126.268	800.000	-0.052	-0.188
-125.253	23.094	-0.053	0.043
-124.239	25.698	-0.118	0.097
-123.224	-200.000	0.014	0.125
-122.210	195.377	-0.015	0.023
-121.195	-200.000	-0.091	0.481
-120.180	587.203	0.009	0.023
