DTS Sentinel unit serial number:	SN413079Multiplexer serial number:	ORYXHardware model number:	OX4-SRSoftware version number:	ORYX F/W v4.00 Oryx Data Collector v3.7.2.0data status	okinstallation	princeton_trtdifferential loss correction	single-endedforward channel	channel 3reverse channel	N/Adate	2019/09/16time	10:04:34forward acquisition time	60.00reverse acquisition time	0.00gamma	496.2192k internal	0.2314k external	0.2314temperature offset calibration	0.9947default loss term (dB/km)	0.3790temperature slope calibration	1.0000multiplexer offset coefficient	1.0000multiplexer slope coefficient	1.0000fibre end	0.00T internal ref (°C)	33.67T ext. ref 1 (°C)	12.41T ext. ref 2 (°C)	32.26length (m)	temperature (°C)	Stokes	anti-Stokes-747.200	-200.000	-0.022	-0.152
-746.185	800.000	-0.048	0.153
-745.171	81.288	0.181	-0.199
-744.156	800.000	-0.073	0.218
-743.142	-149.542	-0.100	0.008
-742.127	-34.935	0.097	-0.054
-741.112	-49.255	-0.226	0.109
-740.098	-159.680	-0.268	0.015
-739.083	8.466	0.245	0.187
-738.069	-10.166	-0.060	-0.041
-737.054	-123.883	-0.351	0.056
-736.039	67.372	-0.048	-0.050
-735.025	417.897	0.178	0.386
-734.010	381.873	-0.079	-0.164
-732.996	800.000	0.068	-0.284
-731.981	510.667	0.064	0.151
-730.966	-118.882	-0.123	0.022
-729.952	-69.773	0.102	0.039
-728.937	70.141	-0.239	-0.250
-727.923	397.173	-0.170	-0.361
-726.908	-113.845	-0.342	-0.067
-725.894	112.826	0.072	-0.088
-724.879	-150.119	-0.289	0.023
-723.864	144.714	0.087	-0.118
-722.850	-35.561	0.220	-0.121
-721.835	-42.134	-0.396	-0.205
-720.821	-200.000	0.024	-0.484
-719.806	190.186	0.060	-0.091
-718.791	-200.000	-0.027	-0.438
-717.777	6.579	-0.081	0.061
-716.762	56.406	-0.068	0.067
-715.748	-200.000	0.073	0.352
-714.733	56.988	0.043	0.042
-713.718	-120.012	0.086	-0.015
-712.704	49.605	-0.107	-0.102
-711.689	31.219	-0.207	0.179
-710.675	-96.630	-0.375	0.100
-709.660	95.262	-0.265	-0.306
-708.645	-200.000	-0.015	-0.305
-707.631	-200.000	0.032	0.393
-706.616	-200.000	-0.025	0.183
-705.602	-200.000	-0.007	0.080
-704.587	27.894	0.278	-0.237
-703.572	-14.702	-0.112	-0.073
-702.558	3.126	-0.266	0.196
-701.543	-115.284	0.305	0.058
-700.529	536.937	-0.103	-0.249
-699.514	95.678	0.005	0.005
-698.499	-85.809	-0.282	0.088
-697.485	-3.652	0.280	0.197
-696.470	-160.912	0.404	0.022
-695.456	-200.000	0.029	0.496
-694.441	-200.000	-0.024	0.134
-693.426	90.590	0.222	-0.251
-692.412	253.051	-0.075	-0.129
-691.397	800.000	0.104	0.442
-690.383	-19.212	-0.385	-0.242
-689.368	800.000	-0.051	-0.164
-688.354	130.519	0.293	0.381
-687.339	233.929	-0.076	-0.126
-686.324	-126.566	-0.180	-0.027
-685.310	-83.793	-0.323	0.104
-684.295	-98.902	-0.226	0.058
-683.281	800.000	0.050	0.172
-682.266	299.910	0.117	-0.218
-681.251	-200.000	0.022	-0.173
-680.237	-171.105	-0.281	-0.010
-679.222	-123.668	-0.204	0.033
-678.208	-117.960	0.286	-0.052
-677.193	56.310	0.204	-0.200
-676.178	-200.000	-0.016	-0.071
-675.164	18.606	-0.279	-0.226
-674.149	205.311	-0.288	-0.452
-673.135	-106.392	-0.178	-0.040
-672.120	800.000	-0.020	0.062
-671.105	-55.440	-0.222	-0.101
-670.091	800.000	0.043	-0.124
-669.076	325.303	0.048	0.093
-668.062	90.374	-0.269	0.304
-667.047	-118.849	0.247	0.044
-666.032	301.457	-0.074	-0.139
-665.018	-193.712	0.254	-0.002
-664.003	-22.438	-0.357	0.218
-662.989	-39.161	0.050	-0.026
-661.974	-117.107	-0.415	0.076
-660.959	593.401	-0.110	0.275
-659.945	2.603	0.126	0.092
-658.930	31.521	-0.179	0.155
-657.916	-7.557	-0.129	0.088
-656.901	800.000	-0.029	-0.099
-655.886	-200.000	0.009	0.278
-654.872	-185.475	-0.215	0.003
-653.857	800.000	0.087	0.269
-652.843	-59.309	-0.176	-0.076
-651.828	517.316	0.150	-0.355
-650.814	-200.000	-0.032	-0.641
-649.799	800.000	-0.048	-0.158
-648.784	800.000	-0.110	-0.369
-647.770	171.285	-0.102	-0.148
-646.755	450.408	-0.048	0.107
-645.741	86.753	0.275	0.307
-644.726	800.000	-0.107	0.329
-643.711	-96.953	-0.174	0.046
-642.697	339.243	0.136	-0.267
-641.682	-200.000	0.043	-0.190
-640.668	800.000	-0.165	0.555
-639.653	403.435	-0.106	0.226
-638.638	76.067	-0.119	-0.127
-637.624	800.000	0.032	-0.106
-636.609	-112.203	0.133	0.027
-635.595	800.000	-0.046	0.184
-634.580	-26.812	-0.157	0.093
-633.565	-200.000	-0.034	0.224
-632.551	800.000	0.054	-0.233
-631.536	303.120	0.135	0.253
-630.522	-200.000	-0.069	-0.412
-629.507	-200.000	0.099	-0.451
-628.492	669.293	0.066	0.173
-627.478	-66.514	0.248	-0.099
-626.463	340.786	-0.119	-0.235
-625.449	-127.616	-0.152	-0.022
-624.434	-20.989	0.265	0.164
-623.419	183.533	-0.162	-0.242
-622.405	743.429	0.123	0.335
-621.390	167.908	-0.174	-0.250
-620.376	-71.047	-0.248	-0.094
-619.361	-36.689	0.112	-0.061
-618.346	-200.000	-0.066	0.314
-617.332	179.712	-0.217	-0.321
-616.317	31.716	-0.325	0.283
-615.303	1.790	0.306	0.222
-614.288	800.000	-0.018	-0.054
-613.273	800.000	0.094	0.401
-612.259	51.977	-0.231	0.222
-611.244	-59.676	0.069	0.030
-610.230	800.000	-0.066	-0.220
-609.215	-72.805	0.234	-0.087
-608.201	97.068	0.063	0.073
-607.186	160.158	0.211	-0.297
-606.171	-46.735	0.417	-0.206
-605.157	-19.658	-0.400	-0.250
-604.142	-82.368	0.186	0.061
-603.128	68.205	-0.291	0.300
-602.113	168.087	0.187	0.268
-601.098	-68.030	0.338	-0.133
-600.084	-200.000	-0.072	0.460
-599.069	51.413	0.129	0.123
-598.055	-139.888	-0.109	-0.012
-597.040	-200.000	-0.010	0.049
-596.025	-118.318	0.293	0.053
-595.011	800.000	0.035	0.114
-593.996	-47.220	0.218	0.107
-592.982	694.569	0.117	-0.309
-591.967	-200.000	-0.120	-0.000
-590.952	-148.350	0.093	-0.008
-589.938	588.098	-0.093	-0.232
-588.923	-120.437	0.286	0.049
-587.909	-200.000	0.062	-0.392
-586.894	15.517	-0.092	-0.073
-585.879	-158.356	0.273	-0.016
-584.865	687.092	0.035	0.092
-583.850	-113.616	-0.225	0.044
-582.836	126.665	-0.383	-0.488
-581.821	-62.544	0.101	0.042
-580.806	-44.607	-0.120	-0.060
-579.792	-200.000	0.028	0.132
-578.777	-17.278	-0.132	0.084
-577.763	800.000	-0.093	-0.370
-576.748	-156.665	-0.207	-0.013
-575.733	-70.320	-0.218	0.083
-574.719	-103.334	-0.162	0.039
-573.704	92.666	0.237	-0.269
-572.690	134.286	-0.218	0.285
-571.675	-200.000	0.057	0.263
-570.661	-102.564	-0.097	0.023
-569.646	62.315	0.108	0.108
-568.631	-200.000	-0.057	-0.321
-567.617	163.720	-0.149	-0.211
-566.602	-72.085	0.261	0.098
-565.588	-149.810	-0.354	-0.028
-564.573	25.073	-0.100	0.084
-563.558	-200.000	-0.015	0.230
-562.544	-200.000	0.014	-0.186
-561.529	-148.173	0.166	0.014
-560.515	800.000	-0.084	-0.275
-559.500	-96.813	0.209	0.055
-558.485	-114.016	0.268	0.052
-557.471	242.392	-0.108	-0.183
-556.456	146.612	-0.148	-0.200
-555.442	-10.644	0.076	0.051
-554.427	-30.854	-0.080	-0.046
-553.412	259.279	-0.051	0.089
-552.398	-200.000	0.042	-0.237
-551.383	60.728	-0.054	-0.053
-550.369	-177.829	0.300	-0.007
-549.354	-64.989	-0.071	0.029
-548.339	-83.366	0.272	-0.088
-547.325	-28.659	0.169	0.098
-546.310	446.616	-0.040	0.089
-545.296	32.095	-0.335	-0.290
-544.281	-200.000	0.041	-0.181
-543.266	-200.000	0.029	-0.208
-542.252	195.601	0.117	-0.178
-541.237	129.210	-0.254	-0.326
-540.223	63.204	0.091	-0.092
-539.208	-52.489	0.085	0.039
-538.193	346.927	-0.165	-0.327
-537.179	-131.364	0.310	-0.041
-536.164	425.273	0.170	-0.369
-535.150	800.000	0.018	-0.054
-534.135	-5.552	-0.162	0.112
-533.121	577.013	-0.080	-0.198
-532.106	-46.862	-0.169	0.083
-531.091	-76.343	-0.097	-0.034
-530.077	800.000	-0.143	0.474
-529.062	63.701	0.124	-0.125
-528.048	-200.000	0.012	0.085
-527.033	-98.705	-0.227	-0.058
-526.018	40.158	0.146	0.132
-525.004	17.662	0.195	0.156
-523.989	-112.173	-0.631	-0.127
-522.975	-26.309	0.205	-0.121
-521.960	55.380	0.080	0.077
-520.945	78.172	-0.270	-0.289
-519.931	-116.490	-0.226	-0.042
-518.916	-200.000	0.030	0.304
-517.902	-200.000	0.053	-0.246
-516.887	-200.000	-0.002	0.154
-515.872	-73.721	-0.120	-0.044
-514.858	-200.000	-0.017	0.209
-513.843	-200.000	-0.036	0.394
-512.829	-133.499	-0.158	0.020
-511.814	-200.000	0.022	-0.109
-510.799	-110.352	0.150	-0.031
-509.785	-200.000	-0.012	0.123
-508.770	330.590	0.090	-0.174
-507.756	800.000	-0.065	0.229
-506.741	-139.769	-0.176	0.019
-505.726	-200.000	-0.051	0.282
-504.712	-39.213	-0.316	0.167
-503.697	-99.422	0.318	0.081
-502.683	-96.540	0.160	0.042
-501.668	101.935	0.067	-0.079
-500.653	-200.000	0.049	-0.329
-499.639	37.822	-0.299	0.267
-498.624	-116.317	-0.314	0.058
-497.610	80.089	0.132	-0.142
-496.595	-197.567	-0.151	0.001
-495.581	-200.000	0.013	-0.325
-494.566	800.000	-0.078	-0.254
-493.551	59.148	-0.139	0.138
-492.537	437.651	0.089	-0.196
-491.522	-82.587	0.128	-0.042
-490.508	800.000	0.075	0.217
-489.493	800.000	-0.040	-0.164
-488.478	152.057	0.146	-0.200
-487.464	-97.907	0.270	0.070
-486.449	-134.631	0.214	0.026
-485.435	48.065	-0.108	0.102
-484.420	571.607	0.101	-0.247
-483.405	-90.902	0.234	0.068
-482.391	-200.000	-0.056	-0.270
-481.376	-38.460	0.127	-0.067
-480.362	-66.526	0.236	-0.094
-479.347	-108.514	-0.218	0.047
-478.332	-200.000	0.029	0.132
-477.318	-200.000	-0.033	-0.298
-476.303	800.000	0.056	0.180
-475.289	237.008	0.019	-0.032
-474.274	651.249	-0.012	0.030
-473.259	442.743	0.089	0.195
-472.245	127.719	-0.118	-0.150
-471.230	-129.531	-0.254	-0.035
-470.216	-200.000	-0.025	0.144
-469.201	158.962	0.234	-0.326
-468.186	246.686	-0.053	0.089
-467.172	210.522	-0.185	-0.291
-466.157	-41.627	-0.280	0.144
-465.143	361.098	-0.073	0.148
-464.128	116.423	0.316	-0.389
-463.113	-62.599	-0.090	0.038
-462.099	800.000	0.065	0.190
-461.084	-49.255	0.174	-0.083
-460.070	800.000	0.075	-0.275
-459.055	581.097	-0.055	-0.134
-458.040	-30.810	-0.083	-0.047
-457.026	-70.687	-0.117	0.044
-456.011	296.866	0.115	0.212
-454.997	238.370	0.025	-0.041
-453.982	467.025	0.119	0.266
-452.968	-111.070	-0.111	-0.023
-451.953	-200.000	-0.063	-0.305
-450.938	-68.882	-0.286	0.111
-449.924	-32.160	0.200	-0.112
-448.909	-44.982	-0.274	-0.137
-447.895	695.579	0.088	0.231
-446.880	303.970	-0.055	-0.102
-445.865	12.795	0.083	-0.064
-444.851	393.035	0.078	0.162
-443.836	-200.000	-0.024	0.241
-442.822	-132.631	0.261	0.034
-441.807	-200.000	-0.002	0.074
-440.792	11.851	0.256	-0.197
-439.778	52.980	-0.044	0.042
-438.763	33.290	-0.166	0.144
-437.749	-20.573	-0.345	-0.212
-436.734	86.618	-0.162	0.179
-435.719	98.683	0.075	0.087
-434.705	639.813	-0.054	-0.139
-433.690	33.711	-0.045	0.039
-432.676	207.526	-0.200	0.313
-431.661	-200.000	0.076	0.515
-430.646	467.742	-0.119	0.268
-429.632	379.052	0.113	-0.232
-428.617	800.000	-0.047	0.181
-427.603	43.830	-0.076	0.069
-426.588	-200.000	0.027	-0.127
-425.573	314.689	-0.142	0.268
-424.559	564.025	0.106	0.256
-423.544	200.440	0.059	-0.091
-422.530	-146.672	-0.090	-0.008
-421.515	14.787	-0.216	-0.169
-420.500	-200.000	-0.034	-0.363
-419.486	-200.000	-0.029	0.159
-418.471	-20.856	0.149	-0.091
-417.457	746.309	0.011	0.029
-416.442	-106.925	0.199	-0.044
-415.428	-7.012	0.201	-0.137
-414.413	-53.306	-0.408	0.187
-413.398	-71.396	0.155	-0.058
-412.384	-158.788	-0.070	-0.004
-411.369	800.000	0.074	0.319
-410.355	-93.467	0.105	0.029
-409.340	-42.649	0.197	-0.100
-408.325	-56.276	-0.243	-0.108
-407.311	-53.583	-0.168	-0.077
-406.296	-200.000	-0.004	-0.126
-405.282	-87.908	0.201	-0.060
-404.267	800.000	0.046	-0.168
-403.252	53.447	-0.164	-0.158
-402.238	-20.280	-0.163	0.100
-401.223	-200.000	-0.061	-0.280
-400.209	-170.599	0.334	0.012
-399.194	30.747	-0.287	0.246
-398.179	379.760	-0.133	0.273
-397.165	79.714	0.098	0.105
-396.150	-1.091	0.267	-0.189
-395.136	-200.000	-0.024	0.119
-394.121	-200.000	0.045	0.203
-393.106	-142.344	-0.462	0.046
-392.092	800.000	0.060	0.201
-391.077	-20.048	0.318	0.196
-390.063	-200.000	0.020	0.146
-389.048	-200.000	-0.003	0.351
-388.033	800.000	-0.053	0.175
-387.019	91.444	-0.041	-0.046
-386.004	-97.804	0.354	0.092
-384.990	-159.751	0.241	-0.013
-383.975	-200.000	-0.019	0.165
-382.960	474.205	-0.088	0.198
-381.946	-200.000	-0.030	-0.194
-380.931	-35.480	-0.005	-0.003
-379.917	113.899	0.175	0.213
-378.902	661.743	0.037	0.096
-377.888	-27.052	0.074	0.043
-376.873	800.000	-0.122	0.377
-375.858	-200.000	-0.062	-0.434
-374.844	-200.000	0.022	-0.109
-373.829	-45.087	0.209	-0.104
-372.815	91.041	-0.069	-0.077
-371.800	575.342	-0.020	-0.048
-370.785	1.290	-0.148	0.107
-369.771	-17.937	-0.051	-0.032
-368.756	-79.561	0.290	-0.098
-367.742	-94.754	-0.158	-0.043
-366.727	-117.669	0.259	-0.047
-365.712	-44.925	-0.144	-0.072
-364.698	-200.000	0.008	0.063
-363.683	135.483	0.075	-0.097
-362.669	-200.000	0.043	0.232
-361.654	-145.387	-0.069	0.006
-360.639	288.533	0.146	-0.265
-359.625	-200.000	0.034	0.355
-358.610	132.823	-0.095	0.123
-357.596	14.963	-0.281	0.220
-356.581	191.134	0.085	0.128
-355.566	-200.000	-0.037	-0.192
-354.552	539.481	-0.052	0.124
-353.537	800.000	-0.053	0.161
-352.523	57.585	-0.277	-0.270
-351.508	800.000	-0.083	0.243
-350.493	800.000	-0.036	0.149
-349.479	318.043	0.095	-0.180
-348.464	-73.566	0.273	0.099
-347.450	800.000	0.075	0.236
-346.435	-135.772	0.445	0.053
-345.420	-29.989	0.274	0.156
-344.406	84.590	-0.349	0.381
-343.391	102.959	0.117	0.137
-342.377	800.000	-0.077	-0.283
-341.362	87.117	0.084	0.092
-340.348	-105.973	-0.239	-0.054
-339.333	-149.816	0.096	-0.008
-338.318	-66.417	-0.231	0.092
-337.304	-200.000	-0.007	0.354
-336.289	412.286	-0.097	-0.206
-335.275	-40.965	0.354	-0.182
-334.260	800.000	0.103	0.410
-333.245	13.006	-0.228	0.176
-332.231	-41.590	0.161	-0.082
-331.216	-119.418	0.108	0.019
-330.202	-84.584	0.112	-0.035
-329.187	-49.707	-0.256	-0.122
-328.172	-200.000	-0.021	-0.118
-327.158	-64.398	-0.163	0.066
-326.143	800.000	0.049	-0.171
-325.129	-200.000	-0.015	-0.110
-324.114	-100.200	0.115	0.029
-323.099	93.744	-0.082	0.093
-322.085	183.176	-0.111	-0.164
-321.070	-87.333	-0.405	-0.122
-320.056	509.709	0.057	-0.131
-319.041	-80.863	0.129	-0.043
-318.026	-13.543	0.293	0.190
-317.012	37.596	-0.441	0.390
-315.997	-88.611	-0.191	-0.057
-314.983	-55.513	-0.209	0.093
-313.968	-200.000	0.048	-0.428
-312.953	465.659	-0.085	0.190
-311.939	-108.204	-0.257	0.056
-310.924	7.584	0.118	-0.088
-309.910	165.907	-0.052	0.073
-308.895	51.366	0.150	-0.142
-307.880	33.535	-0.232	-0.201
-306.866	-74.973	0.072	0.026
-305.851	-61.983	0.146	-0.061
-304.837	800.000	-0.108	0.298
-303.822	-0.612	-0.227	0.161
-302.807	-47.722	-0.312	-0.151
-301.793	-42.172	0.257	-0.131
-300.778	431.145	0.107	0.231
-299.764	-200.000	-0.036	0.273
-298.749	306.647	0.084	-0.156
-297.735	16.536	0.172	-0.135
-296.720	-87.487	-0.309	0.093
-295.705	-200.000	-0.023	0.295
-294.691	79.777	0.087	-0.093
-293.676	-74.389	-0.331	-0.119
-292.662	-200.000	0.029	-0.152
-291.647	208.375	-0.176	-0.274
-290.632	-164.619	-0.076	0.003
-289.618	-200.000	0.024	-0.175
-288.603	35.001	0.226	0.197
-287.589	-88.579	-0.195	0.058
-286.574	-86.217	-0.054	-0.016
-285.559	141.486	-0.105	-0.139
-284.545	-24.009	0.150	0.089
-283.530	-200.000	0.025	-0.166
-282.516	44.387	-0.099	0.090
-281.501	-128.171	0.468	0.067
-280.486	109.172	0.162	-0.193
-279.472	-143.906	-0.157	0.015
-278.457	344.309	-0.147	-0.287
-277.443	15.939	-0.099	-0.078
-276.428	-89.656	0.318	0.093
-275.413	252.470	-0.145	0.246
-274.399	800.000	0.052	0.205
-273.384	-95.020	0.474	0.128
-272.370	115.501	0.101	0.123
-271.355	-57.620	0.294	0.128
-270.340	-93.170	-0.240	0.066
-269.326	404.300	-0.093	-0.195
-268.311	-62.871	-0.255	-0.105
-267.297	800.000	0.039	0.150
-266.282	-85.743	0.357	0.110
-265.267	69.556	0.225	0.231
-264.253	248.468	0.134	-0.225
-263.238	30.429	0.236	-0.200
-262.224	-29.072	-0.060	0.034
-261.209	542.894	0.026	-0.061
-260.195	-200.000	-0.007	-0.326
-259.180	-113.354	0.128	-0.025
-258.165	800.000	-0.094	0.282
-257.151	15.205	0.099	0.077
-256.136	-153.838	0.368	0.025
-255.122	62.464	-0.091	-0.090
-254.107	296.589	-0.013	0.023
-253.092	472.330	-0.051	0.114
-252.078	-114.804	-0.176	0.033
-251.063	-200.000	-0.020	0.130
-250.049	557.185	-0.068	0.164
-249.034	135.702	0.252	-0.326
-248.019	269.520	-0.208	-0.364
-247.005	-3.514	0.293	0.203
-245.990	-200.000	-0.075	-0.418
-244.976	58.368	-0.005	-0.005
-243.961	-200.000	-0.011	-0.151
-242.946	48.443	-0.082	-0.076
-241.932	-145.720	0.326	0.029
-240.917	-200.000	-0.046	-0.287
-239.903	-12.921	0.192	-0.125
-238.888	265.373	0.113	-0.196
-237.873	-40.400	0.167	0.086
-236.859	800.000	0.150	0.436
-235.844	630.403	0.055	0.137
-234.830	-21.830	-0.156	-0.095
-233.815	-81.482	0.240	0.078
-232.800	800.000	-0.072	0.243
-231.786	111.049	-0.087	0.104
-230.771	177.574	0.075	0.109
-229.757	-7.983	0.095	-0.064
-228.742	-39.815	0.340	-0.176
-227.727	-173.303	0.264	-0.008
-226.713	-45.389	-0.413	0.203
-225.698	-200.000	-0.018	0.402
-224.684	230.773	-0.078	0.127
-223.669	176.803	0.114	0.164
-222.655	800.000	-0.089	-0.257
-221.640	333.419	0.152	-0.291
-220.625	-24.103	0.243	0.144
-219.611	-43.147	0.155	-0.078
-218.596	256.820	0.116	-0.199
-217.582	800.000	0.014	-0.060
-216.567	800.000	0.058	-0.187
-215.552	-75.671	-0.123	0.043
-214.538	49.867	-0.259	-0.243
-213.523	226.341	0.098	0.158
-212.509	-93.444	0.117	0.032
-211.494	541.807	-0.093	0.221
-210.479	68.518	-0.204	-0.208
-209.465	174.260	0.164	-0.235
-208.450	73.942	0.183	-0.190
-207.436	62.618	0.178	-0.177
-206.421	-115.146	-0.307	-0.058
-205.406	800.000	0.027	-0.079
-204.392	-71.986	-0.257	0.095
-203.377	33.694	0.099	0.086
-202.363	-200.000	0.012	-0.207
-201.348	-25.885	-0.217	-0.127
-200.333	-30.555	-0.303	0.170
-199.319	-200.000	0.047	0.255
-198.304	-26.675	0.223	-0.129
-197.290	112.831	0.216	0.260
-196.275	-144.064	0.273	0.025
-195.260	-9.285	0.286	0.190
-194.246	-123.369	-0.315	-0.050
-193.231	-200.000	-0.045	-0.236
-192.217	-135.715	0.232	-0.027
-191.202	71.902	-0.100	-0.103
-190.187	-200.000	-0.035	-0.154
-189.173	-99.270	0.193	0.048
-188.158	-200.000	0.089	0.000
-187.144	-200.000	-0.046	-0.203
-186.129	-68.822	-0.076	-0.029
-185.114	-95.906	0.279	0.074
-184.100	-200.000	0.044	-0.274
-183.085	-103.855	0.005	-0.001
-182.071	62.991	-0.264	0.263
-181.056	-106.482	-0.050	-0.011
-180.042	-200.000	0.005	-0.108
-179.027	140.606	0.118	0.154
-178.012	20.402	-0.162	0.130
-176.998	81.151	-0.200	-0.214
-175.983	-40.237	-0.050	-0.026
-174.969	-117.003	0.134	-0.024
-173.954	800.000	-0.060	-0.199
-172.939	-53.644	-0.200	-0.091
-171.925	-29.655	-0.118	-0.067
-170.910	-82.092	-0.221	0.072
-169.896	-57.585	0.176	0.076
-168.881	309.281	0.126	-0.234
-167.866	172.426	0.107	0.153
-166.852	-36.136	0.077	0.041
-165.837	155.545	-0.212	0.289
-164.823	-200.000	0.011	0.265
-163.808	52.109	-0.175	0.165
-162.793	91.638	-0.198	-0.221
-161.779	159.876	0.132	0.182
-160.764	65.781	0.110	0.110
-159.750	62.595	-0.223	0.221
-158.735	-37.924	-0.357	-0.188
-157.720	439.053	0.117	-0.253
-156.706	90.574	0.141	0.156
-155.691	-200.000	0.014	-0.234
-154.677	-70.282	0.042	0.016
-153.662	151.611	0.132	0.178
-152.647	-156.346	-0.387	-0.024
-151.633	-34.949	-0.214	0.116
-150.618	93.607	-0.207	-0.233
-149.604	52.914	-0.230	0.218
-148.589	-200.000	0.023	0.231
-147.574	-106.036	-0.131	0.029
-146.560	474.242	-0.152	0.340
-145.545	292.549	0.030	-0.054
-144.531	0.491	0.267	0.189
-143.516	664.270	0.019	0.049
-142.502	94.620	-0.153	0.172
-141.487	-200.000	-0.083	0.363
-140.472	184.748	-0.138	0.202
-139.458	-9.090	-0.087	-0.058
-138.443	-92.703	-0.245	-0.068
-137.429	-200.000	0.006	0.067
-136.414	-99.933	-0.024	-0.006
-135.399	-149.019	0.375	0.030
-134.385	-127.224	0.138	-0.020
-133.370	-9.895	-0.087	-0.057
-132.356	-60.418	-0.112	0.047
-131.341	800.000	-0.053	0.228
-130.326	-41.627	-0.087	0.044
-129.312	63.988	0.069	0.069
-128.297	1.606	-0.162	0.115
-127.283	-32.189	0.159	0.088
-126.268	-103.601	0.286	-0.067
-125.253	20.755	-0.179	-0.144
-124.239	800.000	0.064	0.246
-123.224	-200.000	0.052	-0.272
-122.210	68.166	0.056	-0.057
-121.195	-200.000	0.049	0.216
