DTS Sentinel unit serial number:	SN413079Multiplexer serial number:	ORYXHardware model number:	OX4-SRSoftware version number:	ORYX F/W v4.00 Oryx Data Collector v3.7.2.0data status	okinstallation	princeton_trtdifferential loss correction	single-endedforward channel	channel 3reverse channel	N/Adate	2019/09/17time	04:32:35forward acquisition time	60.00reverse acquisition time	0.00gamma	496.2192k internal	0.2324k external	0.2324temperature offset calibration	0.9941default loss term (dB/km)	0.3790temperature slope calibration	1.0000multiplexer offset coefficient	1.0000multiplexer slope coefficient	1.0000fibre end	0.00T internal ref (°C)	29.69T ext. ref 1 (°C)	0.13T ext. ref 2 (°C)	24.13length (m)	temperature (°C)	Stokes	anti-Stokes-747.200	-71.029	0.576	0.219
-746.185	-36.003	-0.188	0.102
-745.171	-84.365	-0.277	-0.088
-744.156	-56.125	-0.072	0.032
-743.142	-114.653	0.147	-0.028
-742.127	-11.978	-0.120	0.079
-741.112	-127.628	-0.089	-0.013
-740.098	137.420	-0.067	0.089
-739.083	-123.311	0.255	0.041
-738.069	284.129	0.092	0.168
-737.054	-140.455	0.102	0.011
-736.039	-67.841	-0.280	-0.110
-735.025	203.603	0.196	0.307
-734.010	19.163	0.185	-0.150
-732.996	393.237	0.069	-0.145
-731.981	181.441	-0.189	-0.281
-730.966	-90.741	-0.059	0.017
-729.952	-18.557	0.089	0.056
-728.937	633.888	0.119	0.303
-727.923	180.675	0.128	-0.190
-726.908	800.000	-0.040	-0.160
-725.894	-68.782	0.222	-0.087
-724.879	-63.843	-0.244	0.101
-723.864	674.867	-0.089	-0.232
-722.850	-61.363	-0.199	0.084
-721.835	-115.038	0.219	-0.042
-720.821	-200.000	-0.026	-0.253
-719.806	-59.928	0.125	-0.054
-718.791	-188.833	-0.085	-0.001
-717.777	800.000	-0.041	0.173
-716.762	-139.812	0.229	0.024
-715.748	664.298	-0.036	0.094
-714.733	-200.000	0.049	-0.246
-713.718	-86.300	0.105	0.033
-712.704	548.498	-0.164	0.397
-711.689	-200.000	0.025	0.418
-710.675	42.077	-0.118	0.108
-709.660	696.305	-0.134	-0.354
-708.645	235.407	0.275	-0.457
-707.631	680.072	-0.065	-0.172
-706.616	-194.816	0.208	0.002
-705.602	-152.770	-0.182	-0.013
-704.587	55.426	0.174	-0.170
-703.572	-52.188	0.203	0.095
-702.558	45.733	-0.120	0.112
-701.543	-63.893	-0.120	-0.049
-700.529	-200.000	0.016	0.191
-699.514	140.490	0.091	-0.121
-698.499	800.000	0.100	0.428
-697.485	748.839	-0.128	-0.349
-696.470	800.000	-0.015	-0.056
-695.456	75.152	0.221	0.234
-694.441	-79.692	-0.146	0.050
-693.426	-17.017	-0.091	0.058
-692.412	80.849	-0.257	-0.280
-691.397	-61.866	-0.258	0.109
-690.383	226.984	0.107	0.175
-689.368	415.846	-0.072	-0.154
-688.354	-54.425	-0.166	-0.076
-687.339	191.106	-0.062	-0.093
-686.324	-102.464	-0.469	-0.113
-685.310	-85.141	-0.037	0.012
-684.295	0.900	-0.283	0.204
-683.281	197.011	-0.041	0.064
-682.266	-113.739	-0.323	0.063
-681.251	-200.000	-0.014	-0.328
-680.237	-200.000	-0.008	-0.097
-679.222	110.334	0.252	0.305
-678.208	800.000	-0.057	-0.164
-677.193	-51.133	0.226	-0.107
-676.178	604.766	0.045	0.113
-675.164	-63.373	0.319	0.132
-674.149	232.360	0.119	0.198
-673.135	-200.000	-0.000	0.257
-672.120	8.775	0.303	0.230
-671.105	-200.000	-0.053	0.350
-670.091	-200.000	0.151	-0.687
-669.076	196.707	-0.070	-0.107
-668.062	411.300	-0.079	0.168
-667.047	-200.000	0.013	-0.224
-666.032	25.348	-0.162	0.135
-665.018	-47.530	0.324	-0.158
-664.003	-105.783	-0.447	0.102
-662.989	-134.990	0.083	-0.010
-661.974	28.354	-0.147	-0.125
-660.959	-90.989	-0.076	0.022
-659.945	232.789	-0.112	0.184
-658.930	-53.059	-0.184	-0.085
-657.916	108.408	0.045	0.054
-656.901	160.332	0.147	-0.207
-655.886	-83.560	0.115	0.037
-654.872	149.496	0.101	-0.138
-653.857	11.266	0.066	-0.051
-652.843	153.402	0.183	-0.252
-651.828	532.422	0.032	0.077
-650.814	66.816	0.168	-0.172
-649.799	-200.000	0.002	0.253
-648.784	-47.687	-0.196	-0.096
-647.770	28.151	-0.149	0.126
-646.755	-169.694	0.282	0.010
-645.741	-93.439	0.171	0.048
-644.726	-70.009	-0.179	-0.068
-643.711	67.258	0.083	-0.085
-642.697	-160.071	-0.081	-0.004
-641.682	-95.933	-0.340	0.091
-640.668	151.898	0.093	-0.128
-639.653	-200.000	-0.003	-0.303
-638.638	5.813	0.107	0.079
-637.624	800.000	-0.037	0.129
-636.609	-200.000	0.003	-0.119
-635.595	800.000	0.057	-0.167
-634.580	137.290	0.040	-0.053
-633.565	-200.000	0.068	-0.360
-632.551	113.588	0.116	-0.141
-631.536	-200.000	0.050	-0.479
-630.522	-14.809	-0.301	-0.194
-629.507	278.750	-0.025	0.046
-628.492	-200.000	-0.017	0.352
-627.478	-61.057	-0.288	0.122
-626.463	800.000	-0.088	0.295
-625.449	262.730	-0.058	-0.102
-624.434	-196.655	-0.481	-0.003
-623.419	-200.000	-0.023	0.398
-622.405	89.626	-0.345	0.386
-621.390	800.000	0.083	0.269
-620.376	800.000	-0.085	-0.273
-619.361	-10.655	0.041	0.027
-618.346	800.000	0.054	-0.208
-617.332	102.933	0.069	0.081
-616.317	-200.000	0.043	-0.231
-615.303	-200.000	-0.014	-0.218
-614.288	800.000	-0.080	0.286
-613.273	66.521	-0.124	-0.127
-612.259	746.427	0.041	0.112
-611.244	-43.531	-0.303	0.154
-610.230	38.474	0.246	0.220
-609.215	800.000	-0.069	-0.227
-608.201	694.402	0.186	-0.489
-607.186	636.875	-0.042	-0.107
-606.171	-200.000	0.060	0.491
-605.157	-41.382	0.213	-0.110
-604.142	149.559	-0.168	-0.229
-603.128	-200.000	0.048	-0.245
-602.113	800.000	0.046	-0.162
-601.098	20.476	0.113	0.092
-600.084	14.629	0.252	0.198
-599.069	-155.469	0.101	0.007
-598.055	-16.383	0.182	-0.116
-597.040	-62.493	-0.432	-0.180
-596.025	-129.276	-0.139	-0.019
-595.011	90.247	0.073	-0.082
-593.996	10.452	0.200	0.153
-592.982	-180.499	-0.250	0.005
-591.967	-95.869	0.255	-0.068
-590.952	-200.000	-0.012	0.256
-589.938	-4.881	0.139	-0.096
-588.923	42.075	-0.174	-0.158
-587.909	-200.000	0.034	-0.203
-586.894	250.385	0.086	-0.147
-585.879	3.203	0.390	-0.285
-584.865	68.131	0.231	0.237
-583.850	114.116	0.106	0.129
-582.836	-4.962	0.244	0.169
-581.821	-58.623	0.126	0.055
-580.806	197.545	-0.257	0.394
-579.792	14.466	0.071	0.056
-578.777	-69.617	0.212	0.082
-577.763	-117.751	0.112	-0.020
-576.748	180.155	0.140	-0.206
-575.733	368.071	-0.032	-0.065
-574.719	-125.529	0.168	0.026
-573.704	-200.000	0.047	-0.250
-572.690	-127.721	0.303	0.044
-571.675	-31.444	-0.173	-0.097
-570.661	-200.000	0.002	0.092
-569.646	152.506	-0.255	-0.349
-568.631	193.398	0.163	-0.248
-567.617	-67.379	0.289	-0.114
-566.602	65.091	-0.189	0.191
-565.588	302.133	-0.180	-0.334
-564.573	-200.000	0.018	0.329
-563.558	-17.476	0.004	-0.002
-562.544	800.000	0.147	-0.418
-561.529	323.965	-0.031	-0.059
-560.515	592.402	-0.065	-0.162
-559.500	6.434	-0.049	0.037
-558.485	-200.000	0.036	-0.250
-557.471	7.160	-0.180	0.135
-556.456	-64.023	-0.100	-0.041
-555.442	-161.282	0.138	0.007
-554.427	-200.000	0.003	-0.396
-553.412	51.027	-0.224	0.213
-552.398	-200.000	0.007	-0.055
-551.383	71.002	0.229	-0.238
-550.369	0.701	0.175	0.125
-549.354	25.665	0.126	-0.105
-548.339	-2.598	0.290	0.203
-547.325	111.613	-0.099	0.120
-546.310	-16.397	-0.020	0.013
-545.296	35.721	-0.196	0.173
-544.281	73.635	-0.080	0.084
-543.266	-52.547	0.210	-0.097
-542.252	-111.225	0.372	0.076
-541.237	800.000	-0.046	0.185
-540.223	247.807	-0.155	-0.262
-539.208	42.947	0.256	-0.234
-538.193	57.118	-0.193	-0.189
-537.179	-147.539	-0.292	0.025
-536.164	29.860	0.082	-0.070
-535.150	-156.423	0.224	0.014
-534.135	-128.073	0.222	-0.032
-533.121	103.254	-0.262	0.308
-532.106	-200.000	-0.116	0.659
-531.091	-200.000	-0.049	-0.285
-530.077	-105.492	0.469	0.107
-529.062	15.050	0.185	0.145
-528.048	800.000	-0.020	-0.074
-527.033	-131.244	-0.147	-0.020
-526.018	-200.000	-0.070	0.343
-525.004	800.000	-0.086	-0.254
-523.989	20.973	-0.142	0.115
-522.975	-200.000	0.011	-0.095
-521.960	-200.000	-0.000	0.059
-520.945	3.909	0.267	-0.195
-519.931	-141.838	-0.315	-0.032
-518.916	-200.000	0.032	0.182
-517.902	-151.304	-0.111	0.008
-516.887	72.447	-0.087	-0.091
-515.872	-22.527	-0.150	-0.091
-514.858	-69.137	0.276	-0.106
-513.843	-200.000	-0.006	0.109
-512.829	-200.000	0.005	0.077
-511.814	800.000	-0.164	0.455
-510.799	800.000	0.032	0.115
-509.785	-87.322	-0.234	0.071
-508.770	-34.814	0.190	-0.104
-507.756	0.390	-0.369	0.264
-506.741	-145.279	0.129	-0.012
-505.726	-144.577	0.236	0.022
-504.712	-200.000	0.035	-0.232
-503.697	800.000	-0.094	-0.293
-502.683	100.686	0.126	0.146
-501.668	-88.625	-0.088	-0.026
-500.653	150.888	-0.041	0.056
-499.639	-89.681	0.324	0.095
-498.624	-124.399	0.283	0.044
-497.610	-144.841	-0.474	0.043
-496.595	686.047	0.201	-0.525
-495.581	-129.671	-0.240	-0.033
-494.566	-200.000	0.072	0.361
-493.551	-14.528	-0.089	-0.057
-492.537	398.522	0.072	0.151
-491.522	-48.153	0.166	0.080
-490.508	-200.000	0.003	0.063
-489.493	-174.836	-0.095	0.003
-488.478	-149.550	-0.307	-0.024
-487.464	-98.902	-0.093	-0.024
-486.449	-47.184	0.256	-0.125
-485.435	800.000	-0.076	0.218
-484.420	661.820	-0.094	-0.243
-483.405	-126.419	0.154	-0.023
-482.391	-74.822	-0.197	0.071
-481.376	-69.299	-0.224	0.086
-480.362	-104.848	-0.099	-0.023
-479.347	-8.004	-0.121	-0.082
-478.332	-137.771	-0.207	0.023
-477.318	599.353	0.045	0.111
-476.303	-92.204	-0.189	0.053
-475.289	-200.000	-0.003	-0.128
-474.274	168.024	-0.273	-0.388
-473.259	204.699	0.030	-0.046
-472.245	54.404	-0.158	0.152
-471.230	-200.000	-0.058	0.289
-470.216	123.280	0.107	-0.134
-469.201	212.328	0.036	0.057
-468.186	-34.688	-0.154	0.084
-467.172	116.456	0.318	-0.389
-466.157	-200.000	0.059	-0.441
-465.143	-19.959	-0.067	0.041
-464.128	164.632	0.170	0.240
-463.113	800.000	-0.058	0.174
-462.099	317.627	-0.090	0.171
-461.084	319.067	-0.156	0.295
-460.070	-200.000	0.034	0.187
-459.055	120.639	0.268	-0.333
-458.040	-94.705	-0.232	0.063
-457.026	-179.413	0.479	0.011
-456.011	800.000	-0.079	-0.269
-454.997	82.882	-0.142	0.154
-453.982	52.241	-0.116	-0.111
-452.968	466.466	0.145	0.325
-451.953	315.776	0.028	-0.053
-450.938	318.667	-0.067	-0.127
-449.924	800.000	-0.084	-0.243
-448.909	800.000	0.114	0.359
-447.895	-99.133	0.108	-0.027
-446.880	314.973	0.139	0.261
-445.865	-27.566	-0.100	0.058
-444.851	-34.173	-0.436	0.239
-443.836	151.374	-0.038	-0.052
-442.822	-200.000	-0.007	-0.052
-441.807	58.418	0.272	-0.266
-440.792	-62.005	-0.250	0.104
-439.778	-200.000	-0.011	0.200
-438.763	-200.000	-0.001	0.129
-437.749	-173.106	-0.245	-0.008
-436.734	353.823	-0.214	-0.423
-435.719	-67.896	-0.464	0.181
-434.705	-200.000	0.010	0.374
-433.690	89.037	-0.088	0.098
-432.676	-125.563	0.067	0.010
-431.661	-200.000	0.013	0.088
-430.646	242.890	-0.034	-0.057
-429.632	283.241	0.098	-0.176
-428.617	-92.498	-0.098	-0.027
-427.603	8.324	-0.109	0.082
-426.588	-39.015	0.136	-0.071
-425.573	-48.121	-0.226	-0.109
-424.559	180.499	0.024	-0.036
-423.544	-200.000	-0.010	-0.097
-422.530	275.735	0.131	0.231
-421.515	-154.437	-0.322	0.022
-420.500	0.397	0.256	-0.182
-419.486	-80.959	-0.302	-0.100
-418.471	-14.366	0.381	0.245
-417.457	516.784	0.097	-0.227
-416.442	-121.957	0.089	-0.015
-415.428	518.000	0.069	0.161
-414.413	-200.000	-0.014	0.276
-413.398	-33.015	0.219	0.121
-412.384	-200.000	-0.011	0.178
-411.369	-40.667	-0.130	0.067
-410.355	177.931	0.061	-0.088
-409.340	473.291	0.046	-0.104
-408.325	226.018	-0.178	0.288
-407.311	-73.220	-0.403	0.147
-406.296	-200.000	-0.053	-0.317
-405.282	14.947	-0.289	-0.225
-404.267	-200.000	0.019	-0.163
-403.252	-200.000	-0.200	0.000
-402.238	-57.395	0.281	0.123
-401.223	-132.106	-0.345	0.045
-400.209	800.000	0.068	-0.196
-399.194	16.793	-0.316	-0.249
-398.179	-200.000	-0.029	-0.350
-397.165	586.297	0.100	-0.244
-396.150	-178.922	0.092	-0.002
-395.136	-200.000	-0.067	0.309
-394.121	-134.780	0.325	0.039
-393.106	-31.533	0.175	0.098
-392.092	171.491	-0.177	0.254
-391.077	800.000	0.013	0.053
-390.063	-132.724	0.364	0.046
-389.048	37.990	0.055	-0.049
-388.033	800.000	-0.033	-0.097
-387.019	734.203	-0.041	0.110
-386.004	-155.554	0.247	0.016
-384.990	800.000	-0.044	0.160
-383.975	219.034	-0.067	-0.107
-382.960	141.964	-0.411	0.542
-381.946	-161.969	-0.165	0.008
-380.931	-200.000	0.003	-0.269
-379.917	21.305	-0.206	0.166
-378.902	-131.845	-0.372	0.048
-377.888	97.326	0.041	-0.047
-376.873	188.353	0.125	-0.185
-375.858	463.771	0.029	-0.064
-374.844	800.000	0.076	0.211
-373.829	800.000	0.023	-0.068
-372.815	-200.000	-0.013	-0.467
-371.800	800.000	-0.188	-0.520
-370.785	-49.204	-0.245	-0.117
-369.771	-123.250	0.222	-0.035
-368.756	-124.671	-0.376	-0.058
-367.742	375.388	-0.086	-0.175
-366.727	342.073	0.019	0.037
-365.712	707.260	-0.031	-0.080
-364.698	221.361	0.046	0.074
-363.683	-153.269	-0.476	-0.033
-362.669	149.008	-0.125	-0.168
-361.654	275.162	-0.097	-0.171
-360.639	396.076	0.083	-0.172
-359.625	-62.933	0.268	-0.110
-358.610	-94.753	-0.362	-0.098
-357.596	-112.717	0.191	0.038
-356.581	128.596	0.042	-0.053
-355.566	-200.000	-0.003	-0.225
-354.552	800.000	-0.037	0.134
-353.537	-200.000	0.012	-0.341
-352.523	800.000	-0.049	-0.140
-351.508	211.509	0.289	0.452
-350.493	204.964	0.132	0.204
-349.479	-33.382	0.315	0.173
-348.464	-26.450	0.116	0.068
-347.450	-148.664	-0.161	-0.013
-346.435	619.521	-0.031	-0.078
-345.420	-200.000	-0.036	-0.247
-344.406	-76.572	-0.318	0.111
-343.391	-150.667	-0.305	0.023
-342.377	-4.792	0.031	0.021
-341.362	-143.670	-0.437	0.041
-340.348	-200.000	-0.006	-0.088
-339.333	800.000	0.124	0.353
-338.318	255.324	0.113	0.192
-337.304	94.604	0.227	0.256
-336.289	-200.000	-0.042	0.321
-335.275	-101.892	-0.272	-0.065
-334.260	-76.828	0.198	0.069
-333.245	-74.867	-0.132	-0.047
-332.231	800.000	0.055	-0.196
-331.216	-15.662	-0.206	-0.130
-330.202	100.445	0.211	-0.243
-329.187	752.466	0.049	-0.132
-328.172	-119.295	0.137	0.024
-327.158	-182.816	0.108	-0.002
-326.143	-6.095	0.182	0.124
-325.129	-176.461	-0.104	0.003
-324.114	-95.516	0.273	0.073
-323.099	97.579	-0.170	0.194
-322.085	-200.000	-0.021	-0.228
-321.070	455.179	0.113	0.249
-320.056	211.986	0.228	0.357
-319.041	168.094	-0.049	0.070
-318.026	-153.180	0.242	0.017
-317.012	-111.069	0.162	0.033
-315.997	62.162	-0.220	0.218
-314.983	95.463	0.045	0.051
-313.968	-102.013	0.178	0.043
-312.953	-200.000	-0.008	-0.153
-311.939	-177.711	0.088	0.002
-310.924	624.077	0.095	0.238
-309.910	703.891	0.038	0.099
-308.895	680.324	-0.107	0.278
-307.880	800.000	0.010	0.037
-306.866	-200.000	0.075	0.346
-305.851	-34.758	-0.025	-0.013
-304.837	-65.140	0.180	0.072
-303.822	-200.000	0.001	-0.422
-302.807	-80.666	0.274	-0.090
-301.793	-200.000	-0.037	0.168
-300.778	-200.000	0.002	-0.043
-299.764	-200.000	0.069	0.326
-298.749	54.500	-0.349	0.334
-297.735	-56.615	-0.119	0.052
-296.720	-72.158	-0.122	0.045
-295.705	-132.876	-0.059	0.007
-294.691	144.249	0.072	-0.096
-293.676	-11.083	-0.139	-0.091
-292.662	10.139	-0.076	-0.057
-291.647	63.690	0.012	0.012
-290.632	-1.595	0.176	0.123
-289.618	355.256	-0.097	0.192
-288.603	-123.938	0.196	-0.031
-287.589	-200.000	-0.029	0.171
-286.574	-200.000	-0.050	-0.222
-285.559	613.707	-0.012	0.030
-284.545	800.000	-0.148	0.474
-283.530	217.547	0.160	0.253
-282.516	225.636	0.041	0.066
-281.501	-142.000	0.111	0.011
-280.486	-52.984	0.150	-0.068
-279.472	-129.663	0.180	0.025
-278.457	-200.000	0.042	0.254
-277.443	-118.276	0.104	0.018
-276.428	-95.517	0.324	-0.086
-275.413	-86.766	0.123	-0.037
-274.399	-102.434	0.169	-0.040
-273.384	-200.000	0.072	0.333
-272.370	245.615	0.086	-0.144
-271.355	-200.000	0.036	0.300
-270.340	-54.946	0.270	0.121
-269.326	-52.778	0.117	-0.053
-268.311	800.000	0.105	-0.322
-267.297	800.000	0.019	-0.053
-266.282	273.922	0.052	-0.091
-265.267	685.284	0.029	-0.074
-264.253	24.440	-0.100	-0.082
-263.238	-168.967	0.305	0.011
-262.224	-121.084	-0.141	-0.023
-261.209	244.879	-0.124	0.207
-260.195	800.000	-0.086	-0.258
-259.180	-31.821	0.087	-0.048
-258.165	152.162	0.066	-0.089
-257.151	537.348	-0.045	-0.107
-256.136	-200.000	-0.035	-0.301
-255.122	469.946	0.040	-0.089
-254.107	-200.000	0.001	-0.345
-253.092	179.246	0.099	0.144
-252.078	-134.356	0.271	-0.033
-251.063	-197.812	-0.229	0.001
-250.049	-80.099	-0.297	-0.099
-249.034	39.456	0.175	0.155
-248.019	113.672	0.187	-0.225
-247.005	-159.877	-0.039	0.002
-245.990	360.275	0.111	0.221
-244.976	-4.535	-0.068	0.047
-243.961	55.290	0.128	0.123
-242.946	-117.934	-0.111	-0.020
-241.932	17.120	-0.160	0.126
-240.917	4.693	0.337	-0.245
-239.903	18.461	0.090	0.071
-238.888	-200.000	0.061	0.431
-237.873	-200.000	0.000	0.124
-236.859	-130.343	-0.154	-0.021
-235.844	-81.142	-0.315	-0.103
-234.830	800.000	0.087	0.269
-233.815	172.244	-0.120	0.170
-232.800	800.000	-0.084	0.254
-231.786	-45.670	-0.151	0.074
-230.771	-200.000	-0.009	0.189
-229.757	238.087	0.044	-0.073
-228.742	554.965	-0.181	0.431
-227.727	557.795	-0.092	-0.219
-226.713	800.000	0.068	0.198
-225.698	-101.890	-0.257	0.062
-224.684	213.588	-0.030	-0.047
-223.669	-68.858	0.044	0.017
-222.655	300.417	-0.091	0.166
-221.640	288.242	0.144	0.258
-220.625	289.176	0.102	0.183
-219.611	59.937	-0.163	0.160
-218.596	-200.000	0.037	-0.177
-217.582	108.803	-0.039	-0.046
-216.567	576.185	-0.062	-0.149
-215.552	763.340	-0.046	-0.124
-214.538	281.975	-0.072	0.128
-213.523	800.000	0.015	-0.061
-212.509	-107.950	0.267	-0.057
-211.494	285.013	-0.053	0.094
-210.479	50.941	0.101	-0.095
-209.465	-122.117	-0.049	-0.008
-208.450	-65.679	0.142	0.056
-207.436	-200.000	-0.034	0.265
-206.421	107.145	0.146	0.172
-205.406	-101.003	-0.224	-0.054
-204.392	786.759	-0.042	-0.114
-203.377	-200.000	-0.014	-0.338
-202.363	-2.455	-0.298	-0.206
-201.348	185.188	-0.015	0.023
-200.333	104.654	0.201	-0.234
-199.319	-200.000	-0.124	-0.548
-198.304	563.475	-0.071	-0.169
-197.290	-132.097	0.143	-0.018
-196.275	-79.865	0.111	-0.037
-195.260	-11.046	-0.066	-0.043
-194.246	151.529	-0.067	0.090
-193.231	-200.000	0.015	-0.259
-192.217	-200.000	0.047	0.664
-191.202	-200.000	0.022	0.195
-190.187	294.108	0.031	0.056
-189.173	320.645	0.028	0.053
-188.158	800.000	0.014	-0.042
-187.144	-156.837	0.520	0.032
-186.129	283.746	0.172	0.306
-185.114	-24.233	-0.247	-0.145
-184.100	607.688	-0.028	0.070
-183.085	-79.565	-0.326	-0.109
-182.071	-90.715	0.438	-0.125
-181.056	-200.000	0.041	0.209
-180.042	4.211	-0.303	-0.219
-179.027	-85.153	0.214	-0.066
-178.012	67.086	-0.065	0.065
-176.998	-200.000	0.001	-0.035
-175.983	-126.579	0.298	0.044
-174.969	-37.260	-0.225	-0.119
-173.954	171.175	-0.128	-0.181
-172.939	6.275	0.137	0.100
-171.925	255.819	-0.212	0.360
-170.910	-127.922	-0.271	0.038
-169.896	-188.467	0.231	0.003
-168.881	-23.365	0.230	-0.136
-167.866	-200.000	-0.029	-0.304
-166.852	357.803	0.007	-0.014
-165.837	-121.954	0.093	0.015
-164.823	-140.733	0.188	0.019
-163.808	-200.000	-0.003	-0.234
-162.793	-164.121	-0.146	0.007
-161.779	-200.000	-0.000	-0.278
-160.764	800.000	-0.102	-0.381
-159.750	-53.872	0.166	-0.075
-158.735	-37.461	-0.047	-0.025
-157.720	-179.032	0.179	-0.004
-156.706	-200.000	-0.003	-0.265
-155.691	66.815	0.142	-0.142
-154.677	-200.000	-0.008	-0.380
-153.662	264.085	-0.202	-0.348
-152.647	180.266	0.064	-0.093
-151.633	-52.682	0.134	0.061
-150.618	-78.224	0.256	0.087
-149.604	1.118	0.114	-0.081
-148.589	-200.000	-0.039	0.172
-147.574	-76.763	-0.065	-0.022
-146.560	-48.240	-0.105	-0.050
-145.545	184.053	0.337	-0.493
-144.531	-15.308	0.134	0.085
-143.516	-181.141	0.289	0.006
-142.502	-94.197	0.220	-0.059
-141.487	439.366	-0.093	0.201
-140.472	-138.425	0.206	0.022
-139.458	-99.032	-0.287	-0.072
-138.443	76.457	0.090	-0.094
-137.429	-47.533	-0.039	-0.018
-136.414	-109.750	0.212	0.044
-135.399	111.573	-0.053	-0.063
-134.385	191.703	0.046	-0.069
-133.370	-200.000	0.016	0.102
-132.356	797.964	0.079	0.216
-131.341	-200.000	0.030	0.301
-130.326	173.044	0.153	0.217
-129.312	-200.000	-0.008	-0.038
-128.297	-43.451	-0.188	0.094
-127.283	800.000	-0.167	-0.475
-126.268	2.878	0.169	0.121
-125.253	1.202	-0.122	0.086
-124.239	-14.343	-0.194	-0.123
-123.224	-200.000	-0.017	0.082
-122.210	277.097	-0.086	-0.152
