DTS Sentinel unit serial number:	SN413079Multiplexer serial number:	ORYXHardware model number:	OX4-SRSoftware version number:	ORYX F/W v4.00 Oryx Data Collector v3.7.2.0data status	okinstallation	princeton_trtdifferential loss correction	single-endedforward channel	channel 3reverse channel	N/Adate	2019/09/16time	22:04:35forward acquisition time	60.00reverse acquisition time	0.00gamma	496.2192k internal	0.2324k external	0.2324temperature offset calibration	0.9939default loss term (dB/km)	0.3790temperature slope calibration	1.0000multiplexer offset coefficient	1.0000multiplexer slope coefficient	1.0000fibre end	0.00T internal ref (°C)	31.12T ext. ref 1 (°C)	0.07T ext. ref 2 (°C)	25.09length (m)	temperature (°C)	Stokes	anti-Stokes-747.200	104.586	0.043	-0.052
-746.185	-200.000	0.001	0.198
-745.171	762.218	0.029	0.079
-744.156	-200.000	0.058	0.362
-743.142	160.561	0.265	0.374
-742.127	-146.569	-0.333	0.029
-741.112	-42.704	0.081	-0.041
-740.098	512.145	-0.117	-0.274
-739.083	263.005	0.087	0.153
-738.069	-78.719	0.077	0.027
-737.054	306.597	-0.114	0.214
-736.039	313.786	-0.071	0.134
-735.025	381.083	-0.006	0.013
-734.010	43.111	0.178	-0.164
-732.996	-138.787	-0.063	0.007
-731.981	800.000	-0.084	-0.236
-730.966	383.652	-0.124	0.257
-729.952	-200.000	0.045	0.394
-728.937	285.022	0.047	-0.085
-727.923	465.844	0.121	-0.274
-726.908	-74.585	-0.178	-0.065
-725.894	-94.645	-0.427	-0.117
-724.879	496.442	0.055	-0.127
-723.864	75.930	0.035	-0.037
-722.850	-200.000	-0.026	-0.310
-721.835	-145.340	-0.034	-0.003
-720.821	-84.598	0.241	-0.077
-719.806	322.793	0.071	-0.137
-718.791	-131.369	-0.356	-0.048
-717.777	-130.769	-0.191	-0.026
-716.762	-131.558	0.029	0.004
-715.748	161.942	-0.227	0.321
-714.733	800.000	-0.080	0.249
-713.718	59.402	-0.039	0.039
-712.704	-200.000	0.050	0.235
-711.689	-19.959	0.102	-0.063
-710.675	328.515	-0.019	0.036
-709.660	16.969	0.056	0.045
-708.645	800.000	-0.081	-0.294
-707.631	-156.305	0.333	-0.021
-706.616	172.469	0.052	0.076
-705.602	-3.886	-0.121	-0.085
-704.587	155.296	0.081	-0.112
-703.572	29.230	-0.105	0.089
-702.558	73.109	0.076	-0.080
-701.543	764.025	-0.077	0.211
-700.529	-89.095	0.140	-0.042
-699.514	-50.196	-0.289	-0.138
-698.499	285.627	-0.058	0.106
-697.485	-200.000	0.016	0.193
-696.470	-200.000	0.003	0.050
-695.456	48.809	0.331	-0.312
-694.441	-200.000	-0.024	-0.185
-693.426	17.112	-0.092	-0.073
-692.412	463.473	0.042	-0.095
-691.397	656.628	0.056	-0.144
-690.383	209.161	-0.117	0.184
-689.368	-200.000	-0.038	0.323
-688.354	-6.116	0.227	-0.156
-687.339	252.587	-0.067	-0.115
-686.324	-101.619	-0.293	0.072
-685.310	-198.861	-0.216	-0.001
-684.295	-200.000	0.020	-0.101
-683.281	148.351	0.162	0.220
-682.266	-60.467	0.123	0.053
-681.251	-105.058	0.274	0.063
-680.237	139.808	-0.121	0.161
-679.222	523.833	-0.052	0.123
-678.208	40.258	-0.185	-0.167
-677.193	-83.202	-0.311	-0.101
-676.178	36.883	0.239	0.213
-675.164	-27.784	-0.340	-0.198
-674.149	25.193	-0.133	-0.111
-673.135	-77.325	-0.114	0.040
-672.120	108.883	-0.087	-0.105
-671.105	800.000	0.060	-0.182
-670.091	513.252	-0.068	0.160
-669.076	-200.000	0.006	0.039
-668.062	800.000	0.052	-0.225
-667.047	-180.841	0.240	-0.005
-666.032	-200.000	-0.047	0.272
-665.018	350.241	0.170	-0.338
-664.003	16.240	0.195	-0.154
-662.989	800.000	0.038	-0.148
-661.974	-51.954	-0.411	0.192
-660.959	12.226	0.148	0.115
-659.945	137.959	-0.153	-0.202
-658.930	-2.633	-0.132	0.093
-657.916	290.092	0.086	-0.157
-656.901	47.718	0.131	-0.123
-655.886	249.415	-0.210	0.358
-654.872	-50.652	0.086	0.041
-653.857	-15.557	0.197	-0.126
-652.843	293.556	-0.217	0.399
-651.828	114.331	-0.071	-0.087
-650.814	43.911	-0.188	-0.173
-649.799	-181.021	-0.179	-0.004
-648.784	309.982	0.112	0.211
-647.770	-200.000	0.036	0.250
-646.755	-200.000	-0.003	0.115
-645.741	46.481	0.127	-0.119
-644.726	149.426	-0.079	-0.107
-643.711	350.278	-0.052	-0.103
-642.697	-170.110	-0.187	0.007
-641.682	-29.959	-0.079	0.045
-640.668	100.120	-0.196	-0.228
-639.653	-146.045	-0.096	-0.009
-638.638	214.560	-0.155	0.247
-637.624	-7.348	0.319	-0.217
-636.609	-49.069	-0.419	-0.201
-635.595	-2.158	0.160	-0.113
-634.580	59.480	-0.171	0.169
-633.565	800.000	-0.063	-0.205
-632.551	-97.335	-0.082	0.021
-631.536	372.401	-0.129	0.262
-630.522	-36.175	-0.071	-0.038
-629.507	202.851	0.217	-0.337
-628.492	800.000	-0.017	0.068
-627.478	-142.150	-0.249	-0.025
-626.463	800.000	-0.076	-0.247
-625.449	-11.551	-0.253	-0.167
-624.434	639.365	0.103	-0.264
-623.419	-120.253	-0.208	-0.036
-622.405	-21.294	-0.262	0.161
-621.390	55.753	0.223	-0.217
-620.376	800.000	-0.011	-0.031
-619.361	416.044	0.174	-0.373
-618.346	675.587	0.070	0.182
-617.332	485.116	-0.048	0.111
-616.317	800.000	0.030	-0.119
-615.303	-8.572	0.239	0.161
-614.288	-10.019	0.292	0.195
-613.273	618.242	-0.066	-0.167
-612.259	-29.578	-0.065	0.037
-611.244	-77.941	-0.408	0.141
-610.230	2.943	-0.384	-0.280
-609.215	-172.663	-0.171	-0.005
-608.201	-200.000	0.034	-0.466
-607.186	82.114	-0.157	-0.171
-606.171	76.038	-0.154	-0.163
-605.157	-46.049	0.147	-0.073
-604.142	-119.373	-0.056	-0.010
-603.128	-135.106	-0.124	-0.015
-602.113	-200.000	-0.005	-0.130
-601.098	127.520	-0.026	-0.033
-600.084	103.706	0.062	-0.073
-599.069	10.796	0.287	-0.220
-598.055	-10.977	-0.149	0.099
-597.040	-107.085	-0.087	-0.019
-596.025	-101.513	-0.310	-0.076
-595.011	215.190	0.043	-0.069
-593.996	119.836	0.080	-0.100
-592.982	20.757	-0.379	0.308
-591.967	-89.490	-0.113	0.033
-590.952	-39.394	0.190	0.100
-589.938	-60.913	-0.095	-0.041
-588.923	-200.000	-0.050	-0.251
-587.909	185.666	0.124	-0.184
-586.894	-88.087	0.266	-0.080
-585.879	113.263	-0.120	-0.146
-584.865	-143.580	0.181	-0.017
-583.850	420.117	-0.089	0.190
-582.836	442.928	0.153	-0.336
-581.821	800.000	-0.089	-0.292
-580.806	-87.860	-0.188	0.057
-579.792	-49.600	0.161	-0.077
-578.777	39.367	0.445	-0.399
-577.763	-200.000	0.012	0.077
-576.748	-74.642	0.310	0.112
-575.733	99.974	-0.140	-0.163
-574.719	-200.000	0.044	0.415
-573.704	-80.079	0.414	-0.139
-572.690	81.986	0.129	-0.141
-571.675	-36.536	-0.294	-0.159
-570.661	314.230	-0.089	-0.167
-569.646	-200.000	0.068	-0.322
-568.631	686.498	0.076	-0.198
-567.617	-31.325	0.181	-0.102
-566.602	214.248	-0.172	0.272
-565.588	-200.000	-0.007	0.349
-564.573	-16.966	-0.154	-0.097
-563.558	-200.000	-0.033	0.316
-562.544	403.656	-0.055	-0.116
-561.529	436.221	-0.078	0.170
-560.515	-91.568	0.123	-0.035
-559.500	-124.593	-0.272	0.042
-558.485	-93.688	0.174	-0.048
-557.471	-32.627	0.245	-0.136
-556.456	613.734	-0.052	-0.131
-555.442	-19.451	-0.180	0.112
-554.427	-200.000	-0.022	-0.102
-553.412	-200.000	-0.019	0.271
-552.398	84.543	-0.189	-0.207
-551.383	-200.000	0.002	-0.145
-550.369	46.850	-0.323	-0.301
-549.354	163.534	-0.020	0.029
-548.339	-200.000	-0.019	-0.096
-547.325	800.000	-0.033	0.104
-546.310	289.926	-0.204	0.370
-545.296	-51.322	-0.278	0.130
-544.281	221.066	-0.106	-0.170
-543.266	56.187	-0.133	-0.129
-542.252	-34.608	0.335	0.184
-541.237	139.827	-0.129	-0.171
-540.223	630.471	-0.065	-0.165
-539.208	-28.298	-0.125	0.073
-538.193	-56.139	-0.302	0.134
-537.179	-109.894	0.284	0.060
-536.164	228.362	-0.068	0.111
-535.150	-200.000	0.012	-0.147
-534.135	8.516	-0.164	-0.123
-533.121	800.000	0.044	0.130
-532.106	10.231	0.265	0.202
-531.091	288.188	0.076	0.137
-530.077	84.154	0.042	0.046
-529.062	-66.315	-0.111	0.044
-528.048	220.193	0.082	-0.132
-527.033	-127.634	0.254	-0.037
-526.018	-3.032	-0.045	0.032
-525.004	-88.284	-0.469	0.140
-523.989	151.799	-0.125	0.171
-522.975	-86.962	0.182	-0.056
-521.960	282.392	0.063	-0.113
-520.945	-128.393	-0.148	-0.021
-519.931	702.835	-0.064	-0.169
-518.916	-200.000	0.068	-0.515
-517.902	-6.575	0.066	-0.045
-516.887	43.930	-0.115	0.105
-515.872	-114.498	-0.120	-0.023
-514.858	-200.000	-0.048	0.312
-513.843	-17.058	0.240	0.151
-512.829	-200.000	-0.027	0.179
-511.814	5.110	-0.297	0.219
-510.799	-46.069	-0.112	0.055
-509.785	178.060	-0.015	0.022
-508.770	76.011	0.020	-0.021
-507.756	-109.015	0.348	0.074
-506.741	639.732	-0.059	-0.149
-505.726	-200.000	0.032	0.246
-504.712	78.576	-0.107	-0.114
-503.697	-115.743	-0.252	-0.047
-502.683	-200.000	0.026	-0.263
-501.668	-70.683	0.243	-0.092
-500.653	-200.000	-0.001	0.046
-499.639	-200.000	0.042	-0.201
-498.624	-200.000	-0.026	-0.295
-497.610	181.987	-0.145	0.214
-496.595	-200.000	-0.001	0.177
-495.581	-71.196	-0.285	-0.107
-494.566	800.000	0.006	0.018
-493.551	-151.388	-0.151	0.011
-492.537	10.982	-0.086	0.066
-491.522	-161.712	-0.604	0.031
-490.508	195.434	0.091	0.137
-489.493	-138.004	0.070	-0.008
-488.478	106.419	-0.276	-0.327
-487.464	60.531	-0.232	0.230
-486.449	800.000	0.053	0.156
-485.435	800.000	0.059	-0.168
-484.420	54.254	0.219	0.210
-483.405	102.466	0.170	-0.198
-482.391	-153.640	0.211	-0.015
-481.376	-200.000	-0.000	0.080
-480.362	800.000	-0.120	0.417
-479.347	101.563	0.072	0.084
-478.332	-15.161	0.158	0.101
-477.318	800.000	0.047	0.171
-476.303	-51.317	0.184	-0.086
-475.289	-69.651	0.146	-0.056
-474.274	-148.766	-0.354	-0.029
-473.259	171.107	-0.160	0.229
-472.245	18.729	0.166	0.133
-471.230	-3.190	-0.144	0.100
-470.216	-38.005	0.251	-0.133
-469.201	-112.918	-0.105	-0.021
-468.186	800.000	-0.062	-0.201
-467.172	78.099	0.185	-0.197
-466.157	800.000	-0.087	-0.310
-465.143	127.981	-0.225	0.285
-464.128	707.449	-0.069	-0.181
-463.113	-101.868	-0.135	-0.033
-462.099	56.120	-0.100	0.097
-461.084	116.613	-0.055	-0.068
-460.070	-200.000	0.019	0.281
-459.055	-136.966	0.220	0.025
-458.040	65.316	0.384	0.388
-457.026	302.156	-0.107	0.197
-456.011	-176.396	-0.400	0.010
-454.997	198.944	-0.008	-0.012
-453.982	-125.002	-0.300	0.046
-452.968	684.463	0.082	0.212
-451.953	266.097	-0.244	-0.425
-450.938	480.000	-0.092	-0.208
-449.924	-34.314	-0.055	0.030
-448.909	-200.000	0.032	-0.283
-447.895	-3.056	0.049	0.034
-446.880	-86.112	0.323	-0.099
-445.865	284.753	-0.086	-0.154
-444.851	112.397	-0.171	0.206
-443.836	-81.816	0.434	0.142
-442.822	433.627	-0.009	-0.021
-441.807	800.000	-0.075	-0.321
-440.792	-48.751	-0.284	-0.136
-439.778	35.641	0.049	-0.043
-438.763	-200.000	0.026	0.547
-437.749	331.413	0.103	-0.199
-436.734	-108.241	0.135	0.029
-435.719	139.115	-0.153	-0.201
-434.705	89.614	0.021	-0.024
-433.690	-27.532	0.324	-0.188
-432.676	110.974	-0.159	-0.191
-431.661	-200.000	0.046	-0.299
-430.646	-120.100	0.317	-0.054
-429.632	59.426	-0.039	-0.038
-428.617	-200.000	-0.046	-0.267
-427.603	-200.000	0.001	0.125
-426.588	-92.992	0.310	0.086
-425.573	-41.963	0.185	0.094
-424.559	-200.000	0.011	0.171
-423.544	-75.026	-0.148	-0.053
-422.530	17.425	-0.217	-0.172
-421.515	-118.364	-0.390	0.069
-420.500	90.334	0.154	0.172
-419.486	150.609	-0.050	-0.067
-418.471	-25.276	0.279	-0.164
-417.457	-200.000	-0.105	0.500
-416.442	-200.000	0.030	-0.157
-415.428	-24.119	0.066	0.039
-414.413	-200.000	0.001	0.017
-413.398	-106.837	-0.450	0.100
-412.384	12.444	0.221	0.170
-411.369	-200.000	0.008	-0.220
-410.355	-200.000	-0.012	-0.139
-409.340	-200.000	-0.048	-0.452
-408.325	49.467	-0.202	0.190
-407.311	-7.372	0.364	0.246
-406.296	-91.678	-0.249	-0.071
-405.282	-200.000	-0.009	-0.210
-404.267	-88.228	0.140	0.042
-403.252	136.558	-0.097	0.126
-402.238	106.218	0.216	-0.254
-401.223	-84.362	0.188	0.059
-400.209	-107.292	0.456	0.100
-399.194	-200.000	0.011	-0.162
-398.179	118.917	-0.220	0.270
-397.165	58.117	0.160	0.156
-396.150	-120.902	0.399	-0.067
-395.136	-127.193	-0.235	0.034
-394.121	-86.591	0.123	0.038
-393.106	-121.216	-0.366	0.061
-392.092	200.283	0.167	0.255
-391.077	128.908	-0.078	-0.099
-390.063	800.000	0.082	-0.310
-389.048	-14.130	-0.188	-0.120
-388.033	800.000	0.075	0.229
-387.019	233.907	0.103	-0.169
-386.004	-146.551	0.071	0.006
-384.990	-165.627	0.464	-0.020
-383.975	-67.954	-0.045	0.017
-382.960	94.203	0.051	-0.058
-381.946	-200.000	-0.029	0.220
-380.931	-200.000	0.013	0.373
-379.917	800.000	-0.028	-0.092
-378.902	107.851	0.090	0.107
-377.888	149.521	-0.085	-0.114
-376.873	291.496	0.161	-0.291
-375.858	36.701	-0.117	0.102
-374.844	-96.167	-0.179	0.047
-373.829	296.319	-0.107	0.195
-372.815	-200.000	0.059	-0.296
-371.800	259.051	-0.081	0.140
-370.785	-200.000	-0.038	0.303
-369.771	171.283	0.167	0.238
-368.756	-115.426	0.296	-0.055
-367.742	-96.071	-0.043	0.011
-366.727	72.961	0.071	-0.074
-365.712	800.000	-0.083	-0.262
-364.698	-200.000	0.002	-0.210
-363.683	-12.274	-0.036	0.023
-362.669	10.247	-0.207	0.156
-361.654	-200.000	0.002	0.372
-360.639	-48.542	-0.324	0.155
-359.625	-132.384	0.365	-0.047
-358.610	-68.427	0.219	-0.085
-357.596	-178.159	-0.236	-0.006
-356.581	-162.627	-0.207	-0.010
-355.566	-2.798	0.203	-0.141
-354.552	45.351	0.326	-0.299
-353.537	11.815	-0.212	0.162
-352.523	43.196	-0.144	0.130
-351.508	-142.409	0.116	0.011
-350.493	800.000	0.049	0.167
-349.479	-170.523	-0.233	-0.008
-348.464	-200.000	0.018	0.121
-347.450	113.459	-0.078	0.094
-346.435	726.565	0.057	-0.152
-345.420	177.304	-0.183	-0.265
-344.406	158.273	0.226	-0.312
-343.391	-25.498	-0.217	-0.127
-342.377	-200.000	-0.034	0.251
-341.362	-200.000	-0.000	-0.032
-340.348	219.186	0.094	0.149
-339.333	-110.889	-0.125	-0.026
-338.318	-83.469	0.275	0.088
-337.304	-70.619	0.304	-0.114
-336.289	-127.943	0.438	0.063
-335.275	40.880	0.293	-0.263
-334.260	-113.698	0.099	-0.019
-333.245	-200.000	0.001	0.270
-332.231	-7.805	0.409	0.274
-331.216	-27.029	-0.310	0.180
-330.202	-200.000	0.028	0.357
-329.187	65.612	0.136	-0.137
-328.172	104.766	0.169	-0.198
-327.158	-183.216	-0.385	-0.007
-326.143	-200.000	-0.064	0.320
-325.129	59.845	-0.055	0.053
-324.114	-152.587	0.186	-0.013
-323.099	-169.086	0.043	0.002
-322.085	521.429	-0.102	0.239
-321.070	-38.772	0.164	0.086
-320.056	194.264	0.116	-0.174
-319.041	150.634	-0.149	0.201
-318.026	-109.589	-0.159	0.033
-317.012	-134.481	0.207	0.025
-315.997	-141.001	-0.071	0.007
-314.983	405.840	0.018	-0.037
-313.968	-56.766	-0.107	-0.047
-312.953	-200.000	0.003	-0.041
-311.939	91.791	-0.100	0.111
-310.924	176.470	-0.068	0.099
-309.910	301.269	-0.076	-0.139
-308.895	667.398	-0.095	0.244
-307.880	-115.359	-0.406	-0.076
-306.866	-12.216	-0.047	0.031
-305.851	-15.091	-0.386	0.246
-304.837	72.537	-0.072	0.074
-303.822	-133.200	-0.277	-0.035
-302.807	-157.166	0.102	-0.006
-301.793	17.156	-0.023	-0.018
-300.778	-174.815	-0.352	-0.010
-299.764	19.344	0.155	0.124
-298.749	101.735	-0.115	-0.133
-297.735	-200.000	0.028	0.327
-296.720	-72.739	0.096	-0.035
-295.705	-13.986	0.054	-0.034
-294.691	54.576	-0.211	-0.201
-293.676	-42.512	0.011	-0.006
-292.662	-139.684	-0.171	0.018
-291.647	-90.273	0.272	-0.078
-290.632	259.478	0.177	0.303
-289.618	800.000	0.073	-0.257
-288.603	-200.000	0.017	-0.106
-287.589	295.525	-0.046	0.084
-286.574	-134.832	0.047	-0.006
-285.559	269.245	0.120	-0.208
-284.545	679.667	0.069	-0.179
-283.530	-119.162	0.215	-0.037
-282.516	-127.057	-0.144	0.021
-281.501	-110.373	0.055	0.011
-280.486	145.927	-0.098	-0.131
-279.472	322.057	-0.104	0.196
-278.457	-117.259	-0.074	-0.013
-277.443	-127.412	-0.198	0.029
-276.428	-139.901	-0.147	0.015
-275.413	-32.534	0.114	0.063
-274.399	192.507	0.127	0.189
-273.384	-200.000	-0.016	-0.147
-272.370	-97.522	0.042	0.011
-271.355	749.081	0.065	0.174
-270.340	-200.000	0.041	-0.379
-269.326	25.508	-0.140	-0.115
-268.311	-200.000	0.036	0.158
-267.297	223.297	0.068	-0.108
-266.282	594.481	-0.065	-0.159
-265.267	114.739	0.106	-0.127
-264.253	148.594	0.016	-0.021
-263.238	-50.802	0.305	-0.142
-262.224	318.608	0.047	0.089
-261.209	-69.440	0.130	-0.049
-260.195	-105.046	-0.115	-0.026
-259.180	21.606	0.061	0.049
-258.165	-38.659	-0.444	-0.232
-257.151	800.000	-0.038	0.130
-256.136	-45.201	0.267	0.132
-255.122	-57.204	-0.180	0.079
-254.107	-27.584	0.127	0.073
-253.092	56.237	-0.056	-0.054
-252.078	-31.379	0.298	0.166
-251.063	-33.252	-0.083	0.046
-250.049	224.913	-0.055	0.088
-249.034	-200.000	-0.031	-0.276
-248.019	-146.269	-0.212	-0.018
-247.005	-200.000	0.025	-0.147
-245.990	800.000	0.052	-0.182
-244.976	-95.604	0.067	0.018
-243.961	-200.000	-0.035	0.221
-242.946	-57.556	-0.187	0.081
-241.932	-38.872	-0.339	0.177
-240.917	-14.303	-0.275	0.175
-239.903	9.468	-0.439	0.329
-238.888	-61.048	0.197	0.082
-237.873	468.661	-0.061	-0.135
-236.859	-125.945	-0.190	0.028
-235.844	-200.000	0.030	0.244
-234.830	103.147	0.175	-0.203
-233.815	-200.000	-0.009	0.131
-232.800	574.511	-0.131	0.315
-231.786	-95.579	0.087	-0.023
-230.771	75.731	0.182	0.190
-229.757	797.344	0.068	0.184
-228.742	43.544	0.209	0.189
-227.727	-90.032	-0.139	-0.040
-226.713	20.106	0.164	-0.131
-225.698	-115.854	-0.125	-0.023
-224.684	4.292	0.384	0.278
-223.669	-106.933	-0.334	0.073
-222.655	70.219	-0.066	-0.067
-221.640	-138.837	0.191	0.021
-220.625	81.910	0.185	-0.198
-219.611	557.907	-0.033	-0.078
-218.596	184.133	0.248	0.363
-217.582	176.753	0.115	0.165
-216.567	129.343	0.108	0.137
-215.552	-135.448	0.286	0.034
-214.538	-15.737	0.084	0.053
-213.523	800.000	0.232	-0.636
-212.509	75.608	0.201	-0.210
-211.494	-77.432	-0.157	-0.054
-210.479	-68.268	0.268	-0.103
-209.465	-2.127	0.147	0.102
-208.450	228.639	0.134	0.216
-207.436	-7.043	-0.220	0.148
-206.421	58.721	-0.258	-0.250
-205.406	-121.511	0.252	0.041
-204.392	8.879	-0.066	0.049
-203.377	3.922	0.314	0.227
-202.363	16.663	0.118	0.092
-201.348	-75.511	0.343	0.121
-200.333	-121.009	-0.446	-0.074
-199.319	-2.145	0.352	-0.244
-198.304	159.102	0.169	0.232
-197.290	-139.376	0.168	-0.018
-196.275	-16.380	0.205	-0.128
-195.260	-91.309	-0.056	0.016
-194.246	321.185	-0.128	0.241
-193.231	21.943	0.169	0.136
-192.217	-200.000	-0.034	0.300
-191.202	95.444	-0.083	0.094
-190.187	203.041	0.254	0.388
-189.173	-87.251	0.295	0.088
-188.158	-200.000	0.006	0.489
-187.144	217.381	-0.019	0.030
-186.129	90.608	-0.034	-0.038
-185.114	800.000	-0.063	-0.265
-184.100	-102.066	0.105	-0.025
-183.085	-131.624	0.263	-0.034
-182.071	190.952	0.139	-0.207
-181.056	-66.753	0.118	-0.046
-180.042	-109.263	-0.341	0.071
-179.027	-52.092	0.290	0.133
-178.012	-112.467	0.092	0.018
-176.998	-36.218	-0.102	-0.054
-175.983	800.000	0.052	-0.157
-174.969	-91.281	-0.174	0.049
-173.954	-142.656	-0.109	-0.011
-172.939	-200.000	-0.025	0.132
-171.925	33.388	0.372	0.319
-170.910	162.382	-0.092	0.128
-169.896	-136.823	0.159	-0.018
-168.881	-200.000	-0.011	-0.486
-167.866	-179.771	0.341	0.007
-166.852	-19.787	0.256	0.156
-165.837	-200.000	0.005	-0.397
-164.823	800.000	-0.098	-0.286
-163.808	-200.000	0.024	0.194
-162.793	-200.000	-0.010	0.121
-161.779	319.770	-0.161	-0.302
-160.764	-156.558	-0.032	-0.002
-159.750	131.838	0.066	-0.084
-158.735	-12.699	-0.123	-0.079
-157.720	-27.614	0.125	-0.072
-156.706	456.144	0.084	0.185
-155.691	-199.033	0.197	-0.001
-154.677	356.404	-0.068	0.134
-153.662	-29.920	-0.234	-0.132
-152.647	-200.000	0.005	-0.085
-151.633	-112.438	-0.153	0.030
-150.618	62.474	0.373	0.367
-149.604	-200.000	-0.050	0.216
-148.589	-115.098	-0.269	-0.050
-147.574	249.241	0.084	-0.140
-146.560	800.000	0.074	0.250
-145.545	-77.817	0.105	0.036
-144.531	-30.487	0.214	-0.120
-143.516	284.745	-0.061	-0.108
-142.502	371.824	-0.067	-0.134
-141.487	283.678	0.036	-0.063
-140.472	-18.712	-0.027	-0.017
-139.458	-200.000	-0.014	0.255
-138.443	440.841	0.132	0.285
-137.429	476.555	-0.056	0.124
-136.414	-120.017	-0.127	-0.021
-135.399	-175.482	0.415	-0.011
-134.385	57.664	-0.168	0.162
-133.370	5.807	0.284	0.207
-132.356	223.475	-0.115	0.183
-131.341	-200.000	0.005	0.266
-130.326	93.804	-0.056	0.062
-129.312	-138.813	-0.117	0.013
-128.297	41.792	0.119	0.106
-127.283	130.757	-0.299	0.378
-126.268	58.977	0.056	-0.054
-125.253	150.649	0.045	-0.061
-124.239	-94.163	-0.315	0.085
-123.224	-6.023	0.281	0.189
-122.210	510.753	-0.071	0.162
