DTS Sentinel unit serial number:	SN413079Multiplexer serial number:	ORYXHardware model number:	OX4-SRSoftware version number:	ORYX F/W v4.00 Oryx Data Collector v3.7.2.0data status	okinstallation	princeton_trtdifferential loss correction	single-endedforward channel	channel 3reverse channel	N/Adate	2019/09/16time	00:36:35forward acquisition time	60.00reverse acquisition time	0.00gamma	496.2192k internal	0.2337k external	0.2337temperature offset calibration	0.9950default loss term (dB/km)	0.3790temperature slope calibration	1.0000multiplexer offset coefficient	1.0000multiplexer slope coefficient	1.0000fibre end	0.00T internal ref (°C)	27.50T ext. ref 1 (°C)	9.60T ext. ref 2 (°C)	21.58length (m)	temperature (°C)	Stokes	anti-Stokes-747.200	-109.105	0.459	-0.098
-746.185	-2.129	-0.313	0.221
-745.171	-69.961	-0.117	0.045
-744.156	-127.852	0.310	-0.045
-743.142	299.222	0.081	0.150
-742.127	638.041	0.076	0.195
-741.112	-200.000	-0.010	0.112
-740.098	369.783	-0.156	0.318
-739.083	800.000	0.045	0.148
-738.069	-84.469	-0.360	0.114
-737.054	800.000	0.042	0.149
-736.039	148.241	-0.193	0.261
-735.025	137.028	0.199	0.260
-734.010	230.458	-0.235	0.385
-732.996	75.492	-0.155	-0.165
-731.981	-11.099	0.156	-0.103
-730.966	-104.687	-0.090	-0.021
-729.952	-97.128	0.173	-0.045
-728.937	2.397	-0.291	-0.211
-727.923	-7.848	0.106	-0.072
-726.908	-200.000	0.005	0.313
-725.894	-87.277	0.293	0.089
-724.879	-37.567	-0.309	-0.165
-723.864	-70.001	-0.183	0.070
-722.850	-200.000	0.076	0.411
-721.835	-28.804	-0.155	-0.090
-720.821	800.000	-0.066	-0.187
-719.806	60.036	0.117	-0.116
-718.791	239.105	-0.122	0.204
-717.777	527.821	0.088	-0.207
-716.762	-42.703	0.217	0.111
-715.748	-96.417	-0.203	-0.054
-714.733	800.000	-0.085	-0.372
-713.718	-200.000	-0.004	0.038
-712.704	432.879	0.118	0.257
-711.689	-65.393	-0.214	0.086
-710.675	237.179	-0.156	-0.259
-709.660	18.359	-0.256	-0.205
-708.645	794.829	-0.055	-0.150
-707.631	206.680	0.112	-0.176
-706.616	430.952	0.059	-0.128
-705.602	-200.000	0.011	-0.098
-704.587	117.966	0.238	-0.294
-703.572	32.842	-0.106	-0.092
-702.558	631.682	-0.123	-0.311
-701.543	-52.427	-0.081	-0.038
-700.529	-200.000	0.131	-0.000
-699.514	-58.164	-0.361	-0.157
-698.499	454.008	-0.132	-0.292
-697.485	-200.000	0.018	-0.084
-696.470	5.361	0.099	0.073
-695.456	-92.798	0.216	-0.061
-694.441	-103.283	-0.180	-0.043
-693.426	-112.221	-0.042	0.008
-692.412	-200.000	0.036	-0.161
-691.397	-53.505	0.356	-0.163
-690.383	-38.397	-0.191	0.101
-689.368	-120.464	-0.112	-0.019
-688.354	-65.049	0.269	-0.109
-687.339	19.875	-0.150	0.121
-686.324	-16.242	0.198	-0.126
-685.310	82.133	0.078	-0.084
-684.295	-200.000	-0.011	-0.165
-683.281	-146.614	-0.303	0.026
-682.266	800.000	-0.052	0.181
-681.251	-54.651	0.142	0.064
-680.237	69.998	0.174	-0.180
-679.222	-200.000	0.020	0.104
-678.208	800.000	-0.023	-0.082
-677.193	-67.293	0.139	0.055
-676.178	-200.000	-0.019	-0.267
-675.164	-117.407	-0.196	0.036
-674.149	800.000	0.055	0.196
-673.135	-11.102	-0.353	-0.233
-672.120	169.047	-0.048	0.069
-671.105	-200.000	-0.037	-0.181
-670.091	-200.000	0.033	-0.199
-669.076	800.000	0.097	-0.280
-668.062	81.785	-0.131	-0.142
-667.047	-77.146	0.065	0.023
-666.032	-120.658	0.232	-0.039
-665.018	-0.444	-0.199	-0.141
-664.003	208.725	-0.208	0.325
-662.989	49.643	0.256	-0.241
-661.974	-46.152	-0.274	-0.135
-660.959	-88.979	-0.472	0.140
-659.945	426.385	0.163	0.350
-658.930	800.000	0.094	-0.393
-657.916	16.309	-0.095	0.075
-656.901	67.976	0.226	0.231
-655.886	-200.000	0.008	-0.418
-654.872	-200.000	-0.030	-0.146
-653.857	-60.744	-0.116	-0.049
-652.843	-8.357	-0.161	0.108
-651.828	-132.218	0.071	-0.009
-650.814	-200.000	-0.002	0.101
-649.799	-79.411	0.334	-0.113
-648.784	-18.281	-0.374	-0.234
-647.770	148.256	-0.166	0.224
-646.755	-89.011	0.416	-0.123
-645.741	-200.000	0.005	-0.044
-644.726	32.434	0.104	-0.090
-643.711	-200.000	-0.003	0.112
-642.697	-200.000	-0.038	-0.235
-641.682	-200.000	-0.046	-0.534
-640.668	-116.603	0.293	-0.054
-639.653	-200.000	-0.015	-0.318
-638.638	518.646	0.071	0.167
-637.624	607.814	-0.133	0.333
-636.609	-11.699	-0.213	0.140
-635.595	409.393	0.044	0.092
-634.580	800.000	-0.028	0.081
-633.565	292.291	0.092	0.167
-632.551	99.461	-0.183	0.211
-631.536	-133.435	-0.477	0.060
-630.522	-95.502	0.257	-0.069
-629.507	47.542	0.300	0.279
-628.492	301.180	-0.140	-0.258
-627.478	-200.000	0.011	0.117
-626.463	800.000	-0.076	-0.272
-625.449	-19.398	-0.276	-0.171
-624.434	800.000	-0.129	-0.419
-623.419	-119.545	-0.293	-0.051
-622.405	513.461	-0.111	0.259
-621.390	-200.000	0.051	-0.365
-620.376	61.994	0.086	0.086
-619.361	-151.623	-0.363	0.027
-618.346	-200.000	0.062	0.343
-617.332	2.747	0.180	-0.130
-616.317	-91.083	-0.096	-0.027
-615.303	-200.000	-0.049	-0.332
-614.288	-50.711	-0.261	-0.122
-613.273	310.273	0.160	0.299
-612.259	-169.742	-0.308	-0.011
-611.244	1.625	-0.175	0.126
-610.230	209.453	-0.102	0.160
-609.215	655.408	0.117	0.300
-608.201	61.560	-0.174	0.173
-607.186	-173.157	-0.208	-0.006
-606.171	41.725	-0.104	0.094
-605.157	800.000	-0.055	0.235
-604.142	276.306	-0.088	0.156
-603.128	-149.679	-0.187	-0.015
-602.113	-49.055	-0.073	-0.035
-601.098	98.444	-0.150	-0.172
-600.084	-86.093	0.157	0.048
-599.069	-87.432	-0.138	-0.042
-598.055	36.661	-0.152	-0.134
-597.040	-39.553	-0.228	-0.119
-596.025	-18.023	0.108	-0.068
-595.011	116.104	0.019	0.023
-593.996	62.620	-0.277	0.276
-592.982	227.507	-0.124	0.202
-591.967	212.269	0.123	-0.194
-590.952	46.551	-0.201	-0.186
-589.938	724.495	0.039	-0.105
-588.923	390.231	0.082	0.170
-587.909	73.523	-0.094	0.098
-586.894	354.572	-0.105	-0.208
-585.879	-200.000	0.014	-0.157
-584.865	-30.218	-0.075	-0.043
-583.850	800.000	-0.019	-0.076
-582.836	800.000	-0.080	0.246
-581.821	41.362	-0.349	0.315
-580.806	100.386	-0.236	0.273
-579.792	274.837	0.207	0.365
-578.777	11.746	0.149	0.114
-577.763	-88.950	-0.203	0.060
-576.748	84.997	-0.071	-0.078
-575.733	685.525	0.037	-0.095
-574.719	146.222	0.150	-0.200
-573.704	-27.640	0.261	-0.151
-572.690	74.860	-0.036	0.038
-571.675	-72.922	0.274	-0.100
-570.661	378.602	0.040	-0.082
-569.646	-60.905	-0.163	0.069
-568.631	800.000	-0.043	0.149
-567.617	734.362	-0.057	-0.153
-566.602	4.579	0.069	0.051
-565.588	54.875	-0.031	0.030
-564.573	505.493	-0.064	-0.149
-563.558	-55.775	0.210	0.093
-562.544	-200.000	-0.040	-0.204
-561.529	-200.000	-0.033	-0.428
-560.515	326.743	-0.103	0.197
-559.500	-77.413	-0.101	0.035
-558.485	800.000	-0.052	-0.179
-557.471	683.069	-0.069	-0.180
-556.456	-103.979	-0.032	0.007
-555.442	-8.688	-0.018	-0.012
-554.427	799.401	0.029	0.081
-553.412	-143.831	0.203	0.019
-552.398	-200.000	0.002	0.023
-551.383	-200.000	-0.003	0.089
-550.369	135.408	0.267	-0.346
-549.354	-106.704	-0.212	0.047
-548.339	383.324	0.043	0.087
-547.325	311.424	0.209	0.390
-546.310	238.780	-0.059	0.098
-545.296	390.906	0.121	0.250
-544.281	-16.234	-0.056	-0.035
-543.266	446.969	-0.048	0.106
-542.252	12.490	-0.087	-0.067
-541.237	194.266	-0.228	0.343
-540.223	-200.000	0.039	-0.180
-539.208	-120.290	0.136	-0.023
-538.193	57.354	0.132	0.128
-537.179	800.000	-0.024	-0.071
-536.164	768.302	-0.146	-0.396
-535.150	97.778	-0.140	-0.160
-534.135	-62.807	-0.221	-0.091
-533.121	-200.000	0.061	0.274
-532.106	-152.613	-0.071	0.005
-531.091	-125.653	0.079	-0.012
-530.077	0.928	-0.132	0.094
-529.062	152.133	0.185	-0.251
-528.048	58.264	-0.123	-0.120
-527.033	51.973	0.240	0.228
-526.018	-200.000	-0.032	-0.239
-525.004	-200.000	0.030	-0.372
-523.989	1.406	-0.024	0.017
-522.975	-124.360	0.276	0.043
-521.960	-62.434	-0.460	-0.190
-520.945	-76.408	-0.175	0.061
-519.931	800.000	0.098	0.369
-518.916	-127.569	0.495	0.071
-517.902	-135.585	0.139	-0.016
-516.887	-54.485	-0.299	0.135
-515.872	-5.485	0.085	0.058
-514.858	92.604	-0.213	0.239
-513.843	364.705	0.132	-0.264
-512.829	-70.306	0.074	-0.028
-511.814	19.475	-0.323	-0.258
-510.799	-70.653	0.254	-0.095
-509.785	118.754	-0.193	-0.237
-508.770	226.617	0.098	-0.158
-507.756	12.454	-0.231	-0.177
-506.741	-200.000	-0.046	-0.299
-505.726	101.042	0.071	-0.082
-504.712	800.000	0.030	-0.127
-503.697	289.749	0.131	-0.237
-502.683	-64.903	-0.148	0.060
-501.668	34.927	-0.122	-0.106
-500.653	175.946	0.041	-0.058
-499.639	-10.054	-0.218	0.144
-498.624	29.668	0.048	-0.041
-497.610	265.972	0.028	0.048
-496.595	-111.253	-0.181	0.037
-495.581	182.108	0.208	0.304
-494.566	-200.000	0.001	-0.100
-493.551	800.000	0.018	0.073
-492.537	-200.000	-0.048	0.346
-491.522	353.610	-0.026	0.052
-490.508	-17.868	0.215	-0.134
-489.493	566.382	-0.138	0.334
-488.478	-6.027	0.064	-0.043
-487.464	115.086	-0.107	-0.129
-486.449	-200.000	0.015	-0.358
-485.435	352.876	0.156	0.307
-484.420	-116.558	0.246	-0.045
-483.405	-156.056	0.156	0.010
-482.391	-16.958	-0.138	-0.087
-481.376	587.930	0.052	0.127
-480.362	405.702	-0.077	-0.161
-479.347	800.000	0.035	-0.145
-478.332	50.013	0.026	-0.025
-477.318	-25.067	-0.171	-0.101
-476.303	175.001	0.089	-0.128
-475.289	80.211	0.136	-0.145
-474.274	-128.482	-0.181	-0.026
-473.259	-200.000	-0.042	0.188
-472.245	69.971	0.003	0.003
-471.230	-200.000	0.030	-0.134
-470.216	-200.000	0.017	-0.240
-469.201	-123.759	0.095	0.015
-468.186	-200.000	-0.009	-0.065
-467.172	-191.155	-0.142	-0.001
-466.157	-77.668	-0.043	-0.015
-465.143	-13.744	-0.218	0.140
-464.128	217.252	0.173	0.273
-463.113	-171.570	-0.200	0.007
-462.099	240.297	0.175	0.290
-461.084	155.319	-0.028	0.038
-460.070	-130.032	0.089	-0.012
-459.055	64.309	-0.060	-0.060
-458.040	756.866	0.079	-0.212
-457.026	147.509	-0.135	-0.180
-456.011	-84.472	0.134	-0.042
-454.997	-200.000	-0.020	-0.255
-453.982	-78.614	0.228	-0.077
-452.968	-156.656	0.095	0.006
-451.953	-200.000	-0.013	0.305
-450.938	463.617	0.117	0.260
-449.924	13.268	-0.585	0.450
-448.909	800.000	-0.053	0.197
-447.895	242.783	0.050	-0.082
-446.880	800.000	0.108	0.467
-445.865	-200.000	0.094	0.550
-444.851	-11.301	0.207	-0.135
-443.836	-200.000	-0.041	-0.258
-442.822	-95.616	-0.196	-0.052
-441.807	-125.515	0.206	-0.031
-440.792	-200.000	0.030	0.276
-439.778	539.044	-0.167	0.394
-438.763	127.586	0.049	0.061
-437.749	49.792	-0.098	0.091
-436.734	-200.000	-0.010	-0.142
-435.719	-21.144	-0.228	0.138
-434.705	-55.801	0.297	-0.131
-433.690	-77.699	-0.208	-0.071
-432.676	-33.124	-0.192	0.105
-431.661	-25.849	-0.213	0.125
-430.646	800.000	-0.174	0.500
-429.632	31.404	-0.099	-0.084
-428.617	194.005	0.153	0.229
-427.603	301.199	0.031	-0.056
-426.588	-12.361	0.336	0.217
-425.573	-121.760	-0.226	-0.037
-424.559	-160.221	0.127	-0.007
-423.544	-200.000	-0.024	0.177
-422.530	800.000	-0.036	0.131
-421.515	-170.203	-0.086	0.003
-420.500	-158.117	0.214	-0.012
-419.486	-120.547	0.388	-0.065
-418.471	270.189	-0.046	-0.080
-417.457	347.285	0.047	0.092
-416.442	113.794	0.131	0.158
-415.428	23.808	-0.207	0.169
-414.413	12.850	0.367	-0.281
-413.398	-146.093	0.205	-0.018
-412.384	122.109	-0.141	0.175
-411.369	-200.000	0.010	0.201
-410.355	-63.889	-0.192	0.078
-409.340	33.570	-0.050	-0.043
-408.325	37.918	0.143	0.126
-407.311	-84.509	-0.161	0.050
-406.296	10.090	-0.240	0.181
-405.282	666.700	0.048	-0.122
-404.267	-33.038	0.202	0.111
-403.252	-7.323	0.049	0.033
-402.238	800.000	-0.094	-0.374
-401.223	31.336	-0.091	0.078
-400.209	-9.757	0.197	-0.130
-399.194	800.000	-0.024	-0.096
-398.179	203.124	0.071	0.109
-397.165	-47.751	0.116	0.056
-396.150	447.207	0.025	-0.054
-395.136	-20.245	0.063	-0.039
-394.121	262.379	-0.058	-0.099
-393.106	-57.658	0.157	-0.068
-392.092	337.687	0.142	0.274
-391.077	423.702	-0.046	-0.097
-390.063	-92.212	0.101	-0.028
-389.048	800.000	0.056	0.195
-388.033	21.923	0.239	-0.193
-387.019	194.212	-0.128	-0.192
-386.004	-116.969	-0.194	0.035
-384.990	-152.090	0.220	-0.016
-383.975	152.546	0.214	-0.289
-382.960	800.000	0.032	0.103
-381.946	-15.359	0.336	-0.213
-380.931	200.389	-0.134	-0.203
-379.917	37.153	0.210	-0.184
-378.902	157.016	-0.111	0.151
-377.888	232.750	0.203	0.331
-376.873	53.948	-0.095	-0.091
-375.858	131.367	0.073	0.093
-374.844	51.092	0.117	0.110
-373.829	-46.658	0.270	0.131
-372.815	800.000	0.052	0.183
-371.800	-74.551	0.213	0.076
-370.785	-94.414	-0.071	0.019
-369.771	-200.000	0.009	0.168
-368.756	36.208	0.133	-0.116
-367.742	33.130	0.146	0.125
-366.727	33.994	0.092	0.079
-365.712	800.000	0.065	0.214
-364.698	-90.680	-0.373	0.106
-363.683	-200.000	0.063	0.389
-362.669	44.256	0.192	0.174
-361.654	-200.000	0.036	-0.181
-360.639	-130.964	-0.398	0.053
-359.625	685.325	0.048	-0.124
-358.610	132.781	0.241	-0.307
-357.596	-23.955	0.069	-0.041
-356.581	-73.947	0.269	-0.097
-355.566	-200.000	0.020	0.178
-354.552	49.332	0.191	-0.177
-353.537	-200.000	-0.002	0.192
-352.523	536.710	0.110	-0.259
-351.508	749.313	-0.029	-0.078
-350.493	155.718	0.101	-0.138
-349.479	402.131	-0.090	-0.188
-348.464	105.685	-0.308	0.360
-347.450	-200.000	0.077	-0.368
-346.435	-91.958	0.181	-0.051
-345.420	800.000	-0.142	-0.397
-344.406	230.929	-0.279	-0.451
-343.391	-200.000	-0.056	0.381
-342.377	800.000	-0.032	-0.106
-341.362	352.991	0.171	-0.335
-340.348	184.166	0.193	-0.283
-339.333	800.000	0.104	-0.289
-338.318	-141.629	-0.128	-0.013
-337.304	-126.409	0.086	0.013
-336.289	-115.134	0.323	-0.061
-335.275	-178.175	0.020	0.000
-334.260	-82.374	-0.143	0.046
-333.245	115.645	0.223	-0.269
-332.231	58.177	0.113	0.110
-331.216	-200.000	0.007	0.272
-330.202	-89.068	0.382	0.111
-329.187	-200.000	0.024	-0.271
-328.172	-48.034	-0.255	0.122
-327.158	-58.913	-0.197	-0.084
-326.143	-74.084	-0.119	-0.043
-325.129	800.000	0.092	-0.386
-324.114	375.172	0.241	-0.484
-323.099	46.887	0.044	-0.040
-322.085	-33.539	-0.061	0.033
-321.070	800.000	0.033	-0.140
-320.056	144.674	0.171	-0.225
-319.041	-200.000	-0.022	0.435
-318.026	324.235	-0.019	-0.036
-317.012	59.782	0.203	-0.198
-315.997	58.614	0.145	-0.141
-314.983	593.858	0.056	0.138
-313.968	-77.422	0.334	0.115
-312.953	-200.000	0.011	0.327
-311.939	-18.296	0.155	-0.096
-310.924	595.403	0.061	-0.148
-309.910	-200.000	0.007	-0.161
-308.895	-200.000	0.008	0.132
-307.880	-103.949	0.114	0.026
-306.866	179.926	-0.167	0.242
-305.851	-120.494	0.203	0.034
-304.837	-69.035	0.479	0.182
-303.822	378.876	0.104	0.210
-302.807	61.961	0.113	0.112
-301.793	-200.000	0.009	0.105
-300.778	19.566	-0.135	0.107
-299.764	680.693	0.128	0.328
-298.749	-200.000	0.046	-0.243
-297.735	-64.556	-0.157	0.063
-296.720	200.986	-0.232	-0.352
-295.705	34.930	-0.064	0.055
-294.691	269.255	-0.047	0.082
-293.676	261.249	-0.111	-0.189
-292.662	800.000	-0.027	0.098
-291.647	800.000	0.064	-0.239
-290.632	130.387	0.050	0.063
-289.618	-168.060	-0.176	-0.007
-288.603	680.310	-0.117	0.301
-287.589	-77.165	-0.312	-0.107
-286.574	268.172	0.101	-0.174
-285.559	-125.318	0.190	-0.029
-284.545	-4.680	-0.049	0.033
-283.530	159.936	-0.029	-0.040
-282.516	211.607	0.104	-0.162
-281.501	-175.336	0.399	-0.011
-280.486	-86.338	-0.073	0.022
-279.472	800.000	0.044	-0.159
-278.457	64.606	-0.091	0.090
-277.443	49.007	-0.184	-0.171
-276.428	-56.304	-0.111	0.049
-275.413	66.418	-0.117	0.117
-274.399	-27.329	-0.215	-0.123
-273.384	-23.851	0.130	0.076
-272.370	77.845	0.127	-0.133
-271.355	800.000	-0.013	-0.039
-270.340	13.726	0.279	0.213
-269.326	424.392	0.247	0.524
-268.311	318.441	-0.052	0.097
-267.297	-200.000	-0.000	0.159
-266.282	-51.758	-0.214	-0.098
-265.267	800.000	-0.096	0.268
-264.253	-6.487	0.238	-0.160
-263.238	800.000	0.073	0.255
-262.224	-85.642	0.323	0.099
-261.209	-152.280	-0.205	0.015
-260.195	800.000	0.054	0.207
-259.180	2.767	-0.066	0.047
-258.165	159.893	-0.203	-0.279
-257.151	60.983	-0.029	-0.029
-256.136	312.236	-0.096	-0.178
-255.122	241.789	-0.273	0.449
-254.107	773.729	-0.079	0.213
-253.092	727.314	0.076	0.200
-252.078	132.853	-0.172	-0.218
-251.063	-149.127	-0.068	0.005
-250.049	268.012	0.045	0.078
-249.034	-36.313	-0.259	-0.137
-248.019	-200.000	-0.009	-0.185
-247.005	800.000	0.056	-0.162
-245.990	-200.000	-0.060	0.333
-244.976	-195.902	-0.346	0.002
-243.961	-200.000	0.021	-0.108
-242.946	-134.544	0.129	-0.016
-241.932	-53.484	-0.132	-0.060
-240.917	-8.202	0.046	0.030
-239.903	250.275	0.170	0.284
-238.888	-96.541	-0.358	0.093
-237.873	24.690	0.122	-0.099
-236.859	224.231	0.173	-0.275
-235.844	-200.000	-0.048	0.249
-234.830	8.477	0.292	-0.216
-233.815	-200.000	-0.001	-0.424
-232.800	-200.000	-0.004	0.145
-231.786	-51.096	0.030	0.014
-230.771	-65.576	0.504	-0.199
-229.757	-200.000	-0.044	-0.243
-228.742	-94.622	0.068	-0.018
-227.727	573.040	0.013	0.031
-226.713	800.000	-0.066	0.219
-225.698	41.955	0.143	0.128
-224.684	-200.000	-0.022	-0.337
-223.669	-135.134	0.201	-0.024
-222.655	8.414	0.058	0.043
-221.640	116.387	-0.033	-0.040
-220.625	-3.349	-0.255	-0.175
-219.611	163.872	-0.077	0.107
-218.596	26.260	0.021	0.017
-217.582	695.517	0.142	0.367
-216.567	-200.000	-0.070	-0.321
-215.552	124.915	0.081	0.100
-214.538	-78.984	0.097	-0.032
-213.523	-81.945	-0.315	0.101
-212.509	-200.000	-0.067	-0.374
-211.494	36.755	-0.126	-0.109
-210.479	-200.000	-0.003	0.406
-209.465	-129.616	0.414	0.056
-208.450	-200.000	-0.059	-0.000
-207.436	-89.161	0.150	0.044
-206.421	-110.151	-0.136	0.028
-205.406	800.000	-0.060	0.198
-204.392	170.573	0.076	0.107
-203.377	-84.091	-0.097	-0.030
-202.363	158.239	0.117	-0.159
-201.348	-60.278	0.192	-0.080
-200.333	103.732	0.066	0.076
-199.319	178.406	0.135	0.193
-198.304	-143.558	0.096	0.009
-197.290	800.000	0.113	-0.425
-196.275	-120.533	0.371	0.062
-195.260	256.506	0.139	-0.235
-194.246	84.136	0.112	0.121
-193.231	96.302	0.228	-0.257
-192.217	-62.238	-0.146	-0.060
-191.202	-132.899	-0.266	0.033
-190.187	-200.000	0.006	0.301
-189.173	323.750	-0.218	-0.409
-188.158	190.624	-0.258	-0.382
-187.144	123.754	0.079	0.098
-186.129	-134.340	-0.162	0.020
-185.114	600.650	0.079	-0.192
-184.100	-200.000	-0.010	-0.117
-183.085	-76.752	-0.232	0.080
-182.071	-200.000	-0.004	-0.208
-181.056	41.232	-0.205	-0.182
-180.042	-68.006	-0.294	0.113
-179.027	-162.232	-0.128	0.006
-178.012	-72.798	0.108	-0.039
-176.998	-106.196	0.055	-0.012
-175.983	69.080	-0.124	-0.125
-174.969	-98.263	-0.205	0.052
-173.954	721.031	0.051	0.134
-172.939	48.965	-0.335	0.308
-171.925	-200.000	-0.008	-0.099
-170.910	678.060	-0.025	-0.064
-169.896	-200.000	0.003	0.052
-168.881	-183.829	-0.091	0.002
-167.866	-88.365	-0.141	0.041
-166.852	251.778	0.067	-0.112
-165.837	-102.067	-0.343	0.081
-164.823	-200.000	0.021	0.215
-163.808	-5.499	0.248	0.167
-162.793	-37.563	-0.155	0.081
-161.779	69.393	-0.155	0.156
-160.764	545.568	0.080	-0.187
-159.750	96.048	0.070	-0.078
-158.735	-127.842	-0.271	0.038
-157.720	-18.914	0.011	-0.007
-156.706	800.000	0.110	0.336
-155.691	263.821	-0.073	-0.124
-154.677	-70.714	0.172	-0.064
-153.662	72.303	-0.192	0.196
-152.647	280.128	0.046	-0.081
-151.633	-200.000	0.023	-0.243
-150.618	38.280	0.336	0.294
-149.604	800.000	-0.115	-0.339
-148.589	105.468	0.126	-0.146
-147.574	-200.000	0.022	0.414
-146.560	62.884	-0.199	-0.196
-145.545	800.000	-0.042	-0.133
-144.531	71.912	0.107	0.109
-143.516	572.453	0.006	0.015
-142.502	-144.563	0.332	0.030
-141.487	-99.584	-0.361	-0.089
-140.472	800.000	0.007	0.026
-139.458	507.113	-0.003	-0.008
-138.443	656.747	0.089	-0.225
-137.429	-109.680	0.120	0.025
-136.414	142.173	0.178	-0.231
-135.399	55.610	-0.057	-0.054
-134.385	-200.000	0.024	0.377
-133.370	-200.000	0.050	0.364
-132.356	800.000	0.081	0.268
-131.341	-200.000	-0.002	-0.144
-130.326	-200.000	0.002	0.194
-129.312	-200.000	-0.038	0.270
-128.297	144.198	0.097	-0.126
-127.283	800.000	-0.054	0.224
-126.268	-33.263	-0.263	0.143
-125.253	79.094	-0.170	-0.178
-124.239	178.114	0.018	-0.026
-123.224	-200.000	0.021	-0.244
-122.210	11.639	0.331	0.248
-121.195	-119.590	0.320	0.054
-120.180	42.341	0.094	-0.083
