DTS Sentinel unit serial number:	SN413079Multiplexer serial number:	ORYXHardware model number:	OX4-SRSoftware version number:	ORYX F/W v4.00 Oryx Data Collector v3.7.2.0data status	okinstallation	princeton_trtdifferential loss correction	single-endedforward channel	channel 3reverse channel	N/Adate	2019/09/17time	12:08:35forward acquisition time	60.00reverse acquisition time	0.00gamma	496.2192k internal	0.2321k external	0.2321temperature offset calibration	0.9959default loss term (dB/km)	0.3790temperature slope calibration	1.0000multiplexer offset coefficient	1.0000multiplexer slope coefficient	1.0000fibre end	0.00T internal ref (°C)	31.28T ext. ref 1 (°C)	0.43T ext. ref 2 (°C)	27.71length (m)	temperature (°C)	Stokes	anti-Stokes-747.200	-4.107	0.094	-0.066
-746.185	339.268	-0.217	0.427
-745.171	-11.925	-0.114	-0.076
-744.156	-200.000	0.001	0.158
-743.142	-25.486	0.242	-0.144
-742.127	-200.000	0.041	0.348
-741.112	-84.360	-0.206	-0.066
-740.098	142.652	-0.233	0.313
-739.083	-146.002	-0.228	0.020
-738.069	-114.724	-0.088	-0.017
-737.054	-190.896	-0.120	-0.001
-736.039	-115.875	-0.252	-0.048
-735.025	800.000	0.075	0.307
-734.010	-200.000	0.010	0.231
-732.996	517.511	0.104	0.245
-731.981	403.661	0.075	-0.159
-730.966	-200.000	-0.031	-0.267
-729.952	27.556	-0.293	-0.249
-728.937	-55.347	-0.210	-0.095
-727.923	-90.461	0.105	-0.031
-726.908	521.786	0.092	-0.218
-725.894	36.205	-0.297	-0.265
-724.879	-116.984	-0.398	-0.073
-723.864	19.499	0.078	-0.063
-722.850	-121.448	-0.255	-0.043
-721.835	180.699	0.096	0.143
-720.821	6.351	-0.171	0.129
-719.806	-143.073	0.311	-0.030
-718.791	439.777	0.023	0.051
-717.777	-43.608	0.314	0.160
-716.762	-141.844	0.124	-0.013
-715.748	-128.609	0.348	-0.050
-714.733	-200.000	-0.026	-0.146
-713.718	-200.000	-0.005	0.186
-712.704	293.293	-0.044	0.082
-711.689	-87.046	-0.270	-0.083
-710.675	-200.000	0.025	0.375
-709.660	42.272	-0.086	0.079
-708.645	-200.000	0.008	-0.405
-707.631	-200.000	-0.006	0.304
-706.616	-31.922	-0.033	-0.019
-705.602	102.169	0.178	-0.209
-704.587	-200.000	-0.004	0.098
-703.572	90.923	-0.168	-0.190
-702.558	24.008	-0.191	0.159
-701.543	-29.725	0.104	-0.060
-700.529	-200.000	-0.010	-0.173
-699.514	-44.383	-0.383	-0.193
-698.499	-130.725	-0.195	0.027
-697.485	-141.660	-0.346	0.035
-696.470	-200.000	0.032	-0.219
-695.456	22.481	0.216	-0.178
-694.441	-140.607	0.187	-0.020
-693.426	-64.776	-0.101	-0.041
-692.412	800.000	-0.105	-0.426
-691.397	680.646	-0.142	-0.374
-690.383	159.025	-0.184	0.258
-689.368	-78.214	-0.230	-0.080
-688.354	-200.000	-0.007	0.227
-687.339	-113.624	-0.190	-0.037
-686.324	-200.000	0.012	-0.199
-685.310	13.566	0.063	-0.049
-684.295	342.191	-0.291	0.575
-683.281	115.553	-0.121	0.149
-682.266	-43.012	0.293	-0.150
-681.251	-85.164	-0.346	-0.109
-680.237	-85.013	0.103	-0.033
-679.222	314.874	-0.103	0.197
-678.208	752.934	-0.132	0.360
-677.193	-185.586	0.093	0.001
-676.178	198.351	0.127	-0.196
-675.164	-53.902	0.134	0.062
-674.149	-107.819	-0.271	0.059
-673.135	-66.887	-0.146	-0.058
-672.120	-91.439	0.238	0.068
-671.105	-40.739	-0.359	0.188
-670.091	83.469	-0.047	-0.052
-669.076	28.351	0.143	0.122
-668.062	-200.000	-0.010	-0.225
-667.047	342.181	0.153	-0.301
-666.032	24.317	-0.095	0.079
-665.018	800.000	0.068	0.214
-664.003	737.229	-0.071	0.192
-662.989	-120.299	-0.275	-0.047
-661.974	800.000	-0.045	-0.131
-660.959	-80.577	-0.173	0.058
-659.945	417.929	0.072	-0.155
-658.930	-105.464	0.083	0.019
-657.916	-143.606	0.216	0.021
-656.901	-158.487	-0.213	0.012
-655.886	172.352	-0.115	0.167
-654.872	-89.384	-0.362	-0.107
-653.857	562.379	0.155	-0.378
-652.843	-200.000	-0.009	0.203
-651.828	467.259	0.118	-0.267
-650.814	-200.000	-0.033	-0.243
-649.799	156.231	0.106	0.147
-648.784	-71.057	-0.334	0.126
-647.770	-92.090	-0.276	0.079
-646.755	514.939	0.033	0.078
-645.741	800.000	0.038	-0.132
-644.726	-105.316	0.087	0.020
-643.711	-57.637	-0.233	0.103
-642.697	-10.912	0.125	0.083
-641.682	-200.000	0.001	-0.057
-640.668	-200.000	-0.019	0.198
-639.653	40.474	-0.046	0.042
-638.638	-200.000	0.010	-0.162
-637.624	-44.060	0.257	-0.130
-636.609	531.111	-0.062	-0.147
-635.595	-200.000	0.014	-0.119
-634.580	167.343	0.033	0.047
-633.565	-91.715	-0.273	-0.078
-632.551	71.623	0.095	0.099
-631.536	211.904	0.078	-0.124
-630.522	-71.311	-0.361	-0.136
-629.507	108.977	0.113	0.136
-628.492	328.244	0.123	-0.238
-627.478	-65.421	-0.168	0.068
-626.463	265.754	0.093	-0.163
-625.449	-175.838	0.401	-0.011
-624.434	446.892	-0.115	0.255
-623.419	-200.000	0.005	0.056
-622.405	41.394	0.187	-0.170
-621.390	-85.492	-0.107	-0.034
-620.376	-11.682	0.177	0.117
-619.361	-73.194	-0.122	-0.045
-618.346	-42.838	0.305	-0.156
-617.332	-200.000	0.086	0.507
-616.317	539.388	-0.067	-0.161
-615.303	-97.482	-0.091	-0.024
-614.288	770.777	0.015	0.042
-613.273	-111.869	-0.377	-0.077
-612.259	-106.479	-0.544	-0.122
-611.244	-132.096	-0.275	-0.036
-610.230	218.112	0.218	-0.349
-609.215	-174.568	-0.121	0.003
-608.201	21.303	-0.206	-0.168
-607.186	-66.367	0.074	-0.029
-606.171	-103.074	0.484	0.115
-605.157	-91.470	0.131	-0.038
-604.142	-132.540	0.292	-0.038
-603.128	729.089	-0.077	-0.205
-602.113	-104.475	-0.175	-0.041
-601.098	134.231	0.142	0.185
-600.084	-103.623	-0.283	-0.067
-599.069	-61.943	-0.038	-0.016
-598.055	-95.163	0.242	-0.066
-597.040	122.960	0.125	-0.157
-596.025	800.000	-0.076	0.252
-595.011	-199.043	-0.070	-0.000
-593.996	-31.406	0.223	0.126
-592.982	95.475	-0.051	-0.059
-591.967	147.321	-0.189	0.256
-590.952	-200.000	-0.089	0.415
-589.938	269.148	0.099	0.174
-588.923	800.000	-0.023	-0.080
-587.909	386.102	-0.069	-0.143
-586.894	-35.364	0.250	-0.136
-585.879	-32.205	0.160	-0.090
-584.865	-153.347	-0.181	0.013
-583.850	-130.196	-0.087	0.012
-582.836	-200.000	0.019	0.238
-581.821	27.858	-0.017	-0.014
-580.806	-151.550	0.338	0.025
-579.792	-84.098	0.164	0.052
-578.777	35.759	-0.180	0.159
-577.763	800.000	-0.039	0.112
-576.748	290.985	-0.067	-0.123
-575.733	127.631	-0.111	-0.141
-574.719	-68.246	-0.353	-0.138
-573.704	-106.604	-0.097	-0.022
-572.690	228.601	-0.126	-0.207
-571.675	800.000	-0.023	0.088
-570.661	-200.000	0.013	-0.174
-569.646	800.000	-0.053	0.158
-568.631	-40.717	0.085	0.044
-567.617	-15.625	-0.102	-0.065
-566.602	-200.000	-0.017	-0.126
-565.588	70.873	0.259	-0.269
-564.573	-34.702	-0.282	-0.155
-563.558	800.000	0.124	-0.409
-562.544	-75.014	-0.241	0.087
-561.529	-47.525	-0.273	0.133
-560.515	109.574	0.133	-0.159
-559.500	-71.525	-0.065	-0.024
-558.485	156.165	-0.273	0.378
-557.471	440.682	0.131	0.287
-556.456	800.000	-0.003	-0.010
-555.442	-54.987	0.133	0.060
-554.427	93.135	0.216	-0.246
-553.412	-149.363	0.101	-0.008
-552.398	235.058	-0.093	0.155
-551.383	-121.459	0.178	-0.030
-550.369	-66.111	-0.177	0.071
-549.354	173.380	0.229	0.331
-548.339	178.428	-0.175	-0.256
-547.325	-166.600	0.415	-0.017
-546.310	191.528	0.054	0.082
-545.296	800.000	-0.058	0.248
-544.281	-80.287	0.329	0.110
-543.266	0.380	-0.170	0.122
-542.252	693.021	-0.020	-0.052
-541.237	-200.000	-0.071	0.318
-540.223	-162.476	-0.196	-0.010
-539.208	-70.917	-0.579	0.219
-538.193	-200.000	-0.004	0.122
-537.179	-2.761	-0.144	0.101
-536.164	122.177	0.167	-0.209
-535.150	-83.485	0.386	0.124
-534.135	-6.086	-0.319	0.219
-533.121	337.697	0.225	-0.439
-532.106	23.969	0.053	-0.044
-531.091	800.000	0.104	0.440
-530.077	111.705	0.045	-0.054
-529.062	688.379	0.038	0.099
-528.048	63.348	-0.147	0.148
-527.033	198.269	-0.066	0.101
-526.018	170.769	-0.093	-0.133
-525.004	800.000	-0.052	-0.181
-523.989	201.133	-0.220	0.340
-522.975	108.515	0.147	-0.175
-521.960	-200.000	-0.016	0.144
-520.945	279.484	-0.197	0.353
-519.931	-200.000	-0.019	-0.277
-518.916	37.748	0.156	0.139
-517.902	-117.615	0.453	-0.082
-516.887	253.472	0.234	0.400
-515.872	3.629	-0.141	-0.103
-514.858	-12.246	-0.173	0.113
-513.843	-200.000	-0.003	-0.187
-512.829	-145.501	-0.136	-0.012
-511.814	800.000	-0.062	0.205
-510.799	401.823	-0.084	-0.178
-509.785	800.000	0.154	-0.439
-508.770	-123.444	-0.155	-0.025
-507.756	800.000	0.031	-0.091
-506.741	-79.317	0.245	0.083
-505.726	-31.381	-0.100	-0.057
-504.712	119.431	-0.227	0.282
-503.697	-200.000	0.034	0.151
-502.683	45.204	-0.257	-0.238
-501.668	-200.000	-0.014	0.237
-500.653	800.000	0.029	0.106
-499.639	441.652	-0.054	-0.117
-498.624	183.374	0.247	-0.365
-497.610	-156.901	-0.158	0.010
-496.595	101.060	0.012	-0.014
-495.581	-88.710	-0.042	0.012
-494.566	-128.374	-0.140	0.020
-493.551	-152.483	0.183	0.013
-492.537	-88.991	0.309	-0.092
-491.522	-200.000	0.017	0.213
-490.508	-29.617	-0.303	-0.173
-489.493	307.688	0.125	-0.234
-488.478	-200.000	0.009	-0.055
-487.464	-200.000	-0.009	0.182
-486.449	-97.012	0.124	-0.033
-485.435	32.944	0.095	0.082
-484.420	-73.372	-0.183	-0.067
-483.405	-200.000	-0.003	-0.196
-482.391	800.000	-0.059	-0.252
-481.376	-162.876	0.157	-0.008
-480.362	1.196	-0.092	0.066
-479.347	-16.189	0.206	0.131
-478.332	-107.688	-0.259	-0.057
-477.318	160.100	0.259	-0.362
-476.303	-200.000	-0.010	-0.060
-475.289	800.000	-0.053	0.170
-474.274	-42.014	-0.382	-0.196
-473.259	251.954	0.212	-0.361
-472.245	406.160	-0.075	0.159
-471.230	-200.000	-0.001	0.100
-470.216	800.000	-0.074	0.249
-469.201	-94.012	0.459	0.126
-468.186	368.002	0.155	0.313
-467.172	237.437	0.079	0.132
-466.157	-32.221	-0.033	-0.019
-465.143	145.648	0.245	0.328
-464.128	434.803	-0.116	0.252
-463.113	333.751	0.094	0.183
-462.099	-122.857	-0.090	0.014
-461.084	800.000	0.025	-0.106
-460.070	168.757	0.168	-0.239
-459.055	-84.692	0.229	-0.072
-458.040	79.157	-0.219	-0.235
-457.026	130.791	-0.078	-0.100
-456.011	-131.359	0.217	-0.029
-454.997	212.517	0.040	-0.063
-453.982	236.374	0.116	0.192
-452.968	-200.000	0.042	-0.211
-451.953	77.474	0.155	0.164
-450.938	19.196	-0.187	0.150
-449.924	55.693	-0.220	0.213
-448.909	-141.523	-0.430	-0.043
-447.895	110.823	0.016	0.019
-446.880	684.645	0.073	0.191
-445.865	-200.000	0.023	-0.106
-444.851	-39.190	0.206	0.108
-443.836	-18.651	-0.011	-0.007
-442.822	-166.358	0.164	0.007
-441.807	-200.000	0.082	-0.389
-440.792	51.629	0.181	-0.172
-439.778	-32.915	0.192	0.107
-438.763	-53.719	0.175	-0.080
-437.749	800.000	0.056	-0.177
-436.734	-108.281	-0.157	-0.034
-435.719	-4.329	0.187	0.129
-434.705	-10.754	0.102	0.068
-433.690	-70.734	-0.194	0.073
-432.676	279.899	0.129	0.230
-431.661	-30.435	0.194	0.110
-430.646	-6.042	0.075	-0.051
-429.632	490.330	0.068	-0.155
-428.617	686.292	-0.043	0.111
-427.603	247.524	0.131	-0.222
-426.588	364.324	0.088	0.178
-425.573	-200.000	0.005	0.154
-424.559	-200.000	-0.019	0.553
-423.544	121.526	-0.151	0.188
-422.530	72.026	-0.177	-0.184
-421.515	-153.623	0.025	0.002
-420.500	37.236	-0.149	0.131
-419.486	-200.000	0.001	0.134
-418.471	-163.527	0.087	-0.004
-417.457	571.758	-0.072	-0.175
-416.442	-92.343	0.190	0.053
-415.428	-99.434	-0.157	0.039
-414.413	-121.619	0.256	0.042
-413.398	-36.614	0.042	0.023
-412.384	800.000	0.030	0.119
-411.369	-200.000	0.084	-0.405
-410.355	-155.603	0.408	0.026
-409.340	-52.551	0.287	0.132
-408.325	-56.389	0.217	0.096
-407.311	-139.680	0.211	-0.022
-406.296	-200.000	0.040	0.421
-405.282	-200.000	-0.007	0.088
-404.267	592.081	-0.066	0.163
-403.252	104.482	-0.150	-0.176
-402.238	-173.637	0.191	0.006
-401.223	10.086	-0.062	0.047
-400.209	-85.530	0.184	0.057
-399.194	-116.528	-0.349	-0.064
-398.179	-36.609	-0.097	0.052
-397.165	-200.000	0.012	-0.096
-396.150	332.081	-0.178	0.342
-395.136	-110.800	-0.138	0.028
-394.121	463.409	-0.062	-0.138
-393.106	800.000	-0.048	-0.168
-392.092	-200.000	0.049	0.245
-391.077	-51.214	-0.330	-0.154
-390.063	800.000	0.039	-0.124
-389.048	98.855	-0.165	0.190
-388.033	-24.587	-0.066	0.039
-387.019	-28.995	-0.081	0.046
-386.004	-11.387	-0.058	0.038
-384.990	-168.173	0.109	-0.004
-383.975	-42.520	-0.129	-0.066
-382.960	-91.706	-0.220	0.062
-381.946	94.824	0.090	0.102
-380.931	21.316	0.104	-0.084
-379.917	-169.900	0.119	-0.004
-378.902	800.000	-0.034	-0.122
-377.888	-38.293	0.105	0.055
-376.873	-126.664	0.172	-0.025
-375.858	-90.453	0.201	0.058
-374.844	-145.373	0.255	-0.023
-373.829	-46.931	-0.240	0.117
-372.815	-124.007	-0.208	-0.033
-371.800	-200.000	0.040	-0.177
-370.785	130.192	0.006	0.008
-369.771	-103.856	0.311	0.072
-368.756	-120.475	-0.090	-0.015
-367.742	-164.267	-0.495	-0.023
-366.727	-106.665	0.026	0.006
-365.712	-200.000	-0.006	-0.179
-364.698	-200.000	0.027	-0.396
-363.683	114.704	-0.209	-0.254
-362.669	-174.497	0.122	0.003
-361.654	71.908	0.165	0.171
-360.639	-68.974	-0.184	-0.070
-359.625	-96.415	-0.096	0.025
-358.610	-54.962	0.241	0.108
-357.596	-200.000	-0.040	-0.257
-356.581	-99.206	0.619	0.156
-355.566	31.326	-0.223	-0.191
-354.552	112.783	-0.325	-0.392
-353.537	-200.000	0.027	0.163
-352.523	-20.154	0.255	0.156
-351.508	-200.000	0.009	-0.301
-350.493	577.414	-0.102	-0.249
-349.479	-200.000	0.002	0.080
-348.464	-200.000	-0.055	-0.303
-347.450	328.170	-0.120	0.230
-346.435	510.027	-0.085	0.196
-345.420	-82.753	0.239	0.077
-344.406	67.141	-0.255	-0.259
-343.391	74.485	0.176	0.184
-342.377	-89.047	-0.089	0.026
-341.362	-200.000	0.013	-0.057
-340.348	-200.000	0.073	0.362
-339.333	445.705	-0.174	0.380
-338.318	-200.000	-0.023	-0.174
-337.304	-200.000	-0.034	0.272
-336.289	-110.736	0.089	-0.018
-335.275	800.000	-0.017	-0.061
-334.260	552.899	0.138	0.329
-333.245	-200.000	-0.372	0.001
-332.231	800.000	-0.117	-0.441
-331.216	-200.000	-0.079	-0.415
-330.202	112.532	-0.069	-0.083
-329.187	-48.591	-0.348	-0.166
-328.172	-200.000	-0.034	-0.426
-327.158	800.000	-0.022	-0.072
-326.143	-35.062	-0.191	-0.104
-325.129	-200.000	-0.007	0.170
-324.114	215.874	0.119	0.189
-323.099	-200.000	0.049	0.317
-322.085	-12.054	0.117	-0.076
-321.070	-87.255	-0.193	-0.058
-320.056	-147.216	0.103	-0.009
-319.041	800.000	-0.017	-0.065
-318.026	-130.494	0.168	-0.023
-317.012	-126.329	-0.069	0.010
-315.997	197.321	0.169	-0.256
-314.983	240.425	-0.023	0.038
-313.968	269.232	0.176	0.308
-312.953	22.931	0.236	-0.192
-311.939	55.345	0.092	-0.089
-310.924	-72.834	0.227	0.083
-309.910	615.218	-0.165	0.410
-308.895	-114.310	-0.243	-0.047
-307.880	204.704	-0.197	-0.304
-306.866	-120.013	0.026	0.004
-305.851	-18.481	-0.205	0.127
-304.837	173.539	0.060	-0.086
-303.822	-60.227	-0.115	0.049
-302.807	-128.693	-0.094	-0.013
-301.793	29.566	-0.323	-0.273
-300.778	-68.712	-0.107	0.041
-299.764	-168.906	0.305	-0.011
-298.749	-42.346	0.173	-0.088
-297.735	800.000	0.101	0.331
-296.720	-15.268	0.093	-0.059
-295.705	29.652	-0.221	-0.187
-294.691	-134.454	0.186	0.023
-293.676	-200.000	0.000	0.290
-292.662	800.000	0.058	-0.227
-291.647	-200.000	0.059	-0.346
-290.632	-15.208	-0.051	-0.032
-289.618	-144.730	0.201	-0.018
-288.603	29.153	0.223	0.188
-287.589	-116.037	-0.154	-0.028
-286.574	-16.116	-0.220	-0.139
-285.559	732.205	0.052	0.139
-284.545	196.825	0.160	-0.242
-283.530	160.141	-0.059	0.081
-282.516	279.802	0.132	-0.234
-281.501	38.739	0.099	0.088
-280.486	-45.856	0.162	-0.080
-279.472	-200.000	-0.018	-0.178
-278.457	-14.732	-0.315	0.201
-277.443	-200.000	-0.003	-0.056
-276.428	-84.461	0.096	0.030
-275.413	-200.000	0.061	-0.322
-274.399	-200.000	0.040	0.196
-273.384	-93.269	0.120	0.033
-272.370	26.933	0.119	-0.099
-271.355	-200.000	-0.024	-0.418
-270.340	-200.000	-0.008	0.083
-269.326	383.562	-0.145	-0.296
-268.311	-66.683	0.350	-0.137
-267.297	-80.799	0.127	0.042
-266.282	-192.590	0.088	0.001
-265.267	-200.000	-0.003	0.202
-264.253	800.000	0.005	0.022
-263.238	41.130	-0.314	0.281
-262.224	309.232	0.066	-0.122
-261.209	-115.022	0.190	0.036
-260.195	452.529	0.070	0.153
-259.180	-11.402	-0.117	-0.076
-258.165	-9.235	0.036	-0.024
-257.151	132.213	-0.235	0.300
-256.136	188.598	0.172	-0.255
-255.122	-31.337	0.107	-0.059
-254.107	-42.731	-0.043	0.022
-253.092	-52.002	0.171	-0.079
-252.078	188.161	0.246	-0.364
-251.063	-133.523	-0.174	0.022
-250.049	331.118	0.020	-0.038
-249.034	-57.477	0.272	-0.118
-248.019	2.792	0.196	0.141
-247.005	-62.269	0.248	-0.102
-245.990	-63.869	-0.307	-0.125
-244.976	-6.192	-0.179	0.121
-243.961	752.054	-0.102	-0.274
-242.946	-56.375	0.281	0.124
-241.932	-151.919	-0.110	0.008
-240.917	-176.714	-0.279	0.007
-239.903	105.476	0.149	-0.175
-238.888	-85.186	0.380	-0.118
-237.873	556.442	-0.014	0.033
-236.859	-161.443	-0.039	0.002
-235.844	800.000	0.077	0.221
-234.830	800.000	0.068	-0.292
-233.815	-28.515	-0.161	0.092
-232.800	-29.437	0.253	0.144
-231.786	-64.957	-0.084	-0.034
-230.771	-134.723	-0.189	0.023
-229.757	207.860	0.043	-0.066
-228.742	-159.955	-0.185	0.010
-227.727	800.000	-0.052	-0.166
-226.713	-65.219	0.253	-0.101
-225.698	-42.513	-0.228	-0.115
-224.684	-200.000	0.020	0.165
-223.669	-200.000	0.012	-0.309
-222.655	-200.000	0.015	-0.079
-221.640	114.331	-0.047	0.057
-220.625	323.406	0.239	0.452
-219.611	15.041	0.346	-0.268
-218.596	-139.814	-0.376	-0.039
-217.582	-14.191	0.285	0.182
-216.567	-135.555	-0.335	-0.039
-215.552	17.455	-0.143	0.112
-214.538	-21.252	0.108	0.065
-213.523	-6.004	-0.200	-0.136
-212.509	33.660	-0.336	-0.289
-211.494	196.344	-0.009	0.013
-210.479	203.747	-0.106	-0.162
-209.465	-13.306	-0.377	-0.242
-208.450	72.990	0.139	0.144
-207.436	800.000	0.099	-0.369
-206.421	248.871	0.099	-0.166
-205.406	33.795	0.243	0.209
-204.392	-66.091	0.195	0.077
-203.377	-34.944	0.071	0.038
-202.363	-200.000	0.028	0.205
-201.348	-56.285	-0.037	-0.016
-200.333	-140.828	0.108	-0.011
-199.319	44.070	-0.120	0.109
-198.304	-72.325	-0.194	-0.071
-197.290	-200.000	0.018	0.287
-196.275	-103.613	0.404	-0.094
-195.260	-13.788	-0.214	-0.137
-194.246	-200.000	-0.002	-0.191
-193.231	800.000	-0.045	-0.128
-192.217	516.065	-0.063	-0.146
-191.202	-108.804	0.316	-0.067
-190.187	-45.114	-0.308	0.151
-189.173	-64.231	-0.137	-0.055
-188.158	27.307	-0.075	0.062
-187.144	-73.519	0.087	0.032
-186.129	768.962	0.044	-0.118
-185.114	-16.719	-0.323	-0.202
-184.100	0.105	-0.237	0.167
-183.085	-168.283	0.119	-0.005
-182.071	-101.848	0.214	0.051
-181.056	-123.038	-0.203	0.032
-180.042	236.491	0.186	0.304
-179.027	-200.000	-0.008	0.230
-178.012	21.692	-0.072	0.058
-176.998	34.221	-0.179	-0.154
-175.983	-124.689	-0.129	-0.020
-174.969	-200.000	0.025	-0.192
-173.954	196.362	-0.071	-0.107
-172.939	203.011	0.102	-0.156
-171.925	-200.000	0.006	0.156
-170.910	-13.761	0.087	-0.055
-169.896	-89.584	-0.175	0.051
-168.881	-47.307	-0.231	0.111
-167.866	800.000	-0.039	0.110
-166.852	-147.002	-0.278	0.024
-165.837	-41.978	0.274	0.138
-164.823	-100.751	-0.510	0.124
-163.808	-200.000	-0.004	0.382
-162.793	-60.461	-0.182	0.077
-161.779	81.813	0.404	0.433
-160.764	180.722	0.122	0.178
-159.750	97.767	-0.250	0.284
-158.735	543.313	0.069	0.163
-157.720	-77.099	0.169	-0.058
-156.706	-85.444	-0.159	0.049
-155.691	121.634	-0.181	-0.223
-154.677	-3.134	-0.021	0.015
-153.662	-123.840	-0.207	-0.032
-152.647	-114.732	0.169	-0.032
-151.633	-0.035	-0.120	-0.085
-150.618	312.431	0.063	-0.117
-149.604	800.000	0.039	-0.146
-148.589	-200.000	0.064	-0.280
-147.574	26.158	0.123	-0.102
-146.560	-34.741	0.142	0.077
-145.545	-200.000	-0.011	-0.075
-144.531	0.226	0.057	-0.040
-143.516	-176.222	0.302	0.008
-142.502	-58.331	0.265	0.114
-141.487	18.798	-0.072	0.057
-140.472	-200.000	-0.071	-0.320
-139.458	-175.918	0.054	0.001
-138.443	-200.000	0.032	0.352
-137.429	358.621	0.060	-0.118
-136.414	-113.657	-0.189	-0.036
-135.399	-200.000	0.062	-0.376
-134.385	599.624	-0.073	0.179
-133.370	236.308	0.078	0.128
-132.356	-144.735	0.215	0.020
-131.341	137.528	0.155	-0.200
-130.326	800.000	-0.095	0.301
-129.312	-47.045	0.318	0.153
-128.297	75.730	-0.032	-0.034
-127.283	164.155	-0.137	0.190
-126.268	-34.082	-0.145	-0.079
-125.253	-63.975	0.281	-0.113
-124.239	542.883	-0.089	-0.211
-123.224	-200.000	0.010	0.197
