DTS Sentinel unit serial number:	SN413079Multiplexer serial number:	ORYXHardware model number:	OX4-SRSoftware version number:	ORYX F/W v4.00 Oryx Data Collector v3.7.2.0data status	okinstallation	princeton_trtdifferential loss correction	single-endedforward channel	channel 3reverse channel	N/Adate	2019/09/15time	16:20:35forward acquisition time	60.00reverse acquisition time	0.00gamma	496.2192k internal	0.2288k external	0.2288temperature offset calibration	0.9936default loss term (dB/km)	0.3790temperature slope calibration	1.0000multiplexer offset coefficient	1.0000multiplexer slope coefficient	1.0000fibre end	0.00T internal ref (°C)	43.61T ext. ref 1 (°C)	5.50T ext. ref 2 (°C)	40.15length (m)	temperature (°C)	Stokes	anti-Stokes-747.200	18.417	-0.146	0.120
-746.185	73.687	0.199	0.214
-745.171	800.000	-0.084	0.280
-744.156	800.000	0.033	0.102
-743.142	224.381	0.042	-0.070
-742.127	549.776	0.063	0.154
-741.112	-10.491	0.190	-0.129
-740.098	-200.000	0.061	-0.384
-739.083	29.235	-0.192	-0.167
-738.069	-166.548	-0.474	0.020
-737.054	-200.000	0.002	0.097
-736.039	36.628	-0.007	-0.007
-735.025	85.023	0.227	-0.255
-734.010	800.000	-0.027	-0.087
-732.996	-145.252	0.208	-0.019
-731.981	-141.965	-0.095	0.010
-730.966	94.728	0.245	0.285
-729.952	189.434	0.223	0.342
-728.937	-200.000	-0.039	-0.186
-727.923	800.000	-0.074	0.243
-726.908	322.297	-0.072	0.141
-725.894	-8.009	-0.205	0.142
-724.879	761.393	-0.024	0.067
-723.864	60.225	0.268	0.271
-722.850	-17.782	-0.032	-0.020
-721.835	-117.318	-0.330	0.061
-720.821	-37.540	0.059	0.032
-719.806	249.669	-0.059	0.103
-718.791	-121.364	0.302	0.052
-717.777	-114.689	0.253	0.050
-716.762	708.727	-0.077	-0.208
-715.748	-200.000	0.005	0.064
-714.733	-30.886	0.312	0.181
-713.718	800.000	-0.069	0.275
-712.704	-150.896	-0.067	-0.005
-711.689	-200.000	0.014	-0.075
-710.675	-150.375	-0.047	0.004
-709.660	-154.362	0.296	0.020
-708.645	234.714	-0.066	0.112
-707.631	83.253	-0.084	0.094
-706.616	-79.222	-0.231	-0.080
-705.602	622.056	-0.078	0.201
-704.587	-157.891	-0.066	-0.004
-703.572	605.571	0.150	0.384
-702.558	-84.376	0.348	0.113
-701.543	12.360	0.169	0.134
-700.529	-30.241	-0.094	0.055
-699.514	800.000	0.109	0.468
-698.499	-102.383	0.156	0.038
-697.485	-40.490	0.329	-0.175
-696.470	-171.588	0.184	0.006
-695.456	45.314	-0.324	0.306
-694.441	-110.068	-0.336	0.072
-693.426	116.631	-0.079	0.099
-692.412	249.944	0.119	-0.207
-691.397	8.531	-0.290	0.223
-690.383	42.513	-0.264	-0.245
-689.368	44.622	-0.049	-0.046
-688.354	207.723	-0.047	0.076
-687.339	-82.279	0.343	-0.114
-686.324	-132.583	0.449	0.059
-685.310	-200.000	-0.029	0.211
-684.295	72.177	-0.171	-0.182
-683.281	-200.000	-0.070	-0.350
-682.266	64.747	-0.112	-0.115
-681.251	198.752	0.201	-0.315
-680.237	16.952	0.058	-0.047
-679.222	386.258	-0.056	0.118
-678.208	-72.069	0.159	0.060
-677.193	-114.548	-0.073	0.014
-676.178	138.918	-0.044	0.059
-675.164	-200.000	-0.039	0.351
-674.149	-50.520	-0.535	-0.258
-673.135	83.899	0.199	-0.222
-672.120	-82.597	0.354	-0.117
-671.105	-200.000	-0.020	0.129
-670.091	800.000	0.087	0.280
-669.076	-25.705	0.085	0.051
-668.062	-82.591	0.202	-0.067
-667.047	-123.956	0.134	-0.022
-666.032	58.290	-0.137	-0.137
-665.018	-89.870	-0.332	0.099
-664.003	-200.000	-0.004	0.158
-662.989	117.901	0.156	0.196
-661.974	-14.668	-0.375	-0.246
-660.959	117.561	-0.114	-0.143
-659.945	800.000	-0.039	-0.114
-658.930	32.041	-0.159	0.140
-657.916	-139.284	0.344	-0.038
-656.901	23.595	0.121	-0.101
-655.886	-146.419	0.022	-0.002
-654.872	-41.267	-0.266	-0.140
-653.857	-54.046	0.196	0.091
-652.843	569.507	0.028	-0.068
-651.828	-44.806	0.048	0.024
-650.814	-200.000	0.014	-0.114
-649.799	-90.279	-0.066	-0.020
-648.784	-95.160	0.057	0.016
-647.770	-29.137	0.191	-0.112
-646.755	800.000	-0.100	-0.326
-645.741	463.068	-0.085	-0.193
-644.726	-51.100	-0.282	0.135
-643.711	-175.014	-0.229	-0.007
-642.697	565.655	0.028	-0.069
-641.682	-200.000	0.001	0.067
-640.668	-88.545	0.297	-0.090
-639.653	-200.000	0.018	-0.135
-638.638	-96.533	-0.089	0.024
-637.624	-8.036	-0.156	0.107
-636.609	-80.494	0.234	-0.080
-635.595	17.051	-0.185	-0.150
-634.580	-115.711	0.104	-0.020
-633.565	143.259	-0.126	-0.171
-632.551	-9.800	-0.160	-0.109
-631.536	558.430	0.123	-0.304
-630.522	800.000	0.064	-0.277
-629.507	115.904	0.116	0.144
-628.492	187.321	0.046	0.070
-627.478	-39.120	-0.296	0.159
-626.463	275.253	-0.072	-0.129
-625.449	-65.289	-0.298	-0.122
-624.434	-112.253	-0.111	0.023
-623.419	-200.000	0.023	0.121
-622.405	-43.076	-0.261	0.135
-621.390	-200.000	0.015	-0.169
-620.376	800.000	-0.096	0.421
-619.361	-200.000	-0.019	0.185
-618.346	61.623	0.221	0.224
-617.332	-114.634	-0.078	-0.015
-616.317	2.739	-0.152	0.112
-615.303	-81.167	-0.222	-0.075
-614.288	-132.436	0.385	-0.051
-613.273	-128.504	0.016	0.002
-612.259	-165.090	-0.391	-0.018
-611.244	800.000	-0.008	0.034
-610.230	800.000	-0.017	-0.075
-609.215	-115.737	-0.168	0.032
-608.201	-97.678	0.078	-0.021
-607.186	-108.822	-0.227	-0.050
-606.171	-75.604	-0.186	-0.067
-605.157	-87.285	-0.085	-0.026
-604.142	-105.048	-0.132	0.031
-603.128	-200.000	-0.006	-0.069
-602.113	-200.000	0.018	0.168
-601.098	-12.948	0.080	-0.053
-600.084	355.635	-0.036	0.073
-599.069	800.000	0.036	0.113
-598.055	57.656	-0.117	0.117
-597.040	223.355	-0.004	0.006
-596.025	140.678	0.176	0.237
-595.011	-108.559	0.243	0.053
-593.996	-200.000	-0.133	-0.001
-592.982	170.692	0.172	0.251
-591.967	108.774	0.039	-0.048
-590.952	163.779	-0.181	0.260
-589.938	-95.930	-0.310	0.084
-588.923	-116.500	-0.118	0.022
-587.909	14.444	-0.121	-0.096
-586.894	122.259	0.142	-0.181
-585.879	568.331	0.045	-0.112
-584.865	-77.116	0.039	0.014
-583.850	10.099	0.147	-0.114
-582.836	-67.548	-0.229	0.092
-581.821	-50.548	0.290	0.139
-580.806	-31.421	-0.301	0.172
-579.792	-85.388	0.278	-0.088
-578.777	-200.000	0.013	-0.067
-577.763	-85.606	0.110	0.035
-576.748	-99.231	-0.090	-0.023
-575.733	56.301	0.075	0.074
-574.719	-106.972	0.105	0.024
-573.704	-200.000	0.003	-0.067
-572.690	637.022	0.188	-0.488
-571.675	-100.762	0.236	0.059
-570.661	60.400	-0.150	-0.151
-569.646	284.952	0.146	0.268
-568.631	-128.785	-0.159	0.023
-567.617	30.942	0.217	0.189
-566.602	-159.860	0.231	-0.013
-565.588	-48.896	-0.180	0.088
-564.573	-36.241	-0.384	-0.211
-563.558	75.941	-0.258	0.278
-562.544	54.391	-0.136	0.133
-561.529	-75.302	-0.111	-0.040
-560.515	-200.000	0.004	0.057
-559.500	191.442	0.092	-0.141
-558.485	-17.266	0.336	0.215
-557.471	-79.893	-0.492	0.168
-556.456	70.395	0.109	0.114
-555.442	-80.991	0.218	-0.073
-554.427	17.733	-0.101	0.082
-553.412	13.987	-0.085	0.068
-552.398	12.893	0.273	-0.214
-551.383	-83.079	-0.325	0.107
-550.369	-170.974	0.192	-0.007
-549.354	800.000	0.039	0.137
-548.339	-74.010	-0.166	-0.061
-547.325	-53.399	0.325	0.151
-546.310	185.798	0.069	0.104
-545.296	800.000	0.046	0.140
-544.281	-88.968	0.086	0.026
-543.266	17.731	-0.086	-0.070
-542.252	14.972	0.250	-0.199
-541.237	-200.000	0.002	0.053
-540.223	35.927	0.159	0.143
-539.208	59.507	0.151	-0.152
-538.193	46.260	0.250	-0.236
-537.179	-74.747	0.154	0.056
-536.164	127.523	-0.140	0.181
-535.150	754.766	-0.029	0.078
-534.135	10.002	0.264	0.204
-533.121	-199.829	0.276	0.001
-532.106	155.946	0.021	0.030
-531.091	217.754	0.158	-0.256
-530.077	243.186	0.197	-0.336
-529.062	-127.236	-0.255	0.038
-528.048	423.383	0.088	-0.193
-527.033	153.503	-0.203	-0.283
-526.018	-200.000	-0.031	-0.433
-525.004	12.941	0.277	0.218
-523.989	-200.000	-0.030	-0.193
-522.975	14.715	0.143	-0.114
-521.960	-200.000	0.005	0.144
-520.945	-50.499	0.263	-0.126
-519.931	28.929	-0.121	-0.104
-518.916	30.410	-0.243	-0.211
-517.902	-200.000	0.067	0.535
-516.887	277.909	-0.253	0.457
-515.872	-37.402	0.050	-0.027
-514.858	-130.397	0.060	-0.008
-513.843	-79.762	0.117	-0.040
-512.829	341.009	0.133	0.264
-511.814	-123.261	-0.120	-0.019
-510.799	-200.000	-0.067	-0.336
-509.785	73.207	-0.036	-0.038
-508.770	2.422	-0.190	0.139
-507.756	-200.000	0.021	-0.150
-506.741	-200.000	0.002	0.101
-505.726	-62.234	0.111	0.047
-504.712	-135.825	-0.271	-0.033
-503.697	-113.358	0.163	-0.032
-502.683	169.468	-0.092	0.133
-501.668	119.947	0.141	0.177
-500.653	-73.109	0.143	0.053
-499.639	363.746	0.097	0.197
-498.624	100.674	-0.060	0.070
-497.610	-174.699	-0.283	-0.008
-496.595	-95.993	0.395	-0.107
-495.581	-200.000	-0.046	-0.218
-494.566	468.879	0.072	-0.165
-493.551	-115.311	0.211	-0.040
-492.537	253.653	-0.168	-0.292
-491.522	248.411	0.031	0.053
-490.508	-132.689	0.337	0.044
-489.493	-166.214	-0.138	0.006
-488.478	-131.382	0.027	0.004
-487.464	-59.708	-0.361	-0.157
-486.449	-200.000	0.033	0.236
-485.435	241.403	-0.063	0.106
-484.420	49.470	-0.035	0.034
-483.405	-200.000	-0.084	-0.424
-482.391	209.106	-0.175	-0.278
-481.376	513.173	-0.065	-0.153
-480.362	-7.132	0.188	-0.130
-479.347	-10.758	0.044	-0.030
-478.332	-200.000	0.030	-0.226
-477.318	-98.081	0.332	0.087
-476.303	12.718	0.264	-0.207
-475.289	-19.002	-0.400	0.252
-474.274	103.761	-0.053	-0.063
-473.259	-82.752	0.159	0.052
-472.245	-200.000	0.038	-0.178
-471.230	-88.295	-0.151	-0.046
-470.216	-69.995	-0.252	0.097
-469.201	155.781	0.106	0.149
-468.186	-200.000	0.035	-0.262
-467.172	-86.018	-0.132	-0.041
-466.157	162.228	0.085	-0.121
-465.143	-200.000	0.034	0.290
-464.128	-146.612	0.223	-0.020
-463.113	-92.302	-0.184	-0.053
-462.099	-128.689	-0.065	-0.009
-461.084	-134.619	-0.270	0.033
-460.070	-100.428	-0.159	0.040
-459.055	304.807	0.065	-0.121
-458.040	-200.000	0.028	0.206
-457.026	-23.731	-0.310	0.188
-456.011	303.282	0.038	-0.071
-454.997	52.096	0.061	0.059
-453.982	-200.000	0.051	0.334
-452.968	-86.480	-0.156	0.048
-451.953	-94.327	-0.149	0.041
-450.938	-11.937	-0.106	0.070
-449.924	-19.142	-0.261	0.164
-448.909	112.131	-0.290	0.355
-447.895	800.000	-0.057	0.199
-446.880	-62.633	0.129	0.054
-445.865	-108.697	-0.475	-0.103
-444.851	94.449	0.101	-0.116
-443.836	-77.752	0.227	0.079
-442.822	-94.514	-0.191	0.053
-441.807	51.609	0.271	0.261
-440.792	-45.038	-0.176	-0.089
-439.778	-200.000	-0.067	-0.304
-438.763	524.245	0.088	-0.211
-437.749	-159.887	0.180	-0.010
-436.734	800.000	-0.061	0.265
-435.719	333.627	-0.050	0.099
-434.705	-154.698	0.291	0.020
-433.690	6.265	-0.315	0.237
-432.676	374.032	-0.046	-0.094
-431.661	-64.035	0.215	-0.089
-430.646	-37.403	0.133	0.072
-429.632	-140.047	-0.361	0.038
-428.617	-62.905	-0.106	0.044
-427.603	-113.075	0.294	0.059
-426.588	-200.000	0.003	-0.253
-425.573	37.693	-0.155	0.139
-424.559	86.224	0.070	0.078
-423.544	195.583	0.092	-0.142
-422.530	82.438	0.060	0.066
-421.515	-200.000	-0.035	0.218
-420.500	-135.757	0.158	-0.019
-419.486	-52.078	0.123	0.058
-418.471	109.989	0.080	-0.097
-417.457	-200.000	-0.002	0.134
-416.442	366.951	0.042	0.085
-415.428	-45.023	0.225	0.113
-414.413	-20.954	0.185	0.115
-413.398	-96.253	-0.184	-0.049
-412.384	-200.000	-0.022	0.196
-411.369	-180.920	-0.381	0.008
-410.355	77.759	-0.114	-0.123
-409.340	175.207	-0.067	0.098
-408.325	-101.758	-0.131	-0.032
-407.311	-200.000	-0.063	-0.404
-406.296	-200.000	-0.048	-0.222
-405.282	261.702	-0.178	-0.311
-404.267	-150.817	0.209	0.016
-403.252	-136.901	0.181	0.021
-402.238	-200.000	-0.009	0.119
-401.223	5.985	-0.249	0.186
-400.209	-119.052	0.163	0.029
-399.194	-37.443	0.173	-0.093
-398.179	-24.858	0.253	-0.152
-397.165	800.000	0.147	-0.475
-396.150	110.042	0.078	0.094
-395.136	800.000	0.009	0.040
-394.121	-179.321	0.245	-0.005
-393.106	22.703	-0.221	0.183
-392.092	-61.734	-0.178	-0.075
-391.077	-169.684	0.079	0.003
-390.063	84.633	-0.032	0.035
-389.048	11.990	0.342	-0.266
-388.033	-94.718	-0.028	0.008
-387.019	47.834	0.102	-0.096
-386.004	215.726	-0.027	-0.044
-384.990	-138.347	0.112	-0.013
-383.975	-55.549	0.332	0.150
-382.960	-10.768	0.146	-0.097
-381.946	46.978	-0.091	0.086
-380.931	306.757	-0.067	0.125
-379.917	85.156	0.101	-0.112
-378.902	-119.004	-0.072	-0.013
-377.888	-100.340	0.064	0.016
-376.873	-30.768	-0.149	-0.085
-375.858	196.670	-0.127	0.195
-374.844	-200.000	0.011	-0.202
-373.829	-110.865	0.401	0.083
-372.815	-60.027	-0.469	-0.202
-371.800	-200.000	-0.006	-0.275
-370.785	-185.157	0.174	-0.003
-369.771	-200.000	-0.022	-0.406
-368.756	36.700	-0.198	-0.177
-367.742	504.863	-0.034	-0.079
-366.727	-141.721	0.400	0.041
-365.712	800.000	-0.081	0.252
-364.698	-180.109	0.406	-0.009
-363.683	-167.343	0.120	-0.005
-362.669	-200.000	0.043	0.290
-361.654	786.867	-0.049	-0.136
-360.639	23.200	-0.093	0.077
-359.625	75.484	0.054	-0.057
-358.610	-55.418	-0.135	-0.061
-357.596	-40.948	0.036	-0.019
-356.581	-26.342	0.063	-0.038
-355.566	3.661	-0.139	0.102
-354.552	800.000	0.066	-0.192
-353.537	800.000	-0.028	0.109
-352.523	109.787	0.125	0.151
-351.508	167.504	-0.052	-0.075
-350.493	-20.715	-0.182	0.113
-349.479	800.000	0.065	0.213
-348.464	-66.653	-0.156	0.062
-347.450	-50.316	-0.129	0.062
-346.435	-200.000	-0.068	-0.346
-345.420	79.327	0.170	0.184
-344.406	-72.468	-0.139	0.052
-343.391	45.753	0.179	-0.167
-342.377	-200.000	-0.088	-0.396
-341.362	349.094	-0.182	0.362
-340.348	800.000	-0.160	-0.450
-339.333	204.620	0.128	0.200
-338.318	-200.000	0.025	0.225
-337.304	-39.079	-0.289	-0.154
-336.289	257.937	-0.161	0.280
-335.275	-44.780	-0.132	-0.066
-334.260	-156.349	0.163	-0.010
-333.245	-40.760	0.056	0.029
-332.231	68.867	0.126	-0.131
-331.216	135.215	-0.107	0.141
-330.202	-200.000	0.028	0.141
-329.187	75.263	0.046	-0.049
-328.172	603.355	-0.063	-0.159
-327.158	-200.000	0.018	-0.092
-326.143	-149.177	0.106	-0.009
-325.129	529.601	-0.112	-0.266
-324.114	-96.143	0.122	0.033
-323.099	-176.187	-0.364	0.010
-322.085	-142.549	-0.253	0.025
-321.070	257.511	0.084	-0.146
-320.056	-135.434	0.410	-0.049
-319.041	-200.000	-0.013	0.129
-318.026	64.116	-0.218	-0.221
-317.012	147.890	-0.132	-0.180
-315.997	142.504	-0.195	-0.261
-314.983	-75.916	0.283	-0.101
-313.968	800.000	0.062	-0.188
-312.953	-200.000	0.019	-0.091
-311.939	75.222	0.136	-0.145
-310.924	17.021	0.113	0.091
-309.910	-200.000	0.017	-0.166
-308.895	-26.485	0.108	0.064
-307.880	302.163	-0.145	-0.270
-306.866	-200.000	0.036	-0.232
-305.851	800.000	0.082	0.330
-304.837	-128.271	0.108	0.016
-303.822	86.654	-0.239	-0.266
-302.807	235.813	0.162	0.270
-301.793	800.000	-0.100	0.278
-300.778	-200.000	0.007	0.267
-299.764	91.257	0.031	0.036
-298.749	-41.428	0.056	0.029
-297.735	-30.317	0.077	-0.044
-296.720	25.282	-0.125	0.104
-295.705	-106.403	0.166	0.037
-294.691	-200.000	-0.013	0.238
-293.676	-127.729	0.068	-0.010
-292.662	250.695	0.131	0.224
-291.647	-200.000	0.028	0.163
-290.632	53.105	0.241	0.232
-289.618	-200.000	-0.027	-0.259
-288.603	-117.176	0.351	-0.064
-287.589	-54.158	-0.058	0.027
-286.574	-200.000	-0.030	-0.384
-285.559	-146.740	-0.117	0.010
-284.545	800.000	0.010	-0.033
-283.530	-179.270	0.249	-0.006
-282.516	230.421	-0.144	0.237
-281.501	97.086	0.180	0.208
-280.486	-200.000	-0.004	-0.158
-279.472	647.168	-0.107	0.275
-278.457	-86.096	0.355	0.110
-277.443	-65.955	0.316	0.127
-276.428	-45.097	-0.132	0.066
-275.413	800.000	0.101	0.301
-274.399	-79.355	-0.201	0.069
-273.384	-69.595	-0.175	-0.068
-272.370	800.000	-0.045	-0.161
-271.355	407.143	0.126	0.267
-270.340	-200.000	-0.010	0.068
-269.326	-19.261	-0.202	0.126
-268.311	590.283	0.057	0.142
-267.297	-113.228	0.092	0.018
-266.282	-28.016	-0.078	0.046
-265.267	-200.000	-0.412	-0.002
-264.253	111.781	-0.107	-0.130
-263.238	90.486	-0.120	0.135
-262.224	-31.597	0.299	0.169
-261.209	-143.343	0.335	0.032
-260.195	-109.807	-0.233	-0.049
-259.180	216.552	-0.178	-0.285
-258.165	-15.926	0.180	0.115
-257.151	200.712	-0.134	0.207
-256.136	-200.000	0.023	-0.219
-255.122	252.488	-0.145	0.248
-254.107	-200.000	-0.034	0.312
-253.092	415.519	0.166	0.356
-252.078	493.616	-0.077	-0.177
-251.063	81.090	-0.153	0.166
-250.049	35.696	-0.183	0.162
-249.034	183.627	0.215	-0.320
-248.019	479.003	0.034	-0.078
-247.005	-200.000	0.023	-0.134
-245.990	-200.000	0.004	-0.027
-244.976	127.370	0.146	-0.186
-243.961	-200.000	0.015	0.120
-242.946	-95.159	-0.191	-0.052
-241.932	-180.925	-0.270	-0.005
-240.917	-147.018	0.073	-0.006
-239.903	-101.180	0.011	-0.003
-238.888	222.360	-0.195	0.316
-237.873	-145.651	-0.262	0.024
-236.859	-200.000	0.016	-0.081
-235.844	133.591	-0.116	0.150
-234.830	-86.164	0.071	-0.022
-233.815	548.065	0.048	-0.117
-232.800	252.860	-0.198	-0.339
-231.786	683.099	0.161	0.421
-230.771	-117.673	-0.154	0.028
-229.757	-137.354	-0.345	0.039
-228.742	67.039	-0.046	0.047
-227.727	89.883	-0.132	-0.148
-226.713	-200.000	-0.010	0.047
-225.698	-91.203	-0.338	0.097
-224.684	-71.731	-0.443	-0.166
-223.669	-31.197	0.114	-0.065
-222.655	-3.652	0.118	-0.082
-221.640	-81.444	0.079	-0.026
-220.625	800.000	0.014	-0.060
-219.611	-66.844	0.232	-0.092
-218.596	-10.972	-0.206	-0.136
-217.582	800.000	0.090	0.354
-216.567	128.901	0.181	0.232
-215.552	-117.538	0.510	-0.093
-214.538	5.376	0.191	0.141
-213.523	-200.000	-0.008	0.127
-212.509	-68.005	0.434	0.170
-211.494	247.355	-0.025	-0.043
-210.479	-61.934	-0.157	0.066
-209.465	309.410	0.099	-0.186
-208.450	-200.000	-0.004	-0.133
-207.436	800.000	0.066	0.210
-206.421	-49.735	-0.144	0.069
-205.406	252.256	0.072	-0.123
-204.392	-98.952	-0.287	0.073
-203.377	56.893	0.127	0.125
-202.363	800.000	-0.080	0.281
-201.348	-67.643	-0.231	-0.091
-200.333	22.134	0.080	0.065
-199.319	14.293	0.269	0.210
-198.304	55.838	-0.125	0.121
-197.290	800.000	0.071	0.196
-196.275	-44.094	-0.225	-0.113
-195.260	37.569	-0.087	-0.077
-194.246	-142.443	0.073	0.007
-193.231	-110.340	-0.241	0.050
-192.217	8.744	0.240	-0.181
-191.202	-47.044	0.095	-0.046
-190.187	113.500	0.074	0.090
-189.173	-200.000	-0.011	-0.148
-188.158	-157.529	-0.050	-0.003
-187.144	223.076	-0.074	0.120
-186.129	383.554	0.126	-0.261
-185.114	107.953	0.287	-0.343
-184.100	4.962	0.037	0.028
-183.085	-2.562	0.029	0.021
-182.071	800.000	-0.064	-0.281
-181.056	-200.000	0.010	0.335
-180.042	-34.839	-0.318	-0.174
-179.027	-187.108	0.064	-0.001
-178.012	61.229	0.090	-0.089
-176.998	-134.142	-0.183	-0.023
-175.983	50.764	0.124	0.118
-174.969	-200.000	-0.006	0.072
-173.954	227.525	-0.072	-0.118
-172.939	-200.000	-0.001	-0.084
-171.925	-72.812	0.392	0.145
-170.910	239.716	-0.211	-0.352
-169.896	-127.136	0.171	0.025
-168.881	375.621	0.188	-0.384
-167.866	133.949	0.133	-0.172
-166.852	297.135	0.036	-0.067
-165.837	44.137	0.301	0.277
-164.823	800.000	0.056	0.185
-163.808	304.738	0.088	0.164
-162.793	-200.000	0.023	-0.268
-161.779	-58.497	0.243	-0.106
-160.764	114.894	-0.358	-0.437
-159.750	-200.000	0.007	-0.053
-158.735	183.446	0.043	-0.064
-157.720	-200.000	0.010	-0.206
-156.706	-200.000	-0.031	-0.184
-155.691	800.000	-0.093	0.259
-154.677	128.292	-0.110	0.141
-153.662	8.503	-0.265	0.200
-152.647	124.964	0.122	-0.153
-151.633	800.000	-0.064	-0.264
-150.618	-92.324	-0.106	0.030
-149.604	482.353	-0.117	-0.266
-148.589	471.967	0.023	0.053
-147.574	434.231	-0.055	-0.119
-146.560	-55.075	0.353	0.159
-145.545	72.850	0.048	0.050
-144.531	70.364	-0.114	-0.118
-143.516	-107.456	0.040	-0.009
-142.502	100.090	-0.182	0.211
-141.487	-161.781	0.063	0.003
-140.472	-200.000	0.027	0.163
-139.458	-107.644	-0.350	-0.077
-138.443	-116.220	0.074	0.014
-137.429	-170.665	0.366	0.013
-136.414	-2.516	0.166	-0.116
-135.399	-49.865	-0.340	-0.162
-134.385	800.000	0.002	0.008
-133.370	-148.676	-0.412	-0.034
-132.356	71.569	0.220	-0.229
-131.341	82.620	0.037	0.040
-130.326	-200.000	0.027	0.153
-129.312	-106.413	-0.161	-0.036
-128.297	183.404	-0.191	-0.282
-127.283	497.301	0.005	-0.011
-126.268	127.869	0.070	0.089
-125.253	-77.082	-0.149	-0.052
-124.239	-200.000	-0.007	-0.051
-123.224	-200.000	0.002	-0.261
-122.210	-90.729	0.241	-0.070
-121.195	-200.000	0.000	0.329
