DTS Sentinel unit serial number:	SN413079Multiplexer serial number:	ORYXHardware model number:	OX4-SRSoftware version number:	ORYX F/W v4.00 Oryx Data Collector v3.7.2.0data status	okinstallation	princeton_trtdifferential loss correction	single-endedforward channel	channel 3reverse channel	N/Adate	2019/09/13time	07:56:35forward acquisition time	60.00reverse acquisition time	0.00gamma	496.2192k internal	0.2336k external	0.2336temperature offset calibration	1.0137default loss term (dB/km)	0.3790temperature slope calibration	1.0000multiplexer offset coefficient	1.0000multiplexer slope coefficient	1.0000fibre end	0.00T internal ref (°C)	26.75T ext. ref 1 (°C)	4.24T ext. ref 2 (°C)	23.17length (m)	temperature (°C)	Stokes	anti-Stokes-747.200	101.458	-0.097	0.113
-746.185	-200.000	0.088	0.408
-745.171	-91.687	0.366	0.105
-744.156	54.708	-0.227	0.220
-743.142	103.017	0.236	-0.278
-742.127	4.662	-0.148	0.109
-741.112	432.005	-0.104	0.227
-740.098	27.773	-0.143	-0.121
-739.083	-136.126	0.205	-0.024
-738.069	179.987	-0.023	0.034
-737.054	-170.145	0.183	-0.007
-736.039	122.566	-0.070	-0.088
-735.025	-80.170	0.416	0.140
-734.010	-73.637	-0.047	-0.017
-732.996	-200.000	-0.035	0.388
-731.981	299.359	-0.186	-0.344
-730.966	800.000	-0.132	-0.385
-729.952	-107.134	0.072	-0.016
-728.937	-35.640	-0.147	-0.080
-727.923	10.269	-0.199	-0.152
-726.908	-91.225	-0.349	0.100
-725.894	104.660	-0.047	-0.055
-724.879	-200.000	-0.012	-0.427
-723.864	800.000	-0.113	-0.379
-722.850	-200.000	-0.030	-0.597
-721.835	-170.168	0.176	0.006
-720.821	-178.967	-0.275	0.006
-719.806	-200.000	0.025	0.176
-718.791	73.727	0.062	0.066
-717.777	180.131	-0.168	-0.247
-716.762	-82.460	-0.151	-0.049
-715.748	76.818	-0.257	-0.273
-714.733	-90.548	0.224	-0.065
-713.718	161.042	0.121	-0.170
-712.704	-200.000	0.016	0.144
-711.689	-154.941	-0.106	0.007
-710.675	-38.478	-0.134	-0.071
-709.660	-200.000	-0.049	-0.229
-708.645	-200.000	-0.042	-0.196
-707.631	58.439	0.219	-0.216
-706.616	-200.000	0.025	-0.280
-705.602	-83.865	-0.217	-0.069
-704.587	800.000	0.095	0.333
-703.572	-182.814	0.295	-0.005
-702.558	-129.948	-0.148	0.020
-701.543	-159.717	-0.190	-0.011
-700.529	79.713	0.119	-0.128
-699.514	477.865	0.060	0.135
-698.499	52.873	0.161	-0.154
-697.485	-200.000	-0.024	-0.386
-696.470	-200.000	-0.035	0.259
-695.456	-22.192	-0.293	-0.178
-694.441	91.112	-0.104	-0.117
-693.426	-200.000	0.027	-0.226
-692.412	-200.000	-0.024	-0.182
-691.397	-8.547	0.081	-0.055
-690.383	-200.000	-0.013	0.067
-689.368	159.249	-0.197	-0.274
-688.354	-132.142	0.174	-0.023
-687.339	800.000	0.050	0.213
-686.324	68.790	0.249	-0.257
-685.310	-200.000	-0.028	-0.197
-684.295	57.988	-0.187	-0.184
-683.281	800.000	0.155	-0.610
-682.266	405.302	-0.012	0.024
-681.251	-25.300	-0.334	-0.198
-680.237	800.000	0.094	-0.265
-679.222	30.818	-0.063	-0.054
-678.208	-42.103	-0.168	0.086
-677.193	303.303	0.151	-0.281
-676.178	-26.795	0.241	-0.141
-675.164	-167.996	0.262	0.010
-674.149	-35.458	0.115	-0.063
-673.135	133.198	0.119	-0.154
-672.120	-59.191	-0.107	0.046
-671.105	-200.000	-0.059	0.361
-670.091	800.000	-0.121	0.352
-669.076	291.831	-0.113	0.205
-668.062	800.000	-0.019	0.060
-667.047	95.057	0.182	0.207
-666.032	-200.000	0.032	-0.163
-665.018	355.545	-0.192	-0.382
-664.003	-88.132	0.112	0.034
-662.989	-113.766	0.231	-0.045
-661.974	151.927	0.021	0.029
-660.959	-124.714	-0.136	0.021
-659.945	51.455	-0.026	0.025
-658.930	-200.000	-0.007	-0.314
-657.916	400.214	0.068	-0.142
-656.901	25.248	0.034	0.028
-655.886	1.038	0.044	-0.032
-654.872	-63.368	-0.192	0.079
-653.857	-104.314	0.026	-0.006
-652.843	83.163	-0.191	-0.208
-651.828	-34.076	0.287	-0.158
-650.814	-63.048	-0.030	-0.012
-649.799	-22.039	0.086	-0.052
-648.784	10.584	0.073	0.055
-647.770	436.719	-0.127	-0.277
-646.755	96.615	0.061	-0.069
-645.741	-5.496	0.124	-0.085
-644.726	306.333	-0.053	0.098
-643.711	9.541	0.187	0.142
-642.697	-127.711	-0.109	-0.016
-641.682	-73.191	0.069	-0.025
-640.668	-112.614	-0.281	-0.056
-639.653	-9.800	0.190	0.127
-638.638	51.142	0.213	0.202
-637.624	800.000	0.072	-0.255
-636.609	101.758	0.090	-0.105
-635.595	80.733	-0.133	-0.143
-634.580	409.230	-0.178	0.378
-633.565	800.000	0.070	0.234
-632.551	-25.316	-0.117	0.069
-631.536	-7.200	0.120	-0.082
-630.522	-17.513	0.268	0.169
-629.507	-70.620	-0.227	0.086
-628.492	11.047	-0.131	-0.100
-627.478	-200.000	0.054	-0.249
-626.463	-39.194	0.245	0.129
-625.449	-126.952	-0.221	-0.032
-624.434	173.427	-0.044	0.064
-623.419	-200.000	-0.043	0.268
-622.405	800.000	0.054	0.155
-621.390	-139.723	-0.316	0.034
-620.376	-200.000	-0.012	0.054
-619.361	-8.914	-0.064	0.043
-618.346	-200.000	0.039	0.214
-617.332	76.665	-0.284	-0.301
-616.317	27.061	-0.282	0.236
-615.303	-140.904	0.282	0.029
-614.288	738.523	0.054	0.146
-613.273	387.209	0.123	-0.254
-612.259	24.664	0.169	0.140
-611.244	-200.000	0.019	-0.202
-610.230	115.686	-0.132	-0.161
-609.215	-63.132	0.246	0.101
-608.201	10.543	-0.066	0.050
-607.186	442.367	0.059	0.128
-606.171	-116.962	-0.258	0.047
-605.157	800.000	0.135	0.421
-604.142	673.063	-0.045	0.116
-603.128	-61.440	-0.125	-0.052
-602.113	-54.663	-0.053	0.024
-601.098	-89.293	-0.129	0.038
-600.084	-23.998	0.224	-0.134
-599.069	-174.580	-0.177	0.005
-598.055	23.821	0.046	-0.038
-597.040	470.230	-0.152	-0.342
-596.025	218.635	-0.094	0.149
-595.011	-48.438	-0.057	-0.028
-593.996	193.162	-0.130	-0.196
-592.982	800.000	0.060	-0.169
-591.967	-200.000	0.006	-0.304
-590.952	-13.141	0.162	0.105
-589.938	110.279	-0.056	0.067
-588.923	46.727	0.227	-0.211
-587.909	183.409	-0.027	-0.040
-586.894	-64.648	0.121	-0.049
-585.879	-200.000	-0.032	0.165
-584.865	-200.000	-0.014	-0.292
-583.850	-163.245	-0.251	-0.012
-582.836	800.000	-0.043	0.180
-581.821	-61.077	-0.248	-0.104
-580.806	-200.000	-0.015	-0.096
-579.792	251.683	0.197	-0.335
-578.777	-200.000	-0.170	0.001
-577.763	-80.215	-0.153	-0.051
-576.748	-128.448	0.203	-0.029
-575.733	800.000	-0.083	-0.258
-574.719	227.468	-0.135	-0.220
-573.704	-200.000	-0.012	0.256
-572.690	-96.242	-0.491	0.130
-571.675	-200.000	0.034	0.159
-570.661	-142.829	0.151	-0.015
-569.646	38.982	0.313	-0.279
-568.631	184.796	0.085	0.126
-567.617	15.427	-0.216	0.169
-566.602	185.291	0.200	0.296
-565.588	-89.359	-0.182	-0.054
-564.573	-130.655	0.171	-0.023
-563.558	-200.000	-0.011	-0.066
-562.544	330.301	0.024	-0.046
-561.529	-141.641	-0.384	-0.039
-560.515	-95.689	0.205	-0.055
-559.500	-144.896	-0.188	-0.017
-558.485	-57.800	-0.151	-0.066
-557.471	53.905	-0.127	-0.122
-556.456	-40.278	-0.215	0.112
-555.442	200.615	-0.158	-0.242
-554.427	-200.000	0.006	0.156
-553.412	-102.465	0.276	-0.066
-552.398	355.591	-0.022	-0.044
-551.383	-131.241	0.395	0.052
-550.369	800.000	-0.085	0.366
-549.354	-44.219	0.305	0.153
-548.339	11.058	0.213	0.162
-547.325	538.448	-0.019	0.045
-546.310	-95.258	-0.292	-0.078
-545.296	-41.804	-0.069	0.035
-544.281	-200.000	0.016	-0.225
-543.266	-11.109	-0.161	-0.106
-542.252	409.083	-0.139	0.292
-541.237	175.631	-0.066	-0.096
-540.223	-43.113	0.082	-0.041
-539.208	127.739	-0.215	-0.272
-538.193	141.755	-0.125	-0.165
-537.179	800.000	0.006	0.018
-536.164	74.603	0.057	-0.060
-535.150	-105.516	0.237	0.054
-534.135	10.926	0.266	0.203
-533.121	45.046	0.068	-0.062
-532.106	-200.000	-0.028	-0.296
-531.091	-85.792	0.114	-0.035
-530.077	223.336	-0.105	0.169
-529.062	306.357	-0.142	-0.264
-528.048	-200.000	0.029	-0.132
-527.033	800.000	-0.065	-0.203
-526.018	102.627	-0.230	-0.268
-525.004	117.102	0.150	0.183
-523.989	-148.668	-0.265	-0.021
-522.975	-27.660	-0.214	-0.124
-521.960	125.383	0.045	0.057
-520.945	-74.562	0.263	-0.094
-519.931	239.452	0.122	0.203
-518.916	-200.000	0.020	-0.163
-517.902	103.851	-0.117	0.137
-516.887	-153.305	-0.184	-0.013
-515.872	-200.000	0.073	0.337
-514.858	27.136	-0.079	-0.066
-513.843	76.376	-0.110	0.116
-512.829	800.000	0.088	-0.283
-511.814	42.172	-0.078	-0.071
-510.799	-200.000	0.073	0.438
-509.785	247.826	0.160	-0.269
-508.770	-131.520	-0.388	0.051
-507.756	310.259	-0.141	-0.263
-506.741	-133.602	-0.078	0.010
-505.726	-189.140	-0.388	0.005
-504.712	696.486	-0.107	-0.279
-503.697	800.000	-0.019	-0.062
-502.683	25.642	-0.248	0.205
-501.668	800.000	-0.044	-0.181
-500.653	-200.000	-0.070	-0.331
-499.639	-200.000	-0.016	0.247
-498.624	800.000	-0.054	0.205
-497.610	-123.627	-0.276	-0.044
-496.595	-82.751	0.370	-0.119
-495.581	414.724	-0.176	-0.372
-494.566	-65.475	-0.298	0.119
-493.551	-114.265	0.108	-0.021
-492.537	-113.442	-0.084	0.016
-491.522	-123.642	0.019	-0.003
-490.508	5.465	0.060	0.044
-489.493	-200.000	0.016	0.134
-488.478	-200.000	0.037	-0.399
-487.464	800.000	-0.060	-0.196
-486.449	800.000	0.128	-0.385
-485.435	-26.814	0.208	-0.121
-484.420	660.732	-0.195	0.498
-483.405	-200.000	0.031	0.178
-482.391	-82.842	-0.325	-0.104
-481.376	-29.055	0.246	-0.140
-480.362	-119.205	-0.178	-0.031
-479.347	-146.649	0.153	0.013
-478.332	679.417	-0.110	-0.285
-477.318	-200.000	0.036	0.163
-476.303	-37.531	0.223	0.118
-475.289	339.024	0.081	-0.157
-474.274	-30.598	0.090	0.051
-473.259	42.727	-0.103	0.093
-472.245	342.215	0.173	-0.335
-471.230	-17.537	0.086	0.054
-470.216	800.000	-0.058	-0.248
-469.201	421.895	0.070	0.149
-468.186	739.682	-0.117	0.312
-467.172	800.000	-0.085	-0.303
-466.157	9.742	-0.218	0.164
-465.143	800.000	-0.075	0.290
-464.128	-21.002	-0.269	-0.164
-463.113	172.966	0.161	-0.231
-462.099	219.731	-0.276	0.439
-461.084	149.586	-0.050	0.067
-460.070	291.369	-0.136	-0.245
-459.055	-147.308	-0.278	-0.023
-458.040	-200.000	0.009	0.265
-457.026	-200.000	-0.033	-0.422
-456.011	-132.552	0.207	0.026
-454.997	584.033	0.029	0.070
-453.982	80.624	0.042	0.045
-452.968	-200.000	-0.027	0.319
-451.953	343.172	0.197	0.382
-450.938	103.931	0.186	0.217
-449.924	-92.805	0.083	0.023
-448.909	-4.824	-0.041	0.028
-447.895	354.233	-0.050	0.098
-446.880	-110.374	0.319	-0.066
-445.865	-38.089	0.093	0.049
-444.851	178.514	-0.235	0.341
-443.836	-68.800	-0.070	-0.027
-442.822	443.275	-0.109	0.236
-441.807	-43.285	-0.304	-0.153
-440.792	800.000	-0.077	0.330
-439.778	279.003	0.097	0.171
-438.763	-88.364	0.155	-0.046
-437.749	-148.160	-0.329	-0.027
-436.734	202.055	-0.152	-0.233
-435.719	-59.169	-0.170	0.073
-434.705	-200.000	-0.017	-0.161
-433.690	-200.000	0.041	0.404
-432.676	800.000	0.057	0.226
-431.661	-200.000	0.023	0.113
-430.646	48.393	-0.079	-0.073
-429.632	181.979	0.098	-0.144
-428.617	-114.684	0.195	0.037
-427.603	-25.584	0.207	-0.121
-426.588	-135.499	-0.150	-0.018
-425.573	410.120	-0.104	0.218
-424.559	90.619	0.213	0.237
-423.544	-127.270	0.141	0.020
-422.530	-66.719	-0.251	0.098
-421.515	65.995	0.089	0.090
-420.500	800.000	0.089	0.300
-419.486	800.000	0.059	-0.168
-418.471	-200.000	0.029	0.208
-417.457	800.000	0.025	-0.104
-416.442	-200.000	0.027	-0.392
-415.428	23.409	-0.130	0.106
-414.413	-73.568	-0.061	-0.022
-413.398	-66.307	-0.282	0.111
-412.384	-134.211	0.324	-0.040
-411.369	-200.000	0.133	-0.000
-410.355	-158.767	0.147	0.008
-409.340	195.926	-0.144	-0.217
-408.325	121.673	-0.164	-0.203
-407.311	-200.000	-0.013	-0.147
-406.296	-57.716	-0.041	0.018
-405.282	28.328	0.187	-0.156
-404.267	78.772	-0.222	0.236
-403.252	-167.664	0.245	-0.010
-402.238	-40.597	-0.095	-0.049
-401.223	-157.348	0.109	-0.007
-400.209	-11.809	0.069	-0.045
-399.194	227.617	-0.038	0.061
-398.179	-18.928	-0.121	-0.075
-397.165	-137.380	0.225	0.025
-396.150	-96.510	-0.321	0.084
-395.136	216.090	-0.111	-0.175
-394.121	118.867	0.237	-0.290
-393.106	-67.171	-0.215	-0.084
-392.092	127.373	0.139	0.175
-391.077	-161.121	0.212	-0.011
-390.063	-200.000	-0.007	0.142
-389.048	-61.223	0.400	-0.167
-388.033	-89.818	-0.331	0.096
-387.019	716.611	-0.142	-0.373
-386.004	-39.294	0.058	-0.030
-384.990	-27.244	0.290	0.167
-383.975	-200.000	-0.023	0.143
-382.960	-29.263	0.638	0.362
-381.946	2.132	0.104	-0.075
-380.931	105.676	-0.070	0.082
-379.917	516.010	0.099	0.229
-378.902	800.000	0.076	-0.252
-377.888	800.000	0.091	0.253
-376.873	-82.430	-0.154	0.050
-375.858	-200.000	-0.003	-0.190
-374.844	51.842	-0.051	-0.048
-373.829	18.788	-0.300	-0.238
-372.815	-192.118	0.267	0.003
-371.800	-200.000	-0.006	-0.186
-370.785	71.727	0.203	-0.209
-369.771	709.157	-0.043	0.112
-368.756	2.785	0.113	-0.081
-367.742	-83.856	0.325	-0.102
-366.727	-200.000	0.009	0.189
-365.712	72.640	0.258	0.267
-364.698	800.000	-0.061	0.167
-363.683	800.000	0.033	0.101
-362.669	-200.000	-0.013	0.058
-361.654	-74.577	-0.205	-0.073
-360.639	15.778	0.046	-0.036
-359.625	214.487	-0.142	-0.223
-358.610	242.462	-0.155	-0.257
-357.596	509.998	0.107	-0.245
-356.581	-3.040	0.109	0.075
-355.566	373.131	-0.149	-0.301
-354.552	-72.039	0.215	0.079
-353.537	82.174	-0.082	-0.088
-352.523	800.000	-0.009	-0.025
-351.508	47.612	-0.172	-0.159
-350.493	194.073	0.062	-0.093
-349.479	211.105	-0.263	-0.410
-348.464	-200.000	-0.014	-0.120
-347.450	181.882	0.146	-0.213
-346.435	216.431	-0.145	0.228
-345.420	-24.995	0.106	0.062
-344.406	-43.285	0.172	0.086
-343.391	654.255	0.052	-0.131
-342.377	36.157	0.158	0.137
-341.362	341.141	-0.085	0.164
-340.348	-62.697	-0.228	-0.093
-339.333	-95.768	0.253	-0.067
-338.318	-200.000	-0.001	-0.153
-337.304	-49.034	0.010	-0.005
-336.289	716.354	-0.067	-0.175
-335.275	-164.088	0.126	-0.006
-334.260	800.000	0.171	0.559
-333.245	-163.231	0.213	0.010
-332.231	-130.170	0.451	-0.061
-331.216	233.081	0.021	0.034
-330.202	-200.000	-0.041	0.226
-329.187	60.489	0.072	-0.071
-328.172	142.495	0.120	0.158
-327.158	425.445	-0.060	-0.127
-326.143	-200.000	-0.010	0.373
-325.129	-62.050	-0.094	0.039
-324.114	21.447	-0.139	0.112
-323.099	30.553	0.076	0.064
-322.085	87.477	-0.194	-0.212
-321.070	-157.895	0.122	-0.007
-320.056	-18.575	0.229	-0.141
-319.041	-110.373	-0.295	-0.061
-318.026	26.799	0.107	0.089
-317.012	-200.000	-0.058	-0.271
-315.997	138.486	-0.235	0.305
-314.983	-200.000	0.042	0.410
-313.968	800.000	0.096	0.295
-312.953	270.769	0.053	0.092
-311.939	-52.073	-0.089	0.041
-310.924	800.000	-0.192	0.557
-309.910	-70.447	0.384	0.144
-308.895	-38.505	-0.069	0.036
-307.880	-61.925	-0.134	-0.055
-306.866	149.590	0.105	-0.141
-305.851	-119.350	0.253	-0.043
-304.837	-114.007	-0.167	0.032
-303.822	330.808	-0.102	0.194
-302.807	127.258	0.107	-0.133
-301.793	-83.437	-0.281	-0.089
-300.778	-200.000	-0.036	0.250
-299.764	44.272	0.038	0.035
-298.749	-107.014	-0.339	0.074
-297.735	551.042	0.059	-0.139
-296.720	-175.180	-0.195	-0.005
-295.705	-93.811	-0.076	0.021
-294.691	-52.519	-0.157	0.071
-293.676	-58.872	-0.264	0.113
-292.662	162.282	-0.081	-0.112
-291.647	461.227	0.148	-0.325
-290.632	218.672	0.090	-0.142
-289.618	-62.767	0.342	0.140
-288.603	-200.000	0.025	0.147
-287.589	-13.502	-0.118	0.076
-286.574	800.000	-0.097	-0.312
-285.559	800.000	0.094	0.350
-284.545	130.097	-0.205	0.259
-283.530	-109.130	-0.201	0.042
-282.516	781.600	0.136	0.366
-281.501	344.335	0.136	0.264
-280.486	-200.000	-0.015	-0.292
-279.472	-200.000	-0.022	-0.238
-278.457	-80.115	0.020	0.007
-277.443	-200.000	0.006	-0.179
-276.428	64.475	-0.236	-0.235
-275.413	-200.000	0.007	-0.149
-274.399	-31.802	-0.145	-0.080
-273.384	-200.000	0.017	0.439
-272.370	104.480	0.242	-0.281
-271.355	-53.354	-0.115	0.052
-270.340	23.782	-0.129	-0.105
-269.326	114.644	0.212	0.255
-268.311	-200.000	0.019	0.084
-267.297	-200.000	0.045	0.251
-266.282	800.000	-0.044	0.130
-265.267	-175.034	-0.205	0.006
-264.253	113.215	-0.143	-0.171
-263.238	-132.856	0.354	0.045
-262.224	800.000	-0.043	-0.172
-261.209	554.891	-0.076	0.181
-260.195	800.000	-0.100	0.416
-259.180	-85.645	-0.104	-0.032
-258.165	110.485	0.090	-0.106
-257.151	-80.780	0.175	0.057
-256.136	637.447	0.045	0.112
-255.122	-200.000	-0.021	-0.149
-254.107	359.825	0.098	-0.192
-253.092	618.712	0.089	0.220
-252.078	-28.988	-0.263	-0.149
-251.063	64.381	-0.291	-0.289
-250.049	752.055	-0.073	0.195
-249.034	63.306	0.052	0.051
-248.019	-30.869	-0.097	-0.054
-247.005	-68.845	0.165	0.063
-245.990	800.000	-0.035	0.117
-244.976	-100.170	0.218	0.053
-243.961	800.000	0.075	0.309
-242.946	-102.671	0.388	-0.091
-241.932	-200.000	-0.216	0.001
-240.917	-3.612	-0.232	-0.159
-239.903	97.515	0.132	0.149
-238.888	-145.443	-0.204	0.018
-237.873	144.563	0.087	-0.115
-236.859	65.625	-0.094	-0.094
-235.844	-200.000	0.019	0.192
-234.830	137.223	-0.087	-0.112
-233.815	-158.500	0.378	-0.021
-232.800	-200.000	-0.001	-0.034
-231.786	89.623	0.141	-0.155
-230.771	-56.543	-0.144	0.063
-229.757	-77.382	-0.121	-0.041
-228.742	-124.298	-0.212	0.033
-227.727	167.714	0.134	0.187
-226.713	162.127	-0.090	-0.125
-225.698	-123.323	0.291	-0.046
-224.684	-200.000	0.013	0.200
-223.669	-11.319	0.072	-0.047
-222.655	579.288	0.010	-0.024
-221.640	-33.579	-0.381	-0.207
-220.625	-64.214	0.078	-0.031
-219.611	-77.194	0.253	0.087
-218.596	800.000	0.060	-0.204
-217.582	-119.389	-0.078	0.013
-216.567	-138.666	0.253	0.027
-215.552	56.144	0.350	-0.334
-214.538	-1.276	0.100	-0.069
-213.523	333.219	-0.061	0.116
-212.509	10.635	0.367	-0.275
-211.494	800.000	-0.044	0.121
-210.479	5.212	0.301	0.218
-209.465	-150.285	0.156	0.012
-208.450	20.481	-0.285	-0.227
-207.436	-61.444	0.350	-0.145
-206.421	46.117	-0.142	0.130
-205.406	-78.681	0.226	0.076
-204.392	-200.000	0.009	0.177
-203.377	-40.171	-0.050	-0.026
-202.363	-200.000	-0.018	0.100
-201.348	-69.101	-0.248	0.094
-200.333	-124.502	0.061	-0.009
-199.319	-110.098	-0.214	-0.044
-198.304	-200.000	-0.004	-0.117
-197.290	116.951	-0.102	0.123
-196.275	-50.471	0.271	-0.126
-195.260	-156.577	-0.201	-0.012
-194.246	64.271	-0.052	0.051
-193.231	194.932	0.049	-0.074
-192.217	244.419	-0.107	-0.177
-191.202	-186.114	0.030	-0.000
-190.187	86.817	-0.102	-0.110
-189.173	182.225	-0.079	0.114
-188.158	279.148	0.017	0.030
-187.144	-139.697	-0.085	0.009
-186.129	194.796	-0.006	0.009
-185.114	800.000	-0.061	0.229
-184.100	448.539	0.166	-0.360
-183.085	-200.000	0.039	0.172
-182.071	-200.000	-0.002	0.164
-181.056	-200.000	0.010	0.119
-180.042	-200.000	-0.025	-0.209
-179.027	32.623	0.192	-0.163
-178.012	-200.000	-0.008	-0.304
-176.998	-48.799	0.203	0.096
-175.983	-200.000	0.046	-0.201
-174.969	-11.487	-0.078	-0.051
-173.954	-142.060	-0.064	0.006
-172.939	119.196	0.081	0.099
-171.925	-200.000	0.039	0.171
-170.910	120.913	0.162	0.198
-169.896	-64.224	-0.276	-0.110
-168.881	800.000	-0.057	0.160
-167.866	-152.161	-0.437	-0.031
-166.852	-91.800	0.078	0.022
-165.837	108.082	-0.290	-0.340
-164.823	60.193	0.263	-0.256
-163.808	-200.000	0.007	-0.060
-162.793	-29.356	-0.207	-0.116
-161.779	7.895	0.367	-0.270
-160.764	183.690	0.153	0.221
-159.750	37.323	0.157	0.136
-158.735	-161.893	0.545	-0.027
-157.720	800.000	-0.022	0.069
-156.706	95.420	0.078	0.087
-155.691	-110.976	0.195	-0.039
-154.677	-15.614	0.212	-0.133
-153.662	248.760	-0.036	-0.059
-152.647	-49.213	0.213	0.100
-151.633	-38.156	-0.055	-0.029
-150.618	183.865	-0.094	-0.137
-149.604	19.045	0.164	0.129
-148.589	84.308	0.089	0.095
-147.574	-200.000	-0.012	-0.139
-146.560	-89.884	0.280	0.080
-145.545	-200.000	0.019	0.351
-144.531	-24.634	-0.187	0.109
-143.516	21.652	0.002	0.002
-142.502	-200.000	-0.256	0.001
-141.487	306.010	-0.119	0.217
-140.472	82.589	-0.069	-0.073
-139.458	286.808	-0.049	0.087
-138.443	800.000	0.073	0.314
-137.429	-69.289	0.045	0.017
-136.414	-200.000	0.003	-0.282
-135.399	-116.451	0.241	-0.044
-134.385	-52.485	-0.125	0.057
-133.370	273.102	-0.031	-0.054
-132.356	-48.493	-0.213	0.101
-131.341	-200.000	0.002	-0.265
-130.326	166.039	-0.020	-0.028
-129.312	49.137	0.280	-0.258
-128.297	800.000	-0.008	-0.032
-127.283	338.156	-0.242	0.462
-126.268	-85.765	0.046	0.014
-125.253	-200.000	0.151	-0.001
-124.239	15.265	0.135	-0.104
-123.224	-104.873	-0.275	-0.062
-122.210	-85.442	0.154	0.047
