DTS Sentinel unit serial number:	SN413079Multiplexer serial number:	ORYXHardware model number:	OX4-SRSoftware version number:	ORYX F/W v4.00 Oryx Data Collector v3.7.2.0data status	okinstallation	princeton_trtdifferential loss correction	single-endedforward channel	channel 3reverse channel	N/Adate	2019/09/16time	13:44:35forward acquisition time	60.00reverse acquisition time	0.00gamma	496.2192k internal	0.2294k external	0.2294temperature offset calibration	0.9941default loss term (dB/km)	0.3790temperature slope calibration	1.0000multiplexer offset coefficient	1.0000multiplexer slope coefficient	1.0000fibre end	0.00T internal ref (°C)	42.23T ext. ref 1 (°C)	13.91T ext. ref 2 (°C)	38.23length (m)	temperature (°C)	Stokes	anti-Stokes-747.200	-81.898	0.193	-0.064
-746.185	-200.000	0.048	0.229
-745.171	800.000	-0.019	0.053
-744.156	8.937	-0.049	0.038
-743.142	-143.559	-0.063	-0.006
-742.127	600.195	0.146	0.370
-741.112	-200.000	-0.022	-0.105
-740.098	48.500	-0.357	0.342
-739.083	-200.000	0.005	0.089
-738.069	450.944	-0.069	-0.156
-737.054	800.000	0.051	-0.211
-736.039	-200.000	0.000	0.076
-735.025	-145.678	0.496	0.045
-734.010	297.024	-0.152	-0.285
-732.996	-137.861	-0.421	-0.048
-731.981	-65.103	-0.235	-0.097
-730.966	-32.805	-0.065	-0.037
-729.952	-28.700	-0.203	0.119
-728.937	186.393	0.074	0.113
-727.923	98.154	-0.075	0.088
-726.908	-200.000	0.002	0.252
-725.894	-200.000	0.011	-0.226
-724.879	-200.000	-0.027	0.240
-723.864	-60.522	-0.182	-0.079
-722.850	-48.335	-0.157	-0.077
-721.835	-171.720	-0.177	-0.006
-720.821	-26.527	0.283	0.170
-719.806	-45.687	0.033	0.017
-718.791	-131.275	-0.101	0.014
-717.777	284.406	0.150	0.275
-716.762	800.000	-0.041	0.150
-715.748	48.348	-0.276	-0.264
-714.733	123.186	-0.251	-0.321
-713.718	-95.280	-0.175	-0.048
-712.704	211.414	0.080	-0.129
-711.689	800.000	-0.060	0.229
-710.675	-125.497	-0.188	-0.029
-709.660	18.593	0.187	-0.152
-708.645	81.972	0.069	0.076
-707.631	611.918	-0.059	-0.150
-706.616	-67.602	-0.137	-0.055
-705.602	-200.000	-0.001	-0.053
-704.587	79.928	-0.080	-0.088
-703.572	-88.212	0.437	-0.134
-702.558	435.672	-0.107	-0.237
-701.543	-77.195	-0.070	-0.025
-700.529	800.000	-0.075	0.216
-699.514	-62.517	0.052	0.022
-698.499	472.902	0.011	-0.026
-697.485	283.480	0.070	0.128
-696.470	145.709	-0.080	-0.110
-695.456	-182.027	0.476	0.009
-694.441	38.958	0.196	-0.179
-693.426	167.789	-0.156	-0.226
-692.412	-191.528	-0.048	0.000
-691.397	360.516	0.071	0.144
-690.383	3.831	-0.109	0.081
-689.368	199.032	-0.174	-0.272
-688.354	440.199	0.013	0.030
-687.339	-96.242	-0.066	0.018
-686.324	338.358	-0.096	0.191
-685.310	-166.977	-0.362	0.015
-684.295	-20.163	0.196	0.123
-683.281	-200.000	-0.076	-0.503
-682.266	800.000	-0.041	0.118
-681.251	32.239	0.157	-0.138
-680.237	535.929	0.087	-0.210
-679.222	366.031	-0.105	-0.217
-678.208	-133.570	-0.178	0.023
-677.193	352.339	0.156	-0.316
-676.178	226.528	-0.218	-0.360
-675.164	-91.524	-0.162	-0.047
-674.149	-200.000	-0.033	0.195
-673.135	-200.000	-0.015	0.306
-672.120	365.270	-0.132	0.270
-671.105	369.167	0.025	0.052
-670.091	-84.786	-0.285	-0.091
-669.076	-155.022	0.168	-0.011
-668.062	-136.278	-0.302	-0.036
-667.047	-154.543	0.089	-0.006
-666.032	-200.000	0.004	-0.452
-665.018	800.000	-0.076	0.218
-664.003	800.000	-0.043	-0.134
-662.989	6.983	0.102	0.078
-661.974	800.000	0.034	-0.106
-660.959	-168.298	-0.294	-0.012
-659.945	-200.000	0.000	0.077
-658.930	-74.269	0.192	0.071
-657.916	-144.722	0.193	0.018
-656.901	59.106	-0.179	-0.180
-655.886	344.118	0.115	-0.230
-654.872	414.431	-0.071	0.154
-653.857	-39.698	-0.277	-0.147
-652.843	-137.263	0.257	0.030
-651.828	-52.779	0.325	-0.153
-650.814	174.821	-0.095	0.140
-649.799	52.369	-0.077	-0.075
-648.784	105.445	0.091	-0.110
-647.770	-66.442	-0.095	0.038
-646.755	96.026	-0.180	-0.210
-645.741	-25.478	-0.117	-0.071
-644.726	-200.000	0.004	-0.061
-643.711	13.591	-0.209	0.165
-642.697	800.000	-0.057	-0.222
-641.682	92.642	0.231	-0.265
-640.668	498.178	-0.094	-0.221
-639.653	-92.911	-0.090	-0.026
-638.638	-200.000	0.003	-0.155
-637.624	-117.246	-0.184	0.034
-636.609	791.353	-0.075	-0.210
-635.595	239.722	0.180	-0.306
-634.580	-13.769	-0.203	-0.134
-633.565	108.258	-0.103	-0.125
-632.551	-200.000	-0.014	0.102
-631.536	-83.999	-0.037	0.012
-630.522	-112.438	-0.114	0.023
-629.507	-72.336	0.390	-0.147
-628.492	800.000	0.072	0.230
-627.478	-12.419	0.146	0.097
-626.463	205.003	-0.066	0.105
-625.449	-200.000	0.017	0.087
-624.434	-63.634	0.202	-0.084
-623.419	63.552	0.047	-0.048
-622.405	-200.000	-0.025	-0.153
-621.390	187.713	-0.133	-0.201
-620.376	-31.473	0.023	-0.013
-619.361	786.679	0.176	0.492
-618.346	-129.919	-0.424	0.059
-617.332	15.667	-0.266	-0.213
-616.317	-200.000	0.071	-0.361
-615.303	-33.932	-0.154	-0.086
-614.288	-181.890	0.252	0.005
-613.273	-110.616	0.140	0.030
-612.259	388.944	0.113	0.239
-611.244	46.858	0.187	0.176
-610.230	-142.799	0.217	0.021
-609.215	-57.107	0.040	0.018
-608.201	-200.000	0.004	0.148
-607.186	384.557	0.030	0.064
-606.171	-200.000	0.008	-0.071
-605.157	142.823	-0.112	0.152
-604.142	73.429	-0.157	0.167
-603.128	67.045	-0.216	0.224
-602.113	63.101	-0.044	-0.045
-601.098	-157.780	0.061	-0.004
-600.084	-200.000	-0.005	0.107
-599.069	-200.000	0.011	-0.077
-598.055	-116.885	-0.181	0.034
-597.040	484.249	-0.133	-0.308
-596.025	-33.118	-0.159	0.090
-595.011	-153.636	-0.329	-0.023
-593.996	-93.597	0.064	0.018
-592.982	-200.000	-0.019	0.228
-591.967	800.000	0.096	0.315
-590.952	-11.124	-0.235	-0.157
-589.938	47.959	-0.308	-0.293
-588.923	280.088	0.276	-0.502
-587.909	6.634	0.288	0.218
-586.894	-50.845	-0.196	0.094
-585.879	62.990	-0.038	0.039
-584.865	203.363	-0.121	-0.191
-583.850	-22.721	-0.149	-0.091
-582.836	-45.870	-0.192	0.096
-581.821	135.602	0.098	0.130
-580.806	-101.503	-0.153	-0.038
-579.792	-200.000	-0.028	0.231
-578.777	101.298	0.076	0.090
-577.763	-191.956	-0.180	0.002
-576.748	-200.000	0.003	0.277
-575.733	266.829	0.217	-0.386
-574.719	24.659	0.354	-0.298
-573.704	800.000	0.074	0.234
-572.690	-136.965	0.053	0.006
-571.675	66.227	-0.172	-0.178
-570.661	800.000	-0.010	-0.037
-569.646	33.548	-0.047	-0.042
-568.631	-89.795	0.115	-0.034
-567.617	18.769	0.162	0.131
-566.602	-72.026	0.219	0.082
-565.588	-200.000	0.039	-0.176
-564.573	124.953	0.109	-0.140
-563.558	-110.571	0.236	-0.050
-562.544	-113.246	0.200	-0.040
-561.529	7.323	0.261	-0.198
-560.515	-65.083	-0.098	-0.040
-559.500	-200.000	0.032	0.158
-558.485	136.231	-0.071	-0.094
-557.471	-30.798	-0.254	0.146
-556.456	-200.000	0.023	0.144
-555.442	22.331	-0.192	0.159
-554.427	301.470	0.142	0.267
-553.412	-5.269	0.353	-0.247
-552.398	-41.993	0.388	-0.201
-551.383	-44.191	0.262	-0.133
-550.369	-55.407	-0.265	0.121
-549.354	-77.772	0.196	0.069
-548.339	316.759	-0.086	-0.164
-547.325	173.645	0.129	0.189
-546.310	226.725	-0.228	0.376
-545.296	800.000	0.029	0.103
-544.281	59.794	-0.100	0.100
-543.266	-200.000	-0.017	0.245
-542.252	800.000	-0.053	0.203
-541.237	-40.638	-0.345	-0.182
-540.223	266.176	-0.094	-0.166
-539.208	800.000	0.109	-0.468
-538.193	-200.000	-0.024	-0.194
-537.179	-96.300	0.266	0.071
-536.164	56.650	0.052	0.052
-535.150	192.713	-0.187	-0.287
-534.135	62.817	-0.165	-0.168
-533.121	-131.365	0.212	-0.028
-532.106	136.624	-0.193	-0.256
-531.091	90.331	-0.192	-0.218
-530.077	-2.449	0.087	0.062
-529.062	-123.075	0.115	0.019
-528.048	-105.210	-0.105	-0.024
-527.033	-118.038	-0.055	0.010
-526.018	800.000	0.137	-0.421
-525.004	-95.848	0.159	0.043
-523.989	268.104	0.030	-0.053
-522.975	-140.612	-0.073	0.008
-521.960	-29.811	0.203	0.117
-520.945	429.820	-0.137	-0.300
-519.931	-118.588	-0.188	-0.034
-518.916	-200.000	-0.001	-0.283
-517.902	-87.432	-0.147	-0.045
-516.887	-95.328	-0.308	0.084
-515.872	-200.000	-0.015	-0.088
-514.858	-200.000	0.005	0.237
-513.843	-147.499	-0.212	0.018
-512.829	-46.829	0.357	-0.177
-511.814	42.966	-0.245	-0.227
-510.799	120.535	-0.201	0.253
-509.785	800.000	-0.006	-0.019
-508.770	800.000	0.052	-0.170
-507.756	-133.385	0.080	-0.010
-506.741	129.383	-0.088	0.114
-505.726	-99.688	0.186	0.047
-504.712	-200.000	-0.051	0.274
-503.697	-41.390	0.334	0.174
-502.683	-74.496	-0.096	-0.035
-501.668	-48.051	-0.219	0.107
-500.653	276.584	-0.178	0.321
-499.639	-142.610	0.034	-0.003
-498.624	-200.000	0.067	0.302
-497.610	-57.930	0.245	0.108
-496.595	-37.731	-0.052	-0.028
-495.581	-200.000	-0.032	-0.341
-494.566	781.530	0.083	-0.230
-493.551	-27.035	0.124	-0.073
-492.537	272.211	0.070	0.125
-491.522	-200.000	0.009	0.079
-490.508	255.851	-0.196	-0.340
-489.493	-138.085	0.083	-0.009
-488.478	-59.587	0.133	0.058
-487.464	-117.555	0.147	0.027
-486.449	-200.000	-0.019	-0.143
-485.435	800.000	-0.056	0.229
-484.420	800.000	0.094	-0.373
-483.405	341.859	-0.077	-0.153
-482.391	800.000	0.076	0.281
-481.376	-60.545	0.415	-0.178
-480.362	90.207	-0.220	0.249
-479.347	21.409	0.183	0.150
-478.332	-100.813	-0.064	0.016
-477.318	800.000	0.094	0.399
-476.303	-151.324	-0.110	0.008
-475.289	-94.889	-0.298	-0.082
-474.274	800.000	-0.034	-0.146
-473.259	-200.000	-0.042	-0.191
-472.245	-124.328	0.121	-0.019
-471.230	399.930	-0.071	0.150
-470.216	453.111	0.056	-0.126
-469.201	-27.733	0.111	-0.065
-468.186	-108.286	0.288	0.063
-467.172	122.636	0.156	0.197
-466.157	-15.524	0.203	0.131
-465.143	8.671	-0.036	0.027
-464.128	-17.869	-0.121	-0.077
-463.113	26.213	-0.132	0.111
-462.099	385.596	-0.026	-0.054
-461.084	800.000	0.049	-0.182
-460.070	800.000	0.122	0.420
-459.055	127.398	-0.224	0.287
-458.040	-18.027	0.252	0.159
-457.026	-192.113	0.066	0.001
-456.011	-200.000	-0.016	0.153
-454.997	218.916	-0.053	0.086
-453.982	-198.885	0.266	0.001
-452.968	-108.127	0.144	0.032
-451.953	17.541	0.150	0.121
-450.938	-200.000	-0.019	0.170
-449.924	-200.000	-0.049	-0.314
-448.909	10.018	0.142	0.109
-447.895	-125.329	0.240	0.037
-446.880	-200.000	-0.015	-0.200
-445.865	-200.000	-0.017	0.239
-444.851	-147.247	0.227	-0.020
-443.836	-42.915	-0.391	0.201
-442.822	69.769	0.211	0.219
-441.807	-12.602	-0.210	0.138
-440.792	-127.917	-0.358	0.052
-439.778	114.541	-0.091	0.113
-438.763	-116.886	0.093	0.017
-437.749	647.379	0.128	0.331
-436.734	301.057	0.058	0.108
-435.719	485.046	-0.076	0.176
-434.705	498.706	-0.028	-0.066
-433.690	374.470	-0.042	0.086
-432.676	73.188	0.304	-0.321
-431.661	-58.132	0.334	0.147
-430.646	-102.042	0.348	0.085
-429.632	395.350	0.026	0.055
-428.617	800.000	-0.027	0.075
-427.603	-157.657	0.224	-0.013
-426.588	-5.914	0.328	0.226
-425.573	124.847	0.229	0.291
-424.559	-200.000	0.026	0.204
-423.544	-104.788	0.176	-0.041
-422.530	-63.352	0.174	0.072
-421.515	-12.001	-0.158	-0.105
-420.500	214.623	0.186	0.297
-419.486	-80.669	0.067	-0.022
-418.471	285.620	0.126	-0.230
-417.457	395.308	0.025	-0.053
-416.442	262.485	0.052	0.090
-415.428	800.000	0.081	-0.288
-414.413	60.846	-0.175	-0.175
-413.398	118.199	-0.115	0.144
-412.384	800.000	-0.040	0.130
-411.369	-58.949	0.149	-0.065
-410.355	55.915	-0.169	0.166
-409.340	-200.000	0.008	0.048
-408.325	98.637	-0.093	-0.108
-407.311	-86.063	0.136	-0.042
-406.296	414.349	0.036	0.076
-405.282	-101.782	-0.114	-0.028
-404.267	51.886	0.080	-0.077
-403.252	-78.229	-0.053	0.019
-402.238	261.192	-0.126	-0.221
-401.223	66.207	0.099	-0.102
-400.209	-65.285	-0.285	-0.116
-399.194	9.551	0.327	-0.250
-398.179	-200.000	0.040	-0.217
-397.165	4.173	-0.141	0.104
-396.150	54.528	-0.211	-0.206
-395.136	-20.464	0.074	-0.046
-394.121	-37.165	0.165	0.089
-393.106	-148.144	0.279	-0.023
-392.092	-156.920	-0.425	0.026
-391.077	348.334	-0.145	-0.289
-390.063	-61.900	0.059	-0.025
-389.048	59.715	0.113	0.112
-388.033	1.396	0.075	0.054
-387.019	487.848	-0.090	0.208
-386.004	800.000	-0.025	0.076
-384.990	6.480	0.077	-0.058
-383.975	800.000	0.059	0.246
-382.960	461.727	0.045	-0.100
-381.946	-200.000	-0.056	0.286
-380.931	-200.000	-0.038	-0.243
-379.917	-96.901	0.483	0.128
-378.902	56.747	-0.180	-0.177
-377.888	34.253	-0.158	-0.139
-376.873	-1.524	0.243	-0.173
-375.858	800.000	0.054	0.194
-374.844	464.143	-0.094	-0.211
-373.829	-43.770	0.141	-0.071
-372.815	127.106	-0.107	0.137
-371.800	-200.000	0.001	-0.077
-370.785	-200.000	0.015	0.196
-369.771	44.652	0.151	0.140
-368.756	125.826	-0.240	0.306
-367.742	-16.593	-0.107	0.068
-366.727	-200.000	0.003	-0.032
-365.712	-84.977	0.282	-0.089
-364.698	-70.322	0.162	0.062
-363.683	-107.694	-0.402	-0.088
-362.669	15.302	0.155	0.122
-361.654	800.000	0.043	0.156
-360.639	44.067	0.125	-0.116
-359.625	0.803	-0.213	-0.153
-358.610	520.095	0.033	0.078
-357.596	-101.697	0.120	0.029
-356.581	73.006	-0.225	-0.236
-355.566	-120.750	0.173	0.029
-354.552	-64.216	0.067	0.027
-353.537	-200.000	-0.046	0.348
-352.523	185.250	0.039	-0.058
-351.508	-89.218	-0.157	-0.047
-350.493	-33.162	0.177	-0.099
-349.479	-46.857	0.181	-0.089
-348.464	96.796	-0.261	-0.301
-347.450	-156.946	-0.406	-0.025
-346.435	-30.690	-0.131	-0.075
-345.420	-132.054	0.132	-0.017
-344.406	-3.594	-0.212	-0.149
-343.391	-39.664	-0.325	-0.171
-342.377	-200.000	-0.031	0.179
-341.362	800.000	0.058	0.224
-340.348	-150.291	0.275	-0.021
-339.333	-7.704	-0.272	-0.185
-338.318	-166.407	-0.070	-0.003
-337.304	-68.332	-0.116	0.045
-336.289	149.260	0.117	-0.160
-335.275	15.316	-0.329	-0.260
-334.260	335.335	-0.048	-0.093
-333.245	-120.596	0.167	0.029
-332.231	-200.000	0.049	0.252
-331.216	141.587	-0.158	0.210
-330.202	265.818	-0.181	0.318
-329.187	-5.625	0.035	-0.024
-328.172	-184.132	-0.186	-0.003
-327.158	152.279	0.100	0.137
-326.143	-200.000	-0.021	-0.158
-325.129	800.000	-0.049	0.172
-324.114	-67.962	0.275	0.108
-323.099	-40.342	-0.300	-0.157
-322.085	21.795	-0.118	-0.097
-321.070	800.000	0.093	-0.265
-320.056	216.867	-0.104	0.166
-319.041	669.332	-0.029	0.076
-318.026	800.000	-0.149	0.458
-317.012	-64.100	0.281	0.115
-315.997	-95.732	0.232	-0.062
-314.983	-200.000	-0.006	-0.218
-313.968	-200.000	0.018	-0.232
-312.953	-100.588	0.285	-0.071
-311.939	318.274	0.016	-0.030
-310.924	370.267	0.048	-0.097
-309.910	-123.430	0.112	-0.018
-308.895	-200.000	0.005	-0.186
-307.880	800.000	0.044	-0.184
-306.866	-8.610	-0.074	0.050
-305.851	-200.000	0.023	0.154
-304.837	800.000	-0.031	-0.115
-303.822	800.000	0.020	0.084
-302.807	-200.000	-0.001	0.112
-301.793	-200.000	-0.060	0.467
-300.778	-15.276	-0.113	0.073
-299.764	42.345	0.166	0.152
-298.749	511.619	-0.131	0.307
-297.735	48.958	0.041	0.039
-296.720	-132.793	0.187	-0.024
-295.705	-165.679	-0.085	-0.004
-294.691	76.340	-0.032	0.035
-293.676	-100.683	-0.143	-0.035
-292.662	632.575	-0.067	-0.172
-291.647	800.000	-0.036	0.118
-290.632	800.000	-0.007	0.027
-289.618	-123.304	0.322	-0.052
-288.603	-25.576	-0.061	0.036
-287.589	-200.000	-0.045	-0.420
-286.574	-90.533	-0.153	-0.045
-285.559	-69.773	-0.091	0.035
-284.545	331.580	0.029	0.057
-283.530	-57.083	0.186	-0.082
-282.516	61.852	-0.131	-0.131
-281.501	-200.000	-0.016	-0.201
-280.486	-59.719	-0.250	0.107
-279.472	-50.918	-0.309	0.146
-278.457	16.862	0.202	-0.161
-277.443	-200.000	-0.028	0.162
-276.428	3.866	0.292	-0.214
-275.413	-45.484	-0.162	-0.081
-274.399	73.125	-0.228	-0.240
-273.384	82.506	0.187	-0.204
-272.370	-47.663	-0.251	0.122
-271.355	-200.000	-0.006	0.171
-270.340	220.353	0.209	-0.336
-269.326	71.372	0.147	-0.153
-268.311	334.493	0.113	-0.220
-267.297	-200.000	-0.036	0.279
-266.282	295.035	-0.172	0.316
-265.267	118.910	-0.071	0.088
-264.253	-200.000	0.000	-0.221
-263.238	800.000	-0.148	0.611
-262.224	-128.548	-0.318	0.045
-261.209	46.805	0.054	-0.050
-260.195	-175.315	0.375	-0.010
-259.180	-200.000	0.033	-0.191
-258.165	299.826	0.023	0.042
-257.151	91.367	-0.133	0.149
-256.136	-200.000	-0.039	0.258
-255.122	-59.657	-0.322	0.139
-254.107	800.000	0.039	0.119
-253.092	-71.410	-0.082	-0.031
-252.078	50.302	-0.203	-0.193
-251.063	155.005	-0.167	0.230
-250.049	-200.000	0.019	-0.171
-249.034	195.559	-0.239	0.364
-248.019	-78.176	0.224	-0.077
-247.005	-78.158	-0.407	-0.141
-245.990	800.000	-0.119	0.336
-244.976	-200.000	0.039	0.297
-243.961	-200.000	-0.023	-0.205
-242.946	-43.135	0.031	0.016
-241.932	-155.797	-0.252	-0.016
-240.917	800.000	-0.147	0.463
-239.903	-122.531	0.225	0.037
-238.888	276.235	0.051	0.090
-237.873	-200.000	0.032	-0.359
-236.859	800.000	0.052	0.222
-235.844	-200.000	0.014	0.134
-234.830	311.142	-0.133	-0.250
-233.815	-126.315	-0.242	-0.036
-232.800	-96.489	0.081	0.021
-231.786	-148.364	-0.182	0.015
-230.771	800.000	-0.023	-0.094
-229.757	-200.000	0.048	-0.268
-228.742	199.855	-0.195	-0.301
-227.727	-200.000	-0.016	0.155
-226.713	-15.131	-0.174	0.112
-225.698	561.583	-0.064	0.155
-224.684	471.657	-0.084	0.189
-223.669	-170.075	0.273	-0.010
-222.655	800.000	-0.044	0.154
-221.640	-200.000	0.008	-0.059
-220.625	235.876	-0.077	0.127
-219.611	-33.064	0.207	-0.115
-218.596	264.082	-0.144	-0.250
-217.582	-5.146	-0.061	0.042
-216.567	411.654	0.100	0.213
-215.552	-110.957	-0.022	0.004
-214.538	-200.000	-0.021	-0.151
-213.523	-71.878	-0.146	0.054
-212.509	800.000	0.056	-0.225
-211.494	-64.718	0.110	0.045
-210.479	224.587	0.029	0.047
-209.465	-135.541	0.320	0.038
-208.450	-200.000	0.008	-0.117
-207.436	-200.000	-0.042	0.222
-206.421	-200.000	-0.009	0.052
-205.406	-200.000	0.015	-0.127
-204.392	800.000	-0.076	-0.238
-203.377	337.571	-0.028	0.055
-202.363	-90.365	-0.350	-0.102
-201.348	-200.000	-0.002	0.331
-200.333	800.000	-0.107	0.307
-199.319	474.134	0.123	0.277
-198.304	-200.000	0.001	0.140
-197.290	-128.330	0.215	-0.031
-196.275	182.112	-0.045	-0.066
-195.260	-94.754	0.138	-0.038
-194.246	50.049	-0.017	0.016
-193.231	509.578	-0.060	0.140
-192.217	242.005	-0.070	-0.118
-191.202	-110.782	-0.085	-0.017
-190.187	-200.000	0.037	0.188
-189.173	-195.826	-0.159	-0.001
-188.158	476.889	-0.110	-0.248
-187.144	-48.785	0.076	-0.037
-186.129	132.911	0.213	-0.275
-185.114	-60.905	0.211	-0.089
-184.100	164.116	-0.213	-0.300
-183.085	-2.421	-0.207	-0.145
-182.071	-86.086	0.222	0.068
-181.056	67.895	-0.264	0.270
-180.042	-17.924	-0.159	-0.100
-179.027	138.635	-0.117	0.154
-178.012	238.128	0.064	-0.106
-176.998	-56.498	0.064	-0.028
-175.983	26.054	0.222	-0.185
-174.969	99.943	0.225	-0.261
-173.954	127.529	0.218	-0.276
-172.939	163.960	0.061	-0.085
-171.925	800.000	-0.011	0.032
-170.910	-200.000	0.046	0.229
-169.896	131.699	-0.101	-0.130
-168.881	22.017	0.095	0.078
-167.866	-200.000	-0.006	-0.313
-166.852	-200.000	0.010	-0.131
-165.837	307.587	0.108	-0.202
-164.823	159.014	-0.108	-0.149
-163.808	42.822	-0.047	0.043
-162.793	146.878	0.086	0.115
-161.779	800.000	-0.089	-0.317
-160.764	-59.646	-0.171	0.073
-159.750	-21.129	-0.250	0.153
-158.735	105.601	0.111	0.132
-157.720	278.653	0.116	-0.207
-156.706	10.857	-0.135	0.103
-155.691	479.699	0.094	-0.212
-154.677	-79.829	-0.201	0.068
-153.662	-159.798	0.526	0.029
-152.647	131.330	0.184	-0.237
-151.633	-200.000	0.043	0.263
-150.618	-200.000	-0.046	0.433
-149.604	-200.000	0.052	0.350
-148.589	571.455	0.039	-0.096
-147.574	568.713	-0.057	0.138
-146.560	-51.148	-0.229	-0.107
-145.545	314.197	-0.156	0.294
-144.531	90.161	0.152	0.169
-143.516	-162.422	0.179	0.009
-142.502	-123.316	-0.444	-0.071
-141.487	52.679	0.366	-0.349
-140.472	580.491	0.084	-0.205
-139.458	102.638	0.121	-0.141
-138.443	-200.000	0.021	0.165
-137.429	-70.355	-0.244	-0.093
-136.414	-85.605	0.090	-0.028
-135.399	-162.152	-0.258	-0.013
-134.385	-200.000	-0.004	-0.167
-133.370	800.000	-0.132	-0.449
-132.356	-200.000	0.006	-0.087
-131.341	749.772	-0.127	0.342
-130.326	-186.592	0.338	0.005
-129.312	-200.000	0.008	-0.286
-128.297	-200.000	0.035	-0.257
-127.283	-200.000	-0.025	0.165
-126.268	-200.000	0.022	0.260
-125.253	-200.000	-0.047	-0.432
-124.239	-200.000	0.075	0.399
-123.224	139.343	-0.061	-0.080
-122.210	-67.983	0.104	0.041
