DTS Sentinel unit serial number:	SN413079Multiplexer serial number:	ORYXHardware model number:	OX4-SRSoftware version number:	ORYX F/W v4.00 Oryx Data Collector v3.7.2.0data status	okinstallation	princeton_trtdifferential loss correction	single-endedforward channel	channel 3reverse channel	N/Adate	2019/09/16time	21:00:35forward acquisition time	60.00reverse acquisition time	0.00gamma	496.2192k internal	0.2324k external	0.2324temperature offset calibration	0.9939default loss term (dB/km)	0.3790temperature slope calibration	1.0000multiplexer offset coefficient	1.0000multiplexer slope coefficient	1.0000fibre end	0.00T internal ref (°C)	32.02T ext. ref 1 (°C)	0.06T ext. ref 2 (°C)	25.41length (m)	temperature (°C)	Stokes	anti-Stokes-747.200	-16.120	0.268	0.172
-746.185	800.000	-0.087	0.308
-745.171	128.975	-0.160	0.206
-744.156	800.000	-0.077	0.239
-743.142	-200.000	0.018	0.250
-742.127	31.067	-0.115	0.099
-741.112	-27.027	0.197	-0.116
-740.098	110.191	0.082	-0.100
-739.083	55.746	0.247	-0.242
-738.069	510.773	-0.156	0.367
-737.054	154.314	0.063	-0.087
-736.039	37.884	-0.136	0.122
-735.025	-88.617	0.254	0.076
-734.010	406.364	-0.138	-0.294
-732.996	800.000	-0.122	0.437
-731.981	-200.000	0.014	0.390
-730.966	579.450	0.060	0.149
-729.952	28.418	-0.066	0.057
-728.937	-16.203	-0.247	0.158
-727.923	-150.605	0.242	-0.019
-726.908	-109.178	0.358	0.077
-725.894	-64.870	-0.296	0.121
-724.879	-200.000	-0.002	-0.044
-723.864	386.795	-0.058	0.122
-722.850	-38.669	-0.050	-0.027
-721.835	-133.512	0.100	-0.013
-720.821	264.741	-0.170	-0.299
-719.806	-200.000	-0.018	0.139
-718.791	400.625	-0.128	-0.270
-717.777	3.415	0.139	0.102
-716.762	-46.864	-0.331	-0.163
-715.748	338.284	-0.220	-0.432
-714.733	800.000	0.062	0.175
-713.718	-131.529	-0.350	0.046
-712.704	800.000	-0.075	0.246
-711.689	800.000	-0.081	-0.336
-710.675	367.626	0.165	-0.335
-709.660	-77.853	0.275	-0.096
-708.645	320.018	0.112	0.215
-707.631	-200.000	0.024	0.427
-706.616	-77.203	0.096	-0.034
-705.602	-200.000	0.039	-0.281
-704.587	-112.962	0.241	-0.048
-703.572	-116.737	0.239	-0.044
-702.558	85.975	0.259	-0.288
-701.543	-200.000	-0.039	-0.262
-700.529	-200.000	0.019	0.305
-699.514	4.921	0.101	0.075
-698.499	172.183	-0.106	-0.154
-697.485	72.274	-0.051	0.054
-696.470	-200.000	-0.003	0.105
-695.456	41.206	0.140	0.128
-694.441	117.930	-0.160	0.199
-693.426	-109.954	0.270	-0.057
-692.412	102.921	0.063	0.075
-691.397	-200.000	-0.017	0.234
-690.383	191.261	-0.035	-0.053
-689.368	-68.745	0.185	0.072
-688.354	-200.000	0.002	0.097
-687.339	-200.000	-0.031	0.376
-686.324	-200.000	0.004	0.056
-685.310	336.483	0.107	0.209
-684.295	-98.573	0.459	0.118
-683.281	66.374	-0.156	-0.160
-682.266	-140.137	-0.126	0.013
-681.251	-200.000	-0.006	0.113
-680.237	8.954	0.425	-0.323
-679.222	-24.688	-0.136	-0.081
-678.208	42.995	-0.331	0.304
-677.193	-200.000	0.009	-0.096
-676.178	-188.919	-0.023	-0.000
-675.164	-73.460	0.104	-0.038
-674.149	-168.805	0.227	0.009
-673.135	-88.355	0.080	0.024
-672.120	-132.715	0.296	-0.038
-671.105	-114.279	0.180	0.035
-670.091	800.000	0.070	0.195
-669.076	-79.847	-0.168	-0.057
-668.062	-126.482	0.207	0.031
-667.047	-200.000	0.052	-0.235
-666.032	3.993	-0.209	0.154
-665.018	639.744	-0.040	0.103
-664.003	800.000	-0.025	0.107
-662.989	-200.000	0.036	-0.360
-661.974	-18.610	-0.174	-0.109
-660.959	-200.000	-0.019	0.223
-659.945	-31.628	0.239	-0.135
-658.930	-54.173	-0.122	0.056
-657.916	-113.110	0.208	0.041
-656.901	-149.574	0.147	-0.012
-655.886	-79.639	-0.058	-0.020
-654.872	-200.000	0.030	-0.205
-653.857	-70.674	0.045	-0.017
-652.843	-99.152	0.247	0.063
-651.828	-78.988	0.120	-0.041
-650.814	-125.214	-0.076	0.012
-649.799	25.144	0.150	-0.125
-648.784	65.184	-0.102	-0.104
-647.770	-200.000	-0.009	-0.055
-646.755	-200.000	-0.033	-0.154
-645.741	-28.568	0.213	0.123
-644.726	-148.224	-0.312	-0.026
-643.711	254.678	-0.124	0.213
-642.697	-162.445	0.067	-0.003
-641.682	-200.000	-0.021	-0.095
-640.668	544.519	-0.124	-0.298
-639.653	185.850	0.034	0.051
-638.638	-117.765	0.110	-0.020
-637.624	800.000	0.039	-0.152
-636.609	-63.037	-0.236	0.098
-635.595	-200.000	-0.011	-0.083
-634.580	-3.338	-0.111	0.077
-633.565	-157.457	0.054	-0.003
-632.551	97.746	0.238	-0.275
-631.536	800.000	0.052	0.221
-630.522	-200.000	-0.007	-0.075
-629.507	-200.000	-0.007	-0.102
-628.492	27.921	0.206	0.175
-627.478	-46.542	-0.218	-0.108
-626.463	-20.077	-0.248	0.153
-625.449	-20.993	0.382	0.235
-624.434	232.179	0.151	0.249
-623.419	-122.661	0.057	-0.009
-622.405	-153.810	-0.285	0.020
-621.390	-34.071	-0.122	0.068
-620.376	-31.298	-0.160	-0.091
-619.361	-115.893	0.097	0.018
-618.346	34.750	0.128	-0.113
-617.332	-34.130	-0.380	0.210
-616.317	-151.534	-0.226	0.017
-615.303	800.000	0.055	0.178
-614.288	-37.074	0.181	-0.097
-613.273	65.854	0.113	0.115
-612.259	98.361	-0.078	0.091
-611.244	800.000	0.061	0.245
-610.230	21.250	-0.048	0.039
-609.215	-200.000	0.024	-0.114
-608.201	57.492	0.079	-0.078
-607.186	-22.960	-0.245	0.148
-606.171	-200.000	-0.021	-0.432
-605.157	27.163	-0.088	0.074
-604.142	-200.000	-0.050	0.287
-603.128	206.208	-0.073	-0.115
-602.113	-114.687	-0.272	0.052
-601.098	-13.213	-0.238	-0.155
-600.084	20.735	0.162	-0.131
-599.069	70.093	-0.096	0.100
-598.055	-116.222	-0.056	-0.010
-597.040	-148.661	-0.165	-0.013
-596.025	-20.217	-0.229	-0.142
-595.011	-19.571	0.485	-0.302
-593.996	-42.116	-0.245	-0.126
-592.982	-113.044	-0.202	0.040
-591.967	59.339	-0.279	-0.276
-590.952	-200.000	0.067	-0.409
-589.938	-142.719	0.240	-0.024
-588.923	-12.129	-0.387	-0.254
-587.909	-67.130	0.242	-0.096
-586.894	-200.000	-0.001	0.016
-585.879	-33.814	-0.137	0.076
-584.865	-76.809	0.229	-0.081
-583.850	-87.913	-0.185	-0.056
-582.836	-0.945	0.131	-0.093
-581.821	-1.022	0.351	-0.249
-580.806	-72.285	-0.224	0.083
-579.792	-132.594	-0.097	-0.013
-578.777	130.611	-0.189	-0.244
-577.763	-154.266	-0.387	-0.026
-576.748	74.130	0.191	0.201
-575.733	-88.860	0.115	0.034
-574.719	-120.098	-0.297	-0.051
-573.704	217.801	0.148	0.237
-572.690	133.336	0.102	0.132
-571.675	-38.443	0.293	0.155
-570.661	-200.000	-0.008	-0.267
-569.646	-200.000	0.036	-0.175
-568.631	-151.664	-0.253	-0.019
-567.617	59.813	-0.181	-0.179
-566.602	-133.992	-0.378	-0.047
-565.588	59.725	0.088	0.087
-564.573	345.289	0.103	-0.203
-563.558	-200.000	0.010	0.045
-562.544	-106.571	-0.218	-0.049
-561.529	-76.235	-0.405	0.143
-560.515	-96.857	0.099	0.026
-559.500	-76.036	0.202	0.072
-558.485	298.598	-0.051	0.093
-557.471	276.948	-0.019	0.034
-556.456	-12.432	-0.172	0.113
-555.442	-200.000	-0.032	-0.306
-554.427	-146.886	-0.199	-0.017
-553.412	800.000	0.040	0.118
-552.398	-67.022	0.064	0.025
-551.383	-163.044	-0.134	-0.006
-550.369	6.801	0.172	-0.128
-549.354	-1.237	-0.153	0.108
-548.339	-4.337	0.120	-0.083
-547.325	-128.713	0.164	-0.023
-546.310	91.292	0.158	-0.177
-545.296	524.252	0.046	0.108
-544.281	-174.279	0.215	0.006
-543.266	129.215	-0.101	0.129
-542.252	528.907	0.111	-0.263
-541.237	-155.099	-0.139	0.009
-540.223	-200.000	0.001	-0.105
-539.208	-68.979	-0.097	-0.037
-538.193	32.717	-0.127	-0.110
-537.179	526.710	0.123	0.290
-536.164	508.666	-0.112	-0.260
-535.150	259.515	0.063	-0.109
-534.135	55.671	0.228	0.221
-533.121	271.614	-0.047	-0.083
-532.106	-200.000	0.011	-0.338
-531.091	-200.000	-0.003	-0.207
-530.077	110.637	-0.133	-0.160
-529.062	-23.041	-0.173	-0.104
-528.048	800.000	-0.086	0.282
-527.033	150.665	-0.057	-0.078
-526.018	-200.000	-0.032	-0.156
-525.004	800.000	0.090	-0.255
-523.989	-14.109	0.015	0.010
-522.975	-3.131	0.370	0.258
-521.960	60.449	0.102	-0.101
-520.945	-200.000	-0.069	0.369
-519.931	221.590	0.190	0.306
-518.916	113.821	0.077	-0.094
-517.902	-200.000	-0.020	-0.167
-516.887	66.888	0.154	0.157
-515.872	-101.037	-0.207	-0.051
-514.858	800.000	-0.060	0.208
-513.843	-27.946	-0.218	-0.126
-512.829	-44.460	0.131	0.066
-511.814	-43.227	0.104	0.053
-510.799	-200.000	0.014	-0.393
-509.785	-35.862	0.132	0.072
-508.770	177.152	-0.325	0.473
-507.756	800.000	0.061	-0.247
-506.741	-102.513	-0.150	0.036
-505.726	-14.346	0.180	-0.116
-504.712	-200.000	0.047	-0.212
-503.697	-200.000	0.089	-0.438
-502.683	158.020	-0.247	-0.343
-501.668	-45.720	0.138	-0.068
-500.653	82.659	-0.138	0.150
-499.639	-98.431	-0.198	0.051
-498.624	-200.000	-0.005	0.138
-497.610	-124.052	-0.116	0.018
-496.595	-151.933	0.115	-0.008
-495.581	128.775	0.123	-0.157
-494.566	-27.049	-0.231	0.134
-493.551	800.000	-0.068	-0.211
-492.537	-110.406	-0.365	0.076
-491.522	-131.595	0.252	0.033
-490.508	89.919	0.060	-0.067
-489.493	155.595	0.037	-0.051
-488.478	-90.572	-0.187	-0.054
-487.464	63.958	-0.098	-0.098
-486.449	-200.000	-0.031	0.194
-485.435	152.836	0.078	-0.107
-484.420	-184.145	0.254	0.004
-483.405	-108.032	-0.023	0.005
-482.391	65.793	0.232	-0.235
-481.376	32.773	-0.221	-0.191
-480.362	-160.289	0.367	0.020
-479.347	93.902	0.138	0.157
-478.332	416.566	0.172	0.366
-477.318	138.560	0.217	0.284
-476.303	-55.349	0.203	0.091
-475.289	800.000	-0.082	0.333
-474.274	-47.548	-0.080	-0.039
-473.259	-63.512	-0.244	0.100
-472.245	-61.229	0.338	-0.142
-471.230	-118.113	-0.179	0.032
-470.216	84.596	-0.193	0.211
-469.201	37.984	-0.217	-0.193
-468.186	-194.595	-0.345	0.003
-467.172	142.514	0.039	0.052
-466.157	216.883	0.214	0.339
-465.143	-147.319	-0.252	0.021
-464.128	-96.149	0.174	0.046
-463.113	218.035	-0.107	-0.170
-462.099	-18.581	0.137	0.085
-461.084	-200.000	0.015	-0.081
-460.070	800.000	-0.047	-0.146
-459.055	29.575	-0.067	-0.057
-458.040	800.000	0.037	0.127
-457.026	-39.644	-0.120	-0.063
-456.011	-58.668	-0.149	0.064
-454.997	-200.000	-0.007	-0.270
-453.982	-154.199	-0.023	-0.002
-452.968	9.624	0.175	0.133
-451.953	-71.620	-0.278	-0.104
-450.938	-200.000	0.017	0.154
-449.924	-90.759	0.219	0.063
-448.909	226.208	-0.111	-0.180
-447.895	800.000	-0.159	-0.449
-446.880	-125.689	-0.157	0.024
-445.865	533.463	-0.173	-0.409
-444.851	-176.052	0.224	-0.006
-443.836	-39.136	0.310	-0.163
-442.822	362.468	-0.042	0.084
-441.807	-164.180	-0.388	0.018
-440.792	-200.000	0.023	-0.287
-439.778	-26.907	0.144	-0.084
-438.763	23.190	-0.342	-0.280
-437.749	-101.936	0.160	-0.039
-436.734	-127.884	0.338	-0.048
-435.719	326.533	-0.036	-0.069
-434.705	400.046	0.133	0.278
-433.690	-103.922	-0.389	0.091
-432.676	98.699	0.129	0.148
-431.661	349.732	-0.079	0.155
-430.646	800.000	-0.033	0.131
-429.632	-200.000	0.028	-0.464
-428.617	298.509	-0.116	0.213
-427.603	800.000	-0.078	0.239
-426.588	800.000	0.040	-0.125
-425.573	-200.000	-0.014	-0.154
-424.559	-63.124	0.125	-0.051
-423.544	-155.821	0.258	-0.016
-422.530	33.629	-0.116	0.101
-421.515	39.262	0.097	0.086
-420.500	93.466	-0.101	-0.114
-419.486	196.991	-0.155	-0.235
-418.471	-98.164	0.245	-0.063
-417.457	-136.128	0.298	-0.035
-416.442	-200.000	-0.029	-0.192
-415.428	-33.384	-0.109	-0.060
-414.413	-148.912	0.127	-0.010
-413.398	-94.363	-0.266	0.072
-412.384	87.136	0.181	0.199
-411.369	-135.341	-0.288	0.034
-410.355	704.284	-0.022	-0.057
-409.340	150.323	-0.147	-0.199
-408.325	283.723	0.093	-0.167
-407.311	-200.000	0.002	0.208
-406.296	800.000	0.061	-0.201
-405.282	313.031	0.141	-0.265
-404.267	-177.523	-0.249	-0.006
-403.252	126.393	-0.072	0.091
-402.238	-155.158	0.100	-0.007
-401.223	800.000	-0.051	-0.201
-400.209	-200.000	0.009	0.124
-399.194	133.579	0.074	-0.095
-398.179	-200.000	0.008	-0.240
-397.165	-38.517	0.209	-0.110
-396.150	82.530	0.149	0.162
-395.136	-166.843	0.201	-0.008
-394.121	65.745	-0.119	-0.120
-393.106	73.907	0.177	-0.185
-392.092	-58.215	-0.261	-0.113
-391.077	90.913	0.078	-0.087
-390.063	-200.000	-0.058	-0.000
-389.048	-90.666	-0.078	-0.022
-388.033	-93.690	0.054	-0.015
-387.019	97.616	0.158	0.181
-386.004	29.574	0.140	-0.118
-384.990	-129.469	0.279	-0.039
-383.975	-169.734	-0.202	-0.007
-382.960	-90.192	0.151	0.044
-381.946	-133.432	-0.056	0.007
-380.931	-200.000	0.001	-0.123
-379.917	39.165	0.092	-0.082
-378.902	800.000	-0.061	0.249
-377.888	217.093	0.028	0.045
-376.873	82.119	0.141	-0.152
-375.858	407.834	-0.012	0.026
-374.844	-200.000	-0.027	0.158
-373.829	313.678	-0.331	0.619
-372.815	339.872	-0.084	-0.163
-371.800	184.939	0.082	-0.121
-370.785	369.532	0.074	-0.149
-369.771	35.240	0.166	0.145
-368.756	-24.905	-0.205	0.121
-367.742	-200.000	0.022	-0.180
-366.727	196.330	0.053	0.080
-365.712	160.988	-0.102	-0.141
-364.698	800.000	0.030	-0.110
-363.683	47.146	0.449	0.416
-362.669	-52.266	0.297	-0.137
-361.654	47.308	-0.114	-0.106
-360.639	109.554	0.083	0.099
-359.625	-120.800	0.161	-0.027
-358.610	560.026	0.128	-0.308
-357.596	43.153	-0.174	0.158
-356.581	800.000	-0.042	0.116
-355.566	-172.142	0.291	-0.009
-354.552	76.734	0.145	0.153
-353.537	91.771	0.125	-0.140
-352.523	-70.887	0.314	0.118
-351.508	-66.740	0.051	-0.020
-350.493	94.116	0.110	0.124
-349.479	197.230	-0.103	0.156
-348.464	-70.682	-0.243	0.091
-347.450	-124.921	0.232	0.035
-346.435	131.329	-0.193	0.247
-345.420	800.000	-0.051	0.180
-344.406	-114.892	0.238	0.045
-343.391	800.000	-0.064	0.203
-342.377	-200.000	0.045	-0.282
-341.362	-18.234	-0.149	0.093
-340.348	-76.675	0.181	-0.063
-339.333	-31.859	-0.058	-0.032
-338.318	127.683	0.127	-0.160
-337.304	-111.197	0.469	0.095
-336.289	127.236	0.118	0.149
-335.275	-97.934	0.293	0.075
-334.260	-200.000	-0.005	-0.300
-333.245	-200.000	0.000	-0.028
-332.231	35.945	0.139	0.122
-331.216	-32.309	0.212	-0.117
-330.202	-54.629	-0.259	0.116
-329.187	-68.056	-0.231	0.089
-328.172	-200.000	0.031	-0.325
-327.158	-200.000	-0.020	0.175
-326.143	119.601	-0.157	0.193
-325.129	-200.000	-0.005	0.161
-324.114	-150.603	-0.230	-0.017
-323.099	-200.000	-0.007	-0.135
-322.085	66.142	0.110	-0.111
-321.070	800.000	-0.063	0.203
-320.056	-120.253	-0.430	-0.073
-319.041	390.136	0.003	-0.007
-318.026	62.069	-0.056	0.056
-317.012	-200.000	-0.073	0.335
-315.997	-200.000	-0.045	-0.214
-314.983	78.877	-0.193	-0.205
-313.968	-114.964	-0.340	0.064
-312.953	24.283	-0.353	-0.289
-311.939	25.885	-0.119	0.099
-310.924	275.563	0.097	0.172
-309.910	102.900	0.034	0.040
-308.895	56.347	0.155	0.150
-307.880	-200.000	-0.048	0.341
-306.866	107.192	-0.043	-0.051
-305.851	-108.550	-0.316	-0.067
-304.837	-134.009	0.193	-0.024
-303.822	-200.000	0.049	0.215
-302.807	31.687	0.284	0.242
-301.793	-200.000	0.025	0.376
-300.778	-6.918	0.171	0.115
-299.764	-42.290	0.045	0.023
-298.749	47.685	0.198	0.183
-297.735	-176.088	-0.116	0.003
-296.720	121.919	0.109	0.135
-295.705	255.429	0.132	0.224
-294.691	800.000	-0.039	0.153
-293.676	-6.099	-0.073	-0.049
-292.662	-139.390	-0.219	0.023
-291.647	-200.000	0.001	-0.171
-290.632	-84.076	-0.221	0.070
-289.618	-141.611	0.164	0.016
-288.603	182.569	0.083	-0.122
-287.589	75.819	-0.213	0.223
-286.574	800.000	-0.062	0.171
-285.559	-88.059	0.476	-0.142
-284.545	-105.376	0.074	-0.017
-283.530	-77.629	-0.431	0.148
-282.516	-81.307	0.278	-0.091
-281.501	15.125	0.234	-0.182
-280.486	532.295	0.102	-0.239
-279.472	-200.000	0.015	0.279
-278.457	126.966	0.146	-0.183
-277.443	-90.568	-0.080	-0.023
-276.428	131.683	-0.137	0.175
-275.413	-82.665	0.279	-0.090
-274.399	151.169	-0.204	-0.276
-273.384	408.468	0.078	-0.164
-272.370	-182.774	0.431	0.008
-271.355	-96.022	0.119	0.031
-270.340	-10.291	0.090	-0.059
-269.326	148.066	-0.182	0.243
-268.311	-200.000	0.008	0.158
-267.297	101.272	0.042	0.049
-266.282	334.432	-0.206	0.395
-265.267	-44.153	0.147	-0.073
-264.253	587.159	-0.039	0.095
-263.238	-186.666	0.250	-0.004
-262.224	-43.224	-0.253	-0.127
-261.209	-200.000	0.036	0.238
-260.195	-200.000	0.023	0.162
-259.180	-44.141	-0.231	-0.115
-258.165	-99.657	0.043	-0.011
-257.151	312.384	0.096	-0.179
-256.136	347.259	-0.022	0.042
-255.122	-150.177	-0.181	0.014
-254.107	-200.000	0.015	-0.150
-253.092	-200.000	-0.024	-0.139
-252.078	-19.047	0.217	0.133
-251.063	800.000	0.025	0.098
-250.049	-27.625	0.126	0.072
-249.034	-200.000	-0.042	0.214
-248.019	45.469	0.181	0.166
-247.005	395.238	-0.041	0.085
-245.990	-200.000	0.043	0.373
-244.976	321.001	-0.061	-0.115
-243.961	-58.914	-0.266	-0.114
-242.946	474.253	0.069	0.153
-241.932	-41.087	-0.170	0.087
-240.917	-200.000	0.027	0.333
-239.903	199.422	-0.045	-0.068
-238.888	-26.764	0.369	-0.213
-237.873	114.454	-0.084	0.101
-236.859	800.000	0.054	0.152
-235.844	-200.000	0.018	-0.094
-234.830	79.827	0.067	0.072
-233.815	573.391	-0.052	-0.124
-232.800	800.000	0.079	-0.239
-231.786	-71.263	-0.214	0.079
-230.771	-183.215	-0.244	-0.004
-229.757	-108.429	0.172	-0.037
-228.742	138.147	-0.156	-0.202
-227.727	800.000	-0.063	-0.252
-226.713	-10.255	-0.228	0.150
-225.698	-200.000	-0.006	0.164
-224.684	-97.809	-0.208	0.053
-223.669	343.999	0.127	-0.246
-222.655	-1.677	-0.100	-0.069
-221.640	-200.000	0.017	0.370
-220.625	800.000	-0.028	0.090
-219.611	800.000	-0.034	-0.136
-218.596	90.190	0.172	0.190
-217.582	195.974	0.071	0.107
-216.567	180.217	0.216	-0.313
-215.552	84.286	0.038	-0.041
-214.538	-122.956	0.080	-0.013
-213.523	559.496	-0.037	0.088
-212.509	377.433	0.006	0.012
-211.494	-200.000	0.040	0.254
-210.479	-200.000	-0.029	-0.212
-209.465	-200.000	0.048	-0.217
-208.450	-9.617	0.134	-0.088
-207.436	-200.000	0.019	0.136
-206.421	-85.426	0.064	0.020
-205.406	38.935	-0.275	-0.243
-204.392	137.083	-0.138	-0.179
-203.377	-200.000	-0.009	0.088
-202.363	101.319	-0.219	-0.252
-201.348	-79.020	0.056	0.019
-200.333	68.618	-0.196	0.199
-199.319	-200.000	0.032	-0.215
-198.304	596.384	0.067	0.165
-197.290	4.309	0.152	0.110
-196.275	800.000	-0.100	0.379
-195.260	-38.351	0.154	0.081
-194.246	-43.793	0.076	-0.038
-193.231	75.973	-0.218	-0.228
-192.217	-200.000	-0.106	0.477
-191.202	12.634	0.206	0.157
-190.187	-200.000	0.021	0.241
-189.173	-142.919	0.129	0.012
-188.158	-42.898	0.162	-0.081
-187.144	-69.661	0.143	-0.054
-186.129	-148.094	0.079	-0.006
-185.114	-50.949	0.053	0.025
-184.100	213.109	0.017	-0.027
-183.085	-97.231	-0.234	0.060
-182.071	-200.000	0.007	0.156
-181.056	110.340	-0.010	-0.012
-180.042	285.984	0.114	0.203
-179.027	-41.447	-0.010	-0.005
-178.012	-200.000	0.003	0.096
-176.998	192.300	-0.117	-0.175
-175.983	43.812	-0.023	0.021
-174.969	-41.496	0.235	0.119
-173.954	-78.254	0.267	-0.091
-172.939	-6.852	-0.082	-0.055
-171.925	-200.000	0.012	0.127
-170.910	329.865	0.077	0.147
-169.896	-72.402	-0.062	-0.022
-168.881	-23.971	-0.066	0.039
-167.866	-162.775	0.315	-0.015
-166.852	800.000	0.074	0.240
-165.837	4.540	0.130	0.094
-164.823	-146.624	-0.414	-0.035
-163.808	118.257	-0.171	-0.208
-162.793	313.584	0.077	-0.143
-161.779	-113.758	0.201	-0.039
-160.764	800.000	-0.118	0.376
-159.750	179.154	-0.082	0.118
-158.735	581.886	-0.050	0.121
-157.720	187.966	0.100	0.148
-156.706	23.359	-0.114	0.093
-155.691	100.133	-0.209	-0.239
-154.677	143.375	-0.086	-0.113
-153.662	-129.274	0.466	0.064
-152.647	-7.195	-0.137	-0.092
-151.633	-200.000	0.071	-0.322
-150.618	346.847	-0.071	0.138
-149.604	800.000	-0.061	-0.180
-148.589	232.597	-0.165	-0.267
-147.574	306.007	-0.105	-0.193
-146.560	56.557	0.089	-0.085
-145.545	-69.962	-0.243	-0.091
-144.531	-60.094	-0.123	0.052
-143.516	62.611	-0.252	-0.249
-142.502	112.790	0.120	0.144
-141.487	800.000	0.093	0.334
-140.472	122.234	0.066	-0.081
-139.458	428.827	0.122	-0.259
-138.443	-94.254	0.300	0.081
-137.429	-52.171	0.208	0.095
-136.414	-187.320	0.143	-0.002
-135.399	-67.092	-0.364	-0.141
-134.385	-24.526	0.184	0.108
-133.370	800.000	-0.027	0.096
-132.356	800.000	-0.064	-0.203
-131.341	-161.744	-0.064	-0.003
-130.326	137.142	0.176	0.226
-129.312	800.000	-0.102	0.376
-128.297	-130.292	0.352	-0.047
-127.283	-200.000	0.018	-0.209
-126.268	-41.042	0.135	-0.069
-125.253	-76.748	0.067	-0.023
-124.239	221.194	0.115	-0.181
-123.224	10.770	0.142	0.107
-122.210	-200.000	0.060	0.287
-121.195	-200.000	0.013	0.259
