DTS Sentinel unit serial number:	SN413079Multiplexer serial number:	ORYXHardware model number:	OX4-SRSoftware version number:	ORYX F/W v4.00 Oryx Data Collector v3.7.2.0data status	okinstallation	princeton_trtdifferential loss correction	single-endedforward channel	channel 3reverse channel	N/Adate	2019/09/13time	23:12:35forward acquisition time	60.00reverse acquisition time	0.00gamma	496.2192k internal	0.2339k external	0.2339temperature offset calibration	1.0058default loss term (dB/km)	0.3790temperature slope calibration	1.0000multiplexer offset coefficient	1.0000multiplexer slope coefficient	1.0000fibre end	0.00T internal ref (°C)	27.14T ext. ref 1 (°C)	3.19T ext. ref 2 (°C)	21.02length (m)	temperature (°C)	Stokes	anti-Stokes-747.200	262.320	-0.078	-0.136
-746.185	513.438	-0.067	0.156
-745.171	29.396	-0.257	-0.219
-744.156	569.657	-0.043	-0.105
-743.142	208.312	-0.052	-0.081
-742.127	80.786	-0.309	0.334
-741.112	-200.000	-0.084	0.381
-740.098	800.000	-0.010	0.036
-739.083	-18.844	0.231	0.144
-738.069	800.000	0.036	0.142
-737.054	-9.887	0.164	0.110
-736.039	157.207	-0.053	-0.074
-735.025	-200.000	0.027	0.233
-734.010	133.113	-0.102	0.133
-732.996	72.105	-0.075	-0.079
-731.981	800.000	0.031	0.099
-730.966	27.531	0.194	-0.164
-729.952	55.685	-0.101	0.098
-728.937	-200.000	-0.047	-0.441
-727.923	-100.960	-0.408	0.100
-726.908	-79.438	-0.125	-0.042
-725.894	226.742	-0.092	-0.150
-724.879	69.207	0.043	-0.044
-723.864	-30.999	-0.167	0.095
-722.850	-200.000	-0.013	-0.094
-721.835	-62.040	0.116	-0.048
-720.821	-100.456	-0.409	-0.101
-719.806	-62.247	-0.143	0.060
-718.791	-200.000	-0.005	-0.330
-717.777	197.655	0.186	0.284
-716.762	-173.753	-0.354	-0.011
-715.748	-200.000	-0.018	-0.350
-714.733	-93.368	0.242	-0.067
-713.718	-17.346	0.203	0.128
-712.704	142.699	-0.203	-0.270
-711.689	151.941	-0.230	-0.314
-710.675	-200.000	0.027	-0.149
-709.660	155.467	0.130	-0.179
-708.645	474.046	0.209	-0.472
-707.631	-200.000	0.051	-0.261
-706.616	55.198	0.160	0.155
-705.602	-200.000	-0.018	-0.145
-704.587	421.455	-0.035	0.076
-703.572	126.729	-0.033	0.042
-702.558	90.419	0.047	-0.052
-701.543	-66.997	0.254	-0.100
-700.529	800.000	0.090	-0.251
-699.514	-51.896	-0.226	-0.105
-698.499	-39.842	-0.230	-0.120
-697.485	-106.916	0.160	-0.036
-696.470	83.943	-0.201	0.220
-695.456	800.000	0.017	-0.053
-694.441	-51.685	-0.256	-0.119
-693.426	-37.733	0.159	0.085
-692.412	164.160	0.051	-0.071
-691.397	-118.407	-0.566	0.100
-690.383	-5.712	0.071	0.049
-689.368	-200.000	0.039	-0.173
-688.354	22.540	-0.187	0.153
-687.339	-144.098	0.197	0.018
-686.324	-73.850	-0.361	-0.131
-685.310	800.000	0.086	-0.258
-684.295	-200.000	0.011	-0.196
-683.281	256.905	-0.117	-0.201
-682.266	-81.121	-0.216	-0.071
-681.251	169.390	0.089	0.127
-680.237	-5.468	0.273	-0.188
-679.222	18.739	0.137	0.109
-678.208	55.508	0.033	-0.032
-677.193	2.862	0.366	-0.265
-676.178	204.635	0.256	-0.398
-675.164	-125.711	-0.268	0.041
-674.149	-200.000	0.032	0.223
-673.135	-40.296	-0.148	-0.077
-672.120	121.371	-0.211	-0.263
-671.105	800.000	-0.027	0.091
-670.091	19.916	0.087	-0.070
-669.076	-47.539	-0.261	0.127
-668.062	18.508	-0.280	0.224
-667.047	-4.688	0.396	-0.274
-666.032	-37.227	0.162	-0.087
-665.018	-63.302	-0.042	0.017
-664.003	142.603	0.137	-0.181
-662.989	-200.000	0.026	0.299
-661.974	-97.983	0.262	-0.068
-660.959	-180.489	0.148	0.003
-659.945	322.173	-0.121	-0.230
-658.930	-200.000	-0.001	0.220
-657.916	-79.021	-0.098	0.033
-656.901	103.477	-0.112	0.131
-655.886	-114.181	0.172	-0.033
-654.872	-76.554	0.141	-0.050
-653.857	553.470	-0.135	-0.323
-652.843	-84.802	-0.122	-0.038
-651.828	181.058	0.015	-0.022
-650.814	-124.739	-0.378	-0.058
-649.799	-200.000	0.069	-0.464
-648.784	-200.000	0.075	0.335
-647.770	-193.279	0.186	0.002
-646.755	11.055	0.182	0.139
-645.741	70.022	0.262	-0.270
-644.726	-200.000	0.051	-0.284
-643.711	800.000	-0.074	-0.285
-642.697	419.036	-0.070	-0.150
-641.682	-119.256	-0.388	0.068
-640.668	-85.809	0.274	0.085
-639.653	-193.796	-0.281	0.002
-638.638	-42.552	0.226	-0.115
-637.624	-136.623	-0.219	-0.025
-636.609	-200.000	-0.006	0.269
-635.595	-30.815	-0.129	0.073
-634.580	113.314	-0.170	-0.206
-633.565	193.438	-0.160	0.242
-632.551	800.000	-0.118	0.421
-631.536	-50.713	0.134	-0.063
-630.522	-178.835	0.154	0.004
-629.507	-200.000	0.005	-0.193
-628.492	-23.510	0.171	0.102
-627.478	-200.000	-0.050	0.251
-626.463	-119.931	-0.219	0.038
-625.449	-200.000	0.028	-0.367
-624.434	497.213	-0.022	-0.051
-623.419	800.000	0.076	0.291
-622.405	-143.120	0.286	0.028
-621.390	139.404	-0.138	0.181
-620.376	-124.752	0.047	0.007
-619.361	81.909	-0.163	-0.176
-618.346	42.602	-0.256	0.232
-617.332	129.205	0.255	0.325
-616.317	-35.939	0.069	-0.037
-615.303	-3.780	0.176	0.122
-614.288	34.226	0.224	-0.195
-613.273	-58.474	-0.166	-0.072
-612.259	431.880	0.134	-0.289
-611.244	-33.511	0.250	-0.138
-610.230	58.597	0.018	-0.017
-609.215	-155.311	0.453	0.029
-608.201	-13.090	-0.390	0.253
-607.186	227.408	-0.116	0.189
-606.171	-0.427	0.192	-0.136
-605.157	138.318	-0.242	0.317
-604.142	238.341	-0.232	-0.385
-603.128	107.840	-0.107	-0.127
-602.113	9.910	-0.176	-0.133
-601.098	-61.398	0.223	0.093
-600.084	-21.753	-0.252	0.153
-599.069	-65.621	0.356	-0.142
-598.055	-33.807	-0.299	-0.164
-597.040	800.000	-0.081	0.314
-596.025	-114.539	0.450	-0.086
-595.011	800.000	-0.023	0.092
-593.996	-116.959	0.503	-0.092
-592.982	-124.186	-0.246	0.038
-591.967	-87.730	-0.098	0.029
-590.952	28.884	-0.166	-0.140
-589.938	-200.000	-0.006	0.279
-588.923	305.893	-0.093	-0.173
-587.909	137.044	-0.049	0.063
-586.894	-148.542	-0.492	-0.040
-585.879	-140.762	-0.331	-0.034
-584.865	5.718	-0.173	-0.127
-583.850	-200.000	0.005	-0.147
-582.836	-200.000	0.019	-0.190
-581.821	-158.110	0.182	0.011
-580.806	56.426	0.067	-0.065
-579.792	-200.000	0.021	-0.206
-578.777	-66.880	0.199	-0.079
-577.763	-200.000	-0.027	-0.319
-576.748	-159.985	0.142	-0.008
-575.733	126.073	-0.144	-0.181
-574.719	-103.319	0.399	-0.094
-573.704	152.797	-0.157	-0.214
-572.690	800.000	-0.105	-0.350
-571.675	-70.976	-0.253	-0.095
-570.661	329.009	0.067	-0.127
-569.646	-153.335	-0.145	0.010
-568.631	3.998	-0.228	0.166
-567.617	67.305	0.208	-0.211
-566.602	-200.000	-0.046	0.311
-565.588	210.159	0.030	0.047
-564.573	-62.981	-0.250	0.103
-563.558	800.000	0.062	0.270
-562.544	-200.000	0.050	-0.226
-561.529	-115.620	0.324	0.061
-560.515	336.891	-0.126	0.245
-559.500	-54.027	0.224	-0.101
-558.485	188.391	-0.125	-0.185
-557.471	-112.135	-0.154	-0.031
-556.456	38.428	-0.362	0.322
-555.442	-0.257	0.101	0.071
-554.427	-200.000	0.019	-0.186
-553.412	421.701	-0.075	-0.161
-552.398	-200.000	-0.002	-0.269
-551.383	800.000	0.060	0.250
-550.369	535.252	-0.086	0.202
-549.354	-164.698	0.388	-0.017
-548.339	105.047	-0.179	0.210
-547.325	-200.000	0.014	-0.090
-546.310	156.556	0.152	-0.209
-545.296	-133.829	-0.016	-0.002
-544.281	104.785	0.135	0.158
-543.266	-200.000	-0.004	-0.484
-542.252	-146.784	0.131	0.011
-541.237	55.554	0.332	-0.320
-540.223	159.394	-0.280	-0.387
-539.208	-200.000	-0.017	0.118
-538.193	-85.663	-0.262	-0.081
-537.179	-104.339	-0.087	-0.020
-536.164	21.915	-0.200	0.162
-535.150	-22.896	0.125	0.075
-534.135	-108.042	0.185	0.040
-533.121	-49.007	-0.127	-0.060
-532.106	-112.579	0.118	-0.023
-531.091	800.000	-0.109	-0.372
-530.077	-139.000	-0.255	0.027
-529.062	125.361	-0.133	-0.167
-528.048	-30.330	-0.137	0.077
-527.033	9.886	0.261	0.197
-526.018	176.689	-0.254	0.367
-525.004	54.266	-0.211	-0.202
-523.989	-200.000	-0.055	0.329
-522.975	79.146	-0.205	-0.218
-521.960	-200.000	-0.019	0.184
-520.945	-200.000	0.030	-0.168
-519.931	-142.150	-0.126	-0.012
-518.916	800.000	0.060	0.260
-517.902	-61.873	0.171	-0.071
-516.887	-4.858	-0.351	-0.241
-515.872	-200.000	0.001	0.202
-514.858	-49.923	0.182	0.086
-513.843	329.694	-0.150	-0.287
-512.829	-80.176	0.420	0.140
-511.814	-82.167	-0.207	-0.067
-510.799	209.175	-0.327	-0.509
-509.785	-4.884	0.219	0.150
-508.770	219.006	-0.203	0.322
-507.756	-68.530	0.381	0.147
-506.741	-15.615	0.250	0.158
-505.726	798.621	0.032	-0.087
-504.712	557.079	0.112	0.267
-503.697	513.488	0.087	0.202
-502.683	400.023	-0.081	0.168
-501.668	-54.711	-0.266	-0.120
-500.653	-26.670	0.192	-0.112
-499.639	-62.089	-0.131	0.054
-498.624	-67.815	0.186	-0.072
-497.610	-200.000	-0.000	-0.055
-496.595	-200.000	-0.017	-0.081
-495.581	-73.872	-0.167	0.060
-494.566	27.483	0.200	-0.167
-493.551	-200.000	0.015	-0.330
-492.537	-81.409	-0.280	-0.092
-491.522	-200.000	-0.028	-0.135
-490.508	800.000	0.067	0.206
-489.493	54.365	-0.092	0.088
-488.478	-60.303	0.199	0.084
-487.464	-90.113	-0.115	0.033
-486.449	-145.273	0.361	-0.032
-485.435	313.308	0.161	-0.300
-484.420	-136.762	-0.121	0.014
-483.405	-138.845	0.181	-0.020
-482.391	-119.388	-0.291	0.050
-481.376	800.000	-0.070	-0.198
-480.362	56.614	0.127	0.123
-479.347	-195.745	-0.352	0.003
-478.332	-155.573	0.125	0.008
-477.318	-97.297	-0.314	-0.081
-476.303	-200.000	-0.004	-0.227
-475.289	-200.000	0.009	-0.104
-474.274	387.579	0.140	0.286
-473.259	-72.000	-0.249	0.092
-472.245	-3.547	0.112	0.077
-471.230	800.000	-0.113	-0.325
-470.216	626.848	0.031	0.077
-469.201	800.000	-0.023	0.068
-468.186	-74.820	-0.092	0.033
-467.172	-200.000	-0.016	-0.138
-466.157	104.488	-0.166	-0.194
-465.143	61.859	-0.101	0.100
-464.128	-87.350	-0.151	-0.045
-463.113	-200.000	0.124	-0.570
-462.099	94.430	0.035	0.039
-461.084	-200.000	-0.032	-0.409
-460.070	-200.000	0.053	-0.311
-459.055	269.956	-0.193	0.337
-458.040	66.870	0.266	0.269
-457.026	-200.000	0.025	0.145
-456.011	-117.228	-0.244	-0.044
-454.997	35.124	0.178	-0.155
-453.982	24.413	0.217	0.178
-452.968	-200.000	-0.005	-0.226
-451.953	800.000	0.039	-0.109
-450.938	778.670	0.167	0.454
-449.924	-20.377	0.096	0.059
-448.909	-128.381	0.329	0.046
-447.895	-162.597	-0.272	-0.013
-446.880	48.606	0.082	0.076
-445.865	-4.900	-0.116	0.079
-444.851	-140.434	-0.342	0.035
-443.836	-200.000	0.010	-0.284
-442.822	125.377	0.199	-0.249
-441.807	-93.247	-0.072	0.020
-440.792	-22.986	-0.053	-0.032
-439.778	-55.303	-0.109	-0.048
-438.763	-33.119	0.188	-0.103
-437.749	402.296	-0.034	-0.071
-436.734	-87.288	0.199	0.060
-435.719	179.620	0.099	0.144
-434.705	95.562	-0.273	0.309
-433.690	248.563	0.204	0.343
-432.676	-200.000	0.018	0.138
-431.661	800.000	-0.060	-0.251
-430.646	-18.508	0.095	-0.058
-429.632	-15.398	0.118	0.075
-428.617	-91.685	0.181	-0.051
-427.603	-73.374	-0.198	-0.072
-426.588	-200.000	-0.019	0.315
-425.573	800.000	-0.014	-0.057
-424.559	-37.319	0.048	0.025
-423.544	264.657	0.070	0.121
-422.530	-200.000	0.044	-0.550
-421.515	70.619	0.286	-0.294
-420.500	-200.000	0.008	0.096
-419.486	-200.000	0.039	-0.248
-418.471	-52.686	-0.171	-0.078
-417.457	213.004	-0.123	0.193
-416.442	-121.405	-0.168	0.028
-415.428	-200.000	0.004	0.201
-414.413	-28.017	-0.228	-0.130
-413.398	-144.467	-0.247	0.023
-412.384	-60.020	0.056	-0.024
-411.369	-46.538	-0.454	0.221
-410.355	681.154	-0.023	-0.060
-409.340	-70.607	-0.020	0.008
-408.325	-200.000	-0.033	-0.251
-407.311	-15.966	0.246	-0.155
-406.296	-200.000	0.007	0.102
-405.282	-86.921	-0.332	-0.100
-404.267	-48.145	-0.218	-0.104
-403.252	-114.074	-0.323	0.062
-402.238	120.058	0.078	0.095
-401.223	-24.307	-0.229	-0.135
-400.209	800.000	0.117	0.337
-399.194	-150.309	0.287	-0.022
-398.179	254.409	0.058	-0.098
-397.165	-125.309	0.227	0.034
-396.150	-200.000	-0.018	0.288
-395.136	800.000	-0.039	0.163
-394.121	53.275	-0.068	0.065
-393.106	-10.559	0.050	0.033
-392.092	45.836	-0.232	0.212
-391.077	115.431	-0.266	-0.322
-390.063	-135.939	-0.238	0.028
-389.048	-139.706	-0.194	-0.020
-388.033	72.921	0.254	0.263
-387.019	-166.335	0.333	-0.014
-386.004	37.212	0.074	0.065
-384.990	42.208	0.275	0.247
-383.975	70.250	-0.021	0.022
-382.960	800.000	-0.051	0.199
-381.946	23.594	0.222	-0.181
-380.931	-106.247	-0.078	0.017
-379.917	779.567	0.036	-0.097
-378.902	-37.976	0.242	0.127
-377.888	-192.437	0.192	0.002
-376.873	-30.035	0.158	0.089
-375.858	-71.536	0.099	0.037
-374.844	-114.811	-0.131	0.025
-373.829	-200.000	0.037	-0.347
-372.815	-22.871	-0.139	-0.083
-371.800	-200.000	-0.017	0.230
-370.785	75.227	-0.054	0.056
-369.771	-200.000	0.017	-0.278
-368.756	-24.260	0.129	0.076
-367.742	131.762	0.033	0.042
-366.727	204.276	-0.081	0.125
-365.712	381.180	0.124	0.251
-364.698	-61.397	0.299	-0.124
-363.683	-200.000	0.004	-0.116
-362.669	129.133	-0.089	-0.112
-361.654	560.182	0.113	0.269
-360.639	800.000	-0.102	0.387
-359.625	-200.000	-0.037	0.272
-358.610	379.166	0.127	-0.256
-357.596	9.366	-0.196	-0.146
-356.581	67.957	-0.129	-0.130
-355.566	-74.943	-0.103	0.036
-354.552	-55.741	-0.078	-0.034
-353.537	800.000	0.081	-0.261
-352.523	-56.831	-0.407	0.178
-351.508	-200.000	-0.027	-0.319
-350.493	545.085	-0.080	-0.189
-349.479	-45.538	0.287	-0.141
-348.464	86.142	0.292	0.317
-347.450	-46.281	0.315	-0.153
-346.435	-200.000	0.016	0.073
-345.420	-125.922	0.212	0.031
-344.406	419.468	-0.026	0.056
-343.391	15.099	-0.026	0.020
-342.377	800.000	0.038	0.114
-341.362	78.784	-0.082	-0.087
-340.348	303.545	0.120	0.220
-339.333	-200.000	0.001	0.213
-338.318	800.000	0.008	0.034
-337.304	-19.389	-0.112	-0.069
-336.289	800.000	-0.134	0.442
-335.275	-116.568	-0.538	0.098
-334.260	-14.317	-0.189	0.120
-333.245	-59.960	-0.299	-0.126
-332.231	-49.049	0.260	0.123
-331.216	31.711	0.052	-0.044
-330.202	-200.000	-0.025	0.244
-329.187	-200.000	-0.042	0.223
-328.172	-47.517	-0.287	-0.138
-327.158	-88.993	0.337	0.098
-326.143	800.000	0.101	0.285
-325.129	-6.369	-0.345	-0.232
-324.114	-99.022	0.203	-0.051
-323.099	-113.696	0.247	-0.048
-322.085	-200.000	0.117	0.000
-321.070	6.447	-0.211	0.155
-320.056	133.518	0.060	-0.076
-319.041	-200.000	0.029	0.273
-318.026	-185.437	-0.083	-0.001
-317.012	800.000	0.149	0.435
-315.997	800.000	0.024	-0.075
-314.983	473.641	0.055	-0.122
-313.968	-55.106	0.326	0.145
-312.953	-200.000	-0.050	0.323
-311.939	35.327	-0.113	-0.098
-310.924	6.024	0.369	-0.269
-309.910	-137.128	-0.167	0.019
-308.895	-84.646	-0.076	-0.024
-307.880	-166.812	0.140	-0.006
-306.866	-47.221	-0.304	0.146
-305.851	199.387	-0.065	-0.099
-304.837	-11.938	0.181	0.117
-303.822	32.336	-0.118	-0.101
-302.807	0.132	0.098	0.069
-301.793	-79.907	0.219	0.073
-300.778	-43.977	-0.413	0.204
-299.764	618.097	-0.102	-0.252
-298.749	-200.000	0.068	0.363
-297.735	-34.293	0.066	0.036
-296.720	456.767	-0.055	-0.120
-295.705	-200.000	-0.004	-0.018
-294.691	-168.558	0.103	0.004
-293.676	800.000	-0.062	-0.174
-292.662	-15.370	0.368	0.232
-291.647	195.276	0.064	-0.096
-290.632	27.278	-0.128	0.106
-289.618	164.409	0.164	0.228
-288.603	191.327	-0.119	0.176
-287.589	-4.696	0.169	0.115
-286.574	105.588	-0.146	0.170
-285.559	-22.439	-0.156	-0.093
-284.545	22.470	0.338	0.273
-283.530	-121.165	-0.220	-0.036
-282.516	566.101	0.030	0.072
-281.501	-200.000	0.016	0.339
-280.486	-53.863	0.325	0.146
-279.472	27.437	-0.165	-0.136
-278.457	167.226	0.053	-0.074
-277.443	109.588	-0.282	0.333
-276.428	213.422	0.059	-0.092
-275.413	-192.287	0.185	0.002
-274.399	800.000	0.005	0.016
-273.384	30.506	0.118	0.099
-272.370	-76.670	-0.130	-0.045
-271.355	-76.896	0.269	0.092
-270.340	-51.555	-0.235	-0.108
-269.326	-200.000	0.000	-0.039
-268.311	-165.270	0.363	0.016
-267.297	-200.000	0.002	0.065
-266.282	-5.721	0.086	0.058
-265.267	52.242	-0.062	0.058
-264.253	109.322	-0.020	0.024
-263.238	-200.000	-0.031	0.281
-262.224	107.154	0.163	-0.191
-261.209	-200.000	0.035	-0.209
-260.195	64.403	-0.313	0.310
-259.180	800.000	0.051	0.161
-258.165	-169.407	0.054	-0.002
-257.151	482.121	-0.084	0.188
-256.136	-200.000	-0.107	-0.515
-255.122	-200.000	-0.017	-0.128
-254.107	83.940	-0.064	0.069
-253.092	72.345	0.140	0.143
-252.078	76.036	0.148	0.154
-251.063	219.656	0.035	-0.055
-250.049	-69.968	0.099	0.037
-249.034	-44.664	-0.183	-0.090
-248.019	-16.577	0.102	-0.064
-247.005	-200.000	0.020	-0.149
-245.990	-22.833	-0.060	0.036
-244.976	619.224	0.050	-0.124
-243.961	-86.715	0.184	-0.055
-242.946	800.000	-0.037	-0.125
-241.932	-27.069	-0.205	-0.117
-240.917	-25.060	-0.187	-0.109
-239.903	-76.841	0.263	0.090
-238.888	-92.084	-0.116	-0.032
-237.873	-0.658	-0.367	0.256
-236.859	800.000	0.017	-0.064
-235.844	-200.000	-0.018	-0.125
-234.830	108.692	0.043	0.051
-233.815	-200.000	0.018	-0.142
-232.800	222.501	-0.091	-0.145
-231.786	-104.360	-0.053	0.012
-230.771	-132.270	-0.235	-0.030
-229.757	-133.801	-0.241	0.030
-228.742	-153.434	0.178	0.012
-227.727	150.243	0.165	0.220
-226.713	29.671	0.018	-0.015
-225.698	144.509	-0.159	-0.209
-224.684	800.000	-0.102	0.286
-223.669	122.881	0.178	-0.219
-222.655	226.772	0.047	-0.076
-221.640	800.000	0.021	0.073
-220.625	138.482	-0.076	0.098
-219.611	264.403	-0.033	0.057
-218.596	-85.336	-0.280	-0.086
-217.582	262.266	0.326	-0.555
-216.567	9.190	-0.183	-0.136
-215.552	-200.000	-0.020	0.112
-214.538	-31.599	-0.260	-0.144
-213.523	-200.000	-0.037	-0.342
-212.509	-200.000	0.025	0.384
-211.494	71.513	0.147	-0.150
-210.479	-10.520	0.091	-0.059
-209.465	43.386	0.091	0.082
-208.450	31.098	-0.193	0.162
-207.436	26.451	0.096	-0.079
-206.421	800.000	-0.021	-0.080
-205.406	800.000	-0.032	-0.117
-204.392	446.927	-0.050	-0.108
-203.377	66.013	0.200	-0.199
-202.363	-200.000	0.053	0.300
-201.348	-36.585	0.258	0.136
-200.333	-27.928	0.117	0.067
-199.319	117.471	0.092	0.111
-198.304	-41.486	0.294	0.148
-197.290	138.441	0.208	0.268
-196.275	800.000	0.077	-0.280
-195.260	50.528	0.065	0.060
-194.246	276.075	0.214	-0.373
-193.231	280.628	0.114	-0.201
-192.217	-60.267	-0.210	-0.088
-191.202	-0.488	0.122	-0.085
-190.187	-130.927	-0.182	0.024
-189.173	556.996	0.071	0.168
-188.158	800.000	0.091	-0.332
-187.144	-24.457	-0.167	0.097
-186.129	-95.218	0.151	0.040
-185.114	322.350	0.072	0.134
-184.100	800.000	0.022	0.071
-183.085	436.985	-0.021	-0.044
-182.071	-200.000	0.010	0.131
-181.056	-200.000	0.001	-0.013
-180.042	-146.450	-0.192	0.016
-179.027	594.182	0.070	-0.169
-178.012	-85.232	-0.252	0.077
-176.998	-21.044	0.157	0.094
-175.983	-200.000	0.009	0.390
-174.969	712.964	0.049	-0.126
-173.954	-93.898	0.228	0.062
-172.939	-200.000	-0.045	-0.270
-171.925	33.008	0.157	-0.133
-170.910	800.000	0.063	0.269
-169.896	-200.000	-0.019	-0.438
-168.881	800.000	-0.043	0.131
-167.866	-139.600	-0.242	0.025
-166.852	67.741	-0.073	0.073
-165.837	-61.488	-0.041	-0.017
-164.823	-146.092	-0.307	-0.027
-163.808	50.787	-0.120	0.111
-162.793	10.926	0.078	-0.058
-161.779	175.295	0.049	-0.070
-160.764	-94.236	0.297	0.080
-159.750	217.520	-0.114	-0.179
-158.735	436.173	0.046	-0.099
-157.720	263.198	-0.180	0.307
-156.706	-98.655	0.322	-0.081
-155.691	-40.980	-0.145	0.073
-154.677	54.058	-0.090	-0.085
-153.662	-146.262	0.078	-0.007
-152.647	-75.883	0.133	-0.046
-151.633	66.273	0.140	-0.140
-150.618	-200.000	-0.001	-0.125
-149.604	239.679	0.069	-0.113
-148.589	170.697	0.161	-0.227
-147.574	19.323	0.195	0.153
-146.560	218.029	0.217	-0.339
-145.545	327.103	-0.088	-0.165
-144.531	19.144	-0.193	-0.152
-143.516	511.318	-0.092	0.210
-142.502	800.000	0.025	0.107
-141.487	-39.373	0.248	0.127
-140.472	-200.000	0.022	0.334
-139.458	-159.639	-0.223	0.012
-138.443	-97.468	-0.248	-0.063
-137.429	-12.036	-0.224	-0.144
-136.414	800.000	-0.095	0.303
-135.399	-60.300	-0.256	-0.107
-134.385	-176.870	0.156	-0.004
-133.370	-97.268	-0.165	0.042
-132.356	71.471	0.132	0.134
-131.341	274.293	0.105	-0.182
-130.326	-25.650	0.048	0.027
-129.312	-200.000	0.017	0.244
-128.297	-36.208	0.175	-0.092
-127.283	197.900	0.012	-0.019
-126.268	-200.000	0.032	-0.219
-125.253	316.172	0.009	-0.017
-124.239	-7.272	0.180	0.119
-123.224	294.547	0.125	-0.224
-122.210	42.081	0.015	0.013
-121.195	800.000	-0.043	0.118
