DTS Sentinel unit serial number:	SN413079Multiplexer serial number:	ORYXHardware model number:	OX4-SRSoftware version number:	ORYX F/W v4.00 Oryx Data Collector v3.7.2.0data status	okinstallation	princeton_trtdifferential loss correction	single-endedforward channel	channel 3reverse channel	N/Adate	2019/09/14time	06:24:34forward acquisition time	60.00reverse acquisition time	0.00gamma	496.2192k internal	0.2339k external	0.2339temperature offset calibration	1.0058default loss term (dB/km)	0.3790temperature slope calibration	1.0000multiplexer offset coefficient	1.0000multiplexer slope coefficient	1.0000fibre end	0.00T internal ref (°C)	26.56T ext. ref 1 (°C)	3.40T ext. ref 2 (°C)	20.47length (m)	temperature (°C)	Stokes	anti-Stokes-747.200	59.098	-0.204	-0.201
-746.185	-74.852	0.158	0.057
-745.171	-15.899	-0.100	0.064
-744.156	470.247	0.274	0.617
-743.142	113.529	-0.136	0.166
-742.127	-200.000	-0.001	0.061
-741.112	-200.000	0.043	-0.328
-740.098	84.097	-0.134	0.146
-739.083	262.751	0.022	-0.039
-738.069	423.158	-0.163	0.351
-737.054	-26.316	-0.223	-0.131
-736.039	-200.000	-0.027	-0.316
-735.025	-143.378	0.279	-0.027
-734.010	800.000	-0.076	0.251
-732.996	70.797	0.155	-0.161
-731.981	-200.000	0.006	0.084
-730.966	-162.862	0.171	-0.008
-729.952	-88.606	0.163	0.049
-728.937	-176.085	-0.299	-0.008
-727.923	-59.645	-0.059	-0.025
-726.908	585.696	-0.090	-0.222
-725.894	93.613	0.095	-0.107
-724.879	-102.190	-0.328	0.079
-723.864	-200.000	-0.002	0.013
-722.850	-45.719	0.413	0.204
-721.835	-200.000	0.015	-0.069
-720.821	-200.000	-0.022	-0.230
-719.806	800.000	0.054	-0.220
-718.791	-200.000	0.056	-0.272
-717.777	142.048	-0.112	0.149
-716.762	-38.450	0.098	0.052
-715.748	-91.478	-0.239	-0.068
-714.733	541.593	0.079	0.188
-713.718	-163.640	0.315	0.015
-712.704	66.499	0.111	-0.113
-711.689	166.555	-0.101	0.144
-710.675	15.115	0.183	0.143
-709.660	-200.000	0.017	-0.099
-708.645	211.266	0.122	-0.193
-707.631	65.696	-0.183	0.185
-706.616	9.369	-0.198	-0.150
-705.602	-200.000	-0.002	0.250
-704.587	-49.782	0.135	-0.064
-703.572	-96.275	0.412	0.109
-702.558	193.147	0.063	-0.095
-701.543	-29.763	0.193	0.110
-700.529	12.712	-0.036	0.028
-699.514	-66.974	0.064	-0.025
-698.499	147.107	0.117	-0.158
-697.485	-200.000	0.039	0.270
-696.470	-84.233	0.269	-0.085
-695.456	-160.926	-0.384	-0.020
-694.441	800.000	-0.120	-0.376
-693.426	639.767	0.047	0.119
-692.412	-200.000	-0.021	-0.263
-691.397	26.472	-0.085	-0.072
-690.383	181.931	0.126	-0.185
-689.368	-17.429	-0.119	0.075
-688.354	-94.017	0.027	-0.007
-687.339	382.040	0.107	0.221
-686.324	283.512	-0.202	0.364
-685.310	235.234	-0.197	-0.326
-684.295	-63.885	0.202	-0.083
-683.281	-63.717	-0.182	-0.075
-682.266	349.450	-0.066	0.131
-681.251	173.936	0.077	-0.111
-680.237	67.569	0.115	0.118
-679.222	286.024	-0.091	-0.164
-678.208	5.360	0.165	0.122
-677.193	800.000	-0.052	0.156
-676.178	-127.118	-0.235	0.034
-675.164	-95.671	0.169	0.045
-674.149	-200.000	-0.034	-0.188
-673.135	800.000	0.033	-0.120
-672.120	-149.077	0.176	-0.014
-671.105	44.112	-0.136	-0.125
-670.091	66.168	-0.237	-0.240
-669.076	-200.000	0.009	0.161
-668.062	-200.000	-0.050	-0.240
-667.047	-200.000	0.050	0.448
-666.032	-89.186	-0.317	0.094
-665.018	20.782	-0.163	-0.132
-664.003	-200.000	-0.003	-0.026
-662.989	800.000	0.013	-0.046
-661.974	-22.381	-0.238	-0.144
-660.959	800.000	-0.045	0.150
-659.945	113.549	0.053	0.064
-658.930	60.883	0.105	0.104
-657.916	-12.614	0.109	-0.071
-656.901	-60.745	-0.086	-0.036
-655.886	800.000	0.060	-0.174
-654.872	798.434	0.143	-0.393
-653.857	-150.047	-0.119	-0.009
-652.843	152.429	0.176	-0.240
-651.828	-61.199	-0.065	0.027
-650.814	-58.810	0.119	-0.051
-649.799	-43.444	-0.402	0.203
-648.784	291.119	0.169	0.307
-647.770	-200.000	0.007	0.055
-646.755	348.684	0.171	-0.336
-645.741	47.537	-0.121	-0.113
-644.726	-200.000	0.007	-0.189
-643.711	15.790	-0.128	-0.101
-642.697	21.957	-0.194	0.158
-641.682	-136.813	-0.280	-0.032
-640.668	92.481	0.087	-0.098
-639.653	734.607	0.190	0.509
-638.638	189.581	-0.103	-0.154
-637.624	-200.000	-0.014	-0.217
-636.609	204.818	0.133	-0.206
-635.595	-175.194	0.459	-0.013
-634.580	-108.877	-0.337	-0.072
-633.565	-114.365	0.308	0.059
-632.551	112.087	0.048	-0.058
-631.536	203.712	-0.044	-0.068
-630.522	132.191	0.114	-0.146
-629.507	95.891	0.157	0.180
-628.492	-41.631	0.065	0.033
-627.478	800.000	0.093	-0.289
-626.463	11.329	0.162	0.124
-625.449	-123.892	-0.040	-0.006
-624.434	-63.661	0.121	0.049
-623.419	529.078	-0.042	-0.099
-622.405	447.378	0.056	-0.124
-621.390	-77.417	-0.286	0.099
-620.376	800.000	0.044	-0.139
-619.361	-63.550	-0.194	-0.080
-618.346	-65.687	0.103	-0.041
-617.332	-130.992	-0.362	-0.048
-616.317	-74.889	-0.345	-0.123
-615.303	-39.129	0.106	-0.055
-614.288	77.813	-0.293	0.311
-613.273	-200.000	0.012	-0.089
-612.259	21.371	0.220	0.178
-611.244	158.107	0.180	-0.249
-610.230	201.015	0.109	-0.168
-609.215	-99.893	0.175	-0.044
-608.201	290.689	0.163	0.295
-607.186	66.771	0.086	0.087
-606.171	114.224	-0.272	-0.331
-605.157	340.869	-0.025	0.049
-604.142	322.670	0.010	-0.018
-603.128	89.692	0.328	-0.366
-602.113	-84.330	-0.198	-0.062
-601.098	-200.000	0.002	0.024
-600.084	406.790	-0.086	0.181
-599.069	28.617	0.207	-0.175
-598.055	-139.350	-0.109	-0.012
-597.040	64.804	-0.080	0.080
-596.025	-157.147	0.233	0.014
-595.011	-30.629	0.032	-0.018
-593.996	364.030	-0.130	0.261
-592.982	39.793	-0.491	0.439
-591.967	-5.282	-0.132	0.090
-590.952	-99.154	-0.072	0.018
-589.938	47.382	-0.377	-0.350
-588.923	800.000	-0.068	-0.194
-587.909	13.139	-0.075	0.058
-586.894	-77.053	-0.291	-0.101
-585.879	-185.432	-0.239	-0.004
-584.865	378.732	0.034	0.069
-583.850	8.053	-0.132	0.099
-582.836	12.356	-0.227	0.174
-581.821	800.000	0.075	-0.255
-580.806	262.918	0.063	-0.109
-579.792	-105.919	-0.435	0.098
-578.777	-110.326	0.238	0.049
-577.763	87.432	0.283	-0.313
-576.748	54.588	-0.176	-0.169
-575.733	-118.774	-0.229	0.040
-574.719	-200.000	-0.024	0.104
-573.704	-110.743	0.498	-0.102
-572.690	800.000	-0.084	-0.242
-571.675	119.693	-0.032	0.040
-570.661	-46.487	0.130	0.063
-569.646	417.058	-0.099	-0.211
-568.631	-200.000	0.048	-0.239
-567.617	-164.465	-0.442	0.020
-566.602	509.211	-0.066	-0.154
-565.588	-77.837	-0.069	0.024
-564.573	-108.996	0.092	-0.019
-563.558	-200.000	0.233	0.000
-562.544	-200.000	0.045	0.229
-561.529	87.358	-0.104	0.114
-560.515	-91.240	-0.121	0.035
-559.500	153.048	0.206	-0.281
-558.485	-11.472	0.145	-0.095
-557.471	-142.266	0.219	0.022
-556.456	-63.202	0.343	0.141
-555.442	132.447	0.105	-0.135
-554.427	-200.000	0.029	0.197
-553.412	-200.000	-0.004	-0.050
-552.398	-134.447	-0.281	0.034
-551.383	-166.548	0.284	0.012
-550.369	47.802	-0.127	0.118
-549.354	-46.813	0.200	-0.098
-548.339	-43.910	-0.252	0.126
-547.325	5.094	0.079	0.058
-546.310	335.442	0.063	-0.122
-545.296	-84.413	0.097	-0.030
-544.281	502.939	-0.080	0.183
-543.266	4.461	0.248	-0.181
-542.252	601.296	-0.101	-0.250
-541.237	-54.751	-0.200	-0.090
-540.223	-200.000	0.046	0.267
-539.208	155.426	-0.108	0.148
-538.193	82.266	0.056	0.060
-537.179	-200.000	-0.004	-0.056
-536.164	-40.352	0.192	0.099
-535.150	-200.000	0.002	0.082
-534.135	-23.722	0.208	-0.124
-533.121	-78.187	-0.242	-0.083
-532.106	70.336	0.110	-0.113
-531.091	-200.000	-0.044	-0.253
-530.077	-189.926	-0.098	-0.001
-529.062	186.640	-0.103	-0.152
-528.048	97.040	0.170	-0.193
-527.033	-99.021	-0.294	-0.074
-526.018	-200.000	-0.003	0.154
-525.004	800.000	-0.103	-0.291
-523.989	265.066	0.077	0.134
-522.975	251.885	0.150	0.253
-521.960	-171.565	0.303	-0.010
-520.945	-138.858	-0.535	-0.058
-519.931	-117.218	0.103	-0.019
-518.916	56.541	0.125	-0.121
-517.902	358.070	0.115	-0.229
-516.887	-107.555	0.206	-0.045
-515.872	-133.583	-0.103	-0.013
-514.858	232.422	-0.126	0.206
-513.843	-43.533	0.220	-0.110
-512.829	89.436	0.156	-0.173
-511.814	-200.000	-0.027	0.170
-510.799	-124.513	0.249	-0.038
-509.785	-193.234	0.417	0.004
-508.770	-7.076	-0.347	-0.234
-507.756	61.917	0.409	0.405
-506.741	397.983	-0.037	0.076
-505.726	-29.088	0.352	-0.201
-504.712	-75.896	-0.204	-0.072
-503.697	104.280	0.057	0.067
-502.683	-200.000	0.001	-0.281
-501.668	-67.760	-0.210	-0.082
-500.653	146.300	0.169	0.226
-499.639	-200.000	-0.014	0.148
-498.624	-62.781	0.371	0.153
-497.610	78.995	-0.256	0.272
-496.595	-200.000	0.014	0.140
-495.581	491.920	0.096	-0.218
-494.566	-121.416	0.034	0.006
-493.551	-5.050	-0.156	-0.107
-492.537	-63.371	0.324	0.132
-491.522	29.502	0.163	0.138
-490.508	-62.032	-0.189	0.079
-489.493	-120.569	0.616	-0.104
-488.478	-14.396	0.072	0.046
-487.464	123.815	0.217	-0.271
-486.449	-170.237	0.023	0.001
-485.435	61.475	-0.198	-0.195
-484.420	-129.694	-0.227	0.031
-483.405	-5.501	0.243	-0.166
-482.391	800.000	0.070	0.227
-481.376	188.923	-0.141	0.210
-480.362	-200.000	0.030	-0.135
-479.347	60.498	-0.172	-0.169
-478.332	89.012	0.103	-0.114
-477.318	-12.265	0.147	-0.096
-476.303	-105.191	-0.346	0.079
-475.289	-200.000	-0.019	-0.161
-474.274	-91.294	0.147	-0.042
-473.259	317.249	-0.067	0.126
-472.245	695.884	0.100	-0.261
-471.230	-200.000	-0.028	0.180
-470.216	182.042	-0.141	-0.207
-469.201	218.562	-0.143	0.227
-468.186	800.000	0.103	0.289
-467.172	-91.267	-0.109	-0.031
-466.157	-200.000	-0.025	0.269
-465.143	130.212	0.093	-0.118
-464.128	-100.419	-0.291	-0.071
-463.113	14.907	0.314	-0.244
-462.099	439.004	0.061	0.131
-461.084	-89.093	0.200	-0.059
-460.070	274.222	0.051	0.090
-459.055	-188.295	-0.232	0.003
-458.040	-160.329	-0.135	-0.007
-457.026	167.575	0.160	0.226
-456.011	-200.000	0.065	0.382
-454.997	34.737	-0.169	0.147
-453.982	206.275	-0.105	0.162
-452.968	462.988	0.084	0.186
-451.953	202.004	-0.166	-0.253
-450.938	-113.560	0.348	-0.068
-449.924	-161.087	0.313	0.016
-448.909	135.303	-0.231	0.298
-447.895	-200.000	-0.079	0.365
-446.880	22.212	0.334	-0.271
-445.865	800.000	0.115	-0.327
-444.851	21.422	0.235	-0.190
-443.836	39.798	-0.231	0.205
-442.822	-82.680	-0.085	0.027
-441.807	800.000	0.056	0.164
-440.792	4.645	-0.187	-0.136
-439.778	359.072	0.003	-0.007
-438.763	-200.000	-0.035	0.271
-437.749	243.787	0.173	0.288
-436.734	327.220	0.125	-0.237
-435.719	32.671	0.110	0.094
-434.705	-200.000	0.011	-0.395
-433.690	800.000	0.058	0.209
-432.676	-200.000	0.027	0.391
-431.661	106.298	0.014	0.017
-430.646	-144.536	-0.190	-0.017
-429.632	-200.000	0.043	-0.256
-428.617	800.000	-0.077	0.239
-427.603	-96.719	-0.133	0.035
-426.588	-174.722	0.215	0.006
-425.573	141.065	0.100	0.131
-424.559	-188.668	-0.187	-0.002
-423.544	-107.731	-0.331	0.072
-422.530	-71.034	-0.195	0.073
-421.515	48.796	0.044	0.041
-420.500	-12.145	-0.203	0.131
-419.486	-168.316	-0.250	0.010
-418.471	107.349	0.164	0.194
-417.457	189.204	0.126	-0.187
-416.442	242.052	-0.138	-0.228
-415.428	275.648	0.188	0.330
-414.413	392.096	-0.140	0.287
-413.398	-35.973	0.266	-0.142
-412.384	-22.903	0.108	-0.064
-411.369	-200.000	-0.017	0.135
-410.355	-39.533	0.056	-0.029
-409.340	-75.342	0.508	0.179
-408.325	-164.203	0.112	-0.005
-407.311	105.010	-0.020	-0.024
-406.296	-131.779	-0.334	-0.043
-405.282	-36.260	0.185	-0.099
-404.267	-132.600	-0.219	0.028
-403.252	-102.195	0.303	-0.072
-402.238	-166.935	-0.086	0.004
-401.223	15.250	-0.050	-0.038
-400.209	-88.060	0.164	-0.049
-399.194	-25.070	-0.190	-0.111
-398.179	-200.000	-0.008	0.145
-397.165	-102.579	-0.259	-0.061
-396.150	-200.000	-0.074	-0.396
-395.136	38.478	0.146	0.128
-394.121	116.145	0.139	0.169
-393.106	800.000	0.090	-0.379
-392.092	-83.363	-0.277	-0.088
-391.077	800.000	-0.027	0.082
-390.063	-200.000	0.023	-0.110
-389.048	53.402	0.186	-0.176
-388.033	174.615	0.197	0.282
-387.019	36.012	0.189	-0.164
-386.004	-200.000	-0.019	-0.120
-384.990	-122.150	0.140	-0.023
-383.975	-31.527	0.267	0.148
-382.960	-9.889	-0.515	-0.338
-381.946	-111.644	0.063	0.013
-380.931	-104.468	-0.180	0.041
-379.917	95.358	0.021	0.024
-378.902	-102.144	-0.098	0.023
-377.888	-200.000	-0.070	-0.354
-376.873	519.338	0.169	-0.392
-375.858	-42.211	0.249	0.126
-374.844	800.000	-0.084	0.260
-373.829	239.720	-0.049	0.080
-372.815	384.984	0.167	0.341
-371.800	93.583	0.045	0.050
-370.785	-200.000	-0.026	0.478
-369.771	-71.032	0.220	-0.082
-368.756	83.067	0.187	-0.201
-367.742	-200.000	-0.017	0.077
-366.727	384.759	0.042	0.086
-365.712	296.033	0.126	0.228
-364.698	-200.000	-0.024	-0.151
-363.683	25.204	0.144	-0.118
-362.669	297.396	-0.110	0.199
-361.654	-7.672	0.150	0.100
-360.639	-5.746	-0.060	0.041
-359.625	398.567	0.019	-0.040
-358.610	132.677	-0.102	0.130
-357.596	172.350	-0.090	0.127
-356.581	800.000	-0.063	0.198
-355.566	-200.000	0.003	0.238
-354.552	11.611	0.074	0.056
-353.537	-200.000	0.005	-0.106
-352.523	-68.548	0.405	-0.155
-351.508	370.372	0.093	-0.186
-350.493	184.666	-0.077	0.113
-349.479	-66.089	-0.120	-0.047
-348.464	342.479	-0.113	0.219
-347.450	53.626	0.194	-0.184
-346.435	-46.515	0.293	-0.142
-345.420	210.422	-0.090	0.140
-344.406	-101.111	0.155	-0.037
-343.391	72.448	0.054	-0.056
-342.377	-200.000	-0.019	0.230
-341.362	152.962	-0.089	0.120
-340.348	800.000	0.018	0.059
-339.333	-200.000	-0.028	0.224
-338.318	-130.781	-0.167	-0.022
-337.304	-49.757	-0.181	-0.085
-336.289	-71.870	0.444	0.163
-335.275	176.053	-0.205	-0.294
-334.260	-97.608	0.150	0.038
-333.245	-200.000	-0.003	-0.039
-332.231	80.894	-0.190	0.203
-331.216	800.000	0.088	0.290
-330.202	-145.644	0.297	0.026
-329.187	-77.550	-0.454	-0.155
-328.172	-124.062	-0.397	-0.061
-327.158	738.606	0.131	0.346
-326.143	9.536	0.089	0.066
-325.129	-164.988	0.038	-0.002
-324.114	-37.035	-0.123	0.065
-323.099	800.000	0.057	0.217
-322.085	-67.242	0.109	-0.042
-321.070	29.704	0.313	-0.263
-320.056	800.000	0.011	-0.039
-319.041	800.000	0.117	0.367
-318.026	-200.000	-0.064	0.473
-317.012	-115.936	-0.106	0.020
-315.997	424.791	-0.008	0.017
-314.983	-80.840	-0.314	-0.103
-313.968	-200.000	-0.027	0.170
-312.953	5.968	-0.096	-0.070
-311.939	-103.267	-0.328	-0.076
-310.924	800.000	-0.082	-0.251
-309.910	68.403	0.028	0.028
-308.895	105.002	0.048	-0.056
-307.880	-159.433	0.082	-0.005
-306.866	-107.998	-0.156	0.033
-305.851	-123.423	-0.546	0.086
-304.837	-67.790	-0.048	-0.019
-303.822	-24.472	-0.333	0.195
-302.807	282.712	0.010	-0.018
-301.793	-16.135	-0.204	-0.128
-300.778	-200.000	0.056	-0.281
-299.764	-189.186	-0.222	-0.003
-298.749	190.369	-0.155	-0.230
-297.735	141.663	0.197	0.257
-296.720	-93.977	-0.247	0.067
-295.705	533.283	0.136	0.317
-294.691	-25.390	-0.390	0.227
-293.676	135.895	0.241	-0.310
-292.662	185.271	0.097	0.142
-291.647	-14.112	0.069	-0.044
-290.632	-200.000	-0.024	-0.221
-289.618	-107.206	0.117	-0.025
-288.603	-40.192	0.226	0.116
-287.589	-96.588	0.181	-0.047
-286.574	800.000	0.143	0.435
-285.559	32.465	0.148	0.126
-284.545	-5.782	-0.096	0.064
-283.530	-200.000	-0.052	-0.318
-282.516	344.999	0.202	-0.391
-281.501	800.000	-0.025	-0.090
-280.486	344.816	-0.191	-0.370
-279.472	-200.000	-0.056	-0.261
-278.457	6.220	0.056	-0.041
-277.443	-12.052	0.168	-0.108
-276.428	38.839	-0.060	-0.053
-275.413	-34.344	0.217	-0.117
-274.399	-200.000	-0.017	-0.283
-273.384	33.772	-0.006	-0.005
-272.370	-92.339	0.286	0.079
-271.355	800.000	0.044	0.156
-270.340	-11.016	-0.328	0.213
-269.326	-200.000	-0.049	0.306
-268.311	-6.000	0.124	0.084
-267.297	-200.000	-0.102	0.547
-266.282	-170.642	0.171	-0.006
-265.267	-141.963	-0.179	-0.018
-264.253	-200.000	0.025	-0.344
-263.238	275.159	-0.016	-0.028
-262.224	-142.279	0.123	0.012
-261.209	277.143	-0.080	0.141
-260.195	-200.000	-0.059	0.417
-259.180	-89.893	0.151	-0.043
-258.165	-200.000	-0.007	-0.272
-257.151	-183.685	0.190	-0.003
-256.136	-15.845	0.189	0.118
-255.122	292.509	0.134	0.240
-254.107	-137.820	0.112	-0.012
-253.092	46.156	-0.057	-0.052
-252.078	-33.250	-0.203	-0.111
-251.063	732.377	0.104	-0.274
-250.049	-46.930	-0.213	-0.102
-249.034	-17.238	0.262	-0.162
-248.019	89.332	-0.180	-0.198
-247.005	74.854	-0.158	0.164
-245.990	43.175	-0.210	0.188
-244.976	-109.455	0.259	-0.054
-243.961	7.535	-0.280	0.206
-242.946	-200.000	0.057	-0.387
-241.932	-90.691	0.166	-0.047
-240.917	22.438	-0.227	-0.182
-239.903	800.000	-0.044	0.157
-238.888	-110.862	-0.104	0.021
-237.873	-200.000	-0.008	0.105
-236.859	-71.704	-0.198	-0.073
-235.844	-200.000	0.061	-0.295
-234.830	-108.288	-0.242	0.051
-233.815	-200.000	-0.017	-0.077
-232.800	28.892	-0.139	-0.116
-231.786	-75.169	-0.333	-0.117
-230.771	-147.817	0.221	-0.018
-229.757	24.837	-0.175	0.142
-228.742	-200.000	-0.025	-0.207
-227.727	-200.000	-0.045	0.224
-226.713	-8.457	-0.217	0.143
-225.698	289.599	-0.281	0.502
-224.684	-133.725	-0.290	0.036
-223.669	800.000	0.029	0.096
-222.655	-200.000	-0.041	-0.315
-221.640	-73.644	0.206	-0.074
-220.625	50.420	-0.148	0.138
-219.611	139.207	0.095	0.123
-218.596	-66.716	-0.407	-0.158
-217.582	-6.305	-0.216	0.145
-216.567	-165.742	0.338	-0.014
-215.552	-16.600	-0.184	0.114
-214.538	-48.904	-0.403	-0.190
-213.523	-131.284	-0.055	0.007
-212.509	-57.362	-0.297	0.128
-211.494	-124.676	-0.195	0.030
-210.479	-200.000	0.011	-0.228
-209.465	-200.000	-0.047	-0.284
-208.450	-91.557	-0.344	0.096
-207.436	-98.644	-0.239	-0.060
-206.421	233.990	-0.139	0.224
-205.406	-85.377	0.351	-0.108
-204.392	-13.759	0.027	-0.017
-203.377	275.315	-0.086	-0.151
-202.363	77.257	0.108	0.113
-201.348	-200.000	0.023	0.281
-200.333	252.322	0.093	-0.156
-199.319	-87.483	0.244	-0.072
-198.304	-3.573	0.388	0.265
-197.290	800.000	-0.143	0.389
-196.275	-135.538	-0.102	-0.012
-195.260	556.282	-0.012	-0.028
-194.246	-140.459	0.263	0.027
-193.231	394.871	0.071	0.146
-192.217	-103.644	0.468	0.108
-191.202	-25.225	-0.107	-0.062
-190.187	207.241	-0.095	0.146
-189.173	-11.338	-0.145	-0.094
-188.158	-200.000	0.060	0.304
-187.144	392.927	-0.130	0.266
-186.129	663.368	-0.075	0.190
-185.114	-200.000	0.009	-0.062
-184.100	-153.452	-0.097	-0.007
-183.085	-200.000	0.067	-0.540
-182.071	289.493	-0.219	-0.390
-181.056	800.000	0.062	0.175
-180.042	-0.649	-0.126	0.088
-179.027	-154.763	0.238	-0.015
-178.012	18.927	0.187	-0.147
-176.998	-98.764	0.298	-0.074
-175.983	-6.648	-0.078	-0.052
-174.969	-105.462	-0.153	0.034
-173.954	122.884	0.061	0.074
-172.939	78.937	0.184	-0.193
-171.925	59.898	0.071	0.069
-170.910	-86.367	0.218	0.066
-169.896	-200.000	0.074	-0.341
-168.881	-46.666	-0.163	0.078
-167.866	-200.000	-0.048	-0.247
-166.852	63.198	-0.133	0.131
-165.837	-171.241	-0.128	-0.004
-164.823	407.106	-0.075	-0.155
-163.808	-200.000	-0.044	-0.196
-162.793	-73.117	-0.210	-0.075
-161.779	800.000	0.065	-0.211
-160.764	-15.296	-0.298	-0.187
-159.750	-200.000	0.028	0.357
-158.735	-36.863	-0.276	-0.145
-157.720	-39.527	0.313	-0.161
-156.706	45.653	0.214	0.194
-155.691	351.601	0.026	0.051
-154.677	-200.000	-0.052	-0.270
-153.662	-200.000	-0.016	-0.104
-152.647	-115.234	0.184	0.034
-151.633	-151.879	0.381	-0.027
-150.618	273.776	0.064	-0.112
-149.604	-200.000	0.011	0.118
-148.589	687.093	0.092	0.236
-147.574	479.317	0.044	-0.097
-146.560	-200.000	0.056	-0.254
-145.545	-59.474	-0.205	0.086
-144.531	800.000	0.059	0.176
-143.516	178.819	0.121	0.174
-142.502	-144.390	0.263	-0.024
-141.487	-32.918	0.308	-0.168
-140.472	683.884	0.070	-0.178
-139.458	272.372	0.042	0.072
-138.443	-105.552	0.060	-0.013
-137.429	738.777	0.026	-0.068
-136.414	-200.000	-0.028	0.289
-135.399	-139.873	0.268	-0.028
-134.385	173.834	-0.121	0.171
-133.370	-107.795	-0.307	0.065
-132.356	-12.227	0.079	0.051
-131.341	-28.890	-0.153	0.086
-130.326	-200.000	-0.009	0.144
-129.312	-99.915	0.214	-0.052
-128.297	-76.163	-0.044	-0.015
-127.283	153.148	0.020	0.026
-126.268	18.495	-0.390	0.305
-125.253	126.891	0.304	-0.377
-124.239	-155.274	0.150	-0.010
-123.224	196.717	-0.113	0.169
-122.210	-160.691	-0.056	0.003
