DTS Sentinel unit serial number:	SN413079Multiplexer serial number:	ORYXHardware model number:	OX4-SRSoftware version number:	ORYX F/W v4.00 Oryx Data Collector v3.7.2.0data status	okinstallation	princeton_trtdifferential loss correction	single-endedforward channel	channel 3reverse channel	N/Adate	2019/09/18time	08:52:35forward acquisition time	60.00reverse acquisition time	0.00gamma	496.2192k internal	0.2340k external	0.2340temperature offset calibration	0.9949default loss term (dB/km)	0.3790temperature slope calibration	1.0000multiplexer offset coefficient	1.0000multiplexer slope coefficient	1.0000fibre end	0.00T internal ref (°C)	24.84T ext. ref 1 (°C)	0.23T ext. ref 2 (°C)	20.91length (m)	temperature (°C)	Stokes	anti-Stokes-747.200	338.345	0.116	-0.226
-746.185	662.367	-0.071	0.183
-745.171	-200.000	0.002	0.044
-744.156	-12.085	-0.237	0.155
-743.142	-200.000	-0.080	0.486
-742.127	-101.164	0.092	-0.022
-741.112	188.817	0.031	0.047
-740.098	-200.000	0.004	0.160
-739.083	-36.202	0.100	-0.054
-738.069	-200.000	0.035	0.191
-737.054	131.558	-0.074	-0.095
-736.039	243.309	-0.228	-0.384
-735.025	-56.264	0.310	0.138
-734.010	800.000	-0.094	-0.269
-732.996	800.000	-0.044	-0.189
-731.981	683.793	-0.181	-0.472
-730.966	58.362	-0.236	0.232
-729.952	800.000	0.085	0.271
-728.937	-92.277	0.100	-0.028
-727.923	-7.605	0.110	-0.074
-726.908	-129.281	0.266	-0.037
-725.894	306.816	0.059	-0.111
-724.879	93.137	0.167	-0.189
-723.864	97.800	-0.271	-0.312
-722.850	146.895	0.117	0.157
-721.835	-12.607	0.516	-0.337
-720.821	-78.963	0.088	-0.030
-719.806	-104.334	-0.189	-0.044
-718.791	-131.033	-0.165	-0.022
-717.777	-200.000	-0.010	0.056
-716.762	136.220	-0.034	0.044
-715.748	800.000	-0.115	-0.369
-714.733	-62.535	-0.495	0.206
-713.718	321.860	-0.086	-0.165
-712.704	-59.797	0.270	0.116
-711.689	-188.479	0.222	0.003
-710.675	-80.642	0.078	0.026
-709.660	800.000	-0.035	0.132
-708.645	-200.000	-0.042	-0.209
-707.631	214.612	-0.202	0.320
-706.616	-200.000	-0.306	-0.001
-705.602	27.671	0.160	-0.135
-704.587	-200.000	-0.050	0.330
-703.572	-200.000	0.013	-0.235
-702.558	136.778	0.243	-0.318
-701.543	30.259	-0.246	-0.210
-700.529	-200.000	-0.060	-0.351
-699.514	7.116	-0.284	-0.212
-698.499	497.723	0.137	-0.316
-697.485	-200.000	0.030	-0.320
-696.470	-133.909	0.064	0.008
-695.456	-10.446	-0.143	0.095
-694.441	43.914	0.287	-0.263
-693.426	-121.217	0.199	-0.033
-692.412	-133.065	-0.108	0.014
-691.397	800.000	-0.006	-0.023
-690.383	478.604	0.139	-0.315
-689.368	2.484	-0.044	0.032
-688.354	-79.945	0.281	-0.094
-687.339	-98.890	-0.192	0.049
-686.324	93.268	0.191	-0.216
-685.310	-200.000	-0.012	-0.549
-684.295	-129.175	0.194	0.027
-683.281	-13.257	0.149	-0.097
-682.266	55.454	0.073	-0.071
-681.251	-153.078	-0.191	-0.013
-680.237	351.862	-0.056	-0.111
-679.222	800.000	0.081	0.278
-678.208	-200.000	0.057	-0.287
-677.193	183.210	0.134	0.199
-676.178	-200.000	-0.019	0.101
-675.164	53.556	0.103	0.099
-674.149	136.525	-0.167	-0.218
-673.135	-200.000	0.019	-0.094
-672.120	-200.000	-0.306	0.000
-671.105	452.386	-0.081	-0.178
-670.091	-139.147	0.173	-0.019
-669.076	-200.000	0.009	-0.110
-668.062	-47.616	0.337	0.164
-667.047	281.043	-0.073	-0.131
-666.032	524.307	0.203	0.478
-665.018	-100.462	-0.093	0.023
-664.003	285.321	-0.145	-0.261
-662.989	-200.000	-0.052	-0.242
-661.974	396.622	-0.040	0.084
-660.959	123.402	-0.195	0.244
-659.945	-67.740	-0.079	0.031
-658.930	-123.861	-0.108	-0.017
-657.916	-83.995	-0.251	0.080
-656.901	84.687	0.050	-0.054
-655.886	61.666	-0.088	0.088
-654.872	-110.745	-0.231	0.048
-653.857	-114.824	-0.213	0.041
-652.843	359.626	0.043	-0.086
-651.828	288.905	-0.060	-0.109
-650.814	-71.593	0.191	-0.071
-649.799	25.815	0.101	-0.084
-648.784	226.757	-0.110	-0.179
-647.770	-200.000	0.041	0.211
-646.755	800.000	0.016	-0.069
-645.741	-200.000	0.013	0.164
-644.726	34.682	-0.148	-0.129
-643.711	-15.419	-0.085	-0.054
-642.697	-200.000	0.033	-0.152
-641.682	-59.644	0.119	-0.051
-640.668	-169.784	-0.063	-0.002
-639.653	800.000	-0.105	-0.456
-638.638	-200.000	-0.016	-0.213
-637.624	-105.005	-0.099	0.023
-636.609	-9.175	0.302	-0.202
-635.595	800.000	0.119	-0.331
-634.580	800.000	0.009	0.033
-633.565	-0.055	0.245	-0.174
-632.551	-200.000	0.010	-0.136
-631.536	-136.007	-0.405	0.048
-630.522	303.012	-0.080	-0.148
-629.507	42.681	-0.337	-0.307
-628.492	-165.256	0.228	0.010
-627.478	588.220	0.093	-0.227
-626.463	-75.725	-0.302	-0.107
-625.449	-135.235	0.234	0.028
-624.434	-117.457	0.270	0.049
-623.419	-47.439	0.106	0.051
-622.405	-175.751	-0.224	-0.006
-621.390	-200.000	-0.006	0.346
-620.376	95.924	-0.101	-0.115
-619.361	-200.000	0.016	-0.119
-618.346	-138.431	0.067	-0.007
-617.332	-142.942	-0.137	0.013
-616.317	-24.942	0.109	-0.064
-615.303	800.000	0.026	0.112
-614.288	-146.246	0.140	0.012
-613.273	119.347	0.206	-0.254
-612.259	-65.720	0.083	-0.033
-611.244	-147.460	-0.134	0.011
-610.230	25.600	0.128	-0.106
-609.215	-89.374	0.357	0.105
-608.201	-200.000	-0.001	0.009
-607.186	173.281	0.089	-0.128
-606.171	-181.215	-0.245	0.005
-605.157	262.051	-0.262	-0.454
-604.142	330.555	0.057	-0.110
-603.128	-200.000	-0.013	0.362
-602.113	-40.912	-0.319	-0.165
-601.098	-16.613	-0.309	-0.195
-600.084	800.000	-0.004	0.017
-599.069	407.824	-0.126	-0.266
-598.055	-200.000	-0.009	0.267
-597.040	17.964	0.120	-0.096
-596.025	0.963	-0.511	-0.365
-595.011	162.666	0.114	-0.160
-593.996	-200.000	0.004	0.108
-592.982	800.000	-0.092	-0.269
-591.967	352.054	0.101	0.199
-590.952	-22.178	0.403	0.244
-589.938	-200.000	-0.006	0.109
-588.923	40.021	0.153	0.137
-587.909	800.000	0.016	-0.055
-586.894	-114.367	-0.430	0.083
-585.879	-43.773	0.259	0.130
-584.865	326.384	-0.070	-0.133
-583.850	-143.575	0.233	0.022
-582.836	-74.043	0.165	-0.059
-581.821	-147.739	-0.152	-0.013
-580.806	477.519	0.093	-0.210
-579.792	545.802	-0.011	0.025
-578.777	-153.225	-0.207	0.014
-577.763	84.224	-0.004	0.005
-576.748	-27.409	-0.112	-0.065
-575.733	329.409	0.111	0.212
-574.719	-98.406	0.165	-0.042
-573.704	-200.000	0.010	-0.237
-572.690	110.049	-0.065	-0.078
-571.675	-49.882	0.285	0.135
-570.661	-108.253	-0.311	-0.067
-569.646	-138.833	-0.107	-0.012
-568.631	-91.887	-0.203	-0.057
-567.617	-113.169	-0.483	0.095
-566.602	99.440	-0.084	0.097
-565.588	398.141	-0.065	0.136
-564.573	-145.367	0.179	-0.016
-563.558	341.879	0.053	0.104
-562.544	19.719	0.361	0.289
-561.529	-56.621	0.278	-0.123
-560.515	-22.466	0.349	0.210
-559.500	-200.000	0.015	-0.090
-558.485	216.987	0.043	-0.069
-557.471	-135.582	0.446	0.053
-556.456	-4.925	0.130	0.089
-555.442	315.148	0.136	-0.255
-554.427	-101.386	-0.043	0.010
-553.412	-109.455	-0.215	0.045
-552.398	-200.000	-0.054	-0.310
-551.383	168.575	-0.152	-0.215
-550.369	-200.000	0.014	-0.127
-549.354	-73.534	-0.175	-0.064
-548.339	-55.485	0.159	-0.071
-547.325	-100.943	0.102	-0.025
-546.310	-200.000	0.001	0.229
-545.296	-49.708	0.095	0.045
-544.281	-119.541	-0.336	0.058
-543.266	-123.166	-0.188	0.030
-542.252	118.281	0.083	-0.102
-541.237	800.000	-0.028	-0.089
-540.223	-200.000	-0.025	-0.170
-539.208	685.863	0.129	-0.336
-538.193	18.591	0.213	0.170
-537.179	-126.483	-0.214	0.032
-536.164	800.000	-0.032	-0.126
-535.150	-38.741	-0.151	0.079
-534.135	-200.000	-0.012	0.248
-533.121	163.081	-0.116	-0.162
-532.106	129.457	-0.082	-0.104
-531.091	103.020	0.168	-0.196
-530.077	336.482	-0.165	0.319
-529.062	-200.000	-0.030	0.156
-528.048	-69.647	0.445	-0.169
-527.033	800.000	-0.064	-0.220
-526.018	390.166	0.066	0.135
-525.004	-200.000	-0.003	0.131
-523.989	28.392	-0.061	-0.052
-522.975	-11.170	-0.305	0.200
-521.960	-95.133	0.165	-0.044
-520.945	55.089	0.207	0.199
-519.931	237.781	-0.086	0.142
-518.916	-200.000	0.011	0.064
-517.902	-30.323	-0.217	-0.123
-516.887	25.098	-0.155	-0.128
-515.872	-88.470	0.196	0.058
-514.858	50.447	-0.105	-0.099
-513.843	116.846	-0.124	0.151
-512.829	800.000	0.081	0.292
-511.814	-200.000	-0.032	-0.297
-510.799	-109.123	-0.370	0.078
-509.785	135.944	0.024	0.031
-508.770	38.802	0.147	-0.130
-507.756	-200.000	0.011	0.379
-506.741	77.819	-0.094	-0.100
-505.726	591.556	-0.111	0.272
-504.712	332.456	0.098	0.188
-503.697	-62.383	0.266	0.110
-502.683	51.032	-0.067	0.063
-501.668	-25.122	0.138	-0.081
-500.653	235.219	-0.136	-0.223
-499.639	-200.000	0.050	0.285
-498.624	-80.394	0.139	-0.046
-497.610	-12.442	-0.126	-0.082
-496.595	-110.656	0.199	0.041
-495.581	-13.693	-0.114	0.074
-494.566	-200.000	0.020	-0.312
-493.551	-200.000	-0.002	0.150
-492.537	-177.015	-0.195	0.005
-491.522	-128.180	-0.228	-0.032
-490.508	233.480	-0.100	-0.164
-489.493	-200.000	0.005	-0.335
-488.478	160.577	0.185	0.256
-487.464	47.495	-0.180	0.166
-486.449	-200.000	0.018	-0.459
-485.435	374.787	0.050	-0.101
-484.420	-115.414	-0.243	-0.045
-483.405	-200.000	0.008	-0.059
-482.391	7.027	0.141	-0.104
-481.376	-200.000	-0.006	-0.259
-480.362	165.882	-0.135	-0.189
-479.347	-200.000	0.015	-0.087
-478.332	114.633	-0.148	-0.179
-477.318	198.638	0.152	0.231
-476.303	-30.402	0.290	0.163
-475.289	282.755	-0.192	-0.341
-474.274	-73.690	0.318	0.115
-473.259	-200.000	0.021	0.138
-472.245	65.241	-0.275	0.276
-471.230	105.021	-0.253	-0.296
-470.216	-106.386	-0.211	-0.047
-469.201	36.880	-0.236	0.207
-468.186	126.991	-0.222	-0.279
-467.172	-107.886	-0.085	0.018
-466.157	-200.000	-0.012	0.261
-465.143	84.882	0.279	0.303
-464.128	145.164	0.221	0.293
-463.113	51.082	-0.127	-0.120
-462.099	403.794	-0.017	-0.036
-461.084	-125.465	-0.369	0.056
-460.070	460.042	-0.105	-0.232
-459.055	-106.129	0.381	-0.085
-458.040	-51.466	-0.074	-0.034
-457.026	294.064	0.068	0.124
-456.011	-68.560	-0.106	-0.041
-454.997	32.502	-0.132	-0.113
-453.982	-122.931	-0.202	-0.032
-452.968	254.309	-0.084	-0.142
-451.953	-50.715	-0.146	0.068
-450.938	-25.125	-0.171	0.101
-449.924	-113.283	-0.340	0.066
-448.909	3.069	0.184	0.133
-447.895	-112.213	-0.259	-0.052
-446.880	-49.376	0.183	0.087
-445.865	-68.221	0.145	0.056
-444.851	-11.382	0.087	-0.057
-443.836	-71.108	0.101	-0.038
-442.822	800.000	-0.065	0.246
-441.807	22.759	0.323	0.263
-440.792	212.578	-0.105	-0.164
-439.778	-10.180	-0.163	-0.107
-438.763	240.565	0.164	0.271
-437.749	73.420	-0.170	-0.176
-436.734	-89.389	-0.266	0.078
-435.719	94.443	-0.207	0.233
-434.705	361.622	0.224	0.445
-433.690	-200.000	-0.047	0.388
-432.676	74.109	-0.089	0.093
-431.661	701.701	-0.042	0.110
-430.646	800.000	-0.040	0.115
-429.632	83.366	0.118	0.128
-428.617	-26.622	-0.051	-0.030
-427.603	-114.081	0.333	-0.064
-426.588	43.748	-0.210	-0.190
-425.573	-200.000	-0.012	0.093
-424.559	-40.204	-0.061	0.031
-423.544	255.065	-0.100	-0.170
-422.530	-40.685	0.250	-0.128
-421.515	-200.000	-0.085	0.000
-420.500	-154.724	-0.394	-0.026
-419.486	123.434	-0.143	0.178
-418.471	-28.745	-0.262	-0.149
-417.457	184.964	-0.111	-0.164
-416.442	168.893	0.053	0.074
-415.428	800.000	0.085	0.311
-414.413	204.920	0.135	-0.208
-413.398	-38.335	0.292	-0.153
-412.384	800.000	-0.066	-0.233
-411.369	-68.513	0.270	-0.104
-410.355	101.517	0.042	0.048
-409.340	354.464	0.149	-0.293
-408.325	-93.156	-0.162	-0.045
-407.311	-153.472	0.144	-0.010
-406.296	24.708	0.217	-0.178
-405.282	-99.328	-0.333	-0.083
-404.267	-200.000	-0.003	0.183
-403.252	-95.638	0.267	-0.071
-402.238	-100.452	-0.181	0.044
-401.223	79.221	0.039	0.041
-400.209	-58.207	-0.158	0.068
-399.194	-141.854	-0.225	0.022
-398.179	-160.360	0.223	0.012
-397.165	-140.956	-0.031	-0.003
-396.150	7.467	0.099	-0.073
-395.136	-67.410	-0.304	0.118
-394.121	-90.845	-0.308	-0.088
-393.106	-200.000	0.028	-0.142
-392.092	-111.660	0.431	-0.086
-391.077	-50.750	0.093	0.043
-390.063	-54.870	0.094	0.042
-389.048	-70.556	0.086	-0.032
-388.033	-106.522	0.244	0.054
-387.019	502.751	0.152	-0.348
-386.004	-107.721	-0.236	-0.051
-384.990	-200.000	0.001	0.147
-383.975	-98.947	0.100	-0.025
-382.960	-58.087	0.155	-0.067
-381.946	-172.410	0.412	-0.013
-380.931	468.510	-0.042	-0.092
-379.917	-200.000	0.004	-0.037
-378.902	-160.556	-0.418	0.022
-377.888	38.878	-0.211	0.186
-376.873	-200.000	0.027	-0.127
-375.858	136.420	-0.144	0.185
-374.844	-134.662	-0.333	0.040
-373.829	-63.896	-0.234	0.095
-372.815	800.000	-0.074	-0.221
-371.800	800.000	0.026	-0.111
-370.785	129.551	0.282	0.356
-369.771	-78.032	-0.290	-0.099
-368.756	-200.000	-0.007	-0.131
-367.742	-108.062	-0.173	-0.037
-366.727	-162.331	0.360	-0.018
-365.712	-33.917	0.029	0.016
-364.698	-145.103	0.436	0.039
-363.683	-200.000	-0.012	-0.121
-362.669	261.504	-0.067	-0.114
-361.654	800.000	-0.008	-0.027
-360.639	-200.000	-0.022	0.308
-359.625	-65.445	-0.132	0.052
-358.610	-200.000	0.028	-0.130
-357.596	4.375	-0.357	-0.259
-356.581	256.675	-0.124	0.210
-355.566	-59.296	-0.170	0.072
-354.552	800.000	-0.079	0.341
-353.537	-200.000	-0.013	0.162
-352.523	800.000	-0.052	0.214
-351.508	295.893	-0.166	-0.301
-350.493	-83.545	-0.332	-0.105
-349.479	-0.647	-0.069	-0.049
-348.464	78.206	-0.068	0.072
-347.450	-200.000	0.025	0.000
-346.435	-96.656	0.380	-0.099
-345.420	-57.407	-0.056	-0.024
-344.406	-200.000	0.026	-0.175
-343.391	6.012	0.176	-0.128
-342.377	258.184	0.092	-0.157
-341.362	-21.624	0.150	0.090
-340.348	-17.625	0.148	0.092
-339.333	476.763	-0.121	0.270
-338.318	-109.845	0.387	-0.080
-337.304	136.450	0.183	-0.235
-336.289	101.287	-0.146	0.168
-335.275	561.801	0.162	0.387
-334.260	-200.000	-0.039	0.266
-333.245	-154.266	0.183	-0.012
-332.231	-39.590	-0.075	-0.039
-331.216	285.939	0.012	0.021
-330.202	-200.000	0.003	0.022
-329.187	147.769	0.191	-0.254
-328.172	39.805	0.310	-0.275
-327.158	-90.552	-0.183	-0.052
-326.143	366.912	-0.055	0.110
-325.129	-165.500	0.317	0.014
-324.114	-200.000	-0.005	-0.106
-323.099	-92.049	-0.205	-0.057
-322.085	-56.841	-0.202	-0.088
-321.070	-39.352	0.260	0.135
-320.056	46.560	-0.133	-0.121
-319.041	800.000	-0.113	0.477
-318.026	-98.189	0.518	-0.131
-317.012	-200.000	-0.029	0.650
-315.997	-93.867	-0.253	-0.069
-314.983	-200.000	0.008	0.228
-313.968	-200.000	-0.010	0.371
-312.953	-120.555	0.035	-0.006
-311.939	-200.000	0.497	-0.000
-310.924	150.223	-0.201	0.269
-309.910	-82.391	-0.276	0.088
-308.895	201.343	-0.200	-0.303
-307.880	-75.700	-0.389	0.136
-306.866	15.503	-0.184	0.143
-305.851	800.000	0.033	-0.121
-304.837	75.378	-0.092	0.096
-303.822	-62.315	-0.345	0.142
-302.807	-200.000	0.026	0.114
-301.793	151.729	-0.060	-0.081
-300.778	-0.504	0.101	0.071
-299.764	-139.182	0.182	-0.019
-298.749	522.177	0.058	0.134
-297.735	355.260	0.093	0.183
-296.720	-49.934	0.369	-0.172
-295.705	137.021	0.229	0.294
-294.691	104.267	-0.087	-0.101
-293.676	-200.000	-0.037	0.296
-292.662	222.157	-0.273	0.433
-291.647	-200.000	0.048	0.372
-290.632	-49.943	-0.154	-0.072
-289.618	-101.173	-0.024	-0.006
-288.603	-200.000	0.017	-0.173
-287.589	-60.770	-0.115	0.048
-286.574	24.286	-0.154	0.125
-285.559	370.475	0.117	0.233
-284.545	58.421	-0.390	-0.377
-283.530	-16.912	0.120	0.075
-282.516	-36.357	-0.207	0.110
-281.501	-105.403	0.255	-0.057
-280.486	-200.000	0.001	0.138
-279.472	516.094	0.120	-0.276
-278.457	320.930	-0.057	0.106
-277.443	800.000	0.024	0.071
-276.428	800.000	0.031	0.122
-275.413	245.211	-0.174	0.289
-274.399	-82.914	-0.230	-0.073
-273.384	-200.000	0.021	-0.258
-272.370	-200.000	-0.030	-0.158
-271.355	42.366	0.128	-0.114
-270.340	-139.783	0.289	0.030
-269.326	696.196	-0.034	-0.087
-268.311	513.124	0.082	0.189
-267.297	-10.792	-0.209	-0.136
-266.282	-167.837	0.187	0.007
-265.267	-200.000	0.035	-0.330
-264.253	413.178	0.078	0.162
-263.238	195.007	0.207	0.309
-262.224	257.188	-0.062	0.105
-261.209	-182.261	-0.475	0.009
-260.195	-10.073	-0.155	0.101
-259.180	130.099	0.192	-0.241
-258.165	-144.685	-0.161	-0.015
-257.151	-200.000	-0.003	0.051
-256.136	800.000	0.133	-0.417
-255.122	626.778	0.049	0.123
-254.107	512.367	0.171	-0.392
-253.092	425.693	0.065	0.137
-252.078	-200.000	-0.055	-0.258
-251.063	232.042	-0.284	-0.459
-250.049	236.299	-0.179	0.292
-249.034	-200.000	-0.027	0.164
-248.019	83.545	0.074	0.080
-247.005	-9.453	-0.125	0.082
-245.990	187.221	-0.321	-0.471
-244.976	-200.000	0.004	-0.035
-243.961	-44.498	-0.120	0.059
-242.946	555.181	0.100	0.236
-241.932	137.475	0.127	-0.164
-240.917	-85.308	0.181	0.056
-239.903	800.000	0.049	-0.206
-238.888	-126.137	0.369	0.054
-237.873	-46.872	-0.038	-0.018
-236.859	-125.601	0.207	-0.031
-235.844	79.862	-0.254	0.268
-234.830	168.213	0.135	0.189
-233.815	-65.874	0.252	-0.099
-232.800	255.635	-0.163	-0.275
-231.786	207.217	0.239	0.367
-230.771	-200.000	-0.011	0.279
-229.757	-30.738	0.332	0.184
-228.742	-200.000	0.063	0.324
-227.727	-25.919	-0.062	0.036
-226.713	800.000	-0.073	-0.229
-225.698	-11.626	-0.163	0.105
-224.684	-54.647	-0.145	-0.064
-223.669	-96.122	0.418	-0.109
-222.655	373.471	-0.069	-0.137
-221.640	91.332	0.215	0.237
-220.625	1.420	0.351	0.248
-219.611	-99.918	0.084	-0.021
-218.596	800.000	0.094	-0.288
-217.582	119.953	0.120	0.146
-216.567	800.000	0.054	0.173
-215.552	32.857	-0.200	-0.170
-214.538	-200.000	-0.011	0.133
-213.523	800.000	0.063	0.225
-212.509	-200.000	0.026	0.283
-211.494	-167.009	0.285	0.011
-210.479	130.220	0.097	0.122
-209.465	-200.000	-0.049	-0.324
-208.450	-200.000	-0.012	-0.070
-207.436	-68.276	-0.071	0.027
-206.421	-16.781	0.050	-0.031
-205.406	158.919	0.230	0.314
-204.392	-94.662	-0.112	0.030
-203.377	-200.000	-0.028	-0.274
-202.363	-154.538	0.107	-0.007
-201.348	-200.000	-0.023	0.405
-200.333	-14.334	-0.111	-0.070
-199.319	-200.000	-0.026	-0.269
-198.304	-161.807	-0.290	-0.014
-197.290	-69.629	0.365	0.137
-196.275	71.859	0.104	-0.106
-195.260	-65.245	0.152	-0.060
-194.246	422.487	0.025	0.052
-193.231	52.615	0.343	-0.321
-192.217	-7.434	0.122	0.081
-191.202	-65.796	0.274	-0.108
-190.187	195.447	0.149	-0.222
-189.173	70.941	-0.190	-0.194
-188.158	207.254	0.053	0.081
-187.144	800.000	0.038	-0.126
-186.129	800.000	0.011	0.043
-185.114	-71.354	0.499	-0.184
-184.100	-124.573	0.019	-0.003
-183.085	-200.000	0.004	-0.258
-182.071	-169.314	0.114	0.004
-181.056	-200.000	-0.002	-0.130
-180.042	-200.000	-0.014	-0.185
-179.027	-131.199	-0.233	-0.030
-178.012	261.903	0.069	-0.118
-176.998	336.244	-0.116	0.220
-175.983	6.595	-0.106	-0.077
-174.969	-79.318	0.105	-0.035
-173.954	-124.271	0.217	0.033
-172.939	228.932	-0.135	0.215
-171.925	800.000	0.057	0.169
-170.910	62.796	0.084	0.083
-169.896	-73.292	-0.466	-0.167
-168.881	-38.113	0.170	0.088
-167.866	800.000	0.116	0.315
-166.852	322.100	-0.102	-0.191
-165.837	-140.037	0.158	0.016
-164.823	-90.782	0.258	0.073
-163.808	-125.084	-0.096	0.015
-162.793	-37.380	-0.027	0.014
-161.779	98.689	-0.147	0.167
-160.764	800.000	-0.156	0.496
-159.750	800.000	-0.066	0.186
-158.735	74.959	-0.253	0.261
-157.720	154.141	-0.071	0.096
-156.706	-200.000	-0.010	-0.258
-155.691	-144.219	0.304	-0.028
-154.677	-200.000	0.016	-0.228
-153.662	221.122	-0.098	-0.154
-152.647	-200.000	-0.022	-0.105
-151.633	-161.591	-0.051	-0.003
-150.618	-14.509	-0.070	0.044
-149.604	125.280	-0.096	0.118
-148.589	800.000	0.113	0.476
-147.574	161.606	-0.046	0.063
-146.560	-200.000	0.021	-0.096
-145.545	620.990	-0.239	0.590
-144.531	-43.009	0.466	0.231
-143.516	-141.408	-0.035	-0.003
-142.502	-200.000	0.006	-0.032
-141.487	-67.291	0.293	-0.113
-140.472	-200.000	-0.018	0.301
-139.458	287.545	0.118	-0.209
-138.443	534.300	0.092	-0.213
-137.429	-110.493	0.311	-0.063
-136.414	454.731	-0.016	-0.034
-135.399	-51.126	0.153	-0.070
-134.385	19.435	-0.295	-0.232
-133.370	-106.667	0.272	0.059
-132.356	-122.741	-0.314	0.050
-131.341	-200.000	0.047	0.000
-130.326	-47.429	-0.195	-0.093
-129.312	-185.688	0.356	-0.005
-128.297	228.011	0.170	0.272
-127.283	-200.000	0.048	0.248
-126.268	-34.307	-0.152	0.082
-125.253	-200.000	0.005	-0.097
-124.239	800.000	-0.083	-0.341
-123.224	-200.000	-0.058	-0.295
