DTS Sentinel unit serial number:	SN413079Multiplexer serial number:	ORYXHardware model number:	OX4-SRSoftware version number:	ORYX F/W v4.00 Oryx Data Collector v3.7.2.0data status	okinstallation	princeton_trtdifferential loss correction	single-endedforward channel	channel 3reverse channel	N/Adate	2019/09/19time	09:28:34forward acquisition time	60.00reverse acquisition time	0.00gamma	496.2192k internal	0.2345k external	0.2345temperature offset calibration	0.9974default loss term (dB/km)	0.3790temperature slope calibration	1.0000multiplexer offset coefficient	1.0000multiplexer slope coefficient	1.0000fibre end	0.00T internal ref (°C)	22.72T ext. ref 1 (°C)	0.62T ext. ref 2 (°C)	19.41length (m)	temperature (°C)	Stokes	anti-Stokes-747.200	-22.224	0.040	0.024
-746.185	-123.787	-0.392	-0.062
-745.171	244.864	0.105	0.176
-744.156	-200.000	-0.290	0.000
-743.142	156.719	0.016	-0.022
-742.127	-200.000	-0.041	0.210
-741.112	72.571	-0.175	-0.183
-740.098	800.000	-0.063	0.205
-739.083	-200.000	0.038	-0.188
-738.069	-96.680	-0.361	-0.095
-737.054	-140.716	-0.204	-0.021
-736.039	13.929	-0.480	0.373
-735.025	193.188	0.053	0.081
-734.010	-44.550	0.070	0.035
-732.996	181.398	-0.159	-0.233
-731.981	516.191	-0.006	0.015
-730.966	-46.001	-0.194	0.096
-729.952	-131.934	0.181	0.024
-728.937	800.000	0.042	-0.135
-727.923	-37.485	-0.195	-0.104
-726.908	234.615	0.196	-0.323
-725.894	173.695	0.148	-0.213
-724.879	-200.000	0.019	0.175
-723.864	355.481	-0.146	-0.291
-722.850	-200.000	-0.014	-0.210
-721.835	-200.000	0.033	-0.160
-720.821	-200.000	-0.073	-0.352
-719.806	9.729	0.178	0.135
-718.791	62.884	-0.152	-0.152
-717.777	162.086	0.011	0.015
-716.762	-41.184	-0.101	-0.052
-715.748	21.125	-0.127	0.103
-714.733	717.834	-0.059	-0.155
-713.718	-124.754	-0.056	-0.009
-712.704	-21.982	-0.185	0.112
-711.689	-76.667	-0.132	0.046
-710.675	-77.713	-0.369	-0.127
-709.660	646.190	-0.142	0.362
-708.645	-200.000	0.046	0.287
-707.631	-200.000	-0.020	0.233
-706.616	800.000	-0.092	-0.299
-705.602	-5.549	0.206	-0.141
-704.587	-126.887	0.291	-0.043
-703.572	-200.000	0.008	0.098
-702.558	-192.834	0.084	-0.001
-701.543	149.278	-0.177	-0.239
-700.529	55.910	0.204	0.198
-699.514	-145.399	0.050	0.004
-698.499	-103.017	-0.535	0.127
-697.485	-200.000	-0.047	-0.389
-696.470	360.437	0.198	-0.397
-695.456	169.623	0.085	-0.122
-694.441	-200.000	-0.019	-0.265
-693.426	591.545	0.100	-0.247
-692.412	494.468	-0.077	-0.176
-691.397	173.596	-0.060	0.087
-690.383	-57.757	-0.143	0.062
-689.368	-14.275	-0.266	-0.171
-688.354	196.439	-0.256	-0.389
-687.339	220.677	0.069	0.111
-686.324	74.821	-0.024	-0.025
-685.310	-200.000	-0.040	-0.215
-684.295	-200.000	0.055	0.261
-683.281	-92.731	0.149	0.042
-682.266	-40.483	-0.192	-0.100
-681.251	-13.833	0.356	-0.230
-680.237	519.965	-0.059	-0.137
-679.222	-25.389	0.333	0.196
-678.208	-200.000	0.041	0.227
-677.193	-9.082	0.182	0.121
-676.178	-82.706	0.164	-0.053
-675.164	-31.890	-0.070	0.039
-674.149	26.587	-0.170	-0.142
-673.135	-76.594	0.025	-0.009
-672.120	-24.915	0.100	-0.059
-671.105	-34.737	-0.023	0.013
-670.091	-62.026	0.289	-0.120
-669.076	50.711	-0.210	0.198
-668.062	800.000	0.030	-0.083
-667.047	-200.000	-0.028	-0.186
-666.032	198.495	0.038	-0.057
-665.018	164.855	0.092	-0.129
-664.003	-135.048	-0.127	-0.015
-662.989	-96.703	0.150	-0.039
-661.974	784.935	-0.114	-0.312
-660.959	-94.856	-0.261	0.071
-659.945	651.415	0.070	-0.178
-658.930	-107.029	0.281	-0.062
-657.916	-200.000	0.002	-0.077
-656.901	51.228	0.072	0.068
-655.886	-53.934	-0.136	0.062
-654.872	-112.545	0.198	0.039
-653.857	251.799	0.100	-0.170
-652.843	249.895	0.088	-0.148
-651.828	-61.519	-0.118	-0.050
-650.814	800.000	-0.095	-0.315
-649.799	-200.000	0.050	-0.359
-648.784	-42.174	0.171	0.087
-647.770	-200.000	0.038	0.303
-646.755	-160.861	0.581	-0.031
-645.741	107.629	0.118	-0.140
-644.726	162.586	0.155	-0.217
-643.711	-129.310	-0.422	-0.058
-642.697	-96.854	-0.081	0.021
-641.682	0.659	-0.209	-0.149
-640.668	40.320	0.114	-0.102
-639.653	-200.000	0.014	-0.140
-638.638	-200.000	0.021	-0.171
-637.624	-35.632	-0.211	0.114
-636.609	208.208	-0.121	-0.189
-635.595	65.367	-0.265	0.267
-634.580	-200.000	0.032	-0.525
-633.565	-104.020	-0.266	-0.062
-632.551	451.946	-0.090	-0.198
-631.536	-45.747	0.283	0.139
-630.522	-44.441	0.434	0.216
-629.507	-147.150	0.225	-0.019
-628.492	271.767	-0.113	0.199
-627.478	317.013	-0.147	-0.277
-626.463	444.522	-0.009	-0.020
-625.449	146.993	-0.080	0.108
-624.434	-200.000	-0.018	-0.179
-623.419	-30.940	-0.236	0.133
-622.405	-22.237	-0.151	-0.091
-621.390	165.542	-0.139	-0.196
-620.376	43.718	-0.160	-0.146
-619.361	-200.000	0.005	-0.251
-618.346	-107.790	0.088	-0.019
-617.332	285.086	0.037	-0.067
-616.317	-68.744	0.513	0.197
-615.303	-66.005	-0.379	0.151
-614.288	19.419	0.319	0.256
-613.273	378.766	-0.183	0.373
-612.259	8.320	-0.418	-0.313
-611.244	-200.000	-0.034	-0.278
-610.230	49.922	-0.167	-0.156
-609.215	-14.709	-0.087	0.056
-608.201	-19.899	-0.117	-0.072
-607.186	-43.738	-0.209	0.105
-606.171	-61.798	-0.229	0.095
-605.157	69.895	-0.129	0.133
-604.142	135.011	0.219	0.283
-603.128	333.723	-0.094	0.182
-602.113	-118.841	-0.349	0.061
-601.098	-22.569	-0.085	-0.051
-600.084	-200.000	0.078	-0.432
-599.069	12.809	0.005	0.004
-598.055	646.493	0.010	0.024
-597.040	464.136	-0.092	-0.205
-596.025	-23.178	-0.063	-0.038
-595.011	-200.000	0.015	0.223
-593.996	796.426	0.084	-0.231
-592.982	301.948	-0.028	-0.052
-591.967	194.585	-0.059	0.089
-590.952	164.058	0.103	0.145
-589.938	-96.450	0.238	0.063
-588.923	186.576	-0.050	0.074
-587.909	359.726	0.155	-0.309
-586.894	116.867	-0.341	0.416
-585.879	76.774	-0.130	-0.137
-584.865	196.024	-0.097	0.147
-583.850	-73.423	0.283	0.103
-582.836	4.980	-0.049	0.036
-581.821	481.010	-0.078	-0.176
-580.806	353.415	-0.050	0.098
-579.792	-200.000	0.024	-0.110
-578.777	20.877	0.149	-0.120
-577.763	-88.271	0.102	0.030
-576.748	398.380	-0.052	0.108
-575.733	-200.000	0.006	-0.268
-574.719	-63.835	0.326	-0.133
-573.704	-200.000	0.055	0.271
-572.690	634.792	0.004	-0.010
-571.675	56.409	-0.191	-0.185
-570.661	800.000	0.039	0.149
-569.646	-135.943	-0.323	-0.038
-568.631	-200.000	0.029	0.152
-567.617	-176.441	-0.149	-0.004
-566.602	-54.392	-0.173	-0.078
-565.588	-5.260	-0.122	-0.084
-564.573	17.345	-0.167	0.132
-563.558	800.000	0.071	0.300
-562.544	90.171	0.075	-0.084
-561.529	37.840	0.172	0.152
-560.515	-200.000	0.036	0.350
-559.500	-200.000	0.008	-0.108
-558.485	-200.000	0.028	-0.241
-557.471	-200.000	-0.029	0.296
-556.456	468.870	-0.062	0.138
-555.442	-55.968	-0.149	0.066
-554.427	800.000	0.155	-0.435
-553.412	-104.193	-0.337	0.078
-552.398	-167.124	-0.206	-0.008
-551.383	66.898	0.105	0.106
-550.369	-69.369	-0.144	-0.055
-549.354	42.608	0.162	0.146
-548.339	52.985	0.192	-0.183
-547.325	-200.000	0.005	-0.095
-546.310	487.347	0.027	0.062
-545.296	264.190	0.120	-0.208
-544.281	800.000	0.013	-0.042
-543.266	203.144	-0.251	0.385
-542.252	0.127	-0.241	-0.170
-541.237	-200.000	-0.004	0.064
-540.223	578.125	0.143	-0.346
-539.208	75.727	-0.180	-0.189
-538.193	-40.547	0.304	0.157
-537.179	290.085	-0.176	-0.318
-536.164	-56.987	0.269	0.118
-535.150	267.899	0.063	0.109
-534.135	128.430	0.241	-0.304
-533.121	-74.789	-0.164	0.059
-532.106	-23.488	-0.195	-0.116
-531.091	-119.180	-0.377	0.065
-530.077	9.695	-0.080	0.060
-529.062	-44.593	0.093	-0.046
-528.048	107.776	0.065	-0.076
-527.033	-200.000	-0.249	0.000
-526.018	-19.002	-0.066	0.041
-525.004	-12.280	-0.289	0.187
-523.989	6.509	-0.095	-0.070
-522.975	-26.747	0.088	0.051
-521.960	-200.000	-0.002	-0.116
-520.945	95.651	0.022	0.025
-519.931	277.703	-0.167	0.296
-518.916	-104.798	0.384	0.088
-517.902	-123.405	-0.273	-0.043
-516.887	-200.000	0.004	-0.244
-515.872	-8.278	-0.116	-0.077
-514.858	36.282	-0.176	0.154
-513.843	-128.020	0.205	0.029
-512.829	-200.000	-0.023	-0.170
-511.814	134.609	0.087	0.112
-510.799	-153.823	0.303	-0.021
-509.785	53.296	0.231	0.220
-508.770	110.866	-0.227	0.271
-507.756	-135.587	-0.028	-0.003
-506.741	-38.715	0.096	-0.050
-505.726	-177.264	0.273	-0.007
-504.712	135.219	0.112	-0.144
-503.697	-200.000	-0.010	-0.450
-502.683	-158.134	0.403	-0.023
-501.668	800.000	-0.037	-0.143
-500.653	-95.342	-0.287	0.076
-499.639	-200.000	-0.071	-0.315
-498.624	167.552	0.142	0.201
-497.610	-35.970	0.359	0.193
-496.595	-33.534	-0.367	0.201
-495.581	-200.000	0.019	0.461
-494.566	800.000	0.055	0.185
-493.551	-3.968	-0.045	-0.031
-492.537	-30.374	0.195	-0.110
-491.522	-139.776	-0.423	-0.045
-490.508	-117.415	0.074	0.013
-489.493	183.944	0.034	-0.050
-488.478	4.074	-0.060	0.044
-487.464	148.405	-0.179	-0.239
-486.449	525.943	-0.108	0.252
-485.435	800.000	0.028	0.079
-484.420	678.146	0.084	0.215
-483.405	90.424	0.138	0.153
-482.391	13.528	-0.224	0.172
-481.376	-200.000	-0.003	0.409
-480.362	160.571	-0.128	-0.177
-479.347	800.000	0.021	0.081
-478.332	28.292	-0.166	0.139
-477.318	-82.987	0.085	0.027
-476.303	31.173	-0.303	-0.258
-475.289	-80.919	-0.304	0.100
-474.274	29.343	0.133	0.112
-473.259	-200.000	-0.013	0.170
-472.245	-3.010	0.191	0.132
-471.230	800.000	0.105	-0.292
-470.216	-94.507	-0.243	-0.066
-469.201	-180.327	0.178	0.004
-468.186	110.619	0.130	-0.155
-467.172	-86.716	0.118	-0.036
-466.157	196.528	0.171	-0.258
-465.143	294.241	-0.032	-0.058
-464.128	-61.970	0.112	-0.046
-463.113	-200.000	-0.002	-0.254
-462.099	-48.884	-0.175	0.083
-461.084	476.895	0.063	0.141
-460.070	-200.000	0.045	-0.280
-459.055	34.901	0.095	0.082
-458.040	-113.475	0.098	-0.019
-457.026	-87.163	0.471	0.142
-456.011	112.082	-0.152	0.182
-454.997	-84.019	0.075	-0.023
-453.982	-200.000	-0.011	0.062
-452.968	-47.581	0.106	0.051
-451.953	196.150	0.228	0.343
-450.938	305.662	0.122	0.225
-449.924	-200.000	0.026	0.164
-448.909	209.687	0.357	-0.553
-447.895	-10.148	-0.077	0.050
-446.880	-200.000	-0.050	0.305
-445.865	-131.068	-0.227	-0.030
-444.851	765.940	0.141	0.379
-443.836	337.038	0.160	-0.308
-442.822	-75.393	-0.220	0.078
-441.807	-63.647	0.285	-0.116
-440.792	611.770	0.195	0.483
-439.778	-173.008	-0.151	0.005
-438.763	-150.780	0.304	-0.023
-437.749	50.650	-0.230	0.215
-436.734	-200.000	-0.037	-0.186
-435.719	385.832	0.062	-0.126
-434.705	-200.000	0.031	0.137
-433.690	33.751	-0.071	-0.061
-432.676	171.483	-0.067	-0.095
-431.661	482.390	-0.172	-0.387
-430.646	173.531	0.189	0.270
-429.632	-64.585	0.169	0.068
-428.617	427.506	-0.044	-0.094
-427.603	-200.000	-0.008	-0.078
-426.588	17.118	0.269	-0.211
-425.573	-200.000	-0.027	-0.342
-424.559	-89.328	-0.296	-0.086
-423.544	140.449	-0.141	-0.184
-422.530	-72.127	-0.241	-0.088
-421.515	131.001	-0.228	-0.289
-420.500	51.129	0.322	-0.302
-419.486	-38.988	0.122	0.064
-418.471	-200.000	0.001	-0.106
-417.457	800.000	-0.005	0.014
-416.442	628.120	0.185	0.462
-415.428	262.903	-0.064	0.109
-414.413	83.120	0.174	0.187
-413.398	-200.000	0.017	-0.132
-412.384	261.515	-0.048	0.082
-411.369	12.356	-0.041	-0.032
-410.355	-13.079	0.111	0.071
-409.340	-116.073	0.190	-0.035
-408.325	102.502	0.126	-0.145
-407.311	64.932	-0.092	-0.091
-406.296	555.833	0.106	0.251
-405.282	215.619	-0.049	0.077
-404.267	-200.000	0.008	0.043
-403.252	-5.503	-0.329	0.223
-402.238	-200.000	0.020	0.381
-401.223	11.459	-0.199	0.151
-400.209	-108.211	-0.365	0.078
-399.194	44.415	0.163	0.148
-398.179	-200.000	-0.027	0.191
-397.165	-152.301	-0.046	0.003
-396.150	2.844	0.297	-0.213
-395.136	190.139	-0.055	-0.081
-394.121	-11.411	0.093	-0.061
-393.106	240.912	0.132	-0.217
-392.092	136.190	0.149	-0.192
-391.077	-200.000	-0.017	-0.166
-390.063	-34.649	-0.353	-0.190
-389.048	800.000	-0.055	0.152
-388.033	-76.988	0.237	-0.082
-387.019	-114.099	-0.135	0.026
-386.004	-200.000	-0.024	0.195
-384.990	-166.123	-0.266	0.011
-383.975	671.507	0.114	-0.291
-382.960	681.183	0.055	0.140
-381.946	-76.523	0.028	-0.010
-380.931	-200.000	-0.027	0.249
-379.917	-112.071	0.054	0.011
-378.902	379.520	-0.170	-0.343
-377.888	80.129	0.210	-0.223
-376.873	-39.123	-0.181	-0.094
-375.858	-49.141	-0.288	-0.136
-374.844	46.804	0.333	0.305
-373.829	-147.389	-0.309	0.026
-372.815	-134.541	0.202	-0.024
-371.800	800.000	-0.125	-0.356
-370.785	359.495	0.138	0.271
-369.771	-110.624	-0.138	0.028
-368.756	-160.253	-0.370	-0.020
-367.742	-200.000	0.053	-0.280
-366.727	-121.253	0.493	-0.081
-365.712	-1.100	-0.403	-0.281
-364.698	4.720	-0.149	0.108
-363.683	-47.705	0.350	-0.167
-362.669	17.787	-0.136	0.107
-361.654	-181.833	-0.125	0.002
-360.639	-110.950	0.221	-0.045
-359.625	-200.000	0.022	-0.124
-358.610	-87.250	0.375	-0.112
-357.596	-7.568	0.163	0.109
-356.581	49.178	-0.267	-0.247
-355.566	17.796	-0.115	0.090
-354.552	-97.309	-0.013	0.003
-353.537	800.000	-0.091	0.317
-352.523	44.385	0.199	-0.180
-351.508	-143.162	-0.461	0.044
-350.493	-52.302	-0.049	0.022
-349.479	-0.483	-0.141	0.099
-348.464	-86.689	0.263	0.079
-347.450	88.628	0.170	-0.187
-346.435	9.889	-0.073	-0.055
-345.420	800.000	-0.053	0.215
-344.406	-200.000	0.047	-0.371
-343.391	-46.964	-0.038	-0.018
-342.377	-97.554	-0.318	-0.081
-341.362	-200.000	0.031	-0.181
-340.348	-127.422	0.226	-0.032
-339.333	-200.000	0.037	-0.306
-338.318	-16.098	-0.311	-0.195
-337.304	210.859	-0.158	-0.244
-336.289	114.418	0.248	0.297
-335.275	-164.094	-0.121	-0.006
-334.260	-197.191	-0.214	0.001
-333.245	-123.691	0.159	0.025
-332.231	-67.579	0.166	0.064
-331.216	-200.000	0.052	-0.227
-330.202	-200.000	0.033	-0.265
-329.187	-20.766	-0.128	0.077
-328.172	323.713	-0.131	-0.246
-327.158	-200.000	-0.044	-0.253
-326.143	318.234	-0.205	-0.382
-325.129	-131.512	0.112	0.015
-324.114	-79.899	-0.386	-0.128
-323.099	68.911	-0.140	-0.142
-322.085	459.309	-0.095	-0.209
-321.070	-200.000	-0.005	0.186
-320.056	-200.000	-0.278	-0.000
-319.041	214.312	-0.075	0.118
-318.026	171.223	-0.049	0.069
-317.012	800.000	-0.113	0.350
-315.997	800.000	0.160	0.607
-314.983	29.240	0.260	0.217
-313.968	-86.858	0.251	-0.075
-312.953	-200.000	0.040	-0.322
-311.939	75.928	0.183	-0.191
-310.924	-85.123	-0.177	0.055
-309.910	168.858	0.102	-0.144
-308.895	-200.000	0.049	-0.457
-307.880	-0.478	0.192	0.134
-306.866	-94.421	0.242	-0.065
-305.851	-35.575	-0.280	0.150
-304.837	-200.000	0.016	-0.346
-303.822	-200.000	0.063	0.325
-302.807	-46.668	0.062	0.030
-301.793	505.575	-0.027	-0.061
-300.778	-68.406	-0.179	0.068
-299.764	-34.246	0.398	-0.215
-298.749	37.695	-0.342	-0.298
-297.735	-64.333	0.066	-0.026
-296.720	80.138	-0.101	0.106
-295.705	-200.000	-0.005	0.104
-294.691	368.960	-0.067	0.132
-293.676	800.000	0.060	0.257
-292.662	-89.353	-0.197	0.057
-291.647	258.463	-0.146	0.248
-290.632	593.922	-0.094	0.229
-289.618	291.658	0.185	0.331
-288.603	800.000	0.044	-0.165
-287.589	-129.790	-0.111	0.015
-286.574	800.000	0.088	-0.288
-285.559	-200.000	0.005	-0.460
-284.545	8.944	-0.304	-0.225
-283.530	-200.000	-0.057	0.270
-282.516	31.467	-0.192	0.162
-281.501	-92.381	0.178	-0.049
-280.486	-60.872	0.079	-0.033
-279.472	-103.279	-0.146	0.034
-278.457	800.000	0.072	-0.221
-277.443	68.144	-0.085	0.085
-276.428	-42.007	0.192	0.097
-275.413	-101.579	0.270	-0.064
-274.399	-63.998	0.394	0.158
-273.384	-76.887	-0.118	-0.040
-272.370	11.422	0.244	-0.183
-271.355	146.205	0.229	0.302
-270.340	528.121	0.084	0.194
-269.326	17.122	-0.321	-0.250
-268.311	-200.000	-0.048	-0.263
-267.297	218.630	0.189	0.296
-266.282	-72.045	0.442	0.161
-265.267	-7.723	0.234	-0.156
-264.253	-200.000	0.037	0.179
-263.238	-84.199	-0.268	0.083
-262.224	-200.000	0.016	0.162
-261.209	136.016	0.058	-0.075
-260.195	-37.265	-0.059	0.031
-259.180	76.590	0.214	0.222
-258.165	692.498	0.056	-0.145
-257.151	-104.163	0.019	-0.004
-256.136	19.536	-0.447	0.353
-255.122	800.000	0.058	-0.192
-254.107	-80.171	-0.165	-0.054
-253.092	-171.171	-0.268	-0.009
-252.078	-200.000	0.000	0.144
-251.063	180.939	-0.141	0.204
-250.049	-77.201	0.074	0.025
-249.034	234.710	0.114	-0.184
-248.019	216.566	0.124	-0.193
-247.005	679.414	-0.051	0.131
-245.990	800.000	0.215	0.585
-244.976	800.000	-0.010	-0.035
-243.961	131.824	0.172	-0.218
-242.946	-88.109	0.167	-0.049
-241.932	-200.000	0.003	0.379
-240.917	800.000	-0.024	-0.068
-239.903	-80.294	0.152	-0.050
-238.888	25.643	0.272	0.222
-237.873	89.059	-0.056	0.061
-236.859	515.336	0.026	0.061
-235.844	-200.000	-0.005	-0.359
-234.830	504.191	0.167	0.378
-233.815	-144.001	-0.048	0.004
-232.800	-168.757	0.345	0.013
-231.786	-200.000	0.011	-0.162
-230.771	-99.019	-0.199	0.050
-229.757	-92.877	-0.196	0.054
-228.742	-200.000	0.084	0.377
-227.727	-71.297	-0.164	0.060
-226.713	567.762	-0.062	0.147
-225.698	134.425	-0.175	-0.222
-224.684	-158.819	-0.085	0.005
-223.669	101.145	-0.070	-0.080
-222.655	63.024	0.250	0.245
-221.640	-200.000	0.043	0.328
-220.625	141.374	0.121	-0.156
-219.611	-153.148	-0.086	0.006
-218.596	-200.000	-0.008	0.307
-217.582	-54.565	0.167	-0.074
-216.567	104.106	0.062	0.072
-215.552	190.181	0.110	0.161
-214.538	800.000	-0.039	0.163
-213.523	-200.000	-0.001	0.006
-212.509	169.284	0.077	-0.107
-211.494	-200.000	-0.002	0.026
-210.479	-72.374	0.037	0.014
-209.465	292.505	0.122	-0.217
-208.450	-18.760	0.083	0.050
-207.436	583.743	0.061	-0.147
-206.421	800.000	0.099	0.321
-205.406	-200.000	-0.052	0.250
-204.392	128.903	0.123	0.154
-203.377	-131.991	0.135	-0.017
-202.363	13.652	0.072	0.055
-201.348	-15.932	0.259	0.161
-200.333	350.966	-0.111	-0.215
-199.319	-136.835	-0.091	-0.010
-198.304	-18.543	-0.280	0.171
-197.290	-131.662	0.304	0.039
-196.275	41.413	0.169	-0.150
-195.260	-169.790	-0.156	-0.006
-194.246	308.620	0.120	-0.219
-193.231	800.000	0.014	0.048
-192.217	-7.295	0.064	0.043
-191.202	-28.853	-0.269	0.152
-190.187	20.328	0.157	0.124
-189.173	-200.000	0.022	-0.251
-188.158	-187.503	-0.205	0.003
-187.144	155.967	0.207	0.279
-186.129	-200.000	0.002	0.127
-185.114	-200.000	0.009	-0.279
-184.100	452.373	-0.087	-0.188
-183.085	75.459	0.176	-0.182
-182.071	-48.590	-0.128	-0.060
-181.056	-85.634	0.281	0.086
-180.042	-49.500	0.240	-0.112
-179.027	162.745	-0.059	0.081
-178.012	-61.811	0.128	0.053
-176.998	800.000	-0.072	0.231
-175.983	148.883	-0.190	0.252
-174.969	-140.879	0.233	-0.023
-173.954	38.895	-0.245	0.214
-172.939	-119.730	0.101	-0.017
-171.925	-89.952	0.145	-0.042
-170.910	-43.670	-0.137	-0.068
-169.896	-200.000	0.002	-0.150
-168.881	233.841	0.039	0.063
-167.866	-200.000	0.003	-0.201
-166.852	157.505	-0.081	-0.109
-165.837	328.124	-0.149	-0.279
-164.823	490.412	-0.074	-0.165
-163.808	-89.857	-0.097	-0.028
-162.793	-7.961	0.180	-0.119
-161.779	586.387	0.041	-0.098
-160.764	19.583	-0.067	0.053
-159.750	-116.385	-0.216	-0.039
-158.735	800.000	-0.114	0.314
-157.720	-200.000	0.037	0.244
-156.706	-200.000	-0.023	-0.154
-155.691	-50.735	-0.097	-0.044
-154.677	-153.605	0.225	-0.015
-153.662	-19.175	-0.114	-0.069
-152.647	111.396	-0.242	0.285
-151.633	-32.180	0.275	-0.150
-150.618	183.300	0.208	-0.300
-149.604	342.494	0.084	0.160
-148.589	264.641	-0.093	-0.158
-147.574	-48.093	0.084	-0.039
-146.560	-135.705	-0.234	0.027
-145.545	-84.373	-0.287	-0.089
-144.531	141.682	-0.096	0.124
-143.516	-200.000	-0.035	-0.249
-142.502	-47.877	0.230	0.109
-141.487	231.881	-0.119	-0.191
-140.472	44.569	-0.202	-0.181
-139.458	-105.289	0.252	0.056
-138.443	-127.278	0.176	-0.025
-137.429	76.924	-0.208	0.215
-136.414	-66.999	0.164	0.063
-135.399	-89.554	0.205	0.059
-134.385	800.000	0.104	0.327
-133.370	8.951	0.127	0.094
-132.356	-83.316	0.148	0.046
-131.341	-35.423	-0.273	0.145
-130.326	-200.000	-0.007	-0.425
-129.312	147.167	-0.214	0.282
-128.297	-28.137	0.301	0.170
-127.283	46.939	-0.169	-0.153
-126.268	180.285	-0.142	-0.203
-125.253	108.901	0.135	0.158
-124.239	-68.410	0.146	-0.055
-123.224	37.578	-0.029	-0.025
-122.210	800.000	-0.031	-0.127
-121.195	653.365	-0.050	-0.126
