DTS Sentinel unit serial number:	SN413079Multiplexer serial number:	ORYXHardware model number:	OX4-SRSoftware version number:	ORYX F/W v4.00 Oryx Data Collector v3.7.2.0data status	okinstallation	princeton_trtdifferential loss correction	single-endedforward channel	channel 3reverse channel	N/Adate	2019/09/17time	14:16:35forward acquisition time	60.00reverse acquisition time	0.00gamma	496.2192k internal	0.2299k external	0.2299temperature offset calibration	0.9958default loss term (dB/km)	0.3790temperature slope calibration	1.0000multiplexer offset coefficient	1.0000multiplexer slope coefficient	1.0000fibre end	0.00T internal ref (°C)	36.05T ext. ref 1 (°C)	0.41T ext. ref 2 (°C)	33.07length (m)	temperature (°C)	Stokes	anti-Stokes-747.200	41.247	-0.170	-0.157
-746.185	-200.000	-0.025	0.192
-745.171	334.920	0.147	-0.291
-744.156	-200.000	0.018	-0.190
-743.142	284.923	0.100	0.183
-742.127	-200.000	-0.046	-0.372
-741.112	-44.520	-0.164	0.083
-740.098	-33.053	-0.032	-0.018
-739.083	80.702	-0.064	0.071
-738.069	164.904	0.031	0.044
-737.054	-83.193	0.133	0.044
-736.039	-51.078	-0.447	-0.214
-735.025	-111.338	-0.119	-0.025
-734.010	629.814	-0.129	-0.334
-732.996	-200.000	-0.043	0.293
-731.981	196.048	-0.012	0.019
-730.966	-76.831	0.232	-0.083
-729.952	-39.831	-0.177	-0.094
-728.937	54.997	-0.292	-0.288
-727.923	-171.702	-0.347	-0.012
-726.908	31.083	0.006	-0.005
-725.894	-200.000	0.050	0.316
-724.879	26.680	-0.090	-0.077
-723.864	-60.852	-0.219	-0.094
-722.850	-136.752	0.098	0.011
-721.835	800.000	-0.037	-0.138
-720.821	528.751	-0.146	0.352
-719.806	-200.000	-0.024	-0.236
-718.791	-18.413	0.193	-0.123
-717.777	120.932	-0.084	0.106
-716.762	154.632	0.020	0.027
-715.748	-200.000	0.062	-0.302
-714.733	275.725	0.042	-0.075
-713.718	-62.215	-0.154	-0.065
-712.704	58.437	0.120	-0.120
-711.689	-14.779	-0.187	0.122
-710.675	220.168	0.077	0.125
-709.660	42.409	0.225	-0.209
-708.645	-24.057	-0.260	0.159
-707.631	-51.950	-0.192	0.091
-706.616	239.419	0.151	-0.256
-705.602	517.229	-0.166	-0.397
-704.587	32.777	0.230	0.203
-703.572	657.042	0.149	-0.391
-702.558	-37.987	0.325	0.176
-701.543	51.712	-0.376	0.364
-700.529	454.632	-0.109	-0.246
-699.514	-94.071	-0.111	-0.031
-698.499	23.606	-0.242	0.203
-697.485	121.540	-0.148	0.188
-696.470	62.740	0.046	0.046
-695.456	321.919	-0.042	0.082
-694.441	-192.443	0.193	0.002
-693.426	-61.650	0.150	-0.064
-692.412	-27.308	-0.231	0.137
-691.397	204.539	0.087	0.137
-690.383	-48.073	-0.117	0.057
-689.368	189.650	-0.113	-0.173
-688.354	800.000	0.040	0.146
-687.339	56.042	-0.008	0.007
-686.324	-92.678	-0.525	-0.150
-685.310	343.605	-0.169	-0.338
-684.295	56.888	0.146	-0.145
-683.281	-93.694	0.240	-0.067
-682.266	-35.555	-0.332	0.183
-681.251	-200.000	-0.008	-0.186
-680.237	800.000	-0.049	0.155
-679.222	242.213	-0.111	-0.188
-678.208	149.842	-0.210	-0.289
-677.193	-200.000	-0.013	0.236
-676.178	-109.261	-0.277	0.060
-675.164	-200.000	0.056	-0.257
-674.149	-200.000	0.012	-0.144
-673.135	-18.114	-0.085	0.054
-672.120	-46.622	-0.367	0.183
-671.105	419.463	0.186	0.405
-670.091	114.754	0.194	0.240
-669.076	-200.000	0.012	0.122
-668.062	-200.000	-0.038	-0.249
-667.047	-131.225	0.278	0.038
-666.032	338.662	-0.117	0.232
-665.018	-71.110	0.190	-0.072
-664.003	-200.000	-0.016	-0.158
-662.989	-131.018	0.206	0.028
-661.974	800.000	-0.042	0.159
-660.959	116.118	0.101	0.125
-659.945	174.633	-0.261	0.384
-658.930	-19.988	-0.207	0.130
-657.916	-172.075	-0.088	0.003
-656.901	-200.000	-0.015	-0.254
-655.886	666.148	0.049	0.129
-654.872	-55.128	0.092	-0.042
-653.857	-45.422	-0.232	-0.117
-652.843	293.271	0.195	-0.362
-651.828	529.568	-0.055	0.132
-650.814	21.388	-0.126	-0.104
-649.799	-114.299	0.240	0.047
-648.784	-23.404	0.008	-0.005
-647.770	-67.033	0.129	0.052
-646.755	-46.633	0.283	0.141
-645.741	-200.000	0.033	0.470
-644.726	63.846	0.121	0.124
-643.711	74.973	0.279	0.298
-642.697	-154.230	0.154	0.011
-641.682	-19.641	0.269	-0.169
-640.668	598.876	0.065	0.164
-639.653	783.762	0.017	-0.047
-638.638	362.670	0.095	-0.193
-637.624	-200.000	-0.004	-0.021
-636.609	99.512	-0.092	0.108
-635.595	-96.339	-0.295	-0.079
-634.580	-200.000	-0.050	0.321
-633.565	210.975	0.050	-0.081
-632.551	-0.869	0.197	0.142
-631.536	144.701	0.090	-0.122
-630.522	5.789	-0.267	-0.201
-629.507	-200.000	0.015	-0.242
-628.492	300.484	0.115	-0.215
-627.478	-160.709	-0.236	-0.013
-626.463	267.899	-0.120	0.213
-625.449	800.000	0.110	0.320
-624.434	298.880	-0.063	-0.118
-623.419	-91.769	0.336	-0.097
-622.405	172.299	0.145	-0.211
-621.390	27.067	0.021	-0.018
-620.376	-200.000	0.010	-0.076
-619.361	1.695	0.317	-0.232
-618.346	-48.699	0.245	-0.120
-617.332	92.399	-0.187	0.214
-616.317	-108.195	-0.124	0.027
-615.303	-27.646	0.333	0.196
-614.288	-110.176	0.370	-0.078
-613.273	-49.998	-0.163	-0.079
-612.259	114.608	-0.209	-0.258
-611.244	-169.241	0.176	0.007
-610.230	277.853	-0.032	0.058
-609.215	-166.007	0.208	-0.009
-608.201	800.000	-0.095	-0.381
-607.186	-200.000	0.037	-0.230
-606.171	-200.000	-0.004	0.030
-605.157	-180.769	-0.147	0.003
-604.142	37.456	-0.155	0.140
-603.128	278.357	-0.056	-0.101
-602.113	-200.000	0.058	0.293
-601.098	20.690	-0.263	0.216
-600.084	-4.297	0.180	-0.126
-599.069	-200.000	-0.002	-0.152
-598.055	-62.490	-0.299	-0.126
-597.040	800.000	0.070	0.247
-596.025	433.895	0.092	-0.202
-595.011	742.537	0.080	-0.217
-593.996	-200.000	0.042	0.245
-592.982	154.793	-0.289	0.403
-591.967	-26.583	-0.188	0.112
-590.952	-99.983	-0.228	-0.058
-589.938	-66.659	-0.339	-0.136
-588.923	189.798	0.196	0.299
-587.909	-14.894	0.080	-0.052
-586.894	-200.000	-0.007	-0.192
-585.879	-200.000	-0.023	-0.121
-584.865	-24.623	-0.197	0.119
-583.850	142.838	-0.155	0.208
-582.836	4.808	0.297	0.221
-581.821	-200.000	-0.054	-0.257
-580.806	800.000	-0.077	0.333
-579.792	-116.311	0.355	0.067
-578.777	800.000	-0.054	-0.154
-577.763	107.845	-0.084	-0.101
-576.748	-154.632	-0.214	0.014
-575.733	-154.629	0.175	0.012
-574.719	-92.061	0.163	-0.047
-573.704	73.195	0.227	-0.240
-572.690	51.979	0.215	0.208
-571.675	-78.921	0.103	0.035
-570.661	141.164	-0.311	-0.417
-569.646	-132.729	0.338	0.044
-568.631	800.000	0.047	0.148
-567.617	-129.469	-0.202	0.028
-566.602	800.000	0.051	0.195
-565.588	-200.000	0.007	-0.061
-564.573	-200.000	0.006	-0.028
-563.558	-76.230	0.158	0.056
-562.544	253.562	-0.081	-0.140
-561.529	39.047	-0.168	0.152
-560.515	-200.000	-0.032	0.184
-559.500	-200.000	-0.009	0.247
-558.485	800.000	0.040	-0.114
-557.471	800.000	-0.065	-0.251
-556.456	-200.000	0.005	-0.121
-555.442	-67.989	-0.045	-0.018
-554.427	-200.000	0.040	-0.339
-553.412	-200.000	-0.039	0.173
-552.398	323.913	0.110	-0.213
-551.383	-200.000	-0.001	0.076
-550.369	-14.146	0.057	-0.037
-549.354	-81.085	-0.168	-0.056
-548.339	-66.137	0.053	0.021
-547.325	-17.726	0.294	0.187
-546.310	-151.462	-0.561	0.042
-545.296	77.513	-0.012	-0.013
-544.281	-136.744	-0.209	-0.024
-543.266	-200.000	-0.024	-0.149
-542.252	11.730	-0.235	0.183
-541.237	-145.113	0.146	0.013
-540.223	3.600	-0.141	-0.104
-539.208	-157.346	-0.322	-0.020
-538.193	-65.372	0.216	0.088
-537.179	182.362	-0.121	-0.180
-536.164	-28.093	0.173	0.101
-535.150	-200.000	0.055	0.294
-534.135	-98.138	-0.138	0.036
-533.121	206.554	-0.210	-0.331
-532.106	-80.089	0.109	-0.037
-531.091	-109.752	0.505	-0.107
-530.077	274.592	-0.160	0.286
-529.062	148.667	-0.150	0.206
-528.048	-119.543	-0.244	0.043
-527.033	-200.000	0.044	-0.203
-526.018	-41.762	-0.153	0.079
-525.004	-117.814	0.423	0.077
-523.989	3.771	0.155	0.115
-522.975	198.853	-0.062	-0.096
-521.960	-163.466	-0.162	-0.008
-520.945	-128.680	0.256	-0.037
-519.931	-59.415	0.040	0.017
-518.916	466.050	-0.037	-0.084
-517.902	201.188	-0.072	-0.113
-516.887	-200.000	-0.017	0.207
-515.872	-34.840	0.165	-0.091
-514.858	-52.765	-0.299	-0.139
-513.843	800.000	-0.059	-0.188
-512.829	246.412	0.109	-0.185
-511.814	485.588	0.044	-0.100
-510.799	446.451	-0.083	-0.184
-509.785	138.609	-0.127	0.168
-508.770	-130.347	-0.325	-0.045
-507.756	85.626	-0.209	-0.232
-506.741	-52.965	0.279	0.130
-505.726	71.705	-0.036	-0.038
-504.712	-126.975	-0.380	0.056
-503.697	-134.122	0.046	0.006
-502.683	-200.000	-0.008	0.156
-501.668	-119.316	-0.216	0.038
-500.653	9.153	-0.224	-0.171
-499.639	-42.467	0.143	-0.074
-498.624	484.174	0.068	0.157
-497.610	338.015	0.030	-0.059
-496.595	119.057	-0.169	0.211
-495.581	-57.560	0.119	0.053
-494.566	506.771	-0.165	-0.386
-493.551	-150.144	-0.268	0.021
-492.537	-172.275	0.090	-0.003
-491.522	-13.166	0.402	0.264
-490.508	-63.462	-0.165	-0.068
-489.493	-106.737	0.219	0.049
-488.478	-111.427	0.106	-0.022
-487.464	-200.000	0.007	-0.293
-486.449	-76.942	0.330	-0.117
-485.435	-120.811	0.120	-0.020
-484.420	147.231	-0.082	0.111
-483.405	2.206	-0.179	0.130
-482.391	30.958	-0.135	0.117
-481.376	-200.000	0.015	0.110
-480.362	-98.643	-0.137	-0.035
-479.347	122.998	0.249	-0.315
-478.332	-25.936	0.258	-0.154
-477.318	800.000	-0.059	-0.239
-476.303	19.321	-0.257	0.209
-475.289	-14.962	0.217	-0.140
-474.274	57.515	0.103	-0.101
-473.259	-36.040	0.308	-0.168
-472.245	-200.000	-0.001	0.066
-471.230	-0.279	0.367	0.263
-470.216	800.000	-0.096	0.276
-469.201	-167.826	-0.088	-0.004
-468.186	355.919	-0.128	0.257
-467.172	-200.000	-0.013	0.137
-466.157	71.846	0.160	0.168
-465.143	-58.674	-0.267	0.117
-464.128	-52.769	0.186	0.087
-463.113	-200.000	0.051	-0.265
-462.099	-94.752	0.257	-0.070
-461.084	173.764	-0.303	-0.441
-460.070	108.457	0.201	-0.243
-459.055	-200.000	0.015	-0.070
-458.040	-200.000	-0.036	0.216
-457.026	-51.575	-0.207	-0.097
-456.011	-96.212	-0.436	-0.117
-454.997	379.517	-0.106	0.220
-453.982	7.739	0.137	-0.104
-452.968	171.095	-0.246	0.356
-451.953	28.327	-0.189	0.162
-450.938	-86.780	0.315	-0.097
-449.924	132.107	-0.076	-0.098
-448.909	-125.771	0.112	-0.017
-447.895	279.121	-0.088	-0.158
-446.880	10.278	0.072	0.055
-445.865	-2.452	0.345	-0.244
-444.851	-86.279	0.243	-0.075
-443.836	-20.479	-0.132	0.082
-442.822	-43.364	-0.117	0.060
-441.807	800.000	0.027	-0.101
-440.792	352.442	0.120	0.239
-439.778	-89.295	-0.020	0.006
-438.763	-200.000	0.003	-0.035
-437.749	-83.334	-0.159	0.052
-436.734	-6.919	-0.134	0.092
-435.719	-200.000	-0.030	-0.333
-434.705	4.679	0.219	-0.162
-433.690	-2.153	-0.134	0.095
-432.676	-52.854	-0.197	0.091
-431.661	-70.111	-0.307	-0.118
-430.646	474.548	-0.053	0.122
-429.632	-149.461	0.343	-0.027
-428.617	123.093	-0.085	0.107
-427.603	-117.895	-0.375	0.068
-426.588	800.000	0.099	0.318
-425.573	16.741	-0.118	0.094
-424.559	534.666	0.033	0.079
-423.544	37.098	-0.118	0.105
-422.530	3.066	0.119	0.087
-421.515	-190.712	-0.478	-0.005
-420.500	-171.708	-0.221	0.007
-419.486	469.868	0.131	-0.296
-418.471	-91.047	-0.065	0.019
-417.457	-200.000	0.018	0.192
-416.442	-43.287	0.272	-0.139
-415.428	-200.000	0.040	-0.369
-414.413	35.392	-0.080	-0.071
-413.398	-82.477	0.127	-0.041
-412.384	800.000	0.046	-0.193
-411.369	800.000	0.070	-0.303
-410.355	318.394	0.091	-0.173
-409.340	216.089	0.016	-0.025
-408.325	60.563	0.125	-0.124
-407.311	146.911	-0.308	0.417
-406.296	800.000	0.167	0.514
-405.282	575.100	-0.038	0.093
-404.267	212.192	-0.074	0.118
-403.252	90.709	-0.116	0.131
-402.238	141.246	0.226	0.301
-401.223	-200.000	0.086	0.000
-400.209	-51.177	-0.335	0.158
-399.194	-5.473	0.185	-0.128
-398.179	11.669	-0.128	0.099
-397.165	-133.073	0.053	-0.007
-396.150	-77.417	-0.170	-0.059
-395.136	156.961	-0.196	-0.273
-394.121	-75.504	-0.054	0.019
-393.106	261.555	-0.241	-0.421
-392.092	336.871	-0.109	-0.212
-391.077	-132.792	0.145	-0.019
-390.063	800.000	-0.063	-0.180
-389.048	170.856	0.299	0.431
-388.033	173.929	-0.178	0.258
-387.019	54.216	0.363	-0.351
-386.004	400.140	-0.099	-0.208
-384.990	178.866	0.128	-0.189
-383.975	800.000	-0.120	-0.473
-382.960	143.291	-0.084	-0.112
-381.946	-111.844	0.100	0.020
-380.931	745.760	-0.047	-0.126
-379.917	119.810	-0.070	-0.087
-378.902	19.025	-0.186	-0.150
-377.888	-1.070	-0.272	-0.194
-376.873	-58.826	0.306	-0.133
-375.858	-67.539	0.174	-0.069
-374.844	-15.598	0.094	-0.060
-373.829	-200.000	0.008	0.434
-372.815	32.371	-0.235	0.204
-371.800	-17.839	0.046	0.029
-370.785	-25.332	0.296	-0.176
-369.771	-109.848	-0.308	-0.065
-368.756	17.173	-0.110	-0.088
-367.742	-200.000	-0.028	0.130
-366.727	800.000	0.058	0.194
-365.712	-80.518	0.194	-0.065
-364.698	-68.826	0.008	-0.003
-363.683	11.450	0.239	0.184
-362.669	88.857	0.186	-0.208
-361.654	-128.380	-0.147	-0.021
-360.639	-14.919	0.073	0.047
-359.625	800.000	0.032	-0.105
-358.610	800.000	-0.074	0.249
-357.596	-30.729	-0.084	-0.048
-356.581	-77.062	-0.184	0.065
-355.566	565.339	0.165	-0.403
-354.552	171.070	-0.157	-0.226
-353.537	-67.103	-0.197	0.078
-352.523	-79.867	-0.170	-0.058
-351.508	-39.911	0.249	0.130
-350.493	520.388	0.125	0.294
-349.479	251.151	-0.065	-0.111
-348.464	53.276	-0.225	0.217
-347.450	146.547	-0.162	0.219
-346.435	-34.468	0.090	-0.049
-345.420	-114.695	-0.061	0.012
-344.406	-2.153	-0.088	-0.062
-343.391	86.646	-0.217	0.240
-342.377	206.794	0.082	0.128
-341.362	100.289	-0.200	-0.234
-340.348	-200.000	-0.023	0.362
-339.333	-200.000	-0.004	-0.081
-338.318	800.000	-0.013	0.040
-337.304	468.554	0.058	-0.131
-336.289	-200.000	-0.037	-0.194
-335.275	-93.722	-0.271	-0.075
-334.260	-52.905	-0.499	0.231
-333.245	77.248	-0.106	-0.113
-332.231	-21.768	0.200	-0.123
-331.216	150.314	0.151	0.206
-330.202	136.444	-0.003	-0.004
-329.187	62.190	0.250	0.250
-328.172	-124.436	0.039	0.006
-327.158	520.290	-0.131	0.308
-326.143	36.439	0.247	0.219
-325.129	-49.748	0.210	0.100
-324.114	-200.000	0.040	0.265
-323.099	65.346	0.114	0.115
-322.085	-136.898	-0.212	0.024
-321.070	37.401	0.331	0.295
-320.056	-129.150	0.149	0.021
-319.041	59.585	0.260	-0.258
-318.026	-13.267	0.155	0.101
-317.012	-127.649	-0.062	-0.009
-315.997	86.168	0.233	-0.257
-314.983	-200.000	-0.022	0.110
-313.968	202.684	-0.085	-0.132
-312.953	59.133	0.167	-0.165
-311.939	-137.324	0.233	0.026
-310.924	-52.870	0.097	-0.045
-309.910	269.904	0.095	-0.168
-308.895	-200.000	-0.032	-0.173
-307.880	229.702	-0.161	0.263
-306.866	-10.175	0.194	-0.129
-305.851	-200.000	0.072	-0.325
-304.837	204.102	-0.211	0.328
-303.822	-32.802	0.184	0.103
-302.807	800.000	-0.083	-0.275
-301.793	-167.073	-0.158	0.006
-300.778	113.926	-0.117	-0.143
-299.764	-41.183	0.078	-0.040
-298.749	139.101	-0.123	0.162
-297.735	17.189	-0.217	0.172
-296.720	-94.551	-0.139	-0.038
-295.705	97.797	0.034	0.040
-294.691	-200.000	-0.034	-0.185
-293.676	38.481	-0.245	-0.219
-292.662	-200.000	0.009	-0.202
-291.647	-144.203	0.189	-0.018
-290.632	-148.893	0.443	-0.036
-289.618	-172.712	-0.323	0.010
-288.603	80.701	-0.109	0.118
-287.589	-200.000	0.003	-0.063
-286.574	-117.350	-0.278	-0.051
-285.559	148.211	0.183	-0.247
-284.545	229.177	-0.079	0.129
-283.530	-185.174	0.443	-0.007
-282.516	-200.000	0.004	-0.138
-281.501	-144.666	0.166	-0.015
-280.486	71.254	-0.163	-0.170
-279.472	-11.259	-0.297	-0.196
-278.457	7.140	0.127	0.095
-277.443	61.132	-0.218	-0.217
-276.428	-200.000	0.013	0.244
-275.413	800.000	0.077	0.274
-274.399	-196.370	-0.338	-0.002
-273.384	-96.499	0.176	0.047
-272.370	-60.881	-0.027	0.011
-271.355	53.528	0.256	-0.246
-270.340	38.043	0.139	0.124
-269.326	-123.558	0.067	0.011
-268.311	17.009	0.096	-0.077
-267.297	224.033	0.145	0.235
-266.282	-200.000	0.001	0.104
-265.267	115.816	0.340	-0.417
-264.253	-197.742	-0.351	0.002
-263.238	195.502	-0.203	0.308
-262.224	-62.065	-0.216	-0.090
-261.209	702.744	0.076	0.201
-260.195	11.016	0.145	0.111
-259.180	-200.000	0.053	-0.318
-258.165	800.000	-0.030	-0.118
-257.151	171.796	-0.017	-0.024
-256.136	206.874	-0.030	-0.047
-255.122	605.704	0.144	0.359
-254.107	101.701	-0.155	-0.181
-253.092	-135.035	0.119	0.014
-252.078	103.922	0.102	0.120
-251.063	-200.000	-0.026	-0.240
-250.049	-28.642	-0.306	0.176
-249.034	147.735	-0.234	0.315
-248.019	800.000	0.066	-0.205
-247.005	-129.029	0.275	0.038
-245.990	549.321	-0.097	-0.233
-244.976	-200.000	-0.003	0.074
-243.961	-135.735	0.237	0.028
-242.946	-81.225	-0.180	0.059
-241.932	-13.517	0.087	0.056
-240.917	-200.000	-0.050	0.398
-239.903	-20.363	0.158	-0.097
-238.888	-119.048	0.262	0.046
-237.873	-200.000	0.035	-0.152
-236.859	497.423	0.174	0.401
-235.844	-167.832	0.205	0.008
-234.830	146.422	-0.084	-0.112
-233.815	29.112	-0.260	-0.220
-232.800	-46.649	-0.151	0.074
-231.786	34.097	0.220	-0.191
-230.771	107.512	-0.098	0.117
-229.757	24.119	0.400	0.330
-228.742	-200.000	0.000	0.252
-227.727	-190.573	0.130	0.001
-226.713	-47.070	-0.173	0.085
-225.698	-70.332	-0.262	0.099
-224.684	-17.278	-0.180	-0.113
-223.669	45.646	0.228	-0.211
-222.655	24.788	-0.138	-0.114
-221.640	-82.780	0.232	0.075
-220.625	-78.454	0.284	0.097
-219.611	-111.857	-0.129	0.026
-218.596	128.780	0.074	-0.094
-217.582	184.996	-0.166	-0.246
-216.567	-200.000	-0.023	0.239
-215.552	383.891	0.054	0.111
-214.538	-24.062	-0.267	0.159
-213.523	103.110	0.129	0.151
-212.509	-58.415	0.201	-0.087
-211.494	-46.210	0.367	0.181
-210.479	708.737	0.094	-0.248
-209.465	120.845	0.246	-0.306
-208.450	-114.303	0.296	-0.057
-207.436	80.006	0.270	0.290
-206.421	0.499	-0.108	0.077
-205.406	56.293	0.123	0.120
-204.392	-6.069	-0.161	-0.110
-203.377	-132.170	-0.285	-0.037
-202.363	-56.947	0.161	0.071
-201.348	-200.000	0.020	-0.336
-200.333	800.000	0.103	0.315
-199.319	-59.925	-0.186	-0.079
-198.304	115.451	-0.170	-0.207
-197.290	26.745	-0.314	0.263
-196.275	800.000	-0.016	0.047
-195.260	-200.000	0.010	0.050
-194.246	174.577	0.155	0.224
-193.231	160.120	0.122	-0.170
-192.217	800.000	-0.090	-0.250
-191.202	-200.000	-0.016	-0.108
-190.187	-19.502	0.218	0.135
-189.173	-52.482	0.285	0.131
-188.158	119.254	-0.265	0.328
-187.144	117.245	-0.224	0.275
-186.129	-200.000	-0.052	-0.293
-185.114	-78.780	-0.251	-0.085
-184.100	800.000	-0.130	0.459
-183.085	-200.000	-0.001	-0.114
-182.071	-141.499	-0.421	-0.043
-181.056	-200.000	0.011	-0.070
-180.042	-135.581	-0.291	-0.035
-179.027	-129.128	-0.209	0.029
-178.012	-20.759	0.083	0.051
-176.998	-12.102	0.199	0.130
-175.983	-200.000	-0.002	0.089
-174.969	-67.011	-0.070	-0.028
-173.954	-10.540	-0.029	-0.019
-172.939	-200.000	-0.032	0.361
-171.925	396.924	0.064	0.133
-170.910	-64.297	-0.059	0.024
-169.896	-200.000	0.065	-0.327
-168.881	-76.752	-0.348	0.121
-167.866	43.786	-0.109	0.099
-166.852	-131.424	0.128	-0.017
-165.837	-106.539	-0.307	-0.068
-164.823	800.000	-0.048	-0.164
-163.808	-200.000	-0.057	0.252
-162.793	-200.000	-0.023	-0.362
-161.779	-130.692	0.179	-0.024
-160.764	194.604	-0.101	-0.153
-159.750	800.000	0.051	0.160
-158.735	-58.792	0.314	-0.136
-157.720	10.671	0.235	0.179
-156.706	63.014	0.108	-0.108
-155.691	-60.896	0.143	-0.060
-154.677	203.957	0.076	-0.117
-153.662	-43.504	-0.175	-0.088
-152.647	-105.106	-0.240	0.055
-151.633	582.720	-0.127	-0.312
-150.618	-96.050	-0.386	0.102
-149.604	49.478	-0.066	-0.062
-148.589	-119.221	0.195	-0.034
-147.574	-67.421	-0.214	-0.084
-146.560	-200.000	0.039	-0.189
-145.545	800.000	-0.084	0.279
-144.531	800.000	0.088	0.358
-143.516	8.018	-0.271	-0.202
-142.502	-20.756	-0.188	-0.115
-141.487	-113.168	0.326	0.064
-140.472	-36.182	0.107	-0.057
-139.458	-109.045	-0.353	0.075
-138.443	78.453	0.167	-0.178
-137.429	-200.000	-0.033	0.205
-136.414	-48.874	-0.118	0.056
-135.399	139.389	0.119	0.157
-134.385	94.055	-0.217	0.245
-133.370	-0.469	-0.323	0.228
-132.356	188.126	-0.044	-0.065
-131.341	-200.000	-0.021	0.226
-130.326	-97.502	-0.123	0.032
-129.312	530.932	-0.079	0.186
-128.297	494.857	-0.073	-0.168
-127.283	-153.945	0.200	-0.014
-126.268	49.600	0.249	-0.234
-125.253	-200.000	-0.030	-0.188
-124.239	-200.000	0.018	0.123
-123.224	-200.000	0.029	0.299
-122.210	-126.994	0.284	-0.041
