DTS Sentinel unit serial number:	SN413079Multiplexer serial number:	ORYXHardware model number:	OX4-SRSoftware version number:	ORYX F/W v4.00 Oryx Data Collector v3.7.2.0data status	okinstallation	princeton_trtdifferential loss correction	single-endedforward channel	channel 3reverse channel	N/Adate	2019/09/14time	13:44:35forward acquisition time	60.00reverse acquisition time	0.00gamma	496.2192k internal	0.2295k external	0.2295temperature offset calibration	1.0061default loss term (dB/km)	0.3790temperature slope calibration	1.0000multiplexer offset coefficient	1.0000multiplexer slope coefficient	1.0000fibre end	0.00T internal ref (°C)	37.86T ext. ref 1 (°C)	4.93T ext. ref 2 (°C)	32.78length (m)	temperature (°C)	Stokes	anti-Stokes-747.200	95.421	0.196	-0.229
-746.185	-118.929	-0.355	0.064
-745.171	-163.101	-0.242	-0.012
-744.156	-28.419	-0.295	0.174
-743.142	-85.832	-0.193	-0.061
-742.127	-200.000	-0.022	0.206
-741.112	800.000	0.041	0.184
-740.098	-200.000	0.081	0.412
-739.083	-45.885	-0.197	-0.099
-738.069	24.354	0.074	0.062
-737.054	276.788	-0.092	-0.168
-736.039	-79.823	-0.207	-0.071
-735.025	-37.609	0.326	0.177
-734.010	-200.000	-0.034	0.286
-732.996	233.453	-0.069	0.116
-731.981	-44.180	0.229	0.117
-730.966	122.501	-0.177	-0.226
-729.952	-153.246	-0.332	0.024
-728.937	-139.053	-0.432	0.048
-727.923	-70.839	-0.132	0.051
-726.908	90.765	0.239	-0.274
-725.894	113.474	-0.128	-0.159
-724.879	381.213	-0.065	-0.137
-723.864	-200.000	0.013	0.179
-722.850	370.640	-0.060	0.125
-721.835	-200.000	0.036	-0.232
-720.821	-60.980	-0.281	-0.121
-719.806	15.102	0.205	0.164
-718.791	-105.036	0.274	-0.064
-717.777	48.605	0.236	-0.226
-716.762	-8.956	0.343	-0.235
-715.748	-157.930	0.224	-0.013
-714.733	282.339	-0.086	-0.158
-713.718	-50.256	-0.225	0.108
-712.704	-116.551	-0.476	0.090
-711.689	29.283	-0.085	-0.074
-710.675	-87.711	0.125	0.039
-709.660	-200.000	-0.049	-0.313
-708.645	-200.000	-0.037	-0.217
-707.631	-120.174	0.171	0.030
-706.616	-42.806	0.138	0.072
-705.602	-131.227	-0.099	-0.013
-704.587	97.497	-0.120	0.141
-703.572	-200.000	0.017	-0.132
-702.558	-66.758	-0.173	0.070
-701.543	29.764	0.071	-0.062
-700.529	-106.433	-0.263	0.060
-699.514	-43.843	-0.208	0.107
-698.499	30.302	0.102	-0.089
-697.485	106.414	0.143	-0.173
-696.470	-200.000	-0.009	-0.318
-695.456	-38.666	0.123	0.066
-694.441	-130.982	0.314	0.043
-693.426	-140.575	-0.253	-0.027
-692.412	-200.000	-0.031	-0.183
-691.397	-55.256	-0.191	0.087
-690.383	-21.826	0.237	-0.147
-689.368	383.760	0.175	0.367
-688.354	407.213	-0.122	-0.263
-687.339	146.544	0.073	-0.100
-686.324	-200.000	-0.046	-0.267
-685.310	-31.916	0.112	-0.064
-684.295	109.866	-0.097	0.119
-683.281	-104.474	0.303	0.071
-682.266	59.567	-0.277	-0.278
-681.251	-200.000	-0.011	-0.155
-680.237	791.655	-0.157	-0.441
-679.222	-55.175	-0.215	-0.099
-678.208	-101.029	0.128	0.032
-677.193	-69.627	0.312	0.122
-676.178	-132.422	0.119	-0.016
-675.164	-100.114	0.193	0.049
-674.149	-56.734	-0.389	-0.176
-673.135	-55.638	0.064	0.029
-672.120	800.000	0.077	0.252
-671.105	-200.000	0.000	-0.125
-670.091	-55.514	-0.345	-0.158
-669.076	226.831	0.187	-0.309
-668.062	-32.435	0.011	-0.006
-667.047	-123.927	-0.348	0.056
-666.032	-108.007	-0.269	0.060
-665.018	267.019	0.111	0.198
-664.003	-200.000	0.024	-0.122
-662.989	800.000	-0.085	0.280
-661.974	435.562	-0.015	-0.033
-660.959	50.503	0.057	0.055
-659.945	-55.398	0.255	-0.117
-658.930	-200.000	0.023	-0.257
-657.916	-189.674	-0.438	0.005
-656.901	184.356	0.115	0.173
-655.886	-200.000	-0.006	-0.136
-654.872	-200.000	0.010	-0.052
-653.857	-200.000	0.000	-0.135
-652.843	-49.108	-0.414	-0.202
-651.828	111.225	-0.288	-0.353
-650.814	-145.525	-0.203	0.019
-649.799	-200.000	0.009	-0.186
-648.784	27.517	0.050	0.043
-647.770	-200.000	-0.004	0.208
-646.755	-8.569	0.357	0.244
-645.741	-52.786	0.205	-0.096
-644.726	99.792	0.256	-0.302
-643.711	-16.108	0.057	0.037
-642.697	134.815	-0.253	-0.335
-641.682	-154.588	-0.176	0.012
-640.668	-200.000	0.023	-0.106
-639.653	101.185	-0.185	-0.219
-638.638	-84.634	0.181	0.058
-637.624	-12.736	-0.267	0.177
-636.609	-62.200	-0.317	-0.134
-635.595	-86.295	0.207	-0.065
-634.580	-137.723	0.204	0.023
-633.565	142.417	-0.175	-0.237
-632.551	-143.959	0.135	0.013
-631.536	458.918	-0.023	-0.052
-630.522	-67.345	-0.313	-0.125
-629.507	-200.000	-0.016	-0.084
-628.492	-101.882	-0.327	-0.080
-627.478	-111.863	0.058	-0.012
-626.463	-3.874	-0.256	0.181
-625.449	-112.060	0.238	0.049
-624.434	109.231	0.185	-0.225
-623.419	-70.160	-0.296	-0.115
-622.405	164.195	-0.175	-0.251
-621.390	-1.040	0.206	0.148
-620.376	-200.000	0.042	-0.198
-619.361	-71.603	-0.157	-0.060
-618.346	154.241	-0.066	0.092
-617.332	800.000	0.012	0.036
-616.317	69.504	0.178	-0.186
-615.303	-186.981	-0.173	-0.002
-614.288	-160.532	-0.349	-0.019
-613.273	122.528	-0.159	-0.202
-612.259	379.692	-0.202	0.421
-611.244	175.609	0.183	0.270
-610.230	-133.373	0.413	0.053
-609.215	106.513	-0.136	-0.164
-608.201	151.304	-0.200	-0.276
-607.186	-139.950	-0.364	-0.039
-606.171	-0.928	-0.126	-0.091
-605.157	-21.407	0.177	-0.110
-604.142	-13.178	-0.142	0.094
-603.128	-74.805	0.495	-0.181
-602.113	94.273	-0.158	-0.182
-601.098	363.130	0.107	0.218
-600.084	515.179	0.122	-0.290
-599.069	-200.000	0.191	-0.000
-598.055	-125.219	0.236	0.037
-597.040	-37.761	0.265	-0.144
-596.025	-200.000	-0.006	-0.116
-595.011	90.049	0.115	-0.131
-593.996	-119.820	-0.164	-0.029
-592.982	262.138	0.183	-0.322
-591.967	-200.000	-0.008	-0.391
-590.952	-200.000	-0.008	-0.111
-589.938	732.616	0.088	-0.239
-588.923	-131.657	-0.500	-0.067
-587.909	87.103	0.143	-0.161
-586.894	-161.109	0.065	-0.003
-585.879	-65.476	0.230	0.094
-584.865	735.828	0.029	-0.078
-583.850	-100.349	0.464	-0.117
-582.836	-94.329	0.205	-0.057
-581.821	56.696	-0.197	0.194
-580.806	800.000	0.029	-0.124
-579.792	-93.712	0.106	0.030
-578.777	-79.416	0.232	-0.080
-577.763	-120.215	0.284	0.049
-576.748	800.000	-0.051	0.147
-575.733	-96.854	-0.486	0.130
-574.719	14.093	-0.092	-0.073
-573.704	15.936	-0.261	-0.209
-572.690	-42.863	0.337	-0.174
-571.675	150.355	-0.342	0.471
-570.661	-200.000	0.019	-0.187
-569.646	44.471	-0.141	-0.132
-568.631	-54.887	0.081	0.037
-567.617	-62.448	-0.214	0.090
-566.602	-28.444	0.412	0.241
-565.588	-63.751	-0.039	-0.016
-564.573	-200.000	-0.024	0.193
-563.558	-95.990	-0.152	-0.041
-562.544	-58.065	0.385	0.170
-561.529	-36.914	-0.171	-0.093
-560.515	452.935	0.091	-0.204
-559.500	-39.751	-0.126	-0.067
-558.485	800.000	0.060	0.203
-557.471	800.000	0.056	0.229
-556.456	-200.000	0.010	0.067
-555.442	-124.964	-0.217	0.034
-554.427	-140.906	0.277	0.029
-553.412	-200.000	0.016	-0.079
-552.398	-60.961	0.187	-0.080
-551.383	250.292	0.104	0.179
-550.369	687.872	-0.114	0.301
-549.354	174.418	0.193	0.283
-548.339	-45.539	-0.070	0.035
-547.325	-200.000	0.054	0.248
-546.310	-78.797	-0.387	0.134
-545.296	-200.000	0.043	-0.266
-544.281	-135.346	-0.097	0.012
-543.266	-181.672	0.136	-0.003
-542.252	-43.127	0.240	0.123
-541.237	-60.758	-0.171	0.073
-540.223	149.035	0.069	-0.095
-539.208	-200.000	-0.072	-0.434
-538.193	-162.829	0.311	0.015
-537.179	800.000	-0.008	-0.023
-536.164	-200.000	-0.035	0.219
-535.150	89.260	0.176	0.199
-534.135	-168.845	-0.406	-0.015
-533.121	-200.000	0.046	-0.263
-532.106	258.366	0.182	0.318
-531.091	21.419	-0.087	0.071
-530.077	-200.000	-0.024	0.499
-529.062	266.061	-0.064	0.113
-528.048	-200.000	-0.066	-0.348
-527.033	-200.000	-0.035	0.472
-526.018	102.227	0.116	0.137
-525.004	9.662	-0.446	-0.343
-523.989	-200.000	-0.007	0.202
-522.975	7.091	-0.205	0.155
-521.960	202.962	-0.191	-0.299
-520.945	-13.562	-0.042	0.028
-519.931	-74.402	0.391	0.143
-518.916	-200.000	0.014	-0.113
-517.902	103.570	0.213	-0.254
-516.887	28.832	0.212	0.182
-515.872	-145.615	-0.279	0.025
-514.858	577.008	0.127	-0.315
-513.843	-141.377	-0.278	0.029
-512.829	-164.873	-0.019	-0.001
-511.814	-172.309	0.447	0.014
-510.799	158.045	-0.019	0.027
-509.785	10.414	-0.085	-0.066
-508.770	-173.326	0.342	0.011
-507.756	-105.232	0.177	-0.041
-506.741	-200.000	0.005	0.234
-505.726	-31.171	0.220	0.125
-504.712	-47.408	0.352	-0.173
-503.697	800.000	0.050	0.145
-502.683	-200.000	0.016	0.089
-501.668	800.000	-0.077	0.270
-500.653	-200.000	-0.032	-0.232
-499.639	-200.000	-0.014	-0.173
-498.624	-200.000	-0.033	-0.214
-497.610	298.951	0.175	-0.326
-496.595	-73.030	-0.614	-0.228
-495.581	4.883	-0.122	-0.091
-494.566	-147.512	-0.467	0.040
-493.551	-45.111	-0.152	-0.076
-492.537	-131.680	-0.193	0.026
-491.522	-105.907	0.191	-0.044
-490.508	-200.000	-0.003	-0.392
-489.493	800.000	0.027	-0.100
-488.478	22.042	0.122	-0.101
-487.464	-72.390	-0.281	-0.105
-486.449	-107.543	0.092	0.020
-485.435	388.143	0.144	0.302
-484.420	-103.520	0.266	0.063
-483.405	92.744	-0.086	-0.098
-482.391	-200.000	-0.060	0.418
-481.376	-77.112	-0.210	-0.074
-480.362	-189.259	0.261	0.003
-479.347	-200.000	0.026	-0.179
-478.332	-118.810	-0.093	-0.017
-477.318	382.683	0.114	0.236
-476.303	140.984	-0.340	0.455
-475.289	-20.747	-0.160	0.099
-474.274	146.925	0.062	-0.084
-473.259	-80.958	0.083	-0.028
-472.245	-200.000	-0.000	0.061
-471.230	66.061	-0.106	0.108
-470.216	-48.583	-0.297	0.144
-469.201	-50.427	0.138	0.066
-468.186	-67.417	-0.203	-0.081
-467.172	706.252	0.078	0.207
-466.157	-10.071	-0.323	0.217
-465.143	405.810	-0.047	-0.101
-464.128	113.591	0.090	0.110
-463.113	86.580	-0.054	0.060
-462.099	-200.000	-0.016	0.095
-461.084	-85.306	-0.098	0.031
-460.070	24.689	-0.133	0.111
-459.055	-64.309	-0.208	0.086
-458.040	-107.203	0.186	-0.042
-457.026	41.808	-0.040	0.036
-456.011	800.000	0.084	0.312
-454.997	32.201	0.228	-0.199
-453.982	-197.694	0.242	0.001
-452.968	-108.145	0.130	-0.029
-451.953	-21.956	-0.236	-0.145
-450.938	408.084	0.107	0.229
-449.924	800.000	0.094	0.284
-448.909	-83.485	-0.157	0.051
-447.895	-200.000	-0.027	0.121
-446.880	-108.550	-0.041	0.009
-445.865	-26.380	0.120	-0.071
-444.851	370.246	-0.021	-0.043
-443.836	800.000	0.059	-0.217
-442.822	800.000	0.029	0.095
-441.807	-130.696	-0.264	0.036
-440.792	91.485	-0.063	-0.072
-439.778	-200.000	0.011	0.154
-438.763	-110.144	-0.386	0.081
-437.749	-119.598	0.022	0.004
-436.734	-76.195	0.095	-0.034
-435.719	-96.010	-0.076	0.020
-434.705	24.630	-0.082	0.068
-433.690	-200.000	0.015	0.263
-432.676	409.740	0.123	-0.264
-431.661	626.908	-0.060	-0.153
-430.646	-200.000	-0.015	0.265
-429.632	151.635	0.218	0.300
-428.617	151.546	-0.048	0.067
-427.603	39.237	-0.134	0.121
-426.588	-43.222	-0.086	-0.044
-425.573	800.000	-0.021	0.065
-424.559	198.257	-0.138	0.212
-423.544	209.022	0.143	-0.226
-422.530	44.425	0.174	0.161
-421.515	-41.642	-0.188	0.097
-420.500	800.000	0.071	0.239
-419.486	28.881	-0.342	-0.292
-418.471	-139.531	0.108	-0.012
-417.457	-60.238	0.342	0.147
-416.442	-200.000	0.036	0.372
-415.428	94.769	0.101	0.116
-414.413	-4.210	-0.137	-0.095
-413.398	-98.441	0.384	-0.099
-412.384	319.122	-0.051	0.098
-411.369	366.709	0.082	0.168
-410.355	-200.000	-0.064	-0.423
-409.340	4.995	0.259	0.192
-408.325	-7.991	-0.273	0.186
-407.311	-200.000	0.013	-0.150
-406.296	-133.553	0.247	0.031
-405.282	-200.000	0.001	0.077
-404.267	30.279	0.141	-0.121
-403.252	-114.762	0.147	-0.028
-402.238	-171.300	-0.410	0.014
-401.223	800.000	-0.091	0.285
-400.209	-200.000	-0.004	0.034
-399.194	-19.685	-0.389	0.243
-398.179	-200.000	-0.009	0.112
-397.165	148.187	-0.102	-0.139
-396.150	418.502	0.079	0.170
-395.136	351.223	0.074	0.148
-394.121	291.091	-0.055	0.100
-393.106	-200.000	-0.011	-0.147
-392.092	800.000	0.086	0.367
-391.077	134.880	-0.125	0.163
-390.063	-31.738	-0.158	-0.089
-389.048	98.889	0.163	0.190
-388.033	304.606	-0.151	-0.283
-387.019	9.362	0.397	-0.303
-386.004	-108.885	-0.316	0.068
-384.990	800.000	-0.050	-0.214
-383.975	-200.000	0.015	-0.085
-382.960	-200.000	0.012	-0.182
-381.946	24.026	0.193	-0.160
-380.931	-101.784	0.052	-0.013
-379.917	-43.776	0.040	0.020
-378.902	69.978	-0.183	0.190
-377.888	-200.000	0.008	0.265
-376.873	-26.845	-0.148	0.087
-375.858	-68.751	-0.261	-0.102
-374.844	86.527	-0.106	0.117
-373.829	-39.626	-0.087	-0.046
-372.815	114.657	0.139	-0.171
-371.800	-200.000	-0.035	-0.162
-370.785	-139.243	0.213	0.023
-369.771	-200.000	-0.026	-0.192
-368.756	-0.261	0.135	0.097
-367.742	130.437	0.143	-0.185
-366.727	-152.580	-0.161	0.012
-365.712	-158.784	-0.333	-0.019
-364.698	-61.239	-0.171	0.072
-363.683	639.804	-0.120	0.309
-362.669	24.171	-0.155	-0.129
-361.654	-63.581	0.283	-0.117
-360.639	-152.473	-0.246	-0.018
-359.625	8.197	0.035	0.026
-358.610	800.000	-0.071	-0.208
-357.596	-22.696	0.196	0.119
-356.581	-58.528	-0.185	-0.081
-355.566	327.100	-0.036	0.070
-354.552	404.453	0.125	0.265
-353.537	-93.864	-0.158	0.044
-352.523	-6.236	0.196	0.135
-351.508	303.923	0.289	-0.540
-350.493	105.177	0.073	0.087
-349.479	-72.231	-0.182	0.068
-348.464	50.462	0.093	-0.088
-347.450	-130.450	0.135	0.018
-346.435	-59.735	-0.153	-0.066
-345.420	-200.000	0.030	-0.169
-344.406	50.269	0.178	0.169
-343.391	576.317	-0.083	0.204
-342.377	64.602	0.150	-0.153
-341.362	-200.000	0.046	-0.263
-340.348	-200.000	0.001	0.031
-339.333	-200.000	0.000	-0.328
-338.318	28.457	0.079	-0.067
-337.304	-133.259	0.245	-0.031
-336.289	38.036	0.063	0.057
-335.275	-59.390	-0.097	0.042
-334.260	-140.690	0.228	0.024
-333.245	-166.538	0.380	-0.016
-332.231	577.093	0.214	-0.526
-331.216	76.233	-0.182	0.193
-330.202	-81.430	-0.088	0.029
-329.187	-90.816	-0.199	0.058
-328.172	191.213	0.145	0.220
-327.158	-2.620	0.293	-0.206
-326.143	-78.788	-0.198	-0.068
-325.129	-40.039	-0.232	0.122
-324.114	-173.723	-0.213	0.006
-323.099	-9.056	-0.369	-0.248
-322.085	265.911	-0.254	0.446
-321.070	800.000	-0.114	0.454
-320.056	-90.989	0.079	-0.023
-319.041	414.592	-0.133	0.285
-318.026	19.977	0.207	-0.168
-317.012	62.907	-0.137	0.138
-315.997	-8.492	-0.106	-0.071
-314.983	159.612	-0.209	0.292
-313.968	45.684	-0.211	-0.196
-312.953	433.977	0.079	-0.172
-311.939	800.000	-0.096	-0.363
-310.924	31.249	-0.056	-0.048
-309.910	-88.162	0.140	0.042
-308.895	-23.845	0.131	0.079
-307.880	-6.167	-0.212	-0.146
-306.866	800.000	-0.079	-0.271
-305.851	-23.881	0.213	-0.128
-304.837	-22.545	-0.016	0.010
-303.822	-200.000	-0.024	-0.105
-302.807	-6.913	-0.189	-0.129
-301.793	227.684	0.125	-0.205
-300.778	420.933	0.139	-0.300
-299.764	800.000	0.070	-0.272
-298.749	-200.000	0.010	-0.104
-297.735	-144.602	0.392	0.036
-296.720	135.850	0.247	-0.323
-295.705	-142.384	0.024	-0.002
-294.691	-89.259	0.152	0.045
-293.676	-102.188	0.265	-0.064
-292.662	132.747	0.151	0.195
-291.647	-200.000	0.017	-0.084
-290.632	-108.169	-0.242	-0.053
-289.618	244.372	-0.108	-0.183
-288.603	-200.000	0.058	-0.276
-287.589	453.228	0.127	0.282
-286.574	-90.605	0.146	0.042
-285.559	21.077	0.263	0.214
-284.545	182.810	-0.109	-0.161
-283.530	-146.743	-0.133	-0.012
-282.516	-153.805	0.320	-0.022
-281.501	-93.763	0.422	-0.117
-280.486	-70.774	-0.124	-0.047
-279.472	-112.090	0.236	-0.048
-278.457	690.929	-0.088	0.231
-277.443	127.519	0.037	-0.047
-276.428	-49.545	0.146	-0.070
-275.413	-155.047	-0.205	0.014
-274.399	28.544	-0.115	-0.098
-273.384	33.194	-0.053	-0.046
-272.370	-180.450	0.167	-0.003
-271.355	-90.660	-0.099	0.029
-270.340	-100.431	0.192	-0.048
-269.326	-200.000	0.008	-0.106
-268.311	83.936	-0.262	-0.287
-267.297	113.801	-0.022	0.027
-266.282	183.527	0.104	-0.154
-265.267	-39.671	0.247	-0.130
-264.253	73.293	-0.247	-0.259
-263.238	462.465	0.124	0.278
-262.224	58.438	0.091	-0.090
-261.209	17.812	-0.159	0.127
-260.195	-12.495	-0.099	-0.065
-259.180	-107.198	0.289	-0.064
-258.165	135.449	-0.118	-0.154
-257.151	408.756	0.121	-0.256
-256.136	146.629	0.170	-0.229
-255.122	-18.749	-0.171	0.107
-254.107	-199.173	-0.044	0.000
-253.092	143.025	0.143	0.191
-252.078	-50.028	0.219	0.104
-251.063	54.246	-0.077	-0.074
-250.049	-200.000	0.091	-0.444
-249.034	-100.904	0.297	0.073
-248.019	70.838	-0.088	0.091
-247.005	-2.685	-0.160	0.112
-245.990	59.282	-0.193	-0.191
-244.976	800.000	-0.100	-0.278
-243.961	214.791	0.084	0.134
-242.946	-23.247	-0.152	0.092
-241.932	190.786	-0.047	0.070
-240.917	-185.115	-0.342	0.005
-239.903	-7.276	0.219	-0.149
-238.888	-165.864	-0.093	-0.004
-237.873	54.916	0.199	0.193
-236.859	-4.531	-0.162	0.112
-235.844	-109.318	-0.122	-0.026
-234.830	-130.030	-0.030	-0.004
-233.815	-153.019	-0.222	-0.016
-232.800	6.484	-0.248	-0.185
-231.786	-73.910	-0.332	-0.121
-230.771	498.841	0.066	0.153
-229.757	-97.587	0.139	-0.036
-228.742	-200.000	0.032	-0.352
-227.727	800.000	-0.019	-0.081
-226.713	800.000	0.024	-0.079
-225.698	-120.867	-0.043	-0.007
-224.684	79.855	0.185	-0.199
-223.669	146.438	0.178	0.239
-222.655	646.160	-0.070	-0.180
-221.640	-155.763	0.406	-0.026
-220.625	137.782	-0.192	0.252
-219.611	800.000	0.036	-0.141
-218.596	434.815	0.006	0.013
-217.582	-135.474	0.154	0.018
-216.567	-76.354	0.356	0.125
-215.552	279.057	0.172	0.307
-214.538	800.000	-0.068	0.224
-213.523	22.933	-0.410	0.337
-212.509	-200.000	-0.056	-0.333
-211.494	-200.000	0.031	-0.199
-210.479	-123.668	0.194	0.031
-209.465	-33.276	0.323	0.179
-208.450	393.405	0.073	0.151
-207.436	-141.383	-0.261	0.026
-206.421	-112.617	0.222	0.044
-205.406	-62.092	0.263	0.110
-204.392	-65.135	0.090	0.036
-203.377	13.073	-0.141	0.109
-202.363	-200.000	0.004	-0.048
-201.348	-94.060	-0.056	0.016
-200.333	-33.985	0.023	-0.013
-199.319	688.573	-0.146	0.382
-198.304	131.568	-0.216	-0.278
-197.290	286.184	0.073	0.132
-196.275	-200.000	-0.056	0.290
-195.260	-135.811	-0.359	0.042
-194.246	-113.956	0.301	-0.058
-193.231	172.689	-0.058	0.083
-192.217	-5.050	0.081	0.056
-191.202	70.866	-0.072	-0.075
-190.187	-22.824	-0.214	0.129
-189.173	80.593	0.010	0.011
-188.158	-72.714	-0.181	0.067
-187.144	-33.040	-0.308	0.171
-186.129	-200.000	0.059	-0.320
-185.114	800.000	-0.025	-0.103
-184.100	-200.000	0.027	0.461
-183.085	800.000	0.085	-0.311
-182.071	-93.189	0.135	0.038
-181.056	126.011	-0.251	0.318
-180.042	-180.098	-0.161	-0.003
-179.027	151.327	0.131	-0.178
-178.012	-27.651	-0.072	0.042
-176.998	-22.198	0.199	0.121
-175.983	800.000	0.059	0.198
-174.969	198.924	-0.193	-0.296
-173.954	-200.000	0.014	-0.069
-172.939	-200.000	0.002	-0.027
-171.925	446.779	0.218	0.479
-170.910	732.735	-0.098	-0.261
-169.896	-143.021	-0.109	0.011
-168.881	-180.276	-0.520	-0.011
-167.866	93.927	0.044	0.050
-166.852	-148.309	-0.215	-0.018
-165.837	84.638	0.214	-0.234
-164.823	19.616	0.343	0.276
-163.808	45.223	0.038	-0.035
-162.793	396.120	-0.131	0.273
-161.779	-71.355	-0.171	-0.064
-160.764	-200.000	-0.005	0.147
-159.750	-171.658	0.180	-0.006
-158.735	45.504	-0.079	-0.073
-157.720	-200.000	-0.007	-0.062
-156.706	60.498	0.284	0.281
-155.691	8.256	0.391	0.293
-154.677	800.000	-0.038	0.127
-153.662	128.986	-0.091	0.116
-152.647	-108.364	-0.067	0.014
-151.633	119.689	-0.162	0.200
-150.618	800.000	0.117	-0.450
-149.604	179.307	0.028	-0.040
-148.589	43.437	-0.047	-0.043
-147.574	-97.652	-0.191	-0.050
-146.560	-199.333	0.209	-0.001
-145.545	261.941	0.067	0.116
-144.531	-148.519	-0.268	-0.022
-143.516	-200.000	-0.006	-0.086
-142.502	-102.156	-0.122	-0.029
-141.487	226.746	-0.038	-0.062
-140.472	157.716	-0.035	0.049
-139.458	-111.372	0.095	-0.019
-138.443	3.193	0.144	-0.105
-137.429	-0.909	-0.140	0.099
-136.414	800.000	0.075	-0.279
-135.399	-200.000	-0.023	-0.121
-134.385	59.336	-0.260	0.256
-133.370	-157.367	0.133	0.008
-132.356	78.786	-0.084	-0.090
-131.341	-200.000	-0.005	-0.025
-130.326	-23.792	-0.197	0.118
-129.312	-200.000	0.002	0.186
-128.297	-200.000	0.029	0.141
-127.283	-90.050	0.071	-0.021
-126.268	-161.292	-0.145	0.008
-125.253	3.004	0.181	-0.131
-124.239	-12.340	-0.114	-0.075
-123.224	-13.733	-0.238	0.154
-122.210	-156.657	-0.083	0.005
