DTS Sentinel unit serial number:	SN413079Multiplexer serial number:	ORYXHardware model number:	OX4-SRSoftware version number:	ORYX F/W v4.00 Oryx Data Collector v3.7.2.0data status	okinstallation	princeton_trtdifferential loss correction	single-endedforward channel	channel 3reverse channel	N/Adate	2019/09/15time	05:04:34forward acquisition time	60.00reverse acquisition time	0.00gamma	496.2192k internal	0.2324k external	0.2324temperature offset calibration	0.9984default loss term (dB/km)	0.3790temperature slope calibration	1.0000multiplexer offset coefficient	1.0000multiplexer slope coefficient	1.0000fibre end	0.00T internal ref (°C)	30.64T ext. ref 1 (°C)	4.84T ext. ref 2 (°C)	25.17length (m)	temperature (°C)	Stokes	anti-Stokes-747.200	638.848	-0.122	0.314
-746.185	107.223	0.130	-0.156
-745.171	18.394	0.279	0.225
-744.156	-101.281	-0.226	0.056
-743.142	-140.879	-0.136	0.014
-742.127	-94.100	-0.362	0.100
-741.112	-200.000	0.031	0.281
-740.098	151.604	-0.179	-0.246
-739.083	-132.063	-0.153	0.020
-738.069	223.982	-0.105	0.171
-737.054	-200.000	-0.001	0.209
-736.039	-200.000	0.017	-0.089
-735.025	-72.513	-0.114	0.042
-734.010	97.522	0.116	-0.134
-732.996	-200.000	0.018	0.087
-731.981	254.480	-0.202	-0.349
-730.966	196.983	-0.123	-0.189
-729.952	-194.407	-0.289	0.002
-728.937	419.009	0.088	0.190
-727.923	-0.214	-0.155	-0.111
-726.908	-4.099	-0.145	-0.101
-725.894	-118.901	0.214	0.038
-724.879	-101.355	-0.155	0.038
-723.864	273.767	-0.264	-0.470
-722.850	-200.000	-0.003	-0.600
-721.835	34.609	0.100	0.089
-720.821	800.000	0.103	-0.332
-719.806	-46.243	-0.134	-0.067
-718.791	75.276	-0.080	0.085
-717.777	800.000	0.033	0.115
-716.762	786.870	0.061	-0.169
-715.748	-200.000	0.030	0.143
-714.733	-115.031	0.545	0.104
-713.718	72.899	-0.143	0.151
-712.704	-41.839	0.103	-0.053
-711.689	-200.000	-0.001	0.112
-710.675	-200.000	0.014	-0.111
-709.660	323.683	0.132	-0.253
-708.645	-104.837	-0.171	0.039
-707.631	-10.430	0.222	0.148
-706.616	35.018	-0.227	-0.200
-705.602	79.953	0.094	0.101
-704.587	-200.000	0.005	-0.204
-703.572	-0.594	-0.388	-0.278
-702.558	84.013	-0.085	-0.093
-701.543	-17.378	-0.247	0.156
-700.529	70.810	0.250	-0.261
-699.514	-200.000	0.034	0.223
-698.499	346.235	0.164	-0.325
-697.485	13.175	0.184	-0.144
-696.470	160.147	0.288	-0.405
-695.456	5.931	0.245	0.183
-694.441	-200.000	-0.026	-0.154
-693.426	-95.101	0.235	0.064
-692.412	-90.375	-0.235	0.069
-691.397	-25.310	-0.227	-0.135
-690.383	-39.426	-0.435	0.229
-689.368	75.573	-0.196	0.209
-688.354	-84.212	-0.305	0.097
-687.339	37.753	0.046	-0.042
-686.324	-59.582	0.128	0.055
-685.310	-118.726	0.183	-0.033
-684.295	111.346	0.172	-0.209
-683.281	-200.000	-0.065	0.298
-682.266	-93.995	0.221	0.061
-681.251	800.000	0.077	-0.238
-680.237	-25.428	0.121	-0.072
-679.222	102.347	0.362	-0.426
-678.208	51.166	-0.121	-0.115
-677.193	800.000	-0.079	0.306
-676.178	500.623	-0.115	-0.268
-675.164	80.000	0.126	-0.137
-674.149	28.300	0.212	0.181
-673.135	177.236	-0.072	0.105
-672.120	-146.875	0.309	-0.027
-671.105	800.000	0.166	-0.500
-670.091	-61.503	-0.185	-0.078
-669.076	-155.850	-0.213	-0.014
-668.062	-200.000	-0.001	-0.037
-667.047	-53.929	-0.097	-0.044
-666.032	-111.138	-0.162	0.033
-665.018	-200.000	0.029	-0.270
-664.003	60.372	0.220	0.219
-662.989	-164.929	0.336	0.015
-661.974	144.867	0.175	0.236
-660.959	51.179	-0.060	-0.057
-659.945	-200.000	-0.018	0.165
-658.930	64.254	0.057	-0.058
-657.916	800.000	0.039	0.130
-656.901	-174.812	-0.179	-0.005
-655.886	-108.449	0.309	0.067
-654.872	-119.192	-0.100	0.018
-653.857	-93.515	-0.445	-0.124
-652.843	-16.251	0.141	-0.090
-651.828	-178.177	-0.302	0.007
-650.814	-0.634	-0.124	-0.089
-649.799	-9.911	0.252	-0.169
-648.784	745.974	-0.092	0.249
-647.770	106.484	-0.155	0.185
-646.755	4.003	0.224	-0.164
-645.741	183.957	-0.097	0.145
-644.726	-200.000	-0.001	0.205
-643.711	-200.000	0.017	0.147
-642.697	-76.331	0.465	0.164
-641.682	-79.229	-0.071	0.024
-640.668	291.278	-0.142	-0.259
-639.653	368.674	-0.062	0.127
-638.638	508.814	0.136	0.319
-637.624	45.417	-0.241	-0.223
-636.609	-200.000	0.014	-0.186
-635.595	90.535	-0.137	-0.154
-634.580	90.914	0.155	-0.175
-633.565	52.663	-0.307	-0.295
-632.551	13.960	0.304	0.237
-631.536	297.596	-0.182	-0.337
-630.522	-200.000	-0.132	0.000
-629.507	631.596	-0.059	-0.150
-628.492	318.623	-0.126	-0.240
-627.478	307.322	0.206	-0.385
-626.463	-81.008	-0.183	0.061
-625.449	-200.000	0.007	0.070
-624.434	-11.777	-0.108	0.071
-623.419	-100.327	-0.181	-0.045
-622.405	569.323	-0.174	-0.426
-621.390	360.971	-0.037	-0.074
-620.376	292.285	0.069	0.126
-619.361	235.524	0.011	-0.018
-618.346	-11.713	-0.122	-0.080
-617.332	45.885	-0.280	0.260
-616.317	-200.000	-0.013	0.235
-615.303	800.000	-0.086	0.298
-614.288	-138.414	-0.315	-0.035
-613.273	-47.385	0.125	-0.061
-612.259	800.000	0.076	-0.262
-611.244	465.974	0.017	-0.039
-610.230	-200.000	-0.066	0.328
-609.215	-73.068	-0.148	0.054
-608.201	-200.000	0.000	0.052
-607.186	800.000	-0.074	0.246
-606.171	-200.000	-0.010	0.238
-605.157	38.442	0.144	0.129
-604.142	-79.287	0.141	-0.048
-603.128	494.391	0.120	-0.276
-602.113	-200.000	0.016	0.083
-601.098	-20.327	0.196	0.121
-600.084	90.149	0.113	-0.127
-599.069	-92.576	0.193	-0.054
-598.055	-40.607	0.156	0.081
-597.040	-200.000	-0.043	0.502
-596.025	212.026	0.242	0.383
-595.011	-25.447	-0.239	0.142
-593.996	-72.392	-0.387	0.144
-592.982	-111.365	0.300	0.061
-591.967	-16.723	0.163	-0.103
-590.952	127.967	-0.211	0.270
-589.938	-97.651	0.261	0.068
-588.923	-80.687	-0.125	0.042
-587.909	19.014	-0.036	0.029
-586.894	80.919	0.263	-0.285
-585.879	-200.000	-0.016	-0.203
-584.865	-81.189	0.116	0.038
-583.850	-56.810	0.237	0.105
-582.836	-105.095	0.162	-0.037
-581.821	42.849	-0.376	-0.344
-580.806	-25.715	0.405	-0.240
-579.792	-200.000	-0.034	-0.272
-578.777	105.288	-0.236	0.280
-577.763	-1.814	0.228	0.161
-576.748	-112.678	-0.167	-0.033
-575.733	-200.000	0.004	0.245
-574.719	-150.368	-0.268	0.021
-573.704	-100.686	0.169	-0.042
-572.690	-200.000	0.014	-0.376
-571.675	-200.000	-0.021	0.371
-570.661	800.000	0.069	0.226
-569.646	-90.715	0.175	-0.051
-568.631	259.422	-0.065	0.113
-567.617	-162.938	0.054	0.003
-566.602	800.000	-0.060	0.207
-565.588	-200.000	0.019	-0.110
-564.573	351.010	0.131	0.261
-563.558	-117.750	-0.066	0.012
-562.544	98.942	0.057	-0.067
-561.529	-200.000	0.036	0.256
-560.515	261.112	0.042	0.073
-559.500	-6.389	-0.302	0.206
-558.485	-110.098	-0.247	0.052
-557.471	-35.025	-0.172	-0.094
-556.456	-82.517	-0.313	-0.102
-555.442	340.810	0.103	-0.202
-554.427	-110.454	0.085	-0.018
-553.412	-73.599	-0.287	0.105
-552.398	-5.891	0.211	-0.145
-551.383	-200.000	-0.027	-0.346
-550.369	707.755	0.055	0.146
-549.354	-49.227	-0.167	-0.080
-548.339	-59.359	-0.176	-0.076
-547.325	-97.481	0.250	-0.065
-546.310	-200.000	-0.024	0.256
-545.296	602.170	0.131	0.325
-544.281	378.255	0.096	-0.196
-543.266	-200.000	-0.020	-0.116
-542.252	671.320	0.107	-0.277
-541.237	-200.000	-0.011	-0.357
-540.223	75.267	0.199	-0.210
-539.208	1.241	0.248	0.178
-538.193	197.333	-0.047	0.073
-537.179	102.494	0.102	0.119
-536.164	230.946	-0.088	0.145
-535.150	-177.329	0.259	-0.006
-534.135	504.437	0.115	0.267
-533.121	-73.478	0.202	0.074
-532.106	-29.152	0.170	-0.098
-531.091	800.000	-0.080	-0.241
-530.077	-150.719	0.293	-0.022
-529.062	-200.000	-0.022	-0.184
-528.048	294.646	-0.166	-0.305
-527.033	168.228	0.078	-0.111
-526.018	-34.917	-0.045	-0.025
-525.004	-200.000	0.003	-0.414
-523.989	35.662	0.234	-0.206
-522.975	-93.388	-0.306	-0.085
-521.960	1.587	-0.104	0.075
-520.945	800.000	-0.122	-0.399
-519.931	-38.914	-0.157	-0.083
-518.916	800.000	-0.097	0.288
-517.902	181.499	-0.127	-0.187
-516.887	-57.683	-0.098	0.043
-515.872	-47.811	0.217	0.105
-514.858	322.528	-0.128	0.243
-513.843	625.911	-0.020	0.050
-512.829	-8.093	-0.352	-0.237
-511.814	114.817	-0.122	-0.149
-510.799	-54.327	0.263	0.119
-509.785	-200.000	0.004	0.138
-508.770	7.940	0.186	0.139
-507.756	19.782	-0.333	-0.268
-506.741	-200.000	0.006	-0.178
-505.726	517.577	-0.061	0.142
-504.712	628.014	-0.103	0.260
-503.697	240.109	-0.026	0.044
-502.683	70.510	-0.239	-0.247
-501.668	-18.435	0.105	-0.065
-500.653	674.973	0.105	0.272
-499.639	140.638	0.083	-0.110
-498.624	204.715	0.150	0.233
-497.610	259.591	0.251	0.434
-496.595	204.618	0.159	0.247
-495.581	-200.000	0.008	-0.349
-494.566	-200.000	0.081	0.440
-493.551	113.401	0.173	-0.209
-492.537	800.000	-0.051	0.199
-491.522	-172.739	-0.258	0.008
-490.508	79.787	0.131	-0.141
-489.493	-20.212	0.191	0.118
-488.478	78.186	-0.078	0.084
-487.464	-12.011	0.093	-0.061
-486.449	29.079	0.141	-0.120
-485.435	482.108	-0.048	-0.109
-484.420	800.000	0.054	0.177
-483.405	136.188	0.051	0.066
-482.391	267.970	0.029	-0.050
-481.376	-15.422	-0.227	-0.145
-480.362	-200.000	0.031	-0.180
-479.347	-139.979	0.175	0.018
-478.332	-200.000	0.066	0.316
-477.318	-200.000	0.005	-0.191
-476.303	326.512	0.096	-0.184
-475.289	90.786	-0.037	-0.041
-474.274	-30.706	0.239	0.135
-473.259	-28.473	-0.128	-0.074
-472.245	-87.410	-0.141	-0.043
-471.230	685.481	-0.085	0.222
-470.216	15.387	-0.159	0.125
-469.201	-200.000	0.031	-0.289
-468.186	200.905	0.024	-0.037
-467.172	-36.015	0.125	0.068
-466.157	800.000	0.045	-0.156
-465.143	-100.416	-0.163	-0.040
-464.128	399.586	-0.156	-0.327
-463.113	-143.656	0.103	-0.010
-462.099	20.708	-0.114	0.092
-461.084	137.314	-0.082	0.107
-460.070	130.779	-0.061	0.078
-459.055	119.584	-0.042	-0.052
-458.040	-117.957	-0.351	0.063
-457.026	-200.000	0.002	0.011
-456.011	563.339	-0.079	0.190
-454.997	-91.553	-0.085	0.024
-453.982	11.817	0.317	0.243
-452.968	-200.000	0.015	-0.213
-451.953	38.316	-0.162	-0.144
-450.938	144.981	0.053	-0.071
-449.924	800.000	0.065	-0.191
-448.909	-93.000	-0.249	0.069
-447.895	614.819	0.063	-0.157
-446.880	800.000	0.008	-0.031
-445.865	800.000	0.101	-0.321
-444.851	-200.000	0.025	0.120
-443.836	204.432	-0.124	0.192
-442.822	-200.000	0.002	-0.038
-441.807	3.849	0.238	-0.173
-440.792	800.000	-0.131	-0.425
-439.778	800.000	0.029	0.083
-438.763	-43.272	0.169	-0.085
-437.749	-200.000	0.001	-0.300
-436.734	53.265	0.213	-0.204
-435.719	800.000	-0.028	-0.106
-434.705	159.219	-0.060	0.084
-433.690	179.094	0.092	-0.134
-432.676	87.431	-0.169	-0.186
-431.661	-178.290	0.198	-0.005
-430.646	113.780	0.185	0.225
-429.632	-142.843	-0.114	-0.011
-428.617	800.000	-0.081	-0.287
-427.603	-123.026	-0.071	-0.011
-426.588	-200.000	-0.024	-0.160
-425.573	315.986	0.140	0.263
-424.559	800.000	-0.036	0.101
-423.544	43.373	-0.076	0.069
-422.530	-154.457	0.270	0.018
-421.515	800.000	-0.031	-0.115
-420.500	-200.000	0.006	0.038
-419.486	-152.432	0.046	-0.003
-418.471	337.886	0.120	0.233
-417.457	555.890	0.054	-0.130
-416.442	800.000	0.018	0.055
-415.428	800.000	-0.127	-0.537
-414.413	-144.097	0.128	0.012
-413.398	-200.000	-0.010	-0.092
-412.384	800.000	0.052	0.161
-411.369	-18.557	0.026	-0.016
-410.355	152.276	-0.120	-0.163
-409.340	-200.000	0.011	0.157
-408.325	-200.000	-0.005	-0.131
-407.311	-200.000	0.031	-0.167
-406.296	-144.638	0.020	-0.002
-405.282	-51.824	0.240	0.111
-404.267	193.107	-0.257	0.387
-403.252	23.638	-0.092	-0.075
-402.238	-3.707	0.274	0.190
-401.223	-45.936	0.100	0.049
-400.209	-36.143	0.108	0.058
-399.194	-200.000	-0.027	-0.266
-398.179	759.918	0.125	0.338
-397.165	800.000	-0.056	-0.162
-396.150	-125.103	-0.195	-0.030
-395.136	279.147	0.045	-0.079
-394.121	32.368	0.239	-0.205
-393.106	-200.000	0.032	0.290
-392.092	-200.000	-0.030	0.297
-391.077	34.971	-0.179	0.156
-390.063	800.000	0.011	-0.032
-389.048	-130.283	-0.171	0.023
-388.033	-42.120	-0.106	-0.054
-387.019	110.886	-0.101	0.121
-386.004	-200.000	-0.032	0.314
-384.990	752.962	-0.088	0.236
-383.975	-200.000	0.008	0.178
-382.960	-122.895	-0.353	-0.057
-381.946	-20.491	-0.284	0.174
-380.931	-134.839	0.085	0.010
-379.917	-200.000	0.054	-0.305
-378.902	287.685	-0.173	0.311
-377.888	-135.570	0.165	-0.020
-376.873	-126.708	-0.127	-0.019
-375.858	800.000	0.019	-0.069
-374.844	800.000	0.046	-0.157
-373.829	-147.632	-0.238	0.020
-372.815	367.787	-0.131	0.262
-371.800	42.569	-0.158	0.143
-370.785	552.106	-0.106	0.253
-369.771	32.936	-0.237	-0.204
-368.756	-148.487	-0.154	0.013
-367.742	-155.297	0.411	0.027
-366.727	-51.484	-0.026	-0.012
-365.712	-189.654	0.251	0.003
-364.698	-101.089	-0.336	-0.082
-363.683	-87.371	0.139	-0.042
-362.669	401.660	0.125	-0.261
-361.654	-167.124	0.343	0.014
-360.639	112.219	0.222	0.267
-359.625	66.950	0.175	-0.177
-358.610	0.336	0.149	-0.106
-357.596	-138.205	-0.131	-0.014
-356.581	21.388	-0.019	0.016
-355.566	-72.323	-0.039	-0.014
-354.552	-11.187	-0.190	0.124
-353.537	140.619	-0.120	0.158
-352.523	-200.000	0.005	0.067
-351.508	-200.000	0.036	0.209
-350.493	-70.732	0.185	0.070
-349.479	-159.859	0.227	-0.012
-348.464	107.152	0.126	-0.149
-347.450	-200.000	-0.020	-0.151
-346.435	305.064	-0.155	0.287
-345.420	108.558	-0.075	0.089
-344.406	37.570	-0.060	0.053
-343.391	86.432	-0.152	-0.166
-342.377	-200.000	0.050	-0.286
-341.362	-154.694	0.183	0.012
-340.348	631.402	-0.129	-0.324
-339.333	148.386	-0.173	-0.232
-338.318	125.203	0.187	-0.235
-337.304	29.714	0.112	0.095
-336.289	-147.601	-0.137	-0.011
-335.275	-128.724	-0.231	-0.032
-334.260	-75.837	-0.494	-0.174
-333.245	183.371	0.092	0.136
-332.231	207.693	-0.102	0.158
-331.216	-130.209	-0.218	-0.029
-330.202	-93.947	-0.179	0.049
-329.187	-60.707	0.272	-0.115
-328.172	-43.299	0.167	0.084
-327.158	-146.896	-0.417	0.036
-326.143	42.005	-0.082	0.074
-325.129	60.816	0.029	-0.029
-324.114	-200.000	-0.043	-0.217
-323.099	581.162	-0.145	-0.353
-322.085	-141.972	0.599	0.059
-321.070	-200.000	0.001	-0.077
-320.056	80.603	-0.245	0.262
-319.041	84.609	0.286	0.310
-318.026	170.617	-0.053	-0.075
-317.012	-156.009	0.182	0.011
-315.997	800.000	-0.044	-0.179
-314.983	224.033	0.129	-0.207
-313.968	-99.070	0.121	-0.030
-312.953	74.545	0.251	0.262
-311.939	23.137	0.231	-0.188
-310.924	-116.501	0.018	-0.003
-309.910	-200.000	0.010	-0.050
-308.895	-59.229	-0.351	-0.150
-307.880	-0.675	-0.129	0.090
-306.866	-200.000	0.014	0.074
-305.851	258.639	-0.122	-0.208
-304.837	13.444	-0.145	0.112
-303.822	-32.204	0.217	0.121
-302.807	800.000	-0.099	0.324
-301.793	500.566	-0.032	0.072
-300.778	-200.000	0.030	0.317
-299.764	37.276	-0.279	0.245
-298.749	431.720	0.187	0.403
-297.735	-94.705	-0.204	0.055
-296.720	435.056	0.037	0.080
-295.705	612.420	0.024	-0.060
-294.691	274.671	-0.107	0.188
-293.676	-22.715	-0.130	0.078
-292.662	-100.027	0.178	-0.044
-291.647	-74.392	0.235	-0.084
-290.632	435.642	-0.159	-0.342
-289.618	-22.244	-0.096	0.058
-288.603	-177.156	-0.238	-0.006
-287.589	505.407	0.048	-0.110
-286.574	-178.436	0.210	-0.005
-285.559	-109.604	0.256	-0.054
-284.545	-135.530	-0.281	-0.033
-283.530	-200.000	0.020	-0.168
-282.516	-200.000	0.220	-0.001
-281.501	38.222	-0.260	-0.230
-280.486	-178.617	0.030	-0.001
-279.472	-200.000	0.025	-0.117
-278.457	-115.354	-0.335	-0.063
-277.443	-93.637	-0.181	0.049
-276.428	-200.000	0.031	0.241
-275.413	588.724	-0.054	-0.133
-274.399	49.367	0.110	0.103
-273.384	19.792	-0.141	-0.112
-272.370	-115.728	0.122	0.023
-271.355	139.831	-0.197	-0.258
-270.340	-94.224	-0.224	-0.061
-269.326	252.163	-0.107	0.181
-268.311	-97.025	-0.060	-0.016
-267.297	154.531	0.192	0.262
-266.282	-166.592	0.404	0.017
-265.267	-200.000	0.060	0.380
-264.253	-69.220	0.018	0.007
-263.238	101.403	-0.043	-0.050
-262.224	-15.837	-0.120	-0.075
-261.209	-81.907	0.090	0.029
-260.195	-96.006	0.093	-0.024
-259.180	-86.122	0.176	-0.054
-258.165	-114.467	-0.226	0.043
-257.151	-200.000	0.053	-0.336
-256.136	-200.000	0.018	0.139
-255.122	800.000	-0.044	0.134
-254.107	-34.567	-0.236	-0.128
-253.092	202.440	-0.180	-0.275
-252.078	-78.761	0.191	-0.064
-251.063	104.920	-0.210	0.245
-250.049	800.000	0.060	0.237
-249.034	-110.212	-0.211	0.044
-248.019	31.422	0.063	-0.053
-247.005	-169.536	0.266	0.010
-245.990	-102.172	-0.155	0.037
-244.976	-88.232	0.168	-0.050
-243.961	-200.000	0.010	-0.314
-242.946	57.814	0.169	-0.163
-241.932	-200.000	0.059	-0.434
-240.917	-7.774	0.292	-0.195
-239.903	-4.733	-0.122	-0.083
-238.888	192.220	0.239	-0.356
-237.873	152.006	0.163	0.220
-236.859	-67.359	0.181	0.070
-235.844	-63.571	0.150	0.061
-234.830	-34.190	-0.077	0.042
-233.815	-94.452	0.234	0.063
-232.800	800.000	0.028	-0.083
-231.786	16.975	0.207	0.162
-230.771	60.456	-0.172	0.168
-229.757	541.305	-0.098	0.230
-228.742	133.422	0.156	-0.199
-227.727	-127.179	-0.243	-0.035
-226.713	76.996	-0.049	-0.051
-225.698	-53.385	-0.353	-0.160
-224.684	-84.195	0.167	0.052
-223.669	-200.000	-0.065	0.334
-222.655	-13.533	-0.288	0.185
-221.640	-20.851	-0.245	0.148
-220.625	8.416	0.174	0.129
-219.611	206.928	-0.086	0.133
-218.596	-200.000	-0.007	0.425
-217.582	-200.000	0.051	-0.620
-216.567	-103.104	-0.235	-0.055
-215.552	800.000	-0.038	0.119
-214.538	-41.943	0.254	-0.128
-213.523	-51.460	0.181	0.084
-212.509	-200.000	0.010	0.281
-211.494	-50.808	0.482	-0.224
-210.479	386.241	0.145	-0.295
-209.465	-200.000	0.007	0.348
-208.450	-30.278	0.161	0.090
-207.436	-35.910	-0.060	-0.032
-206.421	130.800	0.096	0.121
-205.406	800.000	0.032	-0.097
-204.392	608.830	-0.031	0.076
-203.377	99.933	0.076	-0.087
-202.363	-200.000	-0.008	0.330
-201.348	139.312	-0.050	0.066
-200.333	800.000	-0.016	-0.050
-199.319	32.800	-0.114	-0.098
-198.304	800.000	0.057	-0.167
-197.290	-106.910	-0.241	0.053
-196.275	-200.000	-0.018	0.397
-195.260	-119.243	-0.293	0.050
-194.246	800.000	-0.028	-0.101
-193.231	59.759	-0.104	-0.101
-192.217	34.287	0.175	0.151
-191.202	147.220	0.059	-0.078
-190.187	5.882	-0.222	-0.163
-189.173	103.771	-0.045	-0.052
-188.158	518.269	0.074	-0.170
-187.144	114.833	-0.018	-0.021
-186.129	-198.993	0.187	0.001
-185.114	800.000	-0.107	0.295
-184.100	800.000	0.037	0.104
-183.085	-88.461	0.219	0.065
-182.071	250.122	0.186	0.312
-181.056	-65.907	-0.190	-0.075
-180.042	-200.000	0.039	-0.334
-179.027	107.675	0.063	-0.074
-178.012	-90.766	-0.231	-0.066
-176.998	-200.000	-0.014	0.205
-175.983	-200.000	0.002	-0.143
-174.969	-110.057	0.409	-0.084
-173.954	-75.715	0.088	0.031
-172.939	-71.226	0.218	-0.081
-171.925	29.132	-0.124	-0.104
-170.910	800.000	0.048	0.134
-169.896	7.230	0.230	0.169
-168.881	82.761	0.153	-0.165
-167.866	153.041	0.138	-0.187
-166.852	173.479	0.031	0.045
-165.837	66.011	-0.084	-0.084
-164.823	50.492	0.191	0.179
-163.808	-29.126	-0.162	-0.092
-162.793	-100.368	-0.205	-0.050
-161.779	-72.853	-0.250	0.091
-160.764	-58.750	-0.242	-0.103
-159.750	-200.000	-0.003	0.103
-158.735	108.119	-0.151	-0.178
-157.720	98.806	-0.299	0.340
-156.706	-146.529	0.252	-0.022
-155.691	-200.000	-0.008	0.156
-154.677	-200.000	-0.055	0.278
-153.662	41.608	-0.044	0.040
-152.647	-200.000	-0.018	-0.469
-151.633	-200.000	0.021	-0.286
-150.618	-60.945	0.130	-0.054
-149.604	297.083	0.052	0.094
-148.589	-165.953	-0.479	0.020
-147.574	-128.971	0.356	-0.049
-146.560	505.991	0.031	-0.070
-145.545	169.861	0.098	0.138
-144.531	-200.000	0.242	-0.001
-143.516	6.397	0.179	0.131
-142.502	498.214	-0.081	0.184
-141.487	-86.358	-0.191	0.058
-140.472	-102.433	-0.146	0.034
-139.458	682.353	0.063	0.162
-138.443	800.000	0.024	-0.077
-137.429	-200.000	-0.010	-0.172
-136.414	-38.764	-0.273	-0.142
-135.399	-14.249	-0.258	0.164
-134.385	-64.977	0.294	-0.117
-133.370	-10.007	0.134	0.087
-132.356	-67.767	0.218	-0.084
-131.341	-65.013	0.080	-0.032
-130.326	196.552	0.149	-0.224
-129.312	-200.000	0.058	-0.321
-128.297	-200.000	0.009	-0.265
-127.283	451.153	-0.104	-0.225
-126.268	227.955	0.096	-0.154
-125.253	42.400	0.213	-0.191
-124.239	30.155	0.220	0.185
-123.224	-200.000	0.037	-0.163
-122.210	22.044	-0.180	0.144
-121.195	-200.000	0.020	0.255
