DTS Sentinel unit serial number:	SN413079Multiplexer serial number:	ORYXHardware model number:	OX4-SRSoftware version number:	ORYX F/W v4.00 Oryx Data Collector v3.7.2.0data status	okinstallation	princeton_trtdifferential loss correction	single-endedforward channel	channel 3reverse channel	N/Adate	2019/09/18time	15:28:35forward acquisition time	60.00reverse acquisition time	0.00gamma	496.2192k internal	0.2299k external	0.2299temperature offset calibration	0.9979default loss term (dB/km)	0.3790temperature slope calibration	1.0000multiplexer offset coefficient	1.0000multiplexer slope coefficient	1.0000fibre end	0.00T internal ref (°C)	36.14T ext. ref 1 (°C)	0.76T ext. ref 2 (°C)	34.47length (m)	temperature (°C)	Stokes	anti-Stokes-747.200	-200.000	-0.020	0.122
-746.185	-108.362	-0.293	-0.065
-745.171	-75.274	0.134	-0.049
-744.156	-32.567	0.291	0.166
-743.142	244.641	-0.131	-0.225
-742.127	410.421	-0.160	0.347
-741.112	230.599	-0.085	-0.142
-740.098	-200.000	-0.032	-0.168
-739.083	-30.532	-0.180	-0.104
-738.069	800.000	0.037	-0.129
-737.054	702.554	0.039	0.104
-736.039	-73.832	-0.256	-0.095
-735.025	800.000	0.058	0.180
-734.010	-200.000	-0.023	-0.200
-732.996	-53.883	-0.199	-0.092
-731.981	-200.000	-0.032	-0.154
-730.966	-115.199	-0.220	-0.043
-729.952	-200.000	0.017	-0.292
-728.937	-100.915	-0.156	-0.039
-727.923	-87.025	-0.374	0.116
-726.908	-96.159	-0.336	-0.091
-725.894	800.000	-0.054	-0.229
-724.879	51.073	-0.186	-0.180
-723.864	800.000	-0.027	0.098
-722.850	-66.213	-0.350	0.142
-721.835	-200.000	-0.025	-0.283
-720.821	-114.162	0.358	-0.071
-719.806	-200.000	-0.058	-0.481
-718.791	-24.067	-0.191	0.116
-717.777	-5.882	-0.097	-0.068
-716.762	50.864	-0.275	0.266
-715.748	-200.000	-0.021	-0.261
-714.733	800.000	-0.052	0.159
-713.718	53.768	-0.151	-0.147
-712.704	800.000	0.140	-0.405
-711.689	-200.000	-0.022	-0.252
-710.675	58.913	-0.129	-0.130
-709.660	-113.182	0.071	-0.014
-708.645	-200.000	-0.003	-0.206
-707.631	-173.773	0.204	-0.006
-706.616	800.000	-0.050	-0.183
-705.602	-59.500	0.221	-0.097
-704.587	82.747	-0.364	-0.403
-703.572	-200.000	0.009	-0.400
-702.558	-43.608	0.078	0.040
-701.543	-200.000	-0.034	-0.328
-700.529	183.574	0.251	0.378
-699.514	3.628	0.134	0.100
-698.499	-10.368	-0.246	0.166
-697.485	-76.379	-0.087	0.031
-696.470	-46.352	0.075	0.038
-695.456	250.394	-0.152	-0.263
-694.441	-200.000	-0.008	-0.452
-693.426	472.555	0.063	-0.144
-692.412	-94.271	0.205	0.057
-691.397	-56.005	-0.123	-0.056
-690.383	-120.605	0.352	-0.061
-689.368	672.800	-0.075	0.198
-688.354	-78.910	-0.289	0.100
-687.339	45.625	0.084	0.079
-686.324	-108.524	-0.090	0.020
-685.310	13.604	-0.129	-0.102
-684.295	800.000	0.018	0.063
-683.281	-200.000	0.034	0.159
-682.266	445.529	-0.091	-0.204
-681.251	-16.619	0.255	-0.165
-680.237	565.051	0.135	0.332
-679.222	170.804	-0.159	-0.232
-678.208	341.081	0.051	-0.102
-677.193	-162.601	0.212	0.011
-676.178	-86.712	-0.141	0.044
-675.164	800.000	-0.027	-0.101
-674.149	-118.787	0.042	-0.008
-673.135	800.000	0.022	-0.091
-672.120	226.141	-0.230	-0.380
-671.105	-70.666	0.094	-0.036
-670.091	32.377	-0.190	0.167
-669.076	332.699	-0.045	0.089
-668.062	296.124	0.165	-0.307
-667.047	344.334	-0.129	0.257
-666.032	-90.045	0.102	-0.030
-665.018	-53.742	-0.194	-0.090
-664.003	145.768	-0.175	-0.238
-662.989	-200.000	0.035	0.242
-661.974	-73.223	-0.117	-0.044
-660.959	103.795	0.138	-0.165
-659.945	18.380	0.223	0.181
-658.930	569.369	-0.120	-0.297
-657.916	504.464	-0.114	-0.270
-656.901	800.000	0.073	0.207
-655.886	800.000	0.017	0.060
-654.872	228.900	-0.096	-0.160
-653.857	-151.646	-0.274	0.021
-652.843	19.305	-0.088	0.072
-651.828	-91.116	-0.202	0.059
-650.814	41.094	0.112	0.103
-649.799	-200.000	0.013	-0.074
-648.784	800.000	0.125	-0.372
-647.770	-200.000	-0.045	-0.204
-646.755	-200.000	-0.001	-0.345
-645.741	172.896	-0.115	0.169
-644.726	800.000	0.042	0.121
-643.711	-29.556	-0.281	0.163
-642.697	-79.030	-0.096	-0.033
-641.682	-87.766	0.152	0.047
-640.668	42.808	-0.061	0.057
-639.653	231.230	0.036	0.059
-638.638	51.393	-0.138	-0.134
-637.624	800.000	0.074	0.260
-636.609	-91.039	-0.055	0.016
-635.595	-101.651	-0.341	0.084
-634.580	-126.686	-0.113	-0.017
-633.565	176.259	-0.063	0.092
-632.551	37.801	0.125	0.113
-631.536	-9.221	-0.141	0.096
-630.522	-130.128	-0.294	0.041
-629.507	-5.630	-0.116	0.081
-628.492	-185.111	0.202	-0.003
-627.478	-127.792	0.155	0.023
-626.463	-200.000	0.002	-0.225
-625.449	23.322	0.193	0.161
-624.434	-55.832	0.341	0.155
-623.419	-200.000	-0.028	-0.152
-622.405	159.673	-0.104	-0.146
-621.390	-118.834	-0.072	-0.013
-620.376	352.851	0.096	0.194
-619.361	111.860	0.158	0.194
-618.346	-153.845	0.255	0.018
-617.332	-200.000	-0.044	-0.310
-616.317	800.000	-0.060	-0.251
-615.303	800.000	-0.028	-0.109
-614.288	75.483	-0.148	0.158
-613.273	-23.416	0.116	-0.071
-612.259	-200.000	-0.060	0.282
-611.244	100.267	-0.184	0.217
-610.230	-171.232	-0.432	0.015
-609.215	265.850	0.212	-0.376
-608.201	117.308	0.135	-0.169
-607.186	-101.261	-0.228	-0.057
-606.171	17.602	-0.151	-0.122
-605.157	-200.000	-0.016	-0.157
-604.142	-165.719	0.276	-0.012
-603.128	800.000	-0.094	-0.279
-602.113	12.757	-0.313	-0.245
-601.098	20.490	-0.193	-0.158
-600.084	-56.315	0.197	-0.089
-599.069	3.426	-0.180	-0.133
-598.055	-54.599	-0.085	-0.039
-597.040	162.276	0.125	-0.178
-596.025	-169.066	-0.289	-0.011
-595.011	267.729	-0.149	0.265
-593.996	51.769	0.157	0.152
-592.982	-154.761	-0.136	-0.009
-591.967	283.358	0.160	0.291
-590.952	345.085	0.077	0.154
-589.938	175.922	-0.047	-0.069
-588.923	79.262	-0.138	-0.150
-587.909	-200.000	-0.030	-0.223
-586.894	800.000	-0.082	-0.247
-585.879	51.107	0.178	-0.171
-584.865	-91.728	-0.199	0.057
-583.850	-200.000	0.047	0.210
-582.836	-200.000	0.034	-0.250
-581.821	-128.782	0.052	-0.007
-580.806	63.778	-0.298	0.304
-579.792	213.808	-0.108	0.173
-578.777	-139.343	0.212	-0.023
-577.763	-200.000	0.035	-0.327
-576.748	11.086	0.439	0.341
-575.733	800.000	-0.066	-0.209
-574.719	351.331	0.196	-0.394
-573.704	-200.000	0.003	0.051
-572.690	301.957	-0.035	0.066
-571.675	-82.209	-0.239	0.079
-570.661	420.625	0.040	0.086
-569.646	15.967	0.154	0.123
-568.631	-90.575	-0.095	0.028
-567.617	-200.000	0.030	0.206
-566.602	-200.000	-0.025	0.187
-565.588	-119.353	-0.272	0.048
-564.573	170.876	-0.052	-0.075
-563.558	-106.019	-0.075	-0.017
-562.544	152.411	0.122	0.169
-561.529	68.185	-0.093	0.096
-560.515	-108.586	0.195	0.042
-559.500	-160.376	-0.081	-0.004
-558.485	204.445	-0.114	-0.180
-557.471	-33.024	0.154	0.087
-556.456	755.244	-0.015	0.042
-555.442	-74.924	-0.064	-0.023
-554.427	50.643	0.114	-0.109
-553.412	-200.000	0.013	-0.101
-552.398	-182.444	-0.172	-0.003
-551.383	-28.682	0.214	0.125
-550.369	-134.705	0.357	0.044
-549.354	-22.794	0.360	0.220
-548.339	-200.000	-0.001	0.062
-547.325	557.505	0.138	0.338
-546.310	800.000	0.040	-0.129
-545.296	17.269	-0.158	-0.127
-544.281	-109.522	-0.341	0.073
-543.266	-200.000	-0.050	0.388
-542.252	-71.809	-0.275	0.104
-541.237	272.631	-0.071	-0.126
-540.223	-27.429	0.207	-0.122
-539.208	153.319	-0.030	-0.042
-538.193	-166.556	-0.160	0.007
-537.179	-83.891	0.208	-0.067
-536.164	-183.974	0.180	-0.003
-535.150	-69.284	-0.083	-0.032
-534.135	800.000	-0.009	-0.032
-533.121	613.306	-0.178	0.451
-532.106	-200.000	0.048	-0.400
-531.091	-3.144	-0.291	-0.205
-530.077	60.880	-0.066	0.066
-529.062	-108.169	0.078	-0.017
-528.048	-200.000	-0.021	-0.143
-527.033	-161.066	0.161	-0.009
-526.018	-23.805	0.174	0.106
-525.004	30.309	-0.134	0.116
-523.989	-200.000	0.038	-0.184
-522.975	-124.136	-0.324	-0.051
-521.960	-200.000	-0.049	0.379
-520.945	206.468	-0.163	0.256
-519.931	-59.129	0.119	0.052
-518.916	-174.926	0.165	-0.005
-517.902	-51.466	-0.390	0.184
-516.887	98.809	-0.313	0.365
-515.872	-122.596	0.192	0.032
-514.858	-200.000	0.060	-0.306
-513.843	-95.931	0.258	0.070
-512.829	-133.026	-0.176	0.023
-511.814	167.325	-0.081	0.116
-510.799	-12.509	0.222	0.147
-509.785	-32.591	0.018	0.010
-508.770	104.542	-0.035	0.041
-507.756	157.702	0.193	0.271
-506.741	9.024	-0.344	-0.263
-505.726	-200.000	0.028	-0.172
-504.712	800.000	0.149	0.482
-503.697	-192.632	-0.055	0.001
-502.683	22.023	0.322	0.266
-501.668	174.139	-0.214	0.313
-500.653	251.400	0.077	-0.132
-499.639	-200.000	-0.030	0.368
-498.624	-42.051	0.273	0.141
-497.610	159.049	0.246	0.346
-496.595	101.083	0.085	-0.100
-495.581	-110.454	0.335	0.070
-494.566	-31.208	-0.232	0.132
-493.551	173.840	0.080	0.117
-492.537	800.000	0.055	0.155
-491.522	78.223	-0.092	0.099
-490.508	-200.000	0.036	-0.368
-489.493	17.401	0.119	0.096
-488.478	-22.736	0.075	0.046
-487.464	-148.146	0.076	-0.006
-486.449	347.084	-0.126	-0.250
-485.435	800.000	-0.045	0.187
-484.420	-132.029	-0.183	0.024
-483.405	-68.274	0.274	0.108
-482.391	164.829	-0.173	0.246
-481.376	-200.000	-0.050	-0.497
-480.362	-30.105	0.102	-0.058
-479.347	296.699	-0.192	0.355
-478.332	800.000	0.041	0.174
-477.318	115.244	0.204	0.252
-476.303	-136.752	0.085	-0.010
-475.289	800.000	-0.119	-0.355
-474.274	6.030	0.056	-0.042
-473.259	-140.866	-0.298	-0.031
-472.245	39.116	-0.399	0.361
-471.230	-54.328	0.380	0.174
-470.216	-200.000	0.005	-0.129
-469.201	53.788	0.141	-0.137
-468.186	21.371	0.046	-0.038
-467.172	84.625	-0.062	0.068
-466.157	22.697	-0.056	-0.046
-465.143	597.760	-0.057	-0.144
-464.128	-44.400	-0.095	0.048
-463.113	-89.583	-0.071	0.021
-462.099	800.000	0.052	0.219
-461.084	800.000	-0.064	-0.256
-460.070	32.217	0.341	-0.297
-459.055	-25.375	-0.255	0.152
-458.040	-50.046	-0.129	-0.062
-457.026	324.018	-0.123	-0.236
-456.011	-200.000	0.004	-0.030
-454.997	34.752	0.203	-0.179
-453.982	800.000	0.043	-0.173
-452.968	-105.996	-0.144	-0.033
-451.953	366.561	-0.091	-0.186
-450.938	28.583	-0.213	0.182
-449.924	-165.209	0.122	-0.005
-448.909	-84.482	-0.144	-0.046
-447.895	-35.364	0.265	-0.146
-446.880	-200.000	-0.054	-0.329
-445.865	63.942	0.173	-0.176
-444.851	-200.000	0.048	0.462
-443.836	126.054	-0.169	0.215
-442.822	-42.834	-0.049	0.025
-441.807	126.599	0.078	-0.100
-440.792	-138.258	-0.104	0.012
-439.778	-64.511	0.105	0.043
-438.763	337.317	-0.167	-0.327
-437.749	-200.000	-0.003	-0.125
-436.734	-34.609	-0.079	0.044
-435.719	395.566	-0.137	0.288
-434.705	-63.200	-0.143	0.060
-433.690	-33.885	0.156	0.086
-432.676	29.678	-0.059	-0.050
-431.661	800.000	0.030	-0.103
-430.646	12.068	0.107	-0.083
-429.632	-200.000	-0.020	-0.313
-428.617	-59.963	-0.124	0.054
-427.603	-121.819	0.600	-0.100
-426.588	128.590	0.125	0.160
-425.573	800.000	0.080	-0.229
-424.559	-200.000	-0.000	-0.047
-423.544	-113.705	-0.350	0.069
-422.530	-200.000	-0.004	0.172
-421.515	-60.747	0.146	-0.062
-420.500	89.412	0.102	0.115
-419.486	704.672	-0.108	-0.287
-418.471	508.703	-0.143	-0.334
-417.457	209.686	0.026	0.041
-416.442	-62.666	0.065	-0.027
-415.428	478.324	-0.045	0.102
-414.413	-200.000	-0.005	0.354
-413.398	152.752	0.173	0.238
-412.384	10.142	0.155	0.118
-411.369	-126.421	0.035	0.005
-410.355	122.081	0.077	-0.097
-409.340	800.000	-0.061	-0.201
-408.325	138.097	0.044	-0.058
-407.311	11.819	-0.141	0.109
-406.296	-24.794	-0.327	-0.196
-405.282	350.904	0.172	0.343
-404.267	-52.388	0.347	-0.162
-403.252	-200.000	0.019	-0.155
-402.238	0.255	0.078	0.056
-401.223	790.683	-0.141	0.391
-400.209	-117.358	0.220	-0.040
-399.194	596.829	-0.081	-0.202
-398.179	42.934	-0.069	-0.063
-397.165	233.967	-0.078	0.129
-396.150	-98.448	0.321	-0.083
-395.136	144.686	0.119	-0.160
-394.121	-105.671	0.254	-0.058
-393.106	660.580	0.087	-0.225
-392.092	157.139	-0.026	0.036
-391.077	-96.777	-0.332	-0.088
-390.063	90.459	0.080	-0.090
-389.048	553.927	0.104	-0.251
-388.033	405.516	-0.109	-0.232
-387.019	-46.480	0.035	-0.017
-386.004	-141.319	0.336	0.034
-384.990	-126.579	0.175	-0.026
-383.975	426.253	0.087	-0.189
-382.960	48.608	-0.090	0.085
-381.946	-1.720	-0.231	-0.164
-380.931	-49.374	0.098	0.047
-379.917	64.753	-0.175	-0.178
-378.902	93.458	-0.154	0.175
-377.888	6.077	0.267	0.199
-376.873	-200.000	-0.013	0.071
-375.858	-200.000	0.014	-0.067
-374.844	119.649	-0.067	0.084
-373.829	-137.829	-0.506	-0.057
-372.815	-123.015	-0.332	-0.054
-371.800	189.412	0.023	-0.034
-370.785	800.000	0.065	0.217
-369.771	306.247	-0.084	0.158
-368.756	-54.533	-0.236	0.108
-367.742	74.779	-0.378	-0.400
-366.727	304.579	-0.094	0.175
-365.712	800.000	0.021	-0.073
-364.698	-37.504	0.412	-0.221
-363.683	72.261	0.185	0.194
-362.669	-110.424	-0.017	0.004
-361.654	118.396	0.038	0.047
-360.639	-8.469	-0.150	0.101
-359.625	261.293	-0.124	0.216
-358.610	190.288	0.152	-0.229
-357.596	313.859	-0.117	-0.222
-356.581	556.019	0.087	-0.210
-355.566	18.819	-0.204	-0.164
-354.552	-53.527	0.095	0.044
-353.537	62.453	0.238	-0.239
-352.523	17.796	-0.121	-0.096
-351.508	-185.980	0.196	-0.003
-350.493	-14.024	0.095	-0.062
-349.479	595.935	-0.071	0.177
-348.464	78.790	0.058	0.062
-347.450	-17.328	0.233	-0.147
-346.435	-200.000	-0.012	0.143
-345.420	-170.032	-0.089	0.003
-344.406	-200.000	0.030	-0.320
-343.391	-179.827	-0.196	-0.004
-342.377	-58.907	-0.135	-0.059
-341.362	-45.664	-0.135	-0.067
-340.348	-200.000	0.011	-0.072
-339.333	87.010	-0.188	-0.208
-338.318	34.865	0.135	-0.119
-337.304	-3.162	-0.045	0.032
-336.289	-200.000	-0.022	-0.472
-335.275	-200.000	-0.020	-0.264
-334.260	67.406	0.157	0.161
-333.245	168.929	-0.184	0.264
-332.231	134.791	0.142	-0.185
-331.216	-200.000	-0.004	-0.127
-330.202	-29.900	0.345	0.197
-329.187	-125.155	0.151	-0.023
-328.172	-200.000	-0.001	0.076
-327.158	83.954	-0.240	0.263
-326.143	283.734	-0.126	0.227
-325.129	330.578	0.099	0.191
-324.114	-29.658	-0.283	0.162
-323.099	-42.289	0.332	0.170
-322.085	187.726	-0.090	-0.136
-321.070	16.024	0.157	0.125
-320.056	117.331	-0.308	-0.380
-319.041	-94.227	0.251	0.069
-318.026	-2.850	0.219	-0.154
-317.012	-200.000	0.015	-0.080
-315.997	800.000	-0.051	0.167
-314.983	-194.638	-0.198	-0.002
-313.968	-200.000	-0.017	-0.440
-312.953	-178.011	0.146	0.003
-311.939	46.658	-0.092	-0.086
-310.924	145.440	0.179	0.240
-309.910	-166.094	-0.290	0.012
-308.895	-52.764	-0.361	0.167
-307.880	-200.000	-0.022	-0.110
-306.866	-200.000	-0.025	-0.154
-305.851	-64.012	-0.128	0.052
-304.837	-124.673	0.249	-0.039
-303.822	-200.000	0.023	-0.506
-302.807	271.390	-0.110	-0.195
-301.793	-101.572	0.044	0.011
-300.778	257.912	0.152	0.262
-299.764	-73.826	-0.221	0.081
-298.749	552.815	0.088	-0.213
-297.735	-125.154	0.168	0.026
-296.720	511.537	-0.095	-0.223
-295.705	165.558	0.154	0.218
-294.691	-97.406	-0.171	-0.045
-293.676	-88.195	-0.250	-0.075
-292.662	-200.000	0.016	0.079
-291.647	-66.418	0.304	0.121
-290.632	-200.000	-0.067	0.295
-289.618	800.000	-0.040	-0.134
-288.603	-13.912	0.126	-0.081
-287.589	-200.000	0.003	-0.051
-286.574	-188.843	0.212	0.003
-285.559	-82.298	0.455	-0.148
-284.545	-200.000	0.144	-0.642
-283.530	63.046	-0.065	-0.065
-282.516	800.000	0.060	-0.191
-281.501	-128.325	0.387	-0.055
-280.486	373.990	-0.068	-0.138
-279.472	-200.000	0.015	0.142
-278.457	687.210	-0.088	-0.229
-277.443	213.986	-0.205	0.325
-276.428	129.662	-0.046	-0.060
-275.413	279.255	-0.031	-0.055
-274.399	-49.156	0.143	0.069
-273.384	-200.000	0.064	0.345
-272.370	-50.884	-0.089	0.042
-271.355	589.784	-0.153	0.379
-270.340	230.844	-0.078	0.129
-269.326	32.998	0.023	-0.020
-268.311	279.876	0.175	0.313
-267.297	800.000	0.053	-0.189
-266.282	40.262	0.252	0.227
-265.267	89.564	0.103	0.115
-264.253	800.000	-0.030	0.099
-263.238	-200.000	-0.031	-0.383
-262.224	233.256	-0.031	0.051
-261.209	294.478	0.151	-0.277
-260.195	167.542	0.264	0.375
-259.180	138.350	0.157	0.207
-258.165	-200.000	0.029	0.431
-257.151	275.907	0.078	0.139
-256.136	-54.085	-0.213	0.097
-255.122	-112.287	-0.311	-0.062
-254.107	365.271	-0.055	-0.112
-253.092	-200.000	0.016	-0.183
-252.078	-6.488	0.151	0.103
-251.063	-75.231	-0.084	-0.030
-250.049	77.806	-0.178	-0.190
-249.034	-62.844	-0.162	-0.067
-248.019	-44.842	0.185	0.092
-247.005	-200.000	0.016	0.130
-245.990	-200.000	0.021	-0.175
-244.976	290.149	0.028	-0.051
-243.961	-40.180	0.319	-0.166
-242.946	-109.456	-0.447	-0.095
-241.932	800.000	-0.023	0.097
-240.917	7.063	0.340	-0.253
-239.903	-200.000	0.025	0.208
-238.888	385.300	0.031	0.064
-237.873	800.000	0.017	-0.069
-236.859	34.956	0.005	-0.005
-235.844	-15.460	-0.404	0.258
-234.830	-117.292	0.228	-0.041
-233.815	800.000	-0.080	-0.240
-232.800	800.000	-0.088	-0.324
-231.786	-200.000	-0.027	0.245
-230.771	-200.000	-0.033	0.244
-229.757	-200.000	-0.009	-0.115
-228.742	-13.041	0.195	0.127
-227.727	-47.559	-0.352	-0.171
-226.713	83.311	-0.077	0.084
-225.698	800.000	-0.086	0.251
-224.684	-148.622	0.209	0.017
-223.669	21.507	0.094	0.076
-222.655	30.839	-0.252	-0.216
-221.640	3.016	-0.235	0.171
-220.625	-106.150	0.056	0.013
-219.611	-200.000	0.057	-0.252
-218.596	6.538	0.181	-0.135
-217.582	147.187	0.221	-0.297
-216.567	800.000	0.033	0.141
-215.552	800.000	0.059	-0.235
-214.538	-15.542	-0.114	0.073
-213.523	110.748	0.130	-0.156
-212.509	-200.000	0.013	0.234
-211.494	-32.717	-0.223	-0.124
-210.479	-128.038	0.128	0.018
-209.465	-76.519	-0.272	0.096
-208.450	96.507	0.007	0.007
-207.436	-64.371	0.116	0.047
-206.421	800.000	-0.077	-0.301
-205.406	539.846	0.111	-0.264
-204.392	140.148	-0.115	-0.152
-203.377	100.478	-0.082	-0.095
-202.363	-200.000	-0.010	-0.077
-201.348	800.000	0.045	-0.149
-200.333	-103.304	-0.227	0.054
-199.319	800.000	0.059	0.172
-198.304	60.455	0.294	0.290
-197.290	109.872	-0.237	0.284
-196.275	-200.000	-0.023	0.350
-195.260	686.168	-0.144	-0.375
-194.246	-200.000	0.041	0.353
-193.231	466.579	-0.099	-0.223
-192.217	31.963	-0.175	0.151
-191.202	234.982	0.109	0.180
-190.187	-113.930	-0.170	0.033
-189.173	-200.000	-0.008	-0.118
-188.158	-1.329	-0.084	0.059
-187.144	-200.000	0.045	0.279
-186.129	-31.482	-0.124	-0.069
-185.114	44.417	-0.151	-0.138
-184.100	47.183	0.157	-0.146
-183.085	-200.000	0.013	0.065
-182.071	144.502	0.187	0.250
-181.056	-148.973	0.099	0.008
-180.042	296.186	0.070	0.127
-179.027	800.000	0.110	0.318
-178.012	-13.771	0.142	-0.092
-176.998	184.684	-0.113	-0.167
-175.983	110.269	0.063	-0.076
-174.969	-74.966	-0.079	0.028
-173.954	-12.621	-0.184	-0.120
-172.939	-113.974	0.308	-0.060
-171.925	-80.875	0.216	0.072
-170.910	452.358	-0.098	0.216
-169.896	800.000	0.061	0.169
-168.881	-200.000	0.015	-0.214
-167.866	-53.318	-0.096	0.044
-166.852	-2.204	0.064	0.045
-165.837	-200.000	0.013	0.294
-164.823	-30.337	-0.020	0.012
-163.808	-93.308	0.306	-0.085
-162.793	250.429	-0.005	0.008
-161.779	-159.543	-0.079	-0.004
-160.764	-200.000	0.021	0.242
-159.750	21.488	-0.282	-0.229
-158.735	367.256	0.052	0.105
-157.720	132.735	-0.094	0.122
-156.706	-87.828	0.292	-0.088
-155.691	28.243	-0.196	0.165
-154.677	261.844	-0.068	-0.118
-153.662	-200.000	0.013	-0.083
-152.647	-24.070	0.263	0.157
-151.633	158.843	0.068	0.094
-150.618	-137.054	0.182	-0.021
-149.604	-143.344	0.439	0.042
-148.589	-200.000	0.200	0.000
-147.574	-200.000	-0.004	0.170
-146.560	-46.314	0.168	0.082
-145.545	-15.204	0.179	-0.114
-144.531	-117.527	-0.193	0.035
-143.516	246.748	-0.110	0.186
-142.502	324.524	-0.117	-0.224
-141.487	-61.194	-0.088	-0.037
-140.472	92.541	-0.118	0.133
-139.458	800.000	0.083	-0.252
-138.443	112.223	0.163	-0.196
-137.429	63.943	-0.199	-0.199
-136.414	5.828	0.285	0.210
-135.399	-99.679	0.231	0.058
-134.385	-78.239	-0.119	0.041
-133.370	-138.700	-0.348	-0.038
-132.356	-107.631	-0.054	-0.012
-131.341	-65.955	0.141	-0.056
-130.326	-200.000	-0.007	-0.113
-129.312	-200.000	-0.025	0.110
-128.297	370.131	0.145	-0.294
-127.283	29.706	-0.128	0.108
-126.268	-17.531	-0.224	0.141
-125.253	800.000	0.135	0.460
-124.239	34.496	0.142	-0.124
-123.224	-200.000	-0.052	0.245
-122.210	-70.417	-0.032	0.012
