DTS Sentinel unit serial number:	SN413079Multiplexer serial number:	ORYXHardware model number:	OX4-SRSoftware version number:	ORYX F/W v4.00 Oryx Data Collector v3.7.2.0data status	okinstallation	princeton_trtdifferential loss correction	single-endedforward channel	channel 3reverse channel	N/Adate	2019/09/13time	23:44:34forward acquisition time	60.00reverse acquisition time	0.00gamma	496.2192k internal	0.2340k external	0.2340temperature offset calibration	1.0063default loss term (dB/km)	0.3790temperature slope calibration	1.0000multiplexer offset coefficient	1.0000multiplexer slope coefficient	1.0000fibre end	0.00T internal ref (°C)	26.64T ext. ref 1 (°C)	3.18T ext. ref 2 (°C)	20.93length (m)	temperature (°C)	Stokes	anti-Stokes-747.200	684.558	-0.046	-0.122
-746.185	225.512	-0.171	0.278
-745.171	-79.866	0.162	0.055
-744.156	646.532	0.107	0.274
-743.142	800.000	-0.084	-0.306
-742.127	396.119	-0.210	0.439
-741.112	800.000	0.048	-0.135
-740.098	800.000	-0.048	0.202
-739.083	-141.846	0.314	-0.031
-738.069	800.000	-0.113	0.332
-737.054	-105.992	-0.314	-0.071
-736.039	-95.160	-0.453	0.122
-735.025	46.010	0.089	-0.082
-734.010	11.231	-0.088	0.067
-732.996	800.000	-0.058	-0.231
-731.981	-200.000	-0.013	0.117
-730.966	30.132	-0.190	0.162
-729.952	800.000	-0.014	0.054
-728.937	67.821	0.204	-0.209
-727.923	800.000	0.027	0.095
-726.908	-59.616	-0.045	-0.019
-725.894	-200.000	-0.110	-0.565
-724.879	-73.527	-0.195	0.071
-723.864	120.273	0.153	0.190
-722.850	-61.325	-0.103	0.044
-721.835	-200.000	0.028	-0.345
-720.821	409.394	-0.060	-0.128
-719.806	251.247	0.156	-0.266
-718.791	-128.342	-0.204	0.029
-717.777	-200.000	0.056	-0.286
-716.762	473.337	0.067	-0.151
-715.748	-114.326	0.193	0.037
-714.733	-57.288	-0.110	0.048
-713.718	397.130	-0.121	-0.254
-712.704	109.717	0.277	-0.333
-711.689	-158.668	0.192	-0.011
-710.675	-72.051	0.356	-0.133
-709.660	284.705	0.050	-0.090
-708.645	-27.203	-0.116	0.067
-707.631	800.000	-0.062	0.208
-706.616	181.783	-0.156	0.229
-705.602	-152.923	0.135	-0.010
-704.587	-89.848	0.184	-0.054
-703.572	-5.874	-0.032	-0.022
-702.558	96.136	-0.187	-0.214
-701.543	-38.254	-0.144	0.076
-700.529	133.147	0.246	-0.318
-699.514	-157.615	0.113	0.007
-698.499	42.624	-0.300	0.273
-697.485	73.920	0.091	0.096
-696.470	-21.830	-0.209	0.127
-695.456	83.183	0.321	0.350
-694.441	-89.691	-0.067	-0.020
-693.426	-200.000	-0.043	0.295
-692.412	167.179	0.095	-0.135
-691.397	800.000	0.038	-0.142
-690.383	-200.000	0.046	-0.318
-689.368	-41.753	-0.357	0.184
-688.354	-54.573	-0.242	0.110
-687.339	647.943	0.137	0.349
-686.324	-82.706	0.131	0.043
-685.310	50.519	-0.275	-0.260
-684.295	-177.662	-0.463	0.011
-683.281	-173.360	0.262	0.008
-682.266	206.007	-0.149	0.231
-681.251	800.000	-0.097	-0.283
-680.237	122.951	-0.120	-0.151
-679.222	120.143	-0.086	-0.106
-678.208	255.130	0.065	0.112
-677.193	363.860	0.079	0.160
-676.178	-200.000	0.060	-0.377
-675.164	54.047	-0.134	-0.129
-674.149	800.000	0.014	0.038
-673.135	-200.000	0.019	0.453
-672.120	800.000	-0.009	0.037
-671.105	-103.991	0.254	0.059
-670.091	-99.055	0.293	0.074
-669.076	484.174	-0.127	-0.290
-668.062	-36.351	-0.084	-0.045
-667.047	-154.464	0.127	-0.009
-666.032	-141.041	0.166	0.017
-665.018	-183.199	-0.458	-0.008
-664.003	-84.398	0.259	-0.082
-662.989	-22.457	-0.127	-0.077
-661.974	-55.029	-0.211	0.095
-660.959	-162.017	0.284	-0.014
-659.945	-200.000	0.020	0.309
-658.930	40.460	0.144	0.130
-657.916	373.008	0.094	-0.192
-656.901	-131.453	-0.314	-0.041
-655.886	313.571	0.184	-0.346
-654.872	-69.230	0.185	-0.071
-653.857	306.322	0.060	0.111
-652.843	-41.758	-0.283	-0.145
-651.828	-200.000	-0.034	0.301
-650.814	-200.000	0.012	-0.146
-649.799	800.000	-0.025	0.080
-648.784	719.440	-0.084	0.223
-647.770	-174.953	0.306	0.009
-646.755	-5.979	0.237	0.162
-645.741	161.470	0.141	-0.197
-644.726	-143.046	-0.076	0.007
-643.711	-200.000	-0.010	-0.143
-642.697	207.025	0.108	-0.168
-641.682	-200.000	0.015	0.098
-640.668	292.211	-0.090	-0.164
-639.653	800.000	0.079	0.234
-638.638	-105.464	-0.134	-0.030
-637.624	510.323	-0.032	-0.074
-636.609	155.413	0.209	0.288
-635.595	-50.638	-0.250	-0.118
-634.580	-13.088	0.208	0.135
-633.565	800.000	0.036	0.114
-632.551	-51.725	-0.156	-0.073
-631.536	-200.000	0.055	-0.350
-630.522	-25.930	-0.259	-0.152
-629.507	-131.318	-0.147	0.019
-628.492	221.125	-0.051	0.081
-627.478	-38.412	-0.155	0.082
-626.463	464.934	0.066	0.148
-625.449	-200.000	0.008	0.188
-624.434	98.691	0.077	0.089
-623.419	-160.757	0.079	-0.004
-622.405	87.941	-0.102	0.113
-621.390	140.736	0.065	-0.085
-620.376	-13.535	0.293	0.189
-619.361	-200.000	0.036	0.184
-618.346	-1.263	-0.467	-0.329
-617.332	14.052	-0.057	-0.044
-616.317	173.988	-0.224	0.322
-615.303	-186.895	0.121	-0.002
-614.288	-19.855	0.215	-0.132
-613.273	87.040	-0.124	0.136
-612.259	693.863	-0.066	-0.174
-611.244	537.739	0.055	-0.129
-610.230	800.000	-0.050	-0.179
-609.215	-105.711	0.117	0.026
-608.201	353.886	0.203	-0.403
-607.186	-200.000	0.018	-0.178
-606.171	-4.412	-0.088	0.061
-605.157	333.345	0.100	0.193
-604.142	9.731	-0.164	0.124
-603.128	-33.066	-0.197	0.109
-602.113	608.207	0.021	0.053
-601.098	-85.501	-0.352	0.109
-600.084	-200.000	-0.062	0.305
-599.069	-125.152	-0.082	-0.012
-598.055	-159.604	-0.184	0.010
-597.040	107.670	-0.158	0.188
-596.025	63.388	0.301	0.301
-595.011	-200.000	0.048	0.220
-593.996	-200.000	-0.001	0.038
-592.982	800.000	-0.030	-0.110
-591.967	-136.916	0.326	0.037
-590.952	-81.866	0.129	0.042
-589.938	-200.000	0.026	-0.240
-588.923	10.701	-0.057	0.043
-587.909	11.149	-0.353	-0.269
-586.894	47.435	0.175	0.162
-585.879	-33.786	-0.347	-0.191
-584.865	-107.938	0.243	0.053
-583.850	-37.021	-0.036	-0.019
-582.836	-200.000	-0.058	-0.522
-581.821	800.000	-0.029	0.121
-580.806	-82.039	0.034	0.011
-579.792	-79.807	0.107	-0.036
-578.777	733.796	0.052	-0.138
-577.763	-192.010	-0.206	-0.002
-576.748	33.010	0.147	-0.127
-575.733	-200.000	-0.003	0.177
-574.719	-200.000	-0.010	-0.203
-573.704	-200.000	0.003	0.033
-572.690	-33.688	-0.210	-0.115
-571.675	-18.108	-0.097	0.060
-570.661	458.868	0.088	0.196
-569.646	157.980	-0.056	0.078
-568.631	23.882	-0.144	-0.118
-567.617	26.615	0.250	-0.208
-566.602	-200.000	-0.123	-0.616
-565.588	-74.678	-0.044	-0.016
-564.573	-63.844	0.245	-0.100
-563.558	-109.113	0.271	0.057
-562.544	106.098	-0.211	0.249
-561.529	237.385	-0.074	0.123
-560.515	154.836	-0.102	-0.140
-559.500	-65.376	-0.395	0.158
-558.485	-160.011	0.248	0.013
-557.471	2.408	-0.074	-0.053
-556.456	431.149	0.190	0.409
-555.442	12.153	-0.188	0.144
-554.427	-200.000	0.012	0.166
-553.412	393.964	0.164	-0.341
-552.398	-200.000	0.006	0.103
-551.383	-18.101	-0.252	-0.157
-550.369	-62.996	-0.428	0.176
-549.354	142.845	0.073	0.097
-548.339	92.147	0.305	0.341
-547.325	15.266	-0.131	0.102
-546.310	635.252	0.065	-0.163
-545.296	-200.000	-0.041	-0.258
-544.281	178.304	-0.118	0.171
-543.266	160.865	0.069	0.096
-542.252	-23.347	0.207	0.123
-541.237	-138.277	-0.052	0.006
-540.223	50.777	0.282	-0.266
-539.208	-200.000	0.023	-0.137
-538.193	-113.533	0.596	-0.116
-537.179	-200.000	-0.015	0.089
-536.164	253.658	-0.072	0.122
-535.150	-200.000	-0.023	0.103
-534.135	96.027	-0.040	-0.046
-533.121	-139.663	-0.075	-0.008
-532.106	29.761	-0.226	-0.191
-531.091	-200.000	0.014	-0.208
-530.077	52.717	0.201	-0.191
-529.062	-12.903	-0.171	0.111
-528.048	1.732	0.042	0.030
-527.033	-17.787	-0.159	0.099
-526.018	-99.664	0.155	-0.039
-525.004	-200.000	-0.012	-0.322
-523.989	129.480	-0.085	-0.108
-522.975	1.251	-0.195	-0.139
-521.960	293.766	0.047	-0.086
-520.945	166.038	0.136	0.192
-519.931	143.564	-0.238	0.315
-518.916	566.725	-0.061	-0.148
-517.902	71.316	0.326	-0.337
-516.887	58.089	-0.385	-0.375
-515.872	800.000	-0.012	-0.048
-514.858	-200.000	0.050	0.349
-513.843	-124.454	-0.162	0.025
-512.829	-154.671	-0.156	-0.010
-511.814	-39.752	-0.245	-0.127
-510.799	-150.695	-0.167	-0.013
-509.785	719.762	-0.049	0.128
-508.770	646.424	-0.092	0.233
-507.756	800.000	0.174	-0.520
-506.741	800.000	-0.025	-0.089
-505.726	-31.415	-0.240	-0.134
-504.712	286.761	0.048	-0.086
-503.697	250.544	0.138	-0.233
-502.683	259.105	-0.111	0.190
-501.668	61.175	0.036	-0.036
-500.653	-81.511	0.438	-0.143
-499.639	9.189	-0.128	-0.096
-498.624	631.498	0.060	0.151
-497.610	260.079	-0.057	0.099
-496.595	115.138	-0.065	0.078
-495.581	-200.000	0.001	-0.179
-494.566	113.882	-0.036	0.044
-493.551	-200.000	0.017	0.088
-492.537	334.641	-0.053	0.102
-491.522	-8.184	-0.075	-0.050
-490.508	800.000	0.086	-0.264
-489.493	-111.652	-0.237	0.048
-488.478	-200.000	0.012	-0.220
-487.464	59.387	0.212	-0.208
-486.449	652.881	0.091	0.232
-485.435	-93.907	0.241	0.066
-484.420	-200.000	-0.023	-0.306
-483.405	800.000	-0.081	-0.242
-482.391	87.706	0.147	0.162
-481.376	215.149	-0.119	0.188
-480.362	-79.165	0.088	-0.030
-479.347	-68.258	-0.125	0.048
-478.332	43.715	0.198	-0.180
-477.318	800.000	0.067	0.208
-476.303	-14.876	-0.147	0.093
-475.289	-79.602	-0.148	-0.049
-474.274	-66.271	-0.230	-0.091
-473.259	37.888	0.125	0.110
-472.245	800.000	-0.101	0.308
-471.230	800.000	0.065	-0.228
-470.216	-200.000	-0.004	-0.125
-469.201	141.846	-0.114	-0.150
-468.186	-200.000	-0.008	0.107
-467.172	302.666	-0.205	-0.376
-466.157	98.810	-0.089	-0.102
-465.143	353.908	-0.149	-0.294
-464.128	-62.973	-0.077	-0.031
-463.113	31.201	0.088	0.075
-462.099	-63.091	-0.111	0.045
-461.084	115.716	0.069	-0.083
-460.070	49.394	-0.085	0.079
-459.055	-33.496	0.176	0.097
-458.040	194.727	0.153	-0.230
-457.026	761.040	-0.051	0.138
-456.011	20.039	0.195	0.156
-454.997	-150.416	-0.143	-0.011
-453.982	12.461	-0.183	-0.140
-452.968	-31.721	0.164	-0.091
-451.953	800.000	-0.079	0.341
-450.938	236.892	-0.117	0.192
-449.924	-159.661	0.315	-0.017
-448.909	-64.238	-0.258	-0.104
-447.895	800.000	0.067	0.187
-446.880	-200.000	0.051	0.249
-445.865	64.428	0.230	0.230
-444.851	722.632	0.043	-0.114
-443.836	-41.819	-0.149	-0.076
-442.822	219.548	0.090	-0.142
-441.807	-200.000	0.007	0.140
-440.792	53.987	0.073	-0.069
-439.778	-132.849	-0.136	0.017
-438.763	32.494	0.159	-0.136
-437.749	-153.560	0.292	0.020
-436.734	29.804	-0.311	-0.262
-435.719	61.972	-0.064	0.063
-434.705	122.381	0.224	-0.278
-433.690	-192.652	-0.189	0.002
-432.676	-21.733	0.103	-0.062
-431.661	116.708	0.155	-0.188
-430.646	-61.818	-0.298	0.124
-429.632	83.796	0.102	0.111
-428.617	-200.000	0.002	-0.031
-427.603	-85.721	0.521	0.160
-426.588	149.063	-0.082	0.110
-425.573	-200.000	0.013	-0.117
-424.559	551.893	0.077	0.183
-423.544	647.379	0.022	-0.056
-422.530	-104.221	0.297	0.068
-421.515	-200.000	0.045	-0.306
-420.500	-200.000	-0.036	-0.184
-419.486	-142.051	0.250	-0.025
-418.471	145.565	0.114	-0.151
-417.457	-126.029	-0.135	-0.020
-416.442	-200.000	-0.067	0.385
-415.428	485.180	-0.148	-0.334
-414.413	-200.000	0.026	0.350
-413.398	380.410	0.143	0.291
-412.384	-200.000	0.048	0.249
-411.369	48.998	-0.182	0.169
-410.355	800.000	-0.140	0.454
-409.340	-200.000	0.026	-0.122
-408.325	-115.518	0.209	-0.039
-407.311	-15.219	-0.192	-0.122
-406.296	-105.777	-0.494	0.110
-405.282	-49.038	0.311	0.148
-404.267	-71.326	-0.393	-0.146
-403.252	-49.126	-0.042	-0.020
-402.238	-51.973	0.255	0.117
-401.223	-57.759	0.336	-0.146
-400.209	206.379	-0.063	0.097
-399.194	-182.089	-0.114	-0.002
-398.179	-91.328	0.261	-0.074
-397.165	-134.648	0.431	-0.052
-396.150	628.370	-0.074	-0.186
-395.136	-49.606	-0.229	-0.108
-394.121	90.788	-0.072	0.079
-393.106	-55.046	-0.160	0.071
-392.092	210.518	0.192	-0.298
-391.077	-76.272	0.202	0.070
-390.063	239.927	-0.071	0.117
-389.048	524.560	0.030	-0.069
-388.033	-113.023	-0.129	-0.025
-387.019	-61.390	0.177	0.074
-386.004	99.258	0.056	0.064
-384.990	150.138	0.122	0.164
-383.975	-56.733	-0.432	-0.189
-382.960	800.000	0.096	-0.298
-381.946	800.000	-0.044	0.128
-380.931	-156.165	-0.323	0.020
-379.917	-11.662	0.115	-0.075
-378.902	70.239	-0.131	0.134
-377.888	-104.979	-0.309	0.070
-376.873	-87.734	-0.339	-0.101
-375.858	311.415	-0.107	-0.197
-374.844	-85.761	0.188	-0.058
-373.829	-172.262	-0.102	0.003
-372.815	800.000	-0.048	-0.186
-371.800	-200.000	0.052	-0.335
-370.785	-87.818	-0.093	0.028
-369.771	-116.163	-0.081	0.015
-368.756	-57.415	0.190	0.082
-367.742	24.897	0.136	-0.112
-366.727	-110.534	0.240	0.049
-365.712	406.678	-0.122	0.254
-364.698	116.386	-0.134	-0.162
-363.683	223.895	0.038	-0.061
-362.669	-109.590	-0.306	-0.064
-361.654	-108.791	-0.196	0.041
-360.639	-18.824	-0.092	0.057
-359.625	59.944	-0.214	-0.209
-358.610	383.839	0.110	0.223
-357.596	-100.284	0.183	-0.045
-356.581	39.085	-0.227	-0.200
-355.566	131.211	0.175	0.222
-354.552	-34.613	-0.044	0.024
-353.537	800.000	0.029	-0.092
-352.523	454.584	-0.060	0.132
-351.508	39.007	0.265	0.234
-350.493	-79.081	0.114	0.038
-349.479	479.547	0.130	-0.291
-348.464	4.905	0.176	-0.128
-347.450	-116.037	-0.135	0.025
-346.435	-37.993	-0.110	0.058
-345.420	-200.000	0.015	-0.124
-344.406	298.764	0.161	0.292
-343.391	-55.044	-0.132	0.059
-342.377	31.705	0.101	0.086
-341.362	44.005	0.269	0.243
-340.348	4.823	-0.179	0.130
-339.333	157.649	0.174	0.238
-338.318	63.563	-0.133	0.132
-337.304	-5.600	-0.226	-0.153
-336.289	-200.000	-0.001	-0.148
-335.275	201.231	0.162	-0.247
-334.260	-124.020	0.278	-0.043
-333.245	-34.289	-0.193	0.105
-332.231	-200.000	0.043	-0.322
-331.216	-59.029	0.173	0.074
-330.202	-142.858	-0.322	-0.031
-329.187	-120.302	0.146	-0.025
-328.172	185.526	0.061	0.089
-327.158	206.262	-0.061	0.094
-326.143	11.417	0.255	0.192
-325.129	23.890	0.092	-0.075
-324.114	-66.057	0.144	-0.057
-323.099	-90.786	-0.289	-0.082
-322.085	74.366	0.145	-0.150
-321.070	93.718	-0.182	0.204
-320.056	-7.336	0.336	0.225
-319.041	145.715	0.060	0.079
-318.026	-30.277	0.189	0.106
-317.012	202.782	-0.097	0.147
-315.997	-200.000	0.021	-0.131
-314.983	-13.517	-0.120	-0.076
-313.968	-200.000	0.000	-0.108
-312.953	234.414	-0.097	-0.157
-311.939	-200.000	-0.016	-0.312
-310.924	-135.367	0.132	0.016
-309.910	-200.000	0.048	0.380
-308.895	-140.758	0.240	0.024
-307.880	-176.858	0.194	0.005
-306.866	-103.242	-0.141	-0.033
-305.851	28.143	-0.270	-0.224
-304.837	-200.000	-0.001	0.075
-303.822	-32.680	-0.146	-0.080
-302.807	197.848	-0.029	0.043
-301.793	-174.428	0.286	0.008
-300.778	-200.000	0.031	0.205
-299.764	-94.150	-0.324	-0.087
-298.749	-135.629	0.131	0.015
-297.735	151.516	-0.112	0.150
-296.720	800.000	-0.074	-0.281
-295.705	95.921	0.210	0.237
-294.691	364.668	-0.200	0.397
-293.676	-62.577	-0.310	0.127
-292.662	40.574	0.294	0.261
-291.647	206.963	-0.246	0.378
-290.632	41.489	0.150	0.134
-289.618	-106.690	0.371	-0.081
-288.603	89.505	-0.127	0.139
-287.589	777.535	0.053	0.144
-286.574	-76.296	0.292	0.101
-285.559	-16.804	0.039	-0.024
-284.545	-106.924	0.215	0.047
-283.530	-139.109	-0.154	0.016
-282.516	-117.593	-0.194	-0.034
-281.501	3.262	0.151	0.108
-280.486	71.968	-0.196	0.201
-279.472	-200.000	0.027	0.138
-278.457	-92.096	-0.169	0.047
-277.443	79.390	-0.379	0.400
-276.428	-128.757	0.051	-0.007
-275.413	304.671	0.117	-0.213
-274.399	-65.144	-0.169	0.067
-273.384	-200.000	0.030	0.220
-272.370	142.184	-0.270	0.352
-271.355	-200.000	-0.014	-0.138
-270.340	-112.806	-0.108	-0.021
-269.326	95.421	-0.062	-0.070
-268.311	95.912	-0.139	0.156
-267.297	-115.099	0.248	-0.046
-266.282	-4.771	0.269	-0.182
-265.267	-63.216	0.395	-0.160
-264.253	539.964	0.067	0.158
-263.238	800.000	-0.011	-0.034
-262.224	-129.357	0.342	-0.047
-261.209	-126.025	-0.341	-0.050
-260.195	40.887	-0.222	-0.197
-259.180	38.149	0.147	0.129
-258.165	800.000	-0.039	-0.165
-257.151	-60.338	-0.130	0.055
-256.136	266.103	-0.134	-0.230
-255.122	386.217	-0.170	-0.345
-254.107	-200.000	0.014	-0.098
-253.092	800.000	0.058	-0.191
-252.078	50.625	-0.165	-0.154
-251.063	258.779	-0.088	0.150
-250.049	-200.000	-0.038	-0.194
-249.034	-144.576	-0.386	-0.035
-248.019	290.134	0.074	0.132
-247.005	278.470	0.014	-0.025
-245.990	-200.000	0.017	-0.092
-244.976	-103.069	-0.338	-0.079
-243.961	-108.454	0.286	0.060
-242.946	-18.176	0.311	0.191
-241.932	-200.000	0.015	0.101
-240.917	-176.751	0.073	-0.002
-239.903	-29.442	0.043	-0.024
-238.888	-200.000	-0.050	-0.418
-237.873	-55.982	-0.191	-0.084
-236.859	-119.968	0.523	0.088
-235.844	-93.136	-0.280	0.076
-234.830	54.786	0.188	-0.179
-233.815	-136.179	-0.287	0.033
-232.800	-104.079	0.396	-0.091
-231.786	-161.629	-0.189	-0.010
-230.771	262.258	0.055	0.094
-229.757	362.639	-0.096	-0.190
-228.742	3.132	0.076	-0.054
-227.727	79.574	-0.183	0.193
-226.713	-2.025	-0.068	-0.047
-225.698	-148.498	-0.047	-0.004
-224.684	233.289	0.110	-0.178
-223.669	-109.493	0.430	-0.089
-222.655	-200.000	0.012	-0.116
-221.640	38.748	0.232	0.204
-220.625	-200.000	0.040	0.306
-219.611	-99.881	-0.211	-0.052
-218.596	68.492	-0.116	0.116
-217.582	-200.000	0.005	0.052
-216.567	118.121	0.116	-0.141
-215.552	-62.225	0.312	0.128
-214.538	491.469	-0.104	-0.235
-213.523	-200.000	0.066	-0.318
-212.509	-33.283	0.209	0.114
-211.494	23.507	0.121	-0.098
-210.479	-38.572	-0.193	0.100
-209.465	-200.000	-0.004	0.156
-208.450	-200.000	-0.002	-0.091
-207.436	-11.657	0.295	-0.190
-206.421	-105.524	-0.236	-0.053
-205.406	79.683	-0.198	0.209
-204.392	-200.000	0.005	-0.061
-203.377	-72.848	0.408	0.147
-202.363	138.174	-0.186	0.240
-201.348	800.000	0.084	0.347
-200.333	-200.000	0.020	0.138
-199.319	-95.256	-0.061	-0.016
-198.304	12.412	0.167	0.126
-197.290	330.153	0.131	0.247
-196.275	-15.204	-0.225	0.141
-195.260	-200.000	-0.014	-0.240
-194.246	-102.800	0.186	0.043
-193.231	108.963	-0.202	0.237
-192.217	0.937	0.221	0.156
-191.202	-200.000	0.028	0.151
-190.187	229.939	-0.040	0.064
-189.173	196.022	-0.082	0.122
-188.158	-200.000	-0.197	-0.001
-187.144	183.093	0.262	-0.380
-186.129	49.533	0.138	0.128
-185.114	99.941	-0.085	-0.097
-184.100	-200.000	0.022	-0.307
-183.085	-32.661	-0.041	-0.022
-182.071	-82.718	0.139	-0.044
-181.056	462.961	0.009	-0.021
-180.042	-104.822	-0.462	-0.104
-179.027	125.135	-0.216	-0.268
-178.012	-28.078	0.182	-0.103
-176.998	8.988	0.044	-0.033
-175.983	314.880	-0.081	-0.149
-174.969	1.250	0.378	0.266
-173.954	-0.430	-0.079	-0.055
-172.939	800.000	-0.039	0.157
-171.925	-200.000	0.019	-0.150
-170.910	-24.052	0.156	-0.091
-169.896	-32.540	0.365	-0.200
-168.881	-163.604	-0.075	-0.003
-167.866	122.888	-0.182	-0.224
-166.852	687.224	-0.083	0.212
-165.837	465.107	-0.082	-0.181
-164.823	-200.000	0.013	0.232
-163.808	-200.000	-0.001	0.077
-162.793	7.353	-0.184	-0.135
-161.779	127.024	-0.030	-0.037
-160.764	-23.502	0.327	0.192
-159.750	-98.518	0.113	-0.028
-158.735	23.166	-0.245	0.197
-157.720	111.714	0.085	0.100
-156.706	522.830	0.150	-0.345
-155.691	-21.899	-0.155	0.092
-154.677	100.110	0.176	0.199
-153.662	0.430	-0.243	0.170
-152.647	92.578	-0.180	-0.199
-151.633	-123.752	0.317	0.049
-150.618	120.891	0.175	0.214
-149.604	-93.455	-0.077	0.021
-148.589	765.609	0.075	-0.199
-147.574	-200.000	0.022	-0.464
-146.560	-200.000	-0.053	-0.236
-145.545	-50.193	0.134	-0.062
-144.531	-157.135	-0.452	0.027
-143.516	-200.000	0.229	0.001
-142.502	-72.928	-0.417	-0.150
-141.487	-166.464	0.190	-0.008
-140.472	800.000	-0.083	0.231
-139.458	-151.045	0.202	0.015
-138.443	560.224	0.135	-0.319
-137.429	-200.000	-0.003	0.074
-136.414	-69.112	0.166	-0.062
-135.399	91.234	-0.109	0.119
-134.385	-197.974	0.160	-0.001
-133.370	-95.078	0.246	-0.065
-132.356	-176.439	0.212	-0.005
-131.341	-37.372	-0.056	0.029
-130.326	280.812	0.057	-0.100
-129.312	-78.747	0.204	0.068
-128.297	140.944	-0.142	0.184
-127.283	-200.000	-0.004	0.038
-126.268	788.863	-0.100	-0.268
-125.253	213.635	0.117	-0.182
-124.239	-108.674	-0.434	-0.091
-123.224	527.408	0.095	-0.219
-122.210	478.031	0.138	0.305
-121.195	-39.931	-0.067	-0.034
