DTS Sentinel unit serial number:	SN413079Multiplexer serial number:	ORYXHardware model number:	OX4-SRSoftware version number:	ORYX F/W v4.00 Oryx Data Collector v3.7.2.0data status	okinstallation	princeton_trtdifferential loss correction	single-endedforward channel	channel 3reverse channel	N/Adate	2019/09/14time	19:44:35forward acquisition time	60.00reverse acquisition time	0.00gamma	496.2192k internal	0.2313k external	0.2313temperature offset calibration	1.0010default loss term (dB/km)	0.3790temperature slope calibration	1.0000multiplexer offset coefficient	1.0000multiplexer slope coefficient	1.0000fibre end	0.00T internal ref (°C)	34.44T ext. ref 1 (°C)	4.90T ext. ref 2 (°C)	28.61length (m)	temperature (°C)	Stokes	anti-Stokes-747.200	-114.199	-0.402	0.079
-746.185	-200.000	-0.002	0.101
-745.171	-200.000	-0.017	0.306
-744.156	104.677	0.082	0.098
-743.142	65.189	0.104	0.107
-742.127	187.759	0.245	0.371
-741.112	1.929	0.123	0.090
-740.098	133.416	-0.181	0.237
-739.083	-200.000	0.023	0.110
-738.069	-119.941	-0.120	-0.021
-737.054	1.895	-0.238	-0.174
-736.039	340.171	0.172	-0.341
-735.025	5.823	0.336	-0.252
-734.010	249.615	-0.179	-0.307
-732.996	-23.539	-0.242	0.147
-731.981	156.185	0.166	0.233
-730.966	-91.904	-0.122	-0.035
-729.952	145.540	0.115	0.156
-728.937	3.279	-0.399	0.294
-727.923	-200.000	0.050	-0.226
-726.908	485.158	0.026	0.059
-725.894	-120.306	0.070	-0.012
-724.879	232.043	-0.114	0.189
-723.864	-133.386	-0.327	0.042
-722.850	105.132	0.047	-0.057
-721.835	-144.738	-0.362	-0.034
-720.821	308.436	0.121	0.230
-719.806	-72.024	-0.257	0.097
-718.791	40.410	0.124	0.113
-717.777	131.596	-0.083	-0.109
-716.762	181.137	0.084	-0.124
-715.748	800.000	0.021	-0.062
-714.733	800.000	0.073	0.230
-713.718	-200.000	-0.015	0.135
-712.704	-144.367	-0.051	0.005
-711.689	187.142	-0.101	0.153
-710.675	127.225	0.057	0.073
-709.660	71.703	0.126	0.133
-708.645	-200.000	-0.041	0.187
-707.631	26.795	0.098	0.083
-706.616	800.000	-0.055	-0.163
-705.602	-48.321	-0.215	0.105
-704.587	-49.120	-0.064	0.031
-703.572	-87.748	-0.313	0.095
-702.558	-42.797	-0.338	-0.174
-701.543	29.617	-0.168	-0.145
-700.529	681.887	-0.067	0.176
-699.514	541.216	-0.075	-0.180
-698.499	-114.600	-0.283	-0.055
-697.485	-53.547	-0.083	0.038
-696.470	-130.719	-0.243	0.033
-695.456	-86.275	-0.232	0.072
-694.441	16.748	-0.026	-0.021
-693.426	-81.630	0.080	0.027
-692.412	-200.000	0.038	-0.444
-691.397	116.233	0.193	-0.239
-690.383	276.927	-0.150	0.269
-689.368	213.135	0.050	-0.080
-688.354	-39.430	-0.149	0.079
-687.339	219.908	-0.292	0.473
-686.324	76.575	-0.212	0.227
-685.310	-96.773	0.340	-0.090
-684.295	-200.000	0.004	-0.152
-683.281	30.906	-0.328	-0.284
-682.266	-94.127	-0.090	0.025
-681.251	378.541	0.197	0.408
-680.237	-37.882	-0.174	-0.094
-679.222	-200.000	-0.053	0.251
-678.208	-128.660	0.230	-0.033
-677.193	1.050	0.330	0.240
-676.178	-41.994	0.076	-0.039
-675.164	-200.000	-0.076	-0.341
-674.149	-69.124	-0.452	-0.176
-673.135	-27.805	0.363	0.213
-672.120	-200.000	-0.004	-0.160
-671.105	54.137	0.286	-0.278
-670.091	-200.000	-0.003	-0.366
-669.076	198.604	0.096	-0.148
-668.062	75.509	0.109	-0.116
-667.047	-59.547	0.261	-0.113
-666.032	-87.208	-0.100	-0.031
-665.018	-44.211	0.245	0.124
-664.003	-200.000	0.017	-0.281
-662.989	-200.000	-0.014	-0.278
-661.974	26.466	-0.113	-0.096
-660.959	34.330	0.122	-0.108
-659.945	-82.829	0.170	0.056
-658.930	653.579	0.031	-0.080
-657.916	-61.345	0.202	-0.086
-656.901	213.980	-0.114	0.183
-655.886	128.926	0.053	0.068
-654.872	-82.517	-0.250	0.082
-653.857	180.259	0.081	-0.120
-652.843	800.000	-0.071	0.285
-651.828	-200.000	-0.001	0.163
-650.814	86.158	-0.159	0.177
-649.799	309.172	0.109	-0.205
-648.784	800.000	0.108	0.312
-647.770	149.234	-0.055	0.076
-646.755	108.641	-0.204	0.246
-645.741	8.750	-0.239	0.182
-644.726	-46.647	-0.479	-0.237
-643.711	800.000	0.069	0.195
-642.697	-148.046	-0.239	0.020
-641.682	-118.000	0.057	-0.010
-640.668	291.032	0.036	-0.067
-639.653	733.798	-0.108	0.291
-638.638	-12.822	-0.319	0.210
-637.624	635.448	-0.104	0.266
-636.609	15.440	-0.134	-0.107
-635.595	769.735	-0.114	-0.313
-634.580	-137.082	-0.058	-0.007
-633.565	-36.922	0.069	-0.037
-632.551	168.335	-0.038	-0.054
-631.536	-77.054	0.187	0.066
-630.522	-70.779	-0.273	-0.104
-629.507	120.221	-0.159	0.199
-628.492	-47.065	-0.011	0.005
-627.478	-23.833	0.126	0.076
-626.463	-20.826	-0.236	-0.146
-625.449	-200.000	0.043	-0.250
-624.434	-9.327	-0.507	-0.342
-623.419	800.000	0.069	-0.278
-622.405	-170.621	0.111	-0.004
-621.390	800.000	0.042	0.117
-620.376	-79.888	0.356	-0.121
-619.361	-122.869	-0.110	0.018
-618.346	-84.932	0.214	-0.068
-617.332	-109.593	0.160	0.034
-616.317	27.918	-0.151	0.129
-615.303	-200.000	0.007	0.301
-614.288	-200.000	0.019	0.326
-613.273	428.406	-0.071	-0.154
-612.259	-72.995	0.498	-0.184
-611.244	-184.624	0.227	-0.004
-610.230	-120.123	-0.216	-0.037
-609.215	-145.853	-0.505	0.045
-608.201	-22.393	0.247	0.151
-607.186	-200.000	-0.001	0.020
-606.171	-73.366	0.127	-0.047
-605.157	575.342	-0.096	-0.235
-604.142	-74.331	-0.163	-0.059
-603.128	-28.948	-0.055	-0.032
-602.113	317.523	-0.027	-0.051
-601.098	157.309	-0.236	-0.329
-600.084	-145.744	0.343	-0.031
-599.069	398.658	-0.029	0.061
-598.055	211.833	0.050	-0.080
-597.040	800.000	-0.047	0.187
-596.025	-110.953	0.293	-0.061
-595.011	192.166	-0.130	0.198
-593.996	-200.000	0.057	-0.317
-592.982	701.731	0.067	-0.177
-591.967	-80.397	-0.264	0.089
-590.952	-174.014	0.200	-0.006
-589.938	800.000	-0.144	-0.443
-588.923	392.643	-0.033	0.070
-587.909	-200.000	-0.016	0.137
-586.894	128.561	0.219	0.281
-585.879	39.166	0.139	0.126
-584.865	-137.267	0.092	0.011
-583.850	126.091	-0.069	0.087
-582.836	-104.696	-0.248	0.058
-581.821	345.354	0.082	-0.162
-580.806	212.385	-0.144	-0.228
-579.792	-47.119	-0.159	0.078
-578.777	285.670	-0.096	0.174
-577.763	-80.555	0.247	-0.083
-576.748	313.725	0.061	-0.115
-575.733	-200.000	0.022	0.148
-574.719	66.824	-0.134	-0.137
-573.704	213.249	-0.216	-0.344
-572.690	-113.946	-0.428	-0.084
-571.675	-110.127	0.164	-0.035
-570.661	178.481	-0.039	-0.058
-569.646	60.533	0.080	0.080
-568.631	-34.533	0.206	-0.114
-567.617	800.000	-0.040	-0.116
-566.602	-21.784	0.122	0.075
-565.588	178.534	-0.096	-0.142
-564.573	1.170	-0.251	0.182
-563.558	626.788	-0.095	0.241
-562.544	-122.854	0.213	-0.035
-561.529	197.341	0.056	-0.086
-560.515	-200.000	-0.028	0.138
-559.500	-120.951	0.290	0.049
-558.485	-200.000	0.045	0.335
-557.471	-120.609	-0.263	0.045
-556.456	-200.000	-0.046	-0.222
-555.442	-117.570	0.185	-0.034
-554.427	5.383	-0.025	0.018
-553.412	-142.930	-0.232	0.023
-552.398	-200.000	-0.002	0.065
-551.383	-5.566	-0.080	-0.055
-550.369	194.702	0.058	0.088
-549.354	-200.000	-0.005	-0.133
-548.339	-200.000	-0.018	-0.223
-547.325	78.015	0.320	0.344
-546.310	800.000	-0.057	-0.194
-545.296	-1.574	0.087	-0.062
-544.281	-200.000	0.007	0.513
-543.266	750.735	-0.074	-0.202
-542.252	800.000	-0.011	0.036
-541.237	371.699	-0.119	0.243
-540.223	-200.000	-0.006	0.039
-539.208	-122.247	-0.283	0.047
-538.193	-200.000	0.007	0.108
-537.179	178.607	-0.157	0.231
-536.164	-134.398	-0.172	-0.021
-535.150	-60.041	-0.130	-0.056
-534.135	800.000	-0.079	0.241
-533.121	-39.911	-0.190	-0.100
-532.106	388.983	0.143	0.299
-531.091	-45.287	-0.490	0.245
-530.077	333.182	-0.142	-0.277
-529.062	-200.000	0.045	0.300
-528.048	163.786	-0.155	0.220
-527.033	-200.000	-0.007	-0.036
-526.018	-12.413	0.248	0.163
-525.004	-20.728	0.384	-0.237
-523.989	-51.137	0.288	0.136
-522.975	-148.361	-0.325	-0.027
-521.960	-70.463	-0.099	0.038
-520.945	-23.090	-0.173	-0.105
-519.931	-3.240	-0.102	-0.071
-518.916	-19.260	0.063	0.039
-517.902	-1.266	-0.107	-0.076
-516.887	-37.921	-0.104	-0.056
-515.872	-17.466	-0.328	0.207
-514.858	-4.654	-0.063	0.044
-513.843	-47.032	-0.319	-0.156
-512.829	-200.000	0.013	-0.266
-511.814	-200.000	0.015	-0.178
-510.799	-157.464	0.034	0.002
-509.785	800.000	0.082	-0.231
-508.770	-98.144	-0.239	-0.062
-507.756	10.811	0.088	-0.068
-506.741	230.235	-0.233	-0.384
-505.726	92.338	0.167	0.190
-504.712	52.147	0.159	0.152
-503.697	-200.000	-0.017	0.242
-502.683	224.394	-0.029	-0.047
-501.668	-200.000	-0.007	0.157
-500.653	-200.000	-0.038	0.242
-499.639	743.024	-0.095	0.256
-498.624	40.721	0.063	0.057
-497.610	-124.136	-0.104	0.016
-496.595	-89.032	0.246	0.073
-495.581	800.000	-0.046	-0.128
-494.566	69.639	0.115	-0.119
-493.551	245.618	0.059	-0.100
-492.537	524.802	-0.067	0.159
-491.522	-120.668	0.017	0.003
-490.508	-61.926	-0.163	-0.068
-489.493	159.944	0.223	-0.312
-488.478	755.828	0.202	0.550
-487.464	-72.582	0.095	0.035
-486.449	486.261	-0.033	0.075
-485.435	-42.029	-0.291	-0.150
-484.420	-45.614	0.214	-0.106
-483.405	800.000	-0.036	-0.144
-482.391	350.701	-0.030	0.059
-481.376	-139.653	0.108	0.012
-480.362	-37.565	0.355	-0.190
-479.347	-11.758	0.067	0.044
-478.332	419.516	0.059	0.128
-477.318	-126.929	0.083	-0.012
-476.303	-111.600	0.266	-0.054
-475.289	-84.329	0.247	-0.079
-474.274	800.000	0.097	0.352
-473.259	-116.715	-0.313	0.058
-472.245	-180.240	-0.233	-0.005
-471.230	-46.232	-0.057	-0.028
-470.216	-85.290	-0.233	0.073
-469.201	-73.556	0.062	0.023
-468.186	-87.780	0.495	-0.150
-467.172	-121.967	-0.065	-0.011
-466.157	82.776	0.082	0.089
-465.143	406.318	0.081	-0.171
-464.128	118.919	-0.173	-0.215
-463.113	-143.278	-0.203	-0.020
-462.099	315.183	-0.167	0.317
-461.084	-200.000	-0.022	0.145
-460.070	-41.649	-0.132	-0.068
-459.055	-178.845	-0.143	-0.003
-458.040	-54.621	0.111	0.050
-457.026	-124.784	-0.391	0.061
-456.011	45.391	0.153	-0.142
-454.997	-28.324	0.234	0.135
-453.982	-200.000	-0.052	0.309
-452.968	-99.272	0.116	0.029
-451.953	-49.003	-0.190	-0.091
-450.938	455.860	0.130	0.289
-449.924	-104.038	0.257	-0.060
-448.909	-175.217	0.199	0.005
-447.895	-200.000	-0.021	0.170
-446.880	161.554	-0.037	0.051
-445.865	-70.669	-0.297	-0.113
-444.851	-77.879	-0.236	0.082
-443.836	187.375	0.067	-0.101
-442.822	58.063	-0.079	0.077
-441.807	77.211	0.068	-0.072
-440.792	-200.000	-0.005	0.468
-439.778	34.541	0.199	0.174
-438.763	93.207	-0.043	0.048
-437.749	-106.856	-0.207	0.046
-436.734	-200.000	0.018	0.166
-435.719	-200.000	-0.005	0.140
-434.705	-200.000	0.014	-0.256
-433.690	800.000	-0.021	-0.063
-432.676	105.915	0.139	0.164
-431.661	800.000	0.056	0.226
-430.646	-160.304	-0.181	0.010
-429.632	-87.067	-0.245	0.075
-428.617	182.435	-0.215	-0.318
-427.603	-83.858	0.288	-0.092
-426.588	-200.000	0.033	0.155
-425.573	118.160	0.196	-0.242
-424.559	12.536	-0.349	0.270
-423.544	106.308	0.030	-0.036
-422.530	800.000	0.051	0.180
-421.515	-72.024	0.265	0.099
-420.500	800.000	0.011	0.032
-419.486	-127.713	-0.039	0.006
-418.471	228.938	0.100	0.163
-417.457	138.885	0.139	0.183
-416.442	-200.000	-0.003	-0.046
-415.428	-48.132	0.072	-0.035
-414.413	-56.195	0.305	0.136
-413.398	-128.369	0.208	0.030
-412.384	800.000	-0.087	0.289
-411.369	57.217	-0.115	0.113
-410.355	-119.068	0.160	0.028
-409.340	117.461	-0.038	-0.047
-408.325	-81.147	0.358	-0.118
-407.311	13.115	-0.293	0.227
-406.296	-114.658	0.405	0.078
-405.282	296.845	-0.214	-0.392
-404.267	32.587	-0.060	-0.052
-403.252	-200.000	0.025	-0.146
-402.238	-52.631	-0.254	-0.117
-401.223	800.000	0.037	0.153
-400.209	-45.642	0.252	-0.125
-399.194	455.798	-0.045	0.099
-398.179	290.552	0.089	-0.163
-397.165	571.159	0.015	0.036
-396.150	-131.070	-0.148	0.020
-395.136	-200.000	0.001	0.161
-394.121	319.629	-0.087	-0.164
-393.106	-32.612	-0.297	0.166
-392.092	-86.898	0.209	-0.064
-391.077	-200.000	0.012	0.202
-390.063	-13.224	-0.110	-0.071
-389.048	-200.000	0.005	-0.249
-388.033	735.889	0.138	-0.371
-387.019	-147.263	-0.338	0.029
-386.004	-13.187	-0.074	0.048
-384.990	-11.917	-0.102	-0.067
-383.975	51.124	0.249	0.236
-382.960	-200.000	0.639	0.002
-381.946	-200.000	-0.022	0.184
-380.931	259.315	-0.098	0.169
-379.917	-138.007	0.050	-0.006
-378.902	800.000	0.088	-0.247
-377.888	-96.585	0.339	0.089
-376.873	-65.636	-0.407	-0.163
-375.858	160.993	0.113	0.158
-374.844	-103.287	0.263	-0.062
-373.829	-114.929	-0.153	-0.029
-372.815	-182.982	-0.107	0.002
-371.800	-132.695	0.236	-0.030
-370.785	-32.036	0.240	-0.134
-369.771	-61.386	-0.207	0.087
-368.756	-14.713	0.071	0.046
-367.742	800.000	-0.067	0.219
-366.727	11.831	0.124	0.095
-365.712	-6.334	-0.201	0.137
-364.698	-200.000	-0.000	0.307
-363.683	-38.647	0.077	0.041
-362.669	-67.631	0.139	0.054
-361.654	48.139	0.216	0.201
-360.639	466.685	0.031	0.070
-359.625	-70.812	0.076	0.029
-358.610	78.089	-0.198	0.211
-357.596	20.872	0.179	-0.145
-356.581	-200.000	0.011	-0.122
-355.566	-159.822	-0.281	0.015
-354.552	170.811	0.200	-0.287
-353.537	-200.000	-0.154	-0.000
-352.523	508.901	0.123	-0.284
-351.508	800.000	-0.084	-0.253
-350.493	101.064	-0.062	-0.073
-349.479	-40.166	0.040	0.021
-348.464	-101.471	0.397	-0.097
-347.450	-124.905	-0.063	-0.010
-346.435	35.474	-0.344	0.301
-345.420	142.150	0.069	0.091
-344.406	204.193	-0.060	0.093
-343.391	373.766	-0.184	-0.374
-342.377	-200.000	-0.321	0.000
-341.362	-164.582	0.167	-0.008
-340.348	-177.900	-0.243	-0.006
-339.333	426.192	0.078	-0.169
-338.318	-200.000	0.010	0.046
-337.304	185.676	0.107	-0.158
-336.289	-14.945	-0.176	-0.113
-335.275	-5.341	-0.103	0.071
-334.260	-120.877	-0.371	-0.062
-333.245	-112.479	-0.398	-0.079
-332.231	-200.000	-0.007	-0.106
-331.216	-88.074	0.401	-0.120
-330.202	-1.043	-0.141	0.099
-329.187	-57.624	0.366	-0.160
-328.172	214.091	0.131	-0.207
-327.158	136.931	0.133	-0.173
-326.143	-13.690	0.115	0.074
-325.129	12.524	-0.243	0.187
-324.114	800.000	0.096	0.362
-323.099	-23.536	-0.242	-0.145
-322.085	-95.522	0.100	0.027
-321.070	628.224	0.090	-0.227
-320.056	29.178	0.271	-0.230
-319.041	-183.789	0.193	0.003
-318.026	-29.419	0.217	-0.124
-317.012	-128.388	0.208	0.030
-315.997	-99.487	-0.066	0.017
-314.983	-67.101	0.101	0.040
-313.968	-109.444	-0.192	-0.041
-312.953	-112.417	-0.154	-0.031
-311.939	-200.000	-0.047	0.256
-310.924	-200.000	-0.032	0.247
-309.910	98.856	0.091	-0.105
-308.895	-48.062	0.105	-0.050
-307.880	-58.946	0.420	-0.181
-306.866	-37.027	-0.241	-0.129
-305.851	-200.000	0.028	0.420
-304.837	247.677	0.074	-0.124
-303.822	-200.000	0.038	-0.213
-302.807	-200.000	-0.004	0.253
-301.793	100.101	-0.025	0.029
-300.778	136.933	0.101	0.131
-299.764	-200.000	-0.021	0.144
-298.749	-171.698	0.407	0.013
-297.735	18.524	-0.132	-0.105
-296.720	188.501	0.073	-0.108
-295.705	118.833	0.156	-0.193
-294.691	-200.000	0.053	0.292
-293.676	800.000	0.078	0.244
-292.662	452.260	-0.145	-0.319
-291.647	800.000	0.075	-0.279
-290.632	-94.745	-0.181	-0.049
-289.618	28.547	0.164	0.139
-288.603	158.836	0.163	-0.225
-287.589	-32.165	-0.163	-0.091
-286.574	234.451	-0.103	-0.170
-285.559	-72.412	0.255	0.094
-284.545	-200.000	-0.020	-0.309
-283.530	590.793	-0.159	-0.390
-282.516	240.602	-0.026	-0.043
-281.501	-200.000	-0.034	0.178
-280.486	800.000	-0.068	-0.203
-279.472	-43.186	-0.200	0.101
-278.457	-15.893	-0.239	0.152
-277.443	7.329	-0.155	-0.115
-276.428	-147.818	-0.103	-0.009
-275.413	118.542	0.206	0.253
-274.399	433.638	0.031	-0.068
-273.384	-200.000	-0.017	0.083
-272.370	-59.056	0.246	0.106
-271.355	-200.000	-0.004	0.214
-270.340	188.330	0.131	-0.195
-269.326	-200.000	-0.004	-0.189
-268.311	10.973	-0.133	-0.101
-267.297	88.810	-0.058	-0.065
-266.282	-131.514	-0.357	-0.047
-265.267	-200.000	-0.048	-0.299
-264.253	-200.000	-0.005	-0.031
-263.238	-174.164	0.071	0.002
-262.224	-52.594	0.332	0.153
-261.209	614.091	-0.065	-0.163
-260.195	242.566	-0.172	-0.287
-259.180	-200.000	0.112	-0.566
-258.165	800.000	-0.056	0.189
-257.151	-200.000	-0.046	0.237
-256.136	477.559	-0.063	-0.141
-255.122	-142.178	-0.064	0.006
-254.107	67.007	0.105	0.107
-253.092	31.811	0.222	-0.191
-252.078	-135.289	-0.148	-0.018
-251.063	87.365	0.035	-0.039
-250.049	-200.000	0.047	-0.222
-249.034	270.197	0.088	-0.153
-248.019	432.921	-0.112	0.242
-247.005	-151.263	0.197	0.015
-245.990	-77.096	-0.097	0.034
-244.976	-3.602	0.160	0.110
-243.961	110.283	-0.229	-0.274
-242.946	655.852	-0.040	-0.103
-241.932	-119.256	-0.184	0.032
-240.917	94.709	0.207	0.234
-239.903	108.997	-0.164	0.195
-238.888	71.651	-0.129	0.134
-237.873	-36.012	0.080	-0.043
-236.859	-156.255	0.124	-0.008
-235.844	-172.979	0.414	-0.013
-234.830	-79.731	-0.209	0.070
-233.815	-27.890	-0.017	-0.010
-232.800	629.699	0.065	-0.163
-231.786	-200.000	0.081	-0.502
-230.771	-24.640	-0.326	0.193
-229.757	-21.212	0.210	0.128
-228.742	-111.062	0.198	0.040
-227.727	301.940	0.072	-0.132
-226.713	-200.000	-0.057	0.338
-225.698	-200.000	0.035	-0.320
-224.684	-200.000	-0.017	-0.117
-223.669	78.823	-0.087	0.093
-222.655	215.457	-0.115	0.182
-221.640	15.514	-0.340	-0.265
-220.625	800.000	0.023	0.082
-219.611	528.566	-0.151	-0.354
-218.596	32.323	0.120	-0.103
-217.582	-158.173	0.319	-0.019
-216.567	-48.089	0.372	-0.179
-215.552	-200.000	-0.008	0.263
-214.538	-200.000	-0.015	0.095
-213.523	25.573	-0.199	-0.165
-212.509	-102.139	0.182	0.044
-211.494	-31.641	0.148	-0.083
-210.479	-14.329	0.141	0.090
-209.465	-56.607	0.296	0.130
-208.450	109.762	0.202	0.240
-207.436	-188.470	-0.107	-0.001
-206.421	-61.338	-0.136	0.057
-205.406	43.549	-0.059	-0.054
-204.392	86.384	0.039	-0.043
-203.377	278.029	0.116	0.205
-202.363	-85.413	0.076	0.023
-201.348	-122.667	0.221	0.036
-200.333	444.362	-0.082	-0.178
-199.319	350.094	-0.037	-0.073
-198.304	-200.000	0.017	-0.139
-197.290	-200.000	0.015	0.271
-196.275	143.705	-0.056	0.074
-195.260	-9.247	-0.281	-0.187
-194.246	-190.340	-0.094	0.001
-193.231	360.241	0.054	-0.107
-192.217	369.487	0.185	-0.371
-191.202	34.059	0.189	-0.164
-190.187	-75.764	-0.241	-0.085
-189.173	-45.212	-0.396	-0.195
-188.158	-48.368	0.168	0.080
-187.144	-200.000	-0.006	-0.285
-186.129	-101.368	0.392	0.095
-185.114	-106.876	0.070	0.015
-184.100	-70.094	-0.319	-0.120
-183.085	375.841	-0.047	0.096
-182.071	772.340	-0.158	0.426
-181.056	631.892	-0.055	-0.138
-180.042	9.063	0.281	-0.210
-179.027	505.677	0.106	0.244
-178.012	316.030	-0.078	-0.145
-176.998	-81.547	-0.255	-0.083
-175.983	-43.812	-0.274	0.137
-174.969	-162.601	0.113	0.005
-173.954	139.020	-0.199	-0.260
-172.939	24.993	0.317	0.260
-171.925	-99.212	0.344	-0.086
-170.910	800.000	0.041	0.152
-169.896	64.248	0.195	-0.195
-168.881	-85.494	-0.045	0.014
-167.866	-200.000	0.022	-0.396
-166.852	800.000	0.097	0.298
-165.837	-41.833	-0.129	0.066
-164.823	800.000	0.067	-0.214
-163.808	-200.000	-0.059	0.365
-162.793	45.184	0.081	0.074
-161.779	-66.257	-0.013	0.005
-160.764	-67.500	0.019	0.008
-159.750	288.697	-0.056	-0.100
-158.735	800.000	0.062	-0.173
-157.720	217.323	-0.054	-0.085
-156.706	87.701	0.301	0.330
-155.691	-61.348	-0.412	0.172
-154.677	62.503	0.113	-0.112
-153.662	160.449	0.253	0.350
-152.647	193.572	-0.080	-0.120
-151.633	-103.600	-0.059	-0.014
-150.618	10.053	-0.320	-0.241
-149.604	-110.563	0.155	0.032
-148.589	800.000	-0.066	0.268
-147.574	-200.000	0.011	-0.327
-146.560	127.552	-0.192	0.241
-145.545	112.360	-0.035	-0.041
-144.531	-135.153	-0.114	-0.014
-143.516	-102.731	-0.158	-0.037
-142.502	-200.000	-0.013	-0.082
-141.487	-118.637	0.313	-0.055
-140.472	151.772	0.167	0.226
-139.458	-157.264	-0.136	-0.008
-138.443	-195.246	-0.138	-0.001
-137.429	-20.145	-0.146	-0.089
-136.414	-142.188	-0.136	0.013
-135.399	800.000	0.079	-0.246
-134.385	1.796	0.055	0.039
-133.370	-10.595	0.245	-0.161
-132.356	49.890	0.111	-0.103
-131.341	14.734	-0.213	0.165
-130.326	591.175	-0.117	-0.285
-129.312	-194.969	0.236	-0.002
-128.297	-68.512	0.240	0.092
-127.283	-148.450	-0.342	0.028
-126.268	52.447	-0.296	-0.280
-125.253	800.000	-0.059	0.173
-124.239	124.487	0.161	-0.201
-123.224	-200.000	-0.004	-0.158
-122.210	-200.000	-0.219	0.001
