DTS Sentinel unit serial number:	SN413079Multiplexer serial number:	ORYXHardware model number:	OX4-SRSoftware version number:	ORYX F/W v4.00 Oryx Data Collector v3.7.2.0data status	okinstallation	princeton_trtdifferential loss correction	single-endedforward channel	channel 3reverse channel	N/Adate	2019/09/13time	08:32:35forward acquisition time	60.00reverse acquisition time	0.00gamma	496.2192k internal	0.2332k external	0.2332temperature offset calibration	1.0139default loss term (dB/km)	0.3790temperature slope calibration	1.0000multiplexer offset coefficient	1.0000multiplexer slope coefficient	1.0000fibre end	0.00T internal ref (°C)	27.56T ext. ref 1 (°C)	4.28T ext. ref 2 (°C)	24.51length (m)	temperature (°C)	Stokes	anti-Stokes-747.200	550.804	-0.087	-0.211
-746.185	-42.268	0.066	0.034
-745.171	-125.054	0.257	-0.040
-744.156	-50.383	-0.106	0.051
-743.142	-106.073	0.175	-0.040
-742.127	-200.000	-0.054	0.329
-741.112	367.813	-0.205	-0.418
-740.098	88.015	-0.172	-0.192
-739.083	-108.452	-0.247	0.053
-738.069	-200.000	0.005	0.193
-737.054	23.178	-0.106	0.087
-736.039	-93.117	-0.232	0.065
-735.025	61.748	0.140	0.140
-734.010	800.000	-0.029	-0.086
-732.996	27.271	-0.411	-0.347
-731.981	-200.000	0.001	-0.153
-730.966	-155.778	-0.112	-0.007
-729.952	25.092	-0.122	-0.102
-728.937	-86.520	-0.083	0.026
-727.923	-132.653	-0.377	-0.049
-726.908	31.113	-0.134	-0.116
-725.894	-26.423	0.118	-0.070
-724.879	-40.911	0.035	-0.018
-723.864	-200.000	0.008	-0.239
-722.850	58.183	-0.091	0.090
-721.835	-24.167	-0.376	0.226
-720.821	-200.000	0.019	0.115
-719.806	481.778	-0.092	-0.210
-718.791	34.898	-0.121	-0.107
-717.777	-83.090	0.112	-0.036
-716.762	-200.000	-0.314	-0.001
-715.748	205.356	0.218	-0.340
-714.733	238.843	0.074	-0.123
-713.718	282.456	0.082	-0.149
-712.704	-104.407	0.317	-0.074
-711.689	-78.934	-0.102	-0.035
-710.675	31.142	0.079	-0.068
-709.660	-200.000	-0.056	-0.353
-708.645	800.000	0.029	0.084
-707.631	291.215	0.211	-0.386
-706.616	-200.000	-0.015	-0.172
-705.602	221.059	-0.100	-0.161
-704.587	-165.632	0.210	0.009
-703.572	7.806	0.110	0.083
-702.558	-125.473	0.030	-0.005
-701.543	59.561	-0.175	0.173
-700.529	-96.386	0.095	-0.025
-699.514	-93.017	-0.203	-0.057
-698.499	-200.000	0.009	-0.311
-697.485	-200.000	-0.007	0.033
-696.470	-200.000	-0.041	-0.214
-695.456	398.894	-0.098	0.206
-694.441	-38.868	0.167	-0.088
-693.426	-102.207	-0.186	0.045
-692.412	-12.033	0.108	-0.071
-691.397	391.764	0.012	-0.026
-690.383	-200.000	-0.002	0.212
-689.368	118.788	-0.148	0.184
-688.354	-87.174	-0.095	0.029
-687.339	72.656	-0.126	-0.132
-686.324	-58.366	-0.259	-0.113
-685.310	-60.690	-0.189	0.080
-684.295	73.256	-0.079	-0.083
-683.281	-60.073	0.127	-0.054
-682.266	-200.000	-0.021	0.201
-681.251	38.823	0.116	0.104
-680.237	-200.000	-0.006	-0.203
-679.222	-97.462	0.172	0.045
-678.208	396.496	0.123	0.257
-677.193	800.000	-0.071	-0.222
-676.178	-95.112	-0.504	0.136
-675.164	-109.675	0.180	0.038
-674.149	800.000	0.083	-0.267
-673.135	-13.794	-0.152	0.099
-672.120	-73.067	0.048	0.018
-671.105	92.993	-0.278	-0.315
-670.091	136.729	-0.085	0.111
-669.076	1.372	-0.216	-0.156
-668.062	-32.206	-0.344	0.193
-667.047	74.066	0.280	0.295
-666.032	-63.005	0.098	0.041
-665.018	-21.423	0.057	-0.035
-664.003	-200.000	-0.024	0.249
-662.989	635.602	-0.014	0.036
-661.974	800.000	0.045	0.140
-660.959	-96.652	0.215	-0.057
-659.945	-200.000	-0.045	0.236
-658.930	-119.010	0.321	0.056
-657.916	-200.000	0.022	-0.441
-656.901	-121.347	0.105	0.018
-655.886	-59.291	0.207	0.089
-654.872	5.773	0.328	-0.243
-653.857	-200.000	0.036	-0.193
-652.843	800.000	-0.071	-0.210
-651.828	460.002	-0.047	0.104
-650.814	-190.294	0.193	-0.002
-649.799	800.000	-0.006	-0.027
-648.784	-140.083	-0.255	-0.027
-647.770	188.563	-0.105	0.157
-646.755	-86.192	-0.312	0.096
-645.741	-28.543	-0.306	0.177
-644.726	398.851	-0.125	0.262
-643.711	-13.460	0.147	-0.095
-642.697	219.616	0.052	-0.084
-641.682	-200.000	0.001	0.103
-640.668	-168.378	-0.094	-0.004
-639.653	-142.322	0.089	-0.009
-638.638	222.448	-0.161	0.260
-637.624	-200.000	-0.010	0.110
-636.609	323.785	0.054	0.104
-635.595	-89.236	-0.167	0.049
-634.580	-200.000	0.023	0.399
-633.565	-200.000	-0.002	0.068
-632.551	140.589	0.152	-0.201
-631.536	-107.196	-0.224	0.049
-630.522	145.524	0.071	0.096
-629.507	-80.057	-0.344	0.116
-628.492	557.014	0.143	0.345
-627.478	-157.535	0.076	0.005
-626.463	-39.388	-0.210	0.110
-625.449	526.211	-0.036	0.086
-624.434	247.181	0.116	-0.197
-623.419	-200.000	-0.013	0.255
-622.405	14.949	-0.172	0.135
-621.390	-78.852	-0.340	-0.116
-620.376	-43.856	-0.085	0.043
-619.361	398.873	0.147	-0.309
-618.346	-124.693	0.206	0.032
-617.332	563.835	0.090	-0.218
-616.317	-44.779	0.079	0.040
-615.303	552.235	-0.063	0.152
-614.288	-38.826	0.084	0.044
-613.273	-137.088	0.179	-0.021
-612.259	216.893	-0.062	0.098
-611.244	-130.217	0.133	-0.018
-610.230	32.654	-0.175	0.151
-609.215	236.060	-0.129	-0.213
-608.201	-115.187	-0.214	-0.041
-607.186	105.525	-0.057	-0.068
-606.171	800.000	0.044	-0.134
-605.157	147.454	-0.153	-0.207
-604.142	-36.410	0.120	0.065
-603.128	800.000	-0.040	-0.148
-602.113	-86.472	-0.113	0.035
-601.098	-28.147	-0.331	0.192
-600.084	-17.945	0.233	0.146
-599.069	295.608	0.177	0.325
-598.055	800.000	-0.015	0.058
-597.040	-200.000	-0.016	-0.136
-596.025	36.024	0.378	-0.333
-595.011	375.469	-0.143	-0.291
-593.996	-5.070	-0.232	0.160
-592.982	22.641	-0.060	-0.049
-591.967	340.719	-0.096	-0.187
-590.952	-58.659	-0.083	0.036
-589.938	-9.631	0.124	-0.082
-588.923	-79.152	-0.140	-0.048
-587.909	-200.000	-0.025	-0.245
-586.894	800.000	0.087	-0.344
-585.879	-72.438	-0.322	-0.119
-584.865	-118.667	0.081	-0.014
-583.850	203.103	0.087	0.134
-582.836	-52.857	0.157	-0.072
-581.821	-124.339	0.229	-0.036
-580.806	-200.000	0.029	0.191
-579.792	-171.614	0.387	-0.013
-578.777	129.575	0.138	-0.176
-577.763	-107.354	0.247	-0.054
-576.748	-33.664	-0.186	-0.102
-575.733	-200.000	-0.030	0.177
-574.719	-200.000	-0.000	-0.096
-573.704	174.715	-0.102	-0.148
-572.690	-51.171	-0.315	0.147
-571.675	-128.830	-0.123	-0.017
-570.661	569.377	-0.169	0.411
-569.646	-154.445	0.446	-0.030
-568.631	57.952	-0.247	-0.242
-567.617	-200.000	0.019	-0.140
-566.602	-55.103	0.068	0.030
-565.588	-107.005	-0.069	0.015
-564.573	151.681	-0.173	-0.236
-563.558	525.452	0.061	-0.144
-562.544	350.716	-0.048	0.095
-561.529	630.133	0.039	0.099
-560.515	366.536	-0.108	-0.217
-559.500	326.835	-0.202	0.387
-558.485	-200.000	0.050	-0.295
-557.471	48.322	0.071	0.067
-556.456	-200.000	0.026	0.155
-555.442	-36.191	0.117	0.063
-554.427	-8.490	-0.163	-0.110
-553.412	-57.578	-0.162	0.071
-552.398	-142.547	0.234	-0.023
-551.383	-52.327	-0.222	-0.103
-550.369	-86.402	-0.041	0.013
-549.354	-48.794	0.190	-0.091
-548.339	-9.832	-0.149	-0.099
-547.325	-0.861	-0.147	0.104
-546.310	-12.775	0.167	0.109
-545.296	800.000	0.022	-0.062
-544.281	79.342	-0.069	0.074
-543.266	-60.352	-0.206	0.087
-542.252	240.640	-0.053	0.089
-541.237	31.042	0.292	0.250
-540.223	132.013	0.029	0.037
-539.208	-15.184	0.165	0.106
-538.193	-66.815	0.297	0.117
-537.179	322.160	0.168	0.320
-536.164	-79.262	-0.132	0.045
-535.150	531.273	0.130	0.306
-534.135	-200.000	-0.378	-0.001
-533.121	-145.621	0.195	0.017
-532.106	800.000	-0.088	-0.300
-531.091	800.000	-0.087	-0.291
-530.077	-102.981	-0.107	-0.025
-529.062	-50.793	-0.233	0.109
-528.048	-30.256	-0.159	-0.090
-527.033	89.929	0.257	-0.286
-526.018	-105.386	-0.305	0.069
-525.004	-14.180	-0.135	0.087
-523.989	12.304	-0.130	-0.100
-522.975	-54.425	-0.061	0.028
-521.960	128.997	0.027	0.034
-520.945	-140.139	0.233	-0.024
-519.931	692.420	-0.134	0.350
-518.916	-51.454	-0.134	0.063
-517.902	36.725	0.177	-0.156
-516.887	183.982	-0.093	0.137
-515.872	-40.519	0.238	-0.123
-514.858	172.946	-0.157	0.225
-513.843	201.167	0.079	-0.121
-512.829	200.963	-0.126	-0.194
-511.814	-129.414	0.263	0.036
-510.799	800.000	-0.063	0.203
-509.785	-200.000	-0.004	0.098
-508.770	-43.231	-0.042	-0.021
-507.756	-167.986	-0.245	-0.010
-506.741	561.285	0.118	-0.284
-505.726	-22.950	0.213	0.128
-504.712	505.761	-0.039	0.089
-503.697	-81.864	0.017	0.005
-502.683	21.051	-0.321	-0.260
-501.668	-106.354	-0.308	-0.069
-500.653	800.000	0.034	-0.126
-499.639	-82.782	-0.264	-0.085
-498.624	93.176	-0.062	-0.070
-497.610	110.111	-0.199	-0.237
-496.595	104.585	-0.138	-0.162
-495.581	-200.000	-0.014	0.213
-494.566	-200.000	0.056	-0.320
-493.551	33.327	0.152	-0.132
-492.537	-69.210	0.218	-0.084
-491.522	569.991	-0.043	-0.105
-490.508	72.583	-0.134	-0.139
-489.493	88.359	0.178	-0.196
-488.478	-128.232	0.218	-0.031
-487.464	800.000	-0.031	-0.121
-486.449	800.000	-0.073	-0.218
-485.435	8.771	0.252	-0.189
-484.420	-94.579	-0.196	-0.053
-483.405	-37.920	0.300	-0.159
-482.391	419.667	0.042	-0.089
-481.376	119.461	0.350	-0.431
-480.362	-129.717	-0.258	0.035
-479.347	590.754	0.055	-0.136
-478.332	-200.000	0.011	0.082
-477.318	-53.900	0.259	-0.118
-476.303	-130.551	-0.233	-0.031
-475.289	-33.020	-0.211	-0.116
-474.274	800.000	0.052	0.158
-473.259	25.074	-0.044	0.037
-472.245	-104.052	-0.360	0.083
-471.230	-154.896	-0.471	0.031
-470.216	-200.000	-0.021	-0.147
-469.201	350.391	0.139	-0.274
-468.186	-35.716	0.274	-0.148
-467.172	-126.274	0.178	0.026
-466.157	218.327	-0.141	0.224
-465.143	667.488	-0.153	0.394
-464.128	-200.000	-0.002	0.034
-463.113	-56.252	-0.201	-0.089
-462.099	800.000	0.090	-0.284
-461.084	31.738	0.177	-0.152
-460.070	-200.000	-0.059	0.263
-459.055	41.929	0.114	-0.103
-458.040	-53.611	0.516	0.235
-457.026	-200.000	-0.005	0.072
-456.011	209.731	0.259	-0.405
-454.997	771.374	-0.031	-0.083
-453.982	-200.000	-0.032	0.327
-452.968	-200.000	-0.005	0.039
-451.953	-47.436	-0.084	0.041
-450.938	505.368	-0.069	-0.159
-449.924	419.925	0.103	-0.220
-448.909	800.000	0.048	-0.169
-447.895	26.103	-0.057	0.047
-446.880	-200.000	0.002	0.040
-445.865	213.446	0.116	-0.182
-444.851	5.000	0.147	0.108
-443.836	3.306	0.161	-0.117
-442.822	189.797	0.097	-0.145
-441.807	800.000	-0.035	0.148
-440.792	-26.342	0.183	0.107
-439.778	177.115	0.089	-0.129
-438.763	-24.334	0.095	-0.057
-437.749	111.920	0.056	-0.067
-436.734	-183.986	0.077	0.001
-435.719	-41.433	0.250	0.128
-434.705	-132.996	0.211	0.027
-433.690	-8.072	-0.094	0.063
-432.676	737.072	0.161	0.429
-431.661	800.000	0.116	-0.341
-430.646	-15.079	-0.085	0.054
-429.632	115.682	-0.232	-0.282
-428.617	-104.271	-0.266	-0.061
-427.603	327.830	0.081	-0.154
-426.588	-200.000	0.055	0.299
-425.573	534.783	0.066	0.155
-424.559	180.496	0.211	-0.307
-423.544	-184.212	-0.042	0.001
-422.530	295.342	-0.112	-0.204
-421.515	-200.000	-0.036	-0.241
-420.500	-144.426	-0.227	-0.021
-419.486	141.194	-0.183	-0.240
-418.471	-44.499	-0.118	-0.059
-417.457	-200.000	0.011	-0.362
-416.442	299.909	0.183	-0.336
-415.428	-200.000	-0.006	-0.032
-414.413	-65.745	0.111	0.044
-413.398	382.972	-0.074	-0.152
-412.384	-200.000	-0.049	-0.344
-411.369	-16.253	-0.096	0.060
-410.355	-12.024	0.238	-0.155
-409.340	800.000	-0.030	0.094
-408.325	-39.082	-0.388	0.203
-407.311	-154.280	0.205	0.014
-406.296	-102.902	-0.098	0.023
-405.282	-200.000	-0.012	-0.097
-404.267	12.990	-0.141	0.108
-403.252	-61.245	0.206	-0.086
-402.238	92.386	0.177	-0.198
-401.223	47.947	-0.194	-0.179
-400.209	-200.000	-0.071	0.353
-399.194	-46.309	-0.119	-0.058
-398.179	456.022	0.032	0.070
-397.165	188.247	0.121	0.179
-396.150	-200.000	-0.006	0.464
-395.136	-45.900	-0.070	0.034
-394.121	209.007	0.035	0.055
-393.106	223.365	-0.147	0.235
-392.092	293.405	0.089	0.160
-391.077	-111.773	0.191	0.038
-390.063	436.862	0.050	0.107
-389.048	797.455	0.089	-0.245
-388.033	-146.055	0.280	0.025
-387.019	-200.000	0.014	0.154
-386.004	589.978	0.185	0.453
-384.990	-170.033	0.204	0.007
-383.975	-200.000	-0.017	-0.304
-382.960	217.673	-0.031	-0.049
-381.946	800.000	0.017	0.065
-380.931	323.533	-0.107	-0.202
-379.917	800.000	-0.050	0.151
-378.902	79.861	0.169	0.180
-377.888	800.000	-0.064	0.179
-376.873	-98.679	0.258	0.065
-375.858	-110.595	-0.244	-0.050
-374.844	12.077	0.088	0.067
-373.829	233.624	0.133	-0.217
-372.815	490.246	0.081	0.183
-371.800	-99.930	-0.067	0.017
-370.785	210.463	-0.063	0.098
-369.771	800.000	-0.035	0.131
-368.756	-45.481	-0.268	0.132
-367.742	-200.000	-0.028	-0.186
-366.727	123.521	-0.055	0.069
-365.712	-147.762	-0.354	-0.029
-364.698	124.602	0.247	-0.308
-363.683	7.402	0.305	-0.226
-362.669	-104.035	0.067	0.015
-361.654	291.678	-0.092	0.166
-360.639	800.000	0.048	0.201
-359.625	-5.359	0.188	-0.128
-358.610	298.002	-0.113	-0.207
-357.596	-200.000	-0.036	0.184
-356.581	-19.936	-0.120	0.073
-355.566	20.617	0.034	0.027
-354.552	-95.129	0.403	0.108
-353.537	-61.251	-0.291	-0.122
-352.523	-103.832	-0.155	-0.036
-351.508	-134.633	0.244	0.029
-350.493	-94.718	0.064	0.017
-349.479	800.000	-0.098	0.302
-348.464	-134.195	0.277	-0.034
-347.450	-75.169	-0.213	0.075
-346.435	-200.000	-0.001	0.420
-345.420	-8.426	0.294	-0.196
-344.406	800.000	-0.067	-0.204
-343.391	489.962	-0.039	-0.089
-342.377	-200.000	0.092	-0.414
-341.362	-104.149	-0.290	-0.067
-340.348	-132.703	-0.038	0.005
-339.333	-132.723	0.150	-0.019
-338.318	-9.617	0.174	0.115
-337.304	343.409	0.049	0.096
-336.289	-108.438	0.052	-0.011
-335.275	800.000	-0.031	0.129
-334.260	-200.000	-0.001	0.008
-333.245	-81.914	-0.155	-0.050
-332.231	64.228	0.319	0.317
-331.216	186.741	0.117	-0.172
-330.202	789.731	-0.052	0.141
-329.187	800.000	-0.079	0.322
-328.172	800.000	0.045	-0.133
-327.158	-76.018	0.148	0.052
-326.143	84.469	0.099	-0.107
-325.129	-148.880	0.051	-0.004
-324.114	-84.323	-0.116	-0.036
-323.099	-66.734	-0.111	-0.044
-322.085	271.891	0.170	0.297
-321.070	-104.526	0.204	-0.047
-320.056	-110.529	0.343	-0.070
-319.041	656.707	-0.102	0.259
-318.026	800.000	-0.034	0.118
-317.012	-200.000	0.000	0.076
-315.997	800.000	0.043	-0.165
-314.983	-70.561	0.101	-0.038
-313.968	448.077	-0.105	-0.229
-312.953	51.126	-0.178	0.167
-311.939	195.887	0.113	0.170
-310.924	454.454	-0.014	0.031
-309.910	-200.000	0.022	-0.191
-308.895	800.000	0.040	0.127
-307.880	-51.812	-0.256	0.118
-306.866	109.094	0.064	0.076
-305.851	-137.004	-0.252	0.029
-304.837	-114.997	-0.234	0.044
-303.822	800.000	0.077	0.214
-302.807	-71.321	0.313	0.116
-301.793	387.654	-0.042	0.087
-300.778	-133.716	-0.133	-0.016
-299.764	-200.000	-0.062	0.341
-298.749	419.617	-0.129	0.272
-297.735	6.857	0.295	-0.217
-296.720	-200.000	-0.015	-0.135
-295.705	-30.015	-0.050	-0.028
-294.691	-200.000	0.033	-0.156
-293.676	142.815	-0.278	-0.366
-292.662	-68.048	-0.092	-0.036
-291.647	-200.000	-0.002	-0.144
-290.632	-24.381	0.018	0.011
-289.618	42.248	0.173	-0.155
-288.603	509.175	0.105	0.240
-287.589	-33.510	-0.159	0.087
-286.574	92.975	0.021	-0.023
-285.559	-120.697	-0.445	0.074
-284.545	127.362	0.401	0.503
-283.530	800.000	0.062	0.202
-282.516	164.578	-0.046	0.064
-281.501	-26.021	-0.282	-0.164
-280.486	-23.283	0.229	-0.136
-279.472	93.573	-0.095	-0.107
-278.457	-99.994	0.135	0.033
-277.443	-137.860	-0.185	0.020
-276.428	800.000	-0.095	-0.296
-275.413	800.000	-0.022	0.063
-274.399	226.734	-0.067	-0.108
-273.384	393.055	0.068	-0.140
-272.370	-200.000	0.007	-0.031
-271.355	23.528	0.048	-0.039
-270.340	-87.002	-0.369	0.111
-269.326	-200.000	0.063	0.401
-268.311	120.459	0.248	0.304
-267.297	-200.000	0.005	0.135
-266.282	150.459	0.124	-0.166
-265.267	-43.149	0.117	0.059
-264.253	67.218	0.246	0.248
-263.238	-200.000	-0.009	0.048
-262.224	138.419	-0.173	0.224
-261.209	800.000	-0.089	-0.354
-260.195	-103.420	-0.239	-0.056
-259.180	-200.000	-0.013	-0.183
-258.165	-200.000	-0.042	-0.324
-257.151	-107.831	-0.199	-0.043
-256.136	50.594	0.177	0.165
-255.122	120.147	-0.089	-0.109
-254.107	800.000	-0.099	0.282
-253.092	662.572	0.025	0.064
-252.078	-145.676	0.169	0.015
-251.063	185.182	-0.110	0.161
-250.049	-164.718	0.178	-0.008
-249.034	-200.000	-0.032	0.150
-248.019	-84.488	0.273	0.085
-247.005	-11.312	-0.053	-0.034
-245.990	-99.936	0.266	0.065
-244.976	-7.659	0.161	-0.108
-243.961	427.651	-0.173	-0.368
-242.946	274.660	0.097	-0.170
-241.932	-200.000	-0.024	0.450
-240.917	147.700	-0.047	0.062
-239.903	201.061	0.091	-0.138
-238.888	112.023	-0.206	-0.245
-237.873	-101.916	0.627	-0.149
-236.859	-149.199	0.249	-0.020
-235.844	118.543	0.149	0.181
-234.830	-82.743	-0.097	-0.031
-233.815	3.981	-0.330	0.238
-232.800	-97.260	-0.229	0.059
-231.786	-88.768	-0.141	0.041
-230.771	55.796	-0.137	-0.131
-229.757	-168.390	0.182	-0.007
-228.742	-114.475	0.348	0.066
-227.727	-187.945	-0.179	-0.002
-226.713	800.000	-0.040	0.151
-225.698	-140.821	0.069	-0.007
-224.684	800.000	-0.085	0.258
-223.669	14.241	-0.413	-0.317
-222.655	255.146	-0.107	-0.181
-221.640	-32.194	0.272	-0.150
-220.625	-200.000	0.012	0.109
-219.611	-57.928	-0.099	-0.043
-218.596	-72.578	-0.250	-0.091
-217.582	100.135	0.174	0.199
-216.567	-17.086	-0.174	-0.108
-215.552	-128.983	-0.078	-0.011
-214.538	-48.582	-0.231	0.110
-213.523	-129.623	-0.185	-0.025
-212.509	114.770	0.232	0.278
-211.494	-148.584	-0.244	-0.020
-210.479	-200.000	-0.047	-0.286
-209.465	-200.000	0.032	0.183
-208.450	-13.785	0.064	-0.041
-207.436	800.000	-0.079	-0.288
-206.421	-138.804	-0.354	0.038
-205.406	204.693	0.187	0.285
-204.392	-107.041	-0.188	-0.041
-203.377	-28.001	0.159	-0.091
-202.363	-200.000	-0.010	-0.101
-201.348	233.191	0.047	0.076
-200.333	-73.010	-0.357	0.129
-199.319	-200.000	0.013	0.202
-198.304	-53.118	-0.074	-0.033
-197.290	-143.707	0.136	0.013
-196.275	-96.176	-0.371	0.097
-195.260	-22.646	-0.181	-0.108
-194.246	-25.747	0.106	-0.062
-193.231	-41.933	0.271	-0.137
-192.217	-119.365	0.240	0.041
-191.202	-155.620	-0.194	0.012
-190.187	800.000	0.015	-0.048
-189.173	35.602	-0.245	-0.212
-188.158	204.931	0.108	0.164
-187.144	-18.742	0.198	0.122
-186.129	-147.868	0.227	0.019
-185.114	-200.000	-0.038	0.501
-184.100	393.057	-0.186	0.380
-183.085	511.096	0.180	-0.412
-182.071	-111.596	0.391	-0.078
-181.056	96.676	0.280	-0.316
-180.042	-47.250	0.261	-0.125
-179.027	373.914	-0.157	-0.314
-178.012	8.266	0.108	-0.080
-176.998	-127.669	0.188	-0.027
-175.983	-102.888	-0.333	0.078
-174.969	-41.020	0.079	0.040
-173.954	800.000	-0.078	0.244
-172.939	32.342	-0.201	0.171
-171.925	575.795	0.043	0.104
-170.910	-24.133	-0.055	0.033
-169.896	70.195	0.077	-0.078
-168.881	-161.819	0.268	-0.013
-167.866	676.037	0.110	0.282
-166.852	-28.731	-0.306	0.173
-165.837	353.570	-0.152	-0.296
-164.823	-200.000	-0.012	0.185
-163.808	-200.000	-0.063	0.278
-162.793	800.000	-0.004	-0.012
-161.779	-55.701	0.128	-0.056
-160.764	-105.276	0.251	0.056
-159.750	154.332	0.148	-0.199
-158.735	-61.149	0.200	-0.083
-157.720	149.494	-0.120	-0.160
-156.706	-200.000	-0.001	-0.027
-155.691	-164.035	0.399	0.018
-154.677	226.880	-0.096	-0.153
-153.662	-200.000	-0.018	-0.127
-152.647	72.907	0.174	0.178
-151.633	-111.397	-0.188	0.038
-150.618	-84.626	-0.256	0.079
-149.604	-151.211	0.439	0.032
-148.589	0.861	-0.179	0.126
-147.574	-85.441	0.159	-0.049
-146.560	79.304	0.070	0.074
-145.545	-57.367	-0.178	0.077
-144.531	-5.119	0.413	0.279
-143.516	-126.660	-0.033	-0.005
-142.502	691.547	-0.127	-0.326
-141.487	302.953	-0.102	-0.185
-140.472	68.079	-0.147	-0.148
-139.458	-126.672	0.057	-0.008
-138.443	71.166	-0.125	0.128
-137.429	303.925	-0.137	0.249
-136.414	-57.520	0.255	-0.110
-135.399	-80.870	0.147	0.048
-134.385	-200.000	-0.033	0.287
-133.370	-117.061	0.093	0.017
-132.356	800.000	0.019	0.053
-131.341	27.624	-0.292	-0.241
-130.326	-33.943	-0.221	-0.119
-129.312	-68.965	-0.185	0.070
-128.297	800.000	-0.021	-0.060
-127.283	133.622	0.027	-0.034
-126.268	-200.000	-0.017	0.161
-125.253	168.595	-0.301	0.422
-124.239	-63.590	-0.171	0.069
-123.224	-138.209	0.242	0.026
