DTS Sentinel unit serial number:	SN413079Multiplexer serial number:	ORYXHardware model number:	OX4-SRSoftware version number:	ORYX F/W v4.00 Oryx Data Collector v3.7.2.0data status	okinstallation	princeton_trtdifferential loss correction	single-endedforward channel	channel 3reverse channel	N/Adate	2019/09/13time	21:16:34forward acquisition time	60.00reverse acquisition time	0.00gamma	496.2192k internal	0.2333k external	0.2333temperature offset calibration	1.0050default loss term (dB/km)	0.3790temperature slope calibration	1.0000multiplexer offset coefficient	1.0000multiplexer slope coefficient	1.0000fibre end	0.00T internal ref (°C)	28.44T ext. ref 1 (°C)	2.99T ext. ref 2 (°C)	23.06length (m)	temperature (°C)	Stokes	anti-Stokes-747.200	18.815	0.208	-0.167
-746.185	-105.625	-0.149	-0.034
-745.171	155.772	-0.051	0.070
-744.156	31.812	0.196	0.170
-743.142	-112.043	0.203	-0.041
-742.127	79.405	-0.169	-0.182
-741.112	57.109	0.072	-0.071
-740.098	10.981	-0.277	0.213
-739.083	-119.297	-0.044	-0.008
-738.069	-105.999	0.197	0.045
-737.054	-131.034	-0.205	0.027
-736.039	-20.322	-0.194	0.120
-735.025	158.873	0.150	0.210
-734.010	-110.192	0.039	-0.008
-732.996	-200.000	0.003	-0.068
-731.981	22.649	-0.297	-0.244
-730.966	337.984	0.099	0.194
-729.952	-200.000	-0.019	-0.091
-728.937	800.000	0.071	0.234
-727.923	-12.492	-0.097	0.063
-726.908	-200.000	0.035	0.218
-725.894	58.916	-0.072	-0.071
-724.879	-200.000	0.016	-0.274
-723.864	-200.000	-0.092	-0.434
-722.850	34.929	-0.099	0.087
-721.835	-31.920	0.420	0.237
-720.821	139.745	-0.059	-0.078
-719.806	630.710	-0.093	0.237
-718.791	74.702	-0.105	0.111
-717.777	14.030	-0.292	0.228
-716.762	-128.163	-0.348	0.050
-715.748	-63.015	0.173	-0.072
-714.733	-200.000	0.030	-0.169
-713.718	174.527	-0.066	0.096
-712.704	800.000	0.123	-0.410
-711.689	-154.648	0.142	-0.009
-710.675	-8.970	-0.234	-0.158
-709.660	-15.069	0.260	-0.167
-708.645	-17.645	-0.169	-0.107
-707.631	-89.202	0.442	-0.131
-706.616	-59.013	-0.228	-0.099
-705.602	800.000	-0.035	-0.101
-704.587	26.256	-0.221	-0.185
-703.572	800.000	0.035	-0.100
-702.558	326.540	-0.211	-0.405
-701.543	-123.082	0.171	0.028
-700.529	-68.219	0.023	0.009
-699.514	800.000	0.045	-0.134
-698.499	-200.000	-0.009	-0.180
-697.485	121.409	-0.160	0.200
-696.470	800.000	-0.028	-0.113
-695.456	568.275	-0.054	-0.132
-694.441	-23.617	-0.141	-0.085
-693.426	129.182	-0.204	0.262
-692.412	142.830	0.057	0.076
-691.397	571.855	0.044	0.107
-690.383	59.227	-0.277	-0.273
-689.368	195.801	0.185	-0.282
-688.354	800.000	-0.131	-0.392
-687.339	-38.225	0.225	-0.120
-686.324	-34.694	0.341	-0.187
-685.310	201.491	-0.120	-0.186
-684.295	-89.442	0.427	-0.126
-683.281	-62.336	-0.164	-0.068
-682.266	-150.891	0.094	0.007
-681.251	136.511	-0.104	0.136
-680.237	192.483	-0.124	-0.187
-679.222	0.989	-0.354	0.255
-678.208	-31.872	-0.018	-0.010
-677.193	-86.732	-0.220	-0.067
-676.178	536.518	-0.171	-0.407
-675.164	-200.000	0.015	-0.092
-674.149	74.894	-0.025	0.026
-673.135	800.000	0.016	0.049
-672.120	-109.020	0.232	-0.049
-671.105	-5.995	-0.128	-0.088
-670.091	800.000	0.036	0.124
-669.076	-64.298	-0.292	-0.119
-668.062	-200.000	0.010	-0.126
-667.047	-139.949	-0.261	0.028
-666.032	-200.000	0.007	-0.100
-665.018	-200.000	0.004	-0.052
-664.003	-104.960	0.109	-0.025
-662.989	32.947	0.127	0.111
-661.974	37.932	-0.372	-0.332
-660.959	-200.000	0.066	-0.537
-659.945	43.824	0.261	-0.239
-658.930	-113.465	0.256	-0.050
-657.916	-169.177	0.345	0.013
-656.901	-184.035	0.071	0.001
-655.886	800.000	-0.066	0.226
-654.872	75.618	-0.095	0.100
-653.857	-200.000	0.007	0.354
-652.843	125.010	0.070	-0.088
-651.828	-200.000	0.010	0.141
-650.814	429.035	-0.102	-0.222
-649.799	-153.343	0.373	-0.026
-648.784	103.199	-0.177	0.208
-647.770	-9.836	-0.107	0.071
-646.755	-101.172	-0.241	-0.059
-645.741	-200.000	-0.022	0.127
-644.726	-51.809	0.252	0.117
-643.711	-131.578	0.059	0.008
-642.697	70.903	0.161	-0.167
-641.682	-200.000	0.034	-0.295
-640.668	28.135	0.067	-0.057
-639.653	-88.196	-0.252	0.076
-638.638	-31.639	0.285	-0.160
-637.624	185.800	0.004	0.006
-636.609	-95.960	-0.145	0.039
-635.595	44.454	-0.073	0.067
-634.580	-200.000	-0.029	0.242
-633.565	-200.000	0.076	-0.373
-632.551	119.519	0.085	-0.105
-631.536	11.814	-0.158	-0.122
-630.522	95.430	-0.156	-0.179
-629.507	65.980	0.185	0.188
-628.492	717.406	-0.104	-0.277
-627.478	-35.895	0.276	-0.149
-626.463	445.696	-0.072	-0.159
-625.449	-200.000	-0.011	-0.205
-624.434	-200.000	-0.012	0.158
-623.419	-66.802	0.037	-0.015
-622.405	800.000	0.055	-0.193
-621.390	-200.000	0.013	0.286
-620.376	750.289	-0.038	-0.102
-619.361	-200.000	0.069	0.549
-618.346	74.800	0.233	-0.245
-617.332	426.229	0.090	-0.195
-616.317	108.026	0.245	0.292
-615.303	-200.000	0.005	0.132
-614.288	-87.210	-0.085	0.026
-613.273	10.607	-0.253	-0.193
-612.259	318.561	-0.104	0.197
-611.244	-96.971	0.354	-0.093
-610.230	800.000	0.042	-0.141
-609.215	-108.919	-0.103	-0.022
-608.201	14.396	-0.281	-0.220
-607.186	800.000	-0.076	0.255
-606.171	-200.000	-0.029	-0.281
-605.157	-200.000	0.022	0.232
-604.142	38.923	0.062	0.055
-603.128	-170.031	-0.386	-0.014
-602.113	566.963	0.072	-0.174
-601.098	-41.352	-0.136	0.070
-600.084	-200.000	0.000	0.356
-599.069	800.000	-0.013	0.054
-598.055	235.534	0.023	0.038
-597.040	800.000	0.061	-0.183
-596.025	-200.000	0.005	-0.063
-595.011	16.563	-0.143	0.113
-593.996	-200.000	-0.016	-0.071
-592.982	-133.123	-0.287	0.036
-591.967	800.000	0.004	-0.011
-590.952	369.884	-0.096	-0.194
-589.938	-200.000	0.059	0.299
-588.923	22.042	-0.127	0.104
-587.909	-200.000	0.007	-0.057
-586.894	-200.000	-0.022	0.122
-585.879	-11.728	-0.026	0.017
-584.865	-83.002	0.357	0.115
-583.850	-115.118	0.306	0.058
-582.836	-189.077	-0.079	0.001
-581.821	69.261	0.116	-0.119
-580.806	-200.000	0.031	-0.155
-579.792	-110.828	-0.171	-0.035
-578.777	-43.797	0.135	0.068
-577.763	-147.139	-0.259	0.022
-576.748	112.524	0.180	0.218
-575.733	-151.308	-0.117	0.009
-574.719	-200.000	0.000	0.016
-573.704	-65.344	0.348	-0.140
-572.690	247.499	-0.098	-0.166
-571.675	110.225	-0.186	-0.223
-570.661	-9.689	-0.114	0.076
-569.646	719.798	0.084	0.222
-568.631	246.081	-0.124	0.209
-567.617	-134.613	-0.197	0.024
-566.602	191.461	-0.115	0.173
-565.588	-200.000	-0.025	-0.118
-564.573	-200.000	-0.046	0.273
-563.558	-200.000	-0.046	-0.281
-562.544	-200.000	0.048	-0.358
-561.529	-39.486	-0.505	-0.264
-560.515	800.000	-0.109	-0.431
-559.500	41.078	0.179	-0.161
-558.485	800.000	-0.059	-0.252
-557.471	-192.628	0.434	-0.004
-556.456	-151.874	-0.179	0.013
-555.442	-0.377	-0.109	0.077
-554.427	-200.000	-0.010	-0.161
-553.412	-146.041	0.335	-0.030
-552.398	-117.761	-0.255	-0.046
-551.383	-200.000	0.054	-0.271
-550.369	631.392	-0.118	0.298
-549.354	-200.000	0.061	-0.285
-548.339	-11.997	-0.255	0.167
-547.325	-178.071	-0.282	0.007
-546.310	266.024	-0.159	0.277
-545.296	328.836	0.166	0.318
-544.281	-200.000	-0.064	0.426
-543.266	144.356	0.285	-0.379
-542.252	-200.000	-0.109	-0.517
-541.237	-91.349	0.287	0.082
-540.223	182.945	-0.031	-0.046
-539.208	167.688	0.086	0.122
-538.193	-48.953	-0.209	0.100
-537.179	335.083	0.136	0.263
-536.164	217.406	-0.121	0.193
-535.150	-70.703	-0.333	0.125
-534.135	18.965	-0.070	-0.056
-533.121	316.408	-0.044	-0.083
-532.106	800.000	-0.052	-0.208
-531.091	-61.106	-0.265	-0.112
-530.077	188.136	-0.060	0.090
-529.062	402.265	-0.140	-0.293
-528.048	-144.123	0.274	-0.026
-527.033	-200.000	-0.030	-0.436
-526.018	179.698	-0.059	-0.086
-525.004	-122.151	-0.042	0.007
-523.989	-75.564	-0.038	0.013
-522.975	800.000	0.097	0.400
-521.960	800.000	0.040	0.121
-520.945	-200.000	-0.062	0.387
-519.931	335.760	-0.094	-0.182
-518.916	53.310	0.216	-0.207
-517.902	-200.000	0.012	-0.102
-516.887	173.688	-0.201	0.289
-515.872	348.344	0.084	-0.165
-514.858	120.379	-0.207	0.257
-513.843	66.091	-0.127	-0.129
-512.829	-72.502	-0.449	-0.165
-511.814	-90.618	-0.195	-0.056
-510.799	622.711	-0.072	-0.181
-509.785	-21.343	-0.067	0.041
-508.770	-141.308	0.121	-0.012
-507.756	-200.000	0.023	0.255
-506.741	-16.999	0.120	-0.076
-505.726	-200.000	-0.005	-0.036
-504.712	40.844	0.091	-0.082
-503.697	62.703	0.067	0.067
-502.683	-200.000	-0.044	0.260
-501.668	168.237	-0.098	-0.139
-500.653	192.165	-0.083	0.124
-499.639	3.476	-0.128	0.093
-498.624	-21.908	-0.229	0.139
-497.610	-64.059	-0.313	0.127
-496.595	-93.121	-0.265	0.073
-495.581	-200.000	0.024	-0.359
-494.566	-175.280	-0.163	0.004
-493.551	-135.991	-0.115	-0.013
-492.537	-44.242	-0.282	0.141
-491.522	-200.000	-0.030	-0.225
-490.508	301.492	-0.108	0.198
-489.493	-101.610	-0.087	-0.021
-488.478	-200.000	-0.001	0.093
-487.464	90.579	0.283	-0.316
-486.449	-95.110	-0.153	-0.041
-485.435	800.000	-0.062	0.192
-484.420	661.710	0.134	0.344
-483.405	285.820	-0.054	-0.098
-482.391	-200.000	-0.004	0.263
-481.376	-8.693	-0.173	0.116
-480.362	-142.035	-0.114	-0.011
-479.347	-0.198	0.068	-0.048
-478.332	-73.866	-0.447	-0.162
-477.318	7.394	0.040	-0.029
-476.303	428.485	0.073	-0.157
-475.289	-200.000	0.002	-0.021
-474.274	212.244	-0.122	0.191
-473.259	262.069	0.088	-0.152
-472.245	63.603	-0.105	-0.105
-471.230	-2.158	-0.222	-0.155
-470.216	152.381	0.060	0.081
-469.201	800.000	0.049	0.208
-468.186	-58.681	0.170	-0.073
-467.172	-200.000	-0.009	-0.095
-466.157	187.579	0.109	0.161
-465.143	451.577	-0.100	-0.219
-464.128	-200.000	-0.009	0.168
-463.113	128.736	-0.258	-0.327
-462.099	-200.000	0.084	-0.466
-461.084	356.400	-0.231	-0.458
-460.070	102.295	-0.105	0.121
-459.055	81.550	0.125	-0.134
-458.040	-74.976	-0.384	-0.137
-457.026	4.763	-0.179	0.131
-456.011	-22.796	-0.144	-0.087
-454.997	-64.101	0.154	-0.063
-453.982	97.104	0.167	0.190
-452.968	82.202	0.154	0.166
-451.953	-163.544	-0.233	-0.011
-450.938	-121.327	0.243	-0.040
-449.924	-66.619	0.104	-0.041
-448.909	10.001	0.031	-0.024
-447.895	-83.065	-0.029	0.009
-446.880	-64.959	0.239	0.096
-445.865	-9.567	-0.200	0.132
-444.851	-125.226	0.375	0.057
-443.836	-155.495	0.074	0.005
-442.822	130.838	-0.122	-0.155
-441.807	-200.000	0.004	-0.087
-440.792	434.765	-0.109	0.235
-439.778	-46.172	0.008	0.004
-438.763	488.249	-0.042	-0.095
-437.749	-47.564	-0.156	0.075
-436.734	-178.057	0.318	-0.008
-435.719	-163.896	0.125	-0.006
-434.705	667.350	-0.068	0.176
-433.690	195.535	0.069	0.105
-432.676	19.646	0.318	0.255
-431.661	-162.716	0.375	-0.018
-430.646	-73.035	0.145	-0.053
-429.632	800.000	-0.041	-0.124
-428.617	-200.000	-0.028	0.142
-427.603	-154.023	0.103	0.007
-426.588	125.086	0.124	0.155
-425.573	-200.000	-0.086	-0.377
-424.559	800.000	-0.061	-0.168
-423.544	-134.064	0.370	0.045
-422.530	-200.000	0.006	-0.085
-421.515	-92.880	-0.148	-0.041
-420.500	-15.276	0.308	-0.196
-419.486	-68.195	0.077	0.030
-418.471	-200.000	-0.034	-0.190
-417.457	800.000	-0.115	0.435
-416.442	368.140	0.145	-0.291
-415.428	174.273	0.160	0.230
-414.413	-200.000	-0.104	-0.640
-413.398	596.358	-0.149	-0.366
-412.384	-81.708	0.129	0.042
-411.369	-156.934	0.159	0.010
-410.355	800.000	0.064	0.183
-409.340	24.397	-0.145	-0.119
-408.325	196.412	0.128	-0.194
-407.311	-44.785	0.032	0.016
-406.296	-32.310	0.196	0.108
-405.282	123.287	-0.140	0.174
-404.267	800.000	-0.070	-0.198
-403.252	108.485	0.250	0.296
-402.238	-200.000	-0.002	-0.099
-401.223	-69.927	-0.379	0.143
-400.209	78.074	0.295	0.313
-399.194	5.043	-0.231	-0.169
-398.179	-86.273	0.022	-0.007
-397.165	-83.223	-0.231	-0.074
-396.150	-168.449	0.045	-0.002
-395.136	160.529	0.045	-0.062
-394.121	296.870	-0.153	-0.279
-393.106	-200.000	-0.008	0.129
-392.092	47.290	0.058	0.053
-391.077	-28.819	0.224	0.128
-390.063	-200.000	0.033	-0.145
-389.048	-200.000	-0.014	0.241
-388.033	-200.000	0.010	0.119
-387.019	-142.786	-0.109	-0.011
-386.004	-200.000	0.037	0.355
-384.990	-55.547	-0.496	-0.220
-383.975	-131.642	-0.077	0.010
-382.960	20.565	0.090	0.072
-381.946	-200.000	0.033	-0.231
-380.931	-74.021	0.302	0.109
-379.917	-200.000	0.398	-0.001
-378.902	-131.486	0.246	0.032
-377.888	-200.000	-0.011	0.210
-376.873	-200.000	-0.002	0.231
-375.858	-124.848	-0.260	-0.040
-374.844	-97.547	0.270	-0.069
-373.829	800.000	0.031	0.085
-372.815	32.311	-0.147	-0.125
-371.800	-62.632	0.262	-0.108
-370.785	-30.265	0.076	0.043
-369.771	-200.000	0.037	-0.201
-368.756	168.006	-0.250	0.353
-367.742	-14.456	-0.027	-0.017
-366.727	-200.000	-0.037	0.356
-365.712	161.340	-0.103	-0.143
-364.698	-10.250	-0.333	-0.219
-363.683	309.603	0.089	0.166
-362.669	415.144	-0.086	0.182
-361.654	-6.972	-0.176	-0.118
-360.639	800.000	0.079	0.277
-359.625	-200.000	-0.029	-0.143
-358.610	-71.720	-0.219	-0.081
-357.596	-107.723	0.268	-0.058
-356.581	89.467	0.056	-0.062
-355.566	583.515	0.059	-0.143
-354.552	-200.000	0.032	-0.147
-353.537	-29.610	0.164	0.093
-352.523	177.728	0.130	0.187
-351.508	138.735	-0.207	0.269
-350.493	-76.946	0.105	-0.036
-349.479	800.000	0.052	0.163
-348.464	800.000	0.110	-0.305
-347.450	-99.671	0.443	0.110
-346.435	-154.448	0.022	0.001
-345.420	800.000	0.039	-0.160
-344.406	-119.792	-0.203	0.035
-343.391	-43.403	-0.192	0.096
-342.377	800.000	0.014	0.058
-341.362	-17.108	0.334	0.209
-340.348	55.524	-0.174	0.166
-339.333	800.000	0.030	0.105
-338.318	-120.884	-0.163	-0.027
-337.304	70.097	-0.181	0.185
-336.289	15.118	0.200	0.155
-335.275	72.774	-0.097	-0.101
-334.260	-200.000	-0.014	-0.131
-333.245	-87.100	-0.116	0.035
-332.231	800.000	-0.063	0.196
-331.216	-39.020	0.138	0.072
-330.202	35.690	-0.114	0.100
-329.187	654.833	-0.099	0.252
-328.172	-97.232	-0.092	0.024
-327.158	800.000	0.107	-0.304
-326.143	284.477	0.079	-0.140
-325.129	-17.790	-0.107	0.066
-324.114	-200.000	0.033	-0.147
-323.099	104.819	0.120	0.140
-322.085	39.701	-0.204	0.181
-321.070	94.893	0.153	0.172
-320.056	-74.745	-0.211	-0.075
-319.041	800.000	0.075	-0.230
-318.026	419.264	0.182	0.385
-317.012	-44.072	-0.281	-0.139
-315.997	-52.354	0.030	-0.014
-314.983	800.000	-0.057	0.193
-313.968	-111.463	0.237	-0.048
-312.953	11.979	-0.181	0.138
-311.939	-144.726	0.219	0.020
-310.924	22.387	-0.066	0.053
-309.910	-144.001	0.129	0.012
-308.895	54.898	-0.103	0.098
-307.880	43.471	0.102	0.092
-306.866	48.112	0.234	-0.216
-305.851	61.521	0.118	-0.116
-304.837	-200.000	0.059	0.264
-303.822	75.268	0.051	-0.054
-302.807	360.767	0.131	0.259
-301.793	332.353	-0.051	0.097
-300.778	117.630	-0.035	0.043
-299.764	27.611	0.082	-0.068
-298.749	32.775	-0.173	-0.148
-297.735	635.618	0.072	-0.180
-296.720	-113.049	0.165	-0.032
-295.705	-176.977	-0.125	0.003
-294.691	398.164	0.104	0.215
-293.676	-200.000	0.016	0.212
-292.662	15.916	0.241	0.188
-291.647	-143.483	0.206	-0.019
-290.632	800.000	0.041	-0.129
-289.618	-200.000	-0.017	-0.093
-288.603	143.470	0.115	-0.151
-287.589	-200.000	0.013	-0.225
-286.574	592.561	-0.104	-0.253
-285.559	-149.092	0.191	-0.015
-284.545	-200.000	-0.007	-0.047
-283.530	419.035	-0.094	-0.198
-282.516	-145.766	0.158	-0.014
-281.501	-200.000	-0.015	0.212
-280.486	800.000	-0.044	-0.187
-279.472	-33.888	0.189	-0.103
-278.457	-118.042	0.323	-0.057
-277.443	131.451	0.114	-0.145
-276.428	-56.424	-0.054	0.024
-275.413	279.164	-0.034	0.060
-274.399	-200.000	0.004	-0.217
-273.384	690.493	0.078	0.201
-272.370	-200.000	0.019	0.133
-271.355	-43.803	-0.043	0.021
-270.340	800.000	-0.168	0.492
-269.326	66.932	0.132	-0.132
-268.311	166.065	0.007	-0.009
-267.297	74.883	0.150	-0.156
-266.282	13.607	0.318	0.244
-265.267	-103.084	0.267	0.062
-264.253	-89.803	0.183	-0.053
-263.238	-200.000	0.039	-0.212
-262.224	216.233	0.088	0.138
-261.209	-174.386	0.104	-0.003
-260.195	-74.152	0.080	-0.029
-259.180	122.018	-0.119	0.146
-258.165	-200.000	0.015	0.082
-257.151	-167.414	-0.146	0.006
-256.136	214.197	-0.037	0.058
-255.122	94.507	0.207	0.232
-254.107	137.970	-0.167	-0.216
-253.092	92.752	0.074	-0.082
-252.078	-89.584	0.251	0.073
-251.063	-200.000	-0.005	-0.503
-250.049	-55.316	0.063	-0.028
-249.034	112.550	0.258	0.308
-248.019	-170.890	-0.482	-0.016
-247.005	72.375	-0.166	-0.171
-245.990	-144.881	0.190	-0.017
-244.976	22.923	0.076	-0.062
-243.961	-148.648	0.185	0.015
-242.946	57.919	-0.191	-0.184
-241.932	156.628	-0.090	0.122
-240.917	218.243	0.170	-0.268
-239.903	92.982	-0.125	0.140
-238.888	347.403	0.169	0.329
-237.873	-142.140	-0.251	-0.025
-236.859	272.479	-0.164	0.285
-235.844	267.064	0.096	0.165
-234.830	-200.000	0.003	0.015
-233.815	-5.979	-0.166	0.112
-232.800	-68.564	-0.220	-0.084
-231.786	187.328	0.088	0.130
-230.771	109.338	-0.077	0.091
-229.757	58.248	0.038	0.037
-228.742	-55.099	-0.280	-0.124
-227.727	-200.000	-0.005	-0.026
-226.713	-45.552	0.291	0.142
-225.698	-153.122	-0.237	-0.016
-224.684	68.535	-0.117	0.118
-223.669	800.000	0.034	0.140
-222.655	125.482	-0.129	-0.160
-221.640	800.000	-0.073	0.307
-220.625	287.061	0.084	0.149
-219.611	-45.726	-0.227	-0.110
-218.596	-84.285	0.297	-0.093
-217.582	255.280	-0.070	0.117
-216.567	-41.764	-0.244	-0.123
-215.552	-153.403	0.350	-0.024
-214.538	124.336	0.084	0.104
-213.523	-21.024	-0.011	0.007
-212.509	-200.000	0.025	-0.215
-211.494	-48.128	-0.133	-0.063
-210.479	-200.000	-0.021	0.244
-209.465	-41.415	-0.015	-0.007
-208.450	-200.000	0.012	-0.184
-207.436	289.860	0.016	-0.028
-206.421	-145.325	0.187	-0.017
-205.406	73.018	-0.065	-0.067
-204.392	407.453	-0.129	-0.268
-203.377	-159.236	-0.205	0.011
-202.363	-200.000	-0.039	0.328
-201.348	-1.751	-0.401	0.278
-200.333	-200.000	-0.004	0.427
-199.319	550.692	0.103	0.244
-198.304	800.000	-0.067	-0.230
-197.290	208.820	-0.100	-0.154
-196.275	208.857	0.134	0.207
-195.260	-162.781	0.214	0.010
-194.246	91.948	0.196	-0.218
-193.231	800.000	-0.033	-0.095
-192.217	313.140	0.048	0.088
-191.202	32.066	-0.213	0.181
-190.187	661.626	0.077	0.194
-189.173	800.000	0.016	0.070
-188.158	465.912	-0.118	-0.260
-187.144	133.031	0.090	-0.114
-186.129	14.599	0.251	-0.193
-185.114	247.294	0.139	-0.231
-184.100	-200.000	0.038	-0.226
-183.085	8.317	0.129	0.095
-182.071	-200.000	-0.001	-0.094
-181.056	392.656	-0.103	-0.212
-180.042	-200.000	0.001	0.086
-179.027	511.338	0.021	0.048
-178.012	-73.835	0.288	-0.103
-176.998	142.388	-0.115	-0.151
-175.983	-19.928	-0.301	-0.183
-174.969	701.455	0.059	-0.153
-173.954	71.501	0.089	-0.091
-172.939	59.183	0.141	-0.137
-171.925	800.000	-0.007	0.024
-170.910	133.278	0.068	-0.086
-169.896	-2.137	0.198	-0.137
-168.881	800.000	0.063	-0.244
-167.866	101.425	0.051	-0.058
-166.852	720.967	-0.126	0.331
-165.837	-45.826	-0.132	0.064
-164.823	15.044	0.192	0.148
-163.808	-83.753	-0.235	-0.074
-162.793	-138.619	0.266	0.029
-161.779	227.779	0.082	0.132
-160.764	-77.662	-0.217	0.074
-159.750	-35.457	0.161	-0.086
-158.735	296.879	0.056	-0.101
-157.720	800.000	0.024	0.077
-156.706	17.246	-0.286	0.223
-155.691	-200.000	-0.033	0.217
-154.677	159.970	-0.116	0.159
-153.662	-58.336	0.169	0.072
-152.647	-200.000	0.012	-0.350
-151.633	456.161	0.102	-0.222
-150.618	-200.000	-0.011	-0.222
-149.604	-200.000	-0.003	-0.026
-148.589	117.107	0.019	-0.023
-147.574	476.781	0.098	-0.217
-146.560	296.126	0.104	-0.188
-145.545	-128.486	-0.162	0.023
-144.531	-66.598	0.487	-0.190
-143.516	800.000	0.142	-0.515
-142.502	11.721	0.105	-0.079
-141.487	4.291	-0.154	0.111
-140.472	-38.049	0.198	-0.103
-139.458	179.108	0.127	0.182
-138.443	-200.000	-0.033	-0.251
-137.429	-11.682	-0.097	0.062
-136.414	-200.000	-0.028	-0.324
-135.399	48.574	0.112	0.103
-134.385	800.000	-0.045	0.176
-133.370	-8.325	0.108	0.072
-132.356	-110.167	-0.355	0.073
-131.341	-200.000	0.001	-0.004
-130.326	-48.382	0.158	0.074
-129.312	800.000	-0.099	-0.309
-128.297	-200.000	-0.045	-0.222
-127.283	-200.000	0.021	-0.337
-126.268	-68.817	-0.128	0.049
-125.253	800.000	-0.106	-0.361
-124.239	15.554	0.184	-0.142
-123.224	-76.280	0.137	-0.047
-122.210	-6.444	0.162	0.108
