DTS Sentinel unit serial number:	SN413079Multiplexer serial number:	ORYXHardware model number:	OX4-SRSoftware version number:	ORYX F/W v4.00 Oryx Data Collector v3.7.2.0data status	okinstallation	princeton_trtdifferential loss correction	single-endedforward channel	channel 3reverse channel	N/Adate	2019/09/12time	17:30:11forward acquisition time	60.00reverse acquisition time	0.00gamma	496.2192k internal	0.2315k external	0.2315temperature offset calibration	1.0087default loss term (dB/km)	0.3790temperature slope calibration	1.0000multiplexer offset coefficient	1.0000multiplexer slope coefficient	1.0000fibre end	0.00T internal ref (°C)	34.62T ext. ref 1 (°C)	2.86T ext. ref 2 (°C)	28.66length (m)	temperature (°C)	Stokes	anti-Stokes-747.200	800.000	0.029	-0.118
-746.185	800.000	-0.098	0.308
-745.171	-2.263	-0.107	0.076
-744.156	34.576	-0.212	0.188
-743.142	-200.000	0.001	0.191
-742.127	800.000	0.159	0.543
-741.112	62.744	-0.126	-0.128
-740.098	800.000	0.019	0.075
-739.083	89.471	0.146	0.165
-738.069	-192.473	-0.268	-0.003
-737.054	-9.113	0.237	-0.161
-736.039	-110.781	-0.423	-0.088
-735.025	43.793	-0.106	-0.098
-734.010	-73.574	-0.201	-0.074
-732.996	-40.520	-0.202	-0.106
-731.981	-187.158	-0.074	0.001
-730.966	-200.000	-0.068	-0.439
-729.952	-20.162	0.161	0.100
-728.937	-112.567	-0.198	0.040
-727.923	-147.095	-0.091	-0.008
-726.908	800.000	0.019	-0.085
-725.894	85.753	-0.080	-0.089
-724.879	-94.259	-0.272	-0.075
-723.864	174.670	-0.248	-0.363
-722.850	-84.330	-0.385	-0.123
-721.835	-120.818	0.205	-0.035
-720.821	605.529	0.088	-0.222
-719.806	-200.000	-0.043	0.200
-718.791	-200.000	-0.026	-0.331
-717.777	88.271	0.312	-0.351
-716.762	-171.798	-0.443	0.015
-715.748	-200.000	-0.036	-0.335
-714.733	87.533	-0.211	-0.236
-713.718	-93.418	-0.103	-0.029
-712.704	800.000	-0.105	0.445
-711.689	-29.105	0.298	-0.173
-710.675	800.000	-0.014	-0.048
-709.660	61.444	0.189	0.191
-708.645	419.306	-0.219	-0.475
-707.631	627.623	-0.098	-0.250
-706.616	17.873	0.297	-0.239
-705.602	87.024	-0.085	0.095
-704.587	27.952	-0.036	-0.031
-703.572	-200.000	-0.081	0.407
-702.558	-42.939	0.080	-0.041
-701.543	-7.785	0.348	-0.238
-700.529	105.583	-0.169	0.203
-699.514	124.685	0.107	0.136
-698.499	121.418	-0.099	0.125
-697.485	-163.696	-0.103	-0.005
-696.470	-77.835	0.256	0.089
-695.456	-109.818	-0.104	0.022
-694.441	800.000	0.084	-0.278
-693.426	95.614	0.094	0.108
-692.412	192.669	0.018	-0.028
-691.397	383.301	-0.022	-0.045
-690.383	-98.265	0.122	-0.032
-689.368	-156.093	-0.270	-0.017
-688.354	-105.274	-0.108	-0.025
-687.339	800.000	0.073	-0.269
-686.324	-82.221	-0.121	-0.040
-685.310	128.317	0.123	-0.158
-684.295	-17.496	0.256	-0.163
-683.281	-20.279	0.133	0.083
-682.266	176.443	-0.088	-0.129
-681.251	-27.951	0.280	0.164
-680.237	102.012	0.076	-0.090
-679.222	80.549	-0.103	-0.113
-678.208	-200.000	-0.018	-0.190
-677.193	281.254	-0.181	-0.328
-676.178	-200.000	0.009	-0.324
-675.164	46.960	0.093	0.088
-674.149	-96.490	-0.148	0.040
-673.135	-200.000	-0.066	0.362
-672.120	-200.000	0.000	-0.180
-671.105	-200.000	-0.024	0.362
-670.091	45.439	-0.252	-0.235
-669.076	-200.000	0.080	-0.521
-668.062	800.000	0.062	-0.263
-667.047	-200.000	-0.031	0.227
-666.032	-73.129	0.032	0.012
-665.018	-200.000	0.025	0.116
-664.003	765.844	0.082	0.226
-662.989	800.000	0.074	-0.240
-661.974	-33.399	-0.114	0.064
-660.959	18.008	-0.190	0.153
-659.945	-79.371	-0.112	-0.038
-658.930	-94.925	-0.056	-0.015
-657.916	52.507	-0.077	0.074
-656.901	46.536	-0.377	-0.354
-655.886	-165.450	-0.195	0.009
-654.872	-200.000	0.057	0.325
-653.857	350.273	-0.084	-0.168
-652.843	52.757	0.047	0.045
-651.828	47.165	0.018	-0.017
-650.814	115.498	0.111	-0.137
-649.799	-80.542	0.327	-0.110
-648.784	-200.000	0.006	0.121
-647.770	52.513	-0.146	-0.141
-646.755	800.000	0.089	0.351
-645.741	-84.497	0.092	0.029
-644.726	-147.924	-0.325	-0.027
-643.711	152.385	-0.252	0.347
-642.697	-32.878	-0.215	-0.121
-641.682	-191.510	0.409	-0.004
-640.668	-200.000	-0.024	-0.161
-639.653	-200.000	0.003	-0.225
-638.638	-49.334	0.235	0.113
-637.624	-200.000	-0.029	0.278
-636.609	-109.091	0.393	0.084
-635.595	800.000	-0.042	-0.124
-634.580	-96.642	0.165	-0.044
-633.565	-200.000	-0.006	-0.182
-632.551	524.955	0.027	0.065
-631.536	-59.708	-0.291	0.126
-630.522	-139.288	-0.161	-0.018
-629.507	66.891	0.080	0.082
-628.492	-88.024	0.267	0.081
-627.478	-113.383	0.210	-0.042
-626.463	-49.900	0.020	-0.010
-625.449	-200.000	-0.017	0.109
-624.434	-200.000	-0.002	-0.045
-623.419	-96.175	0.194	-0.052
-622.405	74.683	-0.141	-0.149
-621.390	102.620	-0.199	-0.235
-620.376	-200.000	-0.107	0.486
-619.361	332.417	0.162	-0.316
-618.346	-9.263	-0.199	-0.134
-617.332	34.255	-0.179	-0.158
-616.317	45.467	-0.069	0.064
-615.303	241.508	-0.091	-0.154
-614.288	800.000	0.091	0.294
-613.273	-134.218	0.060	-0.007
-612.259	249.254	-0.124	-0.211
-611.244	5.783	0.283	-0.211
-610.230	525.748	-0.038	-0.089
-609.215	-103.474	-0.200	0.047
-608.201	-21.970	-0.133	-0.082
-607.186	800.000	-0.076	-0.250
-606.171	549.167	-0.148	0.357
-605.157	-54.540	-0.564	0.257
-604.142	800.000	0.025	0.083
-603.128	1.384	0.146	-0.105
-602.113	-139.481	-0.187	-0.020
-601.098	658.710	-0.030	0.077
-600.084	-80.005	0.289	-0.098
-599.069	5.731	0.114	-0.085
-598.055	-200.000	-0.016	0.077
-597.040	9.810	-0.124	-0.095
-596.025	287.998	0.044	-0.081
-595.011	-159.864	-0.097	-0.005
-593.996	800.000	-0.008	-0.030
-592.982	14.535	-0.206	-0.162
-591.967	-200.000	0.012	-0.098
-590.952	38.839	0.145	0.131
-589.938	-200.000	-0.056	0.249
-588.923	221.735	0.031	0.050
-587.909	-44.784	0.071	-0.036
-586.894	11.708	-0.138	0.106
-585.879	-58.586	-0.239	0.104
-584.865	15.791	-0.147	-0.116
-583.850	179.540	0.165	0.243
-582.836	-30.754	-0.084	0.048
-581.821	-134.361	-0.114	0.014
-580.806	-21.639	-0.242	0.148
-579.792	-29.308	-0.235	-0.135
-578.777	-29.014	-0.193	0.111
-577.763	-33.636	0.327	0.181
-576.748	-68.734	0.247	-0.096
-575.733	-7.270	-0.178	0.122
-574.719	-18.214	0.430	0.271
-573.704	333.008	-0.125	0.244
-572.690	-6.769	0.242	-0.166
-571.675	6.488	0.192	-0.143
-570.661	236.416	0.042	-0.070
-569.646	-186.228	-0.184	-0.003
-568.631	60.248	-0.311	0.309
-567.617	55.078	-0.253	0.246
-566.602	207.618	-0.095	-0.150
-565.588	-81.007	-0.222	0.074
-564.573	-200.000	-0.302	0.001
-563.558	-8.319	0.345	0.234
-562.544	88.790	-0.081	-0.091
-561.529	-44.852	-0.051	-0.026
-560.515	519.573	-0.124	0.292
-559.500	-74.215	0.198	-0.072
-558.485	107.061	-0.079	-0.094
-557.471	-89.572	0.240	-0.071
-556.456	193.273	0.140	0.213
-555.442	-84.744	-0.410	-0.130
-554.427	800.000	-0.060	-0.169
-553.412	-167.198	-0.415	0.017
-552.398	-105.378	-0.359	0.082
-551.383	800.000	0.051	-0.187
-550.369	224.061	0.116	-0.188
-549.354	536.869	-0.049	0.117
-548.339	155.103	0.208	-0.288
-547.325	-136.563	-0.058	0.007
-546.310	-200.000	-0.060	-0.575
-545.296	-77.545	-0.168	0.058
-544.281	-200.000	-0.048	-0.223
-543.266	-0.996	0.020	-0.015
-542.252	627.727	0.088	-0.224
-541.237	-82.802	-0.169	-0.055
-540.223	-75.874	0.393	-0.140
-539.208	33.356	0.057	-0.050
-538.193	58.082	0.138	0.136
-537.179	36.700	-0.061	0.054
-536.164	81.534	-0.128	-0.140
-535.150	-155.642	-0.260	-0.017
-534.135	69.992	-0.154	0.160
-533.121	-110.562	0.200	0.042
-532.106	61.792	-0.062	-0.062
-531.091	335.498	-0.104	-0.203
-530.077	800.000	0.048	0.181
-529.062	-85.468	-0.142	0.044
-528.048	-200.000	0.055	0.300
-527.033	-200.000	-0.021	0.098
-526.018	18.458	-0.179	-0.144
-525.004	-24.914	-0.203	-0.121
-523.989	110.094	-0.236	-0.284
-522.975	-7.949	0.200	-0.136
-521.960	-127.748	0.285	-0.041
-520.945	-108.956	-0.077	0.017
-519.931	-60.978	-0.216	0.092
-518.916	800.000	0.111	0.358
-517.902	-139.567	-0.289	0.031
-516.887	179.881	-0.127	0.187
-515.872	-200.000	-0.009	0.057
-514.858	31.040	0.083	-0.072
-513.843	116.912	-0.199	0.245
-512.829	-125.824	-0.260	0.039
-511.814	800.000	-0.030	-0.125
-510.799	2.167	0.204	-0.148
-509.785	-200.000	0.008	-0.082
-508.770	-159.657	-0.278	0.015
-507.756	-68.378	0.269	0.105
-506.741	800.000	-0.061	0.176
-505.726	18.723	0.249	-0.200
-504.712	516.038	-0.097	0.227
-503.697	70.534	-0.165	0.171
-502.683	-136.076	-0.262	0.031
-501.668	800.000	0.115	0.428
-500.653	87.000	0.165	0.183
-499.639	205.194	-0.124	-0.194
-498.624	-199.716	0.119	-0.001
-497.610	-124.335	0.520	-0.081
-496.595	-61.170	-0.236	-0.100
-495.581	-152.256	0.278	-0.020
-494.566	-115.275	-0.227	0.043
-493.551	800.000	0.079	0.330
-492.537	-200.000	0.027	-0.278
-491.522	800.000	0.059	-0.238
-490.508	800.000	-0.061	0.256
-489.493	151.851	-0.122	-0.166
-488.478	98.200	-0.057	-0.066
-487.464	169.928	0.149	0.214
-486.449	-200.000	0.000	0.194
-485.435	-200.000	-0.037	-0.211
-484.420	-63.627	-0.288	-0.119
-483.405	7.936	0.137	-0.103
-482.391	-200.000	-0.021	-0.283
-481.376	579.919	0.042	0.104
-480.362	737.351	0.039	0.104
-479.347	-38.048	0.230	-0.123
-478.332	800.000	-0.039	0.129
-477.318	-106.091	-0.127	0.029
-476.303	49.068	0.447	0.421
-475.289	-106.901	0.317	0.070
-474.274	-19.923	0.194	-0.120
-473.259	-27.685	-0.116	-0.068
-472.245	225.372	-0.101	-0.165
-471.230	-17.059	-0.215	-0.136
-470.216	800.000	-0.018	-0.057
-469.201	-44.423	-0.263	-0.132
-468.186	416.966	0.045	0.096
-467.172	-23.238	0.185	0.111
-466.157	-200.000	0.033	0.198
-465.143	-154.523	-0.089	-0.006
-464.128	2.017	0.190	0.138
-463.113	-103.473	0.178	0.042
-462.099	-45.855	-0.234	0.116
-461.084	491.626	0.071	0.162
-460.070	-200.000	0.043	-0.264
-459.055	-113.852	-0.137	-0.027
-458.040	34.806	-0.369	-0.323
-457.026	800.000	0.029	0.122
-456.011	-11.221	-0.135	0.089
-454.997	608.422	0.164	-0.411
-453.982	149.893	0.169	-0.230
-452.968	292.579	0.135	0.247
-451.953	45.083	0.190	-0.176
-450.938	-73.405	-0.323	0.118
-449.924	-14.736	-0.233	-0.150
-448.909	-200.000	-0.061	-0.275
-447.895	-141.679	0.326	-0.033
-446.880	330.009	0.014	-0.027
-445.865	-200.000	0.007	0.304
-444.851	-200.000	0.019	0.130
-443.836	95.432	-0.146	-0.167
-442.822	154.396	0.106	-0.145
-441.807	34.085	-0.147	-0.128
-440.792	337.355	0.141	-0.274
-439.778	-49.283	-0.176	-0.084
-438.763	800.000	-0.038	-0.140
-437.749	-200.000	-0.075	-0.430
-436.734	800.000	0.039	-0.109
-435.719	91.341	0.103	0.115
-434.705	800.000	0.096	0.308
-433.690	110.541	0.341	0.411
-432.676	231.878	0.056	-0.092
-431.661	-200.000	0.001	-0.368
-430.646	454.107	-0.133	-0.294
-429.632	353.855	0.164	-0.326
-428.617	-200.000	0.032	-0.148
-427.603	-82.551	0.088	-0.029
-426.588	800.000	-0.074	0.301
-425.573	538.540	-0.154	-0.366
-424.559	-36.924	0.398	0.214
-423.544	-149.015	-0.162	-0.013
-422.530	163.856	-0.085	-0.120
-421.515	347.835	-0.112	0.221
-420.500	-41.913	-0.520	0.267
-419.486	-35.001	-0.244	-0.133
-418.471	40.515	-0.245	0.221
-417.457	13.861	-0.244	-0.190
-416.442	81.389	0.242	0.262
-415.428	135.504	0.233	0.303
-414.413	14.386	-0.237	0.185
-413.398	-200.000	-0.067	0.331
-412.384	-200.000	0.008	0.300
-411.369	-94.343	0.065	0.018
-410.355	432.380	0.022	0.048
-409.340	800.000	-0.021	-0.060
-408.325	800.000	-0.022	-0.074
-407.311	-200.000	-0.008	0.051
-406.296	800.000	0.038	-0.143
-405.282	59.936	0.084	0.083
-404.267	-154.181	-0.173	0.012
-403.252	-38.150	-0.015	-0.008
-402.238	297.565	0.084	-0.155
-401.223	-182.777	-0.270	0.005
-400.209	177.181	0.142	-0.207
-399.194	84.064	0.285	0.312
-398.179	-66.827	-0.220	-0.087
-397.165	-200.000	0.011	0.155
-396.150	-200.000	0.012	0.099
-395.136	464.636	-0.182	-0.407
-394.121	-35.853	0.203	-0.110
-393.106	-59.425	0.201	-0.086
-392.092	-200.000	-0.060	-0.380
-391.077	-67.092	-0.163	0.064
-390.063	-82.138	-0.097	0.032
-389.048	554.778	0.088	0.213
-388.033	314.640	0.086	-0.161
-387.019	-49.255	0.084	-0.040
-386.004	243.433	0.204	0.342
-384.990	560.895	0.032	-0.076
-383.975	-200.000	-0.016	0.080
-382.960	-69.522	0.212	0.081
-381.946	231.587	-0.219	0.359
-380.931	14.269	0.262	0.204
-379.917	-195.199	-0.078	-0.001
-378.902	-36.698	-0.179	0.096
-377.888	800.000	-0.064	-0.200
-376.873	-72.335	0.213	0.079
-375.858	-75.732	-0.076	-0.027
-374.844	-63.842	0.178	-0.073
-373.829	647.734	0.025	0.065
-372.815	671.879	-0.072	0.185
-371.800	352.211	-0.178	-0.353
-370.785	69.733	0.057	-0.058
-369.771	-200.000	0.042	0.188
-368.756	-200.000	0.003	-0.134
-367.742	-81.564	-0.236	0.077
-366.727	-56.094	-0.038	0.017
-365.712	-181.040	0.185	-0.004
-364.698	-68.996	0.242	-0.093
-363.683	-110.886	0.085	0.018
-362.669	-138.093	-0.034	-0.004
-361.654	-154.054	-0.341	-0.023
-360.639	800.000	0.075	-0.218
-359.625	-55.100	0.101	0.046
-358.610	-49.714	-0.258	0.122
-357.596	112.174	0.025	-0.030
-356.581	-200.000	-0.002	-0.258
-355.566	40.564	-0.154	-0.138
-354.552	800.000	0.045	-0.170
-353.537	800.000	-0.046	0.148
-352.523	-112.672	-0.093	0.018
-351.508	130.416	-0.182	-0.232
-350.493	-200.000	0.076	0.361
-349.479	-141.995	-0.216	0.022
-348.464	-59.968	-0.029	0.012
-347.450	-49.775	-0.165	-0.078
-346.435	-200.000	-0.022	0.155
-345.420	-85.125	0.149	-0.046
-344.406	-93.025	-0.193	-0.054
-343.391	-139.827	-0.223	-0.024
-342.377	-149.593	0.205	-0.016
-341.362	228.108	-0.114	0.185
-340.348	800.000	-0.074	-0.251
-339.333	-200.000	0.017	0.181
-338.318	108.853	-0.092	-0.110
-337.304	-109.028	-0.355	0.075
-336.289	-98.769	0.158	-0.040
-335.275	-40.792	0.094	0.048
-334.260	129.543	-0.083	0.105
-333.245	64.752	0.136	-0.137
-332.231	104.813	-0.213	-0.250
-331.216	-33.179	0.154	0.085
-330.202	-117.896	0.404	-0.072
-329.187	220.484	-0.271	-0.434
-328.172	-114.263	-0.064	-0.012
-327.158	154.054	0.043	0.059
-326.143	198.870	0.162	0.248
-325.129	-200.000	0.044	0.225
-324.114	800.000	-0.058	0.215
-323.099	-90.232	0.138	0.040
-322.085	-13.863	-0.215	0.139
-321.070	91.996	-0.123	-0.138
-320.056	-54.957	0.328	0.147
-319.041	98.871	0.292	0.336
-318.026	138.102	-0.149	0.195
-317.012	-112.900	-0.164	0.032
-315.997	221.919	0.110	-0.177
-314.983	-200.000	0.029	-0.131
-313.968	-93.635	0.346	-0.095
-312.953	-200.000	-0.002	0.171
-311.939	-200.000	-0.012	-0.359
-310.924	245.341	-0.141	-0.237
-309.910	-87.528	-0.144	0.043
-308.895	-60.580	0.251	0.106
-307.880	353.754	-0.095	-0.188
-306.866	321.875	0.176	-0.334
-305.851	-57.790	-0.141	0.062
-304.837	800.000	0.073	0.310
-303.822	-123.289	0.028	0.004
-302.807	111.477	-0.174	0.209
-301.793	800.000	0.119	-0.344
-300.778	800.000	-0.088	-0.366
-299.764	136.714	0.303	0.394
-298.749	245.202	-0.314	0.526
-297.735	240.480	-0.086	0.143
-296.720	79.513	0.103	0.111
-295.705	-200.000	-0.011	-0.078
-294.691	-200.000	-0.035	-0.213
-293.676	13.842	0.181	0.140
-292.662	-105.812	-0.387	-0.087
-291.647	800.000	-0.081	0.231
-290.632	41.416	0.229	-0.207
-289.618	-105.418	-0.034	-0.008
-288.603	-200.000	-0.072	0.366
-287.589	-200.000	0.009	0.090
-286.574	600.273	0.148	-0.367
-285.559	-200.000	0.011	0.087
-284.545	800.000	-0.014	0.057
-283.530	498.303	-0.032	0.074
-282.516	98.776	0.203	-0.234
-281.501	43.922	0.136	-0.124
-280.486	465.824	-0.096	-0.214
-279.472	-6.785	0.155	-0.105
-278.457	-19.405	-0.240	0.148
-277.443	-105.607	0.155	-0.035
-276.428	109.086	0.180	0.214
-275.413	-200.000	-0.002	0.011
-274.399	-81.859	-0.062	0.020
-273.384	-200.000	0.021	-0.110
-272.370	-55.434	-0.267	-0.119
-271.355	-14.525	0.224	-0.143
-270.340	213.658	-0.052	-0.082
-269.326	338.409	0.099	-0.192
-268.311	79.691	0.261	0.279
-267.297	531.702	-0.075	0.176
-266.282	800.000	-0.150	0.455
-265.267	64.333	0.097	0.097
-264.253	-33.420	-0.234	-0.129
-263.238	115.932	0.106	-0.129
-262.224	231.582	0.160	0.260
-261.209	63.647	-0.113	0.113
-260.195	-200.000	0.003	0.088
-259.180	-55.870	0.331	0.147
-258.165	686.142	0.043	-0.111
-257.151	446.875	0.084	-0.183
-256.136	-67.286	-0.322	0.126
-255.122	-17.261	-0.143	-0.089
-254.107	-35.423	-0.409	0.221
-253.092	71.269	0.371	0.383
-252.078	199.413	-0.050	0.077
-251.063	-124.459	0.318	-0.049
-250.049	359.698	0.048	-0.095
-249.034	-173.604	0.149	0.004
-248.019	-107.782	-0.308	0.067
-247.005	149.519	-0.104	-0.140
-245.990	143.497	0.067	0.088
-244.976	-87.307	0.111	-0.034
-243.961	30.911	-0.035	0.029
-242.946	155.225	0.117	-0.160
-241.932	20.597	-0.352	-0.283
-240.917	146.832	-0.174	0.233
-239.903	-200.000	0.018	0.411
-238.888	421.464	0.093	0.198
-237.873	369.559	-0.077	0.154
-236.859	309.163	0.026	-0.047
-235.844	-200.000	0.001	0.310
-234.830	-55.066	-0.314	-0.140
-233.815	-122.074	0.299	0.049
-232.800	800.000	-0.068	0.240
-231.786	800.000	0.104	0.370
-230.771	800.000	-0.029	0.080
-229.757	-38.937	0.189	-0.099
-228.742	211.371	0.036	-0.057
-227.727	-120.425	0.212	0.036
-226.713	314.596	0.168	0.314
-225.698	354.095	-0.092	0.182
-224.684	168.185	-0.153	-0.216
-223.669	321.472	0.084	-0.158
-222.655	447.670	0.076	0.166
-221.640	-200.000	0.032	0.204
-220.625	-90.283	0.060	0.017
-219.611	302.914	0.013	-0.023
-218.596	-116.680	-0.081	-0.015
-217.582	-200.000	-0.004	-0.078
-216.567	-52.125	-0.256	-0.118
-215.552	-189.016	0.186	-0.002
-214.538	-200.000	-0.023	-0.187
-213.523	708.283	-0.039	0.103
-212.509	-200.000	0.004	0.036
-211.494	261.270	-0.081	0.139
-210.479	623.261	0.089	-0.222
-209.465	307.516	0.057	-0.106
-208.450	-47.651	0.249	0.120
-207.436	-116.209	0.345	-0.063
-206.421	-81.965	0.089	0.029
-205.406	-55.144	0.411	-0.184
-204.392	-164.843	0.334	-0.015
-203.377	-17.350	0.260	-0.162
-202.363	-200.000	-0.000	-0.405
-201.348	15.771	-0.290	-0.226
-200.333	-200.000	0.025	0.313
-199.319	178.596	-0.059	0.086
-198.304	-58.593	0.077	-0.033
-197.290	32.927	0.129	-0.111
-196.275	-5.634	0.169	-0.115
-195.260	159.941	0.134	-0.185
-194.246	-200.000	0.009	0.101
-193.231	310.622	-0.123	0.228
-192.217	800.000	0.081	-0.234
-191.202	-110.916	0.604	-0.123
-190.187	-45.446	0.193	0.095
-189.173	70.795	0.065	0.067
-188.158	-200.000	0.001	-0.004
-187.144	707.834	0.084	-0.221
-186.129	-126.132	0.329	0.049
-185.114	-91.596	-0.106	-0.030
-184.100	-97.420	-0.272	-0.070
-183.085	-169.224	0.210	-0.008
-182.071	800.000	-0.028	0.098
-181.056	-13.738	0.130	-0.084
-180.042	-74.275	0.234	0.084
-179.027	-58.249	0.233	0.101
-178.012	119.305	-0.206	-0.253
-176.998	-200.000	0.010	-0.080
-175.983	105.633	-0.059	-0.069
-174.969	25.270	0.182	0.150
-173.954	398.743	-0.222	-0.461
-172.939	-200.000	0.010	-0.203
-171.925	176.994	-0.178	0.257
-170.910	-9.369	0.305	0.202
-169.896	800.000	-0.100	-0.300
-168.881	162.173	0.036	-0.050
-167.866	-85.904	-0.226	-0.069
-166.852	-144.476	-0.136	0.012
-165.837	29.119	-0.183	-0.154
-164.823	677.490	0.143	-0.367
-163.808	1.832	0.171	-0.122
-162.793	13.060	-0.122	0.093
-161.779	163.868	0.077	-0.107
-160.764	-200.000	0.003	0.045
-159.750	-135.962	-0.209	0.024
-158.735	-78.007	0.073	0.025
-157.720	380.558	-0.033	-0.066
-156.706	39.864	0.178	-0.159
-155.691	90.523	0.108	-0.120
-154.677	-200.000	0.081	0.413
-153.662	768.525	-0.093	-0.251
-152.647	800.000	0.040	0.115
-151.633	-200.000	0.027	-0.243
-150.618	12.540	0.210	0.160
-149.604	62.435	0.130	-0.128
-148.589	443.317	-0.181	-0.393
-147.574	104.330	-0.307	-0.357
-146.560	-92.223	0.052	0.014
-145.545	20.403	0.182	-0.146
-144.531	445.067	-0.099	-0.215
-143.516	800.000	-0.089	0.335
-142.502	279.602	0.087	-0.153
-141.487	186.669	0.109	-0.161
-140.472	265.154	-0.048	0.082
-139.458	800.000	0.097	0.361
-138.443	70.812	0.106	-0.109
-137.429	-142.912	0.354	-0.034
-136.414	199.519	0.059	0.089
-135.399	-151.055	0.135	0.010
-134.385	153.834	0.159	-0.216
-133.370	-46.521	-0.093	0.045
-132.356	-200.000	-0.054	0.251
-131.341	31.495	-0.181	0.154
-130.326	800.000	-0.047	-0.158
-129.312	800.000	-0.141	-0.453
-128.297	-111.727	0.333	-0.067
-127.283	204.823	-0.049	-0.075
-126.268	57.094	-0.099	0.095
-125.253	-161.048	0.389	0.020
-124.239	238.487	-0.176	-0.289
-123.224	-200.000	-0.011	-0.297
-122.210	-200.000	-0.039	0.222
