DTS Sentinel unit serial number:	SN413079Multiplexer serial number:	ORYXHardware model number:	OX4-SRSoftware version number:	ORYX F/W v4.00 Oryx Data Collector v3.7.2.0data status	okinstallation	princeton_trtdifferential loss correction	single-endedforward channel	channel 3reverse channel	N/Adate	2019/09/10time	19:54:11forward acquisition time	60.00reverse acquisition time	0.00gamma	496.2192k internal	0.2322k external	0.2322temperature offset calibration	0.9921default loss term (dB/km)	0.3790temperature slope calibration	1.0000multiplexer offset coefficient	1.0000multiplexer slope coefficient	1.0000fibre end	0.00T internal ref (°C)	32.81T ext. ref 1 (°C)	-0.31T ext. ref 2 (°C)	25.74length (m)	temperature (°C)	Stokes	anti-Stokes-747.200	97.896	0.200	0.233
-746.185	-27.096	0.191	0.113
-745.171	-200.000	-0.020	-0.100
-744.156	-0.034	-0.209	0.150
-743.142	-48.313	0.191	0.093
-742.127	-200.000	0.025	0.128
-741.112	-200.000	0.017	0.331
-740.098	-98.186	-0.248	-0.064
-739.083	-114.525	-0.312	-0.060
-738.069	269.675	-0.042	0.075
-737.054	698.515	0.045	-0.120
-736.039	460.911	-0.112	-0.251
-735.025	758.988	-0.059	0.162
-734.010	36.649	-0.272	0.243
-732.996	-105.952	-0.463	-0.105
-731.981	-29.526	-0.252	-0.146
-730.966	-15.464	-0.263	-0.170
-729.952	-22.335	-0.188	-0.115
-728.937	-42.506	-0.165	-0.085
-727.923	20.283	-0.374	-0.305
-726.908	-17.159	-0.186	0.119
-725.894	-114.182	-0.143	-0.028
-724.879	-200.000	-0.057	-0.354
-723.864	163.084	-0.206	0.291
-722.850	58.517	-0.094	-0.093
-721.835	7.059	-0.322	0.243
-720.821	50.298	-0.206	0.197
-719.806	800.000	0.024	0.100
-718.791	-200.000	-0.001	0.084
-717.777	-133.412	-0.272	0.035
-716.762	-118.645	0.008	-0.001
-715.748	-127.112	0.139	0.021
-714.733	-115.195	0.263	0.050
-713.718	-200.000	-0.027	-0.224
-712.704	-35.760	-0.252	0.138
-711.689	199.662	0.117	0.181
-710.675	1.930	0.140	0.102
-709.660	-44.947	0.078	-0.039
-708.645	-200.000	0.038	0.209
-707.631	78.896	0.109	0.118
-706.616	433.817	-0.195	0.427
-705.602	-57.812	-0.276	0.122
-704.587	-19.334	-0.036	-0.022
-703.572	162.562	-0.184	0.261
-702.558	32.162	0.115	-0.100
-701.543	-200.000	-0.023	0.115
-700.529	-200.000	-0.047	0.449
-699.514	-41.356	0.212	-0.110
-698.499	66.123	0.072	-0.073
-697.485	-20.512	-0.178	-0.110
-696.470	-123.290	0.512	-0.083
-695.456	-126.433	-0.503	-0.075
-694.441	116.231	0.094	0.116
-693.426	-200.000	-0.052	-0.355
-692.412	321.304	0.030	0.058
-691.397	800.000	0.102	0.337
-690.383	-55.419	0.064	0.029
-689.368	6.970	-0.207	0.155
-688.354	100.441	0.066	0.077
-687.339	800.000	0.125	-0.405
-686.324	-127.728	0.189	0.028
-685.310	38.631	-0.217	-0.196
-684.295	-200.000	0.007	-0.036
-683.281	-139.076	-0.139	0.015
-682.266	-5.796	0.131	-0.090
-681.251	101.876	-0.067	-0.079
-680.237	107.691	0.152	-0.182
-679.222	290.241	0.118	0.216
-678.208	195.925	0.176	0.269
-677.193	-23.632	-0.084	0.051
-676.178	28.835	0.048	0.041
-675.164	800.000	-0.028	-0.109
-674.149	-85.470	-0.191	-0.060
-673.135	543.780	-0.098	-0.235
-672.120	542.439	0.087	0.209
-671.105	-92.409	-0.325	-0.092
-670.091	-200.000	0.039	-0.426
-669.076	800.000	-0.063	0.236
-668.062	-8.326	0.178	0.121
-667.047	-155.397	-0.514	-0.034
-666.032	-35.946	-0.122	-0.066
-665.018	-119.945	0.224	-0.039
-664.003	-200.000	0.004	0.090
-662.989	5.139	-0.425	0.315
-661.974	-64.786	0.096	0.039
-660.959	-33.995	-0.239	0.133
-659.945	96.268	-0.195	-0.224
-658.930	130.592	-0.161	-0.208
-657.916	-56.391	0.171	0.077
-656.901	-103.328	-0.389	0.092
-655.886	106.618	-0.207	0.247
-654.872	100.848	-0.106	-0.124
-653.857	-6.267	0.359	0.247
-652.843	-42.180	0.085	0.044
-651.828	-74.686	-0.318	0.115
-650.814	-200.000	0.023	-0.131
-649.799	-57.100	0.217	-0.096
-648.784	-163.341	-0.457	-0.022
-647.770	115.295	-0.157	-0.193
-646.755	662.615	-0.102	0.265
-645.741	-12.411	0.059	-0.039
-644.726	-200.000	0.010	-0.135
-643.711	-62.644	0.359	0.150
-642.697	114.770	0.238	-0.293
-641.682	800.000	-0.114	-0.376
-640.668	142.978	0.148	-0.198
-639.653	-200.000	0.003	0.061
-638.638	21.475	-0.152	-0.125
-637.624	283.650	0.057	-0.103
-636.609	-200.000	0.015	0.068
-635.595	-22.202	0.263	0.160
-634.580	595.775	-0.085	-0.212
-633.565	-74.686	-0.109	-0.039
-632.551	800.000	-0.070	-0.268
-631.536	-124.709	-0.291	-0.045
-630.522	292.415	0.215	-0.394
-629.507	-200.000	-0.043	0.262
-628.492	38.432	-0.071	0.064
-627.478	-45.978	0.135	0.067
-626.463	800.000	-0.057	-0.217
-625.449	185.386	0.149	0.223
-624.434	-161.665	0.326	0.017
-623.419	-11.297	-0.062	-0.041
-622.405	538.653	-0.037	-0.089
-621.390	14.286	-0.300	-0.235
-620.376	46.608	0.061	0.057
-619.361	800.000	0.028	0.113
-618.346	103.927	0.086	0.101
-617.332	800.000	-0.089	-0.257
-616.317	-200.000	-0.004	0.102
-615.303	161.232	0.049	0.069
-614.288	82.160	-0.126	0.138
-613.273	-200.000	-0.043	-0.260
-612.259	-84.865	-0.307	0.097
-611.244	79.540	-0.324	-0.349
-610.230	492.166	-0.045	-0.103
-609.215	-98.927	0.095	0.024
-608.201	-36.511	-0.253	-0.137
-607.186	93.120	-0.194	-0.221
-606.171	512.909	-0.031	0.072
-605.157	-114.341	0.178	0.035
-604.142	66.994	-0.166	0.170
-603.128	19.267	0.238	0.192
-602.113	-46.648	0.251	0.124
-601.098	-185.885	-0.355	0.005
-600.084	-113.279	-0.257	0.051
-599.069	-111.562	-0.320	0.065
-598.055	331.830	0.083	-0.161
-597.040	-137.485	0.192	0.022
-596.025	255.154	0.048	0.082
-595.011	-200.000	0.065	-0.342
-593.996	154.325	-0.260	0.359
-592.982	800.000	-0.061	0.177
-591.967	-2.925	-0.237	0.166
-590.952	800.000	0.065	-0.243
-589.938	800.000	-0.054	0.156
-588.923	130.420	-0.189	-0.243
-587.909	332.946	0.091	0.176
-586.894	-163.606	0.381	0.018
-585.879	-80.053	0.152	-0.051
-584.865	296.527	0.035	0.065
-583.850	655.032	-0.079	0.204
-582.836	170.665	-0.177	-0.254
-581.821	-5.256	0.007	-0.005
-580.806	19.572	0.170	0.137
-579.792	800.000	0.021	0.075
-578.777	-153.095	-0.269	0.019
-577.763	-200.000	-0.020	0.115
-576.748	424.499	-0.071	0.154
-575.733	-200.000	-0.059	-0.306
-574.719	-162.577	0.158	0.008
-573.704	18.307	-0.071	-0.057
-572.690	-200.000	-0.037	-0.168
-571.675	-104.690	0.201	-0.047
-570.661	-132.784	0.397	-0.051
-569.646	343.030	0.036	0.071
-568.631	53.451	-0.180	-0.173
-567.617	-88.730	-0.623	0.186
-566.602	-139.027	-0.064	0.007
-565.588	169.951	0.173	-0.248
-564.573	185.971	-0.104	0.155
-563.558	800.000	-0.032	-0.130
-562.544	18.044	-0.286	-0.229
-561.529	-160.048	-0.288	0.016
-560.515	-133.916	-0.118	-0.015
-559.500	-200.000	0.064	-0.524
-558.485	-72.809	-0.335	-0.124
-557.471	-28.586	0.373	-0.215
-556.456	-27.534	-0.390	-0.227
-555.442	177.613	-0.194	0.283
-554.427	-84.250	0.302	0.096
-553.412	375.310	-0.073	-0.148
-552.398	-200.000	0.064	-0.306
-551.383	-148.303	0.259	0.021
-550.369	-135.031	-0.237	-0.029
-549.354	800.000	0.023	0.074
-548.339	206.034	0.024	0.037
-547.325	26.445	0.210	-0.176
-546.310	-116.595	-0.153	0.028
-545.296	197.782	0.147	-0.225
-544.281	-115.926	-0.117	-0.022
-543.266	-200.000	-0.006	-0.077
-542.252	196.877	-0.201	0.308
-541.237	-76.846	-0.316	-0.111
-540.223	-41.521	-0.093	-0.048
-539.208	555.228	0.063	-0.152
-538.193	-200.000	0.005	-0.173
-537.179	-123.051	0.361	0.058
-536.164	-177.602	-0.123	-0.003
-535.150	-101.033	0.096	0.024
-534.135	-200.000	0.002	-0.468
-533.121	335.886	-0.136	-0.263
-532.106	-200.000	0.074	-0.384
-531.091	35.653	-0.167	0.147
-530.077	-200.000	-0.011	0.205
-529.062	17.852	0.129	0.103
-528.048	-134.768	0.121	-0.015
-527.033	-143.281	-0.198	0.019
-526.018	-53.431	-0.071	-0.033
-525.004	139.885	-0.136	0.179
-523.989	-91.829	0.212	-0.060
-522.975	-100.108	0.320	0.080
-521.960	245.217	-0.136	-0.230
-520.945	-24.177	-0.182	-0.109
-519.931	267.694	-0.135	-0.236
-518.916	252.935	-0.161	-0.276
-517.902	-200.000	-0.029	0.303
-516.887	74.732	-0.109	0.115
-515.872	-81.102	-0.111	0.037
-514.858	-14.826	0.016	-0.010
-513.843	262.048	-0.091	-0.158
-512.829	83.786	-0.123	0.134
-511.814	160.744	-0.023	-0.032
-510.799	-151.519	-0.304	0.023
-509.785	-49.282	-0.076	0.036
-508.770	-200.000	0.013	0.245
-507.756	-92.214	0.105	-0.030
-506.741	-14.799	-0.193	0.124
-505.726	414.239	-0.086	0.183
-504.712	475.788	0.071	0.160
-503.697	800.000	-0.025	0.084
-502.683	-200.000	-0.039	0.357
-501.668	800.000	0.037	0.152
-500.653	115.086	0.071	-0.086
-499.639	24.832	-0.158	0.131
-498.624	-200.000	-0.002	0.112
-497.610	-79.435	-0.173	-0.058
-496.595	329.223	-0.263	-0.505
-495.581	-200.000	-0.005	0.180
-494.566	800.000	-0.036	0.127
-493.551	126.589	-0.112	0.141
-492.537	-70.494	-0.213	0.081
-491.522	474.401	0.023	-0.052
-490.508	168.944	-0.171	-0.244
-489.493	36.550	-0.180	-0.159
-488.478	344.781	0.152	-0.298
-487.464	-200.000	-0.006	-0.169
-486.449	-47.842	0.148	0.072
-485.435	128.911	-0.212	-0.270
-484.420	204.261	0.176	0.273
-483.405	712.381	0.029	0.076
-482.391	144.745	0.163	0.217
-481.376	800.000	0.055	0.219
-480.362	135.178	0.087	-0.113
-479.347	401.075	-0.129	0.270
-478.332	414.545	-0.124	0.264
-477.318	-200.000	-0.054	-0.320
-476.303	45.299	-0.043	0.040
-475.289	-46.453	0.163	0.080
-474.274	121.923	0.188	0.234
-473.259	371.113	0.113	0.230
-472.245	-88.129	-0.173	-0.052
-471.230	7.364	0.167	-0.124
-470.216	-128.597	0.403	0.057
-469.201	-47.899	0.308	0.149
-468.186	-200.000	-0.024	0.486
-467.172	160.474	0.057	-0.079
-466.157	113.384	-0.085	-0.102
-465.143	-156.916	-0.377	0.023
-464.128	-105.860	0.324	0.073
-463.113	52.986	0.237	0.226
-462.099	4.700	0.124	0.091
-461.084	766.005	-0.029	0.077
-460.070	318.269	-0.110	0.208
-459.055	-200.000	0.032	0.281
-458.040	752.255	-0.031	0.084
-457.026	72.890	0.294	0.307
-456.011	182.360	0.110	0.162
-454.997	800.000	-0.010	0.039
-453.982	800.000	-0.015	-0.060
-452.968	-200.000	-0.011	-0.074
-451.953	-105.231	-0.073	0.017
-450.938	800.000	0.105	-0.324
-449.924	-200.000	0.021	-0.128
-448.909	-131.442	0.030	0.004
-447.895	-45.958	0.184	-0.090
-446.880	-82.498	0.220	-0.071
-445.865	-30.294	-0.166	0.094
-444.851	-85.983	-0.379	0.117
-443.836	800.000	-0.034	0.114
-442.822	53.234	-0.124	0.118
-441.807	-107.513	0.249	0.054
-440.792	-90.043	0.174	-0.051
-439.778	-200.000	0.060	-0.342
-438.763	225.618	0.104	0.169
-437.749	-99.594	0.080	-0.020
-436.734	-173.254	0.220	-0.007
-435.719	304.731	-0.190	-0.353
-434.705	-96.305	0.124	0.033
-433.690	-90.301	0.137	0.040
-432.676	225.028	-0.055	-0.090
-431.661	-177.362	0.132	-0.003
-430.646	-115.979	0.125	-0.023
-429.632	69.383	-0.062	0.064
-428.617	-200.000	-0.003	-0.120
-427.603	118.845	-0.300	-0.370
-426.588	-115.332	0.314	-0.059
-425.573	-11.971	-0.235	-0.154
-424.559	51.546	-0.226	-0.214
-423.544	40.046	-0.246	0.220
-422.530	-45.224	-0.078	-0.038
-421.515	735.786	-0.034	-0.091
-420.500	25.387	0.144	0.120
-419.486	-32.193	0.205	-0.114
-418.471	-45.679	0.293	-0.145
-417.457	-78.607	-0.209	0.071
-416.442	-90.594	0.123	0.035
-415.428	-21.750	0.085	0.052
-414.413	800.000	0.052	-0.190
-413.398	-6.119	0.247	0.168
-412.384	800.000	0.066	0.249
-411.369	35.923	0.109	-0.096
-410.355	800.000	-0.020	-0.075
-409.340	-32.452	-0.291	0.162
-408.325	800.000	0.066	0.212
-407.311	-48.834	0.028	0.013
-406.296	800.000	0.022	-0.097
-405.282	46.169	-0.124	-0.114
-404.267	77.750	-0.184	-0.196
-403.252	-96.505	0.342	-0.090
-402.238	502.269	-0.048	-0.110
-401.223	-40.364	0.149	-0.077
-400.209	-76.867	0.275	-0.096
-399.194	-76.777	-0.226	0.079
-398.179	117.834	-0.116	-0.143
-397.165	-200.000	0.032	0.143
-396.150	-200.000	-0.002	0.096
-395.136	-117.341	0.502	-0.091
-394.121	-8.773	-0.165	-0.111
-393.106	-92.158	-0.348	0.098
-392.092	254.813	-0.034	-0.058
-391.077	800.000	0.039	0.145
-390.063	800.000	-0.041	-0.123
-389.048	-121.246	-0.050	0.008
-388.033	21.927	0.113	-0.092
-387.019	-76.657	0.101	-0.035
-386.004	216.133	-0.170	0.268
-384.990	-112.009	0.163	0.033
-383.975	-200.000	0.165	0.000
-382.960	152.932	0.178	-0.242
-381.946	-0.857	0.206	0.145
-380.931	-121.814	-0.091	0.015
-379.917	-200.000	0.052	0.294
-378.902	131.412	0.091	-0.116
-377.888	-74.957	0.133	0.048
-376.873	33.323	0.157	0.135
-375.858	-44.282	-0.216	0.108
-374.844	43.875	0.176	-0.160
-373.829	-200.000	-0.026	-0.135
-372.815	72.666	0.033	-0.034
-371.800	-200.000	-0.012	-0.337
-370.785	-101.126	-0.395	0.096
-369.771	278.400	0.132	-0.235
-368.756	142.635	-0.127	-0.167
-367.742	-71.780	-0.087	0.032
-366.727	-200.000	-0.313	0.000
-365.712	0.866	-0.181	-0.129
-364.698	525.226	-0.021	-0.050
-363.683	110.151	0.186	0.222
-362.669	-200.000	0.002	0.250
-361.654	-100.536	0.140	0.035
-360.639	40.804	-0.043	-0.039
-359.625	-200.000	-0.017	-0.298
-358.610	197.657	0.068	-0.103
-357.596	249.865	-0.100	0.168
-356.581	-74.574	0.259	-0.093
-355.566	800.000	-0.100	0.354
-354.552	-39.358	-0.072	0.038
-353.537	113.285	0.063	-0.076
-352.523	62.089	0.137	0.136
-351.508	-136.487	-0.250	-0.029
-350.493	-200.000	-0.102	-0.450
-349.479	142.408	0.305	-0.403
-348.464	-200.000	0.007	-0.116
-347.450	-200.000	0.002	0.099
-346.435	-10.004	-0.359	-0.237
-345.420	-200.000	-0.049	0.286
-344.406	-43.464	-0.038	-0.019
-343.391	-133.481	0.300	-0.037
-342.377	155.781	-0.146	0.201
-341.362	131.522	-0.200	0.256
-340.348	-200.000	0.016	-0.332
-339.333	-121.343	-0.329	0.055
-338.318	-44.337	0.126	0.063
-337.304	211.791	-0.138	0.215
-336.289	-86.813	0.193	-0.059
-335.275	-123.389	0.378	0.060
-334.260	-99.621	0.218	-0.054
-333.245	800.000	0.059	-0.200
-332.231	289.153	-0.060	-0.109
-331.216	-57.941	0.332	0.144
-330.202	-89.313	0.034	0.010
-329.187	-86.399	0.134	0.041
-328.172	405.524	0.124	0.260
-327.158	28.506	0.168	0.142
-326.143	-18.776	0.144	-0.089
-325.129	87.151	0.101	0.111
-324.114	-58.141	0.203	-0.088
-323.099	82.252	0.154	0.166
-322.085	-200.000	-0.014	0.127
-321.070	-200.000	-0.012	0.084
-320.056	-42.574	0.142	-0.072
-319.041	-200.000	0.015	0.156
-318.026	27.482	-0.358	-0.299
-317.012	-32.935	-0.308	0.170
-315.997	672.144	0.074	-0.191
-314.983	-182.279	0.146	-0.003
-313.968	800.000	0.057	0.190
-312.953	3.082	0.099	-0.072
-311.939	160.300	-0.175	-0.243
-310.924	53.128	0.250	-0.238
-309.910	-91.334	0.409	0.116
-308.895	-18.794	-0.355	-0.220
-307.880	800.000	-0.049	-0.163
-306.866	91.096	0.137	0.153
-305.851	-200.000	-0.028	0.374
-304.837	-200.000	0.004	-0.330
-303.822	-57.790	-0.089	-0.039
-302.807	-75.975	0.047	-0.016
-301.793	158.823	-0.146	0.201
-300.778	621.408	0.074	-0.186
-299.764	-200.000	-0.002	-0.115
-298.749	-200.000	-0.025	0.136
-297.735	-200.000	-0.019	-0.440
-296.720	-200.000	-0.057	-0.312
-295.705	-25.685	0.112	0.066
-294.691	-97.320	0.372	0.096
-293.676	379.934	0.131	0.267
-292.662	800.000	0.038	-0.161
-291.647	162.311	0.106	-0.147
-290.632	161.515	-0.086	0.119
-289.618	-101.572	-0.132	0.032
-288.603	-80.543	-0.139	-0.046
-287.589	-80.338	-0.157	0.052
-286.574	130.011	-0.221	0.281
-285.559	-65.609	-0.129	-0.051
-284.545	-117.557	0.172	-0.031
-283.530	72.464	-0.083	-0.086
-282.516	800.000	-0.069	-0.210
-281.501	644.720	-0.172	0.436
-280.486	-75.467	-0.076	-0.027
-279.472	13.783	0.193	-0.149
-278.457	-200.000	-0.036	-0.199
-277.443	176.114	-0.070	0.100
-276.428	800.000	-0.086	0.266
-275.413	-45.635	-0.167	-0.082
-274.399	225.949	-0.099	0.159
-273.384	800.000	0.025	0.075
-272.370	-75.218	0.137	-0.049
-271.355	-200.000	-0.020	-0.103
-270.340	370.790	-0.090	0.181
-269.326	-11.505	-0.219	0.143
-268.311	-61.052	-0.135	-0.056
-267.297	86.219	0.228	0.249
-266.282	-200.000	0.089	0.000
-265.267	278.600	0.136	-0.240
-264.253	-91.206	-0.116	0.033
-263.238	116.916	-0.202	0.246
-262.224	203.974	-0.183	-0.281
-261.209	140.620	0.210	0.274
-260.195	-85.943	-0.385	-0.118
-259.180	-32.425	0.236	0.130
-258.165	-106.550	-0.171	0.038
-257.151	-130.488	-0.070	-0.009
-256.136	-143.206	-0.369	-0.035
-255.122	249.284	0.138	0.232
-254.107	450.473	-0.095	0.209
-253.092	-99.123	-0.095	-0.024
-252.078	740.754	-0.033	-0.088
-251.063	-36.550	0.060	-0.032
-250.049	-200.000	-0.016	0.152
-249.034	297.079	0.135	0.246
-248.019	-183.021	-0.032	0.001
-247.005	77.064	0.033	0.035
-245.990	800.000	0.139	0.499
-244.976	107.168	-0.164	0.193
-243.961	-84.873	0.171	0.053
-242.946	56.098	-0.092	-0.088
-241.932	45.897	0.141	-0.129
-240.917	10.439	-0.142	-0.107
-239.903	433.696	-0.110	0.236
-238.888	-83.119	0.258	0.082
-237.873	-200.000	-0.039	-0.207
-236.859	76.792	-0.076	-0.080
-235.844	259.511	-0.075	0.128
-234.830	205.368	0.115	0.176
-233.815	50.440	0.166	0.155
-232.800	-200.000	0.003	-0.085
-231.786	27.893	0.079	-0.066
-230.771	-47.400	-0.023	-0.011
-229.757	307.179	0.105	-0.193
-228.742	-101.015	-0.259	-0.063
-227.727	800.000	0.080	0.294
-226.713	-200.000	-0.025	0.178
-225.698	444.671	0.089	0.194
-224.684	216.016	0.097	-0.152
-223.669	800.000	-0.080	-0.220
-222.655	-11.338	0.094	0.061
-221.640	-200.000	-0.049	0.284
-220.625	-99.839	0.359	-0.089
-219.611	-200.000	0.003	0.023
-218.596	-200.000	0.001	-0.165
-217.582	244.658	0.134	-0.223
-216.567	-200.000	-0.037	0.184
-215.552	-92.536	-0.323	0.090
-214.538	634.521	0.042	0.106
-213.523	-101.718	-0.158	0.038
-212.509	-125.260	-0.063	-0.009
-211.494	163.866	0.030	0.041
-210.479	-200.000	-0.043	-0.265
-209.465	366.450	0.129	0.257
-208.450	106.931	-0.045	-0.053
-207.436	143.229	0.069	-0.091
-206.421	120.005	-0.128	0.158
-205.406	86.065	-0.079	-0.086
-204.392	800.000	-0.093	0.287
-203.377	128.238	0.104	0.131
-202.363	18.376	0.250	-0.198
-201.348	-165.221	0.162	0.007
-200.333	768.415	-0.043	-0.116
-199.319	-75.698	0.125	-0.044
-198.304	-10.258	0.078	0.051
-197.290	32.630	-0.056	0.048
-196.275	-153.869	-0.345	0.023
-195.260	791.062	-0.087	0.237
-194.246	-153.322	0.088	-0.006
-193.231	-49.985	0.125	0.058
-192.217	-200.000	0.006	-0.053
-191.202	-10.269	-0.035	-0.023
-190.187	-200.000	-0.026	0.201
-189.173	-159.138	-0.120	-0.007
-188.158	-48.655	-0.109	-0.052
-187.144	173.035	-0.069	0.099
-186.129	-26.319	0.169	0.098
-185.114	-172.137	0.099	-0.003
-184.100	60.085	0.227	-0.221
-183.085	-19.156	0.147	-0.090
-182.071	117.426	-0.227	-0.276
-181.056	65.621	-0.114	0.114
-180.042	126.335	-0.209	0.262
-179.027	-85.806	0.329	-0.101
-178.012	-111.607	-0.332	-0.067
-176.998	104.844	-0.146	0.170
-175.983	383.557	-0.033	-0.068
-174.969	-150.385	0.292	0.022
-173.954	-200.000	0.017	-0.227
-172.939	-85.741	0.253	-0.077
-171.925	-200.000	-0.020	-0.114
-170.910	-4.902	0.267	0.182
-169.896	-200.000	-0.043	-0.195
-168.881	239.850	-0.138	-0.226
-167.866	-200.000	-0.039	-0.177
-166.852	150.805	0.042	0.056
-165.837	-121.352	0.257	0.042
-164.823	-102.333	-0.335	0.079
-163.808	-200.000	0.020	-0.108
-162.793	-16.355	0.387	0.242
-161.779	-200.000	-0.083	0.360
-160.764	558.811	-0.104	0.248
-159.750	-147.558	0.417	-0.035
-158.735	-200.000	-0.014	0.317
-157.720	-17.041	0.416	0.259
-156.706	-120.553	-0.172	-0.029
-155.691	-200.000	-0.014	0.162
-154.677	310.723	0.203	-0.375
-153.662	-166.425	0.366	0.015
-152.647	-116.037	-0.048	0.009
-151.633	-200.000	0.049	0.309
-150.618	-87.932	-0.281	0.083
-149.604	506.081	-0.153	0.351
-148.589	-181.948	-0.105	-0.002
-147.574	-30.908	0.073	0.041
-146.560	-160.586	0.273	0.014
-145.545	-164.968	-0.132	0.006
-144.531	-97.177	0.101	0.026
-143.516	400.571	0.134	-0.278
-142.502	-200.000	-0.028	0.160
-141.487	66.166	0.059	-0.059
-140.472	-200.000	0.075	0.482
-139.458	72.866	0.077	-0.079
-138.443	-86.784	0.260	-0.079
-137.429	54.769	-0.101	0.096
-136.414	107.258	-0.128	0.150
-135.399	-88.926	0.500	0.146
-134.385	-41.374	0.274	0.139
-133.370	-176.343	0.294	-0.008
-132.356	329.721	-0.049	0.092
-131.341	59.823	0.080	0.078
-130.326	-120.771	0.186	-0.031
-129.312	11.018	0.186	-0.140
-128.297	800.000	0.091	-0.290
-127.283	537.470	0.158	0.370
-126.268	16.190	0.100	0.078
-125.253	-102.962	0.131	-0.031
-124.239	358.975	-0.152	-0.299
-123.224	225.936	-0.035	-0.056
-122.210	664.805	-0.155	0.396
