DTS Sentinel unit serial number:	SN413079Multiplexer serial number:	ORYXHardware model number:	OX4-SRSoftware version number:	ORYX F/W v4.00 Oryx Data Collector v3.7.2.0data status	okinstallation	princeton_trtdifferential loss correction	single-endedforward channel	channel 3reverse channel	N/Adate	2019/09/16time	04:48:34forward acquisition time	60.00reverse acquisition time	0.00gamma	496.2192k internal	0.2336k external	0.2336temperature offset calibration	0.9955default loss term (dB/km)	0.3790temperature slope calibration	1.0000multiplexer offset coefficient	1.0000multiplexer slope coefficient	1.0000fibre end	0.00T internal ref (°C)	27.17T ext. ref 1 (°C)	10.93T ext. ref 2 (°C)	21.56length (m)	temperature (°C)	Stokes	anti-Stokes-747.200	-200.000	-0.001	0.009
-746.185	54.028	-0.172	0.166
-745.171	-81.113	0.060	-0.020
-744.156	-200.000	0.067	0.628
-743.142	-21.301	-0.411	-0.252
-742.127	81.380	-0.073	0.079
-741.112	37.641	0.199	-0.177
-740.098	15.521	0.148	-0.117
-739.083	-173.794	-0.171	0.005
-738.069	-91.516	-0.092	0.026
-737.054	-200.000	-0.011	0.104
-736.039	-45.348	-0.076	-0.038
-735.025	-200.000	-0.028	0.244
-734.010	-85.479	-0.217	0.068
-732.996	24.356	-0.068	0.056
-731.981	45.030	0.024	-0.022
-730.966	-200.000	-0.002	0.098
-729.952	114.982	-0.060	-0.073
-728.937	-200.000	-0.030	-0.263
-727.923	189.018	-0.120	-0.180
-726.908	66.499	0.146	0.149
-725.894	-70.356	-0.327	-0.125
-724.879	-200.000	-0.032	-0.150
-723.864	-134.508	-0.132	0.016
-722.850	128.830	-0.065	0.083
-721.835	-200.000	0.034	0.286
-720.821	800.000	0.092	-0.380
-719.806	9.588	-0.198	0.150
-718.791	-200.000	0.030	-0.277
-717.777	-79.021	0.321	-0.110
-716.762	-23.657	0.036	-0.021
-715.748	-200.000	-0.074	-0.395
-714.733	281.714	0.120	0.216
-713.718	-200.000	0.005	0.082
-712.704	35.442	-0.063	0.056
-711.689	-69.628	-0.331	0.127
-710.675	125.808	0.212	-0.269
-709.660	108.289	-0.085	0.102
-708.645	-200.000	0.001	0.093
-707.631	-200.000	0.068	-0.416
-706.616	-200.000	-0.058	-0.316
-705.602	16.139	0.111	0.087
-704.587	-64.038	0.057	-0.024
-703.572	18.507	-0.155	0.124
-702.558	-127.699	0.074	-0.011
-701.543	-147.599	0.182	-0.015
-700.529	98.791	-0.171	-0.198
-699.514	-3.658	0.100	-0.070
-698.499	-113.242	0.278	0.055
-697.485	561.107	0.063	-0.153
-696.470	-49.942	0.161	-0.076
-695.456	70.724	0.107	-0.111
-694.441	10.158	0.202	-0.154
-693.426	-68.878	0.363	0.140
-692.412	781.959	0.090	0.246
-691.397	-35.891	-0.146	0.079
-690.383	-200.000	0.017	0.171
-689.368	6.004	0.235	0.174
-688.354	-4.243	-0.151	0.105
-687.339	-171.550	-0.052	-0.002
-686.324	-99.068	-0.130	-0.033
-685.310	-200.000	0.055	-0.439
-684.295	-173.783	-0.106	0.003
-683.281	227.644	-0.028	-0.045
-682.266	-200.000	0.019	0.086
-681.251	518.597	-0.124	0.290
-680.237	-157.247	-0.175	-0.011
-679.222	109.380	0.106	0.127
-678.208	-85.301	-0.317	-0.099
-677.193	-99.558	-0.198	0.050
-676.178	-114.724	0.176	0.034
-675.164	-105.094	-0.339	-0.078
-674.149	227.463	-0.097	-0.158
-673.135	24.219	0.126	-0.104
-672.120	248.666	0.054	-0.092
-671.105	424.930	-0.087	-0.187
-670.091	127.394	-0.167	-0.212
-669.076	800.000	-0.080	-0.311
-668.062	-36.413	0.225	0.121
-667.047	-24.955	-0.227	0.135
-666.032	-200.000	0.017	-0.189
-665.018	-200.000	0.032	-0.209
-664.003	-200.000	-0.020	-0.137
-662.989	188.284	0.092	-0.137
-661.974	104.881	-0.085	0.101
-660.959	-173.999	-0.461	0.014
-659.945	-200.000	0.020	-0.106
-658.930	800.000	-0.028	-0.092
-657.916	-44.248	-0.081	-0.041
-656.901	87.051	0.167	-0.185
-655.886	156.861	0.103	-0.142
-654.872	-200.000	-0.073	0.329
-653.857	48.161	0.205	-0.192
-652.843	-154.777	-0.257	-0.017
-651.828	-24.696	-0.221	0.132
-650.814	-27.670	-0.138	-0.080
-649.799	504.298	0.151	0.351
-648.784	-65.022	0.032	0.013
-647.770	-84.317	-0.152	-0.048
-646.755	800.000	0.053	0.159
-645.741	-200.000	-0.011	-0.113
-644.726	800.000	-0.126	-0.359
-643.711	-184.580	0.171	-0.003
-642.697	-55.332	0.083	-0.037
-641.682	800.000	-0.080	0.313
-640.668	-99.855	-0.141	-0.035
-639.653	800.000	-0.062	-0.254
-638.638	-87.304	-0.430	0.131
-637.624	153.950	0.050	-0.068
-636.609	-138.262	-0.014	0.002
-635.595	-18.663	0.164	0.102
-634.580	139.097	0.224	0.294
-633.565	153.393	-0.202	-0.276
-632.551	301.949	-0.116	-0.215
-631.536	-200.000	-0.002	-0.194
-630.522	-118.551	-0.133	-0.024
-629.507	800.000	-0.063	-0.204
-628.492	800.000	0.048	0.139
-627.478	59.715	-0.153	0.151
-626.463	-4.195	0.357	-0.247
-625.449	-161.536	-0.181	-0.009
-624.434	-126.211	-0.218	0.033
-623.419	800.000	0.093	-0.267
-622.405	-200.000	-0.026	0.340
-621.390	396.570	-0.136	-0.283
-620.376	8.891	0.280	0.211
-619.361	-32.379	-0.330	-0.184
-618.346	-200.000	0.039	0.251
-617.332	125.788	-0.130	0.163
-616.317	-200.000	0.009	-0.164
-615.303	-200.000	0.018	0.122
-614.288	-200.000	0.017	0.129
-613.273	167.071	-0.111	-0.158
-612.259	800.000	-0.072	0.208
-611.244	167.453	0.056	-0.080
-610.230	146.339	-0.036	0.048
-609.215	136.979	0.181	-0.237
-608.201	345.574	0.192	-0.377
-607.186	-200.000	0.054	-0.461
-606.171	-74.616	-0.412	-0.148
-605.157	-95.577	-0.450	-0.120
-604.142	-200.000	-0.018	-0.203
-603.128	-7.622	-0.169	-0.114
-602.113	-128.320	-0.173	0.025
-601.098	154.700	-0.125	0.171
-600.084	800.000	0.070	-0.234
-599.069	-57.587	0.301	0.132
-598.055	-200.000	-0.024	-0.205
-597.040	-13.168	-0.175	-0.114
-596.025	1.975	-0.167	0.120
-595.011	281.628	0.138	0.247
-593.996	47.985	0.294	0.275
-592.982	-47.921	-0.078	0.038
-591.967	800.000	-0.054	-0.216
-590.952	-19.590	-0.049	0.030
-589.938	3.185	0.167	-0.121
-588.923	-23.642	-0.297	-0.177
-587.909	139.180	-0.210	-0.276
-586.894	90.728	0.232	0.259
-585.879	800.000	0.050	-0.184
-584.865	800.000	-0.125	-0.389
-583.850	-56.589	0.249	-0.110
-582.836	-200.000	-0.051	0.346
-581.821	129.640	-0.038	-0.048
-580.806	157.299	0.036	-0.049
-579.792	-75.590	-0.268	0.095
-578.777	-115.759	-0.042	0.008
-577.763	-121.516	-0.141	0.023
-576.748	-47.728	0.259	0.125
-575.733	49.309	0.118	0.111
-574.719	-106.421	0.318	-0.071
-573.704	-42.819	-0.313	-0.159
-572.690	31.993	0.268	-0.230
-571.675	-90.781	0.168	0.048
-570.661	164.776	0.093	0.131
-569.646	36.329	0.079	0.069
-568.631	-106.823	0.064	-0.014
-567.617	-200.000	0.041	0.202
-566.602	-200.000	-0.014	-0.121
-565.588	-118.530	-0.249	-0.044
-564.573	-166.655	-0.067	-0.003
-563.558	254.055	0.327	0.557
-562.544	-126.211	-0.205	-0.031
-561.529	29.977	-0.163	-0.138
-560.515	-128.224	0.294	0.042
-559.500	-125.388	-0.135	-0.021
-558.485	658.040	0.036	-0.091
-557.471	-200.000	-0.070	-0.482
-556.456	381.730	-0.081	-0.166
-555.442	-101.309	-0.365	0.089
-554.427	-200.000	0.040	0.328
-553.412	-52.343	-0.312	-0.144
-552.398	-0.510	-0.254	-0.180
-551.383	135.164	0.162	-0.209
-550.369	142.778	0.111	0.148
-549.354	-184.907	0.069	0.001
-548.339	800.000	-0.101	0.437
-547.325	-200.000	-0.078	0.430
-546.310	800.000	-0.039	0.157
-545.296	776.950	0.126	-0.343
-544.281	138.063	-0.023	0.030
-543.266	-200.000	0.030	0.276
-542.252	-138.414	-0.116	-0.013
-541.237	800.000	-0.086	-0.345
-540.223	-115.409	-0.163	0.031
-539.208	29.484	0.136	0.115
-538.193	-200.000	0.016	0.213
-537.179	205.330	0.268	-0.415
-536.164	-61.423	0.150	-0.063
-535.150	-134.204	-0.323	-0.040
-534.135	445.497	-0.189	-0.413
-533.121	49.151	0.273	0.256
-532.106	22.367	-0.377	-0.307
-531.091	-37.080	-0.295	0.157
-530.077	-94.343	-0.454	-0.123
-529.062	513.809	-0.025	0.057
-528.048	-200.000	-0.022	-0.115
-527.033	-139.916	-0.477	0.050
-526.018	125.541	-0.113	0.142
-525.004	-15.179	-0.149	-0.095
-523.989	0.270	0.251	-0.178
-522.975	376.871	0.155	-0.314
-521.960	-88.808	-0.199	0.059
-520.945	293.625	-0.034	0.061
-519.931	-200.000	0.072	-0.367
-518.916	-30.772	-0.043	0.024
-517.902	-126.637	0.141	0.021
-516.887	-114.232	0.243	0.047
-515.872	-95.677	-0.147	-0.039
-514.858	199.371	0.152	-0.231
-513.843	-200.000	0.003	-0.191
-512.829	71.881	0.136	-0.141
-511.814	223.678	0.102	0.163
-510.799	58.892	0.184	-0.180
-509.785	-200.000	-0.018	0.320
-508.770	-115.352	-0.200	-0.037
-507.756	-133.975	0.110	-0.014
-506.741	67.151	-0.139	-0.141
-505.726	-200.000	0.082	0.454
-504.712	800.000	0.057	-0.176
-503.697	314.238	0.195	-0.365
-502.683	-34.638	-0.030	-0.016
-501.668	-200.000	0.074	-0.497
-500.653	-74.562	0.043	-0.015
-499.639	110.699	0.184	-0.220
-498.624	-29.142	0.339	-0.193
-497.610	506.450	-0.043	-0.099
-496.595	82.870	0.152	-0.164
-495.581	800.000	-0.047	-0.151
-494.566	223.569	-0.097	-0.155
-493.551	-106.787	0.086	-0.019
-492.537	48.452	-0.112	0.104
-491.522	-163.578	-0.342	0.016
-490.508	-8.498	-0.117	-0.078
-489.493	-42.574	-0.302	-0.153
-488.478	28.008	-0.174	-0.146
-487.464	-200.000	0.005	0.220
-486.449	172.445	0.200	0.286
-485.435	-84.391	0.079	0.025
-484.420	5.051	-0.113	-0.082
-483.405	-100.720	0.247	0.061
-482.391	-108.358	-0.316	0.068
-481.376	50.503	-0.119	0.112
-480.362	221.321	0.132	0.211
-479.347	-200.000	0.006	-0.120
-478.332	-54.041	0.126	0.057
-477.318	-86.301	0.356	0.109
-476.303	-148.793	-0.217	-0.017
-475.289	-59.164	-0.168	0.072
-474.274	269.549	0.144	0.250
-473.259	580.560	0.121	-0.296
-472.245	-107.776	-0.207	-0.045
-471.230	-200.000	0.062	0.307
-470.216	-200.000	-0.035	0.223
-469.201	-145.929	-0.109	-0.010
-468.186	-36.803	0.225	0.120
-467.172	304.641	0.089	-0.164
-466.157	5.906	-0.165	0.122
-465.143	-14.834	0.189	-0.121
-464.128	-28.752	-0.153	-0.087
-463.113	416.999	-0.078	0.166
-462.099	-200.000	-0.004	-0.022
-461.084	65.952	-0.101	0.102
-460.070	-63.840	0.074	-0.030
-459.055	37.299	0.247	0.217
-458.040	-22.461	-0.291	-0.175
-457.026	-115.781	0.243	-0.045
-456.011	-98.645	0.076	0.019
-454.997	-105.454	0.143	0.032
-453.982	375.484	-0.067	-0.136
-452.968	-75.109	-0.161	-0.057
-451.953	223.756	0.106	0.169
-450.938	-119.798	0.300	0.051
-449.924	25.796	0.099	-0.082
-448.909	311.554	-0.102	0.190
-447.895	96.814	0.084	0.095
-446.880	-104.565	-0.452	-0.104
-445.865	229.016	-0.172	-0.279
-444.851	72.558	0.147	0.152
-443.836	85.739	-0.111	-0.121
-442.822	-23.501	0.091	0.054
-441.807	0.075	-0.174	-0.123
-440.792	800.000	0.017	-0.055
-439.778	-200.000	-0.001	-0.077
-438.763	-200.000	0.026	0.232
-437.749	-200.000	-0.065	-0.376
-436.734	800.000	-0.002	-0.010
-435.719	-15.997	0.169	-0.107
-434.705	87.339	0.081	-0.089
-433.690	241.234	-0.033	0.055
-432.676	-200.000	0.004	0.134
-431.661	21.836	-0.050	-0.040
-430.646	-46.589	-0.064	0.031
-429.632	-68.528	0.145	-0.056
-428.617	118.953	-0.068	0.083
-427.603	-75.613	-0.131	0.046
-426.588	-184.828	-0.288	-0.005
-425.573	138.376	-0.297	0.387
-424.559	800.000	0.062	0.172
-423.544	31.650	0.049	0.042
-422.530	800.000	0.049	-0.195
-421.515	-117.885	-0.296	0.053
-420.500	-10.491	-0.165	-0.108
-419.486	571.943	-0.086	0.209
-418.471	-96.794	-0.391	-0.102
-417.457	-20.064	-0.025	0.015
-416.442	-38.204	0.426	-0.224
-415.428	-9.908	0.111	-0.074
-414.413	800.000	0.048	-0.168
-413.398	800.000	-0.093	0.323
-412.384	133.075	-0.168	0.215
-411.369	800.000	0.077	-0.214
-410.355	-11.390	-0.258	0.168
-409.340	-93.006	0.294	0.081
-408.325	-200.000	-0.000	-0.223
-407.311	-200.000	-0.055	-0.366
-406.296	134.520	0.268	-0.344
-405.282	-120.974	-0.253	-0.042
-404.267	187.726	0.186	0.275
-403.252	-118.784	0.180	-0.031
-402.238	800.000	-0.045	-0.142
-401.223	82.892	0.232	-0.250
-400.209	-200.000	-0.001	0.107
-399.194	-200.000	0.038	0.235
-398.179	30.468	0.173	0.147
-397.165	-200.000	0.000	-0.135
-396.150	-87.114	0.071	0.021
-395.136	45.675	0.253	0.231
-394.121	-200.000	0.013	0.258
-393.106	220.442	-0.239	-0.379
-392.092	129.426	-0.162	0.205
-391.077	148.089	0.098	0.131
-390.063	456.757	-0.138	0.304
-389.048	-32.816	0.386	-0.213
-388.033	-70.007	0.342	-0.129
-387.019	396.428	-0.089	0.184
-386.004	385.748	-0.102	0.207
-384.990	-135.911	-0.256	0.030
-383.975	728.634	0.078	0.206
-382.960	4.264	0.165	0.120
-381.946	31.848	-0.175	0.149
-380.931	-21.428	-0.112	0.068
-379.917	-87.458	0.142	-0.043
-378.902	203.036	-0.274	-0.419
-377.888	-58.258	0.392	0.169
-376.873	237.756	0.115	0.188
-375.858	-200.000	0.060	0.347
-374.844	55.976	-0.256	-0.246
-373.829	-154.686	0.223	-0.015
-372.815	-200.000	-0.088	0.395
-371.800	800.000	-0.112	-0.360
-370.785	-89.168	0.125	-0.036
-369.771	-69.991	-0.257	-0.097
-368.756	286.921	-0.128	-0.230
-367.742	-76.088	-0.299	-0.104
-366.727	-184.048	0.146	0.002
-365.712	679.665	-0.088	-0.226
-364.698	41.584	-0.052	-0.047
-363.683	800.000	0.053	0.167
-362.669	800.000	0.033	0.098
-361.654	-198.875	-0.318	-0.002
-360.639	187.479	-0.026	0.038
-359.625	84.426	-0.113	-0.122
-358.610	-200.000	0.011	0.089
-357.596	800.000	0.076	-0.282
-356.581	27.289	-0.179	-0.148
-355.566	488.612	-0.015	-0.035
-354.552	50.762	0.092	0.086
-353.537	-45.708	-0.135	-0.066
-352.523	-100.406	0.157	-0.038
-351.508	-200.000	-0.003	-0.207
-350.493	-60.935	-0.047	-0.020
-349.479	-200.000	-0.009	-0.084
-348.464	-98.627	0.131	-0.033
-347.450	-200.000	0.074	0.436
-346.435	-107.855	0.265	0.057
-345.420	706.350	-0.122	0.318
-344.406	-51.325	0.275	0.127
-343.391	143.231	-0.074	0.097
-342.377	392.875	0.038	-0.078
-341.362	100.023	-0.259	-0.296
-340.348	-6.993	-0.177	-0.119
-339.333	-69.257	0.099	0.038
-338.318	-200.000	-0.020	0.285
-337.304	64.544	-0.355	0.354
-336.289	22.601	0.036	-0.029
-335.275	-39.037	-0.204	-0.106
-334.260	-108.806	0.446	-0.094
-333.245	-88.339	-0.135	0.040
-332.231	-142.345	0.213	0.021
-331.216	-200.000	0.008	0.385
-330.202	-115.493	0.221	-0.041
-329.187	-200.000	-0.031	-0.186
-328.172	-200.000	-0.188	0.000
-327.158	-200.000	0.111	0.607
-326.143	-62.431	-0.096	0.039
-325.129	800.000	0.080	0.283
-324.114	-138.824	0.183	-0.020
-323.099	800.000	-0.103	-0.301
-322.085	-94.041	0.035	0.009
-321.070	-79.476	0.456	-0.152
-320.056	800.000	-0.046	-0.146
-319.041	160.624	0.175	0.241
-318.026	-135.431	0.208	-0.025
-317.012	517.989	-0.064	-0.148
-315.997	1.864	0.208	-0.148
-314.983	-200.000	0.014	-0.586
-313.968	42.134	-0.285	0.256
-312.953	-200.000	0.064	0.511
-311.939	-115.157	-0.122	-0.023
-310.924	-200.000	-0.030	-0.175
-309.910	98.443	0.087	-0.099
-308.895	94.148	-0.164	-0.184
-307.880	-66.677	-0.194	-0.076
-306.866	-64.874	-0.062	-0.025
-305.851	26.693	0.200	-0.165
-304.837	-69.200	0.145	-0.055
-303.822	-103.737	-0.237	-0.055
-302.807	-29.824	-0.217	0.122
-301.793	-200.000	0.058	-0.254
-300.778	-164.328	0.270	0.012
-299.764	11.616	0.147	-0.111
-298.749	-46.367	0.094	-0.045
-297.735	173.641	0.088	0.125
-296.720	-172.433	0.263	-0.008
-295.705	-161.772	-0.308	0.015
-294.691	-130.543	0.376	-0.050
-293.676	8.771	0.131	0.098
-292.662	131.508	0.049	-0.062
-291.647	-25.399	-0.147	-0.086
-290.632	195.931	0.175	-0.263
-289.618	661.241	0.067	0.171
-288.603	-0.673	-0.166	0.116
-287.589	-16.073	0.098	0.061
-286.574	14.249	0.069	-0.053
-285.559	-170.635	-0.418	0.014
-284.545	-135.979	0.170	-0.020
-283.530	79.250	0.202	0.214
-282.516	521.822	0.053	0.122
-281.501	-39.824	0.116	-0.060
-280.486	-142.774	-0.274	-0.026
-279.472	-5.401	-0.158	-0.107
-278.457	44.934	-0.053	-0.048
-277.443	713.903	0.206	0.539
-276.428	-166.536	0.466	0.019
-275.413	77.721	0.091	0.095
-274.399	-200.000	0.034	0.171
-273.384	-19.030	-0.126	0.077
-272.370	800.000	-0.048	-0.160
-271.355	-59.778	0.191	0.081
-270.340	81.878	-0.121	-0.130
-269.326	-200.000	-0.010	-0.071
-268.311	194.269	-0.246	0.368
-267.297	722.462	-0.056	0.146
-266.282	-74.302	0.190	0.068
-265.267	800.000	-0.027	-0.105
-264.253	30.476	0.099	0.083
-263.238	800.000	0.100	0.365
-262.224	87.957	-0.059	0.065
-261.209	-110.240	0.094	-0.019
-260.195	-81.876	0.194	0.063
-259.180	33.712	-0.191	0.163
-258.165	-200.000	-0.026	0.156
-257.151	119.939	-0.244	-0.298
-256.136	-200.000	-0.039	-0.215
-255.122	63.825	0.078	0.077
-254.107	11.751	-0.109	-0.082
-253.092	-44.273	0.332	0.164
-252.078	42.756	0.104	0.093
-251.063	-200.000	0.018	0.379
-250.049	40.349	-0.192	-0.170
-249.034	148.791	0.061	-0.082
-248.019	7.130	-0.065	0.048
-247.005	-200.000	-0.000	0.448
-245.990	-87.544	-0.037	-0.011
-244.976	-200.000	-0.008	-0.165
-243.961	-72.806	0.031	-0.011
-242.946	-69.483	0.182	-0.069
-241.932	-76.304	-0.358	0.124
-240.917	800.000	-0.062	-0.229
-239.903	-0.869	0.204	-0.142
-238.888	18.835	-0.046	0.036
-237.873	-31.251	0.238	-0.132
-236.859	-79.910	-0.164	0.054
-235.844	68.758	0.159	-0.161
-234.830	800.000	0.056	-0.197
-233.815	-200.000	0.044	0.219
-232.800	-200.000	-0.015	0.227
-231.786	42.011	-0.145	0.129
-230.771	6.355	-0.136	-0.100
-229.757	173.390	-0.270	0.383
-228.742	-200.000	0.025	0.231
-227.727	86.082	0.096	0.104
-226.713	497.268	-0.145	-0.329
-225.698	-127.121	0.198	-0.029
-224.684	800.000	0.108	-0.292
-223.669	-14.386	0.191	-0.121
-222.655	566.397	0.086	-0.205
-221.640	428.248	0.060	-0.128
-220.625	433.816	0.090	-0.191
-219.611	330.329	-0.163	-0.308
-218.596	569.568	0.106	-0.253
-217.582	534.000	-0.040	0.092
-216.567	-181.964	0.297	0.006
-215.552	-200.000	0.029	0.170
-214.538	116.781	0.045	0.054
-213.523	-69.524	0.283	0.107
-212.509	-106.193	-0.190	0.042
-211.494	424.571	0.039	0.082
-210.479	-200.000	0.017	-0.264
-209.465	32.104	-0.447	-0.379
-208.450	-15.235	0.230	0.144
-207.436	-16.480	0.218	0.136
-206.421	-133.848	-0.106	0.013
-205.406	23.326	0.161	-0.130
-204.392	800.000	0.066	-0.181
-203.377	-200.000	-0.018	-0.092
-202.363	-140.710	-0.140	-0.014
-201.348	-17.042	-0.147	0.091
-200.333	-90.201	-0.064	0.018
-199.319	-166.728	0.103	0.004
-198.304	-66.156	0.038	0.015
-197.290	4.565	0.102	-0.074
-196.275	-135.723	0.126	-0.015
-195.260	-4.651	-0.326	0.221
-194.246	-200.000	0.019	0.096
-193.231	-155.707	-0.129	-0.008
-192.217	-200.000	0.035	0.273
-191.202	-200.000	-0.019	0.148
-190.187	800.000	0.072	0.276
-189.173	-99.072	0.263	-0.065
-188.158	358.657	0.046	-0.091
-187.144	-65.586	-0.140	-0.055
-186.129	149.403	-0.023	0.030
-185.114	169.243	-0.143	-0.201
-184.100	-169.558	-0.123	-0.004
-183.085	-114.267	0.267	0.051
-182.071	-200.000	-0.043	0.315
-181.056	97.674	0.228	0.258
-180.042	-107.649	-0.162	-0.035
-179.027	-200.000	-0.001	-0.428
-178.012	105.653	-0.128	0.148
-176.998	180.325	-0.037	-0.054
-175.983	800.000	0.017	0.049
-174.969	49.581	0.149	-0.138
-173.954	-26.686	0.274	0.158
-172.939	180.017	0.126	-0.182
-171.925	800.000	-0.107	0.333
-170.910	-83.304	0.276	-0.087
-169.896	274.308	-0.095	0.166
-168.881	-134.421	0.193	0.023
-167.866	26.431	0.058	-0.048
-166.852	800.000	-0.022	0.061
-165.837	-200.000	0.021	0.342
-164.823	-200.000	-0.021	-0.115
-163.808	-31.055	0.118	-0.065
-162.793	215.403	-0.190	0.296
-161.779	321.084	0.071	0.132
-160.764	-200.000	0.035	0.278
-159.750	0.805	0.277	0.195
-158.735	-61.602	0.196	0.081
-157.720	-5.724	0.197	-0.132
-156.706	-80.266	-0.130	0.043
-155.691	410.877	-0.072	0.150
-154.677	28.106	-0.244	0.202
-153.662	181.255	0.160	0.231
-152.647	-200.000	-0.031	0.151
-151.633	-101.516	-0.185	-0.044
-150.618	190.474	0.120	0.177
-149.604	800.000	0.065	0.249
-148.589	-99.644	0.405	-0.100
-147.574	-200.000	-0.009	-0.131
-146.560	-200.000	-0.018	-0.125
-145.545	161.142	-0.153	0.210
-144.531	-200.000	0.005	-0.045
-143.516	91.267	-0.062	-0.068
-142.502	-162.657	0.174	-0.008
-141.487	-39.139	-0.345	0.178
-140.472	64.385	0.047	-0.047
-139.458	-200.000	-0.016	0.305
-138.443	-63.377	0.062	-0.025
-137.429	185.991	0.059	-0.086
-136.414	-142.366	0.262	-0.025
-135.399	59.197	0.192	-0.185
-134.385	11.670	0.073	0.055
-133.370	-134.871	0.178	-0.021
-132.356	65.811	0.114	-0.114
-131.341	553.231	-0.053	-0.125
-130.326	348.943	-0.008	0.016
-129.312	128.647	-0.138	-0.172
-128.297	89.556	-0.150	-0.164
-127.283	-76.309	-0.036	-0.012
-126.268	-32.401	0.222	-0.121
-125.253	434.588	0.092	-0.195
-124.239	-62.019	0.306	-0.125
-123.224	591.393	-0.212	0.513
-122.210	800.000	-0.071	0.250
