DTS Sentinel unit serial number:	SN413079Multiplexer serial number:	ORYXHardware model number:	OX4-SRSoftware version number:	ORYX F/W v4.00 Oryx Data Collector v3.7.2.0data status	okinstallation	princeton_trtdifferential loss correction	single-endedforward channel	channel 3reverse channel	N/Adate	2019/09/10time	15:58:11forward acquisition time	60.00reverse acquisition time	0.00gamma	496.2192k internal	0.2298k external	0.2298temperature offset calibration	0.9906default loss term (dB/km)	0.3790temperature slope calibration	1.0000multiplexer offset coefficient	1.0000multiplexer slope coefficient	1.0000fibre end	0.00T internal ref (°C)	38.19T ext. ref 1 (°C)	-0.26T ext. ref 2 (°C)	31.80length (m)	temperature (°C)	Stokes	anti-Stokes-747.200	800.000	-0.114	0.327
-746.185	569.908	0.142	0.353
-745.171	800.000	0.041	0.118
-744.156	-132.910	-0.271	0.035
-743.142	321.234	0.151	-0.293
-742.127	-200.000	-0.013	0.514
-741.112	800.000	-0.013	-0.051
-740.098	155.367	0.167	0.235
-739.083	31.792	-0.014	0.012
-738.069	800.000	0.138	0.430
-737.054	-200.000	-0.018	-0.099
-736.039	27.618	-0.323	-0.278
-735.025	18.910	-0.138	0.113
-734.010	-70.613	-0.132	0.051
-732.996	-124.528	-0.204	-0.032
-731.981	-155.300	0.117	0.008
-730.966	-200.000	0.002	-0.262
-729.952	147.579	-0.130	-0.178
-728.937	800.000	-0.078	0.231
-727.923	-122.629	-0.076	0.013
-726.908	117.549	-0.300	0.377
-725.894	-143.119	-0.379	-0.037
-724.879	-200.000	-0.044	-0.326
-723.864	30.218	0.054	-0.047
-722.850	-5.462	-0.321	-0.225
-721.835	159.891	-0.159	-0.226
-720.821	253.206	0.122	-0.213
-719.806	800.000	-0.083	-0.260
-718.791	350.353	0.113	0.228
-717.777	43.182	0.139	0.130
-716.762	-17.546	0.279	-0.179
-715.748	-200.000	0.027	-0.489
-714.733	29.528	-0.119	0.103
-713.718	0.399	-0.146	0.106
-712.704	-113.507	-0.192	-0.038
-711.689	99.620	0.083	-0.098
-710.675	293.857	0.126	0.235
-709.660	-200.000	0.023	0.161
-708.645	118.605	0.210	-0.264
-707.631	-97.958	0.091	-0.024
-706.616	-200.000	-0.005	0.025
-705.602	-200.000	-0.004	0.047
-704.587	409.560	-0.251	0.542
-703.572	-17.941	0.156	-0.100
-702.558	-79.905	0.090	-0.031
-701.543	-28.827	-0.194	0.114
-700.529	-86.209	0.039	0.012
-699.514	-150.715	-0.118	0.009
-698.499	-122.289	0.453	-0.075
-697.485	-200.000	0.004	-0.222
-696.470	82.267	-0.040	-0.044
-695.456	-200.000	0.083	-0.388
-694.441	800.000	0.123	0.396
-693.426	-200.000	0.026	0.403
-692.412	-64.888	0.087	0.036
-691.397	-200.000	-0.009	-0.196
-690.383	-136.452	-0.208	-0.025
-689.368	153.077	-0.197	0.274
-688.354	79.214	-0.143	0.157
-687.339	260.219	-0.181	-0.320
-686.324	-200.000	0.010	-0.401
-685.310	103.955	-0.042	0.050
-684.295	-95.564	-0.198	0.054
-683.281	800.000	0.026	0.113
-682.266	-101.637	-0.326	0.080
-681.251	-0.800	0.138	0.100
-680.237	800.000	0.039	0.113
-679.222	220.382	0.087	-0.142
-678.208	-53.452	0.223	0.104
-677.193	-75.850	0.074	0.027
-676.178	-168.386	-0.120	0.005
-675.164	225.299	-0.028	-0.046
-674.149	657.826	0.023	0.059
-673.135	17.631	0.190	0.154
-672.120	-66.400	0.028	-0.011
-671.105	-134.984	-0.132	0.016
-670.091	-200.000	0.009	-0.217
-669.076	277.615	0.125	-0.227
-668.062	-58.002	-0.180	-0.080
-667.047	800.000	-0.074	0.321
-666.032	-44.087	-0.104	-0.053
-665.018	333.739	-0.138	-0.272
-664.003	-188.602	0.373	0.005
-662.989	-1.684	-0.294	0.211
-661.974	143.529	-0.018	-0.025
-660.959	32.075	0.107	0.094
-659.945	-154.280	-0.289	0.020
-658.930	533.566	-0.051	-0.123
-657.916	-200.000	0.057	0.409
-656.901	-169.985	0.239	0.009
-655.886	-200.000	-0.005	0.039
-654.872	85.123	0.128	-0.143
-653.857	442.890	-0.030	0.067
-652.843	-200.000	0.050	-0.228
-651.828	-200.000	-0.045	-0.283
-650.814	-43.103	0.184	-0.095
-649.799	493.077	0.193	-0.451
-648.784	800.000	0.186	-0.551
-647.770	577.065	0.150	-0.373
-646.755	-1.641	0.055	0.040
-645.741	800.000	0.008	0.031
-644.726	-200.000	0.017	0.103
-643.711	203.129	0.012	0.018
-642.697	800.000	0.061	0.193
-641.682	-101.634	0.264	0.065
-640.668	-93.561	-0.194	-0.055
-639.653	157.963	0.156	0.220
-638.638	-129.843	-0.167	0.023
-637.624	-116.874	0.344	0.064
-636.609	414.248	-0.146	0.316
-635.595	-108.163	0.299	-0.066
-634.580	-22.061	0.246	-0.152
-633.565	-2.823	0.261	-0.186
-632.551	54.159	0.120	-0.118
-631.536	-134.254	0.310	-0.039
-630.522	84.965	0.083	-0.093
-629.507	-62.706	-0.200	0.084
-628.492	147.278	0.151	0.207
-627.478	-126.414	-0.276	0.042
-626.463	-200.000	-0.003	0.048
-625.449	137.624	-0.049	0.065
-624.434	-87.767	0.252	-0.077
-623.419	-200.000	0.021	0.229
-622.405	271.764	0.067	0.120
-621.390	6.608	-0.166	0.126
-620.376	41.202	-0.073	-0.067
-619.361	-75.625	-0.316	-0.114
-618.346	-200.000	0.023	-0.211
-617.332	-66.857	-0.117	0.047
-616.317	-139.161	-0.313	0.034
-615.303	-62.556	0.386	0.163
-614.288	-10.656	0.323	-0.217
-613.273	428.425	-0.046	-0.101
-612.259	-25.944	0.092	0.055
-611.244	800.000	-0.076	0.215
-610.230	-93.982	-0.179	0.050
-609.215	173.192	0.160	-0.234
-608.201	-28.598	-0.436	-0.255
-607.186	-78.459	-0.261	-0.091
-606.171	199.834	0.138	0.216
-605.157	-200.000	0.013	0.098
-604.142	192.707	0.190	0.292
-603.128	-19.277	0.281	0.177
-602.113	-63.828	0.114	0.047
-601.098	-94.365	-0.235	0.065
-600.084	-200.000	-0.017	0.188
-599.069	-200.000	0.031	0.155
-598.055	-157.336	-0.105	-0.006
-597.040	-82.302	-0.233	-0.077
-596.025	47.458	-0.070	-0.066
-595.011	487.881	0.145	0.335
-593.996	-75.084	0.397	-0.144
-592.982	273.054	0.125	0.224
-591.967	448.881	-0.007	-0.015
-590.952	-200.000	0.285	-0.001
-589.938	-175.806	0.194	-0.005
-588.923	96.281	0.071	-0.083
-587.909	-121.983	-0.375	-0.063
-586.894	-121.949	0.134	-0.022
-585.879	800.000	0.093	0.341
-584.865	72.205	0.184	-0.194
-583.850	800.000	0.046	-0.166
-582.836	800.000	-0.026	0.081
-581.821	785.781	-0.075	0.208
-580.806	-66.734	-0.063	0.025
-579.792	205.363	0.040	-0.063
-578.777	-101.020	-0.100	0.025
-577.763	202.341	0.055	-0.085
-576.748	171.668	-0.084	-0.123
-575.733	-85.686	-0.366	-0.115
-574.719	-89.513	-0.104	-0.031
-573.704	-131.182	-0.291	0.039
-572.690	-200.000	0.005	0.150
-571.675	75.640	-0.091	-0.098
-570.661	296.997	-0.085	0.157
-569.646	481.715	0.117	-0.268
-568.631	62.860	-0.159	0.161
-567.617	23.285	0.230	-0.192
-566.602	537.619	0.062	0.149
-565.588	-200.000	-0.023	-0.204
-564.573	-118.689	0.195	0.035
-563.558	-86.863	0.245	-0.076
-562.544	553.389	0.162	-0.395
-561.529	-126.032	-0.096	-0.015
-560.515	-32.242	-0.231	-0.131
-559.500	49.317	0.174	-0.166
-558.485	-162.227	0.282	-0.014
-557.471	-61.668	-0.284	0.121
-556.456	163.367	-0.156	0.222
-555.442	179.879	-0.215	0.320
-554.427	-15.702	-0.079	0.051
-553.412	18.588	-0.180	-0.146
-552.398	-176.372	-0.049	0.001
-551.383	-98.189	-0.183	0.048
-550.369	-143.377	-0.099	0.010
-549.354	-200.000	0.010	-0.056
-548.339	-11.148	-0.071	-0.048
-547.325	800.000	-0.022	-0.063
-546.310	800.000	-0.108	0.336
-545.296	179.728	-0.316	-0.469
-544.281	65.527	-0.118	-0.121
-543.266	-107.340	-0.257	0.057
-542.252	800.000	-0.113	0.380
-541.237	-30.449	0.162	0.093
-540.223	-38.381	0.406	-0.217
-539.208	-80.856	-0.192	-0.064
-538.193	-200.000	0.010	-0.383
-537.179	268.995	-0.126	-0.223
-536.164	-109.992	0.068	-0.014
-535.150	-55.525	0.089	0.040
-534.135	125.587	-0.193	-0.247
-533.121	-131.578	0.024	0.003
-532.106	152.321	-0.132	0.182
-531.091	543.503	-0.081	-0.196
-530.077	-133.831	0.204	-0.026
-529.062	-117.988	0.320	-0.058
-528.048	395.783	-0.129	-0.274
-527.033	-7.446	0.225	-0.154
-526.018	-129.506	-0.341	0.048
-525.004	-116.231	-0.282	0.053
-523.989	106.198	0.119	0.143
-522.975	89.826	-0.117	0.132
-521.960	182.134	0.176	0.263
-520.945	-153.191	-0.441	-0.031
-519.931	-200.000	0.000	0.097
-518.916	-137.123	-0.146	-0.017
-517.902	75.968	-0.165	-0.177
-516.887	800.000	-0.023	-0.072
-515.872	782.532	0.129	-0.359
-514.858	-27.258	-0.210	0.124
-513.843	-93.834	-0.193	0.054
-512.829	-176.011	0.285	0.008
-511.814	232.795	0.074	0.123
-510.799	-72.029	0.132	0.050
-509.785	800.000	-0.098	0.290
-508.770	736.238	0.125	0.340
-507.756	-112.969	0.133	-0.027
-506.741	86.209	0.047	-0.052
-505.726	68.943	0.175	-0.182
-504.712	-126.947	-0.124	0.018
-503.697	800.000	-0.015	-0.056
-502.683	800.000	-0.023	-0.077
-501.668	-90.107	0.452	-0.133
-500.653	-51.159	0.081	0.038
-499.639	-43.153	-0.141	0.072
-498.624	484.551	-0.075	0.172
-497.610	-125.981	0.145	-0.022
-496.595	-13.078	0.150	-0.098
-495.581	-101.942	0.133	-0.032
-494.566	-58.993	0.450	-0.196
-493.551	-126.989	-0.110	0.016
-492.537	-134.077	0.183	0.023
-491.522	800.000	0.189	0.552
-490.508	-200.000	0.093	0.448
-489.493	-200.000	-0.021	0.137
-488.478	-200.000	-0.023	0.146
-487.464	-43.877	-0.306	0.156
-486.449	-115.584	0.123	-0.023
-485.435	-200.000	0.012	0.203
-484.420	380.629	-0.112	-0.231
-483.405	122.389	-0.258	-0.326
-482.391	-31.792	-0.252	-0.143
-481.376	-92.381	-0.414	0.118
-480.362	800.000	0.045	-0.161
-479.347	189.416	0.017	0.025
-478.332	-102.101	0.136	0.033
-477.318	-158.163	-0.260	0.015
-476.303	800.000	0.056	0.229
-475.289	-54.378	0.490	-0.225
-474.274	-200.000	0.007	-0.073
-473.259	364.022	-0.182	0.369
-472.245	258.677	0.138	-0.240
-471.230	-102.846	-0.331	0.079
-470.216	800.000	-0.181	0.598
-469.201	-27.623	-0.214	-0.126
-468.186	-30.592	0.127	0.073
-467.172	270.929	-0.254	0.451
-466.157	-38.404	0.081	0.043
-465.143	119.831	-0.121	0.151
-464.128	-99.935	-0.407	-0.103
-463.113	145.628	0.153	0.207
-462.099	-200.000	-0.044	-0.319
-461.084	118.146	-0.223	0.278
-460.070	-125.392	-0.262	0.040
-459.055	32.548	-0.269	-0.235
-458.040	668.345	0.119	-0.311
-457.026	43.332	0.230	-0.212
-456.011	-81.038	0.126	-0.042
-454.997	-34.040	0.360	0.200
-453.982	-97.791	-0.061	0.016
-452.968	314.730	0.132	-0.252
-451.953	5.797	-0.103	0.077
-450.938	-35.129	-0.293	0.161
-449.924	303.502	0.281	-0.525
-448.909	-109.171	0.467	0.100
-447.895	224.973	-0.231	0.377
-446.880	-90.064	0.248	0.073
-445.865	-64.456	0.090	-0.037
-444.851	800.000	0.063	-0.263
-443.836	68.045	0.105	-0.109
-442.822	-104.081	-0.295	0.069
-441.807	-142.303	-0.208	0.021
-440.792	-125.607	-0.264	-0.040
-439.778	-77.812	0.469	0.163
-438.763	508.619	-0.096	-0.224
-437.749	800.000	0.040	0.135
-436.734	-144.319	0.267	-0.025
-435.719	-53.072	0.143	-0.067
-434.705	-33.861	0.164	0.091
-433.690	131.069	0.117	0.151
-432.676	-200.000	0.057	0.276
-431.661	-103.639	-0.423	0.100
-430.646	-7.080	0.188	0.129
-429.632	112.604	0.068	0.083
-428.617	-126.993	0.254	-0.038
-427.603	49.395	-0.296	0.281
-426.588	-113.327	-0.116	-0.023
-425.573	262.438	-0.064	-0.112
-424.559	-72.657	0.174	-0.065
-423.544	-104.267	-0.108	-0.025
-422.530	59.514	0.092	-0.092
-421.515	-123.962	-0.264	0.042
-420.500	-29.420	-0.133	-0.077
-419.486	46.091	-0.101	0.094
-418.471	-100.318	0.265	-0.066
-417.457	-200.000	0.008	0.223
-416.442	-124.656	-0.105	-0.016
-415.428	24.413	0.216	-0.180
-414.413	-3.317	-0.359	0.252
-413.398	378.482	-0.060	-0.123
-412.384	3.293	-0.280	-0.205
-411.369	-145.238	0.246	-0.022
-410.355	-114.267	0.218	-0.042
-409.340	340.112	-0.074	0.145
-408.325	-134.947	-0.211	-0.026
-407.311	281.196	0.039	0.070
-406.296	-200.000	0.034	0.184
-405.282	19.079	-0.196	-0.159
-404.267	200.023	0.114	0.177
-403.252	800.000	0.032	-0.090
-402.238	476.682	0.067	0.152
-401.223	319.407	0.033	0.064
-400.209	32.988	0.047	0.041
-399.194	-183.996	-0.092	0.002
-398.179	614.387	0.141	-0.356
-397.165	-200.000	0.062	-0.298
-396.150	-131.097	-0.286	0.038
-395.136	29.086	-0.206	-0.176
-394.121	526.576	-0.105	0.248
-393.106	96.239	0.166	0.191
-392.092	24.907	-0.338	-0.283
-391.077	-23.377	-0.284	0.172
-390.063	-31.611	0.211	-0.119
-389.048	-24.455	0.129	0.077
-388.033	-66.034	-0.164	0.066
-387.019	-170.839	-0.286	0.010
-386.004	324.415	0.053	-0.103
-384.990	248.598	0.134	-0.229
-383.975	42.208	-0.087	0.080
-382.960	233.596	-0.105	0.175
-381.946	-177.942	-0.152	0.004
-380.931	-98.073	0.152	-0.040
-379.917	-54.051	-0.158	0.072
-378.902	-200.000	0.004	0.182
-377.888	-138.006	-0.130	0.015
-376.873	27.009	-0.092	-0.077
-375.858	-83.390	0.195	-0.063
-374.844	-143.182	0.330	0.032
-373.829	47.686	-0.221	-0.207
-372.815	-37.390	0.204	0.110
-371.800	-200.000	0.006	0.248
-370.785	-200.000	0.036	0.253
-369.771	-65.896	0.098	-0.039
-368.756	-200.000	0.008	-0.101
-367.742	-50.133	-0.469	-0.223
-366.727	123.675	-0.136	-0.172
-365.712	473.773	-0.052	-0.117
-364.698	-200.000	-0.001	0.188
-363.683	-35.465	0.173	0.095
-362.669	-82.205	0.389	-0.127
-361.654	-200.000	-0.006	-0.229
-360.639	-43.373	-0.387	0.197
-359.625	263.698	0.143	-0.249
-358.610	8.521	0.087	-0.066
-357.596	-106.128	0.030	-0.007
-356.581	-7.508	0.093	0.063
-355.566	-129.105	-0.148	-0.021
-354.552	-23.911	-0.143	-0.086
-353.537	113.175	0.134	-0.163
-352.523	-51.393	0.145	-0.068
-351.508	800.000	0.059	-0.168
-350.493	-57.282	0.154	0.068
-349.479	-200.000	0.024	-0.312
-348.464	-144.227	0.282	-0.026
-347.450	27.891	-0.185	-0.157
-346.435	18.152	0.116	0.093
-345.420	-200.000	0.024	0.208
-344.406	480.254	0.041	0.093
-343.391	-18.049	0.025	0.016
-342.377	-93.571	0.231	-0.064
-341.362	-9.631	-0.139	0.093
-340.348	-61.767	0.237	-0.100
-339.333	-45.981	0.193	-0.096
-338.318	-31.564	0.299	-0.169
-337.304	-200.000	-0.014	0.297
-336.289	101.501	-0.232	0.272
-335.275	-34.302	-0.050	0.027
-334.260	-162.649	0.086	-0.004
-333.245	312.414	-0.084	0.158
-332.231	-56.122	0.332	-0.148
-331.216	152.206	-0.059	-0.081
-330.202	-53.310	0.330	0.152
-329.187	68.047	0.107	-0.110
-328.172	45.188	0.196	-0.182
-327.158	40.886	0.133	-0.120
-326.143	-39.705	-0.308	0.162
-325.129	-131.391	0.391	-0.052
-324.114	-69.623	0.444	-0.171
-323.099	-200.000	-0.012	-0.241
-322.085	-28.416	-0.152	0.088
-321.070	13.785	-0.135	-0.105
-320.056	530.775	0.171	0.407
-319.041	-38.539	-0.368	0.195
-318.026	-122.244	0.233	0.038
-317.012	23.774	-0.265	0.220
-315.997	-200.000	0.032	0.236
-314.983	-91.727	-0.317	0.090
-313.968	-6.262	0.233	0.160
-312.953	-23.349	0.261	0.158
-311.939	800.000	0.076	0.224
-310.924	800.000	-0.055	-0.198
-309.910	53.439	0.106	0.102
-308.895	190.793	0.170	0.257
-307.880	-59.205	-0.321	-0.139
-306.866	-93.561	0.196	0.055
-305.851	-182.274	-0.218	-0.004
-304.837	800.000	-0.124	-0.423
-303.822	669.052	-0.028	-0.072
-302.807	-76.697	-0.178	0.063
-301.793	700.174	-0.146	0.386
-300.778	800.000	-0.037	-0.105
-299.764	800.000	-0.045	0.138
-298.749	120.573	0.211	-0.263
-297.735	90.839	-0.081	0.091
-296.720	-26.675	-0.173	-0.102
-295.705	-80.707	-0.151	-0.050
-294.691	-18.295	-0.237	-0.149
-293.676	800.000	0.014	-0.041
-292.662	2.000	-0.130	0.094
-291.647	-200.000	0.041	0.244
-290.632	357.649	0.066	0.132
-289.618	-76.821	0.130	-0.045
-288.603	-71.043	-0.211	0.079
-287.589	-25.223	0.190	0.113
-286.574	329.537	-0.048	0.094
-285.559	127.137	-0.130	-0.166
-284.545	800.000	0.020	-0.071
-283.530	215.285	0.093	-0.148
-282.516	189.397	0.143	-0.214
-281.501	-43.140	0.081	0.041
-280.486	-90.444	0.164	0.048
-279.472	-85.993	-0.214	0.066
-278.457	172.900	-0.161	-0.233
-277.443	-87.731	-0.171	0.052
-276.428	800.000	-0.009	-0.027
-275.413	29.707	0.040	-0.034
-274.399	-200.000	0.019	-0.177
-273.384	108.658	-0.158	-0.189
-272.370	378.282	-0.046	0.095
-271.355	77.011	-0.087	-0.092
-270.340	800.000	-0.108	-0.377
-269.326	-182.459	0.116	-0.002
-268.311	19.957	-0.221	-0.179
-267.297	-115.075	0.045	0.009
-266.282	78.103	0.323	0.346
-265.267	-78.354	-0.270	0.093
-264.253	174.428	0.117	-0.169
-263.238	-102.460	0.049	-0.012
-262.224	800.000	-0.064	0.261
-261.209	315.036	-0.109	-0.205
-260.195	-127.811	-0.258	-0.037
-259.180	-137.760	-0.101	0.011
-258.165	705.068	0.103	0.273
-257.151	-152.458	0.211	-0.015
-256.136	34.344	0.210	-0.184
-255.122	-34.814	-0.308	-0.169
-254.107	-64.167	0.398	0.163
-253.092	-48.565	0.191	-0.092
-252.078	24.298	-0.175	-0.145
-251.063	-118.263	-0.485	0.086
-250.049	33.919	0.100	0.087
-249.034	-3.086	0.123	-0.086
-248.019	93.501	-0.034	0.039
-247.005	522.778	0.151	0.356
-245.990	331.806	-0.095	-0.183
-244.976	670.411	0.013	-0.034
-243.961	-120.128	0.243	-0.042
-242.946	774.590	-0.063	0.173
-241.932	211.965	-0.095	0.151
-240.917	101.304	-0.081	0.095
-239.903	608.305	0.033	0.082
-238.888	-200.000	-0.010	-0.059
-237.873	173.566	0.166	-0.239
-236.859	23.539	-0.335	-0.276
-235.844	-4.349	-0.345	-0.239
-234.830	316.161	-0.071	0.134
-233.815	-80.582	0.335	0.112
-232.800	-109.534	0.161	0.034
-231.786	43.736	0.297	0.272
-230.771	-130.606	0.210	-0.028
-229.757	-186.835	-0.311	-0.004
-228.742	100.269	-0.056	-0.065
-227.727	-139.751	0.101	0.011
-226.713	-8.560	-0.203	0.137
-225.698	-127.602	0.028	0.004
-224.684	-34.750	0.151	0.083
-223.669	-56.522	-0.152	0.067
-222.655	167.827	0.095	0.135
-221.640	-34.803	0.175	-0.095
-220.625	-186.632	0.540	-0.008
-219.611	169.837	-0.176	0.251
-218.596	-200.000	0.019	-0.219
-217.582	-55.442	-0.159	-0.071
-216.567	14.990	-0.274	-0.214
-215.552	-198.414	-0.500	-0.003
-214.538	443.777	-0.019	0.042
-213.523	24.974	-0.108	-0.089
-212.509	-200.000	0.043	-0.306
-211.494	-200.000	0.003	0.028
-210.479	-200.000	-0.021	0.125
-209.465	-200.000	0.006	-0.027
-208.450	165.064	-0.126	-0.178
-207.436	-79.724	-0.028	-0.009
-206.421	-69.547	-0.272	-0.104
-205.406	-68.807	0.191	0.074
-204.392	-182.303	-0.235	-0.004
-203.377	121.740	0.138	0.172
-202.363	-142.838	-0.158	-0.015
-201.348	800.000	0.075	-0.257
-200.333	129.824	0.304	-0.389
-199.319	-200.000	-0.000	-0.219
-198.304	-123.473	0.170	-0.027
-197.290	-40.275	0.110	-0.057
-196.275	46.543	-0.137	-0.127
-195.260	-37.228	-0.197	0.105
-194.246	277.324	0.098	-0.174
-193.231	800.000	-0.105	-0.357
-192.217	38.942	0.372	0.332
-191.202	59.690	-0.080	-0.079
-190.187	105.319	-0.252	-0.297
-189.173	101.618	0.076	0.089
-188.158	-87.908	0.357	0.107
-187.144	380.552	-0.147	-0.300
-186.129	-95.773	-0.100	0.027
-185.114	-129.729	-0.204	-0.028
-184.100	-73.073	-0.126	0.046
-183.085	-86.959	0.356	0.108
-182.071	33.509	-0.203	-0.176
-181.056	36.082	0.089	0.078
-180.042	779.878	-0.055	0.149
-179.027	800.000	0.040	0.119
-178.012	-143.655	-0.131	-0.012
-176.998	-134.424	0.408	0.050
-175.983	-79.789	-0.493	-0.166
-174.969	-61.042	-0.276	-0.116
-173.954	-200.000	-0.042	0.209
-172.939	218.975	0.113	0.180
-171.925	-200.000	-0.017	0.114
-170.910	-200.000	0.009	0.046
-169.896	127.654	-0.112	-0.142
-168.881	-200.000	-0.008	-0.087
-167.866	-153.207	-0.145	0.010
-166.852	-172.344	0.341	-0.011
-165.837	-70.984	0.185	-0.069
-164.823	-71.008	0.075	0.028
-163.808	99.524	-0.095	-0.109
-162.793	-200.000	0.032	0.305
-161.779	-200.000	0.059	0.303
-160.764	-0.946	-0.038	0.026
-159.750	-109.962	0.182	0.038
-158.735	-146.341	-0.081	0.007
-157.720	-60.105	-0.073	0.031
-156.706	134.886	0.030	0.039
-155.691	68.391	0.100	-0.102
-154.677	53.490	0.257	-0.246
-153.662	47.214	0.087	0.081
-152.647	-200.000	0.022	0.095
-151.633	718.237	0.052	0.138
-150.618	-9.234	0.247	-0.165
-149.604	38.476	-0.035	-0.031
-148.589	155.544	-0.169	0.232
-147.574	28.474	-0.211	-0.178
-146.560	-64.989	-0.289	-0.116
-145.545	52.114	0.287	0.273
-144.531	65.594	-0.229	-0.231
-143.516	252.177	0.137	-0.233
-142.502	14.811	-0.107	-0.083
-141.487	-141.367	-0.053	0.005
-140.472	-22.051	0.061	-0.037
-139.458	-117.553	0.327	0.059
-138.443	-76.279	-0.351	-0.123
-137.429	44.888	-0.195	0.179
-136.414	703.281	-0.069	0.180
-135.399	-73.799	0.019	-0.007
-134.385	-200.000	-0.016	0.107
-133.370	695.050	0.021	0.056
-132.356	-111.273	-0.084	0.017
-131.341	143.509	0.175	0.232
-130.326	99.798	-0.148	0.170
-129.312	-105.067	0.188	0.043
-128.297	800.000	-0.059	-0.245
-127.283	-200.000	0.006	0.213
-126.268	58.800	-0.211	0.206
-125.253	52.992	-0.164	-0.156
-124.239	-144.627	0.156	0.014
-123.224	280.361	0.107	-0.191
-122.210	-61.147	0.208	-0.087
-121.195	800.000	0.019	-0.066
