DTS Sentinel unit serial number:	SN413079Multiplexer serial number:	ORYXHardware model number:	OX4-SRSoftware version number:	ORYX F/W v4.00 Oryx Data Collector v3.7.2.0data status	okinstallation	princeton_trtdifferential loss correction	single-endedforward channel	channel 3reverse channel	N/Adate	2019/09/16time	08:28:34forward acquisition time	60.00reverse acquisition time	0.00gamma	496.2192k internal	0.2325k external	0.2325temperature offset calibration	0.9955default loss term (dB/km)	0.3790temperature slope calibration	1.0000multiplexer offset coefficient	1.0000multiplexer slope coefficient	1.0000fibre end	0.00T internal ref (°C)	29.23T ext. ref 1 (°C)	11.89T ext. ref 2 (°C)	25.74length (m)	temperature (°C)	Stokes	anti-Stokes-747.200	127.499	0.143	0.184
-746.185	800.000	0.046	0.140
-745.171	-148.393	0.152	0.013
-744.156	52.164	0.106	-0.102
-743.142	424.075	-0.114	-0.248
-742.127	234.679	-0.025	0.042
-741.112	-15.775	0.167	0.107
-740.098	297.704	-0.145	0.269
-739.083	-70.678	0.109	-0.041
-738.069	117.789	-0.209	0.260
-737.054	63.394	-0.013	-0.013
-736.039	7.790	-0.189	0.143
-735.025	-37.834	0.260	0.140
-734.010	254.279	-0.111	0.191
-732.996	18.720	0.266	0.215
-731.981	268.318	0.090	-0.160
-730.966	355.059	0.072	0.144
-729.952	-200.000	-0.001	-0.086
-728.937	-131.302	-0.082	0.011
-727.923	20.816	-0.083	0.067
-726.908	181.652	0.103	0.152
-725.894	-33.528	-0.318	0.177
-724.879	800.000	-0.059	0.164
-723.864	73.688	-0.132	0.139
-722.850	281.759	0.121	-0.219
-721.835	-158.537	-0.078	-0.005
-720.821	7.183	-0.172	-0.129
-719.806	72.316	-0.177	0.186
-718.791	-75.685	-0.335	0.120
-717.777	184.162	0.067	-0.100
-716.762	153.200	0.233	-0.321
-715.748	800.000	-0.104	-0.370
-714.733	26.841	-0.263	-0.223
-713.718	145.256	0.082	-0.111
-712.704	-25.218	-0.150	-0.090
-711.689	-200.000	-0.007	-0.170
-710.675	-200.000	-0.071	-0.374
-709.660	220.172	-0.090	-0.146
-708.645	-116.495	0.058	0.011
-707.631	-10.106	-0.285	-0.191
-706.616	-200.000	0.030	0.142
-705.602	-45.399	0.115	0.057
-704.587	146.396	0.116	0.158
-703.572	116.170	-0.195	0.240
-702.558	-148.233	0.399	-0.033
-701.543	800.000	0.064	0.279
-700.529	381.744	0.078	-0.162
-699.514	-154.331	0.067	0.005
-698.499	-83.998	-0.243	0.078
-697.485	-173.170	-0.257	0.008
-696.470	-194.208	-0.219	0.002
-695.456	29.460	-0.252	-0.215
-694.441	244.431	0.021	-0.035
-693.426	93.872	0.174	0.198
-692.412	-113.942	0.192	0.038
-691.397	-170.019	-0.167	0.006
-690.383	-200.000	-0.031	0.419
-689.368	-14.936	-0.074	-0.048
-688.354	-117.016	0.193	0.035
-687.339	-82.000	0.321	-0.106
-686.324	-200.000	0.013	-0.461
-685.310	-79.870	-0.260	0.088
-684.295	50.003	0.031	-0.029
-683.281	-97.194	0.134	0.035
-682.266	-37.739	0.226	0.121
-681.251	-87.055	-0.267	-0.082
-680.237	-110.541	0.313	-0.065
-679.222	-108.820	0.300	-0.065
-678.208	-120.277	-0.257	0.044
-677.193	298.026	-0.061	0.114
-676.178	-100.242	0.108	-0.027
-675.164	120.594	0.151	-0.189
-674.149	-143.465	0.051	0.005
-673.135	-155.119	0.141	-0.009
-672.120	68.162	0.199	-0.206
-671.105	-200.000	0.036	-0.185
-670.091	262.877	-0.194	-0.340
-669.076	183.844	0.234	0.349
-668.062	-41.664	0.201	-0.104
-667.047	134.159	-0.066	0.087
-666.032	-149.851	-0.260	0.020
-665.018	-49.939	0.305	0.145
-664.003	115.619	-0.057	-0.070
-662.989	800.000	0.106	0.397
-661.974	357.041	-0.115	-0.232
-660.959	331.175	0.094	-0.182
-659.945	-109.962	-0.258	-0.054
-658.930	72.753	-0.310	-0.326
-657.916	-200.000	0.036	-0.394
-656.901	-160.138	0.325	0.018
-655.886	105.261	-0.242	-0.288
-654.872	800.000	0.065	-0.249
-653.857	-189.629	-0.331	-0.004
-652.843	-132.932	-0.169	0.022
-651.828	166.816	0.148	-0.212
-650.814	51.059	-0.133	-0.127
-649.799	-168.552	-0.074	0.003
-648.784	-21.660	0.197	-0.121
-647.770	7.278	0.180	0.135
-646.755	278.133	0.123	-0.220
-645.741	152.038	0.189	0.259
-644.726	57.257	0.226	0.221
-643.711	572.911	0.060	0.147
-642.697	-151.075	0.486	0.037
-641.682	-18.232	-0.204	-0.129
-640.668	144.586	0.075	-0.101
-639.653	219.057	0.061	-0.097
-638.638	-102.743	-0.382	0.091
-637.624	800.000	0.055	-0.157
-636.609	85.055	-0.182	-0.201
-635.595	800.000	0.096	-0.348
-634.580	186.596	0.164	0.246
-633.565	-29.176	-0.018	0.010
-632.551	-200.000	-0.014	-0.198
-631.536	-93.034	-0.351	0.098
-630.522	-105.411	-0.256	-0.058
-629.507	800.000	-0.081	0.322
-628.492	-41.340	-0.121	0.063
-627.478	-47.908	0.203	0.099
-626.463	88.425	-0.389	0.434
-625.449	539.941	0.170	0.407
-624.434	-62.924	-0.248	-0.103
-623.419	181.600	0.156	-0.231
-622.405	800.000	0.028	-0.120
-621.390	-86.294	-0.170	-0.053
-620.376	42.607	-0.134	-0.123
-619.361	6.328	-0.341	-0.254
-618.346	800.000	-0.033	0.116
-617.332	-200.000	-0.033	-0.187
-616.317	127.268	0.189	-0.241
-615.303	-78.436	0.172	0.059
-614.288	441.915	0.031	-0.068
-613.273	-65.826	0.121	-0.049
-612.259	-136.986	-0.088	-0.010
-611.244	-138.869	-0.445	-0.049
-610.230	800.000	0.077	-0.277
-609.215	800.000	-0.071	-0.246
-608.201	0.906	-0.135	0.097
-607.186	-107.747	-0.297	-0.065
-606.171	800.000	0.111	-0.394
-605.157	175.766	0.165	0.241
-604.142	-144.210	0.165	-0.015
-603.128	-200.000	0.006	-0.058
-602.113	392.608	0.091	-0.190
-601.098	72.968	0.159	-0.166
-600.084	800.000	-0.012	0.037
-599.069	-92.937	0.263	0.074
-598.055	-200.000	-0.071	-0.318
-597.040	189.813	0.026	0.039
-596.025	800.000	0.104	-0.347
-595.011	-121.690	0.237	-0.039
-593.996	-77.709	0.256	-0.089
-592.982	-163.465	-0.085	0.004
-591.967	43.792	-0.218	-0.200
-590.952	-119.529	-0.118	0.020
-589.938	51.400	0.172	0.164
-588.923	-52.271	-0.316	-0.147
-587.909	-200.000	-0.015	0.109
-586.894	-18.221	0.190	0.119
-585.879	-151.046	0.101	-0.008
-584.865	-30.358	-0.285	-0.162
-583.850	75.521	-0.215	0.228
-582.836	800.000	0.015	0.058
-581.821	567.396	-0.062	-0.152
-580.806	-34.614	0.092	-0.051
-579.792	345.175	0.094	0.185
-578.777	-200.000	-0.006	0.406
-577.763	410.398	-0.062	0.133
-576.748	-79.201	-0.166	0.057
-575.733	-150.152	-0.121	-0.009
-574.719	738.506	0.072	-0.194
-573.704	173.302	-0.111	0.161
-572.690	128.366	-0.188	0.239
-571.675	258.504	-0.149	0.257
-570.661	-28.936	-0.098	-0.056
-569.646	-200.000	0.002	0.433
-568.631	29.736	-0.184	0.157
-567.617	-11.647	0.165	-0.109
-566.602	170.534	-0.156	-0.224
-565.588	142.669	0.090	0.120
-564.573	-22.839	0.312	-0.189
-563.558	-174.727	0.096	-0.003
-562.544	320.948	0.081	0.154
-561.529	-59.548	-0.225	-0.097
-560.515	-1.367	0.430	-0.304
-559.500	-57.118	0.149	-0.066
-558.485	387.064	-0.072	-0.150
-557.471	-19.543	0.152	-0.095
-556.456	135.540	-0.123	0.161
-555.442	-130.213	-0.168	0.023
-554.427	27.340	0.036	-0.030
-553.412	800.000	-0.089	0.320
-552.398	442.596	0.047	-0.103
-551.383	-18.401	-0.124	0.078
-550.369	94.280	0.127	0.144
-549.354	800.000	0.061	-0.193
-548.339	669.086	0.116	-0.301
-547.325	-121.216	0.170	-0.028
-546.310	19.946	-0.254	-0.205
-545.296	164.539	0.130	-0.183
-544.281	-157.934	0.136	0.008
-543.266	-3.364	-0.195	-0.136
-542.252	-200.000	-0.061	0.312
-541.237	800.000	0.046	0.164
-540.223	-58.435	-0.206	0.089
-539.208	-200.000	-0.005	-0.270
-538.193	-49.427	-0.066	-0.031
-537.179	-200.000	-0.004	0.044
-536.164	-200.000	0.073	0.369
-535.150	502.142	-0.010	-0.024
-534.135	-65.881	0.309	-0.124
-533.121	547.325	0.168	-0.401
-532.106	38.413	0.279	-0.249
-531.091	-39.807	-0.096	0.050
-530.077	-93.144	-0.010	0.003
-529.062	-82.826	-0.166	0.054
-528.048	56.004	-0.204	-0.198
-527.033	-34.962	0.201	-0.110
-526.018	-143.825	0.075	-0.007
-525.004	238.490	0.078	0.130
-523.989	26.584	0.103	-0.086
-522.975	734.305	-0.047	-0.126
-521.960	-126.792	-0.129	0.019
-520.945	800.000	-0.014	0.057
-519.931	-68.259	0.292	0.114
-518.916	359.048	0.119	0.239
-517.902	24.635	-0.148	-0.123
-516.887	-103.358	-0.342	-0.081
-515.872	26.889	0.139	-0.116
-514.858	-200.000	-0.007	0.087
-513.843	-106.904	-0.182	0.040
-512.829	-200.000	-0.003	-0.066
-511.814	-200.000	0.033	0.221
-510.799	20.587	0.321	-0.259
-509.785	83.592	0.094	0.102
-508.770	446.994	0.098	0.216
-507.756	9.400	0.141	-0.107
-506.741	800.000	0.063	0.230
-505.726	-51.363	0.316	-0.148
-504.712	-99.253	-0.251	0.063
-503.697	-180.819	-0.293	0.006
-502.683	-134.157	0.010	-0.001
-501.668	-43.428	0.105	0.053
-500.653	282.280	0.063	-0.112
-499.639	-38.044	-0.229	0.121
-498.624	800.000	0.077	-0.277
-497.610	-33.152	0.014	0.008
-496.595	-200.000	-0.016	-0.237
-495.581	341.098	0.016	0.031
-494.566	191.954	-0.238	0.359
-493.551	-10.340	-0.101	-0.067
-492.537	-69.655	-0.290	0.111
-491.522	-49.081	-0.204	0.098
-490.508	-200.000	-0.419	-0.001
-489.493	-109.392	0.320	0.068
-488.478	319.455	-0.124	-0.236
-487.464	-46.614	0.178	0.087
-486.449	265.205	0.069	0.119
-485.435	181.990	-0.088	0.129
-484.420	-200.000	-0.019	-0.532
-483.405	-15.486	0.318	-0.203
-482.391	-200.000	0.074	0.340
-481.376	-200.000	-0.006	0.155
-480.362	-46.054	0.119	0.058
-479.347	-61.873	-0.296	-0.124
-478.332	-200.000	0.037	-0.276
-477.318	-4.490	-0.063	-0.044
-476.303	-14.631	-0.219	-0.141
-475.289	800.000	0.010	-0.030
-474.274	-50.996	0.042	-0.020
-473.259	-32.626	-0.279	0.155
-472.245	13.785	-0.310	0.241
-471.230	207.873	-0.085	-0.133
-470.216	-48.288	0.098	0.047
-469.201	19.281	-0.330	0.265
-468.186	-114.298	0.220	-0.042
-467.172	436.637	-0.135	-0.293
-466.157	-64.316	0.227	0.092
-465.143	-83.200	0.125	0.040
-464.128	800.000	0.089	-0.269
-463.113	-187.824	0.252	0.003
-462.099	-7.257	0.319	0.216
-461.084	614.781	-0.025	0.062
-460.070	800.000	-0.108	-0.388
-459.055	-62.738	0.054	-0.023
-458.040	800.000	-0.041	-0.157
-457.026	88.883	0.081	0.090
-456.011	-34.440	-0.131	0.072
-454.997	154.909	0.237	0.325
-453.982	800.000	0.156	-0.457
-452.968	-112.590	-0.089	-0.018
-451.953	-172.315	0.035	0.001
-450.938	800.000	0.050	-0.200
-449.924	94.657	0.092	0.104
-448.909	416.474	-0.046	0.097
-447.895	-97.756	-0.157	-0.041
-446.880	563.881	0.066	0.158
-445.865	-30.028	-0.223	0.127
-444.851	-137.117	0.317	0.036
-443.836	-172.144	-0.187	-0.006
-442.822	-38.726	-0.010	0.005
-441.807	31.323	-0.090	0.077
-440.792	-35.882	0.103	0.056
-439.778	216.021	-0.142	0.226
-438.763	-200.000	0.073	-0.380
-437.749	-73.184	0.338	-0.124
-436.734	-13.417	-0.086	-0.056
-435.719	508.949	0.043	-0.099
-434.705	-200.000	-0.008	0.298
-433.690	-4.058	-0.299	-0.206
-432.676	800.000	-0.115	0.324
-431.661	-127.769	0.196	0.028
-430.646	120.047	-0.146	-0.181
-429.632	800.000	-0.108	0.413
-428.617	283.284	-0.140	-0.250
-427.603	3.266	-0.022	-0.016
-426.588	245.801	0.218	0.365
-425.573	145.231	0.028	0.038
-424.559	376.995	0.119	-0.243
-423.544	144.477	0.280	0.373
-422.530	265.015	-0.055	0.095
-421.515	-200.000	0.009	-0.223
-420.500	-20.359	-0.424	-0.260
-419.486	-154.926	-0.265	-0.017
-418.471	278.509	0.026	-0.046
-417.457	58.499	0.134	-0.131
-416.442	-97.976	0.083	0.021
-415.428	5.519	0.141	-0.104
-414.413	-132.299	0.035	0.004
-413.398	-200.000	0.005	0.134
-412.384	-63.693	-0.238	0.097
-411.369	92.142	-0.136	-0.153
-410.355	-83.407	0.276	-0.088
-409.340	78.420	-0.139	-0.148
-408.325	-200.000	0.019	-0.095
-407.311	63.419	0.020	-0.020
-406.296	-79.241	0.142	-0.048
-405.282	211.099	0.071	-0.111
-404.267	-91.475	0.444	-0.126
-403.252	426.637	-0.028	-0.060
-402.238	114.786	-0.116	0.141
-401.223	786.946	-0.046	-0.125
-400.209	-6.886	-0.242	0.164
-399.194	-200.000	-0.020	0.101
-398.179	126.232	0.149	0.187
-397.165	-13.414	0.210	0.136
-396.150	800.000	0.135	0.489
-395.136	800.000	0.014	-0.061
-394.121	-90.559	-0.277	0.080
-393.106	256.608	0.044	0.075
-392.092	192.804	0.236	0.355
-391.077	-101.238	-0.170	0.041
-390.063	800.000	-0.055	0.159
-389.048	33.710	-0.202	-0.174
-388.033	800.000	0.033	-0.134
-387.019	-52.000	-0.368	-0.170
-386.004	-143.866	-0.136	0.013
-384.990	-30.440	-0.115	-0.065
-383.975	177.998	-0.122	0.177
-382.960	-154.370	-0.039	0.003
-381.946	-36.004	-0.258	-0.139
-380.931	-57.381	-0.233	-0.102
-379.917	-80.547	-0.302	-0.100
-378.902	79.201	-0.111	0.118
-377.888	138.768	0.217	0.284
-376.873	-125.906	0.271	-0.041
-375.858	800.000	-0.077	0.298
-374.844	401.818	0.084	0.175
-373.829	-96.982	-0.195	0.051
-372.815	185.621	-0.060	-0.089
-371.800	-7.046	0.188	-0.127
-370.785	-192.094	0.100	-0.001
-369.771	-150.751	-0.155	-0.012
-368.756	800.000	0.066	-0.273
-367.742	-200.000	0.004	-0.148
-366.727	-200.000	-0.050	0.303
-365.712	137.088	-0.236	-0.306
-364.698	800.000	-0.074	-0.273
-363.683	205.614	-0.158	-0.244
-362.669	216.308	0.073	0.115
-361.654	27.550	-0.337	-0.282
-360.639	-51.789	-0.405	-0.187
-359.625	-128.378	0.048	-0.007
-358.610	-54.962	0.186	0.083
-357.596	106.629	-0.140	-0.165
-356.581	393.520	0.076	0.158
-355.566	140.230	-0.148	0.195
-354.552	249.657	0.156	0.264
-353.537	-147.536	0.305	0.026
-352.523	-47.994	-0.100	0.048
-351.508	-189.232	-0.254	0.003
-350.493	-52.785	-0.165	0.076
-349.479	-88.483	-0.062	-0.018
-348.464	390.462	0.132	-0.272
-347.450	48.696	-0.119	-0.111
-346.435	-200.000	0.047	0.223
-345.420	-200.000	-0.008	0.214
-344.406	775.200	0.035	0.095
-343.391	55.078	0.119	-0.114
-342.377	57.104	0.171	-0.166
-341.362	-200.000	-0.045	-0.239
-340.348	331.564	-0.057	0.109
-339.333	-128.240	0.287	0.041
-338.318	715.759	-0.103	-0.272
-337.304	-145.707	0.032	0.003
-336.289	-113.781	0.118	-0.023
-335.275	-34.135	0.160	-0.087
-334.260	629.646	0.039	-0.098
-333.245	-9.446	0.086	-0.057
-332.231	-200.000	-0.007	-0.032
-331.216	-101.238	0.456	0.111
-330.202	-103.406	0.312	-0.073
-329.187	-116.773	0.358	0.065
-328.172	467.551	-0.052	-0.116
-327.158	209.427	0.005	0.008
-326.143	429.704	-0.091	0.194
-325.129	-63.265	-0.181	-0.074
-324.114	450.435	0.176	0.386
-323.099	-75.313	-0.106	0.038
-322.085	164.960	-0.050	0.069
-321.070	390.483	0.088	0.181
-320.056	15.296	-0.077	0.060
-319.041	-200.000	-0.265	-0.000
-318.026	278.004	-0.136	0.240
-317.012	800.000	0.055	0.182
-315.997	275.482	-0.077	0.135
-314.983	-97.763	-0.277	-0.071
-313.968	21.832	0.116	0.094
-312.953	-147.843	0.381	0.032
-311.939	-37.572	0.032	-0.017
-310.924	29.827	-0.117	0.099
-309.910	-35.720	-0.040	-0.022
-308.895	-118.083	0.108	-0.019
-307.880	-192.081	0.100	-0.001
-306.866	-143.673	-0.059	0.006
-305.851	-200.000	-0.023	0.412
-304.837	307.732	0.097	0.179
-303.822	-24.334	0.197	-0.117
-302.807	249.066	0.057	0.095
-301.793	-80.653	0.044	0.015
-300.778	85.901	0.216	-0.236
-299.764	-27.959	-0.282	0.162
-298.749	278.253	-0.049	0.086
-297.735	209.346	0.110	-0.170
-296.720	800.000	-0.027	0.082
-295.705	-200.000	-0.014	0.123
-294.691	293.607	-0.124	-0.224
-293.676	793.178	0.139	0.379
-292.662	44.727	-0.240	0.219
-291.647	241.062	0.191	0.316
-290.632	-138.039	-0.293	-0.032
-289.618	-200.000	-0.005	0.300
-288.603	411.686	0.130	0.274
-287.589	506.996	0.144	0.331
-286.574	411.238	0.180	-0.379
-285.559	170.004	-0.206	-0.293
-284.545	234.346	0.258	-0.421
-283.530	311.014	0.016	0.030
-282.516	800.000	0.142	0.391
-281.501	-179.330	0.173	0.004
-280.486	-200.000	0.010	-0.169
-279.472	-0.373	0.234	-0.165
-278.457	-200.000	0.103	-0.597
-277.443	-145.071	-0.261	0.024
-276.428	-200.000	0.081	0.365
-275.413	-15.769	0.239	0.151
-274.399	-43.722	-0.286	-0.143
-273.384	459.250	-0.147	0.324
-272.370	673.117	-0.028	-0.073
-271.355	428.346	-0.087	-0.186
-270.340	-70.951	0.085	0.032
-269.326	-70.976	0.027	-0.010
-268.311	-63.557	-0.143	0.058
-267.297	800.000	-0.074	0.249
-266.282	169.066	0.117	-0.166
-265.267	136.830	0.118	0.152
-264.253	0.324	-0.291	0.206
-263.238	-132.544	0.214	-0.027
-262.224	-11.803	0.336	-0.219
-261.209	-200.000	-0.035	0.225
-260.195	-39.254	-0.096	-0.050
-259.180	-101.442	-0.358	-0.086
-258.165	32.951	-0.311	0.267
-257.151	716.795	-0.096	-0.253
-256.136	-200.000	-0.025	0.219
-255.122	74.402	-0.122	-0.126
-254.107	-133.360	0.220	-0.027
-253.092	800.000	-0.026	-0.098
-252.078	800.000	-0.021	-0.072
-251.063	-20.492	0.210	0.128
-250.049	19.016	-0.112	0.089
-249.034	-200.000	-0.062	0.276
-248.019	800.000	-0.078	0.304
-247.005	472.513	0.091	-0.202
-245.990	-171.943	0.153	0.005
-244.976	-100.881	0.074	0.018
-243.961	-125.717	-0.136	-0.020
-242.946	-200.000	-0.015	-0.204
-241.932	800.000	-0.044	-0.185
-240.917	-120.260	0.241	-0.041
-239.903	-200.000	0.042	-0.214
-238.888	617.066	-0.081	-0.200
-237.873	-96.960	-0.075	0.019
-236.859	-97.639	0.196	-0.050
-235.844	-96.546	0.203	-0.053
-234.830	800.000	0.048	0.154
-233.815	-155.443	-0.299	-0.019
-232.800	174.499	-0.103	0.148
-231.786	-200.000	0.064	0.282
-230.771	456.429	-0.054	-0.120
-229.757	-158.766	0.221	0.012
-228.742	-158.437	0.317	0.018
-227.727	108.455	-0.128	0.151
-226.713	-7.476	0.155	-0.104
-225.698	-200.000	0.015	-0.202
-224.684	-50.682	0.133	0.062
-223.669	-11.712	0.073	-0.048
-222.655	101.388	-0.102	-0.117
-221.640	345.574	-0.191	-0.370
-220.625	104.272	0.101	0.117
-219.611	-200.000	0.008	-0.097
-218.596	738.770	0.030	-0.079
-217.582	-74.456	-0.160	-0.057
-216.567	-87.231	0.357	0.107
-215.552	-200.000	-0.009	-0.172
-214.538	38.378	0.308	-0.271
-213.523	-158.729	-0.078	-0.004
-212.509	41.596	0.199	0.178
-211.494	-63.111	-0.342	0.139
-210.479	116.559	-0.065	0.079
-209.465	54.658	-0.170	-0.162
-208.450	-200.000	0.005	0.024
-207.436	3.213	0.074	-0.053
-206.421	65.339	-0.221	0.221
-205.406	326.465	-0.113	-0.213
-204.392	308.603	0.070	0.130
-203.377	48.211	-0.033	0.030
-202.363	51.085	-0.101	-0.095
-201.348	-200.000	-0.018	0.305
-200.333	-14.227	-0.129	0.082
-199.319	42.184	-0.121	-0.109
-198.304	-33.842	0.091	-0.050
-197.290	140.276	0.179	-0.233
-196.275	-200.000	0.009	-0.129
-195.260	-97.817	-0.087	-0.022
-194.246	-200.000	-0.020	0.222
-193.231	-200.000	-0.007	0.154
-192.217	187.168	0.078	-0.114
-191.202	800.000	0.095	-0.383
-190.187	-127.607	-0.163	0.023
-189.173	346.182	-0.060	-0.117
-188.158	-200.000	0.015	-0.177
-187.144	-200.000	-0.006	0.222
-186.129	800.000	-0.028	-0.086
-185.114	760.052	-0.154	0.412
-184.100	137.836	-0.203	0.263
-183.085	32.282	0.451	-0.385
-182.071	140.578	-0.199	0.259
-181.056	-41.118	-0.081	0.041
-180.042	215.964	-0.096	-0.150
-179.027	104.680	0.277	0.323
-178.012	800.000	0.057	0.170
-176.998	-89.667	0.085	-0.025
-175.983	-30.716	0.389	-0.217
-174.969	-200.000	0.075	-0.406
-173.954	-43.484	0.120	-0.060
-172.939	-200.000	-0.083	0.362
-171.925	-10.592	-0.206	0.135
-170.910	48.267	0.217	-0.200
-169.896	-63.385	-0.135	0.055
-168.881	117.978	-0.061	-0.074
-167.866	-200.000	0.004	-0.160
-166.852	-140.270	0.298	0.031
-165.837	800.000	0.015	-0.060
-164.823	107.953	0.170	-0.199
-163.808	-133.070	-0.432	-0.054
-162.793	800.000	0.019	0.076
-161.779	-182.699	-0.195	0.003
-160.764	800.000	-0.063	0.177
-159.750	-82.720	-0.152	0.049
-158.735	-200.000	0.045	0.344
-157.720	-73.470	0.211	-0.076
-156.706	-113.308	-0.137	-0.027
-155.691	-146.880	0.142	-0.012
-154.677	386.778	0.080	0.162
-153.662	505.735	0.107	0.246
-152.647	-108.580	0.025	-0.005
-151.633	423.406	-0.142	-0.301
-150.618	-32.978	0.195	0.107
-149.604	81.406	0.068	0.072
-148.589	56.592	0.308	0.296
-147.574	800.000	0.084	-0.237
-146.560	-64.352	-0.084	0.034
-145.545	800.000	-0.042	-0.166
-144.531	269.521	0.063	0.109
-143.516	-48.921	-0.269	0.127
-142.502	112.104	0.171	0.203
-141.487	29.060	0.163	-0.136
-140.472	-35.468	0.261	0.140
-139.458	-77.281	-0.042	-0.014
-138.443	-72.366	-0.195	0.071
-137.429	-28.592	-0.082	0.046
-136.414	-7.986	-0.118	-0.078
-135.399	386.362	-0.149	-0.304
-134.385	10.163	0.199	0.149
-133.370	-83.786	-0.072	0.022
-132.356	800.000	-0.056	-0.181
-131.341	736.243	0.088	0.233
-130.326	386.363	-0.176	0.359
-129.312	-200.000	0.036	-0.285
-128.297	431.840	0.116	-0.247
-127.283	-150.034	0.210	0.016
-126.268	-32.269	0.127	-0.070
-125.253	800.000	-0.047	-0.136
-124.239	-185.447	0.327	0.005
-123.224	139.778	0.134	0.173
-122.210	800.000	0.049	-0.169
-121.195	619.109	-0.066	0.163
