DTS Sentinel unit serial number:	SN413079Multiplexer serial number:	ORYXHardware model number:	OX4-SRSoftware version number:	ORYX F/W v4.00 Oryx Data Collector v3.7.2.0data status	okinstallation	princeton_trtdifferential loss correction	single-endedforward channel	channel 3reverse channel	N/Adate	2019/09/16time	21:24:35forward acquisition time	60.00reverse acquisition time	0.00gamma	496.2192k internal	0.2325k external	0.2325temperature offset calibration	0.9931default loss term (dB/km)	0.3790temperature slope calibration	1.0000multiplexer offset coefficient	1.0000multiplexer slope coefficient	1.0000fibre end	0.00T internal ref (°C)	31.56T ext. ref 1 (°C)	0.05T ext. ref 2 (°C)	25.44length (m)	temperature (°C)	Stokes	anti-Stokes-747.200	16.248	-0.198	0.158
-746.185	-101.484	0.078	0.019
-745.171	-77.660	0.300	0.105
-744.156	765.851	0.025	0.070
-743.142	-21.349	-0.051	0.032
-742.127	800.000	-0.088	0.246
-741.112	-200.000	-0.000	0.296
-740.098	800.000	-0.115	0.374
-739.083	127.809	-0.173	-0.222
-738.069	406.859	0.074	0.158
-737.054	-168.133	0.204	0.008
-736.039	-61.938	0.196	0.083
-735.025	27.464	-0.050	0.042
-734.010	0.139	-0.184	0.133
-732.996	-200.000	0.121	-0.542
-731.981	-48.778	0.140	0.068
-730.966	175.702	0.113	0.165
-729.952	149.226	0.057	-0.078
-728.937	12.313	-0.092	0.072
-727.923	-146.980	-0.047	-0.004
-726.908	-200.000	-0.046	-0.329
-725.894	258.110	-0.088	-0.152
-724.879	-200.000	-0.021	-0.097
-723.864	57.837	-0.528	-0.521
-722.850	800.000	0.063	0.207
-721.835	-3.070	-0.222	-0.156
-720.821	15.837	-0.253	-0.201
-719.806	48.690	-0.099	-0.093
-718.791	-106.263	0.287	0.065
-717.777	800.000	-0.104	0.434
-716.762	-30.144	0.276	0.158
-715.748	171.277	-0.150	0.216
-714.733	-65.521	0.138	0.056
-713.718	55.366	0.113	0.110
-712.704	-123.540	0.275	-0.044
-711.689	-200.000	-0.255	0.001
-710.675	210.017	-0.122	-0.193
-709.660	-94.258	0.231	-0.064
-708.645	57.548	0.181	-0.178
-707.631	-200.000	-0.006	-0.230
-706.616	-101.621	0.484	0.118
-705.602	561.208	0.047	-0.113
-704.587	-107.546	0.040	-0.009
-703.572	-200.000	-0.014	0.368
-702.558	5.607	0.350	0.261
-701.543	-124.365	0.099	-0.016
-700.529	-16.945	-0.325	0.207
-699.514	-200.000	0.027	0.163
-698.499	-136.383	0.261	0.031
-697.485	124.526	-0.231	-0.293
-696.470	64.044	-0.210	-0.213
-695.456	-180.686	-0.203	-0.004
-694.441	-8.232	0.126	-0.086
-693.426	227.256	-0.040	0.066
-692.412	-86.882	0.109	0.034
-691.397	296.573	-0.173	-0.320
-690.383	-200.000	0.001	0.114
-689.368	-65.535	-0.248	-0.100
-688.354	-23.489	0.153	-0.093
-687.339	711.559	-0.016	-0.044
-686.324	187.142	-0.087	0.131
-685.310	361.944	-0.167	0.336
-684.295	756.797	-0.085	0.232
-683.281	800.000	-0.096	-0.292
-682.266	773.979	0.085	-0.233
-681.251	413.527	0.145	0.311
-680.237	-200.000	-0.002	-0.113
-679.222	47.870	-0.351	-0.330
-678.208	487.832	-0.102	0.235
-677.193	-99.889	-0.333	0.084
-676.178	-50.393	-0.175	-0.083
-675.164	-200.000	0.080	-0.638
-674.149	-100.347	0.111	-0.028
-673.135	-200.000	0.028	-0.293
-672.120	800.000	-0.030	0.111
-671.105	-200.000	-0.039	0.225
-670.091	644.526	0.089	0.228
-669.076	-161.670	-0.104	-0.005
-668.062	-200.000	-0.034	-0.209
-667.047	-63.555	-0.234	0.097
-666.032	507.915	0.031	0.073
-665.018	-7.921	0.135	0.092
-664.003	-200.000	-0.020	0.222
-662.989	-200.000	-0.074	0.381
-661.974	-200.000	-0.035	-0.267
-660.959	-8.444	0.290	-0.196
-659.945	-139.236	0.053	0.006
-658.930	-48.167	-0.231	0.112
-657.916	-200.000	0.026	-0.204
-656.901	46.290	0.252	0.235
-655.886	-126.224	0.275	0.041
-654.872	74.784	0.165	0.175
-653.857	-112.078	-0.324	0.065
-652.843	-77.810	-0.141	-0.049
-651.828	32.107	0.088	0.076
-650.814	-200.000	-0.034	0.392
-649.799	3.958	0.110	-0.081
-648.784	-200.000	0.025	0.210
-647.770	290.761	0.074	-0.135
-646.755	-200.000	0.018	0.466
-645.741	-6.738	-0.302	-0.206
-644.726	-59.797	0.232	-0.100
-643.711	19.503	0.133	0.108
-642.697	106.222	0.226	0.269
-641.682	-15.463	-0.174	-0.112
-640.668	48.445	0.060	-0.056
-639.653	-179.091	-0.324	-0.007
-638.638	-99.540	0.179	-0.045
-637.624	56.868	-0.160	0.157
-636.609	-122.886	0.286	0.046
-635.595	43.472	0.187	-0.172
-634.580	-75.714	-0.287	-0.102
-633.565	-200.000	0.030	0.203
-632.551	-200.000	-0.026	0.222
-631.536	-70.144	0.095	-0.036
-630.522	407.008	0.071	0.151
-629.507	800.000	0.046	-0.139
-628.492	254.617	0.068	-0.117
-627.478	-135.824	0.172	-0.020
-626.463	-162.563	-0.141	-0.007
-625.449	101.083	0.147	0.172
-624.434	74.389	-0.194	-0.205
-623.419	496.915	0.039	-0.089
-622.405	146.441	0.086	0.116
-621.390	95.302	0.064	0.073
-620.376	-200.000	0.016	-0.261
-619.361	-200.000	0.004	-0.035
-618.346	-27.644	0.388	0.226
-617.332	-123.973	-0.419	-0.066
-616.317	45.865	0.112	0.104
-615.303	800.000	0.036	-0.141
-614.288	-22.206	-0.186	-0.113
-613.273	-181.078	0.304	-0.006
-612.259	-11.252	-0.272	-0.180
-611.244	-40.582	-0.289	0.151
-610.230	-174.866	0.153	-0.004
-609.215	28.077	-0.191	-0.161
-608.201	-63.327	-0.165	-0.068
-607.186	132.216	0.163	0.210
-606.171	-200.000	0.018	0.236
-605.157	2.754	-0.169	-0.123
-604.142	134.559	-0.073	-0.095
-603.128	800.000	-0.050	0.160
-602.113	122.493	-0.238	0.298
-601.098	3.693	-0.257	-0.188
-600.084	-6.081	-0.074	-0.051
-599.069	-200.000	-0.005	0.096
-598.055	-104.071	-0.125	0.029
-597.040	512.739	0.082	0.193
-596.025	-149.290	-0.373	-0.030
-595.011	-107.699	-0.097	-0.021
-593.996	164.231	0.071	-0.101
-592.982	45.451	-0.224	0.208
-591.967	-56.243	0.201	0.090
-590.952	51.686	-0.104	-0.100
-589.938	299.473	-0.103	0.191
-588.923	800.000	0.040	0.134
-587.909	751.496	0.081	-0.220
-586.894	-102.182	-0.190	-0.046
-585.879	-200.000	-0.045	-0.201
-584.865	111.278	0.129	-0.156
-583.850	-48.941	-0.109	0.052
-582.836	-119.133	-0.200	-0.035
-581.821	56.377	0.193	0.188
-580.806	29.626	0.328	0.280
-579.792	16.310	0.339	0.268
-578.777	800.000	0.146	-0.412
-577.763	52.193	0.251	-0.240
-576.748	36.796	-0.149	-0.132
-575.733	-12.889	-0.307	-0.200
-574.719	99.893	-0.054	-0.063
-573.704	-62.273	-0.318	-0.133
-572.690	-17.436	-0.431	-0.272
-571.675	30.046	0.336	-0.288
-570.661	546.172	0.066	0.159
-569.646	107.249	0.180	0.214
-568.631	-200.000	0.011	-0.093
-567.617	46.841	-0.198	0.185
-566.602	-200.000	0.038	-0.167
-565.588	-200.000	-0.045	0.210
-564.573	800.000	0.151	0.436
-563.558	-200.000	-0.030	0.181
-562.544	-95.275	0.129	0.035
-561.529	354.328	0.020	-0.040
-560.515	-200.000	-0.000	-0.068
-559.500	-43.855	-0.200	0.101
-558.485	125.139	0.044	0.056
-557.471	79.165	0.217	0.233
-556.456	-200.000	0.040	0.200
-555.442	-119.403	0.204	-0.036
-554.427	-200.000	0.014	-0.068
-553.412	361.838	0.058	0.116
-552.398	280.572	-0.086	-0.154
-551.383	146.631	0.070	-0.094
-550.369	-40.034	-0.213	-0.111
-549.354	76.916	0.284	0.302
-548.339	800.000	-0.101	0.290
-547.325	38.234	0.009	0.008
-546.310	355.111	0.024	0.048
-545.296	55.231	-0.221	-0.214
-544.281	-8.521	-0.120	0.080
-543.266	-99.305	-0.210	0.053
-542.252	-25.987	-0.118	0.070
-541.237	-200.000	0.010	0.132
-540.223	-200.000	-0.002	-0.294
-539.208	-200.000	-0.052	0.282
-538.193	30.587	-0.236	0.202
-537.179	34.825	0.263	0.230
-536.164	488.501	0.135	0.308
-535.150	-126.849	-0.322	0.048
-534.135	30.878	0.087	0.075
-533.121	800.000	-0.065	0.239
-532.106	270.424	0.106	0.187
-531.091	73.589	-0.331	0.347
-530.077	93.046	-0.035	-0.039
-529.062	-151.404	0.365	-0.027
-528.048	-129.306	-0.349	0.049
-527.033	-33.449	-0.118	0.065
-526.018	-97.108	-0.251	0.066
-525.004	-90.328	-0.103	-0.030
-523.989	213.901	-0.094	-0.149
-522.975	123.145	-0.329	-0.412
-521.960	791.193	-0.124	-0.342
-520.945	536.224	-0.056	-0.134
-519.931	-200.000	0.081	-0.389
-518.916	-43.814	-0.131	0.066
-517.902	5.627	0.200	0.148
-516.887	-86.757	0.168	0.051
-515.872	-38.651	-0.193	0.102
-514.858	-90.168	-0.139	-0.041
-513.843	-89.045	-0.100	0.030
-512.829	-14.987	-0.057	-0.036
-511.814	-200.000	-0.011	0.172
-510.799	139.179	-0.271	0.356
-509.785	15.940	0.186	0.147
-508.770	3.895	0.121	-0.088
-507.756	197.302	-0.255	-0.389
-506.741	213.034	0.238	-0.377
-505.726	123.396	-0.111	-0.139
-504.712	54.058	-0.163	-0.157
-503.697	510.635	-0.063	-0.147
-502.683	123.835	0.081	-0.102
-501.668	800.000	0.085	-0.335
-500.653	20.302	-0.124	0.100
-499.639	800.000	0.042	0.183
-498.624	-149.740	-0.155	-0.012
-497.610	800.000	-0.031	0.135
-496.595	10.171	-0.054	0.041
-495.581	-200.000	-0.057	-0.403
-494.566	-21.895	-0.114	-0.070
-493.551	-66.413	-0.319	0.127
-492.537	-117.349	-0.246	-0.045
-491.522	-10.864	0.328	0.217
-490.508	51.935	-0.224	-0.213
-489.493	-200.000	-0.056	0.335
-488.478	-200.000	-0.017	0.102
-487.464	-200.000	-0.050	-0.227
-486.449	26.200	-0.124	-0.103
-485.435	-200.000	-0.022	0.191
-484.420	164.920	-0.173	-0.243
-483.405	800.000	-0.033	-0.131
-482.391	41.363	-0.395	-0.357
-481.376	131.315	0.085	-0.109
-480.362	-101.754	0.107	-0.026
-479.347	800.000	-0.142	0.409
-478.332	-200.000	-0.007	0.143
-477.318	27.936	0.188	0.158
-476.303	-99.644	-0.130	0.033
-475.289	-145.861	0.241	-0.021
-474.274	800.000	-0.080	0.251
-473.259	-42.610	-0.298	-0.151
-472.245	183.619	-0.092	0.136
-471.230	800.000	-0.071	0.290
-470.216	489.161	0.199	0.454
-469.201	-139.701	-0.089	0.009
-468.186	-96.092	0.118	-0.031
-467.172	-200.000	0.007	0.048
-466.157	800.000	-0.030	0.123
-465.143	800.000	-0.114	0.396
-464.128	-163.058	-0.357	0.017
-463.113	60.863	0.235	0.233
-462.099	669.954	0.065	0.167
-461.084	-200.000	-0.026	-0.145
-460.070	156.233	-0.205	0.282
-459.055	-200.000	0.051	-0.382
-458.040	-200.000	0.038	-0.173
-457.026	435.927	0.116	0.253
-456.011	-170.607	-0.090	0.003
-454.997	-7.623	-0.176	-0.119
-453.982	-139.409	0.327	0.035
-452.968	-200.000	-0.051	0.356
-451.953	-116.582	-0.228	-0.042
-450.938	800.000	-0.067	0.212
-449.924	542.680	0.047	-0.112
-448.909	346.562	0.020	-0.040
-447.895	-49.833	-0.203	0.096
-446.880	-63.435	-0.249	0.102
-445.865	-75.344	0.152	-0.054
-444.851	-58.750	0.065	-0.028
-443.836	74.522	-0.161	-0.169
-442.822	128.871	-0.155	0.197
-441.807	151.846	-0.070	-0.095
-440.792	-200.000	-0.023	-0.174
-439.778	-200.000	-0.027	-0.127
-438.763	-197.312	-0.209	0.001
-437.749	367.110	-0.014	0.028
-436.734	281.957	-0.136	0.243
-435.719	-107.998	0.462	0.100
-434.705	-14.631	0.187	0.120
-433.690	-72.924	-0.347	-0.127
-432.676	13.572	0.108	-0.084
-431.661	-107.362	0.098	-0.022
-430.646	-80.602	0.180	0.060
-429.632	-58.217	-0.205	-0.089
-428.617	52.088	-0.262	0.249
-427.603	196.486	-0.054	-0.081
-426.588	324.772	-0.088	-0.168
-425.573	-103.524	-0.229	0.054
-424.559	-126.338	0.209	0.031
-423.544	-172.869	-0.110	0.003
-422.530	-111.886	-0.090	0.018
-421.515	4.118	0.241	0.176
-420.500	-200.000	0.058	-0.397
-419.486	-200.000	-0.007	-0.314
-418.471	-121.480	0.215	-0.036
-417.457	613.379	-0.088	-0.219
-416.442	25.765	0.039	-0.032
-415.428	-200.000	0.091	-0.437
-414.413	27.725	0.193	0.162
-413.398	-200.000	0.000	0.246
-412.384	-130.727	0.165	-0.022
-411.369	773.985	0.027	-0.074
-410.355	-71.368	0.144	0.054
-409.340	-89.090	0.216	-0.064
-408.325	-114.419	0.144	-0.027
-407.311	-100.331	-0.243	0.060
-406.296	519.014	0.113	0.263
-405.282	589.601	0.088	-0.216
-404.267	-155.900	-0.175	0.011
-403.252	-52.272	0.162	0.075
-402.238	610.762	0.085	-0.212
-401.223	-106.670	0.205	-0.045
-400.209	10.642	-0.197	0.149
-399.194	-89.469	0.138	0.040
-398.179	800.000	0.074	0.291
-397.165	-149.962	-0.076	0.006
-396.150	-6.954	0.304	-0.206
-395.136	454.380	-0.148	-0.326
-394.121	-200.000	0.025	-0.260
-393.106	50.133	0.174	-0.164
-392.092	-105.535	0.143	-0.032
-391.077	-126.386	0.047	-0.007
-390.063	-70.215	-0.256	0.097
-389.048	-71.153	0.199	-0.074
-388.033	800.000	-0.036	0.150
-387.019	-45.511	0.100	-0.049
-386.004	-101.434	0.279	-0.068
-384.990	-200.000	-0.007	-0.152
-383.975	117.033	0.091	-0.111
-382.960	-22.583	0.074	0.044
-381.946	-52.666	0.268	0.123
-380.931	-75.890	0.148	0.052
-379.917	593.558	0.053	0.131
-378.902	176.602	-0.093	0.135
-377.888	185.503	-0.089	-0.132
-376.873	-103.826	-0.286	0.067
-375.858	800.000	0.126	0.546
-374.844	-54.072	-0.287	-0.130
-373.829	-106.502	0.126	0.028
-372.815	397.407	-0.107	0.222
-371.800	2.201	-0.189	-0.136
-370.785	-200.000	0.013	-0.131
-369.771	784.484	0.072	-0.197
-368.756	-54.251	0.109	0.049
-367.742	123.885	0.099	0.124
-366.727	-147.869	-0.102	0.008
-365.712	26.859	0.200	-0.167
-364.698	-25.024	0.042	0.025
-363.683	-200.000	0.029	-0.171
-362.669	226.234	-0.067	-0.107
-361.654	166.319	0.431	-0.608
-360.639	25.430	-0.078	-0.065
-359.625	2.485	-0.213	0.153
-358.610	-86.603	0.289	-0.088
-357.596	-165.887	0.233	0.010
-356.581	550.912	-0.056	0.133
-355.566	-47.182	0.475	0.230
-354.552	315.643	-0.064	0.120
-353.537	800.000	-0.091	-0.252
-352.523	277.287	0.033	-0.058
-351.508	800.000	0.048	0.200
-350.493	-200.000	0.027	-0.117
-349.479	-200.000	-0.075	-0.351
-348.464	-51.141	0.125	-0.058
-347.450	-107.757	0.501	-0.109
-346.435	-60.846	-0.351	-0.148
-345.420	3.319	-0.186	-0.135
-344.406	768.461	-0.044	0.119
-343.391	38.874	-0.134	0.119
-342.377	800.000	0.083	0.324
-341.362	137.658	0.090	-0.117
-340.348	-141.560	0.188	0.019
-339.333	237.851	0.093	-0.153
-338.318	515.940	-0.074	0.171
-337.304	-67.707	-0.153	0.059
-336.289	800.000	0.064	0.253
-335.275	146.698	-0.069	0.093
-334.260	-118.482	0.194	0.034
-333.245	-22.921	-0.193	-0.115
-332.231	-99.586	0.216	-0.054
-331.216	-200.000	0.052	0.246
-330.202	106.858	0.122	0.144
-329.187	-60.087	-0.376	0.159
-328.172	94.208	-0.073	-0.083
-327.158	-162.685	0.196	-0.010
-326.143	-200.000	0.062	0.419
-325.129	800.000	-0.041	0.162
-324.114	-152.086	0.241	-0.017
-323.099	-200.000	0.024	0.125
-322.085	-146.343	0.055	-0.005
-321.070	226.927	0.150	-0.241
-320.056	-170.817	-0.418	0.014
-319.041	-200.000	0.004	0.200
-318.026	149.965	0.089	0.120
-317.012	-75.116	0.226	-0.080
-315.997	142.404	0.094	0.124
-314.983	-1.666	0.194	-0.136
-313.968	49.662	0.213	-0.199
-312.953	53.701	-0.199	-0.189
-311.939	-18.541	0.156	0.097
-310.924	48.861	-0.159	0.148
-309.910	800.000	-0.011	-0.044
-308.895	28.294	0.133	-0.111
-307.880	370.663	-0.071	-0.144
-306.866	186.125	-0.183	-0.269
-305.851	98.428	-0.080	-0.091
-304.837	-200.000	0.017	0.210
-303.822	-200.000	-0.020	-0.123
-302.807	-100.640	0.059	0.014
-301.793	60.960	-0.240	0.236
-300.778	-92.589	-0.422	0.117
-299.764	40.642	0.186	-0.166
-298.749	-27.676	-0.234	-0.134
-297.735	-122.662	0.327	-0.053
-296.720	-200.000	0.043	0.196
-295.705	-176.185	0.142	0.004
-294.691	-200.000	-0.042	-0.234
-293.676	366.546	-0.107	0.215
-292.662	-200.000	0.014	0.201
-291.647	-200.000	0.018	0.161
-290.632	-182.604	-0.247	-0.004
-289.618	343.023	0.118	0.229
-288.603	800.000	0.077	0.311
-287.589	800.000	-0.068	-0.263
-286.574	-200.000	0.007	-0.075
-285.559	-24.720	-0.202	-0.119
-284.545	3.631	0.209	0.151
-283.530	65.047	-0.086	-0.086
-282.516	259.666	0.115	-0.196
-281.501	299.752	-0.014	-0.026
-280.486	21.291	0.116	0.094
-279.472	104.206	0.135	0.157
-278.457	-99.099	0.118	-0.030
-277.443	-200.000	-0.007	0.145
-276.428	-142.657	0.233	0.023
-275.413	0.494	0.227	-0.161
-274.399	382.222	0.109	0.223
-273.384	-200.000	0.003	-0.096
-272.370	-70.287	-0.147	0.055
-271.355	-139.054	0.102	0.011
-270.340	138.345	0.159	-0.207
-269.326	574.992	-0.127	-0.308
-268.311	-42.933	0.095	-0.048
-267.297	-200.000	0.010	-0.285
-266.282	-116.457	-0.262	-0.048
-265.267	-122.858	0.384	0.061
-264.253	6.348	0.116	-0.086
-263.238	-99.761	0.214	0.053
-262.224	-14.664	-0.308	-0.196
-261.209	800.000	-0.039	0.160
-260.195	800.000	-0.080	-0.235
-259.180	-114.010	-0.187	-0.036
-258.165	386.478	0.128	0.262
-257.151	-134.034	0.321	0.039
-256.136	125.389	0.186	-0.233
-255.122	-200.000	0.041	-0.281
-254.107	-174.148	0.190	0.005
-253.092	-102.950	0.335	-0.079
-252.078	144.258	0.130	0.172
-251.063	18.402	0.050	0.039
-250.049	-200.000	0.018	0.170
-249.034	-89.690	0.299	0.087
-248.019	-170.954	-0.074	0.003
-247.005	800.000	0.087	-0.355
-245.990	92.899	0.130	-0.146
-244.976	641.424	-0.070	-0.177
-243.961	-129.520	0.151	0.021
-242.946	130.357	-0.152	0.193
-241.932	-90.933	-0.338	-0.096
-240.917	800.000	0.068	-0.203
-239.903	-200.000	0.003	-0.180
-238.888	800.000	-0.049	0.144
-237.873	-35.232	-0.153	0.082
-236.859	-52.331	-0.257	0.118
-235.844	-200.000	0.028	-0.252
-234.830	156.017	-0.140	-0.191
-233.815	-114.563	-0.095	0.018
-232.800	-200.000	0.074	-0.367
-231.786	-73.269	0.245	-0.089
-230.771	36.078	0.109	-0.095
-229.757	-19.392	0.166	-0.102
-228.742	44.684	-0.086	-0.078
-227.727	-10.898	-0.016	0.010
-226.713	-107.603	-0.082	-0.018
-225.698	800.000	-0.057	-0.238
-224.684	138.899	-0.347	-0.452
-223.669	278.659	0.087	0.153
-222.655	127.499	-0.175	0.220
-221.640	-200.000	-0.009	0.161
-220.625	450.020	-0.144	0.315
-219.611	-166.313	0.086	-0.004
-218.596	-16.954	-0.173	-0.108
-217.582	800.000	-0.022	0.066
-216.567	-200.000	-0.007	-0.103
-215.552	-10.259	0.161	0.105
-214.538	-165.202	-0.125	0.005
-213.523	216.579	-0.119	0.188
-212.509	-150.644	-0.294	-0.022
-211.494	-55.371	-0.069	-0.030
-210.479	-56.114	0.308	0.135
-209.465	-136.314	-0.241	0.028
-208.450	-42.824	-0.284	0.143
-207.436	-176.024	0.124	0.003
-206.421	38.826	-0.157	0.139
-205.406	-67.145	-0.286	0.112
-204.392	-200.000	0.036	-0.410
-203.377	-46.250	0.305	-0.148
-202.363	-129.338	0.343	0.047
-201.348	-47.550	0.036	0.018
-200.333	106.485	0.109	-0.127
-199.319	-23.449	0.399	-0.237
-198.304	-72.796	-0.079	0.029
-197.290	800.000	0.036	-0.138
-196.275	-22.620	-0.111	-0.066
-195.260	-89.311	0.294	0.086
-194.246	-200.000	0.013	0.312
-193.231	34.044	-0.130	-0.112
-192.217	85.200	0.084	0.091
-191.202	-200.000	-0.057	-0.253
-190.187	125.665	-0.100	-0.125
-189.173	-123.930	0.089	-0.014
-188.158	-139.022	0.289	-0.031
-187.144	-183.778	-0.309	0.005
-186.129	167.904	0.142	0.199
-185.114	21.665	0.156	0.125
-184.100	-120.113	0.228	0.038
-183.085	-153.649	-0.257	0.018
-182.071	331.058	0.203	0.385
-181.056	-142.160	-0.072	-0.007
-180.042	800.000	0.055	0.169
-179.027	67.494	0.176	0.177
-178.012	44.899	-0.108	-0.098
-176.998	21.697	-0.137	-0.110
-175.983	192.424	0.052	0.078
-174.969	-200.000	0.035	-0.157
-173.954	-42.691	0.124	-0.062
-172.939	33.616	0.129	-0.111
-171.925	-200.000	-0.011	-0.297
-170.910	-34.787	-0.174	-0.094
-169.896	-142.503	0.209	-0.020
-168.881	-57.426	0.349	-0.151
-167.866	-38.153	0.148	-0.078
-166.852	-169.750	-0.229	0.008
-165.837	-130.148	-0.021	0.003
-164.823	206.868	-0.121	-0.186
-163.808	800.000	-0.069	-0.199
-162.793	-121.591	-0.205	0.034
-161.779	9.937	0.200	0.150
-160.764	47.376	-0.188	-0.173
-159.750	-8.023	-0.133	-0.089
-158.735	-3.805	0.315	0.216
-157.720	-143.917	-0.150	0.014
-156.706	-35.451	-0.249	0.134
-155.691	79.854	-0.246	-0.261
-154.677	-110.295	0.184	0.038
-153.662	-133.896	0.284	-0.035
-152.647	800.000	-0.083	0.241
-151.633	-62.176	0.127	0.052
-150.618	20.647	-0.173	0.138
-149.604	39.560	0.106	-0.093
-148.589	100.306	-0.083	0.095
-147.574	800.000	0.068	-0.196
-146.560	800.000	-0.039	0.146
-145.545	800.000	-0.051	0.194
-144.531	46.286	0.166	-0.152
-143.516	-200.000	-0.006	0.196
-142.502	221.398	0.048	0.076
-141.487	-89.883	0.303	-0.087
-140.472	12.493	-0.154	0.117
-139.458	-111.025	0.274	0.056
-138.443	-150.965	-0.116	-0.009
-137.429	-200.000	-0.008	0.246
-136.414	38.869	0.234	0.206
-135.399	800.000	-0.052	-0.147
-134.385	-49.768	0.247	-0.116
-133.370	800.000	-0.158	0.436
-132.356	-69.834	0.412	0.155
-131.341	-200.000	-0.036	-0.358
-130.326	16.557	0.264	0.206
-129.312	115.737	0.137	-0.165
-128.297	46.992	-0.063	0.058
-127.283	800.000	-0.022	-0.075
-126.268	395.833	0.066	-0.136
-125.253	-108.725	0.168	0.035
-124.239	800.000	0.042	0.168
-123.224	-125.922	0.256	0.038
-122.210	800.000	0.058	0.207
-121.195	538.421	-0.068	0.159
