DTS Sentinel unit serial number:	SN413079Multiplexer serial number:	ORYXHardware model number:	OX4-SRSoftware version number:	ORYX F/W v4.00 Oryx Data Collector v3.7.2.0data status	okinstallation	princeton_trtdifferential loss correction	single-endedforward channel	channel 3reverse channel	N/Adate	2019/09/15time	03:16:35forward acquisition time	60.00reverse acquisition time	0.00gamma	496.2192k internal	0.2324k external	0.2324temperature offset calibration	0.9967default loss term (dB/km)	0.3790temperature slope calibration	1.0000multiplexer offset coefficient	1.0000multiplexer slope coefficient	1.0000fibre end	0.00T internal ref (°C)	31.12T ext. ref 1 (°C)	4.59T ext. ref 2 (°C)	25.72length (m)	temperature (°C)	Stokes	anti-Stokes-747.200	3.867	-0.163	-0.120
-746.185	-125.751	-0.126	-0.019
-745.171	-117.365	0.286	-0.052
-744.156	-15.014	-0.228	-0.147
-743.142	-78.156	-0.269	0.093
-742.127	800.000	-0.095	0.303
-741.112	-36.817	0.189	-0.103
-740.098	-107.393	-0.352	0.078
-739.083	-48.975	0.313	0.151
-738.069	365.554	0.166	0.337
-737.054	800.000	-0.033	-0.130
-736.039	-200.000	0.058	-0.313
-735.025	-37.415	-0.205	0.110
-734.010	-162.259	-0.399	-0.020
-732.996	6.068	0.128	-0.096
-731.981	38.245	0.100	-0.090
-730.966	800.000	0.050	-0.173
-729.952	310.216	-0.073	0.139
-728.937	119.273	-0.291	-0.363
-727.923	800.000	0.083	-0.236
-726.908	-68.755	0.113	-0.044
-725.894	36.887	0.214	0.191
-724.879	-200.000	-0.026	-0.212
-723.864	-159.929	-0.417	-0.023
-722.850	-200.000	-0.007	-0.276
-721.835	-187.222	-0.370	-0.005
-720.821	298.033	-0.038	0.070
-719.806	32.610	-0.167	-0.146
-718.791	165.181	-0.103	-0.147
-717.777	109.942	0.138	-0.166
-716.762	800.000	0.175	-0.507
-715.748	287.400	-0.226	-0.412
-714.733	-84.325	0.218	-0.070
-713.718	-200.000	-0.001	0.166
-712.704	-28.282	0.219	0.127
-711.689	-200.000	-0.024	0.106
-710.675	800.000	-0.028	-0.083
-709.660	-71.174	-0.298	-0.113
-708.645	251.615	0.156	0.268
-707.631	-126.922	0.222	-0.033
-706.616	240.337	-0.075	-0.126
-705.602	-200.000	-0.026	0.311
-704.587	-111.417	0.158	0.033
-703.572	-200.000	-0.038	0.217
-702.558	800.000	-0.128	-0.546
-701.543	127.876	0.201	-0.257
-700.529	608.890	0.072	0.181
-699.514	43.021	0.203	-0.186
-698.499	-200.000	0.013	-0.358
-697.485	-200.000	0.003	0.429
-696.470	800.000	0.020	-0.082
-695.456	-200.000	0.059	0.326
-694.441	50.532	0.072	0.069
-693.426	-69.809	0.156	0.060
-692.412	160.634	0.206	-0.289
-691.397	199.262	-0.052	-0.081
-690.383	-2.957	-0.119	0.083
-689.368	224.768	-0.055	-0.090
-688.354	259.136	-0.109	-0.190
-687.339	-36.420	-0.195	0.106
-686.324	-200.000	0.013	0.162
-685.310	-92.841	-0.110	0.031
-684.295	504.029	0.134	0.313
-683.281	135.123	-0.035	0.046
-682.266	-74.981	-0.401	-0.145
-681.251	25.214	-0.202	0.169
-680.237	-200.000	-0.038	0.262
-679.222	62.616	0.261	-0.263
-678.208	102.495	0.176	0.207
-677.193	-37.864	0.092	0.049
-676.178	-200.000	0.006	-0.110
-675.164	-200.000	-0.080	-0.435
-674.149	89.910	-0.187	0.210
-673.135	-200.000	-0.022	0.176
-672.120	-186.600	0.279	-0.004
-671.105	311.887	-0.017	-0.032
-670.091	266.584	-0.053	-0.094
-669.076	407.692	-0.042	0.089
-668.062	800.000	-0.071	-0.258
-667.047	329.558	0.156	-0.301
-666.032	2.821	-0.144	-0.105
-665.018	-200.000	0.005	0.260
-664.003	15.081	0.220	0.174
-662.989	-70.225	0.209	0.080
-661.974	231.832	0.090	-0.149
-660.959	38.114	-0.161	-0.144
-659.945	28.189	0.210	-0.179
-658.930	-200.000	0.013	-0.070
-657.916	77.746	-0.070	0.075
-656.901	-85.212	0.274	0.086
-655.886	800.000	0.051	0.218
-654.872	-34.421	-0.205	-0.113
-653.857	-114.606	0.205	0.040
-652.843	255.290	-0.163	-0.281
-651.828	-30.216	0.184	-0.105
-650.814	-200.000	0.045	-0.204
-649.799	-200.000	-0.051	0.457
-648.784	-5.033	0.117	0.081
-647.770	573.807	0.042	0.102
-646.755	270.945	-0.024	-0.042
-645.741	-178.153	0.089	0.002
-644.726	372.020	-0.105	0.215
-643.711	-95.551	-0.243	-0.066
-642.697	-200.000	0.012	-0.070
-641.682	331.788	0.008	-0.015
-640.668	-41.293	-0.061	-0.032
-639.653	-9.188	0.119	0.080
-638.638	-42.720	-0.169	-0.087
-637.624	-1.582	0.327	-0.232
-636.609	-66.789	0.368	0.146
-635.595	65.401	-0.041	-0.042
-634.580	-200.000	0.032	0.195
-633.565	800.000	-0.110	-0.352
-632.551	354.297	0.051	-0.102
-631.536	-200.000	0.004	-0.253
-630.522	144.712	-0.121	-0.162
-629.507	-200.000	0.010	-0.159
-628.492	-115.620	0.183	-0.034
-627.478	-27.690	-0.223	-0.130
-626.463	10.772	-0.092	0.070
-625.449	-85.626	-0.051	-0.016
-624.434	800.000	-0.046	0.164
-623.419	-141.072	-0.067	0.007
-622.405	18.837	0.334	0.269
-621.390	800.000	-0.103	-0.407
-620.376	-18.904	-0.137	0.086
-619.361	38.540	-0.169	-0.151
-618.346	36.136	0.147	0.130
-617.332	-200.000	0.071	-0.368
-616.317	-43.307	-0.373	-0.189
-615.303	-66.160	0.330	-0.132
-614.288	691.545	0.156	-0.411
-613.273	800.000	0.038	0.119
-612.259	25.896	0.108	0.091
-611.244	35.100	-0.133	0.117
-610.230	-200.000	0.005	-0.053
-609.215	800.000	-0.052	-0.156
-608.201	67.489	-0.028	-0.029
-607.186	-200.000	0.034	-0.270
-606.171	254.229	0.092	-0.158
-605.157	103.337	-0.049	0.057
-604.142	66.311	0.344	0.351
-603.128	-200.000	0.010	0.134
-602.113	110.829	-0.031	-0.038
-601.098	-198.017	0.120	-0.001
-600.084	594.975	0.121	-0.300
-599.069	1.045	-0.481	-0.346
-598.055	-42.005	0.074	0.038
-597.040	631.730	-0.136	-0.345
-596.025	-52.737	-0.052	-0.024
-595.011	-137.877	-0.197	0.022
-593.996	293.408	-0.048	0.087
-592.982	-127.993	0.188	-0.027
-591.967	-39.925	0.243	0.127
-590.952	21.562	-0.206	0.168
-589.938	289.738	-0.099	0.180
-588.923	195.887	-0.062	0.095
-587.909	141.764	0.090	-0.120
-586.894	-200.000	-0.024	-0.189
-585.879	53.989	0.190	-0.184
-584.865	361.828	-0.049	0.098
-583.850	45.664	-0.108	-0.100
-582.836	42.091	-0.103	0.094
-581.821	-81.180	0.077	-0.025
-580.806	9.235	-0.078	0.059
-579.792	749.021	0.104	-0.283
-578.777	-200.000	0.025	-0.195
-577.763	-200.000	0.029	-0.265
-576.748	800.000	0.079	0.257
-575.733	18.339	0.077	0.062
-574.719	-164.538	-0.390	-0.018
-573.704	-148.090	-0.126	0.011
-572.690	-138.160	0.141	-0.016
-571.675	-79.065	-0.161	-0.055
-570.661	44.497	-0.270	0.248
-569.646	194.946	0.056	0.086
-568.631	-123.745	-0.160	0.025
-567.617	625.099	-0.045	-0.114
-566.602	147.070	0.073	0.098
-565.588	604.183	0.055	-0.137
-564.573	800.000	0.042	-0.124
-563.558	523.571	-0.042	0.098
-562.544	216.364	0.140	0.224
-561.529	-149.165	-0.309	-0.025
-560.515	800.000	0.032	0.128
-559.500	-200.000	0.009	-0.342
-558.485	0.890	0.331	-0.238
-557.471	-42.231	-0.123	-0.063
-556.456	594.283	-0.072	0.178
-555.442	32.140	0.197	0.170
-554.427	-78.739	0.447	0.153
-553.412	-73.307	-0.323	-0.119
-552.398	42.394	0.137	-0.125
-551.383	35.589	-0.070	-0.061
-550.369	133.212	-0.266	-0.345
-549.354	-82.776	0.038	0.012
-548.339	237.717	-0.104	-0.173
-547.325	-84.010	-0.195	-0.062
-546.310	-143.822	0.340	-0.032
-545.296	123.740	-0.075	-0.095
-544.281	800.000	-0.099	-0.366
-543.266	800.000	0.038	0.155
-542.252	-6.746	-0.109	0.074
-541.237	10.741	-0.226	-0.172
-540.223	-53.213	0.262	-0.121
-539.208	-200.000	-0.004	-0.227
-538.193	-33.538	0.136	0.075
-537.179	-200.000	0.016	0.113
-536.164	209.506	0.162	-0.254
-535.150	-38.856	-0.121	0.064
-534.135	61.870	0.195	-0.195
-533.121	207.842	-0.175	0.274
-532.106	-160.158	-0.173	0.009
-531.091	-169.843	0.253	-0.009
-530.077	-96.390	0.056	-0.015
-529.062	-160.858	-0.147	-0.008
-528.048	-17.158	0.137	-0.086
-527.033	800.000	-0.103	0.299
-526.018	-31.679	0.190	-0.107
-525.004	-200.000	-0.011	-0.431
-523.989	800.000	0.051	-0.191
-522.975	54.239	0.127	-0.122
-521.960	-200.000	0.009	0.292
-520.945	141.424	-0.035	-0.047
-519.931	236.454	0.114	0.189
-518.916	135.394	-0.045	-0.059
-517.902	15.132	-0.103	-0.081
-516.887	-200.000	0.006	0.259
-515.872	-3.000	-0.176	-0.123
-514.858	-200.000	-0.009	-0.226
-513.843	800.000	0.106	-0.392
-512.829	-75.569	0.166	-0.059
-511.814	-200.000	-0.019	0.167
-510.799	-149.213	0.367	0.029
-509.785	-36.340	-0.231	0.125
-508.770	172.959	-0.140	0.201
-507.756	-113.970	0.335	0.065
-506.741	142.770	-0.061	-0.081
-505.726	80.594	0.237	0.256
-504.712	-14.931	-0.305	0.196
-503.697	75.042	-0.041	-0.043
-502.683	168.716	0.198	-0.282
-501.668	40.108	0.157	-0.141
-500.653	-200.000	0.006	-0.134
-499.639	800.000	-0.112	0.347
-498.624	-107.523	0.093	-0.020
-497.610	-164.638	0.058	-0.003
-496.595	800.000	0.067	-0.256
-495.581	615.563	-0.139	-0.348
-494.566	302.673	-0.161	-0.297
-493.551	-200.000	-0.059	-0.412
-492.537	800.000	-0.035	-0.125
-491.522	282.484	-0.180	0.323
-490.508	385.792	0.084	0.174
-489.493	-63.625	0.352	-0.144
-488.478	-27.773	-0.177	-0.103
-487.464	48.483	-0.433	0.405
-486.449	-142.639	0.325	0.032
-485.435	527.048	0.102	0.241
-484.420	428.378	-0.130	0.281
-483.405	62.765	-0.321	0.321
-482.391	-200.000	-0.004	-0.194
-481.376	50.619	-0.084	0.080
-480.362	-200.000	-0.052	-0.261
-479.347	-200.000	0.000	-0.342
-478.332	-107.739	-0.143	-0.031
-477.318	61.315	0.143	0.142
-476.303	-27.620	-0.156	-0.090
-475.289	-200.000	-0.017	-0.292
-474.274	513.079	-0.103	0.240
-473.259	-130.050	-0.413	-0.056
-472.245	-92.966	-0.298	0.083
-471.230	-176.867	-0.347	0.009
-470.216	59.776	0.156	0.154
-469.201	153.758	0.213	0.292
-468.186	-200.000	0.002	-0.201
-467.172	-108.566	-0.162	-0.035
-466.157	-200.000	-0.073	-0.346
-465.143	-60.672	-0.147	-0.062
-464.128	-87.306	-0.208	-0.063
-463.113	-125.429	0.178	-0.027
-462.099	286.773	-0.211	0.380
-461.084	192.002	0.065	-0.098
-460.070	289.717	0.103	-0.187
-459.055	-173.429	0.168	0.005
-458.040	58.776	-0.216	0.212
-457.026	-65.807	0.048	-0.019
-456.011	800.000	0.092	-0.295
-454.997	-121.402	0.225	0.037
-453.982	184.300	0.063	-0.093
-452.968	226.790	0.167	0.271
-451.953	800.000	-0.048	0.177
-450.938	-200.000	-0.064	0.378
-449.924	164.605	-0.177	0.250
-448.909	113.037	0.148	-0.180
-447.895	-17.525	-0.188	-0.118
-446.880	95.062	-0.256	-0.291
-445.865	-200.000	-0.012	0.265
-444.851	-200.000	-0.008	-0.053
-443.836	-100.942	-0.311	0.076
-442.822	153.653	-0.148	-0.202
-441.807	-182.822	0.370	0.007
-440.792	-22.191	0.097	0.059
-439.778	120.903	0.101	0.126
-438.763	519.525	0.048	0.111
-437.749	346.335	-0.071	0.139
-436.734	800.000	0.026	-0.094
-435.719	-3.559	-0.123	0.086
-434.705	566.229	-0.112	0.271
-433.690	-110.799	-0.312	0.064
-432.676	9.755	-0.113	0.086
-431.661	-70.722	0.128	-0.048
-430.646	71.225	-0.100	0.103
-429.632	462.291	0.082	0.183
-428.617	-36.075	0.177	-0.096
-427.603	-9.400	-0.200	0.133
-426.588	24.861	0.265	-0.219
-425.573	-49.527	-0.285	-0.135
-424.559	73.097	-0.101	-0.105
-423.544	-67.873	-0.056	-0.022
-422.530	-2.337	-0.150	0.105
-421.515	320.881	0.037	0.070
-420.500	-14.938	-0.030	0.019
-419.486	159.789	-0.126	0.174
-418.471	-200.000	-0.014	0.210
-417.457	800.000	0.125	-0.388
-416.442	345.131	-0.167	0.327
-415.428	-200.000	0.047	0.486
-414.413	324.794	-0.063	-0.119
-413.398	35.330	-0.316	0.276
-412.384	49.850	0.137	0.129
-411.369	219.708	-0.132	-0.211
-410.355	58.539	0.313	-0.307
-409.340	-38.751	0.390	0.205
-408.325	-139.753	-0.329	-0.035
-407.311	-37.152	0.284	0.151
-406.296	-139.680	0.423	0.045
-405.282	-52.851	0.172	-0.079
-404.267	425.457	-0.108	-0.231
-403.252	-70.513	0.183	-0.069
-402.238	-19.143	0.442	-0.274
-401.223	8.344	0.221	-0.165
-400.209	160.643	-0.147	-0.205
-399.194	-1.050	0.202	-0.142
-398.179	-88.748	-0.140	-0.041
-397.165	477.153	0.039	-0.087
-396.150	-33.223	-0.079	0.044
-395.136	111.813	-0.203	-0.244
-394.121	800.000	0.010	0.034
-393.106	3.175	-0.183	-0.132
-392.092	22.737	-0.260	0.212
-391.077	-200.000	-0.025	0.124
-390.063	-200.000	0.023	0.263
-389.048	-80.608	0.279	0.093
-388.033	118.980	-0.214	-0.263
-387.019	-41.679	0.222	0.114
-386.004	-91.122	0.268	-0.077
-384.990	491.533	-0.142	0.323
-383.975	-124.054	-0.526	0.082
-382.960	-34.898	-0.180	0.098
-381.946	174.192	0.118	0.169
-380.931	526.050	-0.026	-0.062
-379.917	-91.526	0.255	0.072
-378.902	617.316	0.052	-0.129
-377.888	-143.659	-0.264	0.025
-376.873	62.889	-0.098	0.097
-375.858	-48.743	0.275	-0.131
-374.844	-200.000	-0.009	0.364
-373.829	-200.000	0.042	-0.207
-372.815	-82.660	-0.170	0.055
-371.800	-200.000	-0.052	-0.389
-370.785	304.951	-0.105	0.195
-369.771	-125.293	-0.225	0.034
-368.756	34.521	-0.330	-0.287
-367.742	71.042	-0.405	-0.418
-366.727	67.139	0.055	0.055
-365.712	149.883	0.054	0.072
-364.698	101.460	0.099	-0.114
-363.683	800.000	-0.115	0.448
-362.669	-200.000	-0.018	0.172
-361.654	-200.000	0.004	0.063
-360.639	-200.000	-0.005	0.076
-359.625	800.000	-0.028	-0.094
-358.610	-123.774	0.182	-0.029
-357.596	293.193	0.111	0.201
-356.581	302.936	0.059	-0.108
-355.566	83.505	-0.155	-0.168
-354.552	800.000	-0.041	-0.166
-353.537	27.644	0.403	-0.338
-352.523	-200.000	-0.030	-0.270
-351.508	73.267	0.031	0.032
-350.493	-200.000	0.002	0.065
-349.479	800.000	0.091	-0.345
-348.464	-200.000	0.003	-0.427
-347.450	-59.289	0.250	0.107
-346.435	-78.494	0.156	-0.053
-345.420	47.392	0.179	0.165
-344.406	-200.000	-0.014	0.327
-343.391	-106.496	0.085	-0.019
-342.377	800.000	-0.077	-0.244
-341.362	-138.415	-0.160	0.018
-340.348	-71.847	-0.242	0.089
-339.333	-50.994	-0.050	0.023
-338.318	-29.769	-0.066	0.037
-337.304	-200.000	-0.043	0.201
-336.289	-194.399	-0.033	0.000
-335.275	26.575	-0.071	-0.059
-334.260	471.051	0.003	-0.007
-333.245	-6.387	0.288	-0.195
-332.231	435.843	-0.099	-0.215
-331.216	-139.407	-0.078	-0.008
-330.202	95.602	-0.253	-0.286
-329.187	16.815	-0.256	-0.202
-328.172	391.811	-0.038	-0.079
-327.158	-200.000	-0.037	-0.366
-326.143	-200.000	0.008	-0.136
-325.129	-54.205	-0.225	0.101
-324.114	-134.596	-0.176	-0.021
-323.099	-45.072	0.282	0.139
-322.085	800.000	-0.014	0.058
-321.070	-200.000	-0.011	0.271
-320.056	518.768	0.047	0.110
-319.041	-86.578	-0.186	0.057
-318.026	-200.000	-0.003	0.031
-317.012	60.238	-0.109	-0.107
-315.997	214.060	0.108	-0.170
-314.983	800.000	-0.064	-0.202
-313.968	-107.835	0.223	-0.048
-312.953	-200.000	-0.050	0.311
-311.939	-200.000	-0.022	0.290
-310.924	-110.462	-0.029	0.006
-309.910	-200.000	-0.001	0.182
-308.895	398.349	0.043	0.089
-307.880	-88.417	-0.133	0.039
-306.866	-82.844	0.328	0.105
-305.851	-4.671	-0.012	0.008
-304.837	800.000	-0.068	0.291
-303.822	-24.875	0.121	0.072
-302.807	-53.303	0.147	-0.067
-301.793	-34.029	-0.149	0.081
-300.778	82.612	-0.191	0.206
-299.764	800.000	-0.053	-0.203
-298.749	-93.785	0.112	-0.031
-297.735	-49.324	-0.098	-0.047
-296.720	366.055	-0.083	0.166
-295.705	721.399	0.049	-0.129
-294.691	-86.654	0.287	0.087
-293.676	152.129	0.148	0.201
-292.662	-73.888	-0.113	0.041
-291.647	71.668	-0.168	-0.174
-290.632	52.253	0.253	-0.239
-289.618	4.294	-0.147	-0.107
-288.603	-200.000	-0.003	-0.087
-287.589	-19.083	0.232	-0.143
-286.574	85.603	0.162	-0.176
-285.559	631.256	-0.111	-0.279
-284.545	-40.119	0.382	-0.197
-283.530	189.787	-0.058	-0.086
-282.516	67.580	-0.255	-0.258
-281.501	-105.151	0.110	-0.025
-280.486	-114.049	0.090	0.017
-279.472	-166.651	0.241	0.010
-278.457	800.000	0.019	0.059
-277.443	-125.983	0.143	-0.021
-276.428	36.307	-0.100	0.087
-275.413	233.792	-0.153	0.249
-274.399	-67.900	0.180	0.070
-273.384	5.362	0.110	0.080
-272.370	-49.419	-0.154	0.073
-271.355	-41.969	0.076	-0.039
-270.340	-135.060	-0.082	0.010
-269.326	-166.055	0.326	0.014
-268.311	-35.713	-0.250	0.135
-267.297	30.401	0.188	0.159
-266.282	-200.000	-0.056	-0.306
-265.267	-200.000	-0.030	0.159
-264.253	88.035	-0.163	-0.179
-263.238	-108.331	-0.108	0.023
-262.224	-55.545	0.529	-0.235
-261.209	800.000	-0.056	0.202
-260.195	152.722	-0.027	0.037
-259.180	0.605	-0.347	0.246
-258.165	-15.705	0.280	0.177
-257.151	-200.000	-0.013	-0.405
-256.136	-122.630	-0.335	-0.054
-255.122	-69.634	-0.047	0.018
-254.107	320.845	0.060	0.113
-253.092	146.456	0.070	-0.093
-252.078	-68.973	-0.192	-0.073
-251.063	800.000	0.046	0.172
-250.049	103.296	0.227	0.263
-249.034	-117.029	-0.201	-0.036
-248.019	683.420	-0.098	0.253
-247.005	800.000	0.031	-0.093
-245.990	-175.499	0.445	-0.012
-244.976	142.406	0.150	-0.198
-243.961	-200.000	0.107	0.534
-242.946	-200.000	0.005	0.102
-241.932	142.039	-0.096	0.126
-240.917	691.844	-0.036	0.093
-239.903	-126.553	-0.216	-0.032
-238.888	-172.555	-0.170	0.005
-237.873	800.000	-0.051	-0.184
-236.859	-200.000	0.047	-0.222
-235.844	670.016	0.078	0.200
-234.830	-200.000	0.009	0.126
-233.815	800.000	-0.070	0.210
-232.800	-120.663	0.227	0.038
-231.786	198.618	0.140	0.212
-230.771	-136.275	-0.081	0.009
-229.757	-148.367	-0.164	-0.013
-228.742	125.727	-0.088	0.110
-227.727	140.835	0.020	-0.026
-226.713	-3.388	0.061	0.042
-225.698	405.214	0.045	0.095
-224.684	4.719	0.254	-0.185
-223.669	179.376	0.093	-0.134
-222.655	-8.453	0.213	-0.142
-221.640	103.190	-0.237	0.275
-220.625	363.688	-0.021	-0.041
-219.611	800.000	-0.079	0.234
-218.596	-200.000	-0.011	0.282
-217.582	-200.000	0.021	0.119
-216.567	234.546	-0.210	0.342
-215.552	748.962	-0.069	0.183
-214.538	538.262	-0.047	0.109
-213.523	-200.000	-0.007	0.133
-212.509	-5.854	0.128	-0.087
-211.494	-200.000	-0.051	0.323
-210.479	-77.842	0.111	-0.038
-209.465	137.646	-0.080	-0.104
-208.450	628.888	-0.047	0.117
-207.436	107.048	0.106	0.124
-206.421	-106.292	0.043	0.010
-205.406	510.545	-0.066	0.152
-204.392	-86.517	0.507	0.154
-203.377	-78.211	-0.136	0.046
-202.363	-27.683	-0.102	0.058
-201.348	40.462	-0.057	-0.051
-200.333	650.747	0.085	-0.215
-199.319	800.000	-0.085	0.250
-198.304	-85.126	-0.245	0.076
-197.290	-200.000	0.068	-0.337
-196.275	800.000	0.023	0.087
-195.260	-70.180	-0.070	0.026
-194.246	-67.677	-0.331	-0.128
-193.231	314.379	-0.031	-0.058
-192.217	-200.000	-0.020	0.168
-191.202	254.073	-0.157	-0.266
-190.187	-200.000	-0.017	0.280
-189.173	-200.000	0.074	0.323
-188.158	225.608	0.120	0.192
-187.144	129.878	-0.188	-0.238
-186.129	-78.241	-0.249	-0.085
-185.114	32.376	-0.225	0.192
-184.100	800.000	-0.032	0.108
-183.085	-200.000	0.032	0.194
-182.071	-29.812	0.243	0.137
-181.056	-149.808	0.191	-0.015
-180.042	2.271	0.140	-0.100
-179.027	-26.454	-0.184	0.106
-178.012	430.491	0.092	0.198
-176.998	-100.671	0.065	0.016
-175.983	355.215	-0.027	-0.054
-174.969	551.625	-0.068	-0.161
-173.954	-70.988	0.423	-0.157
-172.939	-46.255	0.163	0.079
-171.925	-200.000	0.011	-0.108
-170.910	-149.189	-0.109	-0.009
-169.896	-122.782	-0.101	-0.016
-168.881	-10.767	0.026	0.017
-167.866	-17.151	0.260	-0.162
-166.852	800.000	0.016	0.066
-165.837	186.525	-0.101	0.149
-164.823	-48.130	0.294	-0.140
-163.808	30.187	0.169	-0.142
-162.793	800.000	0.034	-0.102
-161.779	484.525	-0.078	0.175
-160.764	-3.493	0.242	0.166
-159.750	-33.240	0.257	0.140
-158.735	-166.887	0.283	0.011
-157.720	-183.437	0.271	-0.005
-156.706	449.556	0.064	0.140
-155.691	-76.812	0.028	0.010
-154.677	388.330	0.065	0.133
-153.662	-200.000	-0.006	0.037
-152.647	-200.000	0.002	0.092
-151.633	484.487	0.057	0.129
-150.618	-200.000	0.039	0.308
-149.604	-200.000	-0.031	-0.137
-148.589	-200.000	-0.056	-0.254
-147.574	63.898	0.128	-0.127
-146.560	62.653	0.171	-0.169
-145.545	366.256	-0.167	-0.332
-144.531	-200.000	0.004	0.082
-143.516	-53.094	-0.331	-0.150
-142.502	-54.804	-0.171	-0.076
-141.487	-33.189	0.436	0.238
-140.472	-38.063	0.174	-0.091
-139.458	229.465	0.142	-0.228
-138.443	21.784	-0.034	0.027
-137.429	-22.190	0.092	0.055
-136.414	11.254	0.245	-0.185
-135.399	800.000	0.092	-0.327
-134.385	-114.854	0.174	-0.033
-133.370	299.839	0.090	-0.163
-132.356	36.560	0.337	-0.293
-131.341	800.000	-0.045	-0.126
-130.326	-9.680	-0.098	-0.065
-129.312	-107.418	-0.119	0.026
-128.297	407.607	-0.142	-0.296
-127.283	440.911	0.144	-0.311
-126.268	75.626	0.319	-0.332
-125.253	-11.012	-0.079	-0.052
-124.239	-29.883	0.187	-0.105
-123.224	800.000	0.056	0.182
-122.210	235.618	-0.117	-0.191
-121.195	46.467	-0.146	0.134
