DTS Sentinel unit serial number:	SN413079Multiplexer serial number:	ORYXHardware model number:	OX4-SRSoftware version number:	ORYX F/W v4.00 Oryx Data Collector v3.7.2.0data status	okinstallation	princeton_trtdifferential loss correction	single-endedforward channel	channel 3reverse channel	N/Adate	2019/09/13time	05:04:34forward acquisition time	60.00reverse acquisition time	0.00gamma	496.2192k internal	0.2338k external	0.2338temperature offset calibration	1.0138default loss term (dB/km)	0.3790temperature slope calibration	1.0000multiplexer offset coefficient	1.0000multiplexer slope coefficient	1.0000fibre end	0.00T internal ref (°C)	26.44T ext. ref 1 (°C)	4.05T ext. ref 2 (°C)	20.88length (m)	temperature (°C)	Stokes	anti-Stokes-747.200	-200.000	0.012	0.123
-746.185	-200.000	0.103	0.543
-745.171	-183.724	-0.165	-0.003
-744.156	-200.000	0.048	0.369
-743.142	-51.927	0.203	-0.095
-742.127	-200.000	-0.049	0.417
-741.112	800.000	-0.137	0.397
-740.098	-124.417	0.155	-0.024
-739.083	-200.000	0.027	-0.177
-738.069	-7.440	-0.133	-0.090
-737.054	143.993	-0.170	-0.228
-736.039	226.183	-0.149	-0.243
-735.025	800.000	-0.010	0.040
-734.010	-43.010	0.121	-0.062
-732.996	-36.890	0.407	-0.219
-731.981	-200.000	-0.006	-0.226
-730.966	-44.886	-0.246	-0.123
-729.952	56.138	-0.258	-0.252
-728.937	36.703	-0.091	0.080
-727.923	51.688	-0.185	-0.177
-726.908	-200.000	-0.029	-0.269
-725.894	-25.516	0.138	-0.082
-724.879	113.818	0.349	-0.426
-723.864	-153.343	-0.321	-0.022
-722.850	131.654	-0.111	-0.143
-721.835	153.278	-0.285	-0.392
-720.821	-86.657	-0.250	0.077
-719.806	106.034	0.162	0.192
-718.791	81.531	0.194	0.211
-717.777	61.437	-0.172	-0.171
-716.762	-200.000	-0.014	0.070
-715.748	7.101	0.449	0.336
-714.733	800.000	-0.045	0.132
-713.718	-111.641	-0.216	0.044
-712.704	-68.016	-0.081	-0.032
-711.689	113.540	-0.131	-0.159
-710.675	-113.792	0.522	-0.102
-709.660	-143.832	-0.302	-0.029
-708.645	-200.000	-0.019	0.138
-707.631	-139.331	-0.264	-0.028
-706.616	226.952	0.052	-0.085
-705.602	800.000	0.062	-0.180
-704.587	133.476	-0.227	0.294
-703.572	-123.916	-0.130	-0.020
-702.558	-41.014	-0.195	-0.101
-701.543	62.055	-0.090	-0.090
-700.529	-162.267	-0.359	-0.018
-699.514	120.160	0.111	0.139
-698.499	-200.000	-0.046	-0.447
-697.485	-189.973	0.251	0.003
-696.470	-200.000	-0.023	-0.103
-695.456	112.741	0.173	-0.210
-694.441	-197.404	-0.025	-0.000
-693.426	-129.635	-0.176	0.024
-692.412	65.696	0.127	0.129
-691.397	-78.222	-0.213	0.073
-690.383	120.800	-0.208	0.259
-689.368	217.488	0.095	0.152
-688.354	-179.072	0.192	-0.004
-687.339	79.896	0.206	-0.222
-686.324	-200.000	-0.010	-0.168
-685.310	160.790	0.163	-0.227
-684.295	-113.293	-0.343	0.067
-683.281	-81.014	-0.175	0.058
-682.266	95.239	-0.114	-0.131
-681.251	-87.472	0.168	0.051
-680.237	800.000	0.052	0.198
-679.222	92.986	-0.087	0.098
-678.208	246.455	-0.085	-0.144
-677.193	-154.739	-0.118	-0.008
-676.178	108.668	-0.189	0.226
-675.164	-200.000	0.064	0.308
-674.149	332.584	-0.115	-0.223
-673.135	-80.199	0.042	-0.014
-672.120	74.204	-0.051	0.053
-671.105	800.000	0.054	0.159
-670.091	62.051	0.225	0.224
-669.076	-200.000	0.017	0.156
-668.062	-55.263	-0.311	0.140
-667.047	197.981	0.152	0.233
-666.032	800.000	-0.044	-0.156
-665.018	186.439	0.091	-0.135
-664.003	40.157	-0.150	-0.135
-662.989	208.772	0.157	-0.246
-661.974	271.076	-0.150	-0.265
-660.959	-200.000	0.032	-0.320
-659.945	-180.985	-0.059	-0.001
-658.930	-90.377	-0.077	0.022
-657.916	38.719	-0.121	-0.108
-656.901	800.000	0.056	0.174
-655.886	21.057	-0.113	-0.092
-654.872	76.201	-0.231	0.245
-653.857	-46.706	-0.083	-0.040
-652.843	-30.135	-0.285	-0.162
-651.828	-182.890	-0.446	0.008
-650.814	335.103	0.040	0.077
-649.799	8.347	-0.137	0.103
-648.784	-94.545	0.295	0.080
-647.770	-152.141	0.145	-0.011
-646.755	800.000	-0.030	-0.107
-645.741	-39.142	0.298	0.157
-644.726	289.099	-0.150	-0.272
-643.711	-109.396	0.175	0.037
-642.697	576.766	-0.033	0.082
-641.682	-3.934	-0.095	-0.066
-640.668	800.000	0.101	0.336
-639.653	-104.579	-0.212	-0.049
-638.638	-98.139	-0.182	0.047
-637.624	-36.540	-0.260	0.140
-636.609	-32.638	-0.144	-0.080
-635.595	800.000	-0.051	0.212
-634.580	-30.737	-0.114	-0.064
-633.565	-200.000	0.009	0.091
-632.551	77.341	-0.240	-0.255
-631.536	59.645	0.159	0.157
-630.522	-110.651	-0.075	0.016
-629.507	800.000	0.058	0.240
-628.492	-54.231	-0.242	-0.110
-627.478	-200.000	0.003	-0.164
-626.463	-139.769	-0.159	-0.017
-625.449	-84.195	-0.358	-0.113
-624.434	-154.772	0.323	-0.021
-623.419	-116.806	0.214	0.039
-622.405	192.779	-0.081	0.122
-621.390	-102.640	-0.151	-0.036
-620.376	-200.000	0.035	0.241
-619.361	-200.000	0.017	0.271
-618.346	-52.265	0.089	-0.041
-617.332	-31.235	0.144	0.081
-616.317	800.000	0.034	0.131
-615.303	800.000	-0.086	0.286
-614.288	800.000	0.010	-0.040
-613.273	800.000	-0.032	-0.122
-612.259	595.127	0.058	-0.143
-611.244	-102.364	-0.151	-0.036
-610.230	127.882	0.229	-0.291
-609.215	612.138	0.052	-0.131
-608.201	-104.934	-0.373	-0.085
-607.186	27.128	0.133	-0.111
-606.171	-200.000	0.109	-0.494
-605.157	800.000	-0.037	0.135
-604.142	606.568	0.166	-0.413
-603.128	-57.059	0.169	0.074
-602.113	419.637	0.043	0.091
-601.098	-48.064	0.144	-0.069
-600.084	127.890	-0.049	-0.063
-599.069	248.302	-0.108	0.182
-598.055	118.446	-0.127	-0.157
-597.040	-200.000	-0.013	-0.318
-596.025	123.381	-0.185	-0.231
-595.011	69.385	0.186	-0.191
-593.996	369.543	0.151	0.306
-592.982	355.841	-0.192	-0.382
-591.967	-120.541	-0.175	-0.030
-590.952	800.000	0.082	0.271
-589.938	800.000	-0.045	0.184
-588.923	-200.000	0.008	-0.346
-587.909	13.916	-0.241	0.187
-586.894	-150.818	-0.174	0.013
-585.879	-200.000	-0.013	0.239
-584.865	8.870	0.111	0.083
-583.850	-200.000	-0.021	0.097
-582.836	800.000	-0.028	-0.108
-581.821	64.173	0.193	0.193
-580.806	-26.659	0.164	0.095
-579.792	9.672	-0.084	-0.063
-578.777	-200.000	-0.010	0.185
-577.763	173.628	0.157	-0.225
-576.748	800.000	-0.050	0.146
-575.733	-81.669	0.142	-0.047
-574.719	-101.011	-0.036	-0.009
-573.704	318.589	-0.172	-0.324
-572.690	800.000	-0.044	-0.147
-571.675	221.890	0.181	0.291
-570.661	469.136	-0.096	0.214
-569.646	-73.121	-0.200	-0.073
-568.631	800.000	-0.055	0.209
-567.617	-113.191	-0.191	-0.038
-566.602	-200.000	0.029	-0.254
-565.588	0.461	-0.222	0.158
-564.573	-200.000	-0.029	0.346
-563.558	-111.096	-0.091	-0.019
-562.544	226.560	-0.184	0.297
-561.529	-133.462	-0.321	-0.040
-560.515	800.000	-0.024	0.095
-559.500	285.994	0.208	-0.373
-558.485	800.000	0.041	-0.158
-557.471	77.607	-0.191	-0.203
-556.456	355.197	-0.179	0.355
-555.442	-120.079	0.192	0.033
-554.427	38.676	-0.286	-0.254
-553.412	-182.409	0.508	0.009
-552.398	800.000	0.091	-0.273
-551.383	800.000	0.048	0.191
-550.369	-200.000	0.075	0.503
-549.354	-135.697	-0.285	0.034
-548.339	-4.813	-0.059	-0.041
-547.325	-74.193	0.500	0.180
-546.310	-154.185	0.156	0.011
-545.296	-129.738	-0.144	-0.020
-544.281	-200.000	-0.013	0.060
-543.266	56.735	0.177	-0.171
-542.252	578.198	0.041	0.099
-541.237	-172.721	-0.190	0.006
-540.223	29.151	0.177	-0.150
-539.208	-200.000	-0.010	-0.297
-538.193	-33.161	0.007	-0.004
-537.179	460.097	0.077	-0.171
-536.164	-52.080	-0.040	-0.019
-535.150	-137.494	0.380	-0.043
-534.135	660.177	-0.117	-0.300
-533.121	-200.000	-0.013	-0.082
-532.106	-78.192	-0.086	0.029
-531.091	-85.183	-0.227	-0.071
-530.077	-200.000	0.005	-0.128
-529.062	262.290	-0.048	-0.083
-528.048	95.912	0.013	0.014
-527.033	16.861	-0.139	-0.110
-526.018	48.519	-0.157	0.146
-525.004	-54.790	-0.116	0.052
-523.989	-113.433	-0.301	-0.059
-522.975	-200.000	0.000	0.109
-521.960	-83.117	0.126	0.040
-520.945	154.578	-0.019	-0.026
-519.931	-83.785	-0.220	0.070
-518.916	346.345	0.084	0.165
-517.902	800.000	0.124	-0.445
-516.887	143.031	-0.189	0.249
-515.872	-158.145	-0.135	-0.008
-514.858	-55.784	-0.176	-0.078
-513.843	487.826	-0.101	-0.229
-512.829	-36.912	-0.195	0.104
-511.814	159.201	0.073	0.101
-510.799	50.683	-0.264	0.249
-509.785	800.000	0.014	0.061
-508.770	81.116	0.096	-0.103
-507.756	127.753	-0.125	0.158
-506.741	-129.608	-0.146	-0.020
-505.726	-14.692	0.358	-0.229
-504.712	-89.523	-0.257	0.075
-503.697	654.726	0.116	-0.296
-502.683	800.000	-0.013	0.044
-501.668	30.850	-0.171	-0.146
-500.653	800.000	-0.059	-0.255
-499.639	613.921	-0.019	-0.048
-498.624	170.714	0.330	0.471
-497.610	-178.482	0.161	0.004
-496.595	-200.000	0.017	-0.134
-495.581	54.990	0.101	-0.097
-494.566	-142.829	-0.187	0.018
-493.551	84.199	0.027	0.029
-492.537	-167.741	0.049	-0.002
-491.522	800.000	-0.076	0.277
-490.508	488.154	-0.085	0.193
-489.493	491.437	0.070	0.158
-488.478	126.672	0.045	0.056
-487.464	-118.985	-0.172	0.030
-486.449	479.212	0.101	0.226
-485.435	-200.000	-0.013	-0.139
-484.420	284.943	-0.081	0.145
-483.405	65.571	-0.038	-0.038
-482.391	-200.000	-0.027	-0.165
-481.376	486.132	0.135	0.305
-480.362	-192.487	0.465	0.004
-479.347	-31.194	-0.321	0.179
-478.332	-200.000	-0.003	0.059
-477.318	-169.148	-0.217	0.008
-476.303	-149.179	0.166	0.013
-475.289	375.284	0.136	-0.275
-474.274	-157.637	-0.255	-0.015
-473.259	-86.264	-0.214	-0.066
-472.245	299.905	0.080	0.147
-471.230	-41.837	-0.053	-0.027
-470.216	-103.951	0.263	0.061
-469.201	-48.997	0.243	0.116
-468.186	125.979	0.095	0.120
-467.172	22.227	0.112	-0.091
-466.157	0.553	-0.123	0.087
-465.143	212.883	0.061	0.095
-464.128	-100.602	-0.336	-0.082
-463.113	800.000	0.054	0.153
-462.099	40.037	-0.224	-0.200
-461.084	-27.178	-0.061	-0.035
-460.070	-200.000	0.022	0.220
-459.055	-200.000	-0.067	0.319
-458.040	-89.782	-0.225	0.065
-457.026	800.000	-0.115	-0.362
-456.011	-200.000	0.038	0.247
-454.997	800.000	0.052	-0.182
-453.982	-14.232	0.231	0.148
-452.968	144.958	-0.094	0.125
-451.953	800.000	-0.104	-0.315
-450.938	-5.866	-0.092	-0.062
-449.924	-138.564	-0.082	0.009
-448.909	-170.258	0.305	0.011
-447.895	340.668	0.117	-0.226
-446.880	-105.491	0.127	0.029
-445.865	-200.000	0.010	0.131
-444.851	800.000	0.008	-0.023
-443.836	13.680	0.185	0.143
-442.822	-200.000	-0.021	0.482
-441.807	-200.000	0.006	-0.287
-440.792	-17.592	-0.095	0.059
-439.778	-127.653	-0.068	-0.010
-438.763	-106.687	0.145	0.032
-437.749	-200.000	0.033	0.307
-436.734	-128.632	-0.119	0.017
-435.719	457.395	0.126	-0.277
-434.705	134.017	-0.093	0.120
-433.690	36.036	0.218	0.191
-432.676	-44.301	0.175	0.087
-431.661	214.164	-0.080	0.125
-430.646	240.210	-0.174	0.288
-429.632	-64.875	0.318	0.128
-428.617	-200.000	-0.038	-0.353
-427.603	800.000	-0.090	-0.344
-426.588	316.452	-0.130	0.243
-425.573	299.470	-0.009	-0.016
-424.559	-131.412	0.084	0.011
-423.544	119.340	0.186	-0.229
-422.530	540.822	-0.061	-0.144
-421.515	-79.580	-0.068	0.023
-420.500	-28.355	-0.057	0.033
-419.486	337.740	-0.179	-0.345
-418.471	620.959	-0.066	-0.164
-417.457	283.135	0.115	0.204
-416.442	-104.786	-0.198	-0.045
-415.428	445.277	0.138	0.300
-414.413	660.940	0.094	-0.241
-413.398	-13.852	-0.098	-0.063
-412.384	71.155	-0.079	0.081
-411.369	385.240	-0.048	0.099
-410.355	79.834	-0.105	-0.112
-409.340	712.176	0.071	0.187
-408.325	-200.000	0.013	0.416
-407.311	-200.000	-0.069	-0.426
-406.296	226.091	-0.093	0.149
-405.282	-6.283	0.216	0.146
-404.267	-14.458	-0.192	0.123
-403.252	117.992	-0.111	-0.135
-402.238	-7.242	0.214	0.143
-401.223	-144.747	-0.137	-0.012
-400.209	800.000	0.135	-0.554
-399.194	13.606	0.271	0.208
-398.179	800.000	-0.082	-0.226
-397.165	16.657	-0.178	0.139
-396.150	800.000	0.044	-0.134
-395.136	92.563	0.152	0.170
-394.121	-54.832	-0.114	-0.051
-393.106	3.135	-0.258	-0.185
-392.092	597.852	0.067	-0.164
-391.077	355.923	0.105	-0.208
-390.063	-117.937	-0.076	-0.014
-389.048	800.000	-0.019	0.053
-388.033	-200.000	0.003	-0.117
-387.019	4.911	0.154	0.112
-386.004	480.036	0.103	-0.231
-384.990	-27.322	0.213	-0.123
-383.975	-41.395	0.050	0.026
-382.960	-1.298	0.213	0.149
-381.946	-34.838	0.102	0.055
-380.931	178.128	-0.022	0.032
-379.917	185.268	0.095	-0.139
-378.902	10.423	-0.089	-0.067
-377.888	409.498	-0.210	-0.440
-376.873	225.612	-0.177	-0.284
-375.858	-200.000	-0.043	-0.337
-374.844	103.400	0.057	0.066
-373.829	101.025	-0.256	0.295
-372.815	-147.276	-0.178	0.015
-371.800	800.000	0.041	-0.163
-370.785	-29.866	0.229	-0.129
-369.771	-200.000	0.041	-0.230
-368.756	-95.967	0.129	-0.034
-367.742	459.409	-0.011	0.024
-366.727	-76.081	-0.290	0.101
-365.712	-43.806	0.216	-0.107
-364.698	110.494	-0.253	0.301
-363.683	262.455	-0.029	-0.049
-362.669	800.000	0.010	-0.028
-361.654	144.539	0.061	0.080
-360.639	-67.416	0.317	-0.123
-359.625	-158.424	-0.562	-0.032
-358.610	-200.000	0.010	-0.120
-357.596	-63.053	-0.064	0.026
-356.581	800.000	0.063	-0.260
-355.566	241.884	0.036	0.059
-354.552	-200.000	-0.024	0.138
-353.537	-27.989	0.418	0.239
-352.523	261.697	0.159	0.273
-351.508	-200.000	-0.022	0.154
-350.493	174.612	-0.198	-0.282
-349.479	404.926	-0.005	0.010
-348.464	-159.552	0.235	0.013
-347.450	-200.000	0.062	-0.286
-346.435	118.147	-0.063	-0.077
-345.420	-119.505	0.335	-0.057
-344.406	-143.322	0.269	0.026
-343.391	105.394	0.219	0.256
-342.377	134.208	0.083	-0.106
-341.362	-130.451	0.273	-0.036
-340.348	-75.546	0.328	-0.115
-339.333	-72.286	-0.260	-0.095
-338.318	109.144	-0.013	0.016
-337.304	-114.537	-0.189	0.036
-336.289	-76.288	0.175	0.061
-335.275	-117.412	0.449	-0.080
-334.260	146.904	0.144	-0.191
-333.245	150.514	0.233	-0.313
-332.231	107.808	0.072	-0.085
-331.216	-160.595	0.178	-0.009
-330.202	268.673	-0.201	0.348
-329.187	800.000	-0.016	-0.053
-328.172	-114.910	-0.231	0.043
-327.158	734.428	0.058	-0.154
-326.143	64.699	-0.273	-0.272
-325.129	-84.975	0.363	-0.112
-324.114	-59.069	-0.028	0.012
-323.099	292.693	0.031	-0.056
-322.085	76.262	0.228	-0.238
-321.070	118.438	-0.374	-0.455
-320.056	800.000	0.095	0.349
-319.041	800.000	0.055	0.202
-318.026	-40.300	-0.179	-0.092
-317.012	800.000	-0.047	0.137
-315.997	50.197	0.160	-0.149
-314.983	143.825	-0.106	0.139
-313.968	800.000	-0.069	-0.269
-312.953	58.532	-0.078	0.076
-311.939	237.095	-0.079	-0.130
-310.924	-170.588	-0.091	0.003
-309.910	-89.572	0.074	-0.021
-308.895	-74.070	0.261	-0.093
-307.880	-81.871	-0.160	-0.052
-306.866	-200.000	0.001	0.296
-305.851	-66.664	0.199	-0.078
-304.837	-119.665	-0.278	-0.047
-303.822	-143.818	-0.288	-0.027
-302.807	799.438	0.103	-0.281
-301.793	6.134	-0.065	-0.047
-300.778	48.254	0.156	-0.144
-299.764	431.639	-0.004	-0.009
-298.749	497.692	-0.016	0.036
-297.735	-53.487	-0.174	0.079
-296.720	792.670	0.079	-0.213
-295.705	85.099	0.161	0.175
-294.691	-200.000	0.027	0.422
-293.676	-103.585	0.159	0.037
-292.662	-200.000	-0.014	-0.273
-291.647	222.455	0.083	-0.132
-290.632	-200.000	-0.035	-0.354
-289.618	-175.526	-0.078	0.002
-288.603	-66.078	-0.052	-0.021
-287.589	-109.430	-0.271	0.057
-286.574	304.483	-0.074	0.136
-285.559	-8.606	-0.290	-0.192
-284.545	-32.686	-0.182	0.100
-283.530	800.000	-0.093	0.271
-282.516	-152.265	-0.192	-0.014
-281.501	-200.000	0.023	-0.260
-280.486	-200.000	-0.014	0.108
-279.472	-93.901	-0.129	-0.035
-278.457	800.000	-0.031	-0.113
-277.443	-200.000	0.011	-0.167
-276.428	276.722	0.167	0.292
-275.413	37.477	-0.298	0.260
-274.399	-14.165	0.121	-0.077
-273.384	118.883	-0.073	0.088
-272.370	507.564	0.112	-0.256
-271.355	48.718	0.252	0.233
-270.340	355.627	-0.042	0.083
-269.326	-131.445	0.432	0.056
-268.311	-16.384	0.208	-0.130
-267.297	-37.282	0.329	0.173
-266.282	321.848	0.111	0.208
-265.267	800.000	-0.155	0.428
-264.253	213.514	0.217	0.337
-263.238	13.304	0.167	0.128
-262.224	-99.338	0.232	-0.058
-261.209	-36.849	0.249	-0.132
-260.195	-78.214	0.202	-0.069
-259.180	-19.282	0.268	-0.164
-258.165	290.953	0.058	-0.105
-257.151	-30.081	-0.150	-0.084
-256.136	800.000	0.146	0.434
-255.122	-200.000	0.047	0.281
-254.107	-200.000	-0.001	-0.131
-253.092	-94.308	0.017	0.005
-252.078	-200.000	0.001	0.026
-251.063	-200.000	-0.012	0.065
-250.049	800.000	0.050	-0.144
-249.034	-13.305	-0.029	-0.019
-248.019	78.357	0.069	-0.072
-247.005	-200.000	0.017	-0.124
-245.990	-177.860	-0.232	0.005
-244.976	324.593	-0.006	0.012
-243.961	92.721	0.164	-0.182
-242.946	780.675	0.152	-0.409
-241.932	-14.165	-0.122	0.078
-240.917	-97.137	-0.060	0.015
-239.903	-39.287	0.181	0.094
-238.888	1.028	0.104	-0.073
-237.873	-123.618	0.084	0.013
-236.859	800.000	-0.181	-0.529
-235.844	112.542	-0.108	-0.129
-234.830	-200.000	0.008	0.098
-233.815	90.987	0.201	-0.221
-232.800	800.000	0.049	0.182
-231.786	-19.914	-0.038	-0.023
-230.771	-92.732	-0.114	-0.031
-229.757	-200.000	-0.003	0.140
-228.742	-61.919	0.216	0.089
-227.727	116.270	-0.223	-0.269
-226.713	-89.881	-0.456	0.131
-225.698	-114.192	-0.073	0.014
-224.684	-200.000	0.191	-0.001
-223.669	-200.000	0.009	0.068
-222.655	-111.842	-0.187	-0.037
-221.640	13.647	-0.029	-0.022
-220.625	67.984	-0.037	0.037
-219.611	-200.000	0.006	0.172
-218.596	-89.706	-0.229	0.066
-217.582	179.355	-0.058	-0.083
-216.567	-81.895	-0.137	0.044
-215.552	800.000	-0.093	0.397
-214.538	-200.000	-0.011	0.049
-213.523	86.939	-0.093	-0.101
-212.509	-72.905	-0.182	-0.066
-211.494	-200.000	-0.014	0.069
-210.479	150.214	-0.221	0.295
-209.465	83.227	-0.128	0.137
-208.450	800.000	-0.077	0.248
-207.436	105.533	-0.078	-0.090
-206.421	300.632	0.106	-0.191
-205.406	56.137	-0.089	-0.085
-204.392	-17.549	0.224	-0.138
-203.377	-79.049	0.186	0.062
-202.363	-77.043	0.154	-0.053
-201.348	231.228	0.015	-0.025
-200.333	800.000	0.085	0.357
-199.319	-139.754	-0.085	0.009
-198.304	5.110	-0.174	0.126
-197.290	0.194	0.040	-0.028
-196.275	-200.000	0.012	-0.468
-195.260	84.774	-0.151	-0.163
-194.246	212.629	0.061	0.095
-193.231	-200.000	-0.015	-0.245
-192.217	-176.650	-0.183	0.005
-191.202	-66.692	0.077	-0.030
-190.187	-45.145	-0.304	0.148
-189.173	79.460	0.171	0.180
-188.158	-61.538	0.370	-0.153
-187.144	141.366	-0.042	0.054
-186.129	-92.314	0.322	-0.089
-185.114	-52.791	-0.114	0.051
-184.100	-166.332	0.280	-0.012
-183.085	220.607	-0.013	-0.021
-182.071	-160.970	0.287	-0.015
-181.056	-200.000	-0.030	0.182
-180.042	800.000	0.115	0.359
-179.027	-22.224	-0.123	-0.073
-178.012	517.828	0.143	0.327
-176.998	56.652	-0.231	0.220
-175.983	193.971	-0.164	-0.244
-174.969	-140.397	-0.294	0.030
-173.954	754.358	0.009	-0.024
-172.939	-45.345	0.252	0.123
-171.925	183.487	-0.115	0.166
-170.910	-32.225	-0.220	0.121
-169.896	146.580	0.119	0.157
-168.881	-141.602	0.214	0.021
-167.866	-72.422	-0.353	-0.128
-166.852	-200.000	0.000	-0.062
-165.837	-56.070	0.165	-0.072
-164.823	-39.621	0.223	0.114
-163.808	-200.000	0.026	0.319
-162.793	318.747	-0.071	0.131
-161.779	-129.668	0.142	-0.019
-160.764	-131.947	0.202	0.026
-159.750	155.176	-0.133	0.179
-158.735	-200.000	0.024	0.137
-157.720	156.260	-0.112	0.151
-156.706	715.225	-0.061	0.158
-155.691	136.228	-0.197	-0.251
-154.677	800.000	-0.046	0.151
-153.662	-91.016	-0.047	0.013
-152.647	729.866	0.051	-0.133
-151.633	-101.196	0.175	0.042
-150.618	359.926	-0.109	-0.215
-149.604	158.584	-0.164	-0.224
-148.589	19.091	0.235	0.185
-147.574	-61.373	-0.165	-0.068
-146.560	-132.446	-0.213	-0.027
-145.545	539.569	0.114	0.265
-144.531	-46.049	-0.125	-0.060
-143.516	800.000	-0.048	-0.140
-142.502	322.388	0.069	0.129
-141.487	-91.624	-0.370	0.103
-140.472	-141.420	0.018	-0.002
-139.458	-10.346	0.059	-0.038
-138.443	-200.000	-0.013	-0.127
-137.429	-200.000	-0.025	-0.227
-136.414	-200.000	0.020	-0.186
-135.399	-7.859	-0.180	0.119
-134.385	437.872	-0.014	0.030
-133.370	-62.247	-0.088	-0.036
-132.356	-200.000	0.016	0.107
-131.341	-63.810	0.075	-0.030
-130.326	-72.125	-0.117	-0.042
-129.312	150.960	0.161	0.215
-128.297	-86.994	0.133	0.040
-127.283	-110.297	0.175	0.036
-126.268	-70.220	-0.086	-0.032
-125.253	28.744	-0.464	-0.385
-124.239	60.840	-0.185	0.179
-123.224	-12.398	-0.220	0.141
-122.210	-200.000	0.050	-0.325
