DTS Sentinel unit serial number:	SN413079Multiplexer serial number:	ORYXHardware model number:	OX4-SRSoftware version number:	ORYX F/W v4.00 Oryx Data Collector v3.7.2.0data status	okinstallation	princeton_trtdifferential loss correction	single-endedforward channel	channel 3reverse channel	N/Adate	2019/09/13time	10:40:35forward acquisition time	60.00reverse acquisition time	0.00gamma	496.2192k internal	0.2320k external	0.2320temperature offset calibration	1.0144default loss term (dB/km)	0.3790temperature slope calibration	1.0000multiplexer offset coefficient	1.0000multiplexer slope coefficient	1.0000fibre end	0.00T internal ref (°C)	31.42T ext. ref 1 (°C)	4.58T ext. ref 2 (°C)	28.16length (m)	temperature (°C)	Stokes	anti-Stokes-747.200	-83.887	0.175	0.056
-746.185	-39.535	0.223	-0.118
-745.171	800.000	-0.009	-0.038
-744.156	-136.429	0.116	-0.014
-743.142	-169.469	0.204	-0.008
-742.127	146.079	-0.129	0.175
-741.112	284.319	-0.077	0.139
-740.098	-200.000	-0.017	0.196
-739.083	800.000	-0.061	0.230
-738.069	800.000	-0.090	0.305
-737.054	46.525	0.214	0.201
-736.039	-61.002	-0.196	-0.084
-735.025	-71.706	0.254	0.096
-734.010	149.587	0.075	-0.102
-732.996	-200.000	0.040	-0.333
-731.981	-200.000	0.005	-0.026
-730.966	800.000	-0.068	0.192
-729.952	-34.288	0.115	0.064
-728.937	-200.000	0.011	-0.157
-727.923	445.737	-0.057	-0.126
-726.908	-195.131	-0.314	0.002
-725.894	-72.282	-0.191	0.071
-724.879	-70.731	-0.294	-0.112
-723.864	-0.213	0.194	-0.140
-722.850	-200.000	-0.072	0.438
-721.835	-48.409	-0.403	-0.196
-720.821	-33.686	0.304	-0.169
-719.806	-124.670	-0.436	-0.068
-718.791	-167.764	-0.371	-0.015
-717.777	-58.524	-0.159	0.070
-716.762	-83.923	-0.249	-0.080
-715.748	-200.000	0.001	0.022
-714.733	800.000	-0.041	0.177
-713.718	35.922	0.039	-0.034
-712.704	258.439	-0.087	0.152
-711.689	-101.955	-0.171	0.042
-710.675	-84.055	0.163	-0.052
-709.660	52.050	0.216	-0.208
-708.645	-25.349	0.361	-0.216
-707.631	800.000	0.037	-0.157
-706.616	26.442	0.202	0.171
-705.602	-200.000	0.092	-0.475
-704.587	800.000	-0.128	-0.410
-703.572	800.000	0.026	0.090
-702.558	794.679	-0.092	0.256
-701.543	-49.539	-0.191	-0.092
-700.529	-19.279	-0.185	0.116
-699.514	800.000	-0.019	0.058
-698.499	162.563	-0.180	-0.254
-697.485	38.777	0.107	0.096
-696.470	341.788	-0.009	-0.017
-695.456	153.699	0.163	-0.225
-694.441	57.480	-0.127	-0.125
-693.426	-35.718	0.285	0.156
-692.412	-35.071	-0.148	-0.081
-691.397	-115.957	-0.226	0.043
-690.383	-24.896	-0.034	0.021
-689.368	86.597	0.113	-0.126
-688.354	800.000	-0.131	0.385
-687.339	-16.600	0.259	0.165
-686.324	301.555	0.123	0.230
-685.310	-26.837	0.246	-0.145
-684.295	-200.000	-0.017	-0.118
-683.281	346.145	-0.071	0.141
-682.266	-138.292	0.387	0.043
-681.251	51.760	-0.129	-0.124
-680.237	-21.659	0.185	0.114
-679.222	-38.297	0.179	0.096
-678.208	-200.000	-0.024	-0.218
-677.193	-96.065	-0.237	-0.063
-676.178	114.511	-0.245	0.301
-675.164	391.669	-0.090	-0.188
-674.149	121.461	0.170	0.213
-673.135	-20.822	-0.070	0.043
-672.120	-29.245	0.157	-0.090
-671.105	-200.000	0.023	0.156
-670.091	-200.000	0.011	-0.110
-669.076	-44.179	0.247	-0.125
-668.062	234.913	0.124	0.207
-667.047	-8.863	-0.253	-0.171
-666.032	-65.995	-0.276	0.111
-665.018	-58.982	-0.147	-0.064
-664.003	-62.828	-0.104	0.043
-662.989	-105.514	-0.213	0.049
-661.974	-116.237	0.240	0.045
-660.959	256.113	-0.119	0.206
-659.945	800.000	0.052	-0.186
-658.930	103.329	-0.098	-0.116
-657.916	-182.052	-0.469	0.009
-656.901	-87.711	0.300	-0.091
-655.886	781.630	0.096	-0.264
-654.872	105.427	0.054	-0.064
-653.857	800.000	0.072	-0.271
-652.843	800.000	-0.101	0.367
-651.828	393.423	-0.074	0.156
-650.814	800.000	-0.040	-0.140
-649.799	-200.000	0.055	0.309
-648.784	-118.145	0.118	0.021
-647.770	-200.000	-0.007	-0.128
-646.755	-65.924	0.251	0.101
-645.741	61.973	-0.110	-0.111
-644.726	-40.245	-0.281	0.148
-643.711	-200.000	-0.016	0.076
-642.697	206.298	-0.024	0.038
-641.682	-120.294	-0.034	-0.006
-640.668	-22.513	-0.073	0.044
-639.653	-75.654	-0.346	0.124
-638.638	-32.097	-0.202	-0.114
-637.624	-200.000	0.025	0.241
-636.609	-83.524	-0.370	0.119
-635.595	800.000	-0.020	-0.065
-634.580	-200.000	0.050	-0.330
-633.565	0.388	-0.182	0.131
-632.551	-58.592	-0.269	-0.117
-631.536	800.000	-0.063	-0.279
-630.522	-200.000	-0.002	0.243
-629.507	800.000	-0.099	0.296
-628.492	-33.220	-0.197	0.110
-627.478	-41.085	-0.149	-0.077
-626.463	128.477	0.113	-0.144
-625.449	-73.666	-0.358	0.131
-624.434	-200.000	0.008	-0.071
-623.419	800.000	0.082	0.284
-622.405	23.902	0.176	0.146
-621.390	-153.514	0.251	-0.017
-620.376	-35.580	-0.115	-0.063
-619.361	800.000	-0.051	-0.205
-618.346	28.293	0.149	0.126
-617.332	-34.987	-0.248	-0.136
-616.317	-200.000	-0.001	-0.153
-615.303	486.566	0.161	0.369
-614.288	155.581	0.171	0.238
-613.273	-200.000	-0.002	0.171
-612.259	160.668	-0.175	0.246
-611.244	-102.302	-0.260	-0.063
-610.230	-78.834	-0.162	-0.055
-609.215	-200.000	-0.023	0.202
-608.201	-200.000	-0.013	0.082
-607.186	-23.260	-0.191	-0.116
-606.171	-94.175	0.240	0.066
-605.157	-33.250	-0.230	-0.128
-604.142	-16.432	-0.228	0.146
-603.128	-130.409	-0.104	0.014
-602.113	-102.589	-0.231	-0.056
-601.098	-48.583	0.289	0.140
-600.084	194.966	0.066	-0.101
-599.069	-77.637	-0.223	0.077
-598.055	-51.259	0.212	-0.100
-597.040	56.344	-0.195	-0.191
-596.025	-200.000	-0.008	-0.102
-595.011	-50.493	-0.140	0.066
-593.996	588.782	-0.055	0.136
-592.982	-5.799	-0.082	0.057
-591.967	-52.170	0.369	-0.172
-590.952	289.459	0.142	-0.259
-589.938	-144.427	0.201	0.019
-588.923	-109.575	-0.262	-0.055
-587.909	596.181	-0.115	-0.286
-586.894	-200.000	-0.050	-0.258
-585.879	20.825	-0.202	0.165
-584.865	18.556	-0.229	0.184
-583.850	197.514	0.107	-0.164
-582.836	2.366	0.077	0.056
-581.821	29.620	0.176	0.151
-580.806	228.619	0.054	-0.089
-579.792	-169.242	-0.122	-0.005
-578.777	-160.679	-0.094	-0.005
-577.763	120.805	-0.067	0.084
-576.748	-81.168	-0.395	-0.131
-575.733	276.823	-0.059	-0.106
-574.719	-31.744	0.176	0.099
-573.704	452.463	-0.132	0.294
-572.690	-23.832	-0.154	0.093
-571.675	-156.218	0.053	-0.003
-570.661	-8.661	-0.041	0.028
-569.646	-43.574	-0.045	0.023
-568.631	407.816	-0.133	0.282
-567.617	200.413	0.048	0.074
-566.602	-200.000	-0.000	-0.038
-565.588	-200.000	0.012	-0.069
-564.573	50.664	0.089	-0.084
-563.558	192.435	-0.091	0.137
-562.544	178.971	-0.132	-0.194
-561.529	-200.000	0.000	0.141
-560.515	-200.000	0.017	-0.284
-559.500	412.471	0.095	0.202
-558.485	800.000	-0.137	-0.414
-557.471	-33.115	-0.174	0.097
-556.456	352.218	0.099	-0.197
-555.442	-17.692	-0.221	-0.139
-554.427	2.366	-0.074	0.054
-553.412	345.888	-0.080	-0.157
-552.398	-144.644	-0.266	-0.025
-551.383	507.657	-0.045	0.104
-550.369	116.004	-0.191	-0.235
-549.354	169.222	-0.100	0.143
-548.339	463.677	-0.066	0.148
-547.325	-31.182	-0.102	0.058
-546.310	800.000	-0.078	0.336
-545.296	-200.000	0.008	0.146
-544.281	134.302	0.162	0.210
-543.266	405.766	-0.047	-0.098
-542.252	173.787	-0.195	-0.283
-541.237	-126.098	-0.163	-0.025
-540.223	171.149	-0.126	0.181
-539.208	800.000	-0.029	-0.123
-538.193	-9.300	0.170	-0.114
-537.179	189.880	0.122	-0.183
-536.164	579.750	-0.092	-0.226
-535.150	343.986	0.024	-0.048
-534.135	-200.000	0.006	0.104
-533.121	208.704	0.161	-0.253
-532.106	800.000	0.154	-0.495
-531.091	226.719	-0.030	-0.050
-530.077	-116.639	0.315	0.058
-529.062	-61.027	0.162	-0.069
-528.048	610.290	0.111	-0.279
-527.033	-74.113	0.193	0.070
-526.018	800.000	0.025	0.106
-525.004	-57.585	-0.356	-0.156
-523.989	-53.220	0.186	-0.086
-522.975	435.896	0.127	-0.277
-521.960	-200.000	-0.037	-0.263
-520.945	301.188	0.117	0.216
-519.931	-36.392	0.233	-0.126
-518.916	-2.967	-0.093	-0.065
-517.902	-34.441	-0.190	0.104
-516.887	-166.063	-0.387	0.017
-515.872	85.142	-0.137	-0.151
-514.858	800.000	0.043	-0.175
-513.843	-200.000	0.018	-0.214
-512.829	-200.000	-0.011	-0.246
-511.814	65.025	0.220	-0.223
-510.799	-72.255	0.095	-0.035
-509.785	800.000	0.074	-0.299
-508.770	800.000	0.073	0.276
-507.756	-87.368	0.236	0.072
-506.741	-130.657	-0.251	-0.034
-505.726	169.120	-0.149	-0.213
-504.712	117.825	-0.106	0.131
-503.697	-171.390	-0.181	-0.006
-502.683	191.297	-0.219	0.330
-501.668	-105.235	-0.048	0.011
-500.653	-200.000	0.043	-0.219
-499.639	-200.000	0.002	0.110
-498.624	278.225	-0.109	0.195
-497.610	73.716	0.128	0.134
-496.595	800.000	-0.173	0.482
-495.581	800.000	0.037	0.156
-494.566	171.187	0.144	-0.207
-493.551	50.584	-0.075	0.071
-492.537	759.453	-0.094	0.256
-491.522	496.270	-0.098	0.225
-490.508	58.564	-0.069	-0.067
-489.493	63.006	-0.231	-0.231
-488.478	-200.000	-0.007	-0.233
-487.464	-200.000	0.010	-0.139
-486.449	34.260	-0.034	-0.029
-485.435	800.000	0.033	0.125
-484.420	99.078	-0.124	0.143
-483.405	-48.662	-0.185	0.089
-482.391	-66.922	-0.041	0.016
-481.376	-200.000	0.047	0.244
-480.362	-200.000	0.026	-0.308
-479.347	-200.000	-0.012	-0.067
-478.332	150.480	-0.065	0.088
-477.318	-200.000	0.011	-0.341
-476.303	-133.477	0.198	-0.025
-475.289	369.847	-0.085	-0.173
-474.274	36.493	0.157	-0.139
-473.259	133.748	0.055	-0.071
-472.245	-71.502	0.102	0.038
-471.230	-59.995	-0.258	-0.110
-470.216	-200.000	0.023	0.135
-469.201	-60.878	0.180	0.076
-468.186	144.688	0.053	-0.071
-467.172	-106.765	-0.256	-0.057
-466.157	159.587	0.127	-0.176
-465.143	305.965	-0.041	-0.076
-464.128	-8.885	-0.040	-0.027
-463.113	330.052	0.129	-0.249
-462.099	-129.122	0.167	0.023
-461.084	-97.455	-0.127	-0.033
-460.070	487.711	0.077	0.176
-459.055	800.000	-0.089	-0.314
-458.040	-143.064	-0.193	-0.019
-457.026	476.041	-0.024	-0.055
-456.011	-68.213	0.103	-0.040
-454.997	-6.550	0.176	0.120
-453.982	-59.835	0.203	0.087
-452.968	73.867	-0.044	0.047
-451.953	800.000	0.115	-0.375
-450.938	383.412	-0.093	0.190
-449.924	-101.000	-0.213	-0.052
-448.909	-151.741	0.299	0.022
-447.895	-200.000	-0.049	0.234
-446.880	623.162	-0.025	0.063
-445.865	-155.817	-0.115	0.007
-444.851	800.000	-0.048	0.133
-443.836	-144.005	0.230	0.022
-442.822	-200.000	-0.055	-0.272
-441.807	240.975	0.135	-0.226
-440.792	401.700	0.071	0.149
-439.778	-177.478	-0.289	-0.007
-438.763	218.596	0.211	0.337
-437.749	-125.470	-0.198	-0.030
-436.734	-106.594	-0.124	0.028
-435.719	-82.962	0.074	-0.024
-434.705	800.000	-0.028	0.096
-433.690	50.976	0.168	-0.159
-432.676	-200.000	-0.030	-0.135
-431.661	800.000	0.048	-0.198
-430.646	800.000	-0.096	-0.311
-429.632	-66.131	0.137	-0.055
-428.617	212.981	-0.085	-0.134
-427.603	-200.000	0.050	0.388
-426.588	353.311	0.125	-0.248
-425.573	326.744	0.130	-0.249
-424.559	238.426	0.113	0.187
-423.544	101.818	-0.140	-0.163
-422.530	-200.000	-0.000	-0.114
-421.515	391.355	-0.039	0.081
-420.500	282.271	0.056	0.100
-419.486	312.287	0.117	-0.218
-418.471	-41.391	0.099	0.051
-417.457	17.088	-0.276	0.219
-416.442	-132.344	-0.248	0.032
-415.428	-200.000	0.025	-0.411
-414.413	-96.226	0.149	0.039
-413.398	7.450	0.103	0.077
-412.384	-200.000	-0.051	-0.311
-411.369	-200.000	-0.023	0.347
-410.355	91.211	-0.069	-0.077
-409.340	-200.000	0.047	0.269
-408.325	272.473	-0.287	0.505
-407.311	9.353	0.153	-0.116
-406.296	800.000	-0.026	0.089
-405.282	-80.241	-0.206	0.069
-404.267	313.152	-0.106	-0.199
-403.252	366.238	-0.103	-0.208
-402.238	-200.000	0.049	-0.259
-401.223	-136.181	0.182	0.021
-400.209	259.983	0.083	-0.143
-399.194	339.406	0.066	-0.128
-398.179	-200.000	-0.080	-0.353
-397.165	-30.950	0.239	-0.135
-396.150	-128.584	0.012	0.002
-395.136	-155.336	0.212	0.014
-394.121	370.078	-0.060	-0.121
-393.106	-99.809	-0.123	0.031
-392.092	627.230	-0.075	0.188
-391.077	-65.050	-0.195	0.079
-390.063	16.782	0.388	-0.306
-389.048	800.000	-0.058	-0.213
-388.033	800.000	-0.008	0.032
-387.019	-20.148	-0.210	0.129
-386.004	-151.926	0.329	-0.024
-384.990	-51.043	0.102	-0.048
-383.975	21.147	0.269	0.218
-382.960	20.398	-0.229	0.185
-381.946	723.037	0.104	0.275
-380.931	23.528	0.230	0.188
-379.917	-106.856	-0.130	0.029
-378.902	-137.794	-0.037	-0.004
-377.888	10.649	0.317	-0.241
-376.873	182.640	-0.108	0.159
-375.858	-200.000	0.006	0.120
-374.844	15.112	-0.108	-0.084
-373.829	160.509	-0.124	-0.173
-372.815	-200.000	0.003	-0.123
-371.800	167.730	0.237	0.336
-370.785	-41.050	-0.064	-0.033
-369.771	383.321	0.085	-0.174
-368.756	-91.117	0.117	0.034
-367.742	184.312	0.153	-0.226
-366.727	-30.956	-0.254	0.143
-365.712	562.436	-0.093	-0.225
-364.698	52.903	-0.042	0.040
-363.683	5.756	0.188	0.138
-362.669	-83.980	-0.338	-0.107
-361.654	-62.543	0.149	-0.062
-360.639	15.461	0.196	0.154
-359.625	13.305	-0.129	0.099
-358.610	800.000	-0.028	-0.078
-357.596	-147.901	-0.321	-0.027
-356.581	-200.000	-0.021	0.213
-355.566	-200.000	0.062	-0.324
-354.552	800.000	0.063	0.242
-353.537	800.000	-0.016	-0.051
-352.523	475.625	-0.065	-0.145
-351.508	-114.180	-0.296	0.057
-350.493	-174.694	0.165	0.005
-349.479	35.070	0.297	-0.259
-348.464	-200.000	0.062	-0.342
-347.450	-25.205	-0.249	-0.147
-346.435	191.960	0.156	-0.234
-345.420	-200.000	0.407	0.000
-344.406	-200.000	0.003	0.130
-343.391	-62.659	0.192	-0.079
-342.377	142.234	0.166	0.219
-341.362	-200.000	-0.017	-0.077
-340.348	220.793	-0.127	0.202
-339.333	800.000	0.019	-0.075
-338.318	-200.000	0.065	-0.507
-337.304	71.605	-0.137	0.142
-336.289	-200.000	-0.010	-0.129
-335.275	72.686	0.214	0.223
-334.260	7.317	-0.152	0.113
-333.245	-71.094	0.250	-0.093
-332.231	-35.520	0.090	-0.048
-331.216	-16.035	-0.214	-0.136
-330.202	-200.000	-0.016	-0.139
-329.187	127.600	-0.127	-0.160
-328.172	800.000	-0.026	-0.101
-327.158	104.164	0.138	0.162
-326.143	214.485	-0.048	0.076
-325.129	125.460	0.204	0.256
-324.114	-13.087	0.316	-0.205
-323.099	368.976	-0.064	-0.128
-322.085	-45.252	-0.359	0.178
-321.070	-91.756	-0.336	-0.095
-320.056	-200.000	-0.012	0.230
-319.041	207.541	0.112	0.174
-318.026	-200.000	-0.002	-0.091
-317.012	359.728	-0.088	0.175
-315.997	-134.995	0.101	0.012
-314.983	-78.405	0.236	0.080
-313.968	-55.368	0.159	-0.071
-312.953	-200.000	-0.013	0.214
-311.939	117.864	0.160	0.195
-310.924	754.929	0.102	0.273
-309.910	-200.000	0.008	0.054
-308.895	101.218	0.195	0.226
-307.880	21.445	0.129	0.105
-306.866	-200.000	-0.029	0.259
-305.851	38.530	-0.188	-0.167
-304.837	441.826	0.040	-0.086
-303.822	187.870	-0.168	0.250
-302.807	-200.000	0.068	0.307
-301.793	94.684	-0.088	-0.099
-300.778	163.006	-0.328	0.458
-299.764	149.831	-0.116	0.156
-298.749	-135.808	-0.225	-0.026
-297.735	45.575	-0.149	0.136
-296.720	109.027	0.077	-0.091
-295.705	212.345	0.067	-0.105
-294.691	-35.335	0.063	-0.034
-293.676	-200.000	-0.045	-0.216
-292.662	49.387	0.359	-0.335
-291.647	117.119	0.388	-0.473
-290.632	800.000	-0.068	0.219
-289.618	-16.838	-0.123	-0.077
-288.603	-200.000	-0.044	-0.310
-287.589	-100.345	0.176	-0.043
-286.574	-138.414	0.217	0.024
-285.559	0.116	-0.424	0.300
-284.545	-181.920	0.284	0.005
-283.530	-82.213	-0.227	-0.074
-282.516	-0.225	0.047	0.033
-281.501	-200.000	-0.022	0.125
-280.486	-86.306	0.365	0.111
-279.472	-200.000	0.015	0.104
-278.457	470.492	0.135	0.301
-277.443	-200.000	0.115	0.579
-276.428	-200.000	-0.009	-0.268
-275.413	-200.000	-0.036	-0.332
-274.399	-111.684	0.328	0.066
-273.384	12.107	-0.014	-0.010
-272.370	207.897	0.100	-0.155
-271.355	163.910	0.087	-0.122
-270.340	115.799	0.065	-0.078
-269.326	-200.000	0.031	-0.244
-268.311	139.513	-0.095	0.125
-267.297	334.093	-0.076	0.147
-266.282	800.000	0.131	0.403
-265.267	82.349	0.239	0.257
-264.253	-200.000	-0.064	-0.421
-263.238	206.457	-0.042	-0.065
-262.224	-146.973	0.465	0.040
-261.209	-200.000	0.004	-0.197
-260.195	-28.024	-0.172	0.099
-259.180	23.109	0.118	0.096
-258.165	-101.197	0.337	0.082
-257.151	-36.880	0.108	0.058
-256.136	-88.967	0.266	0.078
-255.122	-51.426	-0.202	0.094
-254.107	-200.000	-0.051	-0.290
-253.092	-103.668	0.030	0.007
-252.078	-41.838	0.112	-0.057
-251.063	800.000	-0.143	0.423
-250.049	-200.000	0.017	0.086
-249.034	-76.622	-0.214	0.075
-248.019	143.141	-0.141	0.186
-247.005	605.301	-0.010	-0.025
-245.990	11.648	0.172	-0.131
-244.976	-115.587	0.277	-0.052
-243.961	-193.012	-0.220	0.002
-242.946	-200.000	0.036	-0.324
-241.932	-110.357	-0.247	0.051
-240.917	800.000	0.021	0.068
-239.903	-200.000	0.075	-0.426
-238.888	800.000	0.041	-0.119
-237.873	-12.403	0.260	0.169
-236.859	104.451	0.277	0.324
-235.844	-19.737	0.417	0.256
-234.830	-76.831	0.206	-0.071
-233.815	95.262	0.145	-0.163
-232.800	73.811	0.227	-0.236
-231.786	-200.000	0.026	-0.232
-230.771	54.751	0.132	-0.126
-229.757	51.506	0.155	-0.146
-228.742	154.911	0.039	0.053
-227.727	760.352	0.048	-0.128
-226.713	773.046	0.048	-0.129
-225.698	800.000	-0.021	0.069
-224.684	402.666	-0.148	-0.309
-223.669	418.791	0.106	0.225
-222.655	-133.396	0.144	0.018
-221.640	-200.000	-0.032	0.157
-220.625	1.079	-0.162	-0.115
-219.611	800.000	-0.106	0.300
-218.596	781.536	0.073	0.197
-217.582	14.398	-0.236	0.182
-216.567	-27.060	0.197	-0.114
-215.552	486.984	-0.075	0.170
-214.538	-72.977	0.090	0.033
-213.523	-145.151	0.414	0.037
-212.509	-53.587	-0.096	0.043
-211.494	-125.111	0.214	0.033
-210.479	-165.763	0.304	-0.013
-209.465	-200.000	0.037	-0.188
-208.450	319.706	0.078	-0.146
-207.436	800.000	0.029	0.081
-206.421	-8.396	0.215	-0.143
-205.406	7.076	-0.068	0.050
-204.392	-118.739	0.308	-0.054
-203.377	-200.000	0.016	-0.124
-202.363	177.171	-0.057	-0.082
-201.348	-5.290	-0.105	0.072
-200.333	69.816	-0.165	-0.168
-199.319	47.077	0.205	0.189
-198.304	-78.828	0.208	0.070
-197.290	-80.640	-0.324	-0.107
-196.275	205.566	-0.193	-0.296
-195.260	800.000	-0.066	0.232
-194.246	-200.000	0.000	0.304
-193.231	495.855	0.028	0.063
-192.217	800.000	-0.085	0.343
-191.202	-178.190	0.145	-0.003
-190.187	5.444	-0.260	0.190
-189.173	-79.744	-0.280	0.093
-188.158	0.691	-0.145	-0.103
-187.144	-110.468	-0.170	0.035
-186.129	-200.000	-0.023	-0.196
-185.114	-111.038	0.121	0.025
-184.100	-200.000	-0.019	-0.293
-183.085	-200.000	-0.005	0.075
-182.071	473.608	0.052	-0.116
-181.056	-7.712	-0.109	-0.073
-180.042	425.671	-0.045	0.095
-179.027	-103.024	-0.270	-0.063
-178.012	32.923	0.144	0.123
-176.998	-46.139	0.217	-0.106
-175.983	-104.414	-0.282	-0.064
-174.969	52.243	0.250	-0.235
-173.954	-23.282	0.229	0.136
-172.939	184.053	-0.406	0.594
-171.925	-24.105	0.319	0.189
-170.910	184.884	-0.135	0.198
-169.896	406.461	-0.075	-0.158
-168.881	-200.000	0.028	0.264
-167.866	-200.000	0.026	0.130
-166.852	-165.606	-0.191	0.008
-165.837	120.034	-0.074	0.091
-164.823	-186.658	0.225	0.003
-163.808	-149.735	0.100	0.008
-162.793	-200.000	-0.010	0.198
-161.779	-64.596	0.143	0.057
-160.764	-200.000	0.035	0.183
-159.750	-200.000	0.010	0.190
-158.735	29.757	-0.268	0.226
-157.720	800.000	0.075	0.230
-156.706	99.063	-0.182	0.207
-155.691	-30.211	-0.179	0.101
-154.677	-30.158	0.087	-0.049
-153.662	-159.814	0.147	-0.008
-152.647	22.367	-0.266	-0.215
-151.633	800.000	-0.049	-0.137
-150.618	-200.000	-0.030	0.367
-149.604	-87.306	-0.411	-0.123
-148.589	-40.827	-0.134	0.069
-147.574	-130.156	-0.060	0.008
-146.560	28.600	0.023	0.019
-145.545	40.257	-0.306	0.272
-144.531	328.227	-0.137	-0.261
-143.516	134.577	0.140	-0.180
-142.502	396.115	-0.180	-0.371
-141.487	171.919	0.115	-0.164
-140.472	-47.402	-0.297	0.143
-139.458	800.000	0.059	-0.236
-138.443	-7.587	-0.040	-0.027
-137.429	34.736	0.040	0.035
-136.414	-153.382	0.438	-0.030
-135.399	-2.321	0.101	-0.070
-134.385	119.426	0.112	0.137
-133.370	-87.047	-0.418	0.126
-132.356	-76.966	0.184	-0.063
-131.341	-38.268	-0.287	-0.150
-130.326	-63.036	-0.226	0.092
-129.312	34.061	0.241	-0.207
-128.297	-51.164	0.268	-0.124
-127.283	-46.357	0.129	0.063
-126.268	464.018	-0.250	-0.552
-125.253	-200.000	-0.013	0.113
-124.239	480.951	-0.101	0.226
-123.224	146.015	0.101	-0.134
-122.210	-114.311	-0.223	0.042
