DTS Sentinel unit serial number:	SN413079Multiplexer serial number:	ORYXHardware model number:	OX4-SRSoftware version number:	ORYX F/W v4.00 Oryx Data Collector v3.7.2.0data status	okinstallation	princeton_trtdifferential loss correction	single-endedforward channel	channel 3reverse channel	N/Adate	2019/09/14time	11:48:35forward acquisition time	60.00reverse acquisition time	0.00gamma	496.2192k internal	0.2296k external	0.2296temperature offset calibration	1.0064default loss term (dB/km)	0.3790temperature slope calibration	1.0000multiplexer offset coefficient	1.0000multiplexer slope coefficient	1.0000fibre end	0.00T internal ref (°C)	37.06T ext. ref 1 (°C)	4.62T ext. ref 2 (°C)	33.99length (m)	temperature (°C)	Stokes	anti-Stokes-747.200	-110.789	-0.431	0.091
-746.185	307.782	0.157	-0.300
-745.171	-38.336	-0.149	-0.081
-744.156	-200.000	0.024	0.372
-743.142	-67.103	0.235	0.094
-742.127	-5.480	-0.047	-0.033
-741.112	105.740	0.267	-0.323
-740.098	-89.273	-0.143	0.043
-739.083	-200.000	-0.004	-0.050
-738.069	-200.000	-0.033	0.413
-737.054	800.000	0.040	-0.122
-736.039	-11.415	-0.105	-0.070
-735.025	259.420	-0.021	0.037
-734.010	75.460	-0.116	-0.125
-732.996	800.000	0.061	-0.174
-731.981	-200.000	-0.039	-0.193
-730.966	800.000	-0.056	0.241
-729.952	-38.636	-0.234	-0.126
-728.937	800.000	-0.067	-0.190
-727.923	60.494	-0.092	-0.093
-726.908	-9.760	-0.083	0.056
-725.894	-200.000	0.023	-0.407
-724.879	-200.000	0.038	0.262
-723.864	800.000	-0.053	0.165
-722.850	-77.288	0.321	-0.114
-721.835	-166.868	-0.131	0.006
-720.821	34.562	-0.158	-0.141
-719.806	154.574	-0.096	-0.134
-718.791	-71.760	-0.314	0.120
-717.777	-134.691	0.209	0.026
-716.762	674.600	-0.046	0.122
-715.748	800.000	0.045	-0.137
-714.733	34.554	-0.189	0.169
-713.718	-74.617	-0.367	0.135
-712.704	-200.000	-0.014	0.102
-711.689	-200.000	0.037	-0.000
-710.675	-200.000	0.028	0.500
-709.660	-121.094	0.250	-0.043
-708.645	-69.984	-0.179	-0.070
-707.631	-18.110	-0.146	-0.093
-706.616	276.759	-0.244	-0.443
-705.602	800.000	-0.047	-0.207
-704.587	59.713	-0.101	-0.102
-703.572	-200.000	0.055	-0.511
-702.558	-93.330	0.224	-0.063
-701.543	-200.000	0.319	-0.001
-700.529	312.308	0.112	-0.214
-699.514	-18.029	0.133	-0.085
-698.499	-160.752	-0.082	-0.004
-697.485	-148.913	0.096	0.008
-696.470	-147.411	-0.112	-0.010
-695.456	6.886	0.029	0.022
-694.441	-71.641	-0.333	0.127
-693.426	-131.386	0.144	0.019
-692.412	-139.339	0.166	-0.018
-691.397	800.000	-0.067	-0.225
-690.383	69.104	0.180	0.189
-689.368	-134.792	-0.134	0.017
-688.354	-72.769	0.202	-0.076
-687.339	0.854	0.142	-0.104
-686.324	-200.000	-0.029	0.298
-685.310	158.372	-0.151	0.213
-684.295	-37.624	0.243	0.132
-683.281	380.564	0.023	-0.048
-682.266	-94.957	-0.481	-0.133
-681.251	72.280	-0.148	-0.158
-680.237	-12.653	-0.193	0.128
-679.222	-200.000	0.005	-0.442
-678.208	-200.000	-0.015	0.325
-677.193	800.000	-0.030	-0.109
-676.178	800.000	-0.096	-0.418
-675.164	281.516	-0.161	0.294
-674.149	115.327	0.152	0.189
-673.135	-34.528	0.175	-0.098
-672.120	263.756	-0.048	-0.085
-671.105	439.611	-0.093	-0.206
-670.091	-200.000	0.020	-0.260
-669.076	4.836	-0.018	-0.014
-668.062	86.952	0.247	0.278
-667.047	61.069	0.157	-0.159
-666.032	262.605	-0.119	-0.211
-665.018	95.363	-0.100	-0.116
-664.003	800.000	0.033	-0.112
-662.989	-34.783	0.232	-0.129
-661.974	107.517	-0.166	-0.201
-660.959	240.302	-0.093	0.157
-659.945	86.639	0.051	0.057
-658.930	-170.370	0.137	0.005
-657.916	-46.138	0.336	0.168
-656.901	336.875	0.195	0.385
-655.886	238.056	0.135	0.228
-654.872	800.000	-0.056	-0.159
-653.857	-97.482	0.191	-0.050
-652.843	-38.770	-0.314	-0.169
-651.828	-2.269	-0.125	-0.089
-650.814	-90.816	0.180	-0.053
-649.799	-134.404	-0.269	0.034
-648.784	-200.000	0.003	-0.142
-647.770	146.126	-0.158	0.216
-646.755	175.911	-0.117	0.172
-645.741	800.000	0.023	0.079
-644.726	-23.740	0.083	-0.051
-643.711	-44.954	-0.407	0.206
-642.697	-78.912	0.184	0.064
-641.682	-200.000	-0.010	-0.097
-640.668	-200.000	-0.017	-0.080
-639.653	-118.750	-0.079	-0.014
-638.638	-39.292	0.272	0.145
-637.624	148.893	0.276	0.379
-636.609	50.719	-0.255	-0.246
-635.595	88.643	-0.184	-0.208
-634.580	-109.660	0.462	0.099
-633.565	181.152	-0.100	-0.150
-632.551	-51.451	0.299	-0.142
-631.536	800.000	0.014	-0.051
-630.522	-117.779	-0.324	0.059
-629.507	-99.635	0.221	0.056
-628.492	800.000	0.045	0.153
-627.478	9.753	-0.133	-0.103
-626.463	-200.000	-0.021	-0.235
-625.449	57.334	-0.175	-0.174
-624.434	775.460	-0.068	0.189
-623.419	-109.451	0.392	-0.084
-622.405	619.683	0.031	0.079
-621.390	17.653	0.177	-0.143
-620.376	-19.835	-0.378	0.238
-619.361	-175.314	-0.329	-0.009
-618.346	-43.035	-0.265	-0.136
-617.332	800.000	-0.079	0.233
-616.317	800.000	-0.060	0.261
-615.303	-50.961	0.133	0.063
-614.288	-46.626	-0.260	-0.129
-613.273	-65.929	-0.162	-0.066
-612.259	-144.297	-0.125	0.012
-611.244	-200.000	0.036	0.282
-610.230	133.405	0.099	0.130
-609.215	239.266	0.088	0.149
-608.201	-200.000	-0.012	-0.078
-607.186	410.844	-0.019	-0.041
-606.171	-90.122	-0.197	-0.058
-605.157	-146.461	-0.087	-0.008
-604.142	135.753	-0.161	-0.212
-603.128	-95.633	0.304	-0.083
-602.113	547.582	-0.075	-0.182
-601.098	800.000	0.033	0.106
-600.084	-200.000	-0.073	-0.494
-599.069	-92.832	-0.058	0.017
-598.055	372.025	-0.030	-0.062
-597.040	-200.000	0.002	-0.178
-596.025	-53.997	0.248	-0.114
-595.011	-200.000	0.041	-0.289
-593.996	18.698	0.154	0.125
-592.982	255.773	0.063	0.109
-591.967	800.000	0.045	0.149
-590.952	-200.000	-0.023	-0.231
-589.938	-19.455	-0.047	-0.029
-588.923	340.518	0.110	0.219
-587.909	-70.026	-0.200	-0.077
-586.894	-200.000	0.003	-0.060
-585.879	384.641	0.064	0.135
-584.865	800.000	0.025	0.075
-583.850	-157.509	-0.107	0.007
-582.836	83.711	-0.241	-0.267
-581.821	-52.848	0.127	-0.059
-580.806	-126.040	-0.308	-0.047
-579.792	-117.358	-0.114	-0.021
-578.777	26.068	0.128	0.108
-577.763	376.238	0.251	0.520
-576.748	585.921	-0.061	-0.152
-575.733	21.585	-0.079	-0.066
-574.719	379.877	-0.108	-0.224
-573.704	-108.000	0.287	0.063
-572.690	-145.373	0.491	-0.045
-571.675	216.980	0.103	0.167
-570.661	-48.029	-0.264	0.129
-569.646	8.169	0.162	0.123
-568.631	109.923	-0.110	0.134
-567.617	-112.945	-0.198	-0.040
-566.602	-74.260	0.244	-0.090
-565.588	-30.799	-0.252	0.144
-564.573	-200.000	0.026	-0.246
-563.558	-200.000	0.003	0.018
-562.544	39.948	-0.159	-0.145
-561.529	-66.046	0.156	0.063
-560.515	800.000	-0.083	-0.231
-559.500	33.798	0.214	-0.188
-558.485	800.000	0.063	-0.211
-557.471	94.091	-0.260	-0.299
-556.456	-128.430	0.214	0.031
-555.442	-11.853	-0.160	-0.106
-554.427	-29.430	0.230	-0.133
-553.412	-18.850	-0.144	0.091
-552.398	26.064	-0.306	-0.259
-551.383	-92.255	0.198	0.057
-550.369	7.863	-0.044	0.034
-549.354	800.000	-0.073	0.256
-548.339	-200.000	-0.022	-0.317
-547.325	-17.143	0.133	-0.085
-546.310	234.591	0.183	-0.305
-545.296	800.000	0.058	0.187
-544.281	61.653	-0.076	0.076
-543.266	-113.535	0.223	0.044
-542.252	-200.000	0.072	-0.337
-541.237	182.869	-0.074	0.110
-540.223	-110.828	0.221	-0.046
-539.208	232.019	-0.293	-0.487
-538.193	179.069	0.150	0.222
-537.179	378.109	0.057	-0.118
-536.164	-117.868	-0.290	-0.053
-535.150	-200.000	0.023	-0.189
-534.135	-80.786	0.053	0.018
-533.121	577.177	0.048	0.118
-532.106	-83.919	0.049	-0.016
-531.091	167.379	0.215	-0.310
-530.077	47.958	0.143	0.136
-529.062	-200.000	0.013	-0.155
-528.048	-99.537	0.170	0.043
-527.033	-95.892	0.235	0.063
-526.018	-200.000	0.026	-0.236
-525.004	-41.877	-0.308	0.160
-523.989	749.838	0.023	-0.062
-522.975	180.669	0.012	-0.018
-521.960	-62.866	-0.528	-0.221
-520.945	679.627	0.118	0.312
-519.931	-200.000	0.009	-0.096
-518.916	-148.752	0.260	-0.021
-517.902	-79.183	-0.229	0.079
-516.887	800.000	-0.146	-0.429
-515.872	-200.000	0.001	-0.112
-514.858	-51.999	-0.176	0.083
-513.843	-25.729	-0.249	0.148
-512.829	232.959	-0.031	-0.052
-511.814	800.000	-0.034	0.125
-510.799	217.311	0.169	-0.272
-509.785	246.928	-0.145	-0.248
-508.770	-72.846	-0.053	0.020
-507.756	-130.433	0.120	-0.016
-506.741	-50.151	0.408	-0.195
-505.726	-40.455	0.286	-0.150
-504.712	-138.416	-0.347	-0.039
-503.697	-200.000	-0.054	-0.275
-502.683	-45.516	0.260	-0.130
-501.668	800.000	0.086	-0.292
-500.653	-86.313	0.216	0.067
-499.639	-35.581	0.461	0.253
-498.624	-200.000	0.023	-0.281
-497.610	-127.028	0.158	0.023
-496.595	-196.001	0.310	-0.002
-495.581	-200.000	-0.022	0.105
-494.566	611.594	0.120	-0.304
-493.551	-165.853	-0.102	-0.004
-492.537	115.395	-0.063	0.078
-491.522	45.464	-0.113	0.106
-490.508	-14.008	0.185	-0.121
-489.493	0.662	0.031	-0.022
-488.478	-143.692	-0.110	-0.011
-487.464	-92.807	-0.121	-0.034
-486.449	25.787	-0.282	0.238
-485.435	-77.047	-0.201	-0.071
-484.420	607.997	0.086	0.218
-483.405	239.651	-0.078	0.131
-482.391	-139.886	-0.425	-0.046
-481.376	-200.000	0.016	0.117
-480.362	-72.884	0.298	0.111
-479.347	-36.885	0.133	-0.072
-478.332	607.233	-0.078	-0.196
-477.318	-92.890	0.151	-0.043
-476.303	215.419	0.031	0.050
-475.289	671.916	-0.028	-0.074
-474.274	800.000	0.076	0.329
-473.259	67.100	0.173	-0.178
-472.245	-200.000	-0.014	0.345
-471.230	-26.107	0.191	0.113
-470.216	-55.510	-0.153	0.069
-469.201	-3.410	0.113	0.080
-468.186	-200.000	-0.026	0.123
-467.172	800.000	0.046	-0.174
-466.157	-200.000	0.051	-0.297
-465.143	-136.490	-0.234	0.027
-464.128	-59.520	-0.138	-0.060
-463.113	-121.911	0.421	-0.070
-462.099	-175.756	0.010	-0.000
-461.084	-107.641	0.240	0.053
-460.070	-151.748	-0.124	-0.009
-459.055	697.116	-0.092	0.245
-458.040	83.723	-0.113	-0.125
-457.026	-118.126	-0.286	0.052
-456.011	-12.137	0.198	-0.131
-454.997	137.975	-0.209	0.277
-453.982	-149.227	-0.158	-0.013
-452.968	-41.857	-0.275	0.143
-451.953	800.000	-0.034	0.115
-450.938	-126.207	-0.408	0.062
-449.924	-172.438	-0.319	-0.010
-448.909	800.000	0.068	0.236
-447.895	-64.891	-0.173	0.071
-446.880	-144.143	-0.129	-0.012
-445.865	89.396	0.135	-0.152
-444.851	607.385	-0.076	0.191
-443.836	-69.322	-0.336	-0.130
-442.822	800.000	-0.095	0.267
-441.807	-70.409	0.152	-0.058
-440.792	-137.874	0.221	-0.025
-439.778	-176.536	-0.284	-0.007
-438.763	-67.055	0.190	-0.076
-437.749	-155.884	-0.044	-0.003
-436.734	206.102	-0.164	-0.258
-435.719	800.000	0.145	-0.435
-434.705	34.500	-0.071	-0.062
-433.690	800.000	-0.020	0.066
-432.676	20.596	-0.143	-0.117
-431.661	729.345	-0.065	-0.175
-430.646	-121.257	0.289	0.049
-429.632	-200.000	0.056	0.579
-428.617	100.001	-0.048	-0.056
-427.603	597.609	-0.077	0.192
-426.588	-200.000	-0.013	-0.241
-425.573	381.444	0.204	-0.423
-424.559	81.734	0.297	0.324
-423.544	210.992	0.186	0.295
-422.530	163.883	0.125	-0.177
-421.515	-140.446	0.178	0.019
-420.500	-200.000	0.008	0.127
-419.486	138.654	-0.014	-0.019
-418.471	-178.078	-0.292	0.007
-417.457	-90.638	0.094	0.027
-416.442	800.000	0.053	0.211
-415.428	-147.362	0.178	-0.015
-414.413	114.470	0.090	0.110
-413.398	543.593	0.103	-0.248
-412.384	38.757	0.138	-0.124
-411.369	-30.071	0.168	0.096
-410.355	-3.401	0.251	-0.176
-409.340	-100.881	0.203	-0.050
-408.325	-200.000	0.005	-0.051
-407.311	-169.197	0.023	-0.001
-406.296	370.908	-0.150	0.306
-405.282	-141.438	-0.042	-0.004
-404.267	57.721	0.165	0.163
-403.252	620.928	-0.107	0.272
-402.238	-72.474	0.297	-0.111
-401.223	-149.208	0.151	-0.012
-400.209	-200.000	0.009	-0.110
-399.194	153.018	-0.148	-0.204
-398.179	-50.304	-0.181	0.086
-397.165	145.704	-0.070	-0.094
-396.150	88.430	-0.128	0.144
-395.136	800.000	-0.047	0.159
-394.121	800.000	-0.038	0.161
-393.106	800.000	-0.068	0.228
-392.092	68.726	0.118	-0.122
-391.077	-105.310	0.239	-0.055
-390.063	586.048	-0.092	-0.229
-389.048	65.642	-0.137	0.140
-388.033	391.419	-0.037	-0.078
-387.019	792.463	-0.101	0.280
-386.004	-200.000	0.017	-0.327
-384.990	-119.550	0.061	-0.011
-383.975	427.898	-0.170	-0.371
-382.960	-64.892	0.214	-0.087
-381.946	800.000	0.061	0.226
-380.931	-200.000	-0.033	-0.152
-379.917	-82.925	0.175	0.057
-378.902	54.985	0.332	0.323
-377.888	-200.000	-0.020	0.360
-376.873	69.242	-0.367	-0.380
-375.858	396.005	0.104	-0.219
-374.844	597.326	-0.128	0.319
-373.829	-200.000	-0.005	-0.135
-372.815	-140.818	-0.207	0.022
-371.800	-83.182	-0.157	0.051
-370.785	-46.894	-0.036	0.018
-369.771	-164.760	-0.259	0.012
-368.756	-200.000	0.275	0.000
-367.742	-150.132	0.065	0.005
-366.727	-49.550	0.254	-0.122
-365.712	-35.187	0.213	-0.117
-364.698	-128.273	0.403	-0.058
-363.683	-126.864	0.247	-0.037
-362.669	68.936	0.187	-0.194
-361.654	-98.405	-0.279	-0.072
-360.639	74.371	-0.044	0.046
-359.625	6.977	0.098	0.074
-358.610	-81.181	-0.511	-0.170
-357.596	143.750	-0.065	-0.087
-356.581	359.076	0.025	-0.051
-355.566	264.725	-0.138	0.242
-354.552	-25.453	-0.190	0.113
-353.537	57.446	-0.150	0.148
-352.523	-66.851	-0.199	0.079
-351.508	-89.519	-0.229	-0.068
-350.493	-29.773	-0.118	0.067
-349.479	55.844	0.173	0.169
-348.464	711.345	-0.114	-0.303
-347.450	-42.870	0.144	-0.074
-346.435	-200.000	-0.005	-0.136
-345.420	-90.141	-0.237	-0.070
-344.406	127.842	0.069	0.089
-343.391	56.512	-0.105	-0.103
-342.377	111.122	-0.222	0.268
-341.362	-200.000	0.003	0.172
-340.348	346.222	0.067	-0.133
-339.333	800.000	-0.095	0.279
-338.318	211.989	-0.085	0.135
-337.304	32.786	-0.022	0.019
-336.289	327.800	0.051	-0.098
-335.275	-68.702	0.238	-0.093
-334.260	-82.733	-0.164	0.053
-333.245	800.000	-0.055	-0.156
-332.231	417.668	0.148	-0.319
-331.216	384.542	0.196	-0.407
-330.202	119.851	-0.037	0.046
-329.187	-80.605	0.408	0.137
-328.172	118.920	0.210	-0.261
-327.158	-122.855	-0.235	-0.038
-326.143	-33.715	-0.389	0.215
-325.129	800.000	-0.077	0.237
-324.114	-101.696	-0.305	0.074
-323.099	375.145	0.039	0.081
-322.085	-197.571	-0.117	-0.001
-321.070	-200.000	-0.072	0.337
-320.056	-200.000	-0.017	-0.207
-319.041	169.604	0.024	-0.034
-318.026	800.000	-0.068	0.232
-317.012	228.668	0.123	0.202
-315.997	-200.000	-0.054	0.477
-314.983	-200.000	-0.012	-0.059
-313.968	-200.000	0.001	-0.461
-312.953	132.495	-0.186	0.240
-311.939	-152.068	0.164	-0.012
-310.924	-134.519	0.111	0.014
-309.910	91.721	0.044	0.049
-308.895	259.370	-0.116	0.200
-307.880	-88.652	-0.108	-0.032
-306.866	-103.180	-0.392	0.093
-305.851	110.957	-0.163	-0.197
-304.837	-200.000	0.003	0.175
-303.822	69.676	-0.131	-0.136
-302.807	-200.000	0.043	0.390
-301.793	-153.229	-0.049	0.003
-300.778	-5.705	0.106	0.073
-299.764	281.601	0.096	0.173
-298.749	174.311	-0.091	-0.131
-297.735	226.624	0.080	-0.130
-296.720	28.428	0.165	0.140
-295.705	2.376	0.092	0.067
-294.691	-200.000	-0.017	0.377
-293.676	-200.000	-0.050	-0.260
-292.662	-1.764	-0.226	-0.160
-291.647	11.899	-0.188	-0.145
-290.632	162.986	-0.125	0.176
-289.618	-53.226	0.177	-0.082
-288.603	-98.529	-0.186	0.048
-287.589	-9.521	0.507	0.340
-286.574	81.921	-0.144	0.157
-285.559	69.236	0.115	-0.118
-284.545	177.982	0.098	0.143
-283.530	105.210	-0.051	0.061
-282.516	-200.000	0.011	0.097
-281.501	-90.775	0.303	-0.088
-280.486	-102.330	0.421	0.101
-279.472	-154.695	-0.311	-0.021
-278.457	688.601	0.072	0.188
-277.443	-37.959	0.172	-0.092
-276.428	-133.269	0.165	-0.021
-275.413	-125.873	0.187	-0.028
-274.399	749.194	0.090	-0.243
-273.384	0.503	0.208	0.149
-272.370	800.000	-0.015	-0.043
-271.355	25.680	-0.016	-0.014
-270.340	800.000	0.106	0.365
-269.326	-49.861	-0.161	0.077
-268.311	-200.000	-0.057	0.346
-267.297	-200.000	-0.018	-0.278
-266.282	800.000	0.050	-0.163
-265.267	219.733	-0.163	-0.261
-264.253	11.363	0.078	-0.060
-263.238	-10.906	0.036	-0.024
-262.224	-200.000	-0.062	0.337
-261.209	201.836	-0.170	0.262
-260.195	106.188	0.051	0.061
-259.180	778.992	0.187	-0.512
-258.165	54.553	-0.187	-0.180
-257.151	-135.635	0.259	-0.031
-256.136	233.958	-0.032	-0.052
-255.122	-14.700	-0.199	0.128
-254.107	191.493	0.172	-0.260
-253.092	65.739	0.220	0.223
-252.078	525.355	0.156	0.367
-251.063	249.687	0.062	-0.106
-250.049	800.000	0.089	-0.270
-249.034	-113.441	0.211	0.042
-248.019	58.956	0.087	0.086
-247.005	113.989	0.163	-0.199
-245.990	-200.000	-0.021	-0.180
-244.976	70.469	0.070	-0.072
-243.961	-108.217	0.464	-0.101
-242.946	800.000	0.083	0.262
-241.932	-200.000	0.021	-0.242
-240.917	-142.532	-0.192	0.019
-239.903	800.000	0.057	0.168
-238.888	54.028	-0.225	0.217
-237.873	55.046	-0.208	0.202
-236.859	-200.000	0.009	0.193
-235.844	129.588	0.102	0.131
-234.830	735.519	0.111	0.299
-233.815	-116.058	0.071	0.013
-232.800	800.000	-0.048	0.142
-231.786	-200.000	0.023	-0.126
-230.771	-160.422	0.433	-0.023
-229.757	-200.000	0.022	-0.112
-228.742	131.665	-0.300	0.386
-227.727	-144.319	-0.383	-0.036
-226.713	91.749	0.225	0.253
-225.698	-148.498	-0.130	0.011
-224.684	-48.861	0.208	0.100
-223.669	47.653	0.087	-0.081
-222.655	-200.000	0.050	-0.343
-221.640	-10.035	-0.065	0.043
-220.625	434.407	-0.047	0.101
-219.611	-80.696	-0.387	-0.129
-218.596	-132.203	-0.255	-0.033
-217.582	-200.000	0.036	-0.162
-216.567	16.882	-0.254	0.202
-215.552	152.035	0.194	0.265
-214.538	-19.782	0.028	-0.017
-213.523	-116.489	-0.188	0.035
-212.509	-132.452	-0.260	0.034
-211.494	-124.116	-0.086	-0.013
-210.479	-51.379	-0.184	0.086
-209.465	-200.000	0.012	-0.092
-208.450	66.675	0.100	0.102
-207.436	800.000	-0.033	-0.119
-206.421	-200.000	-0.066	0.357
-205.406	-194.894	0.057	-0.000
-204.392	-194.200	-0.292	0.002
-203.377	206.410	-0.044	-0.068
-202.363	-32.141	-0.187	0.104
-201.348	225.486	0.027	-0.043
-200.333	190.670	-0.212	0.319
-199.319	-88.917	0.080	-0.024
-198.304	250.033	0.061	-0.103
-197.290	69.082	-0.157	0.161
-196.275	4.464	-0.069	-0.050
-195.260	-109.917	-0.061	0.013
-194.246	136.448	0.246	0.321
-193.231	800.000	-0.024	0.096
-192.217	-200.000	0.003	-0.112
-191.202	-17.191	-0.098	-0.062
-190.187	-100.628	0.030	0.007
-189.173	-10.061	0.067	0.044
-188.158	800.000	-0.052	0.210
-187.144	-91.112	-0.092	-0.026
-186.129	-200.000	0.046	0.283
-185.114	327.015	0.044	0.085
-184.100	54.941	-0.346	-0.334
-183.085	618.545	0.043	0.108
-182.071	-67.280	0.212	0.083
-181.056	128.186	-0.102	0.129
-180.042	746.826	0.084	0.227
-179.027	87.596	0.297	-0.328
-178.012	-143.581	0.130	0.012
-176.998	86.492	-0.126	0.139
-175.983	-43.459	0.331	0.167
-174.969	334.378	0.161	0.312
-173.954	63.418	-0.264	0.265
-172.939	-94.840	0.198	-0.054
-171.925	-17.294	-0.190	0.119
-170.910	-60.241	-0.225	0.096
-169.896	-103.138	0.241	-0.057
-168.881	800.000	0.159	-0.451
-167.866	49.521	-0.393	-0.370
-166.852	19.028	0.176	-0.141
-165.837	-200.000	0.024	-0.244
-164.823	-135.466	-0.172	-0.020
-163.808	-62.458	0.270	0.112
-162.793	23.242	0.157	-0.128
-161.779	543.468	-0.048	-0.114
-160.764	800.000	-0.089	-0.369
-159.750	800.000	-0.093	-0.274
-158.735	327.082	-0.060	-0.115
-157.720	-65.939	-0.137	-0.055
-156.706	37.623	0.158	0.140
-155.691	70.879	0.261	-0.269
-154.677	-200.000	-0.061	-0.274
-153.662	130.529	-0.079	0.101
-152.647	-200.000	-0.065	0.288
-151.633	8.582	0.272	-0.204
-150.618	209.284	-0.119	-0.187
-149.604	-200.000	-0.031	-0.145
-148.589	44.489	0.189	-0.173
-147.574	433.642	-0.107	0.232
-146.560	-21.545	0.077	0.047
-145.545	23.990	-0.316	-0.261
-144.531	70.093	-0.076	-0.079
-143.516	441.082	-0.075	0.163
-142.502	-161.761	0.199	0.010
-141.487	-112.454	-0.073	-0.015
-140.472	332.312	-0.131	-0.252
-139.458	-200.000	-0.003	-0.176
-138.443	255.232	0.104	-0.178
-137.429	-109.446	0.158	-0.033
-136.414	6.545	-0.194	0.144
-135.399	214.221	0.118	-0.186
-134.385	-200.000	0.049	0.218
-133.370	107.081	0.265	0.314
-132.356	-129.158	0.112	-0.016
-131.341	124.334	-0.082	-0.102
-130.326	-87.838	0.065	0.020
-129.312	-37.293	0.241	-0.129
-128.297	-136.358	0.163	-0.019
-127.283	179.891	-0.045	-0.066
-126.268	-121.331	-0.270	-0.045
-125.253	225.029	-0.124	-0.200
-124.239	-200.000	-0.030	-0.343
-123.224	3.364	0.164	-0.119
-122.210	453.387	0.088	0.194
