DTS Sentinel unit serial number:	SN413079Multiplexer serial number:	ORYXHardware model number:	OX4-SRSoftware version number:	ORYX F/W v4.00 Oryx Data Collector v3.7.2.0data status	okinstallation	princeton_trtdifferential loss correction	single-endedforward channel	channel 3reverse channel	N/Adate	2019/09/18time	08:28:34forward acquisition time	60.00reverse acquisition time	0.00gamma	496.2192k internal	0.2341k external	0.2341temperature offset calibration	0.9946default loss term (dB/km)	0.3790temperature slope calibration	1.0000multiplexer offset coefficient	1.0000multiplexer slope coefficient	1.0000fibre end	0.00T internal ref (°C)	24.25T ext. ref 1 (°C)	0.22T ext. ref 2 (°C)	19.99length (m)	temperature (°C)	Stokes	anti-Stokes-747.200	188.859	0.197	0.295
-746.185	-33.218	0.304	0.169
-745.171	-146.842	0.106	0.009
-744.156	-109.847	0.213	-0.045
-743.142	212.566	-0.171	0.270
-742.127	-147.855	0.248	0.021
-741.112	67.333	-0.074	0.075
-740.098	-149.867	-0.335	0.026
-739.083	-131.577	-0.086	-0.011
-738.069	34.227	-0.287	0.251
-737.054	800.000	0.035	-0.098
-736.039	-200.000	-0.034	0.201
-735.025	-137.933	-0.511	-0.057
-734.010	-82.065	-0.367	0.120
-732.996	800.000	0.034	-0.094
-731.981	-112.777	-0.385	-0.077
-730.966	-49.840	-0.114	0.054
-729.952	94.145	-0.078	0.088
-728.937	-200.000	-0.052	-0.232
-727.923	-200.000	-0.011	-0.121
-726.908	-149.133	-0.211	-0.017
-725.894	-62.719	-0.220	0.091
-724.879	-22.811	-0.243	0.147
-723.864	359.972	-0.127	-0.254
-722.850	461.215	-0.060	-0.133
-721.835	267.575	-0.149	0.261
-720.821	-53.201	-0.255	-0.117
-719.806	46.479	0.342	-0.317
-718.791	351.242	-0.116	0.231
-717.777	-171.035	-0.335	0.011
-716.762	86.385	0.169	-0.186
-715.748	-200.000	-0.009	-0.265
-714.733	37.667	-0.045	-0.040
-713.718	-152.833	-0.171	0.012
-712.704	-200.000	0.007	0.175
-711.689	235.289	0.271	0.447
-710.675	227.455	0.101	-0.165
-709.660	-39.086	0.296	-0.156
-708.645	-121.789	-0.266	-0.044
-707.631	-200.000	0.002	0.283
-706.616	205.163	0.234	0.364
-705.602	-177.991	-0.180	0.004
-704.587	105.888	-0.080	0.095
-703.572	-200.000	-0.011	-0.184
-702.558	-129.046	0.342	-0.048
-701.543	-71.880	-0.126	-0.047
-700.529	-121.717	-0.086	0.014
-699.514	-25.827	-0.255	-0.150
-698.499	-109.548	-0.161	0.034
-697.485	10.675	0.068	-0.052
-696.470	800.000	0.041	0.137
-695.456	348.849	-0.208	-0.411
-694.441	-200.000	0.010	-0.390
-693.426	-200.000	0.002	-0.020
-692.412	-200.000	0.001	0.271
-691.397	-120.907	0.124	-0.021
-690.383	-200.000	0.040	0.234
-689.368	800.000	0.037	-0.139
-688.354	235.822	0.158	-0.261
-687.339	-7.811	-0.347	-0.234
-686.324	-172.924	0.108	0.003
-685.310	-46.545	0.232	0.114
-684.295	-62.745	0.173	0.072
-683.281	22.244	0.007	0.006
-682.266	-42.285	0.157	0.080
-681.251	-200.000	0.004	0.145
-680.237	-40.999	-0.283	0.146
-679.222	-200.000	0.064	-0.345
-678.208	77.937	0.254	0.271
-677.193	202.665	0.079	-0.123
-676.178	12.877	-0.196	-0.152
-675.164	-158.831	-0.340	0.019
-674.149	23.145	-0.340	-0.279
-673.135	-83.651	-0.089	-0.028
-672.120	-174.082	0.124	-0.004
-671.105	-116.660	-0.215	0.039
-670.091	-103.504	-0.268	-0.063
-669.076	800.000	-0.028	-0.085
-668.062	-9.960	-0.306	0.204
-667.047	25.306	-0.350	-0.291
-666.032	332.088	0.064	-0.123
-665.018	-200.000	0.023	0.117
-664.003	-200.000	-0.006	0.036
-662.989	-148.581	0.146	-0.012
-661.974	-182.125	-0.580	-0.011
-660.959	-200.000	-0.087	-0.543
-659.945	-18.535	0.078	-0.048
-658.930	342.200	-0.115	-0.225
-657.916	-200.000	-0.016	0.211
-656.901	-69.221	-0.237	0.091
-655.886	-111.778	0.086	0.017
-654.872	-159.732	0.423	-0.023
-653.857	-91.873	-0.202	-0.057
-652.843	-36.849	0.199	0.106
-651.828	800.000	-0.027	-0.092
-650.814	-5.596	-0.110	-0.075
-649.799	-141.269	0.201	-0.020
-648.784	36.462	0.021	0.018
-647.770	531.197	0.035	0.083
-646.755	-115.577	-0.179	0.034
-645.741	208.007	-0.171	0.267
-644.726	446.512	-0.057	-0.124
-643.711	189.084	-0.238	-0.356
-642.697	-25.613	0.279	-0.165
-641.682	680.692	-0.072	-0.187
-640.668	-200.000	-0.009	0.089
-639.653	308.122	-0.061	0.113
-638.638	-59.442	0.157	-0.067
-637.624	-200.000	0.028	0.180
-636.609	800.000	0.052	-0.150
-635.595	-14.708	-0.169	0.108
-634.580	55.153	0.125	0.120
-633.565	-200.000	-0.074	0.334
-632.551	-118.458	-0.266	0.047
-631.536	142.867	0.065	-0.087
-630.522	455.719	0.052	-0.115
-629.507	-69.781	-0.166	-0.063
-628.492	-141.377	0.056	-0.006
-627.478	800.000	0.070	0.225
-626.463	67.812	-0.169	0.172
-625.449	-200.000	0.054	-0.332
-624.434	-200.000	-0.017	-0.188
-623.419	-200.000	0.008	0.443
-622.405	95.289	0.138	0.157
-621.390	-200.000	-0.044	-0.200
-620.376	-21.177	-0.270	-0.165
-619.361	800.000	-0.116	-0.412
-618.346	-120.005	0.073	0.012
-617.332	125.098	0.054	0.068
-616.317	-153.961	-0.334	0.023
-615.303	102.278	-0.238	0.277
-614.288	451.045	-0.038	0.083
-613.273	106.608	-0.050	0.059
-612.259	500.025	-0.035	0.081
-611.244	-30.204	-0.265	-0.150
-610.230	-70.667	0.283	0.106
-609.215	-191.497	-0.349	0.003
-608.201	-200.000	0.040	-0.205
-607.186	800.000	0.023	-0.088
-606.171	-200.000	0.033	-0.163
-605.157	-200.000	-0.025	-0.392
-604.142	156.948	-0.129	0.177
-603.128	234.782	0.074	-0.122
-602.113	105.159	-0.030	0.035
-601.098	-37.407	-0.050	0.027
-600.084	-200.000	-0.001	0.089
-599.069	-51.657	0.489	-0.227
-598.055	-168.372	-0.294	-0.011
-597.040	-95.631	0.180	0.048
-596.025	-41.021	-0.317	0.163
-595.011	58.324	0.046	0.045
-593.996	650.944	-0.008	0.020
-592.982	-200.000	0.006	-0.128
-591.967	354.964	0.154	-0.305
-590.952	-154.022	-0.226	-0.015
-589.938	-200.000	-0.016	0.251
-588.923	-70.913	0.043	0.016
-587.909	205.933	-0.120	0.186
-586.894	800.000	-0.065	0.210
-585.879	444.779	0.113	-0.246
-584.865	176.166	-0.211	-0.305
-583.850	-200.000	0.016	-0.194
-582.836	506.448	-0.097	0.223
-581.821	-200.000	0.015	-0.145
-580.806	-18.881	0.281	-0.174
-579.792	261.149	-0.109	0.188
-578.777	-200.000	0.007	-0.135
-577.763	-200.000	-0.034	-0.201
-576.748	53.871	-0.137	0.131
-575.733	-38.041	0.078	0.041
-574.719	-200.000	0.042	0.223
-573.704	-74.265	-0.070	0.025
-572.690	-89.741	0.090	-0.026
-571.675	-57.778	0.183	0.080
-570.661	120.906	-0.006	0.007
-569.646	15.514	-0.089	0.069
-568.631	58.033	-0.147	0.143
-567.617	800.000	0.002	-0.007
-566.602	-73.734	-0.250	-0.091
-565.588	-116.782	0.270	-0.049
-564.573	800.000	0.081	-0.296
-563.558	-156.577	-0.427	-0.026
-562.544	-85.243	-0.077	-0.024
-561.529	-200.000	-0.010	-0.098
-560.515	244.719	-0.089	0.149
-559.500	-200.000	0.007	0.066
-558.485	-93.447	-0.338	-0.093
-557.471	-75.382	-0.046	0.016
-556.456	-153.461	-0.283	0.020
-555.442	-2.745	-0.109	0.076
-554.427	-108.314	0.273	0.059
-553.412	137.573	-0.229	0.299
-552.398	128.864	-0.060	0.076
-551.383	-101.780	0.149	-0.036
-550.369	-200.000	-0.008	-0.261
-549.354	-4.766	-0.144	-0.099
-548.339	-200.000	0.034	0.213
-547.325	800.000	0.033	0.109
-546.310	494.890	-0.078	-0.177
-545.296	-127.704	0.098	0.014
-544.281	-200.000	0.011	-0.111
-543.266	-18.561	0.030	-0.019
-542.252	25.607	-0.094	-0.078
-541.237	172.835	-0.138	0.197
-540.223	191.754	0.041	-0.061
-539.208	160.847	0.163	0.226
-538.193	-200.000	-0.032	0.149
-537.179	800.000	-0.027	0.107
-536.164	210.518	-0.076	-0.118
-535.150	-79.039	-0.188	0.064
-534.135	-33.878	-0.211	-0.116
-533.121	-15.767	0.177	0.112
-532.106	-167.162	-0.167	-0.007
-531.091	-89.363	-0.210	0.061
-530.077	-200.000	0.004	0.217
-529.062	114.912	-0.046	0.056
-528.048	800.000	0.029	0.104
-527.033	428.456	0.151	0.324
-526.018	-42.402	-0.252	0.128
-525.004	145.219	-0.316	0.420
-523.989	800.000	-0.041	0.165
-522.975	132.352	0.247	-0.317
-521.960	-6.541	-0.282	-0.191
-520.945	23.394	-0.150	-0.122
-519.931	-200.000	-0.008	0.430
-518.916	335.678	0.187	0.361
-517.902	-40.467	-0.208	0.107
-516.887	362.946	0.043	-0.087
-515.872	-28.725	-0.062	-0.035
-514.858	-200.000	0.014	-0.141
-513.843	-200.000	0.012	0.117
-512.829	-175.139	0.371	0.010
-511.814	68.767	-0.084	-0.085
-510.799	-151.018	0.024	-0.002
-509.785	-6.206	-0.223	0.151
-508.770	19.782	-0.117	-0.094
-507.756	-200.000	0.025	-0.203
-506.741	189.462	-0.070	-0.104
-505.726	180.584	-0.119	0.173
-504.712	273.371	-0.077	-0.135
-503.697	800.000	-0.043	0.136
-502.683	7.599	0.146	-0.109
-501.668	-200.000	-0.020	0.172
-500.653	49.169	0.079	0.074
-499.639	800.000	-0.105	-0.362
-498.624	-200.000	0.029	-0.223
-497.610	-19.755	0.099	0.061
-496.595	800.000	-0.009	0.039
-495.581	10.463	0.027	0.021
-494.566	8.852	-0.143	-0.107
-493.551	368.150	-0.138	-0.278
-492.537	-91.135	-0.152	-0.043
-491.522	-154.100	-0.230	-0.015
-490.508	-200.000	-0.002	0.138
-489.493	64.488	-0.261	0.261
-488.478	-93.783	-0.253	0.069
-487.464	-153.873	0.244	-0.017
-486.449	-15.093	-0.311	-0.197
-485.435	16.752	0.128	0.100
-484.420	-200.000	-0.034	-0.272
-483.405	-150.484	-0.126	0.010
-482.391	325.796	0.136	0.259
-481.376	-200.000	-0.004	0.029
-480.362	118.156	-0.241	-0.294
-479.347	75.158	-0.198	0.207
-478.332	-75.190	0.205	0.073
-477.318	800.000	-0.066	-0.188
-476.303	800.000	0.128	-0.443
-475.289	223.468	0.223	0.356
-474.274	-200.000	-0.033	0.211
-473.259	-200.000	-0.001	-0.103
-472.245	5.849	0.113	0.083
-471.230	12.092	0.148	0.113
-470.216	-57.724	0.221	-0.096
-469.201	476.409	-0.083	-0.186
-468.186	-110.727	-0.264	-0.054
-467.172	640.810	0.068	0.171
-466.157	-200.000	0.003	0.167
-465.143	-0.029	0.067	0.047
-464.128	-59.426	-0.252	0.108
-463.113	-130.101	0.286	0.039
-462.099	-200.000	-0.037	-0.161
-461.084	105.346	0.180	-0.210
-460.070	-61.435	0.116	0.048
-459.055	800.000	-0.045	0.137
-458.040	800.000	-0.029	0.089
-457.026	48.137	-0.229	0.212
-456.011	385.331	0.215	-0.439
-454.997	-170.564	0.092	-0.003
-453.982	800.000	-0.094	0.337
-452.968	191.825	0.042	0.062
-451.953	800.000	-0.157	-0.432
-450.938	164.336	0.140	0.196
-449.924	136.541	0.093	0.121
-448.909	-19.360	-0.024	0.015
-447.895	192.849	-0.041	-0.061
-446.880	92.004	0.413	-0.460
-445.865	-200.000	0.008	0.144
-444.851	222.003	-0.139	-0.222
-443.836	215.447	-0.107	-0.169
-442.822	-103.388	-0.142	-0.033
-441.807	-160.975	0.162	0.008
-440.792	-51.837	-0.227	0.105
-439.778	263.190	0.062	0.106
-438.763	345.530	0.013	-0.025
-437.749	342.593	0.076	-0.147
-436.734	800.000	0.099	-0.306
-435.719	-200.000	0.004	-0.243
-434.705	-77.599	0.327	0.112
-433.690	-200.000	-0.042	0.215
-432.676	-73.764	-0.122	0.044
-431.661	-55.166	-0.148	-0.066
-430.646	604.173	0.089	0.218
-429.632	-168.199	-0.116	0.004
-428.617	-119.533	0.403	0.069
-427.603	-124.257	-0.093	0.014
-426.588	-104.421	0.191	-0.044
-425.573	-78.597	-0.258	-0.087
-424.559	-200.000	0.259	0.000
-423.544	67.611	0.299	0.302
-422.530	352.920	-0.183	-0.358
-421.515	25.686	-0.037	0.030
-420.500	364.481	0.097	0.193
-419.486	23.750	0.209	-0.171
-418.471	-200.000	-0.023	0.169
-417.457	39.596	0.178	-0.158
-416.442	-94.282	0.049	-0.013
-415.428	-47.337	0.099	-0.048
-414.413	458.908	-0.222	-0.489
-413.398	-59.344	0.148	0.063
-412.384	-200.000	0.079	0.000
-411.369	-200.000	0.010	-0.108
-410.355	-200.000	-0.009	-0.151
-409.340	800.000	-0.115	-0.340
-408.325	-80.488	0.056	0.018
-407.311	800.000	-0.092	-0.302
-406.296	-171.865	0.121	-0.004
-405.282	-200.000	0.003	0.104
-404.267	5.757	0.289	0.211
-403.252	108.694	-0.077	-0.090
-402.238	-40.990	-0.157	0.080
-401.223	32.114	-0.188	-0.160
-400.209	-125.933	-0.212	0.032
-399.194	800.000	0.025	-0.074
-398.179	242.313	-0.089	-0.147
-397.165	-52.638	0.249	0.113
-396.150	-76.719	0.170	0.059
-395.136	-122.048	-0.410	0.067
-394.121	800.000	0.051	0.200
-393.106	-11.714	-0.072	-0.047
-392.092	163.559	0.238	-0.330
-391.077	546.603	0.149	0.352
-390.063	-101.405	0.156	0.038
-389.048	30.943	-0.181	0.153
-388.033	88.759	0.231	0.254
-387.019	-17.949	-0.138	-0.086
-386.004	-121.638	-0.176	-0.029
-384.990	382.912	0.125	0.255
-383.975	-200.000	0.026	0.546
-382.960	50.848	0.169	0.158
-381.946	-37.007	-0.149	-0.079
-380.931	-81.477	-0.171	-0.056
-379.917	800.000	0.028	0.099
-378.902	-54.954	-0.351	0.156
-377.888	-200.000	-0.015	0.295
-376.873	220.833	0.199	0.315
-375.858	23.121	0.289	0.234
-374.844	256.480	0.056	0.095
-373.829	27.263	-0.166	0.138
-372.815	-120.203	-0.151	-0.026
-371.800	-111.148	-0.299	0.060
-370.785	31.898	0.281	-0.239
-369.771	-177.216	0.275	0.007
-368.756	-0.926	-0.307	0.215
-367.742	-13.070	0.282	-0.181
-366.727	-200.000	-0.001	0.045
-365.712	-200.000	-0.007	-0.215
-364.698	-200.000	-0.014	0.144
-363.683	800.000	-0.035	0.115
-362.669	800.000	-0.007	0.022
-361.654	-200.000	-0.003	0.083
-360.639	12.473	0.179	-0.136
-359.625	493.852	-0.115	0.260
-358.610	111.283	0.019	0.023
-357.596	-200.000	0.069	0.333
-356.581	-79.456	-0.206	-0.069
-355.566	-100.181	0.281	-0.069
-354.552	-125.136	0.110	0.017
-353.537	-160.446	0.296	0.016
-352.523	714.816	0.073	0.191
-351.508	260.815	0.144	-0.247
-350.493	-131.157	0.237	-0.031
-349.479	-22.259	-0.354	0.212
-348.464	-137.493	0.084	0.009
-347.450	-116.190	0.049	0.009
-346.435	117.262	0.196	0.238
-345.420	-93.719	0.139	-0.038
-344.406	-200.000	-0.039	0.267
-343.391	800.000	0.045	-0.146
-342.377	11.280	0.306	-0.231
-341.362	199.642	-0.032	0.049
-340.348	-200.000	0.041	0.472
-339.333	-163.518	-0.363	-0.017
-338.318	-4.898	-0.221	-0.150
-337.304	-118.508	-0.190	-0.033
-336.289	310.345	-0.154	0.285
-335.275	60.406	-0.131	0.128
-334.260	-62.308	0.156	0.064
-333.245	-48.506	-0.369	-0.175
-332.231	-200.000	-0.014	-0.079
-331.216	-200.000	-0.006	-0.265
-330.202	746.154	0.017	0.046
-329.187	140.918	-0.156	0.203
-328.172	74.684	-0.197	-0.204
-327.158	-179.512	-0.258	0.006
-326.143	317.953	0.231	0.431
-325.129	-176.864	-0.092	-0.002
-324.114	143.134	-0.100	-0.132
-323.099	-149.930	-0.119	0.009
-322.085	7.767	0.232	0.171
-321.070	-89.697	0.446	-0.129
-320.056	800.000	0.079	-0.319
-319.041	-81.916	-0.155	-0.050
-318.026	-175.711	0.190	-0.005
-317.012	171.275	0.039	0.056
-315.997	-9.350	-0.269	-0.177
-314.983	-8.506	0.196	0.130
-313.968	771.965	0.036	0.097
-312.953	197.126	-0.020	0.030
-311.939	-192.093	0.313	0.003
-310.924	125.365	0.117	0.145
-309.910	1.728	0.303	-0.215
-308.895	26.451	0.041	0.034
-307.880	223.318	0.135	-0.214
-306.866	-200.000	-0.080	-0.374
-305.851	800.000	-0.039	0.137
-304.837	-55.385	-0.132	0.059
-303.822	-52.242	0.178	0.081
-302.807	610.513	0.093	0.229
-301.793	-74.301	-0.172	0.061
-300.778	61.367	0.100	0.098
-299.764	-59.481	-0.213	-0.090
-298.749	31.155	0.090	-0.076
-297.735	63.693	0.393	-0.389
-296.720	474.122	-0.140	-0.312
-295.705	-9.345	0.204	0.134
-294.691	-76.941	0.137	-0.047
-293.676	-79.206	-0.333	-0.111
-292.662	65.405	-0.121	-0.121
-291.647	-159.450	0.078	0.004
-290.632	749.714	-0.051	-0.136
-289.618	-200.000	-0.046	0.331
-288.603	-65.601	-0.171	0.068
-287.589	-11.562	0.151	-0.098
-286.574	381.498	-0.102	0.206
-285.559	553.155	0.054	0.128
-284.545	-137.261	0.150	0.017
-283.530	800.000	0.113	0.325
-282.516	-200.000	0.024	-0.229
-281.501	-200.000	0.008	0.272
-280.486	314.270	-0.080	0.148
-279.472	-200.000	0.031	-0.312
-278.457	57.782	0.251	-0.242
-277.443	-131.628	-0.101	-0.013
-276.428	-112.883	-0.092	0.018
-275.413	-54.755	0.072	-0.032
-274.399	-78.233	-0.259	-0.088
-273.384	800.000	0.032	-0.101
-272.370	-109.754	0.061	0.013
-271.355	-69.348	0.062	-0.023
-270.340	-53.617	-0.254	-0.114
-269.326	608.737	-0.127	0.311
-268.311	-69.618	0.136	-0.051
-267.297	-200.000	0.007	0.349
-266.282	-139.154	-0.264	-0.028
-265.267	-200.000	0.022	-0.390
-264.253	-98.322	0.284	-0.072
-263.238	-9.137	0.331	-0.218
-262.224	45.889	0.222	0.202
-261.209	-200.000	-0.053	-0.355
-260.195	-64.640	0.037	0.015
-259.180	32.521	0.306	0.260
-258.165	-200.000	0.022	-0.146
-257.151	-151.390	-0.284	-0.021
-256.136	-200.000	-0.010	-0.175
-255.122	136.392	-0.142	-0.182
-254.107	148.862	0.013	-0.017
-253.092	-200.000	0.049	0.349
-252.078	518.950	-0.070	-0.161
-251.063	-37.921	0.063	0.033
-250.049	800.000	-0.042	-0.117
-249.034	-162.512	0.229	-0.011
-248.019	-200.000	0.042	-0.193
-247.005	129.560	-0.111	0.139
-245.990	147.541	0.179	0.238
-244.976	223.167	0.091	0.144
-243.961	-88.937	-0.349	0.102
-242.946	-173.143	0.364	-0.011
-241.932	-101.773	0.247	-0.059
-240.917	-81.644	-0.312	-0.101
-239.903	65.551	-0.322	-0.320
-238.888	188.123	-0.237	-0.348
-237.873	251.266	0.122	0.203
-236.859	6.407	-0.291	-0.213
-235.844	262.248	-0.035	0.060
-234.830	-200.000	-0.021	0.259
-233.815	-26.234	0.193	-0.111
-232.800	38.610	0.177	-0.155
-231.786	-45.900	0.043	-0.021
-230.771	178.062	0.146	0.209
-229.757	-49.969	0.058	-0.027
-228.742	-31.489	-0.159	-0.088
-227.727	-109.812	0.116	-0.024
-226.713	-3.778	-0.246	-0.168
-225.698	-127.992	0.074	-0.010
-224.684	-98.718	0.064	-0.016
-223.669	62.580	0.065	-0.064
-222.655	343.751	0.078	-0.150
-221.640	-155.548	0.041	-0.003
-220.625	-45.413	0.254	0.124
-219.611	369.796	0.060	0.119
-218.596	624.902	0.153	0.378
-217.582	361.268	0.192	0.378
-216.567	-125.130	0.251	-0.038
-215.552	574.824	-0.059	-0.142
-214.538	611.640	-0.100	0.245
-213.523	-93.469	0.130	-0.035
-212.509	-141.796	0.323	0.032
-211.494	-200.000	0.008	0.324
-210.479	157.718	0.126	0.172
-209.465	-200.000	0.030	0.174
-208.450	-200.000	-0.017	0.105
-207.436	440.346	0.198	-0.426
-206.421	-200.000	-0.012	0.081
-205.406	-200.000	0.020	0.095
-204.392	-200.000	0.002	-0.011
-203.377	250.693	-0.080	-0.133
-202.363	800.000	0.061	-0.171
-201.348	-53.873	-0.330	0.147
-200.333	388.621	0.155	-0.315
-199.319	127.492	-0.183	-0.228
-198.304	-115.851	-0.111	-0.020
-197.290	-126.423	0.298	0.044
-196.275	213.359	-0.179	0.278
-195.260	484.893	0.010	-0.023
-194.246	-23.607	-0.079	0.047
-193.231	-45.688	0.087	0.042
-192.217	-200.000	-0.020	-0.243
-191.202	41.728	-0.115	0.102
-190.187	800.000	0.058	-0.226
-189.173	-159.434	0.210	0.012
-188.158	-71.513	-0.393	0.144
-187.144	-200.000	0.038	0.373
-186.129	-200.000	0.055	0.268
-185.114	39.175	0.191	-0.168
-184.100	177.163	-0.055	0.079
-183.085	-180.133	-0.347	-0.007
-182.071	-200.000	0.038	-0.463
-181.056	800.000	-0.021	-0.073
-180.042	-112.916	-0.441	-0.086
-179.027	149.641	0.189	-0.251
-178.012	140.813	0.102	-0.132
-176.998	800.000	0.019	0.077
-175.983	-200.000	0.005	-0.029
-174.969	69.233	-0.109	-0.110
-173.954	800.000	0.054	0.188
-172.939	399.273	0.173	-0.356
-171.925	-200.000	0.048	0.221
-170.910	-154.873	0.336	-0.022
-169.896	800.000	-0.045	-0.175
-168.881	583.497	0.058	0.140
-167.866	-140.644	0.218	0.022
-166.852	-2.901	0.073	0.050
-165.837	-200.000	-0.011	-0.209
-164.823	204.296	0.049	0.075
-163.808	-200.000	-0.010	-0.377
-162.793	-97.835	-0.073	-0.018
-161.779	-93.116	-0.202	0.055
-160.764	-34.030	0.344	0.186
-159.750	800.000	-0.028	-0.112
-158.735	-125.639	0.196	0.029
-157.720	461.372	0.065	-0.142
-156.706	-20.536	0.282	-0.170
-155.691	301.491	0.158	-0.285
-154.677	-200.000	-0.028	-0.291
-153.662	-89.582	-0.425	-0.122
-152.647	41.324	0.108	-0.096
-151.633	479.418	0.037	0.082
-150.618	-78.551	0.635	0.213
-149.604	-157.192	-0.102	-0.006
-148.589	-200.000	0.037	-0.274
-147.574	38.291	-0.305	-0.266
-146.560	-200.000	0.001	-0.107
-145.545	-115.297	0.329	0.061
-144.531	-0.913	0.245	-0.170
-143.516	-200.000	-0.005	-0.083
-142.502	-28.667	0.050	0.028
-141.487	-19.048	0.235	0.143
-140.472	20.290	-0.392	0.310
-139.458	-88.235	-0.145	0.043
-138.443	-38.098	-0.152	0.079
-137.429	77.330	0.226	-0.235
-136.414	-25.913	-0.145	0.083
-135.399	190.075	0.087	0.128
-134.385	-178.004	0.111	-0.003
-133.370	407.410	-0.018	0.038
-132.356	-84.336	-0.033	0.010
-131.341	-121.242	0.321	0.052
-130.326	-200.000	0.041	0.307
-129.312	147.034	0.034	-0.045
-128.297	-1.716	-0.090	-0.062
-127.283	365.620	-0.091	-0.179
-126.268	-143.873	0.221	0.020
-125.253	800.000	0.020	0.057
-124.239	-130.504	0.346	-0.046
-123.224	301.532	0.088	0.159
-122.210	508.069	-0.130	0.295
