DTS Sentinel unit serial number:	SN413079Multiplexer serial number:	ORYXHardware model number:	OX4-SRSoftware version number:	ORYX F/W v4.00 Oryx Data Collector v3.7.2.0data status	okinstallation	princeton_trtdifferential loss correction	single-endedforward channel	channel 3reverse channel	N/Adate	2019/09/16time	16:24:34forward acquisition time	60.00reverse acquisition time	0.00gamma	496.2192k internal	0.2294k external	0.2294temperature offset calibration	0.9943default loss term (dB/km)	0.3790temperature slope calibration	1.0000multiplexer offset coefficient	1.0000multiplexer slope coefficient	1.0000fibre end	0.00T internal ref (°C)	40.37T ext. ref 1 (°C)	15.04T ext. ref 2 (°C)	34.26length (m)	temperature (°C)	Stokes	anti-Stokes-747.200	-95.371	-0.059	-0.016
-746.185	152.730	0.075	0.105
-745.171	205.873	-0.178	0.283
-744.156	800.000	-0.106	0.361
-743.142	-200.000	-0.002	-0.101
-742.127	39.649	-0.176	-0.161
-741.112	-200.000	-0.005	-0.084
-740.098	-89.254	-0.227	-0.068
-739.083	-151.380	0.202	-0.015
-738.069	-200.000	0.015	-0.205
-737.054	-96.522	-0.188	-0.051
-736.039	-119.961	-0.302	0.053
-735.025	-109.524	-0.170	0.037
-734.010	-200.000	-0.027	-0.344
-732.996	20.644	-0.343	-0.284
-731.981	495.437	-0.114	0.267
-730.966	90.502	0.088	-0.100
-729.952	-173.308	-0.315	0.010
-728.937	97.205	0.146	-0.171
-727.923	800.000	-0.142	-0.410
-726.908	-22.146	-0.283	-0.176
-725.894	46.388	-0.052	-0.049
-724.879	9.088	0.091	0.071
-723.864	793.763	-0.150	-0.422
-722.850	25.351	-0.102	0.086
-721.835	-97.976	-0.155	-0.041
-720.821	17.974	-0.127	-0.104
-719.806	-200.000	0.014	-0.107
-718.791	182.959	0.276	-0.416
-717.777	-200.000	0.000	-0.246
-716.762	132.743	0.064	-0.084
-715.748	253.787	-0.057	-0.100
-714.733	-148.963	0.025	0.002
-713.718	-144.992	-0.172	0.016
-712.704	-200.000	-0.063	-0.338
-711.689	-52.338	-0.172	-0.081
-710.675	-141.441	-0.087	0.009
-709.660	-140.205	-0.165	0.018
-708.645	-200.000	0.300	-0.000
-707.631	190.272	-0.099	0.153
-706.616	-61.911	0.202	0.086
-705.602	-41.893	0.291	0.153
-704.587	33.193	-0.085	-0.075
-703.572	315.048	0.098	0.188
-702.558	-118.726	-0.280	-0.050
-701.543	21.634	0.154	0.128
-700.529	-129.390	0.337	0.048
-699.514	-108.322	-0.261	-0.058
-698.499	-200.000	0.007	0.275
-697.485	144.909	0.154	-0.210
-696.470	-183.150	-0.143	-0.003
-695.456	-108.035	-0.099	0.022
-694.441	-105.063	0.196	-0.046
-693.426	-145.708	0.192	-0.018
-692.412	498.175	-0.147	-0.345
-691.397	140.363	0.201	0.271
-690.383	-94.012	-0.151	-0.042
-689.368	210.513	0.114	0.183
-688.354	-70.912	-0.111	-0.042
-687.339	280.066	-0.018	0.033
-686.324	535.947	0.044	-0.107
-685.310	800.000	-0.074	-0.261
-684.295	182.929	-0.207	0.312
-683.281	-200.000	0.017	-0.487
-682.266	57.790	-0.200	-0.200
-681.251	-200.000	-0.039	-0.404
-680.237	127.325	-0.155	0.201
-679.222	-200.000	0.009	-0.295
-678.208	18.215	0.125	0.102
-677.193	-200.000	-0.021	-0.136
-676.178	-85.413	0.129	-0.041
-675.164	-200.000	-0.040	-0.356
-674.149	-57.717	-0.207	-0.092
-673.135	800.000	-0.054	0.227
-672.120	192.184	0.095	-0.146
-671.105	-200.000	-0.008	0.116
-670.091	35.625	0.210	0.188
-669.076	-112.335	-0.307	-0.063
-668.062	800.000	0.110	-0.449
-667.047	800.000	-0.054	0.186
-666.032	-152.157	-0.041	-0.003
-665.018	-200.000	-0.062	0.296
-664.003	-200.000	-0.009	0.274
-662.989	-90.603	0.225	0.066
-661.974	-136.146	0.413	0.049
-660.959	-107.056	-0.235	-0.053
-659.945	140.427	-0.179	-0.241
-658.930	-139.425	0.307	0.034
-657.916	-129.360	0.199	-0.028
-656.901	237.537	-0.006	0.011
-655.886	-200.000	0.033	-0.195
-654.872	-34.011	-0.301	-0.169
-653.857	130.935	-0.206	0.270
-652.843	492.183	-0.127	0.297
-651.828	800.000	0.045	-0.154
-650.814	800.000	-0.090	0.323
-649.799	-15.065	0.169	-0.110
-648.784	-84.251	-0.439	-0.142
-647.770	-12.145	0.499	0.333
-646.755	220.836	-0.045	0.074
-645.741	-200.000	-0.092	-0.420
-644.726	800.000	-0.025	-0.092
-643.711	-200.000	-0.013	-0.167
-642.697	800.000	0.026	0.113
-641.682	448.632	0.066	-0.147
-640.668	700.342	-0.035	-0.094
-639.653	-200.000	0.019	-0.165
-638.638	131.399	-0.050	0.066
-637.624	-106.429	-0.202	-0.046
-636.609	44.182	0.171	-0.160
-635.595	-135.920	-0.238	0.029
-634.580	147.152	0.051	0.069
-633.565	-200.000	-0.029	-0.210
-632.551	800.000	-0.098	0.283
-631.536	-111.985	0.078	0.016
-630.522	-99.115	0.230	-0.059
-629.507	-63.179	0.086	0.036
-628.492	31.989	-0.146	-0.128
-627.478	375.762	0.163	0.339
-626.463	-7.357	-0.163	0.112
-625.449	319.153	0.068	-0.131
-624.434	-200.000	0.049	0.351
-623.419	528.805	-0.088	0.212
-622.405	800.000	-0.092	-0.330
-621.390	31.812	0.150	-0.131
-620.376	241.811	0.048	-0.082
-619.361	-34.052	-0.174	-0.097
-618.346	800.000	0.061	-0.185
-617.332	115.832	-0.092	-0.115
-616.317	-200.000	0.025	0.268
-615.303	-86.004	-0.358	-0.113
-614.288	-200.000	-0.005	0.120
-613.273	87.909	-0.193	-0.218
-612.259	800.000	0.052	0.188
-611.244	-200.000	0.001	0.200
-610.230	-200.000	-0.016	0.149
-609.215	-79.675	0.469	0.161
-608.201	-62.962	-0.262	-0.110
-607.186	482.456	-0.046	0.107
-606.171	67.174	-0.191	0.198
-605.157	68.240	-0.148	0.154
-604.142	-200.000	0.027	0.206
-603.128	-200.000	0.043	-0.242
-602.113	-75.446	-0.136	-0.049
-601.098	133.633	0.150	0.197
-600.084	-184.728	-0.301	0.005
-599.069	-91.287	0.117	-0.034
-598.055	-43.169	-0.205	-0.105
-597.040	-200.000	-0.001	-0.095
-596.025	-200.000	0.012	0.077
-595.011	682.783	-0.059	0.156
-593.996	-200.000	-0.010	-0.228
-592.982	389.572	-0.049	-0.104
-591.967	166.535	0.125	-0.181
-590.952	25.981	0.151	-0.128
-589.938	414.189	-0.187	-0.404
-588.923	-200.000	0.033	-0.380
-587.909	-90.859	0.150	-0.044
-586.894	-7.346	-0.191	0.132
-585.879	-78.960	-0.277	-0.096
-584.865	800.000	-0.095	0.325
-583.850	130.003	-0.142	0.185
-582.836	-58.797	0.310	-0.136
-581.821	-200.000	-0.058	-0.271
-580.806	-200.000	0.035	-0.306
-579.792	-30.323	-0.299	0.172
-578.777	-14.017	0.259	-0.170
-577.763	-122.308	0.100	-0.017
-576.748	17.688	0.087	-0.070
-575.733	800.000	0.015	-0.048
-574.719	-136.365	-0.303	0.036
-573.704	-7.491	0.145	0.100
-572.690	-200.000	0.007	-0.194
-571.675	-130.684	-0.038	0.005
-570.661	-130.705	-0.132	0.018
-569.646	282.859	0.111	0.203
-568.631	512.033	-0.076	-0.180
-567.617	-92.210	-0.299	0.086
-566.602	-130.896	0.472	0.064
-565.588	411.293	-0.039	0.084
-564.573	189.768	-0.033	0.051
-563.558	21.158	0.205	-0.169
-562.544	-125.689	0.289	0.044
-561.529	-200.000	0.019	-0.456
-560.515	-200.000	0.028	-0.431
-559.500	199.199	0.178	0.277
-558.485	-200.000	0.029	-0.295
-557.471	-23.577	0.115	0.070
-556.456	-200.000	-0.048	-0.293
-555.442	269.194	0.012	-0.021
-554.427	800.000	-0.052	0.199
-553.412	547.088	-0.042	-0.102
-552.398	-36.833	0.158	-0.086
-551.383	103.438	-0.231	0.276
-550.369	-125.299	0.428	0.066
-549.354	-129.532	-0.208	-0.029
-548.339	27.238	-0.125	-0.107
-547.325	-200.000	-0.032	-0.197
-546.310	736.994	0.091	-0.248
-545.296	-151.819	0.153	-0.011
-544.281	-39.915	0.155	0.082
-543.266	800.000	0.090	-0.350
-542.252	-70.283	-0.138	0.053
-541.237	-200.000	0.006	-0.073
-540.223	258.719	-0.056	-0.098
-539.208	-200.000	-0.015	-0.091
-538.193	800.000	-0.105	-0.424
-537.179	-187.929	-0.530	-0.007
-536.164	-200.000	-0.063	0.471
-535.150	269.668	0.138	0.246
-534.135	51.103	-0.052	0.050
-533.121	-169.606	-0.391	0.014
-532.106	199.684	0.087	0.135
-531.091	91.333	0.139	-0.158
-530.077	-14.262	0.325	-0.212
-529.062	28.286	0.147	0.126
-528.048	-100.367	0.181	0.045
-527.033	705.121	-0.055	-0.148
-526.018	-162.429	0.238	0.012
-525.004	-200.000	-0.013	0.321
-523.989	267.878	0.102	-0.181
-522.975	-200.000	0.004	-0.061
-521.960	143.497	0.057	-0.077
-520.945	-174.155	-0.080	0.002
-519.931	44.306	-0.336	0.313
-518.916	-39.124	0.128	-0.068
-517.902	-128.580	-0.188	-0.027
-516.887	2.364	-0.077	0.057
-515.872	-136.705	0.257	-0.030
-514.858	117.214	0.228	-0.284
-513.843	725.584	0.069	-0.187
-512.829	-151.680	-0.298	0.022
-511.814	-150.392	-0.745	0.058
-510.799	-121.102	0.362	-0.062
-509.785	800.000	0.074	0.233
-508.770	-46.346	-0.195	0.097
-507.756	-42.629	-0.177	-0.091
-506.741	189.087	0.140	-0.213
-505.726	-175.169	0.278	0.008
-504.712	175.476	0.078	-0.114
-503.697	-148.230	0.093	0.008
-502.683	-200.000	0.050	-0.461
-501.668	53.365	0.260	0.253
-500.653	-200.000	-0.008	0.131
-499.639	-77.761	-0.202	0.071
-498.624	107.149	-0.135	0.163
-497.610	565.534	0.144	0.353
-496.595	201.634	-0.057	-0.088
-495.581	88.039	-0.331	0.372
-494.566	49.835	-0.393	-0.375
-493.551	749.880	0.105	-0.286
-492.537	-81.987	0.082	-0.027
-491.522	-89.877	-0.069	0.020
-490.508	-82.716	0.306	-0.100
-489.493	-129.660	-0.290	-0.041
-488.478	-128.643	0.536	0.077
-487.464	-93.001	0.225	-0.064
-486.449	-148.551	-0.088	-0.007
-485.435	129.314	0.120	0.155
-484.420	800.000	0.107	0.331
-483.405	-80.127	-0.333	0.113
-482.391	-200.000	0.024	-0.176
-481.376	-108.736	-0.257	-0.056
-480.362	-35.522	0.258	0.142
-479.347	-2.913	-0.077	0.055
-478.332	332.559	0.101	0.197
-477.318	85.537	0.153	0.170
-476.303	-200.000	-0.003	0.098
-475.289	91.974	-0.145	-0.166
-474.274	800.000	-0.081	-0.252
-473.259	-117.134	-0.026	0.005
-472.245	-89.220	0.128	-0.038
-471.230	411.589	-0.149	-0.320
-470.216	-6.175	-0.345	0.238
-469.201	800.000	-0.008	0.031
-468.186	230.521	-0.061	0.101
-467.172	-200.000	-0.016	0.125
-466.157	46.462	-0.138	-0.130
-465.143	-137.260	-0.082	0.009
-464.128	-155.178	0.382	0.025
-463.113	800.000	0.055	0.204
-462.099	-141.802	0.253	0.026
-461.084	-42.184	0.268	-0.138
-460.070	200.480	0.201	0.312
-459.055	221.201	0.308	-0.500
-458.040	791.337	-0.063	-0.174
-457.026	-200.000	-0.022	-0.180
-456.011	-200.000	-0.025	-0.151
-454.997	-21.049	0.037	0.023
-453.982	-15.295	-0.178	-0.115
-452.968	-200.000	0.010	0.143
-451.953	153.183	0.191	-0.264
-450.938	800.000	0.058	-0.207
-449.924	800.000	-0.061	-0.180
-448.909	-200.000	0.021	0.331
-447.895	-27.138	-0.144	0.085
-446.880	-34.865	0.331	-0.183
-445.865	72.630	0.212	0.224
-444.851	-200.000	-0.025	0.143
-443.836	800.000	-0.120	-0.335
-442.822	-200.000	0.007	-0.137
-441.807	-44.315	0.242	-0.123
-440.792	-100.255	-0.194	-0.049
-439.778	110.746	0.185	0.225
-438.763	488.438	0.091	0.210
-437.749	-52.102	0.127	-0.060
-436.734	-200.000	0.033	0.160
-435.719	-200.000	-0.026	0.229
-434.705	800.000	-0.092	-0.407
-433.690	30.636	-0.236	0.204
-432.676	276.496	0.133	0.239
-431.661	-62.019	-0.044	0.019
-430.646	-154.045	-0.109	0.008
-429.632	141.046	-0.150	-0.201
-428.617	-88.476	-0.217	0.065
-427.603	-200.000	0.013	0.151
-426.588	-73.835	-0.089	0.033
-425.573	-182.960	-0.140	0.003
-424.559	189.974	-0.089	-0.135
-423.544	267.286	-0.108	-0.191
-422.530	-62.503	-0.311	0.131
-421.515	509.462	-0.117	-0.275
-420.500	2.621	-0.304	-0.223
-419.486	-26.695	0.301	0.178
-418.471	-149.184	0.188	-0.015
-417.457	-74.912	0.257	0.093
-416.442	-165.644	0.279	-0.012
-415.428	800.000	-0.042	-0.180
-414.413	-140.891	-0.274	0.028
-413.398	-40.113	0.254	0.134
-412.384	336.098	0.144	0.283
-411.369	120.436	-0.203	0.254
-410.355	37.963	0.137	-0.123
-409.340	-169.121	0.139	0.005
-408.325	-200.000	0.023	0.264
-407.311	432.284	-0.068	-0.149
-406.296	-106.043	-0.291	-0.066
-405.282	87.006	-0.036	-0.040
-404.267	1.048	-0.369	0.267
-403.252	1.803	0.190	0.139
-402.238	-200.000	0.051	0.256
-401.223	637.357	-0.053	0.137
-400.209	-177.866	0.439	0.011
-399.194	-81.192	0.189	-0.063
-398.179	-200.000	-0.023	0.207
-397.165	800.000	-0.042	0.160
-396.150	-97.335	0.091	-0.024
-395.136	-27.001	0.092	-0.054
-394.121	-90.605	0.410	0.120
-393.106	53.641	-0.376	-0.364
-392.092	-21.585	-0.122	0.075
-391.077	248.138	0.110	-0.188
-390.063	-117.380	0.197	-0.036
-389.048	-198.125	-0.149	-0.001
-388.033	800.000	0.044	0.189
-387.019	9.670	-0.149	-0.114
-386.004	426.665	0.097	0.211
-384.990	-154.494	0.193	-0.013
-383.975	31.220	-0.267	0.231
-382.960	49.270	0.240	0.228
-381.946	-27.250	0.163	-0.096
-380.931	81.088	0.124	0.135
-379.917	-59.000	-0.192	-0.084
-378.902	8.629	0.026	-0.020
-377.888	-179.263	0.208	-0.005
-376.873	-200.000	-0.056	0.301
-375.858	-47.222	-0.230	-0.113
-374.844	774.281	-0.056	0.153
-373.829	84.967	0.163	0.180
-372.815	-200.000	-0.020	0.092
-371.800	-125.406	-0.105	0.016
-370.785	-5.340	0.279	0.193
-369.771	800.000	0.019	-0.065
-368.756	437.894	-0.112	-0.247
-367.742	800.000	0.060	-0.203
-366.727	800.000	-0.131	-0.443
-365.712	-188.301	-0.217	0.003
-364.698	302.840	0.106	0.197
-363.683	468.569	0.194	0.439
-362.669	-200.000	0.027	0.312
-361.654	115.913	-0.130	0.161
-360.639	519.895	-0.063	0.148
-359.625	-83.066	0.089	-0.029
-358.610	302.364	0.121	0.225
-357.596	-110.287	0.167	0.035
-356.581	-122.502	-0.182	0.030
-355.566	-200.000	0.047	-0.380
-354.552	800.000	-0.113	-0.345
-353.537	-200.000	0.007	-0.152
-352.523	-35.753	0.255	-0.139
-351.508	274.589	-0.082	0.146
-350.493	-200.000	0.002	0.186
-349.479	-200.000	-0.088	0.456
-348.464	-29.459	-0.145	-0.084
-347.450	-200.000	-0.021	-0.243
-346.435	-98.049	0.119	-0.031
-345.420	1.479	-0.071	0.052
-344.406	-115.324	-0.134	-0.026
-343.391	-200.000	0.008	0.169
-342.377	-66.355	-0.106	-0.042
-341.362	-200.000	-0.013	0.068
-340.348	800.000	0.064	-0.232
-339.333	51.559	-0.121	0.116
-338.318	-200.000	0.001	-0.084
-337.304	220.029	-0.105	0.169
-336.289	433.437	0.040	-0.088
-335.275	-66.187	-0.117	0.047
-334.260	-36.530	-0.108	-0.059
-333.245	225.624	-0.109	-0.178
-332.231	-70.068	0.231	-0.088
-331.216	-49.008	-0.269	0.130
-330.202	-92.418	-0.142	0.040
-329.187	74.549	0.179	-0.189
-328.172	-200.000	-0.018	0.136
-327.158	182.067	0.112	-0.166
-326.143	-89.623	0.256	0.076
-325.129	59.681	0.195	0.193
-324.114	-113.018	0.171	0.034
-323.099	143.172	0.091	-0.122
-322.085	-200.000	-0.210	-0.001
-321.070	105.455	0.073	-0.086
-320.056	-167.763	-0.164	-0.007
-319.041	6.141	-0.132	-0.098
-318.026	-33.600	0.242	0.134
-317.012	347.938	0.107	0.213
-315.997	-90.755	0.092	-0.027
-314.983	800.000	0.043	0.184
-313.968	761.358	-0.061	-0.166
-312.953	800.000	-0.096	0.268
-311.939	157.463	0.173	-0.241
-310.924	-192.074	-0.251	-0.002
-309.910	-62.664	0.376	-0.157
-308.895	14.153	0.108	0.085
-307.880	-121.361	-0.265	0.044
-306.866	-200.000	0.043	-0.226
-305.851	-130.040	-0.294	0.040
-304.837	347.257	0.122	0.242
-303.822	-200.000	0.002	-0.057
-302.807	-161.699	-0.242	0.012
-301.793	-121.051	0.165	0.028
-300.778	171.449	0.119	-0.171
-299.764	27.949	-0.312	0.264
-298.749	-59.204	-0.305	-0.132
-297.735	-107.679	0.464	-0.102
-296.720	-98.856	-0.369	-0.094
-295.705	-69.200	0.236	0.091
-294.691	-200.000	-0.020	-0.218
-293.676	-200.000	0.007	0.088
-292.662	81.966	-0.030	0.032
-291.647	232.613	-0.077	0.127
-290.632	131.908	-0.220	-0.285
-289.618	24.701	-0.209	-0.174
-288.603	-200.000	-0.040	-0.178
-287.589	-200.000	0.044	0.244
-286.574	57.011	-0.090	-0.088
-285.559	-109.668	0.101	0.021
-284.545	7.016	-0.068	-0.051
-283.530	-182.047	-0.438	0.008
-282.516	-79.244	0.205	-0.070
-281.501	21.312	-0.268	-0.219
-280.486	91.927	0.147	0.166
-279.472	-81.925	0.236	-0.077
-278.457	800.000	0.039	-0.154
-277.443	-200.000	-0.008	-0.384
-276.428	-34.007	-0.081	0.045
-275.413	76.586	-0.210	-0.224
-274.399	71.431	0.130	-0.136
-273.384	-141.075	0.040	0.004
-272.370	564.806	-0.034	-0.083
-271.355	-150.942	0.141	-0.011
-270.340	-200.000	-0.001	-0.185
-269.326	51.765	-0.157	-0.150
-268.311	-80.760	0.401	-0.134
-267.297	-79.200	-0.375	0.128
-266.282	800.000	0.117	0.343
-265.267	-126.213	0.195	0.029
-264.253	100.153	0.131	-0.153
-263.238	60.387	0.108	0.108
-262.224	263.175	-0.096	0.168
-261.209	800.000	0.161	-0.565
-260.195	-55.411	-0.138	0.062
-259.180	353.151	-0.141	0.281
-258.165	-176.422	-0.106	0.003
-257.151	-200.000	0.046	0.351
-256.136	-21.484	-0.043	0.026
-255.122	-82.502	-0.427	-0.139
-254.107	1.186	-0.236	0.170
-253.092	-112.251	0.271	0.055
-252.078	-41.332	-0.328	-0.169
-251.063	-34.843	-0.116	-0.063
-250.049	228.290	-0.108	-0.176
-249.034	152.302	0.122	0.167
-248.019	66.019	0.161	-0.164
-247.005	-200.000	-0.011	0.052
-245.990	195.999	0.206	0.314
-244.976	20.319	-0.250	0.202
-243.961	74.540	-0.107	-0.113
-242.946	13.492	0.063	0.049
-241.932	-33.024	0.103	0.057
-240.917	202.436	0.157	-0.243
-239.903	-95.313	-0.454	0.122
-238.888	-173.123	-0.053	0.002
-237.873	634.638	0.053	-0.135
-236.859	-154.989	0.387	0.026
-235.844	-146.393	-0.129	-0.011
-234.830	176.367	0.097	0.141
-233.815	-200.000	0.028	-0.143
-232.800	-200.000	0.011	0.442
-231.786	53.544	-0.083	-0.080
-230.771	-87.624	0.236	-0.072
-229.757	-59.062	0.018	-0.008
-228.742	800.000	-0.074	-0.210
-227.727	-90.270	0.484	-0.141
-226.713	-200.000	0.103	0.527
-225.698	-69.794	0.356	0.136
-224.684	-200.000	0.061	0.294
-223.669	-136.387	-0.086	-0.010
-222.655	800.000	-0.140	-0.412
-221.640	-115.808	-0.258	-0.048
-220.625	162.632	-0.236	0.332
-219.611	-117.844	-0.132	-0.024
-218.596	-34.042	-0.204	-0.113
-217.582	800.000	0.031	0.092
-216.567	-200.000	0.056	-0.293
-215.552	-56.604	0.211	0.094
-214.538	113.961	-0.146	0.178
-213.523	718.610	-0.030	0.081
-212.509	-21.298	-0.118	0.072
-211.494	52.930	0.105	0.101
-210.479	-31.161	0.238	-0.134
-209.465	-40.758	0.105	-0.055
-208.450	-65.928	-0.285	0.114
-207.436	-129.250	-0.333	-0.046
-206.421	41.528	0.205	-0.186
-205.406	96.167	-0.134	-0.153
-204.392	6.674	0.231	-0.172
-203.377	154.813	0.124	0.170
-202.363	-159.807	0.073	-0.004
-201.348	48.809	0.185	0.174
-200.333	19.681	0.283	0.228
-199.319	156.465	0.188	-0.260
-198.304	192.433	-0.230	0.347
-197.290	19.198	0.147	-0.118
-196.275	41.347	0.152	-0.138
-195.260	634.883	0.066	0.168
-194.246	367.566	-0.092	0.187
-193.231	800.000	-0.101	-0.329
-192.217	133.769	0.101	0.131
-191.202	90.281	-0.069	0.077
-190.187	41.645	0.068	-0.062
-189.173	800.000	-0.091	0.287
-188.158	195.119	-0.121	-0.184
-187.144	-65.406	-0.380	-0.153
-186.129	68.333	0.282	0.289
-185.114	81.949	-0.165	0.179
-184.100	19.656	-0.079	-0.064
-183.085	-76.326	-0.138	0.048
-182.071	800.000	0.067	-0.189
-181.056	800.000	0.147	0.409
-180.042	-200.000	0.029	-0.235
-179.027	800.000	0.041	-0.173
-178.012	-200.000	0.059	-0.262
-176.998	-137.596	0.115	0.013
-175.983	800.000	0.031	0.124
-174.969	-22.687	0.198	0.120
-173.954	-60.102	0.354	-0.151
-172.939	714.388	0.090	0.238
-171.925	0.560	-0.184	0.132
-170.910	-52.023	-0.281	0.130
-169.896	497.534	-0.090	0.207
-168.881	-200.000	-0.011	0.201
-167.866	-104.292	-0.364	0.084
-166.852	-95.403	-0.117	-0.031
-165.837	-200.000	0.052	0.268
-164.823	39.893	0.110	0.098
-163.808	303.570	0.080	0.149
-162.793	-28.063	0.144	0.083
-161.779	-82.164	0.187	-0.061
-160.764	37.859	0.151	-0.134
-159.750	16.674	-0.160	0.126
-158.735	-200.000	-0.031	-0.196
-157.720	260.031	0.041	0.071
-156.706	43.632	0.108	0.099
-155.691	-200.000	-0.041	-0.299
-154.677	-86.262	-0.236	-0.073
-153.662	-200.000	-0.052	0.285
-152.647	-138.415	-0.240	-0.026
-151.633	61.961	-0.044	0.044
-150.618	542.132	-0.117	0.280
-149.604	612.265	-0.068	0.169
-148.589	800.000	-0.040	0.137
-147.574	115.095	-0.083	0.101
-146.560	-113.617	0.149	0.029
-145.545	131.241	0.173	0.223
-144.531	-200.000	-0.094	0.439
-143.516	54.012	-0.155	0.149
-142.502	-65.315	-0.146	0.059
-141.487	-200.000	0.000	0.173
-140.472	-36.372	-0.135	-0.073
-139.458	290.036	-0.117	0.213
-138.443	800.000	-0.073	-0.265
-137.429	27.889	0.321	0.270
-136.414	-111.643	-0.146	0.030
-135.399	-76.318	-0.196	0.069
-134.385	800.000	-0.081	-0.297
-133.370	9.764	-0.247	-0.187
-132.356	163.234	-0.213	-0.299
-131.341	70.891	-0.107	0.111
-130.326	800.000	0.055	-0.194
-129.312	235.015	0.115	0.190
-128.297	38.584	-0.093	0.082
-127.283	800.000	0.147	0.426
-126.268	321.679	-0.176	0.334
-125.253	-131.737	-0.082	0.011
-124.239	-85.375	0.090	-0.028
-123.224	-28.116	0.111	-0.064
-122.210	-67.188	0.062	0.024
