DTS Sentinel unit serial number:	SN413079Multiplexer serial number:	ORYXHardware model number:	OX4-SRSoftware version number:	ORYX F/W v4.00 Oryx Data Collector v3.7.2.0data status	okinstallation	princeton_trtdifferential loss correction	single-endedforward channel	channel 3reverse channel	N/Adate	2019/09/17time	21:24:34forward acquisition time	60.00reverse acquisition time	0.00gamma	496.2192k internal	0.2342k external	0.2342temperature offset calibration	0.9950default loss term (dB/km)	0.3790temperature slope calibration	1.0000multiplexer offset coefficient	1.0000multiplexer slope coefficient	1.0000fibre end	0.00T internal ref (°C)	27.44T ext. ref 1 (°C)	0.19T ext. ref 2 (°C)	19.40length (m)	temperature (°C)	Stokes	anti-Stokes-747.200	-169.040	-0.222	0.008
-746.185	-200.000	-0.007	-0.088
-745.171	646.346	-0.011	-0.027
-744.156	800.000	-0.110	0.478
-743.142	-200.000	0.024	0.271
-742.127	-15.863	0.218	0.139
-741.112	800.000	0.182	0.532
-740.098	-200.000	-0.079	-0.489
-739.083	-182.375	-0.097	-0.002
-738.069	-200.000	-0.037	0.370
-737.054	756.375	-0.057	-0.155
-736.039	800.000	0.060	-0.261
-735.025	-107.120	-0.069	-0.015
-734.010	-200.000	-0.002	-0.116
-732.996	-200.000	-0.038	-0.396
-731.981	-12.228	0.077	0.050
-730.966	-56.249	0.183	0.081
-729.952	-109.647	0.059	0.012
-728.937	32.859	0.070	0.060
-727.923	-106.879	-0.227	0.050
-726.908	-71.005	-0.289	0.109
-725.894	-156.612	-0.489	-0.030
-724.879	-6.634	-0.187	-0.127
-723.864	-82.353	-0.378	-0.123
-722.850	194.127	0.095	0.144
-721.835	-93.594	0.231	0.064
-720.821	701.313	-0.060	0.158
-719.806	-30.895	-0.261	0.147
-718.791	-100.979	0.279	0.068
-717.777	-36.600	-0.051	0.027
-716.762	-200.000	0.033	-0.198
-715.748	-138.470	-0.391	0.043
-714.733	115.058	0.161	0.196
-713.718	81.789	0.142	0.154
-712.704	249.055	-0.061	0.104
-711.689	-84.578	0.246	0.077
-710.675	-170.725	0.214	0.007
-709.660	218.678	0.102	-0.162
-708.645	563.166	-0.166	-0.403
-707.631	-184.762	0.211	-0.003
-706.616	-35.802	-0.251	-0.136
-705.602	354.824	0.085	0.170
-704.587	-30.557	-0.073	-0.042
-703.572	-200.000	-0.004	0.337
-702.558	800.000	0.023	0.065
-701.543	-17.234	0.095	-0.060
-700.529	-185.822	-0.227	0.003
-699.514	800.000	0.026	-0.087
-698.499	-200.000	-0.079	-0.368
-697.485	480.771	-0.149	-0.337
-696.470	-200.000	-0.014	0.064
-695.456	-4.092	0.058	0.041
-694.441	290.230	-0.095	0.172
-693.426	-118.537	-0.189	0.033
-692.412	-79.252	0.454	-0.154
-691.397	677.079	0.027	0.069
-690.383	-86.955	-0.370	0.113
-689.368	28.138	-0.255	0.215
-688.354	-200.000	-0.059	-0.278
-687.339	31.603	0.198	-0.170
-686.324	-17.139	0.389	0.245
-685.310	-200.000	0.019	0.250
-684.295	-62.579	-0.369	0.153
-683.281	109.980	-0.234	0.280
-682.266	98.840	0.051	0.058
-681.251	-200.000	0.069	0.313
-680.237	-200.000	-0.031	0.320
-679.222	24.112	-0.381	-0.314
-678.208	553.396	-0.125	-0.301
-677.193	-143.279	-0.160	0.015
-676.178	279.979	0.082	0.147
-675.164	245.738	-0.137	-0.230
-674.149	113.914	0.074	-0.089
-673.135	-200.000	-0.017	0.367
-672.120	277.293	-0.100	0.178
-671.105	-54.155	0.256	-0.116
-670.091	-200.000	-0.070	0.361
-669.076	159.124	0.203	-0.282
-668.062	-136.274	-0.065	0.008
-667.047	39.268	-0.063	-0.056
-666.032	-51.738	-0.268	0.125
-665.018	14.999	-0.215	0.168
-664.003	112.711	-0.125	-0.152
-662.989	800.000	0.083	-0.281
-661.974	28.029	-0.211	0.178
-660.959	168.019	0.078	0.111
-659.945	-170.319	0.130	0.005
-658.930	28.770	0.151	0.128
-657.916	-101.827	-0.218	0.053
-656.901	-101.244	0.161	0.039
-655.886	-104.257	-0.240	-0.056
-654.872	4.980	0.046	-0.034
-653.857	68.221	-0.057	0.058
-652.843	-86.020	-0.093	0.029
-651.828	30.922	-0.297	-0.254
-650.814	-59.160	-0.244	-0.105
-649.799	-200.000	0.018	0.186
-648.784	-68.074	-0.150	0.058
-647.770	75.037	0.195	-0.205
-646.755	403.078	0.094	-0.198
-645.741	-15.570	-0.244	0.155
-644.726	35.676	0.053	0.047
-643.711	-31.264	-0.166	-0.093
-642.697	800.000	0.086	-0.376
-641.682	487.100	0.047	0.107
-640.668	-74.994	0.315	-0.113
-639.653	-200.000	0.046	-0.465
-638.638	4.197	0.153	-0.112
-637.624	-134.301	0.282	0.035
-636.609	-63.612	-0.133	-0.055
-635.595	137.877	0.024	-0.032
-634.580	-84.332	-0.150	0.047
-633.565	800.000	0.053	0.209
-632.551	-92.621	0.263	-0.074
-631.536	-200.000	-0.036	-0.201
-630.522	40.445	0.345	-0.310
-629.507	-200.000	0.013	-0.065
-628.492	23.242	-0.364	-0.298
-627.478	-132.834	-0.006	-0.001
-626.463	9.580	0.103	0.077
-625.449	-93.691	-0.226	0.062
-624.434	-200.000	0.014	0.152
-623.419	800.000	-0.018	-0.051
-622.405	-97.866	-0.215	-0.055
-621.390	-200.000	0.020	0.450
-620.376	-200.000	0.007	0.107
-619.361	-40.948	0.140	0.072
-618.346	-65.855	0.279	0.111
-617.332	-200.000	0.004	0.059
-616.317	-182.285	-0.106	0.002
-615.303	133.513	-0.268	0.345
-614.288	339.934	0.035	-0.067
-613.273	-200.000	-0.009	0.195
-612.259	800.000	0.058	-0.179
-611.244	-112.936	-0.114	-0.023
-610.230	116.848	-0.088	-0.107
-609.215	570.346	0.103	0.250
-608.201	103.397	-0.276	0.322
-607.186	-7.953	0.160	0.107
-606.171	-200.000	0.012	0.077
-605.157	701.117	-0.134	-0.351
-604.142	-200.000	0.046	0.226
-603.128	-43.450	0.072	0.036
-602.113	800.000	-0.058	-0.177
-601.098	-18.657	0.247	-0.153
-600.084	69.239	-0.065	0.067
-599.069	49.336	-0.284	-0.266
-598.055	-161.013	-0.204	-0.011
-597.040	-115.374	0.120	-0.023
-596.025	378.175	0.015	-0.032
-595.011	270.012	0.043	0.075
-593.996	-76.646	-0.033	-0.012
-592.982	800.000	0.166	-0.509
-591.967	-88.279	0.173	-0.052
-590.952	-49.425	-0.083	-0.039
-589.938	-200.000	0.005	-0.086
-588.923	-64.899	0.073	-0.030
-587.909	255.049	0.026	0.045
-586.894	-126.661	0.165	0.024
-585.879	724.100	-0.027	-0.071
-584.865	-200.000	-0.026	-0.316
-583.850	156.078	-0.099	0.136
-582.836	-200.000	-0.033	0.166
-581.821	800.000	0.031	-0.098
-580.806	-105.212	-0.151	0.034
-579.792	-41.936	0.075	0.038
-578.777	-157.045	-0.284	-0.017
-577.763	24.428	-0.316	0.260
-576.748	133.678	-0.032	0.042
-575.733	-41.901	-0.178	-0.091
-574.719	24.759	0.197	-0.162
-573.704	-65.007	-0.194	0.078
-572.690	28.623	-0.063	-0.053
-571.675	67.212	-0.095	-0.096
-570.661	539.595	0.007	-0.017
-569.646	-111.382	-0.096	-0.020
-568.631	32.400	0.229	0.197
-567.617	800.000	-0.080	0.244
-566.602	-96.714	-0.389	0.102
-565.588	-200.000	0.016	0.081
-564.573	45.802	-0.173	0.159
-563.558	-200.000	0.021	0.384
-562.544	-181.430	-0.121	0.002
-561.529	-180.107	0.210	-0.004
-560.515	-87.822	0.240	0.072
-559.500	-164.986	-0.059	-0.003
-558.485	20.850	-0.293	-0.236
-557.471	128.447	-0.046	0.058
-556.456	279.372	0.054	0.096
-555.442	800.000	-0.062	-0.244
-554.427	61.641	-0.063	0.063
-553.412	17.080	0.200	0.158
-552.398	159.514	0.122	-0.169
-551.383	191.814	-0.047	0.070
-550.369	-77.240	-0.220	-0.076
-549.354	800.000	-0.044	-0.122
-548.339	104.096	-0.141	-0.165
-547.325	256.491	-0.140	0.240
-546.310	60.613	0.150	-0.148
-545.296	-146.859	-0.084	-0.007
-544.281	158.805	0.129	-0.178
-543.266	99.122	0.093	-0.107
-542.252	-200.000	0.076	-0.343
-541.237	226.869	-0.153	0.247
-540.223	-89.116	-0.118	0.035
-539.208	-138.907	-0.329	-0.036
-538.193	0.621	0.263	0.187
-537.179	744.391	-0.155	0.415
-536.164	102.565	-0.119	0.138
-535.150	800.000	-0.079	0.265
-534.135	-200.000	0.002	0.126
-533.121	353.774	0.108	-0.214
-532.106	-20.703	0.235	0.144
-531.091	-117.810	-0.250	0.045
-530.077	-200.000	-0.003	0.110
-529.062	168.588	0.109	0.155
-528.048	40.483	0.242	-0.217
-527.033	42.443	-0.345	0.312
-526.018	-143.438	-0.119	-0.011
-525.004	-27.432	0.172	-0.099
-523.989	800.000	0.078	0.281
-522.975	144.147	-0.164	0.218
-521.960	-119.823	-0.128	-0.022
-520.945	193.367	0.218	0.327
-519.931	504.643	-0.040	-0.092
-518.916	282.937	0.179	-0.319
-517.902	-67.798	-0.305	0.118
-516.887	225.339	-0.203	-0.327
-515.872	-55.405	-0.327	-0.146
-514.858	-200.000	0.046	-0.258
-513.843	800.000	-0.133	-0.450
-512.829	6.746	0.414	0.306
-511.814	-200.000	-0.010	0.125
-510.799	-200.000	-0.061	-0.279
-509.785	121.402	-0.099	0.122
-508.770	-200.000	0.002	-0.279
-507.756	157.069	-0.084	0.116
-506.741	-95.948	0.115	0.030
-505.726	-161.433	0.137	-0.007
-504.712	788.876	0.090	0.245
-503.697	-81.774	-0.261	-0.085
-502.683	414.775	-0.135	0.285
-501.668	359.086	0.045	-0.090
-500.653	-200.000	0.000	-0.110
-499.639	-75.628	-0.129	-0.046
-498.624	44.511	0.067	-0.061
-497.610	552.752	0.090	-0.214
-496.595	-114.218	0.050	0.010
-495.581	-27.960	-0.215	0.123
-494.566	-78.581	-0.031	-0.011
-493.551	-0.256	-0.216	0.152
-492.537	125.481	-0.176	0.220
-491.522	-88.072	-0.302	-0.090
-490.508	-200.000	-0.007	-0.230
-489.493	-32.559	0.065	0.036
-488.478	-200.000	0.028	-0.295
-487.464	-39.760	-0.074	0.039
-486.449	-80.193	0.244	0.081
-485.435	-200.000	0.005	-0.042
-484.420	-27.394	-0.398	0.229
-483.405	-113.247	0.162	-0.032
-482.391	45.513	0.366	-0.335
-481.376	800.000	-0.057	-0.185
-480.362	-8.236	0.097	-0.065
-479.347	-200.000	-0.024	0.328
-478.332	-5.392	0.211	0.143
-477.318	-200.000	-0.029	0.213
-476.303	800.000	0.053	0.174
-475.289	-13.089	0.177	-0.114
-474.274	-66.554	-0.294	-0.115
-473.259	3.612	-0.060	-0.043
-472.245	43.913	0.210	-0.191
-471.230	221.446	0.227	-0.362
-470.216	-67.892	0.315	0.122
-469.201	-200.000	-0.007	-0.170
-468.186	-99.711	-0.492	0.122
-467.172	192.890	-0.106	0.158
-466.157	-200.000	0.022	0.149
-465.143	671.427	-0.061	-0.157
-464.128	304.414	0.046	0.084
-463.113	565.757	0.137	0.330
-462.099	-85.526	0.138	-0.043
-461.084	-5.937	-0.130	0.088
-460.070	-168.588	-0.090	-0.003
-459.055	186.701	-0.164	-0.242
-458.040	-200.000	0.008	0.034
-457.026	-122.877	-0.023	-0.004
-456.011	153.377	-0.073	-0.099
-454.997	800.000	-0.048	0.136
-453.982	-99.979	0.175	0.043
-452.968	-13.104	0.109	0.070
-451.953	298.953	-0.120	0.219
-450.938	26.391	-0.272	0.226
-449.924	-76.869	0.066	0.023
-448.909	800.000	0.089	-0.254
-447.895	49.571	0.063	-0.059
-446.880	444.856	-0.087	0.188
-445.865	-200.000	-0.012	-0.093
-444.851	681.011	-0.075	-0.193
-443.836	-161.647	0.282	0.014
-442.822	231.920	0.081	0.132
-441.807	141.828	-0.126	-0.165
-440.792	346.038	0.061	-0.118
-439.778	-95.161	-0.327	0.087
-438.763	287.342	-0.120	0.215
-437.749	800.000	0.080	-0.304
-436.734	229.678	-0.127	-0.205
-435.719	-9.923	0.297	-0.196
-434.705	277.984	0.116	0.204
-433.690	480.522	-0.020	0.044
-432.676	154.780	0.096	0.130
-431.661	-19.219	0.177	0.108
-430.646	800.000	-0.038	-0.147
-429.632	-129.480	0.102	0.014
-428.617	-200.000	-0.015	0.091
-427.603	-44.648	0.491	0.243
-426.588	1.653	0.135	0.097
-425.573	64.909	-0.319	-0.319
-424.559	179.757	0.180	-0.261
-423.544	81.047	-0.314	-0.335
-422.530	-146.260	-0.186	-0.016
-421.515	-20.590	0.082	0.050
-420.500	16.266	0.154	-0.120
-419.486	-61.338	0.321	-0.133
-418.471	476.307	-0.146	-0.327
-417.457	-200.000	-0.027	0.245
-416.442	-200.000	-0.024	0.163
-415.428	-121.883	0.173	-0.028
-414.413	-84.621	0.121	0.038
-413.398	-135.453	-0.212	0.025
-412.384	-200.000	0.016	-0.229
-411.369	-89.111	0.244	0.071
-410.355	-81.056	0.257	0.084
-409.340	-156.116	-0.244	-0.015
-408.325	-52.261	0.418	0.191
-407.311	-200.000	-0.041	-0.216
-406.296	-96.104	0.390	0.102
-405.282	130.890	-0.102	-0.130
-404.267	20.019	0.267	-0.213
-403.252	-162.228	0.101	-0.005
-402.238	-63.489	-0.412	-0.167
-401.223	175.216	-0.184	0.263
-400.209	-137.310	0.444	-0.050
-399.194	115.826	-0.098	0.119
-398.179	-15.137	-0.244	-0.154
-397.165	557.107	-0.140	-0.333
-396.150	43.439	-0.103	-0.093
-395.136	-18.586	-0.231	0.143
-394.121	-63.008	0.087	0.036
-393.106	800.000	-0.053	-0.190
-392.092	219.062	0.147	0.233
-391.077	800.000	0.045	-0.179
-390.063	-90.279	0.113	0.032
-389.048	800.000	0.047	0.202
-388.033	7.339	-0.035	-0.026
-387.019	-31.305	0.131	-0.073
-386.004	800.000	0.041	0.153
-384.990	-53.259	0.128	-0.058
-383.975	-200.000	-0.012	-0.268
-382.960	249.653	0.063	0.105
-381.946	247.075	0.037	-0.062
-380.931	-140.101	0.389	-0.040
-379.917	-20.102	-0.128	0.078
-378.902	-5.336	0.109	0.074
-377.888	32.993	0.131	0.112
-376.873	-200.000	0.034	-0.223
-375.858	-34.350	0.248	0.134
-374.844	-200.000	-0.064	-0.483
-373.829	-102.550	-0.351	0.083
-372.815	-200.000	-0.059	-0.286
-371.800	620.523	-0.048	-0.120
-370.785	-91.815	0.208	-0.058
-369.771	11.316	-0.118	0.089
-368.756	168.120	-0.034	0.048
-367.742	800.000	-0.108	-0.408
-366.727	800.000	-0.021	0.085
-365.712	-200.000	0.001	-0.066
-364.698	-200.000	-0.024	0.174
-363.683	9.830	-0.246	0.184
-362.669	4.903	0.108	0.078
-361.654	-7.858	0.210	0.140
-360.639	-115.088	-0.264	-0.049
-359.625	-41.122	0.204	-0.104
-358.610	-0.436	0.209	-0.147
-357.596	276.260	-0.232	-0.407
-356.581	221.166	-0.159	0.251
-355.566	800.000	0.067	0.207
-354.552	800.000	-0.019	-0.075
-353.537	-93.005	-0.136	0.037
-352.523	-125.478	-0.237	-0.036
-351.508	65.096	0.078	0.078
-350.493	-15.114	-0.300	0.189
-349.479	800.000	-0.093	-0.254
-348.464	800.000	0.061	-0.190
-347.450	-200.000	-0.016	-0.073
-346.435	303.045	-0.033	-0.060
-345.420	357.772	-0.128	0.253
-344.406	199.502	0.141	0.214
-343.391	477.366	-0.151	0.336
-342.377	26.424	0.107	-0.088
-341.362	-35.730	0.294	0.157
-340.348	-200.000	0.006	0.168
-339.333	239.821	0.159	-0.261
-338.318	-60.306	-0.234	0.098
-337.304	44.003	0.341	0.308
-336.289	120.467	0.178	-0.218
-335.275	-75.314	-0.230	-0.081
-334.260	-200.000	-0.011	0.084
-333.245	394.868	-0.158	0.324
-332.231	87.619	0.163	-0.178
-331.216	-10.435	0.142	-0.093
-330.202	651.547	-0.101	-0.254
-329.187	421.846	-0.100	-0.212
-328.172	800.000	0.091	-0.376
-327.158	-200.000	-0.056	0.468
-326.143	800.000	-0.066	-0.225
-325.129	99.327	0.131	0.149
-324.114	-97.317	-0.183	0.047
-323.099	-105.138	0.106	-0.024
-322.085	523.028	0.053	-0.122
-321.070	55.343	-0.253	-0.241
-320.056	-200.000	0.034	-0.192
-319.041	317.280	-0.161	-0.301
-318.026	78.016	-0.149	0.156
-317.012	95.821	0.134	0.150
-315.997	-89.341	-0.118	0.034
-314.983	-145.564	-0.242	0.021
-313.968	-53.220	0.386	-0.175
-312.953	-200.000	-0.042	0.434
-311.939	-100.792	-0.293	0.071
-310.924	517.753	-0.022	-0.051
-309.910	800.000	-0.069	0.247
-308.895	30.054	-0.065	-0.055
-307.880	65.957	0.133	0.133
-306.866	19.856	0.205	-0.163
-305.851	-200.000	-0.053	-0.638
-304.837	328.705	0.070	0.133
-303.822	-200.000	0.026	0.242
-302.807	-200.000	-0.030	0.255
-301.793	432.344	-0.078	-0.166
-300.778	155.047	0.061	0.082
-299.764	274.688	0.092	0.160
-298.749	34.476	-0.220	0.189
-297.735	-49.392	0.092	0.043
-296.720	-119.421	0.165	0.028
-295.705	69.142	-0.241	-0.243
-294.691	800.000	-0.012	0.044
-293.676	2.686	-0.351	0.251
-292.662	516.282	-0.081	0.186
-291.647	-200.000	-0.014	0.200
-290.632	28.182	-0.156	0.130
-289.618	49.195	0.088	-0.082
-288.603	-200.000	-0.014	0.069
-287.589	49.578	-0.165	-0.153
-286.574	286.427	0.109	-0.193
-285.559	-140.595	0.335	0.034
-284.545	118.390	-0.167	0.203
-283.530	-131.673	0.338	0.044
-282.516	-200.000	0.004	-0.043
-281.501	-106.455	-0.145	0.032
-280.486	584.530	-0.134	-0.323
-279.472	-200.000	0.014	-0.179
-278.457	-127.422	0.131	0.019
-277.443	-200.000	-0.036	0.375
-276.428	333.019	-0.213	0.405
-275.413	-80.188	0.118	0.039
-274.399	142.032	0.140	-0.183
-273.384	-200.000	0.019	0.272
-272.370	-22.230	-0.174	0.103
-271.355	-96.350	-0.469	-0.122
-270.340	497.486	-0.018	-0.041
-269.326	59.207	0.119	-0.115
-268.311	291.886	-0.117	-0.209
-267.297	779.879	0.107	0.287
-266.282	-26.172	0.073	-0.042
-265.267	800.000	0.082	-0.225
-264.253	280.454	-0.178	-0.312
-263.238	9.649	0.054	0.040
-262.224	800.000	0.129	0.383
-261.209	-98.109	0.224	-0.057
-260.195	800.000	-0.068	0.185
-259.180	-200.000	0.022	-0.160
-258.165	0.721	-0.087	-0.061
-257.151	800.000	0.165	-0.586
-256.136	-106.218	-0.143	-0.032
-255.122	117.530	-0.118	-0.143
-254.107	54.896	0.203	-0.193
-253.092	-20.172	-0.214	0.129
-252.078	559.898	-0.086	0.205
-251.063	-97.868	0.123	-0.031
-250.049	101.347	-0.083	-0.095
-249.034	-23.269	-0.175	-0.103
-248.019	-143.404	0.168	-0.016
-247.005	800.000	-0.083	0.226
-245.990	-83.948	0.062	-0.019
-244.976	61.085	-0.127	0.124
-243.961	510.880	-0.048	0.111
-242.946	132.695	0.320	0.406
-241.932	-88.677	-0.110	0.032
-240.917	727.188	0.109	0.285
-239.903	800.000	0.161	-0.510
-238.888	-53.570	-0.249	-0.112
-237.873	-83.667	0.105	0.033
-236.859	-200.000	-0.013	0.308
-235.844	8.997	-0.178	0.132
-234.830	33.335	0.332	0.283
-233.815	57.553	-0.092	-0.088
-232.800	800.000	-0.034	-0.145
-231.786	-80.595	0.271	-0.089
-230.771	-200.000	0.020	0.159
-229.757	776.088	-0.049	-0.131
-228.742	-75.686	0.314	0.109
-227.727	-60.103	0.013	0.005
-226.713	-4.940	0.091	-0.061
-225.698	178.785	0.100	-0.144
-224.684	12.594	-0.077	-0.059
-223.669	800.000	-0.061	0.178
-222.655	-103.792	-0.145	-0.033
-221.640	800.000	-0.034	0.113
-220.625	81.841	0.125	0.133
-219.611	-112.383	-0.182	-0.036
-218.596	-113.307	-0.105	0.020
-217.582	95.739	0.217	-0.243
-216.567	40.814	0.123	-0.109
-215.552	144.546	0.046	-0.060
-214.538	727.835	-0.041	0.106
-213.523	-18.613	0.421	0.258
-212.509	76.897	-0.217	0.226
-211.494	359.160	-0.116	-0.228
-210.479	800.000	-0.076	0.267
-209.465	-20.954	0.176	-0.106
-208.450	287.737	0.070	0.124
-207.436	24.060	-0.077	-0.062
-206.421	19.591	0.283	0.223
-205.406	-155.704	-0.122	0.008
-204.392	-91.171	-0.152	-0.043
-203.377	95.365	0.048	0.054
-202.363	-47.075	-0.407	-0.195
-201.348	-200.000	0.022	0.161
-200.333	-39.821	0.158	0.081
-199.319	-200.000	0.021	0.115
-198.304	37.266	-0.236	0.205
-197.290	365.795	-0.079	0.156
-196.275	48.484	0.257	-0.236
-195.260	-79.404	0.303	-0.100
-194.246	203.839	-0.129	0.196
-193.231	-5.459	0.395	0.266
-192.217	-144.350	0.214	-0.020
-191.202	349.161	0.098	-0.190
-190.187	52.923	-0.137	-0.129
-189.173	-156.192	-0.053	0.003
-188.158	-67.445	0.217	-0.083
-187.144	-78.081	-0.258	-0.087
-186.129	269.795	0.102	0.176
-185.114	188.502	-0.353	-0.518
-184.100	-28.745	0.212	0.119
-183.085	-13.368	0.232	0.148
-182.071	-200.000	-0.038	-0.165
-181.056	-24.954	0.301	0.175
-180.042	353.007	-0.035	-0.068
-179.027	800.000	0.044	-0.148
-178.012	112.309	0.247	-0.292
-176.998	455.248	-0.062	-0.136
-175.983	17.830	-0.393	0.307
-174.969	-200.000	-0.016	0.102
-173.954	-193.742	-0.353	-0.003
-172.939	-103.512	-0.236	-0.054
-171.925	-18.829	0.299	-0.182
-170.910	593.857	0.137	0.331
-169.896	-71.026	-0.239	-0.088
-168.881	121.915	0.119	-0.145
-167.866	-200.000	-0.019	0.369
-166.852	-200.000	-0.051	0.278
-165.837	-191.742	0.264	0.003
-164.823	9.789	0.317	0.236
-163.808	194.917	0.080	0.118
-162.793	779.827	0.090	-0.240
-161.779	-200.000	-0.002	-0.239
-160.764	-17.691	0.337	0.207
-159.750	-200.000	0.006	-0.133
-158.735	800.000	-0.037	-0.127
-157.720	-103.934	-0.216	-0.049
-156.706	-78.302	0.074	0.025
-155.691	-58.184	-0.032	-0.014
-154.677	365.931	-0.103	0.203
-153.662	-65.388	0.120	-0.047
-152.647	-200.000	0.011	-0.256
-151.633	-200.000	-0.032	0.159
-150.618	333.246	-0.099	-0.188
-149.604	17.963	-0.045	0.035
-148.589	166.888	0.056	0.078
-147.574	-200.000	-0.028	-0.159
-146.560	-17.566	-0.209	-0.128
-145.545	-22.801	-0.171	-0.101
-144.531	305.849	0.245	0.446
-143.516	-200.000	-0.013	0.336
-142.502	800.000	0.044	0.134
-141.487	800.000	-0.064	0.252
-140.472	320.745	0.177	0.328
-139.458	22.037	0.376	0.300
-138.443	-200.000	0.029	0.442
-137.429	-56.101	0.314	-0.137
-136.414	678.005	0.188	-0.477
-135.399	-169.879	0.358	-0.013
-134.385	-43.126	0.206	-0.102
-133.370	240.684	0.216	0.353
-132.356	800.000	-0.119	-0.441
-131.341	-117.900	0.137	0.024
-130.326	-106.048	-0.260	-0.057
-129.312	-95.623	-0.212	-0.056
-128.297	-98.819	-0.111	0.028
-127.283	686.727	0.063	0.160
-126.268	-200.000	-0.058	0.281
-125.253	-200.000	-0.029	-0.261
-124.239	-200.000	0.165	0.001
-123.224	-200.000	-0.075	0.339
-122.210	800.000	-0.061	0.231
-121.195	-119.028	-0.328	0.056
