DTS Sentinel unit serial number:	SN413079Multiplexer serial number:	ORYXHardware model number:	OX4-SRSoftware version number:	ORYX F/W v4.00 Oryx Data Collector v3.7.2.0data status	okinstallation	princeton_trtdifferential loss correction	single-endedforward channel	channel 3reverse channel	N/Adate	2019/09/15time	21:04:35forward acquisition time	60.00reverse acquisition time	0.00gamma	496.2192k internal	0.2328k external	0.2328temperature offset calibration	0.9938default loss term (dB/km)	0.3790temperature slope calibration	1.0000multiplexer offset coefficient	1.0000multiplexer slope coefficient	1.0000fibre end	0.00T internal ref (°C)	31.62T ext. ref 1 (°C)	8.09T ext. ref 2 (°C)	24.34length (m)	temperature (°C)	Stokes	anti-Stokes-747.200	-33.776	0.188	0.105
-746.185	-19.542	-0.274	0.171
-745.171	231.095	0.116	0.191
-744.156	97.071	-0.184	0.213
-743.142	290.838	-0.150	0.276
-742.127	118.384	-0.237	0.294
-741.112	59.458	-0.085	-0.084
-740.098	316.318	-0.052	-0.099
-739.083	124.961	-0.240	0.305
-738.069	316.615	0.052	0.099
-737.054	208.957	0.056	-0.089
-736.039	163.276	-0.137	-0.194
-735.025	56.618	0.122	0.119
-734.010	-93.237	-0.231	0.065
-732.996	-200.000	-0.113	-0.000
-731.981	-16.493	-0.089	0.057
-730.966	67.216	0.098	0.100
-729.952	393.092	-0.079	-0.165
-728.937	-182.290	0.130	0.002
-727.923	-40.158	0.125	0.066
-726.908	107.086	0.108	0.129
-725.894	-200.000	-0.050	0.303
-724.879	-176.419	0.258	0.007
-723.864	-58.292	-0.228	0.100
-722.850	-200.000	-0.019	-0.087
-721.835	-18.143	0.266	0.168
-720.821	-200.000	0.076	-0.425
-719.806	-145.757	-0.431	0.039
-718.791	-13.577	-0.020	0.013
-717.777	-200.000	0.058	-0.355
-716.762	355.409	-0.117	0.235
-715.748	467.257	-0.117	0.265
-714.733	32.668	-0.117	-0.102
-713.718	93.515	-0.113	-0.128
-712.704	-18.718	-0.127	0.079
-711.689	800.000	0.049	-0.139
-710.675	800.000	0.045	-0.178
-709.660	-63.313	0.094	-0.039
-708.645	54.459	0.141	-0.137
-707.631	-200.000	0.010	-0.216
-706.616	169.621	-0.134	-0.192
-705.602	303.503	0.217	0.405
-704.587	389.401	-0.059	-0.123
-703.572	800.000	-0.057	-0.164
-702.558	73.042	-0.230	0.242
-701.543	800.000	-0.112	-0.345
-700.529	-20.543	-0.336	-0.208
-699.514	210.347	-0.161	-0.255
-698.499	-129.106	0.132	0.019
-697.485	242.544	-0.077	-0.130
-696.470	118.892	-0.248	-0.308
-695.456	134.153	-0.159	0.207
-694.441	-90.897	0.398	-0.115
-693.426	18.585	0.189	-0.152
-692.412	340.432	0.099	0.194
-691.397	800.000	-0.153	0.497
-690.383	65.186	0.026	0.026
-689.368	-63.878	-0.144	0.059
-688.354	800.000	0.035	-0.100
-687.339	-200.000	-0.030	-0.175
-686.324	-12.596	-0.219	-0.144
-685.310	234.026	0.069	-0.114
-684.295	-147.959	0.261	0.022
-683.281	-164.992	-0.105	0.005
-682.266	-6.409	-0.243	-0.166
-681.251	232.393	-0.093	-0.154
-680.237	105.988	0.101	-0.120
-679.222	231.006	-0.207	-0.341
-678.208	33.012	-0.125	0.109
-677.193	-200.000	0.032	0.191
-676.178	800.000	-0.012	-0.048
-675.164	40.760	-0.095	0.086
-674.149	-143.001	-0.214	-0.021
-673.135	800.000	0.136	0.408
-672.120	-147.375	-0.099	-0.008
-671.105	255.811	-0.130	0.223
-670.091	409.566	0.131	-0.279
-669.076	52.256	0.175	-0.168
-668.062	-200.000	-0.024	0.345
-667.047	-29.320	-0.117	0.067
-666.032	-137.116	0.129	-0.015
-665.018	800.000	0.047	0.204
-664.003	-25.322	-0.241	-0.143
-662.989	180.948	0.119	-0.175
-661.974	48.990	0.322	0.304
-660.959	-103.789	0.231	0.054
-659.945	-140.485	0.317	0.033
-658.930	-25.380	-0.247	-0.146
-657.916	-200.000	-0.016	-0.270
-656.901	268.741	-0.049	-0.085
-655.886	-80.241	-0.104	0.035
-654.872	-144.431	0.182	-0.017
-653.857	-24.648	-0.245	-0.146
-652.843	58.216	-0.147	0.145
-651.828	-200.000	0.069	-0.417
-650.814	800.000	0.057	-0.180
-649.799	-51.413	-0.098	-0.046
-648.784	-200.000	-0.021	-0.134
-647.770	28.055	0.103	-0.087
-646.755	797.114	0.136	-0.375
-645.741	800.000	0.147	0.417
-644.726	66.313	-0.160	0.164
-643.711	32.612	0.260	-0.226
-642.697	-64.416	0.205	0.084
-641.682	537.245	-0.126	-0.300
-640.668	-106.580	-0.143	0.032
-639.653	-200.000	-0.005	0.053
-638.638	541.276	-0.097	0.233
-637.624	8.498	-0.386	-0.291
-636.609	211.525	-0.061	0.096
-635.595	-51.044	0.128	-0.060
-634.580	-200.000	-0.007	0.143
-633.565	-45.168	-0.192	-0.096
-632.551	-127.803	0.382	-0.055
-631.536	-38.597	0.103	-0.055
-630.522	-4.418	0.076	0.052
-629.507	-66.542	0.096	0.038
-628.492	800.000	-0.127	-0.365
-627.478	-143.969	0.151	0.014
-626.463	-79.450	-0.143	-0.048
-625.449	204.098	0.114	0.178
-624.434	-137.213	0.308	-0.035
-623.419	-200.000	-0.024	-0.156
-622.405	-127.843	-0.091	0.013
-621.390	800.000	0.040	0.147
-620.376	-200.000	-0.045	0.366
-619.361	-51.993	-0.307	-0.143
-618.346	704.937	-0.010	0.026
-617.332	24.952	-0.309	0.257
-616.317	-200.000	-0.082	-0.411
-615.303	-92.157	-0.061	0.017
-614.288	-200.000	0.008	0.126
-613.273	403.604	0.078	0.165
-612.259	58.305	-0.130	-0.128
-611.244	-2.670	0.224	-0.157
-610.230	265.406	0.057	-0.100
-609.215	800.000	-0.144	-0.402
-608.201	236.492	0.117	0.193
-607.186	-102.055	-0.389	-0.094
-606.171	320.916	0.060	-0.114
-605.157	763.117	0.140	-0.382
-604.142	155.491	0.066	-0.091
-603.128	36.169	-0.103	0.091
-602.113	-146.233	0.063	-0.006
-601.098	-171.696	-0.165	-0.005
-600.084	68.378	0.054	0.056
-599.069	-109.451	-0.189	0.040
-598.055	332.796	-0.125	-0.242
-597.040	558.247	-0.114	0.276
-596.025	-81.247	0.204	-0.067
-595.011	-200.000	-0.028	0.220
-593.996	-104.009	-0.146	-0.034
-592.982	10.128	-0.045	0.035
-591.967	800.000	0.041	-0.115
-590.952	800.000	0.077	0.214
-589.938	695.492	0.155	-0.409
-588.923	-14.969	0.318	-0.204
-587.909	-35.549	-0.353	0.192
-586.894	-117.363	-0.224	-0.041
-585.879	62.803	-0.161	-0.161
-584.865	236.066	-0.024	0.040
-583.850	800.000	-0.067	-0.243
-582.836	-200.000	-0.000	-0.248
-581.821	-52.637	-0.412	0.190
-580.806	202.930	0.046	0.071
-579.792	93.913	0.192	-0.218
-578.777	245.445	-0.057	-0.096
-577.763	5.860	-0.087	-0.064
-576.748	-200.000	0.031	-0.237
-575.733	-200.000	-0.017	0.128
-574.719	193.142	-0.109	-0.165
-573.704	-131.846	-0.350	0.046
-572.690	393.250	0.067	-0.139
-571.675	800.000	0.051	0.215
-570.661	156.504	-0.144	0.198
-569.646	-40.852	0.156	-0.081
-568.631	800.000	-0.117	-0.419
-567.617	-200.000	-0.041	-0.341
-566.602	-61.167	0.246	-0.104
-565.588	134.974	0.013	-0.017
-564.573	550.846	-0.151	0.363
-563.558	800.000	-0.074	0.282
-562.544	503.081	-0.087	-0.201
-561.529	53.665	-0.146	-0.140
-560.515	112.771	-0.102	-0.124
-559.500	643.328	-0.041	-0.106
-558.485	-33.478	0.103	0.057
-557.471	177.557	0.142	0.208
-556.456	800.000	-0.015	0.048
-555.442	-200.000	0.069	-0.323
-554.427	-180.353	-0.232	-0.005
-553.412	-49.475	0.088	0.042
-552.398	-42.762	0.179	-0.091
-551.383	-38.411	-0.248	0.131
-550.369	-200.000	-0.033	-0.283
-549.354	-53.996	-0.165	-0.075
-548.339	-89.743	-0.103	0.030
-547.325	-75.526	-0.397	0.141
-546.310	323.691	0.094	-0.180
-545.296	146.366	-0.224	0.300
-544.281	-108.256	0.069	0.015
-543.266	-178.933	0.160	-0.004
-542.252	-65.061	0.123	-0.050
-541.237	-200.000	-0.009	-0.330
-540.223	800.000	-0.049	0.159
-539.208	-169.804	0.287	0.010
-538.193	-200.000	-0.026	-0.246
-537.179	800.000	-0.116	0.394
-536.164	-200.000	0.069	-0.381
-535.150	83.534	-0.176	-0.191
-534.135	116.099	0.263	0.322
-533.121	-186.797	0.089	-0.001
-532.106	-66.923	-0.247	0.098
-531.091	-3.335	0.311	0.216
-530.077	-19.163	0.158	0.098
-529.062	-200.000	0.039	0.223
-528.048	-40.085	0.186	0.097
-527.033	800.000	0.063	-0.274
-526.018	-200.000	-0.004	0.038
-525.004	-119.022	-0.246	-0.043
-523.989	-62.693	-0.094	-0.039
-522.975	638.955	0.115	0.292
-521.960	-59.700	0.203	0.087
-520.945	800.000	0.019	-0.063
-519.931	-17.313	0.325	0.205
-518.916	-200.000	0.064	-0.444
-517.902	179.946	0.201	-0.294
-516.887	-5.207	-0.099	0.068
-515.872	-200.000	-0.020	0.187
-514.858	338.491	0.144	0.280
-513.843	106.482	0.160	-0.190
-512.829	-56.042	0.109	-0.049
-511.814	242.963	0.086	-0.144
-510.799	-115.593	0.158	-0.030
-509.785	45.513	-0.099	-0.091
-508.770	153.434	-0.178	0.243
-507.756	-200.000	-0.015	0.163
-506.741	-200.000	0.010	0.172
-505.726	-43.118	-0.245	-0.124
-504.712	-72.544	0.301	-0.111
-503.697	-200.000	-0.034	-0.185
-502.683	-60.353	-0.400	-0.170
-501.668	21.110	0.284	0.230
-500.653	-200.000	0.007	0.220
-499.639	-200.000	0.013	0.196
-498.624	-72.000	0.196	0.073
-497.610	182.084	-0.250	0.367
-496.595	140.506	0.171	-0.225
-495.581	382.355	0.097	-0.199
-494.566	-178.109	-0.217	0.005
-493.551	-179.315	0.031	-0.001
-492.537	-200.000	0.002	0.068
-491.522	800.000	0.147	-0.407
-490.508	-165.096	-0.086	0.004
-489.493	800.000	-0.041	0.156
-488.478	86.135	0.115	-0.127
-487.464	66.327	-0.023	-0.024
-486.449	418.738	-0.027	0.057
-485.435	-88.937	-0.117	0.035
-484.420	-102.907	0.161	0.038
-483.405	-98.759	-0.103	0.026
-482.391	180.700	-0.074	0.109
-481.376	-35.717	-0.390	-0.211
-480.362	-200.000	-0.022	0.326
-479.347	-78.605	-0.069	0.023
-478.332	-200.000	0.016	0.194
-477.318	800.000	0.070	-0.287
-476.303	-145.073	0.089	0.008
-475.289	-72.764	0.091	-0.033
-474.274	295.471	-0.115	-0.210
-473.259	-110.767	-0.184	0.038
-472.245	800.000	0.073	0.220
-471.230	800.000	-0.075	0.278
-470.216	164.710	-0.189	0.265
-469.201	-81.950	-0.123	0.040
-468.186	-80.300	-0.199	-0.066
-467.172	-200.000	0.070	-0.380
-466.157	439.622	0.231	0.502
-465.143	25.245	0.254	-0.210
-464.128	-11.986	-0.091	0.059
-463.113	800.000	-0.073	-0.285
-462.099	-28.251	0.186	0.107
-461.084	-99.370	0.357	0.090
-460.070	34.616	0.047	0.041
-459.055	-161.479	0.192	0.010
-458.040	-75.691	-0.304	-0.108
-457.026	27.555	-0.111	0.093
-456.011	-121.870	-0.161	0.026
-454.997	222.468	0.005	0.008
-453.982	-151.418	0.317	0.024
-452.968	-101.361	0.518	0.126
-451.953	800.000	0.033	-0.126
-450.938	-200.000	-0.060	-0.301
-449.924	-12.430	0.180	0.117
-448.909	-176.899	-0.286	-0.007
-447.895	800.000	-0.085	0.268
-446.880	103.077	0.281	0.328
-445.865	-12.696	0.048	0.031
-444.851	-70.155	-0.142	-0.054
-443.836	-93.329	-0.193	0.053
-442.822	162.778	0.089	-0.125
-441.807	-47.023	-0.232	0.113
-440.792	498.919	-0.104	-0.240
-439.778	45.092	-0.147	0.135
-438.763	81.878	-0.119	0.128
-437.749	183.631	0.042	-0.061
-436.734	-38.412	0.122	0.064
-435.719	-21.138	0.045	0.028
-434.705	344.588	-0.020	-0.040
-433.690	111.230	0.179	0.215
-432.676	-200.000	-0.016	0.319
-431.661	-155.720	0.243	0.016
-430.646	-200.000	0.037	-0.215
-429.632	-200.000	-0.103	-0.454
-428.617	231.232	-0.099	-0.161
-427.603	800.000	0.038	-0.109
-426.588	-78.864	0.113	-0.038
-425.573	-79.891	0.175	-0.059
-424.559	-200.000	0.006	-0.122
-423.544	-85.894	-0.190	-0.059
-422.530	-7.553	-0.273	0.184
-421.515	0.519	-0.351	0.250
-420.500	-100.820	-0.276	-0.068
-419.486	-119.638	0.059	0.010
-418.471	138.973	-0.159	-0.209
-417.457	-92.639	0.271	-0.076
-416.442	-92.054	-0.064	-0.018
-415.428	800.000	0.030	-0.117
-414.413	-74.216	0.035	0.013
-413.398	-144.584	0.209	0.019
-412.384	31.737	0.158	0.135
-411.369	603.537	0.072	0.179
-410.355	-127.010	-0.258	-0.038
-409.340	-200.000	-0.002	0.208
-408.325	-88.996	-0.338	0.099
-407.311	800.000	-0.025	0.081
-406.296	74.934	-0.266	-0.278
-405.282	296.546	-0.214	-0.390
-404.267	-190.056	0.061	-0.001
-403.252	-26.029	-0.255	0.149
-402.238	338.702	-0.050	-0.096
-401.223	-2.290	0.212	-0.148
-400.209	800.000	-0.024	-0.103
-399.194	-17.082	-0.219	0.137
-398.179	-100.933	-0.506	0.124
-397.165	-200.000	0.022	-0.206
-396.150	252.438	0.050	-0.084
-395.136	-35.654	0.135	-0.073
-394.121	65.383	0.183	-0.184
-393.106	-73.700	-0.059	-0.021
-392.092	-29.718	-0.218	0.123
-391.077	688.358	0.049	0.129
-390.063	-184.901	-0.147	-0.002
-389.048	-142.056	-0.374	-0.037
-388.033	800.000	-0.107	0.356
-387.019	433.785	-0.111	-0.240
-386.004	800.000	0.011	-0.042
-384.990	206.639	-0.110	-0.170
-383.975	-154.553	0.104	-0.007
-382.960	88.118	0.118	-0.130
-381.946	-41.067	-0.165	0.084
-380.931	180.901	0.094	-0.138
-379.917	31.139	0.083	-0.071
-378.902	-99.356	0.345	0.086
-377.888	63.515	-0.042	-0.042
-376.873	224.258	0.057	0.092
-375.858	111.963	0.285	0.342
-374.844	212.859	0.004	-0.006
-373.829	292.305	0.095	-0.173
-372.815	62.334	-0.135	0.134
-371.800	-20.137	-0.028	0.017
-370.785	-89.484	0.425	-0.124
-369.771	659.294	-0.035	0.090
-368.756	26.135	-0.130	0.108
-367.742	363.758	-0.056	-0.112
-366.727	-30.970	-0.240	-0.135
-365.712	-29.756	-0.103	0.058
-364.698	-107.887	0.163	-0.035
-363.683	174.719	-0.123	-0.177
-362.669	255.884	-0.216	-0.367
-361.654	-43.810	-0.354	0.177
-360.639	285.825	-0.275	-0.492
-359.625	800.000	0.007	0.031
-358.610	-76.528	-0.099	0.034
-357.596	-72.132	-0.046	0.017
-356.581	-200.000	-0.042	-0.223
-355.566	112.218	-0.114	-0.137
-354.552	-74.154	-0.249	0.089
-353.537	568.025	0.075	0.180
-352.523	800.000	-0.099	0.346
-351.508	800.000	-0.080	0.224
-350.493	-200.000	-0.012	-0.175
-349.479	100.766	0.162	0.187
-348.464	213.459	-0.070	0.110
-347.450	-129.189	-0.271	-0.037
-346.435	-79.872	-0.157	-0.052
-345.420	-109.034	0.526	0.111
-344.406	189.944	0.090	-0.134
-343.391	86.301	0.036	0.040
-342.377	800.000	-0.069	0.236
-341.362	-49.879	0.038	0.018
-340.348	133.797	0.144	-0.185
-339.333	519.689	0.189	-0.440
-338.318	25.004	-0.231	-0.190
-337.304	-60.230	0.169	-0.071
-336.289	3.025	-0.061	-0.044
-335.275	691.432	0.030	0.077
-334.260	-87.524	0.288	-0.087
-333.245	-176.253	0.214	0.006
-332.231	-164.124	0.112	0.005
-331.216	148.902	0.070	-0.094
-330.202	57.343	0.084	0.082
-329.187	123.156	0.290	0.360
-328.172	-53.595	-0.086	-0.039
-327.158	800.000	-0.106	0.367
-326.143	-158.677	0.116	-0.007
-325.129	-125.084	-0.173	0.026
-324.114	327.692	0.153	0.290
-323.099	-200.000	-0.018	-0.257
-322.085	185.036	0.120	-0.176
-321.070	-200.000	-0.001	-0.360
-320.056	-68.675	-0.113	-0.043
-319.041	800.000	0.069	0.192
-318.026	48.988	0.003	-0.003
-317.012	-130.092	0.398	0.054
-315.997	800.000	-0.036	-0.144
-314.983	-61.390	-0.374	0.156
-313.968	800.000	0.032	0.138
-312.953	242.495	0.024	-0.039
-311.939	292.338	0.116	0.209
-310.924	484.611	-0.028	-0.062
-309.910	20.680	0.072	0.058
-308.895	-2.265	-0.241	-0.168
-307.880	-33.536	0.342	-0.187
-306.866	-110.946	0.164	0.033
-305.851	63.116	0.140	0.139
-304.837	78.103	-0.026	0.027
-303.822	655.237	0.156	-0.396
-302.807	5.551	-0.201	0.147
-301.793	-200.000	-0.004	-0.121
-300.778	58.028	0.317	0.307
-299.764	395.785	-0.093	0.193
-298.749	219.464	-0.123	0.194
-297.735	25.729	-0.168	0.139
-296.720	-102.282	0.258	0.061
-295.705	-200.000	0.041	-0.236
-294.691	-10.636	0.392	0.257
-293.676	26.937	0.133	-0.111
-292.662	-200.000	-0.013	0.523
-291.647	-78.338	0.311	0.106
-290.632	-25.693	-0.149	0.087
-289.618	236.694	-0.255	-0.418
-288.603	39.535	-0.065	0.057
-287.589	-200.000	-0.041	-0.194
-286.574	51.586	0.194	0.183
-285.559	330.214	0.118	-0.225
-284.545	15.979	-0.075	-0.059
-283.530	-139.021	0.108	-0.012
-282.516	25.386	0.217	0.178
-281.501	250.901	0.051	-0.087
-280.486	139.551	0.078	0.102
-279.472	206.997	-0.158	-0.244
-278.457	-13.764	-0.147	-0.094
-277.443	-70.458	0.297	-0.111
-276.428	54.455	-0.359	-0.342
-275.413	154.703	0.023	-0.031
-274.399	-72.624	-0.226	0.082
-273.384	-73.296	0.307	0.111
-272.370	-200.000	-0.029	0.328
-271.355	281.595	0.217	0.385
-270.340	-200.000	0.064	-0.332
-269.326	193.694	0.297	-0.445
-268.311	30.267	-0.046	0.039
-267.297	199.245	-0.106	-0.161
-266.282	-104.849	0.104	0.024
-265.267	800.000	0.060	0.174
-264.253	-121.893	-0.226	-0.037
-263.238	-2.444	-0.091	-0.063
-262.224	760.152	0.089	-0.239
-261.209	114.803	0.153	0.184
-260.195	-200.000	-0.001	0.118
-259.180	-51.432	0.115	0.053
-258.165	800.000	-0.041	-0.143
-257.151	-11.639	0.184	-0.119
-256.136	-38.269	-0.064	-0.034
-255.122	-200.000	-0.050	0.452
-254.107	-15.406	-0.106	0.067
-253.092	363.775	-0.120	-0.239
-252.078	-200.000	-0.020	-0.182
-251.063	-200.000	-0.011	0.323
-250.049	-200.000	0.004	-0.127
-249.034	-200.000	-0.026	0.364
-248.019	-97.444	0.298	0.077
-247.005	800.000	-0.072	0.199
-245.990	-200.000	0.043	-0.271
-244.976	-115.090	-0.231	0.043
-243.961	-8.543	0.210	0.139
-242.946	39.169	-0.207	0.183
-241.932	-52.284	0.129	-0.059
-240.917	-166.026	0.163	-0.007
-239.903	-122.983	0.380	0.060
-238.888	-5.578	0.091	0.062
-237.873	59.915	-0.172	0.168
-236.859	-58.884	-0.306	-0.131
-235.844	320.193	0.144	-0.270
-234.830	-121.093	0.096	0.016
-233.815	135.453	-0.067	-0.086
-232.800	207.757	-0.044	-0.068
-231.786	-41.628	-0.326	0.166
-230.771	-144.473	-0.252	0.023
-229.757	800.000	-0.065	-0.187
-228.742	-200.000	0.031	0.316
-227.727	469.234	-0.043	-0.095
-226.713	12.492	0.042	0.032
-225.698	800.000	-0.042	-0.141
-224.684	-200.000	0.030	-0.181
-223.669	8.434	-0.183	0.136
-222.655	11.680	0.358	0.271
-221.640	-53.158	-0.261	0.118
-220.625	-116.889	-0.339	0.061
-219.611	-200.000	0.008	0.209
-218.596	-200.000	-0.049	-0.303
-217.582	-192.310	-0.121	-0.001
-216.567	-13.970	-0.145	-0.093
-215.552	-168.586	0.188	-0.007
-214.538	29.184	0.142	-0.119
-213.523	-82.607	-0.152	0.049
-212.509	-200.000	-0.035	0.237
-211.494	-103.084	0.233	-0.055
-210.479	-138.220	0.245	-0.027
-209.465	-105.923	0.392	0.087
-208.450	180.657	-0.172	0.249
-207.436	298.965	0.076	-0.139
-206.421	-70.426	0.079	0.030
-205.406	-62.653	0.222	0.091
-204.392	420.913	-0.101	0.213
-203.377	72.026	-0.188	0.193
-202.363	245.461	0.054	-0.090
-201.348	124.628	-0.098	-0.122
-200.333	136.533	-0.214	0.275
-199.319	-85.566	0.094	0.029
-198.304	-52.337	0.384	0.176
-197.290	-91.813	0.222	-0.062
-196.275	-54.012	-0.604	0.271
-195.260	-141.282	0.332	0.033
-194.246	85.087	-0.071	-0.077
-193.231	-59.282	0.351	-0.149
-192.217	-111.263	0.230	-0.046
-191.202	12.417	-0.246	-0.187
-190.187	-82.647	0.142	0.045
-189.173	170.674	-0.143	-0.202
-188.158	-200.000	-0.018	0.131
-187.144	134.199	0.145	0.185
-186.129	-108.185	0.127	0.027
-185.114	-51.662	-0.032	-0.015
-184.100	-200.000	0.047	-0.287
-183.085	-77.147	0.027	0.009
-182.071	-140.438	-0.162	-0.017
-181.056	221.964	-0.043	0.068
-180.042	800.000	0.118	-0.354
-179.027	443.066	0.143	0.308
-178.012	-108.978	-0.121	0.025
-176.998	-200.000	-0.022	-0.102
-175.983	-48.452	-0.057	-0.027
-174.969	800.000	0.072	0.230
-173.954	419.984	0.070	-0.147
-172.939	-200.000	0.036	0.346
-171.925	228.166	-0.193	0.309
-170.910	409.519	-0.116	0.243
-169.896	-99.413	0.214	-0.053
-168.881	19.388	0.165	0.131
-167.866	37.798	0.217	-0.190
-166.852	-200.000	-0.019	0.280
-165.837	462.644	0.115	0.254
-164.823	213.733	0.303	0.473
-163.808	-63.293	-0.132	-0.053
-162.793	43.154	0.079	-0.071
-161.779	-19.071	-0.124	-0.076
-160.764	-159.176	0.063	0.003
-159.750	-113.458	0.122	0.024
-158.735	800.000	-0.102	-0.358
-157.720	-200.000	-0.025	-0.127
-156.706	11.324	0.071	0.053
-155.691	120.256	-0.143	-0.175
-154.677	-77.733	-0.323	-0.110
-153.662	41.938	-0.153	-0.136
-152.647	-200.000	0.010	0.219
-151.633	-200.000	0.091	0.451
-150.618	708.719	-0.092	0.239
-149.604	800.000	-0.093	-0.285
-148.589	-97.837	0.115	-0.029
-147.574	236.177	-0.145	0.236
-146.560	387.522	0.189	0.385
-145.545	-160.544	0.446	-0.023
-144.531	162.970	0.054	-0.075
-143.516	58.287	0.052	0.050
-142.502	125.213	0.055	0.068
-141.487	-70.992	0.153	0.057
-140.472	-124.442	-0.237	-0.036
-139.458	-119.953	-0.129	0.022
-138.443	-200.000	0.017	0.305
-137.429	-48.074	0.466	0.222
-136.414	63.238	-0.110	0.108
-135.399	-162.644	-0.091	0.004
-134.385	-200.000	0.000	0.036
-133.370	1.092	-0.092	0.065
-132.356	118.103	0.237	-0.287
-131.341	-33.599	-0.080	-0.043
-130.326	157.970	-0.310	0.423
-129.312	453.230	-0.032	0.069
-128.297	-7.954	0.177	0.118
-127.283	66.877	0.140	-0.140
-126.268	187.356	0.072	0.106
-125.253	31.203	-0.314	0.265
-124.239	-3.506	0.307	-0.210
-123.224	-53.856	0.235	-0.105
-122.210	-200.000	0.031	-0.149
-121.195	-92.296	0.371	-0.103
