DTS Sentinel unit serial number:	SN413079Multiplexer serial number:	ORYXHardware model number:	OX4-SRSoftware version number:	ORYX F/W v4.00 Oryx Data Collector v3.7.2.0data status	okinstallation	princeton_trtdifferential loss correction	single-endedforward channel	channel 3reverse channel	N/Adate	2019/09/19time	01:12:35forward acquisition time	60.00reverse acquisition time	0.00gamma	496.2192k internal	0.2348k external	0.2348temperature offset calibration	0.9995default loss term (dB/km)	0.3790temperature slope calibration	1.0000multiplexer offset coefficient	1.0000multiplexer slope coefficient	1.0000fibre end	0.00T internal ref (°C)	21.81T ext. ref 1 (°C)	0.71T ext. ref 2 (°C)	15.17length (m)	temperature (°C)	Stokes	anti-Stokes-747.200	800.000	-0.112	-0.344
-746.185	90.787	0.146	0.164
-745.171	152.267	-0.198	0.270
-744.156	58.080	-0.246	0.241
-743.142	3.022	0.214	-0.155
-742.127	-200.000	0.004	0.042
-741.112	-199.518	-0.159	-0.001
-740.098	651.780	-0.114	0.292
-739.083	95.214	0.214	-0.243
-738.069	324.373	0.146	0.278
-737.054	800.000	-0.095	0.396
-736.039	51.562	-0.114	-0.108
-735.025	-9.081	0.284	0.189
-734.010	-123.320	-0.264	0.042
-732.996	-107.622	-0.098	-0.021
-731.981	257.169	0.274	0.470
-730.966	416.194	0.091	0.193
-729.952	98.995	-0.007	-0.008
-728.937	-51.188	-0.198	-0.093
-727.923	-30.437	-0.079	-0.045
-726.908	179.191	-0.272	0.397
-725.894	-121.168	-0.075	-0.013
-724.879	168.383	-0.099	-0.140
-723.864	800.000	-0.021	-0.086
-722.850	800.000	-0.111	-0.392
-721.835	51.341	0.043	0.041
-720.821	-115.184	-0.233	0.044
-719.806	-13.549	-0.306	-0.198
-718.791	277.135	0.075	0.133
-717.777	-200.000	-0.035	-0.263
-716.762	-35.994	0.107	-0.058
-715.748	-117.685	-0.344	0.062
-714.733	-200.000	0.065	-0.298
-713.718	-180.903	-0.285	0.006
-712.704	51.875	-0.315	-0.299
-711.689	-200.000	-0.038	-0.192
-710.675	664.117	-0.064	0.165
-709.660	-103.569	-0.071	0.017
-708.645	-200.000	-0.026	0.146
-707.631	-116.777	0.337	0.062
-706.616	2.152	-0.211	-0.152
-705.602	-32.412	0.129	0.072
-704.587	-136.728	0.252	0.029
-703.572	-78.900	0.317	-0.108
-702.558	-17.155	-0.280	0.176
-701.543	86.467	0.068	-0.074
-700.529	246.008	0.163	-0.274
-699.514	3.165	-0.082	-0.060
-698.499	800.000	-0.123	-0.347
-697.485	-163.809	-0.417	-0.019
-696.470	-148.090	0.150	-0.012
-695.456	643.120	0.097	-0.247
-694.441	8.546	0.099	-0.074
-693.426	-87.359	-0.103	-0.031
-692.412	-140.091	0.156	-0.016
-691.397	-99.601	-0.284	0.071
-690.383	-55.172	-0.053	0.024
-689.368	-130.007	-0.032	0.004
-688.354	-29.808	-0.178	0.101
-687.339	161.280	-0.103	0.143
-686.324	454.379	0.083	0.184
-685.310	-45.513	-0.103	-0.051
-684.295	198.358	0.248	-0.378
-683.281	113.161	-0.139	-0.169
-682.266	126.658	-0.180	0.227
-681.251	-200.000	0.039	-0.228
-680.237	-119.211	-0.211	-0.037
-679.222	-123.828	-0.204	-0.032
-678.208	88.925	0.088	-0.098
-677.193	45.721	0.054	-0.049
-676.178	-21.413	-0.146	0.089
-675.164	-46.862	-0.317	0.154
-674.149	-200.000	-0.358	0.001
-673.135	126.059	0.218	-0.275
-672.120	-85.752	-0.132	0.041
-671.105	271.662	-0.064	-0.113
-670.091	-61.151	0.369	-0.155
-669.076	74.367	-0.250	0.261
-668.062	-107.026	-0.215	-0.047
-667.047	800.000	0.017	-0.066
-666.032	-5.527	0.328	-0.224
-665.018	126.841	-0.199	-0.251
-664.003	29.042	-0.137	0.116
-662.989	-122.593	-0.131	-0.021
-661.974	-150.946	0.336	0.025
-660.959	-130.085	-0.196	-0.027
-659.945	-155.764	0.209	0.013
-658.930	-31.991	-0.397	-0.222
-657.916	-200.000	0.039	0.179
-656.901	800.000	-0.079	0.242
-655.886	-28.804	0.222	-0.127
-654.872	17.242	0.164	0.130
-653.857	111.130	0.109	-0.131
-652.843	-88.651	-0.225	-0.067
-651.828	22.220	0.086	0.070
-650.814	56.816	-0.206	0.200
-649.799	488.322	0.054	0.122
-648.784	60.406	0.131	0.129
-647.770	-108.602	0.183	-0.039
-646.755	800.000	0.053	-0.222
-645.741	400.762	0.043	-0.090
-644.726	-200.000	0.042	0.331
-643.711	-55.772	-0.340	0.151
-642.697	224.375	0.313	0.504
-641.682	180.735	0.141	0.206
-640.668	-31.874	-0.322	0.179
-639.653	-93.979	0.118	0.032
-638.638	218.098	0.110	0.175
-637.624	39.007	0.178	-0.158
-636.609	19.983	0.055	-0.044
-635.595	-200.000	0.028	0.166
-634.580	233.049	0.054	0.088
-633.565	-102.525	0.305	-0.073
-632.551	-45.931	0.325	-0.159
-631.536	62.002	0.167	0.165
-630.522	-200.000	0.012	0.156
-629.507	-200.000	-0.037	0.203
-628.492	190.224	0.113	-0.169
-627.478	-83.844	-0.214	-0.068
-626.463	-200.000	-0.052	0.276
-625.449	259.421	-0.105	0.180
-624.434	97.578	-0.141	-0.161
-623.419	11.955	0.090	0.069
-622.405	-200.000	-0.011	0.154
-621.390	153.163	-0.166	-0.226
-620.376	40.261	0.288	-0.257
-619.361	52.601	-0.196	0.186
-618.346	-121.562	-0.362	0.060
-617.332	-71.284	-0.091	0.034
-616.317	-5.662	-0.302	0.206
-615.303	-44.896	0.175	0.087
-614.288	-200.000	-0.065	0.341
-613.273	268.189	-0.033	0.058
-612.259	320.430	-0.176	-0.332
-611.244	-74.003	0.476	-0.172
-610.230	144.775	0.085	-0.113
-609.215	-17.590	0.005	0.003
-608.201	-69.636	0.413	-0.157
-607.186	177.104	-0.063	0.091
-606.171	475.824	-0.080	0.180
-605.157	-200.000	-0.039	0.174
-604.142	219.431	-0.205	-0.326
-603.128	38.788	-0.107	-0.095
-602.113	-117.465	-0.139	-0.025
-601.098	423.000	0.157	0.334
-600.084	-187.378	-0.203	-0.003
-599.069	105.926	-0.169	0.199
-598.055	-148.542	0.203	0.016
-597.040	405.681	-0.077	-0.161
-596.025	68.682	0.277	0.283
-595.011	-200.000	0.040	0.232
-593.996	518.919	-0.158	-0.366
-592.982	187.063	-0.229	0.339
-591.967	6.728	0.241	-0.178
-590.952	-38.523	-0.220	0.115
-589.938	-55.958	-0.174	-0.077
-588.923	-200.000	-0.063	-0.354
-587.909	57.468	-0.215	0.208
-586.894	-166.044	-0.163	-0.007
-585.879	181.072	-0.076	-0.111
-584.865	-49.566	0.190	-0.090
-583.850	119.252	-0.102	0.126
-582.836	543.939	-0.024	0.057
-581.821	-200.000	0.002	0.312
-580.806	-101.309	0.356	-0.086
-579.792	42.310	0.122	-0.110
-578.777	380.567	-0.080	0.163
-577.763	-56.296	-0.291	-0.128
-576.748	-200.000	0.061	-0.280
-575.733	-200.000	0.031	0.172
-574.719	800.000	-0.088	-0.244
-573.704	342.040	-0.083	-0.162
-572.690	2.337	-0.275	-0.197
-571.675	-200.000	0.028	-0.312
-570.661	-200.000	0.001	-0.015
-569.646	-200.000	0.011	0.101
-568.631	-76.075	0.312	0.109
-567.617	-104.491	-0.106	-0.024
-566.602	300.252	0.093	0.170
-565.588	-200.000	0.037	0.257
-564.573	-74.781	0.314	0.112
-563.558	-104.660	0.220	-0.050
-562.544	36.837	0.156	-0.137
-561.529	800.000	-0.055	-0.197
-560.515	-120.891	-0.236	-0.039
-559.500	767.769	0.102	-0.276
-558.485	-200.000	-0.011	0.255
-557.471	-70.978	-0.286	-0.107
-556.456	-90.165	-0.400	-0.115
-555.442	51.071	0.102	0.096
-554.427	240.618	-0.086	0.142
-553.412	-50.636	-0.334	-0.156
-552.398	18.224	0.128	0.102
-551.383	146.925	-0.319	-0.426
-550.369	-72.164	0.443	0.163
-549.354	3.573	-0.140	0.101
-548.339	60.319	-0.168	0.165
-547.325	123.972	0.078	-0.097
-546.310	-200.000	-0.068	0.432
-545.296	124.733	0.134	0.167
-544.281	-69.008	0.235	0.090
-543.266	54.542	-0.204	0.195
-542.252	420.070	-0.144	0.306
-541.237	-200.000	0.006	0.110
-540.223	136.603	-0.081	-0.104
-539.208	-200.000	0.028	0.285
-538.193	-22.200	-0.249	-0.150
-537.179	243.334	0.181	-0.300
-536.164	36.715	0.134	0.117
-535.150	3.535	-0.161	-0.116
-534.135	-40.705	0.430	-0.221
-533.121	71.463	-0.194	0.200
-532.106	70.585	0.153	-0.157
-531.091	-108.940	-0.413	0.087
-530.077	-39.539	0.165	0.085
-529.062	182.493	0.184	0.269
-528.048	-137.124	-0.271	-0.031
-527.033	76.702	0.090	0.095
-526.018	-84.822	-0.376	-0.117
-525.004	56.672	-0.243	-0.235
-523.989	1.121	0.150	0.106
-522.975	-78.441	-0.210	-0.071
-521.960	-53.933	0.234	-0.106
-520.945	-200.000	0.027	-0.248
-519.931	51.404	-0.026	-0.025
-518.916	-3.696	0.148	-0.102
-517.902	56.874	0.052	-0.050
-516.887	0.933	-0.331	-0.235
-515.872	-200.000	-0.066	-0.354
-514.858	-200.000	0.059	0.287
-513.843	228.291	0.188	-0.303
-512.829	-23.856	0.292	0.173
-511.814	800.000	-0.103	-0.360
-510.799	800.000	-0.061	-0.172
-509.785	800.000	0.084	-0.312
-508.770	402.945	-0.181	-0.376
-507.756	-200.000	0.022	-0.157
-506.741	-200.000	0.036	-0.187
-505.726	238.481	0.258	-0.425
-504.712	-200.000	0.017	-0.361
-503.697	-200.000	-0.012	-0.156
-502.683	-19.451	0.140	-0.086
-501.668	-163.184	-0.083	-0.004
-500.653	800.000	0.026	0.079
-499.639	189.878	0.092	0.137
-498.624	-82.725	-0.148	-0.047
-497.610	569.187	-0.049	-0.118
-496.595	-200.000	-0.018	0.178
-495.581	-200.000	-0.084	0.441
-494.566	-124.730	0.285	-0.044
-493.551	20.890	0.091	0.073
-492.537	800.000	-0.036	0.131
-491.522	800.000	0.089	0.291
-490.508	44.609	-0.035	0.032
-489.493	-200.000	-0.015	-0.091
-488.478	130.458	0.165	0.210
-487.464	-82.000	-0.319	-0.103
-486.449	36.114	-0.103	0.090
-485.435	-44.657	0.108	-0.054
-484.420	-138.942	0.221	-0.024
-483.405	222.180	0.094	-0.149
-482.391	-200.000	0.011	0.208
-481.376	-82.525	-0.204	0.066
-480.362	-77.331	-0.222	-0.076
-479.347	600.419	0.060	-0.148
-478.332	-129.768	-0.154	-0.021
-477.318	-131.761	0.234	0.030
-476.303	102.291	-0.160	-0.185
-475.289	-200.000	0.032	-0.225
-474.274	800.000	-0.028	0.082
-473.259	226.860	-0.057	0.092
-472.245	-7.799	-0.171	0.114
-471.230	-73.060	0.200	0.072
-470.216	800.000	0.030	0.091
-469.201	-65.262	-0.224	0.089
-468.186	-125.654	0.321	-0.048
-467.172	-92.016	-0.313	0.088
-466.157	-59.053	0.074	0.032
-465.143	147.201	0.073	-0.097
-464.128	-64.459	0.294	0.118
-463.113	-121.172	0.233	0.039
-462.099	4.055	0.297	0.214
-461.084	-97.863	-0.386	0.099
-460.070	-200.000	0.093	-0.427
-459.055	-200.000	0.036	-0.453
-458.040	297.897	-0.201	-0.365
-457.026	170.286	0.186	-0.264
-456.011	-77.554	-0.090	-0.031
-454.997	494.231	0.169	0.384
-453.982	-200.000	0.029	-0.343
-452.968	-74.585	-0.170	-0.060
-451.953	35.626	0.407	0.353
-450.938	-85.035	-0.291	-0.090
-449.924	-116.848	0.138	0.025
-448.909	-200.000	-0.007	0.289
-447.895	208.652	-0.210	-0.324
-446.880	-3.172	0.212	-0.146
-445.865	363.474	0.095	0.188
-444.851	50.275	-0.079	-0.073
-443.836	-115.409	-0.159	-0.030
-442.822	800.000	0.049	0.152
-441.807	0.611	0.243	-0.172
-440.792	602.611	0.134	0.329
-439.778	-29.745	-0.097	0.054
-438.763	-13.571	0.170	0.109
-437.749	-132.049	0.227	0.029
-436.734	-200.000	-0.015	0.212
-435.719	-103.503	-0.220	-0.051
-434.705	800.000	-0.066	-0.269
-433.690	6.264	0.357	0.262
-432.676	-45.844	-0.147	-0.071
-431.661	288.751	-0.117	0.209
-430.646	-123.767	-0.088	-0.014
-429.632	-200.000	-0.107	-0.479
-428.617	15.692	0.311	-0.241
-427.603	503.827	-0.046	-0.104
-426.588	-60.276	-0.196	0.082
-425.573	-200.000	-0.037	-0.169
-424.559	-200.000	-0.001	-0.220
-423.544	800.000	-0.125	0.427
-422.530	-200.000	-0.038	-0.276
-421.515	425.669	-0.032	-0.068
-420.500	-66.494	-0.231	0.090
-419.486	295.972	0.107	-0.194
-418.471	800.000	-0.026	-0.082
-417.457	172.487	0.119	-0.169
-416.442	-200.000	0.007	-0.050
-415.428	61.821	0.178	0.175
-414.413	141.969	0.175	-0.229
-413.398	-118.711	0.250	0.043
-412.384	249.600	-0.190	0.318
-411.369	-179.571	0.347	-0.007
-410.355	27.162	-0.388	-0.322
-409.340	-76.785	-0.115	-0.040
-408.325	-92.731	-0.144	-0.040
-407.311	-200.000	0.038	-0.197
-406.296	584.705	0.084	0.204
-405.282	800.000	0.067	-0.290
-404.267	-21.547	-0.278	0.167
-403.252	183.693	0.218	-0.318
-402.238	-43.840	0.113	-0.056
-401.223	800.000	0.175	0.574
-400.209	55.068	0.257	-0.244
-399.194	-200.000	-0.074	-0.432
-398.179	-110.524	-0.137	-0.028
-397.165	-111.863	-0.153	0.030
-396.150	70.372	-0.251	0.256
-395.136	41.069	-0.495	0.441
-394.121	800.000	-0.054	0.202
-393.106	528.650	-0.102	-0.238
-392.092	7.534	-0.185	-0.137
-391.077	-28.491	0.161	-0.091
-390.063	-200.000	0.037	0.174
-389.048	-58.707	0.317	0.135
-388.033	50.113	-0.020	-0.019
-387.019	-200.000	-0.035	0.290
-386.004	373.815	0.148	-0.297
-384.990	-5.149	-0.245	-0.166
-383.975	-172.838	0.060	0.002
-382.960	-154.751	-0.214	-0.014
-381.946	800.000	-0.045	0.170
-380.931	-200.000	-0.013	-0.118
-379.917	-80.686	-0.391	-0.128
-378.902	800.000	0.073	0.261
-377.888	-65.684	0.197	-0.078
-376.873	191.726	-0.199	-0.295
-375.858	302.965	-0.083	0.151
-374.844	-81.681	0.314	0.102
-373.829	-69.026	-0.201	0.076
-372.815	-27.509	0.125	0.072
-371.800	104.452	-0.109	0.127
-370.785	134.593	-0.093	0.119
-369.771	-90.261	-0.146	-0.042
-368.756	-143.283	0.246	0.023
-367.742	-45.187	-0.371	-0.181
-366.727	421.774	0.123	0.260
-365.712	-156.086	-0.235	-0.015
-364.698	-200.000	-0.052	0.275
-363.683	-200.000	-0.025	-0.130
-362.669	209.814	-0.172	0.265
-361.654	-200.000	0.036	-0.156
-360.639	-200.000	-0.019	0.156
-359.625	4.500	0.342	-0.247
-358.610	-200.000	0.033	-0.273
-357.596	111.022	-0.186	0.220
-356.581	-37.320	-0.404	-0.212
-355.566	60.790	-0.144	0.140
-354.552	-161.186	0.283	0.015
-353.537	-200.000	-0.007	-0.269
-352.523	800.000	0.058	-0.213
-351.508	-110.356	-0.148	-0.030
-350.493	-168.841	-0.420	0.016
-349.479	200.363	0.112	-0.169
-348.464	121.299	-0.164	-0.200
-347.450	-54.703	0.372	-0.165
-346.435	-200.000	-0.003	-0.178
-345.420	800.000	-0.058	0.160
-344.406	-141.934	0.257	0.025
-343.391	319.480	0.089	-0.165
-342.377	102.193	-0.192	0.221
-341.362	154.722	0.097	-0.131
-340.348	-200.000	0.028	-0.324
-339.333	-70.068	0.131	0.049
-338.318	-151.287	0.390	0.029
-337.304	-200.000	-0.032	-0.503
-336.289	-21.689	0.192	0.115
-335.275	25.507	0.072	0.059
-334.260	239.621	0.057	-0.093
-333.245	-200.000	0.013	-0.074
-332.231	-67.183	-0.285	-0.110
-331.216	-200.000	0.015	-0.216
-330.202	-200.000	-0.006	-0.262
-329.187	-101.827	-0.106	-0.025
-328.172	150.220	-0.127	0.170
-327.158	800.000	0.036	-0.120
-326.143	26.884	-0.037	0.031
-325.129	-123.188	-0.045	-0.007
-324.114	632.145	-0.043	0.108
-323.099	-200.000	-0.030	0.146
-322.085	-80.848	-0.182	-0.059
-321.070	124.126	-0.049	-0.060
-320.056	-11.776	-0.189	0.122
-319.041	-161.277	0.286	0.015
-318.026	800.000	0.042	0.127
-317.012	-123.647	0.274	-0.043
-315.997	-124.501	0.106	-0.016
-314.983	-20.825	-0.239	0.144
-313.968	-101.584	0.206	-0.049
-312.953	133.137	0.085	-0.108
-311.939	800.000	0.073	-0.208
-310.924	73.712	-0.260	0.267
-309.910	800.000	0.083	0.262
-308.895	-200.000	-0.000	0.183
-307.880	-66.723	0.368	-0.143
-306.866	276.434	-0.153	0.267
-305.851	-200.000	0.031	0.386
-304.837	-12.456	-0.101	0.065
-303.822	51.308	0.257	0.239
-302.807	621.209	0.092	0.228
-301.793	-200.000	-0.029	-0.132
-300.778	-200.000	-0.031	0.154
-299.764	432.070	-0.186	0.397
-298.749	-58.536	0.128	-0.055
-297.735	-98.064	-0.169	-0.043
-296.720	-36.955	0.260	-0.137
-295.705	-14.166	0.198	0.126
-294.691	62.058	-0.186	0.182
-293.676	-103.374	0.274	0.063
-292.662	20.510	0.064	0.051
-291.647	256.143	-0.150	-0.252
-290.632	800.000	-0.114	0.398
-289.618	-55.316	-0.196	0.087
-288.603	-133.769	0.009	0.001
-287.589	800.000	0.090	-0.315
-286.574	-78.060	0.029	-0.010
-285.559	-164.545	0.519	0.023
-284.545	-200.000	0.001	0.213
-283.530	-200.000	-0.014	-0.199
-282.516	-181.616	-0.137	-0.003
-281.501	-200.000	0.016	0.217
-280.486	-39.957	-0.156	-0.080
-279.472	-130.183	-0.137	-0.018
-278.457	-19.023	0.094	0.057
-277.443	-115.944	-0.160	0.029
-276.428	21.034	0.113	0.090
-275.413	-81.948	-0.245	-0.079
-274.399	-71.114	0.190	-0.070
-273.384	326.587	-0.117	0.220
-272.370	-200.000	-0.033	-0.388
-271.355	44.495	-0.139	-0.126
-270.340	800.000	-0.114	0.344
-269.326	-150.705	-0.132	-0.010
-268.311	-91.385	0.146	0.041
-267.297	291.451	0.057	-0.101
-266.282	40.208	0.095	-0.084
-265.267	110.638	0.134	0.158
-264.253	55.108	-0.115	0.109
-263.238	503.780	-0.030	0.067
-262.224	-200.000	0.031	-0.411
-261.209	800.000	0.059	-0.209
-260.195	-118.350	-0.221	0.039
-259.180	430.737	0.015	-0.032
-258.165	150.798	0.170	-0.226
-257.151	-9.385	-0.072	-0.047
-256.136	800.000	-0.083	0.314
-255.122	-99.589	0.076	0.019
-254.107	94.115	0.223	-0.248
-253.092	18.947	-0.297	0.233
-252.078	-28.351	0.346	0.196
-251.063	-200.000	0.061	0.300
-250.049	-200.000	-0.027	0.179
-249.034	71.391	-0.236	-0.240
-248.019	296.462	0.183	-0.330
-247.005	177.810	-0.163	-0.233
-245.990	-149.070	0.257	0.020
-244.976	800.000	-0.118	-0.377
-243.961	257.948	-0.095	0.161
-242.946	800.000	0.059	0.189
-241.932	-73.879	0.155	0.055
-240.917	-175.308	0.183	-0.005
-239.903	-81.640	-0.155	0.050
-238.888	-33.512	0.138	0.075
-237.873	-200.000	0.021	0.143
-236.859	64.156	-0.087	0.086
-235.844	702.906	-0.046	-0.118
-234.830	-200.000	-0.020	0.367
-233.815	118.783	-0.126	-0.152
-232.800	159.746	-0.161	0.219
-231.786	-89.884	-0.273	-0.078
-230.771	-32.628	-0.076	0.042
-229.757	103.906	0.051	0.058
-228.742	-92.662	-0.265	0.073
-227.727	-200.000	-0.001	0.083
-226.713	-200.000	-0.030	0.215
-225.698	-200.000	-0.007	0.087
-224.684	-200.000	0.017	0.174
-223.669	-200.000	0.005	-0.025
-222.655	-200.000	0.016	0.486
-221.640	-83.774	-0.258	-0.081
-220.625	-27.712	0.276	-0.157
-219.611	283.377	-0.087	0.153
-218.596	307.914	-0.027	0.049
-217.582	168.219	-0.134	-0.187
-216.567	-61.230	0.176	-0.072
-215.552	79.055	0.134	0.141
-214.538	-168.688	0.193	-0.007
-213.523	800.000	-0.085	0.235
-212.509	-200.000	0.024	-0.150
-211.494	-200.000	0.025	0.229
-210.479	-22.126	-0.035	-0.021
-209.465	50.619	-0.039	-0.036
-208.450	-54.686	0.297	0.131
-207.436	-3.664	-0.186	-0.126
-206.421	258.869	0.081	-0.136
-205.406	-100.179	0.173	0.042
-204.392	-200.000	-0.011	0.210
-203.377	-82.327	0.185	0.059
-202.363	-200.000	-0.048	0.226
-201.348	265.608	0.143	0.243
-200.333	44.411	-0.049	0.044
-199.319	-118.817	-0.137	0.024
-198.304	60.570	-0.042	-0.041
-197.290	-73.336	0.082	0.029
-196.275	198.836	-0.198	-0.296
-195.260	800.000	0.040	-0.145
-194.246	65.609	-0.128	0.126
-193.231	-159.393	0.107	-0.006
-192.217	-111.012	0.015	-0.003
-191.202	-128.200	0.133	-0.019
-190.187	147.317	0.165	-0.217
-189.173	-100.692	-0.045	-0.011
-188.158	-200.000	-0.013	-0.124
-187.144	-164.290	0.402	-0.018
-186.129	217.362	-0.093	0.145
-185.114	46.343	0.099	0.090
-184.100	11.540	0.099	-0.074
-183.085	-181.844	-0.227	-0.004
-182.071	52.506	-0.161	0.150
-181.056	-139.041	-0.214	-0.023
-180.042	800.000	0.048	0.188
-179.027	-116.971	0.310	0.055
-178.012	-200.000	0.002	0.098
-176.998	-4.886	0.062	0.042
-175.983	117.883	-0.111	-0.133
-174.969	-200.000	-0.002	-0.092
-173.954	267.808	-0.178	-0.304
-172.939	-103.436	0.204	0.047
-171.925	-23.349	-0.162	0.095
-170.910	6.483	0.160	-0.116
-169.896	-88.648	-0.336	0.098
-168.881	800.000	0.026	0.081
-167.866	-200.000	0.086	-0.562
-166.852	186.445	-0.056	-0.082
-165.837	-128.870	0.069	-0.010
-164.823	24.380	-0.353	-0.285
-163.808	-103.301	0.011	-0.003
-162.793	81.230	-0.069	0.072
-161.779	62.510	0.055	0.054
-160.764	144.887	0.187	-0.245
-159.750	-55.400	0.281	0.123
-158.735	-200.000	-0.079	0.419
-157.720	-84.233	0.480	-0.148
-156.706	-65.842	-0.126	0.049
-155.691	-200.000	0.016	-0.118
-154.677	53.121	-0.079	-0.073
-153.662	156.428	0.141	-0.190
-152.647	-200.000	0.004	-0.343
-151.633	493.515	-0.093	0.209
-150.618	-110.495	-0.200	0.040
-149.604	-200.000	0.034	-0.209
-148.589	62.217	0.134	0.130
-147.574	241.976	-0.149	-0.243
-146.560	547.667	0.068	-0.160
-145.545	92.873	0.226	0.250
-144.531	36.482	-0.242	0.208
-143.516	597.623	-0.028	-0.067
-142.502	-137.536	0.168	-0.018
-141.487	-29.056	-0.205	0.115
-140.472	-80.381	0.194	-0.063
-139.458	-200.000	-0.015	-0.269
-138.443	28.884	0.183	0.151
-137.429	-200.000	0.018	-0.136
-136.414	99.028	0.072	0.081
-135.399	164.121	-0.110	0.151
-134.385	-8.318	-0.171	0.112
-133.370	8.900	0.156	-0.115
-132.356	800.000	0.070	0.243
-131.341	800.000	0.024	0.102
-130.326	108.242	-0.106	0.123
-129.312	110.275	0.055	0.065
-128.297	-83.868	0.219	0.068
-127.283	271.793	-0.106	-0.182
-126.268	101.886	-0.164	0.187
-125.253	-200.000	-0.062	0.478
-124.239	167.269	-0.227	-0.315
-123.224	-121.206	-0.067	-0.011
-122.210	214.702	0.108	-0.166
