DTS Sentinel unit serial number:	SN413079Multiplexer serial number:	ORYXHardware model number:	OX4-SRSoftware version number:	ORYX F/W v4.00 Oryx Data Collector v3.7.2.0data status	okinstallation	princeton_trtdifferential loss correction	single-endedforward channel	channel 3reverse channel	N/Adate	2019/09/14time	12:44:34forward acquisition time	60.00reverse acquisition time	0.00gamma	496.2192k internal	0.2294k external	0.2294temperature offset calibration	1.0072default loss term (dB/km)	0.3790temperature slope calibration	1.0000multiplexer offset coefficient	1.0000multiplexer slope coefficient	1.0000fibre end	0.00T internal ref (°C)	37.97T ext. ref 1 (°C)	4.82T ext. ref 2 (°C)	32.84length (m)	temperature (°C)	Stokes	anti-Stokes-747.200	-200.000	-0.018	0.228
-746.185	800.000	-0.117	0.499
-745.171	15.192	0.236	0.189
-744.156	-200.000	-0.046	0.281
-743.142	-200.000	-0.025	-0.160
-742.127	-200.000	-0.078	0.392
-741.112	105.356	-0.265	-0.320
-740.098	-81.154	0.165	-0.056
-739.083	68.518	0.090	-0.095
-738.069	800.000	-0.067	0.275
-737.054	-129.834	-0.059	-0.008
-736.039	-14.145	-0.114	-0.075
-735.025	-129.816	0.220	0.031
-734.010	483.571	0.063	-0.147
-732.996	149.482	0.157	0.217
-731.981	-115.119	-0.163	0.032
-730.966	198.564	0.092	-0.144
-729.952	-57.079	-0.281	0.127
-728.937	4.236	-0.158	-0.118
-727.923	23.525	-0.058	-0.049
-726.908	541.760	-0.104	0.252
-725.894	-200.000	-0.015	0.295
-724.879	-47.749	-0.355	0.176
-723.864	482.138	0.146	-0.339
-722.850	0.407	-0.070	-0.051
-721.835	-200.000	0.029	-0.311
-720.821	761.681	-0.129	-0.357
-719.806	232.916	0.112	-0.188
-718.791	-11.084	-0.335	0.226
-717.777	81.525	0.060	0.066
-716.762	133.585	-0.179	-0.237
-715.748	-200.000	0.030	-0.154
-714.733	800.000	-0.071	0.291
-713.718	-111.098	-0.033	0.007
-712.704	324.061	-0.142	-0.277
-711.689	-200.000	-0.019	-0.153
-710.675	712.157	-0.045	-0.122
-709.660	230.930	0.131	-0.220
-708.645	493.050	-0.123	0.287
-707.631	-92.091	-0.138	0.040
-706.616	-200.000	0.021	-0.145
-705.602	579.171	0.209	0.523
-704.587	-200.000	0.000	0.236
-703.572	10.650	-0.131	-0.102
-702.558	-77.829	0.164	-0.058
-701.543	-124.105	0.381	0.061
-700.529	-132.159	0.052	-0.007
-699.514	-123.162	-0.064	-0.011
-698.499	-175.254	0.492	-0.014
-697.485	216.297	-0.201	-0.326
-696.470	213.594	-0.149	-0.241
-695.456	120.525	-0.045	0.057
-694.441	800.000	-0.018	-0.072
-693.426	-200.000	0.027	-0.125
-692.412	91.176	-0.199	0.228
-691.397	-200.000	0.018	-0.283
-690.383	-1.048	0.095	0.069
-689.368	34.613	0.145	-0.129
-688.354	-200.000	0.018	-0.314
-687.339	26.971	-0.266	-0.227
-686.324	800.000	-0.055	-0.197
-685.310	48.243	-0.175	0.167
-684.295	208.892	-0.248	-0.397
-683.281	591.014	0.103	0.259
-682.266	163.502	-0.117	0.169
-681.251	-108.925	-0.225	0.049
-680.237	-98.879	0.263	-0.068
-679.222	-123.199	0.083	0.013
-678.208	173.488	0.095	0.139
-677.193	520.638	-0.033	-0.078
-676.178	2.646	0.123	-0.091
-675.164	-106.148	-0.216	0.050
-674.149	-200.000	-0.035	0.162
-673.135	800.000	-0.058	0.184
-672.120	-200.000	-0.023	-0.240
-671.105	205.077	-0.011	0.017
-670.091	-62.633	0.252	0.107
-669.076	-76.286	-0.189	0.068
-668.062	337.306	0.069	-0.136
-667.047	39.786	0.085	0.078
-666.032	-200.000	-0.049	-0.312
-665.018	-149.082	0.322	0.026
-664.003	37.003	-0.502	0.453
-662.989	-43.653	-0.145	0.075
-661.974	205.202	0.044	-0.069
-660.959	-52.244	0.118	0.056
-659.945	800.000	-0.052	-0.151
-658.930	82.280	0.092	-0.101
-657.916	-99.035	0.291	-0.075
-656.901	800.000	-0.038	-0.128
-655.886	-44.177	0.231	0.118
-654.872	800.000	0.044	0.159
-653.857	18.842	0.129	0.106
-652.843	-38.350	0.068	0.037
-651.828	-67.519	0.130	-0.052
-650.814	-200.000	-0.031	-0.269
-649.799	55.226	-0.239	-0.235
-648.784	285.175	-0.093	0.170
-647.770	99.303	0.089	0.105
-646.755	-46.806	-0.314	0.157
-645.741	-66.292	-0.062	-0.025
-644.726	493.244	-0.131	-0.306
-643.711	-75.759	-0.174	0.063
-642.697	508.566	-0.039	0.091
-641.682	-106.391	0.145	0.033
-640.668	-85.462	0.187	0.059
-639.653	-106.778	-0.394	-0.089
-638.638	47.743	-0.134	0.127
-637.624	-200.000	0.005	0.055
-636.609	-62.445	-0.077	-0.032
-635.595	-19.885	0.053	-0.034
-634.580	800.000	0.129	0.380
-633.565	-54.304	-0.248	-0.115
-632.551	-200.000	-0.014	0.066
-631.536	-156.784	-0.367	-0.023
-630.522	775.105	0.062	0.172
-629.507	2.771	0.120	0.089
-628.492	428.669	-0.046	-0.100
-627.478	-21.874	-0.114	-0.070
-626.463	77.170	-0.388	-0.420
-625.449	-200.000	0.018	0.341
-624.434	-140.018	-0.276	-0.030
-623.419	224.568	0.081	-0.133
-622.405	216.427	-0.049	0.080
-621.390	-200.000	0.032	0.276
-620.376	-200.000	0.012	0.277
-619.361	13.027	0.267	-0.210
-618.346	131.668	-0.065	-0.085
-617.332	325.146	0.088	-0.172
-616.317	-130.424	-0.206	-0.028
-615.303	-200.000	-0.015	0.203
-614.288	-87.009	0.306	0.095
-613.273	580.510	0.075	0.186
-612.259	-53.412	-0.198	0.092
-611.244	-200.000	0.048	-0.338
-610.230	-200.000	-0.026	0.246
-609.215	-71.942	-0.200	0.076
-608.201	-120.405	0.116	0.020
-607.186	4.037	0.093	0.069
-606.171	-119.409	0.331	-0.058
-605.157	-34.411	-0.220	0.123
-604.142	-51.744	-0.083	-0.039
-603.128	-3.109	0.016	0.012
-602.113	-76.318	-0.174	0.062
-601.098	215.955	0.254	-0.411
-600.084	118.922	0.112	-0.141
-599.069	54.180	-0.183	0.179
-598.055	-45.260	0.275	-0.139
-597.040	-57.739	-0.324	0.144
-596.025	-18.723	-0.237	0.150
-595.011	274.643	-0.032	0.059
-593.996	249.167	0.136	-0.234
-592.982	-200.000	-0.002	-0.379
-591.967	800.000	-0.096	-0.358
-590.952	348.816	-0.101	-0.203
-589.938	-178.065	-0.646	-0.016
-588.923	62.067	-0.263	-0.266
-587.909	40.779	0.256	0.235
-586.894	-200.000	-0.021	0.303
-585.879	4.706	-0.291	0.217
-584.865	17.877	0.275	0.223
-583.850	-200.000	0.019	-0.227
-582.836	-126.130	-0.052	0.008
-581.821	-140.819	0.241	-0.025
-580.806	800.000	-0.067	-0.241
-579.792	62.130	-0.105	0.106
-578.777	-200.000	-0.020	-0.280
-577.763	-200.000	-0.323	-0.001
-576.748	-4.944	0.339	-0.237
-575.733	-23.529	-0.623	0.380
-574.719	-12.637	-0.164	-0.109
-573.704	-200.000	0.008	-0.081
-572.690	800.000	0.047	0.151
-571.675	161.970	-0.136	0.193
-570.661	90.805	0.128	0.146
-569.646	-200.000	0.063	0.363
-568.631	-72.550	-0.311	-0.117
-567.617	-138.052	-0.241	-0.027
-566.602	2.460	0.134	-0.099
-565.588	-200.000	-0.014	0.134
-564.573	-23.713	-0.098	0.060
-563.558	480.312	0.123	0.282
-562.544	-127.843	-0.169	0.025
-561.529	-77.038	-0.112	0.040
-560.515	62.983	0.156	-0.159
-559.500	534.187	0.163	-0.392
-558.485	-97.365	0.225	-0.060
-557.471	-200.000	0.025	0.239
-556.456	309.113	0.118	0.224
-555.442	-200.000	0.027	0.245
-554.427	201.571	-0.074	0.116
-553.412	-40.295	0.115	-0.061
-552.398	-48.163	0.121	-0.059
-551.383	57.621	0.050	-0.049
-550.369	-200.000	0.011	0.064
-549.354	-148.760	0.259	-0.021
-548.339	-119.222	0.444	-0.079
-547.325	-200.000	-0.040	0.359
-546.310	106.841	0.112	0.135
-545.296	800.000	-0.037	0.117
-544.281	8.512	0.016	0.013
-543.266	108.709	0.107	0.130
-542.252	-200.000	-0.027	0.270
-541.237	169.841	0.227	-0.329
-540.223	134.048	-0.027	-0.036
-539.208	-65.236	-0.169	-0.069
-538.193	269.245	0.047	0.083
-537.179	800.000	-0.075	-0.325
-536.164	-56.136	0.170	0.077
-535.150	62.398	-0.122	-0.124
-534.135	14.418	-0.236	-0.187
-533.121	76.932	0.070	0.075
-532.106	92.574	0.097	0.111
-531.091	-200.000	0.032	-0.322
-530.077	270.102	-0.063	-0.112
-529.062	108.428	0.176	0.213
-528.048	403.378	-0.157	-0.335
-527.033	-200.000	-0.002	0.176
-526.018	289.411	0.126	-0.231
-525.004	293.019	0.147	-0.272
-523.989	-107.904	0.187	0.041
-522.975	335.356	0.049	-0.096
-521.960	-200.000	0.018	-0.340
-520.945	-144.063	0.148	-0.014
-519.931	-173.344	-0.254	0.008
-518.916	-166.785	-0.230	0.010
-517.902	254.313	0.058	0.100
-516.887	-128.121	0.113	-0.016
-515.872	104.566	-0.015	-0.018
-514.858	-140.284	-0.035	-0.004
-513.843	380.451	-0.117	-0.243
-512.829	-22.408	0.292	0.179
-511.814	800.000	-0.069	0.215
-510.799	782.453	0.115	-0.318
-509.785	28.445	-0.081	0.070
-508.770	323.289	-0.223	-0.431
-507.756	-108.755	0.211	-0.046
-506.741	800.000	0.074	-0.232
-505.726	-101.526	-0.016	0.004
-504.712	-200.000	0.067	0.376
-503.697	-125.130	-0.121	-0.019
-502.683	-95.241	0.275	0.075
-501.668	-200.000	-0.088	0.000
-500.653	-28.761	-0.132	-0.077
-499.639	-106.814	-0.181	0.041
-498.624	389.111	-0.176	-0.369
-497.610	135.094	-0.147	0.193
-496.595	-200.000	-0.004	-0.237
-495.581	324.013	-0.111	-0.215
-494.566	-149.505	0.283	0.023
-493.551	-56.760	0.297	0.133
-492.537	27.025	-0.094	-0.080
-491.522	-151.424	-0.137	0.010
-490.508	-120.351	-0.039	0.007
-489.493	-24.343	0.082	0.050
-488.478	-90.693	0.201	-0.059
-487.464	-73.880	0.283	0.104
-486.449	-200.000	0.038	0.296
-485.435	-66.370	0.140	-0.056
-484.420	33.847	0.054	-0.048
-483.405	-98.385	-0.323	0.084
-482.391	-39.319	-0.342	0.182
-481.376	-120.962	-0.146	0.025
-480.362	67.767	-0.306	0.317
-479.347	249.017	-0.125	-0.214
-478.332	800.000	0.052	-0.206
-477.318	107.626	0.140	-0.169
-476.303	-75.146	-0.107	-0.039
-475.289	4.637	0.124	-0.092
-474.274	-74.218	-0.098	-0.036
-473.259	-113.145	-0.083	-0.017
-472.245	239.945	0.134	0.225
-471.230	15.082	0.150	0.119
-470.216	-80.452	-0.404	-0.136
-469.201	-48.374	0.164	0.080
-468.186	-35.287	-0.333	0.183
-467.172	114.658	-0.181	-0.223
-466.157	158.172	0.147	-0.206
-465.143	393.554	-0.044	0.092
-464.128	-82.130	-0.155	0.051
-463.113	800.000	-0.108	0.404
-462.099	-85.648	0.317	-0.100
-461.084	-200.000	-0.019	0.180
-460.070	163.832	0.118	0.168
-459.055	311.618	-0.082	-0.155
-458.040	-143.993	-0.315	0.030
-457.026	-4.105	-0.074	0.052
-456.011	52.279	-0.139	0.134
-454.997	-200.000	-0.044	0.246
-453.982	-3.650	-0.404	-0.284
-452.968	800.000	-0.034	-0.107
-451.953	800.000	-0.118	0.337
-450.938	-107.317	-0.462	0.103
-449.924	-100.760	0.234	0.058
-448.909	30.913	-0.192	0.167
-447.895	-137.141	0.305	0.035
-446.880	800.000	0.090	-0.343
-445.865	-72.210	-0.064	0.024
-444.851	-138.919	0.184	0.020
-443.836	100.148	-0.286	-0.335
-442.822	-35.691	0.124	0.068
-441.807	-4.139	0.388	-0.272
-440.792	40.021	0.035	-0.031
-439.778	-137.140	0.204	0.024
-438.763	-62.535	0.154	0.065
-437.749	-102.649	0.175	0.042
-436.734	-92.287	-0.144	0.041
-435.719	-186.737	0.177	0.003
-434.705	-200.000	-0.052	0.305
-433.690	-37.836	-0.071	-0.038
-432.676	-58.488	-0.088	-0.038
-431.661	-80.029	0.101	-0.034
-430.646	-51.244	-0.203	0.096
-429.632	-59.601	-0.155	-0.067
-428.617	-4.558	-0.122	0.085
-427.603	800.000	-0.039	-0.118
-426.588	-167.064	0.293	-0.012
-425.573	290.378	0.036	-0.066
-424.559	18.883	0.212	-0.171
-423.544	-133.659	0.496	-0.063
-422.530	149.030	0.039	-0.053
-421.515	-17.206	0.210	-0.133
-420.500	-107.364	0.285	0.063
-419.486	244.772	-0.145	-0.247
-418.471	102.660	0.207	0.244
-417.457	-9.048	-0.362	-0.245
-416.442	800.000	0.052	0.226
-415.428	414.681	-0.109	0.234
-414.413	17.911	0.149	-0.120
-413.398	244.808	-0.131	-0.222
-412.384	591.889	-0.050	-0.125
-411.369	486.006	-0.049	0.114
-410.355	102.110	-0.044	0.052
-409.340	-57.768	0.135	0.059
-408.325	-75.005	-0.161	-0.058
-407.311	105.958	0.090	0.108
-406.296	48.616	0.182	0.172
-405.282	-38.006	-0.131	0.070
-404.267	-15.747	0.061	0.039
-403.252	800.000	-0.083	0.237
-402.238	-200.000	-0.001	-0.246
-401.223	-83.873	-0.315	-0.101
-400.209	-200.000	0.012	-0.064
-399.194	241.697	0.026	0.044
-398.179	56.015	-0.089	0.087
-397.165	650.062	0.083	-0.215
-396.150	-200.000	0.004	0.071
-395.136	800.000	-0.100	-0.346
-394.121	-153.490	-0.194	0.014
-393.106	-90.706	-0.238	0.069
-392.092	-153.979	0.304	0.021
-391.077	-200.000	0.035	-0.253
-390.063	147.731	-0.135	0.184
-389.048	-142.322	0.209	-0.021
-388.033	90.619	-0.150	-0.170
-387.019	144.190	-0.083	-0.112
-386.004	-200.000	0.033	-0.279
-384.990	184.374	0.236	-0.353
-383.975	-200.000	0.031	-0.204
-382.960	325.852	0.119	0.230
-381.946	-37.821	-0.296	-0.159
-380.931	800.000	0.056	-0.202
-379.917	-49.804	-0.197	0.094
-378.902	-185.889	-0.159	-0.002
-377.888	-64.277	-0.212	0.087
-376.873	-200.000	-0.005	-0.177
-375.858	-42.784	-0.102	0.052
-374.844	101.500	0.132	-0.155
-373.829	-31.924	0.127	0.072
-372.815	800.000	0.012	0.038
-371.800	-5.007	0.439	0.305
-370.785	-200.000	-0.040	-0.242
-369.771	-116.153	-0.346	0.065
-368.756	-200.000	0.036	0.233
-367.742	22.022	0.150	-0.123
-366.727	91.104	-0.189	0.214
-365.712	-63.580	-0.155	-0.064
-364.698	69.506	0.230	-0.239
-363.683	13.902	0.237	-0.186
-362.669	45.163	0.193	0.179
-361.654	-200.000	0.027	-0.140
-360.639	-200.000	-0.043	-0.197
-359.625	173.503	0.103	-0.150
-358.610	190.112	0.071	0.107
-357.596	-7.710	0.057	0.039
-356.581	-200.000	-0.021	0.158
-355.566	-121.016	-0.239	-0.040
-354.552	800.000	0.030	-0.127
-353.537	800.000	0.054	0.197
-352.523	-200.000	0.053	0.325
-351.508	69.180	0.069	-0.071
-350.493	800.000	0.096	-0.358
-349.479	81.842	0.206	0.225
-348.464	-173.622	0.182	0.005
-347.450	146.477	-0.136	-0.184
-346.435	-200.000	-0.006	0.315
-345.420	69.326	0.106	0.110
-344.406	116.109	0.365	0.450
-343.391	-109.842	-0.077	-0.016
-342.377	479.933	-0.179	-0.409
-341.362	-155.989	0.266	-0.017
-340.348	800.000	0.033	0.117
-339.333	-77.549	0.092	0.032
-338.318	-200.000	-0.080	0.453
-337.304	124.264	-0.118	0.149
-336.289	418.055	0.047	0.100
-335.275	180.235	-0.099	-0.146
-334.260	-82.977	0.361	-0.117
-333.245	-87.070	-0.028	0.009
-332.231	137.003	0.208	-0.274
-331.216	-200.000	-0.003	-0.225
-330.202	130.544	0.099	-0.128
-329.187	54.228	0.223	-0.216
-328.172	-200.000	0.025	-0.112
-327.158	236.212	-0.332	0.552
-326.143	340.021	0.120	-0.236
-325.129	-150.150	-0.347	-0.027
-324.114	-200.000	-0.061	-0.330
-323.099	-115.158	0.053	0.010
-322.085	-35.141	0.419	0.230
-321.070	-200.000	-0.009	-0.214
-320.056	108.556	0.106	-0.128
-319.041	306.313	-0.068	-0.128
-318.026	-83.936	-0.228	-0.073
-317.012	-200.000	-0.012	-0.275
-315.997	680.365	0.111	0.292
-314.983	-78.813	-0.097	-0.033
-313.968	309.621	0.077	-0.145
-312.953	-113.956	-0.085	0.017
-311.939	-70.177	0.083	-0.032
-310.924	113.432	-0.039	0.048
-309.910	10.951	0.243	-0.187
-308.895	-41.740	0.099	0.051
-307.880	44.963	0.253	-0.234
-306.866	10.906	-0.248	-0.191
-305.851	-200.000	0.040	0.341
-304.837	-21.492	0.357	0.219
-303.822	1.204	-0.064	-0.046
-302.807	800.000	-0.006	-0.025
-301.793	-200.000	-0.044	-0.344
-300.778	2.792	0.318	0.232
-299.764	-18.881	-0.174	0.109
-298.749	-23.161	0.243	-0.147
-297.735	-83.361	-0.068	-0.022
-296.720	71.073	-0.162	0.169
-295.705	-159.954	-0.156	0.009
-294.691	-127.581	-0.237	-0.034
-293.676	598.224	-0.076	0.188
-292.662	-150.282	0.219	-0.017
-291.647	800.000	-0.049	-0.209
-290.632	5.227	0.189	-0.140
-289.618	41.157	-0.292	0.265
-288.603	271.315	0.117	-0.206
-287.589	205.031	0.127	0.198
-286.574	632.021	0.007	0.017
-285.559	-200.000	-0.003	0.272
-284.545	-200.000	0.008	-0.147
-283.530	48.929	0.181	0.171
-282.516	800.000	-0.056	-0.169
-281.501	23.346	-0.391	-0.323
-280.486	-31.278	-0.092	0.052
-279.472	376.520	0.049	0.101
-278.457	37.869	-0.118	0.105
-277.443	-78.694	-0.403	0.138
-276.428	-173.502	0.502	-0.015
-275.413	126.468	-0.076	0.096
-274.399	327.600	0.070	0.136
-273.384	-200.000	0.023	-0.155
-272.370	-50.741	-0.398	-0.188
-271.355	84.873	0.237	0.261
-270.340	143.296	0.148	0.197
-269.326	-122.738	-0.079	0.013
-268.311	417.756	-0.024	0.051
-267.297	-131.082	-0.338	-0.045
-266.282	74.706	-0.161	-0.170
-265.267	305.981	-0.045	0.085
-264.253	-200.000	0.008	-0.071
-263.238	194.828	0.099	0.151
-262.224	-27.765	0.259	0.151
-261.209	-26.783	0.088	0.052
-260.195	-42.318	0.141	0.072
-259.180	-200.000	0.036	0.279
-258.165	43.200	-0.100	0.091
-257.151	-191.873	-0.271	0.003
-256.136	-200.000	-0.027	-0.128
-255.122	-39.842	-0.196	-0.103
-254.107	112.180	0.083	0.101
-253.092	-29.019	0.104	-0.060
-252.078	137.641	-0.166	0.218
-251.063	228.870	-0.121	-0.198
-250.049	-200.000	-0.057	-0.278
-249.034	189.630	-0.055	-0.082
-248.019	285.672	0.319	-0.576
-247.005	-14.206	0.214	0.139
-245.990	-21.142	0.204	0.125
-244.976	-162.727	0.172	-0.008
-243.961	0.052	-0.449	0.321
-242.946	147.363	0.197	-0.267
-241.932	76.552	0.041	-0.044
-240.917	800.000	-0.057	0.165
-239.903	69.712	0.048	0.049
-238.888	221.376	-0.074	0.120
-237.873	-34.525	-0.189	-0.104
-236.859	-124.792	-0.105	-0.016
-235.844	243.279	-0.188	0.317
-234.830	-121.142	0.176	-0.030
-233.815	675.584	-0.087	-0.227
-232.800	-157.406	0.273	0.016
-231.786	-200.000	-0.050	-0.359
-230.771	328.345	0.166	-0.320
-229.757	-200.000	-0.007	0.051
-228.742	366.562	0.120	-0.242
-227.727	-200.000	-0.001	-0.327
-226.713	131.171	-0.192	-0.246
-225.698	-200.000	0.008	-0.181
-224.684	-46.903	0.225	0.110
-223.669	-123.113	0.133	-0.021
-222.655	-84.529	-0.256	0.081
-221.640	-67.800	0.069	-0.027
-220.625	-94.387	-0.143	0.039
-219.611	-27.609	-0.209	-0.122
-218.596	-113.820	0.377	-0.074
-217.582	75.187	0.279	0.294
-216.567	578.386	-0.159	-0.389
-215.552	800.000	-0.080	-0.224
-214.538	-43.251	-0.164	0.083
-213.523	205.746	0.192	0.300
-212.509	-53.943	-0.395	0.180
-211.494	-51.042	-0.103	0.049
-210.479	-23.857	-0.180	0.108
-209.465	-48.533	-0.153	-0.074
-208.450	127.102	0.065	0.082
-207.436	-200.000	0.033	0.154
-206.421	47.745	-0.128	-0.120
-205.406	-39.872	0.152	-0.079
-204.392	-101.661	-0.172	0.042
-203.377	-200.000	-0.029	-0.225
-202.363	7.300	0.423	0.316
-201.348	800.000	0.117	0.373
-200.333	548.674	0.112	-0.268
-199.319	472.135	-0.099	0.224
-198.304	-57.565	-0.317	0.139
-197.290	-126.164	-0.228	-0.034
-196.275	223.477	0.235	0.379
-195.260	-200.000	0.012	0.228
-194.246	-90.666	-0.061	-0.018
-193.231	12.198	0.384	0.296
-192.217	59.730	-0.317	-0.313
-191.202	-50.960	0.220	-0.104
-190.187	-18.624	0.085	-0.053
-189.173	-200.000	0.002	-0.042
-188.158	-110.286	-0.057	-0.012
-187.144	230.754	-0.056	-0.092
-186.129	-200.000	0.022	0.208
-185.114	145.872	0.076	-0.102
-184.100	60.149	-0.061	0.060
-183.085	301.344	0.023	0.042
-182.071	146.234	-0.118	0.158
-181.056	-2.292	0.221	0.155
-180.042	-66.980	0.211	-0.084
-179.027	-81.779	0.144	0.047
-178.012	-65.128	-0.151	-0.061
-176.998	181.061	-0.125	-0.184
-175.983	123.195	0.178	0.223
-174.969	287.656	-0.049	0.088
-173.954	409.227	-0.141	0.299
-172.939	34.607	0.063	0.055
-171.925	-146.539	0.249	-0.022
-170.910	-200.000	-0.007	0.198
-169.896	-200.000	-0.015	-0.116
-168.881	22.178	-0.301	0.246
-167.866	-40.262	0.078	-0.041
-166.852	32.751	0.317	-0.275
-165.837	-19.070	0.177	0.110
-164.823	-110.261	0.218	0.045
-163.808	766.682	-0.112	0.305
-162.793	-30.226	0.219	0.125
-161.779	582.460	-0.117	-0.286
-160.764	-200.000	-0.025	-0.154
-159.750	531.598	0.023	0.054
-158.735	80.252	-0.093	0.100
-157.720	43.390	0.171	0.156
-156.706	-200.000	0.006	0.167
-155.691	-99.307	0.413	-0.104
-154.677	314.049	-0.260	0.489
-153.662	-53.781	0.200	0.091
-152.647	800.000	0.020	-0.063
-151.633	-153.956	0.300	0.020
-150.618	2.694	-0.189	-0.137
-149.604	-36.001	-0.153	-0.082
-148.589	-93.902	0.334	-0.092
-147.574	-176.210	0.356	0.009
-146.560	-200.000	0.004	-0.174
-145.545	589.968	-0.067	0.164
-144.531	-200.000	-0.081	0.402
-143.516	-145.290	-0.036	-0.003
-142.502	139.694	-0.069	-0.091
-141.487	248.233	0.235	-0.397
-140.472	-144.714	0.457	-0.042
-139.458	-159.607	0.236	0.013
-138.443	19.719	0.106	-0.085
-137.429	-56.723	-0.327	0.145
-136.414	7.305	0.350	0.261
-135.399	199.080	-0.183	-0.280
-134.385	107.367	0.131	-0.155
-133.370	104.206	0.107	0.126
-132.356	-38.512	0.177	0.093
-131.341	-137.554	0.388	-0.044
-130.326	31.080	0.233	0.200
-129.312	-22.768	0.136	-0.082
-128.297	-11.199	0.198	-0.131
-127.283	254.676	-0.047	-0.080
-126.268	-200.000	-0.006	0.245
-125.253	147.801	0.145	0.195
-124.239	-200.000	0.034	0.346
-123.224	-74.967	0.182	-0.065
-122.210	260.399	0.102	0.176
-121.195	-49.963	-0.196	-0.093
