DTS Sentinel unit serial number:	SN413079Multiplexer serial number:	ORYXHardware model number:	OX4-SRSoftware version number:	ORYX F/W v4.00 Oryx Data Collector v3.7.2.0data status	okinstallation	princeton_trtdifferential loss correction	single-endedforward channel	channel 3reverse channel	N/Adate	2019/09/17time	03:28:35forward acquisition time	60.00reverse acquisition time	0.00gamma	496.2192k internal	0.2323k external	0.2323temperature offset calibration	0.9947default loss term (dB/km)	0.3790temperature slope calibration	1.0000multiplexer offset coefficient	1.0000multiplexer slope coefficient	1.0000fibre end	0.00T internal ref (°C)	30.00T ext. ref 1 (°C)	0.16T ext. ref 2 (°C)	24.73length (m)	temperature (°C)	Stokes	anti-Stokes-747.200	-101.541	-0.022	-0.005
-746.185	120.775	-0.374	0.469
-745.171	216.416	-0.098	0.158
-744.156	151.401	-0.197	0.271
-743.142	-180.832	0.094	-0.002
-742.127	-8.492	-0.139	0.095
-741.112	573.257	0.155	-0.382
-740.098	-106.178	-0.402	-0.091
-739.083	171.349	0.133	-0.192
-738.069	304.826	-0.133	0.249
-737.054	370.927	-0.058	0.119
-736.039	-51.134	-0.262	-0.124
-735.025	-2.757	0.224	0.158
-734.010	-46.587	-0.222	0.110
-732.996	63.210	-0.280	-0.283
-731.981	312.674	-0.203	0.385
-730.966	-200.000	0.018	0.093
-729.952	530.376	0.215	-0.513
-728.937	800.000	-0.115	-0.378
-727.923	800.000	0.099	-0.327
-726.908	367.093	-0.102	0.207
-725.894	-121.669	-0.351	-0.059
-724.879	800.000	0.038	-0.159
-723.864	-200.000	0.024	0.263
-722.850	800.000	-0.057	0.165
-721.835	200.862	-0.174	-0.270
-720.821	218.201	0.361	-0.582
-719.806	800.000	-0.021	-0.089
-718.791	-83.444	0.243	-0.078
-717.777	-8.665	-0.416	-0.282
-716.762	-112.855	-0.278	-0.056
-715.748	226.211	0.164	0.268
-714.733	-94.023	0.220	-0.061
-713.718	29.091	-0.171	-0.146
-712.704	800.000	-0.047	-0.165
-711.689	10.156	-0.094	0.072
-710.675	793.596	0.110	0.305
-709.660	33.417	0.160	-0.140
-708.645	800.000	0.124	-0.392
-707.631	-92.146	-0.352	0.100
-706.616	-122.697	0.326	0.053
-705.602	-78.415	-0.190	-0.066
-704.587	21.171	-0.112	-0.092
-703.572	-24.099	-0.140	0.085
-702.558	44.043	0.138	0.128
-701.543	94.302	-0.107	-0.122
-700.529	236.241	-0.140	-0.233
-699.514	477.109	0.049	-0.112
-698.499	-97.522	-0.362	-0.095
-697.485	363.752	-0.141	-0.286
-696.470	19.059	0.099	0.080
-695.456	-146.726	0.161	-0.014
-694.441	-200.000	-0.220	-0.000
-693.426	-156.411	-0.202	-0.013
-692.412	-73.279	-0.388	-0.143
-691.397	-148.456	-0.204	-0.017
-690.383	-123.158	-0.288	-0.047
-689.368	-200.000	0.029	-0.171
-688.354	-99.879	-0.274	0.069
-687.339	-13.314	-0.114	0.075
-686.324	0.722	0.184	-0.133
-685.310	-148.136	0.085	-0.007
-684.295	-171.563	-0.391	0.013
-683.281	-162.035	-0.433	0.022
-682.266	-35.825	-0.253	-0.138
-681.251	-20.441	-0.236	0.146
-680.237	117.405	-0.182	0.225
-679.222	-200.000	0.018	0.116
-678.208	-107.872	-0.225	0.049
-677.193	-30.402	-0.044	0.025
-676.178	-80.375	0.294	-0.099
-675.164	-70.817	-0.332	-0.126
-674.149	110.368	0.048	0.059
-673.135	25.257	-0.197	0.165
-672.120	24.888	-0.231	0.193
-671.105	-93.077	-0.339	0.095
-670.091	-96.934	0.149	0.039
-669.076	191.940	0.041	0.062
-668.062	-200.000	0.022	-0.132
-667.047	-128.220	-0.246	0.035
-666.032	-200.000	-0.015	-0.372
-665.018	124.588	0.190	0.240
-664.003	-200.000	-0.064	0.332
-662.989	107.907	-0.033	0.040
-661.974	-145.412	0.260	-0.024
-660.959	-200.000	0.018	-0.272
-659.945	-41.769	-0.251	-0.130
-658.930	-49.192	-0.149	0.072
-657.916	-46.992	-0.174	-0.086
-656.901	129.621	0.092	-0.119
-655.886	-42.342	-0.308	0.158
-654.872	-125.669	0.020	-0.003
-653.857	31.099	0.169	0.145
-652.843	-10.515	0.065	-0.044
-651.828	463.285	0.118	0.265
-650.814	44.604	-0.253	-0.234
-649.799	-121.878	-0.082	0.014
-648.784	-60.038	0.224	0.096
-647.770	325.451	0.094	0.181
-646.755	-200.000	-0.028	0.169
-645.741	-200.000	0.008	0.090
-644.726	-200.000	0.018	-0.084
-643.711	800.000	-0.093	-0.275
-642.697	14.918	-0.252	0.198
-641.682	-65.070	0.271	0.110
-640.668	-121.357	0.228	-0.038
-639.653	82.726	-0.259	-0.283
-638.638	597.727	-0.107	0.266
-637.624	153.315	-0.114	0.157
-636.609	648.946	0.066	0.170
-635.595	-131.104	-0.245	-0.033
-634.580	-24.108	0.256	-0.154
-633.565	-129.473	-0.412	-0.057
-632.551	91.285	0.123	-0.139
-631.536	-89.676	0.185	0.055
-630.522	31.984	-0.290	0.252
-629.507	58.173	-0.189	-0.187
-628.492	-82.864	0.158	-0.051
-627.478	-82.436	0.231	0.075
-626.463	118.915	-0.177	0.219
-625.449	-131.113	0.112	0.015
-624.434	800.000	-0.047	0.151
-623.419	-35.553	-0.195	-0.107
-622.405	74.580	0.252	-0.266
-621.390	-160.704	0.350	0.019
-620.376	-88.545	-0.393	0.118
-619.361	483.743	0.093	0.213
-618.346	538.315	-0.117	-0.279
-617.332	413.404	-0.205	-0.439
-616.317	-11.276	0.387	-0.256
-615.303	-34.047	0.232	0.128
-614.288	-200.000	0.013	0.086
-613.273	-6.744	0.053	-0.036
-612.259	800.000	-0.024	0.102
-611.244	323.458	-0.104	0.199
-610.230	0.911	0.037	-0.027
-609.215	-37.279	-0.205	-0.110
-608.201	-92.709	-0.096	-0.027
-607.186	105.497	-0.104	0.124
-606.171	-98.756	0.261	0.067
-605.157	-46.891	0.295	0.145
-604.142	566.930	-0.154	-0.376
-603.128	40.780	0.261	0.236
-602.113	800.000	-0.077	-0.284
-601.098	-124.723	-0.328	0.051
-600.084	-70.125	0.013	-0.005
-599.069	185.581	0.102	0.152
-598.055	-187.316	-0.299	0.004
-597.040	101.695	0.131	-0.154
-596.025	-76.863	0.339	-0.119
-595.011	-200.000	-0.062	-0.389
-593.996	56.730	-0.251	-0.245
-592.982	-132.293	0.147	0.019
-591.967	-92.922	-0.336	-0.094
-590.952	800.000	0.056	-0.181
-589.938	-76.425	0.434	0.153
-588.923	122.306	0.164	0.206
-587.909	-200.000	-0.041	-0.523
-586.894	391.826	0.141	-0.293
-585.879	4.760	-0.090	-0.066
-584.865	127.215	0.205	0.261
-583.850	-114.083	0.124	0.024
-582.836	800.000	-0.083	-0.309
-581.821	800.000	0.064	-0.190
-580.806	85.824	0.180	-0.198
-579.792	-200.000	0.072	-0.324
-578.777	800.000	0.052	-0.197
-577.763	-200.000	0.012	-0.224
-576.748	-200.000	0.050	0.301
-575.733	-200.000	0.027	0.204
-574.719	205.832	0.104	-0.163
-573.704	-26.445	-0.500	0.294
-572.690	122.185	-0.107	0.134
-571.675	-2.968	0.210	0.147
-570.661	-157.696	0.283	-0.017
-569.646	-47.885	-0.175	0.085
-568.631	675.217	0.093	-0.244
-567.617	118.008	-0.118	0.146
-566.602	-108.712	-0.106	-0.023
-565.588	-57.958	-0.139	-0.061
-564.573	800.000	-0.055	0.204
-563.558	-200.000	-0.005	-0.127
-562.544	800.000	-0.119	-0.365
-561.529	800.000	0.067	-0.223
-560.515	-22.068	0.076	-0.046
-559.500	-12.067	-0.185	0.122
-558.485	-200.000	-0.005	0.030
-557.471	-27.055	-0.156	0.091
-556.456	-138.414	0.305	0.034
-555.442	-92.708	-0.055	0.015
-554.427	-90.504	0.254	-0.074
-553.412	-200.000	0.031	0.302
-552.398	-43.445	0.156	0.079
-551.383	-94.538	-0.251	0.069
-550.369	36.088	-0.059	0.052
-549.354	68.977	0.143	0.147
-548.339	377.100	0.079	0.161
-547.325	-165.854	-0.294	0.013
-546.310	-48.830	-0.056	-0.027
-545.296	376.755	-0.119	0.243
-544.281	-124.987	-0.376	-0.058
-543.266	-60.508	0.118	-0.050
-542.252	3.095	-0.031	-0.023
-541.237	540.295	-0.099	0.235
-540.223	114.984	-0.075	-0.092
-539.208	144.137	0.099	0.132
-538.193	-131.657	-0.154	-0.020
-537.179	-200.000	-0.001	-0.312
-536.164	239.117	0.152	0.253
-535.150	-46.036	0.230	-0.114
-534.135	98.664	-0.154	-0.178
-533.121	277.303	0.112	-0.200
-532.106	9.757	-0.207	0.157
-531.091	-71.769	-0.183	-0.068
-530.077	-124.118	0.159	-0.025
-529.062	-200.000	0.011	0.101
-528.048	-200.000	-0.032	-0.249
-527.033	302.255	0.135	-0.250
-526.018	-23.509	-0.148	-0.089
-525.004	186.544	0.163	0.244
-523.989	-120.172	0.139	-0.024
-522.975	45.450	0.186	-0.172
-521.960	17.139	-0.262	0.208
-520.945	-200.000	0.022	0.311
-519.931	-200.000	0.065	-0.332
-518.916	-200.000	-0.001	-0.144
-517.902	-53.570	0.038	-0.017
-516.887	-200.000	-0.039	-0.226
-515.872	-17.155	-0.104	0.066
-514.858	800.000	0.042	0.167
-513.843	800.000	0.041	-0.128
-512.829	28.027	-0.127	-0.107
-511.814	800.000	-0.058	0.187
-510.799	-128.528	-0.170	-0.024
-509.785	-65.570	0.113	0.046
-508.770	571.875	-0.059	-0.143
-507.756	-82.520	-0.222	-0.072
-506.741	-35.642	-0.122	0.066
-505.726	224.901	0.120	-0.195
-504.712	-94.990	0.264	0.072
-503.697	-200.000	0.022	0.158
-502.683	-200.000	0.073	-0.426
-501.668	41.688	0.088	0.080
-500.653	2.391	-0.117	0.085
-499.639	-45.560	0.440	-0.218
-498.624	-23.971	0.251	0.150
-497.610	346.285	0.072	-0.141
-496.595	-95.302	-0.235	0.063
-495.581	229.017	-0.021	-0.035
-494.566	800.000	-0.086	-0.314
-493.551	-56.375	-0.344	-0.153
-492.537	82.629	0.118	0.128
-491.522	44.949	0.093	-0.085
-490.508	-10.324	0.253	0.168
-489.493	53.916	0.120	-0.115
-488.478	26.892	-0.151	-0.127
-487.464	-36.964	0.201	0.108
-486.449	-22.613	-0.157	0.095
-485.435	-22.251	0.118	-0.071
-484.420	800.000	-0.099	-0.354
-483.405	800.000	0.073	0.265
-482.391	-1.591	0.090	-0.063
-481.376	-58.351	0.167	-0.073
-480.362	77.569	0.236	-0.251
-479.347	25.210	0.222	0.184
-478.332	-39.466	-0.363	0.190
-477.318	58.753	-0.163	0.160
-476.303	96.800	0.238	-0.273
-475.289	384.237	-0.113	-0.232
-474.274	800.000	-0.123	0.351
-473.259	-109.838	-0.210	0.044
-472.245	35.625	-0.154	0.136
-471.230	-179.980	-0.202	0.004
-470.216	204.485	0.133	-0.207
-469.201	394.523	0.118	-0.245
-468.186	-54.903	-0.304	0.137
-467.172	-200.000	-0.011	0.565
-466.157	237.834	0.059	-0.097
-465.143	-140.562	0.237	-0.025
-464.128	94.002	0.173	-0.196
-463.113	800.000	-0.077	-0.226
-462.099	40.254	0.110	0.099
-461.084	-200.000	-0.017	-0.110
-460.070	-165.551	-0.335	0.015
-459.055	147.872	-0.079	-0.106
-458.040	-200.000	-0.013	0.133
-457.026	77.504	0.263	-0.279
-456.011	-200.000	0.002	-0.052
-454.997	40.284	0.103	-0.092
-453.982	-200.000	-0.001	-0.018
-452.968	-135.116	-0.448	-0.054
-451.953	-200.000	-0.040	0.336
-450.938	32.782	-0.100	-0.086
-449.924	-65.784	0.137	0.055
-448.909	-62.476	0.512	0.213
-447.895	59.748	-0.059	-0.058
-446.880	-144.830	-0.118	-0.011
-445.865	277.176	0.232	-0.412
-444.851	-57.289	-0.350	0.154
-443.836	14.205	-0.271	-0.211
-442.822	-2.822	0.153	-0.107
-441.807	800.000	0.042	-0.173
-440.792	-11.223	0.238	-0.156
-439.778	-146.406	0.261	0.023
-438.763	-200.000	0.073	-0.387
-437.749	668.402	0.206	0.532
-436.734	-17.211	0.072	-0.045
-435.719	-18.732	-0.198	-0.123
-434.705	-200.000	0.032	-0.220
-433.690	-119.569	-0.091	-0.016
-432.676	-200.000	0.001	0.092
-431.661	50.879	0.116	-0.110
-430.646	-40.503	0.249	-0.129
-429.632	-90.989	-0.146	-0.042
-428.617	800.000	-0.070	0.212
-427.603	-43.382	0.106	0.054
-426.588	-200.000	0.000	0.252
-425.573	-104.643	-0.127	-0.029
-424.559	-171.127	-0.171	-0.006
-423.544	-32.792	-0.208	0.115
-422.530	308.669	-0.029	-0.055
-421.515	-200.000	-0.053	0.362
-420.500	800.000	-0.127	-0.396
-419.486	111.339	-0.270	-0.325
-418.471	710.606	0.058	-0.154
-417.457	565.422	-0.050	0.122
-416.442	418.767	0.037	0.079
-415.428	42.184	0.238	0.215
-414.413	710.116	-0.065	-0.172
-413.398	800.000	-0.132	0.364
-412.384	-115.007	-0.341	-0.065
-411.369	67.898	0.225	0.229
-410.355	114.557	-0.165	0.201
-409.340	800.000	0.108	0.314
-408.325	-103.250	0.095	-0.022
-407.311	800.000	-0.070	0.257
-406.296	106.865	0.131	-0.156
-405.282	-18.022	-0.047	-0.029
-404.267	-200.000	-0.021	0.104
-403.252	240.218	-0.095	-0.158
-402.238	130.270	-0.120	0.154
-401.223	800.000	-0.129	-0.464
-400.209	4.798	0.108	0.079
-399.194	800.000	0.022	-0.062
-398.179	-11.630	0.144	0.094
-397.165	800.000	-0.036	-0.143
-396.150	466.268	0.177	-0.395
-395.136	-34.351	0.204	-0.111
-394.121	-200.000	0.074	0.347
-393.106	800.000	-0.060	-0.193
-392.092	-112.478	-0.188	-0.037
-391.077	-200.000	0.063	0.279
-390.063	-200.000	0.004	-0.257
-389.048	-90.977	-0.433	0.124
-388.033	46.603	-0.133	0.123
-387.019	16.146	0.118	-0.093
-386.004	74.128	0.279	-0.291
-384.990	254.551	-0.103	-0.176
-383.975	-200.000	0.003	-0.194
-382.960	-178.763	0.211	0.005
-381.946	51.310	0.142	-0.135
-380.931	-200.000	-0.005	0.442
-379.917	-80.390	0.143	-0.048
-378.902	6.809	-0.155	0.115
-377.888	-48.651	-0.233	-0.111
-376.873	118.424	0.247	-0.304
-375.858	207.001	0.038	0.059
-374.844	800.000	-0.162	-0.487
-373.829	56.284	0.196	-0.190
-372.815	168.308	0.271	-0.384
-371.800	-56.861	0.113	-0.050
-370.785	-200.000	-0.053	0.245
-369.771	304.686	0.117	-0.216
-368.756	15.861	-0.235	-0.184
-367.742	-106.215	-0.270	-0.060
-366.727	-53.199	-0.117	0.053
-365.712	174.005	-0.221	0.317
-364.698	-166.960	-0.254	-0.010
-363.683	292.815	0.108	0.195
-362.669	-188.704	-0.247	0.003
-361.654	27.368	-0.359	0.300
-360.639	-20.272	-0.175	0.107
-359.625	398.271	-0.178	0.371
-358.610	-167.255	0.309	-0.012
-357.596	-123.571	-0.336	0.053
-356.581	-92.341	-0.129	-0.036
-355.566	-93.065	0.155	-0.043
-354.552	42.958	0.042	0.038
-353.537	431.812	0.116	0.250
-352.523	100.694	-0.040	0.046
-351.508	-54.718	-0.249	-0.112
-350.493	255.623	0.078	0.133
-349.479	-200.000	0.012	0.146
-348.464	24.763	-0.143	0.118
-347.450	-30.901	-0.244	0.137
-346.435	-47.142	0.514	-0.249
-345.420	214.840	-0.133	0.210
-344.406	383.883	-0.017	0.034
-343.391	132.634	-0.171	0.220
-342.377	-200.000	0.019	0.386
-341.362	-108.544	-0.264	0.056
-340.348	-90.099	0.117	-0.034
-339.333	-39.844	0.210	0.109
-338.318	104.084	-0.047	-0.055
-337.304	-41.931	-0.145	-0.074
-336.289	-15.445	-0.332	0.211
-335.275	-115.253	0.105	-0.020
-334.260	-36.836	-0.168	-0.090
-333.245	-92.528	0.499	0.139
-332.231	800.000	-0.030	-0.128
-331.216	167.718	-0.051	-0.072
-330.202	-200.000	0.035	0.239
-329.187	-73.699	0.274	0.099
-328.172	800.000	0.073	0.308
-327.158	-72.752	-0.238	-0.087
-326.143	327.526	-0.096	0.182
-325.129	-200.000	-0.019	-0.082
-324.114	-41.200	-0.176	-0.090
-323.099	-68.081	-0.210	-0.081
-322.085	-200.000	0.004	-0.267
-321.070	-115.392	0.189	-0.035
-320.056	270.796	0.174	0.305
-319.041	-55.315	-0.092	-0.041
-318.026	-106.576	0.182	-0.040
-317.012	-101.144	-0.328	-0.080
-315.997	157.174	0.144	-0.198
-314.983	-58.611	-0.050	0.022
-313.968	-200.000	0.004	0.237
-312.953	-158.197	0.120	-0.007
-311.939	122.104	-0.037	-0.045
-310.924	78.489	0.132	0.141
-309.910	92.426	-0.116	0.130
-308.895	-200.000	0.006	0.267
-307.880	124.594	0.289	0.361
-306.866	-200.000	0.063	0.512
-305.851	-200.000	0.013	-0.088
-304.837	312.512	0.153	-0.285
-303.822	59.095	-0.050	-0.049
-302.807	-200.000	-0.024	-0.190
-301.793	-108.557	0.438	-0.094
-300.778	800.000	0.032	-0.093
-299.764	-200.000	0.002	-0.221
-298.749	47.091	-0.158	-0.146
-297.735	-24.450	-0.014	-0.009
-296.720	-200.000	-0.047	0.218
-295.705	-119.464	0.361	-0.062
-294.691	-92.545	-0.269	-0.075
-293.676	108.700	-0.160	0.190
-292.662	103.085	0.219	0.255
-291.647	23.297	0.061	0.050
-290.632	-58.375	-0.194	0.084
-289.618	91.660	0.263	0.293
-288.603	-11.475	-0.107	0.070
-287.589	-6.960	-0.209	-0.141
-286.574	-119.559	-0.188	0.032
-285.559	421.006	-0.117	0.249
-284.545	-111.799	0.279	0.056
-283.530	-83.629	-0.183	-0.058
-282.516	-200.000	0.013	-0.085
-281.501	-200.000	-0.016	0.120
-280.486	-67.983	0.148	-0.057
-279.472	-8.127	0.186	0.124
-278.457	-118.605	-0.284	0.050
-277.443	185.257	-0.099	-0.146
-276.428	218.263	0.105	-0.167
-275.413	-9.649	0.035	0.023
-274.399	-14.266	-0.042	0.027
-273.384	-129.546	0.280	-0.038
-272.370	16.263	-0.274	0.214
-271.355	32.203	-0.174	0.149
-270.340	-92.892	-0.223	0.062
-269.326	800.000	-0.017	0.048
-268.311	-63.487	-0.282	0.115
-267.297	-157.631	-0.337	-0.020
-266.282	34.490	0.183	0.158
-265.267	-133.754	-0.285	-0.035
-264.253	800.000	-0.061	0.177
-263.238	708.596	0.071	0.186
-262.224	-8.156	0.111	0.074
-261.209	267.803	0.051	0.089
-260.195	-85.422	-0.080	0.025
-259.180	22.472	0.123	0.100
-258.165	290.212	-0.085	0.152
-257.151	-200.000	-0.025	0.209
-256.136	722.042	0.106	-0.279
-255.122	-98.699	-0.205	-0.052
-254.107	-200.000	0.050	-0.308
-253.092	-71.006	-0.219	-0.082
-252.078	18.720	-0.151	0.120
-251.063	578.883	-0.034	-0.082
-250.049	84.862	-0.092	0.100
-249.034	73.248	0.102	0.105
-248.019	59.952	0.120	-0.118
-247.005	-200.000	-0.022	0.255
-245.990	-92.716	0.166	-0.046
-244.976	-98.586	0.163	0.041
-243.961	-68.761	0.201	-0.077
-242.946	118.779	0.067	-0.082
-241.932	-200.000	0.034	0.286
-240.917	-200.000	0.050	0.290
-239.903	-97.983	-0.113	-0.029
-238.888	57.122	-0.112	-0.108
-237.873	28.496	-0.041	0.034
-236.859	-64.457	0.339	-0.137
-235.844	142.297	-0.279	0.367
-234.830	-200.000	0.030	-0.209
-233.815	-200.000	0.007	0.184
-232.800	-200.000	-0.055	-0.307
-231.786	-123.691	-0.130	0.020
-230.771	-200.000	0.034	0.185
-229.757	94.138	0.149	0.167
-228.742	-71.446	0.252	0.093
-227.727	-60.973	0.361	-0.151
-226.713	113.021	0.255	-0.305
-225.698	-177.067	-0.437	0.011
-224.684	-120.666	-0.207	0.035
-223.669	81.474	0.437	-0.467
-222.655	154.692	0.341	-0.464
-221.640	1.937	0.150	-0.107
-220.625	800.000	0.088	-0.329
-219.611	-200.000	-0.012	0.236
-218.596	-200.000	0.028	0.300
-217.582	511.733	-0.035	-0.079
-216.567	-200.000	-0.017	-0.276
-215.552	-200.000	0.021	-0.145
-214.538	-81.844	-0.188	-0.061
-213.523	-75.023	-0.316	0.112
-212.509	109.517	0.248	-0.294
-211.494	-200.000	-0.061	0.296
-210.479	-200.000	-0.021	-0.234
-209.465	30.423	-0.150	-0.127
-208.450	161.342	-0.062	-0.086
-207.436	-89.256	0.142	0.041
-206.421	-100.050	-0.141	0.035
-205.406	800.000	0.095	0.304
-204.392	160.811	0.070	0.097
-203.377	28.228	0.280	-0.234
-202.363	-8.417	0.194	0.129
-201.348	-200.000	-0.084	0.377
-200.333	252.041	0.105	0.177
-199.319	800.000	-0.091	0.251
-198.304	-103.377	0.716	0.167
-197.290	-138.613	-0.070	-0.008
-196.275	125.478	0.059	-0.074
-195.260	6.870	-0.298	-0.219
-194.246	-149.179	-0.192	-0.015
-193.231	0.879	-0.110	-0.078
-192.217	121.630	-0.068	0.083
-191.202	221.600	-0.152	-0.241
-190.187	-46.681	-0.079	0.038
-189.173	63.493	-0.048	0.047
-188.158	293.849	-0.041	-0.073
-187.144	274.980	0.178	0.312
-186.129	-109.241	-0.119	0.025
-185.114	-62.919	-0.350	-0.143
-184.100	800.000	-0.039	-0.139
-183.085	800.000	-0.053	0.203
-182.071	800.000	-0.024	0.079
-181.056	322.202	0.135	-0.253
-180.042	-76.754	0.310	0.107
-179.027	800.000	0.071	0.201
-178.012	-200.000	-0.000	-0.078
-176.998	-148.568	0.245	-0.020
-175.983	-3.493	-0.168	0.115
-174.969	-173.697	0.116	0.003
-173.954	-176.750	-0.204	-0.005
-172.939	298.311	0.136	0.247
-171.925	54.028	0.236	0.225
-170.910	-49.542	-0.117	0.055
-169.896	-109.413	-0.072	-0.015
-168.881	-125.462	0.453	-0.068
-167.866	-141.888	0.233	0.023
-166.852	-20.458	-0.246	0.150
-165.837	-21.101	0.134	-0.081
-164.823	-200.000	0.027	0.140
-163.808	-160.642	0.348	0.018
-162.793	166.246	0.170	-0.237
-161.779	-24.380	-0.435	-0.256
-160.764	61.801	-0.121	0.119
-159.750	-27.102	-0.135	0.078
-158.735	313.275	-0.058	0.108
-157.720	162.395	-0.178	-0.247
-156.706	550.701	-0.169	-0.400
-155.691	-7.778	0.077	0.052
-154.677	753.048	0.070	-0.188
-153.662	2.498	-0.098	-0.070
-152.647	-103.215	0.319	0.074
-151.633	-200.000	0.053	0.342
-150.618	-104.765	0.327	0.074
-149.604	800.000	-0.033	-0.124
-148.589	-113.012	-0.375	0.073
-147.574	-111.530	-0.323	0.065
-146.560	-200.000	0.024	-0.185
-145.545	-200.000	0.090	0.394
-144.531	-200.000	0.015	0.106
-143.516	800.000	0.068	0.204
-142.502	800.000	-0.106	0.290
-141.487	800.000	0.122	-0.369
-140.472	68.953	0.062	0.063
-139.458	-83.784	-0.243	0.077
-138.443	-121.524	0.265	0.043
-137.429	58.063	0.135	-0.130
-136.414	209.792	0.077	0.120
-135.399	-80.828	0.322	-0.106
-134.385	-114.135	-0.101	-0.019
-133.370	-200.000	-0.025	-0.509
-132.356	98.415	0.135	0.154
-131.341	-200.000	-0.008	-0.090
-130.326	-200.000	0.004	0.156
-129.312	-115.962	0.141	0.026
-128.297	-141.885	-0.069	-0.007
-127.283	293.146	-0.112	0.202
-126.268	-162.691	0.196	-0.009
-125.253	-77.781	-0.277	-0.094
-124.239	25.739	0.277	0.227
-123.224	-200.000	-0.014	-0.076
-122.210	204.985	0.034	-0.053
