DTS Sentinel unit serial number:	SN413079Multiplexer serial number:	ORYXHardware model number:	OX4-SRSoftware version number:	ORYX F/W v4.00 Oryx Data Collector v3.7.2.0data status	okinstallation	princeton_trtdifferential loss correction	single-endedforward channel	channel 3reverse channel	N/Adate	2019/09/12time	07:22:11forward acquisition time	60.00reverse acquisition time	0.00gamma	496.2192k internal	0.2318k external	0.2318temperature offset calibration	1.0034default loss term (dB/km)	0.3790temperature slope calibration	1.0000multiplexer offset coefficient	1.0000multiplexer slope coefficient	1.0000fibre end	0.00T internal ref (°C)	32.31T ext. ref 1 (°C)	1.61T ext. ref 2 (°C)	28.75length (m)	temperature (°C)	Stokes	anti-Stokes-747.200	25.153	-0.127	0.107
-746.185	-80.259	0.214	-0.072
-745.171	800.000	-0.047	0.197
-744.156	-200.000	0.049	0.364
-743.142	-200.000	-0.166	-0.001
-742.127	69.900	-0.086	-0.089
-741.112	201.609	0.223	0.347
-740.098	-126.188	0.252	0.038
-739.083	50.970	0.201	0.193
-738.069	800.000	-0.026	0.103
-737.054	-36.156	-0.329	0.180
-736.039	-104.136	-0.308	0.073
-735.025	437.329	-0.171	0.378
-734.010	800.000	0.033	-0.103
-732.996	-80.696	-0.214	-0.072
-731.981	43.111	-0.337	0.311
-730.966	-12.083	-0.332	0.220
-729.952	-35.632	-0.166	0.091
-728.937	800.000	0.034	0.125
-727.923	-32.767	-0.329	-0.185
-726.908	38.825	0.143	-0.129
-725.894	-69.330	-0.221	-0.086
-724.879	110.502	-0.332	0.404
-723.864	-35.901	0.035	-0.019
-722.850	-89.841	-0.111	-0.033
-721.835	359.968	-0.013	0.027
-720.821	-36.344	0.020	0.011
-719.806	-171.903	0.106	-0.003
-718.791	19.821	0.286	0.233
-717.777	-185.263	-0.289	0.005
-716.762	800.000	0.095	-0.417
-715.748	546.461	0.034	-0.083
-714.733	121.999	0.151	0.191
-713.718	-200.000	0.004	-0.088
-712.704	-200.000	-0.027	0.121
-711.689	482.268	0.135	0.310
-710.675	-20.156	0.038	-0.024
-709.660	146.280	-0.131	-0.177
-708.645	-13.150	0.135	0.089
-707.631	499.605	0.092	0.215
-706.616	464.708	-0.061	-0.138
-705.602	91.465	0.046	-0.052
-704.587	-38.621	-0.037	0.019
-703.572	-200.000	-0.009	-0.102
-702.558	9.809	-0.235	0.180
-701.543	-200.000	0.021	-0.355
-700.529	-200.000	-0.021	-0.357
-699.514	-84.855	0.280	-0.089
-698.499	-98.886	0.254	0.065
-697.485	120.625	-0.191	-0.240
-696.470	247.156	0.206	-0.351
-695.456	166.271	-0.197	0.282
-694.441	-200.000	-0.014	0.196
-693.426	24.157	-0.157	-0.131
-692.412	-3.039	-0.191	0.135
-691.397	-192.084	-0.343	0.003
-690.383	-30.022	-0.147	-0.085
-689.368	-23.406	-0.249	0.151
-688.354	80.543	-0.124	-0.134
-687.339	800.000	-0.048	0.204
-686.324	-200.000	0.006	0.270
-685.310	-112.654	-0.379	0.076
-684.295	-5.714	-0.265	-0.183
-683.281	182.122	0.134	-0.199
-682.266	-130.609	-0.259	0.035
-681.251	419.562	0.056	0.121
-680.237	252.916	0.021	-0.037
-679.222	28.642	0.136	-0.116
-678.208	-124.563	-0.072	-0.011
-677.193	25.567	0.214	0.180
-676.178	384.871	-0.062	0.130
-675.164	152.366	0.089	0.123
-674.149	-110.955	0.337	-0.070
-673.135	-200.000	-0.003	-0.241
-672.120	-123.326	0.150	-0.024
-671.105	-137.230	-0.130	0.015
-670.091	-47.864	0.071	0.035
-669.076	0.887	0.259	0.188
-668.062	72.287	0.196	0.206
-667.047	-92.170	-0.164	0.047
-666.032	-200.000	-0.011	0.304
-665.018	-116.712	-0.012	-0.002
-664.003	-200.000	-0.022	0.209
-662.989	41.470	-0.073	0.067
-661.974	69.695	0.190	-0.198
-660.959	245.531	0.153	0.260
-659.945	-156.193	0.223	0.014
-658.930	487.996	0.218	-0.503
-657.916	-200.000	0.031	0.171
-656.901	154.456	0.094	-0.131
-655.886	-200.000	0.000	0.334
-654.872	-157.677	0.191	-0.011
-653.857	427.679	0.031	-0.068
-652.843	-4.511	0.169	0.118
-651.828	800.000	0.105	-0.324
-650.814	-200.000	-0.065	-0.443
-649.799	15.398	-0.367	-0.290
-648.784	-123.335	0.104	-0.017
-647.770	800.000	0.059	-0.179
-646.755	-36.725	0.082	-0.045
-645.741	-200.000	-0.041	0.193
-644.726	800.000	-0.108	0.308
-643.711	300.535	-0.221	0.412
-642.697	-90.471	-0.188	-0.055
-641.682	-58.363	-0.140	-0.061
-640.668	-41.787	-0.154	-0.080
-639.653	-38.520	-0.336	-0.179
-638.638	-24.813	0.294	-0.176
-637.624	-101.651	0.113	-0.028
-636.609	800.000	-0.076	-0.253
-635.595	-139.475	0.277	-0.030
-634.580	358.123	-0.038	-0.077
-633.565	691.993	-0.143	-0.377
-632.551	-200.000	-0.020	-0.299
-631.536	66.579	-0.164	-0.168
-630.522	-88.002	-0.103	0.031
-629.507	173.469	-0.060	-0.087
-628.492	-119.385	-0.268	0.047
-627.478	-58.369	-0.347	0.152
-626.463	380.309	0.056	0.116
-625.449	192.731	0.047	0.072
-624.434	-200.000	-0.015	0.095
-623.419	-81.259	0.231	-0.077
-622.405	263.959	-0.047	0.082
-621.390	-107.222	-0.186	0.041
-620.376	373.056	0.056	-0.114
-619.361	-31.889	-0.128	0.072
-618.346	-142.948	-0.113	0.011
-617.332	-78.173	-0.138	0.048
-616.317	28.221	-0.155	0.132
-615.303	-200.000	-0.004	0.179
-614.288	324.629	-0.111	-0.213
-613.273	-54.103	-0.276	0.126
-612.259	-200.000	-0.091	-0.412
-611.244	26.377	0.115	-0.097
-610.230	12.152	0.154	-0.120
-609.215	93.813	-0.118	0.135
-608.201	130.485	-0.204	0.263
-607.186	28.981	-0.200	0.171
-606.171	-200.000	0.016	0.146
-605.157	22.338	-0.195	-0.161
-604.142	800.000	-0.060	-0.177
-603.128	295.731	0.122	-0.225
-602.113	-116.281	0.159	0.030
-601.098	168.880	0.169	-0.243
-600.084	452.810	0.047	-0.105
-599.069	-200.000	0.026	-0.164
-598.055	162.092	-0.083	0.117
-597.040	75.017	0.246	0.260
-596.025	376.029	-0.118	0.242
-595.011	-200.000	-0.027	-0.247
-593.996	93.442	-0.037	0.042
-592.982	800.000	0.061	0.180
-591.967	-62.816	0.282	-0.118
-590.952	102.960	-0.112	0.131
-589.938	-141.619	-0.217	-0.022
-588.923	-200.000	0.024	-0.175
-587.909	-35.673	-0.289	-0.157
-586.894	-18.488	0.278	-0.175
-585.879	86.711	-0.271	-0.301
-584.865	54.603	0.173	0.167
-583.850	186.014	-0.059	0.089
-582.836	-119.707	0.286	0.050
-581.821	95.694	-0.157	0.180
-580.806	-200.000	0.024	-0.375
-579.792	-200.000	-0.003	0.280
-578.777	-126.429	0.149	-0.022
-577.763	18.150	0.357	0.286
-576.748	800.000	-0.083	-0.305
-575.733	-200.000	0.059	-0.400
-574.719	-48.025	-0.241	-0.117
-573.704	800.000	-0.094	-0.392
-572.690	203.285	0.109	-0.169
-571.675	-70.837	0.221	0.084
-570.661	-200.000	0.025	0.144
-569.646	-105.504	0.249	0.057
-568.631	800.000	-0.043	0.150
-567.617	419.175	0.063	-0.135
-566.602	161.499	-0.231	-0.325
-565.588	138.374	-0.069	0.090
-564.573	159.384	-0.150	-0.209
-563.558	-200.000	0.019	-0.241
-562.544	-77.473	0.179	0.062
-561.529	-52.684	0.239	0.111
-560.515	72.501	-0.094	-0.099
-559.500	-19.935	-0.341	-0.211
-558.485	-132.220	0.131	0.017
-557.471	-108.868	-0.055	-0.012
-556.456	-200.000	-0.001	-0.107
-555.442	-200.000	0.007	0.075
-554.427	-152.365	0.107	0.008
-553.412	72.964	0.275	0.288
-552.398	-107.891	-0.259	0.057
-551.383	-200.000	-0.014	-0.075
-550.369	-31.993	-0.292	-0.164
-549.354	-125.292	0.099	-0.015
-548.339	63.240	0.196	-0.197
-547.325	256.099	0.045	0.078
-546.310	-131.614	-0.312	-0.041
-545.296	87.503	-0.264	0.293
-544.281	221.431	-0.237	0.383
-543.266	-115.198	0.293	-0.056
-542.252	-110.946	0.241	0.050
-541.237	-88.643	0.245	-0.073
-540.223	-110.318	0.175	0.037
-539.208	-36.124	0.130	0.071
-538.193	-74.378	0.355	-0.129
-537.179	374.168	-0.156	0.320
-536.164	800.000	0.010	-0.040
-535.150	364.429	-0.188	-0.380
-534.135	-200.000	0.023	-0.189
-533.121	-174.263	-0.084	0.002
-532.106	8.154	-0.229	-0.172
-531.091	-97.617	-0.082	-0.021
-530.077	800.000	0.078	-0.300
-529.062	800.000	-0.054	0.178
-528.048	800.000	0.095	0.370
-527.033	48.848	0.367	0.345
-526.018	-80.005	-0.157	0.053
-525.004	48.166	0.145	0.137
-523.989	-118.312	-0.182	0.033
-522.975	16.811	-0.218	0.173
-521.960	101.274	0.294	0.344
-520.945	-0.115	-0.205	-0.147
-519.931	-30.896	-0.519	-0.294
-518.916	800.000	-0.085	-0.294
-517.902	31.602	-0.100	-0.086
-516.887	-200.000	-0.005	-0.224
-515.872	93.081	0.021	0.023
-514.858	9.923	0.060	-0.046
-513.843	-200.000	-0.040	-0.327
-512.829	-94.952	0.200	-0.054
-511.814	238.654	-0.076	0.126
-510.799	800.000	-0.018	0.072
-509.785	-151.472	-0.232	0.017
-508.770	-5.798	-0.259	-0.178
-507.756	174.704	0.112	0.163
-506.741	-24.398	0.051	-0.030
-505.726	-200.000	0.002	0.037
-504.712	-8.710	0.056	0.038
-503.697	-83.479	-0.185	0.059
-502.683	138.686	0.145	0.190
-501.668	770.220	-0.052	-0.141
-500.653	-42.511	-0.311	-0.159
-499.639	800.000	-0.020	0.084
-498.624	397.613	-0.110	0.230
-497.610	-16.531	0.105	0.067
-496.595	-199.572	0.244	0.001
-495.581	-200.000	0.000	-0.153
-494.566	-200.000	-0.050	0.272
-493.551	-48.304	-0.248	-0.120
-492.537	-137.393	0.270	0.031
-491.522	-92.440	-0.228	0.064
-490.508	800.000	-0.022	-0.066
-489.493	800.000	-0.035	-0.135
-488.478	173.013	0.026	-0.037
-487.464	438.628	-0.037	0.080
-486.449	-200.000	-0.035	-0.311
-485.435	-200.000	0.033	0.158
-484.420	-72.510	0.158	-0.059
-483.405	800.000	-0.137	0.396
-482.391	-67.633	0.134	0.053
-481.376	41.856	0.117	-0.106
-480.362	731.250	0.022	0.059
-479.347	-200.000	-0.007	-0.136
-478.332	-43.542	0.230	0.116
-477.318	-28.961	-0.345	-0.199
-476.303	-140.168	0.263	-0.028
-475.289	800.000	0.087	-0.293
-474.274	-143.989	-0.097	-0.009
-473.259	-68.211	0.165	0.064
-472.245	-40.236	-0.195	-0.102
-471.230	-88.588	-0.315	0.094
-470.216	-34.155	0.148	0.081
-469.201	225.378	0.079	0.128
-468.186	515.840	-0.079	-0.185
-467.172	-200.000	-0.154	0.001
-466.157	281.321	0.218	-0.391
-465.143	44.944	-0.076	0.070
-464.128	800.000	-0.009	-0.027
-463.113	201.184	0.206	0.318
-462.099	-112.064	-0.287	0.058
-461.084	606.664	0.106	0.264
-460.070	-200.000	0.041	-0.244
-459.055	-200.000	-0.003	0.031
-458.040	-200.000	0.005	0.327
-457.026	238.317	-0.107	0.177
-456.011	69.337	-0.136	0.140
-454.997	800.000	-0.040	-0.146
-453.982	151.811	0.204	0.278
-452.968	627.907	-0.060	0.152
-451.953	-12.755	-0.297	0.194
-450.938	-66.246	-0.302	0.120
-449.924	-141.335	-0.320	0.033
-448.909	-10.367	0.267	-0.177
-447.895	-48.575	0.234	-0.113
-446.880	78.291	-0.057	-0.061
-445.865	-164.786	-0.193	-0.009
-444.851	96.806	-0.138	-0.158
-443.836	-40.186	-0.408	-0.213
-442.822	36.285	-0.155	0.137
-441.807	-110.358	0.212	0.044
-440.792	-152.811	-0.181	-0.013
-439.778	-116.589	-0.162	0.030
-438.763	-74.990	0.202	0.072
-437.749	-30.458	-0.135	-0.076
-436.734	-24.918	0.056	0.033
-435.719	-26.188	-0.190	0.111
-434.705	-158.654	0.110	-0.006
-433.690	151.601	-0.005	-0.006
-432.676	-50.009	0.287	-0.136
-431.661	-22.151	-0.168	-0.102
-430.646	16.838	0.140	0.111
-429.632	160.156	-0.150	0.209
-428.617	18.066	-0.099	0.079
-427.603	-200.000	0.004	-0.193
-426.588	800.000	-0.052	-0.179
-425.573	108.932	0.063	0.075
-424.559	258.617	-0.051	-0.087
-423.544	349.464	-0.118	-0.233
-422.530	-182.071	0.239	0.005
-421.515	800.000	-0.071	-0.306
-420.500	410.398	-0.060	0.127
-419.486	-136.436	0.251	0.029
-418.471	-57.472	-0.393	-0.172
-417.457	585.146	0.083	0.203
-416.442	-200.000	-0.006	0.281
-415.428	-23.351	0.163	0.098
-414.413	-104.252	0.021	-0.005
-413.398	-19.094	0.188	-0.117
-412.384	256.439	0.154	-0.264
-411.369	108.988	0.119	0.143
-410.355	85.993	0.155	0.170
-409.340	-143.086	0.045	-0.004
-408.325	-61.840	0.272	-0.114
-407.311	173.162	-0.073	0.106
-406.296	-112.492	-0.104	0.021
-405.282	800.000	0.063	-0.175
-404.267	-32.325	0.114	0.063
-403.252	-92.411	-0.549	-0.154
-402.238	-200.000	0.006	0.382
-401.223	270.192	-0.132	-0.231
-400.209	-86.417	0.159	-0.049
-399.194	274.165	-0.099	0.175
-398.179	-200.000	0.012	-0.104
-397.165	-98.407	-0.312	0.080
-396.150	-54.252	-0.303	0.137
-395.136	-59.723	-0.056	-0.024
-394.121	-5.183	0.142	-0.098
-393.106	61.313	-0.220	0.218
-392.092	-200.000	0.177	0.000
-391.077	135.032	-0.146	-0.189
-390.063	483.784	-0.024	0.055
-389.048	800.000	-0.061	-0.181
-388.033	-200.000	-0.045	-0.258
-387.019	-142.394	0.052	-0.005
-386.004	721.858	0.092	-0.243
-384.990	800.000	0.021	0.090
-383.975	-67.665	-0.460	0.180
-382.960	-200.000	-0.025	0.274
-381.946	81.471	0.203	-0.219
-380.931	98.044	0.144	-0.165
-379.917	-90.775	-0.098	-0.028
-378.902	-40.894	0.079	-0.041
-377.888	-200.000	0.007	0.168
-376.873	74.932	0.101	0.107
-375.858	-112.048	-0.088	-0.018
-374.844	288.883	0.054	-0.098
-373.829	-30.357	0.262	0.149
-372.815	17.447	-0.240	0.190
-371.800	800.000	0.075	-0.273
-370.785	-127.401	-0.331	0.048
-369.771	170.230	-0.038	-0.055
-368.756	800.000	-0.054	0.160
-367.742	18.975	0.274	0.219
-366.727	393.684	-0.043	0.089
-365.712	-200.000	-0.021	-0.134
-364.698	44.791	-0.165	0.151
-363.683	-117.162	-0.175	-0.032
-362.669	800.000	-0.069	0.212
-361.654	97.504	-0.084	0.096
-360.639	-200.000	-0.003	-0.201
-359.625	-126.151	0.322	-0.048
-358.610	148.972	-0.045	-0.061
-357.596	659.577	0.113	-0.290
-356.581	-34.494	-0.168	-0.092
-355.566	-173.543	-0.121	0.004
-354.552	308.862	-0.092	-0.172
-353.537	746.047	-0.059	-0.158
-352.523	800.000	0.082	0.267
-351.508	-200.000	-0.034	-0.263
-350.493	429.955	-0.067	0.144
-349.479	46.340	0.121	0.112
-348.464	-200.000	0.003	0.212
-347.450	99.809	0.192	0.222
-346.435	318.963	0.077	-0.146
-345.420	-20.512	0.235	-0.144
-344.406	308.159	-0.019	-0.035
-343.391	364.844	-0.079	-0.158
-342.377	-200.000	0.026	0.362
-341.362	-103.551	-0.074	-0.017
-340.348	-200.000	0.056	-0.488
-339.333	-90.420	-0.215	0.062
-338.318	6.651	-0.206	0.153
-337.304	-200.000	0.049	-0.243
-336.289	88.043	-0.299	-0.330
-335.275	-200.000	0.031	0.276
-334.260	39.203	0.306	0.272
-333.245	108.799	0.050	0.059
-332.231	25.588	0.292	0.242
-331.216	165.765	-0.132	0.187
-330.202	156.328	-0.161	0.221
-329.187	319.328	-0.162	0.306
-328.172	288.855	0.076	0.137
-327.158	-39.531	-0.346	0.180
-326.143	209.026	-0.087	-0.136
-325.129	-105.056	0.325	0.074
-324.114	-124.039	0.237	-0.037
-323.099	270.384	-0.249	0.437
-322.085	-177.188	-0.177	0.004
-321.070	-93.216	-0.358	0.099
-320.056	-200.000	-0.033	-0.313
-319.041	99.128	-0.078	0.090
-318.026	-200.000	-0.007	0.085
-317.012	-173.097	0.197	-0.006
-315.997	-11.579	-0.126	-0.083
-314.983	-200.000	-0.037	-0.223
-313.968	40.203	-0.227	-0.203
-312.953	277.948	0.121	-0.214
-311.939	567.047	0.028	-0.068
-310.924	-200.000	0.092	0.000
-309.910	374.380	0.113	0.229
-308.895	116.283	0.177	0.216
-307.880	-54.902	0.246	0.110
-306.866	-200.000	0.022	0.236
-305.851	137.635	0.136	-0.177
-304.837	151.243	0.093	-0.126
-303.822	800.000	-0.009	-0.026
-302.807	-36.756	0.051	-0.027
-301.793	-18.909	-0.288	-0.178
-300.778	788.496	0.060	-0.165
-299.764	43.242	0.235	-0.213
-298.749	2.784	0.166	0.120
-297.735	391.133	-0.044	-0.090
-296.720	-123.802	0.346	-0.054
-295.705	150.646	-0.066	0.089
-294.691	-157.192	-0.330	0.020
-293.676	-30.323	0.324	-0.183
-292.662	191.152	-0.203	0.304
-291.647	-89.363	-0.263	0.077
-290.632	-35.835	0.169	-0.091
-289.618	209.633	-0.141	-0.219
-288.603	-71.962	-0.293	0.108
-287.589	800.000	0.055	-0.208
-286.574	65.090	-0.170	0.171
-285.559	800.000	-0.046	0.160
-284.545	-3.405	-0.129	-0.089
-283.530	562.436	0.040	-0.096
-282.516	-200.000	0.002	0.146
-281.501	-200.000	-0.005	-0.135
-280.486	-177.535	0.149	0.004
-279.472	-80.014	0.404	-0.135
-278.457	-117.566	0.132	0.024
-277.443	-56.249	-0.496	0.219
-276.428	800.000	-0.089	0.355
-275.413	-151.514	0.263	-0.019
-274.399	-200.000	-0.001	-0.057
-273.384	-200.000	-0.022	-0.299
-272.370	324.460	0.165	-0.313
-271.355	-200.000	0.001	-0.062
-270.340	-72.775	0.109	0.040
-269.326	-36.812	-0.026	-0.014
-268.311	11.716	0.246	-0.187
-267.297	-200.000	0.007	0.215
-266.282	246.651	-0.033	0.056
-265.267	-200.000	-0.016	0.102
-264.253	-37.272	-0.179	-0.095
-263.238	800.000	-0.053	0.186
-262.224	38.392	0.160	0.142
-261.209	219.612	0.219	-0.348
-260.195	-56.965	-0.287	-0.126
-259.180	800.000	-0.044	0.162
-258.165	-120.120	-0.181	-0.031
-257.151	-82.784	0.343	-0.110
-256.136	800.000	0.038	0.140
-255.122	54.596	0.337	0.323
-254.107	73.974	-0.118	0.123
-253.092	60.364	0.113	0.111
-252.078	654.345	0.109	0.278
-251.063	3.909	-0.071	-0.051
-250.049	800.000	-0.122	-0.342
-249.034	58.342	-0.043	0.042
-248.019	-200.000	-0.063	0.324
-247.005	-200.000	-0.077	0.577
-245.990	-32.319	0.216	-0.120
-244.976	-53.405	0.327	-0.149
-243.961	-200.000	0.013	-0.469
-242.946	447.241	-0.105	-0.229
-241.932	-200.000	0.003	-0.279
-240.917	104.547	0.179	-0.209
-239.903	-61.679	0.290	-0.121
-238.888	-91.152	-0.144	0.041
-237.873	-32.276	0.220	-0.122
-236.859	19.286	0.134	-0.107
-235.844	-31.483	0.112	0.062
-234.830	-98.296	-0.179	0.046
-233.815	-7.710	0.123	-0.083
-232.800	370.545	0.081	0.162
-231.786	153.301	-0.278	0.378
-230.771	-49.927	0.022	0.010
-229.757	-200.000	0.012	0.058
-228.742	-49.999	0.169	0.080
-227.727	-91.843	0.218	0.061
-226.713	-111.112	0.160	0.033
-225.698	-200.000	-0.006	-0.278
-224.684	-200.000	-0.009	0.449
-223.669	47.350	0.197	0.182
-222.655	-200.000	0.046	-0.281
-221.640	-81.334	0.104	0.034
-220.625	-122.601	-0.236	0.038
-219.611	140.190	-0.120	0.157
-218.596	-157.612	0.642	-0.038
-217.582	-150.810	-0.255	-0.019
-216.567	-196.815	0.284	-0.002
-215.552	-161.222	0.097	-0.005
-214.538	-200.000	0.057	-0.341
-213.523	-110.501	0.049	-0.010
-212.509	44.040	0.143	0.130
-211.494	-175.098	-0.320	0.009
-210.479	335.592	-0.108	0.208
-209.465	-87.551	0.341	-0.102
-208.450	800.000	0.060	-0.197
-207.436	-190.860	0.333	0.003
-206.421	-119.671	0.110	0.019
-205.406	473.732	-0.096	-0.213
-204.392	223.048	-0.196	-0.313
-203.377	-200.000	-0.169	0.000
-202.363	-2.485	0.088	-0.061
-201.348	118.214	-0.101	-0.124
-200.333	800.000	0.061	-0.207
-199.319	114.017	0.123	0.149
-198.304	-70.323	-0.194	0.073
-197.290	-26.130	0.119	0.069
-196.275	-41.799	-0.170	-0.086
-195.260	-60.579	0.215	-0.090
-194.246	-106.797	0.335	0.074
-193.231	-86.352	0.364	-0.111
-192.217	-200.000	0.043	0.537
-191.202	-101.403	0.309	0.075
-190.187	-84.527	-0.302	-0.094
-189.173	221.037	0.195	0.309
-188.158	-61.126	0.244	-0.102
-187.144	-200.000	-0.009	0.183
-186.129	168.290	-0.132	0.186
-185.114	-200.000	-0.008	0.102
-184.100	-92.867	0.143	-0.040
-183.085	0.843	-0.144	-0.102
-182.071	555.439	0.017	-0.040
-181.056	-41.761	-0.015	0.007
-180.042	-116.320	0.146	0.027
-179.027	800.000	0.017	0.073
-178.012	-86.597	-0.102	0.031
-176.998	91.885	-0.177	0.197
-175.983	800.000	0.088	-0.348
-174.969	-30.007	0.207	0.117
-173.954	768.558	0.091	0.245
-172.939	-150.632	0.240	0.018
-171.925	-200.000	-0.066	0.352
-170.910	30.567	0.172	-0.146
-169.896	-59.282	0.293	-0.125
-168.881	-71.439	-0.366	-0.135
-167.866	-1.006	-0.157	-0.110
-166.852	633.393	-0.051	0.129
-165.837	800.000	0.014	-0.056
-164.823	-165.264	0.277	0.012
-163.808	-125.530	0.276	-0.041
-162.793	304.494	0.064	-0.118
-161.779	-200.000	0.059	0.396
-160.764	-200.000	-0.065	0.321
-159.750	45.644	0.087	-0.079
-158.735	56.225	0.062	0.059
-157.720	172.102	-0.200	0.285
-156.706	800.000	-0.072	-0.263
-155.691	-145.680	0.217	0.019
-154.677	13.198	0.270	0.206
-153.662	-200.000	-0.028	0.204
-152.647	45.126	0.178	0.162
-151.633	-200.000	0.000	0.002
-150.618	73.738	0.122	-0.126
-149.604	-63.791	0.311	0.126
-148.589	-7.001	0.287	0.193
-147.574	-200.000	0.013	-0.065
-146.560	433.222	0.137	0.294
-145.545	-200.000	-0.011	-0.086
-144.531	11.913	0.099	-0.075
-143.516	-2.701	-0.076	0.052
-142.502	-200.000	0.026	-0.443
-141.487	-68.185	-0.202	0.078
-140.472	-157.128	-0.213	0.013
-139.458	722.292	-0.088	-0.233
-138.443	231.105	-0.149	-0.242
-137.429	-70.748	0.149	0.056
-136.414	10.220	0.223	-0.168
-135.399	800.000	-0.081	-0.276
-134.385	800.000	0.039	0.115
-133.370	104.949	-0.134	0.156
-132.356	-176.239	0.124	-0.003
-131.341	-72.941	0.383	-0.139
-130.326	329.320	-0.089	0.169
-129.312	-108.460	-0.182	0.039
-128.297	-36.072	-0.337	-0.180
-127.283	15.510	0.081	-0.063
-126.268	99.701	-0.105	0.120
-125.253	800.000	-0.051	-0.191
-124.239	4.743	0.127	-0.092
-123.224	10.469	0.237	-0.178
-122.210	-19.912	-0.048	-0.029
-121.195	-146.774	-0.098	-0.008
