DTS Sentinel unit serial number:	SN413079Multiplexer serial number:	ORYXHardware model number:	OX4-SRSoftware version number:	ORYX F/W v4.00 Oryx Data Collector v3.7.2.0data status	okinstallation	princeton_trtdifferential loss correction	single-endedforward channel	channel 3reverse channel	N/Adate	2019/09/19time	07:16:35forward acquisition time	60.00reverse acquisition time	0.00gamma	496.2192k internal	0.2347k external	0.2347temperature offset calibration	0.9981default loss term (dB/km)	0.3790temperature slope calibration	1.0000multiplexer offset coefficient	1.0000multiplexer slope coefficient	1.0000fibre end	0.00T internal ref (°C)	19.06T ext. ref 1 (°C)	0.57T ext. ref 2 (°C)	13.55length (m)	temperature (°C)	Stokes	anti-Stokes-747.200	-200.000	-0.001	0.232
-746.185	403.618	-0.053	0.112
-745.171	-200.000	0.040	0.241
-744.156	-69.785	-0.405	0.155
-743.142	491.053	0.046	-0.106
-742.127	-75.949	-0.298	0.105
-741.112	-180.001	-0.333	-0.007
-740.098	-200.000	-0.093	-0.499
-739.083	-13.237	0.131	-0.085
-738.069	615.713	-0.101	0.254
-737.054	72.506	-0.265	-0.276
-736.039	-200.000	-0.007	0.113
-735.025	-200.000	-0.060	-0.342
-734.010	800.000	0.046	-0.168
-732.996	597.371	-0.020	-0.049
-731.981	160.554	-0.076	-0.105
-730.966	-128.147	-0.152	0.022
-729.952	726.398	0.047	-0.124
-728.937	676.485	-0.112	0.291
-727.923	-200.000	-0.006	-0.156
-726.908	-200.000	0.016	-0.218
-725.894	-200.000	-0.040	-0.191
-724.879	-200.000	0.023	0.377
-723.864	65.894	0.191	-0.193
-722.850	119.106	-0.048	0.059
-721.835	22.856	0.060	0.049
-720.821	721.125	-0.019	0.049
-719.806	-154.802	-0.089	0.006
-718.791	-200.000	-0.014	0.104
-717.777	-90.790	0.113	-0.033
-716.762	363.277	-0.172	-0.344
-715.748	-170.250	-0.074	0.003
-714.733	-46.940	-0.095	0.046
-713.718	-134.834	-0.390	0.047
-712.704	-40.327	0.134	0.069
-711.689	222.206	-0.081	0.130
-710.675	-148.927	0.123	-0.010
-709.660	47.830	0.098	0.091
-708.645	290.579	-0.085	0.154
-707.631	-56.193	0.193	0.085
-706.616	-127.232	-0.155	-0.023
-705.602	800.000	0.142	-0.492
-704.587	304.987	0.172	-0.318
-703.572	-200.000	-0.028	-0.310
-702.558	800.000	0.098	-0.361
-701.543	97.974	-0.171	-0.196
-700.529	135.935	-0.019	-0.024
-699.514	1.031	-0.185	0.132
-698.499	-31.194	0.239	0.134
-697.485	-200.000	-0.014	-0.141
-696.470	-41.092	-0.060	0.031
-695.456	-200.000	-0.009	0.169
-694.441	109.023	0.057	-0.068
-693.426	-121.557	-0.359	0.059
-692.412	275.959	0.086	0.153
-691.397	-200.000	-0.049	-0.369
-690.383	-18.860	0.183	-0.113
-689.368	125.814	-0.132	-0.166
-688.354	-200.000	0.022	-0.162
-687.339	-146.414	-0.164	0.014
-686.324	-200.000	-0.031	-0.162
-685.310	-42.537	-0.326	-0.166
-684.295	-200.000	0.016	-0.071
-683.281	34.968	0.168	-0.146
-682.266	14.827	0.180	-0.140
-681.251	-114.798	-0.277	0.053
-680.237	800.000	0.022	-0.065
-679.222	34.022	-0.097	-0.084
-678.208	-200.000	0.044	-0.385
-677.193	347.801	0.100	0.196
-676.178	19.264	-0.225	-0.180
-675.164	-120.803	0.338	0.057
-674.149	-89.813	-0.358	-0.104
-673.135	45.082	0.098	0.090
-672.120	161.029	-0.192	0.268
-671.105	-200.000	-0.003	0.043
-670.091	-110.929	0.271	-0.056
-669.076	-200.000	0.043	0.283
-668.062	-29.746	0.033	0.019
-667.047	-40.055	-0.104	-0.054
-666.032	-200.000	0.011	0.116
-665.018	40.771	0.229	-0.206
-664.003	50.184	-0.158	-0.149
-662.989	-67.061	0.134	0.053
-661.974	-62.709	-0.068	0.028
-660.959	-71.954	-0.022	-0.008
-659.945	-104.357	0.313	0.072
-658.930	8.013	0.164	-0.122
-657.916	-126.260	-0.571	-0.085
-656.901	92.988	-0.041	-0.046
-655.886	-117.603	-0.299	0.054
-654.872	-94.975	-0.039	0.011
-653.857	-200.000	-0.019	0.177
-652.843	-200.000	-0.013	0.113
-651.828	59.115	-0.058	0.057
-650.814	332.920	0.014	0.027
-649.799	86.409	0.183	0.201
-648.784	700.948	0.056	0.146
-647.770	40.213	0.213	-0.191
-646.755	-200.000	0.035	0.354
-645.741	-190.297	0.161	-0.002
-644.726	575.077	0.010	0.025
-643.711	800.000	0.159	-0.464
-642.697	-166.574	0.105	-0.004
-641.682	-200.000	-0.048	-0.324
-640.668	-99.301	0.169	-0.042
-639.653	88.958	-0.030	0.034
-638.638	-64.629	-0.191	-0.077
-637.624	158.430	-0.201	-0.278
-636.609	-51.590	0.044	0.021
-635.595	15.693	-0.104	0.081
-634.580	-98.527	0.204	0.052
-633.565	62.916	-0.008	-0.008
-632.551	-53.320	-0.047	-0.021
-631.536	-20.191	-0.076	0.047
-630.522	-200.000	0.023	-0.142
-629.507	62.733	-0.243	-0.242
-628.492	32.683	-0.013	0.011
-627.478	-200.000	0.081	0.431
-626.463	-105.302	0.406	-0.092
-625.449	-119.043	0.093	-0.016
-624.434	372.764	-0.166	-0.336
-623.419	-0.261	0.090	0.063
-622.405	12.018	0.151	-0.116
-621.390	466.685	0.015	0.034
-620.376	-22.447	-0.344	-0.207
-619.361	800.000	0.159	-0.457
-618.346	-200.000	0.006	0.128
-617.332	67.440	0.216	-0.219
-616.317	183.350	0.100	-0.146
-615.303	-18.842	-0.082	0.051
-614.288	-103.555	-0.401	0.094
-613.273	325.931	0.038	-0.073
-612.259	252.689	-0.093	0.158
-611.244	83.593	0.129	0.140
-610.230	-161.836	-0.272	0.014
-609.215	493.987	-0.120	0.274
-608.201	-162.157	0.103	-0.005
-607.186	-81.375	0.192	0.063
-606.171	800.000	-0.069	-0.247
-605.157	-200.000	0.033	0.179
-604.142	-200.000	0.009	0.147
-603.128	-0.584	0.111	0.078
-602.113	-200.000	-0.002	-0.202
-601.098	37.490	-0.279	0.246
-600.084	783.290	0.042	0.116
-599.069	-96.741	0.171	-0.045
-598.055	36.009	0.247	0.216
-597.040	138.218	-0.173	0.226
-596.025	57.061	0.180	-0.174
-595.011	800.000	-0.162	-0.699
-593.996	-95.151	0.179	0.048
-592.982	-72.407	-0.115	-0.042
-591.967	4.289	-0.121	-0.088
-590.952	232.787	-0.131	-0.214
-589.938	-200.000	0.056	0.303
-588.923	-102.134	0.222	0.053
-587.909	-200.000	-0.000	0.047
-586.894	800.000	0.066	-0.205
-585.879	-45.977	-0.303	0.148
-584.865	-63.245	-0.167	-0.068
-583.850	-96.173	-0.199	-0.053
-582.836	-46.544	0.251	0.122
-581.821	-35.580	0.091	-0.049
-580.806	-88.683	-0.375	-0.111
-579.792	165.754	-0.164	-0.230
-578.777	800.000	-0.014	0.048
-577.763	-50.588	0.193	-0.091
-576.748	58.512	0.099	-0.097
-575.733	-130.648	-0.212	-0.028
-574.719	800.000	-0.016	0.067
-573.704	-137.237	-0.417	0.047
-572.690	-10.943	-0.242	-0.158
-571.675	-130.482	0.411	-0.055
-570.661	-86.019	-0.139	-0.043
-569.646	-44.614	0.187	0.093
-568.631	35.650	0.149	0.130
-567.617	800.000	-0.095	0.315
-566.602	111.438	0.222	-0.266
-565.588	51.298	-0.185	-0.174
-564.573	-153.043	0.064	0.004
-563.558	-86.797	-0.403	0.122
-562.544	-177.521	-0.166	0.004
-561.529	800.000	-0.038	0.126
-560.515	-200.000	0.001	-0.160
-559.500	-37.470	0.191	0.101
-558.485	-200.000	-0.000	0.291
-557.471	-61.616	0.076	0.032
-556.456	10.124	0.126	0.095
-555.442	-61.549	-0.433	0.181
-554.427	800.000	-0.094	-0.258
-553.412	22.389	0.228	0.185
-552.398	800.000	0.098	-0.293
-551.383	216.429	-0.055	-0.086
-550.369	800.000	0.060	0.209
-549.354	-116.424	-0.074	0.014
-548.339	-23.040	-0.196	-0.117
-547.325	-200.000	0.112	-0.534
-546.310	-28.320	0.276	-0.158
-545.296	124.013	0.039	0.048
-544.281	72.117	0.119	-0.123
-543.266	-63.066	0.207	-0.085
-542.252	-200.000	0.053	0.364
-541.237	34.976	-0.137	-0.119
-540.223	-40.372	0.279	-0.144
-539.208	307.340	0.080	-0.148
-538.193	-87.916	0.324	0.097
-537.179	-200.000	0.082	0.437
-536.164	-4.241	0.138	-0.095
-535.150	-64.115	-0.303	0.123
-534.135	-127.011	-0.124	0.018
-533.121	-109.685	-0.088	-0.018
-532.106	-91.409	0.058	-0.016
-531.091	-94.342	0.168	0.045
-530.077	38.465	-0.165	0.146
-529.062	34.056	0.145	-0.126
-528.048	-34.803	0.152	-0.082
-527.033	31.425	-0.168	-0.143
-526.018	-91.683	0.098	0.028
-525.004	659.561	-0.128	-0.326
-523.989	-101.550	0.147	0.035
-522.975	-106.881	-0.142	-0.031
-521.960	77.413	-0.277	-0.292
-520.945	-16.393	0.216	-0.136
-519.931	-126.212	0.190	0.028
-518.916	800.000	-0.057	0.200
-517.902	652.868	0.051	0.131
-516.887	262.555	-0.057	0.099
-515.872	51.697	0.177	-0.167
-514.858	-200.000	0.010	0.121
-513.843	552.985	0.112	-0.266
-512.829	-200.000	-0.070	-0.403
-511.814	-102.080	-0.256	-0.061
-510.799	-109.345	0.127	-0.027
-509.785	-200.000	0.007	-0.310
-508.770	-33.398	-0.136	-0.074
-507.756	-200.000	0.006	0.099
-506.741	-200.000	0.104	0.468
-505.726	193.387	0.189	-0.283
-504.712	335.717	0.108	0.208
-503.697	74.113	0.152	0.158
-502.683	-200.000	0.002	-0.429
-501.668	-7.064	-0.078	0.053
-500.653	-104.460	0.114	-0.026
-499.639	-95.271	-0.395	0.105
-498.624	-54.685	0.178	0.080
-497.610	192.001	0.083	0.123
-496.595	-116.978	0.294	-0.053
-495.581	84.630	-0.142	-0.154
-494.566	-36.824	-0.122	0.065
-493.551	-182.905	-0.118	0.002
-492.537	-2.407	-0.223	0.154
-491.522	-28.836	-0.419	0.238
-490.508	314.066	0.147	0.273
-489.493	-200.000	-0.002	-0.074
-488.478	424.010	-0.178	-0.378
-487.464	-94.277	-0.162	0.044
-486.449	800.000	0.012	0.035
-485.435	7.078	-0.319	-0.235
-484.420	-200.000	-0.044	-0.224
-483.405	-66.032	-0.277	-0.109
-482.391	228.107	0.141	-0.226
-481.376	24.942	0.115	-0.094
-480.362	-200.000	-0.028	-0.340
-479.347	310.535	0.097	-0.180
-478.332	-200.000	0.231	-0.000
-477.318	-83.789	-0.227	0.071
-476.303	-200.000	0.015	0.196
-475.289	800.000	0.077	0.263
-474.274	-43.338	-0.239	-0.120
-473.259	-181.205	-0.354	-0.007
-472.245	-200.000	-0.018	-0.137
-471.230	-28.339	0.244	-0.139
-470.216	2.944	0.170	-0.122
-469.201	135.109	0.083	-0.106
-468.186	8.678	0.154	0.115
-467.172	-200.000	-0.097	-0.454
-466.157	-200.000	-0.049	-0.272
-465.143	584.415	-0.160	0.387
-464.128	-21.618	0.205	-0.123
-463.113	-200.000	0.032	0.223
-462.099	42.832	-0.199	0.179
-461.084	-58.567	-0.151	-0.065
-460.070	520.199	-0.017	0.040
-459.055	800.000	-0.073	-0.240
-458.040	563.280	-0.071	0.170
-457.026	-13.008	0.229	0.147
-456.011	-60.232	0.254	0.107
-454.997	-55.777	-0.144	0.064
-453.982	214.341	-0.067	-0.104
-452.968	54.695	-0.381	0.363
-451.953	736.924	-0.189	0.501
-450.938	330.282	0.141	0.267
-449.924	249.868	-0.135	-0.227
-448.909	-200.000	0.002	0.255
-447.895	-20.639	-0.191	-0.116
-446.880	133.064	-0.125	0.160
-445.865	601.402	0.127	0.312
-444.851	-200.000	-0.086	0.382
-443.836	132.847	0.139	0.178
-442.822	-11.841	-0.065	-0.042
-441.807	800.000	0.113	-0.335
-440.792	-144.068	-0.164	0.015
-439.778	-200.000	-0.014	-0.195
-438.763	-200.000	-0.026	-0.444
-437.749	-200.000	0.015	-0.201
-436.734	1.516	-0.134	0.095
-435.719	-89.583	0.208	-0.060
-434.705	-200.000	-0.024	0.153
-433.690	16.281	-0.064	-0.050
-432.676	-86.051	-0.139	0.042
-431.661	54.995	-0.169	0.161
-430.646	514.459	-0.150	0.345
-429.632	-50.421	-0.231	-0.108
-428.617	0.719	-0.189	-0.134
-427.603	301.144	-0.147	0.268
-426.588	-36.439	0.056	-0.030
-425.573	87.826	-0.292	-0.319
-424.559	-3.522	0.240	0.165
-423.544	-22.584	-0.296	-0.177
-422.530	-35.730	0.033	0.018
-421.515	-171.123	0.171	-0.006
-420.500	800.000	-0.071	0.194
-419.486	-84.751	0.373	0.116
-418.471	800.000	-0.054	-0.172
-417.457	580.826	-0.116	-0.281
-416.442	-200.000	0.035	0.159
-415.428	-182.939	0.425	0.007
-414.413	80.000	-0.107	-0.114
-413.398	-12.546	0.591	-0.380
-412.384	67.236	-0.142	-0.143
-411.369	0.343	-0.385	-0.271
-410.355	-15.897	-0.149	-0.094
-409.340	-13.004	0.124	0.080
-408.325	-25.095	-0.473	-0.276
-407.311	-103.270	-0.082	-0.019
-406.296	-200.000	0.023	0.137
-405.282	-200.000	-0.032	-0.209
-404.267	-101.562	-0.103	-0.025
-403.252	-53.632	0.285	-0.128
-402.238	-200.000	0.008	-0.092
-401.223	-116.339	0.124	-0.023
-400.209	336.139	0.130	-0.249
-399.194	7.603	0.270	-0.199
-398.179	425.697	0.208	-0.442
-397.165	-149.235	-0.084	0.007
-396.150	-88.650	-0.180	0.053
-395.136	-98.919	0.258	-0.065
-394.121	-200.000	0.034	-0.254
-393.106	-200.000	-0.030	-0.149
-392.092	-17.781	-0.152	-0.094
-391.077	198.033	0.043	-0.064
-390.063	800.000	0.020	-0.073
-389.048	-54.092	0.135	-0.061
-388.033	215.048	0.111	-0.173
-387.019	-131.578	0.267	-0.035
-386.004	800.000	0.081	0.311
-384.990	89.311	-0.285	0.313
-383.975	138.104	-0.053	0.069
-382.960	800.000	-0.062	0.183
-381.946	-176.538	-0.100	0.003
-380.931	131.735	0.210	-0.266
-379.917	800.000	-0.058	-0.222
-378.902	332.959	0.054	0.103
-377.888	46.795	0.105	0.096
-376.873	-61.016	-0.269	0.112
-375.858	-17.267	0.197	0.123
-374.844	660.986	0.030	0.077
-373.829	-69.665	0.075	-0.028
-372.815	348.739	-0.070	-0.136
-371.800	213.548	-0.033	0.051
-370.785	-80.222	-0.203	-0.067
-369.771	199.861	0.025	-0.038
-368.756	600.151	0.080	-0.196
-367.742	143.982	0.192	0.253
-366.727	0.744	-0.145	-0.102
-365.712	-9.837	0.010	-0.007
-364.698	276.728	-0.075	0.130
-363.683	-129.179	0.074	-0.010
-362.669	85.476	-0.149	-0.161
-361.654	-74.049	0.283	-0.101
-360.639	233.091	-0.078	-0.126
-359.625	-43.223	-0.490	0.244
-358.610	20.926	-0.255	-0.203
-357.596	-26.915	0.203	0.117
-356.581	-200.000	-0.018	-0.206
-355.566	42.602	-0.163	-0.146
-354.552	-8.534	0.236	0.156
-353.537	-85.309	-0.052	0.016
-352.523	-130.362	-0.216	-0.029
-351.508	-9.084	0.185	-0.122
-350.493	-57.565	-0.100	-0.043
-349.479	145.037	0.047	0.062
-348.464	-63.961	0.068	0.027
-347.450	-200.000	-0.043	0.264
-346.435	800.000	-0.116	0.375
-345.420	-25.877	0.228	-0.132
-344.406	-200.000	0.028	0.312
-343.391	-200.000	0.008	0.133
-342.377	30.792	-0.037	-0.031
-341.362	-128.846	0.298	0.041
-340.348	-200.000	-0.008	-0.249
-339.333	-200.000	-0.004	0.146
-338.318	-195.683	0.238	-0.002
-337.304	-8.978	0.095	-0.063
-336.289	53.430	-0.042	0.040
-335.275	-200.000	0.010	-0.152
-334.260	370.735	-0.091	0.181
-333.245	97.431	-0.264	0.298
-332.231	800.000	0.105	-0.305
-331.216	800.000	-0.010	-0.042
-330.202	800.000	-0.065	0.227
-329.187	135.028	0.070	0.090
-328.172	-200.000	0.199	0.000
-327.158	12.611	-0.321	0.244
-326.143	-200.000	-0.076	0.455
-325.129	-42.839	0.186	-0.093
-324.114	136.015	0.121	-0.155
-323.099	46.667	-0.066	0.060
-322.085	-99.739	0.052	0.013
-321.070	-200.000	-0.064	0.297
-320.056	-66.739	-0.250	0.097
-319.041	626.186	-0.083	0.206
-318.026	624.847	0.102	-0.253
-317.012	206.515	0.326	-0.498
-315.997	-22.066	0.190	-0.114
-314.983	141.585	-0.180	-0.234
-313.968	-120.547	-0.190	-0.032
-312.953	-73.241	-0.218	0.078
-311.939	-200.000	0.047	-0.214
-310.924	-36.239	0.181	0.096
-309.910	-146.761	-0.205	0.017
-308.895	794.223	0.064	-0.174
-307.880	-144.309	-0.153	0.014
-306.866	-109.333	-0.126	0.026
-305.851	748.372	0.047	-0.125
-304.837	-200.000	-0.005	0.032
-303.822	-19.949	0.156	0.095
-302.807	156.087	0.188	0.254
-301.793	50.692	-0.194	0.181
-300.778	-73.901	0.237	-0.084
-299.764	155.866	0.198	0.268
-298.749	134.042	-0.102	0.130
-297.735	-80.053	0.072	0.024
-296.720	68.384	-0.157	-0.158
-295.705	168.207	0.179	0.250
-294.691	-153.181	0.351	-0.024
-293.676	-96.167	0.187	0.049
-292.662	-23.621	0.127	-0.075
-291.647	125.840	0.233	0.289
-290.632	51.316	0.284	-0.265
-289.618	42.424	-0.173	0.154
-288.603	-92.337	-0.202	-0.056
-287.589	-97.683	0.225	-0.057
-286.574	-120.001	-0.278	0.047
-285.559	-200.000	0.056	0.423
-284.545	189.209	-0.140	0.206
-283.530	-112.432	-0.275	-0.054
-282.516	-111.456	-0.184	-0.037
-281.501	-200.000	-0.082	-0.383
-280.486	3.303	0.228	0.163
-279.472	-22.374	0.071	0.042
-278.457	-200.000	-0.016	-0.070
-277.443	800.000	-0.042	0.122
-276.428	800.000	-0.074	0.235
-275.413	162.479	0.327	0.450
-274.399	-138.301	0.232	-0.025
-273.384	97.471	0.270	0.304
-272.370	411.914	-0.069	0.145
-271.355	-30.640	-0.073	0.040
-270.340	68.372	-0.050	-0.050
-269.326	800.000	-0.029	-0.100
-268.311	-26.064	0.160	0.093
-267.297	-122.230	-0.244	0.039
-266.282	305.155	0.072	-0.131
-265.267	-75.004	0.216	0.076
-264.253	-200.000	-0.033	-0.223
-263.238	-108.399	-0.369	0.078
-262.224	-76.435	-0.319	-0.110
-261.209	-48.450	-0.220	-0.104
-260.195	-102.953	0.201	0.047
-259.180	-116.569	-0.539	0.097
-258.165	800.000	-0.025	0.102
-257.151	333.535	-0.184	0.349
-256.136	291.178	0.087	-0.155
-255.122	144.411	-0.197	0.258
-254.107	318.028	0.278	0.516
-253.092	261.856	0.042	0.072
-252.078	-142.825	-0.232	0.022
-251.063	-79.858	0.216	-0.071
-250.049	-174.311	-0.299	0.008
-249.034	283.270	0.068	-0.119
-248.019	29.256	0.193	0.160
-247.005	-98.236	-0.189	0.048
-245.990	69.709	0.161	-0.162
-244.976	547.199	-0.109	0.255
-243.961	-149.418	0.153	0.012
-242.946	-200.000	0.022	-0.176
-241.932	-2.813	0.250	0.171
-240.917	101.410	-0.246	0.281
-239.903	800.000	0.090	-0.271
-238.888	309.119	0.105	-0.193
-237.873	-42.676	0.065	-0.032
-236.859	-200.000	0.016	-0.154
-235.844	15.990	-0.347	0.268
-234.830	-29.854	0.280	-0.156
-233.815	172.726	0.104	-0.146
-232.800	51.530	0.127	-0.118
-231.786	62.328	-0.075	-0.074
-230.771	-200.000	0.002	-0.018
-229.757	-21.286	0.221	0.132
-228.742	800.000	-0.083	-0.311
-227.727	630.426	0.084	-0.208
-226.713	180.479	0.115	-0.165
-225.698	-200.000	0.003	0.140
-224.684	800.000	-0.076	0.253
-223.669	-200.000	0.027	-0.177
-222.655	-59.990	0.304	-0.127
-221.640	-160.581	0.570	-0.030
-220.625	800.000	0.055	-0.206
-219.611	800.000	-0.016	-0.056
-218.596	-200.000	0.054	0.259
-217.582	-98.385	0.208	-0.052
-216.567	-94.020	0.116	-0.031
-215.552	328.587	-0.016	-0.031
-214.538	78.966	0.143	0.150
-213.523	103.083	-0.100	-0.114
-212.509	-99.460	-0.346	-0.085
-211.494	-19.940	-0.102	0.062
-210.479	164.785	0.076	-0.104
-209.465	-172.981	-0.249	-0.008
-208.450	235.464	-0.071	-0.114
-207.436	293.534	0.140	0.250
-206.421	23.606	-0.083	0.067
-205.406	-133.935	-0.076	0.009
-204.392	-81.146	0.463	0.150
-203.377	800.000	-0.107	0.426
-202.363	292.428	0.042	0.076
-201.348	59.443	0.265	0.255
-200.333	-125.128	-0.004	-0.001
-199.319	329.558	0.077	-0.144
-198.304	-200.000	0.040	-0.297
-197.290	340.601	0.166	-0.317
-196.275	-200.000	0.006	-0.094
-195.260	194.989	0.228	0.339
-194.246	800.000	0.062	0.180
-193.231	301.810	0.109	0.198
-192.217	-200.000	-0.018	0.193
-191.202	350.436	-0.020	0.039
-190.187	-160.870	-0.174	0.009
-189.173	-56.644	0.044	0.019
-188.158	-9.420	-0.164	-0.107
-187.144	-200.000	-0.043	0.320
-186.129	-200.000	-0.002	0.039
-185.114	143.153	0.084	0.109
-184.100	-8.011	0.314	0.207
-183.085	106.359	-0.101	0.117
-182.071	425.120	-0.165	0.347
-181.056	-46.780	0.198	0.095
-180.042	-31.569	0.263	0.145
-179.027	800.000	-0.088	0.316
-178.012	-135.995	0.226	-0.026
-176.998	-24.447	0.099	-0.058
-175.983	-200.000	0.015	-0.097
-174.969	152.921	-0.088	0.117
-173.954	-112.346	-0.252	0.049
-172.939	61.526	-0.134	-0.131
-171.925	-65.339	0.266	0.105
-170.910	-200.000	0.020	0.090
-169.896	-37.345	-0.133	0.069
-168.881	8.212	-0.163	-0.120
-167.866	36.618	-0.069	-0.060
-166.852	23.616	0.141	0.113
-165.837	-200.000	0.017	0.123
-164.823	800.000	0.058	-0.194
-163.808	800.000	0.037	-0.119
-162.793	19.270	-0.168	0.132
-161.779	7.007	-0.147	0.107
-160.764	-57.452	-0.309	-0.133
-159.750	-141.548	-0.160	0.016
-158.735	176.353	-0.257	-0.364
-157.720	37.187	0.059	0.051
-156.706	800.000	-0.038	0.102
-155.691	-24.135	-0.413	-0.241
-154.677	96.341	-0.082	-0.092
-153.662	800.000	0.100	0.279
-152.647	184.380	0.052	0.075
-151.633	-152.688	-0.154	-0.011
-150.618	800.000	0.108	0.378
-149.604	-111.865	-0.124	-0.025
-148.589	84.898	0.119	0.128
-147.574	331.143	-0.128	0.240
-146.560	-200.000	0.001	0.162
-145.545	-34.510	0.249	0.133
-144.531	179.858	-0.087	0.125
-143.516	-200.000	-0.033	0.266
-142.502	-200.000	0.048	-0.266
-141.487	-137.818	0.096	0.010
-140.472	176.623	0.287	-0.408
-139.458	800.000	0.061	0.237
-138.443	709.973	-0.200	-0.515
-137.429	152.433	-0.138	-0.184
-136.414	-48.480	-0.312	-0.146
-135.399	126.408	0.150	0.185
-134.385	800.000	-0.114	0.394
-133.370	26.450	-0.250	-0.204
-132.356	-102.861	-0.431	-0.100
-131.341	22.296	0.286	0.228
-130.326	68.190	-0.140	0.140
-129.312	123.121	-0.097	0.118
-128.297	-179.380	-0.192	-0.004
-127.283	127.215	-0.105	0.130
-126.268	-200.000	0.022	-0.110
-125.253	800.000	0.138	-0.568
-124.239	153.866	0.155	-0.208
-123.224	-42.892	-0.218	-0.108
-122.210	-23.220	-0.075	0.044
-121.195	211.520	-0.095	-0.146
