DTS Sentinel unit serial number:	SN413079Multiplexer serial number:	ORYXHardware model number:	OX4-SRSoftware version number:	ORYX F/W v4.00 Oryx Data Collector v3.7.2.0data status	okinstallation	princeton_trtdifferential loss correction	single-endedforward channel	channel 3reverse channel	N/Adate	2019/09/15time	21:32:35forward acquisition time	60.00reverse acquisition time	0.00gamma	496.2192k internal	0.2329k external	0.2329temperature offset calibration	0.9940default loss term (dB/km)	0.3790temperature slope calibration	1.0000multiplexer offset coefficient	1.0000multiplexer slope coefficient	1.0000fibre end	0.00T internal ref (°C)	30.66T ext. ref 1 (°C)	8.32T ext. ref 2 (°C)	23.61length (m)	temperature (°C)	Stokes	anti-Stokes-747.200	150.259	-0.034	-0.047
-746.185	-200.000	0.052	0.313
-745.171	-140.118	0.319	0.034
-744.156	-68.558	-0.251	0.098
-743.142	800.000	-0.118	0.480
-742.127	258.364	-0.113	0.196
-741.112	-124.297	0.325	0.051
-740.098	-5.884	-0.128	0.088
-739.083	-105.948	0.115	0.026
-738.069	77.810	-0.160	0.172
-737.054	236.586	0.025	-0.041
-736.039	133.281	-0.085	-0.111
-735.025	-32.461	0.211	0.118
-734.010	76.083	-0.226	-0.241
-732.996	800.000	-0.078	-0.249
-731.981	-200.000	-0.023	0.166
-730.966	-200.000	0.055	0.572
-729.952	-162.379	-0.295	-0.015
-728.937	248.293	-0.039	0.066
-727.923	-200.000	-0.026	-0.297
-726.908	-33.039	-0.159	0.089
-725.894	-71.349	-0.042	-0.016
-724.879	-200.000	0.022	-0.230
-723.864	41.953	-0.171	-0.156
-722.850	-200.000	-0.017	0.450
-721.835	-200.000	-0.028	-0.182
-720.821	180.726	-0.168	-0.248
-719.806	307.004	0.109	-0.204
-718.791	-24.162	0.107	-0.064
-717.777	362.558	-0.102	-0.206
-716.762	-200.000	0.050	-0.253
-715.748	-145.068	-0.184	-0.017
-714.733	269.674	-0.047	-0.083
-713.718	163.628	-0.115	-0.163
-712.704	-200.000	0.030	-0.156
-711.689	-63.858	0.091	0.038
-710.675	-108.141	-0.132	0.029
-709.660	-200.000	0.042	-0.219
-708.645	346.359	-0.041	-0.081
-707.631	800.000	0.064	-0.222
-706.616	71.194	-0.175	0.183
-705.602	534.216	0.121	-0.288
-704.587	67.318	0.187	-0.192
-703.572	-41.917	-0.176	-0.091
-702.558	25.352	-0.194	0.162
-701.543	800.000	0.213	-0.592
-700.529	-128.631	-0.397	0.056
-699.514	800.000	-0.053	-0.195
-698.499	162.560	-0.161	-0.227
-697.485	-145.018	0.033	0.003
-696.470	-200.000	-0.041	-0.501
-695.456	257.127	-0.116	0.201
-694.441	-180.617	-0.198	0.004
-693.426	-66.313	0.102	-0.041
-692.412	800.000	0.035	-0.137
-691.397	194.594	-0.132	-0.201
-690.383	59.701	-0.073	0.073
-689.368	-200.000	0.025	0.224
-688.354	800.000	-0.094	0.299
-687.339	-46.638	-0.153	0.075
-686.324	-7.457	0.354	-0.241
-685.310	-37.037	-0.217	-0.117
-684.295	145.163	0.105	0.141
-683.281	182.298	-0.134	-0.199
-682.266	213.728	-0.167	0.265
-681.251	-82.734	0.139	0.045
-680.237	-45.231	-0.077	-0.038
-679.222	-110.356	0.479	0.100
-678.208	17.285	-0.137	-0.109
-677.193	575.238	-0.039	-0.095
-676.178	14.575	-0.103	0.081
-675.164	419.080	0.119	0.256
-674.149	-117.128	-0.380	-0.069
-673.135	-200.000	0.021	-0.241
-672.120	-103.781	0.077	0.018
-671.105	-71.660	-0.084	-0.032
-670.091	-200.000	-0.011	-0.154
-669.076	-30.010	-0.136	-0.078
-668.062	456.928	-0.021	0.047
-667.047	-200.000	0.059	-0.263
-666.032	-60.873	0.248	-0.105
-665.018	-200.000	0.008	-0.038
-664.003	42.650	0.091	0.083
-662.989	169.222	-0.153	0.219
-661.974	800.000	-0.116	-0.353
-660.959	33.703	-0.105	0.092
-659.945	-9.063	0.151	-0.101
-658.930	-70.151	-0.148	-0.057
-657.916	-38.000	-0.055	0.029
-656.901	-200.000	-0.042	-0.300
-655.886	800.000	-0.032	0.136
-654.872	-45.177	-0.497	-0.248
-653.857	496.874	-0.058	-0.133
-652.843	-46.818	0.271	-0.133
-651.828	96.311	0.142	0.164
-650.814	258.207	-0.175	0.302
-649.799	-156.909	-0.055	0.003
-648.784	-89.241	0.274	-0.081
-647.770	31.307	-0.105	-0.091
-646.755	-16.625	-0.116	-0.074
-645.741	-200.000	0.001	-0.126
-644.726	800.000	-0.044	0.123
-643.711	228.221	-0.153	0.250
-642.697	800.000	-0.088	0.378
-641.682	-200.000	0.009	0.507
-640.668	118.422	0.095	0.117
-639.653	-51.160	-0.302	0.142
-638.638	191.066	-0.119	0.179
-637.624	16.403	-0.223	-0.177
-636.609	-115.746	-0.100	0.019
-635.595	-101.149	0.214	-0.053
-634.580	-200.000	0.044	-0.201
-633.565	124.910	-0.026	-0.033
-632.551	14.781	0.173	0.135
-631.536	800.000	-0.133	-0.438
-630.522	800.000	0.052	-0.198
-629.507	-44.595	0.493	0.247
-628.492	554.109	-0.049	-0.119
-627.478	-200.000	0.013	0.175
-626.463	202.844	-0.056	-0.087
-625.449	217.864	-0.035	0.055
-624.434	-29.160	-0.230	0.133
-623.419	800.000	0.102	0.303
-622.405	-165.686	-0.289	-0.013
-621.390	-62.211	-0.178	-0.074
-620.376	-65.486	0.374	0.151
-619.361	800.000	0.048	-0.163
-618.346	-19.994	0.136	-0.084
-617.332	800.000	0.022	0.073
-616.317	-144.763	-0.212	0.020
-615.303	195.848	0.321	-0.490
-614.288	-200.000	0.010	0.251
-613.273	-95.527	-0.190	0.051
-612.259	-11.669	0.242	0.159
-611.244	62.100	-0.353	-0.353
-610.230	72.307	-0.044	-0.046
-609.215	-136.451	0.373	0.043
-608.201	56.640	-0.076	-0.075
-607.186	87.096	-0.106	-0.117
-606.171	-89.701	0.223	-0.065
-605.157	-96.539	-0.144	-0.038
-604.142	-39.137	0.154	0.081
-603.128	-67.649	-0.182	-0.071
-602.113	-114.166	-0.236	0.046
-601.098	800.000	0.121	-0.358
-600.084	-3.395	-0.122	0.085
-599.069	50.953	0.290	-0.276
-598.055	236.830	-0.063	-0.104
-597.040	-11.544	0.326	-0.214
-596.025	52.078	-0.175	-0.167
-595.011	-71.140	0.200	-0.075
-593.996	800.000	0.023	-0.096
-592.982	-120.105	-0.307	-0.053
-591.967	-164.993	0.154	0.007
-590.952	-68.871	-0.426	0.165
-589.938	2.429	0.121	0.088
-588.923	-17.634	-0.167	0.105
-587.909	-121.289	0.170	0.028
-586.894	105.950	-0.077	-0.091
-585.879	93.004	0.107	0.121
-584.865	23.538	0.189	-0.156
-583.850	291.499	-0.096	-0.174
-582.836	-137.539	0.079	-0.009
-581.821	-106.552	0.297	0.066
-580.806	-80.298	0.101	-0.034
-579.792	152.527	-0.110	0.151
-578.777	-6.344	0.102	-0.070
-577.763	-200.000	0.008	0.256
-576.748	-154.607	-0.410	-0.027
-575.733	-200.000	-0.013	-0.301
-574.719	126.879	-0.166	0.211
-573.704	-200.000	0.001	0.085
-572.690	-117.116	0.371	-0.068
-571.675	-18.547	0.277	-0.173
-570.661	-34.972	-0.103	0.056
-569.646	-84.578	-0.291	0.092
-568.631	-200.000	-0.042	0.548
-567.617	336.328	0.041	-0.079
-566.602	-97.904	-0.505	-0.130
-565.588	-0.549	0.070	-0.049
-564.573	-82.084	0.111	-0.036
-563.558	800.000	0.073	0.293
-562.544	-88.866	0.311	0.092
-561.529	354.331	-0.072	-0.143
-560.515	-151.534	0.145	0.011
-559.500	332.224	0.053	0.103
-558.485	443.247	0.054	-0.119
-557.471	-99.492	-0.133	0.033
-556.456	399.225	-0.016	0.034
-555.442	199.597	0.118	0.181
-554.427	-115.640	-0.156	-0.029
-553.412	-57.004	-0.058	-0.026
-552.398	-200.000	-0.001	0.053
-551.383	438.326	-0.065	0.143
-550.369	-119.185	-0.148	0.026
-549.354	-101.930	-0.437	-0.106
-548.339	25.099	0.292	0.242
-547.325	-6.837	-0.399	0.271
-546.310	43.100	0.108	0.098
-545.296	10.139	0.187	0.142
-544.281	-93.117	0.131	0.037
-543.266	-145.499	-0.296	0.027
-542.252	-51.236	0.084	0.039
-541.237	719.791	0.071	0.189
-540.223	501.234	-0.084	0.194
-539.208	-45.394	-0.208	0.103
-538.193	10.410	0.116	0.089
-537.179	800.000	0.091	-0.387
-536.164	-68.389	0.266	0.103
-535.150	-200.000	-0.023	-0.332
-534.135	323.076	0.210	0.401
-533.121	-200.000	0.022	0.313
-532.106	800.000	-0.064	0.214
-531.091	-83.947	0.096	0.031
-530.077	73.552	0.123	0.128
-529.062	-146.941	0.194	0.017
-528.048	-200.000	0.020	-0.108
-527.033	-9.213	-0.212	0.142
-526.018	-23.494	-0.169	0.102
-525.004	-200.000	-0.021	-0.234
-523.989	117.048	-0.065	-0.080
-522.975	-89.285	-0.162	0.048
-521.960	476.693	-0.100	-0.226
-520.945	-28.597	0.059	-0.034
-519.931	-200.000	0.027	-0.303
-518.916	-89.505	0.080	-0.023
-517.902	-85.399	0.247	-0.077
-516.887	-53.703	-0.243	-0.111
-515.872	40.230	-0.288	0.259
-514.858	-117.367	-0.221	0.040
-513.843	263.984	0.034	0.059
-512.829	-161.647	-0.144	0.007
-511.814	-25.327	0.089	-0.053
-510.799	216.662	0.224	0.356
-509.785	-13.755	-0.057	-0.037
-508.770	-200.000	0.047	-0.228
-507.756	-200.000	-0.042	-0.212
-506.741	157.858	-0.109	0.151
-505.726	-27.027	0.221	-0.129
-504.712	-101.409	0.342	-0.083
-503.697	-193.312	-0.231	0.002
-502.683	312.062	0.073	-0.137
-501.668	3.696	-0.281	0.204
-500.653	-8.665	0.227	0.152
-499.639	-55.702	0.317	-0.142
-498.624	-5.768	0.118	-0.081
-497.610	-48.400	-0.177	0.085
-496.595	114.045	-0.074	-0.089
-495.581	211.236	0.090	0.141
-494.566	-200.000	-0.010	-0.249
-493.551	-123.924	-0.210	-0.033
-492.537	-200.000	0.024	0.501
-491.522	184.931	0.115	0.170
-490.508	800.000	0.105	0.349
-489.493	-200.000	0.423	-0.001
-488.478	-106.088	-0.487	-0.109
-487.464	-200.000	-0.017	-0.155
-486.449	64.793	0.157	-0.158
-485.435	-59.996	0.197	0.084
-484.420	677.169	-0.028	-0.072
-483.405	-185.649	-0.270	-0.004
-482.391	-128.956	0.562	0.079
-481.376	800.000	0.069	-0.208
-480.362	-200.000	-0.012	0.202
-479.347	-150.478	0.057	0.004
-478.332	12.809	0.291	0.224
-477.318	-44.517	-0.280	0.139
-476.303	166.477	0.243	-0.344
-475.289	-88.423	-0.282	-0.084
-474.274	-200.000	-0.019	0.121
-473.259	428.455	0.159	-0.343
-472.245	-145.931	0.207	0.018
-471.230	88.160	0.305	-0.337
-470.216	-134.630	0.156	-0.019
-469.201	-57.002	-0.184	-0.081
-468.186	92.795	-0.094	0.106
-467.172	6.365	-0.107	-0.079
-466.157	-200.000	0.075	0.373
-465.143	102.878	-0.081	0.094
-464.128	-13.718	0.081	0.052
-463.113	354.293	-0.065	-0.128
-462.099	-150.865	-0.154	0.012
-461.084	237.297	0.075	0.123
-460.070	-180.750	0.062	0.001
-459.055	123.964	0.141	-0.177
-458.040	96.747	0.187	-0.213
-457.026	-92.869	-0.178	0.049
-456.011	-51.166	0.317	-0.148
-454.997	-171.494	-0.235	-0.008
-453.982	-24.495	-0.199	-0.118
-452.968	-29.815	0.179	-0.102
-451.953	15.469	0.225	0.176
-450.938	383.283	-0.034	-0.069
-449.924	-93.455	0.068	0.019
-448.909	-12.479	-0.037	-0.024
-447.895	123.715	0.177	-0.221
-446.880	-200.000	0.050	-0.297
-445.865	-200.000	0.090	-0.465
-444.851	103.775	-0.158	0.185
-443.836	-168.984	0.249	-0.009
-442.822	-200.000	-0.007	0.236
-441.807	-200.000	0.017	0.142
-440.792	800.000	-0.060	-0.180
-439.778	-200.000	-0.011	-0.115
-438.763	800.000	0.075	-0.295
-437.749	800.000	0.070	-0.212
-436.734	8.894	-0.252	-0.189
-435.719	-5.135	-0.126	-0.086
-434.705	87.157	-0.249	0.274
-433.690	225.937	0.118	0.191
-432.676	75.363	-0.124	-0.130
-431.661	208.178	-0.094	0.146
-430.646	405.432	0.114	-0.239
-429.632	-35.414	0.175	-0.095
-428.617	-101.476	0.275	-0.067
-427.603	-200.000	-0.014	-0.408
-426.588	-135.234	0.264	0.032
-425.573	-200.000	0.021	-0.164
-424.559	-120.104	-0.216	0.037
-423.544	75.950	0.244	0.257
-422.530	-71.567	-0.377	-0.140
-421.515	-49.468	-0.230	0.109
-420.500	172.962	0.280	-0.401
-419.486	-149.263	-0.098	0.008
-418.471	-36.055	-0.049	0.026
-417.457	800.000	-0.045	-0.169
-416.442	288.726	0.099	-0.179
-415.428	-47.995	-0.153	0.074
-414.413	82.831	-0.212	0.229
-413.398	52.055	0.286	0.271
-412.384	101.673	-0.002	0.002
-411.369	56.326	0.208	-0.201
-410.355	-200.000	-0.016	-0.241
-409.340	161.461	0.037	-0.052
-408.325	157.528	0.217	0.299
-407.311	800.000	0.048	0.168
-406.296	29.873	-0.104	0.088
-405.282	-137.337	-0.490	0.055
-404.267	-200.000	0.023	0.138
-403.252	-200.000	0.020	-0.097
-402.238	95.419	0.136	-0.154
-401.223	-147.108	-0.476	0.040
-400.209	-97.525	0.300	0.077
-399.194	-88.185	0.346	-0.103
-398.179	-109.423	-0.067	-0.014
-397.165	26.463	-0.175	-0.145
-396.150	-70.793	0.343	0.129
-395.136	-52.920	-0.096	-0.044
-394.121	137.214	0.066	0.086
-393.106	-70.904	0.247	0.092
-392.092	391.375	-0.120	0.248
-391.077	135.202	-0.101	-0.131
-390.063	800.000	-0.029	0.098
-389.048	-115.597	-0.073	0.014
-388.033	10.015	0.170	-0.129
-387.019	14.435	-0.138	-0.107
-386.004	113.209	0.184	0.222
-384.990	-4.666	-0.250	-0.172
-383.975	-200.000	-0.023	-0.320
-382.960	-200.000	0.008	0.163
-381.946	-200.000	0.082	0.418
-380.931	-200.000	0.036	0.177
-379.917	467.913	0.153	-0.340
-378.902	449.365	-0.051	-0.111
-377.888	17.674	0.179	-0.142
-376.873	94.729	-0.253	0.285
-375.858	-72.453	-0.056	0.021
-374.844	-200.000	-0.008	-0.284
-373.829	-13.858	0.159	-0.102
-372.815	75.991	0.147	-0.154
-371.800	22.542	0.120	0.097
-370.785	200.743	0.083	-0.127
-369.771	-200.000	-0.017	0.155
-368.756	133.585	0.234	0.300
-367.742	-73.160	0.497	0.181
-366.727	49.385	0.128	0.120
-365.712	-118.274	-0.220	0.039
-364.698	-200.000	-0.051	0.338
-363.683	-9.993	0.216	-0.142
-362.669	115.883	0.237	-0.288
-361.654	-43.153	-0.245	-0.123
-360.639	530.883	-0.057	-0.134
-359.625	235.366	-0.128	-0.209
-358.610	800.000	0.111	-0.320
-357.596	-128.396	0.262	-0.037
-356.581	258.151	-0.041	-0.071
-355.566	-62.929	0.170	-0.070
-354.552	112.931	0.190	0.229
-353.537	28.496	-0.051	0.043
-352.523	-130.488	-0.228	-0.031
-351.508	-117.145	0.256	-0.046
-350.493	800.000	-0.090	0.258
-349.479	9.683	0.215	-0.162
-348.464	-200.000	0.026	-0.137
-347.450	-152.134	-0.085	-0.006
-346.435	225.282	-0.166	-0.267
-345.420	-200.000	0.021	0.114
-344.406	-119.348	-0.264	0.046
-343.391	-69.301	0.215	-0.082
-342.377	255.824	-0.090	0.153
-341.362	-190.341	0.333	-0.004
-340.348	-49.259	0.140	-0.066
-339.333	-200.000	0.053	0.437
-338.318	-101.804	0.070	-0.017
-337.304	-87.641	0.557	0.167
-336.289	-60.301	-0.139	-0.059
-335.275	705.332	-0.013	-0.033
-334.260	-200.000	-0.042	0.199
-333.245	800.000	0.052	-0.173
-332.231	-158.562	0.038	0.002
-331.216	76.079	-0.066	-0.069
-330.202	-43.073	-0.021	0.011
-329.187	70.152	-0.119	-0.122
-328.172	-131.688	-0.198	-0.026
-327.158	128.555	0.160	0.202
-326.143	-97.887	-0.236	0.060
-325.129	-98.319	-0.321	0.082
-324.114	-115.486	-0.048	0.009
-323.099	612.166	-0.093	-0.230
-322.085	-200.000	0.078	-0.400
-321.070	-57.329	-0.086	0.037
-320.056	-133.917	-0.288	-0.035
-319.041	-200.000	0.027	-0.133
-318.026	-125.928	-0.007	0.001
-317.012	603.364	0.120	0.297
-315.997	-79.754	0.138	0.046
-314.983	153.036	-0.100	-0.136
-313.968	-160.606	-0.013	0.001
-312.953	-200.000	-0.036	0.212
-311.939	-70.595	-0.321	-0.120
-310.924	-47.190	0.266	-0.128
-309.910	163.833	0.043	-0.060
-308.895	-18.072	0.121	0.075
-307.880	41.638	-0.155	0.139
-306.866	-200.000	-0.014	0.071
-305.851	238.009	0.052	-0.085
-304.837	-135.984	0.157	0.018
-303.822	-200.000	-0.022	-0.414
-302.807	387.410	0.145	0.297
-301.793	-200.000	0.039	0.252
-300.778	800.000	-0.096	0.294
-299.764	-55.514	-0.082	-0.036
-298.749	5.386	-0.137	0.100
-297.735	-200.000	0.012	-0.075
-296.720	-151.390	-0.224	-0.017
-295.705	182.401	0.309	0.450
-294.691	-200.000	-0.007	0.091
-293.676	205.681	0.178	-0.274
-292.662	-106.130	-0.368	-0.082
-291.647	-157.051	-0.107	-0.006
-290.632	93.247	0.041	-0.046
-289.618	-200.000	0.007	0.103
-288.603	-33.680	0.042	0.023
-287.589	56.207	0.230	0.221
-286.574	-200.000	0.036	0.245
-285.559	133.942	-0.172	-0.220
-284.545	-91.961	-0.121	0.034
-283.530	217.432	0.250	0.395
-282.516	-155.012	-0.278	0.018
-281.501	-200.000	0.048	0.297
-280.486	-9.680	-0.160	-0.105
-279.472	793.756	0.044	-0.120
-278.457	159.546	-0.244	-0.336
-277.443	-200.000	0.029	-0.194
-276.428	-41.142	-0.113	-0.058
-275.413	-81.466	0.198	0.064
-274.399	-200.000	-0.018	0.249
-273.384	-41.699	-0.063	-0.032
-272.370	33.250	0.157	-0.134
-271.355	-54.313	0.143	-0.064
-270.340	717.680	-0.129	0.339
-269.326	-200.000	-0.014	-0.077
-268.311	29.492	-0.093	-0.079
-267.297	-200.000	0.007	-0.047
-266.282	357.364	-0.196	-0.387
-265.267	-81.975	0.196	0.063
-264.253	800.000	0.029	-0.113
-263.238	124.749	0.144	-0.179
-262.224	-123.876	0.288	-0.045
-261.209	-92.567	-0.103	-0.029
-260.195	-18.253	-0.091	-0.056
-259.180	-43.548	-0.154	-0.077
-258.165	-200.000	0.010	0.244
-257.151	-96.505	-0.259	0.068
-256.136	800.000	0.029	-0.092
-255.122	-9.289	0.370	-0.244
-254.107	323.506	-0.264	0.498
-253.092	567.903	-0.090	0.217
-252.078	-152.691	0.376	-0.026
-251.063	-34.191	-0.218	-0.118
-250.049	-200.000	0.025	0.366
-249.034	-106.275	-0.256	0.057
-248.019	800.000	0.077	0.293
-247.005	322.213	-0.110	-0.207
-245.990	-127.078	-0.237	0.034
-244.976	-65.876	-0.108	0.043
-243.961	-200.000	-0.073	-0.385
-242.946	-7.077	-0.167	-0.112
-241.932	-27.834	-0.184	0.105
-240.917	-3.404	0.120	-0.083
-239.903	-200.000	0.012	0.267
-238.888	-200.000	-0.082	-0.412
-237.873	-128.827	-0.128	0.018
-236.859	-200.000	0.063	0.281
-235.844	-200.000	-0.032	0.187
-234.830	-200.000	0.059	-0.323
-233.815	-116.339	-0.127	-0.023
-232.800	-52.287	0.483	-0.221
-231.786	-200.000	-0.028	0.268
-230.771	46.371	0.253	-0.232
-229.757	103.972	0.079	-0.091
-228.742	67.750	0.176	0.178
-227.727	800.000	0.016	-0.065
-226.713	-95.018	0.445	0.119
-225.698	41.999	-0.127	-0.114
-224.684	-173.887	0.211	0.006
-223.669	800.000	0.054	0.231
-222.655	-154.785	-0.203	-0.013
-221.640	-69.972	-0.292	0.110
-220.625	127.769	0.149	0.186
-219.611	-81.724	-0.295	-0.096
-218.596	139.378	0.118	0.153
-217.582	800.000	-0.151	-0.524
-216.567	-80.373	-0.130	-0.043
-215.552	-153.122	-0.091	0.006
-214.538	373.557	-0.080	0.160
-213.523	219.826	-0.099	0.157
-212.509	-37.169	0.088	-0.047
-211.494	-80.199	0.102	-0.034
-210.479	797.827	0.053	-0.143
-209.465	800.000	0.020	0.063
-208.450	-87.601	-0.113	0.034
-207.436	19.866	0.110	0.088
-206.421	243.939	-0.098	-0.162
-205.406	113.664	0.124	0.149
-204.392	-200.000	-0.015	0.287
-203.377	-10.598	-0.454	0.296
-202.363	800.000	0.055	0.154
-201.348	92.049	0.113	0.126
-200.333	800.000	-0.094	0.278
-199.319	800.000	-0.054	-0.185
-198.304	591.713	-0.034	-0.084
-197.290	-143.125	0.144	-0.014
-196.275	800.000	-0.050	-0.177
-195.260	-130.937	-0.160	-0.021
-194.246	-108.672	-0.339	0.072
-193.231	-200.000	0.011	0.074
-192.217	107.576	-0.144	0.169
-191.202	-111.901	-0.370	-0.074
-190.187	184.889	0.053	-0.077
-189.173	130.526	0.230	0.291
-188.158	-82.079	-0.221	0.071
-187.144	-149.307	-0.203	-0.016
-186.129	23.236	-0.218	-0.176
-185.114	-75.562	0.045	0.016
-184.100	-200.000	0.071	-0.332
-183.085	-25.120	-0.282	0.165
-182.071	-31.856	0.137	0.075
-181.056	800.000	0.072	0.238
-180.042	-61.731	-0.132	0.055
-179.027	-28.251	-0.151	-0.086
-178.012	170.954	-0.111	0.157
-176.998	291.670	-0.119	-0.213
-175.983	207.807	-0.073	0.113
-174.969	96.121	-0.074	-0.083
-173.954	-200.000	0.029	-0.367
-172.939	53.435	0.120	0.113
-171.925	37.430	0.192	-0.168
-170.910	-114.657	0.159	-0.030
-169.896	360.873	-0.039	-0.078
-168.881	350.713	0.101	-0.197
-167.866	-40.501	-0.135	0.069
-166.852	800.000	-0.088	-0.337
-165.837	800.000	-0.086	0.323
-164.823	479.741	0.069	-0.155
-163.808	571.158	0.034	-0.082
-162.793	-97.162	-0.071	0.018
-161.779	-79.130	-0.107	0.036
-160.764	800.000	0.073	-0.306
-159.750	-200.000	-0.009	-0.135
-158.735	-38.607	0.175	-0.091
-157.720	-80.712	-0.139	-0.045
-156.706	5.117	0.263	-0.191
-155.691	97.464	-0.266	0.300
-154.677	63.449	0.165	0.163
-153.662	102.499	-0.146	0.169
-152.647	-143.205	-0.204	-0.019
-151.633	3.596	-0.246	-0.177
-150.618	-140.955	0.257	-0.026
-149.604	-20.577	0.143	-0.086
-148.589	335.812	-0.026	-0.049
-147.574	-29.983	-0.202	-0.113
-146.560	-99.299	-0.297	0.074
-145.545	-125.829	-0.146	0.022
-144.531	-40.153	-0.054	-0.028
-143.516	-2.301	-0.342	-0.236
-142.502	-7.836	-0.086	-0.057
-141.487	505.151	0.030	-0.069
-140.472	-200.000	-0.061	0.525
-139.458	562.348	-0.092	-0.219
-138.443	-57.848	0.112	0.048
-137.429	-33.964	-0.313	-0.169
-136.414	-194.853	0.090	0.001
-135.399	-14.446	0.076	0.048
-134.385	-160.613	0.089	0.005
-133.370	-4.316	0.075	0.051
-132.356	-111.980	0.166	-0.033
-131.341	213.732	-0.162	-0.253
-130.326	800.000	-0.019	-0.067
-129.312	800.000	0.031	-0.113
-128.297	-144.011	0.235	-0.022
-127.283	800.000	-0.080	-0.217
-126.268	56.608	0.048	-0.046
-125.253	-29.095	0.388	-0.219
-124.239	121.499	0.097	-0.119
-123.224	-90.950	-0.132	0.037
