DTS Sentinel unit serial number:	SN413079Multiplexer serial number:	ORYXHardware model number:	OX4-SRSoftware version number:	ORYX F/W v4.00 Oryx Data Collector v3.7.2.0data status	okinstallation	princeton_trtdifferential loss correction	single-endedforward channel	channel 3reverse channel	N/Adate	2019/09/16time	21:04:34forward acquisition time	60.00reverse acquisition time	0.00gamma	496.2192k internal	0.2324k external	0.2324temperature offset calibration	0.9937default loss term (dB/km)	0.3790temperature slope calibration	1.0000multiplexer offset coefficient	1.0000multiplexer slope coefficient	1.0000fibre end	0.00T internal ref (°C)	31.94T ext. ref 1 (°C)	0.05T ext. ref 2 (°C)	25.38length (m)	temperature (°C)	Stokes	anti-Stokes-747.200	-163.204	-0.263	-0.013
-746.185	-56.084	0.266	-0.120
-745.171	190.581	0.110	-0.166
-744.156	-200.000	-0.027	0.355
-743.142	-97.428	0.124	-0.033
-742.127	-20.187	-0.181	0.113
-741.112	-200.000	0.017	0.213
-740.098	800.000	0.064	0.205
-739.083	-200.000	0.000	0.281
-738.069	-200.000	0.002	0.293
-737.054	2.938	-0.404	0.296
-736.039	468.046	-0.066	0.150
-735.025	122.733	0.071	-0.090
-734.010	522.829	-0.073	-0.172
-732.996	71.205	0.091	-0.095
-731.981	-200.000	0.015	-0.089
-730.966	-200.000	-0.044	-0.416
-729.952	800.000	0.079	0.333
-728.937	-56.941	-0.078	-0.035
-727.923	22.124	0.139	0.115
-726.908	-36.317	0.104	0.057
-725.894	800.000	-0.049	0.208
-724.879	-89.595	0.257	-0.076
-723.864	-148.712	0.102	-0.008
-722.850	466.405	-0.065	-0.148
-721.835	-7.739	0.137	-0.093
-720.821	646.923	0.075	-0.194
-719.806	-78.457	0.337	-0.116
-718.791	-10.534	-0.283	-0.189
-717.777	-129.318	-0.096	0.013
-716.762	-40.971	0.365	-0.190
-715.748	-71.979	0.187	-0.070
-714.733	11.976	0.221	0.171
-713.718	-3.965	0.150	-0.105
-712.704	509.005	-0.239	0.560
-711.689	-200.000	0.004	0.036
-710.675	337.264	-0.068	-0.133
-709.660	-200.000	0.007	0.381
-708.645	-83.200	-0.336	-0.109
-707.631	-69.119	0.186	-0.072
-706.616	-82.404	-0.179	0.059
-705.602	-61.640	-0.451	0.191
-704.587	62.778	-0.029	-0.030
-703.572	800.000	0.057	-0.218
-702.558	-16.545	0.221	-0.141
-701.543	-8.587	0.156	0.106
-700.529	-76.484	0.185	0.065
-699.514	30.943	0.152	0.131
-698.499	-36.008	-0.121	0.066
-697.485	-146.675	-0.381	-0.033
-696.470	-93.787	-0.299	0.083
-695.456	800.000	-0.021	0.062
-694.441	-10.087	0.171	0.114
-693.426	91.688	-0.059	0.067
-692.412	252.710	0.159	-0.274
-691.397	132.952	0.135	-0.175
-690.383	-55.379	-0.217	0.098
-689.368	122.248	0.126	0.159
-688.354	293.878	0.073	-0.135
-687.339	-91.564	0.129	-0.037
-686.324	90.492	-0.191	0.215
-685.310	-63.911	0.300	0.123
-684.295	3.474	-0.331	0.243
-683.281	-65.045	0.239	0.097
-682.266	-117.984	-0.198	0.036
-681.251	-200.000	0.043	0.376
-680.237	800.000	0.048	0.184
-679.222	146.295	-0.187	0.252
-678.208	190.889	-0.073	-0.111
-677.193	57.508	0.064	0.063
-676.178	-8.198	-0.271	-0.184
-675.164	149.451	0.100	0.137
-674.149	800.000	0.047	-0.174
-673.135	-75.282	-0.342	0.123
-672.120	-112.843	0.137	-0.027
-671.105	800.000	0.012	-0.036
-670.091	-31.586	-0.099	-0.056
-669.076	642.348	-0.093	-0.238
-668.062	78.778	0.193	-0.207
-667.047	-200.000	0.033	-0.302
-666.032	145.375	-0.064	0.086
-665.018	-42.820	-0.291	-0.149
-664.003	-36.275	0.227	-0.123
-662.989	-167.165	-0.211	-0.009
-661.974	587.778	0.194	0.480
-660.959	93.282	-0.235	-0.267
-659.945	290.781	0.227	-0.414
-658.930	-56.063	-0.264	-0.119
-657.916	15.887	0.093	-0.074
-656.901	-80.563	-0.131	0.044
-655.886	-32.502	-0.121	-0.068
-654.872	-138.683	-0.047	0.005
-653.857	68.158	0.216	-0.223
-652.843	-128.747	-0.082	-0.012
-651.828	3.069	-0.337	-0.246
-650.814	800.000	-0.061	0.242
-649.799	-200.000	-0.005	0.257
-648.784	-200.000	0.000	0.034
-647.770	-119.146	0.129	-0.023
-646.755	-200.000	-0.047	0.209
-645.741	-131.232	0.229	-0.031
-644.726	-200.000	-0.013	-0.367
-643.711	-82.082	0.213	0.070
-642.697	124.083	-0.113	-0.143
-641.682	-40.661	0.218	-0.114
-640.668	-35.831	-0.159	0.086
-639.653	3.661	0.126	-0.092
-638.638	284.167	-0.063	0.114
-637.624	-110.790	0.188	-0.039
-636.609	133.745	-0.145	-0.188
-635.595	-111.246	0.196	-0.040
-634.580	88.807	-0.147	0.164
-633.565	106.672	-0.121	-0.144
-632.551	129.213	0.190	-0.244
-631.536	800.000	-0.103	-0.376
-630.522	533.456	-0.101	-0.240
-629.507	544.599	0.119	-0.285
-628.492	-0.118	-0.060	0.043
-627.478	15.235	-0.275	-0.217
-626.463	306.055	0.081	0.151
-625.449	-129.931	0.329	0.045
-624.434	-73.586	-0.360	-0.132
-623.419	118.585	0.114	-0.142
-622.405	397.869	-0.091	0.191
-621.390	20.828	0.367	-0.299
-620.376	-112.772	0.195	0.039
-619.361	-46.367	0.168	-0.083
-618.346	-144.523	0.050	-0.005
-617.332	-83.938	-0.109	-0.035
-616.317	-200.000	-0.074	0.460
-615.303	800.000	0.052	0.193
-614.288	39.861	0.233	-0.210
-613.273	359.443	-0.119	0.239
-612.259	-151.008	0.219	0.017
-611.244	-200.000	-0.006	-0.246
-610.230	-36.903	0.322	-0.174
-609.215	-152.649	-0.101	-0.007
-608.201	-92.173	-0.170	0.048
-607.186	78.419	0.095	0.102
-606.171	155.323	-0.157	-0.217
-605.157	458.276	0.086	-0.191
-604.142	-144.693	0.313	-0.029
-603.128	-200.000	-0.006	0.310
-602.113	157.672	-0.110	-0.152
-601.098	38.740	0.381	0.341
-600.084	450.542	-0.092	0.203
-599.069	39.072	-0.113	0.101
-598.055	3.467	-0.137	-0.100
-597.040	800.000	0.046	0.150
-596.025	-139.843	0.078	-0.008
-595.011	32.486	-0.212	0.184
-593.996	-116.079	-0.266	0.050
-592.982	612.493	0.076	-0.190
-591.967	-200.000	-0.044	-0.256
-590.952	111.863	-0.108	-0.130
-589.938	290.369	0.015	-0.027
-588.923	114.187	0.110	-0.134
-587.909	-0.583	0.144	0.103
-586.894	-200.000	0.002	0.113
-585.879	-66.285	-0.193	-0.077
-584.865	-200.000	0.009	-0.122
-583.850	-200.000	0.014	-0.066
-582.836	95.573	-0.302	-0.346
-581.821	-52.424	0.065	0.030
-580.806	71.145	0.288	-0.300
-579.792	-14.297	0.090	0.058
-578.777	-89.523	0.320	-0.094
-577.763	349.344	-0.160	-0.316
-576.748	278.505	-0.087	0.155
-575.733	-148.586	-0.092	0.008
-574.719	361.184	-0.086	0.174
-573.704	-200.000	-0.018	-0.100
-572.690	161.830	-0.128	-0.180
-571.675	168.768	0.147	-0.210
-570.661	-200.000	-0.012	0.181
-569.646	43.274	0.224	-0.205
-568.631	-200.000	-0.005	-0.229
-567.617	140.762	-0.078	0.103
-566.602	52.782	0.197	0.189
-565.588	115.514	-0.082	-0.100
-564.573	800.000	0.036	0.155
-563.558	480.799	-0.036	-0.082
-562.544	-200.000	0.032	0.181
-561.529	-200.000	-0.047	0.303
-560.515	-78.202	-0.151	0.052
-559.500	800.000	0.046	0.151
-558.485	800.000	0.080	0.311
-557.471	664.964	-0.106	-0.275
-556.456	-41.223	-0.150	0.077
-555.442	-121.148	0.314	-0.053
-554.427	156.538	0.300	0.415
-553.412	298.149	-0.066	0.121
-552.398	285.820	-0.089	-0.160
-551.383	134.027	-0.071	-0.092
-550.369	7.624	-0.112	-0.084
-549.354	84.516	-0.258	-0.283
-548.339	-200.000	0.010	-0.235
-547.325	-43.067	-0.213	-0.108
-546.310	63.520	-0.224	-0.225
-545.296	-200.000	-0.048	-0.299
-544.281	-82.551	0.178	-0.058
-543.266	48.047	-0.220	-0.206
-542.252	800.000	0.094	-0.311
-541.237	272.860	-0.194	0.344
-540.223	140.423	0.132	0.175
-539.208	-200.000	-0.030	0.131
-538.193	-100.475	-0.119	0.030
-537.179	-73.123	0.316	-0.116
-536.164	78.976	-0.123	-0.132
-535.150	169.121	-0.047	-0.067
-534.135	49.211	-0.262	-0.247
-533.121	131.907	-0.183	-0.235
-532.106	-33.827	-0.213	0.117
-531.091	30.679	-0.118	0.101
-530.077	-15.038	-0.091	0.058
-529.062	42.487	-0.303	-0.275
-528.048	-200.000	0.026	0.409
-527.033	800.000	-0.067	0.198
-526.018	39.229	-0.199	-0.178
-525.004	-200.000	-0.008	-0.036
-523.989	-54.405	0.052	0.024
-522.975	34.044	-0.205	0.178
-521.960	55.898	0.058	0.056
-520.945	-200.000	-0.020	0.125
-519.931	109.493	-0.048	-0.057
-518.916	-148.696	0.151	0.012
-517.902	550.003	-0.094	0.226
-516.887	-54.142	0.153	0.070
-515.872	140.108	0.213	0.282
-514.858	-200.000	-0.016	-0.079
-513.843	-37.708	0.151	0.081
-512.829	-200.000	-0.011	0.132
-511.814	628.811	-0.107	-0.269
-510.799	-16.985	0.229	-0.145
-509.785	-93.133	0.274	-0.076
-508.770	19.083	-0.226	0.181
-507.756	137.148	-0.119	-0.156
-506.741	-200.000	0.017	-0.076
-505.726	-12.585	-0.249	-0.163
-504.712	-200.000	0.038	0.274
-503.697	-143.989	-0.035	-0.003
-502.683	-109.968	-0.176	-0.037
-501.668	-200.000	-0.044	-0.208
-500.653	800.000	0.107	0.430
-499.639	800.000	0.057	0.233
-498.624	98.294	0.182	0.209
-497.610	-167.400	-0.251	-0.010
-496.595	-182.735	-0.443	-0.008
-495.581	-200.000	0.008	0.094
-494.566	-133.036	-0.209	0.027
-493.551	697.137	-0.107	0.282
-492.537	93.899	0.184	-0.209
-491.522	358.176	-0.113	0.226
-490.508	800.000	0.015	-0.055
-489.493	-84.614	0.206	0.065
-488.478	50.261	-0.188	0.177
-487.464	130.673	0.081	-0.104
-486.449	322.115	0.117	-0.222
-485.435	-101.270	0.080	-0.020
-484.420	-200.000	-0.047	-0.417
-483.405	57.360	0.142	0.139
-482.391	135.617	-0.161	0.209
-481.376	47.469	0.019	-0.017
-480.362	800.000	-0.086	-0.259
-479.347	800.000	-0.128	0.372
-478.332	-150.921	0.143	0.011
-477.318	-66.701	0.145	-0.058
-476.303	140.346	0.044	0.058
-475.289	-178.340	-0.324	-0.008
-474.274	416.616	0.150	0.320
-473.259	-113.059	-0.198	-0.039
-472.245	726.238	0.055	-0.147
-471.230	-142.323	-0.239	-0.024
-470.216	-200.000	0.061	-0.512
-469.201	381.293	0.083	0.170
-468.186	-63.448	-0.144	-0.059
-467.172	150.141	0.010	-0.013
-466.157	37.550	0.378	-0.334
-465.143	-187.149	0.108	-0.001
-464.128	-157.092	0.078	0.005
-463.113	-200.000	-0.025	0.350
-462.099	59.457	-0.239	0.235
-461.084	393.289	0.088	-0.182
-460.070	222.705	0.152	-0.244
-459.055	101.926	0.232	-0.270
-458.040	79.619	-0.129	-0.139
-457.026	-200.000	0.025	0.254
-456.011	-63.231	-0.212	0.087
-454.997	-62.080	-0.158	0.066
-453.982	-97.510	0.234	-0.061
-452.968	68.088	-0.068	0.069
-451.953	-99.617	0.106	0.027
-450.938	102.897	-0.116	0.136
-449.924	-53.564	0.206	0.094
-448.909	782.812	0.007	-0.020
-447.895	-200.000	-0.004	-0.288
-446.880	352.185	-0.113	0.223
-445.865	800.000	0.032	0.097
-444.851	99.865	0.201	-0.233
-443.836	55.057	0.246	0.237
-442.822	-200.000	-0.001	-0.100
-441.807	-14.417	-0.191	0.123
-440.792	106.863	-0.212	-0.250
-439.778	102.657	0.107	0.125
-438.763	110.282	0.073	-0.087
-437.749	447.667	-0.025	0.055
-436.734	19.139	-0.163	-0.130
-435.719	-92.206	0.199	0.056
-434.705	-125.032	-0.283	-0.043
-433.690	-200.000	0.047	-0.259
-432.676	-109.730	0.195	0.041
-431.661	516.355	-0.167	0.389
-430.646	101.898	0.053	0.062
-429.632	403.230	0.099	0.207
-428.617	101.607	-0.305	0.355
-427.603	-84.796	0.068	0.021
-426.588	19.439	-0.139	-0.111
-425.573	117.077	-0.226	-0.277
-424.559	211.038	0.143	-0.225
-423.544	-200.000	-0.000	-0.347
-422.530	107.734	-0.230	-0.273
-421.515	-110.175	0.100	-0.021
-420.500	170.001	-0.182	0.259
-419.486	800.000	0.097	-0.365
-418.471	-12.589	-0.048	-0.031
-417.457	470.380	0.118	0.265
-416.442	-133.786	-0.323	-0.040
-415.428	-137.936	0.547	-0.061
-414.413	705.353	-0.184	-0.484
-413.398	-200.000	0.052	-0.241
-412.384	800.000	0.034	0.141
-411.369	-78.692	-0.089	-0.030
-410.355	800.000	0.037	0.125
-409.340	-200.000	-0.060	0.360
-408.325	-163.788	0.296	0.014
-407.311	-200.000	0.000	0.133
-406.296	-200.000	0.022	-0.321
-405.282	632.509	-0.082	-0.207
-404.267	-200.000	0.010	0.227
-403.252	113.186	0.159	-0.192
-402.238	103.999	0.081	-0.095
-401.223	-200.000	-0.013	0.142
-400.209	-200.000	0.011	0.326
-399.194	-200.000	-0.016	-0.184
-398.179	230.608	0.018	-0.029
-397.165	-31.175	-0.410	0.230
-396.150	-200.000	0.059	-0.424
-395.136	664.735	0.088	-0.226
-394.121	181.126	0.061	-0.089
-393.106	164.190	0.062	-0.087
-392.092	-136.716	0.318	0.036
-391.077	-96.914	0.238	0.062
-390.063	-200.000	0.016	-0.192
-389.048	478.108	0.090	-0.202
-388.033	462.342	0.088	-0.195
-387.019	-22.360	-0.200	-0.121
-386.004	11.822	-0.039	0.030
-384.990	197.282	-0.145	-0.221
-383.975	206.823	0.185	0.286
-382.960	-200.000	-0.019	-0.299
-381.946	800.000	0.012	-0.046
-380.931	-200.000	0.001	-0.033
-379.917	800.000	-0.104	-0.315
-378.902	-200.000	0.003	0.240
-377.888	740.755	0.054	0.144
-376.873	316.115	0.141	-0.265
-375.858	321.338	-0.183	-0.347
-374.844	800.000	-0.122	0.426
-373.829	-200.000	0.079	-0.375
-372.815	-121.825	-0.207	-0.034
-371.800	800.000	-0.046	-0.189
-370.785	-27.122	0.187	-0.108
-369.771	689.407	-0.128	0.334
-368.756	-9.164	-0.042	0.028
-367.742	800.000	-0.031	0.093
-366.727	-200.000	0.006	-0.264
-365.712	439.639	0.055	0.119
-364.698	257.308	-0.043	0.074
-363.683	-200.000	0.039	-0.198
-362.669	-200.000	0.030	-0.270
-361.654	-37.942	0.186	-0.098
-360.639	44.189	0.209	-0.191
-359.625	232.475	-0.073	-0.118
-358.610	440.465	-0.094	0.205
-357.596	181.487	-0.169	0.248
-356.581	-115.023	0.173	0.033
-355.566	800.000	-0.021	-0.067
-354.552	-200.000	-0.013	-0.140
-353.537	-38.855	-0.166	-0.087
-352.523	800.000	-0.074	0.231
-351.508	800.000	-0.058	-0.245
-350.493	-200.000	-0.039	0.390
-349.479	-23.020	-0.174	-0.104
-348.464	167.035	-0.108	0.152
-347.450	800.000	0.027	-0.083
-346.435	-122.673	0.225	0.036
-345.420	432.810	0.131	-0.282
-344.406	458.124	0.051	-0.113
-343.391	-90.663	-0.274	0.079
-342.377	163.876	-0.070	0.098
-341.362	-118.400	0.141	-0.025
-340.348	-118.472	-0.133	0.023
-339.333	-200.000	-0.018	0.163
-338.318	-200.000	0.042	0.344
-337.304	-20.869	-0.297	-0.181
-336.289	18.207	-0.101	-0.080
-335.275	-39.086	-0.317	-0.165
-334.260	-90.636	0.130	0.037
-333.245	-93.445	0.033	0.009
-332.231	800.000	-0.068	0.254
-331.216	-58.029	-0.157	0.068
-330.202	-200.000	0.012	-0.061
-329.187	-127.874	0.203	0.029
-328.172	636.862	-0.037	0.093
-327.158	181.889	0.152	0.222
-326.143	-200.000	-0.016	-0.290
-325.129	2.614	-0.084	-0.061
-324.114	56.728	0.262	0.253
-323.099	-200.000	-0.022	0.120
-322.085	24.273	-0.089	0.073
-321.070	665.018	-0.092	-0.236
-320.056	128.144	0.303	-0.382
-319.041	1.084	-0.092	0.065
-318.026	-137.164	-0.072	0.008
-317.012	800.000	0.034	-0.117
-315.997	520.764	0.076	0.177
-314.983	276.503	0.098	0.174
-313.968	28.653	-0.087	0.073
-312.953	-156.502	-0.211	-0.013
-311.939	9.057	0.140	0.105
-310.924	286.975	-0.089	-0.159
-309.910	569.844	-0.038	0.091
-308.895	-33.925	0.368	0.201
-307.880	-124.072	-0.152	0.024
-306.866	-200.000	0.002	-0.192
-305.851	-200.000	-0.034	-0.427
-304.837	-4.580	-0.181	0.124
-303.822	-200.000	-0.025	-0.154
-302.807	249.538	0.132	0.221
-301.793	-25.180	0.194	-0.114
-300.778	-115.988	0.165	0.031
-299.764	310.204	0.069	0.129
-298.749	800.000	0.060	0.228
-297.735	-28.655	-0.279	-0.159
-296.720	-80.891	-0.175	-0.058
-295.705	63.780	-0.246	0.245
-294.691	654.120	0.113	0.288
-293.676	800.000	0.098	0.293
-292.662	3.284	0.163	-0.118
-291.647	-88.910	-0.075	-0.022
-290.632	-200.000	-0.020	0.127
-289.618	-140.084	-0.277	0.029
-288.603	23.442	0.035	-0.029
-287.589	150.327	0.056	-0.076
-286.574	303.447	-0.078	0.143
-285.559	267.322	0.148	-0.256
-284.545	-58.526	-0.182	0.078
-283.530	-200.000	-0.014	0.205
-282.516	800.000	0.035	0.125
-281.501	-7.546	-0.125	0.084
-280.486	377.778	-0.093	0.188
-279.472	-180.177	0.290	0.006
-278.457	800.000	0.039	0.163
-277.443	-200.000	-0.011	-0.127
-276.428	167.476	0.208	-0.293
-275.413	-170.585	-0.070	-0.002
-274.399	-99.297	-0.180	-0.045
-273.384	-110.111	-0.314	0.065
-272.370	131.012	0.201	0.256
-271.355	800.000	-0.113	0.411
-270.340	-36.252	-0.145	-0.078
-269.326	38.831	-0.197	0.174
-268.311	-132.863	-0.188	-0.024
-267.297	-104.074	0.298	-0.069
-266.282	-146.672	-0.504	-0.043
-265.267	287.942	0.092	-0.165
-264.253	-125.550	0.136	0.020
-263.238	110.284	-0.132	-0.157
-262.224	54.265	-0.078	-0.074
-261.209	-200.000	-0.029	-0.306
-260.195	8.138	0.104	-0.077
-259.180	217.589	-0.190	0.299
-258.165	-35.146	0.104	-0.056
-257.151	387.429	-0.051	-0.105
-256.136	82.292	0.057	-0.061
-255.122	-18.527	-0.173	-0.107
-254.107	276.185	0.134	0.235
-253.092	206.103	0.062	0.095
-252.078	800.000	0.055	-0.191
-251.063	140.549	-0.065	0.085
-250.049	10.668	-0.184	-0.139
-249.034	-111.640	-0.252	0.051
-248.019	10.739	0.151	0.114
-247.005	-200.000	-0.014	-0.301
-245.990	-126.047	0.251	0.037
-244.976	-83.040	0.336	0.107
-243.961	52.439	0.119	0.113
-242.946	283.455	-0.037	0.065
-241.932	14.714	-0.081	-0.063
-240.917	-163.178	-0.240	-0.011
-239.903	146.599	0.199	-0.264
-238.888	800.000	-0.064	0.253
-237.873	113.919	-0.081	0.097
-236.859	78.511	-0.088	0.093
-235.844	11.005	0.132	-0.100
-234.830	800.000	0.113	0.456
-233.815	33.772	0.143	-0.123
-232.800	-200.000	-0.042	0.253
-231.786	-2.457	0.043	0.030
-230.771	-200.000	-0.041	0.286
-229.757	800.000	0.060	-0.217
-228.742	-82.785	0.195	-0.062
-227.727	536.198	-0.038	0.089
-226.713	-200.000	0.078	0.404
-225.698	564.152	0.079	-0.188
-224.684	142.690	0.221	-0.291
-223.669	-50.830	-0.168	0.078
-222.655	177.932	0.226	0.326
-221.640	46.340	-0.093	-0.086
-220.625	-173.711	0.217	-0.006
-219.611	-21.933	0.197	-0.118
-218.596	-116.946	-0.182	-0.033
-217.582	44.846	-0.172	0.156
-216.567	53.889	0.489	-0.464
-215.552	261.521	-0.150	-0.258
-214.538	712.111	-0.081	0.211
-213.523	44.619	0.164	-0.149
-212.509	258.352	-0.184	0.313
-211.494	800.000	-0.024	0.088
-210.479	139.914	0.080	-0.105
-209.465	8.653	-0.208	-0.155
-208.450	800.000	0.117	-0.437
-207.436	-97.890	-0.192	0.049
-206.421	-114.463	-0.463	-0.088
-205.406	590.261	0.013	-0.033
-204.392	800.000	-0.020	0.076
-203.377	565.810	-0.134	0.322
-202.363	679.103	-0.082	-0.210
-201.348	-100.277	-0.336	0.082
-200.333	-200.000	0.040	0.274
-199.319	-51.238	-0.193	0.089
-198.304	800.000	0.053	0.157
-197.290	800.000	-0.131	0.465
-196.275	-200.000	-0.048	0.287
-195.260	720.701	-0.144	-0.377
-194.246	-30.603	0.188	-0.105
-193.231	-0.008	0.256	0.180
-192.217	555.065	-0.078	-0.184
-191.202	-97.855	0.369	0.094
-190.187	555.420	0.203	0.482
-189.173	-200.000	0.009	-0.276
-188.158	-83.873	0.277	0.087
-187.144	-42.564	0.061	0.031
-186.129	-168.343	0.120	0.005
-185.114	278.964	0.077	-0.135
-184.100	800.000	-0.077	0.317
-183.085	800.000	-0.019	-0.070
-182.071	-200.000	0.016	0.482
-181.056	-200.000	0.016	0.304
-180.042	-35.097	0.280	-0.150
-179.027	215.797	0.276	0.433
-178.012	273.533	0.104	0.182
-176.998	764.665	-0.082	0.221
-175.983	16.778	0.078	0.061
-174.969	20.546	-0.290	0.232
-173.954	-114.483	0.271	-0.051
-172.939	337.074	0.121	0.232
-171.925	-72.248	0.183	-0.067
-170.910	-153.238	0.323	0.022
-169.896	-200.000	-0.069	-0.467
-168.881	-127.369	-0.147	-0.021
-167.866	199.110	0.207	-0.312
-166.852	142.010	0.225	0.294
-165.837	4.734	-0.080	0.058
-164.823	26.148	-0.054	-0.045
-163.808	186.963	-0.161	-0.237
-162.793	-109.978	-0.047	-0.010
-161.779	77.432	-0.071	0.075
-160.764	-79.391	0.164	0.055
-159.750	-113.668	-0.145	0.028
-158.735	138.799	-0.128	0.166
-157.720	335.074	0.206	0.394
-156.706	-83.789	0.093	0.029
-155.691	-200.000	0.016	-0.239
-154.677	144.098	-0.065	0.085
-153.662	-200.000	0.043	0.245
-152.647	-100.661	0.289	-0.070
-151.633	89.912	-0.168	0.185
-150.618	-29.698	0.162	-0.091
-149.604	31.813	0.163	0.138
-148.589	-181.506	0.147	0.003
-147.574	82.133	0.131	0.140
-146.560	800.000	-0.094	0.288
-145.545	-113.923	-0.158	0.030
-144.531	170.791	0.188	0.266
-143.516	-4.827	0.295	0.201
-142.502	-125.226	0.180	-0.027
-141.487	800.000	0.159	-0.456
-140.472	-190.056	0.147	-0.002
-139.458	54.817	0.079	-0.075
-138.443	282.860	-0.103	0.181
-137.429	-130.726	0.344	-0.046
-136.414	-171.252	-0.089	-0.003
-135.399	-170.095	-0.204	-0.007
-134.385	173.336	-0.110	0.156
-133.370	-88.815	-0.109	0.032
-132.356	-15.397	0.048	0.030
-131.341	154.224	0.158	0.213
-130.326	-200.000	-0.031	-0.323
-129.312	-54.821	0.103	-0.046
-128.297	-121.709	0.330	0.054
-127.283	-200.000	-0.019	-0.321
-126.268	-56.774	-0.216	-0.094
-125.253	-94.714	-0.139	-0.037
-124.239	598.372	-0.069	-0.170
-123.224	-21.785	0.344	-0.206
-122.210	4.313	-0.179	-0.129
-121.195	-29.768	0.115	0.064
