DTS Sentinel unit serial number:	SN413079Multiplexer serial number:	ORYXHardware model number:	OX4-SRSoftware version number:	ORYX F/W v4.00 Oryx Data Collector v3.7.2.0data status	okinstallation	princeton_trtdifferential loss correction	single-endedforward channel	channel 3reverse channel	N/Adate	2019/09/16time	17:44:35forward acquisition time	60.00reverse acquisition time	0.00gamma	496.2192k internal	0.2298k external	0.2298temperature offset calibration	0.9947default loss term (dB/km)	0.3790temperature slope calibration	1.0000multiplexer offset coefficient	1.0000multiplexer slope coefficient	1.0000fibre end	0.00T internal ref (°C)	38.06T ext. ref 1 (°C)	15.57T ext. ref 2 (°C)	32.08length (m)	temperature (°C)	Stokes	anti-Stokes-747.200	-99.175	0.286	-0.074
-746.185	120.412	0.148	-0.187
-745.171	395.623	0.114	-0.244
-744.156	70.778	-0.149	0.158
-743.142	-162.944	0.280	0.014
-742.127	138.569	-0.104	0.139
-741.112	-0.777	0.195	0.141
-740.098	499.351	0.061	0.143
-739.083	-165.919	-0.276	0.012
-738.069	800.000	0.054	0.213
-737.054	502.278	-0.092	-0.216
-736.039	-77.161	-0.256	0.091
-735.025	185.980	0.148	-0.224
-734.010	-9.414	0.197	-0.134
-732.996	-24.083	-0.132	-0.081
-731.981	-200.000	-0.017	0.311
-730.966	-97.924	-0.269	-0.071
-729.952	201.204	0.048	-0.076
-728.937	-138.319	-0.332	0.037
-727.923	-132.338	-0.402	-0.053
-726.908	800.000	0.096	-0.287
-725.894	800.000	-0.004	0.016
-724.879	-34.805	0.133	0.074
-723.864	41.710	-0.272	0.252
-722.850	-200.000	0.076	-0.406
-721.835	800.000	0.067	-0.210
-720.821	-70.550	0.128	0.049
-719.806	422.536	-0.069	-0.151
-718.791	241.168	-0.170	-0.290
-717.777	170.011	-0.100	-0.146
-716.762	-200.000	0.013	-0.110
-715.748	800.000	-0.048	-0.143
-714.733	-123.299	-0.120	-0.020
-713.718	-200.000	0.014	-0.087
-712.704	-24.101	0.098	0.059
-711.689	469.225	-0.081	-0.185
-710.675	-135.061	0.289	-0.036
-709.660	160.237	0.140	-0.200
-708.645	-79.088	0.224	0.078
-707.631	-123.976	-0.295	0.047
-706.616	79.175	-0.090	-0.098
-705.602	210.583	0.056	-0.090
-704.587	-45.196	0.350	0.177
-703.572	-200.000	-0.009	-0.209
-702.558	216.344	0.194	-0.315
-701.543	133.078	-0.178	-0.234
-700.529	800.000	-0.085	-0.241
-699.514	-51.229	0.234	-0.112
-698.499	229.422	0.013	0.021
-697.485	-70.683	-0.245	-0.094
-696.470	-200.000	0.031	-0.350
-695.456	71.640	0.146	-0.155
-694.441	800.000	0.096	-0.278
-693.426	-27.184	0.128	0.076
-692.412	70.410	-0.195	-0.205
-691.397	78.858	0.039	-0.043
-690.383	80.690	-0.104	-0.114
-689.368	629.717	-0.035	-0.089
-688.354	800.000	0.062	-0.181
-687.339	-152.537	-0.300	0.022
-686.324	260.184	0.116	-0.205
-685.310	420.703	-0.160	0.349
-684.295	20.395	0.178	-0.146
-683.281	-43.831	-0.249	0.128
-682.266	-104.937	0.322	0.075
-681.251	-22.409	0.235	0.145
-680.237	304.856	0.102	-0.193
-679.222	-16.591	0.180	0.116
-678.208	-155.444	0.215	0.014
-677.193	-68.265	-0.306	0.121
-676.178	-127.871	0.092	-0.013
-675.164	-125.180	-0.292	-0.046
-674.149	-134.195	-0.045	-0.006
-673.135	9.360	0.268	0.206
-672.120	10.431	0.158	0.123
-671.105	-54.020	-0.189	0.088
-670.091	187.261	0.099	0.151
-669.076	103.741	-0.322	-0.385
-668.062	-9.095	-0.255	-0.173
-667.047	247.177	0.203	-0.349
-666.032	-96.801	-0.093	0.025
-665.018	641.460	0.052	-0.136
-664.003	2.435	-0.200	0.148
-662.989	-34.327	0.177	0.099
-661.974	-137.660	-0.096	0.011
-660.959	57.578	-0.067	-0.067
-659.945	-60.040	-0.342	0.149
-658.930	20.599	-0.361	0.297
-657.916	111.510	0.157	-0.193
-656.901	28.347	-0.178	-0.153
-655.886	345.099	0.068	0.136
-654.872	25.358	-0.254	-0.215
-653.857	-145.747	0.212	-0.019
-652.843	195.060	-0.270	0.417
-651.828	-200.000	-0.008	0.295
-650.814	58.105	-0.288	0.287
-649.799	-200.000	0.013	0.090
-648.784	45.483	0.077	0.072
-647.770	-200.000	0.009	0.140
-646.755	-200.000	-0.008	-0.058
-645.741	478.389	-0.172	-0.395
-644.726	236.235	0.200	-0.336
-643.711	-200.000	0.006	0.325
-642.697	-200.000	0.011	0.343
-641.682	-79.275	0.298	0.103
-640.668	616.173	0.080	-0.204
-639.653	556.204	-0.080	-0.196
-638.638	800.000	0.043	0.170
-637.624	126.280	-0.195	-0.251
-636.609	-200.000	-0.000	0.245
-635.595	122.236	-0.130	0.165
-634.580	800.000	0.010	-0.037
-633.565	-10.799	0.130	0.087
-632.551	16.816	-0.381	-0.306
-631.536	12.763	0.116	0.091
-630.522	-33.309	0.093	0.053
-629.507	-83.469	0.078	-0.025
-628.492	800.000	0.064	-0.233
-627.478	-63.160	-0.318	-0.133
-626.463	-137.748	0.153	-0.017
-625.449	25.794	-0.297	-0.252
-624.434	-91.149	0.147	0.043
-623.419	800.000	-0.013	-0.048
-622.405	-88.969	0.111	-0.033
-621.390	612.128	0.150	-0.382
-620.376	65.110	-0.046	0.047
-619.361	-200.000	-0.055	-0.276
-618.346	-125.565	-0.136	0.021
-617.332	-145.707	-0.058	-0.005
-616.317	-58.176	0.083	-0.037
-615.303	562.361	0.061	-0.149
-614.288	800.000	-0.056	-0.233
-613.273	84.545	-0.093	-0.103
-612.259	276.527	-0.090	0.163
-611.244	-200.000	0.062	0.352
-610.230	148.036	0.178	0.244
-609.215	512.189	-0.093	0.220
-608.201	-95.272	0.279	-0.076
-607.186	-200.000	0.022	-0.161
-606.171	800.000	0.061	0.177
-605.157	443.609	0.098	-0.218
-604.142	503.759	0.086	0.201
-603.128	800.000	-0.113	0.319
-602.113	708.981	0.057	-0.154
-601.098	-200.000	0.032	-0.169
-600.084	-146.980	0.102	-0.009
-599.069	-106.235	0.338	0.077
-598.055	129.254	-0.131	-0.169
-597.040	141.598	-0.067	0.090
-596.025	331.358	-0.096	-0.187
-595.011	56.814	-0.300	-0.296
-593.996	388.491	0.089	0.188
-592.982	-200.000	-0.007	-0.070
-591.967	116.361	-0.109	-0.136
-590.952	38.747	0.127	-0.115
-589.938	190.987	-0.022	-0.034
-588.923	214.086	-0.150	0.241
-587.909	199.819	-0.185	0.288
-586.894	-200.000	-0.026	0.346
-585.879	-200.000	0.001	-0.023
-584.865	800.000	-0.052	0.199
-583.850	-126.182	0.182	-0.028
-582.836	-159.481	0.332	0.019
-581.821	-93.967	-0.187	-0.052
-580.806	-105.128	0.169	0.039
-579.792	800.000	0.049	0.146
-578.777	-27.998	0.262	-0.154
-577.763	-200.000	0.027	0.000
-576.748	1.983	-0.221	-0.161
-575.733	-200.000	0.032	0.268
-574.719	-57.853	0.097	-0.043
-573.704	-57.343	-0.066	0.030
-572.690	79.994	0.058	-0.064
-571.675	-6.726	-0.265	-0.183
-570.661	-200.000	-0.050	0.263
-569.646	304.107	-0.268	0.503
-568.631	-76.695	0.145	-0.052
-567.617	56.057	-0.135	-0.132
-566.602	467.086	-0.022	-0.050
-565.588	595.393	-0.083	0.209
-564.573	-53.306	-0.128	-0.059
-563.558	-6.091	0.154	0.107
-562.544	2.829	-0.181	-0.133
-561.529	-48.453	-0.232	0.113
-560.515	800.000	-0.052	0.221
-559.500	-34.775	0.183	0.101
-558.485	456.584	0.043	0.098
-557.471	41.435	0.190	-0.174
-556.456	-123.942	-0.269	0.043
-555.442	130.513	0.200	0.260
-554.427	-114.252	-0.257	0.050
-553.412	42.502	0.130	0.120
-552.398	34.418	-0.188	0.166
-551.383	407.422	-0.205	0.438
-550.369	-200.000	-0.061	0.392
-549.354	-27.781	0.359	0.211
-548.339	-170.899	-0.224	0.008
-547.325	-42.377	0.021	0.011
-546.310	-138.443	0.127	-0.014
-545.296	-34.985	-0.026	0.014
-544.281	-164.507	0.288	0.013
-543.266	314.656	-0.044	0.083
-542.252	-120.568	-0.051	0.009
-541.237	-8.445	0.266	-0.181
-540.223	-137.197	-0.225	-0.026
-539.208	217.950	0.155	-0.251
-538.193	-200.000	0.029	0.159
-537.179	398.962	-0.119	0.253
-536.164	3.309	-0.122	-0.090
-535.150	111.551	0.236	-0.289
-534.135	47.812	-0.028	-0.026
-533.121	458.496	-0.031	-0.071
-532.106	646.811	0.030	-0.078
-531.091	37.651	-0.367	-0.330
-530.077	177.982	0.044	0.065
-529.062	-135.220	-0.341	0.041
-528.048	-131.025	-0.101	0.014
-527.033	430.084	0.139	0.305
-526.018	-22.444	0.096	0.059
-525.004	112.238	0.099	-0.121
-523.989	800.000	0.048	0.173
-522.975	229.029	-0.216	-0.357
-521.960	-177.987	0.138	0.003
-520.945	-32.666	-0.285	-0.161
-519.931	415.367	-0.092	0.197
-518.916	24.933	0.071	-0.060
-517.902	-200.000	-0.004	0.080
-516.887	-200.000	0.001	0.059
-515.872	555.914	0.079	0.192
-514.858	475.052	0.141	-0.321
-513.843	160.273	0.165	0.233
-512.829	2.316	0.059	0.044
-511.814	517.591	0.105	-0.247
-510.799	78.711	0.097	-0.105
-509.785	785.252	-0.058	-0.160
-508.770	304.054	-0.183	0.344
-507.756	-137.192	0.230	0.026
-506.741	-200.000	-0.012	-0.413
-505.726	136.756	0.165	-0.218
-504.712	-31.242	-0.106	0.060
-503.697	-200.000	-0.010	0.134
-502.683	-200.000	0.052	-0.286
-501.668	-92.697	-0.188	-0.053
-500.653	-130.793	-0.276	0.037
-499.639	-172.633	-0.092	-0.003
-498.624	112.471	0.123	-0.150
-497.610	-29.257	-0.352	-0.204
-496.595	-21.916	0.120	0.074
-495.581	-122.256	-0.259	0.043
-494.566	800.000	0.091	0.282
-493.551	-103.735	-0.091	0.021
-492.537	9.600	-0.213	-0.163
-491.522	-131.539	0.285	0.038
-490.508	-143.230	-0.046	0.005
-489.493	-135.151	-0.175	-0.021
-488.478	-200.000	0.038	-0.311
-487.464	-66.018	0.174	0.070
-486.449	120.269	0.167	-0.210
-485.435	-200.000	0.021	-0.188
-484.420	-200.000	0.009	0.118
-483.405	-100.308	0.419	-0.105
-482.391	94.467	-0.140	0.160
-481.376	-72.497	0.384	-0.143
-480.362	-200.000	-0.033	0.153
-479.347	152.282	-0.138	0.191
-478.332	269.638	0.125	-0.222
-477.318	-26.243	0.327	0.194
-476.303	-37.856	0.328	0.176
-475.289	339.557	-0.035	0.069
-474.274	335.540	0.070	0.137
-473.259	-20.451	-0.374	0.232
-472.245	-42.367	0.129	0.066
-471.230	486.665	-0.062	0.143
-470.216	30.379	-0.119	0.103
-469.201	-81.858	0.130	0.043
-468.186	654.295	0.124	-0.321
-467.172	-200.000	0.046	-0.262
-466.157	119.963	-0.107	0.134
-465.143	246.738	-0.058	0.098
-464.128	-175.236	0.329	-0.009
-463.113	-200.000	0.011	0.134
-462.099	560.034	-0.163	0.397
-461.084	-200.000	0.052	-0.254
-460.070	637.688	-0.045	0.116
-459.055	126.622	0.223	-0.285
-458.040	343.596	-0.143	-0.282
-457.026	-45.646	0.057	0.029
-456.011	487.958	-0.153	0.353
-454.997	-51.922	-0.153	0.072
-453.982	538.770	-0.082	0.197
-452.968	-79.826	-0.319	0.108
-451.953	245.569	-0.075	-0.128
-450.938	-73.925	-0.216	0.079
-449.924	-45.969	-0.293	-0.146
-448.909	-44.069	-0.184	0.093
-447.895	-135.315	0.317	-0.038
-446.880	-200.000	0.103	0.000
-445.865	-200.000	-0.027	0.179
-444.851	76.592	0.132	0.141
-443.836	42.088	-0.257	-0.236
-442.822	-200.000	0.030	-0.324
-441.807	199.121	-0.290	0.448
-440.792	-89.157	-0.145	0.043
-439.778	-149.358	-0.215	0.017
-438.763	-144.118	-0.015	-0.001
-437.749	800.000	-0.084	-0.308
-436.734	389.880	-0.209	-0.436
-435.719	-155.769	-0.227	-0.015
-434.705	-30.149	-0.148	0.085
-433.690	273.369	-0.302	-0.538
-432.676	800.000	-0.034	0.142
-431.661	-200.000	-0.006	0.206
-430.646	-181.429	0.258	0.005
-429.632	-58.201	0.157	0.069
-428.617	124.320	-0.113	-0.143
-427.603	-97.286	0.067	0.018
-426.588	160.728	0.059	0.084
-425.573	212.219	-0.211	-0.335
-424.559	355.962	0.084	-0.170
-423.544	-80.507	-0.121	-0.041
-422.530	-200.000	-0.011	-0.073
-421.515	800.000	0.042	0.145
-420.500	-61.403	0.183	-0.077
-419.486	-130.327	0.294	0.040
-418.471	335.168	-0.074	0.145
-417.457	-182.560	-0.319	-0.006
-416.442	800.000	0.059	-0.210
-415.428	317.204	-0.053	0.102
-414.413	202.140	-0.247	-0.384
-413.398	-200.000	0.274	0.000
-412.384	67.841	0.124	-0.128
-411.369	-146.903	-0.095	-0.008
-410.355	-101.331	-0.335	-0.082
-409.340	-34.696	0.100	-0.055
-408.325	800.000	-0.055	-0.207
-407.311	-82.263	-0.170	0.056
-406.296	-114.311	-0.055	0.011
-405.282	-58.055	0.122	0.053
-404.267	-102.817	-0.163	-0.039
-403.252	198.988	0.148	0.229
-402.238	433.407	0.102	0.222
-401.223	479.895	-0.121	0.277
-400.209	50.908	0.132	-0.126
-399.194	-39.097	0.127	0.067
-398.179	-65.168	0.062	-0.025
-397.165	59.673	0.106	0.105
-396.150	-6.887	0.088	0.060
-395.136	-200.000	-0.033	0.187
-394.121	-100.701	-0.028	0.007
-393.106	-200.000	-0.020	-0.109
-392.092	563.426	-0.053	-0.128
-391.077	199.637	-0.141	-0.218
-390.063	283.251	0.107	-0.194
-389.048	76.966	0.136	0.146
-388.033	-141.975	-0.090	-0.009
-387.019	401.010	-0.055	0.117
-386.004	639.636	0.099	0.254
-384.990	-138.745	0.194	-0.021
-383.975	-114.162	0.056	0.011
-382.960	34.083	0.182	0.159
-381.946	-48.663	0.088	0.043
-380.931	190.894	0.064	-0.096
-379.917	-161.107	0.134	-0.007
-378.902	14.496	-0.166	-0.130
-377.888	38.081	0.095	0.085
-376.873	-200.000	-0.030	-0.145
-375.858	59.977	-0.138	0.137
-374.844	162.645	-0.073	0.103
-373.829	-200.000	-0.063	0.390
-372.815	-103.427	0.305	0.072
-371.800	684.986	-0.036	0.095
-370.785	141.332	-0.125	0.166
-369.771	-42.838	-0.219	0.112
-368.756	-99.211	-0.272	0.069
-367.742	-32.253	-0.364	-0.204
-366.727	129.334	0.217	-0.279
-365.712	-60.549	-0.127	0.054
-364.698	162.393	-0.229	-0.323
-363.683	68.349	-0.250	0.257
-362.669	-85.533	-0.078	-0.024
-361.654	49.351	-0.075	-0.071
-360.639	161.661	-0.200	-0.282
-359.625	-166.088	0.165	-0.007
-358.610	221.430	0.102	0.165
-357.596	78.421	-0.182	-0.195
-356.581	-200.000	-0.067	0.000
-355.566	-68.146	-0.112	0.044
-354.552	-123.105	0.106	0.017
-353.537	-200.000	0.001	0.116
-352.523	224.154	0.173	-0.280
-351.508	75.608	-0.126	0.134
-350.493	95.490	0.213	-0.244
-349.479	-102.796	0.158	0.038
-348.464	42.349	0.333	-0.304
-347.450	-7.675	0.239	-0.162
-346.435	-200.000	0.025	-0.231
-345.420	-69.049	0.187	0.072
-344.406	-41.279	0.227	-0.118
-343.391	-47.977	-0.089	-0.043
-342.377	112.513	0.174	-0.212
-341.362	-77.581	-0.287	0.100
-340.348	-65.547	-0.303	0.122
-339.333	60.415	0.162	0.161
-338.318	89.063	0.319	0.357
-337.304	766.359	0.005	0.014
-336.289	141.966	0.060	-0.080
-335.275	22.209	-0.149	0.122
-334.260	363.824	0.119	-0.240
-333.245	-110.543	-0.150	0.031
-332.231	-200.000	0.023	-0.107
-331.216	-108.972	0.353	0.076
-330.202	800.000	-0.103	-0.297
-329.187	-200.000	0.002	-0.081
-328.172	-200.000	0.045	-0.274
-327.158	99.232	0.183	0.212
-326.143	-55.896	-0.241	-0.108
-325.129	-113.001	0.328	-0.065
-324.114	110.504	0.129	-0.156
-323.099	69.679	0.082	0.085
-322.085	774.129	0.063	-0.173
-321.070	-59.388	0.274	-0.118
-320.056	339.476	-0.068	-0.133
-319.041	-24.886	0.283	0.169
-318.026	-142.768	-0.157	0.015
-317.012	172.690	-0.112	0.163
-315.997	170.290	0.107	-0.154
-314.983	32.408	-0.177	0.153
-313.968	-24.996	-0.058	0.034
-312.953	-200.000	-0.103	-0.526
-311.939	-25.435	0.175	-0.104
-310.924	-28.066	0.192	0.111
-309.910	245.221	0.171	-0.289
-308.895	-200.000	0.014	-0.228
-307.880	-147.687	-0.202	-0.017
-306.866	-78.316	-0.260	0.090
-305.851	204.770	0.061	0.096
-304.837	141.181	0.050	-0.066
-303.822	-109.282	0.133	-0.028
-302.807	13.197	0.247	-0.192
-301.793	-196.768	-0.239	-0.002
-300.778	119.877	-0.088	0.109
-299.764	800.000	-0.022	-0.067
-298.749	380.112	-0.164	0.338
-297.735	-11.615	-0.082	0.054
-296.720	800.000	0.062	0.228
-295.705	-75.384	-0.108	0.039
-294.691	-85.491	-0.530	-0.165
-293.676	-200.000	-0.004	0.052
-292.662	-23.836	0.070	0.042
-291.647	800.000	0.018	0.050
-290.632	40.241	-0.194	-0.175
-289.618	-104.249	-0.204	-0.047
-288.603	-164.552	0.236	0.011
-287.589	-143.359	0.336	0.032
-286.574	13.722	-0.223	0.174
-285.559	248.616	0.043	0.073
-284.545	-99.567	0.197	0.050
-283.530	185.218	-0.145	-0.215
-282.516	-88.591	-0.152	-0.046
-281.501	-200.000	-0.069	-0.337
-280.486	-146.376	0.035	-0.003
-279.472	-45.582	0.391	-0.194
-278.457	129.786	-0.089	0.114
-277.443	-23.502	-0.276	-0.166
-276.428	-33.557	0.347	0.192
-275.413	-200.000	-0.004	0.031
-274.399	362.052	-0.137	-0.275
-273.384	20.617	-0.326	0.264
-272.370	-13.734	-0.328	-0.213
-271.355	-105.588	-0.190	-0.043
-270.340	-200.000	0.038	-0.223
-269.326	23.729	-0.139	0.115
-268.311	100.486	0.156	0.182
-267.297	232.739	-0.136	0.224
-266.282	800.000	0.067	0.271
-265.267	-12.551	-0.083	0.054
-264.253	-200.000	0.019	-0.181
-263.238	40.345	0.218	-0.196
-262.224	100.775	0.215	-0.251
-261.209	198.867	-0.022	-0.033
-260.195	-104.128	0.281	-0.066
-259.180	-0.272	0.251	0.179
-258.165	-200.000	-0.022	0.239
-257.151	38.238	-0.056	-0.050
-256.136	-200.000	0.049	0.256
-255.122	-174.243	0.083	0.002
-254.107	-131.925	0.106	-0.014
-253.092	-110.772	-0.091	-0.019
-252.078	-127.247	-0.166	0.024
-251.063	266.982	-0.027	-0.048
-250.049	-164.155	0.191	0.009
-249.034	-92.089	0.225	0.064
-248.019	-200.000	-0.008	0.304
-247.005	-9.328	-0.244	0.163
-245.990	175.101	-0.242	0.351
-244.976	-125.903	0.258	0.039
-243.961	56.043	-0.158	-0.153
-242.946	9.249	0.233	0.176
-241.932	519.850	-0.187	-0.440
-240.917	87.295	-0.138	-0.153
-239.903	-100.688	0.246	0.061
-238.888	800.000	-0.037	0.114
-237.873	48.434	-0.058	0.054
-236.859	87.255	-0.123	-0.136
-235.844	-83.779	-0.174	-0.056
-234.830	64.882	0.185	-0.187
-233.815	196.876	0.118	-0.179
-232.800	-168.203	-0.171	-0.007
-231.786	7.451	-0.185	0.139
-230.771	7.805	0.347	0.260
-229.757	69.655	-0.047	-0.048
-228.742	-40.693	-0.310	0.161
-227.727	-45.773	-0.113	-0.056
-226.713	23.187	-0.179	-0.147
-225.698	-12.082	-0.114	0.075
-224.684	-186.015	0.225	0.003
-223.669	800.000	-0.049	0.151
-222.655	-200.000	0.012	0.303
-221.640	800.000	-0.037	-0.147
-220.625	-92.345	0.278	0.078
-219.611	-200.000	-0.039	0.181
-218.596	-182.653	0.223	0.004
-217.582	800.000	0.054	-0.216
-216.567	-200.000	-0.017	0.111
-215.552	-29.649	0.191	0.109
-214.538	5.950	0.128	-0.095
-213.523	-60.884	-0.262	0.111
-212.509	-6.630	-0.304	0.207
-211.494	138.733	-0.092	-0.121
-210.479	-200.000	-0.011	-0.095
-209.465	-200.000	-0.013	0.198
-208.450	-72.467	0.391	0.144
-207.436	-21.480	0.083	-0.051
-206.421	160.117	0.156	0.217
-205.406	-136.353	0.267	-0.031
-204.392	328.604	-0.088	-0.170
-203.377	-200.000	-0.058	-0.294
-202.363	800.000	-0.071	-0.243
-201.348	185.833	0.176	-0.261
-200.333	-40.265	0.062	0.032
-199.319	267.887	0.105	-0.184
-198.304	800.000	-0.111	0.433
-197.290	198.922	0.063	-0.096
-196.275	-51.676	-0.325	0.151
-195.260	-200.000	0.018	0.270
-194.246	-200.000	0.016	-0.083
-193.231	-143.551	-0.213	-0.020
-192.217	76.319	-0.314	0.332
-191.202	-103.382	0.208	0.049
-190.187	43.768	0.202	0.185
-189.173	-200.000	0.046	-0.354
-188.158	-119.002	-0.147	-0.026
-187.144	-191.497	0.157	-0.002
-186.129	-200.000	-0.028	-0.265
-185.114	186.967	0.203	-0.302
-184.100	436.852	-0.141	0.307
-183.085	624.486	0.083	0.209
-182.071	-200.000	-0.009	-0.349
-181.056	-200.000	0.072	0.501
-180.042	-200.000	0.016	0.079
-179.027	800.000	0.136	-0.438
-178.012	800.000	-0.054	-0.221
-176.998	458.555	0.113	-0.250
-175.983	242.302	0.307	0.513
-174.969	6.335	0.075	-0.056
-173.954	-69.122	0.227	0.087
-172.939	-74.595	0.097	0.035
-171.925	134.818	0.096	0.125
-170.910	-42.053	0.249	0.127
-169.896	-141.654	-0.167	0.017
-168.881	-29.711	0.290	-0.165
-167.866	676.008	0.119	0.309
-166.852	48.226	-0.073	0.068
-165.837	661.973	0.130	-0.335
-164.823	433.668	0.044	0.094
-163.808	70.284	-0.101	0.105
-162.793	-100.660	0.165	0.041
-161.779	88.093	0.015	0.016
-160.764	87.523	0.133	-0.146
-159.750	-200.000	-0.022	0.141
-158.735	217.981	-0.053	0.084
-157.720	800.000	-0.021	0.087
-156.706	154.483	-0.055	-0.075
-155.691	-70.988	-0.260	0.098
-154.677	-91.206	-0.101	-0.029
-153.662	-200.000	0.012	-0.105
-152.647	-124.653	-0.220	-0.034
-151.633	-131.896	-0.180	-0.023
-150.618	174.116	0.110	-0.159
-149.604	303.841	-0.031	0.058
-148.589	-200.000	-0.010	-0.241
-147.574	50.409	0.206	-0.194
-146.560	-200.000	0.002	0.189
-145.545	181.528	0.233	0.341
-144.531	-144.610	0.073	0.007
-143.516	-36.439	0.099	-0.053
-142.502	-6.730	-0.397	0.269
-141.487	212.799	-0.105	-0.165
-140.472	-200.000	-0.044	0.246
-139.458	85.674	0.156	0.170
-138.443	-93.457	0.286	-0.079
-137.429	-186.494	0.327	0.005
-136.414	251.421	-0.047	0.080
-135.399	-100.249	-0.172	0.043
-134.385	-17.539	-0.209	-0.131
-133.370	22.993	0.313	-0.256
-132.356	-200.000	-0.047	-0.212
-131.341	43.164	0.233	0.212
-130.326	-116.856	0.147	0.027
-129.312	-99.325	0.335	-0.084
-128.297	225.178	0.167	-0.269
-127.283	562.837	0.208	0.501
-126.268	800.000	0.095	0.311
-125.253	800.000	-0.015	-0.058
-124.239	-130.479	0.085	0.011
-123.224	117.860	0.091	-0.111
-122.210	43.109	0.065	0.059
-121.195	-200.000	0.010	0.115
