DTS Sentinel unit serial number:	SN413079Multiplexer serial number:	ORYXHardware model number:	OX4-SRSoftware version number:	ORYX F/W v4.00 Oryx Data Collector v3.7.2.0data status	okinstallation	princeton_trtdifferential loss correction	single-endedforward channel	channel 3reverse channel	N/Adate	2019/09/15time	18:08:34forward acquisition time	60.00reverse acquisition time	0.00gamma	496.2192k internal	0.2285k external	0.2285temperature offset calibration	0.9928default loss term (dB/km)	0.3790temperature slope calibration	1.0000multiplexer offset coefficient	1.0000multiplexer slope coefficient	1.0000fibre end	0.00T internal ref (°C)	44.62T ext. ref 1 (°C)	6.53T ext. ref 2 (°C)	39.21length (m)	temperature (°C)	Stokes	anti-Stokes-747.200	-130.035	0.315	-0.044
-746.185	-148.110	0.092	-0.008
-745.171	800.000	0.028	-0.099
-744.156	800.000	0.072	0.288
-743.142	145.664	-0.059	0.082
-742.127	116.016	0.150	0.189
-741.112	103.881	-0.114	0.137
-740.098	-200.000	0.011	0.108
-739.083	-18.138	0.196	0.126
-738.069	35.217	-0.221	-0.199
-737.054	-32.158	0.159	-0.091
-736.039	-78.403	-0.538	-0.189
-735.025	-2.537	-0.122	0.087
-734.010	-172.235	-0.347	0.011
-732.996	221.666	-0.144	-0.238
-731.981	344.748	-0.121	0.244
-730.966	-6.690	-0.208	0.145
-729.952	-43.097	0.269	-0.140
-728.937	800.000	0.073	0.234
-727.923	-5.386	-0.232	0.163
-726.908	137.734	-0.287	-0.386
-725.894	310.245	0.134	0.257
-724.879	339.723	0.187	0.374
-723.864	375.968	0.269	0.563
-722.850	-63.963	-0.206	0.086
-721.835	-33.531	-0.084	-0.048
-720.821	800.000	-0.033	-0.125
-719.806	70.896	-0.082	0.087
-718.791	-67.043	-0.167	0.067
-717.777	73.011	-0.226	-0.242
-716.762	-84.558	-0.369	0.119
-715.748	73.492	-0.079	0.085
-714.733	-200.000	-0.003	-0.170
-713.718	-200.000	-0.014	-0.101
-712.704	800.000	-0.019	0.058
-711.689	97.842	0.117	0.138
-710.675	116.427	0.071	-0.090
-709.660	108.529	0.144	-0.176
-708.645	-74.982	0.143	-0.052
-707.631	-40.193	0.307	-0.164
-706.616	-37.681	-0.138	0.075
-705.602	-28.257	-0.184	-0.109
-704.587	-62.250	0.375	0.160
-703.572	-142.806	-0.184	-0.018
-702.558	267.509	0.131	-0.234
-701.543	-71.228	0.144	0.055
-700.529	-51.877	0.148	-0.071
-699.514	-153.242	0.251	0.018
-698.499	800.000	0.027	0.090
-697.485	-13.707	0.178	0.118
-696.470	-66.736	0.131	0.053
-695.456	61.608	-0.144	-0.147
-694.441	-1.953	-0.277	0.200
-693.426	-155.991	-0.020	-0.001
-692.412	-35.955	-0.050	-0.028
-691.397	-200.000	0.028	0.207
-690.383	-200.000	-0.113	0.000
-689.368	-167.904	-0.181	0.007
-688.354	512.006	0.203	0.485
-687.339	-165.681	-0.140	-0.006
-686.324	800.000	-0.079	0.287
-685.310	-200.000	0.003	-0.176
-684.295	-36.526	-0.117	-0.064
-683.281	321.837	0.120	-0.233
-682.266	13.002	0.284	-0.225
-681.251	-168.779	-0.422	0.016
-680.237	-200.000	-0.036	-0.226
-679.222	-200.000	-0.013	-0.148
-678.208	147.225	0.211	-0.291
-677.193	269.054	-0.079	0.142
-676.178	-159.540	0.297	0.017
-675.164	-200.000	0.026	0.257
-674.149	195.866	0.005	-0.008
-673.135	111.262	-0.183	-0.226
-672.120	-200.000	0.056	0.323
-671.105	-54.356	0.322	0.149
-670.091	68.693	0.243	-0.256
-669.076	-200.000	0.060	-0.496
-668.062	-84.312	-0.262	0.085
-667.047	152.045	-0.107	-0.150
-666.032	27.187	-0.097	-0.084
-665.018	155.167	0.210	-0.296
-664.003	-93.573	-0.018	0.005
-662.989	154.074	0.179	-0.251
-661.974	-99.191	0.046	-0.012
-660.959	-200.000	-0.012	-0.165
-659.945	484.971	-0.026	-0.062
-658.930	-200.000	0.035	-0.226
-657.916	-63.402	-0.249	0.105
-656.901	230.202	-0.066	0.110
-655.886	-52.103	0.199	0.095
-654.872	-95.928	-0.154	-0.042
-653.857	19.844	0.292	-0.240
-652.843	-200.000	0.029	0.228
-651.828	394.769	0.112	0.240
-650.814	-200.000	-0.006	0.083
-649.799	-111.232	0.082	0.017
-648.784	-104.603	-0.030	0.007
-647.770	79.245	0.259	-0.284
-646.755	-163.860	0.176	-0.008
-645.741	319.863	0.067	0.130
-644.726	357.704	0.183	0.374
-643.711	800.000	-0.070	-0.283
-642.697	-1.740	-0.291	-0.209
-641.682	-200.000	0.006	-0.187
-640.668	-200.000	-0.085	-0.383
-639.653	-136.529	-0.198	0.023
-638.638	-31.436	-0.106	-0.061
-637.624	10.820	-0.297	0.232
-636.609	148.186	0.038	-0.052
-635.595	182.667	-0.069	-0.104
-634.580	98.925	-0.242	0.286
-633.565	-57.584	0.043	-0.019
-632.551	-111.994	-0.310	0.064
-631.536	69.510	0.327	0.344
-630.522	-200.000	0.007	0.421
-629.507	800.000	-0.077	0.333
-628.492	101.984	-0.127	0.152
-627.478	-12.732	-0.155	-0.103
-626.463	20.190	-0.228	0.188
-625.449	62.206	0.111	0.113
-624.434	129.483	-0.067	-0.087
-623.419	255.366	-0.101	0.177
-622.405	-90.084	0.148	0.044
-621.390	-200.000	0.092	0.000
-620.376	617.567	0.056	0.144
-619.361	-27.512	-0.244	0.145
-618.346	6.948	-0.186	-0.141
-617.332	48.853	-0.106	0.101
-616.317	12.701	0.079	0.062
-615.303	-200.000	-0.038	0.194
-614.288	80.730	0.122	0.134
-613.273	31.562	0.224	-0.197
-612.259	209.056	0.130	-0.208
-611.244	800.000	0.052	-0.215
-610.230	-200.000	0.024	0.116
-609.215	800.000	-0.058	0.198
-608.201	-90.660	-0.170	-0.050
-607.186	489.119	-0.128	0.298
-606.171	-56.249	0.205	-0.093
-605.157	-46.679	-0.343	-0.172
-604.142	-39.757	-0.213	-0.114
-603.128	-6.066	-0.132	-0.092
-602.113	301.810	0.068	0.129
-601.098	224.169	0.073	-0.120
-600.084	-123.722	0.220	0.036
-599.069	72.181	-0.069	-0.074
-598.055	800.000	-0.058	-0.234
-597.040	-58.947	-0.262	-0.116
-596.025	800.000	-0.024	0.071
-595.011	64.121	-0.124	0.127
-593.996	-89.801	-0.395	0.118
-592.982	-73.814	0.197	-0.073
-591.967	235.315	0.103	-0.174
-590.952	28.271	-0.129	-0.112
-589.938	-63.361	0.349	-0.147
-588.923	103.257	-0.178	-0.213
-587.909	781.952	0.096	-0.267
-586.894	-200.000	0.090	-0.442
-585.879	78.143	0.104	0.113
-584.865	800.000	0.127	-0.359
-583.850	71.918	-0.112	-0.118
-582.836	108.435	0.132	0.161
-581.821	256.719	-0.098	-0.172
-580.806	800.000	0.097	0.306
-579.792	-200.000	-0.014	-0.233
-578.777	-134.824	-0.360	0.044
-577.763	389.863	-0.139	0.295
-576.748	800.000	0.044	-0.145
-575.733	-121.802	0.091	-0.015
-574.719	564.639	0.024	0.058
-573.704	-200.000	0.013	-0.066
-572.690	-70.939	0.315	-0.121
-571.675	14.234	0.178	-0.141
-570.661	15.982	-0.128	-0.103
-569.646	-82.947	0.082	-0.027
-568.631	38.307	-0.054	-0.049
-567.617	-200.000	-0.009	-0.135
-566.602	586.127	-0.115	-0.289
-565.588	102.286	0.295	-0.351
-564.573	-200.000	-0.003	0.311
-563.558	-200.000	-0.046	0.228
-562.544	800.000	0.015	-0.057
-561.529	257.849	-0.328	-0.575
-560.515	-200.000	0.010	0.279
-559.500	686.322	-0.040	-0.106
-558.485	-82.003	-0.100	0.033
-557.471	74.583	-0.234	0.251
-556.456	800.000	0.065	0.187
-555.442	-140.448	0.043	0.005
-554.427	-79.108	0.189	-0.065
-553.412	800.000	0.083	-0.349
-552.398	-7.360	0.097	0.067
-551.383	-75.022	-0.398	0.145
-550.369	-121.312	-0.102	-0.017
-549.354	50.447	-0.206	-0.198
-548.339	-106.190	-0.331	0.076
-547.325	41.030	0.235	0.216
-546.310	559.125	0.113	-0.278
-545.296	-15.674	0.217	0.141
-544.281	468.135	-0.110	0.251
-543.266	-200.000	0.053	0.597
-542.252	39.543	-0.147	0.134
-541.237	-112.821	-0.081	-0.016
-540.223	316.345	0.094	0.181
-539.208	-124.561	-0.456	0.072
-538.193	-82.711	0.289	-0.095
-537.179	-96.276	0.276	-0.074
-536.164	-200.000	-0.056	-0.586
-535.150	173.417	0.185	-0.271
-534.135	800.000	-0.032	-0.121
-533.121	94.119	0.163	0.189
-532.106	64.231	-0.134	-0.138
-531.091	-81.521	0.457	-0.153
-530.077	391.002	0.229	-0.483
-529.062	94.929	-0.123	-0.142
-528.048	-67.640	-0.235	-0.094
-527.033	-11.348	-0.122	0.082
-526.018	-27.287	0.231	0.137
-525.004	-65.443	-0.157	0.064
-523.989	-176.466	0.203	-0.005
-522.975	-200.000	-0.010	0.244
-521.960	-200.000	-0.015	-0.208
-520.945	-149.589	-0.190	0.015
-519.931	54.940	0.131	-0.128
-518.916	29.492	0.183	0.158
-517.902	572.166	-0.108	0.267
-516.887	18.313	0.185	0.150
-515.872	165.996	0.234	0.337
-514.858	135.987	0.137	-0.182
-513.843	800.000	-0.079	-0.295
-512.829	276.454	0.104	0.188
-511.814	-200.000	-0.006	-0.114
-510.799	800.000	-0.146	-0.416
-509.785	448.354	0.109	0.243
-508.770	740.555	-0.098	0.266
-507.756	-51.583	-0.224	0.106
-506.741	30.578	-0.252	-0.219
-505.726	-8.388	0.034	0.024
-504.712	-200.000	0.002	-0.082
-503.697	70.554	0.174	-0.183
-502.683	24.264	0.170	0.142
-501.668	252.042	-0.107	-0.185
-500.653	-144.238	0.116	0.011
-499.639	800.000	0.061	0.249
-498.624	-89.552	-0.526	-0.157
-497.610	-200.000	-0.001	0.024
-496.595	-113.660	0.179	0.036
-495.581	93.612	-0.099	-0.114
-494.566	391.781	-0.066	-0.140
-493.551	9.007	0.100	0.076
-492.537	43.608	-0.112	-0.104
-491.522	209.551	0.184	0.294
-490.508	60.323	-0.131	-0.132
-489.493	-81.416	-0.116	0.039
-488.478	-70.123	-0.208	-0.080
-487.464	-109.327	-0.019	-0.004
-486.449	-143.745	-0.211	0.020
-485.435	348.587	-0.194	0.389
-484.420	43.154	0.135	0.125
-483.405	5.979	-0.391	-0.294
-482.391	-200.000	-0.057	-0.275
-481.376	1.385	0.242	-0.177
-480.362	-111.552	-0.454	-0.094
-479.347	228.463	-0.021	-0.034
-478.332	-200.000	-0.028	-0.205
-477.318	-200.000	0.048	0.365
-476.303	-103.127	0.099	-0.024
-475.289	-63.924	-0.241	0.100
-474.274	-14.743	-0.059	-0.038
-473.259	103.418	-0.082	-0.097
-472.245	-55.394	0.254	0.116
-471.230	-200.000	0.008	0.135
-470.216	-126.877	-0.465	0.070
-469.201	800.000	0.034	0.098
-468.186	-165.704	0.108	0.005
-467.172	-98.628	-0.148	0.038
-466.157	91.291	-0.162	-0.185
-465.143	800.000	0.020	-0.085
-464.128	-101.582	-0.151	0.037
-463.113	69.653	-0.320	0.334
-462.099	74.575	0.140	-0.149
-461.084	5.009	-0.074	-0.055
-460.070	-4.454	-0.131	0.092
-459.055	-200.000	-0.029	-0.218
-458.040	288.487	0.007	0.014
-457.026	-200.000	0.017	0.174
-456.011	-79.706	-0.357	-0.122
-454.997	17.354	-0.063	0.051
-453.982	5.204	0.192	-0.144
-452.968	54.632	0.217	-0.212
-451.953	-200.000	0.059	-0.304
-450.938	-66.003	0.173	-0.070
-449.924	-47.009	0.153	-0.076
-448.909	505.340	-0.014	0.033
-447.895	-200.000	-0.005	0.132
-446.880	800.000	0.126	0.459
-445.865	-68.930	-0.365	0.143
-444.851	-2.315	-0.040	0.029
-443.836	800.000	-0.031	-0.119
-442.822	-14.789	0.103	0.067
-441.807	-142.975	-0.331	0.032
-440.792	132.766	0.091	-0.118
-439.778	67.439	-0.210	-0.217
-438.763	-200.000	0.023	-0.217
-437.749	782.133	-0.100	-0.277
-436.734	-39.634	0.173	-0.092
-435.719	241.809	0.067	0.113
-434.705	800.000	-0.064	0.183
-433.690	135.660	0.186	0.245
-432.676	-82.311	0.287	0.095
-431.661	-58.225	-0.135	0.060
-430.646	-24.272	-0.260	0.157
-429.632	797.036	0.105	0.295
-428.617	215.269	0.134	0.216
-427.603	-200.000	0.032	-0.430
-426.588	-13.884	-0.285	-0.187
-425.573	367.683	0.067	-0.138
-424.559	120.556	-0.126	-0.159
-423.544	800.000	0.085	0.264
-422.530	800.000	-0.042	0.169
-421.515	148.253	0.094	-0.129
-420.500	-200.000	-0.011	0.166
-419.486	-71.799	-0.130	0.049
-418.471	16.633	0.081	-0.065
-417.457	-97.720	0.285	-0.075
-416.442	292.609	-0.111	0.205
-415.428	-200.000	0.021	-0.258
-414.413	292.382	-0.101	0.186
-413.398	-84.336	0.383	-0.123
-412.384	319.480	-0.238	0.457
-411.369	800.000	-0.088	0.318
-410.355	-200.000	0.013	0.188
-409.340	64.859	0.255	0.261
-408.325	-200.000	0.021	-0.260
-407.311	-83.997	-0.266	0.086
-406.296	-117.231	0.337	0.062
-405.282	789.532	-0.056	-0.157
-404.267	183.039	-0.113	-0.169
-403.252	-14.318	-0.214	-0.140
-402.238	46.864	0.140	0.132
-401.223	-12.131	-0.294	0.195
-400.209	-77.820	-0.286	-0.100
-399.194	-62.454	-0.086	-0.036
-398.179	-137.873	0.407	-0.046
-397.165	93.602	0.148	0.170
-396.150	155.732	-0.038	0.053
-395.136	354.820	0.053	-0.106
-394.121	700.729	-0.020	-0.053
-393.106	-200.000	-0.040	-0.240
-392.092	-181.383	0.044	0.001
-391.077	800.000	-0.059	0.180
-390.063	-40.326	0.248	0.130
-389.048	45.295	-0.116	-0.109
-388.033	-200.000	-0.060	0.317
-387.019	-200.000	0.015	0.110
-386.004	-200.000	0.013	0.125
-384.990	365.926	-0.033	-0.068
-383.975	588.698	0.061	0.151
-382.960	145.978	-0.124	-0.168
-381.946	800.000	0.014	0.042
-380.931	-9.537	-0.103	0.070
-379.917	-44.445	0.261	-0.132
-378.902	-127.381	0.339	-0.050
-377.888	49.343	0.204	-0.194
-376.873	-200.000	-0.018	-0.208
-375.858	425.303	-0.206	0.448
-374.844	-200.000	0.016	0.297
-373.829	-200.000	0.039	-0.218
-372.815	-200.000	0.036	-0.346
-371.800	127.037	-0.165	0.211
-370.785	800.000	-0.042	-0.138
-369.771	289.116	-0.092	-0.169
-368.756	-200.000	-0.012	-0.381
-367.742	-200.000	0.007	0.086
-366.727	-200.000	-0.053	-0.319
-365.712	-98.778	-0.118	-0.030
-364.698	-200.000	-0.005	0.094
-363.683	-148.447	0.105	0.009
-362.669	-31.230	-0.197	-0.113
-361.654	-83.738	0.146	0.047
-360.639	45.912	-0.027	0.025
-359.625	108.304	-0.187	-0.226
-358.610	605.732	-0.142	0.359
-357.596	40.866	0.276	-0.252
-356.581	-32.600	-0.039	-0.022
-355.566	-200.000	0.023	0.224
-354.552	800.000	0.066	0.250
-353.537	11.643	0.210	0.163
-352.523	800.000	-0.046	0.169
-351.508	255.328	0.218	-0.377
-350.493	-200.000	-0.020	-0.267
-349.479	-200.000	-0.001	-0.146
-348.464	276.394	-0.135	-0.243
-347.450	-92.111	-0.295	0.084
-346.435	458.021	0.205	-0.460
-345.420	27.019	-0.183	0.155
-344.406	70.649	0.234	0.245
-343.391	-121.391	-0.130	-0.022
-342.377	-88.577	-0.035	0.010
-341.362	-200.000	0.030	-0.169
-340.348	-116.532	-0.174	0.032
-339.333	-30.617	0.417	-0.239
-338.318	-161.150	-0.102	0.005
-337.304	-66.281	0.062	-0.025
-336.289	-200.000	0.046	0.412
-335.275	-102.499	-0.315	0.076
-334.260	-3.363	0.245	-0.172
-333.245	141.259	-0.104	-0.139
-332.231	-191.582	-0.057	-0.001
-331.216	-106.652	0.183	0.041
-330.202	11.620	-0.258	0.200
-329.187	-0.868	0.175	-0.125
-328.172	81.916	-0.224	0.246
-327.158	-200.000	-0.017	-0.189
-326.143	63.851	0.147	-0.149
-325.129	-75.487	0.289	-0.104
-324.114	-47.291	-0.242	-0.119
-323.099	-200.000	0.004	-0.080
-322.085	-136.135	-0.268	0.032
-321.070	87.915	-0.290	-0.325
-320.056	-77.782	0.300	-0.105
-319.041	-200.000	-0.038	-0.269
-318.026	-154.037	-0.456	-0.031
-317.012	379.554	-0.024	0.049
-315.997	-130.983	0.378	-0.051
-314.983	390.069	0.196	-0.411
-313.968	334.605	-0.045	0.088
-312.953	-99.644	-0.228	0.058
-311.939	-200.000	0.017	-0.189
-310.924	-37.866	-0.278	0.149
-309.910	-200.000	0.007	-0.085
-308.895	371.991	-0.081	-0.166
-307.880	-110.260	0.121	-0.025
-306.866	68.760	-0.155	-0.161
-305.851	-37.080	0.121	-0.065
-304.837	-75.537	0.246	0.088
-303.822	180.229	0.134	-0.198
-302.807	-7.825	0.231	0.158
-301.793	-82.624	0.072	-0.024
-300.778	-0.688	0.044	-0.031
-299.764	133.862	0.058	-0.075
-298.749	-107.085	0.366	-0.081
-297.735	-200.000	-0.015	0.115
-296.720	-33.437	-0.112	-0.063
-295.705	-25.546	-0.318	0.189
-294.691	462.511	0.206	0.464
-293.676	-200.000	0.047	0.252
-292.662	18.250	-0.080	0.065
-291.647	-13.811	0.294	-0.192
-290.632	142.535	0.020	-0.027
-289.618	-200.000	0.003	-0.032
-288.603	469.068	0.066	-0.150
-287.589	-13.108	-0.366	0.240
-286.574	800.000	0.159	0.442
-285.559	-52.520	-0.144	-0.067
-284.545	-119.612	-0.213	-0.037
-283.530	145.063	-0.116	0.156
-282.516	-52.228	0.064	-0.030
-281.501	-200.000	-0.004	-0.072
-280.486	464.764	0.027	-0.061
-279.472	53.026	0.241	-0.232
-278.457	171.636	-0.022	-0.032
-277.443	19.281	0.210	0.170
-276.428	-25.873	0.194	0.115
-275.413	-200.000	0.050	-0.303
-274.399	-85.827	0.297	-0.093
-273.384	178.781	0.044	0.065
-272.370	43.463	-0.144	-0.133
-271.355	-183.460	0.468	0.008
-270.340	-109.719	-0.232	-0.049
-269.326	3.148	-0.314	0.230
-268.311	-200.000	-0.036	-0.344
-267.297	46.951	0.113	-0.106
-266.282	8.996	-0.192	0.146
-265.267	41.692	0.211	0.192
-264.253	-41.289	-0.174	0.091
-263.238	37.444	-0.097	-0.087
-262.224	-103.568	0.114	-0.027
-261.209	-27.442	0.020	-0.012
-260.195	-104.065	0.058	-0.014
-259.180	175.585	0.120	0.176
-258.165	4.860	-0.156	-0.115
-257.151	640.382	0.141	0.361
-256.136	105.020	0.241	0.286
-255.122	-200.000	0.011	0.101
-254.107	-200.000	0.007	0.173
-253.092	93.798	0.046	-0.052
-252.078	-200.000	0.039	-0.274
-251.063	98.202	-0.191	-0.222
-250.049	23.846	0.112	-0.093
-249.034	-200.000	-0.019	0.199
-248.019	-49.678	0.202	0.097
-247.005	-77.477	0.369	0.129
-245.990	-113.505	0.175	-0.034
-244.976	-124.978	-0.059	0.009
-243.961	-200.000	0.018	0.330
-242.946	-200.000	0.059	-0.279
-241.932	800.000	0.067	-0.242
-240.917	211.104	0.028	-0.045
-239.903	-200.000	-0.036	0.500
-238.888	231.756	-0.039	-0.064
-237.873	-139.094	0.146	-0.016
-236.859	26.545	-0.023	0.020
-235.844	-122.466	-0.330	0.054
-234.830	454.241	-0.132	-0.295
-233.815	800.000	0.021	-0.067
-232.800	-25.290	0.208	-0.124
-231.786	-35.604	0.231	-0.126
-230.771	-89.484	0.434	0.128
-229.757	726.318	0.107	-0.288
-228.742	21.289	-0.191	0.156
-227.727	-11.667	0.067	0.044
-226.713	104.790	0.221	0.262
-225.698	800.000	0.025	-0.094
-224.684	-39.804	0.253	0.133
-223.669	800.000	-0.062	-0.265
-222.655	-200.000	0.051	0.244
-221.640	272.885	-0.074	-0.132
-220.625	-59.882	0.295	-0.127
-219.611	28.742	-0.230	-0.196
-218.596	800.000	0.099	0.276
-217.582	-13.953	0.112	-0.073
-216.567	-21.388	-0.137	-0.084
-215.552	-8.279	0.257	-0.174
-214.538	-125.109	0.171	-0.026
-213.523	314.157	0.145	-0.274
-212.509	172.824	-0.053	0.077
-211.494	49.643	0.144	-0.136
-210.479	3.938	0.207	-0.152
-209.465	-200.000	-0.013	0.145
-208.450	-200.000	-0.018	0.126
-207.436	-200.000	0.025	0.157
-206.421	-200.000	-0.020	-0.190
-205.406	-30.013	-0.102	0.058
-204.392	-91.598	0.312	0.089
-203.377	650.337	-0.088	-0.228
-202.363	338.400	0.163	-0.320
-201.348	480.573	0.074	-0.169
-200.333	41.244	0.039	0.035
-199.319	142.001	-0.174	-0.231
-198.304	-35.157	0.107	0.058
-197.290	382.860	0.146	0.301
-196.275	243.738	0.255	0.429
-195.260	-18.369	-0.214	-0.134
-194.246	39.525	0.235	0.212
-193.231	-190.076	-0.092	0.001
-192.217	-200.000	0.062	0.498
-191.202	-200.000	0.009	0.274
-190.187	259.440	0.032	0.056
-189.173	-200.000	0.002	0.029
-188.158	-200.000	0.022	0.170
-187.144	-94.220	0.228	-0.063
-186.129	398.028	-0.059	0.124
-185.114	-35.296	-0.153	0.083
-184.100	43.857	0.140	0.129
-183.085	800.000	-0.073	0.312
-182.071	217.278	0.204	0.327
-181.056	-200.000	-0.028	0.360
-180.042	-200.000	-0.019	-0.293
-179.027	800.000	-0.086	-0.293
-178.012	-200.000	0.002	0.114
-176.998	-200.000	-0.027	0.259
-175.983	-200.000	-0.015	0.253
-174.969	-200.000	-0.012	0.198
-173.954	-94.591	0.273	-0.075
-172.939	-49.791	-0.041	0.019
-171.925	133.225	0.053	-0.068
-170.910	106.466	-0.042	-0.051
-169.896	-19.669	-0.228	0.141
-168.881	-120.109	-0.217	0.037
-167.866	800.000	0.033	0.118
-166.852	6.387	0.065	0.048
-165.837	565.586	-0.066	0.161
-164.823	202.416	0.109	-0.169
-163.808	-93.874	-0.086	0.024
-162.793	-61.336	-0.066	-0.028
-161.779	-119.558	-0.099	-0.017
-160.764	-200.000	-0.045	0.282
-159.750	19.627	-0.201	0.162
-158.735	-119.030	-0.310	0.054
-157.720	-7.883	0.059	-0.040
-156.706	-44.127	0.094	0.047
-155.691	-200.000	0.041	-0.195
-154.677	-67.763	-0.218	-0.086
-153.662	710.672	-0.078	0.208
-152.647	-120.850	0.019	-0.003
-151.633	-35.572	-0.088	-0.048
-150.618	-55.955	0.133	0.060
-149.604	800.000	0.038	0.142
-148.589	-139.323	0.202	0.022
-147.574	27.360	0.256	0.215
-146.560	355.334	-0.063	-0.126
-145.545	208.221	-0.247	-0.387
-144.531	-64.633	-0.285	0.116
-143.516	-200.000	-0.012	0.330
-142.502	302.141	0.080	0.149
-141.487	-46.542	-0.163	-0.080
-140.472	-71.681	0.194	0.073
-139.458	-166.465	0.074	-0.003
-138.443	-156.050	0.374	0.024
-137.429	-107.291	-0.073	-0.016
-136.414	273.285	0.059	0.104
-135.399	-32.289	-0.106	0.059
-134.385	800.000	-0.046	0.130
-133.370	-200.000	0.058	0.568
-132.356	-127.036	-0.283	0.042
-131.341	382.832	0.100	0.205
-130.326	-89.362	0.105	0.031
-129.312	-200.000	-0.005	-0.135
-128.297	-93.682	0.153	-0.042
-127.283	518.728	0.132	0.310
-126.268	800.000	-0.114	0.380
-125.253	329.319	0.091	0.175
-124.239	-187.062	0.269	0.004
-123.224	800.000	0.065	-0.207
-122.210	-55.148	0.191	-0.086
-121.195	-179.534	0.304	-0.007
-120.180	325.478	0.139	-0.267
