DTS Sentinel unit serial number:	SN413079Multiplexer serial number:	ORYXHardware model number:	OX4-SRSoftware version number:	ORYX F/W v4.00 Oryx Data Collector v3.7.2.0data status	okinstallation	princeton_trtdifferential loss correction	single-endedforward channel	channel 3reverse channel	N/Adate	2019/09/12time	01:22:11forward acquisition time	60.00reverse acquisition time	0.00gamma	496.2192k internal	0.2320k external	0.2320temperature offset calibration	1.0068default loss term (dB/km)	0.3790temperature slope calibration	1.0000multiplexer offset coefficient	1.0000multiplexer slope coefficient	1.0000fibre end	0.00T internal ref (°C)	33.00T ext. ref 1 (°C)	2.08T ext. ref 2 (°C)	27.93length (m)	temperature (°C)	Stokes	anti-Stokes-747.200	800.000	0.060	0.178
-746.185	-11.532	-0.204	0.136
-745.171	-56.993	-0.307	-0.137
-744.156	414.103	-0.137	0.295
-743.142	-41.774	-0.380	0.197
-742.127	-186.290	-0.314	-0.005
-741.112	-200.000	-0.010	-0.059
-740.098	321.827	-0.141	0.271
-739.083	-200.000	0.011	-0.102
-738.069	-200.000	0.004	0.369
-737.054	31.454	-0.166	0.145
-736.039	800.000	-0.103	-0.388
-735.025	338.593	-0.072	-0.142
-734.010	-102.577	0.154	0.037
-732.996	499.335	0.064	-0.148
-731.981	70.734	0.057	-0.059
-730.966	-123.786	-0.256	0.041
-729.952	-73.552	0.004	0.001
-728.937	24.406	-0.300	-0.251
-727.923	191.201	-0.068	0.104
-726.908	800.000	-0.060	-0.203
-725.894	-48.782	-0.357	0.173
-724.879	52.927	0.132	0.128
-723.864	-113.704	-0.126	-0.025
-722.850	800.000	-0.013	-0.056
-721.835	800.000	-0.018	-0.061
-720.821	191.992	-0.045	-0.069
-719.806	-200.000	0.006	0.029
-718.791	-115.959	0.320	-0.060
-717.777	-200.000	-0.016	-0.149
-716.762	131.216	-0.190	0.247
-715.748	-125.231	-0.077	0.012
-714.733	-200.000	0.041	-0.268
-713.718	-167.942	0.135	-0.005
-712.704	-39.707	-0.147	-0.078
-711.689	-157.582	0.358	0.022
-710.675	214.198	0.133	0.213
-709.660	115.531	0.107	0.132
-708.645	68.316	-0.119	0.123
-707.631	-100.903	-0.232	-0.058
-706.616	-29.413	0.105	-0.060
-705.602	-73.053	-0.185	-0.069
-704.587	-164.430	0.116	0.005
-703.572	-23.634	-0.196	-0.119
-702.558	43.653	-0.059	-0.054
-701.543	-135.283	-0.177	-0.021
-700.529	108.540	-0.278	-0.335
-699.514	-71.234	0.228	0.086
-698.499	800.000	-0.014	0.050
-697.485	6.787	0.240	-0.180
-696.470	-200.000	-0.001	0.087
-695.456	800.000	-0.099	0.382
-694.441	43.702	0.164	-0.152
-693.426	-200.000	0.325	-0.001
-692.412	-23.094	-0.225	-0.137
-691.397	244.184	-0.021	0.036
-690.383	-119.721	0.171	0.030
-689.368	-200.000	-0.016	0.276
-688.354	61.927	0.199	-0.201
-687.339	32.000	0.186	-0.161
-686.324	-128.701	0.594	0.085
-685.310	-137.286	-0.232	-0.027
-684.295	33.488	-0.047	-0.041
-683.281	168.941	-0.163	0.235
-682.266	226.674	-0.019	-0.032
-681.251	-175.423	-0.269	-0.007
-680.237	-98.173	0.108	0.028
-679.222	800.000	-0.044	0.123
-678.208	-126.811	-0.008	0.001
-677.193	100.668	0.180	0.211
-676.178	181.975	0.035	-0.052
-675.164	256.370	-0.108	0.187
-674.149	800.000	0.076	-0.242
-673.135	-137.804	0.322	0.036
-672.120	98.153	0.054	0.062
-671.105	-200.000	0.060	0.424
-670.091	63.499	-0.098	-0.099
-669.076	115.681	-0.203	-0.250
-668.062	-200.000	-0.024	-0.279
-667.047	47.097	-0.116	0.109
-666.032	-200.000	-0.017	0.229
-665.018	-4.148	-0.261	-0.182
-664.003	-69.274	-0.154	0.060
-662.989	-173.277	0.217	-0.007
-661.974	622.344	-0.100	-0.253
-660.959	800.000	-0.061	0.270
-659.945	235.944	0.027	-0.045
-658.930	-45.494	0.274	0.137
-657.916	-99.198	0.296	0.075
-656.901	-20.260	0.305	0.189
-655.886	-98.200	-0.104	-0.027
-654.872	-200.000	-0.061	0.270
-653.857	800.000	0.010	-0.044
-652.843	406.139	-0.083	0.176
-651.828	83.650	0.194	-0.213
-650.814	-22.720	-0.372	-0.227
-649.799	243.432	-0.029	0.049
-648.784	-200.000	-0.005	-0.209
-647.770	-42.280	0.171	-0.088
-646.755	-56.419	-0.245	0.110
-645.741	224.838	0.077	0.125
-644.726	-110.604	0.122	-0.025
-643.711	85.117	0.192	0.212
-642.697	581.329	-0.072	0.178
-641.682	33.292	-0.224	0.196
-640.668	153.123	0.167	-0.231
-639.653	-0.578	0.136	-0.097
-638.638	-200.000	-0.025	-0.557
-637.624	199.483	-0.123	-0.190
-636.609	55.357	0.232	0.226
-635.595	65.455	0.103	0.105
-634.580	-80.740	-0.355	0.119
-633.565	-164.748	-0.242	0.011
-632.551	42.228	-0.211	-0.193
-631.536	300.920	0.103	0.192
-630.522	646.062	0.064	0.164
-629.507	-143.626	-0.098	-0.009
-628.492	100.236	0.049	0.057
-627.478	337.512	-0.130	-0.253
-626.463	-163.473	0.205	-0.010
-625.449	-91.202	0.181	0.052
-624.434	72.683	-0.344	-0.361
-623.419	-124.727	-0.158	0.025
-622.405	-73.994	-0.094	-0.034
-621.390	-71.526	-0.079	-0.030
-620.376	-200.000	-0.002	-0.054
-619.361	-77.735	0.220	0.077
-618.346	800.000	0.023	0.087
-617.332	-200.000	-0.065	0.388
-616.317	-109.638	-0.211	-0.045
-615.303	76.548	-0.037	-0.040
-614.288	-200.000	0.014	0.174
-613.273	-200.000	-0.031	-0.142
-612.259	156.330	0.171	0.237
-611.244	171.185	0.196	-0.282
-610.230	800.000	0.069	-0.233
-609.215	-10.914	0.118	0.078
-608.201	46.305	0.192	0.179
-607.186	320.538	0.102	0.195
-606.171	214.051	0.105	0.167
-605.157	-200.000	-0.018	0.081
-604.142	-8.754	-0.099	0.067
-603.128	-30.701	-0.154	0.088
-602.113	-152.214	-0.120	-0.009
-601.098	68.319	0.202	0.208
-600.084	-200.000	0.055	-0.258
-599.069	800.000	-0.127	-0.430
-598.055	-200.000	0.020	-0.170
-597.040	133.989	0.109	-0.141
-596.025	-186.209	-0.122	-0.002
-595.011	-90.962	0.163	-0.047
-593.996	-19.943	0.080	-0.050
-592.982	-162.593	-0.144	0.007
-591.967	-200.000	0.040	0.259
-590.952	-85.053	0.068	-0.022
-589.938	151.994	-0.107	-0.146
-588.923	184.055	0.061	0.091
-587.909	-200.000	0.005	-0.079
-586.894	-44.102	0.153	-0.077
-585.879	800.000	-0.044	-0.164
-584.865	485.164	-0.018	-0.040
-583.850	800.000	-0.055	-0.166
-582.836	800.000	0.067	-0.238
-581.821	-25.663	-0.074	0.044
-580.806	-65.693	-0.019	-0.008
-579.792	-129.988	-0.252	0.035
-578.777	348.276	0.026	-0.051
-577.763	265.349	-0.108	-0.190
-576.748	-59.645	-0.330	-0.142
-575.733	-200.000	-0.038	0.170
-574.719	288.654	0.058	0.105
-573.704	98.136	-0.146	-0.169
-572.690	-200.000	-0.002	0.347
-571.675	47.103	-0.382	-0.357
-570.661	-200.000	-0.006	0.058
-569.646	526.542	0.080	0.190
-568.631	-91.368	0.034	0.010
-567.617	-2.607	-0.186	0.131
-566.602	-21.860	-0.299	-0.183
-565.588	622.717	0.096	0.242
-564.573	49.270	0.121	0.115
-563.558	518.497	-0.228	0.537
-562.544	-200.000	0.022	0.217
-561.529	-152.080	0.165	0.012
-560.515	-200.000	0.004	0.262
-559.500	72.942	-0.175	-0.183
-558.485	-177.925	-0.092	0.002
-557.471	177.288	0.188	0.275
-556.456	-86.802	0.273	-0.084
-555.442	23.322	0.128	0.106
-554.427	-137.638	-0.144	-0.016
-553.412	365.086	0.107	0.216
-552.398	287.369	0.130	-0.235
-551.383	-5.203	-0.023	0.016
-550.369	800.000	-0.018	0.066
-549.354	268.070	0.038	0.068
-548.339	223.851	0.152	0.247
-547.325	492.641	-0.150	0.344
-546.310	-200.000	0.055	0.409
-545.296	-96.808	0.276	-0.073
-544.281	-200.000	-0.031	-0.222
-543.266	-29.998	0.049	-0.028
-542.252	800.000	0.049	0.212
-541.237	66.373	0.166	0.169
-540.223	-96.813	0.187	-0.049
-539.208	-84.788	0.285	0.090
-538.193	-200.000	-0.011	-0.293
-537.179	100.494	-0.063	-0.073
-536.164	800.000	-0.063	-0.180
-535.150	99.627	0.107	-0.125
-534.135	44.794	0.207	-0.191
-533.121	-3.987	-0.356	0.247
-532.106	-82.028	0.196	0.064
-531.091	374.219	0.054	0.111
-530.077	-145.499	-0.236	-0.021
-529.062	342.530	0.118	0.231
-528.048	-7.551	0.187	-0.127
-527.033	-200.000	0.027	-0.231
-526.018	-200.000	-0.014	0.281
-525.004	174.164	-0.086	0.125
-523.989	-153.092	0.230	-0.016
-522.975	105.133	-0.213	-0.252
-521.960	-170.425	0.161	-0.006
-520.945	-65.075	0.203	0.082
-519.931	-170.727	-0.180	0.006
-518.916	-131.272	-0.134	-0.018
-517.902	-200.000	0.001	0.086
-516.887	-1.623	-0.186	-0.131
-515.872	197.972	-0.293	-0.449
-514.858	586.551	-0.168	-0.413
-513.843	-178.533	0.179	0.004
-512.829	-123.817	0.119	-0.019
-511.814	-200.000	0.008	0.073
-510.799	-42.163	-0.177	-0.091
-509.785	-200.000	-0.061	-0.292
-508.770	-25.912	-0.147	-0.087
-507.756	-139.096	0.252	-0.027
-506.741	327.679	-0.086	0.165
-505.726	102.700	-0.132	-0.155
-504.712	800.000	-0.109	0.386
-503.697	164.388	-0.169	0.238
-502.683	509.205	0.163	0.381
-501.668	800.000	0.072	-0.291
-500.653	500.686	0.185	-0.429
-499.639	369.125	0.103	0.209
-498.624	163.557	0.194	0.274
-497.610	-93.238	0.270	-0.075
-496.595	-55.665	0.123	0.055
-495.581	800.000	-0.026	0.088
-494.566	-47.798	0.157	-0.076
-493.551	-65.246	-0.078	-0.031
-492.537	-200.000	0.008	0.035
-491.522	-132.341	-0.459	0.059
-490.508	404.005	-0.183	0.387
-489.493	-111.165	0.342	-0.070
-488.478	-179.497	-0.264	-0.006
-487.464	-200.000	-0.063	-0.290
-486.449	87.247	-0.344	-0.381
-485.435	-14.863	0.252	0.162
-484.420	-148.672	-0.264	0.022
-483.405	339.767	0.204	0.399
-482.391	23.211	0.054	0.045
-481.376	-200.000	0.056	-0.282
-480.362	183.109	-0.110	0.163
-479.347	-200.000	-0.008	-0.089
-478.332	98.219	0.098	0.113
-477.318	-200.000	-0.009	-0.199
-476.303	109.066	-0.035	-0.042
-475.289	-119.389	-0.325	0.056
-474.274	-118.304	0.404	0.072
-473.259	542.344	-0.133	-0.318
-472.245	-200.000	-0.012	-0.122
-471.230	85.068	0.289	0.317
-470.216	-200.000	0.027	0.200
-469.201	-60.590	-0.135	-0.057
-468.186	-3.231	0.112	0.078
-467.172	222.352	0.085	-0.137
-466.157	199.517	0.150	0.230
-465.143	227.946	0.095	-0.155
-464.128	-43.935	0.392	-0.197
-463.113	-80.740	-0.112	-0.037
-462.099	114.660	-0.048	-0.058
-461.084	-19.197	-0.197	-0.123
-460.070	-126.442	-0.030	-0.004
-459.055	-87.622	-0.069	0.021
-458.040	-200.000	-0.056	-0.279
-457.026	-200.000	0.004	0.222
-456.011	229.738	-0.089	0.145
-454.997	-64.918	0.016	0.007
-453.982	-200.000	-0.007	0.324
-452.968	173.937	-0.063	-0.091
-451.953	-105.513	-0.524	-0.119
-450.938	-31.578	0.258	0.145
-449.924	-38.385	0.147	0.078
-448.909	-176.208	-0.102	-0.003
-447.895	-200.000	0.039	-0.186
-446.880	-20.409	0.217	-0.133
-445.865	-20.360	0.039	-0.024
-444.851	-85.169	-0.044	0.014
-443.836	-79.115	-0.199	-0.067
-442.822	-200.000	0.035	0.360
-441.807	-70.246	-0.280	0.106
-440.792	-69.191	-0.180	0.069
-439.778	30.384	0.287	0.245
-438.763	-200.000	0.005	-0.032
-437.749	-86.790	-0.127	0.039
-436.734	260.060	-0.082	0.141
-435.719	395.088	0.122	-0.253
-434.705	268.812	-0.052	-0.092
-433.690	507.123	-0.028	-0.066
-432.676	72.778	0.029	0.030
-431.661	-157.240	0.157	0.009
-430.646	-200.000	-0.016	-0.173
-429.632	-200.000	0.007	-0.041
-428.617	800.000	0.070	0.297
-427.603	-75.848	0.213	0.075
-426.588	75.722	-0.131	-0.138
-425.573	-83.963	0.288	-0.091
-424.559	-107.020	0.173	-0.038
-423.544	-180.434	-0.043	-0.001
-422.530	369.164	-0.247	-0.499
-421.515	-156.503	0.148	0.009
-420.500	800.000	0.162	-0.552
-419.486	-104.474	-0.183	-0.042
-418.471	-32.815	-0.194	0.108
-417.457	316.962	-0.064	0.122
-416.442	468.729	-0.147	0.329
-415.428	-46.582	-0.138	0.067
-414.413	42.401	-0.046	0.041
-413.398	424.360	0.105	-0.225
-412.384	-57.439	-0.123	-0.054
-411.369	-26.078	0.121	0.071
-410.355	-150.212	0.269	0.021
-409.340	298.883	0.069	0.126
-408.325	-59.624	0.147	-0.063
-407.311	-119.896	0.408	-0.070
-406.296	303.598	0.105	0.194
-405.282	-200.000	0.002	0.061
-404.267	19.847	0.338	0.272
-403.252	134.147	-0.152	-0.197
-402.238	-46.867	0.266	-0.130
-401.223	690.550	0.110	-0.288
-400.209	82.936	-0.155	-0.168
-399.194	-78.071	-0.197	-0.068
-398.179	-90.895	-0.301	-0.086
-397.165	-200.000	0.057	0.312
-396.150	-62.806	0.683	-0.282
-395.136	202.928	-0.106	0.164
-394.121	-179.725	-0.138	-0.003
-393.106	-200.000	-0.022	-0.263
-392.092	-83.150	-0.147	-0.047
-391.077	133.683	0.094	0.122
-390.063	-90.975	0.249	0.071
-389.048	800.000	0.019	0.079
-388.033	-132.639	-0.470	0.060
-387.019	800.000	0.083	-0.310
-386.004	800.000	-0.093	0.291
-384.990	91.382	-0.038	-0.042
-383.975	116.419	-0.062	-0.076
-382.960	554.015	-0.028	-0.066
-381.946	15.633	-0.164	-0.128
-380.931	-102.970	-0.065	0.015
-379.917	214.233	-0.215	-0.339
-378.902	33.484	0.244	0.211
-377.888	436.658	-0.120	0.261
-376.873	121.706	-0.178	0.222
-375.858	-93.080	0.206	-0.057
-374.844	800.000	-0.077	0.219
-373.829	48.774	0.054	-0.050
-372.815	152.290	-0.139	0.189
-371.800	8.602	-0.239	-0.179
-370.785	124.515	0.239	-0.299
-369.771	-200.000	-0.008	-0.146
-368.756	317.708	-0.131	0.246
-367.742	-200.000	-0.022	0.109
-366.727	29.527	0.129	0.109
-365.712	-40.371	-0.140	-0.073
-364.698	-81.293	0.312	0.103
-363.683	-200.000	0.042	-0.256
-362.669	428.062	-0.126	-0.272
-361.654	117.242	-0.292	0.357
-360.639	-78.440	-0.176	-0.060
-359.625	-32.663	0.069	-0.038
-358.610	95.456	-0.029	-0.033
-357.596	278.308	-0.166	-0.294
-356.581	305.254	-0.015	-0.028
-355.566	37.556	0.311	0.274
-354.552	800.000	0.113	-0.312
-353.537	-200.000	0.010	-0.203
-352.523	-200.000	-0.003	-0.212
-351.508	-200.000	0.002	-0.134
-350.493	563.210	-0.073	-0.176
-349.479	-184.117	-0.080	0.001
-348.464	-73.705	0.118	-0.043
-347.450	-200.000	-0.052	0.345
-346.435	144.840	0.134	0.178
-345.420	-200.000	-0.092	-0.000
-344.406	-74.892	0.162	-0.058
-343.391	582.633	-0.073	0.179
-342.377	31.792	0.131	-0.112
-341.362	259.579	-0.136	0.234
-340.348	128.266	-0.149	-0.189
-339.333	-200.000	0.000	0.241
-338.318	47.563	0.158	-0.146
-337.304	-167.951	-0.282	-0.011
-336.289	-56.866	-0.008	-0.004
-335.275	800.000	0.039	-0.115
-334.260	68.437	-0.092	-0.094
-333.245	-58.534	0.266	-0.115
-332.231	-174.278	0.473	-0.014
-331.216	800.000	-0.046	0.186
-330.202	353.806	-0.117	0.231
-329.187	38.328	-0.222	-0.197
-328.172	70.550	0.049	0.051
-327.158	-198.455	0.315	-0.002
-326.143	800.000	0.111	0.345
-325.129	-70.352	-0.149	0.056
-324.114	122.887	-0.022	-0.027
-323.099	76.272	0.104	-0.109
-322.085	-36.554	-0.018	0.009
-321.070	-30.939	-0.220	0.124
-320.056	-200.000	0.032	0.257
-319.041	-200.000	-0.002	0.239
-318.026	-200.000	0.048	0.228
-317.012	208.612	-0.088	0.137
-315.997	-122.320	-0.556	0.090
-314.983	360.174	0.037	0.074
-313.968	-137.312	-0.142	0.016
-312.953	651.753	-0.131	0.334
-311.939	-200.000	0.008	-0.262
-310.924	-148.997	0.148	0.012
-309.910	-200.000	-0.009	0.070
-308.895	-200.000	-0.004	0.022
-307.880	-96.384	-0.084	0.022
-306.866	-200.000	0.019	-0.127
-305.851	679.549	0.095	0.246
-304.837	46.288	-0.165	0.152
-303.822	-144.988	0.136	-0.012
-302.807	-61.127	-0.161	0.068
-301.793	-115.300	0.210	-0.039
-300.778	-33.228	0.222	0.122
-299.764	-200.000	0.002	-0.233
-298.749	-54.250	-0.367	-0.166
-297.735	-200.000	-0.039	0.230
-296.720	98.526	0.076	-0.087
-295.705	-122.878	-0.221	-0.035
-294.691	-200.000	-0.037	0.317
-293.676	62.412	0.160	-0.158
-292.662	-5.615	-0.267	-0.182
-291.647	800.000	0.083	-0.281
-290.632	-56.693	0.085	0.037
-289.618	-200.000	-0.380	-0.001
-288.603	326.333	-0.078	0.149
-287.589	356.616	-0.009	0.017
-286.574	197.551	0.277	0.420
-285.559	-11.989	0.319	0.207
-284.545	-152.087	0.115	0.008
-283.530	-117.811	-0.134	0.024
-282.516	-200.000	0.035	-0.191
-281.501	-200.000	-0.003	0.015
-280.486	108.599	0.037	0.044
-279.472	117.268	-0.163	0.199
-278.457	-200.000	0.039	-0.324
-277.443	50.567	0.206	0.194
-276.428	44.801	-0.217	-0.198
-275.413	800.000	-0.070	-0.264
-274.399	-200.000	0.032	-0.189
-273.384	-31.727	-0.141	-0.079
-272.370	-68.822	0.178	-0.068
-271.355	83.095	0.186	-0.201
-270.340	216.286	-0.084	-0.132
-269.326	800.000	-0.070	0.219
-268.311	240.063	0.123	-0.204
-267.297	-79.051	0.155	0.052
-266.282	800.000	-0.054	-0.214
-265.267	800.000	0.053	-0.147
-264.253	-200.000	-0.008	-0.283
-263.238	-37.033	-0.343	-0.183
-262.224	-152.641	0.080	-0.006
-261.209	800.000	-0.051	-0.143
-260.195	240.133	-0.134	0.221
-259.180	-40.661	0.163	0.084
-258.165	-99.460	-0.215	0.054
-257.151	204.319	-0.121	0.186
-256.136	-200.000	-0.024	-0.208
-255.122	725.912	-0.055	0.145
-254.107	-150.552	-0.096	-0.007
-253.092	800.000	0.058	0.247
-252.078	434.941	0.053	-0.114
-251.063	178.926	0.119	-0.173
-250.049	-200.000	0.052	0.316
-249.034	174.207	0.049	0.070
-248.019	-161.269	-0.066	0.003
-247.005	203.893	0.183	0.281
-245.990	-52.742	-0.076	0.035
-244.976	-38.748	0.088	0.046
-243.961	201.431	0.218	0.333
-242.946	-85.292	-0.118	0.036
-241.932	21.888	0.038	-0.031
-240.917	-200.000	-0.007	0.222
-239.903	-190.626	0.266	-0.003
-238.888	-48.670	-0.146	0.069
-237.873	800.000	0.103	0.320
-236.859	645.381	-0.087	0.221
-235.844	-200.000	0.037	0.271
-234.830	130.493	0.111	0.141
-233.815	46.645	-0.315	0.290
-232.800	-200.000	-0.017	-0.082
-231.786	-18.362	0.197	0.122
-230.771	-66.757	0.272	0.107
-229.757	-157.183	-0.160	-0.010
-228.742	288.792	0.085	-0.153
-227.727	137.417	0.071	-0.092
-226.713	800.000	-0.035	0.141
-225.698	-139.395	-0.146	0.016
-224.684	262.511	-0.086	-0.147
-223.669	-123.674	-0.306	0.048
-222.655	800.000	0.083	0.237
-221.640	393.247	0.131	0.271
-220.625	43.471	0.078	0.070
-219.611	800.000	-0.084	-0.323
-218.596	593.582	0.118	-0.289
-217.582	152.962	-0.168	-0.228
-216.567	-200.000	-0.049	-0.442
-215.552	-200.000	-0.008	0.230
-214.538	-200.000	-0.035	0.197
-213.523	-2.816	-0.289	-0.200
-212.509	-51.410	-0.099	-0.046
-211.494	800.000	0.089	-0.257
-210.479	66.956	-0.229	-0.231
-209.465	800.000	-0.009	-0.034
-208.450	-183.404	0.224	0.004
-207.436	-73.117	-0.134	-0.049
-206.421	-200.000	-0.016	-0.187
-205.406	676.044	-0.063	-0.163
-204.392	-200.000	-0.001	-0.059
-203.377	300.393	-0.030	0.056
-202.363	-23.650	0.299	-0.178
-201.348	-96.243	0.192	-0.050
-200.333	-200.000	-0.002	0.037
-199.319	44.447	0.207	-0.188
-198.304	216.106	0.062	0.097
-197.290	664.863	0.021	0.053
-196.275	800.000	0.033	-0.106
-195.260	-88.215	0.292	-0.087
-194.246	110.368	-0.216	-0.257
-193.231	-200.000	-0.023	0.210
-192.217	-200.000	0.004	0.085
-191.202	52.584	-0.187	-0.177
-190.187	-63.799	0.195	0.079
-189.173	800.000	-0.068	0.241
-188.158	-160.025	-0.327	0.018
-187.144	138.827	-0.097	0.126
-186.129	212.159	-0.139	0.217
-185.114	-24.038	-0.284	0.168
-184.100	800.000	0.064	-0.250
-183.085	28.382	0.391	0.327
-182.071	800.000	-0.092	-0.301
-181.056	9.407	0.146	-0.109
-180.042	-167.022	0.239	-0.010
-179.027	-200.000	-0.087	0.577
-178.012	-43.957	0.334	-0.166
-176.998	-84.252	-0.312	0.098
-175.983	645.489	0.075	0.188
-174.969	48.159	-0.072	0.066
-173.954	800.000	-0.099	-0.349
-172.939	-65.966	-0.172	0.068
-171.925	739.750	-0.076	-0.203
-170.910	109.350	-0.137	0.162
-169.896	-200.000	0.000	-0.081
-168.881	-80.259	-0.172	-0.057
-167.866	-166.562	-0.137	-0.006
-166.852	181.045	0.292	-0.424
-165.837	142.318	0.166	0.218
-164.823	-12.199	0.162	-0.105
-163.808	-200.000	0.041	-0.225
-162.793	-39.135	0.179	-0.093
-161.779	-85.849	0.004	-0.001
-160.764	800.000	0.062	0.191
-159.750	-86.970	-0.148	0.044
-158.735	96.034	0.176	-0.199
-157.720	800.000	0.063	-0.253
-156.706	192.900	0.267	-0.398
-155.691	-200.000	0.041	0.187
-154.677	-200.000	-0.034	-0.149
-153.662	-51.720	-0.155	0.071
-152.647	-74.943	0.222	-0.079
-151.633	307.994	-0.229	-0.422
-150.618	85.415	-0.022	-0.024
-149.604	-58.902	0.271	-0.116
-148.589	-84.289	0.321	-0.101
-147.574	323.724	-0.115	0.217
-146.560	-165.339	0.236	-0.010
-145.545	-149.752	-0.174	0.013
-144.531	-91.443	0.125	0.035
-143.516	214.310	0.103	-0.161
-142.502	-54.408	0.217	0.097
-141.487	-200.000	0.032	0.191
-140.472	-200.000	-0.028	-0.153
-139.458	-200.000	0.014	-0.116
-138.443	2.430	0.258	-0.184
-137.429	-200.000	-0.010	0.176
-136.414	755.753	-0.103	0.276
-135.399	-200.000	0.056	0.294
-134.385	71.595	0.094	0.096
-133.370	-200.000	0.006	0.359
-132.356	78.268	-0.084	0.089
-131.341	176.808	0.070	-0.100
-130.326	-42.614	-0.221	-0.111
-129.312	-53.650	-0.089	0.040
-128.297	93.804	0.073	-0.082
-127.283	-5.563	-0.228	-0.154
-126.268	800.000	0.129	0.358
-125.253	-200.000	-0.005	0.062
-124.239	8.908	0.046	-0.034
-123.224	-65.150	0.259	0.103
-122.210	-200.000	0.018	0.234
