DTS Sentinel unit serial number:	SN413079Multiplexer serial number:	ORYXHardware model number:	OX4-SRSoftware version number:	ORYX F/W v4.00 Oryx Data Collector v3.7.2.0data status	okinstallation	princeton_trtdifferential loss correction	single-endedforward channel	channel 3reverse channel	N/Adate	2019/09/11time	06:02:11forward acquisition time	60.00reverse acquisition time	0.00gamma	496.2192k internal	0.2331k external	0.2331temperature offset calibration	0.9909default loss term (dB/km)	0.3790temperature slope calibration	1.0000multiplexer offset coefficient	1.0000multiplexer slope coefficient	1.0000fibre end	0.00T internal ref (°C)	29.44T ext. ref 1 (°C)	-0.22T ext. ref 2 (°C)	23.58length (m)	temperature (°C)	Stokes	anti-Stokes-747.200	-22.414	-0.379	0.231
-746.185	640.818	0.071	0.182
-745.171	-73.031	-0.136	-0.050
-744.156	1.792	0.035	-0.026
-743.142	-82.622	0.091	0.030
-742.127	68.631	0.203	-0.210
-741.112	59.340	0.237	-0.235
-740.098	-23.775	-0.328	0.198
-739.083	-39.881	0.345	0.181
-738.069	114.672	-0.141	0.172
-737.054	-200.000	0.003	0.317
-736.039	-92.598	-0.355	-0.100
-735.025	-71.644	0.344	0.129
-734.010	-142.473	-0.255	0.025
-732.996	166.969	-0.179	-0.255
-731.981	800.000	-0.016	0.049
-730.966	321.264	0.041	-0.079
-729.952	143.617	-0.225	-0.302
-728.937	800.000	-0.055	-0.170
-727.923	-108.623	-0.517	0.112
-726.908	-107.314	-0.361	0.080
-725.894	-66.370	-0.154	-0.062
-724.879	90.632	0.018	-0.020
-723.864	234.124	-0.124	-0.206
-722.850	800.000	-0.086	0.292
-721.835	-200.000	-0.006	-0.338
-720.821	800.000	-0.107	-0.422
-719.806	154.123	-0.132	0.182
-718.791	11.847	-0.215	0.166
-717.777	191.543	-0.118	0.178
-716.762	-200.000	-0.020	0.136
-715.748	-200.000	-0.018	0.178
-714.733	-182.633	0.019	0.000
-713.718	-200.000	0.012	0.165
-712.704	59.106	0.148	-0.147
-711.689	50.252	0.034	-0.032
-710.675	126.143	-0.265	0.337
-709.660	-119.237	0.108	-0.019
-708.645	14.019	0.153	0.119
-707.631	276.940	-0.082	-0.146
-706.616	-149.325	-0.069	0.006
-705.602	-28.631	-0.255	-0.147
-704.587	-200.000	-0.035	-0.204
-703.572	800.000	-0.019	-0.058
-702.558	-200.000	0.244	-0.001
-701.543	-59.046	-0.379	-0.164
-700.529	-128.179	-0.367	-0.053
-699.514	-200.000	0.004	-0.076
-698.499	423.459	0.132	-0.285
-697.485	-129.277	0.167	-0.023
-696.470	-200.000	-0.054	0.414
-695.456	-46.494	-0.020	-0.010
-694.441	337.771	-0.054	0.105
-693.426	-200.000	0.421	0.000
-692.412	-148.558	-0.312	0.026
-691.397	46.628	-0.120	0.112
-690.383	143.041	0.107	-0.144
-689.368	800.000	-0.026	-0.088
-688.354	183.694	-0.072	-0.107
-687.339	35.088	-0.089	0.079
-686.324	-78.072	-0.193	0.067
-685.310	-200.000	-0.056	-0.261
-684.295	12.213	-0.091	0.070
-683.281	-200.000	-0.037	-0.321
-682.266	-40.494	-0.625	-0.326
-681.251	-39.435	-0.130	-0.068
-680.237	35.698	0.176	0.156
-679.222	-11.802	-0.221	0.145
-678.208	-25.657	0.027	-0.016
-677.193	-31.197	-0.162	0.091
-676.178	-200.000	0.041	-0.219
-675.164	2.295	-0.228	-0.165
-674.149	-200.000	0.033	-0.180
-673.135	-2.235	-0.072	-0.051
-672.120	401.977	-0.088	0.185
-671.105	800.000	0.021	0.060
-670.091	-48.471	-0.234	-0.113
-669.076	-200.000	0.020	0.172
-668.062	794.812	-0.087	-0.240
-667.047	800.000	-0.020	-0.063
-666.032	-200.000	0.040	0.248
-665.018	293.748	-0.084	0.153
-664.003	169.412	0.143	0.204
-662.989	-86.243	0.104	-0.032
-661.974	256.490	0.164	0.282
-660.959	87.594	-0.328	-0.364
-659.945	-96.239	0.260	-0.069
-658.930	-91.850	-0.225	-0.064
-657.916	105.646	0.268	-0.318
-656.901	800.000	-0.005	-0.019
-655.886	332.944	-0.095	-0.184
-654.872	-200.000	-0.017	0.156
-653.857	-9.153	-0.213	-0.143
-652.843	-86.592	0.307	-0.095
-651.828	800.000	0.079	-0.336
-650.814	-18.712	0.159	-0.099
-649.799	800.000	0.106	-0.364
-648.784	238.697	0.046	0.076
-647.770	89.971	-0.169	-0.189
-646.755	507.326	-0.164	-0.382
-645.741	72.649	0.154	0.161
-644.726	-41.920	-0.207	0.106
-643.711	-166.096	-0.263	-0.011
-642.697	-116.621	0.185	0.034
-641.682	-121.584	0.099	-0.016
-640.668	757.643	-0.046	0.125
-639.653	-60.396	0.309	0.132
-638.638	-200.000	-0.007	-0.361
-637.624	-78.878	0.296	0.101
-636.609	52.997	0.047	0.045
-635.595	35.812	-0.044	0.039
-634.580	166.541	0.137	-0.195
-633.565	-200.000	-0.003	0.269
-632.551	-59.764	0.006	-0.002
-631.536	70.455	-0.268	-0.278
-630.522	112.992	0.093	-0.113
-629.507	233.389	-0.181	-0.298
-628.492	12.775	0.012	0.010
-627.478	-34.799	-0.424	0.232
-626.463	-50.420	-0.354	0.167
-625.449	42.074	0.235	-0.214
-624.434	84.354	0.095	0.104
-623.419	60.473	0.395	-0.392
-622.405	43.530	-0.279	-0.255
-621.390	330.794	-0.052	-0.100
-620.376	139.635	-0.030	0.040
-619.361	800.000	0.049	0.176
-618.346	309.549	0.107	-0.201
-617.332	-107.266	0.255	0.056
-616.317	-129.748	-0.291	0.040
-615.303	-195.148	-0.320	0.002
-614.288	35.230	-0.010	0.009
-613.273	800.000	-0.135	0.482
-612.259	773.473	-0.052	0.141
-611.244	140.075	-0.107	-0.142
-610.230	800.000	0.024	0.102
-609.215	-133.925	-0.189	0.023
-608.201	-200.000	0.055	-0.316
-607.186	143.172	-0.292	-0.389
-606.171	-95.540	-0.052	0.014
-605.157	182.073	-0.136	-0.200
-604.142	51.749	0.112	0.106
-603.128	-200.000	-0.026	-0.156
-602.113	116.153	0.139	0.171
-601.098	-48.370	-0.100	0.048
-600.084	800.000	-0.073	0.312
-599.069	-105.088	-0.303	0.069
-598.055	-78.867	0.122	-0.042
-597.040	415.801	0.104	-0.222
-596.025	800.000	0.069	-0.207
-595.011	-27.737	0.173	-0.101
-593.996	-200.000	-0.012	0.076
-592.982	-200.000	0.008	0.129
-591.967	62.003	-0.061	-0.061
-590.952	229.855	-0.055	-0.091
-589.938	-188.771	0.143	0.002
-588.923	272.050	0.127	0.225
-587.909	-31.793	-0.207	-0.116
-586.894	8.556	-0.322	0.242
-585.879	115.377	-0.023	-0.029
-584.865	37.171	-0.085	0.075
-583.850	34.482	-0.118	0.103
-582.836	-12.165	-0.193	-0.126
-581.821	-92.409	-0.157	0.044
-580.806	800.000	0.088	0.341
-579.792	-41.489	-0.210	-0.108
-578.777	-59.034	-0.101	-0.044
-577.763	-88.427	0.374	-0.112
-576.748	-145.055	-0.141	0.013
-575.733	-200.000	-0.002	-0.214
-574.719	800.000	0.027	0.088
-573.704	69.150	0.234	0.241
-572.690	-115.869	-0.246	0.046
-571.675	800.000	0.043	0.180
-570.661	351.977	0.079	0.157
-569.646	-123.746	0.364	-0.058
-568.631	-200.000	0.031	-0.308
-567.617	474.531	-0.016	-0.036
-566.602	-86.219	-0.253	-0.078
-565.588	-70.940	0.267	0.101
-564.573	-69.072	0.080	-0.031
-563.558	-39.426	-0.115	0.060
-562.544	-8.188	0.071	-0.048
-561.529	-70.835	-0.464	-0.175
-560.515	-18.648	-0.078	0.049
-559.500	-72.361	-0.382	0.141
-558.485	-200.000	-0.016	0.091
-557.471	-98.475	-0.046	0.012
-556.456	-200.000	0.024	-0.370
-555.442	-31.197	0.125	0.070
-554.427	1.253	0.196	0.141
-553.412	632.838	0.059	0.150
-552.398	-87.965	0.145	0.044
-551.383	-132.819	0.117	0.015
-550.369	-112.527	-0.157	0.031
-549.354	-128.557	-0.045	-0.006
-548.339	161.152	0.133	-0.186
-547.325	62.745	-0.061	0.061
-546.310	-29.507	0.006	-0.004
-545.296	107.707	0.104	0.124
-544.281	-158.636	0.353	-0.020
-543.266	-29.682	0.113	-0.064
-542.252	-61.091	0.139	0.059
-541.237	-105.030	-0.141	0.032
-540.223	579.732	0.089	-0.217
-539.208	-200.000	-0.031	-0.202
-538.193	-200.000	-0.000	-0.112
-537.179	-23.289	0.216	-0.130
-536.164	-136.994	0.204	0.023
-535.150	-99.881	0.359	0.090
-534.135	-54.947	-0.251	0.113
-533.121	-23.699	-0.191	0.114
-532.106	-113.979	0.207	0.040
-531.091	-96.680	-0.016	-0.004
-530.077	-91.973	-0.110	-0.031
-529.062	-39.119	-0.234	-0.123
-528.048	239.432	0.120	0.199
-527.033	-166.081	0.186	-0.008
-526.018	53.250	-0.051	0.049
-525.004	-200.000	-0.025	-0.186
-523.989	-200.000	0.015	0.346
-522.975	638.867	0.027	-0.069
-521.960	40.477	-0.248	-0.223
-520.945	89.648	-0.051	-0.057
-519.931	596.041	0.008	0.021
-518.916	772.823	-0.049	0.134
-517.902	130.125	-0.183	0.234
-516.887	63.925	-0.028	0.028
-515.872	5.464	-0.448	0.330
-514.858	92.313	-0.201	0.226
-513.843	-200.000	-0.019	0.083
-512.829	-200.000	-0.017	-0.093
-511.814	-115.259	0.240	-0.045
-510.799	-67.963	0.163	0.064
-509.785	186.483	-0.079	-0.117
-508.770	85.929	-0.079	0.086
-507.756	800.000	0.062	-0.225
-506.741	-103.916	0.237	-0.055
-505.726	-200.000	0.021	-0.138
-504.712	800.000	-0.122	-0.370
-503.697	-80.693	0.127	-0.042
-502.683	-151.176	0.194	0.015
-501.668	37.821	-0.252	-0.223
-500.653	96.314	-0.320	-0.365
-499.639	221.410	0.105	0.168
-498.624	-50.343	-0.102	-0.048
-497.610	-97.610	0.091	0.023
-496.595	544.951	-0.048	-0.115
-495.581	-200.000	-0.030	0.158
-494.566	-165.149	0.097	0.004
-493.551	-11.180	0.213	0.140
-492.537	-200.000	0.014	0.207
-491.522	-200.000	0.343	0.001
-490.508	44.919	-0.119	0.110
-489.493	584.384	0.068	-0.167
-488.478	-5.377	-0.198	-0.136
-487.464	770.950	0.085	-0.232
-486.449	-76.107	0.194	-0.068
-485.435	800.000	0.030	-0.129
-484.420	-200.000	0.011	0.173
-483.405	-63.337	0.114	0.047
-482.391	156.583	0.212	0.292
-481.376	800.000	-0.067	-0.276
-480.362	-200.000	-0.053	-0.494
-479.347	362.824	-0.113	0.225
-478.332	108.792	-0.070	0.083
-477.318	-38.970	-0.146	0.077
-476.303	126.364	0.098	-0.123
-475.289	1.464	0.129	-0.092
-474.274	-200.000	0.008	0.060
-473.259	-109.855	0.346	-0.072
-472.245	259.629	0.219	0.377
-471.230	272.336	-0.013	0.022
-470.216	69.021	-0.076	-0.078
-469.201	-62.092	-0.061	-0.025
-468.186	592.855	-0.114	-0.281
-467.172	121.472	0.041	-0.051
-466.157	365.154	0.052	-0.105
-465.143	793.122	0.024	-0.065
-464.128	388.207	-0.097	0.201
-463.113	-51.000	-0.300	-0.140
-462.099	-42.230	-0.302	-0.153
-461.084	-164.596	0.258	0.012
-460.070	45.059	0.209	0.192
-459.055	96.170	-0.262	0.298
-458.040	-95.613	-0.193	0.051
-457.026	-101.297	0.115	-0.028
-456.011	125.641	0.270	-0.340
-454.997	-200.000	-0.012	-0.221
-453.982	-179.175	-0.112	0.002
-452.968	237.519	0.098	0.162
-451.953	-167.638	0.071	0.003
-450.938	86.556	0.230	-0.253
-449.924	-148.816	-0.264	-0.021
-448.909	252.869	-0.251	0.426
-447.895	800.000	0.068	0.234
-446.880	391.950	-0.096	-0.199
-445.865	2.464	0.128	-0.092
-444.851	-95.763	0.122	0.033
-443.836	800.000	0.050	-0.166
-442.822	326.885	-0.099	0.189
-441.807	236.539	-0.051	0.083
-440.792	-200.000	0.011	0.079
-439.778	-200.000	0.042	-0.258
-438.763	-25.663	-0.198	0.116
-437.749	-65.311	-0.045	-0.018
-436.734	-100.882	0.059	-0.014
-435.719	343.341	-0.024	-0.047
-434.705	-38.277	0.170	0.089
-433.690	-200.000	-0.016	0.175
-432.676	-44.322	-0.173	-0.086
-431.661	-103.909	0.407	-0.095
-430.646	-39.894	-0.382	0.198
-429.632	153.139	-0.140	-0.190
-428.617	-1.275	-0.302	-0.212
-427.603	-200.000	-0.029	0.264
-426.588	-200.000	-0.058	-0.328
-425.573	3.126	0.092	-0.066
-424.559	-74.459	-0.316	0.113
-423.544	-200.000	0.025	0.243
-422.530	173.240	-0.246	-0.352
-421.515	4.123	-0.192	0.140
-420.500	-139.819	0.316	-0.033
-419.486	276.568	-0.154	-0.272
-418.471	71.243	-0.119	0.123
-417.457	-121.866	-0.099	0.016
-416.442	89.086	-0.206	-0.228
-415.428	105.970	0.127	-0.149
-414.413	483.298	-0.171	0.386
-413.398	-200.000	0.059	-0.271
-412.384	-34.256	0.299	-0.163
-411.369	195.474	-0.163	-0.246
-410.355	229.375	0.089	0.144
-409.340	-200.000	0.019	-0.165
-408.325	-51.052	-0.053	-0.025
-407.311	81.348	0.145	0.156
-406.296	-200.000	0.071	0.351
-405.282	240.254	0.089	0.148
-404.267	-46.863	-0.342	-0.166
-403.252	-15.547	0.231	-0.147
-402.238	-200.000	-0.005	-0.101
-401.223	-200.000	-0.017	0.288
-400.209	-63.118	-0.040	-0.016
-399.194	-72.623	0.171	-0.062
-398.179	-200.000	-0.035	-0.464
-397.165	-200.000	-0.013	-0.139
-396.150	-200.000	-0.024	-0.240
-395.136	43.202	0.153	-0.139
-394.121	721.984	-0.107	0.284
-393.106	347.297	0.063	-0.124
-392.092	-54.892	-0.155	-0.070
-391.077	-109.686	0.203	0.042
-390.063	154.442	0.101	0.138
-389.048	26.465	-0.211	0.175
-388.033	-200.000	-0.013	-0.257
-387.019	-132.616	-0.034	-0.004
-386.004	-35.394	-0.216	0.117
-384.990	51.623	0.152	0.144
-383.975	389.423	-0.141	-0.290
-382.960	-85.188	0.485	-0.151
-381.946	-153.529	0.128	0.009
-380.931	-29.617	0.411	-0.233
-379.917	-200.000	0.050	0.230
-378.902	-41.261	-0.227	0.116
-377.888	19.384	-0.026	0.021
-376.873	478.090	0.070	0.158
-375.858	800.000	0.061	-0.264
-374.844	-130.676	0.071	-0.010
-373.829	-200.000	0.070	0.329
-372.815	800.000	0.103	0.306
-371.800	41.364	-0.085	-0.076
-370.785	800.000	0.148	-0.429
-369.771	654.819	0.039	-0.099
-368.756	35.645	-0.233	-0.203
-367.742	800.000	0.080	-0.318
-366.727	-64.226	0.205	0.083
-365.712	46.645	0.071	-0.065
-364.698	-61.243	-0.046	0.019
-363.683	346.394	-0.106	-0.207
-362.669	99.502	-0.112	-0.128
-361.654	193.129	0.128	-0.191
-360.639	800.000	-0.073	0.302
-359.625	122.994	-0.079	-0.098
-358.610	291.575	-0.053	-0.096
-357.596	-172.660	-0.011	0.000
-356.581	-166.781	0.157	-0.006
-355.566	-53.378	0.356	-0.162
-354.552	10.441	-0.342	0.258
-353.537	-200.000	0.044	0.253
-352.523	388.508	-0.124	0.255
-351.508	242.734	0.093	-0.155
-350.493	275.682	0.135	0.237
-349.479	-200.000	0.041	0.222
-348.464	-160.856	-0.432	-0.023
-347.450	-200.000	-0.051	0.232
-346.435	31.764	-0.102	-0.087
-345.420	240.339	-0.157	-0.259
-344.406	-122.598	-0.235	-0.038
-343.391	-200.000	0.019	-0.173
-342.377	-15.268	0.131	-0.083
-341.362	-70.403	-0.349	-0.131
-340.348	-46.624	0.145	-0.071
-339.333	-200.000	-0.043	0.263
-338.318	517.034	-0.095	-0.219
-337.304	800.000	0.029	0.107
-336.289	-122.546	-0.305	-0.049
-335.275	114.355	-0.267	0.322
-334.260	365.985	-0.032	0.064
-333.245	800.000	-0.028	-0.082
-332.231	62.255	0.152	0.150
-331.216	-85.452	0.302	-0.093
-330.202	-136.124	0.168	0.020
-329.187	107.673	0.252	0.297
-328.172	-161.672	0.197	-0.010
-327.158	181.917	-0.102	-0.148
-326.143	99.163	-0.194	0.222
-325.129	274.011	-0.116	0.204
-324.114	11.098	0.045	-0.034
-323.099	-200.000	-0.003	0.269
-322.085	25.373	-0.118	0.097
-321.070	2.683	0.266	0.191
-320.056	18.396	0.196	-0.155
-319.041	-100.312	0.240	0.059
-318.026	712.471	0.095	0.248
-317.012	-94.781	-0.268	-0.072
-315.997	460.970	0.153	0.337
-314.983	-114.692	-0.422	-0.080
-313.968	25.957	-0.187	0.155
-312.953	-118.775	-0.077	0.013
-311.939	-23.126	-0.265	-0.158
-310.924	-81.833	0.178	0.058
-309.910	-40.206	-0.340	0.175
-308.895	-200.000	0.021	-0.146
-307.880	-123.479	0.136	-0.021
-306.866	213.884	0.189	-0.296
-305.851	-200.000	-0.046	0.217
-304.837	-76.570	-0.242	-0.084
-303.822	-200.000	-0.014	0.098
-302.807	78.244	-0.167	-0.176
-301.793	0.944	-0.153	0.108
-300.778	-200.000	0.032	-0.248
-299.764	34.364	0.419	-0.362
-298.749	-63.416	-0.138	0.056
-297.735	209.327	0.138	0.215
-296.720	-125.243	0.385	0.058
-295.705	-21.535	0.244	0.147
-294.691	-78.101	0.271	-0.092
-293.676	-65.779	0.212	0.084
-292.662	-29.653	0.310	-0.175
-291.647	-85.219	0.316	0.098
-290.632	-74.255	-0.140	-0.050
-289.618	128.306	0.125	-0.157
-288.603	800.000	-0.001	0.002
-287.589	109.246	0.074	0.087
-286.574	-0.652	-0.480	0.337
-285.559	800.000	-0.025	-0.075
-284.545	800.000	-0.012	0.036
-283.530	-45.626	-0.279	-0.137
-282.516	-200.000	-0.023	0.127
-281.501	135.432	0.128	-0.165
-280.486	254.330	-0.040	-0.067
-279.472	81.019	0.143	-0.153
-278.457	-69.395	0.100	0.038
-277.443	-38.091	0.279	0.146
-276.428	-23.112	-0.079	0.047
-275.413	-74.415	0.258	-0.092
-274.399	-82.041	0.109	0.035
-273.384	-200.000	0.029	0.139
-272.370	800.000	0.099	0.272
-271.355	-110.386	0.108	-0.022
-270.340	114.663	-0.090	-0.109
-269.326	800.000	0.096	0.391
-268.311	114.773	-0.080	0.097
-267.297	77.643	-0.208	-0.219
-266.282	110.338	-0.154	0.183
-265.267	-165.653	-0.288	-0.012
-264.253	-63.316	-0.242	0.099
-263.238	-124.888	-0.646	0.098
-262.224	154.757	0.030	0.041
-261.209	108.288	0.121	0.142
-260.195	-200.000	0.041	0.342
-259.180	59.103	0.084	0.081
-258.165	-179.023	0.289	0.006
-257.151	486.506	-0.019	0.043
-256.136	419.231	0.096	-0.202
-255.122	-88.228	-0.017	-0.005
-254.107	-47.927	0.400	0.191
-253.092	-200.000	0.062	-0.299
-252.078	-200.000	0.007	-0.036
-251.063	-200.000	-0.045	-0.225
-250.049	-200.000	0.026	-0.115
-249.034	-115.040	-0.145	0.027
-248.019	80.270	-0.193	-0.205
-247.005	-25.167	-0.060	0.035
-245.990	-34.891	0.420	0.227
-244.976	800.000	-0.058	-0.170
-243.961	415.304	0.017	0.035
-242.946	371.800	-0.156	-0.313
-241.932	-121.655	-0.242	0.040
-240.917	-25.818	0.081	-0.047
-239.903	-200.000	-0.029	-0.134
-238.888	800.000	-0.127	-0.475
-237.873	129.573	0.139	0.176
-236.859	-200.000	-0.004	-0.310
-235.844	-164.725	0.272	-0.012
-234.830	372.848	0.048	-0.097
-233.815	-154.257	0.327	-0.022
-232.800	-38.187	0.135	0.070
-231.786	115.041	-0.148	0.178
-230.771	304.037	0.117	-0.214
-229.757	800.000	-0.056	-0.177
-228.742	-68.797	0.073	-0.028
-227.727	133.185	-0.160	0.204
-226.713	136.475	0.104	-0.133
-225.698	-141.769	0.317	0.031
-224.684	800.000	-0.111	-0.343
-223.669	7.104	0.174	0.128
-222.655	34.422	-0.334	0.288
-221.640	800.000	-0.095	0.317
-220.625	-200.000	-0.031	-0.224
-219.611	280.645	0.086	0.152
-218.596	-15.745	-0.278	-0.175
-217.582	144.614	-0.086	0.114
-216.567	800.000	0.051	0.145
-215.552	800.000	-0.013	-0.037
-214.538	-200.000	0.015	0.202
-213.523	69.926	0.043	0.044
-212.509	-112.769	-0.079	-0.015
-211.494	-77.786	0.133	0.045
-210.479	-42.025	0.123	-0.062
-209.465	19.673	0.188	0.149
-208.450	153.183	0.103	-0.139
-207.436	-179.559	-0.175	0.004
-206.421	-200.000	-0.009	-0.082
-205.406	-176.864	0.123	-0.003
-204.392	18.062	-0.153	0.120
-203.377	-15.913	-0.034	-0.021
-202.363	29.337	-0.160	0.134
-201.348	-55.180	-0.381	-0.169
-200.333	-41.332	-0.216	0.110
-199.319	43.321	-0.215	0.194
-198.304	0.440	-0.209	-0.147
-197.290	463.694	0.165	0.363
-196.275	-104.089	0.153	0.035
-195.260	9.661	-0.101	-0.075
-194.246	634.321	0.161	0.401
-193.231	-74.138	-0.080	0.028
-192.217	198.472	-0.125	0.188
-191.202	183.258	0.069	-0.101
-190.187	-28.309	-0.049	0.028
-189.173	1.681	0.313	-0.222
-188.158	34.896	-0.082	0.071
-187.144	52.998	0.216	0.204
-186.129	-200.000	-0.086	0.383
-185.114	46.812	-0.180	-0.164
-184.100	-86.606	0.082	-0.025
-183.085	-67.360	0.266	-0.103
-182.071	-187.820	-0.171	0.002
-181.056	11.803	-0.095	0.072
-180.042	243.416	-0.030	-0.050
-179.027	86.653	0.065	0.071
-178.012	800.000	-0.089	0.268
-176.998	61.268	0.353	0.345
-175.983	800.000	-0.063	-0.229
-174.969	45.070	0.142	0.129
-173.954	68.654	-0.369	0.373
-172.939	-145.445	0.242	-0.021
-171.925	-200.000	-0.004	0.341
-170.910	-200.000	0.022	0.149
-169.896	76.663	-0.154	0.161
-168.881	800.000	-0.048	-0.203
-167.866	1.974	0.349	-0.248
-166.852	-117.181	-0.035	0.006
-165.837	-86.883	0.276	-0.083
-164.823	365.389	0.133	-0.264
-163.808	482.645	0.073	-0.163
-162.793	724.018	-0.135	-0.353
-161.779	-150.458	0.165	0.012
-160.764	-113.538	0.209	-0.040
-159.750	-21.850	0.111	-0.067
-158.735	317.954	-0.009	-0.017
-157.720	-200.000	0.032	0.195
-156.706	-8.197	0.251	-0.166
-155.691	-200.000	-0.026	0.308
-154.677	-105.120	-0.220	0.049
-153.662	227.440	0.252	0.403
-152.647	-200.000	0.019	0.151
-151.633	-97.117	-0.234	0.060
-150.618	54.968	0.103	0.098
-149.604	9.034	-0.185	-0.138
-148.589	-200.000	-0.015	-0.123
-147.574	88.586	0.137	-0.149
-146.560	364.336	0.104	0.207
-145.545	-200.000	-0.021	-0.159
-144.531	-10.905	-0.177	0.115
-143.516	140.859	-0.071	0.092
-142.502	-53.258	0.106	-0.048
-141.487	374.227	-0.030	0.061
-140.472	-55.334	-0.225	0.099
-139.458	-200.000	-0.031	0.257
-138.443	-200.000	-0.018	-0.355
-137.429	-200.000	0.084	-0.459
-136.414	170.184	0.297	0.417
-135.399	-157.639	0.227	0.013
-134.385	246.328	0.252	-0.418
-133.370	40.504	-0.145	-0.128
-132.356	-200.000	-0.030	-0.195
-131.341	382.352	-0.138	0.279
-130.326	-200.000	-0.038	0.174
-129.312	-118.776	-0.254	-0.044
-128.297	-200.000	0.037	-0.234
-127.283	348.005	-0.160	-0.309
-126.268	116.398	0.322	0.387
-125.253	-79.484	0.161	0.054
-124.239	108.325	-0.122	0.143
-123.224	-64.855	0.156	-0.062
-122.210	331.629	0.224	-0.425
-121.195	-129.511	0.295	-0.040
