DTS Sentinel unit serial number:	SN413079Multiplexer serial number:	ORYXHardware model number:	OX4-SRSoftware version number:	ORYX F/W v4.00 Oryx Data Collector v3.7.2.0data status	okinstallation	princeton_trtdifferential loss correction	single-endedforward channel	channel 3reverse channel	N/Adate	2019/09/12time	19:01:04forward acquisition time	15.00reverse acquisition time	0.00gamma	496.2192k internal	0.2319k external	0.2319temperature offset calibration	1.0093default loss term (dB/km)	0.3790temperature slope calibration	1.0000multiplexer offset coefficient	1.0000multiplexer slope coefficient	1.0000fibre end	0.00T internal ref (°C)	32.75T ext. ref 1 (°C)	3.02T ext. ref 2 (°C)	27.31length (m)	temperature (°C)	Stokes	anti-Stokes-747.200	800.000	0.256	0.756
-746.185	-200.000	-0.342	0.001
-745.171	-50.737	-0.740	0.352
-744.156	41.018	0.580	-0.530
-743.142	15.281	0.188	-0.149
-742.127	-200.000	-0.004	0.167
-741.112	-200.000	0.012	0.188
-740.098	-200.000	-0.083	0.763
-739.083	-200.000	-0.031	0.206
-738.069	800.000	0.042	0.159
-737.054	-200.000	-0.164	-0.800
-736.039	277.882	0.074	-0.134
-735.025	49.246	0.539	0.512
-734.010	-8.111	-0.498	-0.339
-732.996	165.336	-0.328	0.469
-731.981	-106.342	0.437	0.099
-730.966	-7.984	-0.363	0.248
-729.952	-200.000	0.018	0.224
-728.937	-200.000	0.122	0.566
-727.923	123.914	-0.367	0.466
-726.908	-7.149	0.119	0.081
-725.894	-54.548	-0.569	0.260
-724.879	62.961	0.663	0.671
-723.864	282.089	-0.023	-0.042
-722.850	302.583	0.514	0.961
-721.835	188.496	-0.174	-0.263
-720.821	800.000	-0.287	-1.044
-719.806	18.646	-0.503	-0.406
-718.791	516.141	-0.172	-0.406
-717.777	235.451	0.035	-0.058
-716.762	-101.393	-0.252	0.062
-715.748	800.000	-0.262	0.762
-714.733	800.000	0.136	-0.422
-713.718	47.580	-0.277	0.262
-712.704	31.242	0.312	-0.270
-711.689	319.350	0.240	0.460
-710.675	800.000	0.123	-0.435
-709.660	200.431	0.275	0.427
-708.645	-93.626	0.626	-0.175
-707.631	-96.542	0.851	-0.227
-706.616	-200.000	0.002	0.028
-705.602	6.195	0.571	0.428
-704.587	-27.267	0.866	-0.509
-703.572	-54.237	-0.227	0.104
-702.558	330.532	-0.212	-0.413
-701.543	104.167	0.376	-0.447
-700.529	184.732	-0.515	0.771
-699.514	-128.631	0.621	0.089
-698.499	113.190	0.141	-0.173
-697.485	-200.000	0.087	-0.578
-696.470	338.053	-0.112	0.219
-695.456	134.816	-0.075	0.098
-694.441	-103.555	0.910	0.216
-693.426	276.805	-0.163	-0.292
-692.412	240.511	0.103	0.174
-691.397	-47.599	-0.638	0.313
-690.383	-200.000	0.114	-0.659
-689.368	-200.000	0.031	-0.708
-688.354	-24.296	0.892	-0.537
-687.339	-92.778	0.341	0.096
-686.324	336.865	-0.221	-0.434
-685.310	319.203	-0.448	-0.858
-684.295	6.384	-0.264	-0.198
-683.281	1.133	-0.826	0.599
-682.266	23.905	-0.180	-0.150
-681.251	-76.138	0.349	0.124
-680.237	-40.192	0.531	-0.279
-679.222	-64.545	1.246	0.511
-678.208	-108.068	-0.441	0.097
-677.193	-200.000	-0.008	0.389
-676.178	800.000	0.122	-0.356
-675.164	-69.018	-0.580	-0.226
-674.149	-48.026	-0.844	-0.412
-673.135	800.000	0.106	-0.457
-672.120	-6.572	-0.437	0.300
-671.105	240.536	-0.019	-0.031
-670.091	-200.000	-0.034	0.870
-669.076	-90.910	-0.159	-0.046
-668.062	10.821	0.631	0.486
-667.047	-100.112	0.556	0.140
-666.032	-140.172	-0.549	-0.058
-665.018	-185.467	0.267	-0.004
-664.003	-141.223	-0.142	0.015
-662.989	18.350	-0.379	-0.305
-661.974	-90.639	0.454	-0.132
-660.959	800.000	0.263	0.856
-659.945	-12.543	0.452	0.298
-658.930	-200.000	-0.070	-0.664
-657.916	-158.118	0.530	0.031
-656.901	523.488	-0.325	0.771
-655.886	219.923	0.524	-0.846
-654.872	-200.000	-0.119	0.586
-653.857	-200.000	-0.048	-0.299
-652.843	410.680	-0.431	-0.922
-651.828	479.409	0.357	-0.817
-650.814	-10.825	1.137	0.757
-649.799	-12.879	-0.664	-0.436
-648.784	237.777	0.235	0.394
-647.770	19.505	-0.330	-0.267
-646.755	-151.784	0.665	0.049
-645.741	-37.824	0.321	-0.172
-644.726	800.000	-0.214	-0.848
-643.711	44.594	0.555	-0.514
-642.697	762.610	0.065	0.177
-641.682	-0.265	-0.631	-0.452
-640.668	-200.000	-0.058	-0.312
-639.653	35.357	0.165	-0.146
-638.638	-113.658	-0.838	0.165
-637.624	-43.615	0.781	-0.397
-636.609	-200.000	-0.100	0.728
-635.595	276.790	-0.318	0.569
-634.580	313.704	-0.223	-0.422
-633.565	-200.000	-0.014	-0.819
-632.551	17.903	0.426	-0.342
-631.536	-200.000	-0.102	-1.366
-630.522	-200.000	0.016	0.438
-629.507	-89.159	-0.824	0.245
-628.492	-18.800	0.588	0.369
-627.478	13.520	0.344	-0.269
-626.463	62.134	0.505	0.507
-625.449	-200.000	0.138	-0.826
-624.434	-200.000	-1.064	0.001
-623.419	174.788	0.539	0.785
-622.405	161.209	0.465	0.654
-621.390	15.282	0.284	-0.224
-620.376	-103.781	0.247	-0.058
-619.361	800.000	-0.220	0.617
-618.346	101.403	-0.335	0.392
-617.332	-200.000	-0.064	-0.292
-616.317	669.931	0.099	-0.259
-615.303	-17.335	-0.596	-0.378
-614.288	-200.000	0.008	0.105
-613.273	-200.000	0.096	1.201
-612.259	13.047	0.303	0.236
-611.244	800.000	-0.074	0.205
-610.230	800.000	0.159	-0.527
-609.215	-32.519	-0.503	0.282
-608.201	800.000	-0.084	-0.269
-607.186	117.148	-0.320	-0.396
-606.171	-80.397	-0.433	-0.145
-605.157	800.000	0.186	-0.632
-604.142	287.006	-0.263	0.478
-603.128	-200.000	-0.147	0.890
-602.113	800.000	-0.131	0.484
-601.098	-77.170	0.501	-0.176
-600.084	-150.885	-0.813	0.062
-599.069	-200.000	0.091	-0.762
-598.055	-200.000	0.030	0.227
-597.040	-90.732	0.329	0.096
-596.025	-95.793	-0.909	0.244
-595.011	647.307	-0.254	-0.652
-593.996	-16.166	0.244	0.156
-592.982	163.819	0.257	-0.364
-591.967	-96.777	-0.670	-0.177
-590.952	-200.000	0.125	-0.735
-589.938	266.197	-0.238	0.417
-588.923	-2.121	-0.228	-0.161
-587.909	225.697	0.355	0.578
-586.894	800.000	0.181	0.540
-585.879	-200.000	0.018	0.185
-584.865	34.047	-0.389	0.341
-583.850	-200.000	-0.057	0.282
-582.836	-200.000	-0.034	0.268
-581.821	-117.134	0.757	-0.139
-580.806	-93.395	0.510	0.142
-579.792	-40.381	-0.687	0.359
-578.777	-82.848	-0.661	0.215
-577.763	131.671	-0.126	-0.163
-576.748	-95.542	0.500	0.135
-575.733	-83.951	-0.453	-0.145
-574.719	305.205	-0.186	-0.348
-573.704	-56.064	0.596	0.267
-572.690	-9.781	-0.217	-0.145
-571.675	41.698	0.361	-0.328
-570.661	-175.689	-0.439	-0.012
-569.646	-91.126	0.260	-0.075
-568.631	394.069	0.170	-0.355
-567.617	391.933	-0.138	0.289
-566.602	-144.608	-0.556	0.052
-565.588	-180.309	0.912	-0.019
-564.573	648.226	0.038	-0.096
-563.558	-147.702	0.574	-0.048
-562.544	659.177	0.200	0.517
-561.529	-61.491	-0.581	0.245
-560.515	365.930	0.203	0.411
-559.500	264.838	0.384	0.671
-558.485	-200.000	-0.067	-0.360
-557.471	-91.775	0.799	-0.228
-556.456	800.000	-0.195	-0.550
-555.442	-69.779	-0.984	0.377
-554.427	103.486	0.296	-0.349
-553.412	253.596	-0.238	0.408
-552.398	-200.000	-0.016	0.423
-551.383	-87.265	-0.339	-0.103
-550.369	-91.631	-0.527	0.151
-549.354	81.318	0.294	-0.319
-548.339	-200.000	0.027	0.776
-547.325	-16.058	-0.542	-0.346
-546.310	800.000	0.048	-0.135
-545.296	-113.434	-0.686	-0.135
-544.281	800.000	0.144	-0.548
-543.266	-32.845	0.320	0.178
-542.252	74.155	-0.072	0.076
-541.237	-156.371	-0.585	0.037
-540.223	-107.730	-0.475	0.104
-539.208	435.770	0.255	0.556
-538.193	471.403	-0.054	-0.121
-537.179	-134.781	-0.568	-0.069
-536.164	-41.986	0.355	0.183
-535.150	68.794	0.160	0.165
-534.135	-200.000	-0.133	0.616
-533.121	800.000	0.042	-0.178
-532.106	-200.000	0.009	0.333
-531.091	74.692	0.301	-0.318
-530.077	-0.289	0.195	0.139
-529.062	-200.000	0.063	0.502
-528.048	-69.238	-0.318	0.123
-527.033	-172.122	-0.431	0.014
-526.018	-70.698	-0.813	0.308
-525.004	-32.374	-0.961	0.538
-523.989	265.048	-0.094	0.164
-522.975	800.000	-0.063	-0.248
-521.960	70.557	0.441	-0.458
-520.945	348.862	-0.287	0.568
-519.931	-118.103	0.909	0.163
-518.916	123.060	-0.457	0.573
-517.902	-200.000	-0.008	-0.861
-516.887	-25.428	-0.113	-0.067
-515.872	-127.517	-0.669	-0.097
-514.858	462.893	0.374	0.837
-513.843	-17.686	-0.811	-0.511
-512.829	-139.549	0.506	0.054
-511.814	800.000	-0.163	0.615
-510.799	-57.006	-0.468	-0.207
-509.785	18.882	0.651	0.523
-508.770	-127.340	-0.564	0.082
-507.756	-124.180	-1.446	-0.227
-506.741	800.000	0.153	0.468
-505.726	391.867	-0.226	-0.470
-504.712	410.865	0.253	-0.538
-503.697	-105.351	-0.438	-0.100
-502.683	105.163	0.120	0.142
-501.668	21.813	0.181	0.147
-500.653	-86.669	-0.495	0.152
-499.639	56.088	-0.228	0.222
-498.624	800.000	0.170	-0.674
-497.610	-38.179	0.301	0.160
-496.595	-123.121	0.413	0.066
-495.581	-200.000	-0.033	0.933
-494.566	-14.929	0.354	0.227
-493.551	11.456	0.129	0.099
-492.537	-33.283	-0.728	-0.404
-491.522	-19.237	0.149	-0.092
-490.508	-46.806	-0.571	0.280
-489.493	592.179	-0.211	-0.521
-488.478	-200.000	0.058	-0.367
-487.464	201.942	0.488	-0.754
-486.449	33.555	-0.320	-0.279
-485.435	-16.322	-1.145	0.728
-484.420	800.000	-0.137	0.521
-483.405	65.789	0.479	-0.486
-482.391	99.240	0.768	0.889
-481.376	107.284	0.422	0.503
-480.362	63.724	-0.426	0.428
-479.347	-200.000	0.031	0.189
-478.332	-150.709	0.090	0.007
-477.318	-3.206	0.578	-0.403
-476.303	-169.491	0.828	-0.030
-475.289	-200.000	-0.112	-0.763
-474.274	-200.000	1.227	0.000
-473.259	-192.466	0.518	0.005
-472.245	-200.000	0.067	-0.638
-471.230	-21.788	0.842	-0.513
-470.216	-200.000	-0.023	-0.735
-469.201	-200.000	-0.068	-0.317
-468.186	800.000	-0.332	0.978
-467.172	-27.609	0.522	0.303
-466.157	-118.979	1.022	-0.179
-465.143	179.681	0.510	-0.748
-464.128	-102.643	0.662	-0.158
-463.113	-200.000	-0.034	0.307
-462.099	800.000	0.230	0.773
-461.084	-107.858	-0.305	-0.066
-460.070	64.536	-0.279	-0.281
-459.055	-200.000	0.132	1.377
-458.040	800.000	0.258	1.047
-457.026	-200.000	-0.045	0.617
-456.011	33.454	-0.056	-0.049
-454.997	800.000	0.161	0.633
-453.982	29.870	0.659	-0.562
-452.968	113.785	-0.696	0.845
-451.953	-1.754	-0.406	-0.286
-450.938	274.394	-0.392	-0.693
-449.924	-115.727	0.464	-0.087
-448.909	-166.180	0.390	0.017
-447.895	-200.000	-0.060	-0.394
-446.880	800.000	-0.082	-0.256
-445.865	-200.000	0.056	-0.441
-444.851	479.083	-0.107	0.242
-443.836	411.565	-0.168	-0.357
-442.822	237.772	0.221	0.366
-441.807	-200.000	0.142	0.753
-440.792	-142.075	0.782	0.078
-439.778	-33.712	-0.410	-0.226
-438.763	-200.000	-0.003	0.075
-437.749	-47.554	-0.291	0.141
-436.734	-125.364	-0.719	0.110
-435.719	-68.846	-0.578	0.223
-434.705	800.000	-0.046	0.146
-433.690	562.278	-0.255	-0.617
-432.676	-163.981	0.771	0.036
-431.661	-107.942	-0.936	0.203
-430.646	114.598	0.344	-0.419
-429.632	-77.395	-0.899	-0.312
-428.617	800.000	0.198	0.548
-427.603	-125.089	1.081	-0.166
-426.588	-200.000	0.054	0.251
-425.573	-31.740	-0.858	0.481
-424.559	-3.700	-0.594	-0.412
-423.544	-108.445	0.817	-0.176
-422.530	89.373	-0.048	0.053
-421.515	800.000	-0.034	0.143
-420.500	-200.000	-0.049	-0.224
-419.486	181.873	0.595	-0.875
-418.471	-151.203	-0.190	-0.014
-417.457	800.000	0.241	-0.741
-416.442	-200.000	-0.057	0.286
-415.428	800.000	-0.170	-0.534
-414.413	66.300	0.131	0.133
-413.398	800.000	0.235	-0.931
-412.384	-93.236	-0.224	-0.062
-411.369	-200.000	-0.006	-0.095
-410.355	103.033	0.269	-0.314
-409.340	-153.000	-0.641	-0.045
-408.325	-200.000	0.072	0.592
-407.311	-10.023	-0.438	0.291
-406.296	-64.428	-0.467	-0.189
-405.282	238.489	0.154	-0.255
-404.267	800.000	-0.498	-1.769
-403.252	-90.062	-0.112	-0.033
-402.238	80.551	0.579	0.622
-401.223	169.851	-0.013	0.019
-400.209	-99.051	-0.297	0.075
-399.194	49.494	0.422	-0.397
-398.179	800.000	-0.143	-0.495
-397.165	84.427	0.453	-0.495
-396.150	4.846	-0.540	-0.396
-395.136	-184.082	-0.760	-0.013
-394.121	-57.462	0.293	-0.128
-393.106	120.675	0.238	-0.295
-392.092	158.532	0.342	0.474
-391.077	-200.000	-0.033	0.832
-390.063	-200.000	-0.127	-0.819
-389.048	-75.533	-0.304	-0.108
-388.033	-183.782	1.028	0.017
-387.019	-134.821	0.550	-0.067
-386.004	-87.581	-0.843	-0.254
-384.990	-71.137	0.553	-0.207
-383.975	-81.376	0.225	0.074
-382.960	-17.013	-0.175	0.110
-381.946	-200.000	0.085	1.122
-380.931	-134.586	0.266	0.032
-379.917	-0.861	-0.252	-0.178
-378.902	76.719	-0.449	-0.475
-377.888	-2.025	-0.627	0.440
-376.873	-151.358	0.547	0.041
-375.858	-200.000	-0.143	0.697
-374.844	-200.000	-0.008	0.308
-373.829	655.836	-0.058	0.149
-372.815	-200.000	0.049	-0.878
-371.800	-41.975	0.476	-0.243
-370.785	-4.488	0.733	-0.505
-369.771	193.477	0.351	-0.530
-368.756	-67.913	-0.917	0.357
-367.742	-200.000	-0.148	-0.737
-366.727	-69.101	-0.635	0.244
-365.712	-87.011	0.405	-0.123
-364.698	349.437	-0.296	-0.582
-363.683	-168.776	0.353	0.013
-362.669	-68.553	0.443	0.171
-361.654	-128.040	-0.714	-0.102
-360.639	-125.841	-0.478	-0.072
-359.625	-56.756	0.452	0.199
-358.610	800.000	0.217	-0.725
-357.596	138.708	0.782	-1.023
-356.581	-10.971	-0.234	-0.154
-355.566	33.790	0.265	0.230
-354.552	127.334	0.293	-0.370
-353.537	-82.813	0.543	-0.175
-352.523	616.699	0.031	-0.078
-351.508	-200.000	-0.011	0.423
-350.493	-200.000	0.020	0.716
-349.479	-131.220	0.359	0.048
-348.464	126.775	0.489	0.617
-347.450	24.519	0.611	0.503
-346.435	175.171	-0.128	-0.185
-345.420	499.147	0.185	0.425
-344.406	-156.826	-0.437	-0.027
-343.391	-200.000	-0.065	0.299
-342.377	-200.000	0.156	0.000
-341.362	399.705	-0.177	-0.370
-340.348	91.392	-0.558	-0.624
-339.333	-80.258	0.597	0.199
-338.318	-34.426	0.530	0.289
-337.304	-75.161	0.729	-0.260
-336.289	-15.347	0.269	-0.171
-335.275	800.000	0.131	-0.405
-334.260	42.512	0.616	-0.558
-333.245	716.058	-0.326	-0.860
-332.231	676.286	-0.386	-0.998
-331.216	-40.652	-0.208	0.107
-330.202	301.072	-0.119	0.219
-329.187	65.583	0.149	-0.151
-328.172	-98.248	0.782	-0.200
-327.158	678.973	-0.198	0.512
-326.143	-41.777	-0.303	-0.155
-325.129	739.194	-0.165	0.440
-324.114	589.970	0.388	0.953
-323.099	800.000	-0.030	-0.127
-322.085	589.592	0.401	-0.984
-321.070	-59.088	-0.704	0.302
-320.056	20.634	0.216	0.174
-319.041	252.109	-0.098	0.166
-318.026	-54.065	-0.312	-0.141
-317.012	182.402	-0.293	0.430
-315.997	611.086	0.243	0.603
-314.983	-103.557	-0.801	0.187
-313.968	-200.000	0.022	-0.753
-312.953	563.626	-0.302	0.728
-311.939	-113.514	-0.576	-0.112
-310.924	-117.921	0.520	-0.093
-309.910	-99.462	0.198	-0.049
-308.895	-74.587	-0.706	0.253
-307.880	-4.421	-0.642	-0.442
-306.866	-5.310	-0.189	0.129
-305.851	-146.072	0.328	-0.029
-304.837	70.987	-0.860	0.886
-303.822	-63.394	0.481	0.197
-302.807	-200.000	-0.098	-0.624
-301.793	-7.949	0.566	-0.379
-300.778	228.446	-0.244	-0.395
-299.764	35.100	0.462	-0.402
-298.749	-4.835	-0.088	0.061
-297.735	-42.907	0.200	-0.101
-296.720	-200.000	0.014	-0.547
-295.705	-93.367	0.432	-0.119
-294.691	214.484	0.366	0.577
-293.676	272.108	0.045	0.079
-292.662	-157.295	-0.129	0.008
-291.647	-106.249	0.982	-0.219
-290.632	-200.000	-0.030	-0.149
-289.618	-200.000	0.059	0.315
-288.603	-22.054	0.088	0.053
-287.589	-91.431	-0.143	0.040
-286.574	-72.339	0.588	0.216
-285.559	-90.050	-0.445	0.129
-284.545	119.839	-0.257	0.316
-283.530	-79.125	0.549	0.185
-282.516	-200.000	0.003	-0.156
-281.501	-172.392	-0.705	-0.022
-280.486	-99.568	0.053	0.013
-279.472	-200.000	-0.002	0.251
-278.457	-159.232	-1.254	-0.070
-277.443	5.872	0.411	-0.302
-276.428	60.901	0.086	0.085
-275.413	-200.000	-0.038	0.758
-274.399	288.852	-0.366	-0.659
-273.384	-200.000	0.093	0.673
-272.370	-165.059	-0.129	-0.006
-271.355	-67.718	0.536	0.209
-270.340	-200.000	-0.014	-0.139
-269.326	146.962	0.255	0.340
-268.311	179.676	0.245	-0.357
-267.297	97.897	0.452	0.516
-266.282	-22.566	0.176	-0.105
-265.267	-101.075	0.187	-0.045
-264.253	49.608	0.564	-0.527
-263.238	-111.096	0.513	-0.104
-262.224	215.721	-0.155	0.244
-261.209	415.277	0.213	0.451
-260.195	800.000	0.159	0.638
-259.180	-51.290	0.285	0.132
-258.165	200.421	-0.340	0.519
-257.151	235.132	-0.232	0.380
-256.136	-200.000	-0.052	-0.557
-255.122	254.925	-0.240	0.409
-254.107	49.313	-0.365	0.340
-253.092	534.560	-0.241	0.568
-252.078	-168.043	0.866	-0.034
-251.063	-175.703	0.585	0.016
-250.049	26.845	-0.588	0.489
-249.034	219.178	-0.467	0.741
-248.019	53.502	-0.290	-0.276
-247.005	19.243	-0.534	-0.425
-245.990	-200.000	0.051	0.318
-244.976	-18.990	-0.594	0.366
-243.961	43.609	-0.144	0.130
-242.946	-9.209	-0.211	0.140
-241.932	-16.186	-0.163	-0.103
-240.917	5.193	-0.527	0.385
-239.903	800.000	-0.207	0.601
-238.888	206.398	-0.237	0.366
-237.873	-143.273	0.588	-0.056
-236.859	367.801	-0.091	0.183
-235.844	800.000	0.173	-0.645
-234.830	-107.588	0.840	0.182
-233.815	800.000	-0.075	0.239
-232.800	800.000	0.262	-0.726
-231.786	22.212	0.333	0.270
-230.771	443.471	-0.233	0.507
-229.757	-30.404	-0.088	0.049
-228.742	800.000	0.153	-0.637
-227.727	800.000	0.164	-0.449
-226.713	-54.213	0.315	0.142
-225.698	-58.568	-0.738	0.318
-224.684	800.000	-0.197	-0.611
-223.669	-26.195	-0.335	-0.195
-222.655	800.000	0.196	-0.616
-221.640	-45.037	-0.282	-0.139
-220.625	-107.709	0.258	-0.056
-219.611	25.821	0.168	0.139
-218.596	190.168	0.607	-0.904
-217.582	221.656	0.256	0.408
-216.567	-200.000	-0.005	0.399
-215.552	5.656	0.808	0.592
-214.538	86.161	0.156	0.171
-213.523	-200.000	-0.050	0.314
-212.509	-143.368	-0.868	-0.082
-211.494	-14.730	0.027	-0.017
-210.479	785.127	-0.422	-1.146
-209.465	159.981	0.417	0.576
-208.450	-200.000	0.094	0.420
-207.436	266.124	-0.045	0.078
-206.421	-69.696	0.608	0.230
-205.406	-200.000	0.065	-0.301
-204.392	253.640	0.242	-0.410
-203.377	800.000	-0.081	-0.343
-202.363	130.130	-0.205	-0.259
-201.348	800.000	-0.043	0.170
-200.333	-152.359	0.268	0.019
-199.319	-117.423	0.135	-0.024
-198.304	-127.456	0.187	0.027
-197.290	4.374	1.199	0.870
-196.275	-196.922	0.301	0.002
-195.260	-136.943	0.371	-0.042
-194.246	-43.471	0.189	0.095
-193.231	800.000	-0.025	-0.074
-192.217	87.413	-0.433	-0.474
-191.202	-59.465	0.699	0.298
-190.187	-48.092	-1.137	-0.544
-189.173	-103.779	-1.140	0.264
-188.158	671.565	0.126	-0.322
-187.144	157.118	0.810	-1.109
-186.129	196.035	0.224	0.337
-185.114	545.526	0.115	0.272
-184.100	346.755	-0.074	-0.145
-183.085	-144.025	0.405	0.038
-182.071	-113.710	-0.607	-0.117
-181.056	38.984	-0.121	0.107
-180.042	-148.293	-0.771	-0.063
-179.027	-200.000	-0.030	0.340
-178.012	800.000	-0.164	-0.575
-176.998	-51.261	0.629	-0.291
-175.983	-115.954	-0.530	-0.098
-174.969	120.634	-0.184	-0.226
-173.954	188.786	-0.127	-0.187
-172.939	800.000	-0.122	0.393
-171.925	-43.900	0.780	-0.388
-170.910	-200.000	0.003	0.360
-169.896	1.093	0.546	-0.388
-168.881	-141.126	-0.390	-0.039
-167.866	148.625	-0.432	0.578
-166.852	800.000	0.009	0.028
-165.837	92.482	0.496	-0.554
-164.823	800.000	-0.044	-0.149
-163.808	99.944	-0.328	0.376
-162.793	90.967	0.833	-0.923
-161.779	-38.129	-0.579	-0.304
-160.764	-73.351	-0.184	0.067
-159.750	-94.392	0.077	-0.021
-158.735	206.031	-0.132	0.202
-157.720	718.894	-0.259	0.681
-156.706	19.469	-0.241	-0.191
-155.691	-106.803	-0.659	-0.144
-154.677	-200.000	-0.030	-1.017
-153.662	115.461	-0.280	0.339
-152.647	77.098	-0.235	0.247
-151.633	-200.000	-0.074	0.416
-150.618	-200.000	-0.061	-0.604
-149.604	-200.000	-0.036	-0.295
-148.589	95.265	0.383	-0.431
-147.574	-8.391	0.178	0.118
-146.560	49.822	-0.223	-0.208
-145.545	-200.000	-0.036	-0.271
-144.531	-200.000	0.006	-0.341
-143.516	329.085	-0.311	-0.591
-142.502	51.585	0.256	0.240
-141.487	800.000	-0.052	0.164
-140.472	467.432	0.247	-0.547
-139.458	21.354	0.432	-0.347
-138.443	-90.401	0.189	0.054
-137.429	377.869	0.186	-0.376
-136.414	-200.000	0.126	0.706
-135.399	-27.517	-0.194	-0.111
-134.385	-97.062	-0.591	0.153
-133.370	-169.519	-0.603	-0.022
-132.356	-27.698	-0.381	0.218
-131.341	-120.094	0.581	-0.098
-130.326	-121.666	-0.525	0.086
-129.312	28.686	-0.504	-0.421
-128.297	-6.444	0.442	-0.298
-127.283	485.900	-0.248	0.558
-126.268	-152.524	0.431	-0.031
-125.253	800.000	0.280	0.945
-124.239	644.984	-0.265	0.668
-123.224	171.485	-0.083	-0.118
-122.210	800.000	0.075	0.230
-121.195	800.000	-0.129	-0.507
