DTS Sentinel unit serial number:	SN413079Multiplexer serial number:	ORYXHardware model number:	OX4-SRSoftware version number:	ORYX F/W v4.00 Oryx Data Collector v3.7.2.0data status	okinstallation	princeton_trtdifferential loss correction	single-endedforward channel	channel 3reverse channel	N/Adate	2019/09/10time	21:22:11forward acquisition time	60.00reverse acquisition time	0.00gamma	496.2192k internal	0.2328k external	0.2328temperature offset calibration	0.9917default loss term (dB/km)	0.3790temperature slope calibration	1.0000multiplexer offset coefficient	1.0000multiplexer slope coefficient	1.0000fibre end	0.00T internal ref (°C)	31.25T ext. ref 1 (°C)	-0.32T ext. ref 2 (°C)	24.43length (m)	temperature (°C)	Stokes	anti-Stokes-747.200	249.037	0.147	0.251
-746.185	-80.545	0.151	-0.051
-745.171	-200.000	0.019	0.112
-744.156	-200.000	0.003	0.135
-743.142	-120.517	0.348	0.059
-742.127	-169.437	0.243	-0.009
-741.112	800.000	-0.058	-0.241
-740.098	192.240	-0.097	0.147
-739.083	-57.983	0.245	-0.108
-738.069	-200.000	-0.005	-0.031
-737.054	222.929	0.263	0.427
-736.039	800.000	-0.067	-0.212
-735.025	800.000	0.048	-0.203
-734.010	-29.159	-0.143	-0.083
-732.996	181.018	0.129	0.192
-731.981	-43.567	-0.053	0.027
-730.966	-126.447	0.365	0.055
-729.952	-84.328	-0.211	0.067
-728.937	800.000	0.109	-0.314
-727.923	53.831	0.083	-0.080
-726.908	-122.755	0.344	-0.056
-725.894	-146.465	0.053	0.005
-724.879	52.664	0.219	-0.211
-723.864	-49.797	-0.290	-0.139
-722.850	-200.000	0.055	-0.496
-721.835	141.470	-0.090	-0.120
-720.821	-122.058	-0.276	0.046
-719.806	-153.289	0.246	-0.017
-718.791	-1.844	-0.244	-0.173
-717.777	-200.000	-0.069	0.000
-716.762	-200.000	-0.008	0.260
-715.748	625.931	0.121	0.308
-714.733	-200.000	0.028	-0.220
-713.718	462.411	0.001	0.002
-712.704	-68.184	-0.129	0.051
-711.689	-166.404	-0.177	-0.007
-710.675	-200.000	0.031	-0.229
-709.660	82.524	-0.220	0.240
-708.645	800.000	-0.034	-0.112
-707.631	487.155	0.070	-0.161
-706.616	-200.000	-0.046	0.256
-705.602	-82.630	0.438	0.143
-704.587	-73.881	-0.126	0.046
-703.572	-200.000	-0.017	-0.321
-702.558	-34.897	0.276	-0.152
-701.543	-65.080	0.118	-0.048
-700.529	11.029	-0.276	0.212
-699.514	-136.053	0.310	0.037
-698.499	-88.636	-0.274	-0.082
-697.485	-0.291	0.139	0.099
-696.470	-200.000	-0.012	-0.076
-695.456	-21.864	-0.253	-0.155
-694.441	691.629	0.017	-0.043
-693.426	-200.000	-0.029	-0.363
-692.412	72.474	0.250	0.262
-691.397	-200.000	0.018	-0.500
-690.383	11.931	0.122	-0.094
-689.368	-72.273	-0.288	0.107
-688.354	-180.865	0.298	0.006
-687.339	-200.000	0.018	-0.083
-686.324	-9.060	0.215	-0.145
-685.310	-154.072	0.499	0.034
-684.295	228.287	-0.130	0.213
-683.281	111.432	0.178	-0.216
-682.266	-50.974	-0.149	-0.070
-681.251	-96.661	0.149	0.039
-680.237	-61.747	-0.206	0.087
-679.222	65.363	0.034	-0.034
-678.208	-47.995	0.016	-0.008
-677.193	-20.357	-0.160	-0.099
-676.178	36.919	0.241	-0.215
-675.164	-146.088	-0.411	-0.036
-674.149	11.914	-0.062	-0.048
-673.135	27.503	-0.053	0.045
-672.120	-82.021	0.298	-0.098
-671.105	-4.910	0.093	-0.064
-670.091	155.533	0.086	-0.119
-669.076	-200.000	-0.038	-0.176
-668.062	408.832	-0.076	-0.161
-667.047	29.316	-0.304	-0.259
-666.032	800.000	0.110	-0.375
-665.018	36.796	0.119	0.105
-664.003	-14.385	0.284	-0.183
-662.989	800.000	-0.085	-0.240
-661.974	66.135	-0.116	0.118
-660.959	-29.393	0.199	0.115
-659.945	729.124	-0.075	-0.202
-658.930	800.000	-0.071	-0.304
-657.916	-109.385	-0.424	-0.090
-656.901	-55.007	-0.147	0.066
-655.886	-81.141	0.102	-0.034
-654.872	-200.000	0.030	0.362
-653.857	800.000	-0.055	0.227
-652.843	59.562	0.132	0.131
-651.828	800.000	-0.177	-0.532
-650.814	800.000	-0.089	-0.249
-649.799	-200.000	-0.044	-0.209
-648.784	74.779	-0.045	0.048
-647.770	258.630	0.173	0.299
-646.755	313.777	-0.076	0.144
-645.741	415.693	-0.095	0.203
-644.726	-200.000	-0.006	0.048
-643.711	800.000	0.032	0.119
-642.697	16.486	0.233	0.185
-641.682	-105.293	-0.075	-0.017
-640.668	-200.000	0.009	-0.425
-639.653	800.000	0.097	-0.300
-638.638	-200.000	-0.010	0.157
-637.624	800.000	0.006	-0.026
-636.609	-52.217	0.199	0.093
-635.595	-41.636	0.270	0.139
-634.580	-118.127	-0.163	0.029
-633.565	-181.472	0.120	0.002
-632.551	800.000	0.075	-0.217
-631.536	21.922	0.267	0.218
-630.522	593.658	0.128	0.318
-629.507	-37.351	0.184	-0.099
-628.492	-200.000	-0.008	-0.056
-627.478	-151.033	-0.083	-0.006
-626.463	-105.899	0.164	-0.037
-625.449	231.694	-0.027	0.044
-624.434	-128.308	-0.054	0.008
-623.419	63.716	0.100	-0.100
-622.405	119.100	0.098	-0.122
-621.390	-127.610	-0.454	-0.066
-620.376	-200.000	0.041	-0.613
-619.361	-149.750	-0.471	0.037
-618.346	106.745	-0.183	-0.217
-617.332	194.796	-0.033	0.050
-616.317	-37.937	-0.283	0.151
-615.303	59.154	0.080	-0.079
-614.288	14.664	-0.161	0.127
-613.273	74.142	-0.165	0.173
-612.259	85.600	0.158	-0.174
-611.244	-135.544	-0.178	0.021
-610.230	-200.000	0.037	0.457
-609.215	-200.000	0.010	0.343
-608.201	127.080	0.093	-0.118
-607.186	-200.000	0.014	-0.088
-606.171	-200.000	-0.018	-0.139
-605.157	-94.021	-0.303	-0.083
-604.142	-46.958	-0.271	0.133
-603.128	-200.000	0.021	-0.255
-602.113	81.640	-0.143	0.155
-601.098	-96.536	-0.185	0.049
-600.084	546.466	0.032	0.078
-599.069	81.442	-0.104	0.112
-598.055	-23.830	0.082	0.049
-597.040	-200.000	-0.009	-0.121
-596.025	336.526	0.064	-0.125
-595.011	172.442	-0.154	-0.222
-593.996	65.388	-0.179	0.181
-592.982	-200.000	0.030	-0.480
-591.967	800.000	0.103	-0.443
-590.952	38.637	0.182	0.162
-589.938	-25.264	-0.218	-0.129
-588.923	66.101	-0.255	0.259
-587.909	-88.614	-0.161	-0.048
-586.894	191.976	0.049	-0.074
-585.879	129.487	-0.201	-0.257
-584.865	-109.473	0.166	0.035
-583.850	2.991	-0.036	0.026
-582.836	69.635	0.140	-0.145
-581.821	-118.045	0.188	0.034
-580.806	218.565	0.048	-0.077
-579.792	800.000	-0.045	0.147
-578.777	-93.033	0.106	-0.030
-577.763	-113.003	-0.256	0.051
-576.748	-200.000	0.021	0.213
-575.733	24.642	0.221	-0.183
-574.719	-48.392	0.335	0.162
-573.704	121.984	-0.139	-0.174
-572.690	-165.494	0.225	-0.010
-571.675	21.014	0.095	-0.077
-570.661	454.236	-0.191	0.423
-569.646	-68.468	0.246	0.096
-568.631	146.701	-0.119	-0.159
-567.617	-200.000	0.010	-0.050
-566.602	-144.132	-0.180	0.017
-565.588	-168.070	0.208	0.008
-564.573	385.429	0.034	-0.070
-563.558	396.870	0.021	0.043
-562.544	39.627	0.239	-0.215
-561.529	172.920	-0.160	-0.230
-560.515	418.538	0.028	0.060
-559.500	-8.541	0.288	-0.194
-558.485	-48.429	-0.124	-0.060
-557.471	716.193	-0.039	0.103
-556.456	212.824	0.091	-0.144
-555.442	159.641	0.053	0.073
-554.427	-200.000	0.015	-0.139
-553.412	-102.303	0.283	0.068
-552.398	30.924	-0.034	0.029
-551.383	-200.000	0.032	-0.164
-550.369	43.716	-0.097	-0.089
-549.354	-102.275	-0.315	0.076
-548.339	800.000	0.131	0.431
-547.325	-149.591	-0.101	0.008
-546.310	484.738	-0.120	0.273
-545.296	141.855	0.127	-0.169
-544.281	-186.319	-0.214	0.003
-543.266	-200.000	-0.059	0.262
-542.252	336.301	0.213	0.414
-541.237	103.290	0.064	0.075
-540.223	26.235	-0.160	-0.133
-539.208	204.261	-0.149	-0.231
-538.193	-118.483	0.023	-0.004
-537.179	-32.745	0.063	0.035
-536.164	-42.118	-0.139	0.071
-535.150	-200.000	-0.057	0.418
-534.135	-137.493	-0.293	0.033
-533.121	-200.000	0.040	0.364
-532.106	-36.236	-0.217	-0.117
-531.091	800.000	-0.068	0.206
-530.077	35.413	0.119	-0.105
-529.062	122.402	0.084	0.105
-528.048	-200.000	0.003	0.282
-527.033	279.964	0.131	0.233
-526.018	24.883	0.132	-0.110
-525.004	-0.887	-0.213	-0.150
-523.989	-200.000	-0.011	-0.116
-522.975	-117.562	0.401	-0.072
-521.960	-68.286	0.153	0.059
-520.945	-136.367	0.287	-0.033
-519.931	795.819	0.116	-0.319
-518.916	-44.223	0.184	-0.092
-517.902	-200.000	0.062	-0.277
-516.887	-86.054	-0.110	-0.034
-515.872	368.722	0.138	0.278
-514.858	188.486	-0.099	-0.149
-513.843	-73.919	0.127	-0.046
-512.829	17.665	0.084	-0.067
-511.814	3.399	0.192	-0.139
-510.799	-56.742	-0.108	0.048
-509.785	52.568	0.035	-0.034
-508.770	420.905	-0.095	0.203
-507.756	-11.136	0.125	-0.082
-506.741	451.961	0.072	0.158
-505.726	-200.000	0.074	-0.332
-504.712	161.354	-0.122	-0.171
-503.697	216.187	0.017	0.027
-502.683	-200.000	0.041	0.247
-501.668	72.499	-0.078	-0.081
-500.653	15.357	0.032	-0.025
-499.639	166.838	0.102	-0.144
-498.624	-200.000	-0.036	0.227
-497.610	-123.358	-0.486	-0.077
-496.595	-200.000	-0.007	-0.256
-495.581	410.494	0.126	0.267
-494.566	-26.353	-0.152	-0.089
-493.551	-167.460	0.245	0.010
-492.537	132.000	0.143	0.184
-491.522	-53.560	-0.076	0.035
-490.508	74.916	-0.287	-0.301
-489.493	-45.782	-0.173	-0.085
-488.478	215.742	-0.084	-0.133
-487.464	116.319	-0.259	0.316
-486.449	-170.614	0.239	0.008
-485.435	-132.217	-0.330	-0.043
-484.420	216.576	0.138	-0.219
-483.405	28.638	0.261	0.220
-482.391	-200.000	0.001	-0.176
-481.376	55.292	0.247	-0.239
-480.362	-114.201	-0.359	-0.069
-479.347	-104.757	-0.170	0.039
-478.332	767.749	-0.055	-0.150
-477.318	800.000	-0.068	0.198
-476.303	178.211	0.030	-0.043
-475.289	107.791	-0.092	-0.109
-474.274	-117.926	-0.420	0.075
-473.259	800.000	-0.063	-0.216
-472.245	-9.383	0.106	0.071
-471.230	-142.363	0.066	0.007
-470.216	-200.000	0.002	0.150
-469.201	75.696	-0.087	0.092
-468.186	-108.407	-0.047	-0.010
-467.172	-67.523	-0.037	0.014
-466.157	800.000	-0.047	0.137
-465.143	-107.439	0.203	-0.044
-464.128	-200.000	0.071	0.462
-463.113	-200.000	0.043	0.270
-462.099	-37.673	0.236	-0.125
-461.084	800.000	-0.031	-0.093
-460.070	37.551	0.223	-0.197
-459.055	239.283	-0.046	-0.076
-458.040	315.419	-0.026	-0.050
-457.026	-200.000	-0.057	-0.320
-456.011	89.587	-0.093	-0.103
-454.997	-113.641	0.171	-0.033
-453.982	-144.170	-0.141	-0.013
-452.968	-200.000	0.041	0.188
-451.953	8.724	0.351	-0.264
-450.938	334.584	0.179	-0.344
-449.924	332.097	0.031	0.060
-448.909	-126.066	-0.245	-0.037
-447.895	-200.000	0.066	-0.302
-446.880	-200.000	0.029	-0.234
-445.865	800.000	0.059	-0.189
-444.851	90.031	0.115	-0.129
-443.836	-116.748	-0.320	-0.059
-442.822	-44.043	0.148	0.074
-441.807	800.000	0.090	-0.326
-440.792	122.363	0.069	-0.086
-439.778	54.787	0.170	0.163
-438.763	-200.000	0.029	0.238
-437.749	-123.768	0.151	0.024
-436.734	-110.659	-0.090	0.019
-435.719	21.651	0.181	0.147
-434.705	-24.489	-0.205	0.122
-433.690	386.203	-0.126	0.259
-432.676	-200.000	-0.011	-0.096
-431.661	447.419	0.134	-0.294
-430.646	-144.489	-0.158	0.015
-429.632	-88.433	0.113	0.033
-428.617	26.989	0.069	0.057
-427.603	22.574	-0.303	0.247
-426.588	350.854	-0.163	-0.320
-425.573	-200.000	-0.058	-0.271
-424.559	-141.891	0.376	0.037
-423.544	800.000	-0.125	-0.345
-422.530	361.587	-0.129	-0.257
-421.515	-122.481	-0.178	0.029
-420.500	-31.448	-0.073	-0.041
-419.486	-200.000	0.016	-0.084
-418.471	-110.898	0.046	-0.010
-417.457	68.489	0.113	0.115
-416.442	95.898	-0.081	-0.092
-415.428	237.667	0.099	-0.163
-414.413	-200.000	0.012	0.107
-413.398	-200.000	-0.014	-0.065
-412.384	42.808	-0.083	-0.075
-411.369	49.724	-0.153	0.143
-410.355	-21.343	0.097	-0.059
-409.340	33.594	0.201	-0.174
-408.325	-115.494	0.140	-0.026
-407.311	-200.000	-0.014	-0.133
-406.296	-165.100	-0.211	0.009
-405.282	-26.426	0.192	-0.112
-404.267	107.231	-0.093	-0.110
-403.252	800.000	0.068	-0.240
-402.238	-69.664	0.295	0.112
-401.223	-54.608	-0.238	0.107
-400.209	-135.491	-0.073	-0.009
-399.194	-34.300	0.163	-0.089
-398.179	800.000	0.026	-0.077
-397.165	-95.489	0.242	0.065
-396.150	-96.722	0.062	0.016
-395.136	-200.000	0.018	-0.592
-394.121	-99.207	0.223	-0.056
-393.106	-26.112	0.136	0.080
-392.092	297.374	0.045	0.083
-391.077	506.027	0.143	0.329
-390.063	800.000	0.044	0.154
-389.048	0.839	0.186	0.133
-388.033	733.220	-0.028	0.074
-387.019	28.281	-0.251	0.211
-386.004	234.864	0.113	-0.186
-384.990	-99.483	-0.219	-0.055
-383.975	54.474	-0.149	0.142
-382.960	-101.317	-0.240	0.058
-381.946	-200.000	0.007	0.095
-380.931	449.448	-0.074	0.162
-379.917	-143.027	0.369	-0.035
-378.902	60.880	-0.172	-0.170
-377.888	-158.668	-0.379	0.022
-376.873	800.000	0.022	-0.066
-375.858	-93.172	-0.059	0.016
-374.844	-200.000	0.003	-0.357
-373.829	26.015	0.143	0.119
-372.815	-45.318	0.199	0.098
-371.800	90.812	-0.057	0.063
-370.785	-200.000	-0.012	-0.108
-369.771	6.954	0.101	0.074
-368.756	-34.644	0.182	0.099
-367.742	32.893	-0.136	0.117
-366.727	-100.232	0.206	-0.051
-365.712	187.228	-0.100	0.149
-364.698	-91.734	0.113	-0.032
-363.683	-85.980	0.082	-0.025
-362.669	-24.294	0.145	0.086
-361.654	800.000	0.077	0.272
-360.639	-138.494	-0.162	-0.018
-359.625	-52.391	-0.100	-0.046
-358.610	800.000	-0.012	0.046
-357.596	144.878	0.126	0.167
-356.581	-10.384	0.125	-0.082
-355.566	60.030	0.164	0.161
-354.552	800.000	0.081	0.248
-353.537	193.821	0.076	-0.114
-352.523	800.000	0.147	0.530
-351.508	-165.697	0.118	-0.005
-350.493	38.461	-0.246	0.218
-349.479	12.696	-0.118	0.090
-348.464	69.365	0.057	0.059
-347.450	-200.000	0.012	-0.174
-346.435	84.527	-0.115	0.125
-345.420	800.000	-0.025	0.102
-344.406	-60.644	-0.162	0.068
-343.391	55.462	-0.114	-0.109
-342.377	133.587	0.059	-0.076
-341.362	47.230	0.130	-0.120
-340.348	4.820	0.071	-0.052
-339.333	-200.000	-0.068	-0.369
-338.318	-115.337	-0.193	-0.036
-337.304	207.779	0.151	-0.233
-336.289	-22.527	0.184	0.110
-335.275	-167.003	-0.176	-0.007
-334.260	-129.611	0.111	0.015
-333.245	-200.000	0.239	0.001
-332.231	34.474	-0.056	0.049
-331.216	-94.241	-0.097	-0.026
-330.202	123.727	0.026	0.032
-329.187	-200.000	0.076	-0.347
-328.172	-200.000	-0.028	0.162
-327.158	-21.736	0.110	-0.066
-326.143	97.516	-0.078	0.089
-325.129	-200.000	0.022	0.108
-324.114	-44.735	0.373	-0.184
-323.099	53.745	0.194	-0.185
-322.085	340.575	-0.007	0.014
-321.070	-58.582	0.148	0.063
-320.056	62.685	-0.230	-0.228
-319.041	-167.392	0.175	0.007
-318.026	-200.000	-0.003	-0.030
-317.012	-200.000	0.001	0.013
-315.997	-200.000	-0.009	0.222
-314.983	-200.000	0.059	-0.261
-313.968	22.066	0.032	0.026
-312.953	63.325	-0.148	-0.147
-311.939	-89.148	-0.291	-0.085
-310.924	-200.000	-0.022	0.146
-309.910	49.462	-0.186	0.173
-308.895	-152.676	-0.011	-0.001
-307.880	-50.946	0.218	0.101
-306.866	-117.584	-0.052	0.009
-305.851	101.942	0.129	0.149
-304.837	263.956	-0.118	0.203
-303.822	657.059	0.075	-0.191
-302.807	76.038	-0.047	0.049
-301.793	-96.258	-0.115	-0.030
-300.778	-200.000	-0.022	0.387
-299.764	-200.000	0.002	-0.150
-298.749	-22.383	0.135	-0.081
-297.735	800.000	-0.079	0.276
-296.720	79.752	-0.096	0.102
-295.705	-72.535	-0.305	-0.112
-294.691	9.669	-0.204	0.153
-293.676	103.260	-0.207	0.240
-292.662	-61.411	0.235	0.098
-291.647	-49.027	-0.330	0.156
-290.632	800.000	-0.005	-0.019
-289.618	476.069	-0.068	0.151
-288.603	66.010	0.031	-0.032
-287.589	-98.005	0.175	0.045
-286.574	-200.000	-0.021	-0.288
-285.559	-200.000	-0.023	-0.128
-284.545	702.295	-0.045	-0.118
-283.530	0.596	0.081	0.057
-282.516	12.899	0.194	-0.148
-281.501	-200.000	0.033	-0.162
-280.486	351.482	0.115	0.224
-279.472	473.914	-0.142	0.317
-278.457	-126.959	0.247	0.036
-277.443	-22.676	0.213	0.127
-276.428	20.376	-0.276	-0.221
-275.413	100.105	0.193	0.221
-274.399	800.000	-0.016	0.060
-273.384	70.712	0.313	0.320
-272.370	-200.000	0.005	-0.026
-271.355	-200.000	-0.017	-0.109
-270.340	369.154	0.133	0.266
-269.326	-56.755	0.159	0.070
-268.311	72.221	-0.114	0.118
-267.297	511.142	-0.119	-0.274
-266.282	99.715	-0.155	0.177
-265.267	800.000	0.087	-0.350
-264.253	800.000	0.029	-0.099
-263.238	800.000	-0.065	0.238
-262.224	-120.608	0.137	-0.023
-261.209	-73.523	-0.288	-0.104
-260.195	-17.211	-0.060	-0.038
-259.180	252.234	0.073	0.122
-258.165	-112.823	0.221	0.043
-257.151	-135.949	-0.145	0.017
-256.136	70.271	0.151	0.154
-255.122	-25.736	0.273	0.159
-254.107	800.000	-0.077	0.260
-253.092	170.214	0.081	0.114
-252.078	105.408	-0.182	-0.212
-251.063	438.125	-0.094	0.203
-250.049	3.653	0.171	0.123
-249.034	60.881	-0.099	-0.097
-248.019	387.333	0.054	-0.111
-247.005	-200.000	0.009	-0.344
-245.990	374.708	-0.065	-0.131
-244.976	218.662	-0.055	0.086
-243.961	-106.440	-0.113	0.025
-242.946	3.493	0.240	0.172
-241.932	169.430	-0.160	0.226
-240.917	-200.000	0.015	-0.098
-239.903	-127.395	0.258	-0.037
-238.888	137.669	-0.120	-0.156
-237.873	-172.507	0.146	0.005
-236.859	800.000	-0.104	0.298
-235.844	-158.014	-0.174	-0.010
-234.830	-200.000	-0.032	0.149
-233.815	46.432	-0.074	0.068
-232.800	77.547	0.141	-0.148
-231.786	-200.000	0.022	-0.211
-230.771	-58.671	-0.207	0.089
-229.757	95.775	-0.099	0.112
-228.742	258.392	-0.099	-0.168
-227.727	-46.117	-0.103	0.050
-226.713	123.490	0.054	0.066
-225.698	-135.514	0.113	0.013
-224.684	-54.092	-0.378	-0.170
-223.669	-71.021	-0.210	-0.078
-222.655	109.772	-0.179	0.211
-221.640	-152.803	0.202	-0.014
-220.625	800.000	-0.025	0.071
-219.611	-162.002	-0.281	-0.014
-218.596	246.310	-0.205	0.341
-217.582	53.486	-0.192	0.181
-216.567	-24.226	0.084	-0.050
-215.552	218.830	0.044	-0.069
-214.538	149.429	0.237	0.317
-213.523	223.694	-0.108	-0.172
-212.509	-91.571	0.116	-0.033
-211.494	-200.000	-0.008	-0.298
-210.479	-138.565	0.156	0.017
-209.465	800.000	0.038	0.137
-208.450	-116.468	0.204	-0.037
-207.436	-65.522	-0.330	-0.131
-206.421	-31.935	-0.101	0.056
-205.406	800.000	-0.138	0.436
-204.392	41.396	-0.041	0.037
-203.377	800.000	0.058	-0.187
-202.363	-79.131	-0.293	-0.098
-201.348	-200.000	0.007	0.101
-200.333	-118.862	-0.168	0.029
-199.319	-87.732	0.314	0.093
-198.304	71.173	0.097	-0.099
-197.290	-114.154	0.304	0.058
-196.275	467.578	-0.122	0.270
-195.260	11.164	-0.128	0.097
-194.246	154.870	-0.121	-0.164
-193.231	-65.932	-0.204	-0.080
-192.217	327.310	0.062	-0.117
-191.202	-51.202	-0.088	0.040
-190.187	157.890	-0.257	-0.351
-189.173	411.873	0.072	0.150
-188.158	-200.000	-0.039	0.244
-187.144	110.217	-0.109	0.129
-186.129	-52.047	-0.111	-0.051
-185.114	-200.000	0.028	0.382
-184.100	258.760	-0.051	-0.087
-183.085	800.000	0.115	-0.355
-182.071	-3.821	0.306	-0.210
-181.056	285.083	0.064	-0.113
-180.042	-78.156	-0.225	-0.076
-179.027	-91.346	-0.290	-0.082
-178.012	800.000	0.151	-0.415
-176.998	-83.654	-0.401	0.126
-175.983	-161.481	0.373	0.019
-174.969	-25.086	0.262	-0.153
-173.954	800.000	0.072	-0.245
-172.939	74.764	0.148	-0.153
-171.925	-58.213	-0.248	0.106
-170.910	-200.000	0.008	0.121
-169.896	44.525	-0.085	-0.077
-168.881	800.000	-0.079	0.269
-167.866	117.507	-0.196	-0.237
-166.852	180.113	0.029	-0.041
-165.837	-81.724	0.263	-0.085
-164.823	-111.129	-0.335	0.068
-163.808	-84.998	-0.263	-0.081
-162.793	54.666	0.107	-0.101
-161.779	-200.000	0.008	-0.130
-160.764	146.529	0.125	0.165
-159.750	-15.079	0.290	0.183
-158.735	-89.173	-0.223	-0.065
-157.720	-200.000	0.008	0.189
-156.706	-24.811	0.197	0.115
-155.691	800.000	0.032	0.109
-154.677	51.732	0.171	-0.160
-153.662	134.912	0.121	0.155
-152.647	-111.740	-0.252	-0.050
-151.633	-200.000	0.035	0.193
-150.618	-80.779	-0.152	-0.050
-149.604	-200.000	-0.052	-0.275
-148.589	-162.030	0.138	-0.007
-147.574	483.841	0.093	0.209
-146.560	-134.154	-0.238	0.029
-145.545	-200.000	0.001	0.115
-144.531	9.996	-0.101	0.075
-143.516	78.423	0.066	-0.069
-142.502	196.550	0.055	-0.082
-141.487	-200.000	-0.052	-0.236
-140.472	477.756	0.129	0.288
-139.458	173.511	-0.234	0.333
-138.443	12.623	-0.498	0.378
-137.429	800.000	0.070	0.247
-136.414	195.142	-0.114	-0.170
-135.399	-200.000	0.012	-0.134
-134.385	-114.240	0.304	0.058
-133.370	-33.162	0.237	-0.129
-132.356	800.000	0.152	-0.496
-131.341	10.457	0.111	-0.083
-130.326	60.092	-0.110	-0.107
-129.312	800.000	0.007	0.020
-128.297	-31.030	-0.257	0.143
-127.283	45.293	-0.106	-0.096
-126.268	38.375	-0.200	-0.175
-125.253	343.380	-0.070	-0.135
-124.239	79.778	0.393	-0.415
-123.224	7.698	-0.234	0.173
-122.210	-110.718	0.130	-0.026
-121.195	191.651	0.124	-0.183
-120.180	-14.009	-0.227	0.144
