DTS Sentinel unit serial number:	SN413079Multiplexer serial number:	ORYXHardware model number:	OX4-SRSoftware version number:	ORYX F/W v4.00 Oryx Data Collector v3.7.2.0data status	okinstallation	princeton_trtdifferential loss correction	single-endedforward channel	channel 3reverse channel	N/Adate	2019/09/14time	16:24:34forward acquisition time	60.00reverse acquisition time	0.00gamma	496.2192k internal	0.2295k external	0.2295temperature offset calibration	1.0048default loss term (dB/km)	0.3790temperature slope calibration	1.0000multiplexer offset coefficient	1.0000multiplexer slope coefficient	1.0000fibre end	0.00T internal ref (°C)	38.05T ext. ref 1 (°C)	5.08T ext. ref 2 (°C)	33.08length (m)	temperature (°C)	Stokes	anti-Stokes-747.200	222.177	0.110	-0.180
-746.185	269.839	-0.134	-0.240
-745.171	-200.000	-0.043	0.214
-744.156	165.246	-0.297	0.428
-743.142	518.194	0.075	0.179
-742.127	-200.000	-0.007	0.365
-741.112	124.319	-0.205	0.264
-740.098	-130.520	0.250	-0.034
-739.083	-30.515	0.072	-0.042
-738.069	-200.000	-0.011	-0.297
-737.054	37.788	0.053	0.048
-736.039	-79.616	-0.451	0.155
-735.025	65.397	-0.216	-0.223
-734.010	-45.530	0.141	-0.072
-732.996	273.816	0.063	0.113
-731.981	248.778	0.219	-0.379
-730.966	268.109	-0.036	-0.065
-729.952	8.028	-0.282	-0.216
-728.937	44.540	-0.307	-0.288
-727.923	-96.099	0.105	0.029
-726.908	-3.048	0.154	0.110
-725.894	-200.000	-0.033	0.201
-724.879	63.625	0.106	-0.109
-723.864	-200.000	-0.014	0.391
-722.850	-128.617	0.095	0.014
-721.835	-5.007	-0.338	-0.237
-720.821	-74.692	-0.306	-0.112
-719.806	-6.856	-0.240	-0.166
-718.791	800.000	-0.055	-0.217
-717.777	722.027	-0.147	-0.399
-716.762	12.034	-0.316	-0.248
-715.748	151.947	-0.148	-0.205
-714.733	109.554	0.144	0.176
-713.718	-137.563	-0.115	0.013
-712.704	-180.865	-0.356	-0.007
-711.689	-200.000	-0.070	0.346
-710.675	-103.093	0.385	-0.093
-709.660	21.159	0.231	-0.191
-708.645	-169.524	-0.073	0.003
-707.631	-200.000	0.001	-0.324
-706.616	-200.000	-0.013	-0.136
-705.602	-26.010	-0.337	-0.203
-704.587	292.169	-0.077	-0.143
-703.572	-74.965	-0.101	0.037
-702.558	-200.000	0.009	-0.208
-701.543	213.315	0.135	-0.217
-700.529	56.136	0.220	-0.218
-699.514	-135.403	-0.415	0.051
-698.499	402.744	0.054	0.117
-697.485	-125.146	0.359	-0.056
-696.470	108.064	0.097	-0.119
-695.456	264.794	0.210	0.374
-694.441	-90.449	0.268	-0.079
-693.426	-76.041	-0.301	-0.108
-692.412	435.898	0.081	-0.179
-691.397	-111.584	-0.226	-0.047
-690.383	238.880	-0.215	-0.365
-689.368	800.000	0.078	-0.244
-688.354	-83.146	0.175	-0.057
-687.339	-29.329	0.105	0.061
-686.324	-73.643	-0.438	0.163
-685.310	228.425	-0.040	0.067
-684.295	16.362	0.121	0.097
-683.281	-200.000	-0.041	0.190
-682.266	-83.399	0.104	-0.034
-681.251	-111.414	0.085	-0.018
-680.237	800.000	-0.038	-0.141
-679.222	303.577	-0.204	0.386
-678.208	333.700	0.130	0.256
-677.193	-117.817	-0.251	-0.046
-676.178	-69.944	0.373	-0.145
-675.164	-59.692	-0.182	-0.080
-674.149	114.022	-0.127	0.158
-673.135	294.448	-0.256	-0.476
-672.120	524.558	0.103	0.247
-671.105	-200.000	0.074	0.374
-670.091	-136.541	-0.392	-0.046
-669.076	-158.434	0.325	0.019
-668.062	-39.534	-0.197	-0.105
-667.047	-64.850	-0.136	-0.056
-666.032	125.310	0.192	-0.247
-665.018	495.403	-0.077	-0.181
-664.003	10.411	-0.140	0.109
-662.989	-85.891	-0.260	0.082
-661.974	-66.276	0.205	-0.083
-660.959	-51.293	-0.203	0.097
-659.945	-86.051	-0.150	0.047
-658.930	480.003	0.055	-0.126
-657.916	311.091	-0.068	-0.129
-656.901	-200.000	-0.018	0.420
-655.886	-50.154	-0.107	0.052
-654.872	-29.122	-0.212	-0.124
-653.857	-200.000	0.192	-0.001
-652.843	-104.406	-0.288	-0.068
-651.828	-89.415	-0.108	-0.032
-650.814	-180.866	0.170	-0.004
-649.799	-200.000	0.001	-0.110
-648.784	-137.299	0.232	-0.027
-647.770	37.726	-0.135	-0.122
-646.755	-52.135	-0.349	0.165
-645.741	-35.850	0.310	0.171
-644.726	29.486	0.119	-0.103
-643.711	53.364	-0.198	0.193
-642.697	-169.121	0.162	0.006
-641.682	172.773	-0.088	-0.129
-640.668	800.000	0.100	0.307
-639.653	-200.000	0.055	-0.248
-638.638	77.622	-0.116	-0.125
-637.624	-200.000	0.178	0.000
-636.609	186.102	0.154	0.233
-635.595	299.264	-0.068	0.127
-634.580	334.133	-0.123	0.243
-633.565	453.088	0.050	-0.112
-632.551	-74.952	-0.280	-0.102
-631.536	-198.939	-0.330	0.002
-630.522	253.023	-0.034	0.059
-629.507	-200.000	-0.018	-0.130
-628.492	122.426	-0.171	-0.217
-627.478	-145.401	0.279	0.026
-626.463	-128.295	-0.347	0.050
-625.449	-30.019	-0.222	-0.129
-624.434	69.707	-0.193	0.202
-623.419	-56.530	-0.103	0.046
-622.405	-200.000	-0.037	0.354
-621.390	58.916	-0.084	-0.084
-620.376	69.494	-0.076	-0.080
-619.361	-151.096	-0.129	-0.010
-618.346	425.138	-0.069	-0.151
-617.332	-87.566	-0.190	0.058
-616.317	800.000	0.154	0.523
-615.303	-200.000	0.019	0.147
-614.288	498.518	-0.045	0.104
-613.273	279.114	-0.126	-0.228
-612.259	-200.000	-0.014	-0.121
-611.244	800.000	-0.096	-0.381
-610.230	-200.000	0.007	0.085
-609.215	-114.287	-0.353	-0.069
-608.201	800.000	-0.046	-0.192
-607.186	-145.304	0.062	-0.006
-606.171	265.039	-0.061	-0.108
-605.157	-173.210	0.199	-0.006
-604.142	154.465	0.151	-0.210
-603.128	-39.811	-0.179	0.095
-602.113	-41.180	0.168	-0.088
-601.098	106.004	-0.131	-0.157
-600.084	0.247	0.350	0.254
-599.069	-7.168	-0.045	-0.031
-598.055	-82.708	-0.182	-0.060
-597.040	800.000	0.136	0.457
-596.025	-84.910	0.323	-0.103
-595.011	89.017	-0.226	0.255
-593.996	282.796	0.061	0.111
-592.982	34.610	-0.077	0.068
-591.967	-200.000	-0.023	0.185
-590.952	-125.226	-0.257	0.040
-589.938	299.650	-0.061	-0.115
-588.923	-200.000	-0.045	-0.255
-587.909	-146.452	0.282	-0.025
-586.894	-200.000	0.005	0.416
-585.879	418.307	0.060	0.129
-584.865	72.610	-0.033	-0.034
-583.850	575.575	0.046	-0.115
-582.836	-103.051	0.410	0.099
-581.821	698.270	-0.180	-0.480
-580.806	138.364	0.180	-0.240
-579.792	-200.000	0.017	0.116
-578.777	599.277	-0.061	0.154
-577.763	-119.774	0.093	0.016
-576.748	-200.000	0.122	-0.634
-575.733	224.948	-0.045	-0.074
-574.719	-200.000	0.001	-0.159
-573.704	-72.061	0.305	-0.115
-572.690	-200.000	0.002	0.038
-571.675	-32.054	-0.215	-0.122
-570.661	90.409	-0.210	-0.239
-569.646	28.036	-0.322	0.276
-568.631	-118.493	-0.225	-0.040
-567.617	55.626	0.134	-0.131
-566.602	-124.026	0.201	-0.032
-565.588	-100.071	-0.092	-0.023
-564.573	-91.851	-0.086	-0.025
-563.558	277.718	0.011	0.019
-562.544	208.418	-0.123	0.195
-561.529	475.785	0.074	0.169
-560.515	-13.024	0.103	0.068
-559.500	-16.379	0.333	0.214
-558.485	-26.540	0.055	-0.033
-557.471	-98.995	-0.188	-0.048
-556.456	111.722	0.120	-0.146
-555.442	-200.000	0.011	0.147
-554.427	800.000	0.095	0.420
-553.412	-59.999	-0.101	0.044
-552.398	-200.000	0.017	0.134
-551.383	58.498	-0.055	-0.055
-550.369	121.414	-0.080	-0.102
-549.354	-20.540	0.206	0.128
-548.339	-108.730	0.186	-0.040
-547.325	800.000	0.048	-0.156
-546.310	17.822	0.139	0.112
-545.296	166.735	0.123	0.177
-544.281	27.132	0.092	-0.078
-543.266	-131.296	-0.135	0.018
-542.252	783.927	0.148	-0.411
-541.237	3.087	0.267	-0.197
-540.223	-200.000	0.007	-0.184
-539.208	-165.442	0.282	0.013
-538.193	-35.558	0.184	-0.101
-537.179	-200.000	0.023	-0.169
-536.164	-53.755	-0.254	0.118
-535.150	143.448	0.102	0.138
-534.135	800.000	0.006	0.018
-533.121	19.181	-0.096	0.078
-532.106	218.813	-0.116	0.188
-531.091	76.112	-0.062	-0.066
-530.077	57.235	0.231	0.229
-529.062	-200.000	0.025	0.116
-528.048	-31.670	-0.271	0.154
-527.033	-70.002	-0.313	-0.121
-526.018	-103.723	-0.106	-0.025
-525.004	-21.196	0.203	0.126
-523.989	-108.550	0.118	-0.026
-522.975	167.613	0.122	0.176
-521.960	-85.310	0.320	0.101
-520.945	-32.843	0.191	-0.108
-519.931	169.135	-0.112	0.162
-518.916	-125.845	0.179	-0.027
-517.902	49.697	-0.228	-0.217
-516.887	92.843	-0.107	-0.123
-515.872	-200.000	0.006	0.621
-514.858	-75.384	0.140	-0.050
-513.843	-200.000	-0.002	-0.306
-512.829	-200.000	0.026	-0.116
-511.814	146.346	0.087	0.118
-510.799	-173.330	0.262	0.008
-509.785	-136.839	-0.120	-0.014
-508.770	-96.602	0.174	-0.047
-507.756	-200.000	-0.065	0.381
-506.741	-10.782	0.190	0.127
-505.726	90.452	-0.172	0.195
-504.712	431.981	-0.126	-0.275
-503.697	-51.280	-0.179	0.085
-502.683	-173.679	0.204	-0.006
-501.668	116.303	0.123	-0.152
-500.653	-200.000	0.059	-0.282
-499.639	-69.854	0.175	-0.068
-498.624	490.532	0.049	0.113
-497.610	-50.807	-0.181	-0.086
-496.595	-147.133	-0.258	0.022
-495.581	800.000	0.092	0.294
-494.566	177.190	-0.144	-0.213
-493.551	-200.000	-0.013	-0.067
-492.537	-103.014	-0.251	0.060
-491.522	-200.000	-0.012	-0.242
-490.508	132.942	-0.083	0.109
-489.493	192.028	0.011	-0.017
-488.478	800.000	-0.073	-0.205
-487.464	-200.000	-0.020	0.178
-486.449	-97.500	0.303	0.080
-485.435	110.517	-0.079	0.097
-484.420	3.048	-0.334	0.245
-483.405	-200.000	-0.015	-0.202
-482.391	-131.446	0.067	-0.009
-481.376	-91.145	0.309	-0.090
-480.362	415.781	0.138	0.297
-479.347	-200.000	-0.009	0.109
-478.332	25.848	0.240	0.203
-477.318	185.296	0.018	0.027
-476.303	-88.847	-0.369	0.111
-475.289	800.000	-0.115	0.323
-474.274	84.505	0.171	-0.189
-473.259	-97.168	-0.224	-0.059
-472.245	84.258	0.073	0.080
-471.230	207.272	0.038	0.060
-470.216	-83.436	0.347	0.112
-469.201	-78.431	0.299	0.104
-468.186	258.016	0.126	0.219
-467.172	-39.274	-0.204	-0.108
-466.157	50.058	0.199	0.190
-465.143	403.095	0.118	-0.251
-464.128	70.979	0.134	-0.140
-463.113	-47.762	0.184	0.090
-462.099	-6.928	-0.153	-0.105
-461.084	800.000	0.124	0.381
-460.070	-108.013	-0.082	-0.018
-459.055	560.263	0.228	-0.557
-458.040	-200.000	0.013	-0.122
-457.026	454.504	-0.087	0.195
-456.011	211.906	-0.117	0.186
-454.997	-37.812	0.201	0.108
-453.982	755.472	0.037	0.100
-452.968	340.116	0.065	0.128
-451.953	-118.848	0.249	0.044
-450.938	-200.000	-0.021	-0.189
-449.924	-200.000	-0.001	-0.106
-448.909	-132.229	-0.276	-0.036
-447.895	-200.000	0.022	0.124
-446.880	-134.956	-0.188	0.023
-445.865	655.504	-0.096	0.250
-444.851	-110.968	-0.558	0.116
-443.836	166.987	-0.059	0.085
-442.822	-76.720	0.263	0.093
-441.807	245.754	-0.102	-0.173
-440.792	-86.753	0.104	0.032
-439.778	-110.970	-0.148	-0.031
-438.763	-102.800	-0.212	0.051
-437.749	13.626	-0.335	-0.263
-436.734	-200.000	-0.009	0.159
-435.719	-200.000	0.031	-0.247
-434.705	-31.453	-0.158	0.089
-433.690	89.719	-0.083	0.093
-432.676	139.267	0.066	0.088
-431.661	-200.000	-0.056	-0.364
-430.646	-200.000	0.040	-0.354
-429.632	-80.203	-0.081	-0.027
-428.617	-55.327	-0.139	0.063
-427.603	164.166	-0.144	0.205
-426.588	25.955	0.271	-0.228
-425.573	15.686	0.204	0.162
-424.559	354.439	-0.182	0.365
-423.544	124.678	-0.213	0.271
-422.530	-10.490	-0.051	0.034
-421.515	-32.915	0.199	-0.112
-420.500	30.852	0.123	-0.107
-419.486	128.061	0.053	0.068
-418.471	-200.000	-0.021	-0.132
-417.457	-150.679	0.323	-0.025
-416.442	-154.294	0.014	-0.001
-415.428	-200.000	-0.031	0.385
-414.413	-200.000	0.001	-0.119
-413.398	-200.000	-0.027	-0.142
-412.384	111.280	-0.109	0.133
-411.369	-69.188	-0.228	0.088
-410.355	-62.906	0.142	0.059
-409.340	-200.000	0.026	0.162
-408.325	-158.047	-0.246	0.015
-407.311	-35.319	-0.226	0.124
-406.296	38.284	-0.118	-0.106
-405.282	-66.949	0.082	0.033
-404.267	719.750	0.125	0.334
-403.252	-93.098	-0.247	0.069
-402.238	114.557	-0.072	-0.088
-401.223	-46.136	0.293	-0.146
-400.209	-61.320	-0.222	0.094
-399.194	188.112	0.240	-0.361
-398.179	800.000	-0.016	-0.072
-397.165	108.135	0.083	0.099
-396.150	-14.845	0.330	-0.213
-395.136	161.465	0.148	-0.209
-394.121	18.279	0.161	-0.130
-393.106	-200.000	0.001	-0.197
-392.092	354.523	0.059	0.119
-391.077	-109.217	0.307	-0.066
-390.063	-200.000	0.040	0.206
-389.048	800.000	0.107	0.305
-388.033	55.107	0.069	0.067
-387.019	-200.000	0.019	-0.236
-386.004	-200.000	0.028	0.297
-384.990	-65.830	-0.085	0.034
-383.975	-118.567	-0.145	0.026
-382.960	-183.162	-0.170	0.003
-381.946	149.325	0.122	0.167
-380.931	800.000	0.058	0.163
-379.917	229.667	0.132	0.218
-378.902	27.574	0.156	0.132
-377.888	-41.388	-0.260	0.135
-376.873	7.946	0.076	-0.058
-375.858	-0.621	0.068	0.049
-374.844	-120.060	0.205	0.035
-373.829	22.306	0.095	-0.079
-372.815	212.777	0.144	-0.229
-371.800	243.339	0.147	0.249
-370.785	-98.082	-0.503	0.130
-369.771	76.699	-0.095	-0.102
-368.756	800.000	0.064	-0.231
-367.742	160.589	-0.138	-0.194
-366.727	-97.233	0.181	0.048
-365.712	800.000	0.048	-0.207
-364.698	-48.021	0.028	0.014
-363.683	-141.969	-0.094	-0.009
-362.669	163.315	0.028	0.040
-361.654	25.644	0.392	-0.329
-360.639	-12.845	-0.338	-0.221
-359.625	138.852	0.065	0.086
-358.610	155.580	-0.251	0.348
-357.596	-162.766	-0.396	0.019
-356.581	800.000	0.071	-0.280
-355.566	53.656	-0.300	0.290
-354.552	-145.495	0.273	0.025
-353.537	800.000	-0.112	-0.322
-352.523	-38.533	-0.220	-0.117
-351.508	-200.000	0.097	-0.437
-350.493	-137.584	-0.227	0.026
-349.479	-9.101	0.178	0.120
-348.464	800.000	0.038	0.143
-347.450	-162.647	-0.190	0.009
-346.435	-2.130	0.134	-0.095
-345.420	-82.281	0.287	-0.094
-344.406	61.410	-0.112	-0.112
-343.391	-11.548	0.413	-0.273
-342.377	57.576	-0.026	0.025
-341.362	800.000	0.176	0.504
-340.348	-52.491	-0.345	-0.161
-339.333	-198.246	0.212	0.001
-338.318	-76.621	-0.164	0.058
-337.304	103.001	0.099	0.116
-336.289	15.080	-0.322	0.253
-335.275	11.402	0.301	-0.232
-334.260	798.815	0.058	0.160
-333.245	-200.000	-0.045	0.441
-332.231	279.319	-0.069	0.124
-331.216	209.886	0.119	-0.188
-330.202	-200.000	-0.009	0.127
-329.187	-28.838	0.190	0.110
-328.172	-156.016	0.154	0.010
-327.158	-45.450	-0.108	-0.054
-326.143	-71.952	0.100	0.037
-325.129	759.273	0.037	0.101
-324.114	26.202	0.061	0.052
-323.099	360.518	-0.017	-0.035
-322.085	-147.194	0.030	0.003
-321.070	-31.105	-0.286	0.162
-320.056	-93.948	0.288	-0.079
-319.041	-83.567	-0.277	0.089
-318.026	88.968	0.158	0.177
-317.012	-137.736	0.162	0.018
-315.997	-93.804	-0.086	0.024
-314.983	-200.000	-0.019	-0.241
-313.968	-35.469	0.493	0.269
-312.953	283.583	-0.125	-0.226
-311.939	-79.529	-0.128	0.044
-310.924	-54.892	-0.139	-0.063
-309.910	725.834	0.137	-0.366
-308.895	-123.625	-0.241	-0.038
-307.880	-135.223	-0.244	-0.029
-306.866	-89.812	0.046	0.013
-305.851	-39.248	0.252	0.133
-304.837	44.356	-0.373	0.344
-303.822	55.970	0.242	0.236
-302.807	364.499	0.088	-0.177
-301.793	800.000	0.042	-0.154
-300.778	189.892	-0.047	-0.071
-299.764	32.556	-0.088	0.076
-298.749	179.580	0.195	0.286
-297.735	274.770	0.021	0.037
-296.720	116.092	0.328	-0.404
-295.705	-200.000	-0.010	0.115
-294.691	309.357	-0.216	0.405
-293.676	-108.924	-0.211	0.045
-292.662	-73.868	-0.067	-0.024
-291.647	64.849	-0.255	-0.259
-290.632	-141.805	-0.294	0.030
-289.618	195.604	-0.163	0.248
-288.603	-200.000	-0.019	-0.171
-287.589	81.001	0.102	0.111
-286.574	800.000	0.081	0.342
-285.559	-47.863	-0.072	0.035
-284.545	-175.442	-0.327	0.009
-283.530	-200.000	-0.060	-0.287
-282.516	118.047	0.183	-0.227
-281.501	800.000	-0.065	-0.282
-280.486	429.817	-0.073	0.159
-279.472	-173.749	0.459	0.014
-278.457	800.000	-0.028	0.116
-277.443	-200.000	-0.023	0.196
-276.428	-87.619	-0.091	0.027
-275.413	-66.092	-0.134	0.053
-274.399	800.000	0.057	-0.238
-273.384	-200.000	0.010	0.051
-272.370	301.782	0.129	-0.239
-271.355	634.701	-0.145	0.369
-270.340	-186.813	-0.258	0.004
-269.326	-90.360	-0.312	-0.091
-268.311	-121.178	-0.086	-0.014
-267.297	-38.602	-0.052	-0.028
-266.282	-200.000	-0.011	0.124
-265.267	586.824	0.053	0.132
-264.253	49.400	0.177	0.167
-263.238	-200.000	0.008	-0.083
-262.224	30.792	0.157	-0.135
-261.209	-176.670	-0.262	0.007
-260.195	-78.538	0.299	0.103
-259.180	-95.609	0.201	0.054
-258.165	-57.081	-0.336	-0.148
-257.151	0.297	0.230	-0.165
-256.136	-162.607	-0.092	-0.005
-255.122	-8.428	0.117	0.079
-254.107	-57.111	-0.169	-0.075
-253.092	-41.585	-0.106	-0.055
-252.078	800.000	-0.018	-0.072
-251.063	-57.450	0.250	-0.110
-250.049	55.378	0.212	-0.205
-249.034	-42.031	0.093	-0.048
-248.019	-41.335	0.040	-0.020
-247.005	77.733	-0.326	-0.349
-245.990	800.000	0.000	0.000
-244.976	-200.000	0.010	0.263
-243.961	47.429	0.142	0.133
-242.946	800.000	-0.019	0.062
-241.932	-166.380	0.255	0.011
-240.917	-8.103	-0.198	0.134
-239.903	209.645	-0.136	0.213
-238.888	-115.312	0.157	-0.030
-237.873	800.000	0.071	-0.235
-236.859	-200.000	0.017	0.102
-235.844	-124.595	0.306	-0.048
-234.830	-17.041	-0.151	0.095
-233.815	-91.596	-0.319	-0.091
-232.800	-200.000	0.021	0.094
-231.786	-129.898	-0.160	-0.022
-230.771	-103.687	0.027	0.006
-229.757	140.616	0.181	-0.240
-228.742	-119.463	-0.127	0.022
-227.727	-114.137	-0.330	-0.064
-226.713	-200.000	-0.017	-0.221
-225.698	-32.845	0.162	0.090
-224.684	40.336	0.188	0.170
-223.669	137.744	0.125	-0.164
-222.655	-148.374	0.048	-0.004
-221.640	62.422	0.198	-0.198
-220.625	-97.495	-0.319	-0.083
-219.611	206.371	-0.146	-0.227
-218.596	86.231	-0.244	-0.269
-217.582	-10.162	0.132	0.088
-216.567	612.344	0.032	0.081
-215.552	-53.423	0.405	0.186
-214.538	73.401	-0.038	-0.040
-213.523	-200.000	0.038	-0.201
-212.509	-115.338	0.151	0.029
-211.494	52.701	0.154	0.147
-210.479	89.990	-0.188	-0.211
-209.465	312.962	-0.116	-0.219
-208.450	800.000	-0.098	-0.271
-207.436	-84.671	0.135	0.042
-206.421	-162.620	0.186	-0.009
-205.406	-200.000	-0.043	0.243
-204.392	-86.128	-0.301	-0.093
-203.377	134.183	-0.221	0.286
-202.363	-200.000	0.038	-0.389
-201.348	-162.198	0.529	-0.026
-200.333	21.933	-0.340	-0.278
-199.319	65.620	0.069	-0.070
-198.304	800.000	0.093	0.408
-197.290	-200.000	-0.005	0.121
-196.275	-126.680	0.238	-0.035
-195.260	-45.405	0.099	-0.049
-194.246	-200.000	0.047	-0.609
-193.231	8.271	0.117	-0.088
-192.217	14.313	-0.148	-0.115
-191.202	-64.047	0.429	0.175
-190.187	344.266	-0.031	-0.061
-189.173	-200.000	0.020	-0.284
-188.158	9.045	-0.302	-0.228
-187.144	-72.905	0.398	0.146
-186.129	-200.000	-0.073	-0.364
-185.114	339.928	-0.125	0.243
-184.100	-200.000	0.004	-0.185
-183.085	-53.179	-0.098	-0.045
-182.071	-152.378	-0.192	0.014
-181.056	800.000	-0.143	-0.441
-180.042	239.476	0.046	0.076
-179.027	68.665	0.103	0.106
-178.012	566.444	0.065	-0.158
-176.998	66.749	-0.118	0.120
-175.983	-48.436	-0.362	-0.174
-174.969	-113.989	0.219	-0.042
-173.954	433.790	-0.144	0.313
-172.939	-106.905	-0.264	0.058
-171.925	423.449	0.096	-0.207
-170.910	-113.720	-0.291	0.057
-169.896	278.975	-0.146	0.260
-168.881	548.478	-0.130	0.310
-167.866	207.425	0.088	-0.137
-166.852	-200.000	-0.087	-0.556
-165.837	102.030	-0.249	-0.290
-164.823	-200.000	-0.009	-0.119
-163.808	31.252	0.087	-0.074
-162.793	-200.000	-0.003	-0.041
-161.779	-57.616	0.255	0.112
-160.764	376.288	-0.155	-0.316
-159.750	-112.142	-0.146	-0.029
-158.735	-61.010	-0.161	0.068
-157.720	147.418	-0.117	-0.157
-156.706	12.956	-0.133	0.103
-155.691	-107.071	0.335	-0.074
-154.677	-22.996	0.200	-0.120
-153.662	265.077	0.160	0.279
-152.647	-37.575	0.023	0.013
-151.633	560.108	-0.121	0.293
-150.618	-176.918	0.480	-0.012
-149.604	-200.000	0.005	0.262
-148.589	-148.861	0.086	-0.007
-147.574	36.113	-0.090	0.079
-146.560	157.229	0.222	-0.307
-145.545	1.866	-0.244	0.176
-144.531	28.992	0.099	-0.084
-143.516	135.988	0.027	0.035
-142.502	800.000	0.044	-0.138
-141.487	-70.067	-0.214	0.081
-140.472	50.335	-0.212	-0.200
-139.458	104.069	-0.161	-0.189
-138.443	-104.787	-0.485	0.111
-137.429	-33.133	0.058	-0.032
-136.414	800.000	0.059	0.242
-135.399	327.067	0.070	0.134
-134.385	-45.878	-0.316	-0.156
-133.370	-200.000	-0.003	-0.426
-132.356	-200.000	-0.034	0.189
-131.341	-132.915	0.165	-0.021
-130.326	-180.914	0.196	-0.004
-129.312	-91.417	0.181	-0.052
-128.297	-200.000	-0.017	0.213
-127.283	-181.989	-0.546	-0.010
-126.268	-200.000	-0.056	-0.355
-125.253	800.000	0.025	0.076
-124.239	190.854	0.124	0.186
-123.224	-41.617	0.267	-0.137
-122.210	-124.528	0.064	0.010
