DTS Sentinel unit serial number:	SN413079Multiplexer serial number:	ORYXHardware model number:	OX4-SRSoftware version number:	ORYX F/W v4.00 Oryx Data Collector v3.7.2.0data status	okinstallation	princeton_trtdifferential loss correction	single-endedforward channel	channel 3reverse channel	N/Adate	2019/09/15time	22:20:35forward acquisition time	60.00reverse acquisition time	0.00gamma	496.2192k internal	0.2331k external	0.2331temperature offset calibration	0.9938default loss term (dB/km)	0.3790temperature slope calibration	1.0000multiplexer offset coefficient	1.0000multiplexer slope coefficient	1.0000fibre end	0.00T internal ref (°C)	29.37T ext. ref 1 (°C)	8.68T ext. ref 2 (°C)	22.75length (m)	temperature (°C)	Stokes	anti-Stokes-747.200	-72.149	0.025	-0.009
-746.185	800.000	-0.071	0.215
-745.171	85.529	-0.096	-0.106
-744.156	-17.941	-0.253	0.160
-743.142	-108.893	-0.408	-0.088
-742.127	-145.914	-0.111	-0.010
-741.112	-200.000	-0.009	-0.096
-740.098	54.620	-0.197	0.191
-739.083	303.619	0.168	0.314
-738.069	373.140	-0.033	0.067
-737.054	-132.615	0.112	-0.014
-736.039	-84.892	-0.477	-0.151
-735.025	-140.565	0.269	0.028
-734.010	-200.000	0.008	-0.180
-732.996	32.009	-0.281	-0.243
-731.981	-147.152	-0.512	0.044
-730.966	-100.770	0.267	0.066
-729.952	-125.678	-0.391	-0.060
-728.937	227.496	0.077	-0.126
-727.923	-200.000	-0.031	0.000
-726.908	10.650	-0.046	-0.035
-725.894	42.039	0.147	0.134
-724.879	-156.011	-0.348	-0.022
-723.864	800.000	-0.034	-0.097
-722.850	248.616	-0.095	0.162
-721.835	-200.000	-0.062	-0.348
-720.821	-200.000	0.010	0.077
-719.806	98.281	-0.123	-0.143
-718.791	233.786	-0.111	0.183
-717.777	27.635	-0.096	-0.081
-716.762	-51.554	-0.283	0.133
-715.748	-47.588	0.259	-0.127
-714.733	-41.398	-0.345	0.178
-713.718	500.762	0.181	-0.420
-712.704	-135.281	-0.088	-0.011
-711.689	-28.911	-0.240	-0.138
-710.675	466.715	-0.035	0.079
-709.660	47.361	0.098	-0.092
-708.645	-113.075	-0.128	-0.025
-707.631	-146.966	0.080	0.007
-706.616	119.050	0.037	0.046
-705.602	-55.425	0.170	-0.076
-704.587	415.254	0.058	-0.124
-703.572	-152.237	-0.311	0.023
-702.558	-200.000	-0.019	-0.423
-701.543	-68.445	0.180	0.070
-700.529	-163.092	-0.080	0.004
-699.514	-91.293	-0.139	0.040
-698.499	145.698	0.264	0.356
-697.485	800.000	0.054	0.167
-696.470	732.647	-0.034	0.092
-695.456	800.000	0.088	-0.325
-694.441	-83.007	-0.249	-0.081
-693.426	-121.997	0.514	-0.085
-692.412	18.024	0.298	-0.238
-691.397	5.731	0.151	-0.112
-690.383	463.805	0.081	-0.181
-689.368	-101.244	-0.199	-0.049
-688.354	194.945	0.078	-0.119
-687.339	-16.268	-0.193	-0.123
-686.324	-153.930	-0.146	0.010
-685.310	208.426	-0.178	-0.279
-684.295	-26.717	-0.215	0.126
-683.281	198.654	0.120	-0.185
-682.266	744.404	-0.036	0.098
-681.251	202.840	-0.158	0.245
-680.237	-161.678	-0.242	-0.012
-679.222	12.900	0.220	-0.171
-678.208	-159.196	-0.083	-0.005
-677.193	-53.559	-0.042	-0.019
-676.178	-47.243	-0.042	-0.020
-675.164	25.090	0.121	-0.101
-674.149	-5.292	-0.094	-0.065
-673.135	800.000	-0.029	-0.084
-672.120	-132.133	0.328	0.043
-671.105	202.495	-0.136	-0.210
-670.091	-55.186	-0.566	0.255
-669.076	-200.000	-0.041	-0.255
-668.062	-66.158	-0.238	-0.095
-667.047	130.888	0.056	-0.072
-666.032	-200.000	-0.012	0.073
-665.018	537.150	-0.061	0.146
-664.003	20.495	0.106	0.086
-662.989	90.088	-0.202	-0.227
-661.974	-15.987	-0.059	-0.038
-660.959	227.956	-0.096	-0.157
-659.945	-94.064	0.221	0.061
-658.930	-109.742	-0.350	-0.074
-657.916	-60.226	-0.057	0.025
-656.901	305.784	-0.196	0.366
-655.886	-62.957	-0.549	0.228
-654.872	170.774	0.037	-0.053
-653.857	29.629	0.149	0.127
-652.843	-200.000	0.035	-0.161
-651.828	-200.000	0.020	0.178
-650.814	434.957	-0.012	0.027
-649.799	-185.317	-0.309	0.005
-648.784	34.839	0.248	0.217
-647.770	233.940	-0.144	-0.237
-646.755	-80.650	-0.121	-0.040
-645.741	-200.000	0.173	-0.000
-644.726	-111.499	-0.208	-0.043
-643.711	-35.547	-0.270	-0.147
-642.697	3.206	-0.198	0.144
-641.682	-98.859	-0.413	-0.105
-640.668	-200.000	-0.006	-0.162
-639.653	642.730	-0.044	0.111
-638.638	-200.000	0.006	0.100
-637.624	-8.586	-0.170	-0.115
-636.609	224.453	-0.097	-0.157
-635.595	-200.000	-0.070	0.000
-634.580	-200.000	-0.031	-0.383
-633.565	-80.227	-0.326	0.109
-632.551	17.416	0.060	-0.048
-631.536	444.359	0.091	-0.201
-630.522	800.000	0.022	-0.071
-629.507	-200.000	-0.021	0.115
-628.492	-97.654	0.321	0.083
-627.478	-150.348	-0.174	-0.013
-626.463	399.378	-0.077	-0.162
-625.449	-136.700	-0.218	0.025
-624.434	-58.904	0.209	-0.090
-623.419	356.086	-0.154	-0.308
-622.405	-150.909	-0.324	-0.025
-621.390	800.000	0.132	-0.371
-620.376	93.498	-0.137	-0.155
-619.361	-155.060	-0.164	-0.011
-618.346	26.765	-0.209	0.175
-617.332	-96.133	0.143	0.038
-616.317	-54.769	0.217	-0.098
-615.303	800.000	-0.024	0.072
-614.288	-27.479	0.060	0.035
-613.273	800.000	-0.086	0.302
-612.259	231.010	-0.005	-0.009
-611.244	-113.703	0.159	-0.031
-610.230	4.163	-0.086	-0.063
-609.215	152.977	0.119	0.163
-608.201	119.254	0.073	0.091
-607.186	-200.000	-0.042	-0.202
-606.171	135.394	0.055	0.072
-605.157	150.693	-0.108	-0.147
-604.142	167.680	-0.178	0.254
-603.128	227.753	-0.185	-0.301
-602.113	-200.000	-0.024	0.185
-601.098	-93.759	0.157	-0.043
-600.084	200.375	-0.220	0.338
-599.069	-47.005	0.253	-0.124
-598.055	385.009	-0.211	-0.435
-597.040	-12.276	0.106	-0.069
-596.025	-111.605	-0.195	-0.040
-595.011	430.089	-0.111	-0.240
-593.996	13.703	0.274	-0.213
-592.982	243.296	0.348	-0.583
-591.967	-200.000	-0.041	0.461
-590.952	-200.000	0.083	0.421
-589.938	105.390	-0.124	0.146
-588.923	-135.861	0.174	0.021
-587.909	347.652	0.061	-0.121
-586.894	800.000	0.060	0.234
-585.879	171.345	-0.127	-0.182
-584.865	-73.158	-0.053	-0.019
-583.850	132.852	0.075	0.096
-582.836	-13.754	-0.133	-0.086
-581.821	453.586	0.078	0.172
-580.806	-106.174	0.342	0.077
-579.792	306.038	-0.134	0.250
-578.777	800.000	0.080	-0.239
-577.763	-200.000	-0.069	-0.431
-576.748	-166.723	0.175	-0.007
-575.733	-200.000	-0.046	0.289
-574.719	-149.218	0.210	0.017
-573.704	-77.607	-0.542	-0.188
-572.690	32.092	-0.351	-0.303
-571.675	-200.000	0.028	0.159
-570.661	-67.681	-0.329	-0.129
-569.646	-124.074	0.307	-0.048
-568.631	-16.260	-0.130	0.083
-567.617	-200.000	-0.013	0.115
-566.602	17.634	0.123	-0.097
-565.588	-98.680	0.431	-0.110
-564.573	-71.459	-0.293	-0.109
-563.558	-81.550	-0.020	0.006
-562.544	-114.607	-0.138	-0.027
-561.529	654.783	0.094	0.242
-560.515	-200.000	-0.002	-0.083
-559.500	134.351	0.169	-0.219
-558.485	-90.855	-0.183	-0.053
-557.471	800.000	0.029	-0.118
-556.456	800.000	-0.066	0.280
-555.442	204.311	-0.016	0.025
-554.427	-200.000	0.015	-0.400
-553.412	58.218	0.032	0.031
-552.398	312.455	0.121	0.226
-551.383	-132.880	-0.388	-0.049
-550.369	-0.559	0.294	-0.208
-549.354	217.662	-0.194	0.309
-548.339	70.900	0.086	0.089
-547.325	129.389	0.070	-0.089
-546.310	-1.004	0.229	-0.162
-545.296	-200.000	-0.031	0.173
-544.281	134.648	0.177	0.229
-543.266	82.843	-0.077	0.083
-542.252	-88.038	-0.042	-0.013
-541.237	-200.000	0.007	-0.189
-540.223	148.495	0.176	0.237
-539.208	800.000	-0.025	0.111
-538.193	-76.190	-0.329	0.116
-537.179	538.618	0.086	-0.203
-536.164	-200.000	0.009	-0.156
-535.150	6.207	-0.106	0.079
-534.135	169.961	-0.223	-0.318
-533.121	-9.212	0.121	0.080
-532.106	-158.649	0.275	0.016
-531.091	505.315	0.126	-0.292
-530.077	-200.000	-0.008	0.192
-529.062	-200.000	-0.002	-0.201
-528.048	-200.000	-0.019	0.165
-527.033	-115.810	-0.031	0.006
-526.018	-67.652	-0.288	0.113
-525.004	-200.000	-0.054	0.316
-523.989	84.930	-0.046	-0.050
-522.975	-200.000	0.002	-0.298
-521.960	165.750	0.048	0.068
-520.945	107.455	0.160	0.190
-519.931	143.177	0.138	-0.183
-518.916	15.478	0.010	-0.008
-517.902	317.231	0.120	0.226
-516.887	-127.145	0.174	-0.025
-515.872	233.740	0.131	0.216
-514.858	800.000	-0.103	0.389
-513.843	208.687	-0.131	-0.204
-512.829	-137.512	-0.155	-0.017
-511.814	-83.848	0.441	0.140
-510.799	-57.763	-0.137	0.060
-509.785	66.560	-0.064	-0.065
-508.770	1.133	-0.071	-0.051
-507.756	-125.644	0.097	-0.015
-506.741	170.425	0.243	-0.347
-505.726	-186.180	-0.064	0.001
-504.712	134.652	-0.047	-0.061
-503.697	36.984	-0.196	0.173
-502.683	-45.967	0.107	0.053
-501.668	712.937	0.143	-0.378
-500.653	410.651	0.168	-0.355
-499.639	-122.527	0.141	0.023
-498.624	-16.664	0.101	-0.064
-497.610	-97.539	-0.077	-0.020
-496.595	-200.000	0.000	0.200
-495.581	355.520	0.074	0.146
-494.566	-115.857	0.228	0.042
-493.551	-155.357	-0.092	0.006
-492.537	-18.810	-0.201	-0.125
-491.522	-113.238	-0.333	-0.065
-490.508	-117.229	0.194	0.035
-489.493	115.130	-0.341	-0.415
-488.478	-4.829	0.061	-0.042
-487.464	692.415	-0.133	0.348
-486.449	-4.584	-0.078	-0.053
-485.435	800.000	-0.089	-0.295
-484.420	440.906	-0.234	-0.511
-483.405	-200.000	0.020	0.144
-482.391	-129.001	0.057	-0.008
-481.376	-151.384	0.181	0.013
-480.362	-115.982	0.213	0.040
-479.347	140.518	-0.271	-0.357
-478.332	-200.000	-0.395	0.001
-477.318	-34.997	-0.060	-0.032
-476.303	-200.000	0.019	0.155
-475.289	73.528	0.241	-0.251
-474.274	541.622	0.036	-0.085
-473.259	800.000	0.104	-0.350
-472.245	282.668	0.022	0.039
-471.230	-178.014	-0.105	-0.002
-470.216	-47.125	0.179	-0.087
-469.201	-76.823	-0.281	-0.098
-468.186	800.000	0.016	-0.068
-467.172	-10.008	0.190	0.126
-466.157	-69.923	-0.435	-0.165
-465.143	-68.020	-0.209	0.081
-464.128	188.481	-0.014	-0.021
-463.113	-134.701	-0.268	-0.032
-462.099	-9.174	0.044	-0.030
-461.084	-70.705	-0.124	0.047
-460.070	-78.984	-0.284	0.096
-459.055	-33.023	-0.150	-0.083
-458.040	-200.000	-0.022	-0.321
-457.026	-90.271	0.354	0.102
-456.011	142.175	0.294	-0.388
-454.997	-200.000	0.044	-0.314
-453.982	273.238	-0.195	-0.342
-452.968	516.894	-0.057	0.132
-451.953	-95.071	-0.314	-0.084
-450.938	280.434	-0.038	0.067
-449.924	-200.000	0.018	0.142
-448.909	-144.279	0.229	0.021
-447.895	800.000	-0.049	-0.133
-446.880	-112.387	0.193	-0.038
-445.865	354.489	0.040	0.080
-444.851	-200.000	-0.029	0.287
-443.836	16.604	0.126	-0.099
-442.822	-120.881	-0.265	-0.044
-441.807	-144.689	-0.492	-0.045
-440.792	-34.168	-0.256	-0.140
-439.778	-13.429	-0.250	-0.161
-438.763	-92.503	0.166	-0.046
-437.749	-83.414	0.265	0.085
-436.734	-164.459	-0.279	0.013
-435.719	446.882	-0.074	0.162
-434.705	89.902	0.158	-0.175
-433.690	-173.921	0.145	-0.004
-432.676	633.419	0.134	-0.338
-431.661	47.561	0.210	0.195
-430.646	-11.539	0.094	0.061
-429.632	275.064	0.029	-0.052
-428.617	-114.687	0.137	-0.026
-427.603	-140.788	0.153	-0.016
-426.588	-108.319	-0.161	-0.035
-425.573	-97.900	0.116	0.030
-424.559	195.455	0.169	-0.256
-423.544	-98.736	0.030	-0.008
-422.530	297.480	-0.125	0.228
-421.515	-32.097	0.261	0.145
-420.500	675.588	0.129	0.332
-419.486	-29.758	-0.320	0.182
-418.471	800.000	-0.103	0.326
-417.457	446.502	-0.117	0.255
-416.442	-142.967	0.055	-0.005
-415.428	-35.643	-0.368	0.198
-414.413	-200.000	0.023	0.131
-413.398	-137.052	0.339	0.038
-412.384	-16.376	-0.041	-0.026
-411.369	-49.599	0.169	0.080
-410.355	-1.170	0.368	0.258
-409.340	28.686	-0.148	-0.124
-408.325	800.000	-0.038	-0.108
-407.311	-200.000	0.007	0.040
-406.296	-2.007	0.224	0.157
-405.282	-200.000	-0.031	0.209
-404.267	800.000	0.114	-0.477
-403.252	156.350	0.175	-0.240
-402.238	-146.539	-0.130	-0.011
-401.223	205.138	-0.017	0.026
-400.209	278.293	-0.024	-0.042
-399.194	248.091	0.103	0.173
-398.179	800.000	-0.059	0.168
-397.165	-115.670	0.348	0.065
-396.150	23.485	0.081	0.066
-395.136	183.360	-0.120	0.176
-394.121	-40.088	0.108	0.056
-393.106	-120.908	0.223	0.037
-392.092	-72.698	0.168	0.061
-391.077	-129.460	-0.283	0.039
-390.063	-200.000	0.044	-0.265
-389.048	80.165	-0.214	-0.228
-388.033	158.952	-0.263	0.363
-387.019	245.188	0.135	-0.225
-386.004	-200.000	-0.009	-0.249
-384.990	28.059	-0.127	0.107
-383.975	-66.410	0.253	0.100
-382.960	58.788	0.347	0.338
-381.946	-84.620	-0.059	-0.018
-380.931	-152.446	-0.269	0.019
-379.917	-46.394	-0.071	-0.035
-378.902	-57.639	-0.201	0.088
-377.888	20.130	-0.216	0.173
-376.873	-69.414	0.073	0.028
-375.858	7.284	-0.364	0.270
-374.844	-19.561	0.147	0.091
-373.829	-30.463	0.270	-0.152
-372.815	127.345	0.177	0.223
-371.800	-76.743	-0.367	-0.128
-370.785	-200.000	0.030	0.160
-369.771	50.976	0.210	0.198
-368.756	37.783	0.059	-0.052
-367.742	-128.091	0.215	0.031
-366.727	-198.916	-0.508	-0.003
-365.712	292.057	-0.007	-0.013
-364.698	114.784	-0.163	0.197
-363.683	-40.775	-0.060	0.031
-362.669	-36.113	0.037	0.020
-361.654	-31.521	-0.032	-0.018
-360.639	159.771	-0.115	0.158
-359.625	68.992	0.112	0.114
-358.610	-107.377	0.109	0.024
-357.596	225.801	-0.084	0.136
-356.581	-35.873	0.443	0.238
-355.566	-200.000	-0.079	0.442
-354.552	800.000	-0.021	0.089
-353.537	-21.124	-0.079	-0.048
-352.523	-29.961	0.196	-0.111
-351.508	-200.000	-0.011	0.151
-350.493	63.119	-0.341	0.338
-349.479	-200.000	-0.032	0.350
-348.464	-200.000	-0.018	0.133
-347.450	-3.791	0.357	0.246
-346.435	291.597	0.048	-0.087
-345.420	-109.656	0.048	0.010
-344.406	-123.823	-0.350	-0.055
-343.391	-200.000	0.031	-0.175
-342.377	-200.000	-0.012	-0.085
-341.362	-200.000	-0.037	-0.364
-340.348	-113.956	0.186	-0.036
-339.333	174.325	-0.095	0.136
-338.318	-98.338	-0.203	0.052
-337.304	116.612	-0.236	0.287
-336.289	-17.994	0.351	0.218
-335.275	-19.918	0.104	0.064
-334.260	52.380	-0.268	-0.253
-333.245	554.840	-0.023	0.054
-332.231	150.680	-0.146	-0.197
-331.216	41.801	0.480	0.431
-330.202	-200.000	0.022	0.196
-329.187	31.631	0.204	0.174
-328.172	-72.835	-0.236	-0.086
-327.158	-12.710	0.153	0.099
-326.143	117.095	0.232	0.282
-325.129	103.431	0.183	-0.213
-324.114	-111.639	-0.333	0.067
-323.099	-200.000	-0.042	-0.279
-322.085	230.308	-0.078	0.126
-321.070	-66.502	0.405	0.159
-320.056	188.425	0.165	-0.245
-319.041	33.076	0.058	0.050
-318.026	361.625	-0.247	0.490
-317.012	-187.414	-0.421	-0.006
-315.997	-200.000	-0.025	-0.254
-314.983	0.264	-0.277	-0.195
-313.968	-200.000	0.001	-0.262
-312.953	-105.328	-0.271	0.061
-311.939	-200.000	0.058	0.263
-310.924	203.767	-0.081	-0.123
-309.910	90.041	-0.131	-0.145
-308.895	-200.000	-0.014	-0.062
-307.880	4.357	0.201	-0.146
-306.866	-200.000	-0.048	0.242
-305.851	-175.858	0.098	0.003
-304.837	55.655	0.052	-0.050
-303.822	-62.883	-0.163	-0.067
-302.807	65.037	0.104	-0.104
-301.793	-110.518	0.125	0.026
-300.778	-200.000	0.015	-0.107
-299.764	800.000	-0.103	-0.339
-298.749	-167.612	-0.263	-0.010
-297.735	-59.290	0.284	-0.121
-296.720	216.473	0.127	0.200
-295.705	-18.845	0.243	-0.150
-294.691	-200.000	-0.047	0.207
-293.676	-37.409	-0.060	0.032
-292.662	-179.607	-0.443	0.010
-291.647	-116.927	0.258	0.047
-290.632	523.303	-0.167	0.389
-289.618	41.933	0.203	0.182
-288.603	-126.329	-0.128	0.019
-287.589	559.059	0.079	-0.190
-286.574	-200.000	-0.020	-0.174
-285.559	-7.918	-0.483	-0.322
-284.545	115.272	-0.156	-0.188
-283.530	-200.000	-0.043	-0.227
-282.516	498.535	0.055	-0.125
-281.501	111.759	0.179	0.213
-280.486	-65.227	-0.305	0.121
-279.472	558.946	0.045	-0.106
-278.457	-200.000	0.021	-0.184
-277.443	-172.597	0.360	-0.011
-276.428	-169.460	-0.270	-0.010
-275.413	-200.000	-0.009	0.073
-274.399	155.345	0.296	0.403
-273.384	101.450	0.176	-0.203
-272.370	-125.322	0.198	-0.030
-271.355	-69.309	-0.119	-0.045
-270.340	-200.000	0.075	-0.399
-269.326	-200.000	-0.042	-0.360
-268.311	293.382	-0.039	-0.070
-267.297	-145.023	0.141	-0.013
-266.282	-200.000	-0.021	0.212
-265.267	3.493	-0.092	0.066
-264.253	800.000	-0.043	0.153
-263.238	341.467	-0.063	0.122
-262.224	-98.308	0.356	-0.090
-261.209	-200.000	0.105	0.463
-260.195	66.315	0.021	-0.021
-259.180	438.062	0.146	0.314
-258.165	168.297	-0.063	0.088
-257.151	-200.000	0.018	-0.245
-256.136	478.140	-0.135	0.302
-255.122	-67.646	0.250	-0.097
-254.107	1.085	0.374	0.265
-253.092	87.584	0.184	0.201
-252.078	-68.789	0.425	0.162
-251.063	29.036	-0.170	-0.142
-250.049	-200.000	-0.050	-0.240
-249.034	-117.881	-0.106	-0.019
-248.019	-129.605	0.251	-0.034
-247.005	34.670	0.196	-0.169
-245.990	-81.120	0.156	-0.051
-244.976	73.527	0.052	-0.054
-243.961	-11.062	0.259	0.169
-242.946	159.699	0.129	-0.177
-241.932	117.071	-0.223	0.271
-240.917	-95.920	0.360	0.095
-239.903	-77.724	-0.409	-0.140
-238.888	-41.380	-0.243	0.124
-237.873	343.073	-0.120	-0.231
-236.859	521.604	0.047	-0.110
-235.844	-200.000	0.038	-0.196
-234.830	-128.918	-0.299	-0.041
-233.815	800.000	-0.040	-0.132
-232.800	-92.590	0.073	-0.020
-231.786	-42.575	-0.149	-0.075
-230.771	25.056	-0.067	0.055
-229.757	800.000	-0.090	0.339
-228.742	-200.000	-0.033	0.300
-227.727	-40.188	0.111	0.057
-226.713	-200.000	-0.012	0.104
-225.698	-56.240	0.334	0.147
-224.684	665.706	-0.098	0.250
-223.669	9.050	0.183	-0.136
-222.655	-200.000	-0.007	-0.220
-221.640	-200.000	0.019	0.178
-220.625	-200.000	0.017	0.180
-219.611	-47.733	0.195	0.093
-218.596	-25.070	0.305	-0.178
-217.582	678.745	-0.080	-0.206
-216.567	800.000	0.052	-0.204
-215.552	285.534	0.042	-0.075
-214.538	-117.747	-0.334	-0.059
-213.523	800.000	-0.048	-0.158
-212.509	-160.785	-0.263	0.014
-211.494	-200.000	0.049	-0.254
-210.479	-128.993	0.275	0.038
-209.465	301.297	-0.109	-0.198
-208.450	183.675	-0.077	-0.112
-207.436	-96.393	0.312	-0.081
-206.421	-136.797	0.223	-0.025
-205.406	414.783	-0.100	-0.209
-204.392	-18.871	0.165	0.101
-203.377	359.815	0.156	0.308
-202.363	-110.791	-0.449	-0.091
-201.348	-47.901	0.407	-0.194
-200.333	445.530	0.164	0.355
-199.319	-132.348	0.138	-0.018
-198.304	-200.000	0.031	-0.246
-197.290	-56.747	0.451	0.197
-196.275	174.959	-0.088	-0.125
-195.260	78.564	0.175	-0.185
-194.246	800.000	-0.069	0.195
-193.231	-16.580	-0.410	-0.256
-192.217	-127.781	0.430	-0.061
-191.202	-200.000	0.005	-0.028
-190.187	-78.902	-0.209	-0.070
-189.173	408.693	-0.053	0.110
-188.158	475.015	0.059	-0.131
-187.144	421.479	0.135	0.284
-186.129	-200.000	-0.011	0.200
-185.114	-68.905	0.224	0.085
-184.100	361.392	0.046	-0.090
-183.085	84.111	-0.287	-0.308
-182.071	-116.430	0.245	0.045
-181.056	500.138	0.116	0.263
-180.042	-143.554	0.203	-0.019
-179.027	-88.119	-0.190	-0.056
-178.012	-25.811	-0.128	0.075
-176.998	-151.129	-0.226	-0.017
-175.983	-117.612	-0.074	-0.013
-174.969	92.913	0.086	0.096
-173.954	791.435	0.165	0.447
-172.939	2.717	-0.156	0.111
-171.925	-178.327	0.260	0.006
-170.910	-57.736	-0.514	0.221
-169.896	-103.128	-0.135	0.031
-168.881	206.713	0.134	-0.206
-167.866	-200.000	0.008	-0.254
-166.852	-11.248	-0.162	0.105
-165.837	8.426	-0.165	0.122
-164.823	-200.000	0.246	0.001
-163.808	-200.000	0.018	-0.100
-162.793	800.000	-0.085	0.355
-161.779	-200.000	-0.024	-0.108
-160.764	87.922	-0.016	0.017
-159.750	-77.138	0.288	-0.099
-158.735	-200.000	-0.043	0.320
-157.720	800.000	-0.063	-0.210
-156.706	-40.774	0.057	-0.029
-155.691	5.186	-0.346	0.251
-154.677	-65.412	0.174	0.069
-153.662	-200.000	-0.016	-0.264
-152.647	4.477	0.169	-0.122
-151.633	800.000	-0.080	0.279
-150.618	87.655	-0.238	0.259
-149.604	337.629	0.140	-0.267
-148.589	187.492	-0.138	0.203
-147.574	-200.000	-0.006	0.041
-146.560	4.015	0.220	0.158
-145.545	160.452	-0.092	0.126
-144.531	107.307	0.162	-0.189
-143.516	800.000	0.172	-0.497
-142.502	-4.807	0.096	-0.065
-141.487	15.955	-0.287	0.222
-140.472	11.570	0.140	0.105
-139.458	547.086	-0.021	-0.050
-138.443	116.160	0.070	-0.084
-137.429	-200.000	-0.041	0.186
-136.414	-28.033	0.108	-0.062
-135.399	-169.920	0.104	-0.004
-134.385	-81.954	0.251	-0.080
-133.370	-200.000	-0.015	0.068
-132.356	-81.236	-0.191	-0.062
-131.341	-200.000	-0.042	-0.284
-130.326	89.928	-0.380	0.417
-129.312	116.802	0.101	0.121
-128.297	-200.000	0.025	-0.324
-127.283	-200.000	-0.010	-0.144
-126.268	-188.317	0.469	0.006
-125.253	21.653	0.236	0.189
-124.239	770.663	0.025	0.066
-123.224	-140.233	0.331	-0.034
