DTS Sentinel unit serial number:	SN413079Multiplexer serial number:	ORYXHardware model number:	OX4-SRSoftware version number:	ORYX F/W v4.00 Oryx Data Collector v3.7.2.0data status	okinstallation	princeton_trtdifferential loss correction	single-endedforward channel	channel 3reverse channel	N/Adate	2019/09/19time	14:40:35forward acquisition time	60.00reverse acquisition time	0.00gamma	496.2192k internal	0.2319k external	0.2319temperature offset calibration	1.0005default loss term (dB/km)	0.3790temperature slope calibration	1.0000multiplexer offset coefficient	1.0000multiplexer slope coefficient	1.0000fibre end	0.00T internal ref (°C)	32.52T ext. ref 1 (°C)	1.09T ext. ref 2 (°C)	29.52length (m)	temperature (°C)	Stokes	anti-Stokes-747.200	-141.982	0.373	0.038
-746.185	127.764	-0.100	0.129
-745.171	-13.901	-0.222	0.145
-744.156	303.737	-0.149	0.279
-743.142	570.494	0.054	-0.132
-742.127	-200.000	-0.066	0.316
-741.112	-200.000	0.029	-0.275
-740.098	299.852	-0.207	0.385
-739.083	-143.378	0.341	0.033
-738.069	-55.859	-0.201	-0.091
-737.054	-65.705	0.076	-0.031
-736.039	49.464	-0.285	0.272
-735.025	187.120	0.178	-0.268
-734.010	-200.000	-0.022	0.135
-732.996	-76.042	-0.306	0.109
-731.981	-76.752	-0.163	-0.058
-730.966	119.664	-0.145	0.181
-729.952	-200.000	-0.010	0.251
-728.937	800.000	-0.045	-0.141
-727.923	151.000	0.101	-0.139
-726.908	119.508	-0.077	0.096
-725.894	-144.030	0.107	-0.010
-724.879	52.741	0.182	-0.176
-723.864	800.000	0.081	-0.332
-722.850	9.553	-0.301	0.231
-721.835	-56.428	0.254	-0.114
-720.821	-55.061	-0.104	0.047
-719.806	376.213	0.192	-0.396
-718.791	644.462	0.066	-0.171
-717.777	-104.761	0.298	-0.069
-716.762	208.799	-0.135	0.214
-715.748	5.066	0.147	-0.110
-714.733	18.920	-0.172	0.139
-713.718	-135.515	-0.027	-0.003
-712.704	129.967	0.152	-0.196
-711.689	-46.856	-0.248	-0.122
-710.675	-107.157	0.112	-0.025
-709.660	195.503	-0.118	0.180
-708.645	800.000	0.106	-0.370
-707.631	-54.728	-0.197	0.090
-706.616	-200.000	-0.008	-0.647
-705.602	-27.982	-0.058	-0.034
-704.587	-126.182	-0.236	0.036
-703.572	-80.810	0.111	-0.037
-702.558	605.557	-0.134	-0.338
-701.543	-33.084	-0.123	-0.069
-700.529	267.739	-0.263	-0.465
-699.514	230.900	0.108	-0.179
-698.499	-52.032	-0.160	0.075
-697.485	45.464	0.230	-0.215
-696.470	-200.000	0.042	-0.241
-695.456	-200.000	-0.030	-0.175
-694.441	-116.599	0.369	-0.069
-693.426	189.450	-0.106	0.161
-692.412	-5.364	0.244	0.169
-691.397	-200.000	-0.010	-0.118
-690.383	-128.766	-0.082	-0.012
-689.368	135.397	-0.236	-0.310
-688.354	-200.000	-0.017	0.122
-687.339	-101.557	-0.282	-0.069
-686.324	13.228	0.197	0.154
-685.310	800.000	0.057	0.207
-684.295	800.000	-0.120	-0.394
-683.281	-84.182	0.235	0.075
-682.266	-38.775	-0.332	0.177
-681.251	-181.070	0.090	-0.002
-680.237	-108.554	0.288	0.062
-679.222	-200.000	0.110	-0.505
-678.208	-53.978	0.021	-0.010
-677.193	800.000	-0.078	-0.289
-676.178	800.000	-0.086	-0.370
-675.164	-200.000	-0.001	0.200
-674.149	-40.246	-0.287	-0.150
-673.135	148.563	-0.130	0.178
-672.120	-111.151	0.184	0.038
-671.105	264.912	-0.237	-0.416
-670.091	138.720	0.134	-0.177
-669.076	716.563	-0.069	-0.185
-668.062	162.828	-0.049	-0.070
-667.047	-32.446	-0.161	0.091
-666.032	-200.000	-0.051	-0.298
-665.018	71.244	-0.014	-0.014
-664.003	800.000	0.023	0.091
-662.989	-200.000	0.072	0.377
-661.974	35.832	-0.267	0.236
-660.959	-6.981	0.391	-0.268
-659.945	339.711	-0.045	0.088
-658.930	-87.087	-0.204	0.063
-657.916	-62.923	-0.255	-0.106
-656.901	29.822	-0.205	0.176
-655.886	-191.073	-0.219	0.002
-654.872	240.373	-0.110	-0.185
-653.857	-200.000	-0.030	-0.275
-652.843	314.946	-0.130	0.246
-651.828	100.165	0.155	0.181
-650.814	-200.000	-0.005	0.178
-649.799	309.483	-0.090	-0.170
-648.784	-27.279	-0.086	-0.050
-647.770	70.100	0.131	0.136
-646.755	430.933	-0.095	0.207
-645.741	-200.000	-0.018	0.092
-644.726	63.321	-0.263	0.266
-643.711	142.250	0.150	0.200
-642.697	40.964	-0.121	0.110
-641.682	-141.635	0.184	0.019
-640.668	800.000	-0.081	-0.249
-639.653	-148.928	-0.129	-0.010
-638.638	-94.033	0.319	-0.088
-637.624	-200.000	-0.054	-0.263
-636.609	-161.998	0.226	-0.011
-635.595	349.767	0.216	-0.429
-634.580	800.000	0.094	-0.265
-633.565	-200.000	-0.001	-0.030
-632.551	-98.521	0.277	-0.071
-631.536	354.273	0.090	0.180
-630.522	-200.000	-0.034	0.159
-629.507	118.445	-0.158	0.197
-628.492	205.052	0.104	0.163
-627.478	800.000	0.083	-0.262
-626.463	-143.416	0.123	0.012
-625.449	-72.015	0.012	-0.005
-624.434	-5.516	0.099	-0.068
-623.419	-138.315	-0.109	-0.012
-622.405	800.000	0.059	0.215
-621.390	46.432	0.104	0.097
-620.376	-37.962	-0.063	0.034
-619.361	-200.000	0.078	-0.458
-618.346	-50.060	-0.277	-0.132
-617.332	-200.000	0.075	0.372
-616.317	427.406	-0.059	0.129
-615.303	-132.471	0.396	0.051
-614.288	-170.472	0.303	0.011
-613.273	61.389	-0.210	0.210
-612.259	-45.540	-0.225	-0.112
-611.244	-76.789	-0.191	-0.067
-610.230	26.446	0.134	-0.113
-609.215	-135.933	-0.131	-0.016
-608.201	269.730	0.264	-0.466
-607.186	19.887	-0.141	0.114
-606.171	-63.256	-0.282	0.117
-605.157	-145.795	-0.162	0.014
-604.142	30.955	0.132	0.114
-603.128	201.197	0.263	-0.407
-602.113	800.000	-0.002	0.007
-601.098	-64.660	-0.128	-0.052
-600.084	-18.783	-0.185	-0.116
-599.069	-133.246	-0.210	0.027
-598.055	-43.133	0.118	-0.060
-597.040	66.469	0.274	0.280
-596.025	25.216	-0.372	-0.311
-595.011	113.960	0.180	-0.220
-593.996	143.973	0.163	-0.219
-592.982	-55.493	-0.154	-0.070
-591.967	748.624	-0.128	0.347
-590.952	-112.962	-0.067	-0.013
-589.938	800.000	-0.073	-0.236
-588.923	-20.600	-0.188	-0.116
-587.909	17.387	-0.231	-0.184
-586.894	206.206	-0.040	0.063
-585.879	38.340	-0.064	-0.057
-584.865	800.000	-0.045	-0.141
-583.850	346.147	0.139	0.275
-582.836	-58.460	-0.162	-0.071
-581.821	-200.000	-0.170	0.000
-580.806	-30.339	-0.377	0.215
-579.792	-68.819	0.094	-0.037
-578.777	126.925	0.069	0.087
-577.763	640.140	-0.031	-0.081
-576.748	-25.595	-0.257	0.153
-575.733	-164.192	-0.119	-0.006
-574.719	-82.595	0.115	0.038
-573.704	-200.000	-0.036	-0.199
-572.690	-200.000	0.040	-0.325
-571.675	-63.027	-0.098	0.041
-570.661	-46.661	0.263	0.129
-569.646	99.007	-0.117	-0.136
-568.631	617.222	0.042	-0.107
-567.617	-89.212	0.367	-0.109
-566.602	38.655	0.159	0.142
-565.588	-38.816	0.056	0.030
-564.573	800.000	0.079	0.241
-563.558	800.000	0.087	0.267
-562.544	-200.000	0.112	0.559
-561.529	566.394	0.045	-0.109
-560.515	28.704	-0.169	-0.143
-559.500	288.290	-0.189	0.343
-558.485	199.271	-0.234	0.360
-557.471	-146.521	-0.362	0.032
-556.456	800.000	0.056	0.171
-555.442	800.000	0.208	-0.590
-554.427	-5.343	0.197	0.136
-553.412	540.162	0.146	-0.349
-552.398	-85.875	-0.227	-0.071
-551.383	103.010	-0.199	0.235
-550.369	765.627	0.130	-0.356
-549.354	-172.252	0.181	-0.006
-548.339	347.079	0.090	0.178
-547.325	60.773	0.208	0.207
-546.310	354.867	-0.039	-0.077
-545.296	-85.529	0.196	0.061
-544.281	-200.000	0.055	0.327
-543.266	-7.204	0.172	0.117
-542.252	56.291	0.103	-0.101
-541.237	800.000	-0.022	0.093
-540.223	505.808	0.020	0.047
-539.208	-200.000	0.101	0.737
-538.193	696.010	0.013	-0.034
-537.179	180.882	0.071	0.105
-536.164	-9.491	0.237	-0.158
-535.150	176.519	0.120	0.175
-534.135	321.202	-0.095	-0.182
-533.121	-10.599	-0.128	-0.085
-532.106	-92.485	-0.193	-0.054
-531.091	5.598	-0.274	0.203
-530.077	-155.678	0.269	0.017
-529.062	255.724	-0.071	-0.122
-528.048	175.216	-0.191	-0.278
-527.033	-21.531	-0.035	0.021
-526.018	-154.194	0.181	-0.012
-525.004	-6.068	0.069	-0.048
-523.989	429.525	0.027	0.059
-522.975	81.114	-0.093	0.100
-521.960	-200.000	-0.007	0.046
-520.945	174.822	0.067	-0.098
-519.931	-200.000	-0.012	0.404
-518.916	-57.738	0.246	0.108
-517.902	-200.000	-0.010	-0.283
-516.887	26.630	-0.112	-0.094
-515.872	-12.855	-0.261	-0.171
-514.858	-75.555	-0.154	0.055
-513.843	800.000	0.116	0.332
-512.829	85.738	0.203	0.223
-511.814	-119.082	0.099	-0.017
-510.799	-45.547	-0.181	-0.090
-509.785	-52.740	-0.146	-0.068
-508.770	-111.298	0.076	-0.016
-507.756	-200.000	-0.007	-0.044
-506.741	-2.450	0.153	-0.108
-505.726	624.088	-0.067	-0.169
-504.712	235.036	-0.147	0.243
-503.697	-200.000	-0.004	-0.297
-502.683	800.000	-0.075	-0.212
-501.668	449.211	-0.115	0.255
-500.653	301.593	-0.005	0.010
-499.639	18.656	-0.276	0.221
-498.624	15.155	-0.166	-0.130
-497.610	160.554	-0.119	-0.167
-496.595	-58.964	0.400	-0.173
-495.581	-40.734	0.066	0.034
-494.566	-71.594	-0.295	0.110
-493.551	441.839	0.145	-0.319
-492.537	-200.000	0.040	0.262
-491.522	80.319	-0.319	-0.344
-490.508	-173.814	-0.104	0.003
-489.493	-79.574	0.082	-0.028
-488.478	562.411	-0.117	-0.284
-487.464	-200.000	0.010	-0.104
-486.449	-50.962	0.077	0.036
-485.435	-200.000	-0.026	-0.185
-484.420	-145.981	0.083	0.007
-483.405	-110.279	0.545	0.114
-482.391	375.981	0.107	-0.219
-481.376	-200.000	-0.002	0.017
-480.362	800.000	-0.038	-0.154
-479.347	-200.000	-0.006	-0.251
-478.332	-109.055	-0.237	0.050
-477.318	800.000	0.117	0.343
-476.303	91.881	0.039	-0.044
-475.289	165.483	0.177	-0.251
-474.274	25.175	0.210	0.175
-473.259	140.236	0.141	0.186
-472.245	-21.418	-0.094	0.057
-471.230	-73.178	0.237	-0.087
-470.216	71.679	-0.180	0.187
-469.201	-200.000	-0.013	-0.083
-468.186	-29.036	0.210	0.121
-467.172	-125.726	0.241	-0.036
-466.157	-200.000	-0.067	0.461
-465.143	167.633	0.307	0.436
-464.128	-26.622	-0.121	0.071
-463.113	667.338	-0.062	0.160
-462.099	800.000	0.018	-0.076
-461.084	71.030	0.148	-0.153
-460.070	-200.000	-0.044	0.309
-459.055	159.865	0.146	-0.204
-458.040	524.335	0.051	-0.120
-457.026	-28.763	0.245	-0.141
-456.011	272.549	0.105	0.185
-454.997	-170.981	-0.242	-0.008
-453.982	-200.000	0.002	-0.268
-452.968	-200.000	0.016	-0.129
-451.953	-9.160	-0.144	-0.096
-450.938	800.000	0.067	-0.248
-449.924	-65.806	-0.231	-0.092
-448.909	-88.564	-0.349	0.104
-447.895	-200.000	0.003	0.053
-446.880	62.049	0.124	0.124
-445.865	-200.000	-0.015	0.191
-444.851	368.758	0.020	-0.041
-443.836	-158.468	-0.134	-0.008
-442.822	-83.672	-0.250	-0.080
-441.807	800.000	-0.043	-0.122
-440.792	-134.195	0.267	0.033
-439.778	-200.000	-0.024	0.119
-438.763	-20.121	-0.158	0.097
-437.749	800.000	0.055	-0.158
-436.734	-105.938	-0.184	0.042
-435.719	-105.496	-0.204	-0.046
-434.705	-120.921	-0.454	0.076
-433.690	240.091	-0.077	0.129
-432.676	251.087	-0.086	-0.146
-431.661	-10.512	0.240	-0.159
-430.646	-200.000	-0.000	-0.009
-429.632	32.526	-0.180	-0.155
-428.617	53.988	-0.219	0.211
-427.603	16.090	-0.052	-0.041
-426.588	-94.418	0.114	-0.031
-425.573	-46.011	0.239	0.118
-424.559	199.532	-0.098	0.151
-423.544	598.246	-0.011	0.027
-422.530	-112.565	-0.122	-0.024
-421.515	395.883	0.095	0.199
-420.500	-55.580	-0.228	0.102
-419.486	-49.609	-0.305	-0.145
-418.471	800.000	0.086	-0.246
-417.457	410.099	-0.114	-0.242
-416.442	-11.136	-0.135	-0.089
-415.428	800.000	0.011	0.035
-414.413	-87.346	-0.257	0.078
-413.398	75.552	0.131	-0.138
-412.384	-200.000	-0.008	0.244
-411.369	-63.158	-0.181	0.075
-410.355	-200.000	0.050	0.290
-409.340	-119.122	-0.093	0.016
-408.325	-200.000	0.003	0.146
-407.311	355.939	0.149	-0.297
-406.296	-156.492	0.245	0.015
-405.282	-136.947	0.394	0.045
-404.267	3.861	0.224	0.163
-403.252	-200.000	0.023	0.120
-402.238	-147.380	-0.336	-0.028
-401.223	129.327	0.201	0.256
-400.209	-200.000	-0.063	0.335
-399.194	206.577	-0.058	0.090
-398.179	800.000	0.049	0.143
-397.165	52.054	-0.316	0.301
-396.150	526.181	-0.011	-0.026
-395.136	800.000	-0.121	0.356
-394.121	-102.050	-0.559	0.135
-393.106	-144.114	-0.186	0.017
-392.092	-127.375	0.242	-0.035
-391.077	110.927	-0.203	0.244
-390.063	669.995	-0.130	-0.337
-389.048	399.279	-0.161	0.336
-388.033	10.602	-0.526	-0.400
-387.019	-71.201	0.330	0.124
-386.004	-36.837	0.187	-0.100
-384.990	25.970	0.180	0.150
-383.975	33.180	0.120	-0.104
-382.960	82.481	-0.251	-0.272
-381.946	-139.680	-0.149	0.016
-380.931	800.000	0.065	0.259
-379.917	177.031	-0.088	0.127
-378.902	-200.000	0.146	0.001
-377.888	148.257	0.081	0.110
-376.873	110.383	-0.135	0.161
-375.858	-131.707	0.204	0.027
-374.844	800.000	-0.006	0.024
-373.829	800.000	0.075	0.249
-372.815	-62.892	-0.141	0.058
-371.800	317.336	-0.165	-0.311
-370.785	-200.000	-0.015	0.298
-369.771	-28.828	-0.254	0.146
-368.756	-37.386	-0.285	0.152
-367.742	-200.000	0.018	0.389
-366.727	-49.371	0.402	0.191
-365.712	11.292	0.035	0.027
-364.698	123.567	-0.087	0.109
-363.683	800.000	-0.089	0.259
-362.669	-200.000	0.061	-0.292
-361.654	1.904	-0.123	0.088
-360.639	235.206	0.034	-0.056
-359.625	-26.158	0.088	-0.052
-358.610	-94.101	-0.081	0.022
-357.596	-198.738	0.311	-0.002
-356.581	-59.457	0.084	-0.036
-355.566	-200.000	-0.007	-0.310
-354.552	800.000	0.062	0.173
-353.537	-67.024	0.142	0.056
-352.523	-108.169	-0.133	-0.029
-351.508	-133.356	-0.242	0.030
-350.493	-85.236	0.211	0.066
-349.479	-200.000	-0.031	-0.416
-348.464	-44.788	-0.231	-0.115
-347.450	390.481	0.109	0.225
-346.435	276.998	-0.049	0.088
-345.420	-200.000	0.040	0.332
-344.406	-200.000	0.015	-0.273
-343.391	800.000	0.041	-0.166
-342.377	-158.778	-0.196	-0.011
-341.362	800.000	0.062	0.206
-340.348	-124.245	0.216	-0.034
-339.333	-115.329	-0.325	-0.061
-338.318	-107.843	0.298	-0.065
-337.304	39.696	0.138	0.124
-336.289	49.157	0.069	-0.065
-335.275	-114.944	0.098	0.019
-334.260	-83.894	-0.198	-0.063
-333.245	-200.000	0.016	0.264
-332.231	-78.347	0.157	0.054
-331.216	800.000	0.064	0.227
-330.202	-26.330	-0.289	0.169
-329.187	-158.341	0.184	-0.011
-328.172	-42.519	0.229	-0.116
-327.158	-52.578	0.327	-0.150
-326.143	64.905	-0.009	-0.009
-325.129	743.907	0.079	0.211
-324.114	-27.141	-0.208	0.121
-323.099	-103.590	0.098	0.023
-322.085	-35.375	0.014	-0.007
-321.070	290.827	0.106	-0.193
-320.056	-142.024	0.093	0.009
-319.041	275.295	0.030	0.052
-318.026	-122.114	-0.067	-0.011
-317.012	145.101	0.212	-0.282
-315.997	307.652	-0.063	0.117
-314.983	-46.062	-0.177	-0.087
-313.968	-61.838	-0.322	-0.134
-312.953	800.000	-0.108	0.327
-311.939	143.995	-0.332	-0.440
-310.924	0.929	-0.042	0.030
-309.910	105.040	0.107	-0.126
-308.895	221.086	0.180	0.288
-307.880	-147.589	0.268	-0.022
-306.866	180.012	0.166	-0.243
-305.851	365.279	-0.105	-0.210
-304.837	165.268	0.022	0.031
-303.822	14.501	0.512	-0.398
-302.807	68.941	0.053	0.054
-301.793	108.801	0.189	-0.225
-300.778	800.000	-0.102	-0.326
-299.764	-200.000	0.010	-0.074
-298.749	-200.000	0.017	-0.142
-297.735	165.395	0.107	-0.151
-296.720	-52.027	-0.081	0.037
-295.705	-200.000	0.049	-0.296
-294.691	-200.000	-0.059	0.366
-293.676	65.798	0.043	-0.044
-292.662	800.000	-0.066	0.218
-291.647	800.000	0.102	-0.311
-290.632	-189.375	-0.645	-0.008
-289.618	514.253	0.128	-0.297
-288.603	546.524	0.077	-0.184
-287.589	560.604	0.090	0.216
-286.574	800.000	0.083	0.242
-285.559	-200.000	0.001	-0.151
-284.545	800.000	0.015	-0.061
-283.530	800.000	0.122	0.411
-282.516	800.000	0.115	0.328
-281.501	-103.000	0.275	-0.065
-280.486	23.339	-0.214	-0.175
-279.472	-55.024	0.134	0.060
-278.457	-91.713	0.129	-0.036
-277.443	393.605	-0.163	0.337
-276.428	-33.028	0.115	-0.064
-275.413	-200.000	-0.048	-0.262
-274.399	-123.407	0.269	0.043
-273.384	85.086	-0.189	0.206
-272.370	-200.000	-0.008	-0.074
-271.355	203.303	0.098	-0.150
-270.340	800.000	0.046	0.164
-269.326	-63.355	-0.128	0.052
-268.311	389.324	0.047	-0.096
-267.297	85.602	0.046	-0.050
-266.282	367.283	-0.054	0.109
-265.267	-32.149	0.036	-0.020
-264.253	800.000	0.091	0.307
-263.238	-185.391	-0.110	-0.002
-262.224	2.259	-0.096	0.069
-261.209	-200.000	0.055	0.488
-260.195	177.358	0.149	0.216
-259.180	-200.000	0.042	-0.243
-258.165	321.843	0.122	-0.230
-257.151	376.062	-0.084	-0.169
-256.136	-144.040	-0.264	-0.025
-255.122	-200.000	0.034	-0.278
-254.107	101.038	0.162	0.187
-253.092	800.000	-0.037	-0.114
-252.078	46.823	0.144	0.133
-251.063	-104.772	0.110	-0.025
-250.049	-200.000	0.008	-0.045
-249.034	451.532	-0.081	-0.178
-248.019	-29.093	-0.224	-0.128
-247.005	-111.729	-0.155	-0.031
-245.990	34.846	-0.267	0.232
-244.976	800.000	0.046	0.157
-243.961	800.000	-0.030	-0.118
-242.946	-58.384	0.090	-0.039
-241.932	-63.293	-0.133	0.054
-240.917	167.333	-0.138	-0.195
-239.903	-200.000	-0.080	-0.365
-238.888	-200.000	-0.034	-0.165
-237.873	53.868	-0.135	-0.129
-236.859	-68.266	0.418	-0.161
-235.844	-17.203	0.272	-0.170
-234.830	800.000	0.098	0.301
-233.815	-25.857	-0.121	-0.071
-232.800	77.677	-0.238	-0.252
-231.786	-120.917	0.417	0.070
-230.771	-135.708	-0.337	-0.040
-229.757	-105.405	-0.050	0.011
-228.742	-110.643	-0.026	-0.005
-227.727	79.762	0.102	0.109
-226.713	716.319	-0.089	0.233
-225.698	100.399	0.153	0.176
-224.684	-200.000	-0.006	0.098
-223.669	332.298	-0.073	-0.139
-222.655	-3.428	0.355	-0.245
-221.640	108.122	-0.099	0.117
-220.625	652.903	-0.062	0.157
-219.611	-27.225	-0.273	0.158
-218.596	800.000	0.071	0.201
-217.582	305.275	0.166	-0.306
-216.567	25.068	0.201	-0.165
-215.552	-77.922	0.486	-0.166
-214.538	-200.000	0.005	0.295
-213.523	341.985	-0.122	-0.237
-212.509	-200.000	0.026	-0.327
-211.494	-21.748	0.356	-0.215
-210.479	-6.716	-0.175	-0.118
-209.465	800.000	0.090	0.316
-208.450	-200.000	-0.010	-0.236
-207.436	45.847	-0.044	0.040
-206.421	-147.846	-0.298	0.025
-205.406	-112.897	0.188	0.037
-204.392	800.000	0.145	0.445
-203.377	-200.000	-0.046	0.373
-202.363	341.118	0.167	-0.323
-201.348	277.931	-0.063	-0.111
-200.333	-75.662	-0.177	-0.062
-199.319	142.958	0.173	-0.228
-198.304	-155.951	-0.074	-0.005
-197.290	-200.000	-0.018	0.100
-196.275	43.967	-0.352	0.320
-195.260	-43.711	0.232	0.116
-194.246	-200.000	0.015	-0.087
-193.231	-200.000	0.000	-0.215
-192.217	-23.144	0.252	0.150
-191.202	617.678	0.142	-0.354
-190.187	-148.933	-0.119	0.009
-189.173	-122.998	0.261	-0.042
-188.158	-162.577	-0.179	0.009
-187.144	-40.272	-0.106	0.055
-186.129	-200.000	0.006	0.054
-185.114	72.314	-0.110	-0.114
-184.100	-60.795	0.240	0.100
-183.085	-71.384	-0.161	0.060
-182.071	-200.000	-0.005	-0.354
-181.056	38.334	-0.330	-0.291
-180.042	-4.313	0.312	0.214
-179.027	-38.036	0.201	0.106
-178.012	-161.826	-0.228	-0.011
-176.998	-150.585	0.198	-0.015
-175.983	-72.950	0.322	-0.117
-174.969	152.396	-0.079	0.106
-173.954	-200.000	0.015	-0.298
-172.939	-200.000	-0.019	-0.320
-171.925	145.790	0.066	-0.087
-170.910	-55.923	-0.201	-0.089
-169.896	73.278	-0.010	-0.010
-168.881	-200.000	-0.001	0.059
-167.866	-200.000	-0.043	-0.246
-166.852	-125.309	-0.313	0.047
-165.837	38.970	0.191	-0.169
-164.823	-160.058	-0.203	-0.011
-163.808	-167.798	-0.130	-0.005
-162.793	118.037	-0.243	-0.296
-161.779	800.000	-0.165	0.643
-160.764	14.382	-0.141	-0.109
-159.750	-110.505	0.285	-0.058
-158.735	-82.884	0.298	0.095
-157.720	-41.046	-0.216	-0.110
-156.706	137.745	-0.158	-0.205
-155.691	-200.000	0.004	0.287
-154.677	361.419	-0.191	-0.378
-153.662	800.000	-0.016	-0.050
-152.647	7.981	0.029	0.021
-151.633	-200.000	0.034	0.183
-150.618	-200.000	0.013	0.275
-149.604	29.817	-0.170	-0.143
-148.589	-128.349	0.194	-0.027
-147.574	-181.512	-0.391	0.008
-146.560	-140.867	0.113	-0.012
-145.545	115.063	0.176	0.213
-144.531	20.772	-0.176	0.141
-143.516	-75.157	0.281	0.099
-142.502	-114.328	-0.047	0.009
-141.487	455.272	0.051	-0.111
-140.472	316.537	0.037	0.069
-139.458	121.588	-0.208	0.256
-138.443	75.638	0.129	-0.134
-137.429	-156.638	-0.200	-0.012
-136.414	-200.000	0.030	0.225
-135.399	-56.060	0.136	0.060
-134.385	202.540	0.091	-0.139
-133.370	-200.000	-0.113	-0.000
-132.356	-151.479	0.220	0.016
-131.341	188.468	-0.106	-0.157
-130.326	-9.799	-0.244	0.160
-129.312	64.253	-0.167	0.166
-128.297	-105.640	-0.204	-0.046
-127.283	800.000	0.034	-0.149
-126.268	-36.946	0.098	0.052
-125.253	131.135	-0.070	-0.089
-124.239	-49.835	-0.186	0.087
-123.224	142.906	-0.089	0.116
-122.210	-46.374	0.270	0.131
