DTS Sentinel unit serial number:	SN413079Multiplexer serial number:	ORYXHardware model number:	OX4-SRSoftware version number:	ORYX F/W v4.00 Oryx Data Collector v3.7.2.0data status	okinstallation	princeton_trtdifferential loss correction	single-endedforward channel	channel 3reverse channel	N/Adate	2019/09/18time	02:24:35forward acquisition time	60.00reverse acquisition time	0.00gamma	496.2192k internal	0.2344k external	0.2344temperature offset calibration	0.9948default loss term (dB/km)	0.3790temperature slope calibration	1.0000multiplexer offset coefficient	1.0000multiplexer slope coefficient	1.0000fibre end	0.00T internal ref (°C)	22.81T ext. ref 1 (°C)	0.17T ext. ref 2 (°C)	16.88length (m)	temperature (°C)	Stokes	anti-Stokes-747.200	285.295	0.172	0.309
-746.185	352.521	-0.104	-0.206
-745.171	-29.610	-0.290	-0.166
-744.156	179.314	0.158	0.231
-743.142	371.041	0.095	0.192
-742.127	-111.955	-0.309	0.062
-741.112	-86.773	0.236	-0.072
-740.098	-107.470	-0.091	-0.020
-739.083	425.281	0.061	0.132
-738.069	533.224	0.078	0.185
-737.054	-200.000	0.026	0.192
-736.039	67.097	-0.041	0.042
-735.025	-200.000	-0.014	0.317
-734.010	166.007	-0.168	0.238
-732.996	336.853	-0.078	-0.152
-731.981	33.687	-0.169	0.147
-730.966	-200.000	-0.030	-0.186
-729.952	-126.363	0.355	0.053
-728.937	6.478	0.169	0.125
-727.923	-129.635	-0.223	-0.031
-726.908	800.000	0.069	-0.265
-725.894	-43.424	0.201	0.102
-724.879	800.000	0.084	-0.256
-723.864	110.962	0.353	-0.426
-722.850	-200.000	-0.004	-0.071
-721.835	150.618	0.211	0.286
-720.821	193.677	-0.186	0.282
-719.806	800.000	0.098	0.298
-718.791	120.353	-0.411	0.511
-717.777	462.201	0.073	-0.164
-716.762	-146.686	-0.229	0.020
-715.748	396.830	0.032	0.067
-714.733	119.114	0.087	-0.107
-713.718	-200.000	-0.023	-0.131
-712.704	116.449	-0.072	0.089
-711.689	91.576	0.260	0.292
-710.675	32.250	-0.271	0.234
-709.660	-64.322	-0.282	-0.115
-708.645	-88.778	-0.187	-0.055
-707.631	157.376	0.126	0.174
-706.616	800.000	0.018	0.061
-705.602	655.765	0.024	-0.063
-704.587	-57.867	-0.226	-0.099
-703.572	61.067	-0.140	0.139
-702.558	-86.684	0.136	0.042
-701.543	-95.531	0.231	0.062
-700.529	-11.049	0.035	0.023
-699.514	-71.248	-0.046	-0.017
-698.499	-200.000	0.012	0.088
-697.485	107.281	-0.083	-0.098
-696.470	-56.045	-0.212	0.094
-695.456	-165.388	-0.363	-0.016
-694.441	60.787	-0.326	0.323
-693.426	222.412	-0.093	-0.150
-692.412	163.946	0.109	-0.153
-691.397	-79.521	-0.276	-0.093
-690.383	62.909	-0.293	-0.293
-689.368	-138.718	0.190	0.021
-688.354	69.179	0.029	-0.029
-687.339	800.000	0.085	0.326
-686.324	19.313	-0.161	-0.129
-685.310	-200.000	-0.026	-0.212
-684.295	107.834	0.113	0.134
-683.281	-33.650	0.187	-0.103
-682.266	-88.940	0.183	0.054
-681.251	324.494	-0.129	0.247
-680.237	600.288	0.039	-0.098
-679.222	800.000	-0.019	-0.059
-678.208	-136.083	-0.094	-0.011
-677.193	-76.202	-0.107	-0.038
-676.178	0.258	-0.279	0.198
-675.164	-137.973	0.416	0.046
-674.149	-79.202	0.346	0.117
-673.135	-58.867	0.238	-0.103
-672.120	49.829	-0.161	0.152
-671.105	-200.000	-0.018	0.184
-670.091	609.156	0.062	0.155
-669.076	-65.092	0.067	0.027
-668.062	800.000	0.070	-0.209
-667.047	-121.267	0.241	-0.040
-666.032	-138.071	0.281	0.031
-665.018	122.424	-0.170	0.212
-664.003	-200.000	0.003	-0.014
-662.989	236.144	-0.144	-0.237
-661.974	-200.000	-0.043	-0.199
-660.959	434.928	-0.081	-0.175
-659.945	800.000	0.042	-0.166
-658.930	161.394	0.111	0.154
-657.916	-27.403	-0.244	-0.141
-656.901	9.743	-0.249	-0.188
-655.886	656.538	0.089	-0.229
-654.872	94.555	0.133	-0.151
-653.857	193.100	0.034	-0.051
-652.843	-200.000	0.001	-0.054
-651.828	-200.000	-0.002	-0.072
-650.814	16.057	-0.158	0.124
-649.799	800.000	-0.036	0.147
-648.784	74.941	0.283	-0.297
-647.770	45.428	-0.178	-0.164
-646.755	-118.920	-0.450	-0.079
-645.741	800.000	0.085	-0.363
-644.726	-200.000	-0.011	0.163
-643.711	-11.621	-0.237	-0.155
-642.697	-102.029	-0.167	-0.040
-641.682	-200.000	-0.045	-0.230
-640.668	-22.921	0.216	0.130
-639.653	-100.067	-0.514	-0.128
-638.638	43.339	-0.115	-0.105
-637.624	-35.335	-0.228	-0.124
-636.609	-149.889	0.569	-0.044
-635.595	-106.036	-0.422	0.095
-634.580	713.253	-0.070	-0.185
-633.565	18.417	-0.134	-0.107
-632.551	800.000	-0.050	0.173
-631.536	-157.222	0.240	0.015
-630.522	125.452	0.101	0.127
-629.507	800.000	-0.064	-0.210
-628.492	-111.818	-0.085	0.017
-627.478	212.921	0.110	0.173
-626.463	-125.441	-0.249	-0.038
-625.449	-101.187	0.330	0.080
-624.434	-200.000	-0.002	-0.239
-623.419	800.000	0.038	-0.163
-622.405	-21.529	0.248	0.151
-621.390	800.000	0.059	0.208
-620.376	-124.319	0.258	0.040
-619.361	202.375	0.049	-0.075
-618.346	-187.055	-0.109	-0.001
-617.332	-55.743	-0.097	0.043
-616.317	800.000	0.116	-0.427
-615.303	405.414	0.158	-0.331
-614.288	47.900	-0.092	-0.086
-613.273	167.912	0.157	-0.222
-612.259	-62.211	-0.255	-0.106
-611.244	-102.771	0.176	0.042
-610.230	7.358	0.174	-0.129
-609.215	-175.353	-0.120	-0.003
-608.201	169.774	-0.161	-0.229
-607.186	-200.000	-0.013	0.314
-606.171	105.606	-0.228	-0.268
-605.157	-6.024	0.066	0.045
-604.142	201.851	0.279	-0.427
-603.128	-200.000	-0.058	-0.310
-602.113	800.000	0.054	-0.176
-601.098	466.870	0.202	0.452
-600.084	-105.700	0.221	0.050
-599.069	-136.179	-0.413	0.048
-598.055	-85.722	-0.794	-0.245
-597.040	-149.772	-0.264	-0.021
-596.025	162.127	-0.130	-0.181
-595.011	-2.223	-0.117	0.081
-593.996	-19.280	-0.057	-0.035
-592.982	201.059	0.326	0.499
-591.967	-200.000	-0.008	-0.135
-590.952	20.548	-0.277	-0.223
-589.938	-200.000	0.030	-0.349
-588.923	800.000	-0.053	0.199
-587.909	-200.000	-0.011	-0.106
-586.894	-200.000	-0.037	-0.161
-585.879	63.848	-0.177	-0.177
-584.865	-200.000	-0.003	-0.098
-583.850	271.902	0.019	0.034
-582.836	800.000	-0.104	0.296
-581.821	-200.000	-0.002	0.317
-580.806	-200.000	-0.067	-0.344
-579.792	438.448	0.103	-0.223
-578.777	-52.387	0.049	0.023
-577.763	800.000	0.076	-0.307
-576.748	-200.000	-0.029	-0.133
-575.733	-200.000	0.015	-0.121
-574.719	800.000	-0.068	0.261
-573.704	581.429	-0.066	0.161
-572.690	144.288	0.063	0.083
-571.675	13.353	-0.279	-0.215
-570.661	391.620	-0.037	-0.076
-569.646	174.646	-0.066	0.094
-568.631	-89.487	-0.161	-0.047
-567.617	-200.000	0.066	0.332
-566.602	782.758	-0.045	-0.122
-565.588	25.263	-0.313	-0.258
-564.573	-200.000	-0.010	-0.119
-563.558	-37.978	0.227	0.120
-562.544	-100.448	0.222	0.055
-561.529	-135.697	0.334	-0.039
-560.515	603.782	-0.052	0.130
-559.500	429.192	0.034	0.073
-558.485	388.421	-0.123	0.254
-557.471	-181.981	0.134	-0.003
-556.456	68.049	-0.212	0.216
-555.442	800.000	-0.075	0.232
-554.427	-14.667	0.228	-0.145
-553.412	-26.326	0.343	-0.200
-552.398	-42.684	0.155	-0.079
-551.383	-68.396	-0.128	-0.049
-550.369	-32.660	-0.132	-0.073
-549.354	-200.000	-0.005	0.098
-548.339	-200.000	-0.012	-0.301
-547.325	81.901	0.203	0.218
-546.310	-194.382	-0.202	0.002
-545.296	-200.000	0.010	-0.141
-544.281	-39.885	0.431	-0.224
-543.266	-200.000	-0.042	-0.222
-542.252	95.146	-0.128	0.145
-541.237	121.671	0.093	-0.115
-540.223	-65.567	-0.242	0.096
-539.208	800.000	-0.048	-0.204
-538.193	269.780	-0.099	0.172
-537.179	12.670	0.028	0.022
-536.164	-46.966	-0.051	0.025
-535.150	-152.595	-0.044	0.003
-534.135	-110.971	0.233	0.048
-533.121	-28.149	-0.062	-0.035
-532.106	-84.521	0.380	0.119
-531.091	103.649	0.087	-0.101
-530.077	59.733	-0.021	-0.021
-529.062	-114.414	0.271	0.052
-528.048	-200.000	-0.036	-0.157
-527.033	-139.249	0.124	0.013
-526.018	800.000	0.020	0.068
-525.004	236.866	-0.211	0.347
-523.989	18.521	0.171	-0.135
-522.975	-200.000	-0.046	-0.387
-521.960	-20.120	-0.316	0.193
-520.945	-177.598	-0.369	0.009
-519.931	-16.437	0.102	-0.064
-518.916	-6.298	0.048	0.033
-517.902	23.038	-0.084	0.068
-516.887	775.543	0.098	0.265
-515.872	-60.688	0.208	0.087
-514.858	-200.000	-0.022	-0.229
-513.843	92.813	-0.104	-0.117
-512.829	800.000	-0.077	-0.212
-511.814	-56.846	-0.092	0.040
-510.799	76.628	0.082	0.086
-509.785	127.982	0.086	-0.108
-508.770	-13.392	-0.293	-0.189
-507.756	564.804	-0.067	-0.160
-506.741	-90.156	-0.141	-0.041
-505.726	-151.229	-0.150	0.011
-504.712	800.000	0.038	-0.121
-503.697	-36.296	-0.076	-0.040
-502.683	800.000	-0.122	0.374
-501.668	-200.000	-0.035	0.197
-500.653	-104.019	-0.084	0.019
-499.639	-36.635	-0.058	0.031
-498.624	-12.876	-0.296	0.191
-497.610	367.675	-0.053	0.106
-496.595	-200.000	-0.012	-0.171
-495.581	16.390	0.125	-0.098
-494.566	-94.344	0.205	0.056
-493.551	-200.000	-0.003	-0.023
-492.537	-39.445	-0.215	0.111
-491.522	54.764	0.185	-0.177
-490.508	-49.257	0.354	-0.168
-489.493	-124.627	0.513	0.079
-488.478	-74.893	-0.084	0.030
-487.464	-100.076	-0.302	-0.075
-486.449	142.918	-0.075	0.098
-485.435	-4.017	-0.396	0.272
-484.420	549.514	-0.083	-0.197
-483.405	190.796	-0.194	0.289
-482.391	-37.244	0.271	0.144
-481.376	130.636	-0.140	-0.177
-480.362	57.617	-0.147	-0.143
-479.347	-84.738	0.106	-0.033
-478.332	41.704	-0.054	0.049
-477.318	800.000	0.101	0.293
-476.303	-200.000	0.008	-0.080
-475.289	16.484	0.386	0.302
-474.274	381.014	-0.078	0.158
-473.259	275.995	-0.112	-0.197
-472.245	-130.253	-0.256	0.034
-471.230	800.000	-0.080	-0.262
-470.216	-200.000	-0.007	0.177
-469.201	165.662	-0.125	0.175
-468.186	-114.821	0.340	-0.064
-467.172	-152.094	0.281	-0.020
-466.157	317.678	-0.137	0.256
-465.143	800.000	0.078	-0.264
-464.128	800.000	0.047	-0.134
-463.113	800.000	-0.071	0.235
-462.099	-200.000	0.009	0.143
-461.084	800.000	-0.095	0.323
-460.070	25.509	0.132	0.109
-459.055	3.258	-0.191	-0.138
-458.040	-85.519	-0.368	-0.113
-457.026	322.026	0.229	0.431
-456.011	372.768	-0.065	0.130
-454.997	-65.394	0.192	0.076
-453.982	-200.000	0.012	-0.110
-452.968	-200.000	-0.026	-0.282
-451.953	-54.076	0.096	0.043
-450.938	-200.000	-0.029	-0.298
-449.924	-113.439	-0.060	-0.012
-448.909	83.358	-0.088	0.094
-447.895	96.098	0.150	-0.169
-446.880	-106.056	0.329	-0.073
-445.865	-171.259	-0.232	0.008
-444.851	-58.376	0.104	-0.045
-443.836	112.611	0.073	-0.088
-442.822	146.385	0.225	-0.299
-441.807	88.512	-0.122	-0.134
-440.792	-23.880	0.167	-0.099
-439.778	-18.503	-0.246	-0.152
-438.763	-140.230	0.547	0.057
-437.749	-200.000	-0.022	-0.161
-436.734	-200.000	0.045	0.201
-435.719	-145.755	0.126	-0.011
-434.705	-38.049	-0.314	-0.165
-433.690	86.897	0.174	-0.190
-432.676	-137.000	-0.179	0.020
-431.661	-128.367	0.176	-0.025
-430.646	800.000	0.200	-0.582
-429.632	-107.152	-0.293	0.064
-428.617	-144.981	0.046	-0.004
-427.603	147.544	-0.063	0.084
-426.588	-41.903	-0.143	0.072
-425.573	42.107	-0.088	0.079
-424.559	17.086	0.150	0.118
-423.544	-76.428	-0.192	0.067
-422.530	-76.125	0.161	0.056
-421.515	800.000	0.064	-0.247
-420.500	-121.047	0.111	0.018
-419.486	112.923	0.194	-0.233
-418.471	-200.000	-0.044	0.309
-417.457	34.219	0.196	0.169
-416.442	-195.222	-0.357	0.003
-415.428	11.966	-0.172	0.131
-414.413	85.460	-0.295	-0.320
-413.398	549.552	0.041	-0.098
-412.384	-200.000	-0.034	0.179
-411.369	25.740	0.098	0.080
-410.355	660.146	-0.037	0.094
-409.340	-100.075	0.041	-0.010
-408.325	-200.000	0.032	0.253
-407.311	720.300	0.051	0.134
-406.296	-173.589	-0.276	-0.008
-405.282	-200.000	-0.065	0.386
-404.267	51.317	-0.086	0.081
-403.252	27.312	-0.218	-0.180
-402.238	153.526	0.127	0.171
-401.223	-196.475	-0.156	-0.001
-400.209	-14.812	0.174	0.110
-399.194	-120.624	0.157	0.026
-398.179	10.357	-0.129	-0.097
-397.165	17.821	0.182	-0.143
-396.150	277.732	-0.206	0.363
-395.136	800.000	-0.018	0.070
-394.121	106.163	-0.106	0.124
-393.106	-30.387	-0.289	-0.162
-392.092	204.909	0.118	-0.180
-391.077	-119.274	-0.681	0.117
-390.063	-31.045	0.273	-0.152
-389.048	-74.897	-0.239	-0.085
-388.033	-77.408	-0.124	0.042
-387.019	0.757	-0.026	-0.018
-386.004	11.666	0.034	-0.026
-384.990	800.000	-0.085	-0.235
-383.975	-19.796	-0.068	-0.041
-382.960	124.613	0.169	0.210
-381.946	-37.765	-0.161	0.085
-380.931	-111.928	-0.046	-0.009
-379.917	65.505	-0.219	-0.218
-378.902	-128.978	0.185	-0.026
-377.888	-128.252	-0.344	-0.048
-376.873	137.762	0.113	0.145
-375.858	-200.000	0.029	0.254
-374.844	-44.977	-0.021	-0.010
-373.829	448.513	-0.099	0.216
-372.815	121.935	0.049	-0.060
-371.800	-200.000	-0.007	-0.094
-370.785	33.784	-0.067	-0.058
-369.771	-13.333	-0.094	0.060
-368.756	-200.000	0.018	0.241
-367.742	-200.000	-0.088	-0.424
-366.727	-51.715	-0.069	-0.032
-365.712	-128.497	-0.129	-0.018
-364.698	131.326	0.193	-0.245
-363.683	119.035	0.334	-0.407
-362.669	-126.275	0.280	-0.041
-361.654	-38.870	-0.299	0.155
-360.639	-109.686	-0.348	0.072
-359.625	800.000	0.187	-0.512
-358.610	58.591	-0.136	-0.132
-357.596	360.570	0.170	-0.336
-356.581	-200.000	-0.054	0.291
-355.566	92.667	-0.328	0.365
-354.552	272.962	0.021	0.037
-353.537	43.109	0.118	-0.106
-352.523	-118.840	-0.343	-0.059
-351.508	250.419	-0.079	0.132
-350.493	-60.579	0.349	-0.146
-349.479	-109.894	0.077	0.016
-348.464	-192.660	-0.131	-0.001
-347.450	-125.088	0.146	-0.022
-346.435	-200.000	-0.006	0.411
-345.420	-163.715	-0.182	0.008
-344.406	-144.149	0.193	0.018
-343.391	68.406	-0.184	-0.186
-342.377	103.032	0.091	-0.105
-341.362	-200.000	-0.052	0.609
-340.348	268.064	0.175	-0.301
-339.333	172.274	-0.208	-0.295
-338.318	-200.000	-0.047	-0.368
-337.304	409.386	0.065	0.137
-336.289	-134.764	-0.242	-0.029
-335.275	298.365	0.080	-0.145
-334.260	-200.000	0.073	-0.370
-333.245	800.000	0.071	-0.211
-332.231	-109.727	0.267	0.055
-331.216	800.000	0.054	-0.183
-330.202	-200.000	0.025	0.556
-329.187	-200.000	0.000	0.056
-328.172	22.330	-0.036	0.029
-327.158	124.553	0.204	-0.253
-326.143	-53.428	0.306	-0.138
-325.129	-69.123	-0.172	0.065
-324.114	6.877	-0.081	-0.059
-323.099	-200.000	0.020	-0.145
-322.085	-42.701	0.233	0.117
-321.070	-20.708	-0.305	0.184
-320.056	-41.657	-0.165	-0.083
-319.041	-104.372	0.191	0.044
-318.026	-196.557	0.068	-0.000
-317.012	-130.587	0.277	0.037
-315.997	-132.889	0.350	0.044
-314.983	-48.783	0.266	0.125
-313.968	-47.514	0.195	-0.093
-312.953	292.440	0.069	-0.125
-311.939	-84.925	-0.185	-0.057
-310.924	-180.920	-0.046	-0.001
-309.910	-105.785	-0.099	0.022
-308.895	-58.221	0.152	0.065
-307.880	165.731	-0.159	-0.222
-306.866	152.564	-0.073	0.098
-305.851	40.698	-0.090	0.080
-304.837	-200.000	-0.011	-0.055
-303.822	631.855	0.035	0.088
-302.807	258.872	0.054	0.091
-301.793	-200.000	-0.013	0.189
-300.778	519.207	-0.070	0.162
-299.764	800.000	0.074	0.206
-298.749	293.382	-0.056	-0.100
-297.735	3.790	0.205	0.147
-296.720	-200.000	-0.024	0.244
-295.705	-200.000	0.025	0.171
-294.691	7.136	0.119	0.087
-293.676	102.698	-0.067	-0.078
-292.662	61.953	0.060	0.059
-291.647	-200.000	0.005	0.056
-290.632	163.611	-0.104	0.144
-289.618	216.096	-0.029	0.045
-288.603	117.122	0.066	0.079
-287.589	-200.000	0.004	-0.045
-286.574	295.953	0.075	0.134
-285.559	800.000	-0.058	0.236
-284.545	-105.651	-0.131	-0.029
-283.530	-135.997	-0.361	-0.042
-282.516	388.470	-0.103	0.209
-281.501	464.594	-0.089	0.196
-280.486	800.000	-0.018	-0.055
-279.472	85.927	0.191	-0.207
-278.457	-90.481	0.376	0.107
-277.443	13.145	-0.084	-0.064
-276.428	422.746	0.085	-0.179
-275.413	-95.719	0.338	-0.089
-274.399	583.627	-0.033	0.079
-273.384	-200.000	0.012	-0.082
-272.370	-200.000	-0.034	0.190
-271.355	-83.495	0.332	-0.105
-270.340	-200.000	-0.003	-0.425
-269.326	-82.015	0.214	0.069
-268.311	502.862	-0.127	-0.288
-267.297	663.792	-0.042	-0.106
-266.282	-92.004	0.256	0.071
-265.267	-200.000	-0.022	0.445
-264.253	15.895	0.097	-0.075
-263.238	496.704	0.050	0.113
-262.224	-200.000	-0.017	0.208
-261.209	362.574	0.192	-0.378
-260.195	800.000	0.033	0.110
-259.180	240.535	0.058	-0.095
-258.165	233.094	0.073	0.118
-257.151	-65.410	0.442	0.174
-256.136	-153.964	-0.040	-0.003
-255.122	163.443	0.288	0.398
-254.107	-95.840	0.374	-0.098
-253.092	-44.165	0.176	0.087
-252.078	-200.000	-0.025	0.584
-251.063	-200.000	0.020	0.342
-250.049	-200.000	0.012	-0.186
-249.034	74.695	-0.119	0.123
-248.019	60.587	0.161	0.157
-247.005	-81.496	0.329	-0.106
-245.990	334.300	-0.260	-0.493
-244.976	-200.000	0.088	-0.383
-243.961	-130.274	0.307	0.041
-242.946	-62.979	-0.381	0.155
-241.932	159.023	-0.173	-0.236
-240.917	-200.000	0.049	0.256
-239.903	-62.586	-0.163	0.066
-238.888	639.283	0.111	0.277
-237.873	652.578	0.121	0.305
-236.859	-200.000	-0.029	-0.127
-235.844	-81.189	-0.250	-0.081
-234.830	210.076	-0.065	0.099
-233.815	-36.910	-0.032	-0.017
-232.800	-97.461	0.142	0.036
-231.786	60.411	0.103	0.100
-230.771	-59.284	-0.178	0.075
-229.757	-163.427	0.302	-0.014
-228.742	92.587	0.182	0.201
-227.727	265.397	-0.122	0.209
-226.713	-169.364	0.223	-0.008
-225.698	95.691	0.009	0.010
-224.684	138.948	-0.153	0.197
-223.669	141.046	0.140	-0.181
-222.655	-185.305	-0.215	0.003
-221.640	-200.000	-0.492	-0.002
-220.625	9.250	0.141	-0.104
-219.611	188.507	0.247	-0.362
-218.596	-200.000	-0.007	-0.087
-217.582	74.469	0.093	-0.096
-216.567	-48.731	-0.161	0.076
-215.552	113.311	0.093	-0.111
-214.538	-111.366	-0.244	-0.049
-213.523	800.000	0.045	0.164
-212.509	64.996	0.095	-0.094
-211.494	489.389	0.050	-0.112
-210.479	-26.215	-0.137	0.079
-209.465	-130.544	0.309	-0.041
-208.450	-20.588	0.214	0.129
-207.436	26.370	0.153	0.125
-206.421	-200.000	-0.005	0.315
-205.406	-200.000	0.003	-0.086
-204.392	89.673	-0.137	0.150
-203.377	-112.385	0.166	-0.033
-202.363	-98.175	0.094	-0.024
-201.348	520.172	0.057	-0.131
-200.333	-167.186	0.221	-0.009
-199.319	155.258	-0.031	-0.042
-198.304	800.000	-0.028	0.097
-197.290	42.224	-0.149	0.132
-196.275	-48.285	0.195	-0.092
-195.260	-200.000	-0.032	0.228
-194.246	-80.011	0.307	0.101
-193.231	-6.456	0.174	-0.116
-192.217	-200.000	0.021	0.244
-191.202	312.489	-0.115	0.211
-190.187	-118.084	-0.017	-0.003
-189.173	303.687	-0.120	0.218
-188.158	-112.005	0.159	-0.031
-187.144	219.023	0.216	0.339
-186.129	-194.166	-0.204	-0.002
-185.114	-127.700	-0.128	0.018
-184.100	-82.447	-0.108	-0.034
-183.085	-19.977	0.198	0.119
-182.071	24.927	-0.208	0.169
-181.056	110.785	0.340	0.401
-180.042	245.734	0.101	0.167
-179.027	-87.456	-0.064	0.019
-178.012	107.449	0.208	0.242
-176.998	-200.000	-0.023	-0.126
-175.983	-38.339	0.153	-0.079
-174.969	-129.673	-0.275	-0.037
-173.954	-99.944	-0.223	0.054
-172.939	26.002	-0.260	-0.212
-171.925	-73.806	0.239	-0.085
-170.910	-38.698	0.137	-0.071
-169.896	81.809	-0.241	0.255
-168.881	721.582	-0.082	0.214
-167.866	15.787	-0.046	0.035
-166.852	-57.052	0.134	0.058
-165.837	735.572	-0.075	0.196
-164.823	800.000	0.111	-0.328
-163.808	800.000	-0.040	-0.142
-162.793	-178.732	-0.152	0.003
-161.779	482.822	-0.205	0.456
-160.764	-200.000	-0.002	-0.233
-159.750	180.400	-0.013	0.019
-158.735	-200.000	-0.030	-0.276
-157.720	35.705	-0.075	0.064
-156.706	112.719	-0.264	-0.313
-155.691	105.471	-0.106	-0.123
-154.677	203.056	0.192	0.290
-153.662	-5.140	-0.153	0.103
-152.647	551.899	0.069	-0.162
-151.633	-132.530	0.059	0.007
-150.618	-73.311	-0.407	0.146
-149.604	472.790	0.063	0.139
-148.589	20.103	0.434	-0.342
-147.574	-200.000	0.052	0.300
-146.560	-200.000	-0.016	-0.135
-145.545	800.000	-0.063	0.177
-144.531	-66.430	0.454	-0.176
-143.516	-54.875	-0.133	0.059
-142.502	-200.000	0.004	0.202
-141.487	-98.080	0.077	0.019
-140.472	-96.328	-0.154	0.040
-139.458	11.169	-0.269	-0.201
-138.443	-118.914	-0.105	-0.018
-137.429	94.766	0.123	0.137
-136.414	50.916	0.117	0.108
-135.399	446.784	-0.060	0.130
-134.385	28.663	0.128	-0.106
-133.370	-54.660	0.178	0.079
-132.356	800.000	-0.080	-0.277
-131.341	-200.000	0.023	-0.110
-130.326	287.148	-0.102	-0.180
-129.312	28.484	-0.111	0.091
-128.297	39.054	0.046	0.040
-127.283	-41.335	0.167	0.084
-126.268	100.246	0.050	0.057
-125.253	87.677	0.182	0.197
-124.239	-133.790	0.435	-0.053
-123.224	-121.955	0.265	0.043
-122.210	-106.285	0.313	0.068
