DTS Sentinel unit serial number:	SN413079Multiplexer serial number:	ORYXHardware model number:	OX4-SRSoftware version number:	ORYX F/W v4.00 Oryx Data Collector v3.7.2.0data status	okinstallation	princeton_trtdifferential loss correction	single-endedforward channel	channel 3reverse channel	N/Adate	2019/09/11time	13:22:11forward acquisition time	60.00reverse acquisition time	0.00gamma	496.2192k internal	0.2293k external	0.2293temperature offset calibration	0.9979default loss term (dB/km)	0.3790temperature slope calibration	1.0000multiplexer offset coefficient	1.0000multiplexer slope coefficient	1.0000fibre end	0.00T internal ref (°C)	41.94T ext. ref 1 (°C)	0.82T ext. ref 2 (°C)	36.24length (m)	temperature (°C)	Stokes	anti-Stokes-747.200	-153.269	0.129	0.009
-746.185	800.000	-0.134	0.447
-745.171	-22.895	0.249	0.154
-744.156	88.425	0.113	0.129
-743.142	-5.613	0.102	0.071
-742.127	308.624	0.237	0.452
-741.112	179.403	-0.102	0.153
-740.098	-200.000	-0.005	-0.162
-739.083	-3.867	-0.264	0.188
-738.069	-93.844	0.156	0.044
-737.054	572.858	-0.079	0.196
-736.039	96.018	0.093	-0.108
-735.025	-76.436	0.344	-0.124
-734.010	35.577	-0.223	-0.200
-732.996	134.258	0.094	-0.124
-731.981	12.727	-0.005	-0.004
-730.966	-85.319	0.105	-0.034
-729.952	800.000	-0.089	-0.255
-728.937	82.275	-0.109	-0.121
-727.923	-122.385	-0.232	0.039
-726.908	-36.832	-0.246	-0.135
-725.894	-24.533	0.095	-0.058
-724.879	800.000	-0.110	-0.330
-723.864	205.172	-0.118	0.188
-722.850	800.000	-0.070	-0.233
-721.835	-20.983	-0.105	-0.066
-720.821	-200.000	0.016	0.236
-719.806	233.903	0.149	0.252
-718.791	-153.330	0.234	0.017
-717.777	800.000	-0.102	0.395
-716.762	-136.285	0.565	0.067
-715.748	126.397	-0.071	-0.092
-714.733	75.016	0.193	0.208
-713.718	158.432	-0.169	-0.240
-712.704	-200.000	0.072	-0.385
-711.689	-157.446	0.282	-0.017
-710.675	-56.012	0.330	-0.150
-709.660	-200.000	0.015	0.224
-708.645	293.998	-0.031	-0.058
-707.631	3.389	0.149	-0.111
-706.616	103.066	-0.082	-0.098
-705.602	-119.971	0.222	0.039
-704.587	-118.040	0.153	-0.028
-703.572	-163.143	0.237	-0.012
-702.558	-76.561	-0.082	-0.029
-701.543	106.874	0.058	-0.070
-700.529	-177.478	0.232	0.006
-699.514	26.412	0.186	0.159
-698.499	52.312	0.145	0.142
-697.485	-184.637	-0.139	0.002
-696.470	-9.220	-0.238	0.162
-695.456	116.175	0.099	0.124
-694.441	299.327	0.222	0.417
-693.426	81.863	-0.101	-0.112
-692.412	-23.576	0.114	0.070
-691.397	-78.026	0.118	0.042
-690.383	56.120	-0.121	0.119
-689.368	-83.229	0.075	0.025
-688.354	-72.011	-0.372	-0.141
-687.339	-93.326	0.048	0.014
-686.324	570.017	0.101	-0.250
-685.310	-117.916	-0.336	0.061
-684.295	-200.000	-0.081	-0.421
-683.281	-91.292	0.175	-0.051
-682.266	126.792	0.132	0.171
-681.251	-47.129	0.405	0.202
-680.237	-200.000	0.014	0.109
-679.222	567.828	-0.038	-0.094
-678.208	-78.296	-0.213	-0.075
-677.193	-5.924	-0.120	0.083
-676.178	126.999	0.122	-0.158
-675.164	124.929	0.102	0.131
-674.149	773.901	0.044	-0.122
-673.135	-200.000	-0.064	0.399
-672.120	-142.573	-0.207	-0.021
-671.105	800.000	-0.086	-0.246
-670.091	-119.265	0.376	0.067
-669.076	-76.079	-0.271	-0.098
-668.062	-172.687	-0.376	0.012
-667.047	800.000	-0.085	-0.264
-666.032	668.305	-0.099	-0.260
-665.018	-39.273	0.281	0.151
-664.003	800.000	0.004	0.015
-662.989	-8.828	0.207	-0.141
-661.974	-4.537	-0.164	-0.116
-660.959	172.981	0.176	0.258
-659.945	185.905	-0.124	-0.188
-658.930	-111.595	-0.107	0.022
-657.916	-200.000	-0.000	0.201
-656.901	-200.000	0.030	0.298
-655.886	4.144	-0.088	-0.066
-654.872	-42.956	-0.096	-0.050
-653.857	-26.658	0.024	0.015
-652.843	-94.117	0.168	-0.047
-651.828	44.139	-0.293	-0.274
-650.814	-56.431	-0.247	-0.112
-649.799	-81.469	-0.471	0.158
-648.784	-55.699	-0.253	-0.115
-647.770	-15.605	-0.113	-0.074
-646.755	213.542	-0.100	-0.161
-645.741	-108.623	-0.146	-0.032
-644.726	-53.869	0.288	0.134
-643.711	285.218	-0.080	0.147
-642.697	-200.000	0.022	0.209
-641.682	315.751	-0.099	0.190
-640.668	-118.914	-0.363	0.065
-639.653	492.264	0.065	0.151
-638.638	120.494	0.090	-0.113
-637.624	-135.191	-0.154	-0.019
-636.609	-200.000	0.029	0.471
-635.595	-128.284	0.123	0.018
-634.580	69.051	0.105	0.110
-633.565	-200.000	0.002	-0.048
-632.551	-135.810	0.115	-0.014
-631.536	-105.453	0.060	0.014
-630.522	-200.000	0.012	0.197
-629.507	800.000	-0.132	0.403
-628.492	-105.642	0.100	-0.023
-627.478	-12.634	0.255	0.169
-626.463	31.084	-0.066	0.057
-625.449	800.000	-0.037	-0.130
-624.434	-153.810	-0.267	-0.019
-623.419	2.681	-0.123	-0.091
-622.405	55.431	-0.112	-0.110
-621.390	168.879	-0.081	0.118
-620.376	-59.828	-0.167	-0.073
-619.361	-200.000	0.005	0.147
-618.346	49.827	-0.229	-0.219
-617.332	800.000	-0.037	0.158
-616.317	-126.255	0.252	-0.038
-615.303	-180.026	0.198	-0.004
-614.288	-56.889	-0.197	0.088
-613.273	800.000	0.044	-0.170
-612.259	122.329	-0.144	-0.183
-611.244	57.585	-0.100	-0.100
-610.230	69.770	-0.214	0.225
-609.215	-31.717	-0.191	-0.109
-608.201	-81.262	0.125	-0.042
-607.186	-33.098	0.181	-0.102
-606.171	800.000	-0.082	-0.329
-605.157	-200.000	-0.020	0.269
-604.142	-20.896	0.236	0.147
-603.128	324.933	0.132	-0.256
-602.113	-50.273	-0.151	-0.072
-601.098	217.902	0.190	0.309
-600.084	-90.644	0.310	-0.091
-599.069	-74.984	0.268	0.098
-598.055	-200.000	0.026	-0.148
-597.040	-58.721	0.312	0.138
-596.025	-124.924	0.310	0.049
-595.011	320.752	-0.112	-0.217
-593.996	-24.781	0.389	0.235
-592.982	686.783	-0.122	-0.325
-591.967	-200.000	-0.012	-0.059
-590.952	-60.926	-0.051	-0.022
-589.938	121.572	0.082	-0.104
-588.923	69.403	-0.171	0.179
-587.909	-59.155	0.303	-0.133
-586.894	-200.000	0.042	-0.224
-585.879	-167.341	-0.128	0.005
-584.865	-29.589	-0.093	-0.054
-583.850	-200.000	-0.055	0.262
-582.836	75.524	-0.042	0.045
-581.821	63.678	0.136	0.139
-580.806	126.042	0.130	-0.167
-579.792	261.411	0.064	-0.112
-578.777	-113.546	0.519	0.103
-577.763	-80.359	-0.136	-0.046
-576.748	-23.837	-0.131	-0.080
-575.733	64.115	-0.104	0.106
-574.719	-84.537	0.067	-0.021
-573.704	-61.744	0.194	-0.083
-572.690	203.301	-0.045	-0.071
-571.675	800.000	0.080	0.329
-570.661	129.972	-0.070	-0.092
-569.646	-164.242	-0.233	-0.011
-568.631	-45.469	-0.336	0.169
-567.617	-59.350	0.376	-0.164
-566.602	51.129	0.179	-0.172
-565.588	-23.624	0.224	0.136
-564.573	800.000	-0.015	-0.066
-563.558	23.616	-0.216	0.180
-562.544	-200.000	-0.011	0.373
-561.529	-72.950	0.142	-0.053
-560.515	68.400	0.233	-0.242
-559.500	-200.000	0.020	-0.150
-558.485	7.184	-0.145	-0.110
-557.471	-174.454	0.185	0.005
-556.456	-200.000	0.043	0.503
-555.442	-94.409	-0.254	-0.070
-554.427	-200.000	0.004	-0.318
-553.412	455.258	0.119	-0.267
-552.398	-200.000	-0.006	-0.380
-551.383	65.091	0.173	-0.177
-550.369	-1.167	0.299	-0.215
-549.354	-103.270	0.414	-0.099
-548.339	91.916	-0.190	-0.217
-547.325	102.420	-0.221	0.263
-546.310	195.837	0.111	-0.171
-545.296	189.536	-0.254	0.387
-544.281	505.248	0.079	0.187
-543.266	117.168	-0.243	0.303
-542.252	-80.845	-0.028	-0.009
-541.237	-200.000	-0.048	0.309
-540.223	566.398	0.064	-0.157
-539.208	-200.000	-0.019	-0.110
-538.193	501.425	0.088	-0.205
-537.179	120.965	0.279	-0.353
-536.164	84.697	-0.083	-0.093
-535.150	-200.000	0.000	-0.147
-534.135	165.738	0.224	0.321
-533.121	161.849	-0.080	0.113
-532.106	268.154	0.077	0.136
-531.091	-70.037	-0.210	0.081
-530.077	66.575	0.115	0.119
-529.062	-50.487	0.400	-0.192
-528.048	474.672	-0.090	0.206
-527.033	-8.639	0.279	0.190
-526.018	570.093	0.010	-0.024
-525.004	-32.427	-0.359	-0.203
-523.989	34.349	0.255	0.225
-522.975	800.000	-0.101	0.354
-521.960	800.000	-0.114	0.333
-520.945	469.411	0.087	0.199
-519.931	72.333	-0.026	0.027
-518.916	47.464	0.306	0.289
-517.902	12.447	0.097	0.076
-516.887	232.719	-0.188	0.314
-515.872	184.550	0.080	0.121
-514.858	-101.693	0.204	0.050
-513.843	-179.847	-0.183	-0.004
-512.829	6.067	-0.101	-0.076
-511.814	800.000	0.090	0.346
-510.799	66.995	-0.231	-0.238
-509.785	800.000	-0.038	-0.131
-508.770	-200.000	-0.015	-0.153
-507.756	-200.000	0.012	-0.105
-506.741	0.414	0.209	0.151
-505.726	-200.000	-0.052	-0.385
-504.712	300.726	-0.020	0.038
-503.697	800.000	0.056	-0.179
-502.683	800.000	0.103	-0.313
-501.668	3.413	0.197	-0.145
-500.653	-16.972	0.239	-0.153
-499.639	235.910	0.121	-0.203
-498.624	-136.534	0.334	-0.039
-497.610	344.413	-0.117	0.233
-496.595	-200.000	-0.060	-0.311
-495.581	-56.136	-0.133	-0.060
-494.566	426.328	0.033	-0.072
-493.551	58.307	-0.272	0.270
-492.537	-148.336	0.208	-0.017
-491.522	196.403	-0.122	-0.189
-490.508	-200.000	-0.014	0.202
-489.493	73.266	0.313	0.332
-488.478	-126.189	-0.308	-0.047
-487.464	-200.000	0.002	-0.144
-486.449	-200.000	0.044	-0.277
-485.435	272.674	0.080	0.144
-484.420	175.471	0.220	-0.324
-483.405	-200.000	0.035	0.327
-482.391	286.662	-0.127	0.232
-481.376	-59.018	-0.055	-0.024
-480.362	14.465	0.321	-0.254
-479.347	341.482	-0.088	0.175
-478.332	477.997	-0.066	0.152
-477.318	-171.045	0.215	-0.007
-476.303	396.521	0.037	-0.079
-475.289	27.538	-0.069	-0.058
-474.274	4.474	0.150	0.111
-473.259	800.000	-0.011	-0.032
-472.245	-163.825	-0.024	-0.001
-471.230	-45.800	0.179	-0.089
-470.216	800.000	-0.102	0.295
-469.201	-29.012	-0.348	-0.202
-468.186	134.463	-0.241	-0.316
-467.172	251.223	-0.022	0.038
-466.157	-9.984	0.152	-0.102
-465.143	800.000	-0.012	0.049
-464.128	0.432	-0.235	-0.170
-463.113	168.757	-0.160	-0.231
-462.099	-146.670	0.165	0.014
-461.084	-70.750	-0.467	-0.178
-460.070	-150.011	-0.306	-0.024
-459.055	800.000	-0.087	0.336
-458.040	800.000	0.106	0.311
-457.026	-62.328	-0.197	0.083
-456.011	800.000	-0.029	-0.122
-454.997	38.156	-0.087	-0.078
-453.982	800.000	-0.042	0.121
-452.968	-78.463	-0.196	-0.068
-451.953	-78.592	0.049	-0.017
-450.938	302.841	-0.069	0.130
-449.924	-200.000	-0.049	0.345
-448.909	144.896	0.196	-0.265
-447.895	-200.000	0.014	0.108
-446.880	47.803	0.057	0.054
-445.865	-200.000	-0.001	-0.017
-444.851	-128.105	-0.066	0.010
-443.836	-52.008	-0.215	-0.101
-442.822	39.047	-0.138	0.125
-441.807	186.186	-0.132	0.199
-440.792	21.380	0.144	-0.118
-439.778	61.327	0.065	0.065
-438.763	-9.194	0.076	-0.052
-437.749	-0.782	0.172	0.123
-436.734	88.011	-0.181	0.203
-435.719	534.805	0.148	0.355
-434.705	-66.114	-0.186	0.075
-433.690	800.000	-0.055	0.189
-432.676	87.465	0.130	0.145
-431.661	86.681	-0.202	-0.226
-430.646	-65.010	0.313	0.128
-429.632	448.432	-0.233	0.519
-428.617	-49.823	0.166	-0.080
-427.603	99.585	0.082	0.095
-426.588	-119.602	0.037	-0.007
-425.573	176.982	-0.065	0.095
-424.559	-200.000	-0.016	0.133
-423.544	-77.340	0.072	0.025
-422.530	-83.668	0.181	-0.058
-421.515	800.000	-0.012	-0.053
-420.500	-148.031	-0.181	0.015
-419.486	800.000	-0.016	0.067
-418.471	-131.414	-0.222	0.030
-417.457	-100.139	-0.229	-0.058
-416.442	31.394	-0.091	-0.079
-415.428	126.185	-0.165	-0.210
-414.413	-39.546	-0.198	-0.105
-413.398	-41.846	0.286	-0.148
-412.384	-132.572	-0.186	-0.024
-411.369	-88.645	0.046	-0.014
-410.355	124.160	-0.114	-0.144
-409.340	60.942	0.180	-0.181
-408.325	-101.593	0.249	0.061
-407.311	-200.000	0.007	0.093
-406.296	-200.000	-0.048	-0.358
-405.282	324.834	-0.196	-0.379
-404.267	-200.000	-0.006	0.103
-403.252	-200.000	-0.022	0.347
-402.238	22.129	-0.415	-0.342
-401.223	204.680	-0.175	-0.275
-400.209	-118.503	0.565	-0.101
-399.194	70.134	-0.306	0.319
-398.179	800.000	0.114	0.399
-397.165	-3.812	0.234	-0.164
-396.150	77.922	-0.253	-0.272
-395.136	209.652	0.036	0.057
-394.121	6.426	-0.207	-0.155
-393.106	276.919	-0.089	0.160
-392.092	-47.616	-0.195	-0.095
-391.077	-63.958	0.078	0.032
-390.063	-97.999	0.220	-0.057
-389.048	691.912	0.041	-0.108
-388.033	260.427	0.097	0.169
-387.019	-200.000	-0.033	0.180
-386.004	-110.686	0.167	-0.035
-384.990	-17.496	-0.106	-0.067
-383.975	-200.000	0.026	-0.148
-382.960	-23.986	0.053	-0.032
-381.946	-200.000	0.039	-0.249
-380.931	49.592	-0.175	0.166
-379.917	800.000	0.057	-0.169
-378.902	18.549	-0.244	-0.197
-377.888	-200.000	0.027	0.146
-376.873	-30.116	0.309	0.177
-375.858	767.016	0.066	-0.181
-374.844	-81.126	-0.043	-0.014
-373.829	473.934	0.146	-0.332
-372.815	518.677	0.115	0.272
-371.800	-200.000	0.008	-0.254
-370.785	335.667	-0.152	-0.296
-369.771	354.513	-0.122	-0.244
-368.756	-170.078	0.122	0.004
-367.742	-47.121	0.142	-0.070
-366.727	800.000	0.076	0.218
-365.712	-177.809	-0.093	0.002
-364.698	418.073	0.014	0.030
-363.683	-49.324	0.137	-0.066
-362.669	-189.843	-0.319	-0.004
-361.654	387.034	-0.035	0.072
-360.639	-83.198	0.122	0.039
-359.625	103.092	0.120	0.142
-358.610	-53.061	0.150	-0.069
-357.596	-89.903	-0.053	-0.016
-356.581	-118.997	0.202	-0.036
-355.566	-20.348	-0.282	-0.175
-354.552	142.258	0.058	-0.077
-353.537	283.681	-0.141	-0.256
-352.523	-171.133	0.238	-0.008
-351.508	-178.451	-0.312	0.007
-350.493	295.150	0.072	-0.133
-349.479	37.359	-0.118	0.105
-348.464	174.923	-0.177	-0.259
-347.450	-200.000	0.038	-0.206
-346.435	800.000	0.066	-0.217
-345.420	-200.000	0.015	0.074
-344.406	-93.410	-0.362	0.101
-343.391	-200.000	-0.025	-0.252
-342.377	31.277	-0.032	-0.028
-341.362	93.810	-0.179	0.205
-340.348	438.337	0.162	-0.356
-339.333	311.138	0.049	0.092
-338.318	240.089	-0.072	0.120
-337.304	800.000	0.013	-0.038
-336.289	119.277	-0.191	-0.238
-335.275	131.271	0.085	-0.110
-334.260	-0.392	0.115	0.082
-333.245	800.000	-0.035	-0.101
-332.231	-124.242	-0.381	-0.060
-331.216	-52.077	-0.282	0.132
-330.202	-55.855	-0.308	0.139
-329.187	800.000	-0.046	-0.165
-328.172	39.234	-0.147	-0.132
-327.158	249.706	0.088	0.150
-326.143	139.963	-0.080	-0.107
-325.129	81.929	0.240	0.261
-324.114	51.578	0.219	0.209
-323.099	800.000	-0.052	-0.190
-322.085	602.514	-0.040	-0.099
-321.070	-200.000	0.011	0.110
-320.056	-200.000	-0.009	0.059
-319.041	-200.000	-0.024	0.297
-318.026	-200.000	-0.048	0.427
-317.012	-7.588	0.167	0.114
-315.997	7.768	-0.314	0.236
-314.983	-106.195	-0.423	0.095
-313.968	106.079	-0.093	-0.111
-312.953	374.889	0.084	0.172
-311.939	-107.006	-0.201	-0.045
-310.924	429.983	0.083	0.182
-309.910	-200.000	-0.019	-0.101
-308.895	-104.949	0.163	-0.038
-307.880	222.661	0.143	0.232
-306.866	478.574	-0.043	-0.097
-305.851	-200.000	-0.026	-0.159
-304.837	-200.000	0.026	-0.192
-303.822	606.810	-0.093	0.234
-302.807	102.012	-0.041	-0.048
-301.793	223.508	0.158	-0.256
-300.778	445.825	0.098	-0.217
-299.764	22.419	-0.102	-0.084
-298.749	-79.878	0.242	-0.082
-297.735	6.942	-0.248	0.186
-296.720	-200.000	0.020	0.127
-295.705	101.096	0.528	0.618
-294.691	55.906	0.286	0.279
-293.676	800.000	-0.113	0.340
-292.662	800.000	0.083	0.269
-291.647	322.766	0.156	-0.298
-290.632	-60.427	-0.199	0.085
-289.618	-27.803	-0.231	0.134
-288.603	-113.972	-0.108	-0.021
-287.589	5.676	-0.152	-0.113
-286.574	118.926	0.111	0.138
-285.559	249.542	0.141	-0.240
-284.545	-35.075	0.144	0.079
-283.530	-41.344	0.281	-0.145
-282.516	286.865	0.155	0.281
-281.501	198.996	0.082	0.125
-280.486	800.000	-0.041	0.115
-279.472	800.000	0.146	-0.447
-278.457	-181.107	0.209	0.004
-277.443	-23.228	-0.301	0.182
-276.428	-165.272	-0.596	-0.026
-275.413	-200.000	-0.048	0.248
-274.399	-106.648	0.238	-0.053
-273.384	-107.028	-0.131	-0.029
-272.370	-64.443	-0.267	-0.109
-271.355	-200.000	0.056	-0.447
-270.340	35.565	0.139	-0.123
-269.326	55.109	-0.111	0.108
-268.311	-200.000	0.041	-0.253
-267.297	-117.013	-0.325	-0.060
-266.282	-28.481	-0.184	-0.107
-265.267	-111.971	-0.140	0.028
-264.253	-125.321	0.077	-0.012
-263.238	-116.495	-0.268	0.050
-262.224	87.966	0.117	-0.130
-261.209	-17.208	-0.053	0.033
-260.195	392.851	0.209	0.437
-259.180	-181.513	0.186	-0.004
-258.165	-200.000	0.018	-0.248
-257.151	-45.997	-0.182	-0.090
-256.136	-200.000	0.016	0.297
-255.122	6.736	0.110	0.082
-254.107	-42.810	-0.194	-0.099
-253.092	800.000	-0.021	-0.070
-252.078	800.000	0.105	0.328
-251.063	-139.380	-0.286	-0.031
-250.049	437.873	0.038	-0.082
-249.034	-200.000	0.014	-0.211
-248.019	46.552	-0.063	0.059
-247.005	-200.000	-0.025	-0.125
-245.990	-200.000	0.051	-0.239
-244.976	12.095	-0.087	-0.067
-243.961	-200.000	0.021	-0.135
-242.946	0.616	0.200	0.144
-241.932	-52.929	-0.164	-0.076
-240.917	-102.452	-0.133	-0.032
-239.903	-94.565	0.016	0.004
-238.888	-47.941	-0.159	-0.077
-237.873	-32.599	0.149	0.083
-236.859	130.986	0.293	-0.377
-235.844	-200.000	-0.005	0.138
-234.830	-54.704	0.269	0.122
-233.815	-200.000	-0.061	0.466
-232.800	233.159	-0.036	0.059
-231.786	-84.134	-0.408	-0.130
-230.771	-15.710	-0.156	-0.100
-229.757	74.608	-0.284	-0.299
-228.742	-91.726	0.434	-0.124
-227.727	-172.302	-0.126	0.004
-226.713	-36.266	-0.157	0.085
-225.698	93.987	0.047	0.054
-224.684	93.794	0.205	-0.233
-223.669	8.163	-0.249	-0.188
-222.655	-145.478	0.241	0.022
-221.640	47.828	0.121	0.114
-220.625	-200.000	0.037	-0.214
-219.611	-68.615	-0.340	0.132
-218.596	-81.808	-0.339	0.111
-217.582	235.565	-0.159	-0.263
-216.567	141.499	-0.228	-0.303
-215.552	-82.327	0.162	-0.053
-214.538	-96.838	-0.121	0.032
-213.523	-17.837	-0.088	-0.055
-212.509	-47.971	0.186	0.090
-211.494	548.210	-0.188	0.451
-210.479	86.758	-0.255	-0.282
-209.465	144.304	-0.062	0.083
-208.450	-132.353	-0.072	0.009
-207.436	-36.838	0.124	-0.067
-206.421	133.866	-0.108	-0.141
-205.406	-112.275	0.127	-0.025
-204.392	-96.921	0.150	0.039
-203.377	-119.136	0.159	0.028
-202.363	-152.333	0.023	0.002
-201.348	181.710	0.221	0.326
-200.333	800.000	-0.036	0.137
-199.319	136.646	0.129	0.168
-198.304	426.255	0.069	-0.149
-197.290	782.800	-0.162	0.444
-196.275	24.718	-0.170	0.141
-195.260	-168.824	0.532	0.020
-194.246	-22.590	0.147	0.089
-193.231	259.653	0.263	0.455
-192.217	-110.569	0.292	0.060
-191.202	-200.000	-0.015	0.080
-190.187	-108.558	0.287	-0.062
-189.173	-101.645	0.455	-0.111
-188.158	-44.966	-0.170	-0.085
-187.144	-19.115	0.248	-0.154
-186.129	800.000	0.084	0.244
-185.114	800.000	0.061	-0.173
-184.100	74.198	0.149	-0.157
-183.085	98.852	0.145	-0.168
-182.071	12.276	-0.235	0.181
-181.056	427.175	0.171	-0.368
-180.042	53.542	0.259	-0.249
-179.027	716.502	0.063	-0.168
-178.012	-79.592	-0.160	-0.054
-176.998	800.000	0.108	-0.387
-175.983	91.872	-0.150	-0.168
-174.969	323.570	-0.115	0.219
-173.954	-75.323	-0.320	-0.114
-172.939	-88.718	-0.139	0.041
-171.925	-35.761	0.192	0.104
-170.910	-97.572	0.314	-0.082
-169.896	398.903	-0.063	0.132
-168.881	-44.659	-0.133	-0.066
-167.866	800.000	0.046	-0.147
-166.852	324.011	-0.047	-0.090
-165.837	98.432	-0.053	-0.062
-164.823	535.169	-0.071	-0.169
-163.808	260.926	0.230	-0.397
-162.793	-40.746	0.161	-0.083
-161.779	316.874	0.039	0.074
-160.764	-121.833	-0.242	-0.040
-159.750	-90.021	0.318	0.093
-158.735	-128.918	-0.189	-0.027
-157.720	129.043	0.299	0.382
-156.706	265.622	-0.044	0.077
-155.691	115.202	-0.148	-0.181
-154.677	-200.000	0.027	0.255
-153.662	-112.509	0.311	0.062
-152.647	57.030	-0.211	0.205
-151.633	634.894	-0.115	0.292
-150.618	-200.000	0.013	-0.324
-149.604	256.743	0.081	-0.139
-148.589	-200.000	0.020	0.128
-147.574	328.497	0.015	-0.029
-146.560	116.932	0.088	0.108
-145.545	3.174	0.118	-0.086
-144.531	-97.736	-0.065	0.017
-143.516	-142.572	-0.081	0.008
-142.502	152.897	0.135	-0.184
-141.487	-96.763	-0.153	-0.040
-140.472	-173.132	-0.091	-0.003
-139.458	312.872	0.180	0.339
-138.443	-200.000	0.018	0.706
-137.429	-111.429	-0.282	0.057
-136.414	138.364	-0.092	0.121
-135.399	82.243	0.089	0.097
-134.385	800.000	0.111	0.448
-133.370	2.770	0.066	0.048
-132.356	-200.000	0.004	0.349
-131.341	-53.313	0.198	0.091
-130.326	-27.177	-0.156	-0.091
-129.312	-200.000	-0.014	0.245
-128.297	61.742	-0.191	0.190
-127.283	659.604	-0.109	0.281
-126.268	-27.718	-0.013	-0.008
-125.253	-200.000	0.085	-0.000
-124.239	-30.878	0.074	0.042
-123.224	-12.159	0.278	-0.182
-122.210	147.073	0.168	0.226
-121.195	-71.673	0.329	-0.122
