DTS Sentinel unit serial number:	SN413079Multiplexer serial number:	ORYXHardware model number:	OX4-SRSoftware version number:	ORYX F/W v4.00 Oryx Data Collector v3.7.2.0data status	okinstallation	princeton_trtdifferential loss correction	single-endedforward channel	channel 3reverse channel	N/Adate	2019/09/12time	04:50:10forward acquisition time	60.00reverse acquisition time	0.00gamma	496.2192k internal	0.2323k external	0.2323temperature offset calibration	1.0063default loss term (dB/km)	0.3790temperature slope calibration	1.0000multiplexer offset coefficient	1.0000multiplexer slope coefficient	1.0000fibre end	0.00T internal ref (°C)	31.64T ext. ref 1 (°C)	1.99T ext. ref 2 (°C)	27.23length (m)	temperature (°C)	Stokes	anti-Stokes-747.200	182.111	-0.269	-0.400
-746.185	-200.000	-0.037	0.172
-745.171	316.197	-0.111	0.211
-744.156	8.753	-0.533	0.406
-743.142	-69.909	-0.111	-0.043
-742.127	94.068	0.201	0.230
-741.112	-52.236	-0.019	-0.009
-740.098	8.841	-0.081	0.062
-739.083	28.664	-0.172	0.147
-738.069	-37.918	-0.226	0.121
-737.054	44.477	0.296	-0.275
-736.039	-98.530	-0.173	-0.045
-735.025	-200.000	-0.026	0.215
-734.010	578.638	-0.042	0.105
-732.996	-84.449	-0.476	-0.152
-731.981	-163.375	-0.327	0.016
-730.966	-200.000	0.028	0.214
-729.952	-200.000	-0.046	-0.205
-728.937	-41.027	0.117	-0.061
-727.923	-120.079	-0.581	-0.100
-726.908	-103.422	-0.315	-0.075
-725.894	-148.552	0.297	-0.024
-724.879	-34.010	-0.084	-0.047
-723.864	-169.341	-0.199	-0.007
-722.850	104.862	0.185	0.220
-721.835	21.133	0.044	0.036
-720.821	23.525	0.321	0.267
-719.806	-50.651	-0.281	0.133
-718.791	-22.307	0.303	-0.185
-717.777	478.663	-0.080	-0.182
-716.762	-200.000	-0.002	-0.081
-715.748	-73.032	-0.129	-0.048
-714.733	-157.212	-0.564	-0.035
-713.718	800.000	0.076	0.225
-712.704	197.446	-0.197	-0.303
-711.689	18.965	0.262	0.211
-710.675	-200.000	0.076	-0.453
-709.660	-36.500	-0.101	0.055
-708.645	-200.000	0.010	0.084
-707.631	33.085	0.231	0.202
-706.616	616.060	0.031	-0.079
-705.602	-140.423	-0.313	-0.033
-704.587	178.933	-0.029	0.042
-703.572	800.000	0.106	-0.356
-702.558	44.962	-0.334	-0.310
-701.543	-105.233	-0.071	-0.016
-700.529	-109.856	0.102	-0.022
-699.514	800.000	-0.072	-0.219
-698.499	800.000	-0.051	0.167
-697.485	363.943	0.058	-0.117
-696.470	259.073	0.044	-0.076
-695.456	-59.541	0.059	0.026
-694.441	205.817	-0.100	-0.157
-693.426	-35.230	-0.337	-0.185
-692.412	187.413	-0.199	-0.299
-691.397	-38.501	-0.179	0.096
-690.383	-32.679	0.086	-0.048
-689.368	178.307	-0.090	0.133
-688.354	800.000	-0.048	-0.180
-687.339	800.000	0.078	0.293
-686.324	-200.000	-0.004	-0.414
-685.310	137.181	-0.174	0.229
-684.295	206.171	-0.080	-0.126
-683.281	-52.652	-0.208	-0.097
-682.266	-196.685	0.074	0.000
-681.251	36.534	-0.168	0.150
-680.237	-150.035	0.177	0.014
-679.222	38.784	-0.153	0.137
-678.208	-37.927	-0.144	-0.077
-677.193	-108.713	0.215	-0.046
-676.178	-99.927	0.215	-0.054
-675.164	-200.000	-0.077	-0.347
-674.149	-66.935	0.253	-0.101
-673.135	-200.000	-0.042	-0.322
-672.120	-200.000	0.050	0.225
-671.105	425.691	-0.180	0.390
-670.091	-62.126	-0.197	-0.083
-669.076	-149.342	-0.050	-0.004
-668.062	327.873	-0.126	-0.243
-667.047	507.639	0.095	0.221
-666.032	119.882	-0.107	-0.134
-665.018	-146.048	-0.042	0.004
-664.003	59.227	-0.021	0.020
-662.989	82.410	-0.229	-0.250
-661.974	800.000	-0.044	-0.144
-660.959	493.418	-0.182	-0.420
-659.945	43.853	-0.278	0.256
-658.930	38.928	0.428	-0.385
-657.916	367.074	-0.129	-0.262
-656.901	58.686	-0.312	-0.308
-655.886	368.562	-0.082	-0.168
-654.872	183.092	-0.160	-0.238
-653.857	52.056	0.147	-0.141
-652.843	-122.412	-0.154	0.025
-651.828	-109.615	-0.193	-0.041
-650.814	-76.106	-0.212	0.076
-649.799	153.245	-0.093	0.128
-648.784	247.832	-0.055	0.094
-647.770	-73.336	-0.182	-0.067
-646.755	-70.437	-0.135	-0.051
-645.741	-159.692	0.178	-0.010
-644.726	-67.017	-0.181	-0.072
-643.711	375.020	-0.087	0.178
-642.697	-94.779	-0.206	-0.056
-641.682	-78.497	-0.234	-0.081
-640.668	-200.000	0.036	0.225
-639.653	-42.810	0.172	-0.088
-638.638	152.848	0.087	-0.120
-637.624	-146.415	-0.028	-0.002
-636.609	800.000	-0.074	0.310
-635.595	152.810	-0.153	-0.211
-634.580	371.486	-0.242	-0.493
-633.565	-200.000	0.026	-0.219
-632.551	-115.068	-0.254	0.049
-631.536	-8.970	-0.124	-0.083
-630.522	-81.117	0.039	0.013
-629.507	800.000	-0.091	-0.285
-628.492	7.522	0.158	-0.119
-627.478	90.906	-0.229	0.259
-626.463	-68.784	0.085	-0.033
-625.449	-134.343	0.206	0.025
-624.434	-102.500	0.403	-0.097
-623.419	-200.000	-0.039	-0.244
-622.405	-200.000	-0.042	-0.256
-621.390	214.993	-0.132	0.210
-620.376	-59.996	0.158	0.068
-619.361	800.000	-0.106	0.346
-618.346	-200.000	-0.014	-0.184
-617.332	-78.642	-0.227	-0.078
-616.317	484.555	0.191	0.437
-615.303	546.987	-0.082	-0.196
-614.288	-200.000	0.036	-0.165
-613.273	260.556	0.063	-0.110
-612.259	-125.875	0.176	-0.027
-611.244	800.000	0.099	-0.334
-610.230	-200.000	0.076	-0.442
-609.215	-91.067	-0.468	-0.135
-608.201	8.048	-0.156	-0.118
-607.186	140.753	0.224	-0.297
-606.171	800.000	0.047	-0.131
-605.157	231.388	0.068	-0.111
-604.142	-77.837	0.206	-0.071
-603.128	18.295	-0.233	0.187
-602.113	-68.476	0.428	0.167
-601.098	-57.496	-0.113	-0.050
-600.084	-125.007	-0.177	-0.027
-599.069	187.951	0.123	-0.184
-598.055	121.885	-0.056	0.070
-597.040	-200.000	-0.009	0.222
-596.025	42.351	0.359	0.327
-595.011	281.881	0.054	0.098
-593.996	-200.000	-0.036	-0.597
-592.982	-24.897	-0.153	-0.091
-591.967	666.038	0.139	-0.360
-590.952	-31.328	0.122	0.069
-589.938	7.082	-0.136	0.102
-588.923	487.423	-0.041	0.095
-587.909	-54.587	-0.309	0.140
-586.894	9.960	0.092	0.070
-585.879	466.207	0.032	-0.072
-584.865	756.551	-0.024	-0.064
-583.850	-6.953	0.171	-0.117
-582.836	72.912	-0.280	-0.294
-581.821	795.966	-0.145	-0.400
-580.806	-200.000	0.053	-0.366
-579.792	-200.000	0.013	-0.100
-578.777	800.000	-0.085	0.274
-577.763	-32.252	-0.161	-0.090
-576.748	252.515	0.193	0.330
-575.733	-43.787	0.272	0.137
-574.719	-27.354	0.018	-0.011
-573.704	30.497	-0.254	0.218
-572.690	72.172	-0.220	-0.230
-571.675	715.757	-0.075	-0.199
-570.661	45.812	-0.166	-0.154
-569.646	-111.293	0.310	-0.064
-568.631	-56.052	-0.071	0.032
-567.617	-37.690	-0.464	-0.248
-566.602	800.000	-0.077	-0.244
-565.588	91.604	0.133	0.150
-564.573	37.488	-0.422	-0.376
-563.558	242.643	0.196	0.329
-562.544	-1.572	-0.143	-0.101
-561.529	38.195	0.193	0.172
-560.515	800.000	0.053	-0.175
-559.500	-146.636	-0.337	-0.029
-558.485	-200.000	-0.166	0.000
-557.471	-200.000	-0.006	-0.344
-556.456	800.000	0.007	-0.029
-555.442	28.306	-0.145	0.123
-554.427	217.451	0.056	0.089
-553.412	-200.000	-0.108	0.478
-552.398	-200.000	-0.015	-0.212
-551.383	-68.680	0.106	0.041
-550.369	-200.000	-0.017	0.252
-549.354	-91.984	-0.244	0.069
-548.339	-106.018	0.182	0.041
-547.325	800.000	-0.058	-0.240
-546.310	-200.000	-0.090	0.410
-545.296	-182.544	0.063	-0.001
-544.281	-200.000	0.048	-0.245
-543.266	-200.000	0.034	-0.228
-542.252	2.956	-0.154	0.112
-541.237	24.874	-0.074	0.062
-540.223	-200.000	-0.009	-0.182
-539.208	-19.826	0.310	0.192
-538.193	800.000	-0.079	-0.246
-537.179	-106.795	0.063	-0.014
-536.164	-43.644	-0.161	0.081
-535.150	654.384	0.062	0.158
-534.135	359.007	0.059	-0.118
-533.121	378.517	-0.141	-0.290
-532.106	-3.213	-0.158	-0.110
-531.091	-83.064	0.067	0.022
-530.077	129.459	-0.089	-0.114
-529.062	-72.982	0.131	-0.048
-528.048	800.000	0.026	-0.072
-527.033	-200.000	-0.005	-0.227
-526.018	800.000	0.043	-0.156
-525.004	-144.029	-0.325	0.031
-523.989	-27.080	-0.345	-0.201
-522.975	-105.499	-0.169	-0.039
-521.960	7.807	0.037	0.028
-520.945	14.527	0.040	0.031
-519.931	10.384	0.294	-0.224
-518.916	-200.000	0.032	0.260
-517.902	539.847	-0.145	-0.346
-516.887	267.294	-0.082	-0.143
-515.872	-132.380	0.260	0.034
-514.858	19.657	0.088	0.071
-513.843	-51.306	0.214	-0.100
-512.829	290.305	0.088	0.160
-511.814	-96.879	-0.384	-0.101
-510.799	-70.334	-0.192	-0.073
-509.785	72.750	0.246	0.257
-508.770	-200.000	0.022	0.240
-507.756	445.378	-0.098	0.216
-506.741	-151.494	0.076	0.006
-505.726	-114.573	-0.356	-0.068
-504.712	39.852	0.102	-0.092
-503.697	171.004	-0.096	0.138
-502.683	-71.828	0.147	0.055
-501.668	395.549	0.083	-0.173
-500.653	-167.960	0.253	-0.010
-499.639	159.258	0.221	-0.308
-498.624	-55.569	0.222	-0.099
-497.610	-84.427	-0.076	-0.024
-496.595	393.965	-0.081	0.169
-495.581	494.381	-0.151	0.347
-494.566	-146.101	-0.249	0.022
-493.551	-200.000	0.056	0.374
-492.537	-172.466	0.108	0.003
-491.522	-36.030	-0.245	-0.132
-490.508	40.098	0.081	0.072
-489.493	-83.786	-0.135	0.043
-488.478	-32.947	-0.301	-0.167
-487.464	-89.260	0.159	0.047
-486.449	-164.122	-0.161	0.007
-485.435	-42.021	-0.220	0.113
-484.420	-200.000	0.012	0.093
-483.405	-200.000	-0.057	0.396
-482.391	-33.659	-0.141	-0.078
-481.376	265.529	-0.249	-0.434
-480.362	-156.608	0.120	0.007
-479.347	800.000	0.066	-0.217
-478.332	-130.735	-0.213	0.029
-477.318	-44.661	0.148	0.074
-476.303	-73.789	-0.160	0.058
-475.289	139.947	0.088	0.116
-474.274	-200.000	-0.012	-0.204
-473.259	-88.724	-0.345	-0.103
-472.245	-200.000	0.000	-0.074
-471.230	-200.000	-0.023	0.117
-470.216	120.229	0.098	-0.122
-469.201	62.723	0.135	-0.135
-468.186	8.665	0.101	-0.076
-467.172	-142.222	-0.164	0.016
-466.157	-119.755	0.104	0.018
-465.143	409.326	-0.053	-0.113
-464.128	-60.361	0.152	-0.064
-463.113	36.766	0.135	0.119
-462.099	800.000	0.044	-0.167
-461.084	-83.684	-0.297	-0.095
-460.070	-150.164	0.159	0.012
-459.055	-200.000	-0.006	0.215
-458.040	-103.987	0.036	0.008
-457.026	109.515	0.159	-0.191
-456.011	-45.978	0.073	-0.036
-454.997	-115.863	0.068	0.013
-453.982	295.108	0.050	0.091
-452.968	-35.674	0.296	0.160
-451.953	-64.202	-0.276	0.112
-450.938	-200.000	0.029	-0.658
-449.924	-18.779	-0.239	0.148
-448.909	-156.668	0.230	-0.014
-447.895	-200.000	-0.047	-0.216
-446.880	19.065	0.109	0.088
-445.865	-118.896	-0.135	-0.024
-444.851	483.043	-0.085	-0.192
-443.836	800.000	-0.091	-0.285
-442.822	555.321	0.051	0.123
-441.807	-200.000	0.026	0.141
-440.792	152.447	-0.048	-0.066
-439.778	-134.171	-0.402	-0.050
-438.763	29.953	0.173	0.147
-437.749	2.495	0.154	0.111
-436.734	54.691	0.279	-0.269
-435.719	800.000	-0.035	-0.138
-434.705	642.218	-0.076	-0.194
-433.690	-12.993	-0.149	0.097
-432.676	-94.370	0.090	-0.024
-431.661	-200.000	-0.002	0.316
-430.646	338.443	-0.114	-0.220
-429.632	-43.778	0.235	-0.118
-428.617	57.338	0.114	0.111
-427.603	-200.000	-0.020	-0.159
-426.588	-64.866	-0.128	-0.052
-425.573	-200.000	0.014	-0.124
-424.559	800.000	-0.067	0.224
-423.544	103.796	0.097	-0.113
-422.530	-54.526	0.208	-0.094
-421.515	164.335	-0.197	0.277
-420.500	-23.861	-0.418	0.250
-419.486	-143.473	0.245	0.023
-418.471	21.008	-0.205	-0.166
-417.457	-200.000	0.032	0.294
-416.442	57.504	0.298	0.290
-415.428	-200.000	0.011	0.120
-414.413	207.638	0.062	-0.096
-413.398	579.612	0.146	-0.357
-412.384	348.638	0.231	-0.455
-411.369	246.910	0.069	0.116
-410.355	107.754	0.042	-0.050
-409.340	333.607	0.134	-0.259
-408.325	50.367	0.320	0.302
-407.311	-75.333	-0.022	-0.008
-406.296	208.761	0.061	-0.095
-405.282	-75.212	-0.073	0.026
-404.267	174.164	0.189	0.272
-403.252	-100.482	0.413	0.102
-402.238	-200.000	0.063	0.286
-401.223	-200.000	0.011	0.345
-400.209	29.809	-0.087	0.074
-399.194	-113.052	-0.093	0.018
-398.179	122.752	-0.131	-0.163
-397.165	-66.920	0.063	0.025
-396.150	-137.205	0.118	0.013
-395.136	-1.124	-0.245	-0.173
-394.121	196.709	0.233	-0.353
-393.106	265.768	-0.154	0.267
-392.092	-200.000	0.006	0.173
-391.077	-200.000	0.091	0.504
-390.063	-153.147	0.037	0.003
-389.048	51.295	-0.119	0.112
-388.033	209.178	-0.215	0.335
-387.019	677.605	0.177	-0.458
-386.004	-50.711	0.076	-0.036
-384.990	109.205	-0.102	0.122
-383.975	495.226	0.083	0.189
-382.960	378.173	0.238	0.485
-381.946	-9.045	0.215	0.143
-380.931	-200.000	0.003	-0.249
-379.917	-200.000	-0.027	0.212
-378.902	218.170	0.061	-0.097
-377.888	800.000	-0.124	0.512
-376.873	773.580	-0.090	0.245
-375.858	-200.000	0.010	0.182
-374.844	119.892	0.068	0.084
-373.829	800.000	0.029	-0.094
-372.815	-97.239	-0.372	0.097
-371.800	156.449	0.067	0.093
-370.785	-200.000	0.030	-0.216
-369.771	-80.523	-0.298	-0.099
-368.756	800.000	-0.059	-0.225
-367.742	68.024	0.058	-0.060
-366.727	-200.000	0.013	0.284
-365.712	-61.513	-0.013	0.005
-364.698	120.180	0.163	0.201
-363.683	365.362	-0.113	0.227
-362.669	-200.000	-0.012	0.192
-361.654	-149.628	-0.095	0.007
-360.639	695.669	-0.064	0.166
-359.625	346.563	0.068	0.132
-358.610	-70.587	0.094	-0.035
-357.596	318.820	0.116	-0.219
-356.581	-140.260	0.212	-0.022
-355.566	800.000	0.047	-0.162
-354.552	497.672	-0.174	0.398
-353.537	-55.950	-0.031	-0.014
-352.523	367.650	0.064	0.129
-351.508	-45.089	-0.081	0.040
-350.493	-200.000	0.010	0.063
-349.479	276.213	0.048	-0.085
-348.464	37.303	-0.037	0.033
-347.450	-200.000	0.054	-0.338
-346.435	-98.855	-0.371	0.094
-345.420	-119.938	-0.281	-0.048
-344.406	172.221	0.267	-0.381
-343.391	150.127	-0.088	-0.119
-342.377	61.099	0.252	0.249
-341.362	253.082	0.114	0.194
-340.348	122.481	-0.301	0.374
-339.333	-155.746	0.286	-0.018
-338.318	800.000	-0.098	-0.328
-337.304	-200.000	0.023	0.237
-336.289	97.149	-0.024	-0.028
-335.275	147.381	-0.090	0.120
-334.260	-119.611	0.323	-0.056
-333.245	-49.130	-0.286	-0.136
-332.231	551.869	-0.138	-0.329
-331.216	-123.106	0.162	0.026
-330.202	-23.840	-0.072	-0.043
-329.187	-200.000	0.015	0.066
-328.172	-2.366	0.015	0.011
-327.158	-107.235	-0.291	-0.064
-326.143	-164.894	-0.360	-0.016
-325.129	76.655	0.174	-0.184
-324.114	-200.000	0.028	-0.148
-323.099	289.976	0.061	0.109
-322.085	259.026	0.034	-0.058
-321.070	145.327	0.064	0.085
-320.056	-129.462	-0.336	-0.046
-319.041	-200.000	-0.002	0.271
-318.026	54.312	-0.080	0.077
-317.012	-88.137	0.249	-0.074
-315.997	62.830	-0.070	-0.070
-314.983	162.827	-0.182	-0.254
-313.968	-119.124	-0.258	0.045
-312.953	-53.038	0.090	0.041
-311.939	-87.908	0.112	-0.033
-310.924	-5.636	-0.228	0.155
-309.910	273.387	0.105	0.184
-308.895	-130.809	0.162	-0.022
-307.880	-15.398	0.133	-0.085
-306.866	37.342	0.212	0.187
-305.851	800.000	-0.068	-0.257
-304.837	-5.519	0.099	-0.068
-303.822	0.472	-0.193	-0.137
-302.807	-109.073	0.217	-0.046
-301.793	-94.981	0.043	0.012
-300.778	-200.000	-0.051	0.363
-299.764	250.136	-0.091	0.153
-298.749	82.602	-0.182	0.197
-297.735	68.320	-0.285	0.290
-296.720	-165.420	0.084	-0.004
-295.705	-154.973	0.275	0.018
-294.691	-41.807	-0.206	0.105
-293.676	59.704	0.229	-0.224
-292.662	2.365	-0.145	0.104
-291.647	-166.629	-0.126	0.005
-290.632	45.286	0.085	-0.078
-289.618	800.000	-0.090	-0.373
-288.603	81.421	-0.075	0.081
-287.589	-200.000	0.012	-0.195
-286.574	-200.000	0.017	-0.185
-285.559	-0.038	0.209	-0.148
-284.545	58.881	0.233	0.227
-283.530	-130.449	0.108	0.015
-282.516	-134.056	-0.257	-0.032
-281.501	352.031	-0.049	0.096
-280.486	-105.643	-0.136	0.031
-279.472	465.253	0.027	-0.061
-278.457	735.409	0.101	-0.269
-277.443	91.449	0.044	0.049
-276.428	7.466	0.046	-0.034
-275.413	40.995	-0.067	-0.060
-274.399	-89.574	-0.195	0.057
-273.384	-190.199	-0.120	-0.001
-272.370	-78.174	0.037	0.013
-271.355	673.594	0.057	-0.146
-270.340	-103.846	0.347	0.080
-269.326	372.379	0.171	0.344
-268.311	-48.732	-0.223	-0.106
-267.297	-53.135	-0.035	-0.016
-266.282	-200.000	0.047	0.363
-265.267	-3.932	-0.234	0.161
-264.253	-56.838	-0.136	0.060
-263.238	-112.848	-0.294	-0.058
-262.224	45.445	-0.136	0.124
-261.209	-100.937	-0.317	-0.077
-260.195	-139.824	-0.262	-0.028
-259.180	108.074	0.123	0.145
-258.165	-200.000	0.019	-0.129
-257.151	107.886	0.136	0.160
-256.136	100.810	-0.108	-0.124
-255.122	61.068	-0.072	-0.071
-254.107	-200.000	-0.026	0.402
-253.092	-200.000	-0.038	0.347
-252.078	-0.107	0.174	0.122
-251.063	-57.492	0.262	0.114
-250.049	219.960	-0.035	0.056
-249.034	222.213	0.141	-0.224
-248.019	74.871	0.260	-0.271
-247.005	-42.347	-0.167	0.084
-245.990	348.117	0.045	0.088
-244.976	-63.469	0.103	0.042
-243.961	-21.489	0.313	-0.189
-242.946	-200.000	0.037	-0.268
-241.932	597.183	0.130	-0.320
-240.917	-196.964	-0.257	0.002
-239.903	800.000	0.062	-0.240
-238.888	-122.972	-0.077	0.012
-237.873	213.364	0.065	0.101
-236.859	268.046	0.023	-0.039
-235.844	800.000	0.090	0.317
-234.830	-87.443	0.136	-0.041
-233.815	36.810	0.303	-0.265
-232.800	-125.641	-0.162	-0.024
-231.786	-200.000	0.008	-0.096
-230.771	800.000	-0.019	-0.059
-229.757	226.539	-0.145	0.234
-228.742	-84.022	-0.299	0.094
-227.727	210.743	-0.177	0.276
-226.713	-200.000	0.015	0.292
-225.698	-57.105	-0.199	-0.087
-224.684	-62.410	0.185	0.076
-223.669	-0.505	-0.346	0.243
-222.655	-83.655	0.137	0.043
-221.640	-81.702	-0.310	-0.101
-220.625	16.187	0.187	0.146
-219.611	-94.060	-0.176	0.048
-218.596	-69.437	0.107	-0.040
-217.582	800.000	0.081	-0.346
-216.567	-77.926	-0.192	-0.065
-215.552	-22.380	0.259	-0.155
-214.538	-141.504	0.467	0.047
-213.523	-154.643	0.114	-0.008
-212.509	-200.000	0.066	-0.335
-211.494	-200.000	0.022	-0.342
-210.479	-200.000	-0.090	0.439
-209.465	-146.586	0.285	0.025
-208.450	-97.502	-0.029	-0.008
-207.436	-200.000	0.023	0.282
-206.421	-200.000	-0.006	0.300
-205.406	599.665	-0.134	0.328
-204.392	180.147	0.126	0.183
-203.377	-106.781	-0.356	-0.078
-202.363	-200.000	-0.004	-0.062
-201.348	10.287	0.185	-0.139
-200.333	-200.000	0.010	-0.146
-199.319	-200.000	-0.076	-0.394
-198.304	-200.000	-0.029	0.250
-197.290	-200.000	-0.010	0.215
-196.275	-74.318	0.284	-0.101
-195.260	800.000	-0.087	-0.289
-194.246	-123.366	0.094	0.015
-193.231	-95.596	0.287	-0.076
-192.217	60.920	-0.198	-0.194
-191.202	-90.003	0.168	0.049
-190.187	-81.297	-0.232	0.076
-189.173	49.467	0.045	0.042
-188.158	141.792	0.141	-0.185
-187.144	192.006	-0.139	0.208
-186.129	209.870	0.050	0.078
-185.114	800.000	0.061	0.186
-184.100	-85.901	-0.157	-0.048
-183.085	20.734	0.042	0.034
-182.071	-87.199	0.277	-0.083
-181.056	-151.900	0.083	-0.006
-180.042	800.000	-0.074	0.260
-179.027	32.538	-0.244	0.208
-178.012	109.463	0.155	0.184
-176.998	-75.080	0.181	-0.064
-175.983	-175.038	-0.136	0.004
-174.969	-84.340	0.241	-0.075
-173.954	-88.659	0.403	-0.118
-172.939	-200.000	0.019	0.346
-171.925	-97.638	-0.156	-0.040
-170.910	-200.000	-0.044	0.232
-169.896	-38.012	0.172	-0.090
-168.881	-29.254	0.434	0.245
-167.866	109.525	-0.165	-0.196
-166.852	212.600	0.266	0.414
-165.837	778.685	0.051	0.137
-164.823	-200.000	-0.061	0.432
-163.808	-11.626	0.060	0.039
-162.793	-166.818	0.486	0.020
-161.779	-57.217	0.169	-0.074
-160.764	17.056	0.244	0.191
-159.750	-76.405	0.129	0.045
-158.735	-100.311	0.399	0.098
-157.720	-154.805	-0.091	0.006
-156.706	500.890	-0.098	-0.223
-155.691	-5.318	-0.090	0.061
-154.677	-45.535	0.291	-0.142
-153.662	-75.160	0.246	-0.087
-152.647	585.132	0.013	0.033
-151.633	-22.088	-0.394	-0.236
-150.618	-49.283	-0.230	-0.108
-149.604	-99.084	0.260	-0.065
-148.589	-26.935	-0.257	0.148
-147.574	107.197	-0.156	-0.183
-146.560	-101.058	0.113	-0.027
-145.545	-200.000	-0.013	-0.091
-144.531	-146.630	-0.363	-0.031
-143.516	800.000	-0.014	0.058
-142.502	-32.855	0.324	-0.177
-141.487	-68.043	0.220	0.085
-140.472	-200.000	-0.009	0.046
-139.458	-46.451	-0.115	0.056
-138.443	46.918	-0.111	0.102
-137.429	-49.732	0.242	0.114
-136.414	30.106	-0.131	0.110
-135.399	-200.000	-0.015	-0.112
-134.385	-98.585	-0.163	0.041
-133.370	-83.329	-0.293	-0.093
-132.356	18.353	-0.233	0.184
-131.341	136.644	0.085	-0.109
-130.326	-34.023	-0.140	-0.076
-129.312	-57.722	0.233	0.101
-128.297	-24.738	-0.042	0.025
-127.283	368.326	0.065	0.130
-126.268	-200.000	0.019	0.209
-125.253	-59.535	-0.322	0.136
-124.239	-49.506	-0.127	0.060
-123.224	-32.591	-0.204	0.112
-122.210	-200.000	0.052	-0.267
