DTS Sentinel unit serial number:	SN413079Multiplexer serial number:	ORYXHardware model number:	OX4-SRSoftware version number:	ORYX F/W v4.00 Oryx Data Collector v3.7.2.0data status	okinstallation	princeton_trtdifferential loss correction	single-endedforward channel	channel 3reverse channel	N/Adate	2019/09/14time	20:08:35forward acquisition time	60.00reverse acquisition time	0.00gamma	496.2192k internal	0.2314k external	0.2314temperature offset calibration	1.0011default loss term (dB/km)	0.3790temperature slope calibration	1.0000multiplexer offset coefficient	1.0000multiplexer slope coefficient	1.0000fibre end	0.00T internal ref (°C)	33.91T ext. ref 1 (°C)	4.88T ext. ref 2 (°C)	28.31length (m)	temperature (°C)	Stokes	anti-Stokes-747.200	6.574	-0.054	-0.041
-746.185	-200.000	0.059	0.268
-745.171	617.373	-0.086	0.220
-744.156	3.516	-0.151	-0.112
-743.142	-12.767	0.124	-0.082
-742.127	91.311	-0.245	0.278
-741.112	-89.487	-0.228	-0.068
-740.098	-75.831	-0.482	0.173
-739.083	209.020	0.175	-0.278
-738.069	800.000	0.005	0.019
-737.054	11.246	-0.186	0.145
-736.039	551.260	-0.083	-0.202
-735.025	46.933	-0.179	0.169
-734.010	800.000	-0.055	-0.205
-732.996	-67.364	-0.212	0.085
-731.981	800.000	-0.073	-0.313
-730.966	-58.664	-0.185	0.081
-729.952	-74.242	0.421	-0.154
-728.937	-10.796	0.140	-0.094
-727.923	-75.658	-0.160	-0.058
-726.908	119.087	-0.032	-0.040
-725.894	-200.000	0.029	0.198
-724.879	-106.473	0.151	0.034
-723.864	219.447	-0.073	-0.118
-722.850	-200.000	0.016	-0.089
-721.835	-164.565	-0.127	-0.006
-720.821	562.558	-0.186	-0.457
-719.806	7.320	0.201	-0.152
-718.791	239.416	-0.121	-0.204
-717.777	-200.000	0.034	-0.242
-716.762	553.119	-0.086	-0.208
-715.748	-110.404	0.392	-0.083
-714.733	800.000	0.033	0.141
-713.718	800.000	0.028	0.123
-712.704	-87.714	-0.128	0.039
-711.689	212.332	-0.054	-0.086
-710.675	-176.479	-0.421	-0.011
-709.660	-200.000	-0.015	0.110
-708.645	-146.854	-0.160	-0.014
-707.631	-133.444	0.545	0.069
-706.616	-125.061	0.237	-0.037
-705.602	-162.063	0.235	0.012
-704.587	800.000	0.095	-0.317
-703.572	72.275	-0.050	-0.053
-702.558	-1.484	-0.178	0.127
-701.543	-136.442	-0.082	0.010
-700.529	-200.000	0.061	-0.304
-699.514	-12.560	-0.288	-0.190
-698.499	36.130	-0.238	-0.212
-697.485	-14.354	-0.064	0.042
-696.470	-24.337	-0.104	0.063
-695.456	249.083	0.027	-0.046
-694.441	70.950	-0.107	-0.112
-693.426	565.642	-0.084	0.206
-692.412	-200.000	-0.008	-0.053
-691.397	-106.268	0.132	-0.030
-690.383	800.000	-0.052	-0.168
-689.368	800.000	-0.138	-0.399
-688.354	-80.322	0.231	-0.078
-687.339	155.870	-0.013	-0.019
-686.324	-200.000	-0.050	0.304
-685.310	134.930	-0.062	-0.082
-684.295	130.933	0.132	-0.171
-683.281	-113.661	0.117	0.023
-682.266	41.092	-0.128	0.117
-681.251	-13.963	-0.163	0.107
-680.237	65.274	0.097	-0.099
-679.222	72.726	0.106	0.112
-678.208	53.427	0.016	-0.015
-677.193	93.691	-0.087	-0.100
-676.178	-132.032	0.198	-0.026
-675.164	-56.031	-0.179	0.081
-674.149	-133.597	-0.286	-0.036
-673.135	11.767	0.102	0.080
-672.120	-70.464	0.060	0.023
-671.105	-63.392	0.132	-0.055
-670.091	347.112	-0.042	-0.084
-669.076	58.553	0.162	0.161
-668.062	58.167	0.207	-0.205
-667.047	-200.000	0.035	-0.313
-666.032	-200.000	0.019	-0.236
-665.018	644.668	0.167	0.430
-664.003	-50.669	0.309	-0.147
-662.989	-200.000	-0.001	0.035
-661.974	702.807	-0.047	-0.126
-660.959	-45.789	-0.024	0.012
-659.945	11.976	-0.079	-0.062
-658.930	213.489	-0.096	0.153
-657.916	-2.428	0.064	-0.045
-656.901	-118.750	-0.197	0.035
-655.886	-129.897	-0.118	-0.016
-654.872	-17.453	0.129	-0.082
-653.857	-200.000	-0.002	0.133
-652.843	76.369	-0.063	0.068
-651.828	-85.776	-0.164	-0.052
-650.814	-124.605	0.129	0.020
-649.799	338.589	-0.097	-0.190
-648.784	-200.000	0.038	-0.328
-647.770	259.541	-0.088	-0.154
-646.755	540.231	0.080	-0.191
-645.741	-29.596	0.201	-0.116
-644.726	36.558	-0.082	0.073
-643.711	-200.000	-0.131	-0.000
-642.697	800.000	-0.053	-0.172
-641.682	724.537	-0.145	-0.391
-640.668	-126.591	0.203	-0.030
-639.653	346.990	-0.111	0.220
-638.638	-0.865	-0.176	0.126
-637.624	-39.744	0.213	0.113
-636.609	235.429	-0.222	0.370
-635.595	429.631	-0.291	-0.635
-634.580	587.541	-0.047	0.118
-633.565	-116.164	0.251	0.047
-632.551	62.671	0.058	0.058
-631.536	25.708	0.173	-0.146
-630.522	-200.000	0.037	0.188
-629.507	-160.530	-0.031	-0.002
-628.492	72.991	-0.041	0.043
-627.478	-200.000	-0.031	0.269
-626.463	-51.923	-0.151	-0.071
-625.449	-137.895	-0.150	0.017
-624.434	111.978	0.103	0.125
-623.419	215.716	0.077	0.123
-622.405	-200.000	0.019	-0.410
-621.390	-133.774	0.282	0.035
-620.376	410.117	0.156	-0.334
-619.361	-180.274	-0.156	-0.003
-618.346	440.860	0.033	0.072
-617.332	-68.157	-0.257	0.101
-616.317	-113.026	0.188	0.038
-615.303	-51.964	-0.060	0.028
-614.288	-200.000	0.047	0.273
-613.273	760.280	0.081	0.223
-612.259	-107.694	-0.319	0.070
-611.244	5.552	-0.274	-0.204
-610.230	284.444	0.126	0.229
-609.215	205.039	0.080	-0.126
-608.201	140.216	0.101	-0.134
-607.186	-200.000	-0.062	0.308
-606.171	-78.614	0.393	-0.135
-605.157	397.030	0.093	0.195
-604.142	22.598	-0.197	-0.162
-603.128	800.000	-0.059	-0.172
-602.113	-115.149	-0.233	0.044
-601.098	391.014	-0.122	-0.255
-600.084	-111.085	-0.283	0.058
-599.069	800.000	0.067	0.187
-598.055	-4.925	-0.145	0.101
-597.040	17.431	0.202	0.161
-596.025	-167.363	-0.103	-0.004
-595.011	-96.223	-0.185	0.050
-593.996	800.000	0.094	-0.291
-592.982	35.099	-0.128	0.113
-591.967	-99.475	-0.268	-0.068
-590.952	-90.200	0.324	0.095
-589.938	59.113	-0.208	-0.206
-588.923	29.949	-0.102	-0.088
-587.909	246.752	0.086	-0.146
-586.894	-69.477	0.158	0.061
-585.879	800.000	-0.037	-0.148
-584.865	-200.000	-0.027	0.163
-583.850	385.018	-0.067	-0.138
-582.836	-155.046	-0.143	0.009
-581.821	-50.315	-0.107	-0.051
-580.806	391.537	0.218	-0.455
-579.792	800.000	-0.049	0.213
-578.777	-200.000	-0.016	-0.359
-577.763	-200.000	0.004	-0.334
-576.748	176.659	0.090	0.131
-575.733	-138.886	0.214	0.023
-574.719	185.766	-0.046	-0.068
-573.704	705.495	0.045	0.120
-572.690	32.859	0.115	-0.100
-571.675	-28.479	0.362	-0.210
-570.661	-164.441	-0.054	0.002
-569.646	-5.011	-0.039	-0.027
-568.631	-197.008	-0.267	0.002
-567.617	-20.575	-0.444	-0.275
-566.602	90.405	0.189	0.213
-565.588	-130.216	0.207	0.028
-564.573	32.323	-0.150	-0.130
-563.558	800.000	0.067	0.195
-562.544	-200.000	-0.034	0.453
-561.529	-132.126	-0.165	-0.022
-560.515	71.279	-0.301	-0.314
-559.500	-80.536	0.308	0.103
-558.485	12.851	-0.072	-0.056
-557.471	-98.367	0.172	-0.044
-556.456	29.625	-0.022	0.019
-555.442	35.667	0.172	-0.152
-554.427	499.493	0.078	0.181
-553.412	-156.454	-0.239	-0.015
-552.398	395.283	-0.059	-0.124
-551.383	454.407	-0.077	0.171
-550.369	-122.070	-0.294	0.049
-549.354	-145.072	-0.060	0.005
-548.339	519.077	0.115	0.272
-547.325	-128.761	-0.169	0.024
-546.310	313.890	-0.197	-0.372
-545.296	-121.075	0.328	-0.055
-544.281	217.333	0.015	-0.024
-543.266	-84.105	-0.365	0.117
-542.252	26.778	-0.148	-0.125
-541.237	-138.524	0.035	-0.004
-540.223	-104.322	0.142	-0.033
-539.208	214.740	-0.201	-0.320
-538.193	617.270	0.040	0.102
-537.179	50.086	0.123	-0.117
-536.164	57.119	0.133	-0.130
-535.150	136.948	0.110	0.145
-534.135	124.552	0.194	-0.245
-533.121	-200.000	-0.014	-0.188
-532.106	206.282	-0.234	0.366
-531.091	-200.000	0.026	0.153
-530.077	-7.325	0.180	-0.122
-529.062	364.648	-0.084	0.170
-528.048	-21.594	0.406	-0.249
-527.033	143.818	0.404	-0.542
-526.018	-148.363	-0.207	-0.017
-525.004	221.662	0.067	-0.109
-523.989	-61.487	-0.383	-0.162
-522.975	-85.637	-0.398	-0.124
-521.960	-32.802	0.205	0.114
-520.945	-15.402	0.277	-0.178
-519.931	26.087	0.088	-0.073
-518.916	82.843	-0.213	0.233
-517.902	275.881	-0.065	-0.116
-516.887	83.615	-0.089	-0.098
-515.872	-98.986	-0.208	0.053
-514.858	171.064	-0.078	-0.112
-513.843	0.097	0.167	0.120
-512.829	-50.672	0.223	-0.106
-511.814	-200.000	-0.041	0.321
-510.799	-200.000	0.007	0.350
-509.785	126.803	0.028	0.036
-508.770	419.425	-0.128	-0.276
-507.756	194.045	0.099	-0.151
-506.741	-152.389	-0.240	0.017
-505.726	-188.634	-0.027	-0.000
-504.712	155.672	-0.066	0.092
-503.697	-78.103	-0.260	0.090
-502.683	342.865	-0.088	0.172
-501.668	-15.177	-0.232	0.149
-500.653	-200.000	-0.032	-0.279
-499.639	121.349	-0.165	0.207
-498.624	-16.658	0.207	0.132
-497.610	-200.000	0.007	-0.156
-496.595	-147.814	0.190	-0.016
-495.581	541.067	0.104	0.249
-494.566	-53.251	-0.132	0.061
-493.551	-200.000	-0.005	-0.255
-492.537	353.035	-0.032	0.063
-491.522	-20.110	-0.130	0.081
-490.508	-77.902	-0.108	0.038
-489.493	-49.544	0.247	-0.118
-488.478	47.192	0.145	-0.135
-487.464	-200.000	-0.058	0.272
-486.449	21.820	0.077	-0.063
-485.435	170.626	0.262	-0.377
-484.420	-117.063	-0.376	-0.069
-483.405	-80.300	0.370	-0.124
-482.391	405.146	0.063	0.134
-481.376	-51.844	-0.601	0.281
-480.362	-123.040	0.148	0.024
-479.347	-159.053	-0.406	-0.023
-478.332	-87.934	0.364	0.110
-477.318	800.000	-0.062	-0.222
-476.303	-200.000	-0.017	-0.447
-475.289	471.698	0.050	-0.112
-474.274	174.767	0.094	0.136
-473.259	-46.422	0.331	0.163
-472.245	-97.790	0.255	0.066
-471.230	-55.468	0.400	0.180
-470.216	-114.012	-0.265	0.052
-469.201	-200.000	0.046	0.209
-468.186	-102.022	0.244	-0.059
-467.172	356.956	-0.174	-0.348
-466.157	-127.955	-0.320	-0.046
-465.143	51.332	-0.032	-0.030
-464.128	-79.030	-0.056	0.019
-463.113	-73.230	-0.087	-0.032
-462.099	109.694	-0.077	-0.092
-461.084	-200.000	0.035	-0.276
-460.070	26.814	0.296	-0.249
-459.055	104.929	-0.119	-0.141
-458.040	302.403	0.075	-0.139
-457.026	-124.891	-0.213	0.033
-456.011	-166.511	-0.350	0.015
-454.997	114.103	0.117	-0.143
-453.982	-110.608	-0.361	-0.075
-452.968	-22.454	-0.318	-0.193
-451.953	-19.530	-0.041	-0.025
-450.938	90.305	0.237	-0.266
-449.924	-200.000	-0.036	-0.350
-448.909	27.142	0.346	0.291
-447.895	111.246	-0.284	0.343
-446.880	-200.000	-0.048	0.342
-445.865	-83.800	0.292	0.093
-444.851	-50.499	-0.229	-0.108
-443.836	77.494	-0.025	-0.027
-442.822	14.784	0.176	-0.138
-441.807	-71.615	-0.336	-0.126
-440.792	-200.000	-0.004	0.146
-439.778	-75.515	-0.234	0.084
-438.763	800.000	-0.029	0.110
-437.749	250.356	0.150	0.255
-436.734	-65.135	-0.121	-0.049
-435.719	310.344	0.065	0.122
-434.705	-48.320	0.121	-0.059
-433.690	-121.451	-0.274	-0.046
-432.676	-142.022	0.168	0.017
-431.661	271.701	-0.030	-0.053
-430.646	-20.240	-0.122	0.075
-429.632	47.944	0.201	-0.188
-428.617	217.600	-0.155	0.247
-427.603	-190.097	0.183	0.002
-426.588	432.801	0.143	0.310
-425.573	800.000	-0.075	0.326
-424.559	800.000	-0.029	-0.117
-423.544	-32.181	0.070	-0.039
-422.530	800.000	-0.077	-0.235
-421.515	19.796	-0.070	0.056
-420.500	-41.641	0.244	-0.125
-419.486	-200.000	0.057	0.293
-418.471	721.007	-0.077	-0.204
-417.457	-19.068	-0.197	-0.122
-416.442	267.257	0.152	-0.266
-415.428	-200.000	0.051	-0.418
-414.413	3.956	0.157	-0.115
-413.398	-172.524	-0.198	-0.006
-412.384	-33.812	-0.431	0.238
-411.369	7.379	-0.102	0.077
-410.355	-133.391	-0.136	0.017
-409.340	-15.271	-0.276	0.177
-408.325	30.961	-0.139	-0.119
-407.311	188.030	-0.101	-0.150
-406.296	-159.282	0.465	0.026
-405.282	-45.879	0.094	-0.046
-404.267	-5.568	0.274	0.188
-403.252	-104.341	-0.333	-0.077
-402.238	399.126	-0.076	0.159
-401.223	-40.784	0.343	0.178
-400.209	-52.040	-0.187	0.087
-399.194	-148.321	-0.264	-0.022
-398.179	268.427	0.162	0.285
-397.165	225.266	-0.108	0.175
-396.150	-48.345	0.194	0.093
-395.136	19.964	-0.299	0.241
-394.121	163.179	-0.190	-0.267
-393.106	-53.529	0.213	-0.097
-392.092	-111.938	0.324	0.065
-391.077	-117.283	-0.294	0.053
-390.063	-200.000	-0.027	0.168
-389.048	-200.000	0.034	0.302
-388.033	-52.987	0.098	-0.045
-387.019	-200.000	-0.011	0.075
-386.004	120.576	-0.206	-0.256
-384.990	733.174	-0.059	-0.158
-383.975	-175.981	-0.429	0.011
-382.960	-116.135	-0.358	-0.067
-381.946	-45.242	-0.146	-0.073
-380.931	-20.476	0.295	0.181
-379.917	800.000	0.127	0.375
-378.902	323.829	-0.083	0.158
-377.888	-100.951	0.158	0.039
-376.873	37.017	0.218	-0.193
-375.858	133.455	-0.180	-0.232
-374.844	-128.977	-0.080	0.011
-373.829	85.311	0.395	-0.433
-372.815	-125.613	0.412	0.062
-371.800	-200.000	0.003	-0.105
-370.785	-156.522	0.202	0.013
-369.771	239.685	0.128	0.213
-368.756	-200.000	-0.105	0.463
-367.742	-44.728	0.052	-0.026
-366.727	800.000	0.014	-0.060
-365.712	800.000	0.026	-0.090
-364.698	-70.256	0.026	-0.010
-363.683	-4.509	-0.099	0.069
-362.669	-55.841	0.163	0.073
-361.654	42.870	0.266	0.242
-360.639	-9.082	-0.111	0.074
-359.625	-58.044	-0.218	0.095
-358.610	800.000	-0.029	-0.116
-357.596	-8.266	0.396	-0.266
-356.581	-200.000	0.004	-0.252
-355.566	357.913	-0.091	0.181
-354.552	-88.908	0.385	0.114
-353.537	61.097	-0.107	-0.106
-352.523	800.000	-0.096	0.294
-351.508	-153.345	-0.323	-0.022
-350.493	77.357	-0.310	-0.329
-349.479	-46.729	0.205	0.100
-348.464	50.658	-0.274	0.259
-347.450	-142.096	-0.330	0.033
-346.435	281.569	-0.084	-0.151
-345.420	-95.649	-0.174	0.047
-344.406	64.513	-0.124	0.124
-343.391	192.989	-0.053	0.081
-342.377	619.070	-0.014	-0.034
-341.362	103.849	0.068	-0.079
-340.348	180.173	-0.164	-0.240
-339.333	398.633	-0.143	0.299
-338.318	-200.000	-0.005	0.046
-337.304	-70.707	0.196	-0.074
-336.289	45.970	-0.107	0.098
-335.275	-165.656	-0.088	0.004
-334.260	-87.667	-0.177	-0.053
-333.245	-93.892	0.324	0.089
-332.231	92.752	0.118	-0.132
-331.216	163.422	0.247	0.346
-330.202	383.962	0.188	0.386
-329.187	800.000	0.051	-0.170
-328.172	-62.663	-0.291	-0.120
-327.158	150.607	0.096	0.130
-326.143	312.107	-0.164	-0.307
-325.129	40.419	-0.211	-0.190
-324.114	-181.995	0.179	0.003
-323.099	9.631	0.283	-0.214
-322.085	728.174	-0.033	0.088
-321.070	727.827	-0.075	0.199
-320.056	383.322	0.074	-0.152
-319.041	800.000	0.094	-0.381
-318.026	-200.000	0.003	-0.192
-317.012	44.825	-0.228	0.209
-315.997	-90.203	-0.233	-0.068
-314.983	-12.765	-0.345	0.224
-313.968	-30.154	0.079	-0.045
-312.953	65.415	0.286	-0.289
-311.939	24.131	-0.215	-0.177
-310.924	-21.893	0.138	0.084
-309.910	-19.696	0.152	-0.094
-308.895	111.048	-0.119	-0.143
-307.880	555.520	-0.119	0.286
-306.866	-151.561	-0.379	-0.028
-305.851	193.330	-0.145	0.219
-304.837	115.892	-0.080	0.097
-303.822	-33.514	-0.126	0.069
-302.807	-75.073	0.248	-0.088
-301.793	-85.371	0.146	0.046
-300.778	-200.000	0.001	-0.255
-299.764	1.609	0.297	-0.213
-298.749	28.986	-0.252	-0.213
-297.735	-84.109	0.219	-0.069
-296.720	-69.108	0.179	0.069
-295.705	170.115	0.268	0.382
-294.691	181.272	0.185	-0.270
-293.676	-165.797	0.203	0.009
-292.662	-52.194	0.199	-0.092
-291.647	391.851	0.193	0.400
-290.632	-200.000	0.038	0.215
-289.618	-112.792	0.451	-0.089
-288.603	-78.482	0.562	0.192
-287.589	-200.000	-0.012	0.162
-286.574	-200.000	-0.003	0.152
-285.559	151.071	0.090	-0.122
-284.545	-1.696	0.115	0.080
-283.530	-120.461	-0.240	-0.041
-282.516	123.816	0.190	-0.238
-281.501	-200.000	-0.016	-0.090
-280.486	-200.000	-0.026	-0.571
-279.472	-166.457	-0.113	0.005
-278.457	-200.000	-0.007	0.255
-277.443	-46.209	-0.111	0.055
-276.428	39.539	-0.166	-0.148
-275.413	-122.421	0.218	-0.035
-274.399	-144.057	-0.419	0.039
-273.384	554.779	-0.005	0.011
-272.370	-200.000	0.000	0.030
-271.355	-7.621	-0.156	0.105
-270.340	630.487	-0.020	0.051
-269.326	-147.217	-0.211	0.018
-268.311	-32.073	-0.233	-0.130
-267.297	-200.000	0.018	-0.111
-266.282	800.000	0.079	0.263
-265.267	800.000	0.059	0.179
-264.253	-200.000	0.054	-0.538
-263.238	-80.963	-0.047	0.015
-262.224	48.845	-0.049	0.045
-261.209	-2.656	0.217	0.151
-260.195	-80.809	-0.285	0.094
-259.180	-160.879	0.193	-0.010
-258.165	-121.730	0.237	-0.039
-257.151	800.000	0.033	0.098
-256.136	619.098	-0.087	-0.217
-255.122	-118.517	-0.063	0.011
-254.107	83.625	0.130	0.141
-253.092	-198.411	0.292	-0.002
-252.078	-21.396	0.260	-0.158
-251.063	186.628	0.078	-0.116
-250.049	-124.259	-0.639	-0.099
-249.034	-80.721	-0.331	0.109
-248.019	-196.822	-0.130	0.001
-247.005	70.403	0.324	0.333
-245.990	-67.002	0.346	0.136
-244.976	-118.489	0.049	0.009
-243.961	800.000	-0.052	0.168
-242.946	-32.231	0.502	0.279
-241.932	-110.977	-0.120	0.024
-240.917	-86.706	0.356	0.108
-239.903	76.284	-0.140	-0.147
-238.888	79.149	-0.219	0.234
-237.873	12.024	-0.182	0.139
-236.859	-69.345	0.389	0.148
-235.844	-36.484	0.182	0.097
-234.830	375.843	0.051	0.104
-233.815	-39.361	-0.427	0.223
-232.800	67.602	0.194	0.196
-231.786	800.000	0.080	-0.251
-230.771	69.634	0.060	0.061
-229.757	47.995	-0.253	0.235
-228.742	-108.095	-0.454	-0.098
-227.727	-200.000	-0.068	-0.318
-226.713	-116.391	-0.070	-0.013
-225.698	-200.000	0.030	0.217
-224.684	-125.165	0.263	0.040
-223.669	800.000	0.089	0.254
-222.655	61.620	-0.182	0.180
-221.640	-142.009	0.226	0.022
-220.625	800.000	0.066	0.264
-219.611	-200.000	0.016	0.441
-218.596	463.730	0.112	0.248
-217.582	341.509	0.046	0.089
-216.567	-200.000	0.041	-0.424
-215.552	-109.942	0.056	0.012
-214.538	-200.000	0.015	-0.106
-213.523	560.874	0.044	0.105
-212.509	113.718	-0.015	-0.018
-211.494	542.755	0.031	0.073
-210.479	800.000	0.090	0.310
-209.465	-1.804	0.281	0.196
-208.450	-82.152	0.044	-0.014
-207.436	-43.154	0.128	-0.064
-206.421	40.686	-0.218	0.195
-205.406	-147.226	-0.118	-0.010
-204.392	800.000	-0.102	-0.286
-203.377	35.299	-0.190	0.165
-202.363	-200.000	0.004	0.095
-201.348	-151.356	0.264	0.020
-200.333	224.079	0.160	-0.256
-199.319	-47.902	0.276	-0.133
-198.304	420.729	-0.160	0.341
-197.290	800.000	0.030	0.111
-196.275	-18.951	0.107	-0.066
-195.260	800.000	-0.045	0.129
-194.246	156.711	-0.088	0.120
-193.231	549.023	-0.090	-0.213
-192.217	452.680	-0.169	-0.371
-191.202	-113.823	-0.318	0.061
-190.187	800.000	-0.107	-0.399
-189.173	800.000	-0.105	-0.309
-188.158	399.774	-0.093	-0.193
-187.144	-46.239	0.500	0.244
-186.129	800.000	0.070	0.240
-185.114	95.989	0.101	-0.115
-184.100	-91.205	0.125	0.035
-183.085	-200.000	-0.002	-0.249
-182.071	718.918	0.090	-0.236
-181.056	800.000	0.054	0.186
-180.042	-111.170	0.184	-0.037
-179.027	226.018	-0.124	-0.199
-178.012	-46.479	-0.192	-0.093
-176.998	-200.000	-0.058	0.349
-175.983	248.014	0.078	-0.130
-174.969	-88.783	0.220	-0.065
-173.954	33.691	0.023	-0.019
-172.939	-131.442	-0.201	-0.026
-171.925	-200.000	-0.015	-0.298
-170.910	-111.038	-0.335	0.068
-169.896	56.667	0.181	-0.175
-168.881	37.119	0.284	0.250
-167.866	800.000	-0.030	-0.100
-166.852	-31.917	0.147	-0.081
-165.837	-122.450	0.237	-0.038
-164.823	-200.000	-0.044	0.212
-163.808	55.133	0.183	-0.175
-162.793	-16.597	0.074	-0.046
-161.779	-200.000	0.006	0.363
-160.764	-200.000	0.052	0.379
-159.750	-200.000	-0.021	0.320
-158.735	-159.191	0.245	-0.014
-157.720	302.170	-0.101	0.185
-156.706	78.113	0.148	-0.156
-155.691	-56.859	0.327	0.143
-154.677	-136.182	-0.116	-0.013
-153.662	-200.000	-0.014	-0.075
-152.647	-27.404	-0.155	0.089
-151.633	102.352	0.078	-0.090
-150.618	-137.494	0.005	0.001
-149.604	-34.865	-0.083	0.045
-148.589	-23.638	-0.197	0.117
-147.574	-200.000	-0.001	-0.012
-146.560	-200.000	-0.025	-0.213
-145.545	388.345	0.143	-0.294
-144.531	273.835	-0.081	-0.141
-143.516	-200.000	0.021	-0.218
-142.502	800.000	0.061	-0.224
-141.487	244.376	0.119	-0.199
-140.472	-26.480	0.225	-0.131
-139.458	-120.519	0.245	0.041
-138.443	43.428	0.110	0.100
-137.429	-118.252	0.403	0.071
-136.414	240.059	0.193	-0.318
-135.399	800.000	-0.132	0.363
-134.385	112.275	0.192	0.230
-133.370	800.000	0.071	-0.291
-132.356	-99.081	-0.131	-0.033
-131.341	-59.176	0.446	-0.190
-130.326	286.408	-0.110	-0.196
-129.312	139.002	-0.097	-0.127
-128.297	-23.865	-0.109	0.065
-127.283	800.000	0.016	-0.067
-126.268	-200.000	0.005	-0.289
-125.253	147.357	0.257	0.342
-124.239	367.521	-0.075	-0.150
-123.224	800.000	-0.050	-0.190
-122.210	-98.452	-0.191	0.048
