DTS Sentinel unit serial number:	SN413079Multiplexer serial number:	ORYXHardware model number:	OX4-SRSoftware version number:	ORYX F/W v4.00 Oryx Data Collector v3.7.2.0data status	okinstallation	princeton_trtdifferential loss correction	single-endedforward channel	channel 3reverse channel	N/Adate	2019/09/14time	01:12:34forward acquisition time	60.00reverse acquisition time	0.00gamma	496.2192k internal	0.2340k external	0.2340temperature offset calibration	1.0052default loss term (dB/km)	0.3790temperature slope calibration	1.0000multiplexer offset coefficient	1.0000multiplexer slope coefficient	1.0000fibre end	0.00T internal ref (°C)	26.37T ext. ref 1 (°C)	3.18T ext. ref 2 (°C)	21.40length (m)	temperature (°C)	Stokes	anti-Stokes-747.200	599.990	0.111	0.277
-746.185	217.958	-0.184	0.295
-745.171	800.000	-0.027	-0.108
-744.156	-103.271	-0.265	0.063
-743.142	-0.822	-0.167	-0.119
-742.127	800.000	0.073	0.245
-741.112	85.811	-0.220	0.243
-740.098	20.188	-0.121	-0.098
-739.083	-1.374	0.254	-0.180
-738.069	68.777	-0.137	0.141
-737.054	-108.369	0.224	0.049
-736.039	-42.842	-0.237	-0.120
-735.025	467.306	-0.101	0.226
-734.010	71.668	-0.123	-0.128
-732.996	-200.000	-0.072	-0.463
-731.981	92.583	-0.267	0.302
-730.966	-126.574	-0.151	-0.023
-729.952	-32.742	-0.222	-0.124
-728.937	279.706	0.031	0.055
-727.923	-200.000	0.034	-0.245
-726.908	-200.000	0.017	0.303
-725.894	33.496	-0.330	-0.288
-724.879	-172.940	0.310	-0.010
-723.864	-27.520	-0.171	0.099
-722.850	800.000	-0.047	0.143
-721.835	-25.504	-0.249	0.147
-720.821	-93.024	-0.286	0.080
-719.806	-185.203	-0.274	0.004
-718.791	-200.000	-0.025	0.155
-717.777	-200.000	-0.021	0.141
-716.762	-200.000	-0.020	0.120
-715.748	-55.828	0.282	0.126
-714.733	-79.143	-0.337	-0.114
-713.718	800.000	0.030	0.113
-712.704	-141.915	0.276	0.028
-711.689	-169.490	0.338	-0.012
-710.675	800.000	-0.075	-0.248
-709.660	515.790	-0.105	-0.245
-708.645	-28.419	0.312	-0.180
-707.631	-200.000	-0.045	-0.261
-706.616	-200.000	-0.015	-0.172
-705.602	-71.404	-0.185	-0.069
-704.587	210.710	-0.091	0.144
-703.572	800.000	-0.025	-0.087
-702.558	-200.000	-0.001	0.247
-701.543	-112.219	-0.180	-0.036
-700.529	-121.674	0.277	-0.046
-699.514	184.323	-0.072	-0.107
-698.499	-169.044	-0.186	-0.007
-697.485	800.000	-0.027	0.076
-696.470	-78.246	-0.357	-0.123
-695.456	-200.000	0.034	-0.157
-694.441	775.929	-0.055	-0.149
-693.426	800.000	-0.097	-0.304
-692.412	125.446	-0.189	-0.238
-691.397	173.883	-0.157	0.226
-690.383	800.000	0.075	-0.292
-689.368	358.617	-0.062	-0.124
-688.354	47.743	-0.118	0.110
-687.339	-60.146	-0.154	0.066
-686.324	79.940	0.155	0.167
-685.310	-101.932	-0.208	-0.050
-684.295	-52.856	-0.231	-0.107
-683.281	-9.367	0.229	-0.153
-682.266	72.829	-0.287	-0.300
-681.251	148.600	0.014	-0.019
-680.237	641.568	-0.043	0.110
-679.222	54.506	-0.157	0.151
-678.208	57.479	-0.303	-0.296
-677.193	-40.230	0.254	-0.132
-676.178	10.080	-0.167	-0.127
-675.164	-125.516	-0.455	0.069
-674.149	-74.575	0.272	0.098
-673.135	-38.188	0.202	-0.107
-672.120	41.798	-0.155	0.140
-671.105	42.320	-0.178	-0.162
-670.091	285.284	-0.029	0.053
-669.076	-73.682	-0.180	-0.066
-668.062	-200.000	0.015	-0.086
-667.047	84.982	-0.176	0.193
-666.032	-133.259	-0.136	-0.017
-665.018	-19.825	0.202	-0.125
-664.003	-141.427	-0.134	0.014
-662.989	-33.099	-0.546	0.303
-661.974	-25.551	0.211	-0.124
-660.959	336.869	-0.181	-0.352
-659.945	-200.000	-0.014	0.208
-658.930	27.724	-0.086	0.073
-657.916	24.707	-0.243	-0.202
-656.901	800.000	-0.041	0.164
-655.886	321.021	0.081	-0.154
-654.872	88.818	0.037	0.041
-653.857	12.501	0.061	0.047
-652.843	158.431	0.052	-0.072
-651.828	349.699	-0.131	0.258
-650.814	800.000	-0.024	0.082
-649.799	-109.143	-0.172	-0.037
-648.784	-138.915	-0.231	-0.025
-647.770	-0.025	0.341	-0.242
-646.755	38.420	0.162	-0.144
-645.741	-200.000	-0.000	0.019
-644.726	397.016	-0.119	0.248
-643.711	61.357	-0.260	0.258
-642.697	134.375	-0.201	-0.261
-641.682	-60.690	-0.249	-0.105
-640.668	209.452	-0.065	0.101
-639.653	-200.000	0.024	-0.147
-638.638	-110.886	0.156	-0.032
-637.624	-200.000	-0.003	-0.186
-636.609	4.957	-0.314	-0.231
-635.595	7.453	0.146	0.109
-634.580	-168.084	0.360	-0.014
-633.565	-192.728	-0.143	-0.001
-632.551	22.391	0.107	0.087
-631.536	-61.401	-0.370	-0.155
-630.522	41.707	-0.317	0.287
-629.507	-25.133	-0.197	-0.116
-628.492	120.439	0.231	0.287
-627.478	800.000	-0.047	-0.156
-626.463	-171.316	0.282	0.009
-625.449	-200.000	0.026	0.135
-624.434	-90.458	-0.446	0.129
-623.419	117.523	0.049	-0.060
-622.405	96.535	0.359	-0.411
-621.390	800.000	-0.046	-0.187
-620.376	-200.000	0.009	-0.543
-619.361	134.839	0.148	-0.192
-618.346	63.033	0.276	0.276
-617.332	-46.681	0.229	-0.112
-616.317	-97.116	-0.079	-0.021
-615.303	800.000	-0.046	0.161
-614.288	-200.000	0.028	-0.281
-613.273	53.183	-0.018	0.018
-612.259	48.010	-0.181	-0.169
-611.244	342.556	-0.170	-0.332
-610.230	88.984	-0.204	0.227
-609.215	-200.000	-0.043	-0.218
-608.201	109.189	-0.027	-0.032
-607.186	-200.000	-0.131	-0.658
-606.171	37.622	0.227	0.201
-605.157	101.502	-0.231	-0.269
-604.142	-111.510	-0.150	-0.030
-603.128	122.742	0.273	-0.340
-602.113	113.097	-0.137	0.166
-601.098	-102.672	-0.146	0.035
-600.084	234.778	0.125	0.206
-599.069	40.787	0.147	-0.132
-598.055	-200.000	0.006	0.037
-597.040	91.283	0.170	0.190
-596.025	76.121	-0.068	-0.072
-595.011	-15.333	0.194	0.124
-593.996	-67.407	-0.128	0.050
-592.982	-200.000	-0.057	0.287
-591.967	-200.000	0.091	0.486
-590.952	575.005	0.026	-0.064
-589.938	-122.784	-0.214	0.035
-588.923	155.963	0.106	0.146
-587.909	-103.994	0.421	-0.098
-586.894	-77.407	-0.196	-0.068
-585.879	800.000	0.035	0.148
-584.865	179.310	-0.179	-0.261
-583.850	482.578	0.231	-0.523
-582.836	20.418	0.048	-0.039
-581.821	-178.366	0.193	-0.004
-580.806	-200.000	-0.043	0.303
-579.792	-103.886	-0.163	-0.038
-578.777	-22.169	-0.172	0.104
-577.763	30.605	0.051	-0.043
-576.748	-195.355	0.116	-0.001
-575.733	-200.000	-0.046	0.325
-574.719	133.345	0.107	-0.138
-573.704	-116.953	-0.175	-0.032
-572.690	-83.875	0.288	-0.091
-571.675	-65.037	0.115	0.046
-570.661	32.555	-0.238	0.205
-569.646	-57.658	0.179	-0.078
-568.631	800.000	0.019	0.079
-567.617	-40.707	0.136	-0.070
-566.602	-200.000	-0.023	-0.206
-565.588	656.337	0.109	-0.279
-564.573	-200.000	-0.009	-0.236
-563.558	-200.000	0.013	-0.423
-562.544	386.430	0.117	-0.241
-561.529	215.819	0.014	-0.022
-560.515	-200.000	0.021	0.225
-559.500	144.323	-0.081	0.108
-558.485	251.132	-0.111	0.188
-557.471	73.136	0.159	0.165
-556.456	800.000	0.127	-0.477
-555.442	-200.000	0.038	0.400
-554.427	109.799	0.055	-0.065
-553.412	-106.398	0.307	0.068
-552.398	191.602	0.049	0.073
-551.383	14.487	0.205	-0.159
-550.369	451.263	-0.175	-0.384
-549.354	27.114	0.151	0.126
-548.339	-200.000	0.033	0.158
-547.325	183.993	0.065	0.095
-546.310	-12.907	0.123	-0.080
-545.296	-90.092	-0.175	0.051
-544.281	-200.000	-0.028	0.241
-543.266	-41.532	-0.208	-0.106
-542.252	-152.199	0.060	0.004
-541.237	296.171	0.129	0.235
-540.223	-120.090	-0.137	0.023
-539.208	-145.350	-0.162	-0.015
-538.193	-124.259	0.185	0.029
-537.179	174.924	0.046	0.066
-536.164	308.120	0.125	-0.233
-535.150	-200.000	-0.034	0.162
-534.135	467.311	-0.148	0.331
-533.121	-104.586	0.016	-0.004
-532.106	161.870	0.105	0.147
-531.091	-102.804	-0.005	0.001
-530.077	-108.756	-0.248	-0.053
-529.062	92.000	-0.186	-0.208
-528.048	-148.769	-0.331	0.027
-527.033	800.000	0.041	-0.113
-526.018	-70.355	-0.225	0.085
-525.004	-82.554	0.296	-0.095
-523.989	557.158	0.102	-0.245
-522.975	-200.000	-0.006	0.074
-521.960	109.530	0.194	0.231
-520.945	31.386	-0.345	0.295
-519.931	-175.236	0.399	-0.011
-518.916	365.840	-0.044	0.089
-517.902	435.060	-0.095	0.206
-516.887	125.620	0.089	-0.112
-515.872	-111.858	-0.188	0.038
-514.858	-80.563	-0.103	0.034
-513.843	-44.455	-0.199	0.099
-512.829	-111.369	-0.237	-0.048
-511.814	-37.652	0.195	-0.103
-510.799	-135.043	0.336	0.040
-509.785	-175.678	-0.171	-0.005
-508.770	-200.000	-0.012	0.294
-507.756	-116.471	0.272	0.050
-506.741	140.022	-0.173	0.227
-505.726	800.000	0.054	-0.161
-504.712	800.000	0.010	-0.034
-503.697	165.369	-0.039	0.055
-502.683	102.586	-0.107	-0.124
-501.668	-94.253	-0.332	-0.090
-500.653	-27.368	-0.256	0.148
-499.639	14.723	-0.226	0.175
-498.624	-25.752	0.035	-0.021
-497.610	-151.764	0.193	0.014
-496.595	800.000	-0.128	-0.376
-495.581	-46.827	0.196	-0.095
-494.566	-119.506	0.272	-0.047
-493.551	-13.542	-0.254	0.164
-492.537	-63.356	0.156	0.064
-491.522	-184.631	-0.471	-0.008
-490.508	-49.274	-0.033	0.016
-489.493	263.879	0.131	0.226
-488.478	800.000	-0.082	-0.349
-487.464	800.000	0.100	0.276
-486.449	-0.545	-0.064	-0.045
-485.435	-70.365	0.108	-0.041
-484.420	-35.819	0.149	-0.080
-483.405	800.000	-0.086	0.239
-482.391	-77.148	-0.132	0.045
-481.376	-113.909	0.145	0.028
-480.362	-44.660	0.455	-0.225
-479.347	537.234	0.086	0.202
-478.332	-11.649	0.079	-0.051
-477.318	-200.000	-0.062	-0.358
-476.303	-200.000	0.361	0.001
-475.289	-104.350	-0.114	0.026
-474.274	1.658	-0.124	0.089
-473.259	-133.930	0.372	-0.046
-472.245	-0.539	-0.320	-0.225
-471.230	-100.301	0.280	-0.069
-470.216	219.429	-0.144	0.229
-469.201	-200.000	0.030	0.262
-468.186	800.000	-0.038	-0.123
-467.172	-36.276	-0.235	0.126
-466.157	-200.000	-0.006	-0.043
-465.143	-12.181	0.155	-0.101
-464.128	1.700	-0.174	0.124
-463.113	-129.459	-0.277	-0.038
-462.099	-40.016	-0.145	-0.075
-461.084	-200.000	0.036	-0.316
-460.070	137.474	-0.352	-0.457
-459.055	-194.690	0.099	0.001
-458.040	-200.000	-0.005	-0.094
-457.026	51.044	0.118	-0.111
-456.011	-117.564	0.249	0.045
-454.997	-27.831	-0.190	0.109
-453.982	-200.000	-0.012	0.080
-452.968	-161.378	-0.295	-0.015
-451.953	-147.600	0.363	-0.030
-450.938	-65.052	-0.089	-0.036
-449.924	175.301	-0.144	-0.206
-448.909	-200.000	0.048	0.407
-447.895	-200.000	0.003	0.102
-446.880	-2.851	0.139	0.096
-445.865	800.000	-0.069	0.270
-444.851	-61.484	0.152	0.063
-443.836	57.948	0.233	-0.226
-442.822	701.374	-0.082	0.215
-441.807	-169.589	-0.162	-0.006
-440.792	-136.219	-0.183	-0.021
-439.778	575.036	0.102	-0.248
-438.763	-200.000	0.017	-0.181
-437.749	-200.000	0.060	-0.393
-436.734	211.435	-0.128	-0.200
-435.719	800.000	0.039	-0.164
-434.705	570.078	-0.115	0.276
-433.690	-200.000	-0.030	0.327
-432.676	-3.715	0.250	-0.172
-431.661	-114.824	-0.069	-0.013
-430.646	181.091	-0.173	-0.253
-429.632	31.925	0.070	0.060
-428.617	131.888	-0.164	0.209
-427.603	-72.912	-0.132	0.048
-426.588	69.811	-0.239	-0.244
-425.573	-168.583	0.117	0.004
-424.559	-6.376	0.241	-0.163
-423.544	-13.833	0.264	0.169
-422.530	150.207	0.073	0.098
-421.515	-68.778	-0.253	0.097
-420.500	-200.000	0.015	-0.239
-419.486	800.000	-0.074	0.300
-418.471	-200.000	-0.004	-0.449
-417.457	91.019	0.131	0.145
-416.442	105.617	0.204	0.238
-415.428	-158.648	-0.221	0.013
-414.413	141.910	0.198	0.260
-413.398	722.041	-0.027	0.071
-412.384	-14.012	-0.151	-0.096
-411.369	-197.182	-0.218	-0.001
-410.355	-54.499	0.154	-0.069
-409.340	-93.175	0.110	-0.030
-408.325	492.121	-0.106	-0.241
-407.311	505.765	0.107	0.245
-406.296	-200.000	0.018	-0.357
-405.282	-129.457	0.225	0.031
-404.267	357.783	-0.118	0.234
-403.252	771.731	0.097	-0.262
-402.238	-16.948	0.374	-0.234
-401.223	800.000	-0.028	0.105
-400.209	453.785	-0.199	-0.436
-399.194	800.000	0.062	-0.239
-398.179	33.295	-0.035	0.030
-397.165	-32.607	-0.454	0.250
-396.150	-60.149	0.197	0.083
-395.136	-200.000	-0.005	0.245
-394.121	-125.954	-0.133	-0.020
-393.106	-38.650	-0.266	-0.139
-392.092	544.138	0.082	0.193
-391.077	128.745	0.146	0.184
-390.063	32.431	-0.146	0.125
-389.048	-54.047	-0.340	-0.153
-388.033	34.678	-0.252	0.218
-387.019	225.502	-0.029	0.047
-386.004	800.000	-0.109	0.437
-384.990	-68.764	0.160	0.061
-383.975	-200.000	-0.010	0.198
-382.960	49.056	0.036	0.034
-381.946	-27.593	-0.227	-0.130
-380.931	61.760	0.113	-0.111
-379.917	-85.458	0.239	-0.074
-378.902	800.000	0.080	-0.321
-377.888	800.000	0.023	-0.079
-376.873	6.593	0.323	0.237
-375.858	-200.000	-0.013	-0.275
-374.844	84.329	0.205	0.222
-373.829	-26.595	0.088	0.051
-372.815	481.937	-0.154	-0.345
-371.800	614.940	0.127	0.314
-370.785	-89.768	-0.476	-0.138
-369.771	-200.000	-0.001	-0.252
-368.756	-186.425	0.259	0.004
-367.742	-120.133	0.483	0.082
-366.727	308.005	0.113	0.209
-365.712	-67.901	-0.192	0.074
-364.698	-85.679	-0.052	0.016
-363.683	-118.425	-0.142	-0.025
-362.669	90.653	0.270	-0.299
-361.654	-143.801	0.207	0.019
-360.639	-200.000	0.003	0.157
-359.625	-139.822	-0.073	-0.008
-358.610	-63.617	0.163	-0.066
-357.596	-18.053	0.200	-0.124
-356.581	-200.000	0.016	-0.246
-355.566	-39.869	0.118	0.061
-354.552	-10.986	-0.117	-0.076
-353.537	-101.211	-0.232	-0.056
-352.523	107.844	-0.147	-0.173
-351.508	334.226	0.125	-0.239
-350.493	-86.970	-0.397	-0.119
-349.479	14.533	0.336	0.259
-348.464	37.066	-0.123	-0.107
-347.450	-200.000	-0.031	-0.134
-346.435	-65.045	-0.112	-0.045
-345.420	-136.638	-0.303	-0.035
-344.406	271.250	-0.126	-0.219
-343.391	105.518	-0.229	0.267
-342.377	-13.055	-0.365	-0.234
-341.362	-159.209	0.366	0.020
-340.348	27.475	0.092	-0.076
-339.333	-47.149	0.260	-0.125
-338.318	7.525	-0.080	-0.059
-337.304	-31.759	-0.259	-0.143
-336.289	-13.916	0.176	-0.112
-335.275	-108.772	-0.180	-0.038
-334.260	-200.000	-0.001	0.066
-333.245	101.332	-0.127	0.146
-332.231	37.474	0.143	0.125
-331.216	547.060	-0.080	0.189
-330.202	-157.237	0.228	0.014
-329.187	134.874	-0.187	-0.240
-328.172	-134.329	0.065	0.008
-327.158	-3.262	-0.183	0.126
-326.143	800.000	0.050	0.176
-325.129	-197.308	-0.124	0.001
-324.114	-172.483	0.013	0.000
-323.099	-200.000	0.060	0.267
-322.085	-157.934	0.171	-0.010
-321.070	-67.100	-0.232	-0.090
-320.056	-64.151	-0.170	0.068
-319.041	-53.590	0.390	0.176
-318.026	-161.005	-0.125	0.006
-317.012	800.000	-0.111	0.399
-315.997	-149.733	-0.129	-0.010
-314.983	-111.726	-0.091	-0.018
-313.968	178.202	-0.066	0.095
-312.953	-21.741	-0.106	-0.064
-311.939	44.986	0.157	0.143
-310.924	-91.965	-0.208	0.058
-309.910	-50.843	-0.088	0.041
-308.895	283.745	0.142	-0.251
-307.880	168.008	0.097	-0.135
-306.866	136.166	-0.024	-0.031
-305.851	-2.495	0.087	0.060
-304.837	136.224	0.113	-0.145
-303.822	133.031	0.159	0.202
-302.807	128.813	-0.242	0.304
-301.793	-43.025	-0.230	0.115
-300.778	507.957	-0.136	0.311
-299.764	-140.797	0.060	-0.006
-298.749	335.077	0.145	0.277
-297.735	-127.821	-0.228	-0.032
-296.720	800.000	-0.086	0.314
-295.705	226.004	0.182	0.291
-294.691	-200.000	0.021	0.197
-293.676	-19.173	-0.134	-0.082
-292.662	-97.529	-0.223	-0.057
-291.647	269.953	-0.164	-0.283
-290.632	-43.280	0.187	0.093
-289.618	-31.253	0.539	-0.299
-288.603	800.000	-0.084	-0.231
-287.589	-168.748	0.210	0.008
-286.574	-200.000	-0.004	0.022
-285.559	-200.000	-0.031	0.304
-284.545	-200.000	-0.018	0.081
-283.530	-128.638	0.217	0.030
-282.516	492.766	-0.108	-0.244
-281.501	800.000	0.051	-0.153
-280.486	-200.000	-0.049	0.210
-279.472	476.544	-0.112	0.249
-278.457	800.000	0.030	-0.115
-277.443	-34.635	-0.217	0.117
-276.428	191.486	-0.140	-0.208
-275.413	-200.000	-0.028	0.264
-274.399	233.742	0.223	-0.361
-273.384	122.646	-0.171	0.211
-272.370	-18.631	-0.204	-0.125
-271.355	-63.312	-0.055	0.022
-270.340	-95.391	0.216	0.057
-269.326	125.314	-0.128	0.159
-268.311	323.597	0.071	0.133
-267.297	246.421	0.211	-0.351
-266.282	-185.373	0.498	-0.008
-265.267	-82.798	0.328	0.104
-264.253	61.242	0.227	0.222
-263.238	-200.000	-0.005	-0.055
-262.224	236.211	0.187	0.305
-261.209	-200.000	0.013	-0.166
-260.195	654.075	-0.106	-0.266
-259.180	-200.000	0.110	0.620
-258.165	180.408	-0.121	0.174
-257.151	99.944	0.102	-0.116
-256.136	115.221	0.188	0.226
-255.122	800.000	-0.073	0.314
-254.107	425.313	0.075	0.158
-253.092	-68.256	0.156	-0.060
-252.078	14.272	0.305	-0.234
-251.063	354.133	0.097	-0.189
-250.049	-138.980	0.351	0.037
-249.034	-84.417	0.342	-0.106
-248.019	-47.092	0.375	0.180
-247.005	800.000	-0.058	-0.196
-245.990	-77.199	-0.129	-0.044
-244.976	-69.939	-0.547	-0.205
-243.961	-7.052	0.347	0.231
-242.946	800.000	-0.073	0.217
-241.932	545.759	0.039	-0.091
-240.917	800.000	0.078	0.244
-239.903	800.000	-0.036	-0.121
-238.888	35.795	0.185	0.160
-237.873	-200.000	-0.047	-0.445
-236.859	135.324	-0.034	-0.043
-235.844	-200.000	-0.026	-0.180
-234.830	-142.422	0.249	-0.024
-233.815	749.933	0.063	-0.166
-232.800	-75.751	-0.222	-0.077
-231.786	-200.000	0.025	-0.552
-230.771	-66.228	-0.447	-0.175
-229.757	75.892	-0.087	-0.091
-228.742	800.000	-0.078	-0.265
-227.727	574.053	-0.129	0.310
-226.713	89.736	0.079	0.087
-225.698	115.799	0.223	-0.269
-224.684	-200.000	0.028	-0.187
-223.669	-131.248	0.310	0.040
-222.655	-200.000	-0.010	-0.118
-221.640	-87.902	0.336	-0.099
-220.625	-18.895	-0.091	0.056
-219.611	4.012	0.236	-0.169
-218.596	800.000	-0.043	-0.156
-217.582	800.000	0.019	0.071
-216.567	-138.009	0.244	-0.027
-215.552	177.001	-0.190	0.271
-214.538	-69.082	-0.251	0.095
-213.523	-82.827	-0.130	0.041
-212.509	-22.451	0.076	-0.045
-211.494	634.461	-0.114	0.285
-210.479	-97.947	0.231	-0.059
-209.465	-111.126	-0.153	0.031
-208.450	-136.676	-0.227	0.026
-207.436	-30.891	0.104	0.058
-206.421	-132.542	-0.052	-0.007
-205.406	54.064	-0.092	0.087
-204.392	-200.000	0.016	-0.107
-203.377	44.998	0.149	0.135
-202.363	53.094	0.307	0.288
-201.348	-95.992	-0.387	0.101
-200.333	187.598	-0.134	0.197
-199.319	-110.067	0.262	0.054
-198.304	320.482	-0.014	0.027
-197.290	372.302	-0.076	0.151
-196.275	-150.765	-0.256	0.019
-195.260	-53.176	-0.101	0.046
-194.246	-38.200	0.202	0.105
-193.231	-200.000	0.002	-0.013
-192.217	-79.830	-0.104	0.034
-191.202	800.000	-0.044	-0.118
-190.187	131.365	0.117	-0.148
-189.173	765.232	-0.104	-0.276
-188.158	-63.459	-0.293	0.118
-187.144	-200.000	0.061	0.298
-186.129	-200.000	-0.012	-0.053
-185.114	176.792	0.091	-0.129
-184.100	395.313	-0.071	0.145
-183.085	-89.910	-0.125	0.036
-182.071	615.409	-0.103	-0.252
-181.056	-200.000	-0.022	-0.300
-180.042	263.475	-0.141	-0.240
-179.027	800.000	0.022	0.066
-178.012	-85.518	0.187	-0.057
-176.998	27.734	-0.113	-0.094
-175.983	43.990	-0.129	0.116
-174.969	512.030	0.167	0.381
-173.954	25.047	-0.143	0.117
-172.939	-65.481	0.242	-0.095
-171.925	405.588	0.084	0.173
-170.910	-56.531	-0.478	0.208
-169.896	619.271	-0.087	-0.216
-168.881	-200.000	-0.002	0.043
-167.866	-200.000	-0.023	0.242
-166.852	573.971	-0.138	0.330
-165.837	-131.167	0.185	0.024
-164.823	-152.104	-0.029	-0.002
-163.808	-21.635	-0.400	-0.239
-162.793	113.083	0.110	0.131
-161.779	-200.000	-0.011	-0.208
-160.764	435.751	-0.086	0.183
-159.750	-200.000	-0.005	0.142
-158.735	121.885	0.130	0.159
-157.720	-12.851	0.308	0.196
-156.706	13.695	0.047	-0.036
-155.691	88.537	-0.250	0.272
-154.677	289.143	-0.057	0.102
-153.662	-105.755	0.111	0.025
-152.647	-100.623	-0.209	-0.051
-151.633	228.819	0.117	-0.187
-150.618	119.101	0.190	-0.231
-149.604	-181.766	-0.436	-0.008
-148.589	21.542	0.128	-0.102
-147.574	-122.433	-0.195	-0.031
-146.560	800.000	-0.074	0.244
-145.545	-104.484	0.251	0.057
-144.531	-200.000	0.018	-0.148
-143.516	487.039	0.017	0.039
-142.502	-48.303	0.270	0.127
-141.487	60.633	0.142	0.138
-140.472	-114.474	0.140	0.026
-139.458	-76.187	0.178	-0.061
-138.443	-4.263	0.058	0.039
-137.429	800.000	-0.020	-0.081
-136.414	-45.751	0.161	-0.078
-135.399	-200.000	0.003	0.142
-134.385	-116.883	-0.172	0.031
-133.370	165.679	-0.079	0.109
-132.356	101.127	0.204	0.233
-131.341	-59.770	0.185	-0.078
-130.326	800.000	0.054	0.189
-129.312	315.881	-0.071	-0.132
-128.297	17.795	-0.150	-0.117
-127.283	-143.613	-0.354	-0.033
-126.268	-123.786	0.515	0.080
-125.253	-108.769	-0.232	0.049
-124.239	-169.343	-0.403	-0.015
-123.224	-135.577	0.174	-0.020
