DTS Sentinel unit serial number:	SN413079Multiplexer serial number:	ORYXHardware model number:	OX4-SRSoftware version number:	ORYX F/W v4.00 Oryx Data Collector v3.7.2.0data status	okinstallation	princeton_trtdifferential loss correction	single-endedforward channel	channel 3reverse channel	N/Adate	2019/09/18time	21:20:35forward acquisition time	60.00reverse acquisition time	0.00gamma	496.2192k internal	0.2345k external	0.2345temperature offset calibration	0.9997default loss term (dB/km)	0.3790temperature slope calibration	1.0000multiplexer offset coefficient	1.0000multiplexer slope coefficient	1.0000fibre end	0.00T internal ref (°C)	25.62T ext. ref 1 (°C)	0.84T ext. ref 2 (°C)	18.12length (m)	temperature (°C)	Stokes	anti-Stokes-747.200	224.152	-0.198	0.321
-746.185	800.000	0.079	-0.224
-745.171	179.594	0.122	0.178
-744.156	-200.000	0.067	-0.344
-743.142	-39.256	0.275	0.145
-742.127	15.284	-0.136	0.107
-741.112	36.131	-0.132	-0.116
-740.098	188.863	0.132	0.198
-739.083	800.000	0.070	0.199
-738.069	177.828	0.054	0.079
-737.054	56.729	-0.252	-0.245
-736.039	-75.700	0.167	0.059
-735.025	-9.199	0.284	-0.190
-734.010	209.014	0.143	-0.224
-732.996	349.677	-0.151	-0.298
-731.981	-122.001	-0.455	0.075
-730.966	348.017	0.083	-0.163
-729.952	-137.022	-0.074	0.008
-728.937	-200.000	0.003	0.324
-727.923	-200.000	-0.005	-0.193
-726.908	-16.495	-0.247	0.157
-725.894	-200.000	0.028	-0.590
-724.879	-22.968	-0.213	-0.128
-723.864	-155.417	-0.325	-0.021
-722.850	522.631	0.071	-0.167
-721.835	-165.087	-0.418	-0.019
-720.821	-124.596	-0.222	0.034
-719.806	732.855	0.085	0.227
-718.791	178.103	0.116	0.169
-717.777	-72.819	0.121	-0.044
-716.762	-77.300	0.062	-0.021
-715.748	800.000	0.121	0.429
-714.733	-85.538	-0.266	-0.083
-713.718	-146.906	-0.235	-0.020
-712.704	-19.403	-0.044	0.027
-711.689	498.359	0.083	-0.191
-710.675	-21.109	-0.299	-0.183
-709.660	-200.000	-0.010	0.300
-708.645	-200.000	0.011	-0.065
-707.631	329.887	0.010	0.019
-706.616	70.876	-0.383	-0.396
-705.602	-200.000	0.002	-0.198
-704.587	-131.785	-0.109	-0.014
-703.572	-51.094	-0.406	0.190
-702.558	170.066	-0.129	-0.185
-701.543	-76.373	0.281	0.099
-700.529	-200.000	0.071	0.310
-699.514	-200.000	-0.017	0.203
-698.499	-110.065	0.392	-0.082
-697.485	-148.895	-0.191	-0.015
-696.470	-200.000	0.027	-0.490
-695.456	-66.313	0.218	0.087
-694.441	800.000	-0.190	0.648
-693.426	20.304	0.090	0.073
-692.412	-0.045	0.174	-0.124
-691.397	124.326	-0.134	0.168
-690.383	-40.233	0.112	-0.058
-689.368	319.337	0.116	0.220
-688.354	65.819	-0.092	0.093
-687.339	-46.493	-0.364	0.179
-686.324	-108.705	0.267	0.057
-685.310	65.289	-0.239	0.241
-684.295	-200.000	-0.005	0.133
-683.281	-36.095	-0.106	-0.057
-682.266	132.994	0.089	-0.115
-681.251	800.000	0.084	0.263
-680.237	800.000	0.063	-0.190
-679.222	-200.000	0.029	-0.216
-678.208	-73.659	-0.167	-0.061
-677.193	104.648	-0.124	0.145
-676.178	18.267	-0.177	-0.141
-675.164	65.670	0.150	0.152
-674.149	-31.363	0.209	0.117
-673.135	138.572	0.156	0.204
-672.120	800.000	-0.068	0.275
-671.105	800.000	-0.063	-0.219
-670.091	-74.456	-0.416	0.150
-669.076	-22.661	-0.047	0.028
-668.062	-200.000	-0.027	0.252
-667.047	80.693	0.056	-0.061
-666.032	-12.171	-0.227	0.148
-665.018	-194.269	-0.462	0.004
-664.003	-140.576	-0.205	-0.021
-662.989	167.218	-0.121	0.172
-661.974	246.576	0.168	-0.283
-660.959	-200.000	-0.003	-0.135
-659.945	-54.217	0.330	0.150
-658.930	90.429	0.092	-0.102
-657.916	-26.344	0.204	0.120
-656.901	-146.859	0.195	-0.017
-655.886	1.034	-0.120	0.086
-654.872	123.370	-0.071	0.089
-653.857	-200.000	0.044	0.381
-652.843	-32.263	0.214	0.119
-651.828	-79.350	-0.280	-0.095
-650.814	-135.145	0.242	0.029
-649.799	800.000	-0.039	-0.135
-648.784	800.000	0.044	0.128
-647.770	142.769	0.184	-0.243
-646.755	-34.731	-0.094	0.051
-645.741	78.711	0.293	0.313
-644.726	-182.271	-0.198	-0.004
-643.711	800.000	-0.010	-0.042
-642.697	80.404	-0.159	0.171
-641.682	-151.448	-0.074	0.005
-640.668	26.350	0.175	0.146
-639.653	-11.626	-0.263	0.172
-638.638	-200.000	0.065	0.316
-637.624	800.000	0.048	0.168
-636.609	235.933	-0.156	-0.258
-635.595	800.000	-0.082	-0.227
-634.580	364.497	-0.113	0.226
-633.565	-11.365	0.196	-0.129
-632.551	357.563	-0.116	-0.231
-631.536	-173.117	-0.111	0.003
-630.522	-20.983	-0.434	0.265
-629.507	181.422	0.076	-0.111
-628.492	-140.997	0.095	0.010
-627.478	-200.000	-0.041	0.478
-626.463	-155.220	0.334	0.022
-625.449	-120.805	-0.223	0.037
-624.434	-200.000	-0.033	0.161
-623.419	-200.000	-0.020	-0.122
-622.405	154.654	-0.101	0.138
-621.390	-200.000	-0.012	0.314
-620.376	-165.378	0.387	-0.017
-619.361	800.000	0.018	0.069
-618.346	-4.138	-0.015	0.010
-617.332	33.845	-0.186	-0.161
-616.317	166.742	0.028	0.040
-615.303	214.159	-0.279	0.440
-614.288	95.159	0.211	-0.240
-613.273	-200.000	0.042	-0.309
-612.259	311.853	-0.158	-0.295
-611.244	-200.000	0.076	-0.418
-610.230	369.351	0.094	-0.190
-609.215	13.352	0.226	-0.174
-608.201	-200.000	-0.010	-0.147
-607.186	-14.982	0.262	0.167
-606.171	655.328	-0.085	0.218
-605.157	800.000	0.049	-0.156
-604.142	-200.000	-0.062	0.272
-603.128	298.714	0.170	0.311
-602.113	-200.000	-0.022	-0.283
-601.098	226.546	0.087	0.140
-600.084	-135.588	-0.243	-0.029
-599.069	-200.000	0.005	-0.145
-598.055	-61.596	-0.254	-0.106
-597.040	-77.023	0.277	-0.096
-596.025	-200.000	0.024	-0.331
-595.011	765.996	0.084	0.228
-593.996	-83.790	-0.359	0.114
-592.982	-200.000	0.041	-0.252
-591.967	698.215	-0.066	-0.172
-590.952	-29.127	0.254	-0.145
-589.938	-141.745	0.102	-0.010
-588.923	-28.559	0.310	-0.177
-587.909	-136.611	-0.075	0.009
-586.894	800.000	-0.064	-0.201
-585.879	190.144	0.205	0.305
-584.865	436.287	-0.070	-0.151
-583.850	800.000	0.137	-0.389
-582.836	-94.167	0.304	0.083
-581.821	-200.000	-0.012	0.143
-580.806	-48.202	-0.425	-0.204
-579.792	-145.570	0.318	-0.028
-578.777	-174.655	0.269	-0.008
-577.763	-48.428	0.208	-0.100
-576.748	-197.645	-0.173	-0.001
-575.733	-90.512	-0.032	-0.009
-574.719	123.711	-0.011	-0.014
-573.704	-200.000	-0.004	-0.222
-572.690	52.003	-0.232	-0.220
-571.675	-113.480	0.162	-0.032
-570.661	-17.570	0.268	0.167
-569.646	218.950	-0.102	-0.162
-568.631	-200.000	-0.046	-0.369
-567.617	-96.451	-0.141	0.037
-566.602	-101.450	-0.512	0.124
-565.588	357.248	0.199	-0.394
-564.573	242.629	-0.086	0.144
-563.558	-61.714	0.187	0.078
-562.544	-118.879	0.201	0.035
-561.529	-123.311	0.137	0.022
-560.515	257.520	0.035	-0.059
-559.500	-200.000	0.006	-0.200
-558.485	-77.368	0.196	-0.068
-557.471	-129.627	-0.142	-0.019
-556.456	-200.000	-0.004	-0.122
-555.442	-36.261	0.022	-0.012
-554.427	-125.865	0.170	0.026
-553.412	-101.452	-0.303	-0.073
-552.398	-60.081	-0.124	-0.053
-551.383	800.000	0.111	0.353
-550.369	-52.260	0.085	0.039
-549.354	53.673	0.186	-0.177
-548.339	-16.078	0.124	0.078
-547.325	-7.634	0.055	0.037
-546.310	433.125	-0.105	-0.226
-545.296	-119.242	0.434	0.075
-544.281	-22.327	-0.151	-0.091
-543.266	73.199	0.066	0.068
-542.252	123.997	0.184	0.229
-541.237	116.296	-0.096	0.117
-540.223	13.301	-0.112	-0.086
-539.208	126.885	-0.062	-0.077
-538.193	800.000	0.121	-0.423
-537.179	800.000	0.074	0.313
-536.164	-14.787	-0.250	0.159
-535.150	122.120	-0.268	0.333
-534.135	-170.130	-0.379	0.013
-533.121	214.430	0.020	-0.031
-532.106	-200.000	0.018	-0.312
-531.091	-51.833	-0.221	-0.102
-530.077	-200.000	-0.060	0.273
-529.062	10.073	0.104	0.078
-528.048	-118.502	0.456	0.080
-527.033	-101.161	0.187	0.045
-526.018	26.361	-0.180	0.149
-525.004	-112.993	0.133	0.026
-523.989	-200.000	-0.056	-0.327
-522.975	-81.100	0.480	0.157
-521.960	-136.388	0.269	0.031
-520.945	-159.601	-0.163	0.009
-519.931	-200.000	0.026	0.235
-518.916	22.489	-0.164	0.133
-517.902	-200.000	0.015	0.113
-516.887	72.663	0.025	0.026
-515.872	800.000	-0.062	-0.196
-514.858	206.065	-0.096	0.148
-513.843	248.293	-0.020	0.034
-512.829	-200.000	0.006	-0.058
-511.814	800.000	0.132	0.404
-510.799	-124.474	-0.142	0.022
-509.785	77.669	0.150	0.158
-508.770	-200.000	-0.093	0.526
-507.756	288.183	-0.113	-0.202
-506.741	-127.749	0.269	-0.038
-505.726	-78.807	0.128	0.043
-504.712	800.000	-0.133	-0.407
-503.697	-51.225	-0.362	-0.168
-502.683	-43.294	-0.286	0.143
-501.668	-107.425	-0.117	0.026
-500.653	-98.551	-0.110	-0.028
-499.639	380.061	-0.199	-0.404
-498.624	-200.000	-0.150	-0.000
-497.610	1.125	-0.095	0.068
-496.595	-199.317	-0.222	-0.001
-495.581	-200.000	0.019	0.099
-494.566	-131.774	0.294	0.038
-493.551	-40.192	-0.288	-0.149
-492.537	-40.699	-0.224	0.115
-491.522	-14.277	0.141	0.090
-490.508	23.531	0.218	0.178
-489.493	-200.000	-0.015	0.077
-488.478	-125.437	-0.135	-0.020
-487.464	-148.146	-0.060	0.005
-486.449	800.000	0.079	0.231
-485.435	118.165	0.130	0.159
-484.420	-200.000	-0.006	-0.082
-483.405	16.287	-0.197	0.154
-482.391	800.000	-0.023	-0.066
-481.376	52.083	0.157	-0.148
-480.362	-52.944	-0.163	-0.074
-479.347	44.188	-0.111	-0.101
-478.332	-88.418	-0.292	-0.086
-477.318	-52.583	-0.233	0.107
-476.303	29.628	0.374	0.315
-475.289	-200.000	-0.026	-0.124
-474.274	-200.000	-0.008	-0.035
-473.259	-65.075	0.385	-0.154
-472.245	1.103	-0.095	0.068
-471.230	-200.000	-0.071	-0.382
-470.216	90.464	-0.089	-0.099
-469.201	-200.000	-0.014	-0.075
-468.186	-200.000	-0.022	0.117
-467.172	44.218	-0.108	0.098
-466.157	669.542	-0.077	0.198
-465.143	98.751	0.221	0.252
-464.128	338.421	0.116	-0.224
-463.113	-200.000	-0.007	-0.405
-462.099	748.527	-0.094	0.250
-461.084	327.112	0.023	0.044
-460.070	88.139	0.171	-0.187
-459.055	264.058	0.146	0.252
-458.040	148.766	-0.089	-0.120
-457.026	-19.378	-0.412	0.253
-456.011	-200.000	-0.025	-0.431
-454.997	-200.000	0.001	-0.067
-453.982	43.937	0.194	0.176
-452.968	103.714	0.301	0.349
-451.953	-47.397	-0.281	-0.135
-450.938	-172.154	0.276	-0.009
-449.924	-130.326	0.349	0.047
-448.909	103.303	-0.079	-0.091
-447.895	800.000	-0.072	0.217
-446.880	-18.138	-0.348	-0.216
-445.865	159.184	0.087	-0.120
-444.851	-152.725	0.177	0.012
-443.836	-200.000	0.055	-0.453
-442.822	1.118	0.133	-0.094
-441.807	376.541	0.090	-0.182
-440.792	-200.000	0.038	-0.476
-439.778	-103.795	-0.147	0.034
-438.763	135.407	0.099	0.127
-437.749	81.697	0.192	-0.206
-436.734	-200.000	0.056	-0.293
-435.719	455.048	0.088	-0.193
-434.705	-200.000	0.061	0.290
-433.690	-66.368	0.079	0.031
-432.676	-200.000	0.013	0.102
-431.661	-109.422	0.100	0.021
-430.646	75.707	-0.247	-0.258
-429.632	116.841	-0.220	0.266
-428.617	776.535	-0.186	0.502
-427.603	435.873	-0.170	0.366
-426.588	-200.000	-0.015	0.099
-425.573	-200.000	-0.035	-0.180
-424.559	-200.000	-0.073	0.336
-423.544	211.828	0.033	0.051
-422.530	800.000	-0.031	0.097
-421.515	-200.000	-0.033	-0.335
-420.500	800.000	0.075	0.235
-419.486	-43.525	0.095	-0.047
-418.471	434.210	-0.100	0.216
-417.457	4.751	-0.059	0.043
-416.442	216.233	0.118	-0.185
-415.428	800.000	-0.041	-0.161
-414.413	-47.123	-0.184	-0.089
-413.398	98.708	-0.258	0.294
-412.384	-200.000	-0.002	-0.049
-411.369	-200.000	-0.001	0.039
-410.355	79.802	0.201	-0.214
-409.340	-164.698	-0.474	0.021
-408.325	-162.755	-0.116	0.006
-407.311	729.232	0.029	0.077
-406.296	242.492	-0.109	0.180
-405.282	71.912	0.310	-0.319
-404.267	312.908	0.154	-0.286
-403.252	-20.857	0.143	0.087
-402.238	-172.537	-0.205	-0.006
-401.223	800.000	0.058	0.174
-400.209	-121.171	-0.326	0.054
-399.194	283.047	-0.137	-0.243
-398.179	800.000	-0.035	0.139
-397.165	-183.934	0.082	0.001
-396.150	-79.625	-0.240	0.080
-395.136	-68.349	0.408	0.157
-394.121	-148.488	-0.315	-0.025
-393.106	-169.817	-0.143	0.005
-392.092	-62.626	0.323	0.132
-391.077	800.000	-0.041	-0.150
-390.063	-89.128	-0.183	-0.053
-389.048	557.826	-0.101	-0.241
-388.033	800.000	-0.125	-0.383
-387.019	-200.000	-0.036	-0.251
-386.004	109.989	0.172	0.204
-384.990	-200.000	0.010	0.059
-383.975	800.000	0.081	0.333
-382.960	-84.784	-0.159	-0.049
-381.946	219.689	0.065	0.102
-380.931	276.300	0.178	0.312
-379.917	-107.681	-0.148	-0.032
-378.902	62.388	-0.144	0.142
-377.888	-92.871	0.148	-0.041
-376.873	800.000	-0.034	0.096
-375.858	-109.564	0.268	-0.056
-374.844	131.299	-0.165	0.210
-373.829	-78.720	-0.220	-0.074
-372.815	-200.000	-0.078	0.364
-371.800	-58.607	0.194	0.083
-370.785	59.093	-0.168	0.163
-369.771	114.580	0.061	0.074
-368.756	-18.169	-0.191	-0.118
-367.742	-171.121	0.072	-0.002
-366.727	-200.000	-0.046	0.251
-365.712	-200.000	-0.002	-0.008
-364.698	800.000	-0.035	-0.116
-363.683	40.544	-0.173	-0.154
-362.669	-200.000	-0.028	0.137
-361.654	-95.194	0.255	-0.068
-360.639	589.599	-0.163	-0.397
-359.625	-55.209	-0.135	0.060
-358.610	69.532	0.035	-0.036
-357.596	437.933	-0.078	-0.167
-356.581	446.287	0.035	-0.076
-355.566	800.000	-0.039	0.124
-354.552	-150.769	-0.180	-0.013
-353.537	-200.000	0.020	0.183
-352.523	174.775	0.156	-0.222
-351.508	-200.000	-0.032	0.178
-350.493	-129.438	-0.224	0.031
-349.479	509.585	0.179	-0.409
-348.464	-56.461	0.346	-0.151
-347.450	-200.000	0.041	0.253
-346.435	-200.000	0.055	0.336
-345.420	-200.000	0.054	-0.272
-344.406	15.120	0.097	0.075
-343.391	15.993	-0.220	0.171
-342.377	-139.270	-0.164	-0.017
-341.362	-200.000	0.021	0.176
-340.348	-200.000	-0.012	-0.449
-339.333	332.687	-0.151	0.287
-338.318	-33.491	-0.117	0.064
-337.304	-79.437	-0.124	0.041
-336.289	-9.400	0.307	0.202
-335.275	-11.769	-0.014	-0.009
-334.260	193.429	-0.262	0.391
-333.245	284.054	-0.087	0.154
-332.231	-200.000	0.023	-0.329
-331.216	24.387	-0.134	0.109
-330.202	46.852	0.217	0.198
-329.187	-14.808	0.210	0.133
-328.172	129.547	0.135	-0.170
-327.158	355.356	-0.089	0.175
-326.143	-59.530	-0.045	-0.019
-325.129	-84.254	0.297	0.093
-324.114	87.102	-0.263	0.286
-323.099	-100.467	-0.122	0.030
-322.085	-45.606	0.189	0.092
-321.070	800.000	-0.027	-0.073
-320.056	146.318	0.232	0.307
-319.041	72.157	0.243	0.249
-318.026	66.414	-0.298	-0.298
-317.012	-124.753	0.260	0.040
-315.997	-200.000	0.449	-0.002
-314.983	1.073	-0.098	0.069
-313.968	-200.000	-0.023	-0.307
-312.953	77.888	0.187	0.196
-311.939	96.599	0.349	0.393
-310.924	-21.558	0.021	-0.013
-309.910	-75.423	-0.474	-0.166
-308.895	138.442	0.195	0.251
-307.880	-200.000	0.018	0.205
-306.866	-131.219	0.183	0.024
-305.851	178.351	-0.022	0.032
-304.837	-200.000	0.010	0.207
-303.822	2.678	0.043	-0.030
-302.807	19.129	0.156	-0.123
-301.793	-200.000	0.013	0.350
-300.778	-110.369	0.196	-0.040
-299.764	-110.195	0.169	-0.035
-298.749	-200.000	0.055	-0.237
-297.735	-10.210	-0.110	-0.072
-296.720	468.597	-0.103	0.228
-295.705	165.504	-0.128	0.178
-294.691	-127.449	-0.300	-0.043
-293.676	-200.000	0.005	0.072
-292.662	-27.943	0.267	-0.152
-291.647	-61.547	-0.159	-0.065
-290.632	128.950	0.075	0.094
-289.618	-200.000	-0.002	-0.118
-288.603	193.124	-0.050	0.074
-287.589	40.921	0.098	-0.087
-286.574	50.287	0.045	-0.041
-285.559	218.360	-0.038	0.059
-284.545	-92.634	-0.310	-0.086
-283.530	-112.431	-0.064	-0.013
-282.516	800.000	-0.020	0.056
-281.501	205.496	-0.087	-0.132
-280.486	115.885	-0.083	-0.099
-279.472	-55.948	0.114	0.050
-278.457	142.932	0.093	-0.122
-277.443	-200.000	-0.034	0.190
-276.428	130.992	0.226	0.284
-275.413	274.448	0.031	0.054
-274.399	-200.000	0.016	-0.344
-273.384	-42.161	-0.061	-0.030
-272.370	-34.817	0.084	-0.045
-271.355	-146.540	0.099	0.008
-270.340	-200.000	-0.002	0.115
-269.326	-54.879	-0.059	-0.026
-268.311	-58.428	-0.088	-0.038
-267.297	363.284	0.057	0.113
-266.282	57.422	-0.099	-0.095
-265.267	-94.793	0.361	-0.096
-264.253	-200.000	0.009	-0.250
-263.238	-65.514	0.065	0.026
-262.224	-113.071	-0.145	0.028
-261.209	48.170	-0.318	-0.292
-260.195	-46.587	0.237	-0.114
-259.180	-127.878	0.302	0.043
-258.165	748.821	-0.170	-0.450
-257.151	-10.340	0.146	0.095
-256.136	-66.786	-0.273	-0.106
-255.122	124.663	0.154	-0.191
-254.107	121.756	-0.165	-0.202
-253.092	-9.520	-0.217	-0.142
-252.078	127.551	-0.289	0.360
-251.063	454.532	0.131	-0.286
-250.049	-19.162	-0.091	-0.055
-249.034	6.977	0.331	-0.242
-248.019	-200.000	-0.040	-0.481
-247.005	-56.525	-0.272	0.118
-245.990	800.000	-0.083	0.264
-244.976	267.870	0.147	0.253
-243.961	9.826	-0.280	-0.209
-242.946	349.365	-0.094	-0.182
-241.932	-27.262	-0.240	0.137
-240.917	259.437	0.068	0.115
-239.903	800.000	0.127	0.368
-238.888	705.359	0.060	0.157
-237.873	12.817	0.290	0.220
-236.859	356.573	-0.192	-0.376
-235.844	-178.495	0.078	0.002
-234.830	-152.097	0.212	-0.015
-233.815	-64.510	0.123	0.049
-232.800	-85.269	-0.088	0.027
-231.786	-88.922	-0.149	-0.043
-230.771	-200.000	0.017	0.308
-229.757	-42.321	0.362	0.181
-228.742	-200.000	-0.017	-0.287
-227.727	283.077	-0.036	-0.063
-226.713	-140.976	-0.465	0.047
-225.698	-200.000	-0.033	-0.154
-224.684	-35.740	-0.448	-0.238
-223.669	-200.000	-0.014	-0.086
-222.655	-200.000	0.009	0.197
-221.640	-200.000	0.041	0.189
-220.625	-33.516	0.227	-0.123
-219.611	16.308	-0.175	-0.136
-218.596	304.127	0.042	-0.077
-217.582	46.635	-0.110	0.100
-216.567	116.678	0.283	-0.341
-215.552	-94.724	0.163	-0.043
-214.538	-151.261	-0.104	0.008
-213.523	-73.281	-0.102	0.037
-212.509	-13.504	-0.226	-0.144
-211.494	-92.306	0.170	-0.047
-210.479	-173.700	0.090	-0.003
-209.465	481.226	-0.174	-0.387
-208.450	91.516	0.114	-0.125
-207.436	144.053	-0.197	-0.258
-206.421	800.000	0.040	0.161
-205.406	-30.013	0.047	-0.026
-204.392	-200.000	0.018	-0.119
-203.377	-200.000	0.029	0.125
-202.363	57.136	-0.093	-0.089
-201.348	-68.439	0.269	0.102
-200.333	-74.856	-0.371	0.130
-199.319	-79.338	0.265	0.088
-198.304	-200.000	-0.009	-0.170
-197.290	49.498	-0.193	-0.178
-196.275	587.760	-0.161	-0.388
-195.260	800.000	-0.097	0.308
-194.246	65.027	0.332	0.328
-193.231	-121.310	-0.241	-0.039
-192.217	-74.001	-0.122	0.043
-191.202	742.078	0.070	-0.183
-190.187	-49.576	0.081	0.038
-189.173	-114.461	-0.180	0.034
-188.158	-129.063	0.149	0.020
-187.144	-77.780	-0.200	0.068
-186.129	776.039	0.066	-0.176
-185.114	76.324	0.211	0.218
-184.100	-137.021	0.173	0.019
-183.085	-105.967	0.244	0.054
-182.071	206.933	-0.044	0.067
-181.056	-15.519	0.231	0.144
-180.042	-134.192	0.313	0.038
-179.027	351.745	-0.055	-0.106
-178.012	-148.055	0.212	-0.017
-176.998	-19.239	-0.259	0.158
-175.983	-65.463	0.334	0.131
-174.969	800.000	-0.044	-0.128
-173.954	-121.998	-0.324	-0.052
-172.939	-67.285	0.133	-0.051
-171.925	-35.156	-0.180	0.096
-170.910	57.886	-0.082	0.079
-169.896	-28.077	0.115	0.065
-168.881	-200.000	-0.067	-0.387
-167.866	0.629	-0.163	0.114
-166.852	800.000	-0.175	0.533
-165.837	-93.347	0.093	0.025
-164.823	603.586	-0.051	-0.125
-163.808	6.106	0.088	-0.064
-162.793	-200.000	0.047	0.211
-161.779	-200.000	-0.016	-0.095
-160.764	-56.929	0.187	0.081
-159.750	245.774	0.092	0.151
-158.735	541.142	-0.174	-0.405
-157.720	-200.000	0.074	0.369
-156.706	-155.897	0.377	0.023
-155.691	215.494	0.073	-0.113
-154.677	-200.000	0.014	0.199
-153.662	186.348	-0.221	-0.321
-152.647	-200.000	0.081	-0.478
-151.633	328.051	0.058	0.109
-150.618	-26.565	-0.071	-0.041
-149.604	800.000	0.069	0.204
-148.589	336.984	0.068	-0.129
-147.574	50.301	0.308	-0.285
-146.560	-200.000	0.003	-0.112
-145.545	-200.000	-0.038	0.318
-144.531	-38.472	-0.252	0.130
-143.516	-152.228	-0.091	0.006
-142.502	73.044	0.226	-0.231
-141.487	1.365	0.100	-0.070
-140.472	-200.000	0.014	0.063
-139.458	-26.601	-0.268	-0.154
-138.443	-42.912	0.111	0.055
-137.429	-79.734	0.398	0.131
-136.414	146.532	-0.084	-0.110
-135.399	-14.501	0.079	-0.050
-134.385	-62.557	-0.227	-0.092
-133.370	-109.447	0.288	-0.060
-132.356	-200.000	-0.005	0.076
-131.341	-103.861	0.305	0.070
-130.326	74.744	-0.384	0.394
-129.312	-86.198	-0.195	0.059
-128.297	-143.466	-0.118	0.011
-127.283	-114.701	0.317	0.059
-126.268	-200.000	0.010	0.120
-125.253	-200.000	-0.004	0.219
-124.239	-67.883	-0.047	-0.018
-123.224	800.000	-0.110	0.318
-122.210	114.191	0.217	-0.258
