DTS Sentinel unit serial number:	SN413079Multiplexer serial number:	ORYXHardware model number:	OX4-SRSoftware version number:	ORYX F/W v4.00 Oryx Data Collector v3.7.2.0data status	okinstallation	princeton_trtdifferential loss correction	single-endedforward channel	channel 3reverse channel	N/Adate	2019/09/13time	21:52:35forward acquisition time	60.00reverse acquisition time	0.00gamma	496.2192k internal	0.2334k external	0.2334temperature offset calibration	1.0052default loss term (dB/km)	0.3790temperature slope calibration	1.0000multiplexer offset coefficient	1.0000multiplexer slope coefficient	1.0000fibre end	0.00T internal ref (°C)	28.06T ext. ref 1 (°C)	3.05T ext. ref 2 (°C)	22.66length (m)	temperature (°C)	Stokes	anti-Stokes-747.200	-119.190	0.230	0.040
-746.185	98.439	0.200	0.232
-745.171	-124.378	0.233	0.037
-744.156	497.618	0.057	0.132
-743.142	-94.783	0.252	0.069
-742.127	541.168	0.158	0.378
-741.112	-109.621	0.071	-0.015
-740.098	161.058	-0.150	0.211
-739.083	800.000	-0.056	0.189
-738.069	139.739	-0.095	-0.126
-737.054	-23.630	-0.210	-0.126
-736.039	800.000	-0.030	0.089
-735.025	-40.733	-0.136	0.071
-734.010	-200.000	-0.037	-0.314
-732.996	-128.394	-0.120	-0.017
-731.981	800.000	-0.046	0.156
-730.966	53.157	0.125	-0.120
-729.952	94.490	-0.048	0.054
-728.937	800.000	-0.142	0.562
-727.923	-37.615	0.168	-0.090
-726.908	-169.556	-0.042	0.002
-725.894	-93.970	-0.102	-0.028
-724.879	17.626	-0.282	0.225
-723.864	-57.499	-0.152	-0.067
-722.850	-123.594	0.402	0.064
-721.835	174.418	-0.069	-0.101
-720.821	488.548	-0.021	-0.049
-719.806	-156.311	0.167	-0.011
-718.791	-111.596	-0.157	0.032
-717.777	117.803	-0.242	0.300
-716.762	-200.000	0.021	0.116
-715.748	265.978	0.178	0.311
-714.733	12.005	-0.086	-0.066
-713.718	111.990	-0.276	-0.335
-712.704	22.343	0.296	-0.242
-711.689	-197.216	-0.162	0.001
-710.675	70.825	0.222	0.230
-709.660	-101.637	0.392	0.096
-708.645	-143.934	-0.230	0.022
-707.631	759.919	0.029	0.079
-706.616	449.607	-0.195	0.431
-705.602	-25.938	0.282	0.167
-704.587	-24.197	-0.189	0.113
-703.572	529.827	0.092	0.217
-702.558	-88.137	-0.333	0.100
-701.543	800.000	0.061	-0.180
-700.529	-3.694	0.392	-0.273
-699.514	44.525	-0.075	-0.069
-698.499	-60.239	-0.194	-0.083
-697.485	153.036	0.169	-0.231
-696.470	564.085	0.071	0.172
-695.456	77.651	-0.133	0.142
-694.441	800.000	0.023	-0.064
-693.426	800.000	0.068	-0.282
-692.412	-200.000	0.049	0.334
-691.397	-200.000	-0.006	-0.112
-690.383	-200.000	-0.007	0.141
-689.368	-83.731	0.120	0.038
-688.354	800.000	0.106	-0.340
-687.339	-51.976	0.429	-0.200
-686.324	-89.575	-0.436	0.128
-685.310	-200.000	0.005	0.289
-684.295	-132.970	0.116	0.015
-683.281	-105.457	-0.118	0.027
-682.266	48.406	-0.215	-0.202
-681.251	-200.000	-0.039	0.329
-680.237	-34.582	-0.061	-0.033
-679.222	-200.000	0.009	-0.390
-678.208	148.119	0.086	0.116
-677.193	41.358	0.274	-0.248
-676.178	-157.746	-0.297	0.018
-675.164	-123.645	0.246	-0.039
-674.149	93.793	0.204	-0.232
-673.135	-193.926	-0.213	-0.002
-672.120	149.471	-0.119	-0.162
-671.105	85.272	0.084	-0.093
-670.091	-200.000	-0.005	0.051
-669.076	800.000	0.055	-0.224
-668.062	234.332	-0.135	-0.223
-667.047	94.652	0.100	0.114
-666.032	335.912	-0.045	0.088
-665.018	414.399	-0.121	0.258
-664.003	-200.000	0.006	-0.065
-662.989	-139.389	-0.103	0.011
-661.974	-200.000	-0.022	-0.198
-660.959	214.876	-0.084	0.134
-659.945	-190.170	0.222	-0.002
-658.930	-49.888	0.255	-0.121
-657.916	-52.347	-0.207	-0.096
-656.901	78.037	0.210	0.224
-655.886	-200.000	0.058	0.314
-654.872	800.000	0.073	0.288
-653.857	120.815	-0.133	-0.165
-652.843	151.068	-0.062	0.084
-651.828	-200.000	0.006	-0.244
-650.814	-18.846	-0.157	-0.098
-649.799	85.400	0.073	0.080
-648.784	-160.951	-0.321	0.017
-647.770	800.000	0.034	-0.117
-646.755	131.579	0.054	0.070
-645.741	5.308	0.201	0.148
-644.726	148.386	-0.109	-0.147
-643.711	-97.486	0.240	0.062
-642.697	45.528	-0.090	-0.083
-641.682	-200.000	0.029	0.189
-640.668	-121.733	-0.393	-0.065
-639.653	800.000	-0.027	-0.089
-638.638	-112.252	0.193	-0.039
-637.624	-94.904	-0.198	0.054
-636.609	-125.843	-0.188	0.028
-635.595	-116.676	0.208	0.038
-634.580	-137.555	0.017	-0.002
-633.565	50.408	0.160	-0.151
-632.551	61.235	-0.143	0.142
-631.536	-72.232	0.138	-0.051
-630.522	4.393	0.166	-0.122
-629.507	-200.000	-0.042	-0.293
-628.492	7.652	-0.443	0.332
-627.478	777.923	-0.073	-0.200
-626.463	-59.920	-0.222	0.095
-625.449	-138.367	-0.263	0.029
-624.434	567.836	-0.100	-0.244
-623.419	-89.989	-0.118	0.034
-622.405	-155.205	-0.386	-0.025
-621.390	208.777	0.172	0.268
-620.376	800.000	-0.062	-0.232
-619.361	800.000	-0.059	0.202
-618.346	-92.883	0.112	-0.031
-617.332	-200.000	-0.011	-0.380
-616.317	34.836	0.191	-0.167
-615.303	-200.000	0.053	-0.248
-614.288	-200.000	0.009	0.181
-613.273	-87.468	0.227	-0.069
-612.259	488.047	0.154	-0.353
-611.244	-46.477	-0.291	0.143
-610.230	-100.834	0.243	0.060
-609.215	-63.991	-0.208	0.085
-608.201	-83.972	0.312	-0.099
-607.186	-58.818	-0.222	-0.096
-606.171	4.268	-0.223	-0.163
-605.157	-200.000	0.015	-0.131
-604.142	-60.763	-0.196	-0.083
-603.128	137.805	-0.086	0.112
-602.113	800.000	-0.022	-0.093
-601.098	-99.619	-0.130	-0.033
-600.084	-58.489	0.226	-0.098
-599.069	313.651	0.092	0.174
-598.055	-168.890	0.103	-0.004
-597.040	-58.564	-0.277	0.120
-596.025	57.740	0.158	-0.155
-595.011	218.214	0.224	0.357
-593.996	41.224	0.253	-0.229
-592.982	79.127	0.175	-0.187
-591.967	-57.648	0.224	0.098
-590.952	-107.443	0.165	-0.036
-589.938	51.770	-0.137	-0.130
-588.923	36.341	-0.232	-0.204
-587.909	54.870	-0.342	-0.330
-586.894	-35.287	-0.205	-0.111
-585.879	800.000	-0.114	-0.346
-584.865	-81.561	-0.211	-0.069
-583.850	290.985	-0.153	0.278
-582.836	800.000	0.041	-0.157
-581.821	105.127	0.160	-0.189
-580.806	-200.000	0.023	0.438
-579.792	768.339	0.063	-0.172
-578.777	592.605	-0.019	0.047
-577.763	800.000	-0.047	0.190
-576.748	35.121	0.165	-0.144
-575.733	800.000	-0.071	0.205
-574.719	-93.418	0.098	-0.027
-573.704	131.084	0.088	-0.113
-572.690	-200.000	0.041	-0.215
-571.675	-47.030	0.300	0.146
-570.661	287.507	0.181	0.327
-569.646	174.165	0.179	-0.258
-568.631	800.000	-0.034	-0.111
-567.617	44.611	-0.336	-0.308
-566.602	-88.347	-0.243	0.072
-565.588	72.301	-0.180	0.187
-564.573	10.356	0.293	-0.223
-563.558	-200.000	0.016	-0.170
-562.544	-200.000	0.019	0.212
-561.529	30.851	-0.209	0.179
-560.515	628.387	-0.060	0.152
-559.500	111.523	0.052	0.062
-558.485	-200.000	-0.034	0.167
-557.471	-75.784	0.072	0.025
-556.456	551.792	-0.060	-0.145
-555.442	-155.784	0.130	0.008
-554.427	226.444	-0.202	0.327
-553.412	210.761	-0.090	-0.141
-552.398	177.215	-0.146	0.212
-551.383	-31.811	-0.188	-0.105
-550.369	329.333	0.121	-0.231
-549.354	-116.887	-0.219	-0.040
-548.339	-176.151	0.213	-0.006
-547.325	-139.873	-0.008	0.001
-546.310	-93.387	0.234	-0.065
-545.296	-41.389	0.332	0.171
-544.281	-11.988	0.287	-0.188
-543.266	-40.748	-0.243	0.126
-542.252	-200.000	0.035	-0.159
-541.237	-200.000	-0.004	-0.213
-540.223	800.000	-0.044	0.158
-539.208	246.313	0.126	0.211
-538.193	-139.290	-0.519	-0.056
-537.179	176.342	0.198	0.286
-536.164	325.751	-0.122	0.233
-535.150	-200.000	-0.062	-0.289
-534.135	89.786	0.076	-0.085
-533.121	-200.000	0.035	0.358
-532.106	15.652	0.243	-0.191
-531.091	-118.265	0.321	0.057
-530.077	-69.505	-0.315	-0.120
-529.062	671.129	-0.103	0.266
-528.048	-200.000	0.037	0.208
-527.033	-200.000	-0.000	-0.101
-526.018	-69.540	0.119	-0.045
-525.004	800.000	0.043	-0.131
-523.989	219.174	0.058	0.092
-522.975	-200.000	-0.072	-0.492
-521.960	-200.000	0.032	-0.187
-520.945	465.739	0.135	0.301
-519.931	502.115	0.062	0.143
-518.916	-16.884	0.058	0.037
-517.902	167.273	-0.049	0.069
-516.887	-123.544	-0.091	0.014
-515.872	318.903	0.022	0.042
-514.858	-97.654	-0.278	-0.072
-513.843	-149.079	-0.131	0.010
-512.829	167.803	-0.122	0.173
-511.814	-29.386	0.152	0.087
-510.799	38.328	-0.187	0.166
-509.785	-200.000	-0.061	0.355
-508.770	-200.000	-0.014	0.206
-507.756	-58.726	0.123	0.053
-506.741	33.744	0.164	-0.142
-505.726	-200.000	0.063	-0.433
-504.712	800.000	0.072	0.213
-503.697	-200.000	-0.064	-0.311
-502.683	34.180	0.244	-0.212
-501.668	381.891	0.159	-0.325
-500.653	-39.859	0.185	-0.096
-499.639	-122.720	0.192	0.031
-498.624	442.927	-0.161	-0.351
-497.610	-157.207	-0.213	-0.013
-496.595	16.534	0.259	-0.203
-495.581	241.527	-0.125	-0.208
-494.566	800.000	-0.044	0.130
-493.551	-32.512	-0.415	0.230
-492.537	-10.789	0.087	-0.057
-491.522	800.000	0.035	0.105
-490.508	800.000	-0.097	0.290
-489.493	-96.083	-0.078	0.021
-488.478	-0.536	-0.214	0.151
-487.464	-200.000	0.111	0.543
-486.449	-200.000	0.014	-0.274
-485.435	-64.099	0.146	0.059
-484.420	800.000	-0.062	0.204
-483.405	26.720	-0.095	-0.079
-482.391	-73.630	-0.203	0.073
-481.376	61.012	-0.252	-0.249
-480.362	437.180	-0.172	0.374
-479.347	503.696	0.058	-0.134
-478.332	-111.815	-0.263	0.053
-477.318	560.234	-0.076	0.182
-476.303	800.000	-0.066	-0.231
-475.289	-70.983	0.333	0.125
-474.274	47.802	-0.157	-0.146
-473.259	-85.913	-0.298	0.092
-472.245	-200.000	-0.018	-0.262
-471.230	281.278	-0.014	0.025
-470.216	-89.029	-0.245	0.072
-469.201	800.000	-0.023	0.069
-468.186	26.450	-0.183	-0.152
-467.172	-33.676	-0.185	-0.101
-466.157	-200.000	-0.068	0.304
-465.143	-149.826	-0.172	0.013
-464.128	-69.561	-0.299	-0.114
-463.113	383.956	-0.088	0.181
-462.099	55.160	0.031	-0.030
-461.084	394.394	-0.073	0.151
-460.070	800.000	0.051	-0.203
-459.055	-57.541	0.148	0.065
-458.040	45.608	0.227	0.208
-457.026	10.638	-0.318	-0.241
-456.011	47.128	-0.181	-0.167
-454.997	60.067	-0.130	-0.127
-453.982	265.708	0.244	-0.423
-452.968	-76.060	0.224	0.079
-451.953	18.369	-0.276	-0.219
-450.938	-34.076	-0.181	-0.099
-449.924	-200.000	0.006	0.028
-448.909	231.202	-0.266	0.433
-447.895	165.541	-0.179	-0.252
-446.880	37.843	-0.113	-0.100
-445.865	-200.000	0.086	-0.391
-444.851	-53.590	0.073	0.033
-443.836	800.000	0.078	0.223
-442.822	800.000	-0.057	0.238
-441.807	-74.320	0.211	0.076
-440.792	-67.393	-0.440	0.172
-439.778	278.663	-0.055	0.097
-438.763	-111.012	0.168	-0.034
-437.749	5.814	0.210	-0.154
-436.734	-200.000	0.032	-0.255
-435.719	179.569	-0.188	-0.274
-434.705	3.113	0.238	-0.172
-433.690	178.127	0.085	-0.123
-432.676	-46.772	-0.295	-0.143
-431.661	68.556	-0.084	0.086
-430.646	414.617	-0.055	-0.115
-429.632	178.231	-0.120	-0.174
-428.617	122.761	-0.156	0.194
-427.603	40.876	-0.152	-0.136
-426.588	107.446	0.198	0.234
-425.573	179.668	0.144	0.209
-424.559	25.543	0.066	-0.054
-423.544	-81.021	-0.164	-0.054
-422.530	8.940	0.176	0.131
-421.515	-200.000	-0.006	0.198
-420.500	-106.992	-0.207	0.045
-419.486	-196.034	-0.234	-0.002
-418.471	-200.000	-0.020	0.172
-417.457	-136.312	0.168	-0.019
-416.442	-139.374	-0.242	-0.026
-415.428	-130.348	-0.115	-0.015
-414.413	135.309	0.191	-0.246
-413.398	239.320	0.088	-0.145
-412.384	63.226	0.241	0.239
-411.369	-84.385	0.268	0.084
-410.355	78.730	0.129	-0.137
-409.340	76.513	-0.113	0.119
-408.325	-90.834	-0.060	0.017
-407.311	-81.501	0.171	0.056
-406.296	327.014	-0.112	-0.213
-405.282	-200.000	-0.009	0.180
-404.267	-36.206	-0.095	-0.051
-403.252	-1.556	0.103	0.072
-402.238	-52.311	0.149	-0.068
-401.223	159.019	0.108	-0.148
-400.209	-64.162	-0.112	-0.045
-399.194	31.458	0.100	0.085
-398.179	-199.307	-0.074	-0.000
-397.165	148.889	0.170	-0.228
-396.150	800.000	-0.089	0.300
-395.136	148.494	-0.107	0.144
-394.121	-66.804	0.305	0.119
-393.106	347.037	0.121	0.236
-392.092	652.252	-0.052	0.132
-391.077	262.860	-0.034	0.059
-390.063	-55.082	-0.070	0.031
-389.048	-42.136	0.116	-0.059
-388.033	-129.384	0.290	-0.040
-387.019	-200.000	-0.041	-0.246
-386.004	-104.741	0.039	-0.009
-384.990	272.254	0.140	-0.246
-383.975	490.180	0.031	-0.071
-382.960	-186.082	-0.194	0.003
-381.946	9.058	0.015	-0.012
-380.931	-200.000	-0.008	0.146
-379.917	392.143	-0.077	0.159
-378.902	-91.308	0.014	-0.004
-377.888	-200.000	0.019	0.188
-376.873	62.090	0.151	-0.149
-375.858	31.743	-0.143	0.122
-374.844	-200.000	-0.010	-0.096
-373.829	-200.000	0.001	0.081
-372.815	-125.809	-0.153	-0.023
-371.800	-21.611	0.082	0.049
-370.785	-61.965	-0.326	-0.135
-369.771	-200.000	-0.033	0.164
-368.756	-23.716	0.206	-0.122
-367.742	-72.720	0.195	0.071
-366.727	48.145	0.161	-0.149
-365.712	800.000	0.024	-0.091
-364.698	-120.915	0.137	-0.023
-363.683	36.795	0.049	0.043
-362.669	-33.792	-0.203	-0.111
-361.654	-14.588	-0.334	0.212
-360.639	221.410	-0.095	-0.151
-359.625	-13.386	-0.326	-0.210
-358.610	70.674	-0.118	-0.120
-357.596	-137.999	0.133	-0.015
-356.581	534.992	-0.129	0.302
-355.566	-50.999	-0.248	0.115
-354.552	-200.000	0.040	0.381
-353.537	-72.161	0.201	-0.074
-352.523	136.354	-0.253	0.326
-351.508	-84.106	0.277	0.087
-350.493	498.244	0.155	0.353
-349.479	83.526	0.154	-0.166
-348.464	-71.956	0.035	0.013
-347.450	345.875	0.070	0.137
-346.435	759.169	0.099	0.264
-345.420	800.000	-0.029	-0.086
-344.406	-164.275	0.388	0.018
-343.391	-36.465	-0.050	-0.026
-342.377	-86.169	0.272	-0.083
-341.362	103.241	0.274	-0.317
-340.348	384.396	-0.034	0.069
-339.333	-142.393	0.138	-0.013
-338.318	-200.000	0.037	-0.349
-337.304	-144.859	0.225	0.020
-336.289	36.493	-0.171	-0.149
-335.275	-47.241	-0.249	-0.120
-334.260	-11.130	0.105	0.068
-333.245	-200.000	0.002	0.114
-332.231	-200.000	-0.061	0.347
-331.216	-166.448	0.367	-0.015
-330.202	400.947	0.060	0.124
-329.187	186.905	-0.195	0.288
-328.172	88.990	0.147	0.162
-327.158	-200.000	0.046	0.240
-326.143	-57.835	-0.343	0.148
-325.129	800.000	-0.036	0.155
-324.114	91.326	0.181	0.201
-323.099	72.005	0.174	0.179
-322.085	437.367	0.085	0.183
-321.070	800.000	0.123	0.499
-320.056	254.978	0.062	-0.105
-319.041	800.000	-0.034	0.131
-318.026	-200.000	-0.047	-0.233
-317.012	800.000	0.039	0.155
-315.997	287.947	0.068	0.122
-314.983	182.273	-0.102	0.149
-313.968	-44.580	0.187	0.092
-312.953	-41.330	0.154	0.079
-311.939	501.040	-0.031	0.071
-310.924	29.238	0.221	0.186
-309.910	-110.171	0.201	0.042
-308.895	-76.324	-0.310	-0.108
-307.880	-200.000	-0.044	0.402
-306.866	58.133	0.150	0.145
-305.851	418.660	-0.132	-0.280
-304.837	-200.000	0.052	-0.523
-303.822	259.854	0.118	0.202
-302.807	-200.000	-0.032	-0.411
-301.793	726.049	0.117	-0.308
-300.778	-94.905	0.410	0.110
-299.764	-49.898	-0.096	-0.045
-298.749	-119.323	0.330	-0.057
-297.735	316.148	0.177	0.329
-296.720	-200.000	-0.057	-0.317
-295.705	-140.834	-0.115	-0.012
-294.691	-111.929	-0.134	-0.027
-293.676	392.084	0.135	0.277
-292.662	176.677	-0.109	-0.157
-291.647	-200.000	0.002	0.031
-290.632	-200.000	0.024	0.106
-289.618	66.472	-0.096	0.097
-288.603	13.872	0.096	-0.074
-287.589	800.000	-0.083	0.302
-286.574	-200.000	-0.151	0.000
-285.559	495.398	0.040	-0.091
-284.545	254.841	-0.065	-0.110
-283.530	-45.131	-0.190	0.093
-282.516	-12.364	-0.305	0.197
-281.501	206.144	0.139	0.214
-280.486	-200.000	-0.029	-0.152
-279.472	397.497	0.038	0.079
-278.457	-200.000	-0.004	-0.155
-277.443	-55.969	0.269	0.118
-276.428	-21.617	0.249	-0.149
-275.413	-200.000	0.003	-0.185
-274.399	-181.133	-0.344	-0.007
-273.384	-146.077	-0.164	-0.014
-272.370	168.085	0.103	0.145
-271.355	-190.859	0.143	-0.001
-270.340	-37.985	-0.307	0.161
-269.326	-81.361	0.032	0.011
-268.311	-106.857	-0.640	-0.140
-267.297	146.038	0.060	0.079
-266.282	-164.190	0.123	-0.006
-265.267	200.620	-0.054	0.082
-264.253	276.753	0.149	0.261
-263.238	-64.230	-0.228	0.092
-262.224	800.000	-0.060	-0.172
-261.209	-92.831	-0.393	-0.108
-260.195	389.233	0.263	0.537
-259.180	-164.002	-0.210	-0.010
-258.165	-189.618	-0.360	-0.004
-257.151	800.000	0.096	0.269
-256.136	-34.513	-0.170	-0.092
-255.122	800.000	-0.102	-0.367
-254.107	-39.609	0.210	-0.108
-253.092	76.612	0.100	-0.105
-252.078	-107.564	-0.048	0.010
-251.063	800.000	0.060	-0.197
-250.049	-80.250	-0.043	0.014
-249.034	-65.449	0.082	0.032
-248.019	-1.080	-0.116	0.081
-247.005	115.175	0.019	-0.023
-245.990	-47.497	-0.088	-0.042
-244.976	410.433	0.055	0.115
-243.961	-200.000	0.025	-0.156
-242.946	-159.205	0.307	0.017
-241.932	111.814	-0.124	-0.147
-240.917	19.065	-0.054	0.043
-239.903	704.546	-0.081	-0.212
-238.888	-200.000	0.061	0.285
-237.873	-68.944	-0.190	-0.072
-236.859	188.583	-0.071	0.105
-235.844	-200.000	0.001	-0.065
-234.830	-13.247	0.282	0.180
-233.815	-86.011	0.245	-0.075
-232.800	-92.403	0.288	0.080
-231.786	43.475	-0.112	0.100
-230.771	-136.023	0.355	-0.041
-229.757	800.000	-0.042	-0.143
-228.742	28.604	-0.170	-0.141
-227.727	-84.658	0.215	0.067
-226.713	-164.243	-0.157	-0.007
-225.698	-109.647	0.236	-0.049
-224.684	-2.325	0.282	-0.194
-223.669	-72.897	0.047	0.017
-222.655	180.815	-0.028	0.040
-221.640	173.423	-0.093	-0.131
-220.625	-41.184	0.349	0.177
-219.611	309.310	-0.055	-0.101
-218.596	-109.924	-0.217	-0.045
-217.582	-40.280	0.214	0.109
-216.567	-141.585	0.091	0.009
-215.552	800.000	-0.017	-0.063
-214.538	-91.784	-0.314	0.088
-213.523	-109.971	-0.159	0.033
-212.509	-118.274	0.158	-0.028
-211.494	156.229	-0.136	-0.185
-210.479	-200.000	0.043	0.229
-209.465	-200.000	0.061	0.527
-208.450	626.890	0.003	-0.006
-207.436	651.151	-0.164	-0.413
-206.421	173.703	0.154	-0.219
-205.406	206.399	0.100	-0.153
-204.392	169.680	-0.040	0.057
-203.377	569.132	0.113	0.271
-202.363	243.417	-0.191	-0.315
-201.348	236.070	0.094	0.153
-200.333	-200.000	0.018	0.227
-199.319	67.179	0.092	-0.092
-198.304	-67.828	0.183	-0.070
-197.290	420.586	-0.110	-0.232
-196.275	-69.315	0.288	-0.109
-195.260	-88.734	0.142	0.041
-194.246	800.000	-0.072	0.294
-193.231	-125.852	0.125	-0.018
-192.217	-200.000	0.035	0.247
-191.202	-25.245	-0.110	-0.064
-190.187	-90.019	-0.187	-0.054
-189.173	-200.000	0.018	-0.636
-188.158	42.643	0.087	0.078
-187.144	-52.104	0.408	-0.186
-186.129	-200.000	0.024	0.289
-185.114	-122.622	0.227	-0.036
-184.100	-97.664	0.220	0.056
-183.085	-200.000	0.001	0.123
-182.071	-142.893	-0.339	0.032
-181.056	-51.363	0.164	0.075
-180.042	-106.494	0.202	-0.044
-179.027	-10.449	0.166	0.108
-178.012	-156.408	0.241	0.015
-176.998	62.402	0.154	-0.151
-175.983	45.161	-0.181	-0.164
-174.969	-95.035	0.173	-0.046
-173.954	800.000	0.049	0.196
-172.939	173.404	0.228	-0.323
-171.925	103.123	-0.216	0.249
-170.910	417.546	-0.088	-0.185
-169.896	99.640	0.120	-0.137
-168.881	-69.810	-0.250	-0.094
-167.866	-200.000	-0.009	-0.349
-166.852	-115.478	-0.367	0.068
-165.837	278.835	0.084	0.147
-164.823	-45.807	-0.243	-0.118
-163.808	4.708	0.211	-0.152
-162.793	-163.391	-0.248	0.012
-161.779	-117.447	0.039	0.007
-160.764	36.287	0.199	-0.172
-159.750	-115.735	-0.107	0.020
-158.735	247.531	-0.114	-0.189
-157.720	28.676	0.228	-0.190
-156.706	120.021	0.248	0.302
-155.691	115.503	-0.066	0.079
-154.677	86.514	0.171	0.185
-153.662	-102.605	-0.389	-0.091
-152.647	-18.261	0.256	-0.157
-151.633	-14.353	-0.184	-0.116
-150.618	-47.146	-0.047	0.023
-149.604	160.506	-0.156	-0.214
-148.589	-107.482	-0.317	-0.068
-147.574	-110.644	-0.083	-0.017
-146.560	-143.296	0.094	-0.009
-145.545	-23.129	0.264	0.156
-144.531	800.000	0.074	-0.269
-143.516	55.123	-0.060	-0.057
-142.502	450.536	-0.104	-0.226
-141.487	-14.812	0.248	0.156
-140.472	352.215	0.130	0.252
-139.458	-48.006	0.360	0.171
-138.443	19.056	-0.076	0.060
-137.429	-200.000	0.038	-0.274
-136.414	800.000	-0.022	0.070
-135.399	-34.078	0.048	0.026
-134.385	-92.676	-0.088	-0.024
-133.370	37.388	0.160	0.139
-132.356	45.163	0.068	-0.062
-131.341	232.978	0.017	0.028
-130.326	-163.429	-0.030	0.001
-129.312	-90.084	0.216	-0.062
-128.297	-200.000	-0.036	0.206
-127.283	80.789	-0.029	-0.031
-126.268	92.155	0.053	-0.059
-125.253	95.184	-0.045	0.050
-124.239	451.576	-0.128	-0.277
-123.224	-17.705	-0.205	-0.126
-122.210	265.557	-0.170	-0.290
-121.195	-200.000	-0.027	0.284
