DTS Sentinel unit serial number:	SN413079Multiplexer serial number:	ORYXHardware model number:	OX4-SRSoftware version number:	ORYX F/W v4.00 Oryx Data Collector v3.7.2.0data status	okinstallation	princeton_trtdifferential loss correction	single-endedforward channel	channel 3reverse channel	N/Adate	2019/09/18time	19:00:35forward acquisition time	60.00reverse acquisition time	0.00gamma	496.2192k internal	0.2309k external	0.2309temperature offset calibration	0.9996default loss term (dB/km)	0.3790temperature slope calibration	1.0000multiplexer offset coefficient	1.0000multiplexer slope coefficient	1.0000fibre end	0.00T internal ref (°C)	36.03T ext. ref 1 (°C)	0.93T ext. ref 2 (°C)	25.17length (m)	temperature (°C)	Stokes	anti-Stokes-747.200	-200.000	0.004	-0.027
-746.185	59.058	-0.481	0.481
-745.171	196.566	0.065	0.100
-744.156	-103.470	-0.036	0.008
-743.142	315.520	0.074	0.141
-742.127	-20.156	-0.244	0.153
-741.112	188.050	0.189	-0.287
-740.098	714.387	0.136	0.365
-739.083	-200.000	0.025	0.323
-738.069	800.000	0.041	0.123
-737.054	-173.383	-0.052	-0.002
-736.039	-60.956	0.362	-0.155
-735.025	800.000	0.022	-0.071
-734.010	231.919	0.088	0.147
-732.996	-114.513	-0.559	-0.109
-731.981	185.994	-0.130	-0.197
-730.966	-57.558	0.160	0.071
-729.952	79.720	-0.121	0.132
-728.937	452.018	0.048	-0.108
-727.923	0.661	0.160	0.116
-726.908	-50.668	-0.232	-0.111
-725.894	-4.442	0.189	-0.133
-724.879	57.082	-0.235	0.233
-723.864	194.934	0.020	-0.030
-722.850	-78.010	-0.248	-0.087
-721.835	800.000	0.003	0.008
-720.821	13.966	-0.215	0.170
-719.806	-200.000	0.040	-0.224
-718.791	800.000	-0.062	-0.208
-717.777	-90.668	-0.202	0.059
-716.762	-126.670	0.146	0.022
-715.748	196.915	0.156	0.242
-714.733	353.588	-0.099	-0.199
-713.718	51.705	0.155	0.150
-712.704	-43.071	0.300	0.154
-711.689	93.230	-0.065	0.075
-710.675	-99.090	-0.162	-0.042
-709.660	-86.436	0.535	0.167
-708.645	11.943	-0.139	0.109
-707.631	-69.278	-0.157	-0.061
-706.616	-163.329	0.196	0.010
-705.602	81.534	-0.138	-0.151
-704.587	-200.000	-0.018	-0.189
-703.572	16.839	-0.338	-0.271
-702.558	-31.736	0.206	-0.117
-701.543	563.928	0.112	0.275
-700.529	711.416	0.048	-0.130
-699.514	-175.750	0.126	0.003
-698.499	-9.196	-0.209	-0.142
-697.485	-8.007	-0.173	0.118
-696.470	-200.000	-0.044	-0.251
-695.456	397.357	-0.102	0.217
-694.441	-71.810	0.139	0.053
-693.426	-200.000	-0.023	-0.271
-692.412	-13.244	0.108	-0.071
-691.397	-97.705	0.155	-0.041
-690.383	-128.062	0.339	0.049
-689.368	-115.274	-0.154	0.030
-688.354	-147.389	0.138	-0.012
-687.339	-24.962	0.299	-0.180
-686.324	274.749	0.075	0.135
-685.310	800.000	0.025	0.074
-684.295	13.308	0.281	0.221
-683.281	-44.842	-0.140	0.071
-682.266	572.929	0.083	0.204
-681.251	-88.273	-0.142	0.043
-680.237	145.160	-0.055	-0.074
-679.222	-58.942	-0.165	0.072
-678.208	-77.986	-0.107	-0.037
-677.193	-140.346	-0.101	0.011
-676.178	535.424	-0.077	-0.184
-675.164	-104.065	0.146	-0.035
-674.149	-2.331	0.165	-0.117
-673.135	-45.372	-0.120	-0.061
-672.120	-121.819	-0.145	-0.024
-671.105	-94.915	0.279	0.076
-670.091	6.420	-0.320	-0.241
-669.076	-55.135	0.094	-0.043
-668.062	-166.252	-0.149	-0.006
-667.047	140.915	-0.322	0.431
-666.032	-200.000	0.006	-0.082
-665.018	-200.000	-0.034	-0.192
-664.003	-200.000	-0.018	0.144
-662.989	348.195	-0.026	0.051
-661.974	-99.187	-0.064	0.016
-660.959	-147.599	-0.292	-0.025
-659.945	110.564	-0.163	0.199
-658.930	-77.193	-0.033	-0.012
-657.916	800.000	0.074	-0.298
-656.901	-200.000	-0.021	0.194
-655.886	-94.621	0.231	-0.063
-654.872	-200.000	-0.014	-0.194
-653.857	-39.067	-0.307	-0.163
-652.843	118.646	-0.182	-0.227
-651.828	434.447	-0.106	0.233
-650.814	116.040	-0.038	-0.047
-649.799	-94.382	-0.312	0.086
-648.784	800.000	-0.087	-0.327
-647.770	-200.000	-0.077	-0.353
-646.755	-86.145	-0.216	-0.067
-645.741	109.737	0.184	-0.224
-644.726	-200.000	0.015	-0.415
-643.711	-200.000	-0.004	0.180
-642.697	-47.615	0.187	0.092
-641.682	-144.264	-0.312	0.029
-640.668	-26.100	-0.118	-0.070
-639.653	-200.000	-0.035	0.164
-638.638	17.321	0.164	-0.132
-637.624	193.140	-0.195	-0.298
-636.609	-200.000	-0.011	0.102
-635.595	-34.547	-0.111	-0.061
-634.580	-5.554	0.166	0.115
-633.565	293.775	-0.141	-0.261
-632.551	-80.757	0.072	0.024
-631.536	103.754	-0.011	-0.013
-630.522	103.247	0.226	-0.268
-629.507	800.000	-0.192	-0.560
-628.492	292.542	-0.102	0.188
-627.478	800.000	0.120	-0.406
-626.463	375.227	-0.082	-0.170
-625.449	688.851	0.032	0.084
-624.434	15.645	-0.185	0.147
-623.419	-76.706	0.152	-0.054
-622.405	-54.688	-0.174	-0.080
-621.390	404.980	0.095	0.203
-620.376	-200.000	0.000	-0.043
-619.361	-117.571	0.282	-0.051
-618.346	232.237	-0.128	-0.212
-617.332	36.598	-0.072	-0.064
-616.317	-200.000	0.016	0.085
-615.303	-25.957	0.239	-0.142
-614.288	-200.000	-0.020	-0.106
-613.273	-78.734	0.105	-0.036
-612.259	414.297	0.112	0.240
-611.244	85.803	0.123	0.137
-610.230	154.643	-0.149	0.206
-609.215	-94.188	-0.092	-0.026
-608.201	800.000	-0.040	0.162
-607.186	-200.000	-0.030	-0.172
-606.171	-167.638	-0.322	0.013
-605.157	800.000	0.026	-0.099
-604.142	-200.000	-0.026	-0.142
-603.128	545.533	0.080	-0.193
-602.113	-173.844	-0.130	0.004
-601.098	-116.956	-0.196	0.036
-600.084	-200.000	-0.012	0.114
-599.069	39.586	-0.236	-0.214
-598.055	-200.000	0.005	-0.102
-597.040	-15.454	0.119	0.077
-596.025	34.245	-0.031	0.028
-595.011	-50.680	0.150	-0.071
-593.996	-82.585	-0.265	0.087
-592.982	107.595	-0.127	0.153
-591.967	-87.430	-0.225	0.069
-590.952	331.717	-0.050	-0.097
-589.938	-191.837	0.117	-0.001
-588.923	800.000	-0.063	0.212
-587.909	84.501	-0.068	-0.076
-586.894	-24.782	0.114	0.068
-585.879	-128.989	0.196	0.028
-584.865	800.000	-0.042	0.135
-583.850	-115.085	0.178	0.034
-582.836	-200.000	0.036	-0.200
-581.821	-93.339	-0.166	-0.047
-580.806	477.895	-0.194	-0.443
-579.792	-200.000	0.006	0.216
-578.777	540.126	-0.023	0.056
-577.763	40.080	-0.162	-0.147
-576.748	671.879	0.113	-0.297
-575.733	696.178	-0.063	0.167
-574.719	215.330	0.032	-0.051
-573.704	216.508	0.118	0.190
-572.690	-75.179	-0.075	-0.027
-571.675	-200.000	-0.007	-0.211
-570.661	64.770	0.180	-0.183
-569.646	-1.852	-0.195	0.139
-568.631	312.098	-0.086	-0.162
-567.617	77.364	-0.100	-0.107
-566.602	-85.009	0.085	0.027
-565.588	-200.000	-0.002	0.190
-564.573	-200.000	0.022	-0.144
-563.558	-123.940	0.271	-0.043
-562.544	-72.094	0.345	0.129
-561.529	525.649	0.176	-0.417
-560.515	-200.000	-0.051	-0.373
-559.500	-123.330	-0.079	0.013
-558.485	-200.000	-0.016	-0.140
-557.471	27.283	-0.170	-0.144
-556.456	-22.011	-0.195	-0.119
-555.442	-138.871	0.261	0.029
-554.427	37.817	-0.167	0.149
-553.412	800.000	-0.101	0.414
-552.398	-200.000	-0.033	-0.221
-551.383	44.215	0.133	0.123
-550.369	-55.739	-0.151	-0.068
-549.354	715.535	-0.058	-0.155
-548.339	-103.691	-0.115	-0.027
-547.325	216.368	0.101	-0.161
-546.310	18.350	0.117	0.094
-545.296	-58.877	-0.163	0.071
-544.281	-200.000	0.026	0.206
-543.266	165.566	-0.054	-0.077
-542.252	187.137	0.301	-0.452
-541.237	-39.919	0.259	-0.136
-540.223	-200.000	0.001	-0.521
-539.208	-112.247	0.214	0.043
-538.193	800.000	0.048	0.174
-537.179	-36.689	-0.340	0.184
-536.164	-69.564	0.149	0.058
-535.150	800.000	-0.061	-0.207
-534.135	-200.000	0.019	0.233
-533.121	-128.228	0.427	-0.061
-532.106	-22.589	-0.179	-0.109
-531.091	159.860	0.083	-0.117
-530.077	69.314	-0.057	0.059
-529.062	-110.431	-0.164	-0.034
-528.048	-42.485	0.175	-0.090
-527.033	-34.199	0.036	0.020
-526.018	-61.255	0.221	-0.094
-525.004	-200.000	-0.021	0.159
-523.989	-40.489	0.211	0.110
-522.975	-200.000	-0.062	0.279
-521.960	9.999	-0.234	0.179
-520.945	196.965	-0.046	0.071
-519.931	43.448	0.119	-0.110
-518.916	-200.000	-0.028	0.227
-517.902	-97.394	-0.310	0.081
-516.887	-133.649	0.212	-0.027
-515.872	23.800	-0.120	0.100
-514.858	-10.786	-0.146	0.097
-513.843	251.670	0.174	0.298
-512.829	740.886	-0.103	-0.277
-511.814	-107.716	0.357	-0.078
-510.799	85.993	-0.214	0.237
-509.785	-98.231	-0.345	-0.089
-508.770	800.000	0.059	0.257
-507.756	11.412	0.080	0.062
-506.741	116.062	0.243	-0.300
-505.726	81.466	-0.067	0.073
-504.712	-140.294	0.279	-0.029
-503.697	800.000	0.079	0.247
-502.683	123.361	-0.269	0.340
-501.668	710.934	0.105	-0.280
-500.653	106.746	0.107	-0.128
-499.639	-112.300	-0.318	0.064
-498.624	86.014	-0.085	0.095
-497.610	-21.251	0.109	-0.067
-496.595	-22.640	0.117	0.071
-495.581	68.514	0.184	0.190
-494.566	-66.828	-0.164	0.065
-493.551	800.000	-0.033	0.106
-492.537	348.632	-0.111	0.219
-491.522	-200.000	0.032	0.415
-490.508	-200.000	-0.006	-0.136
-489.493	126.733	0.046	-0.059
-488.478	-200.000	-0.006	-0.088
-487.464	97.811	-0.225	0.261
-486.449	-177.308	0.073	0.002
-485.435	103.923	0.018	-0.021
-484.420	-200.000	-0.033	-0.163
-483.405	-66.136	-0.174	0.070
-482.391	-200.000	-0.007	-0.127
-481.376	-57.683	-0.146	-0.064
-480.362	660.391	-0.029	-0.074
-479.347	800.000	-0.024	0.070
-478.332	-145.261	0.191	0.017
-477.318	-148.050	0.206	-0.017
-476.303	28.631	-0.094	0.080
-475.289	800.000	-0.034	-0.142
-474.274	-110.288	-0.255	0.053
-473.259	232.391	-0.135	0.224
-472.245	787.996	-0.081	0.225
-471.230	-43.577	-0.167	0.085
-470.216	-66.303	0.168	-0.067
-469.201	2.723	-0.163	-0.119
-468.186	-106.979	0.171	-0.038
-467.172	-95.622	-0.391	-0.105
-466.157	108.041	-0.095	-0.113
-465.143	-118.340	0.259	-0.046
-464.128	-83.484	0.172	-0.055
-463.113	-136.406	0.068	-0.008
-462.099	-131.687	-0.325	0.043
-461.084	-159.515	-0.116	-0.007
-460.070	800.000	-0.032	0.092
-459.055	-106.751	0.129	-0.029
-458.040	-98.143	0.224	-0.058
-457.026	128.013	0.063	-0.081
-456.011	800.000	-0.048	-0.200
-454.997	233.816	0.275	0.455
-453.982	-38.410	-0.228	0.121
-452.968	-200.000	-0.046	0.238
-451.953	-161.202	-0.074	0.004
-450.938	764.285	0.037	-0.101
-449.924	151.695	0.189	0.258
-448.909	20.531	0.194	0.158
-447.895	-85.809	-0.269	-0.084
-446.880	54.327	0.076	-0.074
-445.865	644.213	0.057	-0.147
-444.851	800.000	-0.055	-0.201
-443.836	44.422	0.115	0.106
-442.822	800.000	-0.031	-0.117
-441.807	-41.117	0.097	-0.050
-440.792	-97.366	-0.325	-0.085
-439.778	177.331	0.087	0.127
-438.763	76.859	0.317	0.338
-437.749	687.664	0.123	0.322
-436.734	-200.000	0.013	0.337
-435.719	65.914	0.110	-0.112
-434.705	-30.933	0.055	0.031
-433.690	294.847	-0.103	-0.189
-432.676	-37.944	0.381	-0.203
-431.661	178.644	-0.164	-0.240
-430.646	-130.292	0.348	0.047
-429.632	11.340	0.193	0.148
-428.617	798.493	0.058	0.160
-427.603	800.000	-0.022	-0.076
-426.588	-200.000	-0.006	0.042
-425.573	104.570	-0.288	0.340
-424.559	82.580	0.156	0.170
-423.544	-200.000	0.027	0.275
-422.530	-118.918	-0.075	0.013
-421.515	187.830	-0.184	0.275
-420.500	-111.494	0.293	0.060
-419.486	-86.474	-0.274	-0.084
-418.471	-77.943	-0.065	-0.022
-417.457	800.000	-0.048	-0.156
-416.442	800.000	-0.098	0.340
-415.428	-132.459	-0.322	0.042
-414.413	-8.051	-0.606	0.410
-413.398	-65.730	0.134	-0.054
-412.384	-200.000	0.012	-0.138
-411.369	361.146	0.056	-0.112
-410.355	800.000	0.101	0.339
-409.340	-200.000	0.028	-0.272
-408.325	9.389	0.205	0.155
-407.311	200.206	-0.030	-0.047
-406.296	-54.461	0.102	0.046
-405.282	-122.632	-0.065	-0.011
-404.267	138.924	-0.079	0.103
-403.252	-146.472	0.227	-0.020
-402.238	800.000	-0.111	0.409
-401.223	-134.859	-0.344	-0.042
-400.209	222.004	-0.122	-0.196
-399.194	-200.000	0.073	-0.410
-398.179	-142.428	-0.496	-0.049
-397.165	131.279	0.083	-0.107
-396.150	106.628	0.194	0.231
-395.136	-128.865	-0.162	0.023
-394.121	-146.138	-0.239	0.021
-393.106	131.061	-0.223	-0.287
-392.092	-62.175	0.144	0.060
-391.077	-8.531	-0.060	0.040
-390.063	-119.080	0.139	-0.024
-389.048	-134.700	-0.156	-0.019
-388.033	56.551	0.162	0.158
-387.019	-100.796	-0.313	-0.077
-386.004	-144.279	0.328	0.031
-384.990	54.290	0.124	-0.120
-383.975	117.446	0.240	0.296
-382.960	-200.000	-0.045	-0.282
-381.946	800.000	-0.125	-0.366
-380.931	-84.645	0.290	-0.092
-379.917	152.882	0.121	0.166
-378.902	-37.886	0.210	0.112
-377.888	-175.200	0.172	0.005
-376.873	334.990	-0.085	-0.165
-375.858	166.422	0.113	-0.160
-374.844	269.733	0.077	0.135
-373.829	-200.000	0.003	-0.159
-372.815	526.756	0.069	-0.162
-371.800	-36.749	-0.177	0.095
-370.785	376.649	0.072	-0.148
-369.771	265.629	-0.067	-0.117
-368.756	1.183	0.227	0.163
-367.742	-33.748	0.215	-0.119
-366.727	-69.686	-0.190	0.073
-365.712	491.568	-0.091	-0.208
-364.698	-56.432	0.144	-0.064
-363.683	-126.321	-0.204	0.030
-362.669	800.000	-0.079	-0.286
-361.654	371.714	0.062	-0.125
-360.639	100.104	-0.183	-0.213
-359.625	-86.584	-0.216	0.066
-358.610	-47.425	-0.044	0.022
-357.596	158.331	-0.192	-0.266
-356.581	202.399	0.046	0.071
-355.566	17.353	0.113	-0.090
-354.552	309.945	0.115	-0.216
-353.537	21.334	0.132	-0.108
-352.523	-61.845	-0.110	0.046
-351.508	-40.832	0.139	0.072
-350.493	0.309	0.163	-0.116
-349.479	-20.552	0.012	-0.007
-348.464	800.000	-0.014	-0.042
-347.450	3.263	0.068	-0.049
-346.435	253.167	0.029	0.049
-345.420	-149.008	0.054	0.004
-344.406	28.356	0.195	-0.165
-343.391	-95.324	0.052	0.014
-342.377	800.000	-0.087	-0.378
-341.362	-124.416	0.192	0.030
-340.348	-60.452	0.298	-0.127
-339.333	-169.938	-0.099	-0.004
-338.318	-200.000	0.061	0.298
-337.304	-88.854	-0.145	-0.043
-336.289	-9.054	0.222	0.149
-335.275	178.192	-0.143	0.209
-334.260	1.049	-0.175	0.126
-333.245	101.910	-0.085	0.100
-332.231	428.716	0.015	-0.033
-331.216	-200.000	0.003	0.019
-330.202	18.967	-0.130	-0.104
-329.187	-200.000	0.006	0.159
-328.172	-120.543	0.058	0.010
-327.158	-131.835	-0.326	-0.043
-326.143	257.441	0.103	-0.176
-325.129	-200.000	0.025	-0.135
-324.114	-64.550	0.185	0.075
-323.099	-200.000	-0.097	-0.430
-322.085	-129.103	0.217	-0.030
-321.070	-28.079	-0.242	0.140
-320.056	-200.000	0.020	0.091
-319.041	-200.000	-0.020	0.392
-318.026	-90.481	0.122	-0.035
-317.012	-120.789	0.244	0.041
-315.997	-32.070	-0.154	0.086
-314.983	-200.000	0.043	0.239
-313.968	-30.472	0.166	-0.094
-312.953	36.470	-0.158	-0.139
-311.939	121.361	0.175	0.217
-310.924	800.000	0.030	0.123
-309.910	-200.000	-0.009	-0.344
-308.895	577.511	-0.076	0.186
-307.880	377.400	0.031	-0.063
-306.866	294.907	0.133	0.244
-305.851	74.498	-0.126	-0.132
-304.837	-200.000	0.005	-0.074
-303.822	-33.377	0.265	-0.146
-302.807	359.518	-0.006	0.011
-301.793	221.037	0.042	-0.067
-300.778	120.410	-0.299	0.370
-299.764	341.165	0.114	0.222
-298.749	-47.071	-0.115	0.056
-297.735	692.347	0.070	-0.184
-296.720	-17.741	0.425	0.266
-295.705	-200.000	0.022	0.170
-294.691	-200.000	-0.008	0.146
-293.676	45.584	-0.189	0.174
-292.662	401.768	0.057	-0.119
-291.647	134.539	0.079	0.103
-290.632	-21.472	0.236	-0.144
-289.618	384.582	0.058	0.119
-288.603	318.860	-0.127	0.240
-287.589	-146.955	-0.052	-0.004
-286.574	1.288	0.327	-0.234
-285.559	516.767	0.059	0.138
-284.545	-59.404	-0.227	-0.097
-283.530	19.068	0.104	0.083
-282.516	375.406	-0.021	0.043
-281.501	-14.001	-0.208	0.134
-280.486	-200.000	0.009	0.271
-279.472	-155.927	-0.142	-0.009
-278.457	47.875	0.132	0.123
-277.443	-1.603	0.082	-0.058
-276.428	-65.768	-0.284	-0.113
-275.413	-14.579	-0.264	0.169
-274.399	189.235	0.084	0.125
-273.384	483.930	-0.047	0.107
-272.370	-200.000	0.026	-0.134
-271.355	-99.611	-0.155	-0.039
-270.340	36.103	-0.065	0.057
-269.326	-93.051	0.170	-0.047
-268.311	-59.999	0.169	0.072
-267.297	-113.114	0.166	0.033
-266.282	618.452	-0.046	0.115
-265.267	-103.801	0.231	-0.054
-264.253	-200.000	0.026	-0.288
-263.238	62.721	-0.109	0.108
-262.224	31.343	0.185	0.159
-261.209	-200.000	0.023	-0.144
-260.195	21.932	0.125	-0.102
-259.180	115.242	0.076	-0.092
-258.165	-72.974	-0.053	0.019
-257.151	-30.951	0.067	-0.038
-256.136	62.139	-0.185	-0.184
-255.122	430.389	0.094	-0.203
-254.107	232.892	0.153	-0.251
-253.092	800.000	-0.080	0.253
-252.078	531.108	-0.103	0.243
-251.063	195.068	-0.064	-0.097
-250.049	-200.000	-0.020	-0.221
-249.034	17.463	-0.124	-0.098
-248.019	-22.751	-0.100	-0.060
-247.005	-6.260	-0.296	-0.201
-245.990	116.950	-0.074	0.091
-244.976	-18.306	-0.340	0.212
-243.961	173.442	-0.163	-0.235
-242.946	274.300	-0.109	-0.192
-241.932	-98.330	0.203	-0.052
-240.917	-29.128	0.109	-0.062
-239.903	-27.932	-0.234	0.135
-238.888	800.000	0.084	-0.361
-237.873	-200.000	-0.013	-0.098
-236.859	800.000	0.110	0.432
-235.844	100.730	0.247	-0.286
-234.830	-200.000	0.027	0.245
-233.815	117.861	0.150	0.184
-232.800	8.600	0.157	0.118
-231.786	-116.849	0.112	-0.020
-230.771	313.783	-0.125	0.234
-229.757	73.373	-0.060	0.063
-228.742	0.066	-0.204	-0.144
-227.727	-92.607	-0.160	0.045
-226.713	-135.209	-0.095	-0.011
-225.698	-81.228	0.142	-0.047
-224.684	198.352	0.172	0.262
-223.669	29.583	-0.351	-0.297
-222.655	-60.871	0.104	0.044
-221.640	301.378	0.123	0.226
-220.625	-112.318	0.214	0.043
-219.611	-200.000	-0.041	-0.247
-218.596	29.853	0.420	-0.356
-217.582	185.384	0.127	0.188
-216.567	-200.000	0.021	0.165
-215.552	800.000	0.064	-0.261
-214.538	71.907	-0.202	0.210
-213.523	-200.000	0.003	0.097
-212.509	-33.372	-0.393	0.216
-211.494	-136.872	0.304	-0.035
-210.479	487.516	0.052	-0.118
-209.465	-94.132	0.212	0.058
-208.450	46.646	0.259	0.240
-207.436	-200.000	0.009	0.275
-206.421	-17.183	0.265	-0.166
-205.406	78.325	-0.228	-0.243
-204.392	800.000	0.054	0.184
-203.377	111.167	0.152	0.182
-202.363	-107.061	0.312	0.068
-201.348	254.167	-0.138	-0.235
-200.333	-98.149	-0.203	0.052
-199.319	496.100	-0.049	0.111
-198.304	143.453	-0.201	-0.266
-197.290	29.162	-0.334	-0.282
-196.275	195.697	-0.002	-0.003
-195.260	189.070	-0.155	-0.231
-194.246	-91.653	-0.331	-0.094
-193.231	114.997	-0.139	0.169
-192.217	230.772	-0.088	-0.143
-191.202	-70.424	0.202	-0.076
-190.187	-124.808	0.389	-0.060
-189.173	-200.000	-0.007	0.252
-188.158	-129.552	-0.324	0.045
-187.144	178.972	-0.102	0.148
-186.129	-128.778	-0.197	-0.028
-185.114	530.362	0.150	0.352
-184.100	-200.000	-0.013	0.154
-183.085	-28.601	0.360	0.206
-182.071	-32.985	-0.506	0.279
-181.056	444.473	-0.066	0.145
-180.042	430.435	0.101	0.218
-179.027	405.780	-0.046	-0.096
-178.012	800.000	-0.084	-0.256
-176.998	423.973	0.264	-0.564
-175.983	90.548	-0.161	-0.179
-174.969	-45.636	-0.207	-0.102
-173.954	120.664	0.361	0.446
-172.939	158.036	0.203	0.279
-171.925	-118.805	0.164	-0.029
-170.910	-200.000	0.033	-0.204
-169.896	-72.020	-0.029	-0.011
-168.881	-62.814	-0.189	-0.078
-167.866	-174.146	0.119	0.003
-166.852	541.813	-0.073	0.174
-165.837	-74.710	0.153	0.054
-164.823	36.899	-0.053	-0.046
-163.808	155.990	0.137	0.187
-162.793	-5.629	0.100	-0.068
-161.779	-189.574	0.320	-0.004
-160.764	-19.651	-0.378	-0.232
-159.750	-80.784	0.126	0.042
-158.735	19.664	-0.248	0.198
-157.720	332.904	0.024	-0.047
-156.706	800.000	-0.040	-0.115
-155.691	-155.578	0.150	-0.010
-154.677	-26.154	-0.218	0.127
-153.662	-200.000	-0.014	0.278
-152.647	-190.382	0.080	-0.001
-151.633	526.193	-0.063	0.146
-150.618	614.479	0.085	0.211
-149.604	-5.608	-0.129	-0.088
-148.589	-200.000	0.009	0.105
-147.574	97.443	0.208	0.237
-146.560	-17.009	-0.292	0.183
-145.545	-200.000	0.022	0.346
-144.531	-28.414	0.396	-0.227
-143.516	145.265	-0.031	-0.042
-142.502	122.127	-0.136	-0.168
-141.487	-200.000	-0.050	-0.256
-140.472	-142.019	0.407	0.040
-139.458	-97.191	-0.067	0.017
-138.443	534.552	-0.036	0.085
-137.429	-75.137	0.296	-0.105
-136.414	800.000	0.015	-0.065
-135.399	-79.256	0.370	0.125
-134.385	680.579	0.114	0.294
-133.370	-200.000	-0.014	-0.143
-132.356	800.000	-0.057	-0.174
-131.341	57.172	0.054	-0.052
-130.326	-200.000	0.032	-0.204
-129.312	-200.000	0.004	-0.171
-128.297	-39.425	0.202	0.105
-127.283	800.000	-0.014	0.041
-126.268	-172.626	-0.223	-0.007
-125.253	123.325	-0.188	-0.233
-124.239	184.966	-0.196	0.288
-123.224	134.365	-0.090	-0.115
-122.210	350.639	-0.241	-0.472
-121.195	32.827	0.211	-0.181
