DTS Sentinel unit serial number:	SN413079Multiplexer serial number:	ORYXHardware model number:	OX4-SRSoftware version number:	ORYX F/W v4.00 Oryx Data Collector v3.7.2.0data status	okinstallation	princeton_trtdifferential loss correction	single-endedforward channel	channel 3reverse channel	N/Adate	2019/09/16time	03:00:35forward acquisition time	60.00reverse acquisition time	0.00gamma	496.2192k internal	0.2334k external	0.2334temperature offset calibration	0.9954default loss term (dB/km)	0.3790temperature slope calibration	1.0000multiplexer offset coefficient	1.0000multiplexer slope coefficient	1.0000fibre end	0.00T internal ref (°C)	27.77T ext. ref 1 (°C)	10.40T ext. ref 2 (°C)	22.18length (m)	temperature (°C)	Stokes	anti-Stokes-747.200	-200.000	0.018	0.162
-746.185	-142.231	-0.419	-0.042
-745.171	528.696	0.152	-0.361
-744.156	-200.000	-0.003	0.121
-743.142	-52.408	0.436	-0.203
-742.127	798.422	-0.130	0.359
-741.112	-150.168	0.178	-0.014
-740.098	-200.000	0.055	0.315
-739.083	-87.789	0.093	0.028
-738.069	-200.000	-0.054	0.310
-737.054	-128.612	-0.243	0.035
-736.039	-200.000	0.046	-0.267
-735.025	800.000	0.116	0.400
-734.010	-168.670	-0.111	0.004
-732.996	112.338	-0.159	-0.193
-731.981	325.292	-0.183	0.352
-730.966	800.000	-0.038	-0.168
-729.952	260.981	0.242	0.420
-728.937	-43.054	-0.044	0.023
-727.923	13.311	-0.163	-0.127
-726.908	334.300	0.215	-0.419
-725.894	178.109	0.136	0.199
-724.879	15.873	0.245	-0.193
-723.864	-200.000	0.010	-0.108
-722.850	-200.000	0.019	0.399
-721.835	-28.599	0.094	0.054
-720.821	-111.655	0.376	0.077
-719.806	130.801	-0.199	-0.256
-718.791	-200.000	-0.024	0.131
-717.777	147.416	-0.223	0.302
-716.762	32.175	0.193	-0.167
-715.748	10.847	0.207	-0.158
-714.733	-119.615	-0.186	0.032
-713.718	-57.080	0.148	-0.066
-712.704	800.000	0.103	-0.372
-711.689	-180.328	-0.280	0.006
-710.675	82.547	0.009	0.009
-709.660	-87.312	0.187	0.057
-708.645	-96.409	0.178	0.047
-707.631	-176.251	0.409	-0.011
-706.616	-64.158	0.455	-0.186
-705.602	800.000	-0.017	0.059
-704.587	-112.114	0.103	0.021
-703.572	-133.980	-0.260	-0.032
-702.558	-200.000	0.001	0.296
-701.543	-131.947	-0.135	-0.018
-700.529	800.000	-0.014	-0.044
-699.514	85.379	0.141	-0.155
-698.499	-200.000	-0.043	-0.309
-697.485	40.990	0.237	0.214
-696.470	-38.940	-0.098	-0.052
-695.456	113.796	-0.087	0.106
-694.441	800.000	0.022	-0.078
-693.426	800.000	-0.049	0.169
-692.412	508.155	0.101	0.236
-691.397	100.857	0.254	-0.296
-690.383	-55.072	-0.311	-0.140
-689.368	125.470	0.118	0.149
-688.354	110.561	-0.059	0.071
-687.339	178.771	-0.239	0.350
-686.324	-91.166	-0.105	-0.030
-685.310	-73.673	0.113	-0.041
-684.295	-122.184	0.198	-0.033
-683.281	92.214	-0.183	-0.206
-682.266	75.603	-0.061	0.065
-681.251	800.000	-0.028	0.087
-680.237	800.000	-0.096	0.389
-679.222	-200.000	-0.024	0.145
-678.208	60.135	-0.207	-0.205
-677.193	7.956	-0.173	-0.130
-676.178	-200.000	0.031	-0.277
-675.164	183.645	0.155	0.230
-674.149	60.782	-0.065	0.065
-673.135	-83.484	-0.319	0.102
-672.120	-200.000	0.020	0.193
-671.105	-35.088	-0.124	-0.068
-670.091	140.372	-0.056	0.074
-669.076	-46.471	0.118	-0.058
-668.062	173.655	-0.119	0.173
-667.047	-200.000	-0.027	0.133
-666.032	293.580	-0.198	-0.363
-665.018	-200.000	0.013	-0.120
-664.003	13.843	0.119	0.093
-662.989	251.890	-0.178	0.304
-661.974	18.601	-0.101	-0.081
-660.959	-87.617	0.047	-0.014
-659.945	-200.000	-0.056	0.266
-658.930	800.000	-0.048	0.189
-657.916	16.152	0.130	-0.103
-656.901	103.175	0.152	0.179
-655.886	76.475	0.262	0.279
-654.872	-57.509	0.245	0.108
-653.857	632.108	0.039	0.098
-652.843	-66.058	0.108	-0.043
-651.828	-146.883	-0.379	0.033
-650.814	-200.000	-0.004	0.355
-649.799	314.513	0.132	-0.249
-648.784	-94.491	0.083	0.023
-647.770	800.000	0.122	0.523
-646.755	126.112	-0.229	-0.290
-645.741	800.000	0.019	0.071
-644.726	-73.360	-0.146	-0.054
-643.711	-93.931	-0.289	0.080
-642.697	82.846	0.255	0.277
-641.682	71.905	-0.307	-0.320
-640.668	279.938	0.155	-0.277
-639.653	800.000	0.096	-0.300
-638.638	-200.000	-0.007	-0.103
-637.624	171.313	0.073	-0.105
-636.609	39.630	-0.171	0.153
-635.595	-200.000	-0.026	0.338
-634.580	-143.819	0.211	-0.020
-633.565	-200.000	-0.448	0.001
-632.551	800.000	0.020	0.073
-631.536	-200.000	0.029	-0.318
-630.522	-126.286	0.183	0.027
-629.507	-200.000	0.017	-0.195
-628.492	-162.630	-0.291	0.014
-627.478	439.427	0.079	0.172
-626.463	-23.124	-0.201	-0.121
-625.449	-181.050	0.116	-0.002
-624.434	113.140	-0.091	-0.111
-623.419	-87.449	-0.156	0.047
-622.405	800.000	-0.177	-0.557
-621.390	-200.000	-0.039	-0.252
-620.376	22.214	-0.164	-0.134
-619.361	-29.951	-0.109	-0.062
-618.346	11.953	0.368	-0.283
-617.332	204.575	0.112	0.174
-616.317	-60.131	-0.035	0.015
-615.303	800.000	0.036	-0.128
-614.288	364.767	-0.132	-0.266
-613.273	39.983	-0.095	-0.086
-612.259	531.426	-0.113	0.267
-611.244	157.606	-0.353	0.489
-610.230	41.440	-0.104	0.094
-609.215	800.000	0.085	-0.311
-608.201	102.770	0.059	0.069
-607.186	-200.000	0.002	0.222
-606.171	-48.604	-0.208	0.100
-605.157	-24.739	-0.174	0.104
-604.142	601.772	0.021	-0.051
-603.128	-20.810	0.370	-0.227
-602.113	-200.000	0.026	-0.318
-601.098	-190.611	-0.032	0.000
-600.084	61.578	0.252	-0.250
-599.069	-200.000	0.133	0.001
-598.055	-39.601	0.136	0.071
-597.040	800.000	0.057	-0.209
-596.025	-200.000	0.002	0.346
-595.011	-98.378	0.025	0.006
-593.996	-159.295	0.390	-0.022
-592.982	419.247	0.138	-0.295
-591.967	151.145	-0.252	-0.343
-590.952	467.896	-0.061	0.137
-589.938	-36.967	-0.308	0.165
-588.923	165.566	-0.152	-0.214
-587.909	-3.575	0.037	-0.026
-586.894	158.034	-0.152	0.211
-585.879	308.110	-0.071	0.133
-584.865	-111.275	0.103	0.021
-583.850	-59.862	0.050	-0.021
-582.836	242.276	0.073	-0.122
-581.821	590.503	0.008	0.021
-580.806	4.012	-0.133	-0.097
-579.792	-24.291	0.230	0.137
-578.777	102.852	-0.043	-0.050
-577.763	163.884	0.143	-0.201
-576.748	-162.855	0.142	-0.007
-575.733	-8.825	-0.361	-0.241
-574.719	523.987	-0.104	-0.243
-573.704	-116.453	0.050	-0.009
-572.690	-200.000	-0.002	-0.084
-571.675	2.859	-0.207	0.150
-570.661	-115.297	0.237	-0.045
-569.646	-200.000	0.106	-0.565
-568.631	800.000	-0.085	-0.280
-567.617	-84.323	-0.261	0.082
-566.602	83.323	0.081	-0.088
-565.588	-200.000	0.013	-0.501
-564.573	-55.094	0.140	0.063
-563.558	278.761	0.104	-0.184
-562.544	-134.115	-0.290	-0.036
-561.529	-120.183	-0.176	0.030
-560.515	-200.000	-0.010	0.134
-559.500	-115.729	0.088	0.017
-558.485	146.767	-0.191	0.257
-557.471	143.145	-0.196	0.260
-556.456	-57.714	0.299	0.131
-555.442	54.136	-0.051	0.049
-554.427	98.228	0.052	0.060
-553.412	-88.926	0.319	0.094
-552.398	278.880	-0.169	-0.302
-551.383	436.466	-0.150	0.325
-550.369	-7.753	0.300	-0.202
-549.354	86.069	-0.076	0.083
-548.339	-142.024	0.115	0.011
-547.325	543.052	0.075	-0.180
-546.310	-84.390	-0.101	-0.032
-545.296	165.945	-0.114	-0.160
-544.281	800.000	0.061	-0.259
-543.266	800.000	-0.098	0.287
-542.252	92.597	0.257	0.289
-541.237	800.000	0.135	0.468
-540.223	-154.348	0.143	-0.010
-539.208	-200.000	-0.025	0.160
-538.193	-200.000	-0.020	-0.200
-537.179	325.617	-0.129	-0.246
-536.164	630.519	0.014	-0.034
-535.150	-2.322	0.179	-0.125
-534.135	-200.000	0.048	0.237
-533.121	-36.918	0.108	0.058
-532.106	-200.000	-0.073	0.352
-531.091	309.411	0.077	0.143
-530.077	661.824	0.036	0.092
-529.062	-200.000	0.009	-0.241
-528.048	32.035	-0.024	0.021
-527.033	677.857	0.104	0.270
-526.018	800.000	-0.184	-0.517
-525.004	-63.892	-0.139	0.057
-523.989	221.487	0.070	-0.112
-522.975	91.335	-0.056	0.063
-521.960	16.080	0.090	-0.071
-520.945	358.590	0.059	0.117
-519.931	108.291	-0.184	-0.218
-518.916	-60.448	0.055	0.023
-517.902	141.534	-0.134	-0.176
-516.887	-152.504	-0.153	-0.011
-515.872	332.514	-0.071	0.138
-514.858	6.689	-0.213	0.158
-513.843	350.940	0.045	0.089
-512.829	-150.506	-0.073	-0.006
-511.814	16.039	-0.155	0.121
-510.799	409.978	0.213	-0.449
-509.785	-7.505	-0.250	-0.169
-508.770	118.068	-0.129	-0.158
-507.756	-29.148	-0.159	0.091
-506.741	-79.456	0.205	0.069
-505.726	-200.000	0.012	0.120
-504.712	754.422	0.047	0.128
-503.697	171.480	-0.123	0.176
-502.683	6.407	0.430	-0.318
-501.668	800.000	-0.051	-0.222
-500.653	-200.000	-0.056	-0.292
-499.639	141.859	0.196	-0.259
-498.624	-200.000	0.035	0.195
-497.610	-47.151	-0.201	0.097
-496.595	-61.436	0.151	0.063
-495.581	126.325	-0.214	-0.270
-494.566	-148.877	0.167	0.013
-493.551	-0.236	-0.086	0.061
-492.537	40.292	0.084	0.075
-491.522	520.312	0.117	0.274
-490.508	281.265	0.145	-0.259
-489.493	-200.000	-0.012	-0.124
-488.478	324.674	-0.122	0.232
-487.464	-200.000	0.082	-0.379
-486.449	800.000	-0.027	-0.111
-485.435	-36.811	-0.183	-0.098
-484.420	-4.600	-0.067	-0.046
-483.405	150.792	-0.222	0.300
-482.391	-25.830	0.110	0.065
-481.376	-200.000	0.016	-0.178
-480.362	-200.000	-0.030	0.195
-479.347	148.830	-0.051	0.069
-478.332	25.168	-0.068	-0.056
-477.318	71.042	-0.255	0.263
-476.303	-101.028	-0.172	0.042
-475.289	-111.131	-0.214	0.044
-474.274	-200.000	0.004	-0.213
-473.259	-79.977	-0.150	0.050
-472.245	-40.032	-0.050	-0.026
-471.230	-115.254	0.186	-0.035
-470.216	-200.000	-0.003	-0.085
-469.201	25.091	0.067	0.055
-468.186	-75.782	-0.333	-0.117
-467.172	-148.071	-0.019	-0.002
-466.157	70.976	-0.265	-0.273
-465.143	-49.831	-0.054	0.026
-464.128	512.562	0.175	0.405
-463.113	98.963	0.135	-0.155
-462.099	0.599	-0.160	-0.114
-461.084	-98.288	-0.155	0.039
-460.070	-23.627	-0.238	0.142
-459.055	1.759	-0.204	-0.146
-458.040	108.284	0.262	0.310
-457.026	800.000	0.042	-0.136
-456.011	-62.493	0.123	-0.051
-454.997	-105.437	-0.100	0.023
-453.982	49.952	0.095	-0.089
-452.968	800.000	0.077	0.251
-451.953	800.000	-0.036	0.152
-450.938	-57.189	-0.481	0.211
-449.924	387.920	0.099	-0.204
-448.909	58.841	0.151	0.148
-447.895	-123.952	-0.169	-0.026
-446.880	-130.923	0.158	-0.021
-445.865	-80.907	-0.103	-0.034
-444.851	-200.000	0.059	-0.315
-443.836	-87.878	0.234	0.070
-442.822	-15.626	-0.239	0.152
-441.807	-200.000	0.005	0.035
-440.792	-56.506	0.321	0.142
-439.778	39.986	-0.144	-0.129
-438.763	-80.392	-0.390	0.129
-437.749	-90.562	-0.145	0.042
-436.734	-108.249	0.207	0.044
-435.719	-129.297	-0.129	-0.018
-434.705	8.000	-0.211	0.158
-433.690	260.361	0.107	0.184
-432.676	76.870	0.067	-0.071
-431.661	-200.000	-0.054	-0.293
-430.646	27.514	-0.322	0.269
-429.632	-18.761	-0.279	-0.173
-428.617	800.000	-0.085	0.271
-427.603	290.559	0.070	-0.127
-426.588	-38.170	0.307	0.161
-425.573	800.000	0.089	-0.292
-424.559	278.114	-0.072	0.127
-423.544	74.596	0.047	0.049
-422.530	-9.950	0.367	0.242
-421.515	-183.073	0.223	-0.004
-420.500	-121.457	0.138	-0.023
-419.486	622.058	-0.088	-0.219
-418.471	-200.000	0.037	-0.376
-417.457	-152.810	0.169	-0.012
-416.442	-200.000	-0.016	-0.185
-415.428	222.281	-0.093	0.149
-414.413	-49.276	-0.140	0.066
-413.398	-79.356	0.184	-0.062
-412.384	-115.685	-0.235	0.044
-411.369	800.000	-0.116	-0.407
-410.355	-18.687	-0.221	0.136
-409.340	118.490	0.101	-0.124
-408.325	-29.006	-0.108	0.062
-407.311	243.404	-0.091	0.152
-406.296	-200.000	-0.276	0.000
-405.282	116.684	0.195	-0.237
-404.267	-133.682	0.380	-0.047
-403.252	-84.124	-0.319	0.100
-402.238	49.008	0.300	0.280
-401.223	-200.000	-0.007	-0.063
-400.209	448.434	-0.097	0.213
-399.194	-3.044	0.362	0.250
-398.179	-2.002	0.439	0.306
-397.165	-52.078	-0.005	-0.002
-396.150	368.410	0.158	0.316
-395.136	186.719	-0.164	0.242
-394.121	-200.000	-0.009	0.291
-393.106	800.000	-0.076	0.209
-392.092	-200.000	-0.014	-0.113
-391.077	-136.857	-0.074	0.008
-390.063	-200.000	0.021	0.194
-389.048	190.893	0.181	-0.270
-388.033	81.424	-0.033	-0.035
-387.019	67.653	-0.129	-0.131
-386.004	208.269	0.133	0.205
-384.990	-95.736	-0.185	-0.049
-383.975	-7.921	-0.196	-0.131
-382.960	22.238	-0.042	0.034
-381.946	295.113	-0.222	-0.403
-380.931	-75.160	0.175	0.062
-379.917	709.168	0.050	0.130
-378.902	-8.713	0.110	-0.073
-377.888	-42.952	0.089	0.045
-376.873	59.276	-0.201	0.197
-375.858	13.467	0.091	-0.070
-374.844	-200.000	0.009	0.072
-373.829	-51.747	0.090	0.041
-372.815	68.516	0.232	0.236
-371.800	-200.000	-0.019	-0.121
-370.785	316.045	0.086	-0.162
-369.771	381.050	-0.017	-0.035
-368.756	262.650	0.131	0.226
-367.742	-2.781	0.098	-0.068
-366.727	35.511	-0.075	-0.065
-365.712	70.741	0.045	-0.046
-364.698	172.088	0.072	-0.103
-363.683	-14.928	0.226	-0.143
-362.669	156.876	-0.083	-0.113
-361.654	323.558	-0.124	0.234
-360.639	-82.741	-0.221	-0.071
-359.625	-168.218	-0.299	0.011
-358.610	-15.348	-0.092	-0.058
-357.596	-200.000	0.039	-0.187
-356.581	-112.627	0.182	-0.036
-355.566	800.000	-0.059	0.199
-354.552	800.000	-0.124	0.373
-353.537	95.688	-0.098	-0.111
-352.523	40.804	-0.252	0.225
-351.508	-13.483	0.279	-0.179
-350.493	203.173	-0.088	-0.134
-349.479	-132.663	0.230	-0.029
-348.464	-200.000	0.018	0.083
-347.450	-52.027	-0.204	0.094
-346.435	-200.000	-0.006	0.111
-345.420	-200.000	-0.009	0.076
-344.406	-200.000	-0.041	0.190
-343.391	-70.265	0.139	-0.052
-342.377	48.528	-0.114	-0.106
-341.362	-200.000	-0.007	-0.061
-340.348	114.217	0.070	0.084
-339.333	-200.000	-0.018	0.188
-338.318	-200.000	0.019	-0.303
-337.304	800.000	0.093	0.257
-336.289	800.000	-0.084	-0.252
-335.275	-200.000	-0.031	0.376
-334.260	62.404	-0.023	-0.023
-333.245	-91.899	0.159	-0.045
-332.231	-200.000	-0.001	0.281
-331.216	800.000	0.077	0.297
-330.202	743.487	0.169	0.448
-329.187	800.000	-0.081	-0.258
-328.172	300.950	-0.123	-0.224
-327.158	800.000	-0.064	-0.213
-326.143	-6.796	-0.275	-0.185
-325.129	49.540	0.290	0.270
-324.114	800.000	-0.074	0.270
-323.099	-73.603	0.263	0.095
-322.085	-52.623	-0.313	-0.143
-321.070	-30.155	-0.130	0.073
-320.056	-171.963	0.312	0.010
-319.041	-200.000	0.003	0.092
-318.026	800.000	-0.007	0.021
-317.012	-13.364	-0.117	-0.075
-315.997	13.818	-0.143	-0.110
-314.983	-200.000	-0.004	-0.052
-313.968	63.680	0.102	0.102
-312.953	-1.643	-0.146	0.102
-311.939	46.815	-0.247	0.227
-310.924	-97.069	0.293	0.076
-309.910	435.321	0.078	-0.167
-308.895	3.998	0.156	-0.113
-307.880	245.125	0.032	-0.053
-306.866	243.361	-0.028	-0.046
-305.851	-179.135	-0.178	0.004
-304.837	584.983	0.082	-0.198
-303.822	101.792	-0.105	0.121
-302.807	-200.000	0.014	0.290
-301.793	-27.165	0.367	0.211
-300.778	57.097	-0.224	-0.216
-299.764	-32.125	0.125	0.069
-298.749	58.427	0.172	0.167
-297.735	95.373	0.253	0.285
-296.720	29.417	-0.063	0.053
-295.705	220.428	0.073	-0.115
-294.691	169.902	0.109	-0.153
-293.676	40.027	-0.121	0.107
-292.662	517.658	0.036	0.083
-291.647	-125.720	-0.350	-0.052
-290.632	-148.553	0.218	-0.018
-289.618	176.733	0.192	0.276
-288.603	182.295	-0.213	0.311
-287.589	-106.503	0.163	0.036
-286.574	800.000	-0.021	0.075
-285.559	-200.000	0.041	-0.211
-284.545	-200.000	0.022	0.209
-283.530	-8.801	-0.127	0.084
-282.516	67.879	0.227	-0.229
-281.501	-71.966	0.280	-0.103
-280.486	800.000	-0.040	0.151
-279.472	298.478	0.092	-0.168
-278.457	-46.876	-0.113	-0.055
-277.443	-67.368	0.188	0.073
-276.428	-98.718	0.171	-0.043
-275.413	-141.756	-0.166	0.016
-274.399	28.995	0.090	-0.076
-273.384	-200.000	-0.001	0.153
-272.370	-200.000	0.046	-0.259
-271.355	-200.000	0.009	-0.175
-270.340	-200.000	0.003	-0.335
-269.326	25.510	-0.119	-0.098
-268.311	268.385	-0.148	0.255
-267.297	292.394	-0.123	-0.221
-266.282	471.047	0.048	-0.106
-265.267	164.128	-0.251	0.349
-264.253	62.597	-0.283	0.279
-263.238	157.838	0.291	0.398
-262.224	-177.925	-0.203	0.005
-261.209	97.484	0.082	-0.093
-260.195	34.439	0.202	0.174
-259.180	800.000	-0.063	0.242
-258.165	-54.751	0.167	-0.074
-257.151	-5.538	0.124	-0.084
-256.136	567.668	-0.040	-0.097
-255.122	-54.366	-0.404	0.181
-254.107	751.650	-0.056	0.149
-253.092	665.032	-0.095	-0.243
-252.078	336.085	0.247	-0.473
-251.063	96.027	0.110	0.124
-250.049	-59.415	-0.233	-0.099
-249.034	-47.904	0.090	0.043
-248.019	-139.028	0.172	-0.018
-247.005	-95.814	0.186	-0.049
-245.990	98.996	-0.180	0.205
-244.976	800.000	-0.072	0.297
-243.961	-115.612	0.240	-0.044
-242.946	172.626	0.093	0.132
-241.932	61.602	0.130	0.127
-240.917	-141.355	0.302	0.030
-239.903	-129.078	-0.183	0.025
-238.888	398.821	0.201	0.415
-237.873	279.873	0.067	0.117
-236.859	-60.071	-0.101	-0.043
-235.844	32.750	0.464	-0.396
-234.830	800.000	0.096	-0.345
-233.815	-4.974	0.314	-0.213
-232.800	156.420	0.166	-0.226
-231.786	-200.000	-0.037	0.267
-230.771	-2.676	0.061	-0.042
-229.757	-31.055	0.157	0.087
-228.742	144.028	0.108	-0.141
-227.727	-76.294	0.083	-0.029
-226.713	44.963	-0.222	0.201
-225.698	-92.240	-0.086	-0.024
-224.684	-125.254	0.189	0.028
-223.669	-85.418	-0.276	0.085
-222.655	-200.000	0.016	0.309
-221.640	66.434	-0.120	-0.120
-220.625	-8.709	-0.424	-0.280
-219.611	97.745	0.151	-0.171
-218.596	166.872	-0.068	0.095
-217.582	587.864	0.055	0.133
-216.567	-111.991	-0.030	0.006
-215.552	-174.844	0.154	-0.004
-214.538	106.305	0.047	-0.055
-213.523	-175.700	-0.323	-0.009
-212.509	-200.000	0.001	0.162
-211.494	28.768	-0.183	-0.153
-210.479	44.325	-0.125	-0.113
-209.465	800.000	0.022	0.075
-208.450	800.000	0.019	0.060
-207.436	-28.032	-0.494	-0.281
-206.421	800.000	0.021	-0.057
-205.406	703.722	-0.059	0.154
-204.392	-7.447	-0.262	0.174
-203.377	38.158	0.251	-0.220
-202.363	-18.230	0.290	0.179
-201.348	267.193	0.101	0.174
-200.333	110.290	0.206	-0.243
-199.319	-19.933	0.265	-0.161
-198.304	-200.000	-0.037	0.176
-197.290	-36.304	-0.268	-0.142
-196.275	419.926	0.152	0.319
-195.260	-38.436	0.193	-0.101
-194.246	14.659	-0.149	0.114
-193.231	84.666	0.170	0.183
-192.217	-200.000	-0.025	-0.242
-191.202	188.138	0.066	-0.097
-190.187	-200.000	0.006	0.380
-189.173	-120.354	-0.196	0.033
-188.158	-200.000	-0.045	-0.404
-187.144	-143.463	0.086	0.008
-186.129	38.441	-0.128	-0.113
-185.114	148.009	-0.077	-0.102
-184.100	351.164	-0.219	-0.426
-183.085	379.887	0.179	-0.360
-182.071	-89.266	0.241	0.070
-181.056	-200.000	0.007	0.552
-180.042	-188.407	0.331	0.004
-179.027	-77.924	-0.050	0.017
-178.012	2.559	-0.241	0.171
-176.998	-19.946	0.223	0.135
-175.983	-16.110	-0.087	-0.054
-174.969	800.000	-0.018	-0.057
-173.954	-124.725	-0.182	-0.028
-172.939	-142.191	-0.303	-0.029
-171.925	-64.849	0.355	-0.141
-170.910	-77.327	0.205	0.070
-169.896	54.848	-0.095	-0.090
-168.881	116.046	0.237	-0.286
-167.866	-15.589	0.256	0.161
-166.852	800.000	0.089	-0.327
-165.837	-82.920	0.263	-0.083
-164.823	291.704	0.063	-0.112
-163.808	-200.000	0.029	-0.131
-162.793	-200.000	-0.042	0.223
-161.779	-178.496	-0.219	0.005
-160.764	-200.000	-0.016	0.081
-159.750	152.343	-0.090	0.120
-158.735	-200.000	0.012	-0.109
-157.720	-28.804	-0.154	-0.087
-156.706	-131.888	-0.176	-0.023
-155.691	200.050	0.279	0.421
-154.677	-133.681	-0.132	0.016
-153.662	-126.933	0.508	-0.073
-152.647	-29.203	-0.087	-0.049
-151.633	800.000	-0.115	0.352
-150.618	192.923	0.027	-0.039
-149.604	-157.591	-0.284	0.017
-148.589	20.064	0.293	-0.232
-147.574	101.276	-0.083	-0.095
-146.560	-47.551	0.266	-0.127
-145.545	-13.966	0.085	0.054
-144.531	-7.133	-0.181	-0.121
-143.516	122.338	0.185	-0.227
-142.502	-88.057	0.054	0.016
-141.487	-187.676	-0.121	0.002
-140.472	-123.325	0.157	-0.025
-139.458	473.948	-0.078	0.173
-138.443	8.852	-0.068	0.050
-137.429	-92.349	-0.226	-0.062
-136.414	-180.424	0.187	-0.004
-135.399	127.822	0.087	-0.109
-134.385	28.253	-0.070	-0.058
-133.370	361.703	-0.099	0.194
-132.356	-102.290	0.186	-0.044
-131.341	159.798	-0.236	0.323
-130.326	-32.785	-0.332	0.181
-129.312	-200.000	0.024	0.513
-128.297	-2.198	-0.277	0.191
-127.283	-41.254	-0.530	-0.268
-126.268	-73.643	-0.043	0.015
-125.253	-186.651	-0.069	-0.001
-124.239	67.316	0.359	0.359
-123.224	349.440	-0.074	-0.143
-122.210	0.561	-0.064	0.045
-121.195	-164.106	0.224	-0.010
-120.180	-200.000	0.074	0.340
