DTS Sentinel unit serial number:	SN413079Multiplexer serial number:	ORYXHardware model number:	OX4-SRSoftware version number:	ORYX F/W v4.00 Oryx Data Collector v3.7.2.0data status	okinstallation	princeton_trtdifferential loss correction	single-endedforward channel	channel 3reverse channel	N/Adate	2019/09/19time	04:36:35forward acquisition time	60.00reverse acquisition time	0.00gamma	496.2192k internal	0.2347k external	0.2347temperature offset calibration	0.9992default loss term (dB/km)	0.3790temperature slope calibration	1.0000multiplexer offset coefficient	1.0000multiplexer slope coefficient	1.0000fibre end	0.00T internal ref (°C)	20.06T ext. ref 1 (°C)	0.62T ext. ref 2 (°C)	13.05length (m)	temperature (°C)	Stokes	anti-Stokes-747.200	65.968	0.268	0.271
-746.185	-200.000	0.059	0.326
-745.171	190.607	0.189	0.284
-744.156	800.000	-0.130	0.435
-743.142	-42.986	0.237	0.120
-742.127	-88.729	-0.266	0.079
-741.112	264.205	0.106	0.185
-740.098	-75.598	-0.156	0.055
-739.083	-66.429	0.384	0.153
-738.069	3.578	-0.146	-0.107
-737.054	166.319	-0.188	0.267
-736.039	-200.000	-0.013	-0.190
-735.025	326.817	0.160	0.307
-734.010	411.117	0.076	-0.161
-732.996	-161.670	-0.135	-0.007
-731.981	-40.918	-0.270	-0.139
-730.966	800.000	-0.132	-0.475
-729.952	-124.619	-0.233	0.036
-728.937	197.884	-0.302	0.460
-727.923	800.000	-0.065	-0.241
-726.908	510.713	-0.211	-0.490
-725.894	-149.722	-0.407	0.032
-724.879	-47.723	0.252	0.122
-723.864	603.496	-0.178	0.442
-722.850	346.554	0.021	0.041
-721.835	69.492	0.195	0.200
-720.821	-89.801	-0.160	0.047
-719.806	-166.691	-0.063	0.003
-718.791	-200.000	-0.051	-0.233
-717.777	42.494	0.338	-0.307
-716.762	383.953	-0.090	-0.184
-715.748	228.754	0.112	-0.182
-714.733	-57.563	0.099	0.043
-713.718	23.863	0.219	-0.180
-712.704	-200.000	-0.005	0.131
-711.689	573.266	0.046	-0.112
-710.675	388.095	0.118	0.244
-709.660	48.387	0.054	0.050
-708.645	-200.000	0.002	0.047
-707.631	-90.805	0.214	0.062
-706.616	-82.465	0.398	-0.129
-705.602	-79.691	-0.099	0.033
-704.587	51.055	0.055	-0.052
-703.572	-145.157	-0.165	0.015
-702.558	-196.473	-0.030	-0.000
-701.543	-85.483	0.099	-0.031
-700.529	35.405	0.151	0.132
-699.514	-51.824	-0.227	0.105
-698.499	402.978	-0.125	0.262
-697.485	149.544	-0.168	0.227
-696.470	207.683	-0.052	0.080
-695.456	-200.000	-0.048	-0.319
-694.441	-86.998	0.006	0.002
-693.426	-27.471	0.093	0.054
-692.412	800.000	-0.068	0.281
-691.397	-73.414	-0.371	-0.135
-690.383	298.193	-0.079	0.145
-689.368	-122.538	-0.115	-0.019
-688.354	82.007	0.109	0.118
-687.339	-200.000	-0.023	-0.113
-686.324	800.000	0.107	-0.408
-685.310	-56.176	-0.150	0.067
-684.295	170.246	-0.093	0.133
-683.281	633.398	0.096	-0.243
-682.266	-46.795	-0.224	0.109
-681.251	604.930	0.096	-0.239
-680.237	102.655	-0.114	-0.132
-679.222	76.240	0.271	-0.286
-678.208	-12.470	0.193	-0.125
-677.193	-130.003	0.303	0.041
-676.178	285.419	-0.126	0.227
-675.164	-71.367	-0.352	0.131
-674.149	743.111	-0.103	-0.277
-673.135	112.125	-0.184	0.221
-672.120	106.688	-0.120	-0.142
-671.105	381.834	-0.129	0.264
-670.091	800.000	0.037	-0.115
-669.076	220.861	0.096	0.154
-668.062	800.000	0.082	-0.324
-667.047	-170.289	-0.129	0.005
-666.032	662.965	0.142	-0.365
-665.018	-200.000	0.006	0.365
-664.003	-21.855	0.201	0.122
-662.989	-200.000	-0.014	0.104
-661.974	11.085	-0.104	0.079
-660.959	761.703	0.107	0.288
-659.945	430.648	0.084	-0.181
-658.930	221.338	0.098	0.157
-657.916	123.367	-0.137	0.171
-656.901	-123.488	-0.156	-0.025
-655.886	244.831	0.114	-0.191
-654.872	-103.666	-0.377	-0.088
-653.857	800.000	-0.082	0.254
-652.843	-200.000	-0.017	0.207
-651.828	-143.120	-0.197	-0.019
-650.814	-200.000	0.019	0.103
-649.799	9.199	-0.047	0.035
-648.784	157.081	-0.112	-0.155
-647.770	-30.854	0.401	-0.226
-646.755	-200.000	-0.003	-0.095
-645.741	-50.351	-0.264	-0.124
-644.726	264.508	0.157	0.272
-643.711	-200.000	0.006	-0.080
-642.697	-98.510	-0.365	0.093
-641.682	45.153	0.072	-0.066
-640.668	-200.000	-0.060	-0.390
-639.653	-114.742	-0.152	-0.029
-638.638	-86.772	0.298	0.091
-637.624	-200.000	0.024	0.223
-636.609	-200.000	-0.005	0.178
-635.595	-70.713	-0.418	-0.157
-634.580	800.000	-0.070	-0.211
-633.565	-200.000	-0.011	0.178
-632.551	-72.549	-0.126	-0.046
-631.536	-53.664	-0.227	0.103
-630.522	800.000	0.030	0.129
-629.507	37.115	-0.112	0.099
-628.492	25.601	0.176	0.146
-627.478	-95.465	0.237	-0.063
-626.463	141.164	0.209	-0.275
-625.449	-181.347	0.376	0.007
-624.434	-200.000	0.038	-0.333
-623.419	-125.829	0.247	0.037
-622.405	-200.000	-0.034	0.281
-621.390	800.000	-0.087	-0.255
-620.376	-21.878	0.126	0.076
-619.361	-82.257	-0.303	-0.098
-618.346	-60.909	-0.044	-0.018
-617.332	-85.902	-0.280	0.086
-616.317	-133.456	-0.169	0.021
-615.303	-200.000	-0.108	-0.555
-614.288	-200.000	0.022	-0.118
-613.273	134.250	0.117	-0.151
-612.259	800.000	-0.042	-0.148
-611.244	172.753	-0.096	0.137
-610.230	-200.000	0.019	-0.248
-609.215	265.041	-0.138	0.238
-608.201	342.290	-0.105	0.205
-607.186	583.806	0.153	0.373
-606.171	291.675	0.052	-0.093
-605.157	-79.417	-0.453	-0.153
-604.142	-200.000	-0.031	-0.312
-603.128	227.110	-0.147	-0.238
-602.113	-200.000	-0.014	0.239
-601.098	13.675	0.010	0.007
-600.084	37.417	-0.063	-0.055
-599.069	-200.000	-0.075	0.379
-598.055	557.535	-0.060	-0.143
-597.040	110.601	-0.149	-0.179
-596.025	-200.000	-0.017	-0.196
-595.011	-35.946	0.201	0.108
-593.996	-84.521	0.164	-0.051
-592.982	41.363	-0.067	-0.060
-591.967	-48.187	-0.308	0.148
-590.952	-200.000	0.045	0.196
-589.938	-200.000	-0.000	0.139
-588.923	-200.000	-0.062	0.495
-587.909	-200.000	-0.028	0.249
-586.894	617.298	-0.146	-0.363
-585.879	428.484	-0.044	-0.094
-584.865	-67.794	-0.290	-0.113
-583.850	96.461	0.014	-0.016
-582.836	31.281	0.129	0.110
-581.821	17.598	-0.290	0.229
-580.806	-54.816	-0.241	0.108
-579.792	279.933	-0.133	-0.237
-578.777	800.000	0.035	-0.123
-577.763	511.323	0.091	0.210
-576.748	-200.000	0.006	-0.178
-575.733	-200.000	-0.018	-0.092
-574.719	234.009	0.061	-0.100
-573.704	800.000	0.066	0.205
-572.690	-200.000	-0.001	0.034
-571.675	-68.780	-0.317	-0.122
-570.661	-43.266	-0.168	0.085
-569.646	-200.000	-0.107	-0.568
-568.631	36.096	0.079	-0.069
-567.617	-200.000	0.017	-0.234
-566.602	-200.000	0.003	-0.132
-565.588	800.000	0.035	-0.116
-564.573	58.491	-0.075	0.073
-563.558	-15.354	-0.350	0.222
-562.544	106.173	-0.162	0.191
-561.529	-28.317	0.264	0.151
-560.515	318.011	0.127	-0.239
-559.500	101.842	-0.122	-0.141
-558.485	-3.768	-0.238	0.164
-557.471	-70.396	-0.305	0.115
-556.456	-5.669	-0.163	-0.111
-555.442	174.716	0.053	-0.077
-554.427	-7.417	0.212	0.143
-553.412	-18.870	-0.417	-0.257
-552.398	65.527	-0.065	0.065
-551.383	-95.570	0.075	0.020
-550.369	-50.305	-0.235	0.110
-549.354	-200.000	-0.022	0.125
-548.339	639.708	0.118	-0.298
-547.325	-111.544	-0.132	0.027
-546.310	133.970	-0.079	0.102
-545.296	800.000	-0.096	0.294
-544.281	103.209	0.109	0.126
-543.266	773.369	-0.046	0.124
-542.252	104.673	0.203	-0.237
-541.237	-109.600	-0.226	0.047
-540.223	663.998	-0.122	0.311
-539.208	279.304	0.105	-0.186
-538.193	-200.000	0.014	-0.065
-537.179	-6.415	-0.229	-0.155
-536.164	-88.218	-0.085	0.025
-535.150	-4.178	-0.336	0.230
-534.135	800.000	0.130	0.405
-533.121	29.331	-0.148	0.124
-532.106	-112.550	-0.322	-0.064
-531.091	-80.713	-0.153	-0.050
-530.077	34.170	-0.088	-0.076
-529.062	-17.470	-0.119	0.074
-528.048	-200.000	0.021	-0.105
-527.033	-99.052	0.165	-0.041
-526.018	85.711	0.239	0.260
-525.004	493.247	0.155	-0.352
-523.989	-150.061	-0.334	0.026
-522.975	26.843	-0.095	0.079
-521.960	800.000	0.055	-0.153
-520.945	154.120	0.098	0.133
-519.931	800.000	-0.095	-0.291
-518.916	64.454	0.091	-0.091
-517.902	-200.000	-0.058	0.422
-516.887	63.474	0.276	-0.274
-515.872	312.760	0.081	-0.152
-514.858	337.197	0.098	-0.189
-513.843	-72.241	-0.177	-0.065
-512.829	71.284	0.294	-0.302
-511.814	-200.000	-0.012	-0.201
-510.799	186.491	0.281	-0.414
-509.785	-178.222	-0.157	0.004
-508.770	285.588	0.122	0.217
-507.756	364.493	-0.122	0.244
-506.741	690.000	0.076	0.197
-505.726	800.000	0.130	-0.400
-504.712	-200.000	-0.008	0.230
-503.697	-59.069	-0.146	0.063
-502.683	-200.000	0.032	-0.182
-501.668	184.354	-0.015	0.022
-500.653	-200.000	-0.025	-0.192
-499.639	123.835	0.069	0.085
-498.624	229.617	-0.249	0.402
-497.610	338.427	0.053	0.102
-496.595	348.616	-0.087	0.170
-495.581	-89.428	-0.276	-0.080
-494.566	115.026	0.144	0.174
-493.551	-200.000	-0.036	-0.176
-492.537	-200.000	0.016	-0.232
-491.522	-38.842	0.230	-0.120
-490.508	-92.171	0.205	-0.057
-489.493	542.552	0.092	-0.216
-488.478	16.109	0.066	-0.052
-487.464	-200.000	0.012	-0.068
-486.449	52.915	-0.115	-0.109
-485.435	-187.779	0.153	-0.002
-484.420	800.000	-0.040	0.117
-483.405	227.823	-0.199	0.320
-482.391	800.000	0.109	0.310
-481.376	206.698	-0.117	0.180
-480.362	800.000	0.050	0.202
-479.347	-200.000	-0.055	-0.354
-478.332	18.532	0.162	-0.128
-477.318	172.740	-0.121	-0.173
-476.303	-104.355	-0.116	-0.027
-475.289	349.018	-0.059	-0.116
-474.274	-200.000	-0.017	0.204
-473.259	800.000	-0.015	0.055
-472.245	-122.079	0.151	0.025
-471.230	-200.000	0.020	0.192
-470.216	-83.875	-0.322	0.102
-469.201	-149.730	0.263	0.020
-468.186	-15.139	-0.322	-0.204
-467.172	-150.317	-0.318	0.024
-466.157	-200.000	-0.019	-0.371
-465.143	83.694	0.096	-0.104
-464.128	800.000	0.116	-0.342
-463.113	0.816	0.182	-0.129
-462.099	-200.000	-0.007	0.043
-461.084	49.077	-0.054	0.050
-460.070	-159.642	0.110	0.006
-459.055	-131.231	-0.223	0.029
-458.040	-200.000	-0.002	0.017
-457.026	799.531	-0.176	-0.480
-456.011	-32.510	0.176	0.097
-454.997	735.900	-0.117	0.309
-453.982	-170.112	0.201	0.007
-452.968	800.000	-0.016	-0.056
-451.953	-75.649	-0.269	-0.095
-450.938	-67.853	-0.373	-0.144
-449.924	-95.504	0.060	-0.016
-448.909	18.068	-0.255	-0.201
-447.895	-120.227	0.171	0.029
-446.880	-134.281	-0.268	0.033
-445.865	154.893	-0.120	-0.163
-444.851	-111.114	0.243	-0.049
-443.836	513.496	-0.089	-0.206
-442.822	337.134	0.182	-0.349
-441.807	555.380	0.010	-0.023
-440.792	559.370	0.081	0.194
-439.778	800.000	0.066	0.197
-438.763	-111.235	0.201	-0.041
-437.749	-200.000	-0.020	0.250
-436.734	40.668	-0.144	-0.128
-435.719	-94.968	0.244	-0.065
-434.705	-5.838	0.200	0.135
-433.690	-26.730	-0.046	0.027
-432.676	-45.031	-0.369	0.181
-431.661	-185.289	-0.171	0.003
-430.646	-123.357	0.196	-0.031
-429.632	800.000	0.101	0.385
-428.617	74.346	-0.185	-0.192
-427.603	800.000	0.041	0.161
-426.588	-200.000	-0.025	-0.218
-425.573	-118.220	-0.062	0.011
-424.559	27.522	-0.236	-0.196
-423.544	260.346	-0.066	-0.112
-422.530	90.349	0.166	-0.183
-421.515	-12.443	-0.143	0.092
-420.500	-100.844	0.221	-0.054
-419.486	800.000	-0.057	0.226
-418.471	-200.000	-0.010	0.296
-417.457	68.404	-0.153	0.155
-416.442	-200.000	-0.042	-0.208
-415.428	-34.657	-0.446	-0.241
-414.413	-200.000	0.004	-0.106
-413.398	-67.274	0.322	0.125
-412.384	-73.602	-0.453	0.163
-411.369	195.134	0.153	-0.229
-410.355	-79.002	-0.201	0.068
-409.340	790.474	0.117	0.318
-408.325	-127.674	0.361	-0.052
-407.311	-125.372	-0.333	0.050
-406.296	-26.954	0.006	-0.004
-405.282	207.211	0.053	-0.082
-404.267	-173.295	-0.107	0.003
-403.252	-200.000	0.042	0.348
-402.238	44.219	0.151	0.137
-401.223	-121.805	-0.086	-0.014
-400.209	-200.000	0.023	-0.296
-399.194	206.086	0.158	0.242
-398.179	-56.462	-0.327	0.143
-397.165	800.000	0.032	0.094
-396.150	-63.843	0.092	-0.037
-395.136	62.754	0.064	-0.063
-394.121	641.880	0.026	-0.066
-393.106	-200.000	-0.040	-0.347
-392.092	566.440	0.095	0.226
-391.077	44.094	0.032	-0.029
-390.063	-50.958	-0.378	0.175
-389.048	-141.145	0.320	-0.032
-388.033	103.454	0.109	0.126
-387.019	-200.000	-0.001	0.348
-386.004	-11.664	0.299	0.193
-384.990	-200.000	-0.024	-0.131
-383.975	221.359	0.191	0.302
-382.960	94.169	-0.219	0.245
-381.946	-200.000	0.068	-0.310
-380.931	-91.612	-0.215	0.060
-379.917	-29.315	-0.099	0.056
-378.902	-200.000	0.029	0.173
-377.888	-68.388	-0.228	0.087
-376.873	-13.380	0.054	0.034
-375.858	-102.793	-0.032	-0.007
-374.844	-200.000	-0.128	-0.584
-373.829	-200.000	-0.065	0.373
-372.815	195.597	0.026	0.038
-371.800	24.160	0.211	-0.172
-370.785	-20.579	-0.337	0.204
-369.771	-200.000	0.066	0.293
-368.756	-200.000	0.007	-0.213
-367.742	800.000	0.132	-0.388
-366.727	800.000	0.112	-0.484
-365.712	-75.128	0.319	-0.112
-364.698	94.520	-0.281	-0.314
-363.683	-113.713	0.380	0.073
-362.669	-186.855	0.341	0.005
-361.654	95.486	0.117	0.132
-360.639	-149.082	0.457	-0.036
-359.625	800.000	-0.006	0.020
-358.610	214.284	0.053	0.083
-357.596	800.000	-0.047	0.146
-356.581	403.755	0.038	-0.079
-355.566	-101.584	-0.266	-0.064
-354.552	152.862	-0.128	-0.172
-353.537	-200.000	0.003	0.231
-352.523	800.000	-0.004	-0.014
-351.508	-150.321	-0.102	-0.008
-350.493	-54.814	0.270	0.120
-349.479	-31.009	0.280	0.156
-348.464	-30.244	-0.014	0.008
-347.450	7.308	0.068	-0.050
-346.435	-200.000	-0.006	0.168
-345.420	-200.000	0.032	0.226
-344.406	-74.270	0.209	0.074
-343.391	-3.987	0.124	-0.085
-342.377	175.702	0.190	-0.271
-341.362	276.995	-0.033	0.058
-340.348	105.719	-0.139	0.161
-339.333	666.842	0.095	0.240
-338.318	145.561	0.111	0.146
-337.304	389.382	0.003	-0.006
-336.289	-200.000	-0.001	0.013
-335.275	64.832	-0.133	-0.132
-334.260	222.058	-0.119	-0.189
-333.245	-145.631	0.243	-0.021
-332.231	16.305	0.124	-0.096
-331.216	220.156	0.085	-0.135
-330.202	-82.731	0.259	-0.082
-329.187	262.652	-0.105	0.179
-328.172	-164.778	0.116	0.005
-327.158	68.651	0.247	-0.249
-326.143	-77.434	0.134	-0.046
-325.129	-200.000	-0.001	-0.062
-324.114	-200.000	-0.019	-0.170
-323.099	111.369	-0.177	0.210
-322.085	-200.000	-0.068	-0.473
-321.070	451.160	-0.079	0.171
-320.056	168.715	-0.215	-0.301
-319.041	23.392	-0.212	-0.171
-318.026	-200.000	0.008	-0.122
-317.012	-13.518	0.225	-0.143
-315.997	19.719	0.104	-0.083
-314.983	-112.430	-0.384	0.075
-313.968	-62.874	0.165	0.067
-312.953	-146.950	0.213	-0.018
-311.939	-22.596	-0.293	0.174
-310.924	-151.680	-0.222	0.016
-309.910	-79.595	-0.203	0.067
-308.895	-122.533	-0.265	0.042
-307.880	-87.198	0.447	0.133
-306.866	800.000	-0.060	0.174
-305.851	-200.000	-0.034	-0.164
-304.837	10.788	0.299	0.224
-303.822	-200.000	-0.013	-0.077
-302.807	198.330	0.075	-0.112
-301.793	-103.971	0.277	0.064
-300.778	-43.003	0.278	0.139
-299.764	-114.510	-0.137	0.026
-298.749	403.826	0.122	0.252
-297.735	25.387	0.090	0.074
-296.720	149.436	0.128	-0.170
-295.705	-139.800	0.183	-0.019
-294.691	800.000	0.004	-0.015
-293.676	159.351	0.066	-0.090
-292.662	-200.000	0.026	-0.173
-291.647	30.926	-0.281	0.236
-290.632	800.000	0.065	0.177
-289.618	-31.576	0.115	-0.064
-288.603	180.514	0.023	-0.033
-287.589	463.491	-0.105	0.231
-286.574	443.941	0.160	0.345
-285.559	27.746	-0.229	-0.189
-284.545	309.064	0.153	0.281
-283.530	20.622	-0.035	0.028
-282.516	-14.884	-0.152	0.096
-281.501	284.224	0.098	0.172
-280.486	800.000	-0.080	0.251
-279.472	-61.964	-0.068	-0.028
-278.457	-101.956	-0.257	-0.061
-277.443	-171.687	-0.089	-0.003
-276.428	54.247	0.276	-0.261
-275.413	-113.003	0.140	0.027
-274.399	-200.000	0.027	0.231
-273.384	8.523	0.213	-0.157
-272.370	49.934	0.181	0.167
-271.355	-95.847	0.540	0.141
-270.340	-155.793	-0.313	-0.020
-269.326	18.777	0.114	0.090
-268.311	800.000	0.099	-0.270
-267.297	97.768	-0.030	-0.034
-266.282	-83.918	0.247	0.077
-265.267	15.143	0.383	-0.294
-264.253	28.642	0.200	-0.166
-263.238	459.212	-0.065	0.142
-262.224	10.911	0.177	-0.133
-261.209	800.000	-0.043	0.121
-260.195	-62.891	0.479	0.194
-259.180	-197.856	-0.211	-0.001
-258.165	-26.215	0.132	0.076
-257.151	800.000	-0.044	-0.164
-256.136	-11.574	-0.316	0.203
-255.122	800.000	-0.040	0.156
-254.107	-54.821	0.187	-0.083
-253.092	112.473	-0.210	0.249
-252.078	-200.000	-0.046	-0.296
-251.063	-200.000	0.023	-0.101
-250.049	243.479	0.050	0.082
-249.034	187.812	0.123	0.181
-248.019	-131.356	0.223	-0.029
-247.005	-200.000	0.070	0.309
-245.990	9.020	-0.193	0.143
-244.976	506.383	-0.059	0.135
-243.961	184.300	0.171	0.249
-242.946	-143.165	0.211	-0.020
-241.932	800.000	0.044	-0.147
-240.917	-123.078	-0.145	-0.023
-239.903	98.407	0.017	-0.019
-238.888	-27.523	0.114	0.065
-237.873	-200.000	-0.051	-0.366
-236.859	51.143	-0.325	0.302
-235.844	-60.966	-0.216	-0.089
-234.830	-200.000	-0.056	-0.268
-233.815	613.912	0.171	0.420
-232.800	143.454	0.068	-0.088
-231.786	-200.000	0.058	0.294
-230.771	556.159	0.129	0.304
-229.757	-20.320	-0.097	0.058
-228.742	-84.818	0.080	-0.025
-227.727	-112.310	-0.111	-0.022
-226.713	-200.000	-0.029	0.332
-225.698	-51.088	0.167	-0.077
-224.684	800.000	-0.097	-0.268
-223.669	-37.906	0.380	0.198
-222.655	11.955	-0.159	-0.120
-221.640	-173.538	0.188	-0.006
-220.625	-21.673	-0.025	0.015
-219.611	27.949	-0.102	-0.085
-218.596	61.121	0.258	-0.251
-217.582	119.985	0.154	-0.187
-216.567	-80.910	0.196	-0.064
-215.552	606.004	0.072	0.175
-214.538	800.000	0.029	-0.089
-213.523	-72.497	-0.386	-0.140
-212.509	-200.000	-0.000	-0.127
-211.494	3.191	-0.131	-0.093
-210.479	222.617	-0.126	0.199
-209.465	171.164	-0.222	0.312
-208.450	-118.227	-0.087	0.015
-207.436	-93.552	-0.027	0.007
-206.421	-200.000	0.013	0.192
-205.406	-9.348	-0.025	0.016
-204.392	-200.000	-0.013	0.271
-203.377	219.949	-0.132	-0.207
-202.363	800.000	0.070	0.301
-201.348	800.000	0.080	0.284
-200.333	-72.388	-0.317	-0.115
-199.319	635.477	0.050	0.124
-198.304	-165.150	0.237	-0.010
-197.290	155.101	0.154	-0.208
-196.275	109.987	0.163	-0.191
-195.260	449.334	-0.115	0.249
-194.246	-53.476	0.112	0.050
-193.231	800.000	0.029	0.092
-192.217	-92.230	0.252	0.070
-191.202	-30.697	0.523	-0.290
-190.187	-200.000	-0.025	0.241
-189.173	0.934	0.032	0.022
-188.158	-88.176	0.448	0.131
-187.144	-123.548	0.240	-0.037
-186.129	65.425	0.270	0.267
-185.114	-200.000	-0.020	-0.243
-184.100	800.000	0.064	-0.272
-183.085	800.000	-0.088	-0.257
-182.071	39.619	0.107	0.094
-181.056	800.000	0.043	-0.168
-180.042	-160.151	0.225	0.012
-179.027	-48.281	0.061	-0.029
-178.012	-15.839	-0.163	0.101
-176.998	47.778	0.049	0.044
-175.983	-34.669	-0.126	-0.067
-174.969	-200.000	0.012	-0.246
-173.954	800.000	-0.048	0.172
-172.939	-200.000	0.010	-0.289
-171.925	517.705	-0.060	0.136
-170.910	-57.176	0.120	-0.052
-169.896	-78.280	-0.271	-0.091
-168.881	-18.600	0.223	-0.136
-167.866	-62.128	0.024	-0.010
-166.852	-108.554	-0.088	-0.019
-165.837	-96.877	-0.210	0.054
-164.823	-30.017	-0.285	0.159
-163.808	-200.000	0.020	-0.096
-162.793	-116.121	0.428	0.078
-161.779	52.291	-0.131	0.122
-160.764	193.054	0.202	-0.298
-159.750	-179.989	-0.295	-0.006
-158.735	-200.000	0.042	-0.232
-157.720	30.870	-0.016	0.014
-156.706	83.779	0.167	-0.178
-155.691	109.019	-0.086	0.101
-154.677	167.985	-0.162	0.225
-153.662	782.705	0.049	-0.131
-152.647	-200.000	0.007	0.231
-151.633	-93.750	-0.317	-0.085
-150.618	62.354	-0.229	-0.223
-149.604	-120.647	0.271	-0.045
-148.589	-28.722	-0.070	0.039
-147.574	112.289	-0.204	0.241
-146.560	-186.530	-0.135	0.002
-145.545	-161.041	0.335	0.017
-144.531	166.213	-0.056	-0.077
-143.516	-55.595	-0.391	-0.171
-142.502	-53.616	0.161	-0.072
-141.487	275.750	-0.051	0.088
-140.472	-6.438	0.125	0.083
-139.458	-200.000	0.017	0.278
-138.443	205.964	0.088	-0.133
-137.429	21.877	0.159	0.126
-136.414	-200.000	0.027	0.401
-135.399	-109.267	-0.328	-0.068
-134.385	234.361	-0.135	-0.218
-133.370	126.365	0.224	-0.277
-132.356	-14.464	-0.080	-0.050
-131.341	-200.000	0.020	0.092
-130.326	-44.805	-0.218	-0.106
-129.312	262.034	0.064	-0.108
-128.297	-118.612	-0.041	-0.007
-127.283	-34.504	0.140	-0.075
-126.268	7.396	0.097	-0.071
-125.253	3.018	0.187	-0.133
-124.239	-200.000	0.049	0.290
-123.224	-32.277	0.145	-0.079
-122.210	-70.686	0.065	0.024
-121.195	41.711	-0.192	-0.170
