DTS Sentinel unit serial number:	SN413079Multiplexer serial number:	ORYXHardware model number:	OX4-SRSoftware version number:	ORYX F/W v4.00 Oryx Data Collector v3.7.2.0data status	okinstallation	princeton_trtdifferential loss correction	single-endedforward channel	channel 3reverse channel	N/Adate	2019/09/14time	23:40:35forward acquisition time	60.00reverse acquisition time	0.00gamma	496.2192k internal	0.2319k external	0.2319temperature offset calibration	0.9983default loss term (dB/km)	0.3790temperature slope calibration	1.0000multiplexer offset coefficient	1.0000multiplexer slope coefficient	1.0000fibre end	0.00T internal ref (°C)	32.31T ext. ref 1 (°C)	4.65T ext. ref 2 (°C)	27.30length (m)	temperature (°C)	Stokes	anti-Stokes-747.200	-151.508	0.174	-0.013
-746.185	276.184	-0.121	0.217
-745.171	-38.416	-0.164	-0.088
-744.156	-200.000	0.051	-0.224
-743.142	-4.205	-0.229	-0.161
-742.127	-132.006	0.229	-0.030
-741.112	-143.761	0.403	0.039
-740.098	-39.844	-0.197	0.104
-739.083	-55.614	0.292	-0.132
-738.069	14.946	0.250	0.198
-737.054	800.000	0.044	-0.186
-736.039	-160.903	-0.192	-0.010
-735.025	-33.894	0.044	-0.024
-734.010	149.061	-0.163	-0.223
-732.996	800.000	-0.102	-0.323
-731.981	-200.000	0.008	-0.091
-730.966	433.456	-0.130	-0.286
-729.952	-85.374	0.190	-0.060
-728.937	9.900	0.020	0.016
-727.923	12.870	-0.241	0.188
-726.908	628.766	0.115	-0.294
-725.894	35.522	0.065	0.058
-724.879	-200.000	0.064	-0.434
-723.864	545.338	-0.054	0.132
-722.850	-200.000	0.012	-0.084
-721.835	-157.788	0.066	-0.004
-720.821	-32.475	0.170	-0.096
-719.806	-41.139	0.204	0.106
-718.791	-48.638	-0.210	0.102
-717.777	-30.408	0.069	0.040
-716.762	125.161	0.209	-0.266
-715.748	-40.087	-0.112	0.059
-714.733	27.958	0.185	-0.158
-713.718	-180.333	-0.259	-0.005
-712.704	141.831	-0.282	0.378
-711.689	-200.000	-0.010	-0.475
-710.675	-168.449	0.080	0.003
-709.660	57.896	-0.192	-0.190
-708.645	37.103	-0.228	-0.204
-707.631	-2.975	-0.192	-0.135
-706.616	291.091	0.060	0.111
-705.602	70.702	-0.150	0.157
-704.587	-69.710	-0.205	-0.079
-703.572	-200.000	0.044	-0.242
-702.558	800.000	-0.025	0.094
-701.543	602.709	-0.092	0.231
-700.529	797.743	0.062	0.173
-699.514	6.357	0.275	-0.206
-698.499	-77.515	-0.323	0.113
-697.485	655.361	0.036	0.095
-696.470	-99.618	-0.265	-0.067
-695.456	800.000	0.095	-0.311
-694.441	46.475	0.198	-0.186
-693.426	90.447	-0.204	0.231
-692.412	200.998	-0.052	-0.080
-691.397	-24.175	-0.219	0.132
-690.383	261.914	0.074	-0.129
-689.368	544.116	0.055	-0.134
-688.354	549.118	-0.040	-0.096
-687.339	-90.778	-0.275	0.080
-686.324	16.003	-0.300	0.239
-685.310	20.785	-0.115	-0.094
-684.295	389.779	0.075	-0.158
-683.281	-55.239	0.143	-0.065
-682.266	800.000	-0.070	-0.198
-681.251	-197.622	0.364	0.002
-680.237	-8.825	0.205	-0.139
-679.222	-69.745	-0.244	0.094
-678.208	-13.057	0.183	-0.120
-677.193	-23.659	-0.161	-0.098
-676.178	-61.921	-0.096	0.040
-675.164	-83.276	-0.237	-0.077
-674.149	-200.000	0.062	0.288
-673.135	-35.111	-0.178	-0.098
-672.120	-139.373	-0.182	0.020
-671.105	3.004	-0.196	0.143
-670.091	-79.860	-0.101	-0.034
-669.076	313.315	-0.163	-0.309
-668.062	50.361	-0.338	-0.322
-667.047	195.399	0.040	-0.061
-666.032	132.579	0.142	-0.184
-665.018	800.000	-0.005	-0.017
-664.003	737.166	0.120	-0.325
-662.989	27.224	-0.303	-0.257
-661.974	-7.448	-0.305	-0.208
-660.959	-183.661	-0.334	-0.006
-659.945	85.872	-0.206	-0.229
-658.930	-96.919	-0.184	-0.049
-657.916	-55.217	-0.164	-0.074
-656.901	425.918	0.141	-0.305
-655.886	-200.000	-0.010	0.219
-654.872	-112.898	0.176	0.035
-653.857	-163.018	0.046	-0.002
-652.843	538.407	0.067	-0.162
-651.828	-31.013	-0.235	0.134
-650.814	-200.000	-0.014	0.263
-649.799	-120.065	-0.258	0.044
-648.784	425.456	-0.080	0.173
-647.770	-189.954	-0.211	-0.002
-646.755	-200.000	-0.008	-0.211
-645.741	-200.000	0.000	0.012
-644.726	114.030	0.118	-0.145
-643.711	211.567	-0.164	-0.261
-642.697	-121.702	0.051	-0.009
-641.682	-200.000	0.010	0.132
-640.668	98.882	0.108	0.125
-639.653	-53.879	-0.129	0.059
-638.638	37.922	0.046	0.041
-637.624	86.798	-0.139	-0.154
-636.609	-64.453	0.193	-0.079
-635.595	146.868	-0.108	-0.146
-634.580	99.797	-0.097	0.113
-633.565	800.000	0.109	-0.396
-632.551	-200.000	0.061	-0.301
-631.536	-200.000	-0.030	-0.171
-630.522	291.215	0.056	-0.103
-629.507	-94.279	-0.311	-0.086
-628.492	-200.000	-0.005	-0.179
-627.478	83.960	-0.026	0.029
-626.463	-200.000	-0.046	0.242
-625.449	331.209	-0.030	0.058
-624.434	42.052	0.109	-0.099
-623.419	81.122	-0.073	-0.079
-622.405	-71.772	-0.134	-0.050
-621.390	190.818	0.084	0.127
-620.376	244.353	-0.081	-0.138
-619.361	-200.000	-0.020	-0.279
-618.346	-28.621	-0.350	0.203
-617.332	-200.000	0.013	0.059
-616.317	-75.773	-0.120	0.043
-615.303	84.772	0.080	-0.088
-614.288	-73.477	-0.298	-0.109
-613.273	144.542	-0.221	0.297
-612.259	800.000	0.107	-0.311
-611.244	359.598	0.169	-0.340
-610.230	800.000	0.064	-0.273
-609.215	-200.000	-0.033	-0.171
-608.201	54.857	0.181	-0.176
-607.186	-200.000	0.014	0.220
-606.171	-57.899	0.147	0.065
-605.157	-149.855	-0.100	0.008
-604.142	349.052	-0.070	-0.140
-603.128	-35.807	0.089	-0.048
-602.113	-200.000	0.058	0.290
-601.098	-200.000	-0.023	0.102
-600.084	-200.000	-0.051	0.325
-599.069	-153.151	-0.115	0.008
-598.055	-120.977	-0.445	0.075
-597.040	23.655	0.132	-0.109
-596.025	-57.749	-0.163	-0.072
-595.011	-109.638	-0.262	-0.056
-593.996	-153.378	-0.206	0.014
-592.982	-105.845	0.192	-0.044
-591.967	-88.683	0.052	-0.016
-590.952	-94.460	-0.450	0.123
-589.938	-59.770	0.149	-0.064
-588.923	-71.883	0.114	0.043
-587.909	-14.326	0.156	0.101
-586.894	800.000	-0.058	-0.230
-585.879	-173.188	-0.120	-0.004
-584.865	-115.746	0.297	-0.056
-583.850	-200.000	-0.004	-0.098
-582.836	-200.000	0.044	-0.305
-581.821	228.816	-0.052	0.084
-580.806	-83.334	0.029	-0.009
-579.792	-178.077	0.045	0.001
-578.777	20.390	0.113	0.092
-577.763	-200.000	0.016	-0.225
-576.748	10.135	-0.348	-0.266
-575.733	-200.000	0.019	-0.132
-574.719	71.195	-0.199	0.207
-573.704	18.882	0.099	0.080
-572.690	-69.136	0.367	-0.142
-571.675	-200.000	0.011	0.250
-570.661	-200.000	-0.011	-0.104
-569.646	529.974	0.153	-0.363
-568.631	315.096	0.108	-0.204
-567.617	-138.824	0.166	-0.018
-566.602	-200.000	-0.010	0.218
-565.588	800.000	-0.040	-0.122
-564.573	-95.248	0.045	0.012
-563.558	92.913	0.258	0.293
-562.544	140.026	-0.122	-0.161
-561.529	-71.215	0.486	-0.183
-560.515	-200.000	0.007	0.099
-559.500	-200.000	0.082	0.422
-558.485	-44.784	0.302	0.151
-557.471	-200.000	0.063	-0.364
-556.456	327.896	-0.142	-0.273
-555.442	-62.683	0.124	0.052
-554.427	6.142	-0.051	-0.038
-553.412	800.000	-0.058	-0.212
-552.398	159.384	-0.184	0.258
-551.383	-81.720	0.448	0.148
-550.369	-200.000	0.004	0.085
-549.354	41.708	-0.092	0.084
-548.339	2.901	-0.164	0.120
-547.325	-200.000	0.055	-0.248
-546.310	-111.959	-0.147	-0.030
-545.296	-91.109	-0.098	0.028
-544.281	753.545	-0.044	-0.119
-543.266	-153.557	0.328	0.023
-542.252	122.658	0.206	-0.259
-541.237	-67.631	0.274	0.108
-540.223	-64.570	-0.276	0.112
-539.208	122.131	0.147	-0.184
-538.193	-15.119	0.208	0.133
-537.179	749.232	0.014	-0.039
-536.164	800.000	0.047	-0.203
-535.150	608.796	0.133	0.333
-534.135	-78.271	-0.119	-0.041
-533.121	459.833	-0.151	-0.338
-532.106	182.160	0.093	0.138
-531.091	268.290	-0.151	0.266
-530.077	-116.865	0.161	0.030
-529.062	-116.337	0.407	-0.076
-528.048	800.000	-0.040	-0.166
-527.033	-75.248	0.171	0.061
-526.018	-119.072	0.238	-0.042
-525.004	-60.508	-0.530	-0.226
-523.989	428.688	0.142	0.307
-522.975	-111.077	0.116	0.024
-521.960	800.000	0.092	0.332
-520.945	20.232	-0.021	0.017
-519.931	-80.218	-0.179	0.060
-518.916	-200.000	-0.025	-0.295
-517.902	325.177	0.072	-0.138
-516.887	-200.000	0.008	0.286
-515.872	-177.852	0.640	0.015
-514.858	-133.416	-0.111	0.014
-513.843	-200.000	0.016	0.163
-512.829	-200.000	0.042	0.269
-511.814	134.338	0.127	0.165
-510.799	-65.731	-0.182	0.073
-509.785	56.212	-0.205	0.200
-508.770	533.442	0.097	-0.231
-507.756	-122.067	0.093	-0.015
-506.741	3.074	-0.312	-0.228
-505.726	387.861	0.099	-0.205
-504.712	-200.000	-0.048	0.298
-503.697	-200.000	-0.003	0.124
-502.683	800.000	-0.136	-0.438
-501.668	-95.086	-0.460	0.124
-500.653	-38.597	-0.192	0.102
-499.639	41.074	-0.085	-0.077
-498.624	-61.808	-0.076	0.032
-497.610	570.625	-0.103	-0.250
-496.595	800.000	-0.106	0.352
-495.581	-200.000	0.028	0.190
-494.566	24.365	0.132	-0.109
-493.551	46.166	-0.135	0.125
-492.537	-200.000	-0.013	0.093
-491.522	-141.231	0.228	-0.023
-490.508	142.690	0.131	-0.174
-489.493	157.374	0.058	0.081
-488.478	-28.857	-0.292	-0.168
-487.464	-144.548	0.386	0.036
-486.449	-115.791	0.339	-0.063
-485.435	-2.200	0.078	-0.055
-484.420	106.862	0.329	0.392
-483.405	800.000	-0.026	0.077
-482.391	-200.000	-0.035	-0.350
-481.376	-59.415	-0.267	-0.115
-480.362	800.000	-0.032	-0.094
-479.347	142.328	-0.223	-0.296
-478.332	-79.477	-0.216	-0.073
-477.318	224.250	-0.114	0.184
-476.303	-1.050	0.202	0.143
-475.289	175.762	-0.105	0.152
-474.274	20.074	0.234	-0.189
-473.259	-187.422	-0.134	-0.002
-472.245	-200.000	-0.028	-0.174
-471.230	-23.804	-0.303	-0.181
-470.216	228.497	0.134	0.219
-469.201	70.453	0.262	0.271
-468.186	376.677	-0.101	0.207
-467.172	-200.000	-0.001	0.068
-466.157	51.705	0.212	-0.202
-465.143	-103.269	0.532	0.126
-464.128	-200.000	-0.016	0.164
-463.113	111.044	0.146	0.176
-462.099	-19.222	0.078	0.049
-461.084	-146.673	0.166	0.014
-460.070	-200.000	0.011	0.052
-459.055	-200.000	-0.006	0.150
-458.040	-200.000	-0.035	0.159
-457.026	208.913	-0.125	-0.196
-456.011	204.295	-0.044	0.068
-454.997	272.454	0.115	0.202
-453.982	-102.432	-0.265	0.063
-452.968	-102.809	-0.080	0.019
-451.953	322.241	0.094	-0.179
-450.938	-200.000	0.020	0.127
-449.924	-122.955	-0.529	0.085
-448.909	326.439	-0.169	-0.324
-447.895	-48.123	-0.157	0.076
-446.880	-200.000	-0.105	0.000
-445.865	78.955	-0.050	-0.053
-444.851	-200.000	0.041	0.230
-443.836	-145.225	0.064	0.006
-442.822	19.087	0.029	-0.023
-441.807	204.678	0.101	0.157
-440.792	26.068	-0.081	-0.067
-439.778	204.381	-0.054	-0.083
-438.763	342.699	0.043	0.084
-437.749	184.616	-0.161	-0.239
-436.734	-125.254	-0.259	-0.040
-435.719	-50.871	0.180	-0.084
-434.705	-84.257	0.074	0.023
-433.690	800.000	0.029	-0.107
-432.676	128.559	-0.065	-0.083
-431.661	-72.672	-0.200	-0.074
-430.646	-66.804	0.508	-0.201
-429.632	-83.134	0.328	-0.105
-428.617	145.873	-0.235	0.315
-427.603	48.786	0.069	-0.064
-426.588	142.664	-0.067	-0.089
-425.573	-133.521	0.257	0.032
-424.559	-122.948	0.215	0.035
-423.544	41.786	-0.171	-0.154
-422.530	320.625	-0.067	0.126
-421.515	-200.000	0.073	-0.374
-420.500	-117.052	-0.352	-0.064
-419.486	-130.958	0.221	0.030
-418.471	179.409	-0.241	0.352
-417.457	-46.681	0.194	-0.095
-416.442	148.147	-0.248	-0.335
-415.428	-149.243	0.304	0.024
-414.413	-31.391	0.212	-0.119
-413.398	-50.010	-0.167	-0.079
-412.384	-200.000	-0.044	-0.262
-411.369	-109.686	-0.142	-0.030
-410.355	-73.572	0.165	-0.060
-409.340	43.297	0.077	-0.071
-408.325	-56.027	-0.123	-0.055
-407.311	800.000	0.041	-0.164
-406.296	515.902	-0.058	-0.136
-405.282	22.265	0.264	0.215
-404.267	-200.000	0.061	0.293
-403.252	-99.597	-0.419	-0.105
-402.238	26.639	0.218	-0.182
-401.223	-17.117	0.270	-0.170
-400.209	247.213	-0.092	-0.155
-399.194	-107.430	-0.286	-0.063
-398.179	-200.000	0.015	0.194
-397.165	-82.446	-0.247	-0.080
-396.150	-36.724	0.171	0.092
-395.136	800.000	-0.060	-0.174
-394.121	-89.746	-0.237	0.069
-393.106	189.178	0.037	-0.056
-392.092	-100.866	0.034	-0.008
-391.077	41.007	0.221	0.199
-390.063	54.579	-0.114	-0.109
-389.048	-200.000	0.003	0.158
-388.033	-74.894	0.018	0.007
-387.019	-200.000	-0.012	0.055
-386.004	103.557	0.156	0.182
-384.990	266.901	0.076	0.133
-383.975	-104.171	-0.069	0.016
-382.960	-200.000	-0.052	-0.245
-381.946	-124.665	0.220	0.034
-380.931	-156.326	-0.289	-0.018
-379.917	-37.299	0.057	-0.031
-378.902	105.515	-0.152	-0.179
-377.888	-73.688	-0.265	0.096
-376.873	-111.230	0.130	0.026
-375.858	424.072	-0.029	0.062
-374.844	-200.000	-0.024	0.298
-373.829	174.288	0.129	-0.185
-372.815	-50.218	0.252	-0.119
-371.800	-128.374	0.082	-0.012
-370.785	63.825	-0.233	0.234
-369.771	-128.739	0.159	-0.022
-368.756	-200.000	-0.029	0.218
-367.742	-92.706	-0.137	-0.038
-366.727	-200.000	-0.053	-0.353
-365.712	-200.000	-0.012	0.077
-364.698	-56.858	0.329	0.145
-363.683	-200.000	-0.026	-0.121
-362.669	-200.000	-0.007	-0.250
-361.654	-100.124	-0.117	-0.029
-360.639	162.902	-0.044	0.061
-359.625	-3.332	-0.135	0.094
-358.610	-200.000	0.006	-0.032
-357.596	-200.000	-0.015	-0.339
-356.581	-200.000	0.003	0.021
-355.566	-200.000	-0.034	0.164
-354.552	72.804	-0.177	0.184
-353.537	101.073	0.257	0.298
-352.523	47.430	-0.219	-0.203
-351.508	-114.499	-0.258	-0.049
-350.493	-103.501	0.217	0.051
-349.479	-200.000	0.018	-0.339
-348.464	800.000	-0.063	0.241
-347.450	-39.722	0.166	-0.086
-346.435	-37.319	-0.091	-0.048
-345.420	800.000	-0.063	-0.182
-344.406	-72.279	0.482	-0.178
-343.391	748.326	-0.033	0.089
-342.377	800.000	0.015	-0.059
-341.362	-72.718	0.134	0.049
-340.348	258.004	-0.159	0.273
-339.333	-200.000	0.044	0.260
-338.318	409.993	-0.168	0.354
-337.304	474.105	-0.074	0.167
-336.289	-200.000	0.057	0.355
-335.275	-135.225	-0.092	-0.011
-334.260	194.515	0.094	-0.142
-333.245	-200.000	-0.020	0.087
-332.231	-200.000	0.023	-0.183
-331.216	-200.000	0.015	0.156
-330.202	272.715	0.155	0.272
-329.187	-86.668	-0.546	-0.166
-328.172	-200.000	0.022	-0.122
-327.158	113.010	0.221	0.267
-326.143	-106.028	0.174	-0.039
-325.129	-112.139	-0.093	0.019
-324.114	-53.097	0.162	-0.074
-323.099	29.369	0.016	0.014
-322.085	-111.198	0.419	0.085
-321.070	77.197	-0.048	-0.051
-320.056	-74.096	0.151	0.054
-319.041	-200.000	0.032	0.234
-318.026	800.000	0.032	-0.140
-317.012	-76.264	-0.298	0.105
-315.997	93.276	0.106	0.119
-314.983	32.205	-0.226	0.194
-313.968	-200.000	0.042	0.221
-312.953	222.546	-0.132	-0.212
-311.939	-200.000	0.012	0.102
-310.924	-25.066	0.148	-0.088
-309.910	501.497	-0.081	0.187
-308.895	-121.658	-0.203	0.033
-307.880	137.972	-0.037	0.048
-306.866	-125.016	0.245	-0.037
-305.851	-200.000	0.014	-0.210
-304.837	381.867	0.051	-0.105
-303.822	800.000	-0.032	0.108
-302.807	-97.982	-0.129	0.033
-301.793	-200.000	-0.020	-0.182
-300.778	-113.513	-0.302	-0.059
-299.764	66.957	-0.146	-0.148
-298.749	-54.731	-0.168	-0.076
-297.735	-200.000	-0.026	-0.133
-296.720	-120.498	0.408	-0.069
-295.705	5.126	0.044	-0.032
-294.691	-63.006	0.131	-0.054
-293.676	320.059	-0.046	0.087
-292.662	18.022	0.278	0.220
-291.647	115.421	0.128	0.156
-290.632	-41.830	-0.197	-0.101
-289.618	104.046	-0.150	-0.176
-288.603	-56.344	-0.109	0.048
-287.589	800.000	-0.045	0.175
-286.574	45.946	-0.297	-0.273
-285.559	-23.592	-0.144	0.086
-284.545	387.863	0.061	0.125
-283.530	-29.340	-0.222	0.126
-282.516	-33.460	-0.233	0.128
-281.501	-118.458	-0.497	0.087
-280.486	63.944	-0.057	0.057
-279.472	575.580	-0.101	-0.244
-278.457	541.836	-0.129	-0.306
-277.443	98.194	0.199	0.228
-276.428	-92.945	0.081	-0.023
-275.413	800.000	0.015	-0.054
-274.399	414.171	-0.056	-0.119
-273.384	-200.000	0.024	-0.158
-272.370	-200.000	-0.017	0.124
-271.355	222.512	-0.067	0.107
-270.340	29.980	-0.070	0.059
-269.326	-123.796	-0.252	0.039
-268.311	172.856	-0.063	0.090
-267.297	-65.434	0.149	0.059
-266.282	108.225	0.198	-0.235
-265.267	-151.642	-0.525	0.038
-264.253	-131.182	0.147	0.019
-263.238	-152.240	-0.396	-0.028
-262.224	800.000	0.009	0.038
-261.209	117.437	-0.085	0.104
-260.195	-200.000	0.008	0.047
-259.180	-200.000	-0.009	0.089
-258.165	29.316	0.123	0.104
-257.151	42.123	-0.079	-0.071
-256.136	-7.353	0.296	-0.199
-255.122	246.857	0.084	-0.141
-254.107	-63.064	0.304	-0.125
-253.092	99.351	0.043	-0.050
-252.078	-200.000	0.006	0.155
-251.063	5.647	-0.090	-0.066
-250.049	-200.000	-0.003	-0.045
-249.034	-100.772	0.198	0.048
-248.019	170.991	-0.169	0.241
-247.005	-200.000	0.046	0.329
-245.990	-19.219	0.148	0.091
-244.976	-149.635	-0.262	0.021
-243.961	800.000	0.044	0.185
-242.946	-162.607	-0.291	-0.014
-241.932	800.000	0.087	0.252
-240.917	-126.642	-0.497	0.073
-239.903	-130.614	0.337	0.045
-238.888	466.718	0.189	0.421
-237.873	-200.000	-0.047	0.236
-236.859	-200.000	0.016	-0.494
-235.844	40.714	-0.332	0.296
-234.830	-200.000	-0.007	0.066
-233.815	-74.660	0.296	-0.106
-232.800	-36.789	0.116	0.062
-231.786	-141.289	-0.084	-0.008
-230.771	79.547	0.159	0.169
-229.757	-100.597	-0.115	0.028
-228.742	-23.544	-0.077	0.046
-227.727	776.615	0.038	0.102
-226.713	268.045	-0.077	0.134
-225.698	-52.321	0.090	-0.041
-224.684	-159.374	0.150	0.008
-223.669	-45.209	0.236	0.116
-222.655	581.290	-0.019	-0.046
-221.640	159.829	-0.070	-0.097
-220.625	-73.565	-0.085	0.031
-219.611	-60.061	-0.128	-0.054
-218.596	14.353	-0.164	-0.127
-217.582	-125.328	0.237	0.036
-216.567	108.951	0.215	0.254
-215.552	-106.460	0.255	0.057
-214.538	-59.128	0.161	-0.069
-213.523	333.132	0.084	-0.162
-212.509	113.053	0.203	-0.244
-211.494	-100.503	0.404	0.099
-210.479	25.422	-0.035	-0.029
-209.465	90.865	-0.045	-0.050
-208.450	-129.717	-0.109	-0.015
-207.436	57.418	-0.180	0.174
-206.421	176.701	0.163	0.235
-205.406	-161.945	-0.086	-0.004
-204.392	-29.633	-0.265	-0.150
-203.377	80.468	0.307	0.328
-202.363	-16.713	0.115	0.072
-201.348	159.779	0.190	-0.262
-200.333	-200.000	0.024	0.186
-199.319	154.899	0.151	-0.206
-198.304	29.745	-0.236	0.199
-197.290	800.000	-0.034	-0.145
-196.275	800.000	0.011	-0.045
-195.260	11.504	0.202	-0.154
-194.246	377.107	0.109	0.221
-193.231	-45.341	-0.214	-0.105
-192.217	429.713	-0.008	0.017
-191.202	-81.865	0.360	-0.117
-190.187	800.000	-0.091	-0.255
-189.173	-141.813	-0.151	0.015
-188.158	539.777	0.086	-0.204
-187.144	-156.665	-0.235	-0.014
-186.129	79.568	0.220	-0.233
-185.114	-3.419	0.064	-0.044
-184.100	-109.494	0.275	0.057
-183.085	364.501	0.025	0.050
-182.071	800.000	-0.076	-0.248
-181.056	193.485	0.246	0.368
-180.042	-200.000	0.021	-0.131
-179.027	-21.859	0.152	0.091
-178.012	378.587	-0.129	0.262
-176.998	-116.201	0.348	-0.064
-175.983	264.082	-0.099	0.170
-174.969	287.243	-0.151	-0.270
-173.954	-48.658	-0.201	0.096
-172.939	-45.940	-0.196	0.096
-171.925	-27.982	-0.223	-0.128
-170.910	-200.000	0.005	0.098
-169.896	-174.876	0.231	0.006
-168.881	-146.206	-0.169	0.015
-167.866	128.527	-0.039	0.049
-166.852	545.656	-0.135	0.320
-165.837	137.583	0.164	0.213
-164.823	-200.000	0.004	-0.108
-163.808	136.511	0.034	0.044
-162.793	-46.579	0.434	-0.211
-161.779	151.630	0.109	0.146
-160.764	789.328	-0.164	-0.445
-159.750	-132.135	0.037	0.005
-158.735	64.772	0.100	-0.100
-157.720	-200.000	-0.222	-0.001
-156.706	-45.623	-0.232	0.113
-155.691	-14.370	-0.333	0.212
-154.677	629.347	-0.086	-0.216
-153.662	176.164	0.128	0.183
-152.647	-64.837	0.079	0.031
-151.633	88.648	-0.146	-0.161
-150.618	800.000	0.082	-0.324
-149.604	-200.000	-0.018	0.181
-148.589	-29.260	-0.157	0.089
-147.574	-200.000	0.007	0.353
-146.560	79.152	0.205	-0.218
-145.545	-112.805	0.349	-0.068
-144.531	-200.000	0.015	0.097
-143.516	193.518	-0.140	-0.209
-142.502	-140.253	0.129	0.013
-141.487	800.000	0.035	0.110
-140.472	-200.000	-0.035	0.179
-139.458	-19.739	-0.058	-0.035
-138.443	-119.100	-0.139	-0.024
-137.429	16.496	0.065	0.051
-136.414	-75.362	0.068	0.024
-135.399	262.129	-0.058	0.099
-134.385	800.000	-0.059	0.192
-133.370	-115.721	-0.253	0.047
-132.356	-125.493	0.271	0.041
-131.341	-88.790	0.092	0.027
-130.326	-108.371	-0.187	0.040
-129.312	-130.888	-0.415	0.055
-128.297	800.000	0.036	-0.156
-127.283	-20.260	-0.063	-0.038
-126.268	800.000	-0.041	-0.161
-125.253	63.702	-0.181	0.180
-124.239	70.511	0.081	-0.082
-123.224	10.132	0.134	-0.101
-122.210	-14.955	-0.178	0.113
