DTS Sentinel unit serial number:	SN413079Multiplexer serial number:	ORYXHardware model number:	OX4-SRSoftware version number:	ORYX F/W v4.00 Oryx Data Collector v3.7.2.0data status	okinstallation	princeton_trtdifferential loss correction	single-endedforward channel	channel 3reverse channel	N/Adate	2019/09/14time	01:48:35forward acquisition time	60.00reverse acquisition time	0.00gamma	496.2192k internal	0.2339k external	0.2339temperature offset calibration	1.0057default loss term (dB/km)	0.3790temperature slope calibration	1.0000multiplexer offset coefficient	1.0000multiplexer slope coefficient	1.0000fibre end	0.00T internal ref (°C)	26.44T ext. ref 1 (°C)	3.21T ext. ref 2 (°C)	21.49length (m)	temperature (°C)	Stokes	anti-Stokes-747.200	177.691	-0.174	-0.255
-746.185	-27.792	-0.179	0.104
-745.171	176.988	0.110	-0.161
-744.156	-200.000	-0.100	0.458
-743.142	-113.180	-0.087	-0.017
-742.127	212.206	-0.194	0.307
-741.112	498.156	0.150	0.347
-740.098	-200.000	0.054	0.365
-739.083	30.278	0.104	-0.089
-738.069	800.000	0.034	0.140
-737.054	139.711	-0.126	0.166
-736.039	-48.435	-0.256	0.124
-735.025	-30.367	0.238	-0.135
-734.010	40.181	-0.126	-0.114
-732.996	198.617	0.146	0.224
-731.981	-41.373	-0.262	0.135
-730.966	-5.655	0.142	0.097
-729.952	-6.005	0.445	-0.305
-728.937	36.090	-0.222	-0.196
-727.923	-27.950	-0.166	0.097
-726.908	-98.003	-0.051	-0.013
-725.894	70.409	-0.149	-0.154
-724.879	235.558	0.138	-0.228
-723.864	-65.304	0.067	-0.027
-722.850	-77.784	-0.172	-0.059
-721.835	-87.634	0.112	-0.034
-720.821	588.894	-0.041	0.102
-719.806	17.945	-0.165	-0.132
-718.791	-131.991	-0.312	-0.041
-717.777	43.498	-0.146	0.134
-716.762	800.000	-0.089	0.270
-715.748	-200.000	-0.012	0.184
-714.733	-84.111	-0.184	-0.058
-713.718	-11.822	-0.218	0.143
-712.704	-200.000	-0.101	0.498
-711.689	-124.256	0.177	-0.028
-710.675	150.832	0.038	0.051
-709.660	-200.000	-0.024	0.185
-708.645	-126.673	0.133	-0.020
-707.631	100.095	-0.178	0.206
-706.616	-200.000	-0.040	-0.289
-705.602	-147.430	0.111	0.009
-704.587	800.000	-0.124	0.358
-703.572	800.000	0.065	0.230
-702.558	-79.695	-0.156	-0.053
-701.543	23.290	-0.130	0.107
-700.529	-75.462	-0.137	-0.049
-699.514	-200.000	-0.007	-0.346
-698.499	60.565	0.158	0.157
-697.485	-200.000	0.025	0.123
-696.470	-200.000	-0.004	-0.301
-695.456	-200.000	0.005	-0.107
-694.441	72.797	0.297	-0.310
-693.426	25.409	-0.183	-0.152
-692.412	-57.665	0.176	0.077
-691.397	31.880	-0.301	-0.259
-690.383	-200.000	0.042	0.357
-689.368	-119.474	-0.126	0.022
-688.354	-72.830	-0.140	0.052
-687.339	157.089	0.133	-0.185
-686.324	-0.113	0.268	-0.191
-685.310	176.078	0.132	-0.192
-684.295	-56.454	-0.216	0.096
-683.281	34.327	-0.123	-0.107
-682.266	12.728	0.125	0.097
-681.251	48.703	-0.108	-0.101
-680.237	-93.367	-0.213	-0.059
-679.222	59.318	-0.283	-0.279
-678.208	-44.917	0.422	0.211
-677.193	92.383	-0.042	-0.047
-676.178	-200.000	-0.003	-0.396
-675.164	-41.771	-0.266	0.137
-674.149	-200.000	0.037	-0.218
-673.135	-1.869	0.299	-0.210
-672.120	800.000	0.024	0.067
-671.105	487.175	-0.080	-0.183
-670.091	-151.169	-0.084	-0.006
-669.076	163.550	-0.109	0.153
-668.062	-200.000	-0.027	-0.219
-667.047	-92.871	0.035	-0.010
-666.032	28.326	-0.298	-0.252
-665.018	-15.140	0.265	-0.170
-664.003	-115.264	0.179	-0.034
-662.989	800.000	-0.027	-0.084
-661.974	-98.757	-0.136	0.035
-660.959	-9.589	0.112	0.074
-659.945	-1.420	-0.388	-0.274
-658.930	-129.815	-0.043	0.006
-657.916	501.345	0.048	-0.112
-656.901	24.788	-0.168	0.139
-655.886	800.000	0.063	-0.226
-654.872	403.326	-0.109	-0.229
-653.857	-60.522	0.237	-0.101
-652.843	-8.527	0.229	0.154
-651.828	-200.000	-0.030	0.344
-650.814	263.901	0.126	-0.219
-649.799	105.301	-0.070	-0.083
-648.784	21.957	-0.227	-0.185
-647.770	-156.075	-0.194	0.012
-646.755	-200.000	-0.065	-0.411
-645.741	-62.993	0.045	-0.018
-644.726	374.186	-0.077	-0.156
-643.711	208.122	-0.111	-0.174
-642.697	-200.000	0.007	-0.170
-641.682	32.468	0.004	-0.004
-640.668	27.327	0.173	0.146
-639.653	-118.308	-0.214	-0.038
-638.638	40.042	0.276	-0.248
-637.624	800.000	-0.057	0.230
-636.609	212.733	-0.284	0.447
-635.595	105.675	-0.321	0.379
-634.580	210.720	-0.175	-0.275
-633.565	-200.000	-0.023	0.234
-632.551	-65.731	0.223	-0.089
-631.536	-71.550	0.235	0.088
-630.522	-147.895	-0.396	0.033
-629.507	20.960	0.314	-0.255
-628.492	151.128	0.111	0.150
-627.478	-200.000	0.060	-0.325
-626.463	-179.476	-0.119	0.003
-625.449	187.704	0.117	0.174
-624.434	-62.718	0.196	0.081
-623.419	-117.760	-0.235	0.042
-622.405	-200.000	0.031	0.222
-621.390	-74.679	-0.164	-0.059
-620.376	128.135	-0.223	-0.283
-619.361	-200.000	-0.002	-0.047
-618.346	139.629	0.140	-0.184
-617.332	-52.050	-0.141	0.065
-616.317	-183.351	0.132	0.002
-615.303	-200.000	-0.011	0.069
-614.288	44.383	-0.053	0.049
-613.273	-200.000	0.023	0.127
-612.259	-32.233	0.243	-0.135
-611.244	-200.000	-0.009	0.126
-610.230	559.818	-0.070	0.169
-609.215	-17.748	-0.313	-0.196
-608.201	-200.000	-0.005	-0.361
-607.186	-200.000	0.019	0.277
-606.171	543.288	-0.039	-0.092
-605.157	-200.000	0.014	-0.161
-604.142	800.000	-0.056	-0.194
-603.128	-26.371	0.083	0.049
-602.113	-13.857	0.111	0.072
-601.098	-200.000	0.030	-0.248
-600.084	59.175	-0.251	0.246
-599.069	-70.433	0.306	-0.116
-598.055	-200.000	-0.036	-0.350
-597.040	44.267	-0.099	0.091
-596.025	-53.200	-0.153	0.070
-595.011	-200.000	0.032	0.321
-593.996	800.000	-0.023	0.069
-592.982	-147.756	-0.436	0.036
-591.967	77.946	0.059	0.063
-590.952	-163.634	0.115	0.005
-589.938	-41.438	-0.206	-0.106
-588.923	-17.516	0.165	-0.103
-587.909	-62.439	-0.249	0.103
-586.894	173.730	-0.137	-0.197
-585.879	-200.000	0.052	-0.275
-584.865	44.916	-0.203	-0.186
-583.850	-200.000	-0.024	0.201
-582.836	-25.909	0.050	-0.029
-581.821	-200.000	-0.004	-0.200
-580.806	-55.719	-0.236	0.105
-579.792	-168.983	0.225	0.008
-578.777	33.736	0.210	-0.182
-577.763	-48.480	-0.136	0.065
-576.748	-200.000	0.033	-0.147
-575.733	183.767	-0.117	0.172
-574.719	49.664	0.190	-0.179
-573.704	-32.513	0.244	-0.135
-572.690	-143.722	-0.098	0.009
-571.675	-200.000	-0.030	-0.192
-570.661	50.263	-0.314	-0.296
-569.646	-97.199	-0.237	-0.062
-568.631	318.944	-0.047	0.088
-567.617	-62.020	-0.200	-0.083
-566.602	51.773	-0.243	0.230
-565.588	-45.790	0.209	-0.103
-564.573	-65.164	-0.173	0.069
-563.558	-85.512	0.230	-0.071
-562.544	230.316	-0.041	-0.067
-561.529	800.000	-0.062	-0.234
-560.515	-176.479	-0.325	-0.008
-559.500	-200.000	-0.032	0.146
-558.485	-200.000	0.001	0.119
-557.471	3.275	0.136	-0.099
-556.456	158.224	-0.069	-0.096
-555.442	-68.692	-0.287	-0.111
-554.427	-200.000	-0.003	0.046
-553.412	800.000	-0.030	-0.122
-552.398	-200.000	-0.024	-0.127
-551.383	33.246	-0.315	-0.272
-550.369	-200.000	-0.003	-0.026
-549.354	-25.284	0.324	-0.191
-548.339	-174.001	0.398	0.012
-547.325	800.000	-0.049	-0.204
-546.310	800.000	-0.100	-0.343
-545.296	-200.000	0.011	-0.456
-544.281	-200.000	-0.005	0.173
-543.266	-13.757	0.237	0.153
-542.252	151.685	0.072	0.097
-541.237	50.017	-0.112	0.105
-540.223	-134.701	-0.422	-0.051
-539.208	-200.000	-0.019	0.338
-538.193	800.000	-0.008	-0.033
-537.179	-129.471	-0.522	0.072
-536.164	-27.049	0.395	0.229
-535.150	72.624	0.106	-0.110
-534.135	-200.000	0.000	-0.162
-533.121	61.244	-0.226	-0.224
-532.106	800.000	0.045	-0.126
-531.091	102.188	0.130	-0.151
-530.077	-90.523	0.251	0.072
-529.062	-50.452	-0.265	0.124
-528.048	-53.601	-0.213	-0.097
-527.033	-200.000	0.044	0.260
-526.018	375.675	-0.120	0.244
-525.004	296.083	-0.202	-0.368
-523.989	-12.490	-0.236	-0.153
-522.975	-200.000	0.019	-0.085
-521.960	154.358	-0.161	0.219
-520.945	-7.694	0.188	0.126
-519.931	-200.000	-0.232	-0.000
-518.916	-160.721	-0.187	-0.010
-517.902	-89.143	0.186	0.055
-516.887	-200.000	0.007	-0.136
-515.872	800.000	-0.067	0.200
-514.858	8.178	0.341	-0.254
-513.843	-113.180	-0.121	-0.024
-512.829	-95.554	0.280	-0.075
-511.814	98.077	-0.278	-0.318
-510.799	626.693	0.093	0.235
-509.785	274.332	-0.027	-0.047
-508.770	60.436	-0.055	0.054
-507.756	61.338	0.227	0.224
-506.741	-12.326	0.313	-0.203
-505.726	-117.990	-0.248	0.044
-504.712	800.000	0.048	-0.133
-503.697	-200.000	-0.298	0.001
-502.683	610.637	-0.089	0.221
-501.668	21.912	0.197	-0.160
-500.653	800.000	0.032	0.131
-499.639	-152.899	-0.278	0.020
-498.624	663.487	0.087	0.222
-497.610	-200.000	0.046	-0.214
-496.595	-200.000	-0.020	0.256
-495.581	-200.000	0.017	-0.203
-494.566	800.000	-0.086	-0.247
-493.551	20.553	0.238	-0.191
-492.537	800.000	0.053	0.152
-491.522	-52.951	-0.385	-0.176
-490.508	-110.996	-0.082	-0.017
-489.493	800.000	0.052	0.217
-488.478	46.104	-0.221	0.203
-487.464	-50.336	0.172	0.081
-486.449	-200.000	-0.033	0.354
-485.435	-39.910	-0.376	-0.195
-484.420	800.000	0.071	-0.205
-483.405	-200.000	0.033	-0.150
-482.391	-130.261	-0.124	0.017
-481.376	140.304	-0.123	-0.161
-480.362	-27.190	0.118	-0.068
-479.347	-200.000	0.002	-0.208
-478.332	800.000	0.021	-0.078
-477.318	352.147	0.118	-0.231
-476.303	-26.164	-0.065	-0.038
-475.289	-132.296	0.127	0.016
-474.274	106.819	-0.103	0.122
-473.259	-200.000	0.001	-0.099
-472.245	113.321	0.087	0.105
-471.230	-69.309	0.496	0.189
-470.216	-72.427	-0.185	-0.068
-469.201	-192.204	0.243	0.002
-468.186	460.394	-0.060	0.133
-467.172	-89.437	0.584	-0.170
-466.157	187.761	-0.054	0.079
-465.143	-27.619	-0.041	0.023
-464.128	800.000	0.045	0.172
-463.113	-200.000	-0.022	-0.131
-462.099	800.000	-0.124	-0.352
-461.084	-200.000	-0.001	-0.213
-460.070	-28.744	-0.090	0.051
-459.055	177.045	-0.180	-0.259
-458.040	4.769	0.305	-0.222
-457.026	-200.000	0.007	0.137
-456.011	-155.653	0.332	-0.021
-454.997	28.319	0.255	0.214
-453.982	-29.694	-0.222	-0.126
-452.968	800.000	-0.038	-0.134
-451.953	-31.037	0.230	-0.129
-450.938	-26.067	-0.171	0.100
-449.924	-94.725	0.277	0.075
-448.909	51.908	0.108	-0.102
-447.895	-2.252	0.150	0.104
-446.880	-83.198	0.249	0.079
-445.865	-117.596	0.298	-0.053
-444.851	-120.477	0.461	0.078
-443.836	244.652	0.084	0.139
-442.822	-51.216	0.213	-0.099
-441.807	-46.989	-0.105	-0.051
-440.792	22.003	-0.234	-0.189
-439.778	-200.000	-0.022	0.198
-438.763	-200.000	-0.041	0.177
-437.749	-64.273	0.303	0.122
-436.734	357.727	-0.120	-0.238
-435.719	-200.000	0.026	0.114
-434.705	-25.203	0.137	-0.080
-433.690	-19.506	0.089	0.055
-432.676	-121.625	0.216	-0.036
-431.661	97.667	0.249	0.284
-430.646	800.000	0.117	-0.433
-429.632	11.879	0.356	-0.271
-428.617	-200.000	0.009	0.171
-427.603	51.726	0.120	0.114
-426.588	281.315	0.025	0.044
-425.573	-200.000	-0.083	0.520
-424.559	203.868	0.083	0.127
-423.544	-98.938	-0.508	0.128
-422.530	-59.514	-0.178	0.076
-421.515	-125.061	0.515	-0.078
-420.500	34.435	-0.059	-0.051
-419.486	80.038	-0.112	-0.120
-418.471	-77.823	0.274	0.094
-417.457	-143.638	-0.081	-0.008
-416.442	225.833	0.156	-0.250
-415.428	-145.969	-0.324	0.028
-414.413	599.857	0.073	0.181
-413.398	43.163	0.041	-0.037
-412.384	-80.982	-0.102	-0.033
-411.369	-114.650	-0.175	0.033
-410.355	-200.000	0.017	0.103
-409.340	240.325	0.121	0.200
-408.325	-200.000	0.033	0.159
-407.311	-157.087	-0.112	0.007
-406.296	-1.024	0.229	0.161
-405.282	-200.000	-0.072	-0.378
-404.267	800.000	-0.069	0.240
-403.252	217.484	0.119	0.188
-402.238	800.000	0.030	0.102
-401.223	800.000	0.050	-0.145
-400.209	-58.606	-0.278	-0.119
-399.194	76.245	-0.249	0.261
-398.179	-68.481	0.315	0.121
-397.165	5.809	0.201	0.147
-396.150	-45.617	-0.274	-0.134
-395.136	800.000	0.039	-0.118
-394.121	137.790	-0.073	0.094
-393.106	-200.000	0.043	-0.206
-392.092	-200.000	0.011	0.073
-391.077	13.493	0.205	0.158
-390.063	-136.012	0.126	0.015
-389.048	-157.930	-0.230	0.013
-388.033	395.530	-0.034	-0.070
-387.019	-200.000	-0.026	-0.181
-386.004	-48.565	-0.032	0.015
-384.990	-42.662	-0.056	0.028
-383.975	-89.882	0.121	0.035
-382.960	-156.325	0.262	-0.016
-381.946	578.956	0.020	0.048
-380.931	-36.665	-0.138	-0.073
-379.917	800.000	0.021	0.065
-378.902	800.000	0.016	0.068
-377.888	0.145	-0.162	-0.114
-376.873	118.329	0.289	0.352
-375.858	-108.110	0.135	-0.029
-374.844	-100.219	-0.341	-0.084
-373.829	286.230	0.035	0.062
-372.815	60.783	-0.185	0.182
-371.800	55.788	-0.127	0.122
-370.785	-200.000	-0.082	0.374
-369.771	3.669	-0.261	0.188
-368.756	65.015	-0.169	0.169
-367.742	800.000	0.065	-0.266
-366.727	800.000	-0.021	-0.069
-365.712	353.456	0.086	-0.169
-364.698	575.581	0.010	-0.023
-363.683	-10.344	0.245	-0.160
-362.669	-86.333	-0.042	-0.013
-361.654	-197.323	-0.249	-0.002
-360.639	-200.000	-0.052	0.305
-359.625	184.171	0.193	0.282
-358.610	20.149	0.119	0.095
-357.596	-82.980	0.017	-0.005
-356.581	74.171	0.260	0.270
-355.566	609.082	-0.077	-0.191
-354.552	-75.046	0.103	0.036
-353.537	182.004	0.177	0.258
-352.523	-25.879	-0.089	-0.052
-351.508	57.178	-0.283	0.273
-350.493	-13.458	0.113	0.072
-349.479	617.230	-0.063	-0.156
-348.464	720.786	0.128	-0.337
-347.450	-124.465	-0.190	0.029
-346.435	106.005	-0.095	0.111
-345.420	-11.449	-0.236	-0.153
-344.406	-129.955	-0.111	0.015
-343.391	-200.000	0.026	0.146
-342.377	800.000	0.075	0.237
-341.362	-30.218	0.043	0.024
-340.348	-112.393	-0.280	-0.055
-339.333	-191.327	0.155	0.002
-338.318	65.114	0.113	0.112
-337.304	92.911	-0.239	-0.266
-336.289	-153.860	0.177	0.012
-335.275	800.000	0.083	-0.325
-334.260	-102.778	-0.258	-0.061
-333.245	-29.695	-0.287	-0.161
-332.231	-118.078	-0.264	-0.046
-331.216	-76.428	0.404	-0.140
-330.202	-87.391	-0.056	-0.017
-329.187	-200.000	-0.007	0.085
-328.172	510.266	0.168	0.386
-327.158	-154.928	0.211	0.014
-326.143	-200.000	0.018	0.102
-325.129	-200.000	-0.011	0.242
-324.114	-56.245	-0.258	0.113
-323.099	381.732	-0.202	-0.410
-322.085	9.946	0.298	0.223
-321.070	800.000	0.042	0.120
-320.056	-189.407	-0.263	0.003
-319.041	-138.706	-0.189	0.020
-318.026	37.772	0.159	-0.139
-317.012	-123.236	0.361	-0.057
-315.997	62.163	-0.403	-0.397
-314.983	101.134	-0.083	0.096
-313.968	336.339	0.056	0.107
-312.953	-143.510	0.354	-0.033
-311.939	-200.000	0.002	-0.161
-310.924	267.915	-0.095	-0.163
-309.910	163.820	-0.020	0.028
-308.895	-67.359	-0.172	0.067
-307.880	120.614	-0.370	0.454
-306.866	180.329	-0.100	0.144
-305.851	-200.000	-0.025	0.158
-304.837	-135.721	0.266	0.031
-303.822	-40.335	0.139	-0.071
-302.807	170.084	0.097	0.136
-301.793	97.789	0.119	0.135
-300.778	18.608	-0.083	-0.065
-299.764	695.930	-0.019	0.049
-298.749	-104.182	-0.292	0.067
-297.735	-200.000	-0.005	0.469
-296.720	800.000	-0.081	0.236
-295.705	-183.868	0.129	-0.002
-294.691	-24.923	-0.168	0.098
-293.676	136.160	0.159	-0.204
-292.662	272.341	0.015	-0.026
-291.647	800.000	0.031	0.125
-290.632	-91.702	0.105	0.029
-289.618	-65.053	-0.124	0.049
-288.603	32.056	0.252	-0.214
-287.589	-31.946	0.193	-0.107
-286.574	-65.639	0.150	0.059
-285.559	-97.264	0.238	0.061
-284.545	226.703	0.148	0.237
-283.530	382.249	-0.107	0.217
-282.516	-200.000	0.017	0.221
-281.501	247.253	-0.195	-0.324
-280.486	-143.399	0.075	0.007
-279.472	-200.000	-0.003	-0.077
-278.457	30.568	0.180	0.152
-277.443	-36.844	-0.134	0.071
-276.428	43.545	0.350	-0.315
-275.413	-200.000	0.001	0.009
-274.399	-119.231	0.114	-0.020
-273.384	-40.408	0.272	-0.139
-272.370	7.169	0.206	0.151
-271.355	-97.558	-0.036	0.009
-270.340	-62.310	0.201	-0.083
-269.326	48.583	-0.109	-0.101
-268.311	-200.000	-0.019	-0.129
-267.297	-200.000	-0.010	-0.048
-266.282	-101.408	-0.418	0.100
-265.267	-200.000	0.023	-0.144
-264.253	-200.000	-0.019	0.104
-263.238	800.000	-0.086	0.262
-262.224	-200.000	0.015	0.322
-261.209	88.735	-0.132	-0.144
-260.195	800.000	-0.039	0.138
-259.180	-200.000	-0.025	-0.216
-258.165	800.000	-0.081	0.346
-257.151	-107.449	-0.114	-0.025
-256.136	-25.838	0.119	-0.069
-255.122	-113.615	-0.228	0.044
-254.107	297.429	0.071	-0.128
-253.092	28.683	0.153	-0.128
-252.078	-200.000	-0.017	-0.073
-251.063	800.000	0.033	-0.131
-250.049	-93.485	-0.254	0.069
-249.034	-200.000	0.007	-0.386
-248.019	-101.809	-0.293	0.070
-247.005	-10.362	0.066	0.043
-245.990	403.793	0.121	-0.250
-244.976	150.424	0.064	-0.086
-243.961	19.220	0.124	0.098
-242.946	-200.000	0.078	0.342
-241.932	800.000	0.026	-0.096
-240.917	800.000	0.076	-0.231
-239.903	181.170	0.153	0.220
-238.888	-122.933	0.466	0.074
-237.873	-21.861	-0.012	0.007
-236.859	-20.687	0.259	0.156
-235.844	-159.473	-0.083	0.005
-234.830	-60.633	-0.044	0.018
-233.815	354.031	-0.164	0.320
-232.800	-40.696	-0.137	0.070
-231.786	-200.000	-0.022	-0.124
-230.771	-149.274	-0.409	0.032
-229.757	-96.384	-0.216	-0.056
-228.742	-128.315	0.357	0.050
-227.727	56.837	-0.246	-0.236
-226.713	66.461	-0.142	-0.141
-225.698	800.000	-0.037	0.142
-224.684	322.101	0.103	0.192
-223.669	454.474	-0.086	0.187
-222.655	-157.939	-0.173	-0.010
-221.640	36.026	0.340	0.294
-220.625	254.202	0.079	0.132
-219.611	107.168	-0.258	-0.302
-218.596	-200.000	-0.006	0.032
-217.582	154.206	-0.124	0.168
-216.567	-152.998	0.374	-0.026
-215.552	29.931	0.097	-0.081
-214.538	-154.438	0.287	0.019
-213.523	4.072	-0.216	-0.155
-212.509	-200.000	-0.009	-0.455
-211.494	-83.686	0.100	0.031
-210.479	-200.000	0.016	0.173
-209.465	-0.383	0.296	0.207
-208.450	-24.191	-0.152	-0.089
-207.436	-193.150	0.281	-0.002
-206.421	69.973	0.080	-0.081
-205.406	636.991	0.020	0.049
-204.392	-15.988	0.219	0.137
-203.377	800.000	0.066	0.245
-202.363	-200.000	-0.002	0.128
-201.348	-200.000	-0.085	0.417
-200.333	-200.000	-0.025	0.194
-199.319	-9.435	-0.163	-0.107
-198.304	-200.000	0.030	-0.361
-197.290	5.567	-0.061	0.045
-196.275	207.211	-0.121	-0.185
-195.260	14.213	0.185	-0.141
-194.246	307.622	0.068	-0.124
-193.231	28.107	-0.047	-0.039
-192.217	-200.000	0.025	-0.318
-191.202	-200.000	0.018	-0.110
-190.187	-200.000	0.049	-0.430
-189.173	-200.000	-0.034	-0.222
-188.158	-200.000	-0.038	0.453
-187.144	-138.124	0.239	0.026
-186.129	-143.770	-0.175	0.016
-185.114	-200.000	-0.037	-0.173
-184.100	-67.901	-0.089	-0.034
-183.085	381.365	0.142	0.286
-182.071	-36.261	0.052	0.028
-181.056	218.707	-0.062	-0.098
-180.042	-59.040	0.032	-0.014
-179.027	-200.000	-0.057	0.256
-178.012	96.985	0.164	0.185
-176.998	153.388	-0.050	-0.067
-175.983	21.983	-0.173	0.138
-174.969	60.261	-0.149	-0.145
-173.954	551.934	-0.136	0.320
-172.939	273.018	-0.048	0.084
-171.925	31.415	0.288	0.243
-170.910	-200.000	-0.049	0.240
-169.896	-16.491	-0.191	-0.119
-168.881	800.000	0.060	0.175
-167.866	342.852	0.023	-0.044
-166.852	7.506	0.349	0.256
-165.837	458.219	-0.224	-0.488
-164.823	-35.004	0.305	0.163
-163.808	-138.911	-0.127	-0.014
-162.793	-200.000	-0.025	-0.238
-161.779	-47.201	0.231	0.111
-160.764	-200.000	-0.073	-0.359
-159.750	730.946	-0.048	0.125
-158.735	60.484	-0.096	-0.093
-157.720	-200.000	0.021	0.093
-156.706	-113.891	-0.270	-0.051
-155.691	-80.129	0.139	0.046
-154.677	97.089	0.146	0.164
-153.662	-200.000	-0.216	-0.001
-152.647	-4.347	0.197	-0.134
-151.633	71.919	-0.092	-0.094
-150.618	371.814	0.048	-0.096
-149.604	-200.000	-0.036	-0.172
-148.589	-110.577	-0.249	-0.050
-147.574	-200.000	0.014	0.203
-146.560	221.607	-0.117	-0.184
-145.545	-25.948	0.266	-0.153
-144.531	64.353	0.134	-0.132
-143.516	-148.521	-0.101	-0.008
-142.502	-200.000	-0.027	-0.185
-141.487	83.226	-0.203	-0.217
-140.472	43.118	0.268	-0.240
-139.458	480.807	0.083	-0.183
-138.443	-13.485	-0.092	0.059
-137.429	-200.000	0.032	0.191
-136.414	-200.000	-0.035	0.250
-135.399	453.049	-0.058	-0.126
-134.385	-10.195	-0.112	-0.073
-133.370	-200.000	-0.025	0.159
-132.356	172.975	0.270	0.381
-131.341	800.000	0.093	0.376
-130.326	-104.750	0.112	0.025
-129.312	-200.000	-0.010	-0.219
-128.297	65.209	-0.143	0.142
-127.283	21.512	0.198	0.158
-126.268	298.987	0.012	-0.021
-125.253	-34.023	-0.252	0.135
-124.239	718.655	-0.021	0.055
-123.224	-132.124	0.400	0.051
-122.210	-16.497	0.246	-0.153
