DTS Sentinel unit serial number:	SN413079Multiplexer serial number:	ORYXHardware model number:	OX4-SRSoftware version number:	ORYX F/W v4.00 Oryx Data Collector v3.7.2.0data status	okinstallation	princeton_trtdifferential loss correction	single-endedforward channel	channel 3reverse channel	N/Adate	2019/09/17time	13:16:35forward acquisition time	60.00reverse acquisition time	0.00gamma	496.2192k internal	0.2309k external	0.2309temperature offset calibration	0.9953default loss term (dB/km)	0.3790temperature slope calibration	1.0000multiplexer offset coefficient	1.0000multiplexer slope coefficient	1.0000fibre end	0.00T internal ref (°C)	34.06T ext. ref 1 (°C)	0.42T ext. ref 2 (°C)	31.56length (m)	temperature (°C)	Stokes	anti-Stokes-747.200	363.815	-0.112	-0.228
-746.185	-200.000	0.019	0.335
-745.171	-111.528	-0.183	0.038
-744.156	800.000	0.040	-0.122
-743.142	415.925	-0.036	0.077
-742.127	52.537	0.324	0.314
-741.112	-200.000	0.052	0.271
-740.098	-134.726	0.118	-0.015
-739.083	-158.556	0.191	0.011
-738.069	-22.305	0.098	-0.061
-737.054	-129.614	-0.299	0.042
-736.039	-56.141	-0.048	-0.022
-735.025	-8.376	0.241	-0.164
-734.010	-200.000	-0.004	-0.124
-732.996	-133.594	-0.452	-0.057
-731.981	-200.000	0.004	-0.035
-730.966	-93.701	0.383	-0.107
-729.952	-81.287	-0.523	-0.175
-728.937	15.273	-0.196	0.156
-727.923	-175.791	0.325	0.009
-726.908	-166.244	0.248	-0.011
-725.894	-34.724	-0.093	0.051
-724.879	478.909	0.041	0.094
-723.864	-193.102	0.027	0.000
-722.850	55.215	-0.173	0.170
-721.835	4.231	0.135	0.100
-720.821	44.784	-0.080	0.075
-719.806	-92.247	0.512	-0.147
-718.791	548.920	0.094	0.230
-717.777	-65.146	-0.072	-0.029
-716.762	112.198	-0.098	-0.121
-715.748	762.949	0.038	-0.104
-714.733	-200.000	-0.002	-0.191
-713.718	568.160	-0.155	-0.383
-712.704	27.241	0.244	-0.208
-711.689	606.919	-0.066	-0.168
-710.675	-67.063	-0.138	-0.055
-709.660	139.866	-0.075	-0.100
-708.645	-91.550	-0.222	0.064
-707.631	-28.752	-0.277	0.161
-706.616	-57.915	0.099	0.044
-705.602	67.079	0.334	-0.345
-704.587	-200.000	-0.016	0.080
-703.572	-200.000	0.013	0.084
-702.558	190.753	0.077	-0.118
-701.543	800.000	-0.032	0.133
-700.529	800.000	-0.010	0.037
-699.514	800.000	-0.092	-0.324
-698.499	0.053	0.112	0.081
-697.485	800.000	-0.061	0.235
-696.470	225.638	-0.160	0.263
-695.456	93.781	-0.114	-0.131
-694.441	85.252	-0.138	-0.153
-693.426	255.433	-0.003	-0.006
-692.412	150.116	0.228	0.313
-691.397	-58.490	-0.153	0.067
-690.383	800.000	-0.147	0.481
-689.368	800.000	-0.047	0.203
-688.354	-7.481	0.251	-0.172
-687.339	-40.146	-0.134	0.071
-686.324	-200.000	0.042	-0.386
-685.310	36.749	-0.102	0.091
-684.295	152.542	0.087	0.121
-683.281	31.532	-0.327	-0.285
-682.266	14.560	0.204	0.161
-681.251	-200.000	0.069	0.369
-680.237	800.000	0.078	-0.324
-679.222	522.810	0.189	0.450
-678.208	-200.000	0.071	0.382
-677.193	-122.019	-0.082	0.014
-676.178	0.050	-0.143	0.103
-675.164	-177.065	0.173	0.004
-674.149	456.717	0.105	0.237
-673.135	-179.045	-0.291	0.007
-672.120	4.603	0.220	0.164
-671.105	-119.175	-0.081	0.014
-670.091	532.156	0.190	0.456
-669.076	800.000	0.079	-0.296
-668.062	-20.611	-0.127	-0.079
-667.047	131.758	0.090	0.118
-666.032	-86.314	-0.685	-0.214
-665.018	454.198	-0.178	-0.400
-664.003	34.412	-0.177	0.157
-662.989	800.000	0.126	-0.486
-661.974	-200.000	-0.060	-0.297
-660.959	-24.078	0.073	-0.044
-659.945	-42.121	0.072	-0.037
-658.930	23.941	-0.247	-0.206
-657.916	-200.000	-0.013	0.152
-656.901	-12.199	-0.226	-0.149
-655.886	390.541	0.103	0.217
-654.872	42.492	-0.170	0.157
-653.857	489.207	-0.136	-0.314
-652.843	-134.745	0.274	-0.034
-651.828	136.475	0.118	-0.156
-650.814	-79.880	-0.337	0.115
-649.799	-58.003	0.467	-0.206
-648.784	2.498	0.198	0.145
-647.770	800.000	0.064	0.240
-646.755	349.280	-0.141	-0.281
-645.741	800.000	0.071	-0.217
-644.726	-61.196	-0.229	0.098
-643.711	-56.911	-0.203	0.091
-642.697	25.293	-0.120	0.101
-641.682	800.000	-0.033	0.141
-640.668	800.000	0.027	-0.115
-639.653	320.475	0.096	-0.185
-638.638	14.511	0.105	0.083
-637.624	35.471	0.150	0.133
-636.609	-31.294	0.156	-0.089
-635.595	-200.000	-0.004	0.133
-634.580	71.859	-0.094	0.099
-633.565	81.339	-0.132	0.145
-632.551	-139.228	-0.052	-0.006
-631.536	-0.958	0.133	0.095
-630.522	134.813	0.087	-0.114
-629.507	546.764	-0.104	-0.251
-628.492	42.280	-0.156	-0.143
-627.478	148.794	0.052	0.070
-626.463	-69.495	-0.213	-0.083
-625.449	421.534	-0.105	0.228
-624.434	320.586	0.081	0.155
-623.419	-20.787	-0.379	0.235
-622.405	49.460	0.113	-0.108
-621.390	100.183	-0.134	-0.158
-620.376	-200.000	-0.033	0.477
-619.361	-168.725	-0.061	-0.002
-618.346	402.304	0.030	-0.065
-617.332	-41.962	-0.154	-0.080
-616.317	119.996	-0.141	0.177
-615.303	800.000	-0.060	-0.253
-614.288	187.867	0.081	0.122
-613.273	122.776	0.139	-0.176
-612.259	-51.053	-0.178	-0.084
-611.244	469.628	0.028	0.065
-610.230	136.678	0.168	-0.221
-609.215	-200.000	-0.018	0.128
-608.201	153.807	0.151	-0.209
-607.186	519.157	-0.135	-0.320
-606.171	-200.000	0.014	-0.175
-605.157	325.198	0.066	0.127
-604.142	-26.000	0.067	-0.040
-603.128	128.693	0.160	-0.206
-602.113	-200.000	-0.027	0.186
-601.098	-138.477	-0.210	0.023
-600.084	-200.000	-0.015	-0.183
-599.069	-138.038	0.083	-0.009
-598.055	-58.539	0.144	0.063
-597.040	233.653	-0.128	0.213
-596.025	-200.000	-0.011	-0.243
-595.011	-153.575	0.065	-0.005
-593.996	-26.112	0.045	-0.026
-592.982	-200.000	-0.008	-0.229
-591.967	-32.838	-0.160	-0.090
-590.952	389.530	-0.157	-0.329
-589.938	256.677	0.182	-0.315
-588.923	55.465	-0.181	-0.176
-587.909	-200.000	0.024	0.269
-586.894	-164.510	0.137	0.006
-585.879	92.218	-0.290	0.330
-584.865	634.912	0.075	0.192
-583.850	-33.252	0.153	0.086
-582.836	-200.000	0.063	-0.297
-581.821	-200.000	-0.001	-0.101
-580.806	-13.541	0.247	0.162
-579.792	642.465	-0.178	-0.458
-578.777	-84.942	0.409	0.129
-577.763	16.213	-0.126	0.100
-576.748	-142.885	0.320	0.031
-575.733	184.662	-0.205	0.307
-574.719	-21.998	0.235	-0.144
-573.704	-30.880	-0.111	-0.063
-572.690	-200.000	-0.037	-0.167
-571.675	-36.586	0.170	0.092
-570.661	-135.757	0.145	0.017
-569.646	-66.205	0.029	-0.012
-568.631	-86.035	0.178	-0.056
-567.617	-200.000	0.042	0.196
-566.602	800.000	0.062	0.266
-565.588	455.362	-0.185	0.414
-564.573	-23.665	0.158	0.095
-563.558	318.992	-0.069	-0.132
-562.544	800.000	0.075	-0.267
-561.529	-200.000	0.052	-0.278
-560.515	-74.284	0.351	0.128
-559.500	-200.000	-0.002	0.139
-558.485	-90.049	0.250	-0.073
-557.471	61.822	-0.299	0.300
-556.456	-123.559	0.249	-0.040
-555.442	-200.000	-0.004	-0.107
-554.427	33.823	0.249	0.218
-553.412	800.000	0.044	-0.185
-552.398	-200.000	-0.055	-0.437
-551.383	-75.701	-0.162	-0.058
-550.369	764.131	0.058	0.159
-549.354	-94.408	-0.277	-0.076
-548.339	-200.000	0.009	0.149
-547.325	344.485	-0.172	0.340
-546.310	-37.859	-0.319	-0.171
-545.296	-164.781	0.129	-0.006
-544.281	-121.065	0.523	-0.088
-543.266	185.623	0.048	0.072
-542.252	-168.003	-0.157	-0.006
-541.237	-200.000	0.024	0.371
-540.223	-200.000	-0.032	0.189
-539.208	-200.000	-0.040	-0.228
-538.193	-122.779	0.144	-0.023
-537.179	-200.000	-0.003	-0.058
-536.164	246.187	0.056	-0.096
-535.150	-128.388	-0.197	0.028
-534.135	-110.426	-0.231	0.048
-533.121	313.740	-0.052	0.098
-532.106	-158.897	-0.286	-0.016
-531.091	800.000	-0.072	0.272
-530.077	-200.000	0.006	0.333
-529.062	35.823	0.122	-0.108
-528.048	-76.423	0.390	0.138
-527.033	-200.000	-0.022	-0.371
-526.018	197.308	-0.190	0.293
-525.004	800.000	0.056	-0.171
-523.989	-55.837	-0.231	0.104
-522.975	-48.412	-0.223	-0.108
-521.960	-67.070	0.278	0.110
-520.945	-200.000	-0.057	-0.316
-519.931	-92.598	-0.327	-0.092
-518.916	-64.077	-0.130	-0.053
-517.902	-200.000	-0.018	0.392
-516.887	464.347	-0.133	0.298
-515.872	-200.000	-0.003	0.081
-514.858	17.021	-0.083	0.066
-513.843	-110.723	-0.188	-0.039
-512.829	800.000	0.047	-0.203
-511.814	187.367	-0.163	-0.245
-510.799	-39.133	0.071	0.038
-509.785	800.000	0.012	0.045
-508.770	-59.876	-0.117	0.050
-507.756	-163.010	-0.120	0.006
-506.741	-43.012	-0.113	-0.058
-505.726	17.509	-0.275	-0.220
-504.712	212.385	-0.083	0.132
-503.697	139.015	-0.198	0.261
-502.683	-86.281	-0.132	-0.041
-501.668	-50.637	0.296	-0.140
-500.653	-125.927	-0.017	0.003
-499.639	70.649	0.017	-0.018
-498.624	105.838	-0.032	0.038
-497.610	75.566	-0.055	0.058
-496.595	-29.410	0.190	0.110
-495.581	340.553	0.144	0.283
-494.566	-21.917	-0.089	-0.054
-493.551	558.694	0.155	0.377
-492.537	-60.876	-0.164	0.070
-491.522	41.579	-0.019	-0.018
-490.508	786.743	0.104	0.287
-489.493	-88.397	0.294	-0.088
-488.478	43.103	-0.086	0.079
-487.464	800.000	-0.019	0.056
-486.449	164.739	0.132	-0.187
-485.435	-38.735	0.155	0.082
-484.420	118.109	0.105	-0.130
-483.405	-200.000	0.006	-0.107
-482.391	800.000	-0.035	-0.103
-481.376	62.871	-0.293	0.295
-480.362	-200.000	-0.006	0.170
-479.347	-200.000	-0.051	-0.254
-478.332	-66.322	0.056	-0.022
-477.318	-64.951	-0.233	0.095
-476.303	-30.406	-0.191	0.109
-475.289	-64.071	-0.013	-0.005
-474.274	53.391	0.074	-0.071
-473.259	-108.548	-0.223	0.048
-472.245	28.715	-0.107	0.091
-471.230	78.851	-0.199	-0.214
-470.216	492.170	-0.088	-0.202
-469.201	46.079	0.133	0.124
-468.186	43.063	-0.107	-0.099
-467.172	787.583	-0.069	-0.191
-466.157	-93.826	0.203	-0.056
-465.143	172.473	-0.077	0.111
-464.128	-16.145	0.142	0.091
-463.113	800.000	0.097	-0.317
-462.099	-105.452	-0.123	0.028
-461.084	-137.228	0.234	0.027
-460.070	-78.135	0.265	0.091
-459.055	372.190	-0.051	0.105
-458.040	42.592	0.068	-0.062
-457.026	-200.000	0.002	0.052
-456.011	63.692	-0.136	0.137
-454.997	360.527	-0.029	-0.057
-453.982	310.847	0.081	0.153
-452.968	-76.733	-0.061	0.022
-451.953	45.736	-0.243	-0.225
-450.938	-200.000	-0.059	-0.316
-449.924	800.000	-0.037	-0.129
-448.909	-65.662	0.064	-0.026
-447.895	-115.772	0.199	-0.037
-446.880	328.719	-0.242	-0.468
-445.865	193.617	-0.170	-0.258
-444.851	458.410	-0.048	-0.107
-443.836	800.000	-0.022	0.084
-442.822	123.838	-0.073	0.092
-441.807	668.166	0.097	0.252
-440.792	135.848	0.046	-0.060
-439.778	-190.562	0.119	0.001
-438.763	-200.000	-0.006	0.133
-437.749	123.463	0.214	0.269
-436.734	-29.607	0.144	0.082
-435.719	-173.357	-0.206	-0.006
-434.705	800.000	0.054	0.211
-433.690	-97.499	0.323	-0.084
-432.676	-126.137	0.125	-0.019
-431.661	8.389	0.102	0.077
-430.646	-68.859	-0.190	-0.074
-429.632	87.345	0.144	-0.160
-428.617	800.000	-0.061	0.216
-427.603	175.453	0.186	-0.271
-426.588	-185.077	0.204	-0.003
-425.573	122.969	-0.196	-0.246
-424.559	-70.550	-0.226	-0.086
-423.544	115.170	0.355	-0.435
-422.530	1.838	-0.131	0.095
-421.515	-200.000	0.013	-0.151
-420.500	476.394	0.067	0.151
-419.486	-66.221	0.079	0.032
-418.471	-200.000	0.015	-0.173
-417.457	-23.654	0.368	0.221
-416.442	-200.000	0.012	-0.218
-415.428	259.194	-0.162	-0.280
-414.413	800.000	-0.024	0.078
-413.398	55.993	-0.115	0.112
-412.384	-34.288	-0.213	0.117
-411.369	-28.425	0.403	0.233
-410.355	800.000	0.037	0.130
-409.340	-116.643	0.371	0.068
-408.325	-65.870	0.079	-0.032
-407.311	72.067	-0.218	0.228
-406.296	392.726	0.101	-0.211
-405.282	-86.582	-0.169	-0.052
-404.267	-85.746	0.166	-0.052
-403.252	-35.018	0.142	-0.078
-402.238	800.000	0.068	-0.250
-401.223	-85.017	-0.143	0.045
-400.209	369.408	-0.159	0.323
-399.194	-134.444	-0.342	-0.042
-398.179	-200.000	-0.025	0.184
-397.165	800.000	-0.065	-0.194
-396.150	-200.000	-0.002	0.099
-395.136	-170.267	0.423	0.015
-394.121	-39.231	0.128	-0.067
-393.106	800.000	-0.091	-0.275
-392.092	188.140	-0.135	0.201
-391.077	-89.833	-0.178	0.052
-390.063	33.056	0.178	-0.155
-389.048	94.626	0.080	0.092
-388.033	-57.539	-0.160	0.070
-387.019	-200.000	0.023	-0.100
-386.004	-96.490	0.211	0.056
-384.990	-138.192	-0.158	0.018
-383.975	115.777	-0.181	0.222
-382.960	32.005	0.252	-0.217
-381.946	800.000	0.049	0.205
-380.931	429.324	0.069	-0.149
-379.917	51.821	0.137	0.131
-378.902	298.024	0.078	0.144
-377.888	-80.930	-0.160	-0.053
-376.873	316.090	-0.161	0.305
-375.858	56.184	-0.283	-0.275
-374.844	800.000	0.088	-0.328
-373.829	126.455	0.186	0.235
-372.815	-24.797	0.230	0.137
-371.800	13.207	-0.208	0.161
-370.785	-200.000	-0.025	0.466
-369.771	-15.323	-0.148	-0.095
-368.756	-200.000	-0.011	0.137
-367.742	276.297	-0.016	0.029
-366.727	-200.000	-0.021	0.193
-365.712	800.000	-0.023	-0.066
-364.698	499.600	-0.106	-0.245
-363.683	800.000	-0.121	-0.411
-362.669	-29.529	-0.378	0.216
-361.654	-28.260	-0.257	-0.149
-360.639	-130.427	0.169	0.023
-359.625	-200.000	0.027	0.237
-358.610	46.328	0.123	-0.114
-357.596	11.796	-0.018	-0.014
-356.581	-91.301	-0.220	-0.063
-355.566	16.601	0.160	0.126
-354.552	-89.549	0.303	0.089
-353.537	13.751	0.424	-0.330
-352.523	9.860	0.256	-0.194
-351.508	-127.653	-0.269	-0.039
-350.493	-2.861	-0.156	0.109
-349.479	152.105	-0.221	-0.302
-348.464	156.226	-0.169	-0.234
-347.450	388.757	0.107	-0.221
-346.435	800.000	-0.112	-0.347
-345.420	4.435	-0.056	0.041
-344.406	26.676	0.186	0.156
-343.391	302.881	-0.187	0.346
-342.377	-45.882	-0.279	-0.138
-341.362	-200.000	0.022	-0.155
-340.348	20.571	-0.080	-0.065
-339.333	-39.283	0.161	0.084
-338.318	23.024	0.105	0.086
-337.304	15.227	-0.329	-0.258
-336.289	234.037	-0.072	0.119
-335.275	541.873	0.074	0.175
-334.260	-90.394	0.339	-0.098
-333.245	-200.000	0.040	-0.222
-332.231	545.844	0.065	-0.156
-331.216	-128.215	-0.167	-0.024
-330.202	-12.293	0.120	-0.078
-329.187	800.000	0.060	-0.243
-328.172	147.973	-0.141	0.190
-327.158	53.736	-0.087	-0.083
-326.143	-200.000	-0.469	-0.000
-325.129	132.221	0.255	0.329
-324.114	800.000	-0.118	-0.357
-323.099	-127.009	-0.111	0.016
-322.085	67.610	0.088	0.090
-321.070	-27.519	-0.213	0.124
-320.056	62.218	-0.240	0.240
-319.041	86.811	0.124	-0.136
-318.026	-9.269	0.065	0.043
-317.012	800.000	0.044	0.133
-315.997	-7.813	-0.174	-0.118
-314.983	212.145	0.114	-0.179
-313.968	-197.286	-0.227	0.001
-312.953	168.593	0.064	0.092
-311.939	25.353	-0.056	0.046
-310.924	-200.000	0.074	-0.327
-309.910	-200.000	-0.062	-0.278
-308.895	800.000	0.050	-0.212
-307.880	259.800	-0.135	-0.232
-306.866	-163.306	0.247	-0.012
-305.851	-200.000	-0.001	-0.049
-304.837	-200.000	0.025	-0.145
-303.822	66.208	0.089	0.091
-302.807	-0.752	-0.038	-0.027
-301.793	-53.777	0.240	-0.109
-300.778	-200.000	-0.034	0.152
-299.764	-141.888	-0.399	-0.040
-298.749	-169.570	-0.264	-0.010
-297.735	-68.234	0.141	0.055
-296.720	-53.023	0.127	0.058
-295.705	-74.701	-0.326	0.117
-294.691	59.806	0.125	0.123
-293.676	-2.869	0.255	0.178
-292.662	-117.413	0.152	0.027
-291.647	158.550	0.232	0.322
-290.632	251.381	-0.084	0.143
-289.618	800.000	0.065	0.207
-288.603	-29.991	0.199	-0.113
-287.589	-140.541	-0.185	-0.019
-286.574	1.028	0.296	0.212
-285.559	-9.594	0.027	-0.018
-284.545	-174.355	0.090	0.003
-283.530	84.002	0.185	-0.202
-282.516	455.377	0.008	0.018
-281.501	775.998	-0.120	0.327
-280.486	-37.822	-0.059	0.031
-279.472	23.837	0.357	0.293
-278.457	-92.568	-0.311	0.087
-277.443	-154.620	-0.244	-0.016
-276.428	275.107	-0.110	-0.194
-275.413	200.779	0.141	-0.217
-274.399	-26.494	0.287	-0.168
-273.384	-64.529	-0.160	0.065
-272.370	-47.123	-0.095	0.046
-271.355	-200.000	-0.018	-0.115
-270.340	800.000	-0.032	0.113
-269.326	-61.356	-0.129	0.054
-268.311	11.730	-0.115	-0.088
-267.297	-106.018	0.025	-0.006
-266.282	726.670	-0.060	0.159
-265.267	78.305	0.092	-0.098
-264.253	3.318	0.064	0.046
-263.238	-71.351	-0.095	-0.035
-262.224	-8.599	-0.025	-0.017
-261.209	21.736	-0.060	0.049
-260.195	-195.612	-0.253	0.002
-259.180	179.534	0.180	0.263
-258.165	-62.615	-0.056	-0.023
-257.151	-200.000	0.003	-0.029
-256.136	-200.000	0.024	-0.205
-255.122	-11.900	0.206	0.134
-254.107	-64.060	0.093	-0.038
-253.092	35.257	0.183	-0.160
-252.078	96.010	0.085	0.097
-251.063	-133.146	0.362	0.046
-250.049	14.487	-0.089	0.069
-249.034	-26.186	-0.137	0.080
-248.019	-127.437	0.331	0.048
-247.005	94.120	-0.095	-0.108
-245.990	-140.720	0.027	-0.003
-244.976	-101.876	0.288	-0.069
-243.961	152.291	0.062	0.084
-242.946	255.971	0.211	0.360
-241.932	-59.336	-0.197	0.084
-240.917	-41.815	0.226	-0.116
-239.903	87.230	-0.213	-0.234
-238.888	-4.517	-0.248	-0.171
-237.873	-200.000	0.033	-0.329
-236.859	-200.000	-0.001	-0.169
-235.844	800.000	0.052	0.200
-234.830	800.000	0.060	0.195
-233.815	8.318	0.042	0.031
-232.800	-137.961	0.224	0.025
-231.786	218.928	-0.150	-0.238
-230.771	-122.173	0.393	0.064
-229.757	-143.447	-0.331	0.031
-228.742	-75.634	-0.193	-0.068
-227.727	39.830	-0.245	-0.219
-226.713	-97.965	0.183	0.047
-225.698	-200.000	0.033	0.288
-224.684	-200.000	0.004	0.233
-223.669	91.197	-0.079	-0.088
-222.655	-200.000	-0.054	-0.332
-221.640	800.000	-0.132	0.386
-220.625	336.228	-0.084	-0.163
-219.611	-184.385	0.049	0.001
-218.596	7.460	-0.204	0.152
-217.582	223.948	-0.164	-0.264
-216.567	-118.383	-0.428	0.076
-215.552	-200.000	-0.025	0.229
-214.538	8.558	-0.022	-0.017
-213.523	-200.000	0.052	-0.291
-212.509	33.641	-0.094	-0.081
-211.494	-124.873	0.289	-0.044
-210.479	63.792	-0.104	-0.104
-209.465	12.162	-0.236	-0.181
-208.450	-200.000	0.070	-0.471
-207.436	44.698	0.282	-0.258
-206.421	78.426	0.114	-0.121
-205.406	-200.000	0.014	0.182
-204.392	-44.494	-0.329	-0.163
-203.377	-106.490	0.218	-0.048
-202.363	-200.000	-0.016	0.355
-201.348	800.000	-0.071	0.226
-200.333	123.306	-0.193	-0.241
-199.319	64.086	0.306	-0.306
-198.304	-200.000	-0.018	0.201
-197.290	-200.000	-0.019	-0.147
-196.275	173.199	-0.129	-0.185
-195.260	800.000	-0.052	0.217
-194.246	384.834	0.108	0.222
-193.231	22.643	0.229	0.186
-192.217	-29.968	0.142	0.081
-191.202	800.000	0.014	0.049
-190.187	-66.522	0.257	0.102
-189.173	-200.000	0.078	-0.375
-188.158	-72.925	-0.300	-0.110
-187.144	-200.000	0.027	-0.284
-186.129	-188.396	0.241	-0.003
-185.114	-94.206	-0.169	0.046
-184.100	-16.055	-0.287	-0.181
-183.085	-91.787	-0.124	-0.035
-182.071	11.370	-0.061	-0.046
-181.056	139.035	0.053	0.069
-180.042	-117.253	0.305	0.055
-179.027	-200.000	-0.000	0.319
-178.012	-200.000	-0.001	0.178
-176.998	800.000	-0.027	0.080
-175.983	-138.873	-0.256	0.028
-174.969	-200.000	0.037	-0.400
-173.954	800.000	0.078	0.334
-172.939	-200.000	0.072	0.451
-171.925	275.514	0.126	0.222
-170.910	25.191	-0.245	0.202
-169.896	800.000	0.079	0.232
-168.881	800.000	-0.041	0.116
-167.866	79.895	0.229	-0.245
-166.852	-200.000	-0.061	0.313
-165.837	-191.984	0.051	-0.000
-164.823	261.985	-0.046	-0.079
-163.808	81.683	0.132	0.142
-162.793	-133.799	0.292	0.036
-161.779	375.593	0.089	0.181
-160.764	-104.114	0.215	0.050
-159.750	541.789	-0.038	0.090
-158.735	-200.000	-0.026	0.224
-157.720	-19.046	-0.148	-0.091
-156.706	-136.489	-0.386	-0.044
-155.691	174.916	-0.021	0.030
-154.677	-78.541	-0.293	-0.099
-153.662	-122.096	0.474	-0.077
-152.647	-128.440	-0.090	-0.013
-151.633	-160.194	0.291	0.016
-150.618	87.663	-0.068	-0.075
-149.604	8.279	-0.265	0.198
-148.589	78.683	0.098	0.104
-147.574	-78.839	-0.094	0.032
-146.560	-200.000	0.012	-0.254
-145.545	468.951	-0.050	0.112
-144.531	-47.221	-0.322	0.155
-143.516	-98.222	0.216	0.055
-142.502	-110.523	-0.220	0.045
-141.487	800.000	0.071	0.264
-140.472	513.472	0.110	0.254
-139.458	-128.224	0.350	-0.050
-138.443	354.271	-0.055	-0.109
-137.429	-200.000	-0.028	-0.240
-136.414	800.000	0.020	0.063
-135.399	135.887	-0.101	0.131
-134.385	4.547	-0.198	-0.144
-133.370	52.258	0.184	-0.174
-132.356	174.962	0.060	0.086
-131.341	67.177	-0.213	0.215
-130.326	0.459	0.235	0.167
-129.312	-66.333	-0.214	0.084
-128.297	-200.000	-0.014	0.108
-127.283	474.801	0.141	0.315
-126.268	218.161	-0.170	-0.270
-125.253	-21.560	0.209	-0.126
-124.239	-67.059	0.225	0.088
-123.224	-130.881	-0.523	0.070
-122.210	65.430	0.165	0.166
-121.195	156.313	0.155	0.212
-120.180	-128.803	-0.104	-0.014
