DTS Sentinel unit serial number:	SN413079Multiplexer serial number:	ORYXHardware model number:	OX4-SRSoftware version number:	ORYX F/W v4.00 Oryx Data Collector v3.7.2.0data status	okinstallation	princeton_trtdifferential loss correction	single-endedforward channel	channel 3reverse channel	N/Adate	2019/09/14time	12:20:35forward acquisition time	60.00reverse acquisition time	0.00gamma	496.2192k internal	0.2295k external	0.2295temperature offset calibration	1.0065default loss term (dB/km)	0.3790temperature slope calibration	1.0000multiplexer offset coefficient	1.0000multiplexer slope coefficient	1.0000fibre end	0.00T internal ref (°C)	37.72T ext. ref 1 (°C)	4.75T ext. ref 2 (°C)	34.60length (m)	temperature (°C)	Stokes	anti-Stokes-747.200	337.157	0.179	0.357
-746.185	36.385	-0.396	0.357
-745.171	10.383	-0.091	0.071
-744.156	800.000	0.051	0.204
-743.142	26.364	0.073	0.063
-742.127	176.337	0.136	-0.202
-741.112	330.673	-0.134	-0.264
-740.098	506.200	-0.154	0.364
-739.083	-200.000	-0.000	0.074
-738.069	800.000	-0.158	0.481
-737.054	800.000	0.028	0.092
-736.039	-135.794	-0.046	0.006
-735.025	-37.469	0.127	-0.069
-734.010	-200.000	-0.015	-0.077
-732.996	29.268	-0.086	-0.075
-731.981	-65.992	-0.214	0.087
-730.966	-143.887	-0.160	-0.015
-729.952	-62.349	-0.168	0.071
-728.937	-69.230	0.149	0.059
-727.923	800.000	0.054	-0.223
-726.908	41.783	-0.228	0.211
-725.894	800.000	-0.040	0.172
-724.879	-114.147	0.140	-0.028
-723.864	275.562	-0.174	-0.315
-722.850	-200.000	0.139	-0.000
-721.835	53.956	0.204	-0.200
-720.821	-26.510	-0.194	0.116
-719.806	-200.000	-0.013	-0.141
-718.791	65.051	0.120	-0.124
-717.777	-200.000	0.007	-0.357
-716.762	-126.790	-0.088	-0.013
-715.748	-73.297	-0.145	-0.054
-714.733	-57.440	-0.208	0.093
-713.718	-71.612	-0.261	-0.099
-712.704	-200.000	-0.056	-0.256
-711.689	-140.497	0.122	0.013
-710.675	-78.129	0.446	-0.157
-709.660	15.635	-0.168	-0.134
-708.645	-32.952	0.293	-0.166
-707.631	292.623	-0.051	-0.095
-706.616	800.000	0.022	0.082
-705.602	-200.000	0.051	-0.414
-704.587	-25.574	-0.195	-0.117
-703.572	-98.211	0.213	-0.056
-702.558	586.324	0.028	0.069
-701.543	800.000	-0.066	-0.279
-700.529	209.569	0.119	-0.191
-699.514	-79.584	-0.095	0.033
-698.499	-200.000	0.041	0.193
-697.485	146.485	-0.012	-0.016
-696.470	-187.720	0.101	0.001
-695.456	-58.168	0.031	0.014
-694.441	-121.722	0.060	-0.010
-693.426	-200.000	-0.005	-0.270
-692.412	-13.708	-0.132	-0.087
-691.397	348.917	0.063	-0.126
-690.383	800.000	-0.057	-0.242
-689.368	51.861	0.128	-0.124
-688.354	295.828	0.192	0.358
-687.339	-49.027	-0.177	-0.086
-686.324	-120.058	0.198	-0.035
-685.310	80.428	-0.104	0.114
-684.295	62.243	-0.169	0.172
-683.281	-112.841	-0.353	0.071
-682.266	-200.000	0.024	0.157
-681.251	52.425	-0.051	-0.050
-680.237	-121.881	-0.198	-0.033
-679.222	8.552	-0.230	-0.176
-678.208	800.000	0.016	0.050
-677.193	64.663	-0.068	0.070
-676.178	-111.803	-0.118	0.024
-675.164	178.036	0.236	-0.351
-674.149	160.601	-0.162	-0.230
-673.135	-102.403	-0.291	0.071
-672.120	-126.480	-0.393	-0.060
-671.105	-159.777	0.237	0.013
-670.091	-100.634	-0.170	-0.043
-669.076	-73.596	0.230	0.085
-668.062	729.797	-0.104	-0.283
-667.047	448.470	0.115	0.259
-666.032	0.710	-0.225	0.164
-665.018	261.645	-0.076	-0.135
-664.003	800.000	-0.053	-0.200
-662.989	-200.000	-0.037	-0.174
-661.974	-126.383	-0.466	0.071
-660.959	-200.000	-0.011	0.108
-659.945	47.553	0.385	-0.365
-658.930	-161.639	-0.300	-0.016
-657.916	197.186	-0.085	-0.131
-656.901	-200.000	-0.017	-0.248
-655.886	-200.000	-0.041	0.371
-654.872	119.104	-0.131	0.165
-653.857	-87.006	-0.333	-0.103
-652.843	-7.913	0.146	0.101
-651.828	-137.887	-0.104	0.012
-650.814	-124.602	0.217	0.034
-649.799	110.280	0.198	-0.242
-648.784	-62.617	0.124	0.052
-647.770	400.401	-0.146	-0.312
-646.755	-39.523	-0.261	0.139
-645.741	211.610	-0.037	-0.059
-644.726	31.208	0.158	0.138
-643.711	-72.767	-0.122	-0.046
-642.697	188.179	0.137	0.208
-641.682	-173.320	-0.125	0.004
-640.668	-31.025	0.231	-0.133
-639.653	37.413	0.049	-0.044
-638.638	-128.186	-0.387	0.056
-637.624	-13.214	-0.328	0.217
-636.609	32.871	-0.170	-0.150
-635.595	577.351	0.038	-0.093
-634.580	39.316	0.074	-0.067
-633.565	692.709	-0.073	0.194
-632.551	-171.325	-0.115	-0.004
-631.536	-32.408	0.258	-0.146
-630.522	219.428	0.238	0.387
-629.507	-189.403	-0.297	-0.004
-628.492	-19.677	-0.123	0.077
-627.478	-21.991	0.266	-0.165
-626.463	430.457	-0.048	-0.107
-625.449	-200.000	-0.012	0.147
-624.434	31.413	0.323	-0.282
-623.419	-200.000	0.109	-0.000
-622.405	-38.063	-0.283	-0.153
-621.390	580.462	-0.059	-0.148
-620.376	172.937	-0.085	0.125
-619.361	-107.787	-0.050	0.011
-618.346	-79.614	0.158	0.054
-617.332	-68.232	0.103	-0.041
-616.317	58.901	-0.125	0.125
-615.303	-153.868	-0.249	-0.017
-614.288	-35.505	-0.092	0.051
-613.273	229.781	-0.275	0.457
-612.259	-200.000	-0.003	-0.193
-611.244	-113.355	0.167	-0.033
-610.230	800.000	-0.071	0.269
-609.215	-41.659	0.173	0.090
-608.201	-129.442	-0.117	-0.017
-607.186	254.846	-0.136	-0.236
-606.171	800.000	-0.034	0.141
-605.157	-200.000	-0.011	-0.167
-604.142	800.000	0.055	0.176
-603.128	-64.478	0.293	0.121
-602.113	-46.676	-0.255	-0.127
-601.098	-129.080	-0.328	-0.047
-600.084	-130.878	0.347	0.047
-599.069	-88.118	0.228	-0.070
-598.055	800.000	0.128	0.387
-597.040	21.686	0.095	-0.078
-596.025	16.319	0.125	0.100
-595.011	-107.580	-0.172	0.038
-593.996	-200.000	0.003	-0.041
-592.982	-0.639	-0.054	0.039
-591.967	-200.000	-0.018	0.184
-590.952	244.095	-0.137	-0.234
-589.938	-74.758	-0.247	-0.090
-588.923	-96.780	0.114	0.030
-587.909	800.000	-0.073	0.240
-586.894	-200.000	-0.044	-0.397
-585.879	-200.000	0.004	-0.058
-584.865	-94.989	-0.322	-0.088
-583.850	-200.000	0.041	-0.189
-582.836	42.735	0.113	0.104
-581.821	800.000	-0.032	0.121
-580.806	800.000	0.036	0.148
-579.792	18.355	-0.123	-0.100
-578.777	64.921	-0.164	0.168
-577.763	800.000	0.097	-0.324
-576.748	-26.505	-0.253	-0.151
-575.733	-78.620	0.067	-0.023
-574.719	2.413	0.147	0.108
-573.704	-84.636	-0.269	0.086
-572.690	254.049	-0.179	-0.310
-571.675	-51.449	-0.379	0.180
-570.661	-132.702	0.428	-0.056
-569.646	162.465	-0.026	0.037
-568.631	-79.520	0.259	0.089
-567.617	800.000	0.022	0.095
-566.602	-200.000	-0.022	0.179
-565.588	-65.526	-0.288	-0.117
-564.573	-87.798	0.100	-0.031
-563.558	-128.372	0.191	-0.028
-562.544	-200.000	0.066	-0.306
-561.529	193.523	0.196	-0.301
-560.515	160.587	0.114	-0.162
-559.500	-107.566	-0.157	-0.035
-558.485	69.426	-0.193	0.202
-557.471	-90.071	0.274	-0.081
-556.456	-200.000	0.031	0.151
-555.442	-15.971	0.235	-0.152
-554.427	-128.123	0.205	-0.030
-553.412	-75.472	0.127	-0.046
-552.398	800.000	-0.040	-0.126
-551.383	-9.134	-0.151	-0.103
-550.369	29.538	-0.294	-0.254
-549.354	46.507	-0.111	0.104
-548.339	-143.281	-0.087	0.008
-547.325	800.000	-0.122	-0.415
-546.310	225.744	0.074	0.121
-545.296	-96.059	0.260	0.070
-544.281	-169.427	-0.347	-0.013
-543.266	528.688	0.102	0.244
-542.252	98.342	-0.032	0.037
-541.237	435.207	-0.181	-0.400
-540.223	332.552	0.105	-0.206
-539.208	46.470	-0.112	0.106
-538.193	759.105	-0.084	-0.231
-537.179	-200.000	-0.021	-0.409
-536.164	-200.000	0.054	-0.337
-535.150	393.207	-0.068	-0.143
-534.135	-129.932	-0.489	0.068
-533.121	31.525	0.094	0.082
-532.106	-45.446	-0.070	0.035
-531.091	296.843	0.124	0.231
-530.077	800.000	0.084	-0.300
-529.062	-69.294	0.268	0.104
-528.048	-200.000	-0.006	0.150
-527.033	227.588	0.096	-0.158
-526.018	800.000	-0.051	-0.216
-525.004	-200.000	0.078	0.496
-523.989	800.000	0.086	-0.285
-522.975	65.530	0.080	-0.082
-521.960	-200.000	0.036	0.226
-520.945	26.044	-0.077	0.065
-519.931	100.382	-0.127	-0.149
-518.916	-61.971	-0.094	-0.040
-517.902	800.000	-0.037	0.131
-516.887	9.371	-0.160	-0.123
-515.872	-147.595	-0.121	-0.010
-514.858	-146.443	0.120	0.011
-513.843	-66.535	-0.254	-0.102
-512.829	-109.629	-0.089	0.019
-511.814	241.124	0.063	-0.106
-510.799	-86.124	0.303	-0.095
-509.785	800.000	0.058	-0.188
-508.770	286.659	-0.120	-0.220
-507.756	800.000	0.070	0.219
-506.741	-3.487	0.242	0.170
-505.726	-85.666	0.267	-0.084
-504.712	800.000	0.111	-0.392
-503.697	-200.000	-0.044	0.238
-502.683	111.533	0.136	-0.166
-501.668	-200.000	-0.003	0.084
-500.653	155.941	-0.128	0.178
-499.639	-21.547	-0.021	-0.013
-498.624	-152.623	0.157	-0.011
-497.610	-200.000	-0.011	0.149
-496.595	-138.787	-0.141	0.016
-495.581	-147.797	-0.066	-0.006
-494.566	-200.000	-0.019	0.161
-493.551	-29.735	0.112	-0.065
-492.537	-21.316	-0.242	0.150
-491.522	800.000	0.078	-0.263
-490.508	-45.476	0.202	-0.101
-489.493	-200.000	-0.006	-0.110
-488.478	-171.190	-0.324	0.011
-487.464	85.221	-0.167	0.185
-486.449	691.923	0.080	0.212
-485.435	-66.773	-0.121	0.049
-484.420	-79.706	-0.100	-0.034
-483.405	-59.936	-0.060	-0.026
-482.391	283.604	-0.057	-0.104
-481.376	-147.025	-0.428	0.037
-480.362	653.713	0.015	-0.040
-479.347	160.427	0.098	-0.138
-478.332	-83.855	-0.267	0.086
-477.318	44.466	0.097	-0.090
-476.303	800.000	0.137	0.449
-475.289	421.139	0.145	-0.314
-474.274	312.192	-0.156	0.296
-473.259	-200.000	-0.033	-0.180
-472.245	150.133	0.183	-0.251
-471.230	-36.929	0.296	0.161
-470.216	-143.359	-0.118	-0.011
-469.201	120.414	0.144	-0.181
-468.186	-200.000	-0.034	0.153
-467.172	179.153	-0.109	0.161
-466.157	-200.000	-0.048	-0.297
-465.143	-6.525	-0.358	0.247
-464.128	-133.589	-0.066	0.008
-463.113	-5.329	0.250	-0.173
-462.099	163.763	-0.117	-0.167
-461.084	79.749	0.129	-0.140
-460.070	800.000	-0.037	-0.127
-459.055	800.000	-0.031	0.101
-458.040	-114.050	0.103	-0.020
-457.026	64.382	0.090	0.092
-456.011	494.745	0.027	0.063
-454.997	-178.156	0.169	0.004
-453.982	-150.059	0.229	0.018
-452.968	169.789	0.134	-0.194
-451.953	800.000	-0.066	0.225
-450.938	-200.000	-0.040	0.197
-449.924	317.100	-0.036	-0.069
-448.909	-77.231	-0.182	-0.064
-447.895	-200.000	-0.001	0.048
-446.880	37.557	0.341	-0.306
-445.865	-54.553	0.180	-0.082
-444.851	688.981	0.097	0.257
-443.836	204.618	0.092	0.144
-442.822	78.906	-0.115	-0.124
-441.807	571.440	0.087	-0.215
-440.792	211.740	-0.182	0.289
-439.778	-200.000	0.049	-0.245
-438.763	51.686	-0.095	-0.091
-437.749	41.463	-0.144	-0.131
-436.734	140.399	-0.260	-0.347
-435.719	-200.000	0.027	-0.299
-434.705	-108.529	-0.100	0.022
-433.690	-42.430	-0.099	-0.051
-432.676	-96.308	0.184	0.049
-431.661	-29.097	-0.130	-0.075
-430.646	0.082	-0.072	0.052
-429.632	-116.025	-0.178	-0.034
-428.617	442.808	-0.118	0.260
-427.603	387.908	-0.081	0.170
-426.588	29.053	-0.311	0.266
-425.573	-74.426	0.339	-0.123
-424.559	-48.746	-0.215	0.104
-423.544	-70.990	-0.153	-0.058
-422.530	242.243	0.143	-0.241
-421.515	800.000	0.057	-0.207
-420.500	66.023	0.134	-0.137
-419.486	-113.765	-0.195	0.038
-418.471	-72.375	0.149	0.056
-417.457	-92.015	0.316	0.090
-416.442	522.462	-0.095	0.226
-415.428	-44.867	-0.272	-0.137
-414.413	-44.379	-0.519	0.262
-413.398	800.000	-0.107	0.383
-412.384	800.000	-0.032	0.126
-411.369	-122.944	-0.276	0.045
-410.355	68.504	-0.113	0.116
-409.340	-200.000	-0.040	0.304
-408.325	-36.523	0.334	-0.181
-407.311	59.676	-0.126	0.126
-406.296	151.980	-0.064	-0.088
-405.282	8.973	-0.163	0.124
-404.267	-130.685	-0.200	-0.027
-403.252	29.043	-0.194	0.166
-402.238	-90.496	0.311	0.091
-401.223	-200.000	0.024	0.117
-400.209	800.000	-0.070	-0.251
-399.194	10.522	-0.228	0.175
-398.179	-94.770	-0.125	-0.034
-397.165	53.992	0.175	-0.170
-396.150	-62.206	0.055	-0.023
-395.136	800.000	0.022	-0.095
-394.121	800.000	0.015	-0.044
-393.106	18.467	0.083	-0.066
-392.092	800.000	-0.050	-0.208
-391.077	800.000	0.014	-0.054
-390.063	-23.799	0.301	-0.182
-389.048	776.149	-0.022	-0.062
-388.033	-200.000	0.039	0.195
-387.019	-81.463	-0.018	-0.006
-386.004	-200.000	-0.019	0.153
-384.990	310.714	0.089	0.168
-383.975	271.490	-0.093	-0.166
-382.960	-52.997	0.278	0.129
-381.946	800.000	-0.048	0.164
-380.931	263.071	0.158	-0.276
-379.917	226.258	-0.048	-0.079
-378.902	-160.846	-0.169	0.009
-377.888	453.012	-0.086	0.192
-376.873	97.656	-0.114	-0.132
-375.858	126.671	0.172	-0.220
-374.844	87.258	0.196	-0.218
-373.829	81.271	-0.216	0.236
-372.815	-200.000	0.024	-0.228
-371.800	372.874	0.180	0.368
-370.785	548.588	-0.077	-0.186
-369.771	20.606	-0.196	0.160
-368.756	-19.060	0.046	-0.029
-367.742	98.072	0.261	-0.303
-366.727	-20.378	0.144	0.089
-365.712	-200.000	-0.051	0.258
-364.698	-199.372	0.458	-0.002
-363.683	-125.928	-0.173	-0.026
-362.669	-50.169	-0.254	-0.121
-361.654	-24.159	-0.228	0.137
-360.639	-90.815	0.101	-0.029
-359.625	182.464	-0.095	0.141
-358.610	218.112	0.065	0.105
-357.596	-84.480	-0.269	0.085
-356.581	4.365	-0.122	-0.090
-355.566	-23.306	0.066	-0.040
-354.552	-53.951	0.096	-0.044
-353.537	47.286	-0.130	0.122
-352.523	18.896	-0.088	-0.071
-351.508	-53.156	0.184	0.085
-350.493	-102.687	0.133	0.032
-349.479	-83.391	0.342	-0.110
-348.464	-90.085	-0.093	-0.027
-347.450	323.315	0.166	-0.319
-346.435	-200.000	0.024	-0.159
-345.420	59.002	-0.041	0.040
-344.406	-80.608	0.132	-0.044
-343.391	-28.178	-0.129	-0.075
-342.377	-200.000	-0.033	-0.298
-341.362	800.000	-0.085	0.250
-340.348	460.264	-0.086	-0.192
-339.333	-200.000	-0.029	-0.362
-338.318	-42.334	0.138	-0.071
-337.304	800.000	0.051	-0.222
-336.289	-200.000	0.015	-0.288
-335.275	538.925	-0.082	0.195
-334.260	103.708	0.124	0.147
-333.245	-88.949	-0.198	0.059
-332.231	-200.000	0.021	-0.154
-331.216	73.555	-0.183	-0.193
-330.202	-81.220	0.186	0.062
-329.187	143.884	-0.293	0.393
-328.172	569.419	-0.078	-0.191
-327.158	651.308	0.149	-0.384
-326.143	226.185	-0.158	-0.257
-325.129	138.546	0.131	-0.172
-324.114	114.075	0.100	0.123
-323.099	60.935	0.079	-0.078
-322.085	595.755	-0.025	0.062
-321.070	800.000	-0.077	0.221
-320.056	-83.521	-0.340	-0.109
-319.041	-200.000	0.004	0.083
-318.026	-52.964	0.140	-0.065
-317.012	-79.380	-0.327	-0.111
-315.997	-200.000	-0.140	0.633
-314.983	166.834	0.087	0.124
-313.968	0.358	0.292	0.210
-312.953	-111.861	0.144	-0.029
-311.939	111.804	-0.017	0.020
-310.924	-87.379	0.266	0.081
-309.910	800.000	0.082	0.302
-308.895	-200.000	0.008	0.086
-307.880	63.486	-0.054	0.054
-306.866	-60.893	0.069	-0.029
-305.851	688.877	-0.057	0.150
-304.837	-3.091	-0.300	0.210
-303.822	26.317	-0.063	-0.053
-302.807	544.824	0.046	-0.110
-301.793	-200.000	-0.000	0.145
-300.778	32.159	-0.071	0.061
-299.764	56.264	0.103	0.101
-298.749	-14.256	-0.068	-0.044
-297.735	74.328	0.156	0.165
-296.720	-14.492	0.167	-0.108
-295.705	-200.000	0.058	0.396
-294.691	-200.000	0.012	0.054
-293.676	-128.126	-0.289	0.041
-292.662	239.393	-0.157	0.262
-291.647	89.111	0.175	-0.196
-290.632	62.258	-0.081	0.081
-289.618	89.022	0.356	0.398
-288.603	-154.244	0.136	0.009
-287.589	-30.107	-0.071	-0.041
-286.574	-50.222	-0.085	0.040
-285.559	28.898	0.107	-0.091
-284.545	-133.776	-0.224	-0.028
-283.530	-200.000	-0.035	-0.249
-282.516	68.651	0.262	0.270
-281.501	72.027	0.263	0.274
-280.486	194.584	0.097	-0.147
-279.472	-200.000	-0.016	0.202
-278.457	-131.300	0.089	-0.012
-277.443	-28.287	0.394	-0.228
-276.428	-12.362	-0.076	0.050
-275.413	668.415	0.091	-0.237
-274.399	317.522	-0.106	0.201
-273.384	800.000	-0.152	0.493
-272.370	444.167	0.175	0.385
-271.355	-109.276	0.344	-0.073
-270.340	800.000	-0.077	-0.221
-269.326	800.000	0.065	0.187
-268.311	-200.000	0.014	0.087
-267.297	324.582	-0.158	0.302
-266.282	-59.406	0.415	-0.179
-265.267	-32.614	0.311	-0.174
-264.253	800.000	0.063	0.265
-263.238	-200.000	-0.035	0.295
-262.224	-129.924	-0.237	0.033
-261.209	364.994	0.012	-0.024
-260.195	-0.132	0.188	-0.134
-259.180	-2.078	0.163	0.115
-258.165	-200.000	-0.030	-0.150
-257.151	-18.452	-0.196	0.123
-256.136	11.429	0.179	0.138
-255.122	-41.265	-0.418	-0.216
-254.107	-200.000	-0.008	0.107
-253.092	-67.212	0.301	0.119
-252.078	-22.599	0.182	-0.111
-251.063	-19.670	0.088	-0.055
-250.049	800.000	-0.042	-0.121
-249.034	107.539	0.141	-0.169
-248.019	-46.784	0.082	-0.040
-247.005	-178.888	-0.272	0.006
-245.990	-53.758	-0.349	0.160
-244.976	-200.000	0.007	-0.099
-243.961	773.409	-0.079	0.217
-242.946	182.654	-0.223	-0.330
-241.932	78.214	0.267	-0.286
-240.917	176.888	-0.020	-0.029
-239.903	-111.124	0.271	-0.056
-238.888	-96.316	0.168	-0.045
-237.873	-92.305	0.202	0.057
-236.859	-44.658	0.333	-0.167
-235.844	-34.603	-0.063	0.035
-234.830	-127.028	0.293	-0.043
-233.815	-200.000	0.005	0.354
-232.800	-114.269	-0.393	0.076
-231.786	-112.471	0.176	0.035
-230.771	481.854	-0.125	0.284
-229.757	672.782	0.071	-0.185
-228.742	203.370	0.081	0.126
-227.727	282.905	-0.044	0.079
-226.713	-30.161	-0.256	-0.146
-225.698	-51.699	0.069	0.032
-224.684	-200.000	-0.615	-0.003
-223.669	24.978	0.336	0.280
-222.655	-200.000	0.011	-0.223
-221.640	800.000	0.096	0.290
-220.625	-200.000	-0.004	-0.094
-219.611	-82.732	0.125	0.041
-218.596	20.833	-0.070	0.057
-217.582	-99.267	-0.113	0.028
-216.567	-114.038	0.320	-0.062
-215.552	-94.909	0.401	-0.109
-214.538	800.000	-0.089	0.261
-213.523	66.888	-0.121	-0.123
-212.509	-38.907	-0.300	-0.158
-211.494	-10.521	-0.212	-0.141
-210.479	141.073	-0.145	0.192
-209.465	-98.496	0.231	-0.059
-208.450	800.000	0.187	-0.542
-207.436	23.789	0.059	-0.048
-206.421	-0.032	-0.307	-0.219
-205.406	299.801	0.144	0.266
-204.392	-35.510	0.042	0.023
-203.377	193.378	0.110	-0.166
-202.363	-200.000	0.078	-0.364
-201.348	-200.000	0.031	-0.186
-200.333	138.171	-0.128	-0.167
-199.319	-83.459	0.245	-0.079
-198.304	19.564	0.254	-0.204
-197.290	367.982	0.182	0.368
-196.275	800.000	0.092	0.258
-195.260	-35.978	-0.140	0.076
-194.246	36.638	0.421	-0.372
-193.231	800.000	-0.027	-0.119
-192.217	43.350	0.141	-0.129
-191.202	180.038	0.158	-0.232
-190.187	134.488	0.070	-0.091
-189.173	-42.026	-0.211	0.108
-188.158	-120.942	-0.099	0.017
-187.144	387.027	0.122	0.252
-186.129	-60.111	0.305	-0.130
-185.114	-63.055	0.048	-0.020
-184.100	-123.572	-0.175	-0.028
-183.085	276.922	0.093	-0.165
-182.071	-200.000	-0.025	0.187
-181.056	67.349	0.139	0.142
-180.042	136.131	-0.082	0.106
-179.027	-11.342	0.283	0.187
-178.012	800.000	-0.089	0.325
-176.998	24.799	-0.038	-0.032
-175.983	36.915	-0.078	-0.069
-174.969	-71.478	-0.207	0.077
-173.954	717.639	-0.102	0.271
-172.939	166.670	-0.097	0.138
-171.925	800.000	-0.143	0.535
-170.910	105.187	0.165	0.195
-169.896	3.558	0.034	0.025
-168.881	800.000	0.059	-0.210
-167.866	3.636	0.200	-0.146
-166.852	-200.000	-0.011	0.159
-165.837	-45.617	-0.332	0.164
-164.823	327.900	-0.200	0.383
-163.808	-107.323	-0.168	-0.037
-162.793	800.000	0.076	-0.249
-161.779	-107.677	-0.134	0.029
-160.764	-73.047	-0.193	0.071
-159.750	-99.565	-0.104	0.026
-158.735	17.594	0.201	-0.160
-157.720	247.127	0.032	-0.055
-156.706	-200.000	-0.027	-0.134
-155.691	-16.574	0.086	0.054
-154.677	286.562	-0.109	0.197
-153.662	-200.000	-0.021	0.239
-152.647	291.895	-0.025	-0.046
-151.633	-200.000	0.011	-0.103
-150.618	421.637	-0.058	0.123
-149.604	33.052	-0.309	-0.268
-148.589	-200.000	0.008	-0.150
-147.574	-200.000	-0.009	0.065
-146.560	-152.702	-0.544	-0.039
-145.545	-200.000	-0.005	0.119
-144.531	-200.000	-0.049	0.263
-143.516	66.222	0.042	-0.043
-142.502	76.064	-0.190	0.200
-141.487	-95.133	-0.072	-0.019
-140.472	14.711	0.311	0.242
-139.458	-36.069	0.128	-0.069
-138.443	-200.000	-0.057	-0.461
-137.429	-200.000	-0.010	0.121
-136.414	-141.621	0.330	-0.033
-135.399	-2.211	-0.290	-0.203
-134.385	-82.304	-0.315	-0.102
-133.370	-3.061	0.264	0.184
-132.356	71.788	0.083	0.086
-131.341	-37.942	0.117	0.062
-130.326	-200.000	-0.004	0.198
-129.312	-139.878	-0.190	-0.020
-128.297	-87.637	0.202	0.061
-127.283	-48.443	0.139	-0.067
-126.268	-60.609	0.333	0.141
-125.253	-143.572	-0.277	-0.026
-124.239	-89.088	-0.108	0.032
-123.224	-92.694	0.196	0.055
-122.210	800.000	0.026	-0.079
