DTS Sentinel unit serial number:	SN413079Multiplexer serial number:	ORYXHardware model number:	OX4-SRSoftware version number:	ORYX F/W v4.00 Oryx Data Collector v3.7.2.0data status	okinstallation	princeton_trtdifferential loss correction	single-endedforward channel	channel 3reverse channel	N/Adate	2019/09/15time	12:12:35forward acquisition time	60.00reverse acquisition time	0.00gamma	496.2192k internal	0.2303k external	0.2303temperature offset calibration	0.9972default loss term (dB/km)	0.3790temperature slope calibration	1.0000multiplexer offset coefficient	1.0000multiplexer slope coefficient	1.0000fibre end	0.00T internal ref (°C)	34.59T ext. ref 1 (°C)	5.05T ext. ref 2 (°C)	31.35length (m)	temperature (°C)	Stokes	anti-Stokes-747.200	-161.970	0.183	-0.009
-746.185	800.000	0.104	0.372
-745.171	-146.548	0.163	0.014
-744.156	-0.964	-0.115	0.083
-743.142	-200.000	0.003	-0.279
-742.127	356.897	-0.211	0.428
-741.112	470.099	-0.077	0.176
-740.098	362.509	-0.184	0.377
-739.083	-200.000	0.023	0.149
-738.069	800.000	-0.093	0.386
-737.054	52.284	-0.053	0.052
-736.039	3.409	-0.136	-0.101
-735.025	43.264	0.086	0.080
-734.010	25.193	-0.176	0.148
-732.996	10.030	-0.085	0.066
-731.981	5.279	-0.162	0.122
-730.966	-5.478	-0.368	-0.257
-729.952	490.773	-0.118	0.275
-728.937	66.822	0.067	-0.070
-727.923	589.486	-0.124	-0.312
-726.908	-136.486	-0.303	0.036
-725.894	652.914	0.056	0.147
-724.879	86.436	-0.151	-0.169
-723.864	17.118	0.075	-0.060
-722.850	-146.469	-0.192	-0.017
-721.835	-52.972	-0.241	0.113
-720.821	51.716	-0.011	0.011
-719.806	-22.820	-0.138	-0.085
-718.791	618.400	0.067	-0.172
-717.777	-136.287	-0.297	-0.035
-716.762	-145.206	0.340	-0.031
-715.748	367.484	-0.071	-0.147
-714.733	62.037	-0.080	-0.081
-713.718	-200.000	-0.010	-0.075
-712.704	-127.081	-0.322	-0.048
-711.689	-74.046	-0.040	0.015
-710.675	-71.349	-0.332	0.126
-709.660	122.802	-0.099	0.126
-708.645	396.942	0.125	0.265
-707.631	800.000	0.018	0.064
-706.616	388.591	0.168	-0.354
-705.602	-200.000	-0.020	-0.197
-704.587	-118.936	-0.465	-0.083
-703.572	191.609	0.142	0.218
-702.558	-13.319	0.115	-0.076
-701.543	188.314	-0.277	-0.422
-700.529	508.710	0.044	-0.105
-699.514	49.142	0.184	-0.175
-698.499	-200.000	0.022	-0.165
-697.485	-200.000	0.068	0.448
-696.470	800.000	0.149	0.465
-695.456	99.344	0.084	-0.099
-694.441	209.335	-0.044	-0.070
-693.426	800.000	-0.071	-0.298
-692.412	-200.000	-0.017	-0.390
-691.397	-90.403	-0.432	0.127
-690.383	0.643	0.270	0.196
-689.368	93.017	0.098	-0.112
-688.354	-131.005	-0.278	-0.038
-687.339	-112.809	-0.196	-0.040
-686.324	718.362	0.073	-0.197
-685.310	-146.070	-0.172	0.015
-684.295	28.031	-0.256	-0.219
-683.281	43.804	0.177	-0.165
-682.266	-100.759	-0.166	-0.042
-681.251	800.000	-0.093	0.379
-680.237	-2.088	0.178	0.127
-679.222	800.000	0.060	0.211
-678.208	-154.478	0.311	-0.021
-677.193	-150.896	0.176	-0.014
-676.178	-200.000	0.023	-0.177
-675.164	-199.504	-0.246	0.001
-674.149	435.485	-0.111	-0.246
-673.135	292.288	0.058	-0.108
-672.120	-200.000	0.022	-0.240
-671.105	491.933	-0.104	-0.243
-670.091	-107.565	0.241	-0.054
-669.076	800.000	-0.018	0.052
-668.062	-200.000	0.018	-0.295
-667.047	384.133	-0.017	-0.035
-666.032	-200.000	-0.020	-0.143
-665.018	-200.000	0.013	0.499
-664.003	-11.608	-0.255	0.170
-662.989	-130.726	0.304	0.042
-661.974	-75.557	0.097	-0.035
-660.959	31.218	0.003	0.003
-659.945	31.196	0.207	0.180
-658.930	-200.000	-0.009	-0.047
-657.916	800.000	0.047	0.189
-656.901	-11.255	-0.478	-0.319
-655.886	642.951	0.050	-0.130
-654.872	-86.380	-0.201	0.063
-653.857	-87.204	0.170	-0.052
-652.843	39.611	0.081	-0.074
-651.828	12.591	0.161	0.126
-650.814	-26.300	0.267	-0.159
-649.799	-118.009	-0.155	0.028
-648.784	46.902	0.171	-0.161
-647.770	-114.792	0.204	-0.040
-646.755	-200.000	-0.058	0.289
-645.741	-200.000	-0.005	-0.073
-644.726	35.790	-0.164	-0.146
-643.711	512.690	-0.148	-0.350
-642.697	173.566	0.053	-0.078
-641.682	-190.591	0.157	-0.002
-640.668	52.596	-0.254	-0.246
-639.653	-99.474	0.153	0.039
-638.638	-200.000	-0.012	0.253
-637.624	-200.000	-0.079	-0.462
-636.609	-157.820	0.212	0.013
-635.595	-67.626	-0.398	0.158
-634.580	-37.544	-0.311	0.168
-633.565	105.436	0.158	-0.189
-632.551	221.097	0.150	-0.243
-631.536	-126.315	-0.100	-0.015
-630.522	-200.000	-0.014	-0.128
-629.507	172.713	-0.206	-0.300
-628.492	-151.949	-0.199	-0.015
-627.478	14.010	0.102	0.080
-626.463	-200.000	0.004	-0.101
-625.449	-40.589	0.289	0.152
-624.434	-200.000	-0.030	-0.147
-623.419	84.587	0.313	0.348
-622.405	645.494	-0.012	0.031
-621.390	225.949	0.250	-0.411
-620.376	-76.198	-0.441	-0.158
-619.361	-90.470	-0.124	-0.036
-618.346	108.285	-0.086	-0.104
-617.332	800.000	-0.068	0.211
-616.317	20.354	-0.169	0.138
-615.303	37.586	0.056	0.050
-614.288	62.465	-0.143	-0.145
-613.273	65.659	-0.072	-0.073
-612.259	727.555	-0.061	-0.164
-611.244	619.372	0.045	-0.116
-610.230	-41.592	0.118	-0.061
-609.215	197.120	-0.071	-0.110
-608.201	800.000	-0.108	-0.342
-607.186	-200.000	-0.036	-0.326
-606.171	-127.022	0.264	-0.039
-605.157	-97.599	0.348	-0.091
-604.142	-99.540	-0.165	-0.042
-603.128	-133.200	0.086	-0.011
-602.113	460.968	-0.152	-0.343
-601.098	360.543	-0.131	-0.267
-600.084	14.017	0.331	0.261
-599.069	-52.904	0.264	-0.123
-598.055	-200.000	0.017	-0.089
-597.040	195.648	-0.108	0.166
-596.025	-125.974	-0.102	0.016
-595.011	111.744	-0.040	0.049
-593.996	-90.838	-0.208	-0.061
-592.982	163.414	-0.168	-0.240
-591.967	295.200	-0.085	0.157
-590.952	461.125	-0.073	0.164
-589.938	51.796	0.181	0.175
-588.923	-200.000	-0.032	0.178
-587.909	-89.089	-0.300	0.090
-586.894	800.000	0.060	0.181
-585.879	-125.392	-0.134	-0.021
-584.865	-200.000	-0.007	-0.183
-583.850	493.173	-0.085	0.196
-582.836	432.983	-0.099	0.217
-581.821	63.882	0.243	0.248
-580.806	-32.617	0.286	0.161
-579.792	-200.000	0.004	-0.103
-578.777	-200.000	-0.022	-0.172
-577.763	55.953	0.127	0.125
-576.748	11.101	-0.060	0.046
-575.733	-114.649	-0.048	-0.009
-574.719	-200.000	0.033	-0.196
-573.704	-97.352	-0.013	-0.003
-572.690	-120.614	-0.185	0.032
-571.675	-98.203	0.141	-0.037
-570.661	800.000	-0.049	-0.188
-569.646	-101.435	-0.004	-0.001
-568.631	-39.260	-0.107	0.057
-567.617	-11.307	0.298	-0.198
-566.602	-60.538	-0.404	0.174
-565.588	-43.254	-0.138	-0.071
-564.573	-146.767	-0.042	-0.004
-563.558	370.756	-0.167	0.343
-562.544	-111.205	-0.266	-0.055
-561.529	-22.524	-0.171	0.105
-560.515	242.433	0.092	-0.156
-559.500	-171.571	0.081	-0.003
-558.485	452.132	-0.146	-0.326
-557.471	-200.000	0.014	-0.118
-556.456	-200.000	-0.044	0.455
-555.442	-118.425	-0.096	0.017
-554.427	-197.968	-0.159	0.001
-553.412	-200.000	-0.010	-0.257
-552.398	800.000	0.034	0.150
-551.383	-166.103	-0.219	-0.009
-550.369	-111.815	0.305	-0.062
-549.354	-10.763	-0.117	-0.078
-548.339	198.918	0.219	0.339
-547.325	-200.000	-0.000	0.067
-546.310	-166.454	-0.359	0.015
-545.296	-200.000	0.000	-0.137
-544.281	317.323	-0.057	-0.109
-543.266	381.357	-0.047	0.098
-542.252	-150.590	0.291	0.022
-541.237	289.589	0.012	0.022
-540.223	242.131	-0.047	0.079
-539.208	-8.930	0.113	0.076
-538.193	255.849	-0.038	-0.066
-537.179	-200.000	0.074	0.000
-536.164	-200.000	0.010	-0.319
-535.150	-200.000	-0.230	-0.001
-534.135	-38.823	-0.329	-0.175
-533.121	-13.091	0.060	-0.040
-532.106	23.985	0.370	0.308
-531.091	687.237	0.087	-0.230
-530.077	-102.211	-0.194	-0.047
-529.062	25.813	-0.162	-0.137
-528.048	478.579	-0.072	0.164
-527.033	-144.530	0.094	-0.009
-526.018	143.066	-0.254	-0.341
-525.004	387.623	0.095	-0.198
-523.989	37.352	0.073	0.065
-522.975	54.439	0.121	-0.118
-521.960	-111.070	-0.279	-0.058
-520.945	-200.000	0.005	-0.223
-519.931	-101.044	-0.120	0.030
-518.916	-169.374	-0.299	0.011
-517.902	118.044	-0.115	0.143
-516.887	152.921	0.099	-0.137
-515.872	329.887	-0.086	0.166
-514.858	99.308	-0.245	0.285
-513.843	45.928	-0.140	-0.131
-512.829	17.045	0.110	0.088
-511.814	800.000	-0.020	-0.058
-510.799	219.304	-0.058	-0.094
-509.785	66.785	-0.277	-0.284
-508.770	265.718	-0.012	0.021
-507.756	-21.182	-0.157	-0.097
-506.741	-157.731	0.080	-0.005
-505.726	281.405	-0.108	-0.196
-504.712	31.502	0.042	0.037
-503.697	-90.882	-0.233	0.068
-502.683	331.382	-0.093	0.181
-501.668	-125.893	0.079	0.012
-500.653	694.177	-0.078	0.206
-499.639	-200.000	0.020	0.295
-498.624	-47.613	0.072	0.035
-497.610	-23.422	0.089	0.054
-496.595	-89.791	-0.208	-0.061
-495.581	-200.000	0.058	-0.331
-494.566	126.636	0.138	-0.176
-493.551	-145.619	0.215	-0.019
-492.537	28.368	-0.188	-0.160
-491.522	-159.169	0.234	0.013
-490.508	-56.842	-0.131	0.058
-489.493	-54.056	-0.450	-0.207
-488.478	-141.489	-0.362	0.037
-487.464	720.558	0.074	0.199
-486.449	-61.408	0.233	0.099
-485.435	-129.552	-0.135	0.019
-484.420	-88.941	-0.166	0.050
-483.405	-180.308	-0.165	0.003
-482.391	242.601	0.125	-0.212
-481.376	-61.075	-0.177	0.075
-480.362	20.667	0.217	-0.177
-479.347	362.409	-0.050	0.101
-478.332	389.823	-0.102	-0.213
-477.318	800.000	-0.029	0.089
-476.303	-200.000	0.071	0.351
-475.289	-92.764	0.177	-0.050
-474.274	-200.000	0.027	-0.178
-473.259	274.419	0.084	-0.149
-472.245	800.000	0.072	-0.234
-471.230	-0.137	-0.172	0.124
-470.216	217.014	0.127	-0.204
-469.201	-200.000	-0.006	-0.523
-468.186	-200.000	0.063	-0.350
-467.172	105.779	0.038	0.045
-466.157	800.000	-0.075	-0.302
-465.143	86.122	0.172	-0.191
-464.128	-200.000	0.003	-0.128
-463.113	17.316	0.108	0.086
-462.099	-155.071	0.315	-0.021
-461.084	589.861	-0.123	0.305
-460.070	-73.156	0.132	0.049
-459.055	800.000	0.099	-0.421
-458.040	330.022	0.060	-0.116
-457.026	173.881	0.152	0.221
-456.011	407.158	0.050	0.106
-454.997	-91.684	-0.292	0.084
-453.982	-200.000	-0.032	-0.149
-452.968	26.521	0.045	-0.038
-451.953	-200.000	0.021	-0.215
-450.938	454.773	0.071	0.158
-449.924	-99.999	0.176	-0.044
-448.909	204.070	-0.110	0.172
-447.895	-200.000	-0.044	0.215
-446.880	278.375	-0.098	0.176
-445.865	-20.734	-0.153	-0.094
-444.851	291.910	-0.165	0.303
-443.836	-200.000	0.000	-0.237
-442.822	-200.000	-0.034	-0.376
-441.807	-68.963	0.433	-0.168
-440.792	100.178	0.041	-0.048
-439.778	84.246	-0.173	-0.190
-438.763	800.000	-0.023	0.092
-437.749	800.000	0.044	-0.129
-436.734	20.639	-0.127	-0.103
-435.719	-200.000	0.016	0.201
-434.705	-103.897	0.463	0.109
-433.690	132.846	0.208	0.271
-432.676	-111.877	-0.279	0.057
-431.661	-96.000	0.268	0.072
-430.646	-200.000	0.005	0.246
-429.632	-165.966	-0.270	-0.012
-428.617	-147.440	0.205	-0.017
-427.603	-200.000	-0.074	0.451
-426.588	76.411	0.176	0.188
-425.573	171.381	-0.156	0.225
-424.559	800.000	0.095	-0.400
-423.544	266.741	0.087	0.153
-422.530	38.890	0.049	-0.044
-421.515	-200.000	-0.011	-0.171
-420.500	-200.000	-0.017	-0.208
-419.486	-130.871	-0.101	-0.014
-418.471	92.455	0.122	0.139
-417.457	-58.335	0.229	0.100
-416.442	29.634	0.219	0.187
-415.428	-148.613	-0.343	-0.028
-414.413	-138.061	0.022	0.002
-413.398	-200.000	-0.004	-0.167
-412.384	-200.000	0.004	0.140
-411.369	-200.000	0.008	0.163
-410.355	-117.095	0.034	-0.006
-409.340	28.518	0.113	0.096
-408.325	-200.000	0.014	0.147
-407.311	479.133	0.038	-0.086
-406.296	395.961	0.109	0.230
-405.282	-165.000	0.239	-0.011
-404.267	442.942	0.046	0.100
-403.252	-200.000	0.101	0.000
-402.238	-56.466	0.483	-0.215
-401.223	-91.906	0.238	0.068
-400.209	105.072	0.266	-0.315
-399.194	-200.000	-0.005	0.260
-398.179	-117.702	0.319	-0.058
-397.165	-26.282	-0.192	0.114
-396.150	-174.248	-0.247	-0.007
-395.136	-200.000	-0.005	-0.283
-394.121	-191.470	-0.153	0.002
-393.106	-200.000	-0.011	0.182
-392.092	-119.380	0.283	-0.049
-391.077	-104.602	-0.094	-0.022
-390.063	528.535	-0.139	0.331
-389.048	-109.938	0.117	0.025
-388.033	105.999	-0.050	0.059
-387.019	-85.610	0.238	-0.074
-386.004	103.783	-0.119	0.141
-384.990	32.460	-0.288	0.250
-383.975	800.000	0.047	-0.159
-382.960	-55.902	0.165	0.074
-381.946	42.186	0.224	-0.204
-380.931	-109.079	0.147	0.031
-379.917	-200.000	0.001	-0.113
-378.902	420.295	-0.097	0.209
-377.888	-94.069	-0.371	0.102
-376.873	-20.923	0.448	-0.276
-375.858	-200.000	0.028	-0.188
-374.844	63.423	-0.175	0.176
-373.829	208.660	-0.062	0.097
-372.815	-44.309	0.347	0.174
-371.800	-200.000	-0.013	-0.060
-370.785	-200.000	0.049	-0.295
-369.771	108.460	-0.084	-0.101
-368.756	-129.893	0.202	0.028
-367.742	139.730	-0.153	0.202
-366.727	-70.217	-0.279	0.107
-365.712	-100.313	0.052	0.013
-364.698	-11.337	0.181	0.120
-363.683	-12.815	0.249	-0.163
-362.669	-41.926	-0.168	0.086
-361.654	171.580	-0.112	0.161
-360.639	-101.633	0.245	-0.060
-359.625	-200.000	0.003	0.026
-358.610	-26.888	0.106	0.062
-357.596	110.516	-0.137	0.165
-356.581	176.386	-0.045	-0.066
-355.566	-144.023	-0.173	-0.016
-354.552	578.678	-0.124	-0.305
-353.537	61.379	0.136	-0.135
-352.523	-111.534	-0.082	-0.017
-351.508	-29.327	-0.206	0.118
-350.493	1.018	0.106	0.076
-349.479	-109.623	-0.163	0.035
-348.464	-20.925	0.180	0.110
-347.450	800.000	0.133	0.397
-346.435	-142.626	-0.214	0.021
-345.420	98.863	-0.042	-0.049
-344.406	301.765	-0.174	0.323
-343.391	372.963	0.074	0.152
-342.377	-118.390	0.132	-0.023
-341.362	-12.073	-0.390	0.256
-340.348	130.962	-0.015	0.019
-339.333	-4.098	-0.067	-0.047
-338.318	161.630	0.090	-0.126
-337.304	-200.000	-0.042	-0.268
-336.289	282.824	-0.224	-0.402
-335.275	-87.240	-0.095	0.029
-334.260	800.000	-0.017	0.069
-333.245	-73.141	-0.304	0.112
-332.231	41.578	-0.171	0.156
-331.216	34.762	-0.225	-0.197
-330.202	800.000	0.053	0.173
-329.187	60.034	0.435	-0.430
-328.172	-112.278	-0.370	-0.074
-327.158	-42.679	0.195	-0.100
-326.143	-70.744	0.061	-0.023
-325.129	-0.853	-0.089	-0.063
-324.114	-104.992	-0.066	-0.015
-323.099	-190.917	0.149	-0.002
-322.085	70.452	0.153	-0.158
-321.070	-4.010	0.064	-0.045
-320.056	-200.000	-0.008	-0.109
-319.041	-200.000	-0.040	-0.202
-318.026	280.409	0.083	0.149
-317.012	-179.462	0.429	-0.009
-315.997	-72.694	-0.119	-0.044
-314.983	-88.589	-0.146	0.044
-313.968	-200.000	-0.014	-0.116
-312.953	-8.567	-0.091	-0.061
-311.939	800.000	-0.091	0.362
-310.924	36.897	0.273	0.242
-309.910	800.000	0.105	0.306
-308.895	470.921	0.124	-0.280
-307.880	-200.000	-0.009	0.123
-306.866	-120.354	-0.289	0.049
-305.851	-200.000	0.016	-0.221
-304.837	6.759	-0.202	0.150
-303.822	216.766	0.151	0.240
-302.807	-74.092	-0.151	0.055
-301.793	39.384	0.101	0.091
-300.778	800.000	0.042	-0.165
-299.764	97.497	0.123	0.142
-298.749	-47.735	-0.352	0.171
-297.735	-5.342	-0.223	0.153
-296.720	69.798	0.253	0.261
-295.705	-36.704	0.179	-0.096
-294.691	-200.000	-0.020	-0.367
-293.676	266.396	-0.063	0.110
-292.662	-150.453	-0.103	-0.008
-291.647	-117.671	-0.374	0.067
-290.632	31.633	-0.142	0.122
-289.618	582.360	-0.171	0.421
-288.603	66.135	0.128	-0.130
-287.589	-54.328	-0.166	-0.075
-286.574	-134.521	0.229	-0.028
-285.559	134.223	-0.164	0.212
-284.545	800.000	-0.046	-0.150
-283.530	21.552	0.145	-0.118
-282.516	-200.000	0.001	-0.092
-281.501	-70.262	0.433	-0.164
-280.486	-200.000	0.046	0.433
-279.472	-28.307	-0.091	-0.053
-278.457	-165.138	-0.115	0.005
-277.443	-97.471	0.036	-0.009
-276.428	207.225	-0.150	-0.234
-275.413	-59.795	0.198	0.085
-274.399	174.609	-0.133	0.192
-273.384	416.916	-0.034	0.072
-272.370	-107.677	0.088	-0.019
-271.355	-200.000	-0.047	0.453
-270.340	68.442	0.211	0.216
-269.326	-48.483	0.103	0.049
-268.311	580.597	-0.103	0.253
-267.297	-152.124	0.181	0.013
-266.282	-200.000	-0.037	0.244
-265.267	31.787	0.141	0.122
-264.253	323.022	0.178	-0.340
-263.238	-85.249	-0.257	0.080
-262.224	-143.851	0.353	-0.033
-261.209	115.882	-0.123	-0.150
-260.195	315.656	0.054	-0.102
-259.180	-151.933	-0.064	0.005
-258.165	-37.137	-0.245	-0.131
-257.151	-112.524	0.243	-0.048
-256.136	426.033	-0.168	0.363
-255.122	-78.180	-0.201	-0.069
-254.107	-200.000	-0.028	-0.242
-253.092	-157.392	-0.108	0.006
-252.078	-200.000	-0.008	-0.139
-251.063	-52.593	-0.175	0.081
-250.049	700.656	0.149	0.393
-249.034	182.551	-0.086	0.127
-248.019	-22.828	-0.217	-0.131
-247.005	-4.250	0.048	0.034
-245.990	-3.427	0.037	-0.026
-244.976	320.918	0.124	-0.235
-243.961	632.884	0.053	0.135
-242.946	-115.585	-0.197	0.037
-241.932	-135.936	0.144	0.017
-240.917	-107.436	0.134	-0.029
-239.903	308.109	0.077	0.143
-238.888	-97.517	-0.270	0.070
-237.873	10.431	0.108	0.082
-236.859	213.366	0.074	0.116
-235.844	-89.837	-0.204	-0.059
-234.830	246.888	0.087	0.146
-233.815	-100.488	-0.172	-0.043
-232.800	84.263	-0.206	-0.225
-231.786	-145.055	0.043	0.004
-230.771	-200.000	-0.032	-0.253
-229.757	-91.337	0.336	0.096
-228.742	800.000	0.022	0.088
-227.727	221.037	0.083	-0.133
-226.713	782.239	0.078	-0.214
-225.698	-72.726	0.163	0.060
-224.684	-127.117	0.128	-0.019
-223.669	-84.013	-0.117	-0.037
-222.655	88.165	-0.160	-0.177
-221.640	-28.476	0.309	-0.178
-220.625	-41.415	0.200	0.103
-219.611	28.080	0.407	0.343
-218.596	800.000	-0.082	0.314
-217.582	-146.915	0.117	-0.010
-216.567	419.273	0.084	0.180
-215.552	109.949	0.367	0.440
-214.538	-200.000	0.050	-0.260
-213.523	41.553	-0.138	-0.125
-212.509	37.760	0.240	-0.212
-211.494	-141.859	0.202	-0.020
-210.479	266.219	-0.065	0.113
-209.465	5.721	-0.185	0.136
-208.450	-200.000	0.013	-0.112
-207.436	213.159	-0.137	0.215
-206.421	30.676	-0.169	0.144
-205.406	-64.028	-0.236	-0.096
-204.392	800.000	-0.022	0.073
-203.377	528.888	-0.135	-0.317
-202.363	-41.953	0.082	0.042
-201.348	-144.295	0.205	0.019
-200.333	800.000	0.018	-0.056
-199.319	609.812	-0.033	0.081
-198.304	-91.374	0.272	0.078
-197.290	-60.776	-0.401	-0.169
-196.275	203.653	-0.224	-0.345
-195.260	800.000	0.031	-0.113
-194.246	-23.035	-0.144	0.087
-193.231	-141.519	0.116	0.012
-192.217	81.626	-0.098	-0.106
-191.202	800.000	-0.095	-0.279
-190.187	-200.000	0.008	0.141
-189.173	-31.209	0.297	-0.167
-188.158	-46.672	0.195	-0.095
-187.144	-200.000	-0.010	0.083
-186.129	81.924	-0.109	0.118
-185.114	0.925	-0.065	-0.046
-184.100	257.426	-0.174	0.298
-183.085	-200.000	-0.024	0.203
-182.071	-112.902	0.065	0.013
-181.056	-19.704	0.373	0.230
-180.042	800.000	-0.100	-0.300
-179.027	800.000	-0.082	0.241
-178.012	-200.000	-0.001	0.314
-176.998	500.068	0.128	0.294
-175.983	10.916	0.372	-0.283
-174.969	222.612	0.051	0.082
-173.954	-200.000	0.005	0.110
-172.939	57.061	-0.135	0.131
-171.925	-92.132	-0.030	-0.008
-170.910	-103.479	0.132	-0.031
-169.896	-200.000	-0.018	-0.136
-168.881	420.616	0.139	0.296
-167.866	103.771	-0.108	0.126
-166.852	95.236	0.064	-0.073
-165.837	-36.168	-0.301	-0.162
-164.823	49.333	0.149	0.139
-163.808	-84.116	0.293	-0.093
-162.793	48.359	0.100	0.093
-161.779	-53.311	0.159	0.072
-160.764	89.135	0.103	-0.114
-159.750	106.593	0.195	0.230
-158.735	309.835	0.046	-0.086
-157.720	-79.122	0.166	0.056
-156.706	350.685	-0.157	-0.308
-155.691	-200.000	-0.054	0.303
-154.677	18.511	-0.114	0.091
-153.662	56.935	0.237	-0.230
-152.647	-200.000	0.003	-0.056
-151.633	30.173	0.129	0.109
-150.618	58.717	0.083	-0.082
-149.604	162.149	0.205	-0.286
-148.589	-54.305	0.227	-0.102
-147.574	112.164	-0.114	-0.137
-146.560	-177.142	-0.374	0.009
-145.545	-130.964	0.303	0.040
-144.531	-82.655	-0.227	-0.073
-143.516	800.000	0.105	-0.396
-142.502	-46.122	0.171	0.084
-141.487	-200.000	-0.023	-0.195
-140.472	-134.846	-0.363	0.044
-139.458	-16.860	-0.073	-0.046
-138.443	175.199	-0.189	0.272
-137.429	39.842	-0.227	0.202
-136.414	800.000	-0.022	-0.069
-135.399	683.593	0.101	0.262
-134.385	-29.456	0.176	0.100
-133.370	-124.492	0.230	-0.036
-132.356	112.688	0.242	0.292
-131.341	411.728	-0.088	0.185
-130.326	-94.523	0.060	0.016
-129.312	558.586	0.167	0.400
-128.297	23.627	0.035	0.029
-127.283	800.000	0.047	-0.173
-126.268	-200.000	-0.032	0.153
-125.253	14.504	0.135	-0.105
-124.239	-149.451	0.340	-0.027
-123.224	-200.000	0.002	0.158
-122.210	244.995	-0.095	0.158
