DTS Sentinel unit serial number:	SN413079Multiplexer serial number:	ORYXHardware model number:	OX4-SRSoftware version number:	ORYX F/W v4.00 Oryx Data Collector v3.7.2.0data status	okinstallation	princeton_trtdifferential loss correction	single-endedforward channel	channel 3reverse channel	N/Adate	2019/09/14time	01:36:34forward acquisition time	60.00reverse acquisition time	0.00gamma	496.2192k internal	0.2340k external	0.2340temperature offset calibration	1.0054default loss term (dB/km)	0.3790temperature slope calibration	1.0000multiplexer offset coefficient	1.0000multiplexer slope coefficient	1.0000fibre end	0.00T internal ref (°C)	26.44T ext. ref 1 (°C)	3.21T ext. ref 2 (°C)	21.48length (m)	temperature (°C)	Stokes	anti-Stokes-747.200	-93.099	0.141	-0.039
-746.185	291.981	0.174	0.317
-745.171	-20.319	0.173	0.107
-744.156	-200.000	-0.048	0.271
-743.142	29.429	-0.052	-0.045
-742.127	-200.000	0.000	0.357
-741.112	-96.092	-0.274	-0.073
-740.098	-200.000	-0.064	0.511
-739.083	-41.926	-0.368	-0.189
-738.069	-5.690	-0.248	0.171
-737.054	-169.214	-0.232	-0.009
-736.039	310.553	0.040	-0.075
-735.025	-50.386	-0.274	-0.130
-734.010	23.590	0.279	-0.230
-732.996	-118.921	-0.413	-0.073
-731.981	112.314	0.092	-0.111
-730.966	-158.810	0.215	0.012
-729.952	-200.000	-0.022	0.160
-728.937	-13.798	-0.176	-0.114
-727.923	-19.456	0.177	-0.110
-726.908	-129.384	-0.324	0.045
-725.894	800.000	0.075	-0.311
-724.879	800.000	-0.077	-0.214
-723.864	-200.000	-0.012	-0.107
-722.850	398.982	0.065	-0.137
-721.835	394.874	-0.064	-0.133
-720.821	128.395	0.157	-0.200
-719.806	-200.000	0.046	0.281
-718.791	-64.735	-0.084	-0.034
-717.777	800.000	0.045	-0.189
-716.762	-152.665	0.314	0.022
-715.748	70.354	0.199	-0.206
-714.733	107.979	0.133	0.159
-713.718	-200.000	-0.019	-0.587
-712.704	-69.865	-0.289	-0.110
-711.689	278.163	0.082	0.147
-710.675	78.337	-0.237	0.254
-709.660	-90.060	0.166	0.048
-708.645	800.000	-0.067	0.256
-707.631	-59.311	0.428	-0.184
-706.616	76.526	0.078	0.083
-705.602	373.539	-0.138	-0.281
-704.587	81.848	0.041	0.044
-703.572	-200.000	0.013	-0.073
-702.558	-82.361	0.221	-0.072
-701.543	350.393	-0.078	0.154
-700.529	9.380	-0.245	-0.186
-699.514	716.679	0.039	0.103
-698.499	800.000	0.078	0.290
-697.485	151.386	0.220	-0.299
-696.470	-98.173	-0.200	0.051
-695.456	-75.661	0.289	0.103
-694.441	41.432	-0.190	0.172
-693.426	-78.575	0.244	0.083
-692.412	-132.290	-0.081	0.011
-691.397	33.737	-0.181	-0.157
-690.383	-200.000	-0.009	0.119
-689.368	800.000	-0.016	-0.048
-688.354	546.750	-0.154	-0.369
-687.339	172.327	-0.067	0.096
-686.324	-200.000	0.018	-0.262
-685.310	-118.443	-0.220	0.039
-684.295	47.594	0.268	-0.250
-683.281	-5.941	-0.067	0.046
-682.266	55.399	0.221	0.213
-681.251	-69.689	-0.371	-0.142
-680.237	-107.688	-0.306	-0.067
-679.222	-131.543	-0.172	0.023
-678.208	-5.768	-0.212	-0.145
-677.193	542.755	0.062	0.148
-676.178	-73.714	0.255	0.093
-675.164	272.798	0.062	0.109
-674.149	3.675	-0.221	0.161
-673.135	-103.772	-0.165	0.039
-672.120	105.698	-0.061	0.072
-671.105	4.139	0.163	0.119
-670.091	377.086	-0.105	0.214
-669.076	-188.149	0.360	0.005
-668.062	-200.000	0.015	0.338
-667.047	-28.771	-0.102	0.059
-666.032	270.827	-0.121	-0.214
-665.018	-84.027	-0.255	0.081
-664.003	15.006	-0.224	0.175
-662.989	-95.474	0.177	0.047
-661.974	-123.648	0.211	-0.034
-660.959	28.388	-0.222	-0.188
-659.945	-70.395	-0.260	-0.099
-658.930	13.087	-0.069	0.054
-657.916	47.842	0.064	-0.060
-656.901	3.086	-0.267	-0.194
-655.886	-86.121	0.117	-0.036
-654.872	-113.626	-0.073	-0.014
-653.857	-113.531	0.238	-0.047
-652.843	-5.905	0.384	0.262
-651.828	-2.867	-0.009	0.007
-650.814	167.121	-0.051	-0.072
-649.799	150.702	0.134	-0.181
-648.784	-200.000	-0.028	0.195
-647.770	215.602	0.061	-0.096
-646.755	321.820	0.166	-0.315
-645.741	-106.669	0.262	0.058
-644.726	-169.871	-0.070	0.003
-643.711	-200.000	-0.022	-0.408
-642.697	-18.055	-0.337	0.211
-641.682	2.501	-0.315	-0.227
-640.668	-200.000	0.035	0.159
-639.653	115.787	-0.103	-0.126
-638.638	203.620	-0.051	-0.079
-637.624	-200.000	-0.031	0.157
-636.609	800.000	-0.043	-0.149
-635.595	428.890	0.071	0.153
-634.580	48.478	0.130	0.122
-633.565	160.904	-0.143	0.199
-632.551	119.378	0.067	-0.082
-631.536	-101.356	-0.203	0.050
-630.522	800.000	0.066	0.225
-629.507	800.000	0.103	0.429
-628.492	328.836	-0.067	0.128
-627.478	-80.641	-0.250	0.083
-626.463	75.571	0.248	-0.261
-625.449	-84.355	-0.258	0.081
-624.434	534.096	-0.093	0.219
-623.419	153.546	-0.165	0.226
-622.405	800.000	0.015	-0.062
-621.390	128.116	-0.051	0.064
-620.376	-133.241	-0.092	0.012
-619.361	165.369	-0.090	0.127
-618.346	-200.000	0.010	-0.109
-617.332	-200.000	0.022	0.486
-616.317	-48.949	-0.094	0.045
-615.303	48.963	0.096	-0.090
-614.288	36.157	-0.220	-0.193
-613.273	-200.000	0.022	-0.104
-612.259	114.061	-0.113	-0.137
-611.244	577.323	0.061	0.148
-610.230	-140.818	0.254	0.026
-609.215	227.340	0.167	-0.270
-608.201	-185.167	-0.201	-0.003
-607.186	-200.000	0.040	0.209
-606.171	-90.276	-0.068	0.020
-605.157	23.087	0.276	0.226
-604.142	27.564	0.262	0.219
-603.128	-72.715	-0.223	0.082
-602.113	800.000	0.140	-0.401
-601.098	85.455	-0.059	-0.065
-600.084	-200.000	-0.009	0.154
-599.069	689.907	0.086	-0.224
-598.055	-16.999	-0.178	-0.112
-597.040	-200.000	-0.008	0.044
-596.025	-170.991	-0.463	-0.016
-595.011	-128.392	0.140	-0.020
-593.996	236.932	0.120	0.198
-592.982	-63.026	0.050	-0.021
-591.967	40.572	0.398	0.358
-590.952	-81.091	0.063	0.021
-589.938	411.124	0.133	-0.282
-588.923	358.533	-0.116	-0.230
-587.909	-22.202	-0.193	-0.117
-586.894	-92.260	-0.447	0.126
-585.879	800.000	-0.015	-0.061
-584.865	92.456	0.226	0.254
-583.850	120.482	-0.135	0.167
-582.836	17.260	-0.171	0.136
-581.821	-18.460	0.046	0.028
-580.806	442.873	-0.132	0.288
-579.792	-67.161	0.150	0.059
-578.777	-55.294	-0.316	0.141
-577.763	53.941	-0.272	-0.260
-576.748	-200.000	0.040	-0.257
-575.733	233.399	0.078	-0.127
-574.719	-97.306	-0.293	0.076
-573.704	-69.249	-0.045	0.017
-572.690	-98.082	-0.131	-0.034
-571.675	-56.157	0.407	-0.180
-570.661	-200.000	-0.030	0.204
-569.646	-200.000	0.014	0.101
-568.631	173.641	0.157	0.226
-567.617	-78.186	-0.269	0.092
-566.602	-80.250	-0.202	0.067
-565.588	341.551	-0.074	-0.145
-564.573	-53.374	-0.195	0.089
-563.558	-200.000	0.027	0.456
-562.544	-34.818	-0.130	-0.071
-561.529	-200.000	0.008	0.136
-560.515	800.000	-0.032	0.102
-559.500	453.832	0.112	-0.247
-558.485	-110.827	0.150	-0.031
-557.471	-33.875	-0.380	0.208
-556.456	66.766	0.069	-0.070
-555.442	-66.785	0.273	-0.108
-554.427	800.000	-0.061	0.244
-553.412	129.066	-0.080	0.102
-552.398	-200.000	0.055	0.361
-551.383	-61.862	-0.332	0.138
-550.369	-88.051	0.230	-0.069
-549.354	-200.000	0.022	-0.097
-548.339	-153.593	-0.116	-0.008
-547.325	73.913	0.187	-0.196
-546.310	-91.394	-0.128	-0.036
-545.296	-129.947	-0.379	0.052
-544.281	353.818	0.053	-0.105
-543.266	54.149	0.100	-0.096
-542.252	-30.863	0.120	0.067
-541.237	-112.784	-0.164	-0.032
-540.223	69.860	-0.080	-0.082
-539.208	-155.801	-0.054	0.003
-538.193	80.124	-0.085	-0.091
-537.179	-187.804	0.251	-0.003
-536.164	5.389	0.148	-0.109
-535.150	800.000	-0.094	-0.282
-534.135	800.000	0.062	0.170
-533.121	-47.572	-0.117	-0.057
-532.106	150.504	-0.104	-0.141
-531.091	-169.077	-0.437	0.016
-530.077	-200.000	0.021	0.291
-529.062	-58.371	0.149	0.064
-528.048	553.519	0.114	-0.272
-527.033	-57.356	0.116	-0.051
-526.018	153.238	0.093	0.126
-525.004	800.000	0.120	0.364
-523.989	-1.191	0.260	-0.182
-522.975	-93.860	-0.231	-0.063
-521.960	-89.790	0.168	-0.049
-520.945	25.193	0.155	0.128
-519.931	348.071	-0.124	0.243
-518.916	-3.869	-0.197	0.136
-517.902	8.039	0.297	-0.222
-516.887	147.173	0.088	0.118
-515.872	-200.000	-0.025	-0.173
-514.858	-200.000	0.184	-0.001
-513.843	-200.000	-0.022	-0.312
-512.829	-200.000	0.019	-0.165
-511.814	-200.000	0.089	-0.450
-510.799	-188.211	0.117	-0.001
-509.785	306.682	-0.189	-0.350
-508.770	-200.000	-0.019	-0.137
-507.756	97.922	-0.272	0.311
-506.741	-103.092	0.279	-0.066
-505.726	-161.014	0.210	-0.011
-504.712	57.151	-0.119	-0.115
-503.697	-200.000	-0.017	-0.219
-502.683	16.989	-0.079	0.062
-501.668	-200.000	0.037	0.248
-500.653	-200.000	0.030	-0.138
-499.639	-95.020	0.139	-0.037
-498.624	347.863	0.107	0.209
-497.610	158.271	0.265	-0.365
-496.595	-7.598	-0.307	-0.206
-495.581	13.223	0.214	0.164
-494.566	-119.353	-0.315	-0.054
-493.551	238.875	0.056	0.092
-492.537	74.225	-0.108	0.112
-491.522	-99.245	0.137	-0.034
-490.508	-60.889	0.415	-0.174
-489.493	-13.816	-0.089	-0.057
-488.478	-141.080	-0.555	-0.056
-487.464	-64.270	0.296	-0.120
-486.449	163.844	0.084	0.118
-485.435	99.765	-0.133	0.153
-484.420	81.220	-0.123	0.132
-483.405	122.593	0.273	-0.338
-482.391	154.735	0.010	0.013
-481.376	-28.006	-0.355	0.204
-480.362	14.148	-0.177	0.137
-479.347	105.772	-0.055	-0.065
-478.332	89.695	0.232	0.257
-477.318	-200.000	-0.046	0.320
-476.303	-200.000	0.005	-0.078
-475.289	427.324	0.126	0.269
-474.274	65.428	0.113	0.114
-473.259	18.395	-0.201	-0.159
-472.245	483.201	0.102	0.229
-471.230	2.856	-0.247	-0.178
-470.216	47.368	0.121	0.112
-469.201	-200.000	-0.020	0.167
-468.186	24.556	0.094	0.077
-467.172	136.367	0.174	0.225
-466.157	-38.998	-0.266	-0.139
-465.143	-69.950	0.185	-0.070
-464.128	27.492	0.166	-0.139
-463.113	86.174	0.066	-0.072
-462.099	574.186	-0.045	-0.109
-461.084	136.120	0.074	0.096
-460.070	-147.940	-0.079	-0.007
-459.055	-71.026	-0.177	0.066
-458.040	-200.000	0.032	-0.173
-457.026	-142.697	0.300	-0.029
-456.011	197.697	0.287	-0.434
-454.997	-14.214	0.211	0.135
-453.982	-200.000	0.006	-0.085
-452.968	-168.748	-0.308	-0.012
-451.953	-200.000	-0.049	-0.281
-450.938	52.249	0.021	-0.020
-449.924	-122.179	-0.238	-0.039
-448.909	-200.000	0.021	-0.261
-447.895	-132.009	0.118	-0.015
-446.880	-38.520	-0.102	-0.053
-445.865	122.433	-0.081	-0.101
-444.851	130.525	-0.033	-0.042
-443.836	-141.560	0.271	0.027
-442.822	9.542	-0.148	0.111
-441.807	-31.498	-0.219	-0.122
-440.792	800.000	-0.126	-0.449
-439.778	44.029	0.207	0.188
-438.763	-4.010	-0.154	0.106
-437.749	-16.936	-0.153	0.096
-436.734	190.665	-0.083	0.124
-435.719	-25.542	-0.159	-0.093
-434.705	472.485	0.168	-0.375
-433.690	-200.000	0.000	-0.015
-432.676	-30.994	-0.159	0.089
-431.661	-148.480	-0.132	0.011
-430.646	22.774	-0.078	0.063
-429.632	-56.164	0.614	-0.271
-428.617	-7.070	-0.205	0.138
-427.603	0.452	0.179	0.127
-426.588	359.217	-0.118	0.234
-425.573	-76.987	0.374	0.129
-424.559	134.057	0.080	0.103
-423.544	800.000	-0.078	-0.339
-422.530	-33.597	0.159	-0.087
-421.515	-2.879	0.296	0.205
-420.500	87.857	0.038	0.042
-419.486	351.106	-0.098	0.192
-418.471	37.686	-0.008	-0.007
-417.457	101.730	-0.020	-0.023
-416.442	375.150	-0.108	-0.218
-415.428	-48.138	-0.297	-0.142
-414.413	218.402	-0.040	0.064
-413.398	377.383	-0.092	-0.187
-412.384	14.509	0.345	0.267
-411.369	-61.053	0.141	0.059
-410.355	-200.000	0.007	-0.156
-409.340	-200.000	-0.042	-0.460
-408.325	-200.000	0.018	-0.172
-407.311	37.194	-0.171	-0.150
-406.296	-56.410	-0.115	-0.051
-405.282	203.914	-0.016	-0.025
-404.267	-200.000	-0.033	-0.253
-403.252	271.409	0.041	-0.071
-402.238	99.911	-0.058	0.066
-401.223	-53.207	-0.061	0.028
-400.209	800.000	0.041	0.139
-399.194	-92.340	0.296	0.083
-398.179	-37.287	0.385	-0.203
-397.165	-200.000	0.211	0.001
-396.150	-61.997	-0.161	0.066
-395.136	94.832	-0.121	-0.136
-394.121	-115.745	-0.182	-0.034
-393.106	31.500	0.247	0.210
-392.092	266.677	0.113	-0.195
-391.077	220.740	0.024	-0.038
-390.063	-200.000	0.038	-0.223
-389.048	-200.000	-0.208	0.000
-388.033	-65.119	0.233	-0.093
-387.019	43.497	0.284	-0.257
-386.004	-40.971	0.160	-0.082
-384.990	341.656	-0.137	0.264
-383.975	-70.205	0.111	-0.042
-382.960	-43.279	-0.368	0.184
-381.946	215.889	0.090	0.142
-380.931	4.219	0.157	-0.114
-379.917	-141.087	-0.182	0.018
-378.902	-200.000	-0.023	0.236
-377.888	-93.605	-0.154	-0.042
-376.873	389.460	0.077	0.159
-375.858	701.520	0.136	-0.354
-374.844	-85.958	0.152	-0.046
-373.829	-200.000	0.000	-0.074
-372.815	800.000	0.027	-0.097
-371.800	71.111	0.129	0.132
-370.785	-200.000	-0.016	-0.180
-369.771	21.455	-0.174	0.140
-368.756	-138.074	0.298	0.033
-367.742	-48.929	-0.154	0.073
-366.727	800.000	-0.089	0.372
-365.712	-200.000	0.023	0.367
-364.698	-88.348	-0.247	-0.073
-363.683	356.013	0.201	-0.396
-362.669	667.173	0.146	0.372
-361.654	-200.000	-0.052	0.320
-360.639	800.000	-0.046	0.184
-359.625	800.000	0.031	-0.087
-358.610	800.000	0.031	0.119
-357.596	-164.823	0.087	-0.004
-356.581	-15.368	-0.163	-0.103
-355.566	-68.494	-0.254	-0.097
-354.552	5.218	0.277	-0.201
-353.537	800.000	-0.045	0.165
-352.523	80.485	0.049	-0.052
-351.508	235.173	0.099	-0.161
-350.493	65.114	0.193	-0.193
-349.479	-131.218	-0.306	-0.040
-348.464	781.098	-0.075	0.202
-347.450	35.230	0.283	0.245
-346.435	98.515	0.143	-0.163
-345.420	28.599	-0.023	0.019
-344.406	-22.004	-0.178	0.107
-343.391	485.230	-0.113	0.254
-342.377	-125.811	-0.195	0.029
-341.362	-95.836	0.324	-0.085
-340.348	6.224	-0.045	-0.033
-339.333	88.491	-0.067	-0.074
-338.318	473.601	-0.069	-0.154
-337.304	-44.737	-0.128	0.063
-336.289	385.276	0.034	0.069
-335.275	-109.191	-0.424	-0.089
-334.260	-74.234	-0.065	0.023
-333.245	-115.599	0.286	-0.053
-332.231	-5.918	-0.129	0.087
-331.216	175.772	-0.073	0.104
-330.202	-156.324	0.362	-0.022
-329.187	-55.942	0.244	0.107
-328.172	28.581	-0.172	0.144
-327.158	-14.834	-0.140	-0.089
-326.143	-200.000	-0.034	-0.283
-325.129	-152.479	0.426	0.030
-324.114	-37.254	0.109	-0.057
-323.099	-134.073	-0.305	-0.037
-322.085	-200.000	-0.041	0.453
-321.070	374.752	0.053	-0.106
-320.056	63.664	-0.304	0.301
-319.041	-183.587	0.087	-0.001
-318.026	69.690	0.129	-0.131
-317.012	-22.894	-0.067	-0.040
-315.997	-85.546	-0.350	-0.107
-314.983	462.868	-0.150	0.330
-313.968	-111.293	-0.495	-0.100
-312.953	-164.442	-0.207	-0.009
-311.939	-80.109	0.221	0.073
-310.924	-200.000	0.016	0.130
-309.910	-200.000	0.052	0.421
-308.895	-146.661	0.158	0.014
-307.880	-200.000	-0.045	0.228
-306.866	800.000	0.054	-0.191
-305.851	-200.000	-0.027	0.177
-304.837	126.244	0.078	0.098
-303.822	-52.226	-0.205	0.094
-302.807	342.788	-0.149	0.288
-301.793	-200.000	0.021	0.237
-300.778	-200.000	-0.018	-0.326
-299.764	-10.090	0.247	0.162
-298.749	-166.731	-0.470	0.019
-297.735	-127.892	-0.116	-0.016
-296.720	164.947	-0.178	-0.248
-295.705	409.473	0.096	-0.200
-294.691	224.206	-0.120	0.190
-293.676	372.762	-0.071	-0.142
-292.662	800.000	0.105	-0.312
-291.647	-28.083	0.300	0.171
-290.632	-85.249	0.104	0.032
-289.618	-7.204	-0.196	0.131
-288.603	-121.484	0.103	-0.017
-287.589	-172.940	0.156	-0.005
-286.574	283.505	-0.067	0.119
-285.559	390.759	0.129	0.264
-284.545	68.510	-0.286	-0.289
-283.530	-168.192	0.093	-0.004
-282.516	-148.015	0.283	0.023
-281.501	243.559	-0.036	0.059
-280.486	-200.000	-0.032	0.139
-279.472	13.969	-0.230	0.176
-278.457	25.434	0.011	-0.009
-277.443	-47.172	0.019	0.009
-276.428	6.825	0.079	0.058
-275.413	534.463	0.091	0.213
-274.399	550.607	-0.082	-0.194
-273.384	-62.634	0.226	0.092
-272.370	91.220	0.109	0.121
-271.355	-56.471	0.055	-0.024
-270.340	207.839	-0.014	0.021
-269.326	-144.897	-0.140	0.013
-268.311	-34.719	-0.183	0.098
-267.297	800.000	-0.063	-0.191
-266.282	-63.698	-0.131	0.053
-265.267	-37.782	0.135	0.071
-264.253	-200.000	0.040	-0.253
-263.238	-73.190	-0.140	-0.051
-262.224	82.088	0.145	0.155
-261.209	-200.000	0.015	-0.166
-260.195	53.682	-0.340	-0.321
-259.180	-175.604	0.206	-0.005
-258.165	323.186	-0.078	-0.146
-257.151	216.891	0.101	-0.159
-256.136	-166.191	0.203	-0.008
-255.122	-61.198	0.242	0.101
-254.107	-191.957	-0.092	-0.001
-253.092	-200.000	0.035	-0.288
-252.078	136.066	0.151	0.193
-251.063	391.658	-0.076	-0.155
-250.049	-126.159	-0.518	0.076
-249.034	-84.721	0.459	-0.142
-248.019	800.000	-0.056	0.199
-247.005	-81.561	-0.254	-0.082
-245.990	-116.117	-0.172	0.031
-244.976	800.000	-0.009	0.034
-243.961	-62.106	-0.153	-0.063
-242.946	557.471	0.080	0.190
-241.932	800.000	0.059	0.226
-240.917	19.451	-0.269	0.212
-239.903	-12.687	-0.173	0.111
-238.888	-57.626	0.141	0.061
-237.873	17.438	-0.149	0.116
-236.859	800.000	-0.050	-0.152
-235.844	-200.000	0.020	0.194
-234.830	800.000	0.078	-0.273
-233.815	-160.063	0.491	0.026
-232.800	-3.656	-0.066	0.045
-231.786	-200.000	0.015	-0.309
-230.771	-123.171	0.199	0.031
-229.757	175.980	0.255	-0.364
-228.742	-156.011	0.126	0.008
-227.727	800.000	0.037	0.141
-226.713	-200.000	-0.023	-0.180
-225.698	800.000	-0.095	-0.409
-224.684	-200.000	0.025	-0.158
-223.669	-160.675	-0.230	0.012
-222.655	-159.353	0.073	0.004
-221.640	74.548	-0.206	0.213
-220.625	103.897	-0.307	0.354
-219.611	-160.661	0.258	0.014
-218.596	800.000	-0.034	-0.120
-217.582	152.922	0.024	0.033
-216.567	216.049	0.117	0.183
-215.552	-31.177	-0.319	-0.177
-214.538	-24.579	-0.176	-0.103
-213.523	-200.000	0.003	-0.098
-212.509	-59.408	-0.063	-0.027
-211.494	269.822	0.086	-0.148
-210.479	39.515	0.157	0.138
-209.465	131.002	-0.157	0.198
-208.450	-60.213	-0.125	0.052
-207.436	-200.000	-0.041	-0.245
-206.421	-200.000	-0.025	0.148
-205.406	222.859	0.084	-0.132
-204.392	800.000	0.029	0.111
-203.377	-143.568	0.306	-0.029
-202.363	61.967	-0.308	-0.302
-201.348	-104.184	0.173	-0.039
-200.333	-26.595	-0.197	0.113
-199.319	-91.447	0.151	0.042
-198.304	9.588	0.103	-0.077
-197.290	-3.128	0.170	0.116
-196.275	-195.646	0.125	-0.001
-195.260	-115.342	0.187	0.035
-194.246	800.000	0.019	0.076
-193.231	800.000	-0.034	-0.098
-192.217	-200.000	0.033	-0.369
-191.202	-20.617	0.127	-0.077
-190.187	131.947	0.066	-0.083
-189.173	-200.000	0.038	-0.271
-188.158	800.000	-0.270	-0.810
-187.144	-140.720	-0.091	0.009
-186.129	-200.000	-0.006	-0.143
-185.114	150.492	0.124	-0.165
-184.100	-200.000	0.047	-0.279
-183.085	40.600	0.198	0.175
-182.071	8.796	-0.213	-0.158
-181.056	-177.278	0.251	0.006
-180.042	153.458	0.073	-0.098
-179.027	800.000	-0.112	0.345
-178.012	71.784	-0.198	0.201
-176.998	-200.000	0.008	-0.229
-175.983	-53.394	-0.183	-0.082
-174.969	268.082	-0.025	0.043
-173.954	138.447	-0.154	0.198
-172.939	-178.639	-0.093	0.002
-171.925	28.274	-0.233	-0.193
-170.910	543.021	-0.053	-0.125
-169.896	323.293	0.186	0.348
-168.881	215.267	0.154	0.239
-167.866	-164.050	0.101	-0.005
-166.852	58.160	0.153	0.147
-165.837	-11.668	0.191	0.123
-164.823	-85.550	-0.332	0.101
-163.808	511.454	-0.048	0.109
-162.793	58.732	0.410	0.395
-161.779	-72.097	0.242	-0.088
-160.764	-54.371	0.096	0.043
-159.750	-154.267	0.121	0.008
-158.735	700.501	0.116	-0.298
-157.720	-200.000	-0.004	0.091
-156.706	-55.328	0.089	-0.039
-155.691	107.551	0.234	0.273
-154.677	-149.987	0.355	-0.027
-153.662	-200.000	0.008	0.129
-152.647	240.039	-0.129	-0.211
-151.633	-5.434	0.109	-0.073
-150.618	800.000	-0.047	0.144
-149.604	-81.232	0.010	0.003
-148.589	800.000	0.039	-0.116
-147.574	-69.130	-0.037	-0.014
-146.560	-200.000	0.009	-0.203
-145.545	-0.955	0.063	-0.044
-144.531	94.906	0.048	0.054
-143.516	16.458	0.196	0.151
-142.502	8.382	0.168	-0.124
-141.487	-200.000	-0.018	-0.106
-140.472	800.000	0.003	-0.010
-139.458	-19.467	0.101	-0.062
-138.443	90.503	-0.185	0.203
-137.429	-92.848	-0.373	-0.102
-136.414	-200.000	-0.047	0.305
-135.399	16.467	0.285	-0.221
-134.385	-122.251	0.424	0.068
-133.370	86.069	-0.252	-0.272
-132.356	244.055	-0.175	-0.288
-131.341	-61.924	-0.127	-0.052
-130.326	-200.000	-0.033	-0.352
-129.312	-56.541	0.198	-0.086
-128.297	277.230	-0.092	0.160
-127.283	304.109	-0.073	-0.133
-126.268	98.582	-0.170	-0.192
-125.253	195.656	-0.104	-0.155
-124.239	158.416	0.095	-0.129
-123.224	231.952	-0.270	0.434
-122.210	-79.958	0.081	0.027
-121.195	800.000	-0.016	-0.047
-120.180	-100.926	0.439	-0.106
