DTS Sentinel unit serial number:	SN413079Multiplexer serial number:	ORYXHardware model number:	OX4-SRSoftware version number:	ORYX F/W v4.00 Oryx Data Collector v3.7.2.0data status	okinstallation	princeton_trtdifferential loss correction	single-endedforward channel	channel 3reverse channel	N/Adate	2019/09/13time	10:04:35forward acquisition time	60.00reverse acquisition time	0.00gamma	496.2192k internal	0.2324k external	0.2324temperature offset calibration	1.0138default loss term (dB/km)	0.3790temperature slope calibration	1.0000multiplexer offset coefficient	1.0000multiplexer slope coefficient	1.0000fibre end	0.00T internal ref (°C)	30.37T ext. ref 1 (°C)	4.50T ext. ref 2 (°C)	27.70length (m)	temperature (°C)	Stokes	anti-Stokes-747.200	635.422	0.051	-0.130
-746.185	-156.945	-0.083	-0.005
-745.171	567.072	-0.017	0.042
-744.156	-200.000	0.065	0.331
-743.142	55.489	0.205	-0.201
-742.127	89.420	-0.266	0.299
-741.112	472.957	0.101	0.229
-740.098	-27.846	0.089	-0.052
-739.083	-111.580	-0.115	-0.024
-738.069	-200.000	0.016	0.125
-737.054	-200.000	-0.007	-0.273
-736.039	-115.376	-0.168	0.032
-735.025	108.214	0.235	-0.283
-734.010	183.606	-0.182	-0.271
-732.996	171.646	-0.138	0.199
-731.981	-35.072	0.057	-0.031
-730.966	15.009	-0.147	0.116
-729.952	-70.905	-0.153	0.058
-728.937	82.968	0.200	-0.220
-727.923	-56.550	0.299	-0.134
-726.908	-78.232	-0.263	0.091
-725.894	-49.935	-0.383	0.183
-724.879	46.664	-0.181	0.170
-723.864	-43.747	-0.236	-0.120
-722.850	33.224	-0.127	0.111
-721.835	-200.000	-0.003	-0.061
-720.821	-46.607	0.266	-0.131
-719.806	-200.000	-0.016	-0.308
-718.791	-143.965	0.206	0.020
-717.777	22.016	-0.076	-0.062
-716.762	30.590	0.102	-0.088
-715.748	105.488	0.131	-0.156
-714.733	-27.141	-0.220	-0.129
-713.718	800.000	-0.119	-0.515
-712.704	87.384	0.096	0.107
-711.689	-200.000	0.036	0.178
-710.675	800.000	-0.067	0.214
-709.660	800.000	-0.009	0.034
-708.645	37.046	0.339	0.302
-707.631	29.055	-0.175	0.150
-706.616	-22.538	-0.132	-0.081
-705.602	57.341	0.178	-0.175
-704.587	7.244	0.220	0.165
-703.572	-37.820	-0.047	-0.025
-702.558	-4.975	0.179	0.124
-701.543	28.978	0.337	0.288
-700.529	133.215	0.059	0.076
-699.514	-104.930	0.008	0.002
-698.499	-154.239	0.470	0.032
-697.485	-155.154	-0.062	0.004
-696.470	-28.825	-0.175	-0.101
-695.456	-173.526	0.428	-0.013
-694.441	-200.000	-0.005	-0.083
-693.426	-26.676	-0.250	0.147
-692.412	-200.000	-0.029	-0.130
-691.397	165.287	-0.131	0.186
-690.383	56.685	-0.155	-0.152
-689.368	-200.000	-0.015	-0.491
-688.354	464.827	0.086	0.193
-687.339	-1.898	-0.060	0.042
-686.324	130.731	0.227	-0.293
-685.310	-200.000	-0.044	-0.243
-684.295	-200.000	0.003	-0.138
-683.281	-68.921	0.012	-0.005
-682.266	-119.295	-0.066	-0.011
-681.251	31.891	-0.057	-0.049
-680.237	-85.198	-0.209	0.066
-679.222	-120.390	-0.191	-0.033
-678.208	25.734	0.114	-0.095
-677.193	5.559	-0.103	-0.076
-676.178	-9.203	-0.134	0.091
-675.164	448.383	-0.058	0.130
-674.149	22.580	-0.168	0.138
-673.135	-16.889	-0.269	-0.171
-672.120	-200.000	-0.035	-0.336
-671.105	-97.154	-0.085	-0.022
-670.091	-200.000	0.003	0.088
-669.076	-145.620	0.184	-0.017
-668.062	-4.724	-0.128	-0.089
-667.047	-3.302	-0.269	0.189
-666.032	285.452	0.116	0.211
-665.018	800.000	0.043	0.129
-664.003	-200.000	0.029	0.394
-662.989	394.994	-0.140	0.294
-661.974	-200.000	0.012	-0.125
-660.959	115.579	-0.373	-0.459
-659.945	169.213	-0.181	-0.261
-658.930	87.279	-0.111	0.123
-657.916	240.808	0.136	-0.228
-656.901	-200.000	-0.011	-0.279
-655.886	-82.604	-0.307	-0.100
-654.872	118.556	-0.200	-0.248
-653.857	80.790	-0.207	0.225
-652.843	110.804	-0.241	0.292
-651.828	800.000	0.075	-0.255
-650.814	-200.000	-0.027	-0.657
-649.799	-200.000	-0.051	-0.231
-648.784	35.074	0.127	-0.112
-647.770	23.438	-0.088	0.073
-646.755	122.878	0.098	0.124
-645.741	-76.387	0.182	-0.064
-644.726	-142.196	-0.260	-0.026
-643.711	-69.615	0.062	0.024
-642.697	13.589	0.296	-0.231
-641.682	570.182	-0.067	0.163
-640.668	800.000	0.067	-0.250
-639.653	-112.390	0.064	0.013
-638.638	-106.885	0.329	0.073
-637.624	-53.862	-0.178	-0.081
-636.609	-107.340	-0.017	-0.004
-635.595	558.523	0.127	-0.307
-634.580	436.591	0.086	0.187
-633.565	-39.811	-0.092	-0.048
-632.551	192.350	-0.055	-0.083
-631.536	106.044	-0.050	-0.059
-630.522	76.261	-0.201	-0.214
-629.507	49.554	-0.175	0.165
-628.492	-135.029	0.090	0.011
-627.478	-200.000	-0.004	0.028
-626.463	-200.000	-0.028	-0.238
-625.449	-89.249	-0.172	0.051
-624.434	-149.458	0.308	-0.025
-623.419	-200.000	0.032	-0.157
-622.405	-35.472	-0.093	0.051
-621.390	587.766	-0.069	0.171
-620.376	-70.397	-0.043	0.016
-619.361	365.757	-0.107	0.216
-618.346	239.423	-0.090	-0.151
-617.332	-55.192	-0.152	0.069
-616.317	-169.369	0.360	-0.013
-615.303	-79.916	0.099	0.033
-614.288	-200.000	-0.047	0.300
-613.273	-139.733	0.130	0.014
-612.259	-200.000	0.283	-0.001
-611.244	5.815	0.307	-0.228
-610.230	-168.789	-0.327	-0.012
-609.215	-99.210	-0.420	-0.107
-608.201	354.330	0.062	0.124
-607.186	139.450	-0.224	-0.297
-606.171	-50.205	0.171	-0.081
-605.157	-200.000	0.044	0.366
-604.142	-66.140	-0.281	-0.112
-603.128	83.191	-0.052	-0.057
-602.113	466.127	-0.046	-0.103
-601.098	272.722	0.051	-0.090
-600.084	-42.054	0.099	-0.051
-599.069	800.000	0.048	0.197
-598.055	12.348	0.075	-0.058
-597.040	59.802	-0.087	-0.086
-596.025	-79.694	-0.165	-0.056
-595.011	133.279	0.037	-0.048
-593.996	276.018	0.159	0.283
-592.982	-67.767	-0.312	0.122
-591.967	-0.384	-0.318	-0.227
-590.952	-24.987	0.397	-0.236
-589.938	89.618	0.095	-0.107
-588.923	359.781	-0.115	0.230
-587.909	-200.000	-0.010	0.239
-586.894	-27.615	-0.212	0.123
-585.879	800.000	-0.037	0.143
-584.865	559.276	0.124	0.300
-583.850	-160.331	-0.509	-0.028
-582.836	-93.682	0.211	-0.059
-581.821	27.538	0.307	-0.259
-580.806	-43.711	-0.245	-0.124
-579.792	23.426	-0.123	0.102
-578.777	-200.000	-0.004	0.207
-577.763	213.581	-0.066	0.104
-576.748	-200.000	-0.002	0.224
-575.733	800.000	-0.030	-0.115
-574.719	-82.236	0.233	0.076
-573.704	45.354	-0.376	0.348
-572.690	365.431	0.032	0.064
-571.675	-72.723	0.318	0.118
-570.661	227.988	0.113	-0.185
-569.646	800.000	-0.038	-0.142
-568.631	281.829	-0.128	-0.230
-567.617	-86.481	0.186	-0.057
-566.602	81.279	0.161	-0.175
-565.588	-43.215	-0.127	-0.064
-564.573	35.361	-0.122	-0.107
-563.558	-49.274	-0.120	0.057
-562.544	649.164	-0.110	0.281
-561.529	697.894	-0.053	0.138
-560.515	-152.200	0.117	0.009
-559.500	-200.000	0.015	0.111
-558.485	299.487	-0.058	0.107
-557.471	-129.972	0.330	0.045
-556.456	304.200	0.092	-0.172
-555.442	-87.413	0.071	0.021
-554.427	-80.762	-0.428	0.142
-553.412	-128.014	-0.224	0.032
-552.398	669.259	0.059	-0.152
-551.383	-111.721	-0.254	-0.052
-550.369	800.000	0.085	-0.301
-549.354	-85.161	-0.115	-0.036
-548.339	-28.523	0.068	0.039
-547.325	-196.777	-0.301	0.002
-546.310	-200.000	0.043	-0.260
-545.296	23.744	0.123	-0.102
-544.281	800.000	-0.028	0.098
-543.266	54.683	0.232	-0.224
-542.252	120.695	-0.055	0.068
-541.237	-104.906	-0.150	0.034
-540.223	137.765	-0.149	0.195
-539.208	38.238	-0.020	0.018
-538.193	800.000	0.051	0.189
-537.179	800.000	0.031	-0.132
-536.164	-200.000	-0.028	-0.298
-535.150	23.333	0.231	0.190
-534.135	-200.000	0.024	-0.237
-533.121	800.000	-0.080	-0.262
-532.106	-134.959	0.106	-0.013
-531.091	800.000	-0.041	-0.157
-530.077	-71.290	0.347	-0.130
-529.062	40.659	-0.287	0.259
-528.048	-57.821	0.339	0.148
-527.033	-145.986	-0.214	-0.019
-526.018	41.164	-0.098	0.089
-525.004	-114.152	-0.124	0.024
-523.989	-98.258	-0.161	0.041
-522.975	-185.673	0.201	0.003
-521.960	-200.000	-0.006	0.122
-520.945	-200.000	0.013	0.188
-519.931	307.852	0.101	0.188
-518.916	-200.000	0.009	0.291
-517.902	-200.000	-0.219	0.000
-516.887	691.399	-0.054	0.142
-515.872	-131.053	-0.271	-0.036
-514.858	69.061	0.224	0.230
-513.843	181.736	0.022	0.033
-512.829	201.158	-0.179	-0.276
-511.814	-68.408	-0.204	-0.079
-510.799	49.253	0.028	0.026
-509.785	-63.183	0.322	-0.133
-508.770	119.457	-0.226	-0.280
-507.756	-124.498	-0.181	-0.028
-506.741	-200.000	0.027	0.258
-505.726	475.236	-0.064	0.144
-504.712	74.198	0.150	-0.158
-503.697	-61.786	-0.245	0.103
-502.683	-80.213	-0.196	-0.065
-501.668	-57.290	0.302	-0.133
-500.653	-49.983	0.166	0.079
-499.639	419.861	0.080	0.172
-498.624	-64.177	-0.041	0.017
-497.610	800.000	0.056	-0.158
-496.595	-66.648	-0.139	-0.055
-495.581	-200.000	-0.003	0.173
-494.566	800.000	0.129	-0.377
-493.551	-140.555	-0.242	0.025
-492.537	-66.984	-0.052	0.021
-491.522	-118.696	0.257	0.045
-490.508	800.000	-0.074	-0.236
-489.493	133.546	-0.127	-0.164
-488.478	-200.000	0.020	0.107
-487.464	800.000	-0.059	0.197
-486.449	-21.707	-0.413	-0.251
-485.435	-154.594	-0.072	-0.005
-484.420	-20.444	-0.143	-0.088
-483.405	584.104	0.056	0.137
-482.391	119.287	0.098	0.121
-481.376	-36.266	0.190	0.103
-480.362	669.887	-0.100	0.258
-479.347	114.278	-0.214	0.261
-478.332	-114.398	0.037	0.007
-477.318	-25.176	0.100	0.059
-476.303	25.922	0.128	-0.107
-475.289	-136.170	-0.211	0.025
-474.274	-8.376	-0.218	0.147
-473.259	-54.367	-0.267	-0.121
-472.245	-142.879	0.138	-0.013
-471.230	-74.427	0.197	-0.071
-470.216	133.728	0.227	-0.293
-469.201	-200.000	-0.014	-0.183
-468.186	-34.051	0.364	-0.200
-467.172	188.967	-0.073	-0.109
-466.157	800.000	-0.099	-0.404
-465.143	418.213	-0.056	-0.119
-464.128	-200.000	0.044	-0.195
-463.113	-9.682	0.170	0.113
-462.099	-71.662	0.112	0.042
-461.084	794.220	-0.058	-0.159
-460.070	-35.670	-0.226	-0.122
-459.055	-83.073	-0.143	0.046
-458.040	262.637	-0.179	-0.310
-457.026	790.909	0.059	-0.162
-456.011	-18.720	0.153	0.095
-454.997	59.665	0.006	0.006
-453.982	800.000	-0.126	0.399
-452.968	83.131	0.033	-0.036
-451.953	800.000	-0.062	-0.197
-450.938	-72.460	0.489	0.181
-449.924	770.483	-0.049	-0.132
-448.909	-102.303	-0.148	0.036
-447.895	-200.000	-0.027	0.209
-446.880	-189.439	0.045	0.001
-445.865	146.857	-0.219	0.294
-444.851	800.000	-0.022	0.085
-443.836	42.791	-0.034	0.031
-442.822	-200.000	-0.015	-0.218
-441.807	-16.095	0.116	0.074
-440.792	-192.477	-0.183	0.002
-439.778	-170.590	0.161	-0.006
-438.763	-6.805	-0.215	-0.146
-437.749	-92.416	-0.098	-0.028
-436.734	288.135	-0.106	0.192
-435.719	285.916	-0.076	0.137
-434.705	26.434	-0.141	-0.117
-433.690	-36.939	0.182	0.097
-432.676	464.286	-0.026	-0.057
-431.661	-17.689	-0.230	-0.144
-430.646	-120.342	0.231	-0.039
-429.632	-114.497	0.235	-0.045
-428.617	-200.000	0.046	0.229
-427.603	-200.000	0.005	0.402
-426.588	542.845	0.013	-0.031
-425.573	483.693	0.082	-0.185
-424.559	212.913	0.220	-0.346
-423.544	-200.000	-0.013	-0.252
-422.530	-200.000	0.012	-0.153
-421.515	254.971	-0.145	0.247
-420.500	103.639	-0.073	-0.085
-419.486	30.694	0.028	0.023
-418.471	-200.000	0.011	0.136
-417.457	60.700	-0.130	-0.129
-416.442	185.710	-0.092	0.136
-415.428	-7.117	-0.120	-0.081
-414.413	-45.835	-0.292	-0.144
-413.398	122.215	-0.151	0.188
-412.384	800.000	0.050	0.140
-411.369	-200.000	0.021	-0.176
-410.355	-200.000	-0.067	-0.474
-409.340	-51.812	0.143	-0.066
-408.325	-51.404	-0.099	0.046
-407.311	800.000	0.124	0.492
-406.296	239.846	0.287	0.476
-405.282	-33.809	-0.078	-0.043
-404.267	-75.305	-0.281	-0.100
-403.252	162.836	-0.039	0.054
-402.238	151.912	0.110	0.149
-401.223	-200.000	0.014	-0.322
-400.209	-2.113	-0.307	-0.215
-399.194	46.365	-0.091	0.084
-398.179	-103.679	-0.134	-0.031
-397.165	-22.960	0.052	-0.031
-396.150	363.411	-0.086	0.172
-395.136	800.000	0.029	0.111
-394.121	423.019	-0.120	-0.257
-393.106	800.000	0.043	-0.122
-392.092	173.261	0.099	-0.142
-391.077	-43.311	0.105	0.053
-390.063	-46.062	-0.339	-0.166
-389.048	800.000	0.067	0.287
-388.033	210.077	-0.149	-0.233
-387.019	659.696	-0.173	-0.443
-386.004	800.000	-0.073	-0.274
-384.990	50.542	0.278	0.261
-383.975	-48.605	0.176	-0.084
-382.960	-44.528	0.082	-0.041
-381.946	-122.122	-0.233	-0.038
-380.931	800.000	-0.033	0.099
-379.917	-168.552	-0.076	-0.003
-378.902	-0.353	0.322	-0.228
-377.888	733.982	0.042	-0.113
-376.873	-109.999	0.126	-0.026
-375.858	193.682	0.106	0.159
-374.844	-88.937	-0.031	0.009
-373.829	50.581	0.229	-0.216
-372.815	138.750	0.080	0.104
-371.800	-171.331	-0.158	0.005
-370.785	-200.000	-0.022	-0.142
-369.771	-82.671	-0.218	0.070
-368.756	-34.482	0.178	0.097
-367.742	-152.675	-0.175	0.012
-366.727	-192.437	-0.232	-0.002
-365.712	171.521	-0.129	-0.184
-364.698	-22.945	0.152	-0.091
-363.683	-200.000	-0.004	0.267
-362.669	81.029	0.177	-0.190
-361.654	800.000	0.070	-0.296
-360.639	-66.525	0.136	0.054
-359.625	298.366	0.016	0.030
-358.610	800.000	-0.033	-0.107
-357.596	-200.000	-0.042	0.238
-356.581	180.988	-0.148	0.216
-355.566	42.507	0.164	0.148
-354.552	-200.000	-0.037	-0.308
-353.537	45.631	0.350	-0.322
-352.523	800.000	0.074	0.253
-351.508	-100.260	0.026	0.006
-350.493	125.833	0.078	0.097
-349.479	85.268	0.214	0.234
-348.464	-100.995	0.231	0.056
-347.450	-120.497	-0.190	-0.032
-346.435	-200.000	0.008	0.228
-345.420	-2.975	0.292	-0.203
-344.406	22.718	0.226	-0.184
-343.391	-200.000	-0.046	0.260
-342.377	-200.000	0.016	0.197
-341.362	14.116	0.091	0.070
-340.348	102.549	-0.190	0.221
-339.333	-64.443	-0.111	0.045
-338.318	-200.000	0.005	-0.027
-337.304	-81.505	-0.071	-0.023
-336.289	79.244	-0.172	0.183
-335.275	115.419	0.043	-0.052
-334.260	-68.346	-0.282	0.109
-333.245	-64.928	-0.218	0.087
-332.231	550.216	-0.105	0.250
-331.216	800.000	0.143	0.462
-330.202	800.000	0.059	-0.224
-329.187	-49.901	0.259	-0.122
-328.172	-21.505	0.040	-0.024
-327.158	-88.579	0.218	-0.065
-326.143	-35.389	0.208	-0.112
-325.129	-200.000	0.005	-0.023
-324.114	-38.343	-0.119	0.063
-323.099	-200.000	0.024	-0.234
-322.085	-200.000	0.038	0.539
-321.070	800.000	-0.051	0.157
-320.056	-83.960	-0.083	-0.026
-319.041	90.367	-0.148	0.164
-318.026	-122.965	0.123	-0.020
-317.012	228.396	-0.164	0.266
-315.997	-168.048	0.182	-0.007
-314.983	-95.944	0.097	0.026
-313.968	-97.867	0.225	0.058
-312.953	-43.405	0.221	-0.111
-311.939	-78.161	-0.426	0.145
-310.924	256.939	0.126	0.215
-309.910	-145.827	0.282	-0.025
-308.895	43.735	-0.129	0.117
-307.880	-200.000	-0.082	0.364
-306.866	800.000	-0.084	0.308
-305.851	-200.000	-0.006	-0.261
-304.837	-18.562	-0.337	-0.209
-303.822	218.774	0.149	0.236
-302.807	-53.717	0.108	-0.049
-301.793	113.172	0.095	-0.114
-300.778	-93.439	0.260	0.071
-299.764	156.775	-0.136	0.187
-298.749	156.040	-0.259	0.354
-297.735	108.432	-0.205	0.242
-296.720	175.362	0.181	-0.260
-295.705	-133.691	-0.105	-0.013
-294.691	-6.848	-0.211	0.143
-293.676	69.279	0.100	0.102
-292.662	243.711	-0.036	0.060
-291.647	800.000	-0.028	-0.087
-290.632	-126.961	0.202	-0.029
-289.618	-1.164	-0.112	0.079
-288.603	171.768	-0.028	-0.040
-287.589	-176.290	-0.169	0.004
-286.574	800.000	0.058	0.162
-285.559	-61.232	-0.162	-0.068
-284.545	-200.000	0.030	0.161
-283.530	102.863	0.168	0.196
-282.516	149.070	0.020	-0.026
-281.501	-17.230	0.143	-0.089
-280.486	-184.209	-0.131	0.002
-279.472	252.765	-0.064	-0.109
-278.457	32.784	-0.062	-0.053
-277.443	222.772	-0.068	0.109
-276.428	144.044	0.209	0.277
-275.413	91.322	0.193	-0.215
-274.399	800.000	-0.020	0.079
-273.384	521.307	0.131	-0.304
-272.370	-200.000	0.029	0.485
-271.355	-1.024	0.178	0.125
-270.340	-28.593	-0.243	0.139
-269.326	800.000	0.034	-0.118
-268.311	-78.700	0.269	0.091
-267.297	72.545	-0.170	0.175
-266.282	-118.228	0.359	-0.063
-265.267	-200.000	-0.017	-0.081
-264.253	-200.000	-0.025	-0.166
-263.238	-200.000	-0.003	-0.220
-262.224	55.360	-0.116	-0.111
-261.209	-115.885	-0.329	0.061
-260.195	-17.623	-0.138	0.086
-259.180	800.000	0.024	-0.086
-258.165	-174.737	-0.257	0.007
-257.151	367.002	-0.182	0.364
-256.136	-75.525	0.222	-0.078
-255.122	-130.440	0.219	-0.029
-254.107	-101.542	0.334	0.080
-253.092	-200.000	0.013	-0.355
-252.078	-21.411	0.434	0.262
-251.063	-200.000	0.026	-0.293
-250.049	-200.000	-0.014	0.103
-249.034	-166.206	0.246	0.010
-248.019	-200.000	0.073	-0.528
-247.005	-200.000	0.012	0.366
-245.990	241.649	0.065	-0.107
-244.976	210.565	-0.075	0.117
-243.961	468.425	0.009	0.020
-242.946	75.899	-0.105	0.110
-241.932	13.131	-0.241	-0.185
-240.917	128.903	0.156	0.197
-239.903	90.230	0.364	0.403
-238.888	524.638	-0.105	0.245
-237.873	135.438	-0.043	-0.056
-236.859	119.333	0.298	-0.365
-235.844	140.302	0.048	-0.063
-234.830	-115.178	0.299	0.056
-233.815	2.669	0.213	0.153
-232.800	103.328	-0.118	-0.137
-231.786	-35.305	-0.140	0.075
-230.771	172.636	-0.128	0.183
-229.757	15.378	0.087	0.067
-228.742	-27.352	-0.249	0.143
-227.727	91.317	-0.129	-0.143
-226.713	-200.000	0.063	-0.300
-225.698	744.523	-0.099	0.263
-224.684	-198.475	0.274	0.002
-223.669	57.132	0.167	0.161
-222.655	-9.760	0.206	0.135
-221.640	159.185	-0.066	-0.091
-220.625	-40.175	0.089	0.046
-219.611	-200.000	0.008	-0.103
-218.596	-138.196	-0.312	-0.034
-217.582	-105.151	-0.396	-0.089
-216.567	601.756	-0.105	-0.257
-215.552	52.617	0.320	-0.302
-214.538	-139.305	-0.274	0.029
-213.523	-200.000	-0.011	0.100
-212.509	-137.579	0.171	-0.019
-211.494	373.517	-0.063	-0.126
-210.479	-200.000	0.061	-0.314
-209.465	-49.480	-0.159	-0.075
-208.450	34.822	-0.224	0.193
-207.436	-33.921	0.146	0.079
-206.421	800.000	0.064	-0.206
-205.406	-200.000	0.027	-0.316
-204.392	-88.165	0.254	0.075
-203.377	-94.150	0.248	0.067
-202.363	252.948	-0.089	-0.151
-201.348	121.514	0.096	-0.118
-200.333	-200.000	0.006	0.182
-199.319	-67.703	-0.375	-0.145
-198.304	-87.516	-0.179	-0.053
-197.290	298.154	-0.046	0.083
-196.275	345.530	0.086	0.167
-195.260	-60.865	-0.242	-0.101
-194.246	64.391	0.197	0.197
-193.231	-111.050	0.373	-0.076
-192.217	-141.665	-0.108	-0.011
-191.202	-162.982	-0.252	0.012
-190.187	-153.535	0.109	0.007
-189.173	-146.459	-0.066	-0.006
-188.158	-188.065	-0.087	0.001
-187.144	-37.408	0.078	-0.041
-186.129	300.858	0.115	-0.209
-185.114	369.002	-0.026	-0.052
-184.100	395.680	0.057	-0.117
-183.085	-200.000	-0.004	0.250
-182.071	14.959	0.155	-0.120
-181.056	141.744	0.137	-0.179
-180.042	-62.825	0.251	0.103
-179.027	356.919	-0.077	0.151
-178.012	24.432	-0.088	-0.072
-176.998	553.138	-0.066	-0.157
-175.983	36.392	-0.114	-0.100
-174.969	537.471	-0.050	0.116
-173.954	-200.000	0.061	-0.267
-172.939	244.514	0.128	-0.212
-171.925	383.895	-0.049	0.100
-170.910	-200.000	0.003	0.035
-169.896	8.612	-0.128	0.095
-168.881	-109.364	-0.623	-0.130
-167.866	276.689	-0.022	-0.038
-166.852	-16.622	0.215	0.135
-165.837	-67.994	-0.027	0.010
-164.823	556.507	0.120	0.286
-163.808	131.194	-0.072	-0.092
-162.793	-160.657	0.564	0.030
-161.779	-72.924	-0.225	-0.082
-160.764	123.490	0.266	-0.329
-159.750	800.000	0.060	-0.188
-158.735	-78.531	0.210	0.071
-157.720	136.466	0.118	0.151
-156.706	455.020	0.055	-0.120
-155.691	339.475	-0.093	0.178
-154.677	-10.224	0.115	-0.075
-153.662	-124.527	-0.139	-0.021
-152.647	89.219	0.128	-0.141
-151.633	-7.712	-0.092	0.061
-150.618	494.900	0.094	0.213
-149.604	154.219	0.187	0.253
-148.589	-200.000	-0.057	-0.272
-147.574	800.000	-0.119	0.474
-146.560	58.623	0.256	0.248
-145.545	-39.322	-0.066	0.034
-144.531	401.280	0.085	-0.176
-143.516	83.862	0.268	0.288
-142.502	248.145	-0.143	-0.238
-141.487	459.710	0.119	-0.261
-140.472	-42.074	-0.298	-0.150
-139.458	424.279	-0.202	-0.427
-138.443	83.984	0.109	0.118
-137.429	-200.000	0.047	-0.304
-136.414	800.000	0.081	-0.242
-135.399	800.000	0.125	-0.359
-134.385	-200.000	-0.083	0.398
-133.370	-52.237	-0.159	0.073
-132.356	280.969	0.101	-0.178
-131.341	-79.986	0.120	-0.040
-130.326	-200.000	-0.012	-0.151
-129.312	-136.825	0.103	0.012
-128.297	-200.000	-0.027	0.143
-127.283	-74.374	0.302	0.107
-126.268	-200.000	0.006	0.045
-125.253	152.053	-0.126	0.169
-124.239	800.000	-0.066	0.198
-123.224	207.643	0.066	-0.102
-122.210	-131.667	-0.097	0.013
-121.195	800.000	0.092	-0.281
