DTS Sentinel unit serial number:	SN413079Multiplexer serial number:	ORYXHardware model number:	OX4-SRSoftware version number:	ORYX F/W v4.00 Oryx Data Collector v3.7.2.0data status	okinstallation	princeton_trtdifferential loss correction	single-endedforward channel	channel 3reverse channel	N/Adate	2019/09/13time	13:28:35forward acquisition time	60.00reverse acquisition time	0.00gamma	496.2192k internal	0.2303k external	0.2303temperature offset calibration	1.0148default loss term (dB/km)	0.3790temperature slope calibration	1.0000multiplexer offset coefficient	1.0000multiplexer slope coefficient	1.0000fibre end	0.00T internal ref (°C)	35.00T ext. ref 1 (°C)	4.57T ext. ref 2 (°C)	31.00length (m)	temperature (°C)	Stokes	anti-Stokes-747.200	-60.677	-0.305	-0.132
-746.185	104.482	0.042	-0.051
-745.171	800.000	-0.086	0.262
-744.156	800.000	-0.055	-0.184
-743.142	-91.141	-0.205	-0.060
-742.127	-200.000	-0.013	0.425
-741.112	143.361	0.102	-0.139
-740.098	800.000	0.091	0.364
-739.083	-200.000	0.031	-0.167
-738.069	244.857	0.016	0.027
-737.054	-200.000	-0.298	-0.000
-736.039	5.961	0.156	0.118
-735.025	-188.430	0.441	-0.006
-734.010	158.334	-0.098	-0.139
-732.996	-196.587	0.454	-0.003
-731.981	-74.894	-0.376	-0.137
-730.966	-29.676	-0.058	0.034
-729.952	64.465	-0.043	-0.045
-728.937	-151.291	-0.137	-0.010
-727.923	-67.481	-0.422	0.169
-726.908	214.468	0.244	0.393
-725.894	-60.298	-0.132	-0.057
-724.879	94.775	-0.074	0.086
-723.864	-66.867	0.168	-0.068
-722.850	-200.000	0.063	-0.334
-721.835	-130.365	0.080	0.011
-720.821	27.314	0.258	0.220
-719.806	-136.697	-0.067	0.008
-718.791	27.265	0.127	-0.109
-717.777	-200.000	-0.044	-0.208
-716.762	67.683	0.069	-0.071
-715.748	-22.380	0.266	0.164
-714.733	233.656	-0.036	0.061
-713.718	69.268	-0.215	-0.225
-712.704	-59.661	-0.136	-0.059
-711.689	222.342	0.095	0.155
-710.675	535.960	0.087	0.210
-709.660	-86.901	-0.140	0.043
-708.645	346.278	-0.040	0.081
-707.631	-200.000	-0.035	-0.184
-706.616	-81.255	0.292	-0.098
-705.602	-133.447	0.093	0.012
-704.587	423.187	-0.149	-0.326
-703.572	-66.439	-0.355	-0.143
-702.558	54.671	0.050	0.049
-701.543	-43.239	0.117	0.060
-700.529	-71.386	0.234	-0.089
-699.514	-110.420	0.394	-0.083
-698.499	146.042	0.181	0.247
-697.485	489.841	-0.085	-0.198
-696.470	800.000	0.012	-0.041
-695.456	-132.722	-0.066	-0.009
-694.441	-25.988	-0.223	0.134
-693.426	-20.184	0.256	-0.160
-692.412	800.000	0.149	0.518
-691.397	-58.669	0.221	-0.098
-690.383	-111.953	-0.124	-0.025
-689.368	-200.000	0.035	-0.361
-688.354	118.989	-0.138	0.173
-687.339	174.765	0.065	0.096
-686.324	13.720	0.250	0.197
-685.310	389.834	0.159	-0.334
-684.295	113.802	0.278	0.344
-683.281	-78.540	0.152	0.053
-682.266	141.841	-0.067	0.091
-681.251	472.005	0.169	-0.387
-680.237	667.805	0.116	-0.305
-679.222	124.451	0.117	0.149
-678.208	-88.549	0.178	-0.054
-677.193	293.501	0.080	0.148
-676.178	-200.000	-0.032	0.228
-675.164	-126.103	0.149	0.023
-674.149	-132.388	-0.552	0.072
-673.135	-51.948	-0.186	-0.088
-672.120	-142.006	0.290	-0.029
-671.105	800.000	-0.072	-0.211
-670.091	53.286	0.063	0.062
-669.076	22.557	-0.096	0.080
-668.062	-59.432	0.061	-0.026
-667.047	606.386	-0.028	-0.070
-666.032	-16.397	-0.271	-0.175
-665.018	-17.399	-0.230	0.147
-664.003	69.234	0.139	0.145
-662.989	15.056	0.124	-0.099
-661.974	252.378	-0.021	0.036
-660.959	-36.059	0.198	-0.109
-659.945	27.321	0.100	-0.085
-658.930	-164.499	0.086	0.004
-657.916	-75.927	0.236	0.085
-656.901	-43.194	-0.167	-0.086
-655.886	-173.847	-0.168	0.005
-654.872	-63.872	-0.311	-0.129
-653.857	-200.000	0.062	-0.345
-652.843	90.004	-0.117	0.132
-651.828	111.841	0.140	-0.171
-650.814	800.000	-0.042	-0.168
-649.799	-200.000	0.022	0.224
-648.784	-200.000	0.005	-0.072
-647.770	-200.000	-0.003	0.167
-646.755	153.879	-0.113	0.157
-645.741	122.909	0.183	0.233
-644.726	691.191	0.048	-0.128
-643.711	-200.000	0.029	-0.159
-642.697	2.523	-0.148	-0.108
-641.682	188.756	0.175	-0.265
-640.668	330.381	-0.131	0.257
-639.653	-77.766	-0.215	-0.075
-638.638	-91.071	-0.242	0.071
-637.624	664.726	0.127	0.332
-636.609	-123.230	-0.251	0.041
-635.595	-200.000	-0.034	-0.323
-634.580	800.000	-0.105	-0.325
-633.565	32.210	-0.204	-0.178
-632.551	539.244	-0.029	0.071
-631.536	-200.000	-0.028	0.277
-630.522	-46.220	-0.121	0.060
-629.507	-200.000	-0.010	0.108
-628.492	-200.000	-0.013	0.097
-627.478	154.881	-0.114	-0.159
-626.463	-200.000	0.099	-0.000
-625.449	160.476	0.208	0.294
-624.434	-75.299	-0.114	0.041
-623.419	800.000	-0.024	-0.081
-622.405	131.155	0.131	0.171
-621.390	46.503	0.077	-0.072
-620.376	-90.234	-0.324	0.095
-619.361	-48.933	-0.423	0.206
-618.346	517.110	-0.089	-0.211
-617.332	799.357	-0.152	-0.425
-616.317	-92.031	0.215	0.062
-615.303	-73.844	-0.151	0.056
-614.288	466.348	-0.150	0.341
-613.273	800.000	0.066	0.269
-612.259	91.077	0.092	-0.104
-611.244	-49.365	-0.206	-0.099
-610.230	-200.000	0.037	-0.298
-609.215	-200.000	0.069	-0.337
-608.201	41.069	0.358	-0.328
-607.186	800.000	-0.049	-0.170
-606.171	-78.766	0.161	0.056
-605.157	-200.000	-0.028	0.211
-604.142	196.983	0.082	0.126
-603.128	561.315	0.043	0.105
-602.113	18.071	0.249	0.201
-601.098	-15.798	-0.013	0.008
-600.084	-124.165	-0.163	0.026
-599.069	800.000	0.093	-0.317
-598.055	-9.599	0.378	0.255
-597.040	-200.000	-0.025	0.221
-596.025	-200.000	-0.037	0.000
-595.011	2.612	0.097	-0.071
-593.996	-193.101	0.114	0.001
-592.982	161.116	-0.138	-0.196
-591.967	225.891	-0.139	0.229
-590.952	-200.000	-0.018	-0.141
-589.938	-185.411	-0.202	-0.003
-588.923	160.500	-0.098	0.139
-587.909	800.000	0.085	0.357
-586.894	332.473	-0.122	0.238
-585.879	-139.663	-0.172	-0.019
-584.865	-200.000	0.051	0.329
-583.850	-33.805	-0.217	0.121
-582.836	38.328	0.091	0.082
-581.821	-114.506	-0.047	-0.009
-580.806	800.000	-0.046	-0.131
-579.792	428.340	0.057	0.125
-578.777	-59.752	-0.025	-0.011
-577.763	7.122	0.255	0.193
-576.748	-200.000	-0.602	0.002
-575.733	-21.724	-0.090	0.056
-574.719	-167.883	-0.078	-0.003
-573.704	-19.142	-0.240	-0.151
-572.690	73.814	-0.041	0.043
-571.675	-105.927	-0.270	0.062
-570.661	800.000	-0.127	-0.464
-569.646	-200.000	0.015	-0.233
-568.631	-73.515	-0.172	-0.063
-567.617	800.000	-0.079	-0.257
-566.602	8.104	-0.159	0.121
-565.588	139.812	0.180	-0.241
-564.573	-142.513	0.097	-0.010
-563.558	-20.557	-0.243	0.151
-562.544	178.598	-0.065	-0.096
-561.529	-55.036	-0.076	0.035
-560.515	67.644	0.172	-0.177
-559.500	38.886	0.138	0.124
-558.485	311.823	0.127	-0.242
-557.471	-94.015	0.277	-0.077
-556.456	452.623	-0.043	-0.095
-555.442	-23.025	0.330	-0.201
-554.427	112.449	0.261	-0.319
-553.412	-112.827	0.478	-0.096
-552.398	800.000	-0.160	-0.449
-551.383	36.921	0.200	-0.179
-550.369	48.226	0.098	-0.092
-549.354	-200.000	-0.007	-0.159
-548.339	8.319	0.220	-0.167
-547.325	-92.557	-0.250	0.071
-546.310	-125.600	-0.587	-0.090
-545.296	-200.000	0.003	0.097
-544.281	544.455	0.005	0.011
-543.266	-98.885	0.310	-0.080
-542.252	35.307	0.117	0.104
-541.237	800.000	0.053	-0.194
-540.223	-129.814	-0.481	0.067
-539.208	69.284	0.096	-0.100
-538.193	-200.000	-0.070	-0.362
-537.179	-88.079	0.157	0.048
-536.164	-151.361	0.251	0.019
-535.150	-200.000	0.022	-0.385
-534.135	-130.914	0.341	-0.046
-533.121	195.122	-0.045	-0.069
-532.106	-126.995	-0.375	-0.056
-531.091	79.875	0.069	0.074
-530.077	251.441	-0.127	0.219
-529.062	365.959	-0.205	0.417
-528.048	-200.000	0.009	-0.175
-527.033	-200.000	0.075	-0.392
-526.018	151.628	0.091	0.125
-525.004	230.295	0.058	0.096
-523.989	2.772	0.276	0.202
-522.975	-200.000	0.004	-0.267
-521.960	-200.000	-0.013	-0.347
-520.945	216.533	0.118	-0.189
-519.931	-136.853	-0.175	-0.020
-518.916	31.577	0.150	-0.131
-517.902	7.892	-0.135	0.102
-516.887	800.000	0.018	0.076
-515.872	-170.332	0.582	-0.021
-514.858	-200.000	0.004	0.077
-513.843	231.617	0.158	-0.261
-512.829	403.582	0.045	-0.096
-511.814	-102.413	-0.132	0.032
-510.799	-200.000	0.010	-0.154
-509.785	63.616	-0.160	-0.163
-508.770	800.000	-0.031	-0.111
-507.756	477.323	0.173	0.395
-506.741	31.157	0.108	0.094
-505.726	-48.543	-0.151	-0.073
-504.712	-77.280	0.264	0.092
-503.697	254.936	-0.130	0.225
-502.683	-75.865	-0.397	0.142
-501.668	43.060	-0.068	0.063
-500.653	17.068	0.078	-0.063
-499.639	43.605	-0.163	0.150
-498.624	-88.340	0.232	0.070
-497.610	-65.615	-0.023	0.009
-496.595	-15.665	-0.068	-0.044
-495.581	-200.000	0.069	0.380
-494.566	22.902	-0.249	0.206
-493.551	800.000	-0.012	0.037
-492.537	-200.000	0.025	-0.171
-491.522	182.186	0.196	0.292
-490.508	-20.824	-0.407	0.251
-489.493	379.279	0.034	-0.069
-488.478	800.000	-0.029	-0.118
-487.464	-200.000	-0.004	-0.152
-486.449	800.000	0.051	-0.195
-485.435	186.760	0.201	0.302
-484.420	316.853	-0.035	0.066
-483.405	20.133	0.136	0.110
-482.391	14.825	-0.250	-0.197
-481.376	-200.000	-0.047	-0.454
-480.362	55.301	0.099	0.097
-479.347	44.584	0.211	0.196
-478.332	379.531	0.139	-0.287
-477.318	20.339	0.328	0.267
-476.303	-87.016	0.140	-0.043
-475.289	-56.719	0.062	-0.027
-474.274	220.263	0.114	-0.183
-473.259	384.767	-0.152	0.316
-472.245	223.786	-0.124	-0.201
-471.230	23.031	0.092	-0.076
-470.216	-200.000	0.000	0.152
-469.201	800.000	-0.131	0.471
-468.186	82.214	-0.143	0.156
-467.172	262.216	-0.043	0.076
-466.157	-152.715	-0.216	-0.015
-465.143	800.000	0.052	0.191
-464.128	99.990	-0.243	0.284
-463.113	-200.000	-0.016	0.206
-462.099	-200.000	-0.016	0.160
-461.084	428.997	0.112	-0.244
-460.070	388.772	-0.109	-0.228
-459.055	-120.970	-0.225	0.038
-458.040	343.447	-0.057	0.113
-457.026	105.178	0.220	-0.261
-456.011	-171.797	-0.207	-0.007
-454.997	-33.076	0.084	-0.047
-453.982	-46.574	0.101	-0.050
-452.968	162.862	0.099	-0.140
-451.953	800.000	0.006	-0.023
-450.938	-200.000	0.013	-0.191
-449.924	7.814	-0.167	0.126
-448.909	586.154	0.027	0.066
-447.895	-200.000	-0.027	-0.179
-446.880	800.000	0.109	0.331
-445.865	91.301	-0.201	0.227
-444.851	162.759	-0.036	-0.052
-443.836	131.063	-0.160	0.207
-442.822	-120.884	-0.181	-0.031
-441.807	356.617	0.047	0.095
-440.792	-15.922	0.068	-0.043
-439.778	-98.032	-0.186	-0.048
-438.763	-68.402	0.218	0.085
-437.749	-200.000	0.004	0.024
-436.734	185.284	-0.194	-0.289
-435.719	-4.801	-0.146	0.102
-434.705	-148.255	-0.159	-0.013
-433.690	-68.857	0.230	0.090
-432.676	-34.378	-0.063	-0.035
-431.661	98.454	-0.172	-0.200
-430.646	-33.811	0.089	-0.049
-429.632	-200.000	-0.001	0.072
-428.617	-146.623	-0.208	0.018
-427.603	-62.367	0.065	0.027
-426.588	800.000	-0.106	-0.307
-425.573	-15.375	-0.202	0.130
-424.559	-128.429	-0.346	0.049
-423.544	117.584	0.178	-0.221
-422.530	800.000	-0.025	0.102
-421.515	8.048	0.194	-0.146
-420.500	-92.987	-0.419	0.118
-419.486	-200.000	0.000	-0.168
-418.471	261.195	-0.091	-0.158
-417.457	108.691	-0.125	-0.150
-416.442	-132.456	-0.241	-0.031
-415.428	91.617	0.279	-0.316
-414.413	-92.962	0.192	0.054
-413.398	-159.323	-0.148	-0.008
-412.384	800.000	0.099	0.356
-411.369	-61.383	-0.141	-0.060
-410.355	293.007	0.085	-0.156
-409.340	-200.000	0.015	-0.182
-408.325	4.477	0.035	-0.026
-407.311	-70.047	-0.063	-0.024
-406.296	-130.061	-0.354	0.049
-405.282	-200.000	0.331	0.001
-404.267	-83.754	-0.188	0.060
-403.252	-99.295	0.173	0.044
-402.238	800.000	0.074	0.250
-401.223	112.908	0.147	0.179
-400.209	-200.000	0.025	-0.185
-399.194	-10.825	0.155	-0.103
-398.179	-117.766	0.306	-0.055
-397.165	-50.210	0.062	-0.029
-396.150	81.374	-0.259	-0.282
-395.136	59.151	-0.209	-0.207
-394.121	11.710	-0.094	0.073
-393.106	-134.904	-0.021	-0.003
-392.092	402.279	0.120	0.253
-391.077	322.627	0.054	0.103
-390.063	-50.641	-0.184	0.087
-389.048	634.018	0.060	0.153
-388.033	740.645	-0.185	-0.498
-387.019	-36.625	-0.333	-0.180
-386.004	58.645	0.160	-0.158
-384.990	-200.000	-0.034	-0.374
-383.975	214.075	-0.116	-0.184
-382.960	24.206	-0.204	-0.169
-381.946	-53.106	0.130	0.060
-380.931	119.897	-0.085	-0.105
-379.917	-94.986	0.251	0.068
-378.902	-200.000	-0.021	0.143
-377.888	-72.278	-0.064	-0.024
-376.873	-200.000	0.074	-0.405
-375.858	280.778	-0.045	-0.081
-374.844	-59.214	0.435	0.188
-373.829	178.487	-0.117	0.172
-372.815	-200.000	-0.025	0.343
-371.800	498.939	0.139	0.321
-370.785	-200.000	-0.055	0.267
-369.771	76.674	0.058	-0.062
-368.756	800.000	-0.074	0.211
-367.742	-200.000	0.000	-0.105
-366.727	-110.161	-0.104	-0.022
-365.712	-47.058	0.020	-0.010
-364.698	-93.847	-0.185	-0.051
-363.683	451.535	-0.122	0.271
-362.669	-11.223	-0.155	-0.103
-361.654	-166.391	-0.134	0.006
-360.639	142.776	0.156	0.209
-359.625	579.256	0.083	0.203
-358.610	169.225	-0.167	0.239
-357.596	-85.340	-0.082	-0.026
-356.581	100.180	0.116	0.135
-355.566	-84.383	0.158	0.050
-354.552	-96.811	0.426	0.112
-353.537	400.969	-0.085	0.178
-352.523	89.400	-0.327	0.365
-351.508	72.713	0.189	0.198
-350.493	125.795	-0.088	0.111
-349.479	108.590	0.095	0.114
-348.464	800.000	-0.039	-0.140
-347.450	-75.943	-0.147	-0.052
-346.435	-200.000	0.013	-0.116
-345.420	1.544	0.146	0.105
-344.406	129.342	0.280	0.358
-343.391	-43.993	0.347	0.175
-342.377	-200.000	0.012	0.096
-341.362	-16.606	-0.123	0.078
-340.348	-62.670	0.398	-0.166
-339.333	688.047	0.125	0.329
-338.318	-200.000	-0.016	-0.085
-337.304	-20.382	0.301	-0.186
-336.289	92.051	-0.158	0.179
-335.275	-200.000	0.010	-0.083
-334.260	800.000	0.016	0.060
-333.245	154.236	-0.233	0.321
-332.231	800.000	0.143	0.541
-331.216	104.547	-0.104	0.123
-330.202	-46.892	-0.187	-0.092
-329.187	-200.000	-0.006	0.067
-328.172	800.000	0.079	0.227
-327.158	6.592	-0.036	-0.027
-326.143	800.000	0.117	-0.450
-325.129	-200.000	-0.012	-0.182
-324.114	268.799	0.044	-0.077
-323.099	-132.826	-0.216	0.028
-322.085	39.367	-0.090	-0.081
-321.070	112.350	-0.137	-0.166
-320.056	-77.736	0.103	0.036
-319.041	-52.940	0.309	-0.142
-318.026	-2.612	-0.131	0.092
-317.012	-165.272	0.279	-0.012
-315.997	17.033	-0.200	0.159
-314.983	-28.309	0.051	0.029
-313.968	-108.687	-0.221	0.048
-312.953	54.533	0.157	-0.151
-311.939	-200.000	0.041	0.218
-310.924	-66.803	-0.184	-0.073
-309.910	35.296	-0.409	-0.359
-308.895	96.932	0.076	0.087
-307.880	-125.807	0.114	0.017
-306.866	-74.879	-0.318	0.114
-305.851	-52.440	-0.471	-0.218
-304.837	3.516	-0.094	0.069
-303.822	-52.864	0.372	0.172
-302.807	-40.275	-0.015	-0.008
-301.793	800.000	-0.149	-0.522
-300.778	-16.877	-0.105	-0.067
-299.764	40.132	0.099	0.089
-298.749	800.000	-0.027	-0.106
-297.735	-86.295	0.103	-0.032
-296.720	-54.772	0.289	-0.131
-295.705	-111.605	-0.275	0.056
-294.691	800.000	-0.097	0.317
-293.676	61.592	0.196	-0.196
-292.662	227.392	-0.141	-0.230
-291.647	-131.713	0.224	-0.029
-290.632	800.000	0.134	-0.482
-289.618	10.066	-0.187	0.142
-288.603	25.877	-0.285	0.238
-287.589	-200.000	-0.016	0.119
-286.574	-200.000	0.020	0.110
-285.559	800.000	-0.075	-0.235
-284.545	-82.584	-0.428	-0.139
-283.530	60.504	0.150	-0.149
-282.516	74.177	-0.113	-0.119
-281.501	-77.514	0.210	-0.073
-280.486	-109.115	0.283	-0.060
-279.472	-200.000	0.021	-0.205
-278.457	-63.984	-0.066	-0.027
-277.443	280.349	-0.142	-0.254
-276.428	-66.681	0.091	0.036
-275.413	207.832	-0.118	0.184
-274.399	-60.333	-0.063	0.027
-273.384	-31.158	0.271	-0.153
-272.370	583.821	0.080	0.195
-271.355	-107.111	-0.129	-0.029
-270.340	800.000	0.088	-0.261
-269.326	-133.711	-0.246	0.031
-268.311	-200.000	-0.023	-0.116
-267.297	-200.000	-0.018	0.354
-266.282	711.760	0.062	0.165
-265.267	-17.521	0.260	0.164
-264.253	-200.000	0.008	-0.228
-263.238	-200.000	-0.076	-0.377
-262.224	313.635	0.089	-0.168
-261.209	129.534	0.217	0.277
-260.195	160.448	0.115	0.160
-259.180	-119.869	-0.163	0.028
-258.165	63.669	0.267	0.268
-257.151	-101.656	-0.031	-0.007
-256.136	120.519	-0.348	-0.432
-255.122	390.039	0.006	0.012
-254.107	30.079	0.078	0.066
-253.092	-12.780	0.187	-0.121
-252.078	209.948	-0.149	0.234
-251.063	-8.153	0.312	-0.210
-250.049	-79.877	-0.023	-0.008
-249.034	-200.000	-0.011	0.048
-248.019	-128.887	0.155	0.022
-247.005	-143.095	-0.082	-0.008
-245.990	89.745	0.051	0.057
-244.976	-11.602	-0.419	0.275
-243.961	-117.523	0.333	-0.060
-242.946	-200.000	0.066	0.351
-241.932	-22.938	-0.153	-0.092
-240.917	142.639	0.089	-0.119
-239.903	-96.424	-0.156	0.041
-238.888	-89.986	0.258	0.075
-237.873	9.423	0.165	0.125
-236.859	124.497	-0.060	0.075
-235.844	2.533	0.316	0.228
-234.830	-200.000	-0.018	0.177
-233.815	-80.044	0.582	-0.195
-232.800	18.002	-0.124	-0.099
-231.786	83.118	0.241	0.262
-230.771	-37.338	0.379	0.202
-229.757	-200.000	0.007	0.064
-228.742	-55.249	-0.191	-0.086
-227.727	-175.623	0.083	0.002
-226.713	26.263	0.174	-0.145
-225.698	285.023	0.060	-0.109
-224.684	-200.000	-0.088	0.423
-223.669	-200.000	-0.015	-0.098
-222.655	-200.000	0.018	-0.101
-221.640	343.352	-0.166	0.324
-220.625	800.000	0.067	-0.271
-219.611	-106.218	0.202	0.045
-218.596	-200.000	-0.002	0.267
-217.582	-200.000	-0.050	-0.245
-216.567	156.479	0.342	-0.471
-215.552	-52.204	0.258	-0.120
-214.538	229.931	0.027	0.044
-213.523	-50.477	0.488	-0.230
-212.509	19.246	0.139	-0.111
-211.494	-26.395	0.234	-0.137
-210.479	-106.481	-0.273	-0.061
-209.465	81.723	0.197	0.212
-208.450	384.785	0.183	0.376
-207.436	-43.539	0.134	-0.067
-206.421	-22.103	0.221	-0.134
-205.406	-27.411	0.091	0.053
-204.392	158.185	0.078	-0.108
-203.377	-41.938	0.146	0.075
-202.363	-44.356	-0.251	0.125
-201.348	800.000	-0.071	-0.245
-200.333	358.399	0.086	-0.172
-199.319	635.721	-0.019	0.048
-198.304	151.596	0.029	0.040
-197.290	-39.019	-0.277	-0.146
-196.275	436.246	-0.096	0.208
-195.260	37.942	0.182	-0.162
-194.246	397.562	-0.137	0.285
-193.231	800.000	-0.116	0.338
-192.217	412.967	-0.013	-0.027
-191.202	64.626	0.067	-0.068
-190.187	465.479	0.166	-0.370
-189.173	102.092	0.247	-0.287
-188.158	578.587	0.092	0.224
-187.144	-200.000	0.000	-0.033
-186.129	45.197	0.043	-0.039
-185.114	-171.565	0.103	-0.003
-184.100	-4.534	-0.395	0.272
-183.085	-200.000	0.007	-0.032
-182.071	800.000	0.094	0.321
-181.056	-84.000	0.299	-0.095
-180.042	-51.687	-0.158	0.073
-179.027	1.332	0.123	0.088
-178.012	-200.000	0.003	-0.234
-176.998	60.515	-0.071	0.070
-175.983	-200.000	0.010	-0.193
-174.969	-32.395	-0.227	0.126
-173.954	10.182	-0.095	0.072
-172.939	32.732	-0.233	-0.201
-171.925	-113.528	0.075	0.015
-170.910	-72.199	-0.300	0.111
-169.896	-137.486	0.401	-0.045
-168.881	800.000	0.079	-0.222
-167.866	10.959	0.125	-0.095
-166.852	672.756	0.097	0.250
-165.837	800.000	0.036	0.139
-164.823	1.886	-0.141	0.102
-163.808	-6.180	0.141	-0.096
-162.793	800.000	-0.056	-0.170
-161.779	5.660	0.187	-0.138
-160.764	-32.405	-0.408	-0.227
-159.750	124.999	-0.192	0.240
-158.735	28.343	0.069	0.058
-157.720	-82.231	-0.092	0.030
-156.706	-200.000	0.011	0.345
-155.691	800.000	0.051	-0.183
-154.677	628.117	-0.103	0.260
-153.662	-128.075	-0.253	-0.036
-152.647	-71.318	-0.222	-0.083
-151.633	-94.190	-0.088	0.024
-150.618	-200.000	0.025	0.138
-149.604	-109.192	-0.073	0.015
-148.589	-14.480	-0.117	-0.075
-147.574	20.113	0.217	-0.174
-146.560	-200.000	0.019	-0.089
-145.545	98.118	0.227	0.260
-144.531	800.000	0.116	0.347
-143.516	67.668	0.247	-0.251
-142.502	-84.151	0.171	0.054
-141.487	-40.662	-0.191	-0.099
-140.472	488.503	-0.120	-0.274
-139.458	230.979	0.084	0.136
-138.443	-200.000	0.025	-0.118
-137.429	-200.000	-0.022	0.156
-136.414	-200.000	-0.034	-0.168
-135.399	42.529	-0.379	0.343
-134.385	-200.000	0.055	-0.321
-133.370	495.190	0.138	-0.316
-132.356	-10.327	0.273	0.180
-131.341	-200.000	0.006	-0.064
-130.326	-200.000	-0.016	0.257
-129.312	29.960	-0.100	0.085
-128.297	-200.000	0.008	0.064
-127.283	248.689	-0.037	-0.063
-126.268	378.377	-0.091	-0.185
-125.253	-200.000	-0.011	-0.243
-124.239	-84.688	0.273	-0.086
-123.224	-77.175	0.322	0.111
-122.210	-8.375	0.143	-0.095
-121.195	27.250	-0.253	0.211
-120.180	-96.352	0.388	0.102
