DTS Sentinel unit serial number:	SN413079Multiplexer serial number:	ORYXHardware model number:	OX4-SRSoftware version number:	ORYX F/W v4.00 Oryx Data Collector v3.7.2.0data status	okinstallation	princeton_trtdifferential loss correction	single-endedforward channel	channel 3reverse channel	N/Adate	2019/09/19time	00:04:35forward acquisition time	60.00reverse acquisition time	0.00gamma	496.2192k internal	0.2346k external	0.2346temperature offset calibration	0.9989default loss term (dB/km)	0.3790temperature slope calibration	1.0000multiplexer offset coefficient	1.0000multiplexer slope coefficient	1.0000fibre end	0.00T internal ref (°C)	23.00T ext. ref 1 (°C)	0.76T ext. ref 2 (°C)	15.84length (m)	temperature (°C)	Stokes	anti-Stokes-747.200	-174.572	0.363	-0.010
-746.185	-200.000	-0.063	0.307
-745.171	-73.636	-0.097	-0.035
-744.156	-200.000	-0.011	0.181
-743.142	569.602	-0.214	0.521
-742.127	-10.955	-0.341	0.225
-741.112	40.617	-0.042	-0.038
-740.098	-126.152	0.177	0.026
-739.083	-105.864	0.357	0.081
-738.069	800.000	0.105	0.406
-737.054	171.722	-0.095	0.136
-736.039	96.757	0.188	-0.215
-735.025	368.088	-0.146	-0.294
-734.010	-144.715	0.107	0.010
-732.996	11.474	0.172	0.131
-731.981	-116.377	-0.125	-0.023
-730.966	331.078	-0.222	-0.427
-729.952	13.633	-0.272	0.211
-728.937	-114.722	-0.245	-0.047
-727.923	414.285	-0.098	-0.209
-726.908	372.594	-0.165	-0.335
-725.894	-200.000	-0.043	-0.188
-724.879	145.734	-0.080	-0.106
-723.864	163.293	0.133	-0.187
-722.850	-73.290	-0.241	0.088
-721.835	-200.000	0.063	-0.318
-720.821	-200.000	0.003	-0.520
-719.806	-42.507	-0.311	-0.158
-718.791	266.923	-0.091	0.159
-717.777	-64.309	0.209	-0.085
-716.762	-87.354	-0.041	-0.012
-715.748	-149.300	-0.276	0.022
-714.733	12.141	-0.130	-0.100
-713.718	20.043	0.169	0.136
-712.704	754.807	0.053	-0.142
-711.689	-200.000	-0.000	0.245
-710.675	145.670	-0.207	0.278
-709.660	-77.330	0.263	-0.091
-708.645	800.000	-0.113	0.443
-707.631	55.595	-0.179	0.173
-706.616	-200.000	0.012	-0.182
-705.602	-136.663	-0.088	-0.010
-704.587	-40.888	-0.310	-0.160
-703.572	24.077	0.287	-0.236
-702.558	150.761	0.049	0.066
-701.543	-200.000	0.015	0.104
-700.529	78.979	-0.229	0.245
-699.514	-70.465	-0.100	-0.038
-698.499	75.291	0.054	0.057
-697.485	32.159	0.266	0.229
-696.470	-125.830	0.173	0.026
-695.456	-200.000	-0.011	0.219
-694.441	800.000	-0.022	0.066
-693.426	3.451	-0.244	-0.178
-692.412	421.781	-0.109	0.234
-691.397	12.071	0.193	0.148
-690.383	618.377	-0.103	-0.258
-689.368	-200.000	-0.022	-0.320
-688.354	143.921	0.154	0.205
-687.339	-65.611	0.050	0.020
-686.324	-200.000	0.096	-0.548
-685.310	27.562	0.051	0.043
-684.295	564.131	0.105	0.254
-683.281	-200.000	0.026	-0.195
-682.266	518.173	-0.160	-0.374
-681.251	-200.000	-0.003	0.032
-680.237	-54.474	0.106	0.048
-679.222	97.785	-0.329	0.377
-678.208	-91.845	-0.249	-0.070
-677.193	-76.664	-0.157	0.055
-676.178	-178.593	-0.555	0.013
-675.164	-54.138	0.054	0.025
-674.149	79.394	-0.121	-0.130
-673.135	176.250	0.064	0.092
-672.120	617.517	0.005	0.014
-671.105	489.444	-0.060	-0.136
-670.091	305.737	-0.055	-0.102
-669.076	475.309	0.076	-0.172
-668.062	-70.890	-0.456	0.171
-667.047	78.881	0.210	0.224
-666.032	43.621	-0.175	0.160
-665.018	191.789	0.192	0.288
-664.003	-56.654	-0.341	0.151
-662.989	-200.000	0.003	-0.161
-661.974	-200.000	-0.013	0.084
-660.959	305.818	0.077	-0.142
-659.945	51.598	0.126	0.119
-658.930	800.000	-0.090	-0.370
-657.916	-200.000	-0.059	-0.260
-656.901	4.869	-0.232	-0.170
-655.886	-14.657	0.117	-0.075
-654.872	0.505	0.205	0.146
-653.857	190.847	-0.113	-0.169
-652.843	-32.328	-0.181	-0.101
-651.828	113.898	-0.153	-0.185
-650.814	-200.000	0.007	-0.159
-649.799	371.032	0.098	-0.198
-648.784	-87.360	-0.229	-0.069
-647.770	-38.461	0.252	-0.133
-646.755	142.108	-0.189	0.250
-645.741	184.270	0.187	0.275
-644.726	-96.759	0.438	0.115
-643.711	-121.644	0.016	-0.003
-642.697	47.039	-0.176	-0.163
-641.682	-34.193	-0.225	-0.123
-640.668	-200.000	0.035	-0.305
-639.653	800.000	0.040	-0.130
-638.638	557.762	0.102	0.245
-637.624	-83.418	0.204	-0.065
-636.609	-15.275	0.327	0.208
-635.595	-53.694	0.255	0.116
-634.580	-111.247	0.231	-0.047
-633.565	-146.079	-0.039	-0.003
-632.551	-200.000	0.024	0.217
-631.536	543.998	0.048	0.114
-630.522	-100.568	-0.137	0.034
-629.507	-23.878	-0.128	0.077
-628.492	196.413	-0.059	-0.090
-627.478	596.330	0.085	0.210
-626.463	-25.714	-0.390	-0.229
-625.449	800.000	0.055	0.231
-624.434	-74.665	0.499	0.179
-623.419	-126.096	0.180	0.027
-622.405	-15.005	-0.129	-0.082
-621.390	-148.838	-0.210	-0.017
-620.376	220.796	-0.077	0.123
-619.361	3.013	-0.087	0.063
-618.346	11.335	0.160	-0.122
-617.332	-142.011	-0.307	0.030
-616.317	166.887	0.091	-0.129
-615.303	434.113	-0.147	0.318
-614.288	237.798	-0.222	-0.366
-613.273	-87.948	-0.078	0.023
-612.259	-112.754	0.135	0.027
-611.244	-200.000	0.033	-0.287
-610.230	800.000	-0.046	0.181
-609.215	-200.000	-0.004	-0.063
-608.201	-70.394	0.371	0.140
-607.186	-107.346	0.409	-0.089
-606.171	134.073	0.114	-0.147
-605.157	-44.645	-0.142	-0.070
-604.142	628.705	-0.037	0.092
-603.128	-125.609	0.270	-0.041
-602.113	629.599	0.122	-0.306
-601.098	302.961	-0.068	0.124
-600.084	31.038	-0.049	0.042
-599.069	-200.000	-0.039	-0.192
-598.055	354.674	0.043	-0.084
-597.040	346.157	-0.044	0.086
-596.025	-106.285	0.354	-0.079
-595.011	114.196	-0.158	-0.191
-593.996	-4.594	0.175	0.120
-592.982	-14.139	0.014	0.009
-591.967	-131.926	-0.078	-0.010
-590.952	92.066	-0.285	-0.319
-589.938	60.191	-0.082	-0.081
-588.923	34.931	-0.106	-0.092
-587.909	-87.792	0.268	0.080
-586.894	-146.824	-0.327	0.028
-585.879	-62.018	-0.244	0.101
-584.865	410.301	-0.061	0.128
-583.850	415.378	0.032	-0.067
-582.836	-200.000	0.016	0.222
-581.821	-69.546	-0.127	-0.048
-580.806	483.413	0.130	-0.293
-579.792	800.000	0.055	-0.214
-578.777	-192.426	-0.334	-0.003
-577.763	146.724	-0.155	0.208
-576.748	77.369	0.100	-0.106
-575.733	800.000	-0.069	-0.282
-574.719	-59.325	0.160	0.068
-573.704	-200.000	0.093	0.424
-572.690	-86.319	-0.140	-0.043
-571.675	-91.618	-0.167	-0.047
-570.661	-156.123	-0.033	0.002
-569.646	800.000	0.051	0.208
-568.631	800.000	0.064	-0.219
-567.617	-147.371	-0.375	-0.032
-566.602	768.001	0.056	0.151
-565.588	528.186	-0.024	-0.057
-564.573	179.971	0.159	-0.232
-563.558	-200.000	-0.017	0.118
-562.544	-200.000	-0.005	-0.276
-561.529	-130.914	-0.255	-0.034
-560.515	800.000	0.084	0.265
-559.500	359.030	0.103	0.204
-558.485	651.657	0.072	0.184
-557.471	-11.838	-0.323	0.210
-556.456	-66.848	-0.230	-0.090
-555.442	668.145	-0.027	-0.069
-554.427	432.766	0.181	0.389
-553.412	43.827	-0.135	0.122
-552.398	-130.529	-0.185	0.025
-551.383	800.000	0.056	-0.167
-550.369	179.568	-0.089	0.129
-549.354	-200.000	-0.029	-0.284
-548.339	113.339	0.189	0.228
-547.325	-37.361	-0.078	0.041
-546.310	366.632	-0.152	-0.305
-545.296	800.000	-0.069	-0.218
-544.281	316.898	0.188	0.352
-543.266	800.000	-0.017	0.053
-542.252	-139.731	-0.138	-0.015
-541.237	418.194	-0.109	-0.231
-540.223	-200.000	-0.026	0.138
-539.208	28.665	-0.074	-0.063
-538.193	416.939	-0.144	0.304
-537.179	2.431	0.378	0.271
-536.164	-137.242	-0.177	-0.020
-535.150	-97.303	0.130	-0.034
-534.135	189.016	-0.169	0.252
-533.121	-200.000	0.004	0.162
-532.106	512.676	0.140	-0.324
-531.091	-129.791	-0.367	-0.050
-530.077	800.000	-0.191	-0.554
-529.062	175.907	-0.137	-0.198
-528.048	172.564	-0.055	-0.079
-527.033	111.688	0.208	-0.249
-526.018	-34.204	0.161	0.088
-525.004	-115.477	0.327	0.061
-523.989	-155.092	0.151	-0.010
-522.975	660.057	0.098	-0.250
-521.960	-140.141	0.100	0.010
-520.945	-185.978	-0.169	-0.002
-519.931	-200.000	0.002	-0.071
-518.916	-200.000	-0.020	0.192
-517.902	800.000	0.020	0.058
-516.887	-53.809	-0.228	0.103
-515.872	-200.000	0.045	0.230
-514.858	448.273	-0.147	-0.321
-513.843	-28.014	-0.194	-0.112
-512.829	-2.663	0.092	-0.064
-511.814	101.591	0.119	-0.137
-510.799	-41.983	-0.342	-0.173
-509.785	7.362	0.076	0.056
-508.770	419.684	-0.015	0.031
-507.756	35.445	-0.210	0.183
-506.741	-172.513	-0.334	-0.010
-505.726	800.000	0.051	-0.176
-504.712	657.165	0.091	-0.232
-503.697	83.009	0.085	0.091
-502.683	-65.323	0.078	0.031
-501.668	63.641	0.128	-0.127
-500.653	384.688	0.117	-0.238
-499.639	-117.565	-0.207	-0.037
-498.624	-147.788	0.248	0.021
-497.610	49.057	0.063	-0.059
-496.595	-65.038	-0.232	0.093
-495.581	-86.786	0.329	-0.099
-494.566	181.415	0.130	-0.190
-493.551	630.794	0.084	0.210
-492.537	-152.016	0.208	0.015
-491.522	-101.113	0.233	0.057
-490.508	800.000	0.014	0.053
-489.493	-200.000	-0.012	-0.121
-488.478	158.939	0.016	0.023
-487.464	-175.031	-0.097	0.003
-486.449	30.756	-0.115	0.097
-485.435	-81.600	0.199	-0.065
-484.420	-200.000	-0.002	-0.161
-483.405	-26.496	-0.400	0.232
-482.391	-45.692	0.315	0.154
-481.376	78.239	-0.118	0.125
-480.362	-200.000	-0.026	0.124
-479.347	-31.991	0.174	0.096
-478.332	419.740	0.119	0.252
-477.318	-48.220	0.125	-0.059
-476.303	-186.075	0.150	-0.002
-475.289	-91.881	-0.316	0.089
-474.274	-200.000	0.026	0.222
-473.259	800.000	0.016	-0.047
-472.245	-3.844	-0.187	0.129
-471.230	-93.111	-0.117	0.032
-470.216	74.101	0.139	-0.145
-469.201	100.701	-0.232	0.267
-468.186	-101.650	-0.140	-0.034
-467.172	-200.000	0.059	-0.338
-466.157	-200.000	-0.014	0.072
-465.143	14.608	-0.147	-0.113
-464.128	-81.067	-0.229	-0.075
-463.113	-200.000	-0.021	-0.263
-462.099	-178.513	-0.283	-0.006
-461.084	114.465	-0.037	-0.044
-460.070	-107.603	0.269	-0.058
-459.055	82.447	0.167	-0.179
-458.040	76.681	-0.123	-0.129
-457.026	600.625	0.044	-0.109
-456.011	-139.336	-0.199	0.021
-454.997	109.332	-0.143	0.169
-453.982	-200.000	0.014	-0.212
-452.968	174.368	-0.141	0.201
-451.953	364.942	-0.086	-0.172
-450.938	59.005	-0.321	0.312
-449.924	14.302	0.195	-0.150
-448.909	800.000	-0.115	0.317
-447.895	110.736	-0.207	0.247
-446.880	-47.090	0.431	0.208
-445.865	-200.000	-0.029	0.192
-444.851	-72.814	0.090	0.033
-443.836	800.000	-0.108	-0.347
-442.822	78.891	-0.077	-0.081
-441.807	-12.075	0.188	0.122
-440.792	-116.892	0.228	0.041
-439.778	-114.164	-0.175	0.033
-438.763	-66.203	0.503	0.198
-437.749	291.068	-0.158	0.284
-436.734	233.314	-0.033	-0.054
-435.719	9.630	0.099	0.074
-434.705	143.486	0.157	0.206
-433.690	800.000	-0.073	-0.215
-432.676	-158.458	-0.495	-0.028
-431.661	239.189	0.135	-0.222
-430.646	-200.000	0.037	0.268
-429.632	23.444	0.355	0.288
-428.617	-35.409	-0.393	-0.211
-427.603	-30.415	0.281	0.157
-426.588	-133.786	-0.245	0.030
-425.573	582.602	-0.038	-0.093
-424.559	18.380	-0.199	-0.157
-423.544	-119.828	0.148	-0.025
-422.530	407.003	-0.209	-0.435
-421.515	-200.000	-0.007	0.054
-420.500	125.249	0.189	-0.235
-419.486	-200.000	0.035	0.207
-418.471	-98.796	0.063	-0.016
-417.457	-178.047	0.154	0.004
-416.442	92.116	-0.066	-0.073
-415.428	311.031	0.051	-0.095
-414.413	-41.998	-0.273	0.138
-413.398	-20.504	0.131	0.080
-412.384	359.442	0.076	0.149
-411.369	-29.987	-0.216	0.122
-410.355	-69.656	0.220	0.083
-409.340	628.923	0.046	-0.115
-408.325	-146.621	0.164	-0.014
-407.311	800.000	-0.089	0.257
-406.296	800.000	0.108	-0.309
-405.282	800.000	-0.085	-0.242
-404.267	-108.569	0.399	0.085
-403.252	247.549	0.093	0.154
-402.238	120.514	-0.157	0.192
-401.223	-133.189	0.340	0.042
-400.209	12.119	0.139	0.105
-399.194	-41.497	0.085	-0.043
-398.179	103.542	0.101	-0.117
-397.165	-173.591	-0.124	-0.004
-396.150	-50.289	-0.238	-0.111
-395.136	129.384	-0.228	-0.287
-394.121	88.900	-0.068	-0.075
-393.106	2.144	-0.114	0.081
-392.092	-8.057	-0.242	-0.161
-391.077	51.474	0.074	0.069
-390.063	-200.000	0.016	0.200
-389.048	-200.000	0.014	-0.144
-388.033	27.913	0.197	-0.163
-387.019	-200.000	0.028	-0.165
-386.004	45.249	0.186	-0.169
-384.990	-200.000	0.070	-0.315
-383.975	-90.734	-0.188	0.054
-382.960	198.153	0.025	0.038
-381.946	-16.166	0.035	0.022
-380.931	373.683	-0.086	-0.173
-379.917	-200.000	-0.007	0.037
-378.902	-68.770	0.108	-0.041
-377.888	800.000	0.143	0.428
-376.873	-78.297	-0.315	-0.106
-375.858	800.000	-0.102	0.324
-374.844	-122.942	-0.094	-0.015
-373.829	-200.000	0.016	0.240
-372.815	659.483	0.003	-0.008
-371.800	-28.024	0.176	0.100
-370.785	351.886	-0.114	0.223
-369.771	-128.768	0.161	0.022
-368.756	-8.072	0.291	-0.193
-367.742	-104.341	0.189	0.043
-366.727	800.000	-0.066	0.240
-365.712	267.964	0.144	0.249
-364.698	-200.000	0.023	0.259
-363.683	-168.474	-0.118	0.004
-362.669	-137.209	-0.201	-0.022
-361.654	130.221	0.254	-0.320
-360.639	-200.000	0.013	-0.114
-359.625	-16.885	0.174	-0.108
-358.610	-197.896	0.285	0.002
-357.596	-149.251	0.130	-0.010
-356.581	-29.494	0.162	-0.091
-355.566	-125.917	-0.137	-0.020
-354.552	-1.387	-0.123	0.086
-353.537	800.000	-0.022	0.078
-352.523	-117.125	0.276	0.049
-351.508	234.461	0.120	-0.195
-350.493	-200.000	0.007	0.126
-349.479	457.584	-0.039	-0.086
-348.464	-200.000	0.023	0.320
-347.450	-200.000	-0.076	-0.353
-346.435	153.294	0.114	-0.153
-345.420	-182.395	-0.220	-0.004
-344.406	-21.317	-0.088	-0.053
-343.391	-196.483	-0.110	-0.001
-342.377	-109.129	-0.305	-0.064
-341.362	800.000	-0.026	-0.093
-340.348	24.582	0.140	-0.114
-339.333	-20.639	0.187	0.113
-338.318	-200.000	-0.006	0.162
-337.304	-200.000	0.085	0.376
-336.289	-46.290	-0.110	-0.053
-335.275	-96.769	0.283	0.073
-334.260	-31.332	-0.214	0.119
-333.245	-10.372	0.296	-0.193
-332.231	-157.892	0.323	-0.019
-331.216	335.422	-0.054	-0.102
-330.202	-200.000	0.051	-0.316
-329.187	32.993	-0.176	-0.150
-328.172	-200.000	-0.008	0.107
-327.158	171.128	-0.061	0.086
-326.143	-17.315	0.173	-0.107
-325.129	-200.000	-0.012	-0.162
-324.114	440.070	-0.159	-0.342
-323.099	800.000	0.074	-0.312
-322.085	52.889	-0.294	-0.276
-321.070	231.221	0.281	0.453
-320.056	-62.393	0.275	0.112
-319.041	367.266	0.157	-0.312
-318.026	-126.686	-0.336	0.049
-317.012	-96.454	0.179	0.047
-315.997	-161.749	0.418	0.021
-314.983	-80.756	-0.134	0.044
-313.968	261.846	-0.149	0.253
-312.953	-200.000	0.002	0.168
-311.939	-160.856	-0.375	0.019
-310.924	-23.471	0.162	0.096
-309.910	189.315	-0.186	0.274
-308.895	-46.287	-0.219	-0.106
-307.880	800.000	-0.040	0.157
-306.866	126.447	0.140	0.174
-305.851	-16.341	-0.225	0.140
-304.837	17.527	-0.269	0.210
-303.822	-17.478	0.283	0.175
-302.807	-63.253	0.138	0.056
-301.793	-143.343	0.305	-0.029
-300.778	24.109	-0.095	0.077
-299.764	50.246	-0.031	0.029
-298.749	5.283	0.146	-0.106
-297.735	800.000	-0.023	-0.074
-296.720	473.344	0.114	0.253
-295.705	120.003	-0.092	0.113
-294.691	-200.000	-0.024	0.463
-293.676	-200.000	-0.020	-0.111
-292.662	-59.323	0.155	0.066
-291.647	800.000	-0.115	0.480
-290.632	-127.939	-0.137	0.019
-289.618	-185.136	-0.287	-0.004
-288.603	800.000	0.046	0.134
-287.589	-7.457	0.173	-0.115
-286.574	800.000	-0.105	-0.348
-285.559	95.977	0.157	-0.176
-284.545	696.038	-0.129	-0.333
-283.530	-5.268	0.105	-0.071
-282.516	-12.544	-0.177	0.113
-281.501	-74.956	0.321	-0.113
-280.486	-22.587	-0.165	-0.098
-279.472	-66.521	0.284	0.111
-278.457	800.000	-0.072	0.278
-277.443	151.992	0.199	0.266
-276.428	54.703	0.242	0.229
-275.413	-200.000	-0.038	0.334
-274.399	-200.000	-0.061	0.302
-273.384	800.000	0.072	-0.209
-272.370	-200.000	0.052	-0.312
-271.355	-187.390	0.120	-0.002
-270.340	515.257	-0.074	0.170
-269.326	-76.426	-0.183	0.063
-268.311	456.465	-0.066	-0.144
-267.297	112.898	0.100	0.119
-266.282	800.000	-0.107	-0.328
-265.267	340.884	0.151	0.289
-264.253	-200.000	-0.018	0.302
-263.238	78.792	-0.088	-0.092
-262.224	-100.557	-0.284	-0.069
-261.209	232.010	0.079	0.127
-260.195	-200.000	0.012	-0.173
-259.180	4.517	-0.265	-0.191
-258.165	-37.731	-0.083	0.043
-257.151	800.000	0.083	-0.260
-256.136	800.000	-0.054	0.167
-255.122	101.880	-0.085	0.098
-254.107	800.000	-0.120	-0.343
-253.092	800.000	-0.091	0.257
-252.078	-23.148	-0.268	0.158
-251.063	-5.448	0.178	0.120
-250.049	-200.000	-0.034	-0.245
-249.034	-85.859	-0.333	-0.101
-248.019	140.224	-0.093	0.120
-247.005	-28.258	-0.094	-0.053
-245.990	-146.312	0.033	0.003
-244.976	-200.000	-0.330	0.001
-243.961	-48.095	0.227	0.108
-242.946	-200.000	0.010	0.370
-241.932	14.569	0.123	0.094
-240.917	-117.615	-0.095	-0.017
-239.903	-157.999	0.313	0.018
-238.888	767.257	-0.056	-0.150
-237.873	621.685	0.051	-0.126
-236.859	-200.000	0.033	-0.183
-235.844	12.195	0.143	-0.108
-234.830	32.746	-0.093	0.079
-233.815	800.000	-0.058	-0.222
-232.800	-108.897	-0.230	0.048
-231.786	-121.413	0.256	0.042
-230.771	-55.804	-0.084	0.037
-229.757	66.713	0.037	0.037
-228.742	-99.370	0.261	-0.064
-227.727	-129.039	0.103	0.014
-226.713	800.000	-0.073	-0.201
-225.698	490.872	0.077	-0.173
-224.684	-61.394	0.168	-0.069
-223.669	-51.530	-0.220	0.100
-222.655	-86.697	0.156	0.047
-221.640	-26.883	0.083	0.048
-220.625	-200.000	-0.040	-0.233
-219.611	-5.231	0.149	-0.100
-218.596	-149.271	-0.215	0.017
-217.582	-200.000	0.015	0.157
-216.567	283.118	0.245	0.431
-215.552	-38.140	-0.250	-0.130
-214.538	17.477	-0.165	-0.128
-213.523	-200.000	-0.058	-0.339
-212.509	-123.331	-0.343	0.054
-211.494	-56.259	-0.090	-0.039
-210.479	-126.661	-0.250	0.036
-209.465	71.543	0.099	0.101
-208.450	397.635	0.041	-0.084
-207.436	800.000	0.043	-0.154
-206.421	-200.000	0.016	-0.220
-205.406	113.560	-0.138	0.164
-204.392	-34.930	0.177	0.095
-203.377	203.308	0.267	-0.404
-202.363	-136.633	-0.247	0.028
-201.348	-150.433	-0.171	-0.013
-200.333	-20.359	0.090	-0.054
-199.319	-200.000	-0.036	-0.219
-198.304	216.027	-0.243	0.377
-197.290	-51.584	-0.141	-0.064
-196.275	19.339	0.187	-0.147
-195.260	-200.000	0.007	-0.070
-194.246	-52.311	0.084	0.038
-193.231	-161.843	-0.206	-0.010
-192.217	-9.694	0.219	-0.143
-191.202	800.000	-0.030	-0.128
-190.187	-165.268	-0.228	0.010
-189.173	-136.430	0.282	-0.032
-188.158	800.000	0.084	0.302
-187.144	-100.838	-0.187	0.045
-186.129	-57.586	-0.124	-0.053
-185.114	762.042	-0.168	0.445
-184.100	-200.000	-0.004	-0.260
-183.085	277.366	0.128	0.222
-182.071	-57.701	0.213	0.091
-181.056	-200.000	0.008	0.129
-180.042	-200.000	0.024	-0.119
-179.027	-73.478	-0.159	0.057
-178.012	83.577	0.101	-0.107
-176.998	46.914	0.133	0.121
-175.983	27.712	-0.142	-0.117
-174.969	-200.000	-0.000	-0.099
-173.954	800.000	0.059	0.172
-172.939	3.630	-0.290	-0.207
-171.925	-24.255	0.216	-0.126
-170.910	21.098	0.143	-0.113
-169.896	207.330	-0.163	0.249
-168.881	-200.000	-0.004	0.046
-167.866	-44.370	-0.092	-0.045
-166.852	-76.040	-0.106	0.036
-165.837	391.371	0.079	0.161
-164.823	-146.573	-0.085	-0.007
-163.808	-84.221	0.312	0.097
-162.793	-65.240	0.025	0.010
-161.779	-25.868	-0.168	0.097
-160.764	-139.304	0.069	-0.007
-159.750	543.001	-0.060	0.139
-158.735	-200.000	-0.010	-0.244
-157.720	-19.960	0.089	0.054
-156.706	800.000	-0.060	-0.219
-155.691	-200.000	0.111	-0.503
-154.677	-135.892	-0.187	-0.021
-153.662	-150.703	0.154	0.011
-152.647	48.606	0.314	-0.288
-151.633	547.059	-0.100	-0.233
-150.618	-200.000	-0.042	0.326
-149.604	56.746	-0.190	-0.180
-148.589	432.544	0.080	-0.171
-147.574	523.869	-0.096	-0.220
-146.560	425.288	0.123	0.259
-145.545	-65.898	0.185	0.072
-144.531	-138.783	0.297	0.032
-143.516	8.426	0.148	-0.108
-142.502	-200.000	-0.035	-0.182
-141.487	491.511	-0.127	0.284
-140.472	118.051	-0.256	-0.309
-139.458	67.211	-0.225	-0.224
-138.443	-147.055	-0.350	0.029
-137.429	-101.699	0.222	-0.052
-136.414	-134.475	-0.307	0.037
-135.399	75.099	0.164	-0.168
-134.385	37.978	0.058	-0.051
-133.370	233.795	-0.051	-0.082
-132.356	494.983	-0.078	-0.174
-131.341	800.000	0.057	-0.203
-130.326	45.179	-0.030	-0.027
-129.312	-105.131	0.202	0.045
-128.297	-200.000	0.009	-0.088
-127.283	-200.000	-0.193	-0.000
-126.268	-79.231	-0.104	0.034
-125.253	159.877	0.233	-0.316
-124.239	-150.187	-0.161	-0.012
-123.224	-151.409	-0.183	-0.013
-122.210	313.676	0.066	0.122
