DTS Sentinel unit serial number:	SN413079Multiplexer serial number:	ORYXHardware model number:	OX4-SRSoftware version number:	ORYX F/W v4.00 Oryx Data Collector v3.7.2.0data status	okinstallation	princeton_trtdifferential loss correction	single-endedforward channel	channel 3reverse channel	N/Adate	2019/09/16time	16:48:34forward acquisition time	60.00reverse acquisition time	0.00gamma	496.2192k internal	0.2295k external	0.2295temperature offset calibration	0.9942default loss term (dB/km)	0.3790temperature slope calibration	1.0000multiplexer offset coefficient	1.0000multiplexer slope coefficient	1.0000fibre end	0.00T internal ref (°C)	39.62T ext. ref 1 (°C)	15.20T ext. ref 2 (°C)	33.85length (m)	temperature (°C)	Stokes	anti-Stokes-747.200	17.314	-0.242	-0.197
-746.185	-200.000	-0.003	0.422
-745.171	-40.616	0.288	0.153
-744.156	476.552	0.112	0.259
-743.142	54.278	0.173	0.171
-742.127	-90.250	-0.133	-0.039
-741.112	800.000	0.044	0.154
-740.098	-22.938	-0.167	0.103
-739.083	515.022	0.066	-0.157
-738.069	327.454	-0.125	0.246
-737.054	60.889	0.145	-0.147
-736.039	353.682	-0.042	0.085
-735.025	-89.433	0.143	-0.043
-734.010	235.717	0.133	0.224
-732.996	-200.000	0.034	0.337
-731.981	-58.553	0.239	0.106
-730.966	-82.447	0.304	-0.101
-729.952	-80.722	0.121	-0.041
-728.937	-19.751	0.375	-0.237
-727.923	374.411	-0.156	-0.325
-726.908	144.302	0.066	-0.090
-725.894	-200.000	-0.019	-0.492
-724.879	338.199	0.206	-0.410
-723.864	-200.000	0.039	-0.204
-722.850	-117.398	-0.203	0.038
-721.835	-44.053	0.190	-0.097
-720.821	-64.369	0.194	-0.080
-719.806	-55.635	-0.227	0.104
-718.791	366.646	0.160	-0.329
-717.777	139.706	0.065	0.087
-716.762	153.665	0.067	0.094
-715.748	310.602	-0.101	-0.192
-714.733	-200.000	-0.043	0.202
-713.718	146.750	0.110	0.151
-712.704	74.453	0.206	-0.221
-711.689	-200.000	0.003	-0.180
-710.675	-97.480	0.096	-0.025
-709.660	608.045	0.130	-0.330
-708.645	-200.000	0.013	-0.204
-707.631	644.838	-0.023	0.059
-706.616	-60.551	-0.212	0.092
-705.602	-139.809	0.030	0.003
-704.587	-16.916	-0.234	0.151
-703.572	89.317	0.146	-0.166
-702.558	-94.485	0.210	0.058
-701.543	525.204	0.044	0.106
-700.529	-200.000	-0.005	-0.305
-699.514	-164.780	-0.248	0.011
-698.499	-66.743	-0.419	0.169
-697.485	0.544	-0.085	-0.062
-696.470	667.854	-0.117	0.308
-695.456	-41.477	0.160	0.084
-694.441	-109.737	0.118	-0.025
-693.426	-200.000	-0.022	-0.133
-692.412	-142.277	-0.178	0.018
-691.397	19.841	0.064	0.053
-690.383	-200.000	0.042	0.439
-689.368	-123.079	-0.400	-0.065
-688.354	800.000	-0.122	-0.358
-687.339	-122.339	-0.166	0.028
-686.324	-85.204	0.213	-0.068
-685.310	-29.885	0.328	0.191
-684.295	-99.437	-0.384	-0.099
-683.281	773.550	0.022	0.061
-682.266	565.295	0.076	-0.188
-681.251	-19.564	0.131	-0.083
-680.237	-43.722	-0.192	0.099
-679.222	-100.796	-0.357	-0.090
-678.208	-104.624	-0.117	-0.027
-677.193	347.506	0.109	-0.219
-676.178	-73.812	0.410	0.152
-675.164	-200.000	0.014	-0.226
-674.149	-4.076	0.148	-0.104
-673.135	-87.341	-0.094	0.029
-672.120	-122.370	0.175	-0.029
-671.105	-110.749	-0.283	0.059
-670.091	800.000	-0.104	-0.304
-669.076	-90.119	-0.309	0.092
-668.062	-109.705	-0.288	-0.062
-667.047	-121.089	-0.130	-0.022
-666.032	21.608	-0.137	-0.114
-665.018	-126.553	-0.345	-0.052
-664.003	-47.479	0.274	-0.136
-662.989	499.689	-0.026	0.061
-661.974	-59.732	0.277	0.121
-660.959	200.869	0.214	0.335
-659.945	73.558	0.187	0.199
-658.930	800.000	0.074	0.279
-657.916	-36.073	-0.135	-0.074
-656.901	800.000	0.064	0.273
-655.886	0.548	0.287	-0.209
-654.872	-92.229	0.390	-0.112
-653.857	800.000	-0.048	0.213
-652.843	114.503	-0.072	-0.089
-651.828	-65.649	0.017	-0.007
-650.814	-78.280	0.207	0.073
-649.799	-200.000	-0.010	0.123
-648.784	105.411	0.122	-0.147
-647.770	-76.721	0.130	-0.046
-646.755	-58.860	0.338	0.149
-645.741	-166.948	-0.096	-0.004
-644.726	-1.354	0.281	0.202
-643.711	114.247	0.165	0.205
-642.697	455.578	0.103	-0.233
-641.682	15.035	-0.286	-0.228
-640.668	536.340	0.081	-0.195
-639.653	-200.000	-0.003	0.088
-638.638	800.000	0.020	0.073
-637.624	134.932	-0.071	0.094
-636.609	800.000	0.104	-0.408
-635.595	78.708	0.111	-0.121
-634.580	277.406	0.085	-0.155
-633.565	-200.000	-0.068	0.320
-632.551	417.938	-0.078	0.170
-631.536	800.000	-0.073	-0.228
-630.522	27.595	-0.167	-0.143
-629.507	282.798	0.055	-0.100
-628.492	-72.477	0.099	0.037
-627.478	-97.637	-0.075	-0.020
-626.463	800.000	-0.075	-0.313
-625.449	-200.000	-0.021	-0.409
-624.434	-32.272	-0.374	0.213
-623.419	-94.319	0.153	-0.043
-622.405	159.504	0.103	0.146
-621.390	-200.000	-0.009	-0.062
-620.376	-42.343	0.115	0.059
-619.361	62.611	0.074	-0.075
-618.346	446.115	-0.094	0.210
-617.332	107.808	-0.107	-0.129
-616.317	415.536	0.070	-0.151
-615.303	112.072	-0.096	-0.119
-614.288	-200.000	0.004	-0.052
-613.273	-135.738	0.299	0.036
-612.259	-23.632	0.208	0.127
-611.244	-169.876	-0.284	0.010
-610.230	117.954	0.194	-0.243
-609.215	580.679	-0.044	-0.109
-608.201	44.877	-0.053	0.050
-607.186	182.767	-0.287	-0.430
-606.171	800.000	0.040	-0.169
-605.157	82.779	0.046	0.050
-604.142	-200.000	-0.020	-0.273
-603.128	317.229	-0.083	0.159
-602.113	171.193	-0.093	0.136
-601.098	592.583	0.031	-0.077
-600.084	192.955	0.091	-0.140
-599.069	-176.494	-0.243	0.006
-598.055	-165.392	0.206	0.009
-597.040	-1.661	0.075	0.053
-596.025	-104.444	-0.344	-0.081
-595.011	276.719	-0.088	0.159
-593.996	-59.429	0.183	0.080
-592.982	181.837	-0.016	0.024
-591.967	-29.649	0.136	0.079
-590.952	-200.000	0.003	-0.065
-589.938	-6.186	-0.009	0.006
-588.923	800.000	-0.070	0.243
-587.909	413.813	-0.136	-0.294
-586.894	800.000	-0.016	0.068
-585.879	-71.509	-0.133	-0.051
-584.865	-165.008	-0.334	0.015
-583.850	-6.975	0.120	0.083
-582.836	-200.000	-0.035	0.182
-581.821	49.978	0.242	0.232
-580.806	-200.000	0.062	-0.392
-579.792	-75.984	0.288	0.103
-578.777	189.979	-0.140	-0.214
-577.763	-17.088	-0.081	0.052
-576.748	663.554	-0.063	-0.164
-575.733	-16.229	-0.167	-0.107
-574.719	1.285	0.224	-0.163
-573.704	-200.000	0.033	0.173
-572.690	-49.653	0.051	-0.024
-571.675	-200.000	-0.007	0.284
-570.661	-126.546	-0.232	-0.035
-569.646	-109.823	0.276	-0.059
-568.631	800.000	-0.011	-0.037
-567.617	-200.000	-0.017	-0.308
-566.602	116.046	-0.065	0.080
-565.588	-106.730	-0.529	-0.119
-564.573	480.876	0.150	-0.345
-563.558	-102.107	-0.288	-0.070
-562.544	26.729	-0.338	0.287
-561.529	209.258	0.099	0.157
-560.515	-63.920	-0.133	0.055
-559.500	75.947	0.083	0.089
-558.485	-186.175	-0.029	0.000
-557.471	181.284	0.124	0.185
-556.456	-100.752	0.130	0.032
-555.442	800.000	0.104	-0.335
-554.427	800.000	0.051	0.221
-553.412	-120.169	-0.262	-0.045
-552.398	-121.321	0.161	-0.027
-551.383	-200.000	0.009	-0.205
-550.369	-200.000	-0.014	-0.124
-549.354	620.452	0.164	-0.417
-548.339	229.632	0.075	-0.125
-547.325	800.000	0.052	0.174
-546.310	-200.000	-0.023	-0.140
-545.296	-141.285	0.043	-0.004
-544.281	-200.000	-0.023	-0.114
-543.266	-194.917	0.301	0.002
-542.252	80.035	0.045	-0.049
-541.237	-144.217	0.395	-0.037
-540.223	-66.272	-0.067	0.027
-539.208	131.420	-0.170	-0.222
-538.193	-200.000	-0.014	-0.146
-537.179	800.000	-0.070	0.242
-536.164	20.697	-0.115	0.095
-535.150	-47.553	0.326	0.160
-534.135	800.000	-0.071	-0.203
-533.121	-200.000	0.055	0.465
-532.106	334.276	0.021	-0.042
-531.091	159.110	-0.113	0.160
-530.077	-13.334	-0.023	-0.015
-529.062	89.003	0.154	-0.174
-528.048	-200.000	0.031	0.172
-527.033	-200.000	-0.003	0.105
-526.018	-143.988	0.050	-0.005
-525.004	-200.000	0.056	-0.271
-523.989	-200.000	0.004	0.173
-522.975	235.143	0.182	-0.304
-521.960	-164.357	0.240	0.011
-520.945	203.620	0.086	-0.135
-519.931	-153.307	-0.222	0.016
-518.916	355.140	0.088	-0.176
-517.902	192.851	0.104	0.158
-516.887	-29.453	-0.249	0.144
-515.872	653.675	0.068	0.176
-514.858	238.998	-0.131	0.221
-513.843	472.661	-0.061	0.140
-512.829	-22.038	0.280	-0.172
-511.814	-112.400	-0.154	0.031
-510.799	-200.000	-0.001	-0.172
-509.785	-89.887	0.466	0.138
-508.770	272.195	0.092	-0.164
-507.756	-200.000	0.137	-0.651
-506.741	99.018	-0.074	0.087
-505.726	-34.558	0.241	0.134
-504.712	-200.000	-0.098	0.515
-503.697	-40.284	0.018	-0.009
-502.683	78.306	-0.105	-0.113
-501.668	-200.000	0.044	-0.388
-500.653	-200.000	0.065	-0.360
-499.639	800.000	0.043	0.168
-498.624	-45.917	0.058	0.029
-497.610	160.342	-0.104	0.147
-496.595	-51.682	0.120	0.057
-495.581	800.000	-0.033	-0.099
-494.566	-3.572	0.180	-0.127
-493.551	-140.182	-0.166	-0.018
-492.537	-107.789	-0.037	-0.008
-491.522	115.642	-0.073	0.090
-490.508	79.843	-0.060	-0.065
-489.493	-200.000	-0.059	0.319
-488.478	370.184	-0.098	0.200
-487.464	727.355	-0.108	0.291
-486.449	800.000	-0.052	-0.218
-485.435	-89.676	-0.061	-0.018
-484.420	59.692	-0.089	0.089
-483.405	45.820	0.253	0.237
-482.391	-97.213	0.164	0.043
-481.376	800.000	0.077	-0.219
-480.362	184.005	0.077	-0.116
-479.347	299.960	-0.043	-0.081
-478.332	-134.726	-0.172	0.021
-477.318	-62.312	0.349	-0.147
-476.303	-130.463	-0.335	-0.046
-475.289	45.481	-0.034	0.032
-474.274	-74.168	-0.361	0.132
-473.259	-200.000	0.002	-0.179
-472.245	91.339	-0.300	-0.341
-471.230	-20.226	0.100	-0.062
-470.216	-20.633	0.213	0.132
-469.201	-100.220	0.302	0.076
-468.186	240.189	0.164	0.276
-467.172	800.000	-0.098	0.390
-466.157	-200.000	-0.029	-0.170
-465.143	435.353	0.145	-0.319
-464.128	74.696	0.204	0.217
-463.113	-87.087	0.261	-0.080
-462.099	-130.639	0.083	0.011
-461.084	34.601	0.132	-0.116
-460.070	800.000	-0.097	0.283
-459.055	213.288	0.072	-0.115
-458.040	-200.000	0.001	0.240
-457.026	-200.000	-0.050	0.418
-456.011	-83.659	-0.490	0.158
-454.997	617.496	0.062	-0.156
-453.982	-200.000	-0.050	0.355
-452.968	123.155	0.046	0.059
-451.953	-70.013	0.141	0.054
-450.938	69.311	-0.171	0.178
-449.924	24.976	-0.054	-0.045
-448.909	241.531	0.035	0.058
-447.895	158.507	0.025	-0.035
-446.880	9.784	-0.415	-0.318
-445.865	-104.053	-0.390	0.092
-444.851	-200.000	0.033	-0.239
-443.836	-118.340	-0.180	-0.032
-442.822	-58.606	-0.379	0.166
-441.807	-101.617	0.272	0.067
-440.792	93.496	0.321	-0.367
-439.778	-43.077	-0.221	0.113
-438.763	105.651	0.160	0.191
-437.749	-117.232	0.259	-0.047
-436.734	73.387	0.434	-0.458
-435.719	-188.326	-0.141	-0.002
-434.705	-112.496	0.185	0.037
-433.690	98.069	-0.217	0.252
-432.676	-44.036	-0.183	-0.093
-431.661	733.805	-0.037	-0.101
-430.646	800.000	-0.030	0.096
-429.632	-146.470	0.204	0.018
-428.617	-200.000	0.037	-0.233
-427.603	114.636	0.111	0.137
-426.588	-200.000	0.051	0.456
-425.573	-168.459	0.161	0.006
-424.559	-200.000	-0.014	0.097
-423.544	305.862	0.031	0.057
-422.530	191.850	-0.085	-0.129
-421.515	-156.028	0.098	-0.006
-420.500	295.635	0.183	0.339
-419.486	800.000	0.008	-0.024
-418.471	-37.043	-0.125	0.068
-417.457	68.257	-0.231	-0.238
-416.442	130.469	0.131	-0.170
-415.428	7.792	-0.156	0.118
-414.413	800.000	-0.073	0.207
-413.398	145.192	0.245	-0.330
-412.384	800.000	-0.036	0.135
-411.369	27.807	0.153	0.130
-410.355	486.510	-0.128	-0.294
-409.340	-113.149	-0.092	0.018
-408.325	-45.845	0.195	0.097
-407.311	-18.106	-0.308	-0.195
-406.296	-121.945	-0.217	-0.036
-405.282	97.562	0.196	0.227
-404.267	-146.547	-0.387	-0.034
-403.252	386.534	0.104	-0.216
-402.238	-200.000	0.003	-0.365
-401.223	-98.694	-0.240	-0.062
-400.209	-81.115	0.330	0.110
-399.194	141.398	-0.034	0.045
-398.179	-20.356	-0.339	0.211
-397.165	-144.483	-0.248	0.023
-396.150	15.755	0.181	-0.144
-395.136	800.000	0.023	0.082
-394.121	37.383	-0.173	-0.155
-393.106	-132.442	0.242	-0.031
-392.092	-109.764	0.171	0.036
-391.077	265.835	0.162	0.284
-390.063	-107.856	-0.365	0.080
-389.048	91.281	-0.090	-0.102
-388.033	272.583	-0.094	0.168
-387.019	24.751	0.097	-0.081
-386.004	-19.510	-0.104	0.065
-384.990	-18.010	0.175	0.111
-383.975	-200.000	0.030	-0.319
-382.960	119.823	-0.126	0.158
-381.946	284.270	0.133	-0.241
-380.931	263.680	-0.080	-0.140
-379.917	-40.820	0.172	0.090
-378.902	-165.384	-0.195	-0.009
-377.888	-200.000	-0.049	0.273
-376.873	62.936	-0.087	0.088
-375.858	28.671	-0.142	0.121
-374.844	103.973	0.030	0.036
-373.829	127.056	-0.172	0.220
-372.815	-200.000	0.052	-0.314
-371.800	12.853	-0.260	0.202
-370.785	-67.052	-0.201	-0.080
-369.771	800.000	-0.005	-0.018
-368.756	379.570	0.138	-0.284
-367.742	45.563	0.108	-0.100
-366.727	-81.629	-0.158	0.052
-365.712	-89.962	0.064	0.019
-364.698	800.000	-0.019	0.074
-363.683	217.720	-0.134	-0.216
-362.669	52.389	-0.133	0.128
-361.654	495.615	0.052	0.120
-360.639	-79.633	-0.265	0.090
-359.625	20.332	0.072	0.059
-358.610	-200.000	0.020	0.151
-357.596	-130.118	0.094	0.013
-356.581	-200.000	0.031	-0.179
-355.566	46.016	0.069	0.065
-354.552	453.088	-0.084	0.188
-353.537	133.122	0.155	0.201
-352.523	-118.753	-0.075	0.013
-351.508	-200.000	-0.041	-0.243
-350.493	87.272	0.210	0.233
-349.479	-84.543	0.257	0.082
-348.464	800.000	0.051	-0.153
-347.450	-200.000	0.008	0.035
-346.435	-1.419	-0.379	-0.269
-345.420	181.704	0.051	-0.076
-344.406	326.615	0.107	0.207
-343.391	-200.000	0.028	0.199
-342.377	-3.535	-0.428	0.299
-341.362	372.977	0.136	-0.278
-340.348	800.000	-0.090	-0.361
-339.333	42.454	0.040	-0.036
-338.318	311.416	0.047	0.089
-337.304	-124.834	0.238	-0.037
-336.289	-200.000	-0.018	-0.113
-335.275	124.113	0.131	0.165
-334.260	-57.757	0.200	0.088
-333.245	-165.853	-0.059	-0.003
-332.231	800.000	0.076	-0.274
-331.216	-134.103	-0.257	-0.032
-330.202	-155.900	-0.469	-0.030
-329.187	545.717	0.104	0.250
-328.172	-200.000	0.000	-0.176
-327.158	-157.908	0.342	0.020
-326.143	94.551	-0.051	-0.058
-325.129	-5.653	-0.143	0.099
-324.114	-59.633	0.182	-0.079
-323.099	109.650	-0.123	-0.148
-322.085	23.779	-0.234	-0.194
-321.070	53.898	-0.259	-0.250
-320.056	345.598	-0.090	0.177
-319.041	187.586	0.157	0.235
-318.026	113.353	0.206	0.251
-317.012	-200.000	0.027	0.340
-315.997	391.723	0.027	-0.056
-314.983	66.847	-0.349	-0.358
-313.968	186.923	-0.203	-0.304
-312.953	-0.780	-0.217	-0.155
-311.939	-3.004	-0.250	-0.176
-310.924	32.260	-0.094	0.082
-309.910	-200.000	0.018	0.086
-308.895	-130.247	-0.380	0.052
-307.880	103.428	0.215	0.253
-306.866	-200.000	0.019	0.293
-305.851	-12.646	-0.153	0.100
-304.837	82.693	0.083	0.090
-303.822	-119.981	-0.091	0.016
-302.807	-200.000	-0.013	-0.070
-301.793	-108.638	0.330	0.071
-300.778	-91.921	0.156	0.044
-299.764	-72.984	0.347	0.128
-298.749	-124.746	-0.144	0.022
-297.735	395.994	0.066	-0.138
-296.720	56.674	0.163	-0.159
-295.705	26.532	-0.309	-0.260
-294.691	272.024	0.132	0.234
-293.676	276.149	0.049	-0.088
-292.662	17.562	-0.096	-0.077
-291.647	586.602	-0.069	-0.169
-290.632	481.202	0.131	-0.299
-289.618	-143.773	0.216	-0.020
-288.603	246.295	0.110	-0.187
-287.589	-200.000	-0.007	-0.055
-286.574	198.449	-0.245	0.377
-285.559	7.207	0.202	-0.151
-284.545	-14.542	0.142	-0.092
-283.530	13.538	-0.179	0.140
-282.516	60.219	0.160	0.159
-281.501	-93.782	0.359	0.099
-280.486	395.266	0.119	-0.248
-279.472	21.165	-0.260	-0.212
-278.457	45.399	0.154	-0.143
-277.443	335.595	0.034	0.066
-276.428	800.000	0.019	0.059
-275.413	160.248	-0.178	0.250
-274.399	313.567	0.137	-0.260
-273.384	800.000	0.100	0.283
-272.370	-200.000	0.023	0.208
-271.355	402.035	-0.103	-0.218
-270.340	-194.788	0.229	-0.002
-269.326	-173.905	-0.305	0.009
-268.311	159.479	-0.063	-0.088
-267.297	-200.000	-0.003	0.156
-266.282	-126.551	-0.315	0.047
-265.267	301.119	-0.185	0.342
-264.253	-200.000	0.032	0.174
-263.238	218.595	-0.191	0.306
-262.224	47.386	0.156	-0.146
-261.209	-91.754	0.534	-0.152
-260.195	-200.000	0.003	0.104
-259.180	-66.147	0.249	0.100
-258.165	-200.000	0.035	0.316
-257.151	38.518	0.092	-0.083
-256.136	-200.000	0.028	-0.142
-255.122	-151.211	-0.360	-0.027
-254.107	-200.000	0.006	-0.159
-253.092	-14.377	0.239	-0.155
-252.078	515.118	-0.095	-0.223
-251.063	119.381	-0.057	0.071
-250.049	-200.000	-0.038	0.224
-249.034	-136.754	0.163	0.019
-248.019	37.617	0.046	0.040
-247.005	-105.609	-0.406	-0.092
-245.990	106.697	-0.173	0.206
-244.976	-200.000	0.096	0.000
-243.961	800.000	-0.059	0.176
-242.946	393.574	0.103	0.214
-241.932	-148.471	0.085	-0.007
-240.917	184.512	-0.118	0.175
-239.903	102.626	0.213	0.249
-238.888	-190.566	-0.263	-0.003
-237.873	-200.000	0.003	-0.229
-236.859	350.260	-0.053	0.106
-235.844	321.502	-0.100	0.191
-234.830	441.219	0.121	-0.266
-233.815	150.025	-0.160	0.217
-232.800	21.583	0.227	-0.185
-231.786	22.405	0.090	0.074
-230.771	39.513	-0.301	-0.271
-229.757	-200.000	-0.052	0.231
-228.742	-200.000	0.007	-0.127
-227.727	116.299	-0.109	0.134
-226.713	313.834	0.085	-0.160
-225.698	456.611	-0.097	-0.216
-224.684	-77.174	0.282	0.098
-223.669	-46.741	0.104	-0.051
-222.655	77.458	-0.197	0.209
-221.640	800.000	0.059	0.225
-220.625	-138.342	-0.416	-0.046
-219.611	-19.538	0.137	-0.085
-218.596	-197.579	-0.141	0.001
-217.582	85.992	-0.107	0.118
-216.567	-200.000	0.251	0.001
-215.552	-46.896	-0.217	-0.106
-214.538	-200.000	0.053	0.376
-213.523	-60.217	0.530	0.226
-212.509	232.104	0.103	0.169
-211.494	-18.242	-0.172	-0.108
-210.479	-200.000	-0.013	-0.096
-209.465	186.842	-0.092	0.138
-208.450	-146.847	0.268	0.023
-207.436	-200.000	0.004	0.167
-206.421	-73.190	-0.317	-0.116
-205.406	-129.744	0.206	-0.028
-204.392	-175.169	-0.333	-0.009
-203.377	202.937	0.137	0.212
-202.363	-124.334	0.155	-0.024
-201.348	115.147	0.171	0.209
-200.333	50.782	0.178	-0.169
-199.319	773.803	-0.102	-0.279
-198.304	-200.000	-0.008	0.125
-197.290	-200.000	-0.031	-0.218
-196.275	-109.916	0.170	-0.036
-195.260	278.842	-0.192	0.343
-194.246	-168.411	0.310	-0.012
-193.231	-84.245	0.274	0.087
-192.217	-200.000	0.042	-0.231
-191.202	-64.780	-0.083	0.034
-190.187	-138.619	0.265	0.029
-189.173	-200.000	-0.002	-0.095
-188.158	-104.234	-0.230	-0.053
-187.144	-143.084	0.082	-0.008
-186.129	800.000	0.065	0.260
-185.114	384.800	0.167	-0.343
-184.100	69.748	-0.067	0.070
-183.085	-153.500	-0.231	0.016
-182.071	800.000	-0.067	0.216
-181.056	164.267	0.147	-0.207
-180.042	-38.876	0.070	-0.037
-179.027	617.023	0.086	0.217
-178.012	-5.140	-0.159	0.109
-176.998	-116.855	0.134	0.024
-175.983	-200.000	0.040	0.206
-174.969	-73.177	-0.380	-0.139
-173.954	-39.418	0.247	-0.129
-172.939	772.282	-0.147	0.400
-171.925	-200.000	-0.013	0.190
-170.910	800.000	0.121	-0.358
-169.896	800.000	-0.071	-0.230
-168.881	-119.260	-0.297	-0.052
-167.866	-30.370	0.090	0.051
-166.852	-44.037	0.236	-0.119
-165.837	37.260	-0.054	-0.048
-164.823	-146.237	-0.193	0.017
-163.808	121.860	-0.118	0.147
-162.793	118.519	0.155	0.191
-161.779	-107.668	0.109	0.024
-160.764	-155.281	-0.201	-0.013
-159.750	44.828	-0.213	-0.196
-158.735	-36.894	-0.085	-0.045
-157.720	-136.827	0.070	-0.008
-156.706	-35.709	-0.206	-0.111
-155.691	-128.149	0.153	0.022
-154.677	293.665	0.138	-0.252
-153.662	-200.000	-0.048	-0.319
-152.647	-22.755	-0.082	-0.049
-151.633	-200.000	0.024	0.403
-150.618	-200.000	0.079	0.399
-149.604	-59.259	0.200	-0.086
-148.589	170.636	0.077	-0.110
-147.574	-200.000	-0.008	0.105
-146.560	-200.000	0.013	0.290
-145.545	129.708	0.154	-0.197
-144.531	-200.000	-0.027	-0.118
-143.516	-200.000	0.084	0.380
-142.502	-163.806	-0.393	0.018
-141.487	-110.308	0.047	0.010
-140.472	254.322	0.114	0.195
-139.458	92.670	-0.212	-0.239
-138.443	-15.555	0.083	0.053
-137.429	-200.000	-0.015	0.328
-136.414	22.128	-0.145	0.118
-135.399	-200.000	0.009	0.115
-134.385	173.465	0.062	-0.089
-133.370	-32.243	-0.295	-0.164
-132.356	-200.000	0.039	0.363
-131.341	162.934	0.218	0.305
-130.326	-120.128	-0.431	-0.074
-129.312	6.589	0.144	-0.107
-128.297	-1.557	0.269	0.189
-127.283	319.743	-0.137	-0.259
-126.268	800.000	0.027	0.109
-125.253	-200.000	0.035	0.319
-124.239	800.000	-0.140	-0.391
-123.224	363.584	-0.090	0.180
-122.210	42.830	-0.134	0.122
-121.195	-53.893	-0.305	-0.139
