DTS Sentinel unit serial number:	SN413079Multiplexer serial number:	ORYXHardware model number:	OX4-SRSoftware version number:	ORYX F/W v4.00 Oryx Data Collector v3.7.2.0data status	okinstallation	princeton_trtdifferential loss correction	single-endedforward channel	channel 3reverse channel	N/Adate	2019/09/19time	05:44:35forward acquisition time	60.00reverse acquisition time	0.00gamma	496.2192k internal	0.2348k external	0.2348temperature offset calibration	0.9993default loss term (dB/km)	0.3790temperature slope calibration	1.0000multiplexer offset coefficient	1.0000multiplexer slope coefficient	1.0000fibre end	0.00T internal ref (°C)	19.27T ext. ref 1 (°C)	0.58T ext. ref 2 (°C)	12.81length (m)	temperature (°C)	Stokes	anti-Stokes-747.200	414.484	0.213	0.454
-746.185	800.000	-0.072	0.252
-745.171	136.245	0.266	0.346
-744.156	-112.659	-0.177	-0.035
-743.142	-200.000	-0.015	0.117
-742.127	64.606	-0.188	0.190
-741.112	84.533	-0.103	-0.112
-740.098	18.703	-0.220	-0.176
-739.083	-57.835	0.144	0.063
-738.069	288.597	0.202	0.365
-737.054	-200.000	-0.024	0.168
-736.039	-79.616	0.110	-0.037
-735.025	-200.000	-0.048	0.269
-734.010	21.389	-0.095	-0.077
-732.996	-5.634	-0.391	-0.268
-731.981	-113.542	-0.053	0.010
-730.966	-200.000	0.016	-0.339
-729.952	-200.000	0.045	-0.223
-728.937	14.402	0.159	0.124
-727.923	109.516	-0.031	-0.037
-726.908	-200.000	-0.022	0.247
-725.894	-0.672	-0.162	0.114
-724.879	193.609	-0.166	0.250
-723.864	51.726	0.148	-0.140
-722.850	3.597	-0.215	-0.157
-721.835	800.000	0.088	0.259
-720.821	-136.354	-0.095	0.011
-719.806	503.526	-0.089	-0.205
-718.791	77.444	-0.051	-0.055
-717.777	-51.930	-0.143	-0.066
-716.762	55.647	-0.128	-0.123
-715.748	-74.212	-0.030	-0.011
-714.733	-200.000	-0.171	0.000
-713.718	298.972	0.072	-0.132
-712.704	13.222	-0.240	0.186
-711.689	-200.000	-0.020	0.219
-710.675	499.076	0.122	-0.282
-709.660	800.000	-0.033	0.128
-708.645	113.471	0.201	0.243
-707.631	73.405	-0.075	0.078
-706.616	231.321	0.066	0.107
-705.602	-200.000	-0.025	-0.505
-704.587	-44.511	0.045	0.023
-703.572	20.710	0.101	0.081
-702.558	800.000	-0.082	-0.293
-701.543	6.115	-0.073	0.054
-700.529	277.181	-0.200	-0.355
-699.514	-200.000	0.009	0.174
-698.499	-200.000	-0.058	-0.385
-697.485	-172.125	-0.246	0.008
-696.470	-200.000	0.029	0.362
-695.456	-200.000	-0.033	0.239
-694.441	800.000	0.034	0.141
-693.426	-200.000	0.001	-0.180
-692.412	-99.282	-0.312	-0.078
-691.397	348.309	0.106	0.207
-690.383	-200.000	-0.003	-0.053
-689.368	-200.000	0.012	-0.207
-688.354	-200.000	-0.002	-0.157
-687.339	626.121	-0.043	0.107
-686.324	-200.000	0.007	0.060
-685.310	23.881	0.192	-0.157
-684.295	800.000	-0.095	0.408
-683.281	-200.000	0.016	0.134
-682.266	163.712	-0.160	0.224
-681.251	-61.461	0.217	0.091
-680.237	800.000	0.044	0.127
-679.222	399.060	0.070	-0.146
-678.208	121.536	0.182	-0.226
-677.193	-103.553	0.108	0.025
-676.178	62.910	-0.166	0.166
-675.164	800.000	0.053	0.159
-674.149	-200.000	0.067	-0.492
-673.135	800.000	-0.142	-0.545
-672.120	-87.972	-0.099	0.030
-671.105	52.149	-0.166	-0.158
-670.091	90.568	0.059	-0.066
-669.076	-130.971	-0.182	-0.024
-668.062	-50.173	0.283	-0.133
-667.047	49.092	-0.258	0.242
-666.032	128.409	-0.079	-0.100
-665.018	22.207	-0.211	-0.172
-664.003	800.000	0.070	0.247
-662.989	-174.006	0.134	0.004
-661.974	-46.624	0.060	-0.029
-660.959	-55.539	0.069	0.031
-659.945	-2.707	0.241	-0.168
-658.930	51.895	-0.267	0.253
-657.916	64.360	0.212	-0.213
-656.901	-130.598	-0.374	0.050
-655.886	440.967	0.093	-0.202
-654.872	447.521	-0.060	-0.131
-653.857	151.182	0.044	-0.060
-652.843	-20.545	-0.166	0.101
-651.828	-78.956	0.191	0.065
-650.814	-0.416	-0.148	0.105
-649.799	-25.979	-0.248	0.145
-648.784	50.557	0.156	-0.146
-647.770	-200.000	-0.004	-0.119
-646.755	-7.776	-0.157	-0.105
-645.741	5.816	-0.118	0.087
-644.726	-200.000	-0.023	0.112
-643.711	521.266	-0.102	-0.239
-642.697	-118.482	0.082	-0.014
-641.682	147.760	0.035	0.047
-640.668	104.978	-0.050	0.058
-639.653	-92.097	-0.228	0.064
-638.638	27.944	-0.268	-0.225
-637.624	-200.000	0.032	0.274
-636.609	-125.442	-0.313	0.047
-635.595	102.292	-0.131	0.153
-634.580	10.657	0.043	0.033
-633.565	30.539	0.139	0.118
-632.551	29.842	-0.171	-0.145
-631.536	17.520	0.254	-0.201
-630.522	53.773	-0.168	0.161
-629.507	-86.793	-0.033	0.010
-628.492	-21.259	-0.075	-0.046
-627.478	-70.116	-0.138	0.052
-626.463	-23.270	0.195	-0.117
-625.449	-50.265	0.146	-0.069
-624.434	-94.415	-0.178	-0.048
-623.419	88.865	-0.294	0.326
-622.405	364.698	0.243	-0.486
-621.390	-39.447	-0.552	0.288
-620.376	-7.734	0.219	-0.147
-619.361	567.533	-0.131	-0.316
-618.346	-84.599	0.161	0.050
-617.332	-113.778	0.351	-0.068
-616.317	-188.462	0.435	0.005
-615.303	-200.000	0.007	-0.034
-614.288	25.573	-0.163	0.135
-613.273	-110.496	-0.041	-0.008
-612.259	-21.692	0.273	-0.165
-611.244	-58.825	0.304	-0.131
-610.230	800.000	0.144	0.511
-609.215	-200.000	0.036	-0.217
-608.201	-55.634	-0.224	0.100
-607.186	-27.385	-0.230	-0.133
-606.171	121.876	-0.139	0.172
-605.157	128.568	-0.091	-0.115
-604.142	800.000	0.034	0.101
-603.128	20.532	0.100	0.080
-602.113	56.199	-0.160	0.154
-601.098	-200.000	0.008	-0.238
-600.084	800.000	-0.072	-0.250
-599.069	-104.323	-0.331	0.076
-598.055	198.191	-0.076	0.115
-597.040	70.578	0.106	0.109
-596.025	-200.000	-0.228	-0.001
-595.011	-63.971	0.207	0.084
-593.996	95.722	-0.075	0.085
-592.982	2.147	0.209	-0.150
-591.967	-200.000	-0.061	0.327
-590.952	20.420	-0.182	0.146
-589.938	270.002	-0.075	0.130
-588.923	-200.000	-0.005	0.389
-587.909	-31.361	-0.498	0.278
-586.894	-200.000	0.004	-0.266
-585.879	99.519	0.137	-0.158
-584.865	-165.763	-0.048	0.002
-583.850	371.577	0.040	-0.080
-582.836	381.228	-0.077	-0.157
-581.821	148.294	0.102	0.137
-580.806	251.083	-0.115	-0.195
-579.792	-47.009	-0.325	-0.157
-578.777	-29.909	0.128	-0.073
-577.763	-20.055	0.082	-0.050
-576.748	-85.462	0.068	-0.021
-575.733	-19.654	0.189	-0.116
-574.719	-177.871	0.298	0.007
-573.704	-88.968	0.278	0.082
-572.690	-88.995	-0.309	-0.091
-571.675	129.598	-0.146	0.185
-570.661	193.239	0.004	-0.006
-569.646	-37.125	-0.158	-0.084
-568.631	-80.090	0.172	-0.057
-567.617	520.098	-0.130	0.302
-566.602	-200.000	-0.013	-0.157
-565.588	467.798	0.018	0.039
-564.573	800.000	0.031	0.115
-563.558	-97.340	-0.085	-0.022
-562.544	-105.601	-0.131	0.030
-561.529	278.501	-0.106	-0.187
-560.515	800.000	-0.077	0.314
-559.500	-35.548	-0.171	0.092
-558.485	575.711	-0.086	-0.209
-557.471	54.548	-0.181	0.173
-556.456	-120.358	-0.153	-0.026
-555.442	-5.428	-0.127	-0.087
-554.427	-45.178	-0.158	-0.078
-553.412	-79.812	0.335	0.112
-552.398	-53.095	-0.263	-0.120
-551.383	-200.000	0.042	-0.404
-550.369	345.378	-0.164	0.320
-549.354	60.070	0.166	0.162
-548.339	-90.127	0.197	-0.057
-547.325	-79.314	0.187	0.063
-546.310	286.449	0.154	0.275
-545.296	-47.749	0.113	-0.054
-544.281	-200.000	-0.027	-0.171
-543.266	28.872	-0.089	-0.074
-542.252	36.643	0.447	-0.392
-541.237	-9.271	-0.243	0.161
-540.223	800.000	-0.077	-0.273
-539.208	-200.000	0.017	-0.219
-538.193	639.972	-0.052	-0.132
-537.179	83.097	0.161	-0.173
-536.164	229.269	-0.153	-0.248
-535.150	-74.680	-0.260	-0.093
-534.135	-92.768	-0.031	0.009
-533.121	-200.000	-0.092	-0.541
-532.106	218.841	-0.047	-0.075
-531.091	-25.469	0.085	-0.050
-530.077	128.748	-0.057	0.072
-529.062	-200.000	-0.030	0.267
-528.048	-200.000	-0.014	-0.174
-527.033	800.000	0.043	0.158
-526.018	-63.887	0.258	0.105
-525.004	-105.175	-0.145	0.033
-523.989	-53.060	-0.205	-0.093
-522.975	-18.895	-0.151	0.093
-521.960	-149.497	-0.297	0.023
-520.945	-27.356	0.209	-0.120
-519.931	-200.000	0.004	-0.210
-518.916	-122.112	0.107	0.017
-517.902	800.000	0.066	-0.259
-516.887	-200.000	0.020	0.161
-515.872	-148.020	-0.246	-0.020
-514.858	127.688	0.145	0.183
-513.843	256.377	-0.084	-0.142
-512.829	164.192	-0.192	-0.267
-511.814	23.037	0.135	-0.110
-510.799	183.542	-0.238	-0.348
-509.785	-23.583	0.380	0.225
-508.770	20.887	0.050	-0.040
-507.756	-36.350	-0.192	-0.102
-506.741	-200.000	0.060	0.309
-505.726	-121.146	-0.140	-0.023
-504.712	-22.171	0.090	0.054
-503.697	9.491	0.193	0.144
-502.683	-200.000	-0.040	0.197
-501.668	350.426	-0.162	-0.317
-500.653	120.724	0.003	0.004
-499.639	-200.000	-0.070	-0.309
-498.624	-126.209	0.230	-0.034
-497.610	-50.534	0.308	0.144
-496.595	217.265	0.321	0.506
-495.581	39.695	0.134	0.119
-494.566	-104.695	0.277	0.063
-493.551	119.034	0.109	0.133
-492.537	35.774	0.197	-0.172
-491.522	-200.000	0.028	-0.356
-490.508	62.172	0.230	0.227
-489.493	-200.000	-0.093	0.413
-488.478	-200.000	0.030	-0.160
-487.464	-29.330	0.012	-0.007
-486.449	91.701	-0.073	-0.082
-485.435	50.757	-0.184	-0.172
-484.420	24.352	-0.369	-0.302
-483.405	20.973	0.146	0.117
-482.391	-3.923	-0.178	-0.122
-481.376	180.714	-0.042	0.061
-480.362	11.276	-0.160	-0.121
-479.347	373.432	0.220	0.443
-478.332	-175.645	-0.237	-0.006
-477.318	-174.885	-0.122	0.003
-476.303	579.124	0.040	0.097
-475.289	800.000	-0.058	-0.197
-474.274	126.268	-0.046	0.057
-473.259	198.824	-0.076	-0.116
-472.245	5.049	0.175	0.127
-471.230	227.901	-0.065	0.104
-470.216	-200.000	0.037	0.221
-469.201	109.185	0.143	0.170
-468.186	-110.129	0.184	-0.038
-467.172	-41.705	-0.196	0.099
-466.157	-97.765	-0.275	0.070
-465.143	384.225	-0.149	-0.304
-464.128	-19.454	-0.280	-0.172
-463.113	78.051	-0.132	0.139
-462.099	-163.444	-0.194	0.009
-461.084	-134.800	0.048	0.006
-460.070	-118.988	0.344	0.060
-459.055	-200.000	-0.043	-0.195
-458.040	-200.000	0.045	0.248
-457.026	-70.914	0.213	0.079
-456.011	484.139	-0.151	0.339
-454.997	64.649	0.172	0.172
-453.982	-27.351	0.175	-0.101
-452.968	128.873	0.059	0.074
-451.953	85.809	-0.027	-0.029
-450.938	681.943	-0.141	-0.363
-449.924	733.593	0.065	-0.173
-448.909	156.972	-0.205	0.280
-447.895	521.328	-0.040	0.092
-446.880	-6.601	0.029	-0.020
-445.865	39.878	0.134	-0.119
-444.851	50.115	0.221	-0.206
-443.836	-30.760	-0.316	-0.176
-442.822	179.247	0.064	0.093
-441.807	-90.348	0.078	0.022
-440.792	-87.845	-0.461	0.137
-439.778	95.539	-0.065	0.073
-438.763	-200.000	0.018	0.129
-437.749	69.539	0.157	0.160
-436.734	-76.658	-0.253	0.088
-435.719	233.411	-0.054	0.088
-434.705	28.414	0.092	-0.077
-433.690	-104.533	-0.279	-0.064
-432.676	-200.000	0.028	-0.139
-431.661	11.007	-0.140	0.106
-430.646	-36.102	-0.307	0.164
-429.632	-200.000	0.002	0.141
-428.617	-67.866	-0.237	-0.091
-427.603	-16.462	0.095	0.059
-426.588	-75.577	0.158	-0.055
-425.573	800.000	-0.043	0.158
-424.559	-200.000	-0.021	-0.163
-423.544	290.336	0.056	-0.101
-422.530	17.841	0.130	-0.102
-421.515	-132.224	0.340	0.043
-420.500	-22.839	0.212	-0.126
-419.486	-200.000	-0.006	0.075
-418.471	-38.942	-0.197	0.102
-417.457	510.014	-0.091	-0.209
-416.442	-200.000	-0.032	-0.222
-415.428	-70.600	-0.207	-0.077
-414.413	293.838	0.160	-0.289
-413.398	-200.000	-0.003	0.235
-412.384	-71.467	0.194	0.072
-411.369	-146.893	0.232	-0.020
-410.355	61.715	0.101	0.099
-409.340	-79.723	-0.045	0.015
-408.325	646.296	0.019	-0.048
-407.311	-200.000	-0.044	-0.277
-406.296	-32.029	0.153	-0.084
-405.282	301.670	0.093	-0.169
-404.267	30.627	-0.296	-0.250
-403.252	121.555	-0.037	-0.046
-402.238	222.102	0.126	-0.200
-401.223	-65.553	0.079	-0.031
-400.209	-200.000	0.096	0.613
-399.194	-107.667	0.256	0.055
-398.179	745.352	0.146	0.388
-397.165	-200.000	0.024	-0.124
-396.150	-30.340	0.312	0.175
-395.136	325.465	-0.154	-0.291
-394.121	-200.000	0.064	-0.332
-393.106	-8.511	-0.197	0.131
-392.092	-200.000	-0.005	0.250
-391.077	-8.674	-0.314	0.208
-390.063	153.265	0.123	0.166
-389.048	241.377	-0.175	-0.287
-388.033	133.219	0.140	-0.179
-387.019	-35.874	0.337	0.180
-386.004	-96.958	-0.240	0.062
-384.990	-132.769	-0.372	-0.047
-383.975	-81.744	-0.146	0.047
-382.960	-200.000	0.106	-0.656
-381.946	243.158	-0.175	-0.289
-380.931	-200.000	0.044	-0.339
-379.917	-200.000	0.010	0.093
-378.902	-200.000	0.097	0.506
-377.888	-29.098	-0.177	-0.100
-376.873	-200.000	0.000	-0.533
-375.858	-200.000	0.021	-0.169
-374.844	-58.278	-0.189	-0.081
-373.829	-141.469	-0.245	-0.024
-372.815	-200.000	-0.018	0.247
-371.800	405.713	-0.012	0.024
-370.785	-76.979	0.057	-0.020
-369.771	800.000	0.023	-0.077
-368.756	161.388	0.117	-0.160
-367.742	285.198	0.091	0.161
-366.727	-30.538	0.187	0.104
-365.712	-200.000	-0.044	0.239
-364.698	800.000	-0.151	-0.435
-363.683	-200.000	0.036	-0.315
-362.669	-84.759	-0.067	-0.021
-361.654	334.950	0.101	0.193
-360.639	-200.000	0.014	-0.127
-359.625	-200.000	0.004	-0.122
-358.610	199.487	0.109	0.164
-357.596	-129.106	0.218	-0.030
-356.581	-143.751	-0.076	-0.007
-355.566	-200.000	0.095	0.563
-354.552	254.774	0.146	-0.246
-353.537	-200.000	-0.018	-0.248
-352.523	-109.194	0.126	-0.026
-351.508	-70.889	0.320	-0.118
-350.493	-120.384	-0.132	0.022
-349.479	-200.000	0.027	-0.137
-348.464	-179.069	-0.110	0.002
-347.450	0.526	-0.084	-0.059
-346.435	-11.508	-0.059	-0.038
-345.420	800.000	0.068	0.273
-344.406	-93.204	-0.367	0.100
-343.391	209.831	0.129	0.199
-342.377	-200.000	-0.014	0.062
-341.362	-150.042	0.395	0.030
-340.348	-136.446	-0.330	0.038
-339.333	149.271	0.200	0.266
-338.318	800.000	0.132	0.436
-337.304	205.083	0.137	0.210
-336.289	-132.332	-0.081	0.010
-335.275	270.597	-0.078	0.135
-334.260	-127.643	-0.512	0.073
-333.245	291.564	0.157	0.280
-332.231	29.975	-0.332	0.278
-331.216	-48.248	-0.295	-0.140
-330.202	546.203	0.096	0.226
-329.187	230.377	0.090	-0.144
-328.172	-80.038	-0.125	0.041
-327.158	-149.642	0.324	-0.025
-326.143	-200.000	0.000	-0.105
-325.129	41.177	0.249	-0.222
-324.114	-131.541	-0.325	-0.042
-323.099	-200.000	-0.002	0.189
-322.085	50.883	-0.051	0.048
-321.070	800.000	-0.068	0.229
-320.056	-54.267	0.269	-0.120
-319.041	-121.136	-0.287	0.047
-318.026	800.000	-0.083	-0.249
-317.012	-28.493	-0.089	0.050
-315.997	43.194	0.104	-0.093
-314.983	-5.186	-0.133	-0.090
-313.968	800.000	-0.084	-0.315
-312.953	28.088	-0.360	-0.298
-311.939	97.721	0.311	-0.351
-310.924	-159.097	0.483	0.027
-309.910	-200.000	0.020	-0.264
-308.895	292.002	-0.121	0.217
-307.880	82.395	0.261	0.278
-306.866	244.811	0.094	-0.156
-305.851	-124.307	-0.065	0.010
-304.837	55.987	-0.203	-0.193
-303.822	167.326	0.139	0.194
-302.807	66.294	0.330	-0.329
-301.793	60.956	-0.091	0.089
-300.778	41.866	0.224	0.199
-299.764	800.000	-0.109	0.465
-298.749	-200.000	-0.105	0.527
-297.735	219.420	0.149	0.234
-296.720	147.743	-0.177	-0.234
-295.705	-200.000	0.004	0.151
-294.691	-84.062	-0.278	-0.087
-293.676	-73.562	-0.408	-0.146
-292.662	-200.000	-0.024	-0.262
-291.647	-99.526	0.246	0.061
-290.632	-138.771	0.105	0.011
-289.618	-106.256	-0.291	0.064
-288.603	800.000	-0.113	0.307
-287.589	800.000	0.059	0.251
-286.574	136.010	0.164	-0.209
-285.559	800.000	-0.018	-0.069
-284.545	26.466	0.179	-0.147
-283.530	-200.000	-0.012	0.310
-282.516	52.102	0.185	-0.173
-281.501	790.569	-0.074	-0.200
-280.486	-200.000	0.020	-0.266
-279.472	81.628	-0.129	0.136
-278.457	-200.000	-0.001	0.041
-277.443	48.706	0.141	-0.130
-276.428	-137.364	-0.230	-0.026
-275.413	-107.400	0.184	0.040
-274.399	26.020	-0.103	0.084
-273.384	-1.156	0.172	0.119
-272.370	35.812	-0.167	0.144
-271.355	800.000	0.103	-0.322
-270.340	308.274	0.075	-0.138
-269.326	800.000	-0.027	-0.077
-268.311	-37.868	-0.203	0.106
-267.297	373.012	0.136	-0.272
-266.282	-200.000	0.035	0.203
-265.267	800.000	-0.043	-0.178
-264.253	-72.594	0.051	-0.019
-263.238	78.409	0.325	0.341
-262.224	800.000	0.117	0.332
-261.209	-200.000	0.070	-0.333
-260.195	-4.243	0.170	0.115
-259.180	-18.995	-0.104	-0.063
-258.165	113.828	-0.050	0.059
-257.151	-49.373	0.290	-0.136
-256.136	-200.000	-0.009	0.053
-255.122	-200.000	0.046	0.276
-254.107	33.677	0.072	0.061
-253.092	-29.489	0.359	-0.201
-252.078	247.191	-0.180	0.299
-251.063	800.000	0.114	-0.365
-250.049	800.000	-0.099	0.320
-249.034	-85.490	-0.336	0.103
-248.019	-115.522	-0.131	0.024
-247.005	606.908	-0.118	-0.288
-245.990	-151.842	0.311	-0.022
-244.976	-113.482	0.270	0.052
-243.961	-85.700	0.266	0.081
-242.946	43.136	0.180	0.161
-241.932	50.443	-0.213	0.198
-240.917	601.705	0.114	0.278
-239.903	-176.993	0.520	-0.013
-238.888	156.619	0.012	0.017
-237.873	-164.108	-0.517	0.023
-236.859	-27.637	0.171	0.097
-235.844	-79.859	0.223	0.073
-234.830	65.246	0.049	-0.048
-233.815	-200.000	0.024	0.257
-232.800	158.956	0.084	-0.114
-231.786	16.258	0.052	-0.040
-230.771	800.000	0.037	0.152
-229.757	800.000	0.038	0.157
-228.742	-45.687	0.322	-0.156
-227.727	-151.264	-0.199	-0.015
-226.713	-30.301	-0.159	-0.089
-225.698	101.487	-0.241	0.275
-224.684	17.530	0.278	0.216
-223.669	125.889	0.033	-0.041
-222.655	140.084	0.127	0.164
-221.640	800.000	0.090	-0.327
-220.625	101.061	0.141	-0.161
-219.611	-23.721	0.199	-0.117
-218.596	-171.972	-0.394	0.013
-217.582	800.000	0.072	-0.215
-216.567	71.606	0.130	0.132
-215.552	-81.858	-0.170	0.055
-214.538	-72.442	0.157	0.057
-213.523	364.477	0.036	0.071
-212.509	-76.898	0.201	0.069
-211.494	-200.000	0.048	-0.272
-210.479	-200.000	-0.043	0.281
-209.465	-200.000	0.119	-0.556
-208.450	360.374	0.205	-0.401
-207.436	-200.000	-0.032	-0.154
-206.421	800.000	-0.004	0.014
-205.406	-169.101	-0.166	0.006
-204.392	-76.212	-0.271	-0.093
-203.377	96.609	0.032	0.035
-202.363	-92.648	0.157	-0.043
-201.348	10.353	0.104	0.078
-200.333	33.168	0.135	-0.115
-199.319	-74.985	0.227	0.080
-198.304	-200.000	-0.006	-0.093
-197.290	253.241	-0.088	-0.146
-196.275	6.879	0.219	-0.160
-195.260	-200.000	-0.016	-0.087
-194.246	-31.405	-0.142	-0.078
-193.231	800.000	-0.019	0.053
-192.217	800.000	-0.047	-0.136
-191.202	-200.000	-0.001	-0.138
-190.187	-33.562	-0.234	0.126
-189.173	-200.000	-0.001	-0.037
-188.158	-38.326	0.071	0.037
-187.144	-84.913	-0.289	-0.089
-186.129	-140.879	0.130	0.013
-185.114	-106.123	0.055	-0.012
-184.100	256.372	-0.023	0.039
-183.085	-200.000	0.003	0.018
-182.071	348.652	-0.067	-0.130
-181.056	-138.876	0.113	-0.012
-180.042	529.468	-0.065	0.150
-179.027	36.910	-0.174	0.150
-178.012	55.082	-0.052	-0.049
-176.998	-5.100	-0.222	0.149
-175.983	-92.207	0.203	0.056
-174.969	-200.000	-0.004	0.192
-173.954	-200.000	0.011	0.416
-172.939	-97.409	0.094	0.024
-171.925	-200.000	-0.016	0.175
-170.910	-159.847	0.536	0.029
-169.896	660.611	0.090	-0.227
-168.881	-92.396	-0.146	0.040
-167.866	485.481	-0.146	0.326
-166.852	-11.797	-0.111	-0.071
-165.837	-144.416	0.207	-0.019
-164.823	765.097	-0.067	-0.178
-163.808	-164.440	-0.209	-0.009
-162.793	303.484	0.150	0.272
-161.779	800.000	-0.066	-0.215
-160.764	16.880	0.233	0.180
-159.750	-200.000	-0.039	-0.223
-158.735	800.000	0.040	0.130
-157.720	-122.576	0.197	-0.031
-156.706	-68.383	-0.110	0.042
-155.691	-200.000	-0.056	0.341
-154.677	-16.758	-0.242	0.150
-153.662	416.311	0.143	0.298
-152.647	800.000	0.029	-0.085
-151.633	-200.000	-0.050	-0.218
-150.618	-174.003	-0.131	-0.004
-149.604	800.000	-0.071	-0.272
-148.589	-200.000	-0.042	0.346
-147.574	93.551	0.087	0.096
-146.560	128.502	-0.109	0.136
-145.545	800.000	-0.052	-0.169
-144.531	7.911	-0.160	0.117
-143.516	80.231	0.135	0.142
-142.502	-132.331	-0.125	-0.016
-141.487	170.199	-0.324	0.452
-140.472	-93.721	-0.459	-0.124
-139.458	-91.470	-0.111	-0.031
-138.443	-200.000	0.007	-0.150
-137.429	-200.000	0.007	0.052
-136.414	80.518	-0.074	-0.078
-135.399	-6.594	0.102	-0.068
-134.385	301.258	-0.155	-0.278
-133.370	-49.841	-0.108	0.050
-132.356	-65.954	-0.242	0.094
-131.341	-171.045	-0.160	-0.005
-130.326	-164.339	0.159	0.007
-129.312	-14.255	-0.089	0.056
-128.297	-25.360	-0.196	0.113
-127.283	61.494	0.057	0.055
-126.268	800.000	-0.062	0.201
-125.253	-144.317	0.257	0.023
-124.239	96.709	-0.169	0.188
-123.224	607.608	0.117	0.286
-122.210	-122.535	0.317	-0.050
-121.195	173.552	0.019	-0.027
-120.180	-200.000	-0.010	0.082
