DTS Sentinel unit serial number:	SN413079Multiplexer serial number:	ORYXHardware model number:	OX4-SRSoftware version number:	ORYX F/W v4.00 Oryx Data Collector v3.7.2.0data status	okinstallation	princeton_trtdifferential loss correction	single-endedforward channel	channel 3reverse channel	N/Adate	2019/09/19time	02:20:34forward acquisition time	60.00reverse acquisition time	0.00gamma	496.2192k internal	0.2348k external	0.2348temperature offset calibration	0.9995default loss term (dB/km)	0.3790temperature slope calibration	1.0000multiplexer offset coefficient	1.0000multiplexer slope coefficient	1.0000fibre end	0.00T internal ref (°C)	21.06T ext. ref 1 (°C)	0.68T ext. ref 2 (°C)	14.65length (m)	temperature (°C)	Stokes	anti-Stokes-747.200	-28.617	0.231	0.133
-746.185	-141.774	-0.123	0.012
-745.171	-79.321	-0.215	-0.073
-744.156	-125.291	0.032	0.005
-743.142	-127.047	-0.114	-0.017
-742.127	-200.000	0.035	0.168
-741.112	-200.000	-0.006	-0.265
-740.098	522.571	-0.245	0.574
-739.083	30.434	-0.133	-0.113
-738.069	-162.209	0.196	-0.010
-737.054	67.100	0.189	0.192
-736.039	-106.216	-0.387	-0.087
-735.025	342.245	0.156	0.306
-734.010	-103.153	0.206	-0.049
-732.996	572.346	-0.096	-0.234
-731.981	156.494	-0.159	0.219
-730.966	97.778	0.144	-0.165
-729.952	-200.000	0.033	0.183
-728.937	-200.000	-0.008	0.337
-727.923	-78.746	0.370	-0.126
-726.908	-24.046	0.034	-0.020
-725.894	333.405	-0.172	-0.332
-724.879	-118.368	0.210	0.037
-723.864	-50.441	-0.221	0.104
-722.850	-77.613	0.195	-0.068
-721.835	116.947	-0.125	0.153
-720.821	800.000	-0.052	-0.157
-719.806	183.651	-0.075	0.111
-718.791	249.650	-0.215	-0.363
-717.777	74.485	0.082	0.086
-716.762	800.000	-0.036	-0.135
-715.748	11.234	-0.224	0.171
-714.733	102.247	0.149	-0.174
-713.718	-61.174	-0.056	-0.024
-712.704	41.962	0.097	-0.088
-711.689	269.594	-0.097	-0.171
-710.675	142.236	0.060	-0.079
-709.660	216.893	0.046	0.073
-708.645	181.883	-0.259	-0.380
-707.631	-200.000	0.096	-0.507
-706.616	-90.397	-0.309	0.089
-705.602	-97.541	0.125	-0.032
-704.587	491.819	0.105	-0.240
-703.572	-200.000	0.068	-0.313
-702.558	770.162	-0.113	0.307
-701.543	-145.595	0.324	-0.029
-700.529	-200.000	-0.088	-0.462
-699.514	-49.768	0.172	-0.082
-698.499	14.473	0.113	-0.088
-697.485	-88.213	-0.116	-0.035
-696.470	-188.791	-0.103	0.001
-695.456	117.379	0.191	-0.234
-694.441	533.318	-0.094	-0.222
-693.426	-200.000	0.089	-0.393
-692.412	-30.213	0.115	-0.065
-691.397	-200.000	-0.005	0.046
-690.383	-147.153	-0.278	0.024
-689.368	-133.123	-0.203	0.026
-688.354	218.671	0.014	0.022
-687.339	186.521	-0.039	0.058
-686.324	27.893	0.193	0.162
-685.310	-100.268	-0.134	0.033
-684.295	-200.000	-0.017	0.112
-683.281	367.885	0.219	0.442
-682.266	343.375	-0.046	0.090
-681.251	-166.588	0.190	-0.008
-680.237	23.859	-0.171	0.141
-679.222	176.776	-0.201	-0.291
-678.208	-161.267	0.357	0.018
-677.193	-6.716	-0.344	-0.233
-676.178	-145.279	-0.264	0.024
-675.164	-124.807	0.101	-0.016
-674.149	-200.000	0.000	0.018
-673.135	-200.000	-0.017	-0.084
-672.120	-48.472	-0.195	0.093
-671.105	765.108	0.055	-0.148
-670.091	-114.046	-0.291	-0.056
-669.076	-188.603	0.145	-0.002
-668.062	-25.688	-0.137	-0.080
-667.047	-4.989	-0.158	0.109
-666.032	-170.677	-0.411	0.014
-665.018	-61.185	-0.216	0.091
-664.003	-145.363	-0.310	-0.028
-662.989	-200.000	0.010	0.133
-661.974	800.000	0.095	0.269
-660.959	-0.292	0.297	0.210
-659.945	-138.654	-0.084	-0.009
-658.930	-200.000	-0.015	-0.170
-657.916	139.703	-0.227	-0.298
-656.901	-93.185	-0.125	-0.035
-655.886	193.551	-0.195	-0.293
-654.872	581.066	-0.051	0.125
-653.857	-200.000	0.038	-0.166
-652.843	-103.722	0.127	-0.030
-651.828	67.122	-0.170	0.172
-650.814	23.363	-0.230	-0.188
-649.799	380.974	0.109	0.223
-648.784	254.383	-0.194	0.331
-647.770	800.000	-0.073	-0.274
-646.755	-200.000	-0.027	-0.250
-645.741	-61.834	-0.158	-0.066
-644.726	-21.252	0.100	0.061
-643.711	-78.220	0.348	0.119
-642.697	-27.545	0.221	-0.128
-641.682	-37.333	0.263	-0.140
-640.668	130.796	0.163	0.208
-639.653	-200.000	0.000	-0.103
-638.638	-0.937	0.149	0.105
-637.624	-109.321	-0.050	-0.010
-636.609	447.561	-0.056	-0.122
-635.595	80.508	0.176	0.188
-634.580	-200.000	0.057	-0.306
-633.565	-90.395	-0.096	-0.028
-632.551	-200.000	0.004	0.115
-631.536	92.846	-0.038	0.043
-630.522	800.000	0.074	-0.251
-629.507	3.085	0.050	0.036
-628.492	-52.243	-0.131	0.060
-627.478	16.472	0.166	0.130
-626.463	338.654	0.075	-0.145
-625.449	17.982	0.162	0.128
-624.434	-89.303	-0.108	0.032
-623.419	-48.628	-0.237	-0.113
-622.405	800.000	0.086	-0.245
-621.390	415.151	0.043	-0.092
-620.376	145.739	-0.228	-0.304
-619.361	-200.000	-0.030	-0.208
-618.346	-200.000	-0.026	0.132
-617.332	-49.277	0.136	-0.065
-616.317	-200.000	-0.022	-0.177
-615.303	-0.601	0.218	-0.154
-614.288	800.000	-0.062	0.179
-613.273	-20.002	-0.026	0.016
-612.259	800.000	-0.065	-0.231
-611.244	42.800	0.118	-0.107
-610.230	-200.000	-0.080	0.357
-609.215	69.813	-0.126	-0.129
-608.201	45.478	-0.332	0.304
-607.186	421.370	0.127	-0.271
-606.171	14.091	-0.165	-0.128
-605.157	-32.668	-0.097	0.054
-604.142	800.000	-0.033	0.125
-603.128	658.264	0.067	0.172
-602.113	-200.000	-0.039	-0.220
-601.098	-16.860	-0.134	0.084
-600.084	312.258	-0.108	0.201
-599.069	800.000	-0.072	-0.200
-598.055	74.007	-0.125	-0.130
-597.040	-80.621	0.147	-0.049
-596.025	28.441	-0.044	-0.037
-595.011	207.174	0.116	-0.180
-593.996	29.180	-0.172	-0.145
-592.982	-116.228	-0.284	-0.052
-591.967	-164.057	0.261	-0.012
-590.952	37.180	-0.167	-0.147
-589.938	-124.626	0.039	0.006
-588.923	-134.867	0.333	0.040
-587.909	80.471	-0.067	0.072
-586.894	-200.000	-0.023	0.140
-585.879	742.261	0.039	0.105
-584.865	800.000	-0.022	0.063
-583.850	-114.972	0.400	-0.075
-582.836	-57.154	0.132	-0.058
-581.821	250.106	-0.083	-0.140
-580.806	269.099	-0.112	0.196
-579.792	-200.000	-0.023	0.184
-578.777	-15.121	0.194	0.123
-577.763	63.775	-0.182	-0.181
-576.748	800.000	-0.061	-0.233
-575.733	99.780	-0.426	-0.490
-574.719	183.527	-0.146	-0.214
-573.704	800.000	-0.012	-0.044
-572.690	222.358	0.083	-0.132
-571.675	65.329	-0.104	-0.105
-570.661	800.000	0.050	0.145
-569.646	-34.041	-0.070	0.038
-568.631	-200.000	-0.006	-0.356
-567.617	62.617	-0.188	-0.186
-566.602	-95.129	-0.182	0.049
-565.588	111.081	-0.142	-0.170
-564.573	-85.966	0.360	-0.110
-563.558	-134.693	-0.251	0.030
-562.544	-44.003	0.225	-0.112
-561.529	-113.067	-0.056	0.011
-560.515	352.008	0.087	-0.171
-559.500	-94.492	0.202	-0.055
-558.485	-200.000	-0.002	-0.225
-557.471	63.499	-0.331	0.329
-556.456	29.350	0.251	-0.211
-555.442	9.885	0.199	0.150
-554.427	-113.051	-0.207	-0.041
-553.412	221.744	0.044	-0.071
-552.398	-99.612	-0.086	-0.021
-551.383	-3.692	0.282	0.194
-550.369	-107.226	-0.026	-0.006
-549.354	-152.938	-0.125	0.009
-548.339	-84.161	0.087	0.027
-547.325	-43.798	0.463	0.231
-546.310	215.741	-0.066	0.104
-545.296	-93.446	-0.138	0.038
-544.281	-200.000	0.004	-0.113
-543.266	-24.400	-0.133	-0.078
-542.252	800.000	-0.100	0.280
-541.237	174.167	-0.043	-0.061
-540.223	277.095	-0.075	-0.132
-539.208	65.942	-0.015	0.015
-538.193	-180.039	0.060	0.001
-537.179	240.453	0.015	0.025
-536.164	151.416	-0.139	0.187
-535.150	-55.993	-0.077	-0.034
-534.135	-38.997	-0.204	0.106
-533.121	-1.455	-0.287	0.201
-532.106	-98.831	0.273	-0.069
-531.091	56.056	0.227	-0.218
-530.077	17.177	0.107	-0.084
-529.062	-200.000	0.119	0.562
-528.048	-19.065	-0.371	0.228
-527.033	800.000	0.078	0.219
-526.018	-200.000	0.011	-0.130
-525.004	315.112	0.131	-0.244
-523.989	397.455	-0.047	-0.097
-522.975	-97.809	0.053	-0.014
-521.960	-112.394	-0.146	0.029
-520.945	-136.253	-0.362	-0.042
-519.931	653.562	-0.041	-0.104
-518.916	-200.000	-0.038	-0.195
-517.902	-200.000	0.005	0.290
-516.887	-68.146	-0.178	-0.069
-515.872	101.416	-0.187	0.216
-514.858	-9.395	-0.176	-0.116
-513.843	-200.000	0.046	-0.257
-512.829	432.348	0.118	0.252
-511.814	-113.593	0.074	0.014
-510.799	-76.600	-0.198	0.069
-509.785	800.000	0.040	-0.125
-508.770	800.000	0.031	0.099
-507.756	269.638	-0.184	0.319
-506.741	79.103	-0.088	-0.093
-505.726	248.060	0.117	-0.196
-504.712	2.782	-0.041	0.030
-503.697	-64.190	0.399	0.161
-502.683	-26.501	-0.126	-0.073
-501.668	-200.000	-0.062	-0.436
-500.653	632.970	-0.124	-0.312
-499.639	800.000	-0.031	-0.094
-498.624	800.000	0.140	-0.428
-497.610	-200.000	0.004	-0.445
-496.595	-88.769	-0.118	0.035
-495.581	-93.754	0.337	-0.092
-494.566	-45.493	0.036	0.018
-493.551	-9.637	-0.211	0.139
-492.537	740.472	0.141	-0.375
-491.522	-136.292	0.296	0.034
-490.508	-200.000	-0.052	-0.361
-489.493	81.130	-0.161	0.172
-488.478	53.997	0.189	-0.180
-487.464	-130.794	-0.308	-0.041
-486.449	-79.839	0.313	0.104
-485.435	-151.724	-0.355	0.026
-484.420	800.000	-0.136	0.450
-483.405	-200.000	0.060	0.384
-482.391	-49.135	-0.235	0.111
-481.376	120.057	0.088	0.108
-480.362	540.593	0.088	0.208
-479.347	-200.000	0.009	-0.062
-478.332	-142.972	-0.240	0.023
-477.318	-200.000	-0.014	0.153
-476.303	-145.242	0.171	-0.015
-475.289	26.140	-0.180	0.149
-474.274	800.000	-0.078	-0.217
-473.259	-161.402	0.260	0.013
-472.245	-36.401	-0.091	-0.048
-471.230	-88.371	-0.253	0.075
-470.216	237.842	-0.082	0.135
-469.201	800.000	-0.114	0.482
-468.186	-200.000	-0.015	0.306
-467.172	-110.115	-0.130	-0.027
-466.157	315.916	-0.046	0.086
-465.143	-96.327	-0.218	-0.057
-464.128	-200.000	0.017	0.126
-463.113	-42.001	0.214	0.108
-462.099	-48.565	0.266	0.126
-461.084	-200.000	0.042	0.188
-460.070	-200.000	0.019	0.203
-459.055	-127.023	0.186	0.027
-458.040	69.951	0.018	0.018
-457.026	429.167	-0.080	0.171
-456.011	537.380	0.013	0.030
-454.997	-97.424	-0.104	-0.027
-453.982	710.302	-0.043	0.113
-452.968	-114.799	-0.144	-0.027
-451.953	657.676	0.062	-0.157
-450.938	-14.739	0.115	-0.073
-449.924	-174.959	-0.128	0.004
-448.909	50.396	-0.099	0.092
-447.895	441.768	0.182	0.394
-446.880	-200.000	-0.013	0.130
-445.865	-132.659	0.152	0.019
-444.851	259.809	0.128	0.218
-443.836	145.855	0.158	-0.209
-442.822	228.911	-0.176	-0.284
-441.807	-74.597	0.199	0.071
-440.792	-156.105	0.282	0.018
-439.778	800.000	0.070	-0.229
-438.763	-141.905	-0.362	-0.036
-437.749	800.000	0.035	-0.133
-436.734	6.026	0.316	-0.231
-435.719	800.000	-0.086	-0.245
-434.705	334.279	0.017	0.033
-433.690	403.840	-0.127	0.265
-432.676	-146.348	0.207	-0.018
-431.661	137.675	0.177	0.229
-430.646	443.960	-0.045	0.098
-429.632	15.054	-0.103	-0.080
-428.617	-129.601	0.603	0.082
-427.603	127.248	-0.142	-0.178
-426.588	-99.427	-0.185	-0.046
-425.573	-142.684	0.168	-0.016
-424.559	-98.392	-0.274	0.069
-423.544	53.424	-0.155	0.147
-422.530	-34.086	-0.252	0.137
-421.515	53.265	0.324	-0.306
-420.500	214.685	-0.048	0.076
-419.486	54.268	-0.101	-0.096
-418.471	800.000	-0.064	0.230
-417.457	800.000	-0.042	0.174
-416.442	226.870	0.198	0.317
-415.428	22.833	0.261	0.211
-414.413	800.000	-0.044	0.139
-413.398	22.479	0.205	-0.166
-412.384	-61.009	-0.165	-0.069
-411.369	-200.000	0.032	-0.223
-410.355	800.000	-0.102	-0.389
-409.340	800.000	0.060	0.170
-408.325	57.032	-0.069	-0.066
-407.311	139.929	-0.097	0.126
-406.296	-200.000	0.005	0.251
-405.282	-78.614	-0.315	-0.106
-404.267	86.159	-0.168	-0.182
-403.252	-139.990	0.261	0.027
-402.238	-200.000	-0.024	0.307
-401.223	300.158	0.121	-0.221
-400.209	123.217	-0.076	-0.094
-399.194	800.000	0.045	0.138
-398.179	-120.709	0.073	-0.012
-397.165	-170.439	0.362	-0.012
-396.150	136.787	-0.199	0.256
-395.136	181.306	0.139	0.201
-394.121	139.448	-0.013	0.017
-393.106	-29.960	0.050	0.028
-392.092	-76.790	0.213	-0.073
-391.077	-44.278	-0.362	0.179
-390.063	-5.029	0.356	-0.242
-389.048	645.828	-0.013	0.033
-388.033	-94.215	-0.127	0.034
-387.019	227.649	-0.035	-0.055
-386.004	252.021	-0.050	0.084
-384.990	317.797	0.104	-0.194
-383.975	-17.007	-0.239	-0.148
-382.960	-200.000	0.003	-0.193
-381.946	-200.000	-0.025	-0.113
-380.931	31.362	-0.256	0.216
-379.917	51.359	0.200	0.187
-378.902	13.851	-0.017	-0.013
-377.888	800.000	-0.014	-0.060
-376.873	505.251	-0.022	-0.051
-375.858	-156.849	0.116	-0.007
-374.844	-124.828	0.188	0.029
-373.829	800.000	0.104	0.402
-372.815	-104.109	0.089	-0.020
-371.800	63.806	0.097	-0.096
-370.785	-121.867	-0.085	0.014
-369.771	335.045	0.033	0.063
-368.756	-172.709	0.259	0.008
-367.742	-9.490	0.155	0.102
-366.727	-200.000	-0.021	-0.171
-365.712	-78.816	-0.251	0.084
-364.698	6.280	-0.046	0.034
-363.683	367.788	0.110	-0.219
-362.669	-47.969	-0.185	0.088
-361.654	-200.000	-0.005	0.075
-360.639	-124.627	0.157	-0.024
-359.625	16.461	0.045	0.035
-358.610	-100.414	-0.354	0.086
-357.596	721.399	-0.135	0.353
-356.581	208.880	0.103	0.159
-355.566	-200.000	0.009	-0.303
-354.552	158.478	-0.186	-0.253
-353.537	-56.896	-0.369	-0.160
-352.523	156.015	-0.056	0.075
-351.508	-65.031	-0.201	-0.080
-350.493	325.881	-0.140	-0.264
-349.479	-3.724	-0.087	-0.060
-348.464	-29.223	-0.190	0.107
-347.450	18.909	-0.179	0.141
-346.435	-149.946	-0.301	-0.023
-345.420	-200.000	-0.016	0.071
-344.406	800.000	-0.082	0.265
-343.391	131.232	-0.020	0.025
-342.377	-59.490	0.325	0.137
-341.362	-41.322	0.083	-0.042
-340.348	-36.379	-0.150	0.079
-339.333	-200.000	-0.056	0.270
-338.318	-158.745	-0.227	-0.013
-337.304	800.000	-0.099	-0.282
-336.289	-200.000	0.076	0.366
-335.275	-64.803	-0.090	0.036
-334.260	193.553	0.077	-0.115
-333.245	58.439	0.268	-0.259
-332.231	-74.551	-0.171	-0.061
-331.216	-200.000	0.004	0.155
-330.202	-200.000	-0.020	0.121
-329.187	-32.979	-0.248	-0.135
-328.172	-105.480	0.349	0.078
-327.158	-114.426	0.073	0.014
-326.143	-200.000	0.072	0.375
-325.129	732.837	0.030	-0.078
-324.114	302.860	-0.047	0.085
-323.099	107.342	-0.116	0.135
-322.085	-34.282	0.144	-0.078
-321.070	-14.416	0.073	0.046
-320.056	-15.510	-0.092	0.058
-319.041	-35.716	0.053	0.028
-318.026	-200.000	0.017	-0.081
-317.012	-120.829	0.004	-0.001
-315.997	434.043	-0.163	-0.347
-314.983	-200.000	0.078	0.368
-313.968	-12.736	-0.387	0.248
-312.953	206.110	-0.193	-0.295
-311.939	32.665	0.105	0.089
-310.924	-200.000	-0.012	0.279
-309.910	-57.010	0.287	-0.125
-308.895	-156.109	-0.164	0.010
-307.880	-0.929	-0.073	-0.051
-306.866	-200.000	0.006	-0.043
-305.851	154.587	-0.107	-0.144
-304.837	-49.095	0.132	0.062
-303.822	215.748	0.098	0.153
-302.807	427.469	0.072	0.152
-301.793	-79.443	-0.201	-0.067
-300.778	331.717	-0.039	-0.073
-299.764	-142.046	-0.185	-0.018
-298.749	-5.570	-0.048	-0.032
-297.735	-126.649	-0.092	-0.013
-296.720	143.997	0.202	-0.265
-295.705	-200.000	0.017	-0.094
-294.691	103.349	0.038	0.044
-293.676	222.781	-0.146	-0.230
-292.662	-46.383	0.132	0.064
-291.647	72.077	-0.230	-0.235
-290.632	613.742	0.057	0.141
-289.618	-11.923	-0.036	0.023
-288.603	137.048	-0.232	0.297
-287.589	-1.617	-0.268	0.185
-286.574	800.000	0.060	-0.194
-285.559	-200.000	0.007	-0.041
-284.545	-21.723	-0.158	0.095
-283.530	119.259	0.142	-0.173
-282.516	-28.321	-0.173	-0.098
-281.501	-34.829	0.263	-0.141
-280.486	-200.000	-0.055	-0.000
-279.472	800.000	0.072	-0.199
-278.457	-200.000	0.006	-0.091
-277.443	-1.775	0.023	-0.016
-276.428	245.400	-0.095	-0.156
-275.413	-119.572	0.247	-0.042
-274.399	-113.777	0.151	-0.029
-273.384	-63.229	0.050	-0.020
-272.370	107.744	-0.044	-0.052
-271.355	126.385	0.141	0.175
-270.340	-39.778	0.203	0.104
-269.326	-47.975	0.130	0.062
-268.311	800.000	-0.126	0.475
-267.297	-61.553	0.232	0.095
-266.282	-200.000	-0.022	-0.100
-265.267	2.587	0.223	0.158
-264.253	82.068	-0.165	-0.176
-263.238	456.619	-0.038	-0.083
-262.224	-28.188	0.333	0.189
-261.209	83.255	-0.129	-0.137
-260.195	-200.000	-0.040	-0.205
-259.180	800.000	-0.074	0.239
-258.165	800.000	0.020	0.061
-257.151	-161.508	0.312	-0.016
-256.136	116.517	0.164	0.198
-255.122	-33.070	-0.304	-0.165
-254.107	-90.645	0.151	0.043
-253.092	46.725	0.117	0.106
-252.078	-13.150	0.185	-0.118
-251.063	-123.133	0.154	0.024
-250.049	-67.482	-0.108	0.041
-249.034	-200.000	-0.008	0.110
-248.019	-200.000	-0.026	-0.290
-247.005	800.000	0.093	0.350
-245.990	33.586	-0.218	0.186
-244.976	41.572	0.202	-0.179
-243.961	49.876	-0.119	-0.110
-242.946	-200.000	0.014	0.117
-241.932	167.599	-0.134	-0.187
-240.917	323.414	-0.102	-0.191
-239.903	-64.368	0.138	0.055
-238.888	204.171	0.148	-0.224
-237.873	-200.000	-0.001	-0.191
-236.859	-41.104	0.145	0.073
-235.844	216.332	0.188	0.293
-234.830	-200.000	-0.118	0.560
-233.815	800.000	-0.048	-0.163
-232.800	-200.000	0.075	-0.326
-231.786	-200.000	-0.002	0.300
-230.771	194.992	-0.185	0.275
-229.757	-0.038	0.212	-0.148
-228.742	242.157	-0.118	0.192
-227.727	800.000	0.079	-0.216
-226.713	-93.403	-0.229	-0.062
-225.698	-182.672	-0.204	-0.004
-224.684	369.469	0.190	-0.377
-223.669	302.409	0.089	0.162
-222.655	380.651	0.086	0.172
-221.640	-200.000	-0.004	0.079
-220.625	64.321	-0.109	0.108
-219.611	-200.000	0.045	0.192
-218.596	-200.000	-0.027	-0.134
-217.582	-21.724	0.197	0.118
-216.567	-200.000	-0.009	-0.127
-215.552	-127.812	0.188	-0.026
-214.538	-200.000	-0.015	-0.071
-213.523	209.505	-0.124	0.190
-212.509	41.594	0.050	-0.045
-211.494	-200.000	0.038	0.382
-210.479	-99.432	0.196	0.048
-209.465	89.875	0.293	-0.320
-208.450	-91.495	0.196	-0.055
-207.436	-200.000	0.004	-0.120
-206.421	171.783	-0.210	0.295
-205.406	-66.267	0.234	-0.091
-204.392	-200.000	0.011	0.274
-203.377	-72.872	-0.246	0.089
-202.363	210.833	0.177	-0.272
-201.348	655.240	0.089	-0.225
-200.333	-172.007	-0.168	0.005
-199.319	-122.224	-0.300	0.048
-198.304	294.023	0.042	0.075
-197.290	-200.000	-0.035	-0.200
-196.275	-200.000	-0.054	-0.396
-195.260	-200.000	-0.055	-0.253
-194.246	-162.514	0.154	-0.007
-193.231	119.322	-0.175	-0.212
-192.217	-115.350	-0.127	-0.023
-191.202	-200.000	-0.003	0.040
-190.187	800.000	-0.051	0.164
-189.173	217.988	0.077	-0.119
-188.158	800.000	-0.125	-0.431
-187.144	575.720	-0.133	0.317
-186.129	41.914	-0.155	-0.137
-185.114	-200.000	0.006	0.068
-184.100	-116.972	-0.058	-0.010
-183.085	18.284	-0.040	-0.031
-182.071	62.888	0.153	-0.150
-181.056	77.112	0.069	0.072
-180.042	14.606	-0.208	0.159
-179.027	-17.172	-0.162	-0.100
-178.012	-200.000	0.024	-0.263
-176.998	-200.000	-0.028	0.387
-175.983	89.993	0.286	-0.313
-174.969	39.015	-0.183	0.160
-173.954	8.650	0.249	-0.183
-172.939	-39.997	-0.243	-0.124
-171.925	-200.000	-0.012	-0.099
-170.910	-200.000	0.033	-0.193
-169.896	-64.202	0.312	0.124
-168.881	49.325	0.213	-0.196
-167.866	201.976	0.157	-0.237
-166.852	37.356	0.054	-0.047
-165.837	325.705	-0.035	0.065
-164.823	-200.000	-0.031	-0.204
-163.808	377.554	0.172	0.343
-162.793	-69.408	0.102	0.038
-161.779	212.695	-0.081	0.124
-160.764	-24.503	0.208	-0.121
-159.750	-200.000	-0.032	0.217
-158.735	800.000	-0.031	-0.104
-157.720	-88.576	0.320	0.093
-156.706	15.030	-0.178	-0.136
-155.691	-200.000	-0.043	0.312
-154.677	520.883	0.032	-0.072
-153.662	800.000	-0.040	0.150
-152.647	-37.614	0.254	0.132
-151.633	127.021	0.197	0.243
-150.618	-142.183	-0.568	0.055
-149.604	420.213	0.130	0.272
-148.589	-103.583	0.090	-0.021
-147.574	131.859	-0.123	-0.155
-146.560	83.684	-0.011	-0.012
-145.545	800.000	-0.035	-0.147
-144.531	800.000	0.010	-0.039
-143.516	61.924	-0.057	0.055
-142.502	-69.846	0.129	-0.048
-141.487	800.000	0.043	0.133
-140.472	-68.372	0.130	-0.049
-139.458	-1.902	-0.088	0.060
-138.443	-161.630	-0.085	-0.004
-137.429	29.501	0.105	-0.087
-136.414	-166.707	0.402	0.016
-135.399	800.000	0.016	-0.049
-134.385	800.000	-0.008	-0.024
-133.370	-42.316	0.017	-0.009
-132.356	800.000	-0.016	-0.049
-131.341	-19.079	0.265	0.160
-130.326	-74.723	0.075	-0.026
-129.312	311.071	-0.063	-0.114
-128.297	-40.027	0.056	0.028
-127.283	358.519	-0.100	0.194
-126.268	152.409	0.147	-0.195
-125.253	24.379	-0.263	-0.212
-124.239	18.849	0.058	-0.045
-123.224	800.000	0.087	0.310
-122.210	126.928	-0.166	-0.206
