DTS Sentinel unit serial number:	SN413079Multiplexer serial number:	ORYXHardware model number:	OX4-SRSoftware version number:	ORYX F/W v4.00 Oryx Data Collector v3.7.2.0data status	okinstallation	princeton_trtdifferential loss correction	single-endedforward channel	channel 3reverse channel	N/Adate	2019/09/14time	20:52:35forward acquisition time	60.00reverse acquisition time	0.00gamma	496.2192k internal	0.2317k external	0.2317temperature offset calibration	1.0003default loss term (dB/km)	0.3790temperature slope calibration	1.0000multiplexer offset coefficient	1.0000multiplexer slope coefficient	1.0000fibre end	0.00T internal ref (°C)	33.25T ext. ref 1 (°C)	4.80T ext. ref 2 (°C)	27.95length (m)	temperature (°C)	Stokes	anti-Stokes-747.200	120.417	-0.088	0.111
-746.185	94.817	0.221	0.255
-745.171	-123.713	0.358	0.057
-744.156	109.128	-0.191	0.232
-743.142	-200.000	0.013	-0.095
-742.127	-129.699	0.063	0.009
-741.112	79.988	0.125	-0.136
-740.098	601.985	0.071	0.179
-739.083	-115.323	0.057	0.011
-738.069	-200.000	0.002	-0.049
-737.054	-90.984	-0.335	-0.097
-736.039	-115.842	-0.211	0.040
-735.025	-104.175	0.243	0.057
-734.010	4.859	-0.258	-0.192
-732.996	9.160	0.265	-0.203
-731.981	-50.098	0.056	-0.027
-730.966	800.000	-0.068	-0.244
-729.952	-33.025	-0.160	0.090
-728.937	417.459	-0.040	0.087
-727.923	-14.725	0.158	-0.103
-726.908	525.801	-0.114	0.271
-725.894	2.266	-0.446	-0.326
-724.879	37.337	-0.158	-0.142
-723.864	18.057	0.062	0.050
-722.850	800.000	-0.018	0.053
-721.835	-106.198	-0.184	0.042
-720.821	-37.020	-0.132	-0.071
-719.806	158.818	-0.104	0.147
-718.791	-2.448	0.077	-0.054
-717.777	-50.290	0.114	-0.055
-716.762	-142.760	-0.147	0.014
-715.748	-67.553	0.266	-0.106
-714.733	344.206	-0.142	0.281
-713.718	372.522	0.105	0.215
-712.704	-27.737	-0.264	0.155
-711.689	68.341	0.298	0.308
-710.675	-200.000	0.043	-0.205
-709.660	-28.760	0.263	-0.153
-708.645	142.665	0.116	-0.157
-707.631	800.000	0.114	-0.338
-706.616	131.460	0.028	0.037
-705.602	261.857	0.124	0.217
-704.587	-128.683	0.134	-0.019
-703.572	-152.326	0.169	0.012
-702.558	28.647	-0.312	0.267
-701.543	-19.982	0.048	0.030
-700.529	277.392	-0.070	-0.126
-699.514	800.000	-0.021	-0.075
-698.499	16.028	0.243	-0.193
-697.485	-22.167	0.202	-0.124
-696.470	141.300	0.196	-0.262
-695.456	-200.000	0.006	-0.250
-694.441	-60.597	-0.107	0.046
-693.426	6.265	-0.069	0.052
-692.412	-52.613	-0.204	-0.095
-691.397	800.000	0.064	-0.261
-690.383	123.765	-0.109	-0.138
-689.368	-120.119	-0.116	0.020
-688.354	-200.000	-0.018	0.184
-687.339	-200.000	-0.029	-0.288
-686.324	-200.000	0.013	0.115
-685.310	759.642	-0.012	-0.033
-684.295	-154.423	-0.106	0.007
-683.281	-61.909	0.275	0.116
-682.266	8.139	-0.147	-0.112
-681.251	43.773	0.264	-0.244
-680.237	-177.530	0.188	0.005
-679.222	800.000	0.075	0.265
-678.208	46.428	-0.240	-0.225
-677.193	145.845	0.092	0.124
-676.178	-21.663	0.196	0.121
-675.164	-200.000	0.016	0.233
-674.149	382.977	0.224	0.466
-673.135	-66.048	0.360	0.145
-672.120	338.290	-0.125	0.246
-671.105	744.173	0.102	-0.277
-670.091	-66.411	0.365	0.146
-669.076	-66.709	0.326	0.130
-668.062	68.980	-0.201	0.208
-667.047	353.056	0.069	-0.138
-666.032	800.000	-0.025	-0.074
-665.018	256.458	-0.154	0.268
-664.003	609.131	-0.136	0.344
-662.989	220.081	-0.071	-0.115
-661.974	-200.000	-0.039	-0.228
-660.959	-144.886	0.215	0.020
-659.945	335.785	-0.071	0.140
-658.930	800.000	0.089	0.280
-657.916	-4.331	-0.136	0.095
-656.901	-68.700	0.204	-0.080
-655.886	636.479	0.076	-0.194
-654.872	-27.830	0.063	0.037
-653.857	232.241	0.035	-0.058
-652.843	-200.000	0.013	0.189
-651.828	-192.704	-0.165	0.002
-650.814	201.154	-0.031	-0.048
-649.799	127.034	0.275	-0.351
-648.784	800.000	0.081	-0.288
-647.770	-200.000	0.000	-0.076
-646.755	-63.864	-0.188	-0.078
-645.741	-82.691	-0.328	0.107
-644.726	496.941	0.112	-0.260
-643.711	-113.342	-0.287	0.057
-642.697	-69.223	-0.224	-0.087
-641.682	800.000	0.122	-0.418
-640.668	11.396	-0.153	-0.119
-639.653	-14.646	-0.280	-0.181
-638.638	-39.583	-0.152	0.080
-637.624	-75.973	0.012	-0.004
-636.609	76.662	-0.153	0.164
-635.595	-105.979	-0.241	-0.055
-634.580	75.252	0.158	-0.168
-633.565	800.000	-0.099	-0.321
-632.551	-200.000	0.034	0.266
-631.536	-60.889	0.112	-0.048
-630.522	-122.353	-0.029	-0.005
-629.507	-121.687	0.249	-0.042
-628.492	800.000	0.018	0.060
-627.478	-102.134	0.183	0.044
-626.463	-159.896	-0.120	0.007
-625.449	-138.114	0.213	0.024
-624.434	-35.643	0.166	-0.091
-623.419	-72.413	-0.245	-0.091
-622.405	42.227	-0.071	0.065
-621.390	-149.559	-0.112	0.009
-620.376	222.932	0.044	-0.072
-619.361	800.000	0.074	0.275
-618.346	-138.400	0.190	0.021
-617.332	-200.000	-0.003	0.230
-616.317	-29.969	-0.151	0.087
-615.303	92.061	-0.295	-0.334
-614.288	-200.000	0.007	-0.143
-613.273	800.000	0.063	-0.211
-612.259	-200.000	0.068	-0.348
-611.244	92.719	-0.008	-0.009
-610.230	120.217	-0.084	-0.105
-609.215	-20.632	-0.135	0.083
-608.201	-38.189	-0.112	0.060
-607.186	165.578	0.132	0.187
-606.171	326.013	-0.102	0.196
-605.157	-58.372	0.360	0.157
-604.142	328.405	0.048	0.092
-603.128	118.931	-0.039	0.049
-602.113	25.949	-0.274	0.230
-601.098	128.864	0.145	0.187
-600.084	-200.000	-0.023	-0.349
-599.069	113.802	0.178	0.218
-598.055	403.315	-0.213	0.452
-597.040	-55.404	-0.190	-0.086
-596.025	-200.000	0.054	-0.270
-595.011	658.247	-0.057	-0.148
-593.996	0.917	-0.161	0.116
-592.982	-91.668	-0.296	0.085
-591.967	42.263	-0.191	-0.175
-590.952	55.698	0.205	0.200
-589.938	-200.000	-0.027	0.192
-588.923	79.561	-0.079	0.085
-587.909	-41.311	-0.216	-0.112
-586.894	-85.507	-0.259	-0.081
-585.879	-125.362	-0.188	-0.029
-584.865	-83.949	-0.311	-0.100
-583.850	800.000	0.040	-0.142
-582.836	-179.090	0.143	-0.003
-581.821	48.161	0.202	0.191
-580.806	181.006	-0.065	-0.096
-579.792	800.000	0.028	-0.090
-578.777	-83.471	0.265	0.085
-577.763	-13.915	0.121	0.079
-576.748	720.380	-0.087	-0.232
-575.733	-188.929	0.320	-0.004
-574.719	-200.000	-0.006	0.082
-573.704	146.674	0.032	-0.044
-572.690	-33.097	-0.159	-0.089
-571.675	-110.943	-0.096	-0.020
-570.661	800.000	-0.033	0.093
-569.646	218.061	-0.184	0.295
-568.631	219.295	0.105	0.169
-567.617	-40.808	0.210	-0.109
-566.602	-156.863	-0.163	-0.010
-565.588	-65.737	0.307	0.124
-564.573	128.111	0.200	-0.256
-563.558	-116.142	-0.302	-0.056
-562.544	-181.307	-0.055	0.001
-561.529	58.194	0.109	-0.107
-560.515	800.000	0.062	0.201
-559.500	-33.119	-0.129	0.072
-558.485	-96.607	0.190	0.050
-557.471	-200.000	0.008	0.082
-556.456	-19.265	-0.426	0.265
-555.442	-166.792	-0.497	0.021
-554.427	-200.000	-0.008	0.240
-553.412	800.000	0.032	-0.132
-552.398	30.177	0.109	0.093
-551.383	-10.220	0.190	-0.127
-550.369	-96.283	0.261	-0.069
-549.354	10.977	-0.355	-0.273
-548.339	25.727	0.093	-0.077
-547.325	135.685	-0.108	0.142
-546.310	6.105	-0.194	0.145
-545.296	-45.241	0.117	-0.058
-544.281	2.680	-0.020	-0.014
-543.266	96.772	-0.096	0.110
-542.252	48.173	0.014	-0.013
-541.237	-121.111	0.285	-0.048
-540.223	110.956	-0.219	0.265
-539.208	-22.959	-0.163	0.099
-538.193	28.774	-0.150	-0.128
-537.179	604.162	-0.060	-0.149
-536.164	-23.456	-0.057	0.034
-535.150	-199.832	0.154	-0.001
-534.135	-200.000	0.008	-0.391
-533.121	-164.998	-0.114	-0.005
-532.106	-61.991	0.148	0.062
-531.091	102.930	0.125	0.147
-530.077	188.953	0.074	-0.112
-529.062	-43.599	0.209	0.106
-528.048	31.447	0.227	-0.196
-527.033	-128.713	0.133	-0.019
-526.018	510.934	-0.103	0.241
-525.004	-200.000	-0.008	0.086
-523.989	93.458	-0.066	-0.075
-522.975	39.565	-0.089	-0.080
-521.960	34.216	-0.193	-0.169
-520.945	-200.000	0.007	-0.342
-519.931	-108.150	0.141	-0.031
-518.916	75.157	-0.185	0.196
-517.902	12.649	-0.137	-0.106
-516.887	-200.000	0.075	-0.364
-515.872	-5.864	-0.300	-0.206
-514.858	-48.385	0.408	-0.197
-513.843	1.841	-0.349	-0.252
-512.829	-175.419	0.324	0.009
-511.814	668.947	0.118	-0.307
-510.799	-163.317	-0.191	0.009
-509.785	-24.277	-0.133	0.080
-508.770	66.616	0.103	-0.105
-507.756	-94.387	0.191	0.052
-506.741	243.461	-0.250	0.421
-505.726	-25.483	-0.223	0.132
-504.712	759.763	0.093	-0.252
-503.697	-200.000	-0.014	-0.232
-502.683	-200.000	0.001	-0.164
-501.668	800.000	-0.076	-0.247
-500.653	-200.000	-0.044	-0.227
-499.639	-85.137	0.118	0.037
-498.624	-200.000	-0.071	0.360
-497.610	377.007	0.066	0.136
-496.595	629.293	0.118	0.299
-495.581	77.823	0.044	-0.047
-494.566	-25.133	-0.233	-0.138
-493.551	204.517	0.035	-0.054
-492.537	-14.209	0.144	0.093
-491.522	-114.312	0.192	-0.037
-490.508	-155.003	0.198	0.013
-489.493	135.132	-0.137	-0.179
-488.478	222.934	-0.211	-0.340
-487.464	-200.000	-0.009	-0.078
-486.449	-107.915	-0.165	-0.036
-485.435	71.605	-0.267	0.278
-484.420	258.495	0.070	-0.120
-483.405	800.000	0.067	-0.249
-482.391	92.090	0.180	-0.203
-481.376	800.000	0.039	-0.111
-480.362	-150.329	-0.300	-0.023
-479.347	-66.694	-0.049	-0.020
-478.332	-200.000	-0.062	0.358
-477.318	127.879	-0.047	0.060
-476.303	800.000	0.046	0.148
-475.289	287.562	-0.184	0.333
-474.274	278.810	-0.016	0.028
-473.259	-200.000	-0.013	0.195
-472.245	-200.000	0.042	-0.257
-471.230	-76.682	-0.125	0.044
-470.216	-111.103	-0.213	0.044
-469.201	240.731	-0.274	-0.458
-468.186	-200.000	0.010	0.100
-467.172	91.533	0.151	0.170
-466.157	-133.086	0.438	0.056
-465.143	-200.000	-0.034	0.202
-464.128	800.000	0.082	0.243
-463.113	-200.000	0.001	0.008
-462.099	-114.132	0.201	-0.039
-461.084	-200.000	-0.035	0.261
-460.070	183.405	0.131	0.195
-459.055	109.283	-0.078	-0.093
-458.040	-200.000	0.015	-0.210
-457.026	182.093	0.226	0.333
-456.011	25.599	-0.037	0.031
-454.997	177.888	0.042	-0.061
-453.982	-121.785	0.237	0.039
-452.968	-106.551	0.049	-0.011
-451.953	-175.464	-0.222	0.006
-450.938	460.105	-0.156	0.349
-449.924	-74.786	-0.202	-0.073
-448.909	800.000	-0.020	0.074
-447.895	-200.000	-0.026	-0.244
-446.880	800.000	-0.080	-0.237
-445.865	-91.160	0.235	0.067
-444.851	202.023	0.117	-0.181
-443.836	-200.000	-0.032	-0.421
-442.822	118.170	0.140	-0.173
-441.807	-22.983	0.201	-0.121
-440.792	-99.745	0.080	-0.020
-439.778	29.265	-0.113	-0.096
-438.763	800.000	0.050	-0.178
-437.749	467.072	-0.111	-0.250
-436.734	111.096	0.200	-0.241
-435.719	-200.000	0.017	0.115
-434.705	-112.644	-0.258	0.051
-433.690	360.009	0.132	0.265
-432.676	-200.000	0.051	-0.293
-431.661	-67.724	0.128	-0.050
-430.646	-162.013	-0.453	-0.023
-429.632	-24.919	0.062	0.037
-428.617	2.076	-0.269	0.194
-427.603	800.000	-0.029	-0.087
-426.588	5.332	0.192	0.142
-425.573	-9.037	0.154	-0.103
-424.559	800.000	0.091	0.291
-423.544	438.241	0.079	0.173
-422.530	137.309	0.314	0.411
-421.515	-128.737	-0.373	0.053
-420.500	117.253	0.204	-0.251
-419.486	-200.000	-0.004	0.053
-418.471	-8.596	0.432	-0.290
-417.457	37.083	-0.016	0.014
-416.442	-31.256	-0.425	-0.239
-415.428	295.032	-0.121	-0.221
-414.413	-200.000	-0.006	0.096
-413.398	106.920	-0.105	0.125
-412.384	800.000	0.044	-0.174
-411.369	764.949	-0.052	-0.140
-410.355	-200.000	-0.036	0.230
-409.340	354.183	-0.124	-0.245
-408.325	348.997	0.102	-0.201
-407.311	-64.064	-0.013	0.005
-406.296	18.373	-0.145	-0.116
-405.282	23.133	0.138	-0.113
-404.267	-51.841	0.487	0.227
-403.252	800.000	-0.047	-0.159
-402.238	632.650	-0.133	0.338
-401.223	16.624	-0.124	-0.098
-400.209	-135.034	0.152	0.018
-399.194	-17.534	-0.143	0.090
-398.179	304.641	-0.023	-0.043
-397.165	-11.363	-0.444	-0.292
-396.150	-200.000	-0.000	-0.039
-395.136	58.729	-0.294	-0.289
-394.121	77.088	-0.115	0.122
-393.106	-19.054	0.131	0.081
-392.092	-71.221	0.262	0.098
-391.077	33.904	0.229	0.199
-390.063	-200.000	-0.002	0.078
-389.048	-119.922	0.256	0.044
-388.033	-18.674	-0.125	-0.078
-387.019	212.799	-0.102	0.160
-386.004	236.503	-0.056	0.093
-384.990	251.056	0.182	0.308
-383.975	800.000	-0.044	0.134
-382.960	-170.847	0.036	-0.001
-381.946	-200.000	0.013	0.112
-380.931	-200.000	-0.046	-0.232
-379.917	88.446	0.185	0.205
-378.902	197.725	0.118	0.180
-377.888	-139.368	-0.135	-0.015
-376.873	-97.739	0.344	-0.089
-375.858	800.000	0.079	-0.257
-374.844	-169.034	0.119	0.004
-373.829	106.321	0.057	-0.068
-372.815	268.695	0.076	-0.133
-371.800	-81.087	0.081	-0.027
-370.785	506.367	0.068	-0.157
-369.771	800.000	-0.112	0.372
-368.756	136.631	0.074	0.096
-367.742	-52.016	0.050	0.023
-366.727	-30.766	-0.079	0.045
-365.712	66.780	-0.295	-0.299
-364.698	650.960	0.091	-0.232
-363.683	-200.000	0.009	-0.108
-362.669	194.991	0.049	0.075
-361.654	277.268	-0.053	0.094
-360.639	-82.808	0.132	-0.043
-359.625	-126.259	-0.316	-0.047
-358.610	25.332	-0.103	0.085
-357.596	-152.474	-0.326	0.023
-356.581	-96.861	0.069	0.018
-355.566	-93.843	-0.301	0.083
-354.552	800.000	-0.060	0.200
-353.537	-17.164	0.320	-0.201
-352.523	-200.000	0.028	0.163
-351.508	-124.198	0.062	-0.010
-350.493	143.011	0.142	0.188
-349.479	27.867	-0.234	0.197
-348.464	546.898	0.042	0.101
-347.450	201.682	-0.111	0.170
-346.435	55.256	-0.134	0.129
-345.420	670.116	0.076	-0.195
-344.406	368.907	0.126	-0.255
-343.391	-200.000	-0.009	0.387
-342.377	37.995	-0.051	-0.045
-341.362	-143.681	0.162	0.015
-340.348	-200.000	0.160	0.000
-339.333	-91.916	0.376	0.106
-338.318	2.773	-0.155	-0.112
-337.304	800.000	0.079	-0.272
-336.289	108.984	-0.230	0.275
-335.275	390.294	0.084	0.173
-334.260	-200.000	-0.022	0.137
-333.245	-200.000	0.026	0.199
-332.231	-134.190	0.367	-0.045
-331.216	-44.002	-0.252	-0.126
-330.202	-79.716	0.027	0.009
-329.187	-75.338	0.235	0.084
-328.172	48.625	-0.214	0.200
-327.158	-13.494	0.067	-0.043
-326.143	299.087	0.104	0.191
-325.129	-122.492	-0.131	-0.021
-324.114	-35.887	-0.378	0.204
-323.099	-63.075	0.174	-0.072
-322.085	-61.750	-0.269	0.112
-321.070	-102.417	0.134	0.032
-320.056	66.742	0.134	-0.136
-319.041	-200.000	-0.030	-0.158
-318.026	476.432	0.091	-0.204
-317.012	-170.964	-0.176	0.006
-315.997	800.000	0.022	-0.066
-314.983	31.883	0.240	-0.206
-313.968	143.892	0.130	-0.172
-312.953	-200.000	0.009	-0.126
-311.939	289.552	-0.127	0.229
-310.924	-200.000	-0.003	0.262
-309.910	-200.000	0.018	-0.260
-308.895	-25.041	-0.172	0.102
-307.880	308.412	-0.174	-0.324
-306.866	622.294	0.098	0.245
-305.851	117.259	0.110	-0.134
-304.837	-29.391	0.151	0.086
-303.822	-6.433	-0.324	-0.220
-302.807	32.474	-0.109	0.093
-301.793	-4.938	-0.203	0.139
-300.778	-148.064	0.265	0.022
-299.764	-200.000	-0.001	-0.240
-298.749	-200.000	-0.008	0.212
-297.735	29.825	0.382	-0.324
-296.720	-33.683	-0.228	-0.125
-295.705	374.659	-0.050	-0.102
-294.691	-157.059	0.087	-0.005
-293.676	800.000	-0.095	0.294
-292.662	-140.248	0.031	-0.003
-291.647	-31.752	0.108	-0.060
-290.632	88.217	0.151	0.167
-289.618	-91.068	0.229	0.065
-288.603	-131.966	-0.129	0.017
-287.589	-50.839	0.266	-0.124
-286.574	85.337	0.138	-0.151
-285.559	659.091	-0.107	0.275
-284.545	-200.000	0.299	-0.001
-283.530	17.754	0.248	-0.197
-282.516	-200.000	-0.034	-0.317
-281.501	-4.610	-0.112	0.077
-280.486	-36.691	-0.116	0.062
-279.472	-200.000	-0.015	-0.182
-278.457	113.951	0.103	0.125
-277.443	-41.026	0.326	0.168
-276.428	-56.571	0.210	-0.093
-275.413	-83.127	0.350	0.112
-274.399	-200.000	-0.000	0.116
-273.384	-200.000	0.047	-0.239
-272.370	800.000	-0.091	0.355
-271.355	-40.445	-0.133	0.069
-270.340	800.000	-0.105	-0.405
-269.326	-122.695	0.227	-0.037
-268.311	86.431	-0.155	-0.170
-267.297	-81.817	-0.050	0.016
-266.282	63.877	-0.159	-0.159
-265.267	-200.000	-0.040	0.320
-264.253	85.479	0.130	-0.142
-263.238	88.155	0.172	0.189
-262.224	-16.969	0.212	-0.133
-261.209	131.493	0.147	0.187
-260.195	-200.000	-0.013	-0.113
-259.180	-200.000	-0.076	0.352
-258.165	-200.000	0.029	-0.232
-257.151	-59.214	-0.362	-0.155
-256.136	-28.641	-0.161	-0.092
-255.122	-133.727	0.307	0.038
-254.107	712.371	0.025	-0.066
-253.092	55.476	0.078	0.075
-252.078	-84.540	0.389	-0.122
-251.063	-17.924	0.196	-0.122
-250.049	-189.804	-0.333	0.004
-249.034	800.000	-0.046	0.142
-248.019	-90.270	0.253	-0.073
-247.005	-79.398	-0.277	0.093
-245.990	-32.112	0.094	-0.052
-244.976	-33.837	0.235	-0.129
-243.961	-118.011	-0.172	0.030
-242.946	120.786	-0.469	0.579
-241.932	-200.000	0.016	-0.252
-240.917	764.557	0.009	-0.023
-239.903	61.754	0.205	-0.203
-238.888	-200.000	-0.013	0.121
-237.873	-200.000	-0.001	-0.155
-236.859	-20.303	-0.209	-0.128
-235.844	-65.291	-0.182	0.073
-234.830	614.367	-0.226	-0.562
-233.815	800.000	0.060	0.189
-232.800	701.355	0.119	0.310
-231.786	103.215	0.104	-0.121
-230.771	501.112	-0.156	-0.358
-229.757	-36.866	-0.210	0.112
-228.742	800.000	0.041	0.127
-227.727	800.000	-0.021	0.076
-226.713	800.000	-0.046	-0.201
-225.698	273.221	0.080	0.140
-224.684	-200.000	0.054	0.287
-223.669	-200.000	-0.038	0.207
-222.655	136.618	-0.092	-0.119
-221.640	-200.000	0.029	-0.382
-220.625	86.578	-0.043	-0.047
-219.611	393.515	-0.136	0.282
-218.596	-200.000	-0.037	0.335
-217.582	-64.451	-0.247	0.100
-216.567	-33.423	-0.232	0.127
-215.552	-85.413	0.501	-0.155
-214.538	-200.000	0.012	0.089
-213.523	-62.495	-0.100	-0.041
-212.509	-22.356	-0.084	0.051
-211.494	35.737	0.041	-0.036
-210.479	443.576	-0.067	-0.146
-209.465	800.000	0.096	0.347
-208.450	606.197	-0.059	0.147
-207.436	-43.624	0.175	0.087
-206.421	146.989	-0.206	-0.274
-205.406	194.310	-0.108	0.162
-204.392	-99.220	0.136	0.034
-203.377	800.000	0.091	-0.262
-202.363	31.619	0.348	0.297
-201.348	-152.703	0.193	-0.014
-200.333	800.000	-0.039	0.115
-199.319	-114.456	0.077	0.015
-198.304	66.136	-0.292	-0.294
-197.290	-200.000	-0.008	-0.061
-196.275	139.624	-0.193	0.252
-195.260	511.596	0.017	0.040
-194.246	-156.181	-0.133	0.008
-193.231	-23.271	-0.113	0.067
-192.217	-200.000	-0.010	-0.062
-191.202	-71.955	0.203	0.075
-190.187	-70.044	0.246	0.093
-189.173	-145.167	-0.204	-0.018
-188.158	203.106	0.041	-0.063
-187.144	5.356	0.063	0.046
-186.129	-63.142	-0.105	-0.043
-185.114	-99.372	-0.141	-0.035
-184.100	15.509	-0.088	-0.069
-183.085	-200.000	0.032	0.200
-182.071	63.236	0.130	0.129
-181.056	-200.000	-0.024	0.278
-180.042	800.000	-0.008	-0.025
-179.027	8.147	0.311	0.231
-178.012	262.927	0.140	0.241
-176.998	93.594	0.067	0.075
-175.983	800.000	-0.061	0.228
-174.969	-141.135	0.086	0.009
-173.954	-200.000	0.008	-0.310
-172.939	-56.997	0.274	-0.120
-171.925	299.865	-0.101	0.185
-170.910	-200.000	-0.004	-0.150
-169.896	588.308	-0.084	0.204
-168.881	-143.898	0.379	0.035
-167.866	-84.834	0.121	-0.038
-166.852	31.091	-0.031	-0.026
-165.837	103.831	-0.063	0.074
-164.823	45.207	0.106	0.096
-163.808	14.835	0.163	0.127
-162.793	-69.408	-0.320	0.122
-161.779	-41.009	-0.106	0.054
-160.764	-88.293	-0.156	-0.046
-159.750	-200.000	-0.015	0.111
-158.735	-68.001	-0.186	0.072
-157.720	-51.009	0.217	0.101
-156.706	800.000	-0.069	0.191
-155.691	-22.677	0.335	0.200
-154.677	-200.000	-0.018	0.080
-153.662	-173.104	0.326	0.010
-152.647	-56.093	-0.125	-0.055
-151.633	-200.000	-0.031	-0.252
-150.618	-200.000	-0.002	-0.094
-149.604	-96.378	0.174	-0.045
-148.589	-200.000	0.027	0.243
-147.574	-200.000	0.013	-0.141
-146.560	-200.000	-0.001	-0.154
-145.545	-41.623	-0.244	0.124
-144.531	800.000	-0.048	0.140
-143.516	800.000	0.058	0.217
-142.502	12.551	-0.120	-0.092
-141.487	-86.942	-0.100	0.030
-140.472	-200.000	-0.046	0.339
-139.458	630.502	0.085	-0.213
-138.443	-200.000	-0.113	0.496
-137.429	19.364	0.266	-0.212
-136.414	800.000	0.017	-0.071
-135.399	46.159	-0.222	-0.204
-134.385	800.000	0.039	-0.141
-133.370	-136.772	-0.022	0.002
-132.356	203.992	-0.103	0.157
-131.341	560.888	-0.075	0.178
-130.326	-108.106	-0.214	-0.046
-129.312	-200.000	-0.017	0.090
-128.297	-143.726	0.066	-0.006
-127.283	-174.949	-0.334	-0.009
-126.268	233.989	0.042	0.068
-125.253	-200.000	0.017	0.198
-124.239	78.604	0.080	-0.084
-123.224	-200.000	0.036	0.318
-122.210	-142.653	-0.176	0.017
-121.195	-68.189	0.106	-0.041
