DTS Sentinel unit serial number:	SN413079Multiplexer serial number:	ORYXHardware model number:	OX4-SRSoftware version number:	ORYX F/W v4.00 Oryx Data Collector v3.7.2.0data status	okinstallation	princeton_trtdifferential loss correction	single-endedforward channel	channel 3reverse channel	N/Adate	2019/09/14time	16:00:35forward acquisition time	60.00reverse acquisition time	0.00gamma	496.2192k internal	0.2295k external	0.2295temperature offset calibration	1.0052default loss term (dB/km)	0.3790temperature slope calibration	1.0000multiplexer offset coefficient	1.0000multiplexer slope coefficient	1.0000fibre end	0.00T internal ref (°C)	38.56T ext. ref 1 (°C)	5.11T ext. ref 2 (°C)	32.92length (m)	temperature (°C)	Stokes	anti-Stokes-747.200	800.000	0.048	0.161
-746.185	-64.482	0.309	-0.129
-745.171	226.599	-0.085	-0.141
-744.156	241.535	-0.205	0.351
-743.142	75.453	0.029	-0.031
-742.127	10.125	0.250	0.194
-741.112	800.000	0.037	-0.161
-740.098	-71.849	-0.225	0.086
-739.083	337.202	-0.031	-0.062
-738.069	-31.462	0.207	0.119
-737.054	150.454	0.069	0.096
-736.039	-200.000	-0.008	-0.170
-735.025	-117.880	0.328	-0.060
-734.010	-54.658	0.102	0.047
-732.996	29.764	-0.161	-0.141
-731.981	-200.000	0.006	0.231
-730.966	-200.000	-0.027	-0.201
-729.952	-183.140	-0.372	0.007
-728.937	305.880	-0.177	-0.336
-727.923	-162.669	-0.100	-0.005
-726.908	-12.648	-0.122	-0.081
-725.894	800.000	0.035	0.148
-724.879	107.980	0.190	-0.232
-723.864	27.618	0.082	0.070
-722.850	162.632	-0.082	-0.118
-721.835	-200.000	0.022	-0.229
-720.821	291.898	0.193	0.359
-719.806	260.460	0.142	-0.251
-718.791	-140.318	-0.091	-0.010
-717.777	-116.745	-0.417	-0.078
-716.762	-59.735	0.047	-0.020
-715.748	-145.411	-0.303	-0.028
-714.733	191.852	-0.323	-0.498
-713.718	-148.014	-0.204	-0.017
-712.704	-200.000	0.041	-0.193
-711.689	-127.665	0.238	0.035
-710.675	-134.967	0.327	-0.040
-709.660	-63.937	-0.263	-0.110
-708.645	-130.900	0.273	-0.037
-707.631	-80.711	0.132	-0.045
-706.616	-200.000	-0.032	-0.203
-705.602	208.800	-0.144	0.231
-704.587	-200.000	0.042	-0.236
-703.572	154.955	-0.115	-0.161
-702.558	-164.254	0.223	-0.010
-701.543	48.171	0.167	-0.159
-700.529	-42.815	0.221	0.115
-699.514	-73.440	-0.079	-0.029
-698.499	-74.435	0.086	-0.032
-697.485	59.858	0.071	0.071
-696.470	-5.972	-0.130	-0.091
-695.456	-39.347	-0.120	0.064
-694.441	14.354	-0.066	-0.052
-693.426	-200.000	-0.011	-0.163
-692.412	96.282	0.069	0.080
-691.397	556.017	0.090	-0.222
-690.383	-200.000	0.041	-0.324
-689.368	61.330	-0.202	0.205
-688.354	-75.925	-0.172	0.062
-687.339	-40.512	-0.028	0.015
-686.324	12.210	-0.067	-0.053
-685.310	-200.000	0.031	-0.318
-684.295	19.938	-0.110	0.090
-683.281	708.151	-0.135	0.365
-682.266	-39.684	0.194	-0.104
-681.251	-200.000	-0.014	-0.190
-680.237	-28.486	0.255	0.150
-679.222	-40.380	0.155	-0.082
-678.208	222.692	-0.108	-0.178
-677.193	10.919	-0.244	0.190
-676.178	441.324	0.066	-0.146
-675.164	800.000	0.105	-0.322
-674.149	-20.519	-0.320	0.201
-673.135	-121.137	-0.155	0.026
-672.120	-37.653	-0.140	0.076
-671.105	294.315	0.092	-0.171
-670.091	-117.929	-0.168	-0.031
-669.076	-4.341	0.113	-0.080
-668.062	-175.362	0.375	-0.010
-667.047	800.000	-0.044	0.134
-666.032	105.703	-0.153	0.185
-665.018	25.462	0.276	-0.234
-664.003	-154.513	-0.145	0.010
-662.989	-64.769	0.185	0.076
-661.974	-133.712	0.197	-0.025
-660.959	-200.000	0.038	-0.299
-659.945	-200.000	-0.046	-0.320
-658.930	-89.313	0.214	0.064
-657.916	116.602	-0.132	0.165
-656.901	193.818	-0.122	-0.189
-655.886	-78.190	0.190	0.067
-654.872	800.000	0.039	-0.141
-653.857	414.135	0.054	-0.116
-652.843	800.000	-0.050	0.186
-651.828	-60.753	0.137	0.059
-650.814	87.856	0.130	-0.147
-649.799	-200.000	-0.041	-0.254
-648.784	221.220	-0.033	-0.054
-647.770	-65.182	-0.360	0.148
-646.755	-101.122	0.119	-0.030
-645.741	-200.000	-0.009	-0.207
-644.726	-31.252	0.301	-0.173
-643.711	800.000	-0.008	0.025
-642.697	-200.000	0.037	-0.193
-641.682	-39.633	-0.107	-0.057
-640.668	-39.057	-0.115	0.062
-639.653	800.000	-0.056	0.208
-638.638	339.847	0.228	0.452
-637.624	618.578	-0.058	-0.148
-636.609	-200.000	0.002	-0.141
-635.595	552.093	0.153	-0.374
-634.580	-44.293	-0.066	-0.033
-633.565	782.947	0.088	0.245
-632.551	800.000	-0.059	0.221
-631.536	800.000	-0.112	0.327
-630.522	-162.457	0.089	0.005
-629.507	-200.000	0.035	-0.322
-628.492	-42.438	-0.269	-0.140
-627.478	157.344	-0.154	-0.218
-626.463	-44.814	0.365	0.185
-625.449	-200.000	0.004	-0.070
-624.434	-181.288	-0.143	0.003
-623.419	-25.833	-0.178	0.107
-622.405	-125.719	0.259	0.040
-621.390	-200.000	0.004	0.209
-620.376	2.707	-0.087	0.064
-619.361	35.959	-0.007	0.007
-618.346	-42.205	-0.187	0.097
-617.332	-66.738	0.096	-0.039
-616.317	800.000	0.072	-0.284
-615.303	-200.000	-0.016	0.275
-614.288	-200.000	-0.006	-0.049
-613.273	-155.745	-0.336	-0.022
-612.259	749.351	0.058	-0.159
-611.244	-67.925	-0.256	0.102
-610.230	-14.814	0.265	-0.173
-609.215	-83.697	-0.138	-0.045
-608.201	-82.037	0.070	0.023
-607.186	324.820	0.047	-0.092
-606.171	-169.970	0.260	-0.009
-605.157	167.796	-0.030	-0.044
-604.142	66.605	-0.171	-0.177
-603.128	-81.957	-0.396	0.132
-602.113	-15.321	-0.193	0.126
-601.098	-92.809	0.046	-0.013
-600.084	64.905	-0.193	-0.198
-599.069	101.586	-0.094	-0.111
-598.055	-200.000	0.004	-0.309
-597.040	-200.000	0.006	-0.085
-596.025	-112.249	-0.140	0.029
-595.011	778.233	-0.063	0.174
-593.996	800.000	0.078	-0.227
-592.982	40.211	-0.114	-0.104
-591.967	143.140	-0.108	-0.146
-590.952	61.103	0.101	0.102
-589.938	800.000	0.053	-0.214
-588.923	524.962	-0.152	-0.364
-587.909	-148.735	-0.467	0.038
-586.894	-42.157	-0.172	0.089
-585.879	375.212	0.051	-0.105
-584.865	128.090	-0.203	-0.262
-583.850	-200.000	-0.042	0.291
-582.836	-95.518	-0.645	0.176
-581.821	35.729	-0.121	-0.108
-580.806	800.000	0.097	0.271
-579.792	-122.229	-0.210	-0.035
-578.777	-200.000	0.028	0.178
-577.763	-200.000	-0.030	-0.181
-576.748	-90.353	-0.023	0.007
-575.733	118.573	0.273	-0.342
-574.719	53.957	-0.232	0.227
-573.704	800.000	-0.046	-0.139
-572.690	-200.000	-0.005	-0.214
-571.675	121.628	0.084	-0.107
-570.661	-62.627	-0.070	0.029
-569.646	-59.674	-0.078	-0.034
-568.631	683.599	-0.132	-0.349
-567.617	299.059	-0.168	0.314
-566.602	190.740	0.129	0.197
-565.588	114.946	0.093	-0.116
-564.573	-86.915	-0.091	0.028
-563.558	800.000	0.055	0.230
-562.544	239.755	0.060	0.101
-561.529	361.573	-0.121	0.245
-560.515	-190.495	-0.223	-0.002
-559.500	304.520	-0.101	-0.190
-558.485	220.538	0.066	0.108
-557.471	-25.769	0.113	0.068
-556.456	-35.739	-0.023	-0.013
-555.442	-93.562	-0.181	-0.051
-554.427	-141.629	0.296	-0.030
-553.412	-155.908	0.107	0.007
-552.398	-82.716	0.087	-0.029
-551.383	47.653	0.131	-0.124
-550.369	-200.000	-0.015	-0.405
-549.354	-64.540	-0.161	0.066
-548.339	-200.000	0.004	-0.163
-547.325	-99.293	0.282	-0.072
-546.310	-200.000	-0.024	-0.176
-545.296	365.594	0.104	0.214
-544.281	8.299	0.199	-0.151
-543.266	65.260	0.133	-0.136
-542.252	800.000	0.066	-0.235
-541.237	674.048	0.189	0.498
-540.223	-56.736	-0.191	0.086
-539.208	23.950	-0.092	-0.077
-538.193	800.000	-0.118	-0.386
-537.179	28.334	0.314	0.269
-536.164	-37.447	0.149	-0.081
-535.150	-200.000	-0.532	-0.000
-534.135	694.828	0.167	-0.445
-533.121	-200.000	-0.017	0.176
-532.106	157.384	0.297	-0.417
-531.091	-134.383	-0.254	-0.032
-530.077	-144.388	-0.308	0.029
-529.062	-30.890	0.135	-0.077
-528.048	-74.200	-0.294	-0.108
-527.033	-200.000	0.010	-0.135
-526.018	-28.283	-0.274	0.160
-525.004	-200.000	0.014	-0.313
-523.989	-120.292	0.330	0.057
-522.975	800.000	0.084	0.240
-521.960	-113.430	0.430	-0.085
-520.945	-200.000	-0.008	-0.238
-519.931	800.000	0.011	0.036
-518.916	-30.560	-0.102	-0.059
-517.902	197.117	-0.086	-0.133
-516.887	-200.000	0.008	-0.116
-515.872	-27.059	0.155	0.092
-514.858	-43.988	0.149	-0.076
-513.843	800.000	-0.080	0.281
-512.829	-116.417	0.383	0.072
-511.814	167.653	-0.184	0.265
-510.799	800.000	-0.135	-0.414
-509.785	578.223	0.169	-0.419
-508.770	-61.868	0.180	0.076
-507.756	159.081	0.124	0.175
-506.741	-27.433	-0.303	0.178
-505.726	-19.128	-0.143	-0.090
-504.712	-105.371	0.440	-0.101
-503.697	-35.984	-0.256	-0.140
-502.683	-50.001	0.222	-0.107
-501.668	-83.842	0.208	0.067
-500.653	-200.000	-0.003	-0.100
-499.639	-193.115	0.157	-0.001
-498.624	800.000	0.048	0.200
-497.610	-22.415	0.242	0.149
-496.595	411.563	0.004	0.009
-495.581	84.353	0.252	0.279
-494.566	-20.315	-0.214	-0.133
-493.551	800.000	0.046	-0.192
-492.537	-22.330	-0.111	-0.068
-491.522	-104.325	-0.205	0.048
-490.508	-19.207	0.133	-0.083
-489.493	-2.414	0.159	0.113
-488.478	-128.453	-0.179	-0.026
-487.464	197.298	-0.181	-0.280
-486.449	800.000	0.129	-0.369
-485.435	-200.000	0.047	-0.370
-484.420	-200.000	0.018	0.249
-483.405	560.988	-0.135	0.331
-482.391	-200.000	-0.028	0.421
-481.376	-200.000	-0.020	0.114
-480.362	-56.007	-0.314	-0.142
-479.347	-200.000	0.011	-0.080
-478.332	654.953	0.084	-0.218
-477.318	-155.407	-0.395	0.026
-476.303	-47.310	-0.376	0.185
-475.289	-101.753	0.191	-0.047
-474.274	-121.083	0.286	0.049
-473.259	48.128	0.266	0.252
-472.245	-15.338	-0.059	0.038
-471.230	800.000	0.079	-0.324
-470.216	5.849	0.349	-0.261
-469.201	355.357	0.082	0.166
-468.186	-38.752	0.073	0.039
-467.172	681.780	-0.025	0.067
-466.157	162.659	-0.120	0.170
-465.143	-67.712	0.114	-0.045
-464.128	-192.597	0.370	0.003
-463.113	-129.798	0.311	0.043
-462.099	-5.298	-0.346	0.241
-461.084	-200.000	-0.053	-0.261
-460.070	158.474	0.106	-0.149
-459.055	125.171	0.142	0.181
-458.040	-99.884	-0.467	0.118
-457.026	73.304	0.042	0.044
-456.011	800.000	-0.107	-0.311
-454.997	-200.000	0.005	0.276
-453.982	66.202	-0.284	-0.292
-452.968	-43.415	0.039	0.020
-451.953	51.831	0.363	-0.349
-450.938	340.893	0.114	0.226
-449.924	43.752	-0.204	0.189
-448.909	33.878	0.134	-0.118
-447.895	-7.773	-0.101	0.069
-446.880	800.000	0.096	0.293
-445.865	261.212	0.063	-0.110
-444.851	-138.030	-0.035	-0.004
-443.836	430.729	-0.087	0.190
-442.822	624.016	0.119	0.303
-441.807	318.018	0.108	-0.206
-440.792	181.674	-0.096	-0.143
-439.778	-1.494	-0.176	-0.126
-438.763	424.717	-0.064	0.139
-437.749	174.891	-0.139	0.203
-436.734	-61.400	0.193	-0.082
-435.719	-82.128	-0.274	-0.090
-434.705	93.429	0.270	-0.308
-433.690	-200.000	-0.029	-0.146
-432.676	63.023	0.159	0.161
-431.661	373.425	-0.055	-0.113
-430.646	-171.424	-0.178	0.006
-429.632	-42.313	-0.238	-0.123
-428.617	81.932	-0.077	0.084
-427.603	-20.009	0.163	0.101
-426.588	-20.691	-0.254	0.158
-425.573	-200.000	0.038	-0.189
-424.559	-200.000	-0.010	0.540
-423.544	24.785	0.121	0.101
-422.530	110.564	-0.078	-0.095
-421.515	512.177	0.104	-0.245
-420.500	800.000	-0.091	0.294
-419.486	-154.508	0.279	-0.019
-418.471	-188.316	-0.110	0.001
-417.457	523.634	0.034	-0.082
-416.442	202.672	-0.135	-0.211
-415.428	-104.029	0.477	0.112
-414.413	158.586	0.237	-0.332
-413.398	10.506	-0.042	0.032
-412.384	-63.382	0.283	-0.117
-411.369	-200.000	-0.005	0.226
-410.355	-112.459	-0.349	0.070
-409.340	246.143	-0.100	-0.170
-408.325	93.213	0.194	0.221
-407.311	-57.331	-0.101	-0.045
-406.296	297.303	0.123	-0.227
-405.282	-91.598	0.276	0.079
-404.267	50.756	-0.011	0.010
-403.252	447.778	0.095	0.212
-402.238	-200.000	-0.004	-0.127
-401.223	-200.000	0.000	0.022
-400.209	211.945	0.085	0.135
-399.194	76.623	0.101	0.109
-398.179	-156.629	0.087	-0.005
-397.165	2.394	-0.114	0.083
-396.150	135.147	-0.084	0.110
-395.136	-200.000	-0.071	-0.334
-394.121	-200.000	-0.003	0.416
-393.106	800.000	-0.070	0.260
-392.092	-82.331	0.231	-0.076
-391.077	-18.710	0.263	-0.165
-390.063	-114.573	-0.063	0.012
-389.048	-94.627	0.187	-0.051
-388.033	157.864	-0.114	0.159
-387.019	56.609	-0.242	0.237
-386.004	-108.770	-0.579	-0.125
-384.990	472.822	-0.078	0.176
-383.975	-82.332	0.108	0.036
-382.960	800.000	-0.060	0.243
-381.946	43.022	-0.102	0.093
-380.931	-115.756	0.285	0.054
-379.917	800.000	-0.051	-0.160
-378.902	18.367	0.219	0.177
-377.888	-121.245	-0.305	-0.051
-376.873	-200.000	-0.062	-0.466
-375.858	-46.924	0.122	0.060
-374.844	-48.747	0.262	-0.127
-373.829	-63.781	0.070	-0.029
-372.815	-200.000	-0.024	0.172
-371.800	-120.935	-0.274	0.046
-370.785	-115.246	0.177	0.034
-369.771	15.870	0.084	0.066
-368.756	230.530	0.036	0.059
-367.742	-87.722	-0.474	0.144
-366.727	13.401	-0.132	0.103
-365.712	223.857	0.259	-0.421
-364.698	542.744	-0.040	-0.096
-363.683	146.194	-0.048	-0.065
-362.669	-200.000	0.016	-0.242
-361.654	800.000	-0.051	-0.166
-360.639	-124.014	-0.347	-0.055
-359.625	-175.865	-0.069	-0.002
-358.610	800.000	0.131	-0.387
-357.596	83.805	-0.124	-0.137
-356.581	-73.240	-0.163	-0.060
-355.566	12.994	-0.412	0.321
-354.552	148.026	0.202	0.274
-353.537	108.675	-0.170	0.205
-352.523	391.848	-0.043	0.090
-351.508	-200.000	-0.057	0.291
-350.493	800.000	-0.083	0.314
-349.479	-135.673	-0.293	-0.035
-348.464	-200.000	-0.007	-0.209
-347.450	-169.392	-0.042	0.002
-346.435	800.000	-0.058	0.238
-345.420	-91.218	-0.328	0.095
-344.406	-123.688	0.280	0.045
-343.391	-200.000	-0.011	-0.062
-342.377	-63.550	-0.299	0.124
-341.362	800.000	0.031	0.092
-340.348	239.687	-0.080	-0.133
-339.333	-104.233	-0.355	-0.083
-338.318	27.121	-0.165	0.140
-337.304	-122.311	0.420	-0.069
-336.289	15.240	-0.199	-0.157
-335.275	-200.000	-0.035	-0.239
-334.260	-200.000	-0.013	-0.089
-333.245	-200.000	-0.036	-0.192
-332.231	-73.607	-0.175	-0.064
-331.216	-200.000	0.017	-0.181
-330.202	-64.650	0.310	0.127
-329.187	-71.127	0.217	0.082
-328.172	-90.018	-0.142	-0.042
-327.158	-200.000	0.002	0.160
-326.143	-163.720	0.431	0.020
-325.129	-144.109	0.360	0.034
-324.114	52.738	0.082	0.079
-323.099	-30.731	-0.089	-0.050
-322.085	-200.000	-0.050	0.366
-321.070	232.570	0.136	-0.224
-320.056	-200.000	-0.015	0.328
-319.041	177.362	-0.117	-0.171
-318.026	124.235	0.099	0.125
-317.012	-127.064	0.370	0.055
-315.997	-99.974	-0.215	-0.054
-314.983	245.763	0.199	0.337
-313.968	-200.000	-0.031	0.293
-312.953	-200.000	0.005	-0.176
-311.939	17.416	-0.188	-0.150
-310.924	-200.000	0.003	0.080
-309.910	21.380	0.157	-0.129
-308.895	252.268	-0.105	-0.180
-307.880	800.000	-0.029	-0.088
-306.866	166.869	-0.078	-0.111
-305.851	-145.010	0.221	-0.020
-304.837	-38.565	0.238	0.127
-303.822	-12.367	-0.288	0.189
-302.807	22.111	-0.053	-0.043
-301.793	-24.100	0.182	-0.110
-300.778	-105.290	0.119	-0.027
-299.764	799.680	0.023	0.064
-298.749	43.233	-0.078	0.071
-297.735	543.236	-0.066	0.157
-296.720	592.552	-0.070	0.174
-295.705	35.505	0.031	-0.028
-294.691	800.000	0.052	-0.146
-293.676	479.397	-0.065	0.149
-292.662	-114.961	-0.014	-0.003
-291.647	436.566	0.038	-0.082
-290.632	-27.397	0.226	0.132
-289.618	-200.000	0.045	0.356
-288.603	-49.550	-0.170	-0.081
-287.589	655.543	-0.057	0.148
-286.574	252.956	-0.067	0.114
-285.559	-83.067	-0.171	-0.055
-284.545	-6.417	0.140	-0.096
-283.530	-48.223	0.249	0.121
-282.516	-161.490	0.128	-0.007
-281.501	-200.000	-0.002	-0.028
-280.486	-200.000	0.012	-0.126
-279.472	-68.017	-0.142	-0.055
-278.457	-95.557	0.237	-0.064
-277.443	514.312	-0.037	-0.086
-276.428	88.703	0.238	-0.265
-275.413	-113.595	-0.416	0.082
-274.399	800.000	0.093	0.267
-273.384	85.227	0.210	0.232
-272.370	-106.439	0.145	-0.033
-271.355	118.413	-0.095	-0.118
-270.340	80.418	0.295	-0.319
-269.326	259.818	-0.090	0.157
-268.311	-121.672	0.304	0.051
-267.297	-111.326	-0.106	0.022
-266.282	-200.000	-0.008	0.459
-265.267	800.000	0.091	0.275
-264.253	800.000	0.027	0.105
-263.238	800.000	-0.047	0.140
-262.224	73.389	0.194	-0.203
-261.209	302.115	-0.107	0.199
-260.195	-77.011	0.333	-0.116
-259.180	-29.674	0.028	0.016
-258.165	-147.398	0.109	0.009
-257.151	-81.052	0.099	0.033
-256.136	800.000	0.048	-0.180
-255.122	-200.000	0.003	-0.265
-254.107	61.816	-0.171	-0.171
-253.092	-200.000	0.006	0.049
-252.078	202.302	0.152	0.235
-251.063	-3.431	0.173	-0.121
-250.049	-113.490	0.122	0.024
-249.034	800.000	-0.096	0.273
-248.019	-31.845	0.274	-0.154
-247.005	149.848	-0.077	-0.105
-245.990	-71.764	-0.178	0.067
-244.976	-3.752	-0.106	0.074
-243.961	-200.000	-0.007	0.036
-242.946	20.032	0.080	0.065
-241.932	-27.083	-0.147	0.086
-240.917	-21.944	-0.251	-0.153
-239.903	83.403	0.132	-0.145
-238.888	9.223	0.108	0.082
-237.873	-21.497	-0.309	0.189
-236.859	-200.000	-0.031	-0.228
-235.844	-31.273	-0.287	-0.162
-234.830	-101.685	-0.245	-0.059
-233.815	-86.296	-0.249	0.077
-232.800	-200.000	-0.001	-0.018
-231.786	546.608	-0.132	-0.317
-230.771	-114.892	0.210	-0.040
-229.757	-64.384	-0.328	0.134
-228.742	87.137	-0.144	0.159
-227.727	-200.000	-0.001	0.068
-226.713	99.056	0.124	0.144
-225.698	46.527	0.293	-0.272
-224.684	-75.169	0.099	0.035
-223.669	105.875	0.130	-0.154
-222.655	-104.867	-0.151	0.035
-221.640	79.780	0.276	-0.297
-220.625	54.554	-0.073	0.071
-219.611	-101.706	-0.470	-0.114
-218.596	-140.269	0.318	0.033
-217.582	800.000	-0.092	0.269
-216.567	-17.303	-0.173	0.109
-215.552	-153.094	0.235	-0.017
-214.538	76.444	0.150	-0.160
-213.523	-89.843	0.110	0.032
-212.509	-13.526	-0.208	0.135
-211.494	77.818	0.173	0.185
-210.479	-97.765	-0.257	0.067
-209.465	-112.905	0.452	0.090
-208.450	-46.262	0.306	-0.151
-207.436	-133.139	-0.012	0.002
-206.421	-200.000	0.095	-0.453
-205.406	266.706	-0.132	0.231
-204.392	-11.124	0.161	-0.106
-203.377	-179.758	0.340	0.007
-202.363	-94.495	0.165	-0.045
-201.348	800.000	0.074	0.214
-200.333	-125.800	-0.162	-0.024
-199.319	-102.762	-0.162	0.039
-198.304	707.980	-0.044	0.116
-197.290	322.577	-0.073	-0.139
-196.275	-200.000	-0.031	-0.221
-195.260	29.624	0.274	0.233
-194.246	-126.785	-0.269	0.040
-193.231	534.620	0.098	0.232
-192.217	-149.263	-0.165	-0.013
-191.202	92.060	-0.170	0.191
-190.187	-47.501	-0.127	0.062
-189.173	-51.344	-0.199	0.093
-188.158	-118.161	0.372	0.066
-187.144	300.727	-0.080	0.148
-186.129	-24.323	-0.145	-0.087
-185.114	-200.000	0.086	-0.000
-184.100	129.405	-0.019	-0.024
-183.085	-200.000	-0.042	-0.206
-182.071	34.415	-0.335	-0.293
-181.056	800.000	0.058	0.166
-180.042	-200.000	0.014	0.110
-179.027	-160.740	-0.161	-0.009
-178.012	-12.758	0.130	0.085
-176.998	-28.198	0.083	0.048
-175.983	586.993	0.173	0.426
-174.969	800.000	-0.090	0.307
-173.954	94.390	0.025	-0.029
-172.939	800.000	0.103	-0.301
-171.925	-200.000	0.006	-0.236
-170.910	226.734	-0.099	0.161
-169.896	-200.000	-0.025	-0.142
-168.881	17.680	0.109	-0.087
-167.866	486.920	0.052	-0.118
-166.852	564.437	0.111	0.268
-165.837	441.248	-0.084	0.184
-164.823	16.692	0.295	0.233
-163.808	-70.246	-0.116	0.044
-162.793	129.428	-0.337	-0.430
-161.779	-200.000	0.071	-0.315
-160.764	-200.000	-0.025	0.207
-159.750	-7.194	0.556	0.377
-158.735	-119.339	0.278	-0.048
-157.720	800.000	-0.101	0.283
-156.706	-105.117	0.111	0.025
-155.691	574.914	-0.122	0.298
-154.677	-134.937	0.053	-0.006
-153.662	100.201	0.027	-0.031
-152.647	800.000	-0.055	-0.152
-151.633	21.731	0.120	-0.098
-150.618	-80.370	-0.298	-0.099
-149.604	23.383	0.418	0.343
-148.589	-152.520	0.252	-0.018
-147.574	253.971	-0.147	-0.251
-146.560	386.043	0.108	-0.223
-145.545	-200.000	-0.027	-0.153
-144.531	-158.343	0.454	0.026
-143.516	172.264	0.052	0.074
-142.502	-60.631	0.221	0.094
-141.487	800.000	-0.029	0.119
-140.472	-143.571	0.157	0.015
-139.458	-120.573	-0.149	0.025
-138.443	639.880	-0.040	-0.101
-137.429	800.000	0.012	0.040
-136.414	34.547	0.196	-0.171
-135.399	-200.000	-0.024	0.302
-134.385	397.066	-0.166	0.345
-133.370	-127.010	0.360	-0.053
-132.356	-98.504	-0.379	0.097
-131.341	677.715	0.092	-0.238
-130.326	244.687	0.128	-0.215
-129.312	-74.648	-0.223	0.080
-128.297	-68.464	-0.489	-0.189
-127.283	-91.658	-0.043	0.012
-126.268	-200.000	-0.021	0.196
-125.253	-200.000	-0.052	-0.255
-124.239	-9.635	-0.155	-0.103
-123.224	-173.697	0.211	0.006
-122.210	72.235	0.148	-0.154
