DTS Sentinel unit serial number:	SN413079Multiplexer serial number:	ORYXHardware model number:	OX4-SRSoftware version number:	ORYX F/W v4.00 Oryx Data Collector v3.7.2.0data status	okinstallation	princeton_trtdifferential loss correction	single-endedforward channel	channel 3reverse channel	N/Adate	2019/09/18time	04:40:35forward acquisition time	60.00reverse acquisition time	0.00gamma	496.2192k internal	0.2343k external	0.2343temperature offset calibration	0.9947default loss term (dB/km)	0.3790temperature slope calibration	1.0000multiplexer offset coefficient	1.0000multiplexer slope coefficient	1.0000fibre end	0.00T internal ref (°C)	23.42T ext. ref 1 (°C)	0.17T ext. ref 2 (°C)	17.72length (m)	temperature (°C)	Stokes	anti-Stokes-747.200	353.239	-0.050	-0.100
-746.185	800.000	-0.015	-0.063
-745.171	13.961	-0.278	0.216
-744.156	-71.669	0.103	-0.039
-743.142	6.363	0.264	0.196
-742.127	68.244	-0.114	0.117
-741.112	163.759	-0.081	0.114
-740.098	331.746	-0.095	-0.183
-739.083	627.917	-0.144	0.365
-738.069	-200.000	-0.062	0.378
-737.054	-200.000	-0.023	0.233
-736.039	-49.845	-0.186	0.089
-735.025	-200.000	0.021	0.114
-734.010	-36.959	-0.105	-0.056
-732.996	28.559	-0.409	0.346
-731.981	-102.376	-0.131	-0.031
-730.966	-143.973	-0.267	-0.025
-729.952	-89.541	0.132	0.039
-728.937	800.000	-0.099	-0.318
-727.923	800.000	0.045	0.184
-726.908	-200.000	-0.012	0.175
-725.894	-98.943	-0.364	0.092
-724.879	-192.949	0.158	0.001
-723.864	519.653	0.089	0.208
-722.850	-89.047	0.168	-0.050
-721.835	411.135	0.140	-0.296
-720.821	-86.754	0.047	-0.014
-719.806	-158.425	-0.109	-0.006
-718.791	-53.977	-0.188	0.086
-717.777	-114.870	0.238	0.045
-716.762	228.815	0.090	0.147
-715.748	177.354	0.106	0.154
-714.733	31.674	0.184	-0.158
-713.718	-26.809	-0.282	0.165
-712.704	-98.756	-0.158	-0.040
-711.689	79.553	0.267	0.287
-710.675	250.302	-0.178	-0.302
-709.660	-138.131	-0.173	0.019
-708.645	502.950	-0.089	-0.207
-707.631	-89.671	-0.123	0.036
-706.616	-46.039	0.231	-0.114
-705.602	-78.975	-0.196	-0.067
-704.587	24.674	0.232	-0.192
-703.572	800.000	-0.100	-0.334
-702.558	-200.000	0.011	0.216
-701.543	-13.568	0.268	0.173
-700.529	-85.334	0.121	0.038
-699.514	134.967	0.216	0.280
-698.499	74.560	-0.141	0.149
-697.485	74.911	-0.300	0.316
-696.470	312.734	-0.082	-0.153
-695.456	50.532	0.118	0.111
-694.441	359.033	0.224	0.447
-693.426	-76.031	-0.308	-0.109
-692.412	83.565	-0.245	0.267
-691.397	-200.000	-0.149	0.001
-690.383	-200.000	-0.047	-0.558
-689.368	35.211	-0.120	0.105
-688.354	-123.106	0.162	-0.026
-687.339	235.629	-0.197	-0.325
-686.324	61.422	-0.438	-0.436
-685.310	-200.000	0.013	0.225
-684.295	163.001	-0.213	0.299
-683.281	-93.625	-0.267	-0.074
-682.266	-34.338	0.385	0.211
-681.251	-84.220	-0.264	0.084
-680.237	-54.660	-0.298	-0.135
-679.222	327.096	0.061	0.118
-678.208	424.911	0.076	-0.164
-677.193	-200.000	0.022	-0.295
-676.178	-38.411	-0.110	0.058
-675.164	79.166	0.154	-0.164
-674.149	-200.000	0.005	0.238
-673.135	-200.000	0.004	0.051
-672.120	-2.824	-0.264	-0.184
-671.105	23.823	0.343	-0.282
-670.091	466.607	-0.100	-0.224
-669.076	-5.653	0.228	0.156
-668.062	-152.899	0.346	0.024
-667.047	-150.921	0.070	-0.005
-666.032	-14.390	0.482	0.310
-665.018	-200.000	0.014	-0.133
-664.003	-176.416	0.164	0.004
-662.989	-40.783	-0.159	0.082
-661.974	-64.389	-0.090	0.036
-660.959	236.396	-0.245	-0.405
-659.945	-122.835	-0.371	0.060
-658.930	800.000	-0.038	0.154
-657.916	-104.791	0.095	0.022
-656.901	182.229	-0.087	-0.128
-655.886	84.058	-0.163	-0.177
-654.872	-17.643	0.289	-0.181
-653.857	418.220	-0.034	0.073
-652.843	105.171	0.301	-0.355
-651.828	-59.105	-0.157	-0.067
-650.814	-200.000	0.002	-0.255
-649.799	-200.000	0.005	-0.353
-648.784	136.549	-0.228	0.297
-647.770	-200.000	0.018	0.158
-646.755	249.574	0.087	0.148
-645.741	-116.686	-0.366	-0.067
-644.726	-78.508	-0.059	0.020
-643.711	-39.849	0.215	-0.112
-642.697	50.345	0.082	-0.077
-641.682	245.155	0.160	-0.269
-640.668	142.108	0.055	-0.073
-639.653	-13.362	-0.092	-0.059
-638.638	212.155	0.118	0.186
-637.624	-200.000	-0.038	-0.323
-636.609	-15.072	0.136	-0.087
-635.595	-200.000	-0.027	-0.212
-634.580	751.108	-0.222	-0.598
-633.565	-91.001	-0.033	0.009
-632.551	114.631	-0.106	-0.129
-631.536	-179.891	-0.316	-0.007
-630.522	-200.000	-0.011	-0.068
-629.507	-200.000	0.016	0.303
-628.492	-148.525	-0.518	0.042
-627.478	454.011	0.082	0.181
-626.463	-63.564	-0.244	0.100
-625.449	-21.432	0.207	0.126
-624.434	179.632	0.163	0.238
-623.419	337.083	-0.066	0.128
-622.405	54.463	0.184	0.177
-621.390	-200.000	-0.013	0.096
-620.376	119.254	-0.080	0.099
-619.361	240.310	-0.095	0.157
-618.346	-200.000	-0.025	-0.176
-617.332	-200.000	-0.015	-0.138
-616.317	800.000	-0.034	0.142
-615.303	-7.855	-0.181	-0.122
-614.288	-27.478	-0.227	0.131
-613.273	-200.000	0.067	-0.338
-612.259	72.810	-0.042	-0.044
-611.244	-55.808	-0.205	0.091
-610.230	266.711	-0.125	-0.218
-609.215	202.605	-0.023	0.035
-608.201	308.704	-0.051	-0.094
-607.186	-80.038	-0.144	-0.048
-606.171	28.570	0.183	0.154
-605.157	800.000	0.021	0.081
-604.142	51.185	0.115	-0.108
-603.128	-96.472	0.064	-0.017
-602.113	176.951	-0.197	0.286
-601.098	-60.001	0.069	-0.029
-600.084	29.664	0.094	-0.080
-599.069	18.585	-0.139	-0.110
-598.055	-138.805	-0.075	0.008
-597.040	-200.000	-0.011	-0.338
-596.025	-145.865	-0.375	-0.033
-595.011	334.321	-0.135	-0.261
-593.996	800.000	0.073	-0.306
-592.982	-200.000	-0.020	0.381
-591.967	-58.411	-0.243	0.105
-590.952	92.815	-0.064	-0.072
-589.938	84.203	0.287	0.312
-588.923	1.672	0.109	-0.078
-587.909	-38.291	0.295	0.156
-586.894	-156.654	-0.085	-0.005
-585.879	96.548	-0.115	-0.132
-584.865	-95.088	0.407	0.109
-583.850	-40.906	-0.225	-0.116
-582.836	-200.000	0.021	-0.275
-581.821	527.169	0.171	-0.402
-580.806	-57.755	0.144	0.063
-579.792	-200.000	-0.080	-0.418
-578.777	-148.165	-0.102	-0.008
-577.763	-200.000	0.017	0.097
-576.748	-200.000	-0.017	-0.345
-575.733	269.633	0.080	-0.140
-574.719	-53.426	-0.066	0.030
-573.704	-109.902	0.156	-0.033
-572.690	-79.334	-0.203	-0.068
-571.675	-20.754	-0.014	0.009
-570.661	188.905	0.075	0.112
-569.646	-186.315	-0.138	-0.002
-568.631	-200.000	0.010	0.374
-567.617	-69.466	0.027	0.010
-566.602	-149.205	0.221	0.018
-565.588	33.727	-0.178	0.154
-564.573	-115.145	-0.111	0.021
-563.558	26.011	-0.151	0.125
-562.544	201.432	0.040	0.061
-561.529	67.512	0.122	-0.124
-560.515	-200.000	-0.018	-0.125
-559.500	119.294	-0.085	-0.105
-558.485	41.299	0.303	0.273
-557.471	-200.000	-0.004	0.110
-556.456	77.651	-0.027	0.029
-555.442	-200.000	0.026	0.171
-554.427	-200.000	-0.051	-0.376
-553.412	-33.816	0.350	-0.192
-552.398	-112.683	0.286	0.056
-551.383	-136.020	0.135	-0.016
-550.369	800.000	-0.046	0.145
-549.354	172.117	0.043	-0.061
-548.339	6.202	-0.202	-0.149
-547.325	-22.690	0.079	-0.047
-546.310	-165.127	0.174	0.008
-545.296	800.000	-0.115	-0.338
-544.281	-81.775	0.260	0.085
-543.266	-200.000	0.012	0.065
-542.252	119.791	0.030	-0.037
-541.237	-51.930	-0.121	0.056
-540.223	159.696	-0.042	-0.059
-539.208	491.491	-0.086	-0.196
-538.193	592.564	0.153	-0.376
-537.179	-147.653	-0.211	0.018
-536.164	-200.000	0.036	-0.257
-535.150	-200.000	-0.002	-0.216
-534.135	-151.854	-0.436	0.032
-533.121	-200.000	0.000	0.344
-532.106	603.361	0.109	0.269
-531.091	-84.778	-0.487	0.152
-530.077	63.483	0.226	0.226
-529.062	114.306	0.105	0.127
-528.048	124.013	0.273	0.341
-527.033	80.851	-0.141	0.151
-526.018	457.619	-0.050	0.111
-525.004	-130.805	0.493	-0.066
-523.989	-47.441	0.142	0.068
-522.975	-10.842	-0.395	0.259
-521.960	-103.555	0.019	0.005
-520.945	-106.555	0.123	-0.027
-519.931	-8.370	-0.238	-0.159
-518.916	35.880	0.497	0.434
-517.902	47.232	0.234	-0.216
-516.887	-200.000	-0.030	-0.477
-515.872	523.054	-0.027	-0.062
-514.858	-200.000	-0.029	-0.181
-513.843	509.983	0.071	0.164
-512.829	598.583	-0.129	0.317
-511.814	-28.540	-0.549	-0.314
-510.799	187.723	0.247	-0.367
-509.785	-200.000	-0.024	-0.170
-508.770	800.000	-0.087	0.249
-507.756	149.394	0.102	-0.137
-506.741	-154.943	-0.237	-0.015
-505.726	-44.419	-0.146	0.073
-504.712	-1.730	0.347	-0.242
-503.697	-113.384	-0.176	-0.034
-502.683	-51.696	-0.135	-0.062
-501.668	192.813	-0.203	0.304
-500.653	-21.316	0.062	-0.037
-499.639	-200.000	0.005	0.052
-498.624	-119.312	-0.130	0.023
-497.610	87.316	-0.111	0.122
-496.595	214.372	-0.175	0.275
-495.581	211.803	0.199	0.311
-494.566	-15.912	-0.161	0.102
-493.551	-200.000	-0.048	0.461
-492.537	-169.797	-0.214	0.008
-491.522	800.000	-0.092	-0.264
-490.508	-60.286	-0.294	-0.124
-489.493	800.000	0.077	0.216
-488.478	-200.000	-0.015	0.483
-487.464	-64.207	0.319	-0.129
-486.449	430.814	0.091	-0.195
-485.435	-200.000	-0.029	0.184
-484.420	-200.000	0.041	-0.272
-483.405	-188.973	-0.032	0.000
-482.391	-55.511	0.305	-0.135
-481.376	-18.390	-0.073	0.045
-480.362	-20.554	0.160	0.097
-479.347	5.364	0.122	0.089
-478.332	800.000	0.049	0.171
-477.318	-200.000	-0.005	-0.086
-476.303	-109.237	0.184	-0.039
-475.289	-68.908	-0.216	0.082
-474.274	110.841	-0.173	-0.206
-473.259	-11.475	-0.283	-0.185
-472.245	59.182	-0.051	0.050
-471.230	-150.979	0.146	-0.011
-470.216	-55.123	-0.354	0.158
-469.201	-32.848	0.224	-0.124
-468.186	-200.000	0.252	-0.001
-467.172	-200.000	-0.002	-0.028
-466.157	800.000	0.002	0.009
-465.143	169.438	-0.097	-0.137
-464.128	-155.098	0.404	0.026
-463.113	-132.413	0.290	-0.037
-462.099	20.497	0.252	-0.201
-461.084	-4.061	-0.195	-0.134
-460.070	-200.000	-0.002	-0.237
-459.055	106.987	-0.069	-0.081
-458.040	-47.463	0.218	0.105
-457.026	39.105	-0.113	-0.100
-456.011	50.765	0.080	-0.075
-454.997	17.134	-0.214	0.168
-453.982	-200.000	0.007	-0.159
-452.968	800.000	-0.046	0.179
-451.953	14.626	-0.029	-0.023
-450.938	345.317	-0.006	0.011
-449.924	-30.472	0.197	-0.111
-448.909	309.263	0.114	-0.210
-447.895	8.474	-0.292	0.217
-446.880	102.523	0.209	-0.242
-445.865	16.446	0.148	0.116
-444.851	800.000	-0.067	0.229
-443.836	800.000	0.027	-0.113
-442.822	-34.745	0.295	0.160
-441.807	19.097	-0.177	0.140
-440.792	-138.545	-0.314	0.034
-439.778	243.592	0.042	0.070
-438.763	-119.791	0.271	-0.046
-437.749	-91.788	-0.244	0.069
-436.734	-88.342	0.116	-0.034
-435.719	-200.000	-0.023	-0.421
-434.705	-200.000	-0.020	0.089
-433.690	-69.897	0.213	-0.080
-432.676	800.000	-0.087	0.376
-431.661	-128.488	0.175	0.025
-430.646	51.507	0.182	0.171
-429.632	-172.069	-0.239	-0.008
-428.617	-94.260	0.366	0.099
-427.603	-146.652	-0.129	0.011
-426.588	-89.300	0.116	-0.034
-425.573	800.000	0.063	0.240
-424.559	399.626	-0.157	0.326
-423.544	800.000	0.087	0.319
-422.530	-185.067	0.140	0.002
-421.515	-115.910	0.243	0.045
-420.500	53.424	0.153	-0.146
-419.486	54.861	0.170	0.162
-418.471	193.279	-0.128	0.191
-417.457	382.414	0.206	-0.418
-416.442	-43.329	-0.146	-0.073
-415.428	800.000	-0.050	-0.164
-414.413	-4.886	-0.056	-0.038
-413.398	179.089	0.169	0.244
-412.384	-107.100	0.229	-0.050
-411.369	-61.986	-0.043	-0.018
-410.355	-200.000	-0.003	-0.175
-409.340	-149.562	0.276	-0.022
-408.325	-42.654	-0.544	-0.274
-407.311	-130.787	0.059	-0.008
-406.296	-86.504	0.299	0.091
-405.282	-200.000	0.018	-0.221
-404.267	-119.687	-0.325	-0.055
-403.252	-161.282	0.491	0.025
-402.238	29.912	-0.222	-0.187
-401.223	-55.992	-0.263	-0.116
-400.209	117.807	-0.171	-0.208
-399.194	800.000	-0.071	0.194
-398.179	208.014	-0.184	0.284
-397.165	-51.284	0.082	0.038
-396.150	1.998	-0.138	-0.099
-395.136	-200.000	-0.021	-0.233
-394.121	-56.718	-0.457	-0.200
-393.106	20.976	0.106	-0.085
-392.092	-200.000	0.055	-0.354
-391.077	-21.521	-0.299	0.180
-390.063	-178.602	-0.101	-0.002
-389.048	-96.262	-0.204	-0.053
-388.033	569.627	0.134	-0.322
-387.019	301.094	0.144	0.263
-386.004	-134.202	0.225	0.027
-384.990	-18.172	-0.088	0.054
-383.975	727.241	0.067	0.175
-382.960	-44.199	0.237	-0.117
-381.946	182.673	-0.090	-0.131
-380.931	-200.000	-0.174	-0.001
-379.917	-200.000	0.007	-0.163
-378.902	-62.240	-0.081	-0.033
-377.888	800.000	-0.079	-0.286
-376.873	232.915	0.121	-0.197
-375.858	-200.000	-0.024	0.335
-374.844	-200.000	-0.004	-0.145
-373.829	285.249	-0.072	0.129
-372.815	237.278	-0.187	-0.306
-371.800	731.827	-0.050	-0.132
-370.785	-35.754	0.089	-0.048
-369.771	32.232	0.210	-0.178
-368.756	-159.750	-0.261	0.014
-367.742	-200.000	0.014	-0.222
-366.727	-200.000	0.019	0.297
-365.712	-51.610	-0.137	-0.063
-364.698	-128.560	-0.196	0.027
-363.683	-21.891	0.123	0.074
-362.669	800.000	-0.094	-0.395
-361.654	-90.567	0.265	0.075
-360.639	-44.556	0.262	-0.129
-359.625	108.095	0.080	0.095
-358.610	-200.000	-0.028	0.138
-357.596	-59.555	-0.162	-0.068
-356.581	-114.176	0.113	-0.022
-355.566	-148.001	-0.217	0.018
-354.552	-188.770	0.165	-0.002
-353.537	-9.109	0.141	0.093
-352.523	-117.174	-0.157	-0.028
-351.508	-135.878	0.303	-0.035
-350.493	-200.000	-0.014	0.200
-349.479	-200.000	0.005	-0.218
-348.464	-44.953	-0.264	0.130
-347.450	-54.762	-0.079	-0.035
-346.435	-1.592	0.051	0.035
-345.420	24.925	-0.234	0.191
-344.406	-26.890	-0.348	0.201
-343.391	263.509	0.109	-0.186
-342.377	72.535	0.262	-0.269
-341.362	-67.750	-0.167	-0.064
-340.348	245.007	-0.174	-0.288
-339.333	-200.000	0.021	-0.114
-338.318	102.077	0.194	0.223
-337.304	800.000	-0.065	0.184
-336.289	27.204	0.240	0.199
-335.275	-127.620	0.317	-0.045
-334.260	-117.725	-0.310	-0.055
-333.245	-50.156	0.168	0.078
-332.231	-200.000	-0.046	0.230
-331.216	-103.158	-0.084	-0.020
-330.202	-142.249	0.199	0.019
-329.187	-69.067	-0.116	0.044
-328.172	359.980	-0.049	0.097
-327.158	-62.759	-0.063	-0.026
-326.143	-63.042	-0.182	0.074
-325.129	57.751	0.105	-0.101
-324.114	27.264	0.282	0.233
-323.099	-200.000	-0.019	0.095
-322.085	-150.291	-0.165	-0.013
-321.070	-71.269	0.373	0.138
-320.056	136.493	0.138	-0.178
-319.041	-53.707	0.071	0.032
-318.026	508.902	-0.060	-0.137
-317.012	-200.000	-0.003	0.459
-315.997	-157.541	-0.227	-0.013
-314.983	-109.557	0.423	-0.088
-313.968	-70.257	-0.174	0.065
-312.953	249.827	-0.097	0.162
-311.939	-126.440	0.097	-0.014
-310.924	800.000	-0.058	0.229
-309.910	-21.968	-0.122	-0.073
-308.895	-131.048	-0.149	-0.020
-307.880	132.740	0.159	0.202
-306.866	-200.000	0.019	-0.102
-305.851	-200.000	0.006	-0.272
-304.837	-200.000	-0.030	0.198
-303.822	315.033	0.114	0.211
-302.807	515.821	-0.162	0.372
-301.793	75.217	0.050	0.052
-300.778	-25.086	0.290	0.169
-299.764	-41.251	-0.197	-0.100
-298.749	37.184	-0.160	-0.139
-297.735	481.446	-0.073	-0.163
-296.720	-200.000	-0.004	-0.074
-295.705	355.447	-0.107	0.210
-294.691	56.944	0.129	-0.123
-293.676	800.000	-0.050	-0.196
-292.662	800.000	-0.075	0.228
-291.647	96.569	0.293	-0.330
-290.632	-114.463	0.203	0.038
-289.618	157.621	0.193	-0.263
-288.603	-200.000	0.001	-0.197
-287.589	-123.878	-0.173	0.027
-286.574	-58.359	-0.013	0.006
-285.559	-62.439	-0.112	0.046
-284.545	92.764	0.205	0.228
-283.530	-123.603	0.260	0.041
-282.516	-200.000	-0.006	-0.274
-281.501	-102.542	0.021	0.005
-280.486	128.625	-0.053	-0.066
-279.472	58.423	0.107	-0.104
-278.457	267.012	0.234	0.402
-277.443	-186.353	0.310	0.004
-276.428	-200.000	0.025	0.113
-275.413	800.000	0.101	0.353
-274.399	-27.062	-0.190	-0.109
-273.384	-50.836	-0.195	-0.090
-272.370	77.832	-0.033	0.035
-271.355	196.443	0.108	-0.162
-270.340	800.000	-0.022	-0.065
-269.326	47.814	-0.133	0.122
-268.311	-55.018	0.354	-0.157
-267.297	16.811	0.153	-0.119
-266.282	-22.940	-0.266	0.158
-265.267	-98.244	-0.008	-0.002
-264.253	13.304	-0.244	0.186
-263.238	-152.370	0.182	0.013
-262.224	82.748	-0.229	0.245
-261.209	17.183	0.324	0.252
-260.195	258.909	0.159	-0.270
-259.180	6.749	-0.124	0.091
-258.165	-57.455	-0.267	-0.115
-257.151	-36.823	-0.111	-0.058
-256.136	-200.000	0.022	0.127
-255.122	-99.837	-0.467	0.115
-254.107	-130.160	0.237	0.032
-253.092	-200.000	0.044	0.310
-252.078	-27.711	-0.220	0.125
-251.063	-200.000	0.021	0.154
-250.049	223.637	-0.113	-0.179
-249.034	159.340	0.260	0.355
-248.019	-93.172	0.294	-0.080
-247.005	88.897	0.094	0.103
-245.990	-200.000	0.027	-0.128
-244.976	-177.748	-0.184	-0.004
-243.961	-70.654	0.333	-0.124
-242.946	-200.000	-0.046	0.262
-241.932	26.445	-0.199	0.164
-240.917	596.626	-0.041	-0.099
-239.903	464.814	-0.251	0.552
-238.888	-34.979	-0.203	0.109
-237.873	102.330	-0.209	-0.240
-236.859	-200.000	0.028	0.196
-235.844	272.253	0.129	0.223
-234.830	-200.000	-0.062	-0.367
-233.815	-56.998	-0.105	-0.046
-232.800	-199.239	-0.210	-0.001
-231.786	800.000	0.044	0.172
-230.771	33.577	0.400	0.341
-229.757	262.812	0.154	0.262
-228.742	3.050	-0.248	-0.177
-227.727	236.446	-0.085	-0.137
-226.713	-66.400	-0.093	-0.036
-225.698	714.469	-0.115	0.298
-224.684	800.000	-0.029	0.111
-223.669	-141.330	0.279	0.028
-222.655	71.259	0.097	0.099
-221.640	387.321	0.033	-0.066
-220.625	673.732	0.039	-0.100
-219.611	124.982	0.183	-0.226
-218.596	-151.962	-0.082	-0.006
-217.582	-48.783	-0.167	0.078
-216.567	-200.000	0.012	0.081
-215.552	800.000	-0.064	0.269
-214.538	178.540	-0.054	-0.078
-213.523	-200.000	0.035	-0.190
-212.509	-16.849	0.210	0.130
-211.494	-200.000	-0.032	-0.185
-210.479	-89.633	0.069	0.020
-209.465	641.999	0.114	0.286
-208.450	-104.799	0.085	-0.019
-207.436	197.011	-0.172	-0.258
-206.421	-19.698	-0.077	-0.047
-205.406	1.390	-0.237	0.167
-204.392	-56.443	0.068	-0.029
-203.377	642.473	0.139	-0.346
-202.363	61.296	0.163	0.159
-201.348	-200.000	-0.033	-0.213
-200.333	43.050	0.102	0.091
-199.319	-55.561	-0.085	-0.037
-198.304	-3.079	-0.105	0.072
-197.290	33.524	-0.065	0.056
-196.275	-87.080	0.323	0.096
-195.260	-109.972	0.051	-0.010
-194.246	-200.000	0.022	0.139
-193.231	73.558	-0.139	0.143
-192.217	129.691	-0.149	-0.187
-191.202	-49.752	-0.312	0.145
-190.187	145.776	-0.263	-0.345
-189.173	58.618	0.160	-0.154
-188.158	41.631	-0.140	0.125
-187.144	-109.396	-0.226	0.047
-186.129	-28.815	-0.241	-0.136
-185.114	-200.000	-0.011	-0.147
-184.100	40.600	-0.064	-0.057
-183.085	329.026	0.067	-0.126
-182.071	367.815	0.245	-0.484
-181.056	165.603	0.093	-0.129
-180.042	-200.000	0.029	-0.164
-179.027	-200.000	-0.049	-0.241
-178.012	-155.644	0.228	0.014
-176.998	800.000	-0.027	-0.102
-175.983	-181.526	0.176	0.003
-174.969	-200.000	-0.015	-0.105
-173.954	-126.421	0.163	-0.024
-172.939	-170.628	0.466	-0.016
-171.925	-200.000	0.000	0.114
-170.910	800.000	-0.102	0.423
-169.896	505.205	-0.094	0.213
-168.881	488.337	-0.148	-0.330
-167.866	-113.596	-0.093	-0.018
-166.852	14.892	0.207	-0.158
-165.837	-60.546	0.301	-0.125
-164.823	-31.278	0.062	-0.034
-163.808	-75.600	-0.040	0.014
-162.793	-200.000	0.054	0.299
-161.779	-200.000	-0.013	0.187
-160.764	90.515	0.287	0.315
-159.750	230.109	-0.068	0.109
-158.735	-200.000	0.042	0.379
-157.720	39.951	-0.242	-0.213
-156.706	131.983	-0.103	-0.130
-155.691	-72.312	-0.182	0.066
-154.677	109.168	-0.165	-0.193
-153.662	-151.879	-0.125	-0.009
-152.647	38.441	0.128	0.112
-151.633	134.541	0.063	-0.080
-150.618	-76.917	0.127	-0.044
-149.604	603.134	0.130	0.316
-148.589	800.000	0.028	-0.108
-147.574	299.507	-0.168	0.302
-146.560	-73.266	-0.161	-0.058
-145.545	60.916	-0.158	0.153
-144.531	-76.990	0.118	0.040
-143.516	226.771	-0.345	-0.548
-142.502	-77.737	0.290	0.098
-141.487	575.697	-0.071	0.168
-140.472	41.991	0.048	-0.043
-139.458	601.188	-0.104	0.252
-138.443	51.672	0.196	0.183
-137.429	-200.000	0.008	0.099
-136.414	-200.000	-0.030	0.139
-135.399	27.310	0.259	-0.213
-134.385	107.326	-0.109	-0.127
-133.370	392.044	0.045	0.092
-132.356	-200.000	-0.032	-0.299
-131.341	-89.486	0.036	-0.010
-130.326	-93.318	0.103	0.028
-129.312	137.160	-0.134	0.171
-128.297	-54.248	0.384	-0.170
-127.283	316.376	-0.113	0.209
-126.268	488.307	-0.164	-0.366
-125.253	800.000	-0.013	-0.037
-124.239	649.052	0.034	-0.084
-123.224	-52.457	-0.237	-0.107
-122.210	154.203	-0.252	0.337
