DTS Sentinel unit serial number:	SN413079Multiplexer serial number:	ORYXHardware model number:	OX4-SRSoftware version number:	ORYX F/W v4.00 Oryx Data Collector v3.7.2.0data status	okinstallation	princeton_trtdifferential loss correction	single-endedforward channel	channel 3reverse channel	N/Adate	2019/09/18time	01:20:34forward acquisition time	60.00reverse acquisition time	0.00gamma	496.2192k internal	0.2344k external	0.2344temperature offset calibration	0.9950default loss term (dB/km)	0.3790temperature slope calibration	1.0000multiplexer offset coefficient	1.0000multiplexer slope coefficient	1.0000fibre end	0.00T internal ref (°C)	23.14T ext. ref 1 (°C)	0.16T ext. ref 2 (°C)	16.91length (m)	temperature (°C)	Stokes	anti-Stokes-747.200	-15.169	-0.189	0.121
-746.185	458.437	-0.145	0.323
-745.171	-81.546	-0.290	-0.096
-744.156	-40.403	0.283	0.147
-743.142	60.683	-0.248	0.246
-742.127	-79.902	0.314	0.105
-741.112	39.280	0.078	-0.070
-740.098	162.650	-0.058	0.081
-739.083	-162.692	0.114	0.006
-738.069	-88.253	0.051	0.015
-737.054	-200.000	0.018	0.093
-736.039	-25.388	-0.054	-0.032
-735.025	49.293	0.310	0.291
-734.010	-90.697	-0.094	0.027
-732.996	-95.765	-0.340	-0.091
-731.981	-31.265	-0.158	0.089
-730.966	-200.000	0.000	-0.311
-729.952	115.037	-0.089	0.109
-728.937	-110.953	0.028	-0.006
-727.923	429.816	-0.035	0.076
-726.908	-118.026	0.118	0.021
-725.894	104.639	-0.089	0.104
-724.879	-60.287	0.301	0.128
-723.864	54.937	0.089	0.086
-722.850	-75.311	-0.092	-0.033
-721.835	-132.677	-0.260	0.033
-720.821	182.135	-0.018	-0.027
-719.806	-17.228	-0.379	-0.239
-718.791	-148.965	-0.236	-0.019
-717.777	165.553	-0.177	-0.251
-716.762	-145.967	-0.565	-0.050
-715.748	84.353	-0.294	-0.322
-714.733	136.719	-0.219	0.286
-713.718	25.556	-0.081	-0.068
-712.704	555.685	-0.070	0.168
-711.689	205.195	-0.231	0.359
-710.675	-109.082	0.290	0.062
-709.660	-154.511	0.010	0.001
-708.645	-99.771	-0.440	0.110
-707.631	-200.000	-0.025	-0.229
-706.616	4.886	0.251	0.184
-705.602	-54.938	-0.051	0.023
-704.587	-92.904	0.230	-0.064
-703.572	224.752	-0.166	-0.268
-702.558	187.833	0.050	0.074
-701.543	-56.551	0.176	-0.078
-700.529	-94.428	0.054	0.015
-699.514	-57.071	-0.043	-0.019
-698.499	-94.312	-0.332	0.091
-697.485	-118.314	-0.439	0.078
-696.470	800.000	-0.036	-0.156
-695.456	387.514	-0.082	-0.169
-694.441	275.523	-0.125	-0.221
-693.426	800.000	0.106	-0.318
-692.412	-146.538	0.284	0.025
-691.397	14.326	0.233	0.182
-690.383	-13.610	0.085	0.055
-689.368	-63.999	-0.221	-0.090
-688.354	-161.857	0.213	0.011
-687.339	559.345	0.070	0.168
-686.324	800.000	0.080	-0.291
-685.310	201.611	0.090	0.138
-684.295	-48.614	-0.117	-0.056
-683.281	-200.000	-0.016	0.075
-682.266	-101.623	-0.146	0.035
-681.251	59.829	0.262	-0.258
-680.237	23.160	-0.140	-0.115
-679.222	800.000	0.057	-0.209
-678.208	-86.879	-0.213	0.065
-677.193	-200.000	-0.046	0.253
-676.178	5.844	0.226	-0.167
-675.164	41.246	0.173	0.156
-674.149	-91.808	0.089	0.025
-673.135	351.645	0.062	0.123
-672.120	124.789	0.101	0.126
-671.105	-49.949	0.220	-0.104
-670.091	750.290	-0.144	-0.387
-669.076	-67.598	-0.214	-0.084
-668.062	800.000	-0.135	-0.389
-667.047	-63.559	0.162	-0.067
-666.032	-39.349	-0.257	-0.135
-665.018	-157.581	-0.093	0.006
-664.003	-200.000	-0.011	0.130
-662.989	-86.106	-0.511	0.157
-661.974	-63.504	-0.238	-0.098
-660.959	-172.956	0.181	-0.006
-659.945	-105.933	0.248	0.056
-658.930	-73.423	-0.298	0.109
-657.916	-48.845	-0.247	0.118
-656.901	-124.923	-0.197	0.030
-655.886	-103.342	0.280	0.066
-654.872	-200.000	0.009	-0.167
-653.857	-12.265	0.192	0.125
-652.843	45.487	0.153	0.141
-651.828	-1.586	-0.118	0.083
-650.814	-138.132	-0.044	-0.005
-649.799	-126.026	0.283	-0.042
-648.784	-34.736	-0.132	0.072
-647.770	-200.000	-0.009	-0.144
-646.755	-12.388	-0.074	-0.048
-645.741	-106.959	-0.363	0.080
-644.726	-52.218	-0.197	-0.091
-643.711	-120.777	0.144	0.024
-642.697	-200.000	-0.022	0.108
-641.682	-74.305	0.156	-0.056
-640.668	-13.781	-0.152	0.098
-639.653	800.000	0.025	0.077
-638.638	-143.266	-0.209	-0.020
-637.624	246.546	-0.092	-0.154
-636.609	-116.470	0.297	-0.055
-635.595	-200.000	0.110	0.496
-634.580	800.000	-0.073	0.255
-633.565	545.513	-0.128	0.305
-632.551	99.284	-0.135	0.156
-631.536	-121.208	0.372	0.062
-630.522	792.622	-0.046	0.126
-629.507	-99.893	-0.253	0.063
-628.492	243.076	-0.052	-0.087
-627.478	-182.992	0.239	0.004
-626.463	-38.574	0.162	0.085
-625.449	-200.000	0.023	-0.241
-624.434	800.000	0.066	0.203
-623.419	-181.727	-0.453	0.009
-622.405	-200.000	-0.070	-0.455
-621.390	-136.542	0.305	0.035
-620.376	-183.780	-0.187	0.003
-619.361	-127.056	-0.183	-0.027
-618.346	-200.000	-0.066	-0.314
-617.332	-200.000	0.003	-0.091
-616.317	94.537	-0.158	-0.178
-615.303	641.506	-0.135	-0.342
-614.288	800.000	0.092	0.285
-613.273	-20.555	-0.121	0.074
-612.259	164.378	-0.337	0.473
-611.244	-109.751	0.129	-0.027
-610.230	800.000	-0.022	0.078
-609.215	405.009	0.048	0.100
-608.201	-123.538	-0.070	-0.011
-607.186	433.353	0.051	0.111
-606.171	800.000	-0.143	0.418
-605.157	-200.000	0.019	0.145
-604.142	-200.000	0.021	-0.238
-603.128	-200.000	0.030	0.306
-602.113	52.855	-0.265	-0.252
-601.098	435.241	0.069	-0.149
-600.084	422.121	0.166	0.355
-599.069	197.068	0.084	-0.128
-598.055	249.690	0.165	-0.279
-597.040	135.460	-0.235	-0.305
-596.025	178.382	0.152	-0.221
-595.011	-143.070	-0.116	-0.011
-593.996	-26.775	0.365	-0.212
-592.982	13.774	-0.262	-0.203
-591.967	253.476	-0.136	-0.232
-590.952	-79.480	-0.270	-0.091
-589.938	-118.968	0.070	0.012
-588.923	-60.928	0.141	0.059
-587.909	-200.000	-0.005	0.135
-586.894	74.270	-0.086	-0.090
-585.879	45.278	0.118	0.108
-584.865	-200.000	0.000	0.144
-583.850	-89.065	0.116	0.034
-582.836	-200.000	0.022	-0.297
-581.821	209.547	0.065	0.101
-580.806	-133.005	-0.079	-0.010
-579.792	145.375	-0.030	0.040
-578.777	313.994	-0.114	0.214
-577.763	-162.411	-0.032	-0.002
-576.748	714.537	-0.025	-0.065
-575.733	52.955	-0.280	-0.266
-574.719	800.000	0.044	-0.190
-573.704	-139.306	-0.096	0.010
-572.690	-98.917	0.121	-0.031
-571.675	-107.313	0.266	-0.058
-570.661	-200.000	0.004	0.044
-569.646	141.266	-0.055	-0.073
-568.631	670.230	-0.095	-0.245
-567.617	-17.901	-0.088	0.055
-566.602	-3.401	0.155	-0.107
-565.588	-200.000	-0.082	-0.386
-564.573	-200.000	0.000	-0.016
-563.558	29.521	0.085	-0.072
-562.544	19.443	0.091	-0.072
-561.529	-200.000	-0.056	0.410
-560.515	-168.064	-0.472	-0.018
-559.500	154.634	-0.043	-0.059
-558.485	289.766	0.198	-0.356
-557.471	41.561	-0.217	-0.195
-556.456	-200.000	0.022	0.107
-555.442	131.000	-0.273	-0.348
-554.427	17.107	0.236	-0.186
-553.412	115.957	0.121	-0.147
-552.398	256.113	0.042	0.072
-551.383	301.662	-0.145	0.265
-550.369	-8.497	0.054	0.036
-549.354	112.359	0.055	-0.066
-548.339	-200.000	-0.024	-0.140
-547.325	110.330	0.126	-0.150
-546.310	-126.030	-0.360	0.054
-545.296	-200.000	0.006	0.152
-544.281	-30.467	-0.119	-0.067
-543.266	800.000	0.037	-0.115
-542.252	214.936	0.166	-0.261
-541.237	53.549	0.027	-0.025
-540.223	-11.156	-0.069	0.045
-539.208	11.532	-0.027	-0.020
-538.193	-78.724	-0.212	-0.072
-537.179	70.301	0.113	-0.116
-536.164	-58.428	-0.054	0.023
-535.150	800.000	0.046	0.184
-534.135	304.433	-0.027	-0.049
-533.121	-18.105	-0.245	-0.152
-532.106	-200.000	-0.032	0.281
-531.091	-200.000	-0.018	-0.127
-530.077	399.459	-0.042	-0.087
-529.062	-200.000	0.006	0.256
-528.048	-87.028	-0.181	0.055
-527.033	-7.933	0.262	-0.176
-526.018	465.119	0.067	0.149
-525.004	716.730	-0.126	0.331
-523.989	372.514	0.200	-0.404
-522.975	800.000	0.089	0.245
-521.960	-200.000	0.012	-0.135
-520.945	-69.115	0.362	-0.138
-519.931	-192.905	-0.391	0.004
-518.916	-125.995	0.533	-0.079
-517.902	180.568	-0.135	0.196
-516.887	800.000	-0.099	-0.322
-515.872	-104.193	0.233	0.054
-514.858	-58.675	-0.052	-0.022
-513.843	-32.289	0.284	0.157
-512.829	431.057	-0.085	0.182
-511.814	402.506	-0.134	0.280
-510.799	-188.591	0.177	-0.002
-509.785	174.589	-0.084	0.120
-508.770	-74.804	0.109	0.039
-507.756	-200.000	0.002	0.187
-506.741	-134.790	-0.079	0.010
-505.726	287.048	-0.157	-0.281
-504.712	83.322	0.161	-0.174
-503.697	424.138	-0.113	0.241
-502.683	800.000	-0.096	-0.287
-501.668	-32.438	0.215	0.119
-500.653	282.284	-0.045	-0.081
-499.639	-47.928	0.143	0.069
-498.624	-200.000	0.003	-0.332
-497.610	-59.124	0.311	-0.133
-496.595	18.285	0.072	-0.057
-495.581	196.062	0.170	0.256
-494.566	-2.786	0.183	0.127
-493.551	-30.525	-0.230	-0.129
-492.537	-147.534	0.081	-0.007
-491.522	419.251	-0.035	0.075
-490.508	-200.000	0.009	0.105
-489.493	-60.310	-0.259	-0.109
-488.478	800.000	0.057	0.175
-487.464	32.371	-0.143	-0.122
-486.449	411.007	-0.144	0.302
-485.435	-161.803	0.017	0.001
-484.420	-26.949	0.249	0.144
-483.405	-147.160	-0.257	0.022
-482.391	-77.057	-0.158	-0.055
-481.376	39.239	-0.053	0.047
-480.362	-75.144	0.410	0.145
-479.347	172.899	-0.140	-0.200
-478.332	-137.247	0.205	0.023
-477.318	120.461	0.147	-0.181
-476.303	39.053	-0.093	-0.083
-475.289	469.726	0.087	-0.194
-474.274	148.898	-0.166	0.222
-473.259	800.000	-0.118	0.343
-472.245	-74.018	-0.101	0.036
-471.230	611.026	-0.046	-0.114
-470.216	-58.819	-0.321	0.138
-469.201	800.000	-0.079	0.289
-468.186	51.303	0.290	-0.272
-467.172	126.758	0.149	-0.187
-466.157	315.747	0.111	-0.206
-465.143	-49.414	0.090	-0.042
-464.128	45.471	0.209	0.191
-463.113	64.897	0.032	-0.032
-462.099	611.583	0.082	-0.202
-461.084	85.007	-0.143	0.156
-460.070	800.000	0.101	-0.301
-459.055	-174.779	0.342	-0.010
-458.040	-200.000	-0.002	-0.181
-457.026	88.510	-0.153	-0.169
-456.011	690.728	-0.118	-0.306
-454.997	-35.242	-0.352	0.189
-453.982	279.792	0.079	-0.139
-452.968	274.910	0.107	-0.187
-451.953	800.000	-0.117	-0.356
-450.938	-113.125	0.245	0.048
-449.924	800.000	-0.049	0.207
-448.909	-19.476	-0.091	-0.056
-447.895	87.583	0.278	-0.304
-446.880	113.454	0.099	-0.119
-445.865	229.058	-0.308	0.497
-444.851	-53.008	0.128	-0.058
-443.836	0.746	0.116	0.082
-442.822	104.206	-0.129	-0.150
-441.807	-41.761	-0.192	-0.097
-440.792	-200.000	0.008	0.379
-439.778	246.287	0.071	0.119
-438.763	75.168	0.189	0.197
-437.749	-200.000	0.015	0.211
-436.734	-44.084	-0.057	-0.028
-435.719	-200.000	-0.008	-0.068
-434.705	800.000	-0.081	0.259
-433.690	-103.357	-0.344	-0.080
-432.676	-200.000	0.020	-0.215
-431.661	-200.000	-0.012	0.177
-430.646	432.291	-0.137	0.294
-429.632	-107.219	-0.250	-0.055
-428.617	-200.000	-0.028	-0.245
-427.603	-20.404	0.251	-0.152
-426.588	121.425	-0.131	0.161
-425.573	-188.392	0.271	-0.003
-424.559	392.998	-0.150	-0.308
-423.544	800.000	0.033	-0.121
-422.530	171.712	-0.129	-0.183
-421.515	27.007	0.216	-0.179
-420.500	-200.000	0.014	0.200
-419.486	-83.631	0.031	0.010
-418.471	-200.000	0.056	0.271
-417.457	-100.988	0.362	-0.088
-416.442	-88.436	0.273	-0.081
-415.428	800.000	-0.146	0.517
-414.413	77.166	0.157	-0.165
-413.398	-171.684	-0.070	0.002
-412.384	9.790	-0.047	0.035
-411.369	-73.912	0.357	-0.128
-410.355	-200.000	-0.009	-0.211
-409.340	97.729	-0.194	0.221
-408.325	15.033	-0.209	-0.162
-407.311	-64.968	-0.174	-0.069
-406.296	-127.207	-0.209	-0.030
-405.282	631.935	-0.094	-0.236
-404.267	-43.877	0.042	-0.021
-403.252	-60.646	0.191	0.080
-402.238	198.245	0.023	-0.035
-401.223	201.584	-0.139	-0.212
-400.209	435.977	0.069	-0.148
-399.194	-53.175	-0.034	-0.016
-398.179	573.810	0.055	0.133
-397.165	128.888	-0.125	0.157
-396.150	153.070	-0.058	0.079
-395.136	-131.547	0.213	-0.028
-394.121	27.179	0.098	0.081
-393.106	106.838	0.120	-0.140
-392.092	-200.000	-0.006	0.040
-391.077	202.096	0.053	-0.080
-390.063	-127.723	0.521	-0.074
-389.048	-125.581	-0.176	0.026
-388.033	315.426	0.160	0.297
-387.019	123.555	-0.078	0.097
-386.004	126.307	-0.042	-0.052
-384.990	87.377	0.195	-0.213
-383.975	-57.735	-0.128	-0.055
-382.960	37.347	-0.392	0.342
-381.946	800.000	0.034	-0.130
-380.931	156.286	-0.077	-0.105
-379.917	-94.160	0.192	-0.052
-378.902	-35.844	-0.366	-0.196
-377.888	33.940	-0.066	0.057
-376.873	800.000	-0.063	-0.182
-375.858	106.944	-0.193	-0.226
-374.844	800.000	-0.091	0.345
-373.829	204.078	-0.097	-0.148
-372.815	107.577	-0.046	0.054
-371.800	-200.000	0.013	0.221
-370.785	-95.107	-0.222	-0.059
-369.771	800.000	0.058	0.222
-368.756	133.255	-0.196	0.250
-367.742	-200.000	-0.013	0.431
-366.727	-60.881	-0.180	0.075
-365.712	-141.309	-0.163	-0.016
-364.698	107.313	-0.092	0.107
-363.683	34.287	0.194	-0.167
-362.669	-76.540	-0.092	-0.032
-361.654	113.089	-0.131	0.157
-360.639	-200.000	-0.022	0.274
-359.625	-47.331	0.145	0.069
-358.610	18.243	0.116	0.091
-357.596	-200.000	0.005	-0.146
-356.581	-149.155	-0.116	-0.009
-355.566	-200.000	0.002	-0.212
-354.552	-103.217	0.431	0.100
-353.537	-73.852	0.175	-0.063
-352.523	286.216	-0.099	0.175
-351.508	-165.197	0.022	-0.001
-350.493	-200.000	0.002	0.054
-349.479	76.020	0.074	0.077
-348.464	22.759	-0.315	-0.255
-347.450	18.506	0.041	-0.033
-346.435	-50.849	-0.058	-0.027
-345.420	-200.000	-0.045	-0.331
-344.406	-136.816	0.137	-0.016
-343.391	-30.490	0.138	0.077
-342.377	800.000	-0.075	0.249
-341.362	-200.000	0.017	0.523
-340.348	86.377	-0.183	-0.199
-339.333	304.815	0.128	-0.234
-338.318	775.975	-0.064	0.172
-337.304	573.357	-0.054	-0.129
-336.289	-200.000	0.005	0.195
-335.275	-31.783	-0.290	-0.160
-334.260	-200.000	-0.020	-0.221
-333.245	-42.379	0.156	-0.078
-332.231	800.000	-0.003	-0.012
-331.216	-17.370	0.147	0.091
-330.202	-200.000	-0.010	0.196
-329.187	-70.151	0.339	0.127
-328.172	320.164	-0.111	0.208
-327.158	83.612	0.206	0.221
-326.143	-82.985	-0.362	-0.115
-325.129	-200.000	-0.031	0.412
-324.114	-78.563	-0.408	0.137
-323.099	93.070	-0.256	0.285
-322.085	-200.000	-0.044	-0.274
-321.070	-83.441	0.203	0.064
-320.056	-0.691	0.375	0.262
-319.041	-200.000	0.018	-0.145
-318.026	27.141	-0.017	0.014
-317.012	-200.000	-0.005	-0.167
-315.997	-27.521	0.084	0.048
-314.983	460.386	-0.132	0.289
-313.968	-153.895	0.232	0.016
-312.953	216.284	-0.078	-0.122
-311.939	-96.281	-0.203	0.053
-310.924	-200.000	0.049	-0.222
-309.910	800.000	0.053	0.168
-308.895	306.979	0.152	0.278
-307.880	237.524	-0.097	0.158
-306.866	97.673	-0.090	0.102
-305.851	-78.902	0.202	0.068
-304.837	-99.745	-0.145	0.036
-303.822	-134.391	0.397	-0.048
-302.807	105.610	0.185	-0.215
-301.793	397.641	-0.167	-0.344
-300.778	-55.539	0.051	-0.022
-299.764	513.470	-0.145	-0.333
-298.749	59.605	-0.053	0.052
-297.735	518.199	0.053	0.122
-296.720	800.000	0.057	0.158
-295.705	184.958	0.148	0.216
-294.691	770.532	-0.010	0.026
-293.676	-200.000	-0.106	0.574
-292.662	-97.526	-0.221	-0.056
-291.647	800.000	0.064	-0.180
-290.632	800.000	0.063	0.216
-289.618	-200.000	-0.007	0.109
-288.603	147.490	0.197	0.261
-287.589	-65.397	-0.112	0.044
-286.574	-61.081	0.038	0.016
-285.559	-200.000	0.069	0.317
-284.545	35.051	-0.079	0.068
-283.530	377.441	0.110	-0.221
-282.516	-3.972	0.066	0.045
-281.501	67.085	-0.169	-0.169
-280.486	-20.098	-0.078	0.047
-279.472	-200.000	-0.005	0.067
-278.457	15.290	0.096	0.074
-277.443	505.423	0.072	0.164
-276.428	-43.691	0.308	-0.153
-275.413	-90.258	-0.382	-0.109
-274.399	351.180	-0.254	0.494
-273.384	-200.000	0.007	-0.052
-272.370	-90.381	-0.017	0.005
-271.355	-190.207	-0.282	-0.003
-270.340	130.034	-0.136	0.170
-269.326	236.597	0.110	0.179
-268.311	-71.678	-0.052	-0.019
-267.297	-73.299	0.193	-0.069
-266.282	90.598	-0.055	-0.060
-265.267	-200.000	0.009	-0.137
-264.253	800.000	0.048	-0.195
-263.238	514.628	0.121	-0.277
-262.224	-112.667	-0.292	0.057
-261.209	476.820	0.101	-0.223
-260.195	-200.000	0.042	-0.541
-259.180	-37.706	0.205	-0.107
-258.165	-200.000	0.069	-0.373
-257.151	-84.817	-0.252	-0.078
-256.136	349.494	0.062	0.120
-255.122	-29.729	0.126	0.071
-254.107	-164.686	-0.470	-0.021
-253.092	-2.653	0.256	0.176
-252.078	-200.000	0.006	0.135
-251.063	234.522	-0.072	-0.116
-250.049	184.817	-0.092	-0.135
-249.034	21.619	0.010	-0.008
-248.019	-130.302	-0.364	0.049
-247.005	-19.565	-0.169	-0.103
-245.990	-38.194	0.138	0.072
-244.976	252.225	-0.097	-0.162
-243.961	428.488	-0.104	0.220
-242.946	174.285	-0.131	0.185
-241.932	248.634	-0.206	-0.342
-240.917	-7.881	0.280	0.185
-239.903	316.174	-0.206	0.382
-238.888	-20.808	0.185	0.111
-237.873	-70.994	0.018	0.007
-236.859	-69.218	-0.263	0.099
-235.844	-119.172	0.295	0.051
-234.830	20.622	0.157	0.125
-233.815	800.000	-0.048	-0.185
-232.800	-93.786	0.290	-0.078
-231.786	-161.757	-0.144	-0.007
-230.771	-25.808	0.202	0.117
-229.757	-200.000	0.057	-0.367
-228.742	-58.216	-0.404	-0.173
-227.727	-84.037	0.174	-0.054
-226.713	-200.000	-0.004	0.061
-225.698	800.000	-0.069	0.265
-224.684	-22.484	-0.360	-0.213
-223.669	-76.061	0.058	0.020
-222.655	334.085	0.106	0.200
-221.640	65.235	0.224	-0.223
-220.625	74.816	0.224	-0.231
-219.611	137.906	-0.071	0.091
-218.596	-200.000	0.010	-0.206
-217.582	-152.379	-0.406	-0.029
-216.567	242.231	-0.086	-0.141
-215.552	55.324	0.077	0.073
-214.538	70.323	-0.067	-0.068
-213.523	-32.627	-0.142	-0.077
-212.509	-99.860	0.141	0.035
-211.494	-122.188	0.318	0.051
-210.479	652.452	0.167	-0.420
-209.465	31.656	0.153	0.129
-208.450	-64.084	0.184	-0.074
-207.436	-13.617	0.102	-0.064
-206.421	-200.000	-0.022	0.128
-205.406	-6.189	-0.156	0.105
-204.392	800.000	0.033	-0.101
-203.377	38.025	-0.196	0.171
-202.363	631.780	0.052	-0.130
-201.348	-142.040	0.317	0.031
-200.333	-200.000	0.011	0.147
-199.319	800.000	-0.091	0.259
-198.304	-65.647	-0.341	-0.134
-197.290	387.888	0.047	-0.096
-196.275	37.081	0.259	-0.225
-195.260	-59.597	0.260	0.109
-194.246	-97.970	0.433	0.109
-193.231	-52.540	-0.080	0.036
-192.217	13.122	-0.317	0.240
-191.202	93.568	0.075	-0.083
-190.187	-79.283	0.168	0.056
-189.173	-200.000	-0.020	-0.189
-188.158	171.825	0.078	0.110
-187.144	-38.808	0.053	0.028
-186.129	-142.428	-0.201	-0.019
-185.114	-8.214	-0.184	-0.121
-184.100	87.862	0.152	0.165
-183.085	-200.000	-0.009	0.155
-182.071	800.000	0.035	0.132
-181.056	158.333	0.056	-0.076
-180.042	800.000	0.024	0.074
-179.027	-75.550	-0.142	0.049
-178.012	-52.867	0.236	0.106
-176.998	-131.330	-0.094	-0.012
-175.983	-200.000	0.018	-0.296
-174.969	50.751	-0.223	-0.206
-173.954	-54.977	0.221	0.097
-172.939	-200.000	0.008	-0.109
-171.925	259.072	0.123	0.207
-170.910	800.000	0.080	-0.290
-169.896	-200.000	-0.007	-0.070
-168.881	-23.408	0.602	0.354
-167.866	-0.873	-0.412	0.285
-166.852	393.315	0.089	0.180
-165.837	47.138	-0.140	0.127
-164.823	-109.316	0.231	-0.048
-163.808	-200.000	0.036	-0.210
-162.793	-200.000	0.064	0.322
-161.779	800.000	0.090	-0.248
-160.764	501.956	-0.159	-0.358
-159.750	214.008	-0.249	-0.386
-158.735	-73.029	0.094	-0.034
-157.720	-200.000	0.028	0.220
-156.706	251.026	0.198	-0.330
-155.691	-128.372	-0.110	0.015
-154.677	296.214	0.081	0.145
-153.662	-149.342	0.324	0.025
-152.647	135.185	0.171	-0.218
-151.633	371.585	0.237	0.471
-150.618	6.557	0.165	-0.120
-149.604	-19.003	0.064	0.039
-148.589	-44.514	0.072	-0.035
-147.574	-200.000	0.027	-0.142
-146.560	-39.691	-0.087	-0.045
-145.545	502.080	-0.231	-0.522
-144.531	800.000	0.010	0.035
-143.516	571.509	0.109	-0.258
-142.502	800.000	-0.062	-0.195
-141.487	800.000	0.039	0.151
-140.472	800.000	-0.040	-0.149
-139.458	40.246	-0.127	0.112
-138.443	-86.637	0.043	-0.013
-137.429	-73.230	0.264	-0.094
-136.414	-76.777	-0.216	0.074
-135.399	71.618	0.083	-0.084
-134.385	-65.206	-0.161	0.063
-133.370	224.913	-0.127	0.200
-132.356	25.014	-0.099	-0.080
-131.341	-67.388	-0.101	0.039
-130.326	-149.070	-0.292	-0.023
-129.312	277.078	-0.076	0.133
-128.297	800.000	0.090	0.350
-127.283	243.610	-0.071	-0.116
-126.268	-200.000	0.050	0.292
-125.253	800.000	-0.124	-0.422
-124.239	-200.000	-0.023	-0.108
-123.224	-185.065	0.462	-0.007
-122.210	67.632	-0.118	0.118
-121.195	30.291	0.240	0.200
