DTS Sentinel unit serial number:	SN413079Multiplexer serial number:	ORYXHardware model number:	OX4-SRSoftware version number:	ORYX F/W v4.00 Oryx Data Collector v3.7.2.0data status	okinstallation	princeton_trtdifferential loss correction	single-endedforward channel	channel 3reverse channel	N/Adate	2019/09/13time	14:08:34forward acquisition time	60.00reverse acquisition time	0.00gamma	496.2192k internal	0.2302k external	0.2302temperature offset calibration	1.0149default loss term (dB/km)	0.3790temperature slope calibration	1.0000multiplexer offset coefficient	1.0000multiplexer slope coefficient	1.0000fibre end	0.00T internal ref (°C)	35.27T ext. ref 1 (°C)	4.60T ext. ref 2 (°C)	30.52length (m)	temperature (°C)	Stokes	anti-Stokes-747.200	-32.842	-0.028	0.016
-746.185	-159.155	-0.230	-0.013
-745.171	-54.588	0.042	-0.019
-744.156	211.580	0.189	0.303
-743.142	-200.000	0.001	0.287
-742.127	130.512	0.254	0.332
-741.112	13.741	0.091	0.072
-740.098	-200.000	0.162	0.742
-739.083	-147.107	-0.352	-0.031
-738.069	-200.000	0.030	0.219
-737.054	354.172	0.110	-0.223
-736.039	-200.000	0.020	-0.096
-735.025	-200.000	-0.048	0.328
-734.010	-200.000	-0.038	0.429
-732.996	206.326	0.167	-0.265
-731.981	778.531	0.075	-0.207
-730.966	-200.000	-0.010	0.284
-729.952	-96.470	-0.286	0.077
-728.937	296.533	-0.129	0.241
-727.923	426.285	0.118	-0.259
-726.908	563.194	0.129	-0.317
-725.894	800.000	-0.086	-0.247
-724.879	-200.000	0.049	-0.230
-723.864	94.830	0.058	0.068
-722.850	-125.297	-0.116	0.018
-721.835	576.857	-0.056	0.139
-720.821	-35.129	0.269	-0.149
-719.806	-39.275	-0.216	0.116
-718.791	443.156	0.063	-0.141
-717.777	-98.788	-0.143	-0.037
-716.762	-200.000	-0.109	-0.000
-715.748	68.362	-0.238	-0.249
-714.733	-116.107	-0.087	-0.016
-713.718	23.178	-0.193	-0.161
-712.704	-109.314	-0.165	0.036
-711.689	800.000	0.045	-0.136
-710.675	-18.310	0.186	0.118
-709.660	-40.060	0.203	-0.108
-708.645	445.023	0.037	-0.083
-707.631	-200.000	0.022	0.115
-706.616	166.522	0.188	-0.271
-705.602	-111.864	0.072	0.015
-704.587	210.561	-0.146	-0.234
-703.572	-90.612	-0.013	-0.004
-702.558	-129.502	-0.219	-0.031
-701.543	-38.031	-0.053	0.029
-700.529	800.000	0.130	-0.388
-699.514	800.000	0.094	0.338
-698.499	72.513	0.063	0.067
-697.485	800.000	0.057	-0.188
-696.470	-64.443	-0.206	0.085
-695.456	-191.686	-0.179	-0.002
-694.441	-44.083	-0.294	0.150
-693.426	-121.384	0.172	0.029
-692.412	-127.340	-0.123	0.018
-691.397	-40.769	-0.071	-0.038
-690.383	-67.066	-0.239	0.096
-689.368	192.797	-0.040	-0.061
-688.354	-14.409	-0.126	-0.082
-687.339	800.000	0.070	-0.278
-686.324	134.708	-0.054	-0.072
-685.310	-200.000	-0.039	-0.249
-684.295	-135.049	-0.377	-0.046
-683.281	-130.437	-0.167	0.023
-682.266	-132.843	-0.268	0.035
-681.251	-200.000	0.021	-0.099
-680.237	-200.000	-0.037	-0.255
-679.222	232.281	-0.142	-0.236
-678.208	-200.000	0.055	-0.247
-677.193	-16.564	0.062	-0.040
-676.178	305.029	-0.031	-0.059
-675.164	150.672	0.160	0.220
-674.149	626.352	-0.106	0.271
-673.135	520.425	0.053	-0.127
-672.120	4.252	0.132	0.098
-671.105	-11.599	0.027	-0.018
-670.091	-64.498	-0.247	0.102
-669.076	-110.658	-0.228	0.048
-668.062	-2.176	0.069	-0.049
-667.047	-93.807	0.128	0.036
-666.032	284.292	0.164	-0.300
-665.018	10.312	-0.229	0.177
-664.003	-87.562	-0.147	-0.045
-662.989	800.000	0.032	0.137
-661.974	800.000	-0.125	-0.399
-660.959	-64.817	0.098	0.040
-659.945	-84.091	0.139	0.045
-658.930	-200.000	-0.030	-0.243
-657.916	-154.090	-0.365	-0.025
-656.901	281.123	-0.189	0.343
-655.886	231.162	-0.127	-0.212
-654.872	-85.815	-0.096	-0.030
-653.857	800.000	0.053	-0.195
-652.843	97.456	0.150	0.175
-651.828	26.319	0.083	-0.070
-650.814	195.557	0.306	-0.472
-649.799	-200.000	-0.014	0.108
-648.784	-200.000	0.008	0.086
-647.770	-200.000	0.062	0.439
-646.755	-200.000	0.056	-0.456
-645.741	-93.409	0.297	-0.084
-644.726	143.691	-0.043	0.059
-643.711	9.914	-0.032	-0.024
-642.697	800.000	-0.021	0.079
-641.682	800.000	0.090	-0.273
-640.668	-39.618	-0.303	0.161
-639.653	-63.610	-0.328	0.137
-638.638	167.022	0.103	0.149
-637.624	50.447	-0.140	-0.134
-636.609	800.000	-0.069	0.283
-635.595	-155.226	0.255	-0.017
-634.580	-34.234	-0.103	-0.058
-633.565	80.224	0.202	-0.221
-632.551	172.756	-0.115	0.168
-631.536	24.845	0.304	0.256
-630.522	-171.347	0.366	0.012
-629.507	-17.316	0.059	-0.037
-628.492	-200.000	0.016	0.101
-627.478	108.823	0.094	-0.114
-626.463	-77.664	0.086	-0.030
-625.449	647.796	0.050	-0.131
-624.434	-21.044	-0.012	-0.007
-623.419	56.659	-0.269	-0.265
-622.405	-74.545	-0.105	0.038
-621.390	-199.322	0.092	0.000
-620.376	-64.430	-0.191	-0.079
-619.361	-139.055	0.108	0.012
-618.346	158.283	-0.038	0.054
-617.332	-127.651	-0.144	0.021
-616.317	-127.647	0.358	0.053
-615.303	-200.000	-0.065	0.440
-614.288	-200.000	-0.025	-0.124
-613.273	283.098	0.065	0.118
-612.259	44.706	0.087	0.081
-611.244	800.000	0.052	0.148
-610.230	-200.000	0.009	-0.137
-609.215	800.000	0.053	-0.202
-608.201	800.000	0.072	-0.290
-607.186	170.334	0.113	-0.164
-606.171	-200.000	-0.003	0.071
-605.157	17.785	-0.033	-0.027
-604.142	-200.000	0.049	0.548
-603.128	-137.054	-0.401	-0.047
-602.113	-1.033	-0.235	0.168
-601.098	41.299	0.150	-0.138
-600.084	-173.279	-0.198	-0.006
-599.069	-114.256	-0.352	-0.069
-598.055	800.000	0.080	-0.282
-597.040	50.324	-0.413	-0.396
-596.025	-50.602	-0.278	0.133
-595.011	-0.478	0.073	-0.053
-593.996	-72.667	-0.208	-0.078
-592.982	56.427	-0.129	-0.127
-591.967	-140.663	0.172	0.018
-590.952	-133.856	-0.368	0.046
-589.938	47.223	-0.140	-0.132
-588.923	-66.176	-0.408	-0.165
-587.909	-200.000	-0.034	-0.390
-586.894	-68.039	-0.201	-0.079
-585.879	786.965	-0.039	-0.109
-584.865	94.346	0.305	-0.351
-583.850	760.027	-0.072	-0.198
-582.836	-92.487	0.049	0.014
-581.821	-66.922	-0.184	-0.073
-580.806	-66.551	-0.373	-0.150
-579.792	-42.895	0.124	-0.064
-578.777	-67.813	0.060	-0.024
-577.763	-42.072	0.270	0.140
-576.748	71.504	-0.216	-0.227
-575.733	238.368	-0.071	0.119
-574.719	-118.178	0.042	0.008
-573.704	-79.161	-0.177	-0.061
-572.690	-40.779	-0.026	-0.014
-571.675	-200.000	-0.035	-0.166
-570.661	378.203	0.090	-0.187
-569.646	-176.606	0.423	-0.011
-568.631	-52.436	-0.066	0.031
-567.617	-200.000	-0.043	-0.265
-566.602	290.486	0.077	-0.142
-565.588	-73.288	-0.380	0.141
-564.573	-107.339	-0.206	0.046
-563.558	279.946	0.038	0.068
-562.544	-74.516	0.132	0.048
-561.529	557.845	0.032	-0.078
-560.515	198.773	0.172	-0.266
-559.500	-21.301	-0.134	-0.083
-558.485	-37.328	-0.359	0.194
-557.471	175.873	0.128	0.188
-556.456	-63.346	0.396	0.165
-555.442	-200.000	0.033	0.453
-554.427	-108.360	0.381	0.083
-553.412	-200.000	-0.019	-0.198
-552.398	-200.000	-0.013	0.222
-551.383	-30.726	0.123	-0.070
-550.369	800.000	-0.029	0.120
-549.354	-200.000	0.012	-0.071
-548.339	57.061	0.183	0.181
-547.325	15.214	-0.318	-0.252
-546.310	247.445	-0.114	-0.195
-545.296	412.806	-0.128	-0.275
-544.281	-200.000	0.015	-0.251
-543.266	-200.000	-0.012	0.068
-542.252	12.670	-0.102	-0.080
-541.237	-200.000	0.052	0.401
-540.223	-4.236	0.191	-0.133
-539.208	9.689	0.300	-0.230
-538.193	182.461	-0.205	0.306
-537.179	-132.393	0.109	-0.014
-536.164	-200.000	-0.031	0.230
-535.150	-45.230	-0.163	-0.082
-534.135	92.991	0.143	-0.164
-533.121	399.842	0.066	-0.141
-532.106	-200.000	-0.037	-0.304
-531.091	-55.229	-0.419	-0.191
-530.077	-66.243	-0.290	0.117
-529.062	-90.093	-0.420	-0.124
-528.048	276.080	0.116	-0.208
-527.033	-43.721	0.072	-0.037
-526.018	335.734	-0.112	0.219
-525.004	788.102	-0.042	-0.116
-523.989	-200.000	0.001	-0.245
-522.975	24.668	-0.068	-0.057
-521.960	111.679	-0.066	-0.081
-520.945	2.019	-0.332	0.242
-519.931	139.818	-0.018	0.024
-518.916	496.945	-0.063	0.145
-517.902	335.830	-0.166	0.325
-516.887	-51.337	-0.049	0.023
-515.872	-109.888	-0.177	-0.037
-514.858	-137.872	-0.133	-0.015
-513.843	800.000	0.055	-0.194
-512.829	-49.969	0.117	-0.056
-511.814	800.000	-0.099	-0.277
-510.799	-92.997	-0.034	0.009
-509.785	61.000	-0.168	0.168
-508.770	-200.000	0.008	0.296
-507.756	112.298	-0.143	-0.174
-506.741	51.788	-0.142	-0.136
-505.726	-169.270	-0.114	-0.004
-504.712	121.159	-0.193	0.243
-503.697	199.296	0.153	0.237
-502.683	48.560	-0.253	0.239
-501.668	14.239	0.086	0.067
-500.653	-200.000	0.003	-0.326
-499.639	192.613	-0.014	0.021
-498.624	142.129	0.127	0.169
-497.610	-34.083	-0.166	0.092
-496.595	29.123	0.048	-0.041
-495.581	80.249	0.163	0.178
-494.566	-15.159	-0.168	0.109
-493.551	800.000	-0.044	0.187
-492.537	-6.844	-0.173	0.119
-491.522	629.599	0.033	0.083
-490.508	-140.915	0.252	-0.026
-489.493	211.465	0.181	0.288
-488.478	7.438	0.263	-0.199
-487.464	116.419	-0.068	-0.084
-486.449	-4.857	-0.242	-0.168
-485.435	-200.000	-0.038	0.277
-484.420	-98.297	-0.129	0.033
-483.405	800.000	0.050	-0.173
-482.391	-36.897	-0.176	-0.095
-481.376	-15.262	-0.263	-0.170
-480.362	2.712	0.040	0.029
-479.347	240.708	0.019	0.033
-478.332	800.000	0.051	0.199
-477.318	-54.578	0.110	0.050
-476.303	42.122	-0.369	-0.338
-475.289	-30.965	-0.370	-0.211
-474.274	443.095	0.085	0.187
-473.259	-49.805	-0.014	0.007
-472.245	800.000	0.106	-0.338
-471.230	-200.000	0.008	-0.328
-470.216	-88.508	0.204	-0.061
-469.201	92.025	0.014	-0.015
-468.186	-200.000	0.020	0.125
-467.172	-200.000	-0.030	0.365
-466.157	-131.867	0.205	-0.027
-465.143	-200.000	0.010	-0.167
-464.128	-76.717	0.129	-0.046
-463.113	-200.000	0.061	-0.273
-462.099	800.000	-0.065	-0.233
-461.084	-200.000	0.042	-0.186
-460.070	-200.000	0.016	0.093
-459.055	-85.056	-0.255	-0.080
-458.040	-45.693	-0.235	0.117
-457.026	-96.854	0.251	0.066
-456.011	-200.000	-0.009	-0.128
-454.997	328.276	-0.030	0.058
-453.982	81.748	0.242	0.264
-452.968	-140.585	0.324	-0.034
-451.953	-188.770	0.231	-0.003
-450.938	403.390	-0.056	-0.118
-449.924	800.000	0.031	-0.114
-448.909	-115.148	0.213	-0.041
-447.895	-200.000	0.014	0.348
-446.880	145.416	0.031	-0.041
-445.865	-118.347	0.305	-0.055
-444.851	800.000	0.024	-0.076
-443.836	-152.665	-0.303	0.022
-442.822	-200.000	0.003	-0.070
-441.807	-200.000	0.034	-0.275
-440.792	509.535	0.105	0.246
-439.778	486.691	-0.092	0.211
-438.763	-200.000	0.010	0.049
-437.749	-27.528	0.129	0.075
-436.734	20.271	-0.283	0.230
-435.719	348.852	0.145	-0.289
-434.705	123.098	-0.051	-0.064
-433.690	-118.438	-0.120	-0.021
-432.676	-146.653	0.145	0.013
-431.661	25.064	0.190	-0.159
-430.646	-121.693	-0.300	-0.050
-429.632	302.245	0.081	-0.152
-428.617	-193.173	0.144	-0.001
-427.603	-101.384	0.414	0.102
-426.588	219.764	-0.118	-0.189
-425.573	89.173	0.031	0.035
-424.559	-56.996	-0.180	-0.080
-423.544	-78.949	-0.021	0.007
-422.530	-169.108	-0.112	0.004
-421.515	-98.848	0.377	0.096
-420.500	201.877	-0.113	0.175
-419.486	800.000	-0.106	-0.360
-418.471	-29.562	0.132	-0.076
-417.457	-61.813	0.057	0.024
-416.442	-200.000	0.014	0.124
-415.428	-79.815	-0.160	-0.054
-414.413	-121.241	-0.258	-0.043
-413.398	274.290	0.120	-0.213
-412.384	-62.319	0.155	0.065
-411.369	33.780	-0.100	0.087
-410.355	-146.546	0.182	0.016
-409.340	-200.000	0.066	0.637
-408.325	12.600	-0.238	0.185
-407.311	-200.000	-0.041	0.405
-406.296	244.448	0.236	0.399
-405.282	-200.000	0.000	0.226
-404.267	-104.546	-0.274	-0.064
-403.252	-142.962	-0.372	-0.036
-402.238	-200.000	0.039	0.241
-401.223	240.712	0.109	0.183
-400.209	-69.461	0.187	-0.072
-399.194	60.605	0.301	0.299
-398.179	-200.000	-0.040	0.279
-397.165	-200.000	0.015	0.350
-396.150	-116.778	0.097	0.018
-395.136	-161.930	0.313	-0.016
-394.121	292.911	0.100	-0.183
-393.106	371.991	0.166	-0.339
-392.092	4.736	-0.237	0.175
-391.077	-60.922	0.143	0.061
-390.063	800.000	0.106	0.302
-389.048	-63.921	-0.161	0.066
-388.033	104.999	-0.172	-0.204
-387.019	-118.382	-0.064	0.011
-386.004	79.910	0.110	-0.119
-384.990	-200.000	0.091	0.437
-383.975	18.842	0.164	0.132
-382.960	638.805	0.102	0.261
-381.946	800.000	-0.056	-0.187
-380.931	80.387	-0.220	-0.238
-379.917	139.747	-0.086	0.114
-378.902	14.830	0.138	0.109
-377.888	105.493	-0.039	-0.046
-376.873	81.835	-0.127	-0.139
-375.858	-91.316	0.315	-0.090
-374.844	-200.000	0.015	0.294
-373.829	276.074	0.110	0.196
-372.815	-19.657	-0.105	-0.065
-371.800	-200.000	0.041	0.244
-370.785	800.000	-0.098	-0.321
-369.771	-200.000	-0.087	-0.388
-368.756	35.386	-0.354	-0.312
-367.742	-200.000	0.002	-0.257
-366.727	248.557	0.105	-0.178
-365.712	-85.266	-0.296	0.093
-364.698	800.000	-0.021	0.080
-363.683	800.000	-0.082	-0.288
-362.669	19.765	-0.240	-0.194
-361.654	46.649	-0.230	-0.214
-360.639	-110.829	-0.251	0.052
-359.625	78.157	0.248	-0.266
-358.610	163.492	-0.079	0.112
-357.596	282.972	-0.004	-0.008
-356.581	88.905	-0.219	0.245
-355.566	-118.272	-0.154	-0.028
-354.552	-200.000	0.003	0.239
-353.537	-200.000	0.011	-0.112
-352.523	800.000	0.064	-0.243
-351.508	148.388	0.218	0.295
-350.493	-113.839	-0.388	-0.076
-349.479	-200.000	0.002	-0.154
-348.464	54.039	0.200	-0.193
-347.450	131.789	-0.031	0.041
-346.435	800.000	-0.083	-0.297
-345.420	-200.000	-0.036	-0.284
-344.406	-119.849	0.173	0.030
-343.391	26.498	-0.296	-0.249
-342.377	-42.442	-0.316	-0.162
-341.362	72.610	-0.075	0.079
-340.348	-129.982	0.396	-0.054
-339.333	-6.541	0.154	0.105
-338.318	-200.000	-0.038	0.269
-337.304	-200.000	-0.006	0.525
-336.289	63.478	0.101	0.101
-335.275	-59.874	-0.261	0.112
-334.260	-200.000	0.335	-0.001
-333.245	356.626	0.230	-0.459
-332.231	800.000	0.051	-0.224
-331.216	-96.011	-0.160	-0.043
-330.202	217.706	0.037	0.059
-329.187	-2.574	-0.108	0.076
-328.172	-165.257	0.148	-0.007
-327.158	-200.000	-0.004	0.062
-326.143	800.000	-0.035	-0.152
-325.129	-17.127	0.076	-0.048
-324.114	800.000	-0.066	-0.206
-323.099	576.376	0.102	-0.250
-322.085	-103.562	-0.235	-0.055
-321.070	-200.000	-0.261	0.001
-320.056	-200.000	-0.014	0.223
-319.041	-200.000	0.045	0.201
-318.026	568.386	0.102	0.248
-317.012	-164.082	0.261	-0.012
-315.997	29.884	0.316	0.270
-314.983	108.410	-0.028	0.033
-313.968	-34.027	-0.338	-0.186
-312.953	-200.000	-0.004	0.110
-311.939	-33.766	0.263	0.145
-310.924	-28.987	0.167	0.096
-309.910	-200.000	0.031	-0.430
-308.895	-200.000	-0.007	-0.065
-307.880	29.282	-0.164	-0.139
-306.866	-36.147	-0.117	-0.063
-305.851	-63.212	0.112	0.046
-304.837	309.401	0.068	-0.127
-303.822	-200.000	0.001	-0.037
-302.807	800.000	-0.024	0.101
-301.793	-85.125	-0.172	-0.054
-300.778	-200.000	0.010	0.215
-299.764	-200.000	-0.067	-0.450
-298.749	270.409	-0.106	-0.187
-297.735	800.000	0.083	0.262
-296.720	800.000	0.041	0.123
-295.705	219.817	0.028	-0.045
-294.691	-200.000	0.090	-0.393
-293.676	-115.195	0.138	0.026
-292.662	32.459	0.195	-0.169
-291.647	92.476	0.169	-0.191
-290.632	102.796	0.120	0.140
-289.618	-103.275	0.173	-0.041
-288.603	-24.097	0.160	0.096
-287.589	-200.000	-0.001	-0.161
-286.574	-200.000	0.007	0.231
-285.559	-98.436	0.120	-0.031
-284.545	34.290	-0.142	0.124
-283.530	662.524	0.066	-0.171
-282.516	136.208	0.260	0.339
-281.501	-200.000	0.003	0.259
-280.486	800.000	-0.071	0.207
-279.472	95.947	0.187	-0.214
-278.457	-51.973	0.168	0.078
-277.443	-171.984	-0.282	0.009
-276.428	55.593	0.111	0.108
-275.413	-200.000	0.032	0.222
-274.399	440.351	0.112	-0.246
-273.384	-80.453	0.198	-0.066
-272.370	800.000	-0.076	0.290
-271.355	92.171	-0.080	0.090
-270.340	-48.251	0.150	-0.072
-269.326	-12.970	-0.371	-0.241
-268.311	-141.797	-0.190	0.019
-267.297	34.186	-0.083	0.073
-266.282	183.470	-0.165	-0.244
-265.267	-133.365	0.365	0.046
-264.253	-31.120	0.076	0.043
-263.238	-6.138	0.082	0.056
-262.224	-141.958	0.149	0.015
-261.209	235.981	-0.043	-0.072
-260.195	800.000	-0.070	0.281
-259.180	-200.000	-0.021	-0.100
-258.165	-200.000	0.043	0.223
-257.151	-131.579	-0.161	-0.021
-256.136	-200.000	0.044	-0.281
-255.122	16.122	0.240	0.189
-254.107	-125.556	-0.365	0.056
-253.092	162.182	0.197	-0.276
-252.078	-33.490	0.559	0.309
-251.063	-181.516	0.181	0.004
-250.049	1.779	0.137	0.099
-249.034	287.766	0.064	0.116
-248.019	-75.473	-0.310	-0.110
-247.005	800.000	0.087	0.255
-245.990	-200.000	0.034	-0.197
-244.976	-53.603	0.152	-0.069
-243.961	-100.466	-0.201	-0.050
-242.946	242.732	0.130	-0.218
-241.932	279.399	0.098	0.175
-240.917	-2.707	-0.211	-0.148
-239.903	-172.932	-0.160	0.005
-238.888	-200.000	0.003	-0.136
-237.873	-200.000	0.015	-0.070
-236.859	471.640	-0.127	0.286
-235.844	35.991	0.187	0.164
-234.830	-200.000	0.043	0.286
-233.815	-83.173	-0.397	0.127
-232.800	-65.456	0.108	0.043
-231.786	-30.392	0.214	0.122
-230.771	800.000	-0.078	0.281
-229.757	800.000	0.109	0.434
-228.742	-200.000	0.175	-0.000
-227.727	-164.381	-0.152	-0.007
-226.713	-200.000	0.008	0.091
-225.698	-62.829	-0.312	-0.129
-224.684	800.000	-0.010	-0.038
-223.669	-74.004	0.390	-0.141
-222.655	-16.032	-0.117	-0.074
-221.640	768.089	0.072	0.196
-220.625	800.000	0.063	0.257
-219.611	-200.000	-0.055	-0.242
-218.596	314.369	-0.078	0.147
-217.582	142.253	-0.145	-0.192
-216.567	-200.000	0.025	-0.196
-215.552	114.081	0.075	0.091
-214.538	123.760	0.075	0.094
-213.523	235.248	0.055	-0.091
-212.509	51.020	-0.286	-0.271
-211.494	-200.000	-0.050	-0.443
-210.479	28.481	0.207	-0.174
-209.465	114.448	0.197	-0.239
-208.450	-43.091	0.153	0.077
-207.436	-200.000	0.002	-0.218
-206.421	47.275	0.204	-0.190
-205.406	-200.000	-0.001	-0.056
-204.392	800.000	0.025	0.090
-203.377	-57.017	0.229	-0.101
-202.363	593.199	0.038	0.093
-201.348	258.464	-0.111	-0.190
-200.333	215.461	-0.059	-0.094
-199.319	-127.180	0.101	0.015
-198.304	152.011	-0.101	-0.138
-197.290	-200.000	0.004	-0.087
-196.275	-7.142	-0.230	0.156
-195.260	27.270	-0.040	0.033
-194.246	248.683	0.216	0.366
-193.231	-146.672	0.225	0.019
-192.217	-200.000	-0.005	0.208
-191.202	800.000	-0.050	0.215
-190.187	-71.498	-0.139	-0.052
-189.173	-20.418	-0.045	-0.028
-188.158	-152.154	-0.289	-0.021
-187.144	-200.000	0.001	0.011
-186.129	162.769	-0.037	-0.051
-185.114	1.870	-0.216	0.155
-184.100	244.805	0.100	0.167
-183.085	800.000	0.129	0.398
-182.071	-160.835	0.205	0.011
-181.056	-200.000	-0.017	-0.154
-180.042	-117.122	-0.272	0.049
-179.027	-14.326	0.111	0.071
-178.012	300.764	0.080	-0.148
-176.998	387.992	-0.069	0.142
-175.983	5.607	-0.133	0.098
-174.969	36.239	0.272	0.239
-173.954	-22.702	0.009	-0.005
-172.939	-124.220	0.305	-0.048
-171.925	800.000	0.060	-0.191
-170.910	800.000	0.066	-0.197
-169.896	137.849	-0.042	-0.055
-168.881	-200.000	0.000	0.143
-167.866	517.775	0.101	0.236
-166.852	19.021	0.246	0.197
-165.837	11.992	-0.134	0.103
-164.823	165.151	0.159	0.223
-163.808	-110.092	0.143	-0.030
-162.793	-200.000	-0.046	0.322
-161.779	-34.558	0.143	-0.078
-160.764	800.000	-0.043	-0.181
-159.750	53.088	0.129	-0.123
-158.735	800.000	0.060	0.181
-157.720	28.271	-0.107	0.090
-156.706	128.773	0.066	0.084
-155.691	578.004	0.040	0.098
-154.677	469.045	0.103	0.230
-153.662	324.769	0.047	-0.089
-152.647	-200.000	-0.031	-0.275
-151.633	800.000	-0.037	0.103
-150.618	-78.167	0.329	0.113
-149.604	212.448	-0.038	0.059
-148.589	-92.449	-0.239	0.067
-147.574	191.174	-0.157	0.235
-146.560	467.248	0.083	-0.185
-145.545	-130.305	-0.226	-0.031
-144.531	-116.473	0.116	0.021
-143.516	-133.148	-0.198	-0.025
-142.502	-200.000	-0.014	0.167
-141.487	268.630	-0.212	0.370
-140.472	-200.000	0.026	-0.182
-139.458	230.014	-0.099	0.161
-138.443	800.000	-0.091	-0.306
-137.429	-200.000	-0.009	-0.078
-136.414	-20.165	0.072	0.044
-135.399	-137.310	0.156	0.018
-134.385	-89.365	-0.083	0.024
-133.370	-8.813	-0.375	-0.250
-132.356	-87.411	0.251	0.076
-131.341	78.439	0.064	0.068
-130.326	-32.819	0.197	-0.109
-129.312	-200.000	-0.029	-0.176
-128.297	800.000	-0.034	-0.101
-127.283	-88.589	0.263	0.078
-126.268	83.533	-0.098	-0.107
-125.253	-103.717	0.258	-0.060
-124.239	-89.710	-0.191	0.056
-123.224	726.815	-0.085	0.226
-122.210	-170.266	-0.252	-0.009
