DTS Sentinel unit serial number:	SN413079Multiplexer serial number:	ORYXHardware model number:	OX4-SRSoftware version number:	ORYX F/W v4.00 Oryx Data Collector v3.7.2.0data status	okinstallation	princeton_trtdifferential loss correction	single-endedforward channel	channel 3reverse channel	N/Adate	2019/09/18time	09:32:35forward acquisition time	60.00reverse acquisition time	0.00gamma	496.2192k internal	0.2338k external	0.2338temperature offset calibration	0.9944default loss term (dB/km)	0.3790temperature slope calibration	1.0000multiplexer offset coefficient	1.0000multiplexer slope coefficient	1.0000fibre end	0.00T internal ref (°C)	26.44T ext. ref 1 (°C)	0.26T ext. ref 2 (°C)	23.41length (m)	temperature (°C)	Stokes	anti-Stokes-747.200	20.765	0.221	-0.180
-746.185	-126.026	-0.250	-0.038
-745.171	198.625	0.038	-0.058
-744.156	-200.000	0.013	0.074
-743.142	800.000	-0.107	0.301
-742.127	-200.000	0.013	-0.078
-741.112	-200.000	0.059	-0.291
-740.098	162.130	-0.107	0.151
-739.083	-200.000	-0.013	0.131
-738.069	198.893	-0.035	-0.054
-737.054	-72.980	0.169	0.062
-736.039	-68.813	-0.238	-0.092
-735.025	157.786	-0.061	0.084
-734.010	173.951	0.154	-0.223
-732.996	33.084	-0.340	-0.295
-731.981	-50.892	-0.319	0.150
-730.966	329.091	0.107	0.206
-729.952	-63.746	-0.122	-0.050
-728.937	-136.487	0.193	0.023
-727.923	-97.080	-0.349	0.092
-726.908	1.341	0.117	0.084
-725.894	11.807	-0.212	-0.163
-724.879	-200.000	0.002	0.161
-723.864	180.713	-0.104	0.153
-722.850	96.995	-0.062	0.071
-721.835	-46.485	0.157	0.077
-720.821	-200.000	-0.035	-0.156
-719.806	-73.264	0.062	0.023
-718.791	36.439	-0.242	0.214
-717.777	-106.289	-0.113	0.025
-716.762	-142.159	-0.264	0.026
-715.748	21.411	0.126	0.103
-714.733	-134.982	0.225	-0.027
-713.718	-77.049	0.176	0.061
-712.704	-18.433	-0.079	0.049
-711.689	361.365	0.166	-0.334
-710.675	587.558	-0.064	0.157
-709.660	800.000	-0.085	-0.316
-708.645	-142.529	0.188	0.018
-707.631	800.000	0.032	0.097
-706.616	800.000	0.154	-0.458
-705.602	0.283	-0.186	-0.133
-704.587	-200.000	0.012	0.328
-703.572	34.472	-0.146	-0.128
-702.558	-55.459	0.117	0.052
-701.543	19.098	-0.146	0.117
-700.529	1.556	-0.132	-0.095
-699.514	800.000	0.037	-0.127
-698.499	800.000	-0.034	-0.141
-697.485	30.559	0.200	0.172
-696.470	-72.483	0.250	0.092
-695.456	-21.953	0.176	0.107
-694.441	-200.000	0.011	0.227
-693.426	196.929	0.071	0.108
-692.412	-200.000	0.001	0.067
-691.397	-200.000	0.029	0.175
-690.383	123.547	-0.033	-0.042
-689.368	-123.626	0.179	-0.028
-688.354	-156.424	0.047	0.003
-687.339	-19.589	0.104	-0.065
-686.324	23.988	-0.203	-0.167
-685.310	161.510	-0.071	-0.100
-684.295	-161.914	-0.068	-0.003
-683.281	-126.137	-0.592	-0.089
-682.266	-75.445	-0.107	-0.038
-681.251	-97.300	-0.136	0.036
-680.237	430.878	-0.091	-0.198
-679.222	-75.246	-0.235	-0.084
-678.208	-200.000	0.071	-0.375
-677.193	800.000	0.108	-0.374
-676.178	-200.000	0.046	-0.000
-675.164	50.227	0.116	0.109
-674.149	-200.000	-0.038	-0.171
-673.135	-149.566	0.125	0.010
-672.120	3.342	-0.080	-0.059
-671.105	70.092	0.061	-0.063
-670.091	-82.743	0.078	0.025
-669.076	430.925	0.066	0.142
-668.062	800.000	0.041	0.165
-667.047	800.000	-0.072	0.202
-666.032	17.583	-0.031	-0.024
-665.018	613.824	-0.063	0.158
-664.003	82.953	-0.184	-0.200
-662.989	117.979	0.160	0.197
-661.974	-41.983	0.146	0.075
-660.959	10.303	-0.086	0.065
-659.945	627.532	0.150	0.379
-658.930	69.762	0.184	0.189
-657.916	318.434	-0.045	0.086
-656.901	55.638	0.098	0.095
-655.886	-200.000	-0.070	-0.353
-654.872	-29.776	-0.326	-0.186
-653.857	125.653	-0.043	-0.054
-652.843	-14.745	0.156	0.100
-651.828	-37.124	-0.167	-0.089
-650.814	55.220	-0.130	-0.125
-649.799	125.755	0.026	-0.033
-648.784	-32.637	-0.199	0.111
-647.770	29.371	-0.233	0.198
-646.755	570.464	0.130	-0.317
-645.741	-53.741	-0.117	0.053
-644.726	-129.317	-0.150	0.021
-643.711	453.894	0.104	-0.230
-642.697	-148.706	-0.080	0.007
-641.682	800.000	0.055	0.168
-640.668	229.661	-0.156	-0.255
-639.653	-79.371	0.149	0.050
-638.638	-200.000	0.043	0.281
-637.624	-200.000	-0.016	0.129
-636.609	800.000	-0.066	0.225
-635.595	-200.000	0.009	0.086
-634.580	106.429	-0.111	-0.131
-633.565	452.316	0.163	-0.360
-632.551	-29.669	-0.209	0.119
-631.536	-64.490	0.130	0.053
-630.522	800.000	0.019	0.079
-629.507	28.564	-0.073	0.061
-628.492	286.132	0.111	-0.200
-627.478	653.334	-0.085	0.218
-626.463	-10.740	-0.098	-0.065
-625.449	80.936	-0.121	0.130
-624.434	-77.895	0.376	0.130
-623.419	800.000	-0.037	0.118
-622.405	-96.526	0.120	0.032
-621.390	-98.670	-0.275	0.070
-620.376	165.160	0.077	-0.108
-619.361	800.000	-0.067	-0.203
-618.346	-154.609	0.410	-0.027
-617.332	-74.398	-0.256	0.092
-616.317	-125.238	0.205	0.031
-615.303	-0.972	0.222	-0.157
-614.288	8.906	-0.426	-0.321
-613.273	800.000	0.045	0.143
-612.259	-200.000	0.025	-0.142
-611.244	-141.753	-0.024	-0.002
-610.230	89.039	0.122	-0.135
-609.215	170.785	0.189	-0.270
-608.201	118.452	-0.059	0.072
-607.186	-200.000	0.007	0.233
-606.171	800.000	0.035	0.102
-605.157	-77.792	0.244	0.084
-604.142	-126.841	-0.108	0.016
-603.128	10.858	0.037	-0.028
-602.113	-200.000	0.039	0.391
-601.098	-13.709	0.105	0.068
-600.084	171.725	0.194	0.278
-599.069	-8.494	-0.053	0.035
-598.055	212.114	-0.034	-0.054
-597.040	69.482	-0.124	-0.127
-596.025	-52.308	-0.366	-0.169
-595.011	-200.000	0.035	0.157
-593.996	-119.321	-0.089	0.015
-592.982	800.000	-0.041	0.116
-591.967	-106.467	-0.366	-0.081
-590.952	172.315	-0.142	0.204
-589.938	800.000	0.013	0.046
-588.923	35.592	0.322	0.282
-587.909	-132.545	-0.162	-0.021
-586.894	91.411	-0.034	-0.038
-585.879	162.868	-0.057	0.080
-584.865	87.602	-0.218	-0.240
-583.850	-108.310	0.310	0.067
-582.836	-86.255	-0.251	0.077
-581.821	78.981	-0.232	0.248
-580.806	326.443	-0.033	0.064
-579.792	-200.000	0.005	0.413
-578.777	-48.231	0.460	-0.221
-577.763	64.054	-0.044	-0.044
-576.748	120.523	-0.153	0.189
-575.733	37.803	-0.169	0.150
-574.719	580.143	0.143	-0.349
-573.704	-200.000	-0.003	0.018
-572.690	103.498	0.275	0.322
-571.675	-39.493	-0.290	-0.151
-570.661	565.857	-0.131	-0.316
-569.646	1.354	-0.185	-0.133
-568.631	-8.377	-0.150	-0.101
-567.617	-65.123	0.310	-0.124
-566.602	-97.904	-0.150	0.039
-565.588	-32.711	-0.183	-0.101
-564.573	42.434	-0.106	-0.096
-563.558	-78.533	0.128	-0.043
-562.544	33.954	-0.307	-0.266
-561.529	645.771	-0.135	-0.343
-560.515	-132.551	-0.258	-0.033
-559.500	-23.707	-0.228	0.136
-558.485	154.895	0.299	-0.409
-557.471	95.551	0.078	-0.088
-556.456	-200.000	-0.005	-0.187
-555.442	-200.000	-0.027	0.318
-554.427	7.627	-0.298	-0.222
-553.412	767.861	0.064	-0.173
-552.398	-74.448	-0.317	0.114
-551.383	-8.825	-0.142	-0.095
-550.369	146.782	0.183	-0.244
-549.354	-200.000	-0.018	-0.114
-548.339	-40.923	0.248	-0.128
-547.325	-70.707	-0.304	0.114
-546.310	66.100	0.112	-0.113
-545.296	-108.543	0.424	-0.091
-544.281	136.855	0.184	0.240
-543.266	126.765	-0.223	-0.281
-542.252	-200.000	-0.013	-0.318
-541.237	-155.811	0.235	0.015
-540.223	110.998	-0.277	0.332
-539.208	-192.434	0.145	-0.001
-538.193	-11.447	0.334	-0.219
-537.179	-89.808	0.075	-0.022
-536.164	800.000	-0.094	0.281
-535.150	756.973	-0.126	-0.339
-534.135	-131.272	0.346	-0.046
-533.121	173.526	0.263	-0.377
-532.106	4.671	0.166	-0.122
-531.091	800.000	0.074	0.290
-530.077	-70.131	0.299	-0.113
-529.062	-200.000	0.069	0.314
-528.048	221.532	-0.097	0.155
-527.033	115.944	-0.160	0.195
-526.018	-118.193	0.074	0.013
-525.004	-61.070	-0.301	-0.127
-523.989	-200.000	-0.013	0.172
-522.975	-125.207	-0.177	0.027
-521.960	-72.288	0.154	-0.057
-520.945	-157.035	0.144	0.009
-519.931	275.080	0.087	-0.154
-518.916	43.473	-0.209	-0.190
-517.902	157.373	0.134	0.185
-516.887	-106.252	-0.194	0.043
-515.872	-134.952	0.158	-0.019
-514.858	-117.917	0.135	-0.024
-513.843	-75.858	0.218	-0.077
-512.829	-0.043	-0.191	-0.135
-511.814	-200.000	0.005	-0.263
-510.799	800.000	0.064	0.235
-509.785	390.046	-0.046	-0.095
-508.770	31.208	-0.105	0.090
-507.756	-57.393	0.247	-0.108
-506.741	-200.000	-0.004	-0.134
-505.726	181.372	0.319	0.466
-504.712	169.413	-0.157	-0.223
-503.697	445.180	0.105	0.230
-502.683	-200.000	0.048	-0.226
-501.668	-200.000	-0.042	-0.232
-500.653	-13.028	0.149	-0.096
-499.639	-118.072	-0.189	-0.034
-498.624	-142.450	-0.240	0.023
-497.610	-110.997	0.440	0.090
-496.595	-180.289	0.149	0.003
-495.581	442.259	-0.086	-0.187
-494.566	-200.000	-0.050	0.431
-493.551	-52.213	0.109	-0.050
-492.537	-200.000	0.004	0.192
-491.522	247.944	0.203	-0.340
-490.508	189.543	0.140	-0.208
-489.493	132.693	0.025	0.033
-488.478	-28.026	-0.132	-0.076
-487.464	435.212	-0.069	-0.148
-486.449	800.000	0.083	0.257
-485.435	-113.122	0.079	0.015
-484.420	-99.922	0.376	-0.093
-483.405	-200.000	-0.000	-0.061
-482.391	-97.189	0.197	0.051
-481.376	201.762	-0.140	-0.215
-480.362	-8.122	-0.348	0.233
-479.347	-113.211	0.304	-0.060
-478.332	684.153	0.041	-0.105
-477.318	-200.000	0.010	-0.093
-476.303	220.025	0.232	0.369
-475.289	449.559	0.187	0.409
-474.274	117.552	0.230	-0.281
-473.259	800.000	0.120	-0.460
-472.245	-177.162	-0.037	-0.001
-471.230	219.510	0.110	0.174
-470.216	57.278	0.203	-0.196
-469.201	768.079	0.037	0.101
-468.186	-120.030	-0.334	0.057
-467.172	-1.804	-0.072	-0.051
-466.157	-136.683	-0.286	0.033
-465.143	-200.000	0.037	-0.430
-464.128	315.698	0.118	-0.220
-463.113	-76.737	-0.171	0.060
-462.099	89.942	0.238	0.264
-461.084	455.896	-0.071	0.157
-460.070	-83.409	-0.281	-0.089
-459.055	289.195	0.099	0.178
-458.040	163.782	-0.156	0.218
-457.026	115.777	0.199	0.241
-456.011	-89.925	0.139	-0.040
-454.997	800.000	0.056	0.209
-453.982	334.789	0.180	-0.347
-452.968	-64.671	-0.272	-0.109
-451.953	83.337	0.070	0.076
-450.938	221.451	-0.184	-0.294
-449.924	-200.000	-0.032	-0.339
-448.909	-131.794	-0.153	0.020
-447.895	444.748	0.078	-0.169
-446.880	172.952	0.164	-0.235
-445.865	-67.023	-0.138	0.054
-444.851	200.187	0.077	0.118
-443.836	-200.000	-0.007	0.142
-442.822	-119.950	0.319	-0.054
-441.807	-200.000	0.002	-0.136
-440.792	-200.000	-0.001	0.012
-439.778	640.910	-0.142	-0.357
-438.763	367.577	0.085	-0.170
-437.749	256.322	0.128	-0.218
-436.734	81.227	-0.011	0.012
-435.719	436.207	0.066	-0.143
-434.705	-132.367	-0.418	-0.053
-433.690	-200.000	-0.015	-0.299
-432.676	800.000	0.060	0.188
-431.661	800.000	-0.094	-0.366
-430.646	-177.966	-0.265	-0.006
-429.632	-115.215	-0.083	-0.016
-428.617	23.482	0.244	0.199
-427.603	-126.776	-0.392	0.057
-426.588	-200.000	0.047	-0.450
-425.573	-135.590	-0.291	0.034
-424.559	-1.195	-0.074	0.052
-423.544	25.920	0.170	0.140
-422.530	-28.618	-0.372	0.212
-421.515	664.178	-0.159	0.407
-420.500	-200.000	-0.019	0.313
-419.486	800.000	-0.014	-0.054
-418.471	-154.353	-0.375	-0.025
-417.457	78.203	-0.061	0.064
-416.442	800.000	0.069	0.257
-415.428	441.915	-0.094	-0.203
-414.413	318.095	-0.136	0.255
-413.398	276.581	-0.092	-0.161
-412.384	98.655	-0.199	-0.227
-411.369	232.238	-0.135	0.219
-410.355	-93.701	-0.060	0.016
-409.340	800.000	-0.007	0.030
-408.325	45.675	0.181	0.166
-407.311	104.900	-0.191	0.223
-406.296	-34.553	-0.344	0.187
-405.282	800.000	0.154	-0.472
-404.267	-26.566	0.255	-0.148
-403.252	-141.714	-0.070	0.007
-402.238	-200.000	0.038	0.214
-401.223	-200.000	0.028	0.522
-400.209	-10.751	0.208	0.136
-399.194	92.913	-0.164	0.183
-398.179	-200.000	-0.015	-0.129
-397.165	595.776	-0.084	-0.205
-396.150	200.106	0.109	-0.166
-395.136	-38.904	0.018	0.009
-394.121	-91.595	-0.354	0.100
-393.106	320.225	0.134	0.252
-392.092	457.808	-0.085	-0.187
-391.077	43.770	-0.234	0.212
-390.063	548.143	-0.192	0.455
-389.048	-32.597	0.118	-0.065
-388.033	-88.973	-0.285	0.084
-387.019	267.969	-0.106	-0.183
-386.004	-64.358	0.155	-0.062
-384.990	800.000	0.090	-0.306
-383.975	-200.000	-0.047	-0.406
-382.960	46.262	-0.088	-0.080
-381.946	-75.000	0.242	0.086
-380.931	403.289	-0.064	0.134
-379.917	188.178	0.160	-0.236
-378.902	-200.000	-0.024	-0.154
-377.888	117.213	-0.178	-0.216
-376.873	44.444	0.175	0.159
-375.858	271.325	0.112	0.194
-374.844	204.421	0.043	-0.066
-373.829	34.767	-0.082	-0.070
-372.815	373.248	-0.098	0.198
-371.800	98.628	-0.088	0.100
-370.785	800.000	-0.101	0.291
-369.771	800.000	-0.075	0.315
-368.756	125.322	-0.090	0.112
-367.742	-104.750	0.061	-0.014
-366.727	-200.000	-0.032	0.283
-365.712	-161.386	0.382	0.020
-364.698	598.881	0.154	0.378
-363.683	-200.000	-0.001	-0.073
-362.669	277.349	-0.032	0.056
-361.654	-124.168	-0.055	0.009
-360.639	64.925	0.267	-0.267
-359.625	-200.000	-0.018	0.239
-358.610	169.520	-0.108	-0.152
-357.596	264.874	-0.116	0.200
-356.581	217.024	-0.075	-0.118
-355.566	17.421	-0.265	0.208
-354.552	-200.000	0.030	-0.524
-353.537	170.911	0.173	-0.246
-352.523	-200.000	-0.007	0.224
-351.508	277.966	0.128	0.225
-350.493	-107.038	0.351	0.077
-349.479	-200.000	-0.025	0.367
-348.464	3.693	-0.272	-0.196
-347.450	-36.566	-0.248	-0.132
-346.435	-85.140	-0.286	-0.088
-345.420	8.275	0.146	0.108
-344.406	-200.000	-0.007	0.213
-343.391	175.481	-0.083	0.119
-342.377	-47.394	0.142	-0.068
-341.362	800.000	-0.076	-0.281
-340.348	-114.006	-0.294	-0.056
-339.333	127.519	0.142	-0.178
-338.318	54.787	-0.174	-0.166
-337.304	773.119	0.114	-0.307
-336.289	-70.822	0.123	-0.046
-335.275	388.185	0.137	0.280
-334.260	800.000	-0.037	-0.104
-333.245	800.000	-0.049	0.150
-332.231	222.925	0.073	0.116
-331.216	415.049	0.043	0.090
-330.202	351.163	0.062	-0.121
-329.187	-92.820	-0.138	0.038
-328.172	87.376	-0.075	0.082
-327.158	-92.241	-0.214	0.060
-326.143	-200.000	0.030	0.135
-325.129	-33.123	-0.237	-0.130
-324.114	123.517	-0.214	0.265
-323.099	-32.866	0.038	0.021
-322.085	-166.986	-0.224	0.009
-321.070	-55.871	-0.034	0.015
-320.056	-188.579	0.341	-0.004
-319.041	-11.674	-0.078	0.050
-318.026	272.336	-0.171	-0.299
-317.012	-0.055	0.187	0.132
-315.997	-43.588	-0.120	0.060
-314.983	800.000	-0.020	-0.069
-313.968	-1.223	0.178	0.124
-312.953	-101.498	-0.185	0.044
-311.939	-36.938	0.234	-0.124
-310.924	-200.000	0.006	0.123
-309.910	800.000	0.099	0.320
-308.895	-78.133	-0.539	0.183
-307.880	-200.000	-0.010	0.064
-306.866	143.996	-0.111	0.145
-305.851	37.456	-0.326	0.285
-304.837	-154.633	0.217	-0.014
-303.822	133.339	-0.304	-0.388
-302.807	37.390	0.067	-0.059
-301.793	-10.327	-0.170	-0.111
-300.778	800.000	-0.069	0.219
-299.764	-3.112	0.166	-0.114
-298.749	91.475	-0.294	-0.325
-297.735	-12.766	0.164	-0.105
-296.720	350.997	-0.093	-0.182
-295.705	-0.136	-0.122	0.085
-294.691	52.795	-0.230	-0.217
-293.676	-200.000	0.009	0.334
-292.662	-200.000	0.004	0.211
-291.647	319.523	0.076	0.142
-290.632	160.424	0.180	-0.247
-289.618	54.423	-0.169	0.160
-288.603	186.307	-0.058	-0.085
-287.589	457.259	-0.053	0.115
-286.574	299.080	0.165	0.299
-285.559	-149.508	0.253	0.020
-284.545	-65.253	0.137	0.055
-283.530	-200.000	-0.016	0.076
-282.516	-89.277	-0.210	0.061
-281.501	0.561	0.053	0.037
-280.486	-119.059	0.081	0.014
-279.472	800.000	-0.087	-0.303
-278.457	104.431	0.065	0.076
-277.443	-103.181	0.248	0.058
-276.428	-154.072	0.057	0.004
-275.413	38.270	0.158	0.139
-274.399	4.106	-0.285	0.205
-273.384	12.116	-0.231	-0.175
-272.370	-200.000	0.007	-0.143
-271.355	394.495	0.120	0.246
-270.340	-52.995	-0.128	0.058
-269.326	223.025	-0.029	0.046
-268.311	-172.379	-0.304	-0.010
-267.297	43.159	0.142	-0.127
-266.282	-16.043	-0.140	0.087
-265.267	-6.918	0.349	0.234
-264.253	207.787	-0.084	0.129
-263.238	38.866	-0.172	0.151
-262.224	-74.128	0.380	-0.136
-261.209	97.813	0.071	0.080
-260.195	165.558	-0.125	0.173
-259.180	800.000	-0.076	-0.271
-258.165	-200.000	-0.023	-0.211
-257.151	65.191	0.231	-0.229
-256.136	485.087	-0.185	-0.414
-255.122	-48.696	0.173	-0.082
-254.107	-91.847	-0.233	0.065
-253.092	800.000	0.078	-0.257
-252.078	-76.995	-0.045	-0.015
-251.063	-129.628	-0.177	0.024
-250.049	-200.000	-0.022	0.107
-249.034	94.652	0.193	-0.216
-248.019	-200.000	0.045	-0.283
-247.005	-61.117	0.331	0.138
-245.990	-76.618	0.247	-0.085
-244.976	179.056	-0.248	0.357
-243.961	-200.000	0.005	-0.276
-242.946	188.393	-0.196	0.288
-241.932	172.890	-0.120	-0.170
-240.917	-56.369	0.219	-0.096
-239.903	-200.000	0.047	-0.291
-238.888	144.794	0.084	-0.111
-237.873	-36.335	-0.083	0.044
-236.859	10.914	0.125	0.094
-235.844	-200.000	-0.057	0.350
-234.830	99.741	0.166	0.189
-233.815	800.000	0.094	-0.364
-232.800	-200.000	0.025	0.188
-231.786	-73.162	-0.039	0.014
-230.771	-166.816	-0.132	-0.005
-229.757	64.687	-0.089	0.088
-228.742	658.605	0.152	-0.385
-227.727	179.398	0.057	0.082
-226.713	800.000	0.011	-0.038
-225.698	296.961	-0.172	0.311
-224.684	179.416	0.043	0.062
-223.669	141.726	0.172	-0.224
-222.655	405.463	0.080	0.166
-221.640	240.961	0.106	-0.173
-220.625	-131.787	0.150	-0.019
-219.611	617.618	-0.014	-0.035
-218.596	-71.573	0.240	0.088
-217.582	-200.000	-0.024	0.238
-216.567	-200.000	-0.028	-0.228
-215.552	-159.839	0.128	0.007
-214.538	-200.000	-0.036	0.406
-213.523	20.525	0.092	0.073
-212.509	655.278	-0.072	-0.183
-211.494	71.271	0.205	-0.209
-210.479	-143.048	0.211	-0.020
-209.465	-125.333	0.091	0.014
-208.450	111.832	0.171	0.203
-207.436	-77.858	0.124	0.042
-206.421	432.893	0.166	0.354
-205.406	-142.386	-0.216	0.021
-204.392	800.000	-0.076	-0.225
-203.377	-200.000	0.021	-0.123
-202.363	-185.945	-0.152	0.002
-201.348	-110.475	0.396	0.081
-200.333	-155.690	-0.090	-0.006
-199.319	-200.000	0.048	-0.255
-198.304	656.838	0.154	-0.388
-197.290	258.462	0.223	-0.377
-196.275	318.537	-0.198	0.369
-195.260	-200.000	-0.030	-0.279
-194.246	149.729	0.184	0.245
-193.231	800.000	-0.045	-0.143
-192.217	110.005	0.173	-0.204
-191.202	-84.686	-0.046	0.014
-190.187	800.000	-0.108	0.409
-189.173	298.424	-0.076	0.137
-188.158	-102.088	0.311	-0.074
-187.144	-1.428	-0.112	-0.077
-186.129	-132.632	0.575	0.072
-185.114	-200.000	-0.054	0.311
-184.100	-200.000	-0.006	0.058
-183.085	-200.000	-0.009	0.118
-182.071	800.000	-0.062	-0.205
-181.056	-200.000	-0.011	0.328
-180.042	-200.000	0.001	-0.066
-179.027	-200.000	0.065	0.375
-178.012	-200.000	-0.003	-0.089
-176.998	496.566	-0.044	-0.099
-175.983	-7.749	0.259	0.172
-174.969	731.901	0.045	-0.118
-173.954	-200.000	-0.003	-0.133
-172.939	-200.000	0.034	-0.362
-171.925	-200.000	-0.019	-0.244
-170.910	800.000	-0.018	0.055
-169.896	201.548	0.194	0.294
-168.881	-14.652	-0.235	0.148
-167.866	-123.633	-0.163	0.025
-166.852	-200.000	0.046	0.335
-165.837	-22.004	-0.155	-0.093
-164.823	-59.297	-0.209	0.088
-163.808	-61.912	0.377	-0.155
-162.793	696.571	-0.056	0.144
-161.779	-200.000	0.005	0.211
-160.764	-200.000	0.093	0.472
-159.750	116.484	-0.308	-0.371
-158.735	-25.274	0.100	0.058
-157.720	252.721	0.158	0.265
-156.706	143.526	-0.149	-0.194
-155.691	608.789	0.041	-0.101
-154.677	101.344	0.165	-0.188
-153.662	800.000	0.010	-0.042
-152.647	26.796	0.167	-0.137
-151.633	-0.436	0.172	-0.120
-150.618	-99.026	-0.218	0.054
-149.604	-33.498	-0.198	0.107
-148.589	-10.958	-0.265	-0.171
-147.574	-67.682	0.153	-0.059
-146.560	187.072	0.131	0.192
-145.545	-168.740	0.357	-0.013
-144.531	-31.130	0.244	-0.135
-143.516	-200.000	-0.069	0.457
-142.502	112.796	-0.230	-0.274
-141.487	69.787	0.078	-0.079
-140.472	317.546	-0.181	0.335
-139.458	800.000	-0.103	-0.293
-138.443	571.979	0.026	0.062
-137.429	238.548	0.185	0.301
-136.414	-84.919	-0.066	0.020
-135.399	-74.243	0.246	0.087
-134.385	409.100	-0.121	0.251
-133.370	67.593	0.105	-0.105
-132.356	-200.000	-0.028	0.218
-131.341	334.657	0.086	-0.162
-130.326	-104.250	-0.260	0.059
-129.312	413.854	0.066	-0.138
-128.297	-52.533	0.110	-0.050
-127.283	-55.085	0.339	-0.150
-126.268	-192.194	-0.154	0.001
-125.253	-200.000	0.019	-0.212
-124.239	800.000	-0.098	-0.323
-123.224	-200.000	0.009	0.070
-122.210	-64.594	0.241	0.096
-121.195	-21.074	0.056	-0.034
