DTS Sentinel unit serial number:	SN413079Multiplexer serial number:	ORYXHardware model number:	OX4-SRSoftware version number:	ORYX F/W v4.00 Oryx Data Collector v3.7.2.0data status	okinstallation	princeton_trtdifferential loss correction	single-endedforward channel	channel 3reverse channel	N/Adate	2019/09/15time	14:04:35forward acquisition time	60.00reverse acquisition time	0.00gamma	496.2192k internal	0.2292k external	0.2292temperature offset calibration	0.9954default loss term (dB/km)	0.3790temperature slope calibration	1.0000multiplexer offset coefficient	1.0000multiplexer slope coefficient	1.0000fibre end	0.00T internal ref (°C)	38.56T ext. ref 1 (°C)	4.93T ext. ref 2 (°C)	35.76length (m)	temperature (°C)	Stokes	anti-Stokes-747.200	800.000	-0.063	-0.277
-746.185	-13.215	0.174	0.116
-745.171	321.269	-0.060	0.117
-744.156	-116.999	-0.109	0.020
-743.142	135.994	-0.147	-0.196
-742.127	382.108	-0.076	0.159
-741.112	-27.779	-0.121	0.072
-740.098	-144.381	-0.092	-0.009
-739.083	250.005	0.245	0.426
-738.069	534.536	-0.093	-0.226
-737.054	-78.171	0.234	-0.083
-736.039	-200.000	0.003	0.208
-735.025	-31.359	-0.153	0.088
-734.010	58.089	0.158	-0.158
-732.996	426.745	-0.042	0.093
-731.981	-200.000	0.087	0.428
-730.966	-130.518	0.100	0.014
-729.952	223.079	-0.176	-0.291
-728.937	12.859	0.206	-0.163
-727.923	-26.097	-0.496	-0.298
-726.908	145.708	-0.160	-0.219
-725.894	800.000	-0.026	-0.076
-724.879	282.437	-0.043	-0.080
-723.864	-79.088	0.085	-0.029
-722.850	-116.445	-0.245	-0.046
-721.835	516.591	-0.035	0.083
-720.821	-73.700	0.004	0.001
-719.806	-121.998	-0.021	0.004
-718.791	189.006	0.223	-0.341
-717.777	800.000	-0.102	-0.325
-716.762	81.992	0.357	-0.395
-715.748	134.542	-0.171	-0.227
-714.733	143.847	-0.087	-0.119
-713.718	-200.000	0.017	0.081
-712.704	-200.000	-0.002	0.074
-711.689	-43.146	-0.234	0.121
-710.675	-200.000	0.002	-0.245
-709.660	-200.000	0.030	-0.603
-708.645	-200.000	-0.099	-0.000
-707.631	7.309	-0.227	-0.173
-706.616	-48.702	0.192	0.094
-705.602	-200.000	-0.039	-0.402
-704.587	-81.108	0.294	-0.099
-703.572	800.000	0.028	0.089
-702.558	660.040	-0.043	-0.112
-701.543	-3.036	0.244	-0.174
-700.529	-100.578	-0.389	0.098
-699.514	-133.979	0.209	-0.026
-698.499	-69.909	0.217	0.085
-697.485	425.791	0.036	0.079
-696.470	196.504	0.200	-0.311
-695.456	207.853	0.119	-0.189
-694.441	-200.000	-0.012	0.220
-693.426	-43.857	-0.092	0.048
-692.412	-20.737	-0.120	0.075
-691.397	-170.892	-0.022	0.001
-690.383	-15.009	0.030	0.019
-689.368	-84.865	-0.251	0.080
-688.354	800.000	-0.099	0.321
-687.339	-85.348	-0.217	0.069
-686.324	-0.033	0.098	-0.071
-685.310	98.107	0.141	-0.165
-684.295	-112.885	-0.097	0.020
-683.281	138.723	0.169	-0.226
-682.266	39.162	0.030	0.028
-681.251	-132.293	0.126	0.017
-680.237	-200.000	-0.006	0.080
-679.222	112.392	0.155	0.192
-678.208	139.425	-0.090	0.122
-677.193	-200.000	0.024	0.150
-676.178	-15.284	0.073	0.048
-675.164	-24.665	-0.168	-0.102
-674.149	372.045	-0.079	-0.163
-673.135	-200.000	0.032	-0.273
-672.120	-99.543	-0.272	0.070
-671.105	800.000	0.029	0.089
-670.091	87.182	-0.150	-0.169
-669.076	-63.789	0.107	-0.045
-668.062	-38.046	-0.248	0.134
-667.047	621.985	0.043	0.110
-666.032	-200.000	0.054	-0.278
-665.018	-96.371	0.393	-0.106
-664.003	162.534	-0.098	0.140
-662.989	567.120	0.094	-0.232
-661.974	61.284	-0.132	0.133
-660.959	83.039	0.040	0.045
-659.945	-200.000	0.005	0.319
-658.930	-89.373	0.312	0.094
-657.916	-200.000	-0.053	-0.247
-656.901	51.292	0.224	-0.217
-655.886	262.344	-0.097	-0.171
-654.872	800.000	0.041	-0.130
-653.857	-1.193	-0.080	-0.058
-652.843	-10.980	-0.584	-0.393
-651.828	-70.125	-0.233	-0.090
-650.814	43.131	0.131	0.122
-649.799	-192.090	0.156	0.002
-648.784	-52.400	0.119	0.056
-647.770	-200.000	0.015	-0.160
-646.755	3.895	-0.097	0.072
-645.741	-8.793	-0.197	0.134
-644.726	41.495	-0.318	-0.294
-643.711	10.604	0.216	-0.168
-642.697	-79.026	-0.414	-0.144
-641.682	-29.473	-0.022	-0.013
-640.668	252.822	-0.074	-0.128
-639.653	-200.000	0.015	-0.121
-638.638	11.550	0.056	0.044
-637.624	-39.045	0.107	-0.057
-636.609	-113.978	-0.090	0.018
-635.595	-24.242	0.086	-0.052
-634.580	-155.497	0.180	-0.012
-633.565	-152.659	-0.185	0.013
-632.551	78.990	-0.085	0.093
-631.536	81.102	0.385	-0.424
-630.522	-132.407	0.146	-0.019
-629.507	48.651	-0.231	-0.220
-628.492	526.428	0.034	-0.082
-627.478	-2.487	-0.173	0.124
-626.463	84.046	0.120	-0.134
-625.449	-24.889	-0.232	0.140
-624.434	-40.797	-0.160	0.085
-623.419	-200.000	0.012	0.200
-622.405	307.422	0.048	0.091
-621.390	-35.545	-0.200	0.111
-620.376	119.831	0.061	-0.077
-619.361	422.729	0.151	-0.331
-618.346	-38.431	-0.143	-0.077
-617.332	800.000	0.126	0.375
-616.317	-99.890	-0.184	-0.047
-615.303	-147.492	-0.147	0.013
-614.288	-200.000	-0.043	0.240
-613.273	-65.637	-0.133	-0.054
-612.259	800.000	0.103	-0.366
-611.244	-80.914	0.272	0.092
-610.230	53.764	0.219	-0.214
-609.215	-200.000	0.039	-0.228
-608.201	152.323	0.021	0.030
-607.186	-161.284	-0.155	0.008
-606.171	-200.000	0.003	-0.341
-605.157	209.848	-0.106	-0.170
-604.142	-200.000	0.020	0.169
-603.128	-200.000	0.019	-0.148
-602.113	-200.000	-0.053	0.330
-601.098	-112.144	-0.341	0.070
-600.084	122.575	-0.276	0.351
-599.069	-173.354	0.516	0.016
-598.055	58.696	0.099	0.099
-597.040	178.893	0.067	-0.099
-596.025	800.000	0.011	0.034
-595.011	-200.000	0.012	0.079
-593.996	6.520	-0.060	-0.046
-592.982	202.906	0.060	0.094
-591.967	-4.494	0.104	-0.073
-590.952	-105.038	-0.320	0.074
-589.938	-112.882	-0.295	0.059
-588.923	-200.000	-0.058	-0.318
-587.909	98.011	-0.180	-0.211
-586.894	-86.566	-0.454	-0.142
-585.879	41.931	-0.028	0.026
-584.865	-200.000	-0.002	0.080
-583.850	800.000	0.058	0.233
-582.836	323.332	-0.058	0.113
-581.821	40.398	0.189	-0.173
-580.806	543.986	-0.028	-0.069
-579.792	-74.446	-0.128	-0.047
-578.777	105.806	-0.103	0.124
-577.763	34.300	-0.312	-0.277
-576.748	-200.000	0.038	-0.335
-575.733	-89.280	0.313	0.094
-574.719	713.858	-0.074	-0.198
-573.704	-63.350	-0.343	-0.143
-572.690	-28.694	0.297	-0.174
-571.675	-200.000	0.073	-0.461
-570.661	-200.000	-0.020	-0.277
-569.646	-32.801	0.130	0.073
-568.631	53.157	-0.099	0.097
-567.617	800.000	-0.043	0.127
-566.602	-200.000	0.010	0.100
-565.588	114.558	-0.056	-0.069
-564.573	-200.000	0.010	-0.069
-563.558	-77.961	-0.098	0.034
-562.544	-109.956	0.411	0.088
-561.529	72.087	-0.086	0.091
-560.515	-85.090	0.099	0.031
-559.500	-151.576	-0.181	-0.014
-558.485	221.827	-0.158	-0.257
-557.471	-61.082	0.104	-0.045
-556.456	800.000	0.069	-0.289
-555.442	230.859	-0.032	-0.053
-554.427	-127.637	-0.144	-0.021
-553.412	-200.000	0.022	0.318
-552.398	-200.000	-0.008	0.236
-551.383	420.904	-0.147	-0.321
-550.369	-71.834	-0.227	-0.086
-549.354	-23.855	-0.022	-0.013
-548.339	800.000	0.105	-0.368
-547.325	-200.000	-0.028	0.384
-546.310	-7.373	-0.248	0.171
-545.296	268.822	-0.149	-0.265
-544.281	-109.501	-0.148	0.032
-543.266	49.371	-0.042	0.040
-542.252	800.000	-0.016	0.061
-541.237	331.121	-0.222	0.434
-540.223	-15.549	-0.107	-0.070
-539.208	4.215	0.120	-0.089
-538.193	14.356	0.196	0.155
-537.179	-91.366	-0.371	0.108
-536.164	-69.770	0.170	0.066
-535.150	250.545	-0.194	0.334
-534.135	-60.942	-0.090	-0.039
-533.121	-200.000	0.005	-0.076
-532.106	767.896	0.035	-0.096
-531.091	347.804	0.078	-0.156
-530.077	30.177	0.056	-0.049
-529.062	22.276	-0.155	-0.128
-528.048	-86.028	0.372	-0.117
-527.033	50.984	-0.171	0.165
-526.018	-61.936	0.183	0.078
-525.004	800.000	0.088	0.268
-523.989	800.000	0.041	0.148
-522.975	-40.231	0.135	-0.071
-521.960	149.363	-0.073	-0.101
-520.945	-124.691	-0.396	0.062
-519.931	127.857	0.108	0.139
-518.916	-165.882	0.187	-0.008
-517.902	347.141	0.095	-0.191
-516.887	226.432	0.212	-0.348
-515.872	-200.000	0.012	-0.211
-514.858	-200.000	-0.032	-0.336
-513.843	8.333	0.084	-0.064
-512.829	-200.000	0.010	-0.239
-511.814	-33.562	0.189	-0.106
-510.799	80.577	0.209	-0.228
-509.785	-174.033	0.635	0.019
-508.770	-200.000	0.002	0.146
-507.756	40.069	-0.157	0.143
-506.741	174.907	0.101	-0.148
-505.726	800.000	-0.067	0.246
-504.712	493.498	0.121	0.282
-503.697	-56.300	-0.380	0.171
-502.683	-118.255	-0.307	0.055
-501.668	709.982	0.043	-0.116
-500.653	-200.000	0.058	0.281
-499.639	800.000	-0.021	-0.071
-498.624	-79.244	-0.251	0.086
-497.610	19.901	-0.189	-0.155
-496.595	726.397	-0.069	0.186
-495.581	12.387	-0.080	0.062
-494.566	75.100	-0.129	0.138
-493.551	32.404	0.035	-0.031
-492.537	-200.000	-0.004	0.054
-491.522	-54.145	-0.136	-0.062
-490.508	117.178	-0.246	0.306
-489.493	123.427	-0.046	0.058
-488.478	-200.000	0.061	0.513
-487.464	-200.000	-0.094	0.469
-486.449	800.000	0.114	-0.365
-485.435	-200.000	-0.035	-0.243
-484.420	364.483	-0.087	0.176
-483.405	-60.722	-0.169	-0.073
-482.391	-12.877	-0.071	0.047
-481.376	800.000	0.004	-0.015
-480.362	-200.000	-0.048	-0.246
-479.347	-96.287	0.291	0.078
-478.332	800.000	0.032	0.096
-477.318	-77.242	0.303	-0.107
-476.303	-129.788	-0.336	-0.047
-475.289	570.038	-0.100	-0.247
-474.274	50.118	0.119	0.114
-473.259	-42.641	0.208	0.107
-472.245	-129.986	0.192	0.027
-471.230	233.873	0.078	-0.130
-470.216	690.345	-0.043	0.114
-469.201	-200.000	0.026	0.151
-468.186	-113.801	0.196	-0.039
-467.172	76.059	-0.053	-0.057
-466.157	-200.000	0.034	-0.303
-465.143	-132.443	-0.148	-0.019
-464.128	-34.516	0.342	-0.190
-463.113	-91.423	0.120	-0.035
-462.099	-200.000	0.015	-0.125
-461.084	-183.064	-0.184	0.003
-460.070	126.836	0.166	-0.212
-459.055	-97.479	0.235	0.062
-458.040	-185.542	-0.407	0.006
-457.026	-147.214	-0.166	-0.014
-456.011	800.000	0.065	0.204
-454.997	-179.515	-0.277	0.006
-453.982	86.640	-0.357	0.399
-452.968	-199.819	-0.126	0.001
-451.953	48.197	0.357	0.338
-450.938	-98.548	0.257	0.066
-449.924	125.320	0.158	0.202
-448.909	-93.515	-0.072	0.020
-447.895	-17.674	0.094	-0.060
-446.880	-62.459	-0.215	0.091
-445.865	-35.823	0.163	-0.090
-444.851	800.000	0.038	0.119
-443.836	39.667	-0.086	-0.078
-442.822	62.933	0.124	-0.126
-441.807	-22.059	0.197	0.121
-440.792	30.242	0.078	0.067
-439.778	604.040	0.106	0.266
-438.763	72.699	-0.148	0.156
-437.749	-75.481	-0.157	-0.057
-436.734	173.188	-0.135	0.196
-435.719	-3.580	0.038	-0.027
-434.705	-37.639	0.142	-0.076
-433.690	60.199	-0.155	-0.155
-432.676	-200.000	-0.053	-0.267
-431.661	800.000	-0.025	-0.093
-430.646	-71.148	0.107	-0.041
-429.632	-44.484	-0.202	-0.102
-428.617	160.022	0.147	0.208
-427.603	-47.173	0.185	-0.091
-426.588	-13.767	-0.015	-0.010
-425.573	-132.897	0.444	-0.057
-424.559	563.339	-0.104	-0.255
-423.544	800.000	0.058	0.161
-422.530	592.717	-0.064	-0.159
-421.515	244.457	0.021	-0.035
-420.500	-16.492	-0.167	-0.107
-419.486	-67.073	-0.376	0.150
-418.471	-79.614	0.058	0.020
-417.457	132.225	0.255	0.331
-416.442	86.630	0.222	-0.247
-415.428	-75.686	-0.106	0.038
-414.413	800.000	-0.016	0.060
-413.398	-129.924	0.236	0.033
-412.384	45.598	0.032	-0.030
-411.369	138.079	0.152	-0.201
-410.355	-72.699	-0.095	0.035
-409.340	800.000	-0.013	-0.055
-408.325	211.641	-0.058	-0.092
-407.311	-151.922	0.076	-0.006
-406.296	-53.355	0.174	-0.081
-405.282	72.885	-0.282	0.297
-404.267	-142.305	-0.276	-0.028
-403.252	718.862	0.095	-0.255
-402.238	-200.000	-0.017	-0.137
-401.223	762.699	0.124	0.341
-400.209	-200.000	-0.014	0.197
-399.194	17.503	-0.210	-0.168
-398.179	-200.000	0.036	0.187
-397.165	509.494	0.055	0.129
-396.150	-200.000	0.013	0.138
-395.136	21.568	-0.104	0.086
-394.121	-200.000	-0.000	-0.226
-393.106	-177.029	0.177	0.004
-392.092	800.000	0.053	-0.212
-391.077	100.061	0.161	-0.188
-390.063	41.360	0.078	0.071
-389.048	-200.000	-0.022	-0.131
-388.033	-106.167	0.194	-0.044
-387.019	54.352	0.338	-0.328
-386.004	71.026	0.179	-0.187
-384.990	-116.840	-0.153	0.028
-383.975	-200.000	0.042	0.339
-382.960	800.000	-0.089	0.347
-381.946	756.638	-0.049	-0.135
-380.931	800.000	0.062	0.263
-379.917	-45.536	0.175	0.087
-378.902	-200.000	-0.010	0.242
-377.888	87.246	0.043	-0.048
-376.873	382.124	0.154	-0.320
-375.858	-137.455	-0.301	0.034
-374.844	-200.000	-0.005	-0.107
-373.829	-112.136	0.154	0.031
-372.815	164.371	-0.129	0.183
-371.800	161.842	-0.142	-0.200
-370.785	-43.998	-0.218	0.111
-369.771	504.242	0.164	0.382
-368.756	-117.254	0.240	-0.044
-367.742	182.149	-0.093	0.138
-366.727	-77.978	0.197	0.068
-365.712	-38.730	-0.214	0.114
-364.698	-8.566	0.151	0.103
-363.683	328.415	0.054	0.104
-362.669	-200.000	-0.045	-0.330
-361.654	-3.217	-0.190	-0.133
-360.639	32.191	-0.156	-0.136
-359.625	127.737	-0.039	-0.050
-358.610	-40.896	0.185	0.097
-357.596	112.956	-0.035	-0.042
-356.581	800.000	-0.026	-0.080
-355.566	-200.000	0.023	-0.311
-354.552	53.218	-0.054	0.053
-353.537	189.694	-0.307	0.464
-352.523	-19.099	0.235	-0.147
-351.508	-200.000	-0.065	0.300
-350.493	-200.000	0.001	-0.257
-349.479	-113.067	0.446	-0.089
-348.464	-28.275	-0.197	0.115
-347.450	-6.108	-0.081	0.056
-346.435	800.000	-0.100	0.291
-345.420	-160.796	0.419	0.022
-344.406	-200.000	0.047	0.229
-343.391	-141.001	0.113	0.012
-342.377	-6.138	-0.168	-0.116
-341.362	-14.985	0.218	-0.141
-340.348	-200.000	0.003	0.417
-339.333	-31.325	-0.112	-0.063
-338.318	20.547	-0.222	0.181
-337.304	36.245	0.124	0.110
-336.289	-43.819	-0.155	-0.078
-335.275	-73.455	0.059	0.022
-334.260	275.468	-0.105	-0.187
-333.245	140.410	-0.171	-0.227
-332.231	-200.000	0.055	-0.323
-331.216	800.000	-0.026	-0.073
-330.202	209.728	0.008	0.012
-329.187	800.000	0.054	0.154
-328.172	800.000	0.109	0.354
-327.158	617.997	-0.051	-0.128
-326.143	248.343	0.110	-0.188
-325.129	20.983	-0.078	-0.064
-324.114	-148.308	0.143	-0.012
-323.099	800.000	-0.064	0.198
-322.085	-97.871	0.303	0.079
-321.070	-73.197	0.265	-0.098
-320.056	290.496	-0.065	-0.119
-319.041	85.877	-0.244	0.270
-318.026	86.646	-0.067	-0.075
-317.012	-200.000	0.005	-0.076
-315.997	-200.000	-0.006	0.109
-314.983	-12.077	-0.180	0.119
-313.968	-156.877	-0.149	0.009
-312.953	390.050	-0.074	0.155
-311.939	-180.760	0.267	-0.005
-310.924	32.708	-0.120	0.105
-309.910	-200.000	-0.003	0.247
-308.895	-16.240	-0.264	-0.169
-307.880	-200.000	0.022	-0.107
-306.866	138.424	0.215	0.283
-305.851	58.162	-0.155	0.153
-304.837	-49.285	0.066	0.032
-303.822	100.437	0.017	0.019
-302.807	-89.079	-0.401	0.119
-301.793	-51.586	0.061	0.029
-300.778	-200.000	-0.046	-0.245
-299.764	-55.541	-0.209	0.094
-298.749	800.000	0.072	0.276
-297.735	-200.000	0.006	0.244
-296.720	800.000	0.010	-0.042
-295.705	-19.741	-0.136	0.085
-294.691	225.412	-0.127	0.207
-293.676	132.157	-0.103	-0.133
-292.662	800.000	0.059	-0.183
-291.647	-13.918	0.356	-0.231
-290.632	-45.863	0.314	-0.156
-289.618	9.776	-0.201	-0.154
-288.603	268.801	0.106	-0.188
-287.589	84.714	-0.213	0.235
-286.574	-34.127	0.271	-0.150
-285.559	-122.842	-0.230	-0.037
-284.545	26.226	0.157	-0.132
-283.530	-200.000	0.087	-0.439
-282.516	-200.000	-0.011	-0.120
-281.501	743.173	0.061	0.165
-280.486	0.973	-0.194	-0.140
-279.472	-131.364	-0.231	-0.031
-278.457	-200.000	0.029	0.287
-277.443	-106.280	0.147	0.033
-276.428	18.934	0.204	0.164
-275.413	138.356	-0.296	0.390
-274.399	-200.000	0.014	0.192
-273.384	36.772	-0.148	-0.132
-272.370	-200.000	0.028	0.241
-271.355	800.000	0.100	-0.400
-270.340	800.000	0.026	-0.109
-269.326	676.922	-0.010	-0.026
-268.311	-100.017	-0.208	0.052
-267.297	-40.571	0.259	-0.135
-266.282	-200.000	-0.069	0.436
-265.267	-200.000	0.036	0.288
-264.253	-112.751	0.375	0.075
-263.238	203.542	0.119	-0.184
-262.224	-13.232	0.122	0.079
-261.209	-119.678	0.085	-0.015
-260.195	-114.975	-0.227	-0.043
-259.180	93.037	0.127	0.144
-258.165	-200.000	0.030	-0.252
-257.151	-12.562	-0.234	-0.153
-256.136	800.000	0.072	0.250
-255.122	-25.476	-0.181	-0.107
-254.107	122.277	0.215	-0.270
-253.092	-200.000	0.027	-0.341
-252.078	440.086	-0.073	-0.161
-251.063	800.000	0.089	-0.251
-250.049	-36.310	-0.256	-0.138
-249.034	-47.029	-0.008	-0.004
-248.019	-163.134	0.302	0.015
-247.005	303.704	-0.047	0.088
-245.990	-145.469	-0.173	0.016
-244.976	67.731	-0.071	0.073
-243.961	-200.000	0.010	-0.117
-242.946	-114.536	-0.160	0.031
-241.932	-200.000	0.018	0.273
-240.917	-71.389	0.260	0.098
-239.903	-58.930	0.201	0.087
-238.888	47.924	0.170	-0.159
-237.873	-114.218	0.103	-0.020
-236.859	-98.853	-0.339	0.087
-235.844	-30.111	0.179	-0.102
-234.830	800.000	-0.035	0.115
-233.815	-200.000	-0.040	-0.192
-232.800	-162.138	0.300	-0.015
-231.786	-161.502	0.294	0.015
-230.771	339.005	-0.142	-0.278
-229.757	154.607	0.134	0.184
-228.742	18.591	0.202	-0.162
-227.727	-83.678	-0.061	0.019
-226.713	340.972	-0.041	0.080
-225.698	-66.256	-0.168	-0.067
-224.684	800.000	-0.046	-0.137
-223.669	-68.282	-0.078	0.030
-222.655	-81.837	0.130	0.043
-221.640	425.472	0.029	0.063
-220.625	484.043	0.139	-0.318
-219.611	157.641	0.143	-0.199
-218.596	229.766	-0.193	-0.316
-217.582	800.000	-0.155	0.487
-216.567	-103.472	0.393	-0.093
-215.552	-150.377	0.187	0.014
-214.538	5.436	-0.128	0.095
-213.523	5.656	0.263	-0.195
-212.509	-78.264	-0.251	0.086
-211.494	17.645	0.154	0.123
-210.479	-68.796	0.297	0.115
-209.465	128.308	-0.192	0.245
-208.450	-200.000	-0.060	0.334
-207.436	38.632	0.175	0.157
-206.421	-200.000	-0.017	0.115
-205.406	-128.579	0.454	-0.064
-204.392	48.998	0.167	0.157
-203.377	262.975	0.132	0.230
-202.363	218.683	-0.114	-0.183
-201.348	-72.803	0.298	0.110
-200.333	-84.943	0.298	-0.094
-199.319	-72.538	-0.248	-0.092
-198.304	602.664	-0.166	-0.414
-197.290	36.409	-0.050	-0.044
-196.275	-74.541	0.384	-0.139
-195.260	-200.000	0.030	0.168
-194.246	133.583	-0.123	0.159
-193.231	499.648	0.056	0.129
-192.217	210.558	-0.077	-0.121
-191.202	-158.053	-0.193	-0.011
-190.187	800.000	0.032	0.139
-189.173	-27.931	-0.182	-0.106
-188.158	-143.641	0.278	-0.026
-187.144	-200.000	0.024	0.112
-186.129	229.309	-0.190	0.311
-185.114	4.762	0.304	0.224
-184.100	800.000	0.013	0.050
-183.085	541.571	0.130	0.310
-182.071	-132.709	-0.297	0.038
-181.056	-200.000	0.010	0.344
-180.042	167.273	0.120	-0.171
-179.027	-66.198	-0.097	-0.039
-178.012	10.426	0.290	-0.221
-176.998	-91.257	-0.164	0.047
-175.983	587.695	-0.064	0.158
-174.969	-107.410	-0.461	-0.101
-173.954	-99.893	0.263	0.066
-172.939	-64.862	-0.177	0.072
-171.925	-140.207	0.150	-0.016
-170.910	186.094	-0.257	0.383
-169.896	-125.611	0.082	0.012
-168.881	12.832	-0.235	-0.182
-167.866	152.075	0.157	-0.215
-166.852	-165.426	-0.070	-0.003
-165.837	-53.165	0.311	-0.143
-164.823	-200.000	0.015	-0.413
-163.808	158.672	0.057	-0.079
-162.793	-143.700	-0.406	-0.039
-161.779	-39.542	0.263	-0.138
-160.764	47.966	-0.295	-0.276
-159.750	406.135	0.029	0.061
-158.735	1.143	-0.159	0.114
-157.720	-200.000	0.003	-0.014
-156.706	800.000	0.022	-0.080
-155.691	441.519	0.061	0.133
-154.677	25.390	-0.039	-0.032
-153.662	800.000	0.031	0.100
-152.647	-167.871	-0.305	-0.012
-151.633	-91.486	-0.290	0.083
-150.618	-43.638	-0.199	0.100
-149.604	-200.000	0.030	-0.200
-148.589	-200.000	-0.034	0.374
-147.574	218.794	0.227	0.362
-146.560	-67.337	-0.175	0.069
-145.545	800.000	-0.121	-0.359
-144.531	-31.976	0.122	0.068
-143.516	-56.081	-0.125	-0.056
-142.502	-39.365	-0.104	-0.055
-141.487	167.970	0.030	0.043
-140.472	7.285	-0.191	0.142
-139.458	311.704	0.073	0.137
-138.443	-200.000	-0.002	-0.183
-137.429	-29.971	0.119	-0.068
-136.414	-81.039	-0.489	0.162
-135.399	47.294	0.180	-0.167
-134.385	800.000	-0.103	0.314
-133.370	184.051	-0.059	-0.088
-132.356	-6.572	0.207	-0.141
-131.341	-122.203	0.354	0.058
-130.326	781.365	0.091	-0.249
-129.312	800.000	0.131	-0.370
-128.297	353.410	-0.153	-0.304
-127.283	-200.000	0.003	0.414
-126.268	97.629	0.072	0.083
-125.253	-124.225	0.302	-0.047
-124.239	94.368	0.134	0.152
-123.224	203.815	-0.112	-0.173
-122.210	-200.000	0.004	-0.041
-121.195	-200.000	-0.008	-0.295
