DTS Sentinel unit serial number:	SN413079Multiplexer serial number:	ORYXHardware model number:	OX4-SRSoftware version number:	ORYX F/W v4.00 Oryx Data Collector v3.7.2.0data status	okinstallation	princeton_trtdifferential loss correction	single-endedforward channel	channel 3reverse channel	N/Adate	2019/09/13time	07:04:35forward acquisition time	60.00reverse acquisition time	0.00gamma	496.2192k internal	0.2339k external	0.2339temperature offset calibration	1.0142default loss term (dB/km)	0.3790temperature slope calibration	1.0000multiplexer offset coefficient	1.0000multiplexer slope coefficient	1.0000fibre end	0.00T internal ref (°C)	26.00T ext. ref 1 (°C)	4.14T ext. ref 2 (°C)	21.18length (m)	temperature (°C)	Stokes	anti-Stokes-747.200	471.333	-0.161	0.364
-746.185	-200.000	0.071	0.443
-745.171	-39.754	0.077	-0.040
-744.156	476.535	0.069	0.156
-743.142	-200.000	0.021	-0.341
-742.127	32.842	-0.186	0.161
-741.112	494.259	-0.149	-0.342
-740.098	140.580	-0.153	-0.203
-739.083	-200.000	-0.032	0.230
-738.069	-200.000	-0.009	-0.246
-737.054	-200.000	0.019	-0.232
-736.039	-116.651	-0.303	0.056
-735.025	-114.585	0.115	-0.022
-734.010	-200.000	-0.034	0.206
-732.996	-200.000	-0.004	0.085
-731.981	346.463	-0.024	0.047
-730.966	-113.902	0.179	0.035
-729.952	-120.903	-0.211	0.036
-728.937	-200.000	-0.011	0.267
-727.923	79.393	0.248	-0.266
-726.908	18.220	-0.151	-0.121
-725.894	-200.000	0.058	-0.330
-724.879	-200.000	0.061	-0.469
-723.864	-47.469	-0.231	0.113
-722.850	302.265	0.135	-0.249
-721.835	254.159	0.093	0.160
-720.821	-200.000	-0.016	0.111
-719.806	144.444	0.083	-0.111
-718.791	23.076	-0.140	0.115
-717.777	-200.000	-0.046	-0.414
-716.762	328.559	-0.076	-0.145
-715.748	800.000	0.042	-0.176
-714.733	204.934	-0.225	-0.350
-713.718	626.187	-0.129	-0.326
-712.704	-200.000	-0.004	-0.309
-711.689	-200.000	-0.032	-0.160
-710.675	-200.000	0.043	-0.406
-709.660	800.000	0.100	-0.293
-708.645	-85.918	0.161	0.050
-707.631	-12.410	-0.085	0.056
-706.616	800.000	0.061	-0.217
-705.602	-28.091	-0.163	-0.094
-704.587	111.247	0.059	0.071
-703.572	-200.000	0.031	0.362
-702.558	-200.000	-0.019	-0.279
-701.543	-105.864	0.143	0.032
-700.529	-200.000	-0.009	-0.044
-699.514	-169.601	0.314	0.011
-698.499	-81.009	0.135	0.045
-697.485	142.532	-0.065	-0.086
-696.470	-73.280	-0.201	0.074
-695.456	800.000	-0.070	-0.299
-694.441	-21.067	0.158	0.097
-693.426	644.126	-0.150	0.384
-692.412	-65.108	0.324	0.131
-691.397	257.526	-0.011	0.020
-690.383	-47.578	0.172	0.084
-689.368	-143.485	-0.160	0.015
-688.354	-200.000	0.036	0.234
-687.339	-134.652	-0.268	0.033
-686.324	-76.165	-0.072	-0.025
-685.310	142.711	-0.065	-0.087
-684.295	201.282	0.098	0.150
-683.281	-106.114	0.059	-0.013
-682.266	-200.000	-0.010	-0.048
-681.251	-200.000	-0.020	-0.135
-680.237	-17.204	0.122	0.077
-679.222	120.015	0.040	-0.050
-678.208	-86.564	0.123	0.038
-677.193	-200.000	-0.013	0.219
-676.178	-200.000	0.034	0.243
-675.164	-101.963	0.323	-0.078
-674.149	399.914	0.106	-0.222
-673.135	-41.464	-0.143	-0.073
-672.120	46.365	-0.145	0.134
-671.105	91.019	-0.313	-0.352
-670.091	-45.502	-0.038	0.019
-669.076	-60.939	0.205	0.087
-668.062	118.058	-0.337	-0.416
-667.047	-118.897	-0.121	-0.021
-666.032	236.681	0.159	0.263
-665.018	-200.000	-0.008	-0.205
-664.003	-54.743	-0.050	-0.023
-662.989	160.804	0.223	-0.311
-661.974	125.563	0.160	0.201
-660.959	253.171	-0.017	-0.029
-659.945	-98.383	0.147	-0.038
-658.930	-153.982	0.124	0.008
-657.916	257.906	0.183	-0.315
-656.901	-120.798	-0.197	0.033
-655.886	-169.990	-0.072	-0.003
-654.872	-54.327	-0.077	0.035
-653.857	-160.607	0.357	-0.019
-652.843	-3.990	0.081	-0.056
-651.828	-32.085	-0.187	0.104
-650.814	800.000	0.038	-0.149
-649.799	800.000	0.069	-0.244
-648.784	118.505	-0.130	-0.160
-647.770	-57.783	-0.125	-0.054
-646.755	800.000	-0.076	-0.234
-645.741	54.206	0.143	-0.138
-644.726	-27.502	0.115	0.067
-643.711	-11.293	-0.118	-0.078
-642.697	233.551	-0.049	0.080
-641.682	-61.771	-0.242	0.101
-640.668	-171.252	-0.411	0.014
-639.653	-39.145	-0.407	0.214
-638.638	402.739	0.060	-0.126
-637.624	800.000	-0.026	0.109
-636.609	119.246	0.225	-0.278
-635.595	-137.856	0.137	-0.015
-634.580	12.745	-0.148	-0.114
-633.565	304.951	0.144	-0.266
-632.551	-200.000	-0.044	-0.352
-631.536	-39.112	-0.208	-0.109
-630.522	-29.439	0.105	0.060
-629.507	8.586	0.064	-0.048
-628.492	-91.820	0.156	-0.044
-627.478	800.000	-0.090	-0.335
-626.463	800.000	0.169	0.513
-625.449	-200.000	0.059	0.282
-624.434	-122.286	-0.286	0.047
-623.419	44.601	0.149	0.137
-622.405	800.000	0.012	-0.046
-621.390	156.336	0.144	-0.199
-620.376	-131.892	-0.121	-0.016
-619.361	-200.000	0.011	-0.164
-618.346	119.712	-0.087	-0.108
-617.332	-59.510	-0.451	0.193
-616.317	-134.207	0.256	0.031
-615.303	-200.000	-0.019	0.195
-614.288	177.774	0.122	-0.177
-613.273	-82.506	0.301	0.097
-612.259	358.247	-0.030	0.060
-611.244	-200.000	0.007	0.202
-610.230	800.000	0.010	0.035
-609.215	109.626	0.255	0.305
-608.201	-200.000	-0.092	0.000
-607.186	-71.419	0.118	-0.044
-606.171	-12.432	-0.201	0.131
-605.157	800.000	-0.051	0.168
-604.142	-35.715	-0.408	0.221
-603.128	-200.000	-0.073	0.334
-602.113	-162.304	-0.367	0.018
-601.098	208.956	0.099	-0.155
-600.084	-200.000	-0.021	0.141
-599.069	-200.000	-0.007	-0.168
-598.055	559.184	-0.052	-0.125
-597.040	-115.034	0.283	0.054
-596.025	-87.980	0.276	-0.083
-595.011	-53.742	0.269	-0.123
-593.996	154.944	0.087	-0.119
-592.982	-126.345	0.153	0.023
-591.967	226.848	-0.083	0.134
-590.952	-200.000	-0.006	-0.119
-589.938	32.577	-0.242	-0.209
-588.923	-132.067	0.206	-0.027
-587.909	-74.942	-0.332	0.119
-586.894	-200.000	0.018	-0.107
-585.879	-104.410	0.223	0.051
-584.865	-112.906	0.085	-0.017
-583.850	35.725	-0.109	0.096
-582.836	-200.000	-0.002	0.137
-581.821	-26.261	-0.283	0.165
-580.806	-29.474	-0.445	-0.254
-579.792	-200.000	0.015	0.288
-578.777	34.778	0.088	-0.077
-577.763	-180.878	0.214	0.004
-576.748	-70.715	-0.230	-0.087
-575.733	-161.250	-0.458	-0.024
-574.719	236.614	-0.067	0.110
-573.704	-36.446	0.106	-0.057
-572.690	-200.000	0.004	-0.361
-571.675	800.000	-0.067	0.290
-570.661	-60.515	0.069	-0.029
-569.646	-39.962	-0.184	0.096
-568.631	-192.630	0.332	0.003
-567.617	-114.350	0.121	-0.023
-566.602	-4.064	0.117	-0.081
-565.588	131.490	0.177	-0.227
-564.573	370.963	0.040	-0.080
-563.558	-45.231	-0.108	-0.053
-562.544	97.491	0.237	0.271
-561.529	8.804	-0.173	0.130
-560.515	800.000	-0.064	0.200
-559.500	7.616	-0.113	-0.084
-558.485	800.000	-0.021	0.069
-557.471	24.673	0.207	-0.170
-556.456	-137.752	0.234	0.026
-555.442	230.542	0.116	-0.189
-554.427	-200.000	-0.023	0.217
-553.412	-43.064	-0.266	0.134
-552.398	-200.000	0.009	0.328
-551.383	-43.827	0.339	-0.170
-550.369	87.915	0.189	-0.208
-549.354	63.547	0.224	0.224
-548.339	-200.000	-0.024	-0.146
-547.325	800.000	0.086	0.288
-546.310	30.329	0.160	0.136
-545.296	-33.514	-0.250	0.137
-544.281	800.000	-0.025	-0.098
-543.266	-75.782	0.149	0.053
-542.252	-200.000	-0.117	0.580
-541.237	800.000	0.143	-0.394
-540.223	-37.156	-0.193	0.103
-539.208	-200.000	-0.033	0.152
-538.193	750.069	0.058	-0.157
-537.179	-48.583	-0.270	-0.129
-536.164	800.000	0.100	0.350
-535.150	176.993	-0.210	0.304
-534.135	-19.595	-0.303	0.187
-533.121	-106.350	0.182	0.041
-532.106	-4.445	-0.260	0.178
-531.091	-94.078	-0.127	0.035
-530.077	85.024	0.300	-0.327
-529.062	376.890	-0.072	-0.146
-528.048	-151.146	0.333	-0.025
-527.033	800.000	-0.043	-0.177
-526.018	800.000	-0.072	0.298
-525.004	-78.994	0.049	0.016
-523.989	126.431	0.145	0.183
-522.975	137.507	-0.120	0.157
-521.960	800.000	-0.051	-0.193
-520.945	593.192	0.108	0.266
-519.931	739.650	0.068	0.182
-518.916	118.536	-0.247	0.303
-517.902	-200.000	0.038	0.332
-516.887	275.346	0.137	-0.241
-515.872	302.050	-0.074	0.135
-514.858	25.601	0.034	-0.028
-513.843	108.917	-0.281	-0.334
-512.829	229.274	-0.064	-0.103
-511.814	-104.716	0.338	-0.077
-510.799	-200.000	0.001	0.095
-509.785	800.000	-0.012	-0.047
-508.770	-200.000	0.008	-0.276
-507.756	800.000	0.089	-0.273
-506.741	26.613	0.221	0.184
-505.726	-180.758	0.069	-0.001
-504.712	-200.000	-0.043	0.444
-503.697	-200.000	0.006	0.323
-502.683	231.271	0.045	0.074
-501.668	78.960	-0.115	0.122
-500.653	-2.732	-0.082	0.057
-499.639	-81.031	0.248	-0.082
-498.624	527.611	0.126	0.296
-497.610	50.515	-0.228	0.214
-496.595	-152.015	0.329	-0.024
-495.581	800.000	0.041	-0.156
-494.566	-55.767	-0.336	-0.149
-493.551	-21.688	0.250	0.151
-492.537	-80.630	-0.213	-0.070
-491.522	-46.619	0.030	0.015
-490.508	-38.687	0.208	-0.109
-489.493	-129.055	-0.156	0.022
-488.478	96.115	0.044	-0.050
-487.464	-147.843	0.178	0.015
-486.449	-16.055	-0.244	-0.154
-485.435	-200.000	0.018	-0.171
-484.420	198.808	-0.104	0.158
-483.405	-59.112	-0.137	-0.059
-482.391	800.000	-0.090	-0.356
-481.376	240.246	0.095	0.157
-480.362	661.893	0.088	0.224
-479.347	-67.481	-0.170	-0.066
-478.332	549.450	-0.159	0.379
-477.318	-27.280	0.226	0.131
-476.303	-101.922	0.043	0.010
-475.289	151.520	0.084	0.114
-474.274	-82.900	-0.368	-0.118
-473.259	-200.000	0.000	0.109
-472.245	-45.612	-0.059	0.029
-471.230	557.251	0.120	0.287
-470.216	-116.604	-0.324	-0.059
-469.201	41.323	-0.055	-0.049
-468.186	158.753	0.227	0.313
-467.172	-13.318	0.378	-0.243
-466.157	201.186	-0.124	-0.190
-465.143	647.452	-0.093	0.236
-464.128	800.000	0.051	-0.142
-463.113	800.000	0.134	-0.526
-462.099	-200.000	0.041	-0.283
-461.084	-200.000	-0.063	0.451
-460.070	112.743	0.300	-0.360
-459.055	800.000	-0.016	-0.069
-458.040	-200.000	0.024	-0.190
-457.026	530.666	0.099	-0.232
-456.011	-109.299	-0.051	-0.011
-454.997	-191.463	-0.288	-0.003
-453.982	-24.482	0.175	-0.103
-452.968	204.879	-0.141	-0.216
-451.953	-57.863	0.303	0.132
-450.938	16.904	0.145	0.114
-449.924	-200.000	0.023	-0.141
-448.909	-160.096	0.257	0.014
-447.895	-15.591	-0.202	-0.128
-446.880	-82.645	-0.235	-0.076
-445.865	-200.000	0.063	0.386
-444.851	-21.851	0.095	-0.057
-443.836	664.277	0.027	-0.070
-442.822	-44.139	-0.195	-0.097
-441.807	-107.135	0.150	0.033
-440.792	140.385	-0.303	-0.397
-439.778	-144.835	0.338	0.031
-438.763	-200.000	-0.028	0.131
-437.749	800.000	-0.070	-0.243
-436.734	-200.000	0.010	0.371
-435.719	-200.000	0.036	-0.158
-434.705	-34.677	0.028	0.015
-433.690	235.105	-0.262	0.429
-432.676	-200.000	-0.013	0.232
-431.661	-136.918	0.075	-0.009
-430.646	51.912	-0.335	-0.316
-429.632	-200.000	0.037	0.188
-428.617	-162.313	0.272	0.013
-427.603	-200.000	0.020	-0.190
-426.588	-155.547	0.245	-0.016
-425.573	-72.449	0.049	-0.018
-424.559	-126.427	-0.191	0.028
-423.544	800.000	-0.062	0.215
-422.530	562.913	0.128	0.307
-421.515	-83.670	-0.252	-0.080
-420.500	-200.000	-0.020	0.148
-419.486	-77.018	0.120	0.041
-418.471	-59.451	0.271	0.115
-417.457	-139.140	0.128	0.014
-416.442	61.132	0.293	0.288
-415.428	195.014	0.190	0.286
-414.413	408.096	-0.108	-0.226
-413.398	343.270	0.080	-0.155
-412.384	-60.859	0.261	-0.109
-411.369	658.165	-0.006	-0.016
-410.355	14.502	0.197	-0.152
-409.340	-25.892	-0.319	-0.186
-408.325	800.000	-0.051	0.167
-407.311	32.914	-0.165	-0.141
-406.296	94.795	0.258	0.290
-405.282	-200.000	-0.043	0.332
-404.267	-200.000	-0.028	0.206
-403.252	197.783	-0.294	0.444
-402.238	-23.526	-0.264	-0.157
-401.223	450.318	0.060	0.130
-400.209	-137.760	-0.045	0.005
-399.194	-119.629	0.411	-0.070
-398.179	-66.537	-0.136	-0.054
-397.165	-138.226	-0.303	0.033
-396.150	800.000	0.137	-0.454
-395.136	800.000	0.148	-0.416
-394.121	-40.605	0.142	-0.073
-393.106	72.639	0.056	-0.058
-392.092	39.824	0.303	0.269
-391.077	-185.677	0.108	-0.002
-390.063	466.587	-0.168	-0.372
-389.048	800.000	-0.052	-0.142
-388.033	-83.969	0.250	0.079
-387.019	722.258	-0.035	-0.093
-386.004	43.458	-0.023	-0.021
-384.990	-112.171	-0.477	0.095
-383.975	-59.677	-0.340	-0.144
-382.960	107.371	-0.077	-0.091
-381.946	208.911	-0.129	-0.200
-380.931	14.876	0.112	0.087
-379.917	-160.933	-0.175	-0.009
-378.902	800.000	0.093	0.356
-377.888	-200.000	0.012	-0.197
-376.873	-200.000	0.011	-0.246
-375.858	146.407	0.055	0.073
-374.844	233.963	0.140	0.227
-373.829	-166.168	-0.178	-0.007
-372.815	-60.567	0.119	-0.050
-371.800	-67.161	0.037	0.014
-370.785	-4.002	0.141	-0.096
-369.771	-200.000	-0.011	-0.362
-368.756	3.244	0.275	0.198
-367.742	338.742	0.135	-0.260
-366.727	-200.000	0.016	-0.201
-365.712	55.249	-0.173	0.166
-364.698	-46.820	-0.304	0.147
-363.683	128.405	-0.080	0.101
-362.669	313.646	-0.129	-0.240
-361.654	-17.872	-0.117	-0.072
-360.639	192.033	-0.093	0.139
-359.625	-144.556	-0.207	-0.019
-358.610	409.054	-0.160	-0.335
-357.596	72.997	-0.239	-0.247
-356.581	800.000	0.068	0.294
-355.566	25.927	0.324	-0.267
-354.552	406.409	0.140	-0.291
-353.537	279.318	-0.113	0.199
-352.523	-200.000	-0.043	0.365
-351.508	-200.000	0.037	-0.197
-350.493	437.186	0.092	0.199
-349.479	-200.000	0.017	0.138
-348.464	-151.527	-0.032	-0.002
-347.450	-200.000	0.165	0.001
-346.435	-200.000	-0.014	0.087
-345.420	-39.084	-0.239	-0.124
-344.406	28.003	0.204	-0.170
-343.391	-200.000	0.000	-0.113
-342.377	800.000	-0.125	-0.352
-341.362	151.695	0.150	0.202
-340.348	199.249	0.059	0.089
-339.333	107.833	-0.046	-0.054
-338.318	-200.000	-0.006	-0.026
-337.304	17.202	-0.136	-0.107
-336.289	-200.000	0.001	-0.064
-335.275	-124.318	0.253	0.039
-334.260	24.919	-0.162	0.132
-333.245	138.821	0.086	-0.112
-332.231	-17.902	-0.059	0.037
-331.216	-104.090	0.242	0.056
-330.202	-103.338	-0.180	-0.042
-329.187	-45.029	0.165	-0.081
-328.172	78.513	-0.195	0.206
-327.158	-76.639	0.305	-0.105
-326.143	-28.040	0.114	0.065
-325.129	326.247	-0.083	0.158
-324.114	-152.663	0.350	-0.025
-323.099	-6.713	-0.332	-0.223
-322.085	388.651	0.196	0.399
-321.070	-9.108	0.253	-0.167
-320.056	-75.254	0.147	0.052
-319.041	-138.649	-0.341	0.037
-318.026	800.000	-0.112	-0.388
-317.012	157.505	-0.189	-0.258
-315.997	326.058	0.170	-0.321
-314.983	218.439	0.023	0.037
-313.968	267.884	-0.034	-0.059
-312.953	198.506	-0.160	-0.242
-311.939	-200.000	-0.035	-0.302
-310.924	-96.905	-0.378	0.098
-309.910	-150.554	0.128	0.010
-308.895	-200.000	-0.051	0.297
-307.880	99.239	-0.135	0.153
-306.866	-171.299	-0.164	0.005
-305.851	-200.000	0.029	-0.244
-304.837	176.149	-0.310	0.444
-303.822	83.010	-0.148	-0.159
-302.807	-25.211	-0.131	0.076
-301.793	14.989	0.237	-0.183
-300.778	-200.000	-0.022	-0.224
-299.764	-55.626	0.159	0.070
-298.749	249.422	-0.143	0.238
-297.735	-200.000	0.017	-0.098
-296.720	-200.000	-0.042	-0.379
-295.705	248.092	0.119	-0.198
-294.691	132.868	-0.251	-0.319
-293.676	-90.595	0.173	0.049
-292.662	660.781	-0.108	-0.275
-291.647	800.000	0.100	-0.282
-290.632	-200.000	-0.035	-0.390
-289.618	299.517	0.075	0.136
-288.603	800.000	0.010	-0.033
-287.589	-56.971	-0.113	0.049
-286.574	-159.990	0.205	-0.011
-285.559	-200.000	-0.012	-0.164
-284.545	146.284	-0.072	0.095
-283.530	-50.565	0.411	0.191
-282.516	297.440	0.143	0.259
-281.501	21.925	-0.151	0.121
-280.486	20.910	-0.229	-0.183
-279.472	492.471	0.183	-0.413
-278.457	205.835	0.114	-0.174
-277.443	-200.000	-0.029	-0.407
-276.428	-128.147	-0.164	-0.023
-275.413	800.000	0.072	0.296
-274.399	237.095	0.154	0.251
-273.384	-77.836	-0.295	0.100
-272.370	800.000	0.080	-0.239
-271.355	232.244	0.175	0.283
-270.340	183.200	0.144	0.209
-269.326	-73.869	0.091	-0.033
-268.311	-53.996	-0.010	0.005
-267.297	170.606	-0.112	0.157
-266.282	72.941	0.114	-0.118
-265.267	-128.734	0.264	-0.037
-264.253	-60.829	-0.547	-0.228
-263.238	-200.000	0.018	0.194
-262.224	-106.988	-0.140	0.030
-261.209	800.000	0.014	-0.044
-260.195	-102.811	-0.114	-0.027
-259.180	-16.372	0.141	0.088
-258.165	-48.506	-0.215	-0.102
-257.151	38.581	-0.068	0.060
-256.136	25.339	-0.047	-0.039
-255.122	800.000	0.210	-0.762
-254.107	378.229	-0.018	-0.037
-253.092	773.683	0.088	0.236
-252.078	-200.000	0.034	0.196
-251.063	88.100	0.273	0.298
-250.049	-149.821	0.235	-0.018
-249.034	388.992	0.150	0.306
-248.019	2.523	0.289	-0.206
-247.005	10.272	0.152	-0.114
-245.990	-200.000	0.072	-0.348
-244.976	38.475	-0.296	0.260
-243.961	80.433	0.230	-0.244
-242.946	473.643	-0.218	0.483
-241.932	-200.000	-0.003	0.320
-240.917	26.205	-0.100	-0.082
-239.903	-70.280	0.167	0.062
-238.888	-200.000	0.040	-0.458
-237.873	9.599	0.141	-0.105
-236.859	-80.699	-0.248	-0.081
-235.844	150.401	-0.159	-0.213
-234.830	-63.644	0.577	0.233
-233.815	97.660	-0.042	-0.048
-232.800	800.000	0.041	-0.120
-231.786	-33.857	-0.249	-0.135
-230.771	800.000	-0.076	0.266
-229.757	800.000	-0.048	0.158
-228.742	146.606	0.109	-0.144
-227.727	-99.482	0.446	0.110
-226.713	183.387	-0.022	-0.033
-225.698	-47.698	-0.228	-0.109
-224.684	-28.942	-0.040	0.023
-223.669	-200.000	-0.080	0.363
-222.655	115.687	0.080	0.096
-221.640	139.145	-0.045	-0.058
-220.625	-200.000	0.063	-0.297
-219.611	191.550	0.073	0.107
-218.596	-129.306	-0.330	-0.045
-217.582	-102.591	0.134	0.031
-216.567	-91.788	-0.308	0.086
-215.552	-20.329	-0.060	0.036
-214.538	40.360	0.206	-0.182
-213.523	-109.448	0.056	-0.012
-212.509	-200.000	0.022	0.125
-211.494	-63.433	-0.068	0.028
-210.479	-67.722	-0.245	-0.094
-209.465	800.000	0.054	-0.151
-208.450	-26.950	0.141	0.081
-207.436	-29.946	-0.258	0.144
-206.421	168.213	0.195	0.273
-205.406	-79.798	0.226	0.075
-204.392	-109.622	-0.063	-0.013
-203.377	-108.962	-0.114	0.024
-202.363	-197.991	-0.377	-0.002
-201.348	-24.294	0.202	0.118
-200.333	-200.000	0.033	-0.210
-199.319	496.198	0.060	-0.136
-198.304	2.576	0.096	-0.069
-197.290	-66.059	-0.331	0.130
-196.275	800.000	-0.032	-0.133
-195.260	13.257	-0.127	-0.097
-194.246	800.000	-0.061	-0.255
-193.231	-200.000	-0.049	0.273
-192.217	800.000	0.025	0.073
-191.202	-200.000	-0.032	-0.258
-190.187	-107.840	-0.241	-0.052
-189.173	-130.650	-0.039	-0.005
-188.158	800.000	0.089	0.297
-187.144	800.000	-0.075	-0.213
-186.129	-173.267	0.396	-0.012
-185.114	-45.373	0.082	-0.040
-184.100	-129.853	-0.118	0.016
-183.085	800.000	-0.082	0.286
-182.071	-105.279	0.161	0.036
-181.056	16.214	0.123	0.095
-180.042	443.472	-0.128	0.276
-179.027	-200.000	-0.020	0.259
-178.012	-154.773	-0.240	0.016
-176.998	298.330	-0.007	0.013
-175.983	-9.015	-0.190	-0.125
-174.969	145.031	0.082	0.108
-173.954	-110.045	0.351	-0.072
-172.939	-87.601	-0.269	0.080
-171.925	423.755	0.154	-0.324
-170.910	265.111	0.054	0.093
-169.896	-130.415	0.158	0.021
-168.881	-200.000	-0.442	-0.001
-167.866	800.000	-0.059	0.167
-166.852	-47.893	0.131	-0.062
-165.837	-101.960	-0.088	0.021
-164.823	16.597	-0.114	0.088
-163.808	132.348	0.094	0.118
-162.793	60.324	-0.188	0.182
-161.779	-173.662	0.153	0.004
-160.764	36.764	-0.133	-0.115
-159.750	-200.000	-0.026	-0.143
-158.735	-156.426	-0.139	-0.009
-157.720	12.943	-0.024	-0.018
-156.706	143.084	-0.096	-0.125
-155.691	25.219	-0.158	-0.128
-154.677	-34.230	0.261	0.141
-153.662	-192.839	0.386	0.003
-152.647	129.235	0.362	0.453
-151.633	-66.337	-0.250	0.097
-150.618	-75.023	-0.329	-0.116
-149.604	-131.044	-0.272	0.036
-148.589	-90.844	0.392	-0.111
-147.574	98.178	-0.086	-0.097
-146.560	-65.858	-0.339	-0.133
-145.545	-200.000	-0.026	-0.199
-144.531	-75.616	0.243	-0.084
-143.516	-146.547	0.271	-0.023
-142.502	-200.000	0.049	-0.212
-141.487	40.307	-0.162	-0.143
-140.472	-200.000	-0.017	0.201
-139.458	103.151	0.279	-0.320
-138.443	-133.739	-0.330	-0.040
-137.429	-118.390	0.405	-0.070
-136.414	-26.040	0.030	-0.018
-135.399	-200.000	0.017	-0.129
-134.385	-200.000	-0.013	0.083
-133.370	-200.000	-0.095	0.410
-132.356	-115.130	-0.104	-0.019
-131.341	91.795	-0.112	0.124
-130.326	224.147	0.136	0.216
-129.312	800.000	-0.037	-0.127
-128.297	35.051	0.037	0.032
-127.283	31.751	0.089	-0.075
-126.268	-60.188	0.147	0.061
-125.253	-200.000	0.005	-0.259
-124.239	-91.068	0.280	0.079
-123.224	-72.391	-0.182	0.066
