DTS Sentinel unit serial number:	SN413079Multiplexer serial number:	ORYXHardware model number:	OX4-SRSoftware version number:	ORYX F/W v4.00 Oryx Data Collector v3.7.2.0data status	okinstallation	princeton_trtdifferential loss correction	single-endedforward channel	channel 3reverse channel	N/Adate	2019/09/19time	09:44:35forward acquisition time	60.00reverse acquisition time	0.00gamma	496.2192k internal	0.2344k external	0.2344temperature offset calibration	0.9970default loss term (dB/km)	0.3790temperature slope calibration	1.0000multiplexer offset coefficient	1.0000multiplexer slope coefficient	1.0000fibre end	0.00T internal ref (°C)	23.28T ext. ref 1 (°C)	0.64T ext. ref 2 (°C)	19.51length (m)	temperature (°C)	Stokes	anti-Stokes-747.200	800.000	-0.049	0.146
-746.185	800.000	-0.094	0.279
-745.171	800.000	-0.034	-0.099
-744.156	-28.774	0.058	0.033
-743.142	800.000	-0.019	-0.064
-742.127	-168.536	-0.220	0.008
-741.112	-95.224	-0.124	0.033
-740.098	348.206	0.053	-0.105
-739.083	-53.154	-0.114	0.052
-738.069	-119.225	-0.077	0.013
-737.054	-200.000	-0.002	0.244
-736.039	116.673	-0.150	-0.185
-735.025	-200.000	0.063	0.406
-734.010	-133.787	-0.169	-0.021
-732.996	-84.326	0.083	-0.026
-731.981	-15.663	-0.456	0.291
-730.966	-50.886	-0.184	-0.087
-729.952	1.455	0.106	-0.076
-728.937	-12.548	-0.249	-0.163
-727.923	13.217	-0.323	0.250
-726.908	-62.127	-0.352	-0.147
-725.894	-200.000	0.030	-0.145
-724.879	-78.111	-0.324	0.111
-723.864	-45.664	-0.165	-0.081
-722.850	800.000	0.111	-0.329
-721.835	-90.070	-0.617	-0.180
-720.821	-69.859	-0.274	-0.104
-719.806	-43.709	-0.169	0.085
-718.791	800.000	-0.051	-0.153
-717.777	-146.114	-0.225	0.020
-716.762	-25.810	-0.335	-0.197
-715.748	305.023	-0.050	0.093
-714.733	-33.372	0.251	0.139
-713.718	800.000	0.038	0.147
-712.704	-131.109	-0.128	0.017
-711.689	-8.007	0.248	0.167
-710.675	42.292	-0.116	-0.105
-709.660	15.297	0.157	0.123
-708.645	12.859	0.262	-0.203
-707.631	126.042	0.119	0.150
-706.616	-155.243	-0.096	-0.006
-705.602	-200.000	-0.056	-0.420
-704.587	-200.000	-0.030	0.261
-703.572	-48.163	0.272	0.131
-702.558	-200.000	0.056	0.315
-701.543	-60.546	-0.380	-0.161
-700.529	-200.000	-0.091	-0.495
-699.514	-111.876	0.197	-0.040
-698.499	-68.507	0.286	0.111
-697.485	-175.028	-0.488	0.014
-696.470	156.081	-0.153	-0.211
-695.456	-54.569	-0.243	-0.110
-694.441	-200.000	0.030	-0.254
-693.426	-200.000	0.048	-0.248
-692.412	-200.000	0.055	0.315
-691.397	58.146	-0.068	0.067
-690.383	36.210	0.154	-0.135
-689.368	99.178	-0.336	-0.387
-688.354	-200.000	0.055	-0.536
-687.339	-73.893	-0.517	-0.187
-686.324	-120.945	-0.397	-0.067
-685.310	246.451	-0.069	-0.116
-684.295	729.753	-0.038	-0.102
-683.281	538.723	-0.044	0.105
-682.266	-155.230	0.310	0.020
-681.251	73.417	-0.109	0.114
-680.237	800.000	0.115	-0.368
-679.222	-177.175	-0.545	-0.014
-678.208	-36.744	0.318	-0.170
-677.193	94.053	0.295	0.334
-676.178	-86.938	-0.079	-0.024
-675.164	-109.327	0.159	0.034
-674.149	-163.584	-0.154	-0.007
-673.135	-175.065	-0.477	-0.013
-672.120	128.130	-0.029	0.036
-671.105	-13.633	-0.125	-0.081
-670.091	643.639	-0.093	-0.236
-669.076	-200.000	-0.014	0.100
-668.062	53.584	0.138	0.132
-667.047	-29.588	0.478	0.273
-666.032	-0.448	-0.390	-0.276
-665.018	-35.262	-0.100	0.054
-664.003	468.065	0.168	0.376
-662.989	85.295	0.191	0.209
-661.974	562.082	-0.066	-0.160
-660.959	-19.608	-0.216	-0.133
-659.945	291.622	-0.116	0.211
-658.930	-79.635	-0.309	-0.104
-657.916	374.688	0.067	-0.136
-656.901	-135.193	-0.307	0.037
-655.886	-200.000	0.071	0.313
-654.872	163.361	0.227	0.318
-653.857	-54.788	0.064	0.029
-652.843	-117.862	0.174	-0.031
-651.828	-200.000	0.022	-0.224
-650.814	68.326	0.190	-0.194
-649.799	800.000	-0.098	0.274
-648.784	14.880	-0.046	0.036
-647.770	-161.856	-0.021	-0.001
-646.755	145.327	0.102	0.137
-645.741	-34.946	0.178	-0.097
-644.726	-200.000	-0.044	-0.528
-643.711	-92.299	0.193	0.054
-642.697	-170.621	-0.117	-0.004
-641.682	423.988	-0.081	0.174
-640.668	-76.117	0.290	-0.102
-639.653	800.000	0.026	0.083
-638.638	-200.000	-0.005	0.054
-637.624	-200.000	-0.083	-0.447
-636.609	24.042	-0.284	-0.233
-635.595	-108.204	0.093	0.020
-634.580	-20.166	0.132	-0.081
-633.565	-200.000	-0.000	-0.227
-632.551	-96.307	-0.394	0.104
-631.536	-200.000	0.002	-0.307
-630.522	-6.796	0.234	0.159
-629.507	-200.000	0.002	-0.050
-628.492	-36.258	0.305	-0.164
-627.478	800.000	-0.015	0.043
-626.463	-128.268	-0.272	0.039
-625.449	-78.530	-0.357	0.122
-624.434	-177.483	0.296	0.007
-623.419	-200.000	0.003	-0.153
-622.405	-17.469	-0.143	-0.090
-621.390	-200.000	-0.005	-0.196
-620.376	-200.000	0.025	0.375
-619.361	779.131	-0.096	-0.261
-618.346	323.383	0.160	0.304
-617.332	247.951	-0.091	0.153
-616.317	-108.300	-0.202	0.044
-615.303	-15.538	0.077	0.049
-614.288	-181.687	0.304	-0.006
-613.273	491.506	0.100	-0.227
-612.259	453.889	-0.191	-0.421
-611.244	-34.723	0.381	-0.207
-610.230	286.122	0.125	-0.225
-609.215	-55.756	-0.246	-0.109
-608.201	-200.000	-0.016	0.251
-607.186	-200.000	0.016	-0.072
-606.171	-5.254	-0.258	-0.177
-605.157	-41.611	0.217	-0.111
-604.142	-200.000	0.002	-0.244
-603.128	117.010	-0.142	-0.174
-602.113	800.000	-0.030	-0.118
-601.098	-9.538	-0.171	-0.113
-600.084	11.528	-0.133	-0.102
-599.069	56.969	0.190	0.184
-598.055	-2.853	0.304	0.212
-597.040	800.000	0.021	0.061
-596.025	-97.617	-0.142	-0.037
-595.011	41.128	0.124	0.112
-593.996	565.595	-0.099	0.238
-592.982	172.259	-0.099	0.141
-591.967	97.596	0.066	0.076
-590.952	-200.000	0.003	-0.268
-589.938	-23.224	-0.139	-0.083
-588.923	149.696	-0.097	-0.131
-587.909	-200.000	0.024	-0.166
-586.894	41.918	-0.142	0.128
-585.879	-114.855	-0.157	-0.030
-584.865	-200.000	0.039	-0.200
-583.850	459.274	-0.043	-0.096
-582.836	800.000	0.043	-0.130
-581.821	800.000	-0.120	-0.345
-580.806	-135.509	0.211	0.025
-579.792	80.399	0.250	0.267
-578.777	-30.405	0.230	0.130
-577.763	-200.000	0.011	0.271
-576.748	-83.235	-0.097	-0.031
-575.733	-75.061	0.236	0.084
-574.719	-200.000	0.022	-0.183
-573.704	-200.000	0.054	-0.323
-572.690	160.094	0.190	0.264
-571.675	52.995	-0.325	0.309
-570.661	-107.187	-0.040	0.009
-569.646	800.000	0.025	0.076
-568.631	384.613	0.161	-0.329
-567.617	800.000	-0.050	0.186
-566.602	800.000	0.105	-0.297
-565.588	-200.000	-0.006	0.461
-564.573	-111.078	-0.110	-0.022
-563.558	70.757	0.190	-0.195
-562.544	-119.830	0.357	-0.061
-561.529	-87.807	0.389	-0.116
-560.515	-88.509	0.151	-0.045
-559.500	205.552	0.128	-0.197
-558.485	25.851	-0.334	0.276
-557.471	325.542	0.065	0.123
-556.456	-200.000	-0.023	0.128
-555.442	-43.076	-0.228	-0.115
-554.427	-69.035	-0.349	0.133
-553.412	-22.065	0.314	-0.189
-552.398	-84.777	0.437	-0.136
-551.383	-200.000	-0.026	-0.198
-550.369	-69.925	-0.268	-0.101
-549.354	-200.000	-0.031	-0.180
-548.339	-127.650	-0.152	0.022
-547.325	245.128	-0.072	0.120
-546.310	-147.593	-0.240	-0.020
-545.296	189.413	-0.174	0.259
-544.281	-84.390	-0.103	-0.032
-543.266	-38.082	-0.098	0.052
-542.252	25.594	-0.151	-0.125
-541.237	-136.260	0.056	0.006
-540.223	-58.187	0.350	0.152
-539.208	30.730	0.281	0.239
-538.193	796.625	0.034	0.093
-537.179	-200.000	-0.002	0.239
-536.164	157.512	0.381	0.524
-535.150	546.738	0.028	-0.066
-534.135	-172.960	0.120	0.004
-533.121	596.405	0.015	0.036
-532.106	154.716	-0.137	0.186
-531.091	-48.357	-0.383	0.183
-530.077	-200.000	0.011	-0.159
-529.062	-94.617	0.268	0.072
-528.048	120.613	-0.211	-0.260
-527.033	165.427	0.006	0.009
-526.018	-69.299	-0.143	0.055
-525.004	748.696	-0.063	0.170
-523.989	-18.916	-0.117	-0.072
-522.975	-106.952	-0.162	0.036
-521.960	128.290	-0.024	0.030
-520.945	97.051	-0.210	-0.239
-519.931	31.712	-0.336	-0.287
-518.916	-11.162	-0.054	-0.036
-517.902	800.000	0.012	0.047
-516.887	-200.000	-0.001	0.016
-515.872	-111.101	-0.421	0.086
-514.858	-141.601	0.076	-0.008
-513.843	-20.304	-0.220	-0.135
-512.829	-200.000	-0.024	-0.111
-511.814	118.047	0.216	0.265
-510.799	800.000	0.087	0.286
-509.785	-190.087	-0.212	0.002
-508.770	39.381	-0.123	0.109
-507.756	610.036	-0.117	-0.289
-506.741	-97.791	0.081	0.021
-505.726	7.155	0.550	-0.407
-504.712	-99.924	0.190	0.047
-503.697	-100.454	0.138	-0.034
-502.683	800.000	-0.060	0.179
-501.668	371.119	-0.176	-0.354
-500.653	18.636	0.147	-0.117
-499.639	117.535	0.260	0.317
-498.624	-200.000	0.000	0.033
-497.610	-200.000	0.009	0.073
-496.595	-145.400	0.549	0.049
-495.581	-73.286	-0.529	0.192
-494.566	-143.263	-0.272	-0.026
-493.551	-66.260	0.227	0.090
-492.537	-200.000	0.040	-0.280
-491.522	-34.955	-0.171	-0.092
-490.508	-200.000	0.045	0.360
-489.493	-65.974	-0.307	-0.121
-488.478	-84.650	-0.055	-0.017
-487.464	-7.186	0.164	0.110
-486.449	-200.000	0.005	0.165
-485.435	132.586	-0.030	-0.039
-484.420	631.172	-0.142	0.356
-483.405	427.930	-0.167	0.358
-482.391	-119.537	-0.230	0.040
-481.376	-0.652	-0.122	0.085
-480.362	94.672	-0.163	0.184
-479.347	67.073	-0.223	0.225
-478.332	-70.033	-0.133	-0.050
-477.318	-27.409	0.494	-0.284
-476.303	-47.145	-0.184	0.089
-475.289	2.026	0.157	-0.112
-474.274	-110.913	0.346	0.071
-473.259	-74.301	-0.537	0.192
-472.245	-6.225	-0.079	-0.053
-471.230	-40.152	-0.353	0.182
-470.216	98.696	0.166	-0.190
-469.201	-200.000	-0.013	0.136
-468.186	-200.000	0.032	0.190
-467.172	-60.058	0.223	0.094
-466.157	-34.922	0.277	0.150
-465.143	575.577	0.146	-0.353
-464.128	358.258	-0.110	0.218
-463.113	43.071	0.124	-0.112
-462.099	-23.617	0.264	-0.157
-461.084	800.000	0.112	0.405
-460.070	-85.734	-0.069	-0.021
-459.055	-200.000	-0.007	0.219
-458.040	-66.785	-0.220	-0.086
-457.026	78.376	-0.366	-0.386
-456.011	-165.643	-0.143	-0.006
-454.997	164.972	-0.095	-0.132
-453.982	-122.069	0.033	0.005
-452.968	-122.879	0.339	-0.054
-451.953	-11.006	-0.192	-0.126
-450.938	502.806	0.053	-0.121
-449.924	127.232	-0.042	-0.052
-448.909	98.003	-0.276	0.315
-447.895	-200.000	-0.023	0.139
-446.880	255.591	-0.109	0.185
-445.865	170.498	0.247	0.350
-444.851	-97.576	-0.198	-0.051
-443.836	-200.000	-0.024	0.118
-442.822	124.354	0.062	-0.077
-441.807	-56.840	0.102	0.044
-440.792	-200.000	0.295	0.001
-439.778	-200.000	0.010	-0.219
-438.763	-61.156	-0.462	0.193
-437.749	800.000	0.038	-0.134
-436.734	-200.000	0.052	0.323
-435.719	-159.502	-0.163	0.009
-434.705	800.000	0.033	-0.122
-433.690	800.000	-0.013	0.052
-432.676	156.435	0.203	0.277
-431.661	128.664	-0.153	0.193
-430.646	-200.000	-0.010	-0.098
-429.632	800.000	-0.095	0.298
-428.617	194.917	0.165	-0.247
-427.603	-200.000	-0.003	-0.161
-426.588	-200.000	0.020	-0.120
-425.573	-200.000	0.016	-0.359
-424.559	3.013	0.108	0.078
-423.544	800.000	0.075	0.234
-422.530	491.900	0.131	-0.296
-421.515	569.163	0.044	0.107
-420.500	159.182	0.106	0.146
-419.486	102.854	0.223	0.258
-418.471	-2.731	-0.215	0.149
-417.457	-99.046	0.186	0.047
-416.442	464.683	-0.062	0.137
-415.428	-99.223	-0.124	-0.031
-414.413	2.977	0.198	-0.142
-413.398	-85.735	-0.204	0.063
-412.384	800.000	0.020	-0.068
-411.369	-149.619	-0.033	-0.003
-410.355	-200.000	-0.021	0.310
-409.340	800.000	0.065	-0.240
-408.325	-13.720	0.211	-0.135
-407.311	-101.727	-0.343	-0.082
-406.296	-183.922	0.215	-0.004
-405.282	-75.989	0.150	-0.052
-404.267	-26.849	-0.233	-0.135
-403.252	-200.000	-0.010	-0.184
-402.238	19.120	-0.147	-0.117
-401.223	155.602	0.048	0.065
-400.209	-200.000	0.014	-0.116
-399.194	-105.648	0.276	0.062
-398.179	-170.412	-0.220	-0.008
-397.165	-9.703	-0.117	0.077
-396.150	-69.979	0.165	0.062
-395.136	-140.360	-0.202	-0.021
-394.121	-75.359	-0.138	0.048
-393.106	407.976	0.082	0.172
-392.092	-200.000	-0.001	0.222
-391.077	-24.123	0.290	-0.171
-390.063	-200.000	0.014	-0.088
-389.048	382.294	-0.045	0.092
-388.033	-126.038	-0.045	-0.007
-387.019	105.015	0.229	-0.267
-386.004	9.110	-0.363	0.271
-384.990	-200.000	-0.052	-0.234
-383.975	59.569	0.117	-0.114
-382.960	22.849	-0.199	-0.161
-381.946	-200.000	0.029	0.232
-380.931	-101.231	0.277	0.067
-379.917	-16.413	0.149	-0.093
-378.902	-200.000	0.002	-0.089
-377.888	36.849	0.087	0.075
-376.873	17.879	-0.267	-0.209
-375.858	-80.852	0.232	-0.076
-374.844	-144.247	-0.246	-0.023
-373.829	80.982	0.222	-0.237
-372.815	-200.000	-0.006	-0.079
-371.800	-131.396	0.073	0.009
-370.785	-139.075	0.198	0.021
-369.771	-200.000	0.067	-0.341
-368.756	-159.140	-0.036	0.002
-367.742	-200.000	-0.008	0.117
-366.727	56.985	-0.206	0.198
-365.712	195.162	0.080	0.119
-364.698	400.125	-0.122	0.252
-363.683	800.000	0.039	-0.124
-362.669	-200.000	-0.002	0.010
-361.654	-200.000	0.036	-0.182
-360.639	-48.259	-0.358	-0.170
-359.625	20.358	0.268	-0.214
-358.610	-170.076	0.446	-0.016
-357.596	538.441	-0.082	0.193
-356.581	-57.864	-0.125	-0.054
-355.566	-200.000	0.037	-0.209
-354.552	-82.742	0.169	-0.054
-353.537	-116.880	0.376	0.068
-352.523	-125.336	0.409	-0.062
-351.508	6.728	-0.114	-0.084
-350.493	29.698	-0.158	-0.132
-349.479	800.000	0.058	0.229
-348.464	18.243	-0.265	-0.208
-347.450	-170.435	0.565	-0.019
-346.435	26.574	0.174	-0.144
-345.420	19.813	-0.120	-0.095
-344.406	-12.894	0.126	0.081
-343.391	263.522	0.094	-0.161
-342.377	107.989	-0.048	0.056
-341.362	-20.964	-0.130	-0.079
-340.348	-200.000	-0.021	-0.284
-339.333	121.063	-0.218	0.267
-338.318	-78.521	-0.200	0.067
-337.304	16.856	0.095	0.074
-336.289	-200.000	-0.026	-0.144
-335.275	-29.495	-0.276	-0.155
-334.260	-108.007	-0.171	0.037
-333.245	77.792	0.022	0.023
-332.231	91.302	0.290	0.321
-331.216	-200.000	-0.037	0.271
-330.202	-200.000	-0.020	0.130
-329.187	31.019	-0.193	0.163
-328.172	122.691	0.198	-0.243
-327.158	61.743	-0.104	0.102
-326.143	-200.000	-0.021	0.103
-325.129	145.422	0.182	-0.240
-324.114	-41.885	-0.352	-0.177
-323.099	-82.360	0.041	-0.013
-322.085	65.817	0.152	-0.152
-321.070	136.779	-0.265	-0.341
-320.056	25.478	0.361	0.295
-319.041	800.000	0.081	0.280
-318.026	247.771	-0.172	0.286
-317.012	-149.761	0.349	-0.027
-315.997	-25.048	0.274	0.160
-314.983	-170.808	0.141	-0.005
-313.968	-42.543	-0.222	-0.111
-312.953	-21.726	0.072	0.043
-311.939	-121.976	0.388	0.063
-310.924	-85.016	0.081	0.025
-309.910	51.832	-0.171	-0.160
-308.895	190.242	-0.010	0.015
-307.880	-40.952	-0.279	0.142
-306.866	-116.055	-0.160	-0.029
-305.851	-132.197	-0.126	-0.016
-304.837	-100.213	-0.111	0.027
-303.822	-50.175	0.093	0.043
-302.807	2.723	-0.045	-0.032
-301.793	-56.938	-0.278	-0.121
-300.778	133.445	-0.174	-0.221
-299.764	-133.465	-0.114	0.014
-298.749	-111.275	-0.140	0.028
-297.735	-166.410	-0.189	0.008
-296.720	-74.027	-0.159	-0.057
-295.705	-200.000	-0.056	0.512
-294.691	-200.000	0.032	-0.155
-293.676	-200.000	0.080	-0.564
-292.662	-200.000	-0.005	0.157
-291.647	-113.946	-0.216	-0.041
-290.632	15.228	-0.081	0.062
-289.618	-200.000	0.010	0.137
-288.603	75.380	0.138	-0.143
-287.589	30.870	-0.111	-0.093
-286.574	6.827	-0.046	-0.033
-285.559	-200.000	0.004	0.096
-284.545	-33.129	-0.072	-0.039
-283.530	-51.180	0.115	0.053
-282.516	-81.261	0.144	-0.047
-281.501	137.612	0.171	-0.220
-280.486	-90.540	0.145	-0.041
-279.472	276.763	-0.124	-0.216
-278.457	-107.362	0.242	0.052
-277.443	367.576	-0.212	-0.421
-276.428	149.344	-0.168	-0.223
-275.413	-163.573	0.365	-0.017
-274.399	537.068	0.092	0.214
-273.384	800.000	0.143	0.422
-272.370	-200.000	0.007	-0.059
-271.355	362.233	0.160	-0.316
-270.340	431.577	0.079	0.169
-269.326	780.035	-0.094	-0.252
-268.311	-200.000	0.062	0.289
-267.297	4.608	0.061	-0.044
-266.282	155.259	-0.103	0.139
-265.267	-200.000	0.037	-0.305
-264.253	7.334	0.134	0.098
-263.238	505.982	0.087	-0.197
-262.224	-184.570	0.188	-0.003
-261.209	565.116	0.066	-0.157
-260.195	40.424	-0.482	0.426
-259.180	132.730	-0.157	0.199
-258.165	532.974	-0.016	-0.037
-257.151	-100.657	0.106	0.026
-256.136	-77.393	-0.242	-0.083
-255.122	255.940	-0.149	-0.250
-254.107	800.000	0.069	-0.241
-253.092	-200.000	-0.041	-0.364
-252.078	30.826	-0.179	0.150
-251.063	404.428	0.044	-0.091
-250.049	-129.671	-0.016	-0.002
-249.034	-107.029	-0.218	-0.047
-248.019	51.991	0.161	0.150
-247.005	44.623	-0.152	0.137
-245.990	-70.890	-0.085	-0.031
-244.976	-200.000	-0.006	0.100
-243.961	-87.886	-0.108	-0.032
-242.946	34.148	-0.297	-0.254
-241.932	572.384	0.208	-0.496
-240.917	800.000	-0.052	-0.186
-239.903	-109.387	-0.171	0.036
-238.888	218.235	-0.044	-0.069
-237.873	-200.000	-0.028	0.181
-236.859	-52.770	-0.179	-0.081
-235.844	-98.716	0.152	0.038
-234.830	-200.000	-0.029	-0.137
-233.815	-200.000	-0.009	-0.155
-232.800	309.726	0.166	0.305
-231.786	-17.223	-0.169	0.104
-230.771	-123.770	0.358	0.056
-229.757	308.489	-0.019	-0.035
-228.742	-166.237	-0.278	0.012
-227.727	-13.220	-0.188	0.120
-226.713	-70.188	0.324	0.121
-225.698	-44.148	0.153	-0.075
-224.684	-118.710	-0.133	-0.023
-223.669	-31.064	-0.077	0.042
-222.655	-121.437	0.202	-0.033
-221.640	-200.000	0.011	0.261
-220.625	-159.281	0.320	0.018
-219.611	-95.360	-0.255	0.067
-218.596	800.000	0.046	0.180
-217.582	-200.000	-0.034	0.441
-216.567	344.011	0.127	0.244
-215.552	-23.912	0.147	0.086
-214.538	-101.692	-0.111	0.026
-213.523	-2.449	0.075	-0.051
-212.509	800.000	0.030	-0.084
-211.494	-139.067	-0.418	0.044
-210.479	800.000	0.023	0.065
-209.465	-185.711	-0.109	0.002
-208.450	-104.135	-0.121	0.028
-207.436	-60.431	0.068	0.028
-206.421	0.421	0.278	0.195
-205.406	109.885	-0.228	0.268
-204.392	179.145	0.088	-0.126
-203.377	-200.000	-0.060	0.319
-202.363	-200.000	-0.002	-0.099
-201.348	194.095	0.138	-0.204
-200.333	-7.702	-0.075	-0.049
-199.319	-135.290	0.079	0.009
-198.304	-23.622	0.099	0.058
-197.290	142.147	-0.259	0.337
-196.275	-87.317	-0.210	0.062
-195.260	138.680	0.071	-0.091
-194.246	132.750	-0.127	-0.161
-193.231	-200.000	-0.009	-0.142
-192.217	-67.478	-0.185	-0.071
-191.202	-38.568	-0.206	-0.107
-190.187	119.357	-0.173	-0.210
-189.173	30.722	0.255	-0.214
-188.158	92.153	0.149	-0.165
-187.144	303.325	0.136	0.246
-186.129	-32.874	-0.289	0.157
-185.114	-112.805	0.178	0.035
-184.100	198.150	0.083	0.124
-183.085	140.334	0.115	-0.149
-182.071	-168.303	-0.109	0.004
-181.056	363.379	0.104	0.205
-180.042	-200.000	0.026	-0.507
-179.027	-92.141	0.229	-0.063
-178.012	-81.352	-0.169	-0.055
-176.998	-121.713	0.393	0.064
-175.983	-80.695	0.181	-0.059
-174.969	68.777	0.178	-0.179
-173.954	-28.260	0.211	0.119
-172.939	140.027	0.115	-0.149
-171.925	-0.930	-0.198	-0.138
-170.910	-62.382	0.245	0.100
-169.896	800.000	-0.058	0.239
-168.881	-39.819	0.145	-0.074
-167.866	-200.000	-0.018	0.332
-166.852	-200.000	0.043	0.509
-165.837	-48.271	0.373	0.176
-164.823	96.261	-0.048	0.053
-163.808	44.561	0.201	0.181
-162.793	800.000	0.108	-0.310
-161.779	-200.000	-0.017	0.123
-160.764	142.998	-0.230	-0.299
-159.750	-107.071	-0.138	-0.030
-158.735	48.036	-0.150	0.137
-157.720	800.000	0.019	0.059
-156.706	345.252	-0.147	-0.282
-155.691	-79.542	-0.170	-0.056
-154.677	629.050	-0.103	0.255
-153.662	550.149	0.111	0.261
-152.647	238.513	-0.131	0.213
-151.633	133.445	0.161	0.204
-150.618	-16.422	-0.453	-0.281
-149.604	-128.114	-0.226	0.032
-148.589	-200.000	-0.014	0.198
-147.574	-200.000	0.009	0.105
-146.560	53.507	0.070	-0.065
-145.545	324.801	0.219	0.409
-144.531	-200.000	-0.002	-0.066
-143.516	-120.047	0.147	0.025
-142.502	-167.625	-0.228	0.009
-141.487	-69.985	0.369	0.137
-140.472	-1.080	-0.173	0.120
-139.458	-200.000	-0.026	0.386
-138.443	70.157	-0.229	0.231
-137.429	226.147	-0.120	-0.191
-136.414	306.949	0.135	0.247
-135.399	221.182	0.144	0.226
-134.385	203.885	-0.138	-0.209
-133.370	125.884	0.090	0.111
-132.356	0.265	0.111	-0.077
-131.341	45.889	-0.268	0.242
-130.326	-200.000	0.016	-0.116
-129.312	190.991	-0.151	-0.223
-128.297	-16.747	-0.128	-0.079
-127.283	-20.864	-0.224	-0.134
-126.268	525.760	0.029	-0.066
-125.253	-97.657	0.508	0.129
-124.239	-100.279	-0.141	0.034
-123.224	303.433	-0.077	0.139
-122.210	-47.885	-0.332	-0.157
