DTS Sentinel unit serial number:	SN413079Multiplexer serial number:	ORYXHardware model number:	OX4-SRSoftware version number:	ORYX F/W v4.00 Oryx Data Collector v3.7.2.0data status	okinstallation	princeton_trtdifferential loss correction	single-endedforward channel	channel 3reverse channel	N/Adate	2019/09/19time	03:32:34forward acquisition time	60.00reverse acquisition time	0.00gamma	496.2192k internal	0.2348k external	0.2348temperature offset calibration	0.9987default loss term (dB/km)	0.3790temperature slope calibration	1.0000multiplexer offset coefficient	1.0000multiplexer slope coefficient	1.0000fibre end	0.00T internal ref (°C)	20.62T ext. ref 1 (°C)	0.65T ext. ref 2 (°C)	14.41length (m)	temperature (°C)	Stokes	anti-Stokes-747.200	652.201	0.087	0.224
-746.185	-200.000	0.064	0.427
-745.171	73.128	0.171	0.178
-744.156	666.528	-0.048	0.125
-743.142	800.000	-0.122	-0.372
-742.127	71.409	0.128	-0.133
-741.112	450.501	0.054	-0.118
-740.098	365.260	0.071	0.144
-739.083	-9.240	-0.359	0.240
-738.069	-5.585	-0.232	0.159
-737.054	277.817	0.034	-0.061
-736.039	70.372	-0.092	0.095
-735.025	67.543	0.211	0.215
-734.010	-47.475	-0.468	-0.227
-732.996	800.000	0.076	-0.243
-731.981	-2.898	-0.248	0.173
-730.966	104.019	0.072	0.084
-729.952	-200.000	0.031	0.158
-728.937	-200.000	-0.003	-0.107
-727.923	784.743	-0.039	-0.108
-726.908	-200.000	0.013	-0.198
-725.894	-200.000	-0.085	-0.420
-724.879	11.529	-0.244	0.187
-723.864	198.697	0.149	-0.228
-722.850	800.000	0.096	-0.325
-721.835	-103.486	0.083	0.020
-720.821	-154.768	-0.110	-0.007
-719.806	486.966	0.073	0.167
-718.791	-200.000	-0.011	-0.176
-717.777	-200.000	0.002	0.093
-716.762	31.260	0.125	0.107
-715.748	800.000	-0.072	-0.275
-714.733	608.030	0.081	0.203
-713.718	800.000	0.067	-0.190
-712.704	220.486	-0.090	0.144
-711.689	-161.123	-0.222	-0.012
-710.675	2.089	-0.176	-0.127
-709.660	12.471	0.238	0.183
-708.645	583.352	-0.133	0.325
-707.631	-30.797	0.098	0.055
-706.616	-48.311	-0.172	-0.083
-705.602	-200.000	-0.066	0.427
-704.587	166.868	0.170	0.241
-703.572	-133.393	-0.243	-0.031
-702.558	-115.106	0.117	0.022
-701.543	-105.309	-0.163	0.037
-700.529	-70.942	-0.302	0.113
-699.514	-143.228	0.393	-0.038
-698.499	125.095	-0.134	-0.168
-697.485	-200.000	-0.051	0.280
-696.470	20.910	0.245	-0.198
-695.456	-79.028	-0.156	0.053
-694.441	148.545	-0.183	0.247
-693.426	800.000	-0.006	0.017
-692.412	-34.980	-0.238	-0.129
-691.397	2.530	-0.165	0.119
-690.383	-42.256	0.134	-0.068
-689.368	-103.162	-0.182	-0.043
-688.354	-35.052	-0.027	-0.015
-687.339	-18.721	0.379	-0.235
-686.324	33.874	-0.073	-0.063
-685.310	381.684	0.097	0.198
-684.295	302.979	0.145	-0.268
-683.281	-200.000	0.022	-0.145
-682.266	14.674	0.208	-0.162
-681.251	-86.845	-0.132	0.040
-680.237	-104.438	-0.246	-0.057
-679.222	-161.570	0.374	0.019
-678.208	-200.000	-0.002	0.197
-677.193	-111.293	-0.119	-0.024
-676.178	-63.617	-0.080	-0.033
-675.164	240.317	0.102	0.169
-674.149	-200.000	0.018	0.168
-673.135	-146.920	-0.211	0.018
-672.120	8.824	0.328	0.247
-671.105	-148.838	-0.112	-0.009
-670.091	-94.864	0.335	-0.090
-669.076	130.178	0.180	0.229
-668.062	187.083	-0.252	-0.374
-667.047	293.223	-0.097	-0.177
-666.032	-200.000	0.004	-0.113
-665.018	203.351	-0.085	0.131
-664.003	800.000	-0.035	0.099
-662.989	800.000	0.059	0.198
-661.974	-135.770	0.098	-0.012
-660.959	-75.181	-0.235	0.084
-659.945	18.523	-0.335	-0.267
-658.930	-78.967	0.403	-0.137
-657.916	-154.206	-0.205	0.014
-656.901	-68.339	0.285	0.110
-655.886	-200.000	-0.040	0.275
-654.872	-200.000	0.007	0.104
-653.857	-200.000	-0.040	-0.427
-652.843	-164.864	-0.375	0.017
-651.828	-152.875	-0.096	0.007
-650.814	-34.070	0.325	0.178
-649.799	82.391	-0.124	0.134
-648.784	53.869	-0.166	0.159
-647.770	-4.639	-0.105	-0.072
-646.755	-125.096	0.084	-0.013
-645.741	252.409	-0.032	0.054
-644.726	-200.000	-0.012	0.179
-643.711	-200.000	0.016	0.212
-642.697	161.389	-0.056	0.078
-641.682	-200.000	0.003	0.229
-640.668	-200.000	-0.026	-0.128
-639.653	255.197	-0.110	0.187
-638.638	87.034	-0.134	-0.148
-637.624	68.324	0.028	-0.028
-636.609	54.906	-0.210	-0.202
-635.595	240.095	0.034	-0.057
-634.580	1.000	0.169	-0.121
-633.565	141.999	0.221	0.291
-632.551	-48.215	-0.089	0.043
-631.536	229.768	0.074	0.120
-630.522	-200.000	-0.003	0.343
-629.507	-16.708	-0.143	-0.090
-628.492	800.000	-0.092	-0.329
-627.478	-200.000	0.010	0.095
-626.463	261.888	-0.215	0.371
-625.449	13.697	0.188	0.145
-624.434	207.187	-0.040	-0.062
-623.419	756.524	0.090	-0.242
-622.405	47.075	-0.077	0.071
-621.390	208.074	0.127	-0.197
-620.376	7.660	0.291	-0.217
-619.361	800.000	-0.056	-0.242
-618.346	-37.927	-0.063	0.033
-617.332	800.000	-0.097	0.307
-616.317	171.160	-0.075	-0.106
-615.303	221.316	-0.117	-0.187
-614.288	326.219	0.059	0.112
-613.273	85.579	0.167	-0.182
-612.259	-96.661	-0.204	0.054
-611.244	326.104	-0.095	0.180
-610.230	359.705	-0.185	-0.368
-609.215	-98.650	0.351	-0.089
-608.201	-92.924	-0.100	0.028
-607.186	75.233	-0.066	0.069
-606.171	800.000	-0.028	-0.091
-605.157	-146.592	-0.110	-0.010
-604.142	-63.893	0.096	-0.039
-603.128	116.573	-0.189	0.231
-602.113	-140.428	-0.324	-0.034
-601.098	161.913	0.163	0.226
-600.084	800.000	-0.094	0.337
-599.069	723.602	0.119	0.315
-598.055	495.527	0.105	0.239
-597.040	15.915	-0.063	-0.049
-596.025	-87.746	0.161	0.048
-595.011	-200.000	0.001	-0.064
-593.996	800.000	-0.040	0.135
-592.982	-168.550	-0.391	0.015
-591.967	-200.000	-0.027	-0.121
-590.952	236.856	-0.076	-0.125
-589.938	-81.235	-0.145	0.047
-588.923	30.411	0.065	0.055
-587.909	4.689	0.092	-0.067
-586.894	154.210	-0.178	0.242
-585.879	60.466	-0.148	-0.146
-584.865	60.541	-0.306	-0.301
-583.850	6.474	0.258	-0.191
-582.836	-87.943	-0.197	0.059
-581.821	-106.824	-0.163	0.036
-580.806	64.856	-0.121	-0.121
-579.792	-61.439	0.090	0.038
-578.777	-21.320	-0.093	0.056
-577.763	135.721	-0.057	0.074
-576.748	46.242	-0.227	0.208
-575.733	-200.000	-0.002	0.062
-574.719	-200.000	0.036	-0.350
-573.704	-143.012	0.057	0.005
-572.690	-4.296	-0.139	0.096
-571.675	-28.166	-0.138	-0.079
-570.661	-37.539	-0.111	-0.059
-569.646	-157.272	0.323	0.019
-568.631	340.600	-0.113	0.220
-567.617	-41.948	0.284	-0.144
-566.602	628.315	-0.138	0.347
-565.588	75.250	0.064	0.067
-564.573	59.418	-0.124	0.121
-563.558	138.648	0.220	-0.287
-562.544	-27.600	-0.193	0.111
-561.529	-15.737	-0.239	-0.151
-560.515	-112.903	0.157	-0.031
-559.500	-171.586	-0.230	0.008
-558.485	-45.045	0.175	-0.086
-557.471	34.313	-0.305	0.264
-556.456	6.189	-0.238	0.175
-555.442	1.544	-0.235	-0.167
-554.427	163.156	0.245	-0.342
-553.412	-41.303	0.233	0.119
-552.398	-138.055	-0.520	-0.057
-551.383	255.199	0.032	0.054
-550.369	356.574	-0.099	0.195
-549.354	151.995	-0.061	0.083
-548.339	-40.901	-0.283	0.145
-547.325	120.739	0.164	0.203
-546.310	800.000	0.078	-0.248
-545.296	80.618	-0.174	0.186
-544.281	-111.708	-0.121	0.024
-543.266	-55.436	-0.056	-0.025
-542.252	263.083	-0.033	-0.058
-541.237	-200.000	-0.048	0.374
-540.223	136.260	-0.210	0.271
-539.208	-161.914	0.201	0.010
-538.193	47.040	-0.089	0.082
-537.179	-50.711	-0.058	0.027
-536.164	71.642	0.268	-0.276
-535.150	-96.931	-0.135	0.035
-534.135	77.021	-0.216	-0.228
-533.121	-130.584	-0.159	-0.021
-532.106	800.000	0.073	-0.214
-531.091	-61.985	-0.140	-0.058
-530.077	-128.215	-0.118	0.017
-529.062	800.000	0.033	0.096
-528.048	-200.000	-0.016	0.179
-527.033	306.768	-0.101	0.187
-526.018	536.566	-0.121	-0.285
-525.004	-200.000	-0.009	0.283
-523.989	128.564	0.195	-0.246
-522.975	-53.417	0.159	-0.072
-521.960	390.448	-0.125	0.256
-520.945	-200.000	-0.009	0.126
-519.931	-200.000	0.056	0.251
-518.916	303.365	-0.153	0.282
-517.902	73.057	-0.240	-0.249
-516.887	-97.725	0.277	0.071
-515.872	63.679	-0.017	0.017
-514.858	-200.000	-0.008	0.065
-513.843	-158.717	-0.112	0.006
-512.829	800.000	-0.031	0.123
-511.814	800.000	-0.037	-0.108
-510.799	800.000	-0.033	-0.114
-509.785	111.250	-0.113	0.135
-508.770	79.752	0.138	-0.147
-507.756	355.331	0.101	-0.200
-506.741	670.545	-0.068	-0.175
-505.726	-34.591	-0.442	0.239
-504.712	83.330	-0.243	-0.262
-503.697	21.268	-0.274	-0.220
-502.683	-97.808	0.094	-0.024
-501.668	800.000	0.081	0.227
-500.653	800.000	-0.093	0.357
-499.639	520.748	0.088	0.205
-498.624	82.160	0.114	-0.122
-497.610	-157.855	0.064	-0.004
-496.595	-30.307	0.266	-0.149
-495.581	-200.000	0.023	-0.113
-494.566	599.341	-0.081	0.199
-493.551	447.966	0.103	0.224
-492.537	231.390	0.116	0.188
-491.522	-116.634	0.060	-0.011
-490.508	800.000	-0.034	0.133
-489.493	99.680	0.167	-0.191
-488.478	280.804	0.201	-0.356
-487.464	9.353	-0.165	-0.123
-486.449	-44.095	0.091	0.045
-485.435	800.000	-0.007	0.021
-484.420	665.384	0.098	-0.251
-483.405	140.932	-0.117	-0.152
-482.391	386.777	-0.167	0.340
-481.376	-200.000	-0.028	0.149
-480.362	-49.610	0.195	0.092
-479.347	-126.051	-0.103	0.015
-478.332	-98.875	0.202	-0.051
-477.318	-136.503	-0.188	-0.022
-476.303	-200.000	0.064	0.340
-475.289	204.751	-0.174	-0.266
-474.274	50.845	0.260	-0.243
-473.259	202.652	-0.062	0.095
-472.245	1.712	-0.375	-0.267
-471.230	-8.865	0.221	0.146
-470.216	800.000	0.081	0.295
-469.201	-118.331	-0.357	0.063
-468.186	-200.000	0.071	-0.323
-467.172	-182.005	0.371	0.007
-466.157	-15.947	-0.401	-0.252
-465.143	-66.552	0.421	0.165
-464.128	-200.000	0.019	0.158
-463.113	41.993	-0.134	0.121
-462.099	-155.677	0.129	-0.008
-461.084	800.000	0.079	-0.327
-460.070	800.000	0.027	-0.078
-459.055	264.305	0.136	0.234
-458.040	1.555	-0.135	0.096
-457.026	-34.135	-0.458	-0.248
-456.011	800.000	0.065	-0.177
-454.997	-94.616	0.055	0.015
-453.982	-200.000	-0.006	0.094
-452.968	-98.102	0.086	0.022
-451.953	233.785	0.069	0.112
-450.938	641.579	0.028	0.071
-449.924	296.622	-0.236	-0.427
-448.909	-89.262	-0.222	-0.065
-447.895	-31.875	-0.240	0.133
-446.880	33.654	-0.182	-0.156
-445.865	-200.000	0.159	0.001
-444.851	-158.789	-0.223	0.013
-443.836	194.648	0.047	0.070
-442.822	-40.960	0.086	0.044
-441.807	-165.226	-0.167	0.007
-440.792	800.000	0.038	-0.155
-439.778	-67.267	0.334	-0.130
-438.763	-138.560	-0.197	-0.021
-437.749	133.753	0.094	-0.121
-436.734	-72.310	-0.029	0.011
-435.719	156.232	0.039	-0.054
-434.705	-200.000	-0.063	-0.412
-433.690	70.645	-0.050	-0.051
-432.676	259.405	-0.043	-0.074
-431.661	1.326	0.305	0.216
-430.646	800.000	-0.055	0.225
-429.632	660.149	0.071	-0.182
-428.617	20.343	-0.318	-0.253
-427.603	-99.767	0.145	0.036
-426.588	307.246	-0.133	-0.245
-425.573	-200.000	-0.002	-0.025
-424.559	800.000	0.057	-0.179
-423.544	-83.243	-0.154	0.049
-422.530	3.610	-0.128	0.092
-421.515	-150.824	0.244	-0.018
-420.500	-21.120	0.208	0.125
-419.486	-200.000	-0.027	0.154
-418.471	11.112	-0.033	0.025
-417.457	61.358	0.306	0.300
-416.442	-54.217	0.388	0.174
-415.428	206.569	0.108	-0.166
-414.413	-200.000	0.023	-0.317
-413.398	-157.757	0.205	-0.012
-412.384	-200.000	0.021	-0.244
-411.369	-200.000	0.014	0.085
-410.355	-50.624	-0.250	-0.116
-409.340	-155.520	-0.238	-0.015
-408.325	60.277	-0.149	0.145
-407.311	34.890	-0.326	-0.282
-406.296	68.328	-0.228	-0.230
-405.282	-19.542	0.227	-0.138
-404.267	-109.390	0.456	0.095
-403.252	288.811	0.192	0.343
-402.238	-104.408	-0.123	0.028
-401.223	-63.430	-0.068	-0.028
-400.209	-146.380	0.426	0.037
-399.194	57.049	-0.194	0.186
-398.179	129.630	0.188	-0.236
-397.165	544.339	0.044	0.104
-396.150	-85.815	0.133	-0.041
-395.136	-200.000	0.006	-0.295
-394.121	549.914	-0.077	-0.182
-393.106	-200.000	-0.017	0.223
-392.092	245.668	0.054	0.090
-391.077	20.981	-0.202	-0.161
-390.063	792.718	0.097	0.263
-389.048	393.102	-0.104	-0.214
-388.033	-61.902	0.346	-0.143
-387.019	133.808	0.198	-0.253
-386.004	0.487	-0.237	0.167
-384.990	-10.271	-0.262	0.171
-383.975	-89.311	-0.093	-0.027
-382.960	-117.874	-0.113	0.020
-381.946	-165.357	0.443	-0.019
-380.931	-53.773	-0.175	-0.078
-379.917	-2.190	0.063	0.043
-378.902	-200.000	0.073	-0.353
-377.888	99.713	0.297	0.339
-376.873	-200.000	0.030	-0.273
-375.858	179.412	-0.120	0.173
-374.844	-54.391	-0.170	-0.076
-373.829	800.000	-0.050	-0.156
-372.815	23.113	0.345	-0.279
-371.800	800.000	0.025	-0.080
-370.785	-62.067	-0.208	0.086
-369.771	279.514	0.048	-0.084
-368.756	20.965	-0.249	-0.199
-367.742	-123.362	-0.213	-0.033
-366.727	-200.000	-0.010	-0.387
-365.712	-87.563	0.162	0.048
-364.698	-60.158	0.141	0.059
-363.683	-101.851	0.134	0.032
-362.669	800.000	-0.022	-0.081
-361.654	-19.289	0.062	0.038
-360.639	-159.172	-0.192	0.011
-359.625	-66.599	-0.182	0.071
-358.610	-112.618	-0.230	0.045
-357.596	10.688	0.120	-0.090
-356.581	-62.714	0.152	0.062
-355.566	-200.000	0.033	0.167
-354.552	550.549	-0.018	-0.042
-353.537	-128.069	0.095	-0.013
-352.523	-132.072	-0.094	0.012
-351.508	32.420	0.102	0.087
-350.493	-160.736	0.301	0.016
-349.479	-63.895	-0.244	-0.098
-348.464	28.224	-0.186	0.154
-347.450	-66.118	-0.112	-0.044
-346.435	124.492	-0.067	0.083
-345.420	199.374	0.130	0.196
-344.406	15.585	0.308	-0.238
-343.391	-10.486	0.146	0.095
-342.377	-200.000	0.005	0.078
-341.362	-200.000	0.006	0.132
-340.348	435.156	-0.042	-0.090
-339.333	-12.136	0.170	-0.109
-338.318	116.422	-0.212	0.256
-337.304	800.000	0.051	0.144
-336.289	-36.757	0.055	-0.029
-335.275	800.000	-0.072	-0.303
-334.260	135.708	-0.044	-0.056
-333.245	800.000	-0.101	0.312
-332.231	271.761	0.051	-0.089
-331.216	-200.000	0.051	0.278
-330.202	256.635	0.127	-0.215
-329.187	800.000	-0.078	0.220
-328.172	293.770	-0.088	-0.158
-327.158	-200.000	-0.038	0.207
-326.143	56.949	0.050	0.048
-325.129	800.000	0.072	-0.288
-324.114	430.538	-0.124	0.263
-323.099	-200.000	-0.002	0.082
-322.085	-200.000	-0.018	0.079
-321.070	68.675	-0.314	-0.317
-320.056	-68.869	0.070	0.026
-319.041	-200.000	-0.027	-0.204
-318.026	-14.787	0.139	-0.088
-317.012	199.576	-0.084	-0.126
-315.997	-200.000	-0.010	0.233
-314.983	32.594	0.261	0.221
-313.968	244.464	-0.148	0.244
-312.953	-200.000	0.027	0.345
-311.939	-200.000	-0.037	-0.294
-310.924	-0.565	0.118	-0.082
-309.910	254.914	0.050	0.085
-308.895	158.815	-0.212	0.289
-307.880	-0.862	0.063	-0.044
-306.866	70.458	0.070	0.071
-305.851	0.252	-0.018	-0.012
-304.837	400.129	-0.057	0.118
-303.822	128.306	0.137	-0.172
-302.807	50.904	-0.155	0.144
-301.793	-200.000	0.020	0.103
-300.778	545.693	0.017	-0.040
-299.764	146.206	-0.166	0.219
-298.749	-117.326	0.051	0.009
-297.735	-65.867	0.488	-0.192
-296.720	234.406	-0.023	0.038
-295.705	148.260	0.249	0.329
-294.691	-200.000	0.037	0.206
-293.676	800.000	0.046	0.198
-292.662	800.000	0.007	-0.028
-291.647	-200.000	-0.014	0.458
-290.632	-31.479	0.143	-0.079
-289.618	-200.000	0.147	0.001
-288.603	-177.752	0.471	-0.011
-287.589	-101.172	0.338	0.081
-286.574	-21.872	-0.070	-0.042
-285.559	-104.339	-0.125	-0.028
-284.545	-152.542	0.223	0.016
-283.530	309.261	0.036	-0.066
-282.516	-75.439	-0.208	-0.073
-281.501	-20.142	-0.249	-0.151
-280.486	-124.986	0.100	0.015
-279.472	707.203	-0.140	-0.363
-278.457	-200.000	0.010	-0.124
-277.443	129.625	0.109	-0.137
-276.428	416.681	-0.133	-0.279
-275.413	287.233	-0.050	-0.088
-274.399	-200.000	-0.009	0.095
-273.384	-96.875	0.059	0.015
-272.370	-188.110	-0.392	-0.005
-271.355	41.123	0.242	-0.215
-270.340	-200.000	0.017	0.133
-269.326	212.466	0.123	-0.191
-268.311	-136.010	0.273	-0.031
-267.297	421.298	-0.042	-0.089
-266.282	2.669	0.297	-0.211
-265.267	-138.013	0.132	-0.014
-264.253	-85.902	0.310	0.094
-263.238	-200.000	-0.041	0.219
-262.224	-3.236	0.138	0.094
-261.209	151.232	-0.132	-0.176
-260.195	35.661	0.172	-0.148
-259.180	-114.570	-0.280	-0.053
-258.165	45.466	0.053	0.048
-257.151	90.266	0.137	-0.150
-256.136	39.436	0.096	0.084
-255.122	686.754	0.066	0.169
-254.107	60.761	-0.080	-0.078
-253.092	-44.935	-0.125	-0.061
-252.078	-76.922	0.286	-0.098
-251.063	101.514	0.102	0.117
-250.049	-150.296	-0.126	-0.010
-249.034	-171.768	-0.503	0.016
-248.019	65.788	0.180	-0.179
-247.005	508.313	0.065	0.147
-245.990	184.307	-0.053	-0.077
-244.976	45.939	0.100	-0.091
-243.961	392.787	0.196	0.399
-242.946	207.575	-0.095	-0.145
-241.932	43.756	0.213	-0.191
-240.917	341.433	-0.098	-0.188
-239.903	-200.000	-0.011	-0.225
-238.888	-138.431	0.353	-0.038
-237.873	-64.173	0.346	0.138
-236.859	-27.739	0.139	-0.079
-235.844	-84.592	-0.155	-0.048
-234.830	32.263	-0.202	0.171
-233.815	800.000	-0.024	-0.100
-232.800	134.733	-0.202	0.257
-231.786	800.000	0.067	-0.203
-230.771	-148.598	0.310	0.025
-229.757	800.000	0.169	0.490
-228.742	27.941	-0.190	0.156
-227.727	330.218	0.158	-0.299
-226.713	-179.742	-0.098	-0.002
-225.698	-200.000	0.069	-0.436
-224.684	-91.662	0.307	-0.086
-223.669	298.024	-0.146	-0.263
-222.655	1.563	-0.245	0.173
-221.640	-200.000	-0.099	0.457
-220.625	245.024	0.061	-0.101
-219.611	800.000	0.021	0.091
-218.596	45.601	0.262	0.237
-217.582	98.937	0.162	0.183
-216.567	-27.036	0.188	0.107
-215.552	599.836	0.070	-0.171
-214.538	-56.205	-0.246	0.107
-213.523	62.889	-0.055	0.054
-212.509	-51.853	0.288	0.131
-211.494	719.378	-0.038	-0.098
-210.479	66.310	0.220	-0.219
-209.465	800.000	0.088	0.290
-208.450	-115.455	0.265	-0.049
-207.436	-123.098	-0.214	-0.034
-206.421	245.125	-0.090	-0.148
-205.406	-89.011	0.259	-0.075
-204.392	-72.521	0.116	0.042
-203.377	-154.533	0.248	-0.016
-202.363	0.033	-0.322	-0.225
-201.348	-42.135	-0.062	0.031
-200.333	514.855	0.064	0.146
-199.319	-89.543	-0.026	0.007
-198.304	-141.982	-0.321	0.031
-197.290	-103.121	-0.224	-0.052
-196.275	-52.989	-0.160	-0.072
-195.260	-85.630	0.200	-0.061
-194.246	-200.000	0.046	-0.233
-193.231	150.450	-0.183	0.243
-192.217	-200.000	0.009	0.175
-191.202	150.237	-0.165	-0.220
-190.187	-86.720	-0.165	-0.049
-189.173	157.729	0.312	-0.422
-188.158	-24.622	0.398	-0.232
-187.144	-200.000	0.001	0.008
-186.129	106.048	0.076	0.088
-185.114	89.303	0.082	0.089
-184.100	256.910	-0.079	-0.133
-183.085	-57.894	-0.194	-0.083
-182.071	-7.692	-0.159	0.105
-181.056	-61.592	0.322	0.132
-180.042	-24.381	0.222	0.130
-179.027	42.451	0.157	-0.139
-178.012	-80.011	-0.284	-0.093
-176.998	577.283	0.106	0.252
-175.983	-200.000	-0.015	0.337
-174.969	4.468	0.170	0.122
-173.954	115.472	0.089	0.106
-172.939	-3.809	0.078	0.053
-171.925	-185.883	-0.337	0.005
-170.910	-101.525	-0.240	0.057
-169.896	-167.345	-0.611	-0.024
-168.881	-1.369	0.202	-0.139
-167.866	-170.266	0.302	0.010
-166.852	337.560	-0.076	-0.145
-165.837	345.081	-0.128	-0.245
-164.823	230.351	-0.099	-0.158
-163.808	257.514	0.196	0.329
-162.793	-200.000	0.021	-0.113
-161.779	-188.635	-0.222	-0.003
-160.764	284.077	-0.026	-0.046
-159.750	-200.000	0.009	0.241
-158.735	14.895	0.152	0.116
-157.720	-61.080	0.304	-0.125
-156.706	-47.935	0.192	-0.091
-155.691	800.000	-0.077	0.251
-154.677	38.063	-0.154	-0.133
-153.662	153.165	0.159	-0.212
-152.647	148.783	-0.109	-0.144
-151.633	-155.992	0.247	-0.015
-150.618	-62.771	0.088	0.036
-149.604	-10.816	0.212	0.137
-148.589	800.000	0.080	-0.296
-147.574	579.001	0.119	-0.285
-146.560	-60.317	-0.190	-0.079
-145.545	-137.936	0.199	-0.022
-144.531	-175.108	-0.284	0.008
-143.516	-144.963	-0.005	-0.000
-142.502	85.359	-0.036	0.039
-141.487	263.898	0.143	0.243
-140.472	-58.333	-0.100	0.042
-139.458	-64.197	0.279	-0.111
-138.443	585.767	-0.026	-0.063
-137.429	271.861	0.117	0.202
-136.414	-200.000	-0.018	0.179
-135.399	-200.000	-0.006	0.042
-134.385	-135.673	0.183	0.021
-133.370	-34.707	-0.269	0.143
-132.356	-185.535	-0.212	-0.003
-131.341	800.000	-0.031	0.085
-130.326	800.000	0.115	-0.335
-129.312	420.544	0.125	0.261
-128.297	31.973	-0.089	-0.075
-127.283	-43.259	0.048	0.024
-126.268	800.000	0.086	0.247
-125.253	139.602	-0.081	-0.104
-124.239	75.743	-0.196	0.202
-123.224	-61.679	0.423	-0.173
-122.210	-0.036	0.273	-0.190
-121.195	-36.920	-0.163	-0.085
-120.180	79.012	0.139	0.145
