DTS Sentinel unit serial number:	SN413079Multiplexer serial number:	ORYXHardware model number:	OX4-SRSoftware version number:	ORYX F/W v4.00 Oryx Data Collector v3.7.2.0data status	okinstallation	princeton_trtdifferential loss correction	single-endedforward channel	channel 3reverse channel	N/Adate	2019/09/15time	22:40:35forward acquisition time	60.00reverse acquisition time	0.00gamma	496.2192k internal	0.2333k external	0.2333temperature offset calibration	0.9949default loss term (dB/km)	0.3790temperature slope calibration	1.0000multiplexer offset coefficient	1.0000multiplexer slope coefficient	1.0000fibre end	0.00T internal ref (°C)	28.94T ext. ref 1 (°C)	8.82T ext. ref 2 (°C)	22.43length (m)	temperature (°C)	Stokes	anti-Stokes-747.200	146.371	-0.157	0.213
-746.185	336.255	-0.192	0.374
-745.171	-174.556	-0.197	-0.006
-744.156	800.000	-0.067	0.204
-743.142	-200.000	-0.003	0.202
-742.127	-38.023	-0.200	0.107
-741.112	-22.938	0.188	0.114
-740.098	-200.000	-0.055	0.489
-739.083	-200.000	-0.024	0.317
-738.069	47.557	0.192	0.180
-737.054	-167.565	-0.174	0.007
-736.039	-103.524	-0.335	0.079
-735.025	-200.000	0.017	0.225
-734.010	-50.791	0.257	0.122
-732.996	-22.157	-0.202	-0.123
-731.981	-200.000	-0.026	-0.148
-730.966	-200.000	-0.030	-0.137
-729.952	80.859	-0.077	-0.083
-728.937	800.000	-0.018	0.059
-727.923	172.538	-0.102	-0.147
-726.908	-103.666	0.145	-0.034
-725.894	373.926	0.069	-0.141
-724.879	72.414	0.139	-0.146
-723.864	-200.000	-0.055	-0.430
-722.850	-200.000	0.007	-0.134
-721.835	800.000	0.063	0.176
-720.821	66.877	-0.204	-0.209
-719.806	-187.520	-0.093	-0.001
-718.791	26.261	-0.294	0.247
-717.777	800.000	0.022	-0.066
-716.762	24.059	0.171	-0.141
-715.748	-200.000	-0.043	-0.249
-714.733	-200.000	-0.061	-0.303
-713.718	176.028	-0.114	0.166
-712.704	-200.000	0.055	0.296
-711.689	-147.884	0.189	-0.016
-710.675	248.723	0.034	0.058
-709.660	88.001	0.016	-0.018
-708.645	-6.423	0.201	0.138
-707.631	-120.535	-0.266	-0.045
-706.616	55.188	0.170	-0.165
-705.602	264.008	-0.024	0.042
-704.587	20.386	-0.305	-0.247
-703.572	-142.352	-0.131	-0.013
-702.558	800.000	-0.046	0.192
-701.543	-36.842	-0.081	-0.043
-700.529	800.000	0.100	-0.278
-699.514	-200.000	0.020	0.104
-698.499	-200.000	0.019	-0.131
-697.485	74.046	0.396	0.417
-696.470	-32.276	0.110	-0.062
-695.456	-97.484	0.246	0.064
-694.441	-31.508	-0.159	0.090
-693.426	-44.915	-0.174	-0.087
-692.412	-68.850	0.074	0.029
-691.397	178.655	-0.141	0.207
-690.383	424.453	-0.058	-0.126
-689.368	200.730	-0.042	-0.065
-688.354	288.696	-0.096	0.175
-687.339	-124.977	0.260	0.040
-686.324	-92.348	-0.188	0.053
-685.310	66.238	-0.100	-0.102
-684.295	358.471	-0.091	-0.182
-683.281	-123.628	-0.264	0.042
-682.266	800.000	-0.150	0.492
-681.251	-200.000	-0.053	0.449
-680.237	800.000	0.027	0.083
-679.222	-30.663	-0.019	-0.011
-678.208	-53.165	-0.153	-0.070
-677.193	27.067	0.091	0.076
-676.178	-200.000	0.005	-0.120
-675.164	250.275	-0.034	0.058
-674.149	800.000	-0.014	0.053
-673.135	145.195	-0.199	0.267
-672.120	-51.144	-0.118	0.056
-671.105	-127.266	-0.091	0.013
-670.091	-198.676	-0.182	0.001
-669.076	18.406	-0.252	0.202
-668.062	-120.835	0.122	0.021
-667.047	-146.736	-0.206	0.018
-666.032	-36.840	-0.023	-0.012
-665.018	61.451	-0.260	-0.259
-664.003	-200.000	-0.021	-0.266
-662.989	-34.000	0.120	-0.066
-661.974	-200.000	-0.028	-0.145
-660.959	-162.222	-0.052	0.003
-659.945	800.000	0.066	0.188
-658.930	-176.307	-0.265	0.007
-657.916	-111.584	0.166	-0.034
-656.901	-24.534	0.098	0.059
-655.886	19.169	-0.063	0.050
-654.872	-0.061	0.121	-0.086
-653.857	-46.708	0.163	-0.080
-652.843	48.036	-0.294	-0.275
-651.828	-123.389	0.210	0.034
-650.814	519.795	-0.058	0.136
-649.799	20.500	0.137	-0.111
-648.784	121.722	0.114	0.142
-647.770	23.221	-0.286	0.235
-646.755	798.735	0.058	-0.160
-645.741	-95.416	-0.129	-0.035
-644.726	-110.826	-0.402	0.083
-643.711	-22.069	0.233	0.141
-642.697	-200.000	-0.010	0.306
-641.682	83.741	0.091	-0.099
-640.668	-130.696	0.118	-0.016
-639.653	33.704	-0.311	-0.271
-638.638	-19.686	0.151	-0.094
-637.624	-200.000	-0.023	0.175
-636.609	237.276	-0.030	0.049
-635.595	39.414	0.184	0.165
-634.580	800.000	0.074	-0.315
-633.565	481.195	-0.087	-0.199
-632.551	194.911	-0.063	0.096
-631.536	-200.000	-0.018	-0.180
-630.522	-200.000	0.010	0.332
-629.507	-91.971	-0.206	0.058
-628.492	-79.815	0.288	0.097
-627.478	44.060	-0.037	0.034
-626.463	800.000	-0.087	-0.263
-625.449	800.000	-0.029	-0.084
-624.434	187.511	-0.087	-0.129
-623.419	800.000	0.032	-0.132
-622.405	800.000	0.059	-0.163
-621.390	86.600	0.178	-0.196
-620.376	-200.000	-0.009	0.228
-619.361	207.669	0.099	-0.155
-618.346	-91.337	0.115	-0.033
-617.332	-71.743	0.182	-0.068
-616.317	-18.796	-0.214	-0.134
-615.303	-200.000	0.024	-0.174
-614.288	252.290	-0.120	0.204
-613.273	-104.939	-0.068	0.016
-612.259	-88.189	0.023	-0.007
-611.244	800.000	-0.047	-0.153
-610.230	787.429	-0.055	-0.152
-609.215	-200.000	0.002	-0.229
-608.201	3.362	0.272	-0.198
-607.186	317.577	-0.050	-0.095
-606.171	-200.000	-0.020	-0.149
-605.157	-83.258	-0.351	0.113
-604.142	770.931	-0.147	-0.401
-603.128	-68.736	0.284	0.110
-602.113	-200.000	0.016	0.134
-601.098	74.448	0.085	0.089
-600.084	100.385	0.099	0.115
-599.069	236.220	-0.157	0.260
-598.055	258.216	0.089	-0.153
-597.040	310.105	-0.084	-0.156
-596.025	-13.851	0.185	-0.120
-595.011	-200.000	-0.007	0.142
-593.996	800.000	-0.103	0.300
-592.982	800.000	-0.065	0.267
-591.967	-124.244	-0.174	-0.027
-590.952	178.326	0.039	0.056
-589.938	-146.843	-0.063	-0.005
-588.923	-81.189	-0.253	-0.084
-587.909	409.649	0.155	-0.329
-586.894	800.000	-0.028	0.094
-585.879	269.890	0.190	-0.333
-584.865	101.163	0.230	-0.267
-583.850	-74.112	0.168	-0.061
-582.836	29.954	0.154	0.131
-581.821	-115.245	0.112	0.021
-580.806	800.000	-0.215	0.697
-579.792	800.000	-0.081	0.240
-578.777	23.732	0.175	-0.144
-577.763	35.233	0.082	-0.072
-576.748	138.123	-0.135	-0.177
-575.733	430.558	0.057	-0.124
-574.719	-96.196	-0.114	-0.030
-573.704	-125.134	0.242	0.037
-572.690	-68.312	-0.116	-0.045
-571.675	-59.291	-0.085	-0.036
-570.661	-44.301	-0.121	-0.061
-569.646	55.285	0.230	-0.222
-568.631	-200.000	-0.003	-0.186
-567.617	-2.587	-0.064	0.045
-566.602	800.000	0.010	-0.029
-565.588	-23.751	0.193	0.116
-564.573	-177.451	0.266	0.007
-563.558	-23.100	0.195	0.117
-562.544	32.626	-0.240	0.207
-561.529	-159.507	-0.129	-0.007
-560.515	13.890	-0.101	-0.079
-559.500	93.499	-0.224	-0.253
-558.485	-65.164	0.013	0.005
-557.471	-200.000	-0.013	0.131
-556.456	-6.919	-0.347	-0.235
-555.442	800.000	-0.027	0.080
-554.427	-122.109	0.204	0.033
-553.412	19.377	-0.185	-0.148
-552.398	-200.000	0.020	-0.215
-551.383	-59.767	0.087	-0.037
-550.369	-11.300	-0.414	0.272
-549.354	328.091	-0.065	0.125
-548.339	800.000	-0.044	0.158
-547.325	-50.429	-0.092	0.043
-546.310	-200.000	0.000	0.093
-545.296	-52.522	-0.080	-0.037
-544.281	-12.640	0.137	-0.089
-543.266	-2.047	0.229	0.161
-542.252	-41.628	-0.152	-0.078
-541.237	-85.313	0.140	-0.044
-540.223	-63.240	-0.072	-0.030
-539.208	-141.837	-0.179	-0.018
-538.193	800.000	0.057	-0.201
-537.179	-164.799	0.412	-0.018
-536.164	-200.000	0.056	-0.275
-535.150	-1.117	0.047	-0.033
-534.135	-103.965	-0.344	0.080
-533.121	800.000	-0.072	-0.273
-532.106	161.719	-0.106	-0.148
-531.091	266.858	-0.032	-0.056
-530.077	-102.861	-0.247	-0.059
-529.062	-200.000	-0.045	-0.228
-528.048	800.000	-0.034	-0.146
-527.033	-200.000	0.066	0.349
-526.018	151.204	-0.112	0.152
-525.004	43.865	0.041	-0.037
-523.989	100.783	0.024	-0.028
-522.975	9.315	-0.231	0.174
-521.960	432.391	-0.062	0.135
-520.945	-30.687	0.242	-0.137
-519.931	480.381	-0.191	-0.433
-518.916	-23.650	-0.199	-0.119
-517.902	48.570	-0.115	-0.108
-516.887	-198.726	-0.332	-0.002
-515.872	800.000	-0.065	-0.280
-514.858	-200.000	-0.020	0.194
-513.843	223.434	0.137	0.220
-512.829	-200.000	0.017	-0.113
-511.814	-200.000	-0.030	-0.144
-510.799	145.964	-0.092	0.123
-509.785	800.000	-0.070	0.260
-508.770	-100.459	-0.140	0.035
-507.756	302.597	-0.084	0.154
-506.741	-138.009	0.239	-0.026
-505.726	-22.576	0.345	0.208
-504.712	-82.502	-0.183	0.059
-503.697	800.000	0.036	-0.105
-502.683	130.498	0.179	-0.228
-501.668	144.753	0.076	-0.101
-500.653	68.528	-0.144	0.147
-499.639	-18.228	0.254	0.158
-498.624	-130.233	-0.245	0.033
-497.610	800.000	0.072	-0.299
-496.595	-162.978	0.241	-0.012
-495.581	133.665	-0.209	-0.270
-494.566	-200.000	-0.033	-0.247
-493.551	-200.000	-0.013	-0.109
-492.537	-132.389	0.077	0.010
-491.522	800.000	0.036	0.133
-490.508	-126.893	-0.157	-0.023
-489.493	329.331	-0.111	0.212
-488.478	-200.000	-0.034	0.165
-487.464	-41.355	-0.265	-0.136
-486.449	800.000	0.100	0.289
-485.435	147.778	0.075	-0.101
-484.420	-89.825	-0.052	-0.015
-483.405	-80.963	-0.071	-0.023
-482.391	-35.890	0.212	-0.114
-481.376	-200.000	-0.033	0.150
-480.362	239.060	-0.081	-0.133
-479.347	-87.973	-0.089	0.027
-478.332	-24.952	-0.057	-0.034
-477.318	50.563	0.118	-0.111
-476.303	6.276	0.150	-0.111
-475.289	27.361	0.170	-0.142
-474.274	-118.704	-0.278	0.049
-473.259	30.571	-0.208	0.177
-472.245	-200.000	0.013	-0.234
-471.230	-200.000	0.000	-0.427
-470.216	261.330	0.229	-0.394
-469.201	-98.525	-0.201	-0.051
-468.186	-152.902	-0.075	0.005
-467.172	-200.000	-0.003	0.036
-466.157	-29.537	-0.073	0.042
-465.143	800.000	0.102	0.328
-464.128	-21.803	-0.349	0.211
-463.113	467.504	0.064	-0.142
-462.099	-31.669	-0.195	0.109
-461.084	45.380	-0.250	0.229
-460.070	-29.797	-0.352	-0.199
-459.055	308.343	0.116	0.215
-458.040	-11.354	-0.361	-0.236
-457.026	166.473	0.059	-0.083
-456.011	37.871	0.032	-0.028
-454.997	403.593	0.110	0.230
-453.982	109.220	0.295	-0.351
-452.968	88.800	0.144	-0.159
-451.953	-22.328	-0.022	-0.013
-450.938	-16.841	-0.182	-0.114
-449.924	-97.729	-0.316	-0.081
-448.909	160.806	-0.149	-0.206
-447.895	16.326	-0.064	0.050
-446.880	-6.044	0.128	0.087
-445.865	-13.345	-0.148	0.095
-444.851	-167.731	-0.086	0.003
-443.836	71.387	0.190	0.196
-442.822	-44.914	0.243	0.121
-441.807	207.709	-0.115	0.178
-440.792	313.934	0.225	-0.421
-439.778	-191.917	0.208	0.002
-438.763	44.524	0.174	0.159
-437.749	51.686	-0.328	-0.310
-436.734	-9.611	0.298	0.197
-435.719	800.000	-0.096	0.360
-434.705	150.132	-0.151	-0.204
-433.690	-106.917	-0.210	0.046
-432.676	-200.000	0.001	-0.139
-431.661	-94.291	0.292	-0.079
-430.646	461.576	0.119	0.264
-429.632	38.284	-0.152	-0.135
-428.617	-139.766	0.218	0.023
-427.603	-44.911	-0.173	-0.085
-426.588	800.000	0.123	-0.440
-425.573	95.262	-0.227	-0.257
-424.559	59.585	-0.069	0.067
-423.544	-107.068	-0.076	0.017
-422.530	-200.000	-0.006	0.322
-421.515	28.219	0.025	0.021
-420.500	-78.848	0.105	-0.036
-419.486	440.546	0.167	0.363
-418.471	193.513	0.127	0.190
-417.457	-148.741	0.132	-0.011
-416.442	-30.492	0.182	0.102
-415.428	-59.111	-0.130	0.056
-414.413	107.218	-0.127	0.149
-413.398	-126.708	0.132	0.019
-412.384	800.000	-0.049	0.191
-411.369	13.478	0.079	-0.061
-410.355	800.000	0.114	-0.338
-409.340	-94.153	-0.427	-0.116
-408.325	-196.769	0.275	-0.002
-407.311	128.672	-0.067	-0.085
-406.296	276.341	0.168	0.297
-405.282	-200.000	0.014	0.315
-404.267	12.017	-0.174	-0.133
-403.252	800.000	0.061	0.261
-402.238	234.774	-0.057	-0.093
-401.223	-200.000	0.057	-0.264
-400.209	-13.101	0.266	0.171
-399.194	-200.000	-0.000	0.040
-398.179	800.000	0.038	-0.129
-397.165	405.309	0.068	0.142
-396.150	-7.232	-0.258	0.173
-395.136	-33.656	0.112	-0.061
-394.121	117.981	-0.094	-0.115
-393.106	247.394	-0.203	0.341
-392.092	-5.881	0.139	0.095
-391.077	-200.000	-0.040	0.647
-390.063	800.000	0.014	0.044
-389.048	-200.000	-0.001	0.562
-388.033	16.597	0.210	-0.165
-387.019	-69.437	-0.133	-0.051
-386.004	-127.797	-0.218	-0.031
-384.990	-101.322	-0.084	-0.020
-383.975	-167.314	-0.148	0.006
-382.960	90.752	0.025	0.027
-381.946	800.000	0.050	0.167
-380.931	-141.195	0.027	-0.003
-379.917	-200.000	-0.080	-0.579
-378.902	396.081	-0.141	0.292
-377.888	-79.161	0.139	-0.047
-376.873	800.000	-0.034	0.130
-375.858	98.764	-0.443	0.507
-374.844	-29.632	0.090	0.051
-373.829	549.444	0.003	0.006
-372.815	424.434	0.089	0.189
-371.800	282.645	-0.112	0.200
-370.785	-200.000	0.000	-0.121
-369.771	203.932	-0.010	0.015
-368.756	-120.863	0.198	0.033
-367.742	-29.260	0.053	-0.030
-366.727	78.626	0.066	-0.069
-365.712	800.000	0.061	-0.189
-364.698	800.000	-0.038	0.149
-363.683	-200.000	-0.002	0.113
-362.669	-200.000	-0.026	-0.185
-361.654	-29.121	-0.068	-0.039
-360.639	-195.350	-0.273	0.002
-359.625	455.468	0.101	-0.222
-358.610	-7.322	-0.140	-0.094
-357.596	-93.892	0.172	-0.047
-356.581	-74.394	0.160	-0.057
-355.566	-200.000	-0.020	-0.183
-354.552	800.000	0.046	-0.185
-353.537	203.640	0.126	-0.193
-352.523	-200.000	0.002	-0.282
-351.508	160.375	0.149	-0.206
-350.493	-118.873	0.069	-0.012
-349.479	-143.443	-0.077	-0.007
-348.464	-200.000	-0.070	-0.649
-347.450	299.615	-0.144	0.263
-346.435	75.287	0.122	0.127
-345.420	800.000	-0.096	0.332
-344.406	209.609	0.062	-0.096
-343.391	-200.000	-0.001	0.186
-342.377	-60.753	-0.260	-0.109
-341.362	36.048	-0.299	0.260
-340.348	559.471	-0.057	-0.135
-339.333	154.122	0.372	-0.506
-338.318	-170.574	-0.240	0.008
-337.304	521.703	0.051	0.119
-336.289	-84.722	0.119	0.037
-335.275	200.715	-0.118	0.179
-334.260	42.657	-0.072	0.065
-333.245	507.808	-0.112	0.256
-332.231	-116.987	0.229	0.041
-331.216	-55.720	-0.108	0.048
-330.202	320.383	-0.198	0.372
-329.187	-82.395	-0.122	-0.039
-328.172	694.673	-0.072	0.187
-327.158	9.864	0.168	-0.126
-326.143	-200.000	0.027	0.129
-325.129	54.837	-0.250	-0.239
-324.114	-115.119	-0.079	0.015
-323.099	247.266	-0.112	-0.188
-322.085	190.348	0.062	-0.092
-321.070	-154.519	-0.276	0.018
-320.056	303.488	0.127	0.233
-319.041	-200.000	-0.008	-0.207
-318.026	-135.238	-0.100	0.012
-317.012	-25.165	-0.142	-0.083
-315.997	297.724	-0.163	-0.296
-314.983	19.344	-0.247	0.196
-313.968	-200.000	-0.009	-0.235
-312.953	-200.000	0.003	-0.148
-311.939	28.436	0.137	0.115
-310.924	-13.116	0.207	0.133
-309.910	800.000	0.049	-0.188
-308.895	-200.000	0.047	0.483
-307.880	-17.055	0.194	-0.121
-306.866	-23.437	0.084	0.050
-305.851	-200.000	0.019	-0.210
-304.837	5.776	0.429	0.314
-303.822	-131.047	-0.311	0.041
-302.807	-200.000	0.025	0.178
-301.793	185.042	-0.184	-0.270
-300.778	-162.588	-0.083	-0.004
-299.764	-79.457	0.341	0.114
-298.749	-8.295	0.056	-0.037
-297.735	-43.526	-0.171	0.085
-296.720	161.094	0.081	-0.112
-295.705	-101.919	0.087	-0.021
-294.691	-157.080	-0.202	0.012
-293.676	741.170	0.089	0.236
-292.662	-30.962	0.222	-0.124
-291.647	271.884	0.137	0.238
-290.632	-200.000	-0.032	0.158
-289.618	-200.000	-0.011	-0.140
-288.603	44.329	-0.412	0.374
-287.589	99.623	0.265	-0.303
-286.574	-90.795	-0.132	-0.038
-285.559	-16.651	-0.213	0.133
-284.545	-200.000	0.025	-0.449
-283.530	-56.196	-0.134	-0.059
-282.516	799.035	0.058	-0.158
-281.501	-200.000	-0.012	0.339
-280.486	-200.000	0.053	-0.495
-279.472	-33.099	-0.228	0.125
-278.457	678.337	-0.085	-0.218
-277.443	800.000	-0.080	0.341
-276.428	-22.043	0.288	-0.173
-275.413	-200.000	-0.001	0.103
-274.399	-95.439	0.226	-0.060
-273.384	-200.000	0.012	0.408
-272.370	-84.869	0.219	0.068
-271.355	-200.000	0.061	-0.315
-270.340	-200.000	-0.000	0.002
-269.326	-200.000	-0.023	-0.141
-268.311	553.156	0.070	-0.165
-267.297	-87.337	0.090	0.027
-266.282	-116.692	0.321	0.058
-265.267	130.797	-0.186	0.236
-264.253	-107.978	0.107	-0.023
-263.238	50.162	0.078	0.072
-262.224	-44.934	0.219	0.108
-261.209	190.050	0.053	0.079
-260.195	-32.440	-0.158	-0.087
-259.180	800.000	-0.031	0.109
-258.165	51.876	-0.230	-0.216
-257.151	146.121	0.163	-0.216
-256.136	13.753	0.281	-0.215
-255.122	122.673	0.144	0.177
-254.107	-100.038	-0.091	0.022
-253.092	-136.478	0.467	0.054
-252.078	-200.000	-0.005	0.078
-251.063	-129.423	0.075	-0.010
-250.049	31.146	-0.491	0.415
-249.034	-44.933	0.217	-0.107
-248.019	694.755	0.024	-0.061
-247.005	-119.311	0.104	0.018
-245.990	631.996	-0.113	-0.282
-244.976	82.888	0.241	-0.258
-243.961	-200.000	0.037	0.237
-242.946	116.586	-0.076	0.092
-241.932	7.223	-0.167	0.123
-240.917	-102.156	0.197	-0.047
-239.903	13.727	0.112	-0.086
-238.888	-79.136	0.192	0.064
-237.873	-78.642	0.248	0.084
-236.859	-129.316	-0.151	0.021
-235.844	-200.000	0.016	0.110
-234.830	179.416	-0.128	0.184
-233.815	245.553	0.112	0.185
-232.800	161.518	0.198	-0.273
-231.786	-200.000	-0.008	-0.139
-230.771	168.004	0.283	0.397
-229.757	54.673	-0.313	-0.297
-228.742	-83.193	-0.220	-0.070
-227.727	85.944	0.239	-0.259
-226.713	800.000	-0.061	-0.175
-225.698	99.549	0.254	0.290
-224.684	32.188	-0.227	0.193
-223.669	-200.000	0.022	0.200
-222.655	-146.204	-0.309	0.027
-221.640	-30.167	-0.192	-0.108
-220.625	-200.000	0.005	-0.093
-219.611	120.180	-0.082	0.100
-218.596	-29.156	0.141	0.080
-217.582	18.623	0.270	0.213
-216.567	-109.855	0.150	-0.031
-215.552	355.239	0.063	-0.123
-214.538	-131.017	-0.151	-0.020
-213.523	-63.153	-0.297	-0.121
-212.509	108.448	-0.181	0.212
-211.494	-200.000	0.029	0.322
-210.479	227.957	-0.125	-0.200
-209.465	163.882	0.158	-0.220
-208.450	-200.000	-0.025	-0.260
-207.436	28.707	0.252	0.210
-206.421	-131.222	-0.384	-0.050
-205.406	-163.725	0.125	0.006
-204.392	43.790	0.219	0.198
-203.377	800.000	0.084	-0.246
-202.363	-69.483	-0.024	-0.009
-201.348	761.315	-0.094	0.251
-200.333	-50.096	0.120	-0.056
-199.319	-12.772	-0.297	-0.190
-198.304	60.975	0.049	0.048
-197.290	30.766	-0.179	-0.151
-196.275	-75.371	-0.078	-0.027
-195.260	486.197	0.163	-0.366
-194.246	-200.000	0.009	-0.096
-193.231	-84.664	0.295	0.091
-192.217	-200.000	-0.004	-0.031
-191.202	-200.000	0.004	0.548
-190.187	-156.621	0.434	-0.026
-189.173	429.844	0.115	0.245
-188.158	642.838	0.034	-0.084
-187.144	-57.343	0.264	0.114
-186.129	82.942	-0.279	0.299
-185.114	-99.809	-0.116	-0.029
-184.100	131.930	-0.096	0.122
-183.085	401.242	-0.132	0.273
-182.071	-42.054	0.544	-0.274
-181.056	18.312	-0.251	-0.197
-180.042	-90.385	0.303	0.086
-179.027	-25.866	0.381	0.221
-178.012	212.094	0.079	-0.122
-176.998	-91.869	0.233	-0.065
-175.983	110.082	0.082	0.096
-174.969	-182.365	-0.327	-0.006
-173.954	38.038	0.144	-0.126
-172.939	76.929	-0.090	-0.094
-171.925	-200.000	-0.029	-0.132
-170.910	800.000	-0.035	0.104
-169.896	271.333	0.120	0.207
-168.881	653.002	0.055	0.138
-167.866	-140.914	-0.090	-0.009
-166.852	-18.188	0.148	-0.091
-165.837	-134.508	0.314	0.038
-164.823	-74.768	-0.195	-0.069
-163.808	-186.120	0.295	0.004
-162.793	-200.000	0.024	0.231
-161.779	173.417	-0.102	-0.144
-160.764	800.000	-0.041	0.118
-159.750	-108.529	0.130	0.027
-158.735	800.000	-0.065	0.197
-157.720	-200.000	-0.056	0.335
-156.706	-6.450	0.350	0.235
-155.691	59.217	0.164	-0.159
-154.677	120.638	0.068	0.083
-153.662	-31.016	-0.348	-0.193
-152.647	167.469	0.147	0.205
-151.633	-17.999	-0.273	0.168
-150.618	-77.379	-0.173	-0.059
-149.604	800.000	-0.075	-0.248
-148.589	6.178	0.167	-0.121
-147.574	25.810	0.136	-0.111
-146.560	-8.679	-0.069	-0.046
-145.545	-83.296	-0.102	0.032
-144.531	-28.462	-0.121	0.069
-143.516	194.524	-0.153	-0.228
-142.502	3.454	0.248	-0.178
-141.487	800.000	-0.037	0.158
-140.472	284.980	0.154	-0.272
-139.458	800.000	-0.025	0.090
-138.443	55.195	0.216	0.205
-137.429	-40.218	-0.288	0.147
-136.414	456.394	-0.085	-0.185
-135.399	-89.921	-0.242	-0.069
-134.385	-2.270	0.110	-0.075
-133.370	53.487	0.127	0.119
-132.356	63.064	-0.112	0.110
-131.341	122.745	0.090	-0.110
-130.326	-66.448	-0.037	0.014
-129.312	43.004	-0.012	-0.011
-128.297	-200.000	0.040	-0.196
-127.283	-143.192	0.050	0.005
-126.268	603.922	0.080	-0.196
-125.253	-106.351	-0.104	-0.023
-124.239	289.329	-0.104	0.185
-123.224	283.263	-0.099	-0.174
-122.210	-57.361	0.092	-0.040
