DTS Sentinel unit serial number:	SN413079Multiplexer serial number:	ORYXHardware model number:	OX4-SRSoftware version number:	ORYX F/W v4.00 Oryx Data Collector v3.7.2.0data status	okinstallation	princeton_trtdifferential loss correction	single-endedforward channel	channel 3reverse channel	N/Adate	2019/09/12time	09:42:11forward acquisition time	60.00reverse acquisition time	0.00gamma	496.2192k internal	0.2300k external	0.2300temperature offset calibration	1.0034default loss term (dB/km)	0.3790temperature slope calibration	1.0000multiplexer offset coefficient	1.0000multiplexer slope coefficient	1.0000fibre end	0.00T internal ref (°C)	35.81T ext. ref 1 (°C)	1.83T ext. ref 2 (°C)	32.70length (m)	temperature (°C)	Stokes	anti-Stokes-747.200	-68.468	-0.103	-0.041
-746.185	63.377	0.293	0.300
-745.171	-178.059	-0.279	-0.007
-744.156	367.778	-0.045	0.093
-743.142	-42.764	0.367	-0.190
-742.127	-115.744	0.314	0.060
-741.112	-74.035	-0.165	-0.061
-740.098	186.116	-0.031	-0.047
-739.083	-200.000	0.015	-0.094
-738.069	258.227	-0.157	0.276
-737.054	194.447	0.071	0.110
-736.039	-49.091	-0.173	-0.084
-735.025	270.216	-0.122	0.219
-734.010	800.000	0.049	0.199
-732.996	-200.000	0.014	0.253
-731.981	-27.168	-0.299	-0.177
-730.966	800.000	-0.032	-0.096
-729.952	69.553	0.071	0.074
-728.937	-26.149	-0.343	0.206
-727.923	179.559	-0.230	0.344
-726.908	61.884	-0.122	-0.124
-725.894	-113.656	0.131	0.026
-724.879	-67.273	0.235	-0.094
-723.864	198.980	0.166	-0.258
-722.850	187.011	0.052	0.079
-721.835	-73.989	0.066	-0.024
-720.821	-200.000	0.008	0.191
-719.806	6.671	-0.178	0.135
-718.791	11.315	0.176	0.138
-717.777	14.611	-0.237	-0.189
-716.762	604.560	0.069	-0.176
-715.748	92.884	-0.099	0.115
-714.733	171.944	-0.226	-0.331
-713.718	800.000	0.111	0.353
-712.704	-200.000	0.015	-0.214
-711.689	-33.337	-0.093	-0.052
-710.675	-131.534	-0.161	0.022
-709.660	429.029	0.034	-0.075
-708.645	-79.511	-0.200	0.069
-707.631	-16.092	-0.247	-0.160
-706.616	-115.674	0.305	-0.058
-705.602	55.244	-0.135	0.133
-704.587	-200.000	0.009	-0.260
-703.572	474.150	0.158	0.364
-702.558	800.000	0.088	0.284
-701.543	-200.000	-0.032	0.292
-700.529	203.768	0.013	-0.021
-699.514	246.194	-0.112	-0.192
-698.499	-46.916	-0.048	-0.024
-697.485	-107.347	-0.341	0.076
-696.470	-18.760	-0.263	-0.167
-695.456	161.666	-0.102	0.146
-694.441	-99.290	-0.220	-0.056
-693.426	-30.100	0.239	-0.139
-692.412	-68.364	-0.226	0.089
-691.397	-57.194	0.367	0.164
-690.383	29.865	0.125	0.109
-689.368	-81.244	0.113	0.038
-688.354	225.093	-0.182	0.299
-687.339	1.103	-0.222	-0.162
-686.324	571.194	0.110	0.272
-685.310	-69.697	-0.298	-0.116
-684.295	73.375	-0.367	-0.390
-683.281	-30.309	-0.120	-0.069
-682.266	221.192	-0.083	-0.135
-681.251	-80.163	-0.208	0.071
-680.237	800.000	-0.044	-0.190
-679.222	547.153	0.163	-0.398
-678.208	-80.035	0.178	-0.061
-677.193	-18.228	-0.389	-0.247
-676.178	104.413	-0.034	-0.041
-675.164	145.089	-0.180	-0.245
-674.149	-102.542	-0.287	0.070
-673.135	-72.455	0.110	0.041
-672.120	96.667	-0.152	-0.177
-671.105	-132.250	-0.290	-0.038
-670.091	-86.442	0.228	-0.071
-669.076	-48.627	0.284	-0.139
-668.062	39.048	0.077	-0.070
-667.047	149.081	-0.013	-0.018
-666.032	47.677	0.049	0.047
-665.018	291.399	0.337	-0.624
-664.003	35.757	0.041	0.036
-662.989	800.000	-0.055	-0.219
-661.974	-146.313	-0.156	-0.014
-660.959	-174.474	0.238	-0.007
-659.945	8.003	-0.266	-0.203
-658.930	-121.349	0.075	0.013
-657.916	68.639	-0.244	0.255
-656.901	-155.864	-0.309	-0.020
-655.886	84.431	0.224	-0.249
-654.872	-139.633	-0.113	-0.012
-653.857	-141.646	-0.169	-0.017
-652.843	122.388	0.085	0.108
-651.828	-138.255	0.320	-0.036
-650.814	-79.152	-0.163	0.056
-649.799	-200.000	0.046	-0.248
-648.784	131.172	0.108	-0.141
-647.770	-134.447	-0.314	-0.039
-646.755	-5.522	0.192	0.134
-645.741	-107.530	0.363	0.081
-644.726	-200.000	-0.000	-0.215
-643.711	37.131	-0.022	-0.020
-642.697	408.508	-0.025	0.054
-641.682	-200.000	-0.001	-0.100
-640.668	491.811	0.054	-0.126
-639.653	669.898	0.047	-0.123
-638.638	-165.755	-0.317	-0.014
-637.624	74.397	-0.072	-0.077
-636.609	70.716	0.109	0.115
-635.595	210.476	-0.108	-0.172
-634.580	202.575	0.140	-0.220
-633.565	1.966	-0.106	0.078
-632.551	-42.481	0.096	0.050
-631.536	-30.260	0.052	0.030
-630.522	-200.000	-0.014	0.155
-629.507	-186.688	0.192	0.003
-628.492	-14.249	-0.250	-0.164
-627.478	-200.000	-0.002	0.100
-626.463	-48.270	-0.124	-0.061
-625.449	800.000	-0.064	-0.284
-624.434	477.214	0.024	-0.055
-623.419	231.490	0.248	0.414
-622.405	6.646	0.281	0.212
-621.390	-37.665	0.300	-0.162
-620.376	800.000	-0.050	-0.143
-619.361	128.912	-0.130	-0.169
-618.346	800.000	0.099	-0.306
-617.332	800.000	0.075	0.305
-616.317	75.697	0.155	0.167
-615.303	-16.333	-0.142	-0.091
-614.288	149.922	0.219	0.302
-613.273	19.794	-0.183	0.149
-612.259	-57.924	-0.219	0.097
-611.244	-75.691	-0.136	-0.049
-610.230	-0.424	0.177	-0.128
-609.215	-9.519	-0.117	0.079
-608.201	474.836	0.061	0.139
-607.186	800.000	0.072	0.210
-606.171	105.668	0.036	0.043
-605.157	-80.636	0.102	0.034
-604.142	-100.508	-0.059	-0.015
-603.128	-141.496	-0.095	0.010
-602.113	73.394	-0.090	0.095
-601.098	-71.370	-0.214	-0.081
-600.084	127.855	-0.143	-0.185
-599.069	-200.000	-0.005	0.098
-598.055	-38.392	0.356	0.191
-597.040	6.514	-0.161	0.122
-596.025	-200.000	0.012	0.155
-595.011	481.028	-0.073	-0.169
-593.996	26.968	-0.013	-0.011
-592.982	2.242	-0.299	0.219
-591.967	-33.509	-0.035	0.020
-590.952	-48.229	-0.351	0.172
-589.938	211.579	0.170	-0.271
-588.923	-200.000	-0.025	0.177
-587.909	-108.997	-0.481	-0.104
-586.894	-117.768	0.223	0.041
-585.879	-134.138	-0.137	-0.017
-584.865	-21.006	0.099	0.061
-583.850	146.916	-0.177	-0.242
-582.836	-200.000	-0.029	-0.244
-581.821	-200.000	-0.074	0.465
-580.806	36.243	0.114	-0.102
-579.792	-113.154	-0.231	-0.046
-578.777	-200.000	0.012	0.053
-577.763	-84.865	0.217	0.069
-576.748	-74.921	-0.069	-0.025
-575.733	131.504	-0.092	-0.120
-574.719	-2.375	-0.084	-0.060
-573.704	-126.824	-0.173	0.026
-572.690	800.000	-0.050	0.193
-571.675	232.100	0.122	-0.202
-570.661	177.503	-0.196	-0.289
-569.646	34.289	-0.246	-0.218
-568.631	-74.796	-0.104	0.038
-567.617	-134.396	-0.276	0.034
-566.602	-200.000	-0.023	-0.136
-565.588	-2.415	-0.231	-0.164
-564.573	143.104	0.144	0.194
-563.558	-200.000	0.031	0.147
-562.544	-200.000	0.033	0.280
-561.529	163.333	0.182	0.259
-560.515	595.212	-0.029	0.072
-559.500	-53.866	0.154	-0.071
-558.485	200.431	0.111	0.173
-557.471	-200.000	-0.052	-0.361
-556.456	145.365	0.083	-0.112
-555.442	336.667	0.170	0.334
-554.427	47.341	-0.241	-0.227
-553.412	263.807	-0.134	-0.237
-552.398	77.843	-0.161	-0.174
-551.383	339.777	-0.166	0.327
-550.369	104.796	-0.048	-0.058
-549.354	62.958	0.098	0.100
-548.339	-179.957	0.093	0.002
-547.325	-99.788	0.338	0.086
-546.310	62.260	-0.129	0.131
-545.296	22.842	-0.205	-0.170
-544.281	17.824	-0.187	0.151
-543.266	-97.634	0.159	0.042
-542.252	177.325	0.144	-0.212
-541.237	-88.548	-0.237	-0.072
-540.223	151.702	0.074	0.102
-539.208	84.553	-0.063	-0.070
-538.193	628.182	-0.089	-0.228
-537.179	-75.818	0.365	0.131
-536.164	-68.768	0.297	0.116
-535.150	125.646	-0.097	0.124
-534.135	555.867	-0.072	0.176
-533.121	-61.308	-0.096	0.041
-532.106	382.439	-0.060	-0.126
-531.091	11.416	-0.293	0.227
-530.077	-106.495	0.328	0.074
-529.062	-115.895	-0.231	-0.044
-528.048	703.809	-0.035	-0.094
-527.033	-200.000	0.029	0.309
-526.018	-89.981	-0.122	0.036
-525.004	-167.866	-0.142	0.006
-523.989	800.000	-0.091	0.280
-522.975	136.994	0.255	-0.337
-521.960	-21.663	0.277	0.171
-520.945	370.915	0.089	-0.183
-519.931	-16.263	-0.204	-0.131
-518.916	-200.000	0.048	0.357
-517.902	-71.774	0.294	0.111
-516.887	-31.787	-0.050	-0.028
-515.872	-189.166	-0.487	0.006
-514.858	-123.305	0.155	0.025
-513.843	84.810	0.183	-0.203
-512.829	318.284	0.125	-0.240
-511.814	-108.400	0.447	0.097
-510.799	400.213	0.048	-0.101
-509.785	48.343	-0.168	-0.159
-508.770	-181.409	0.083	0.002
-507.756	411.842	-0.120	0.258
-506.741	2.729	0.059	0.043
-505.726	-200.000	-0.038	0.179
-504.712	-200.000	-0.044	-0.239
-503.697	-99.455	0.383	-0.098
-502.683	-117.865	0.290	-0.053
-501.668	-115.401	-0.088	0.017
-500.653	54.469	-0.101	-0.098
-499.639	-101.740	-0.163	0.040
-498.624	-32.238	-0.177	0.100
-497.610	-152.568	-0.245	0.018
-496.595	-200.000	-0.031	0.150
-495.581	498.826	0.088	-0.205
-494.566	800.000	-0.059	-0.256
-493.551	-55.616	0.142	0.064
-492.537	-200.000	-0.011	0.266
-491.522	-123.867	0.174	-0.028
-490.508	-115.829	0.214	0.041
-489.493	-90.617	-0.160	0.047
-488.478	36.774	0.297	0.265
-487.464	-197.905	0.282	-0.002
-486.449	-149.789	-0.245	0.019
-485.435	-31.215	-0.150	0.085
-484.420	-200.000	-0.020	-0.245
-483.405	-122.220	0.469	0.077
-482.391	404.219	-0.162	-0.344
-481.376	800.000	0.054	0.191
-480.362	-85.744	0.214	0.067
-479.347	12.424	0.139	0.108
-478.332	-156.452	0.361	0.023
-477.318	-200.000	-0.042	-0.190
-476.303	-15.236	0.042	-0.027
-475.289	-135.415	0.563	0.068
-474.274	-57.681	-0.288	0.127
-473.259	800.000	-0.064	-0.188
-472.245	334.807	-0.175	0.341
-471.230	-39.430	0.126	0.067
-470.216	113.616	0.068	0.084
-469.201	-84.288	-0.205	-0.065
-468.186	189.372	0.238	-0.360
-467.172	-200.000	-0.035	0.188
-466.157	-89.861	-0.267	-0.079
-465.143	-59.473	-0.315	0.137
-464.128	-1.244	-0.105	0.075
-463.113	627.498	0.085	0.217
-462.099	800.000	-0.132	-0.450
-461.084	236.556	0.076	-0.126
-460.070	-119.029	0.197	-0.035
-459.055	-200.000	-0.024	0.170
-458.040	-59.808	0.191	0.083
-457.026	-200.000	-0.005	-0.185
-456.011	-158.081	0.176	0.010
-454.997	114.574	-0.155	-0.191
-453.982	376.001	0.211	-0.435
-452.968	-139.266	-0.169	-0.018
-451.953	-94.214	0.393	-0.109
-450.938	-145.186	0.145	0.013
-449.924	800.000	-0.140	-0.432
-448.909	-200.000	0.002	-0.134
-447.895	-200.000	-0.037	0.277
-446.880	-30.489	-0.182	-0.104
-445.865	800.000	-0.059	-0.209
-444.851	-85.925	-0.204	-0.064
-443.836	-200.000	-0.015	-0.273
-442.822	14.755	0.143	0.113
-441.807	82.986	0.125	-0.137
-440.792	81.528	0.245	-0.267
-439.778	-200.000	-0.045	0.463
-438.763	-186.563	0.429	0.006
-437.749	-156.607	-0.347	0.022
-436.734	249.686	-0.059	0.100
-435.719	-23.291	-0.175	0.106
-434.705	-24.207	-0.311	0.187
-433.690	203.278	0.118	-0.184
-432.676	-25.013	-0.120	-0.072
-431.661	-41.176	0.121	-0.063
-430.646	-82.571	0.157	-0.051
-429.632	-200.000	-0.019	-0.119
-428.617	-77.951	-0.520	-0.181
-427.603	-39.478	-0.227	-0.120
-426.588	-65.171	-0.088	0.036
-425.573	-32.273	0.166	0.093
-424.559	-200.000	-0.002	-0.215
-423.544	-128.414	-0.326	0.047
-422.530	-54.364	0.288	-0.132
-421.515	671.949	-0.135	-0.353
-420.500	330.665	0.064	0.123
-419.486	23.312	-0.050	0.041
-418.471	-200.000	-0.032	-0.154
-417.457	413.233	0.148	-0.317
-416.442	497.019	-0.079	-0.184
-415.428	-66.845	-0.158	-0.063
-414.413	-105.427	-0.303	-0.069
-413.398	800.000	-0.041	-0.122
-412.384	58.505	0.101	-0.100
-411.369	-58.368	-0.271	0.119
-410.355	618.763	0.047	0.118
-409.340	-200.000	0.016	-0.239
-408.325	176.376	0.119	0.174
-407.311	-200.000	0.001	0.220
-406.296	-15.923	0.083	0.053
-405.282	-66.041	-0.059	-0.024
-404.267	800.000	0.069	0.206
-403.252	-200.000	0.001	-0.127
-402.238	-136.652	-0.215	-0.025
-401.223	-177.600	0.098	0.002
-400.209	14.438	0.138	-0.108
-399.194	-152.292	-0.198	-0.014
-398.179	27.899	0.246	-0.208
-397.165	136.166	0.088	-0.116
-396.150	-200.000	-0.011	-0.215
-395.136	-200.000	-0.004	-0.122
-394.121	-200.000	0.266	0.001
-393.106	109.864	0.177	0.214
-392.092	-43.606	-0.200	0.102
-391.077	-200.000	-0.510	0.001
-390.063	25.490	0.065	0.055
-389.048	12.311	-0.046	0.036
-388.033	-135.848	-0.049	0.006
-387.019	-157.930	0.153	0.009
-386.004	111.787	-0.073	-0.088
-384.990	-172.053	-0.274	0.009
-383.975	-44.042	-0.048	0.024
-382.960	-200.000	0.028	-0.130
-381.946	-200.000	0.022	-0.138
-380.931	-182.478	-0.223	-0.004
-379.917	-200.000	0.013	0.075
-378.902	279.185	-0.136	-0.245
-377.888	25.696	0.045	0.037
-376.873	-114.976	0.147	0.028
-375.858	57.217	0.102	-0.100
-374.844	535.982	0.054	0.130
-373.829	-48.162	-0.074	-0.036
-372.815	255.407	-0.143	0.247
-371.800	15.460	-0.139	0.110
-370.785	-34.642	-0.075	0.041
-369.771	-200.000	0.058	-0.263
-368.756	800.000	0.117	0.388
-367.742	551.866	-0.084	0.203
-366.727	800.000	-0.066	0.245
-365.712	-89.288	-0.075	-0.022
-364.698	116.751	0.156	0.193
-363.683	-37.033	0.365	0.197
-362.669	-149.151	-0.191	-0.015
-361.654	-200.000	0.020	0.093
-360.639	-54.504	-0.222	-0.101
-359.625	800.000	-0.010	-0.040
-358.610	220.995	0.107	0.173
-357.596	-55.573	-0.025	0.011
-356.581	30.580	0.130	0.112
-355.566	-200.000	-0.019	-0.254
-354.552	800.000	-0.070	-0.276
-353.537	8.378	0.201	-0.152
-352.523	10.272	-0.212	0.162
-351.508	37.696	0.294	0.262
-350.493	-156.915	-0.115	-0.007
-349.479	-172.187	-0.439	-0.014
-348.464	800.000	-0.054	-0.196
-347.450	95.223	0.106	0.121
-346.435	-134.835	0.200	0.024
-345.420	-200.000	-0.003	0.189
-344.406	800.000	0.077	0.247
-343.391	-200.000	-0.074	-0.358
-342.377	41.651	-0.125	-0.114
-341.362	184.150	0.081	0.120
-340.348	234.099	0.261	0.432
-339.333	340.537	0.072	0.142
-338.318	-180.887	0.300	0.006
-337.304	370.685	0.044	0.089
-336.289	-49.216	0.190	0.091
-335.275	-115.594	-0.138	-0.026
-334.260	132.333	0.199	-0.258
-333.245	-194.775	-0.256	0.002
-332.231	-200.000	0.009	-0.226
-331.216	-164.754	-0.494	-0.022
-330.202	-138.921	0.284	0.031
-329.187	237.227	0.202	-0.337
-328.172	-200.000	0.006	0.218
-327.158	332.156	0.157	0.305
-326.143	83.577	-0.181	-0.198
-325.129	800.000	0.048	-0.150
-324.114	-180.992	-0.060	0.001
-323.099	-108.130	0.176	0.038
-322.085	-200.000	-0.032	0.268
-321.070	-200.000	-0.009	-0.152
-320.056	320.409	0.001	-0.001
-319.041	24.297	-0.182	-0.151
-318.026	206.125	-0.074	-0.116
-317.012	123.392	0.165	0.207
-315.997	-92.046	-0.076	-0.022
-314.983	334.569	-0.113	0.219
-313.968	25.573	0.400	0.334
-312.953	16.035	0.194	0.153
-311.939	-200.000	-0.030	-0.148
-310.924	-59.529	0.353	0.152
-309.910	140.474	0.237	-0.314
-308.895	216.528	0.084	-0.134
-307.880	-26.223	0.367	-0.216
-306.866	-200.000	0.006	0.134
-305.851	207.846	0.024	-0.037
-304.837	119.480	0.117	-0.145
-303.822	800.000	-0.055	-0.196
-302.807	-153.872	-0.168	-0.011
-301.793	-148.947	0.336	0.027
-300.778	464.604	0.078	-0.175
-299.764	36.385	0.250	0.221
-298.749	-87.605	-0.326	-0.099
-297.735	-12.074	0.234	-0.154
-296.720	-200.000	0.022	0.163
-295.705	-200.000	-0.021	0.174
-294.691	800.000	0.006	0.016
-293.676	-200.000	0.003	0.114
-292.662	-112.800	-0.109	-0.022
-291.647	800.000	0.035	-0.146
-290.632	-136.387	-0.232	0.027
-289.618	34.307	0.285	-0.249
-288.603	300.695	0.145	0.269
-287.589	800.000	-0.079	0.273
-286.574	-200.000	0.011	-0.150
-285.559	18.144	-0.110	0.088
-284.545	-200.000	0.003	-0.197
-283.530	696.622	-0.127	-0.334
-282.516	-200.000	0.032	0.330
-281.501	17.280	0.207	0.165
-280.486	-32.909	0.076	0.042
-279.472	-191.953	-0.124	0.001
-278.457	-92.029	-0.178	-0.050
-277.443	-177.786	0.183	-0.004
-276.428	-98.410	-0.003	0.001
-275.413	-200.000	-0.008	-0.241
-274.399	670.061	0.102	0.265
-273.384	200.059	0.136	-0.208
-272.370	19.925	-0.216	-0.174
-271.355	-43.048	0.308	-0.156
-270.340	-200.000	-0.002	0.201
-269.326	-182.531	0.483	-0.009
-268.311	692.075	-0.128	-0.336
-267.297	800.000	0.104	0.332
-266.282	623.651	-0.089	-0.224
-265.267	10.562	-0.189	-0.144
-264.253	-200.000	-0.034	0.250
-263.238	-44.251	0.210	-0.105
-262.224	95.015	-0.244	-0.278
-261.209	11.233	-0.347	0.266
-260.195	-200.000	-0.002	0.095
-259.180	9.663	-0.255	-0.194
-258.165	800.000	0.052	-0.176
-257.151	-27.639	-0.266	-0.155
-256.136	-200.000	0.003	0.059
-255.122	-120.190	-0.233	-0.040
-254.107	214.756	-0.094	-0.150
-253.092	-118.578	-0.019	0.003
-252.078	37.128	0.287	-0.255
-251.063	800.000	0.181	-0.522
-250.049	786.989	0.054	-0.149
-249.034	-156.841	0.185	-0.011
-248.019	-61.190	-0.177	0.075
-247.005	-200.000	0.031	0.207
-245.990	262.790	0.102	-0.178
-244.976	-96.638	0.061	-0.016
-243.961	-130.385	0.114	0.015
-242.946	193.026	0.070	-0.105
-241.932	86.959	-0.291	0.322
-240.917	754.831	0.043	0.116
-239.903	198.841	-0.104	0.159
-238.888	-200.000	0.014	0.135
-237.873	-181.404	-0.253	-0.005
-236.859	212.305	0.091	-0.143
-235.844	-58.332	0.280	0.122
-234.830	-67.157	-0.264	-0.104
-233.815	29.501	0.316	0.269
-232.800	-200.000	0.027	0.122
-231.786	53.772	-0.202	-0.194
-230.771	0.071	0.098	0.070
-229.757	-72.555	0.110	0.041
-228.742	-200.000	0.060	0.389
-227.727	35.128	-0.179	0.157
-226.713	-36.302	-0.134	0.072
-225.698	800.000	0.084	-0.349
-224.684	558.523	-0.100	-0.241
-223.669	-17.983	-0.092	0.057
-222.655	800.000	-0.007	0.024
-221.640	110.927	0.069	0.083
-220.625	-200.000	-0.020	0.268
-219.611	457.937	0.007	0.016
-218.596	-158.251	-0.178	-0.010
-217.582	-184.841	-0.089	-0.001
-216.567	-200.000	0.017	0.331
-215.552	80.920	-0.140	-0.151
-214.538	448.314	-0.078	0.171
-213.523	-10.608	-0.052	0.034
-212.509	-58.034	0.190	0.083
-211.494	68.565	-0.300	-0.307
-210.479	150.668	-0.125	0.169
-209.465	-137.830	0.197	0.022
-208.450	-99.834	-0.109	0.027
-207.436	-38.897	0.140	-0.073
-206.421	-200.000	-0.056	-0.267
-205.406	-200.000	-0.008	-0.336
-204.392	800.000	0.127	0.370
-203.377	-200.000	-0.087	-0.454
-202.363	201.510	-0.100	0.154
-201.348	-61.603	0.117	-0.049
-200.333	-48.207	-0.348	0.168
-199.319	-106.414	0.529	0.118
-198.304	99.162	-0.222	-0.257
-197.290	-200.000	-0.048	0.255
-196.275	800.000	-0.063	0.232
-195.260	167.773	-0.067	0.095
-194.246	-38.061	0.058	-0.031
-193.231	-200.000	0.028	-0.219
-192.217	489.990	-0.105	0.240
-191.202	-63.344	0.229	0.094
-190.187	-65.798	0.141	-0.056
-189.173	800.000	-0.107	-0.298
-188.158	-156.945	0.283	-0.017
-187.144	-178.362	0.220	0.005
-186.129	-154.598	0.100	-0.007
-185.114	-18.863	-0.251	-0.156
-184.100	-54.213	-0.115	-0.052
-183.085	421.323	-0.077	0.164
-182.071	390.676	0.062	0.129
-181.056	123.781	0.036	-0.046
-180.042	800.000	-0.113	-0.430
-179.027	486.789	0.123	0.280
-178.012	95.346	0.078	0.088
-176.998	-200.000	0.011	-0.465
-175.983	77.362	0.089	0.095
-174.969	-200.000	0.005	0.527
-173.954	-116.023	0.156	0.029
-172.939	-200.000	0.016	0.150
-171.925	22.210	-0.228	0.186
-170.910	-61.783	-0.122	-0.051
-169.896	-33.194	-0.117	-0.064
-168.881	54.697	-0.125	0.120
-167.866	241.828	-0.088	-0.146
-166.852	800.000	-0.105	0.345
-165.837	-200.000	-0.071	0.401
-164.823	800.000	0.016	0.065
-163.808	-200.000	-0.007	-0.164
-162.793	-78.991	0.142	0.048
-161.779	800.000	-0.100	0.337
-160.764	-151.086	0.369	0.028
-159.750	181.378	-0.131	0.192
-158.735	-122.812	0.068	-0.011
-157.720	-127.647	-0.444	-0.064
-156.706	4.169	0.050	-0.037
-155.691	267.804	-0.027	0.047
-154.677	-51.294	-0.152	0.071
-153.662	337.398	-0.070	0.136
-152.647	5.807	-0.058	-0.042
-151.633	-22.939	0.165	0.099
-150.618	629.309	-0.104	0.263
-149.604	-40.088	0.225	0.117
-148.589	128.054	0.207	0.263
-147.574	543.321	-0.042	-0.099
-146.560	-5.993	0.148	0.101
-145.545	-96.553	0.222	-0.058
-144.531	-70.979	0.233	-0.087
-143.516	18.150	0.360	0.286
-142.502	58.247	0.141	-0.137
-141.487	11.609	0.181	0.139
-140.472	258.666	-0.023	0.040
-139.458	405.129	0.057	-0.119
-138.443	-39.614	-0.337	-0.176
-137.429	800.000	-0.104	-0.401
-136.414	264.510	-0.119	0.206
-135.399	-131.214	-0.225	-0.030
-134.385	-200.000	-0.004	0.046
-133.370	30.411	0.203	-0.172
-132.356	50.507	-0.200	-0.188
-131.341	-200.000	-0.006	-0.063
-130.326	368.572	0.153	0.309
-129.312	43.112	0.235	-0.213
-128.297	-98.175	-0.257	-0.066
-127.283	800.000	0.010	0.031
-126.268	37.439	0.200	0.177
-125.253	800.000	0.078	0.253
-124.239	-52.992	0.185	-0.085
-123.224	328.773	-0.160	-0.306
-122.210	-85.698	-0.467	-0.144
-121.195	-51.070	0.164	0.077
