DTS Sentinel unit serial number:	SN413079Multiplexer serial number:	ORYXHardware model number:	OX4-SRSoftware version number:	ORYX F/W v4.00 Oryx Data Collector v3.7.2.0data status	okinstallation	princeton_trtdifferential loss correction	single-endedforward channel	channel 3reverse channel	N/Adate	2019/09/11time	20:10:11forward acquisition time	60.00reverse acquisition time	0.00gamma	496.2192k internal	0.2301k external	0.2301temperature offset calibration	1.0022default loss term (dB/km)	0.3790temperature slope calibration	1.0000multiplexer offset coefficient	1.0000multiplexer slope coefficient	1.0000fibre end	0.00T internal ref (°C)	38.41T ext. ref 1 (°C)	1.42T ext. ref 2 (°C)	31.90length (m)	temperature (°C)	Stokes	anti-Stokes-747.200	-127.386	0.146	-0.022
-746.185	-200.000	-0.036	-0.340
-745.171	-200.000	0.047	0.258
-744.156	225.786	-0.210	0.347
-743.142	-136.855	-0.263	0.031
-742.127	340.301	-0.098	0.194
-741.112	144.746	0.082	0.112
-740.098	332.443	-0.117	0.231
-739.083	-159.565	0.197	0.011
-738.069	33.650	-0.429	0.380
-737.054	-54.206	-0.226	-0.105
-736.039	28.479	-0.161	0.139
-735.025	79.629	0.213	-0.233
-734.010	260.955	0.141	-0.248
-732.996	383.922	-0.018	-0.038
-731.981	224.305	-0.128	-0.210
-730.966	800.000	-0.161	-0.453
-729.952	-156.634	-0.363	-0.023
-728.937	800.000	0.171	-0.536
-727.923	-200.000	0.013	-0.192
-726.908	-12.796	-0.100	-0.066
-725.894	55.291	0.088	0.087
-724.879	-200.000	-0.060	-0.388
-723.864	235.986	-0.045	-0.076
-722.850	266.921	-0.059	-0.106
-721.835	5.060	0.265	0.199
-720.821	-35.817	0.266	0.147
-719.806	48.076	0.361	0.344
-718.791	-200.000	-0.009	-0.052
-717.777	-200.000	-0.040	0.203
-716.762	-200.000	-0.004	0.151
-715.748	-33.907	-0.178	0.100
-714.733	-50.842	-0.073	-0.035
-713.718	-128.517	-0.294	0.042
-712.704	214.874	-0.069	-0.112
-711.689	202.779	-0.050	0.079
-710.675	-105.978	0.327	-0.075
-709.660	33.985	0.035	-0.031
-708.645	66.440	-0.284	0.293
-707.631	-16.653	-0.150	0.097
-706.616	89.671	0.144	0.164
-705.602	-114.701	-0.368	-0.072
-704.587	79.127	-0.233	0.254
-703.572	-200.000	-0.046	-0.246
-702.558	800.000	-0.063	-0.266
-701.543	-200.000	-0.042	-0.361
-700.529	49.955	-0.181	0.174
-699.514	-200.000	-0.013	-0.098
-698.499	-50.263	-0.378	0.182
-697.485	7.374	-0.105	-0.080
-696.470	145.616	0.216	0.294
-695.456	410.443	0.161	-0.347
-694.441	297.652	0.188	0.351
-693.426	134.055	0.169	-0.223
-692.412	24.337	-0.062	0.052
-691.397	-200.000	-0.024	-0.288
-690.383	-14.328	-0.061	-0.040
-689.368	-113.539	-0.287	-0.057
-688.354	-82.193	-0.234	0.077
-687.339	-97.268	-0.293	-0.078
-686.324	-180.955	0.021	-0.000
-685.310	-40.938	-0.296	-0.156
-684.295	-21.094	-0.076	-0.047
-683.281	-200.000	0.039	-0.183
-682.266	-52.140	0.288	-0.136
-681.251	-140.957	-0.219	0.023
-680.237	-62.102	0.186	-0.079
-679.222	101.186	-0.093	0.111
-678.208	48.093	0.090	0.086
-677.193	-90.713	-0.141	-0.041
-676.178	-77.768	-0.020	0.007
-675.164	-96.433	-0.083	-0.022
-674.149	458.268	0.103	-0.233
-673.135	50.865	-0.045	-0.043
-672.120	23.361	-0.100	0.084
-671.105	800.000	-0.066	-0.219
-670.091	-58.764	0.178	0.078
-669.076	-19.208	-0.227	-0.143
-668.062	14.504	0.151	-0.120
-667.047	800.000	-0.054	0.167
-666.032	-108.160	0.125	-0.028
-665.018	-28.108	-0.226	0.133
-664.003	27.256	-0.277	-0.237
-662.989	227.028	-0.164	-0.271
-661.974	-34.825	-0.066	0.037
-660.959	148.853	0.070	0.097
-659.945	404.202	0.093	0.200
-658.930	0.737	-0.251	-0.182
-657.916	175.156	0.084	0.123
-656.901	-2.855	-0.132	0.094
-655.886	73.182	-0.238	-0.253
-654.872	99.461	0.152	0.178
-653.857	-200.000	0.026	-0.316
-652.843	-161.781	-0.206	-0.011
-651.828	232.983	-0.042	0.070
-650.814	46.566	-0.199	-0.188
-649.799	-121.251	-0.332	0.056
-648.784	800.000	0.012	0.038
-647.770	252.797	0.226	0.392
-646.755	479.840	0.112	0.259
-645.741	-200.000	-0.032	0.271
-644.726	-200.000	-0.006	-0.174
-643.711	386.987	-0.092	-0.194
-642.697	-150.828	-0.172	0.013
-641.682	-200.000	-0.034	0.158
-640.668	14.533	0.178	0.141
-639.653	-26.200	0.250	-0.149
-638.638	-200.000	0.009	0.086
-637.624	-40.642	0.130	0.068
-636.609	-200.000	0.021	-0.097
-635.595	183.011	-0.052	-0.078
-634.580	-74.512	-0.534	0.195
-633.565	-137.445	-0.303	-0.035
-632.551	-35.832	0.178	-0.098
-631.536	-110.860	0.179	0.037
-630.522	800.000	0.076	-0.229
-629.507	-161.231	-0.177	0.009
-628.492	-160.251	0.291	-0.016
-627.478	-3.805	0.175	-0.123
-626.463	376.044	0.112	0.232
-625.449	373.162	0.117	-0.242
-624.434	346.964	-0.052	-0.103
-623.419	112.012	0.136	0.167
-622.405	587.129	-0.101	0.253
-621.390	-72.926	0.049	0.018
-620.376	-189.095	-0.252	-0.003
-619.361	-92.172	-0.387	0.111
-618.346	27.118	-0.123	-0.105
-617.332	-200.000	-0.020	0.241
-616.317	-106.565	-0.255	0.058
-615.303	-115.401	-0.033	0.006
-614.288	-200.000	-0.015	-0.219
-613.273	800.000	-0.010	0.039
-612.259	-69.383	-0.237	-0.092
-611.244	66.655	0.206	-0.212
-610.230	-79.373	-0.266	-0.091
-609.215	-118.779	0.193	0.034
-608.201	88.285	0.291	-0.327
-607.186	178.146	0.222	-0.328
-606.171	-146.032	-0.534	-0.048
-605.157	-55.557	-0.050	-0.023
-604.142	-200.000	0.018	0.219
-603.128	583.661	-0.095	-0.235
-602.113	36.511	-0.410	-0.366
-601.098	554.255	0.036	0.088
-600.084	-200.000	-0.044	-0.412
-599.069	-200.000	-0.021	-0.359
-598.055	-148.525	-0.109	-0.009
-597.040	-58.642	-0.347	0.152
-596.025	431.847	0.073	0.161
-595.011	170.518	-0.191	-0.277
-593.996	94.693	-0.183	0.210
-592.982	272.680	0.130	-0.233
-591.967	-71.972	-0.608	0.229
-590.952	651.891	-0.188	0.487
-589.938	100.599	0.139	-0.163
-588.923	98.864	-0.151	0.176
-587.909	147.748	0.045	0.062
-586.894	-112.265	0.239	0.049
-585.879	-48.649	-0.158	0.077
-584.865	24.010	-0.041	-0.034
-583.850	-6.446	0.157	0.108
-582.836	-200.000	-0.047	0.316
-581.821	-200.000	-0.008	-0.154
-580.806	22.427	0.123	0.101
-579.792	-87.536	0.373	0.114
-578.777	-200.000	-0.039	0.265
-577.763	-200.000	0.003	-0.229
-576.748	-107.021	-0.131	0.029
-575.733	800.000	-0.117	-0.396
-574.719	-200.000	0.057	0.317
-573.704	302.484	0.122	-0.228
-572.690	-80.034	-0.079	0.027
-571.675	-54.511	-0.287	-0.132
-570.661	-39.541	-0.245	0.130
-569.646	800.000	-0.123	-0.376
-568.631	123.979	0.169	0.215
-567.617	-22.180	-0.180	-0.110
-566.602	-138.916	0.174	0.019
-565.588	-200.000	-0.004	0.159
-564.573	47.305	-0.319	0.300
-563.558	-124.857	0.301	-0.047
-562.544	71.779	0.159	0.167
-561.529	146.219	0.125	-0.170
-560.515	402.244	0.070	-0.149
-559.500	800.000	0.054	-0.168
-558.485	-70.653	0.076	0.029
-557.471	-30.581	-0.357	-0.204
-556.456	74.919	-0.133	-0.142
-555.442	105.883	-0.149	-0.179
-554.427	800.000	-0.150	-0.476
-553.412	-68.926	0.174	0.068
-552.398	159.698	-0.070	0.099
-551.383	-200.000	0.009	-0.073
-550.369	-58.289	0.135	0.059
-549.354	-77.999	-0.098	0.034
-548.339	-104.754	0.190	-0.044
-547.325	70.469	-0.093	-0.098
-546.310	-76.455	0.382	0.136
-545.296	-65.554	0.248	-0.100
-544.281	800.000	-0.065	0.276
-543.266	-106.547	0.155	-0.035
-542.252	-5.340	0.244	-0.169
-541.237	492.896	0.226	0.525
-540.223	-113.039	0.350	0.070
-539.208	3.284	0.340	0.250
-538.193	67.241	0.242	-0.249
-537.179	-192.908	0.140	-0.001
-536.164	76.620	0.066	0.070
-535.150	-200.000	0.000	0.026
-534.135	-200.000	0.033	0.181
-533.121	-200.000	-0.035	0.357
-532.106	-93.115	0.234	-0.066
-531.091	312.385	-0.076	-0.143
-530.077	31.689	-0.232	-0.202
-529.062	198.632	-0.084	0.130
-528.048	-101.683	0.428	0.105
-527.033	-200.000	0.011	-0.325
-526.018	-123.349	-0.048	-0.008
-525.004	66.985	-0.093	0.096
-523.989	-200.000	0.011	0.068
-522.975	-16.320	-0.175	-0.113
-521.960	-200.000	-0.012	-0.393
-520.945	-147.768	-0.123	0.010
-519.931	32.334	-0.247	-0.216
-518.916	800.000	-0.052	-0.166
-517.902	-200.000	0.046	0.288
-516.887	-200.000	0.056	0.379
-515.872	138.098	-0.230	-0.304
-514.858	-60.617	-0.063	0.027
-513.843	-117.583	0.146	-0.027
-512.829	356.832	-0.140	0.282
-511.814	-160.557	0.104	-0.006
-510.799	800.000	0.033	-0.129
-509.785	12.699	-0.082	-0.064
-508.770	-200.000	0.022	0.117
-507.756	-71.288	-0.087	-0.033
-506.741	-200.000	-0.008	-0.119
-505.726	595.369	-0.071	-0.177
-504.712	133.792	0.085	-0.111
-503.697	72.737	0.085	-0.089
-502.683	86.093	0.200	-0.222
-501.668	339.961	0.049	0.096
-500.653	167.155	-0.205	-0.294
-499.639	-62.131	-0.155	-0.065
-498.624	-127.167	-0.172	0.025
-497.610	800.000	0.029	-0.104
-496.595	800.000	0.041	-0.134
-495.581	113.110	-0.053	-0.065
-494.566	-200.000	0.007	0.277
-493.551	-125.961	0.406	0.062
-492.537	69.976	-0.132	-0.137
-491.522	-161.566	0.126	-0.007
-490.508	-102.993	0.311	0.074
-489.493	800.000	-0.094	-0.401
-488.478	588.942	0.046	0.114
-487.464	467.648	0.153	0.346
-486.449	-57.258	0.124	0.055
-485.435	-200.000	-0.046	-0.279
-484.420	-96.807	0.091	0.024
-483.405	-163.119	0.198	-0.010
-482.391	167.959	0.136	0.196
-481.376	-159.749	-0.216	0.012
-480.362	30.503	-0.332	-0.287
-479.347	120.460	0.190	-0.238
-478.332	-148.304	0.029	0.002
-477.318	224.864	-0.188	-0.306
-476.303	-91.632	0.458	-0.131
-475.289	278.277	0.061	-0.109
-474.274	9.760	-0.179	-0.137
-473.259	34.374	0.292	0.257
-472.245	-107.039	0.133	0.030
-471.230	137.219	-0.177	-0.233
-470.216	-200.000	-0.060	0.309
-469.201	82.978	-0.412	0.452
-468.186	-36.407	-0.290	0.157
-467.172	-97.479	0.155	-0.041
-466.157	-134.940	0.079	-0.010
-465.143	-200.000	-0.027	-0.264
-464.128	-89.471	0.099	0.029
-463.113	680.359	-0.042	-0.109
-462.099	133.267	0.167	-0.218
-461.084	800.000	-0.149	-0.627
-460.070	132.641	-0.048	0.063
-459.055	335.686	0.014	-0.027
-458.040	800.000	-0.046	-0.176
-457.026	-1.522	0.100	0.071
-456.011	-130.259	-0.282	0.039
-454.997	-14.431	-0.105	-0.068
-453.982	-200.000	-0.014	-0.357
-452.968	520.099	0.133	0.313
-451.953	140.906	-0.132	-0.175
-450.938	32.674	0.189	0.165
-449.924	63.406	0.172	-0.174
-448.909	193.721	0.175	-0.267
-447.895	-200.000	-0.005	-0.210
-446.880	-75.741	-0.233	-0.083
-445.865	-200.000	-0.018	-0.135
-444.851	-140.399	-0.381	-0.040
-443.836	-200.000	0.010	0.049
-442.822	-97.466	-0.091	0.024
-441.807	-200.000	-0.035	0.353
-440.792	-200.000	-0.031	-0.392
-439.778	31.557	-0.082	-0.071
-438.763	-112.380	0.181	0.036
-437.749	-119.886	-0.056	-0.010
-436.734	-200.000	-0.038	-0.194
-435.719	406.412	-0.191	0.407
-434.705	24.496	-0.115	0.096
-433.690	-200.000	-0.010	-0.164
-432.676	479.095	-0.104	-0.238
-431.661	-96.907	-0.078	0.021
-430.646	-200.000	0.044	-0.239
-429.632	-30.105	0.097	0.056
-428.617	-200.000	-0.004	-0.090
-427.603	800.000	-0.054	0.196
-426.588	135.287	0.098	-0.129
-425.573	-154.468	-0.353	-0.024
-424.559	800.000	-0.098	0.292
-423.544	800.000	-0.010	0.035
-422.530	-200.000	-0.062	-0.280
-421.515	-200.000	-0.050	0.274
-420.500	40.589	-0.185	0.167
-419.486	-164.382	0.220	0.010
-418.471	-200.000	0.009	0.182
-417.457	-200.000	0.057	0.392
-416.442	-152.458	-0.337	0.024
-415.428	160.541	0.093	0.130
-414.413	-129.245	0.245	0.034
-413.398	-200.000	-0.014	-0.138
-412.384	56.050	0.216	-0.211
-411.369	-141.118	0.218	0.022
-410.355	148.947	0.143	0.195
-409.340	238.769	0.037	0.062
-408.325	-173.915	0.225	0.007
-407.311	62.185	0.140	-0.140
-406.296	-151.219	0.465	0.035
-405.282	-48.743	0.362	0.175
-404.267	281.368	0.148	0.267
-403.252	-137.252	0.177	0.020
-402.238	-200.000	0.063	0.283
-401.223	-49.169	0.185	-0.089
-400.209	800.000	-0.050	-0.177
-399.194	22.727	0.275	0.226
-398.179	173.045	0.194	0.281
-397.165	267.456	-0.225	0.397
-396.150	-140.111	0.094	-0.010
-395.136	800.000	0.015	0.053
-394.121	120.962	-0.112	0.140
-393.106	214.433	0.113	0.181
-392.092	93.041	0.122	0.139
-391.077	511.962	-0.039	0.092
-390.063	-200.000	-0.005	0.083
-389.048	-166.416	0.378	0.016
-388.033	-141.464	-0.257	0.026
-387.019	-200.000	0.004	-0.234
-386.004	-105.669	-0.214	0.049
-384.990	-58.078	0.082	-0.036
-383.975	290.392	-0.172	0.314
-382.960	-200.000	-0.039	0.205
-381.946	89.466	-0.039	-0.044
-380.931	104.012	0.053	-0.062
-379.917	-27.504	0.128	-0.075
-378.902	800.000	0.059	-0.180
-377.888	151.562	0.113	0.155
-376.873	800.000	-0.050	0.160
-375.858	6.956	-0.046	0.034
-374.844	-41.845	0.220	-0.113
-373.829	-86.299	-0.242	0.075
-372.815	149.472	0.158	0.216
-371.800	-99.265	0.224	0.057
-370.785	108.124	0.287	-0.344
-369.771	-95.475	-0.249	0.067
-368.756	800.000	-0.083	-0.234
-367.742	-200.000	0.004	0.096
-366.727	779.730	0.121	0.332
-365.712	-200.000	-0.015	0.265
-364.698	301.970	0.095	0.177
-363.683	800.000	0.026	0.083
-362.669	61.908	0.096	-0.096
-361.654	169.435	0.322	-0.461
-360.639	175.369	-0.069	0.101
-359.625	-200.000	-0.012	-0.103
-358.610	-153.726	-0.332	-0.023
-357.596	85.793	-0.101	-0.112
-356.581	182.912	-0.159	0.236
-355.566	-200.000	-0.043	-0.230
-354.552	-73.588	-0.034	0.012
-353.537	-41.742	-0.422	-0.217
-352.523	254.174	-0.096	0.165
-351.508	-119.409	-0.129	0.023
-350.493	-26.494	-0.097	0.057
-349.479	-200.000	0.091	0.461
-348.464	-92.059	0.390	-0.111
-347.450	635.722	-0.046	-0.116
-346.435	-200.000	-0.021	0.252
-345.420	-200.000	0.026	-0.250
-344.406	-200.000	-0.027	-0.272
-343.391	310.583	0.025	-0.047
-342.377	-90.003	-0.247	-0.072
-341.362	16.741	-0.203	0.162
-340.348	-54.443	0.014	0.006
-339.333	-50.332	-0.089	-0.042
-338.318	56.076	0.260	0.253
-337.304	10.941	-0.079	-0.060
-336.289	-161.599	-0.186	-0.010
-335.275	10.401	0.267	-0.204
-334.260	525.253	0.148	-0.349
-333.245	204.879	-0.070	-0.108
-332.231	-121.528	-0.166	0.028
-331.216	-0.769	0.243	0.173
-330.202	-36.697	0.165	0.089
-329.187	-124.084	0.201	0.032
-328.172	202.902	0.101	-0.157
-327.158	-23.036	0.063	0.038
-326.143	707.514	-0.145	0.384
-325.129	275.001	-0.208	0.370
-324.114	-161.847	0.270	-0.014
-323.099	-106.020	0.080	0.018
-322.085	272.668	0.151	0.267
-321.070	-200.000	-0.045	-0.213
-320.056	-200.000	0.010	0.103
-319.041	-71.844	-0.121	0.045
-318.026	156.129	0.078	0.107
-317.012	-8.840	-0.250	-0.168
-315.997	-169.054	-0.359	0.013
-314.983	271.424	-0.095	0.169
-313.968	-200.000	0.008	-0.236
-312.953	378.131	0.131	0.268
-311.939	-144.321	0.225	-0.021
-310.924	170.155	-0.140	-0.200
-309.910	-200.000	0.015	0.158
-308.895	-200.000	0.016	-0.133
-307.880	-200.000	-0.002	-0.269
-306.866	-200.000	0.002	-0.020
-305.851	-138.729	0.186	-0.020
-304.837	-165.379	-0.220	0.010
-303.822	500.114	0.064	0.149
-302.807	-119.729	0.343	-0.059
-301.793	-200.000	-0.018	0.113
-300.778	-81.144	-0.117	-0.039
-299.764	-36.286	-0.067	-0.036
-298.749	-200.000	-0.006	0.118
-297.735	105.083	0.038	-0.045
-296.720	211.946	-0.207	0.326
-295.705	492.235	0.024	-0.055
-294.691	367.147	-0.116	-0.234
-293.676	53.366	0.096	0.092
-292.662	90.725	0.033	-0.037
-291.647	-200.000	-0.044	-0.200
-290.632	-2.126	-0.355	-0.250
-289.618	-95.432	0.334	0.090
-288.603	800.000	-0.071	-0.201
-287.589	-125.092	-0.357	0.055
-286.574	-104.671	-0.178	0.041
-285.559	-140.607	0.061	0.006
-284.545	-27.187	-0.211	-0.123
-283.530	-70.053	-0.217	-0.083
-282.516	71.707	-0.089	0.092
-281.501	-43.214	0.207	-0.105
-280.486	-63.174	0.332	0.137
-279.472	293.446	0.069	0.125
-278.457	-154.775	-0.052	0.003
-277.443	-24.204	0.105	0.062
-276.428	-11.467	0.089	0.059
-275.413	-181.561	0.081	-0.002
-274.399	800.000	0.076	0.233
-273.384	-200.000	0.035	0.219
-272.370	-178.563	0.045	0.001
-271.355	800.000	-0.102	-0.299
-270.340	189.589	0.142	-0.213
-269.326	-86.110	-0.282	-0.087
-268.311	134.130	0.234	-0.303
-267.297	-180.130	-0.124	-0.003
-266.282	248.078	0.074	0.125
-265.267	696.842	0.152	-0.400
-264.253	800.000	-0.043	-0.162
-263.238	-168.036	0.059	-0.002
-262.224	75.401	0.109	0.116
-261.209	116.773	-0.172	0.211
-260.195	-95.253	-0.361	0.097
-259.180	-24.913	0.088	0.052
-258.165	-200.000	0.001	0.242
-257.151	581.509	-0.059	0.145
-256.136	77.830	-0.133	-0.142
-255.122	-38.742	0.129	-0.068
-254.107	-26.919	-0.351	0.205
-253.092	151.119	-0.122	0.166
-252.078	-92.665	-0.386	0.108
-251.063	147.223	-0.239	-0.322
-250.049	47.782	-0.105	-0.098
-249.034	80.216	0.081	0.087
-248.019	-97.801	0.301	0.078
-247.005	299.332	-0.105	-0.192
-245.990	-200.000	0.001	-0.006
-244.976	800.000	0.090	-0.374
-243.961	212.773	-0.021	0.034
-242.946	13.772	0.214	-0.166
-241.932	-90.911	0.070	-0.020
-240.917	85.971	0.189	0.208
-239.903	-181.277	-0.187	-0.004
-238.888	94.465	0.049	-0.055
-237.873	-144.033	0.267	0.025
-236.859	293.925	-0.115	0.209
-235.844	-14.795	-0.157	-0.101
-234.830	800.000	0.060	0.224
-233.815	312.638	-0.090	0.169
-232.800	-80.556	-0.106	-0.035
-231.786	197.122	0.079	-0.121
-230.771	-77.451	0.128	-0.044
-229.757	-42.258	-0.386	-0.197
-228.742	119.187	-0.191	0.236
-227.727	-127.996	0.256	-0.037
-226.713	-189.889	-0.310	-0.004
-225.698	350.278	0.100	-0.198
-224.684	-65.781	-0.153	0.061
-223.669	168.937	-0.118	-0.168
-222.655	444.762	0.071	0.155
-221.640	-200.000	-0.012	-0.149
-220.625	-200.000	0.004	0.251
-219.611	245.219	0.137	0.230
-218.596	800.000	-0.037	-0.139
-217.582	-9.596	0.184	-0.123
-216.567	52.706	0.105	-0.101
-215.552	350.160	-0.089	0.175
-214.538	213.680	0.101	0.159
-213.523	414.708	-0.033	0.070
-212.509	116.070	0.205	0.251
-211.494	-45.619	-0.346	0.171
-210.479	83.553	-0.153	-0.166
-209.465	-69.602	0.121	-0.046
-208.450	16.132	0.085	0.067
-207.436	-4.340	0.233	0.161
-206.421	-92.494	0.133	0.037
-205.406	-200.000	0.012	0.172
-204.392	-31.790	-0.017	0.010
-203.377	-46.345	0.116	0.057
-202.363	-114.433	-0.297	-0.057
-201.348	-60.357	0.271	0.115
-200.333	57.464	-0.124	-0.121
-199.319	47.416	-0.061	0.057
-198.304	-200.000	-0.027	0.372
-197.290	-200.000	-0.045	0.323
-196.275	-25.202	-0.281	0.166
-195.260	-61.618	-0.221	-0.092
-194.246	-67.494	0.333	0.130
-193.231	700.069	0.105	-0.274
-192.217	-166.903	0.234	-0.010
-191.202	-22.819	-0.091	0.055
-190.187	16.745	0.357	-0.282
-189.173	25.051	0.126	0.104
-188.158	-77.165	-0.089	0.031
-187.144	743.099	-0.098	-0.264
-186.129	-200.000	-0.038	-0.394
-185.114	505.990	0.090	0.209
-184.100	167.588	0.235	0.333
-183.085	-23.368	-0.312	-0.187
-182.071	80.303	-0.202	-0.217
-181.056	-88.973	-0.059	-0.017
-180.042	-140.993	-0.147	-0.015
-179.027	228.563	0.182	0.296
-178.012	-56.846	-0.379	-0.167
-176.998	800.000	-0.037	0.158
-175.983	-115.616	0.362	-0.068
-174.969	-200.000	-0.006	-0.046
-173.954	-191.020	-0.362	0.004
-172.939	-25.455	-0.227	-0.134
-171.925	-18.340	-0.196	-0.122
-170.910	-52.489	0.457	0.210
-169.896	-148.774	0.328	-0.026
-168.881	-108.547	0.086	0.018
-167.866	-140.265	-0.349	0.036
-166.852	-88.612	0.490	0.145
-165.837	96.482	0.147	-0.168
-164.823	19.077	0.022	-0.017
-163.808	-124.687	-0.140	0.022
-162.793	-91.898	0.379	0.107
-161.779	-38.982	-0.118	0.062
-160.764	-200.000	-0.011	-0.070
-159.750	75.775	-0.240	-0.253
-158.735	-89.377	-0.536	-0.157
-157.720	116.619	0.173	0.212
-156.706	401.593	-0.137	-0.286
-155.691	-42.599	0.374	0.190
-154.677	-168.022	-0.191	0.007
-153.662	126.236	0.141	-0.177
-152.647	-76.480	0.258	0.090
-151.633	211.652	-0.061	-0.095
-150.618	800.000	0.080	-0.242
-149.604	-200.000	0.021	-0.105
-148.589	691.938	-0.145	0.379
-147.574	-53.792	0.208	-0.094
-146.560	-32.264	0.119	-0.066
-145.545	177.823	0.160	0.232
-144.531	727.344	0.064	-0.170
-143.516	-82.723	-0.199	-0.064
-142.502	39.308	-0.094	-0.084
-141.487	-200.000	0.018	0.233
-140.472	291.699	0.144	0.262
-139.458	-200.000	-0.021	0.212
-138.443	-111.164	0.159	-0.032
-137.429	-200.000	0.051	-0.348
-136.414	800.000	-0.116	0.467
-135.399	-121.844	-0.309	-0.051
-134.385	-87.161	0.351	-0.106
-133.370	-79.234	0.130	0.044
-132.356	-138.342	0.252	-0.028
-131.341	-200.000	0.057	0.277
-130.326	-26.478	0.143	0.084
-129.312	-6.551	-0.315	0.213
-128.297	595.045	0.031	0.077
-127.283	581.821	0.107	0.261
-126.268	-200.000	-0.048	0.287
-125.253	97.621	-0.142	-0.163
-124.239	-200.000	-0.032	-0.217
-123.224	221.703	-0.185	0.295
-122.210	409.364	0.175	-0.368
