DTS Sentinel unit serial number:	SN413079Multiplexer serial number:	ORYXHardware model number:	OX4-SRSoftware version number:	ORYX F/W v4.00 Oryx Data Collector v3.7.2.0data status	okinstallation	princeton_trtdifferential loss correction	single-endedforward channel	channel 3reverse channel	N/Adate	2019/09/11time	02:10:11forward acquisition time	60.00reverse acquisition time	0.00gamma	496.2192k internal	0.2332k external	0.2332temperature offset calibration	0.9914default loss term (dB/km)	0.3790temperature slope calibration	1.0000multiplexer offset coefficient	1.0000multiplexer slope coefficient	1.0000fibre end	0.00T internal ref (°C)	29.19T ext. ref 1 (°C)	-0.29T ext. ref 2 (°C)	23.24length (m)	temperature (°C)	Stokes	anti-Stokes-747.200	-200.000	0.015	0.234
-746.185	62.323	-0.199	0.200
-745.171	-57.252	-0.192	-0.085
-744.156	800.000	0.071	0.229
-743.142	-62.118	0.090	0.038
-742.127	249.127	-0.076	0.129
-741.112	-3.705	0.202	-0.141
-740.098	-200.000	-0.018	-0.265
-739.083	429.292	0.208	0.452
-738.069	312.903	-0.063	-0.119
-737.054	64.325	-0.054	-0.055
-736.039	-126.835	0.092	-0.014
-735.025	-92.443	-0.062	0.017
-734.010	800.000	0.019	0.057
-732.996	220.582	-0.118	-0.190
-731.981	-85.229	-0.107	0.034
-730.966	137.769	-0.087	0.114
-729.952	167.794	0.075	-0.108
-728.937	126.399	0.076	-0.097
-727.923	-121.710	-0.201	0.033
-726.908	-0.770	-0.093	0.066
-725.894	-51.427	-0.048	-0.023
-724.879	-7.631	0.225	0.153
-723.864	116.066	-0.088	-0.108
-722.850	800.000	0.008	-0.034
-721.835	61.216	-0.290	-0.290
-720.821	-200.000	-0.009	-0.101
-719.806	62.839	0.071	0.072
-718.791	800.000	0.099	-0.373
-717.777	-101.160	-0.332	-0.082
-716.762	-23.687	-0.342	0.206
-715.748	432.088	0.088	-0.191
-714.733	514.621	-0.132	-0.310
-713.718	41.832	-0.280	-0.255
-712.704	-43.257	-0.166	0.084
-711.689	499.931	0.059	0.137
-710.675	56.121	-0.183	-0.179
-709.660	254.681	-0.034	-0.058
-708.645	-135.354	-0.099	-0.012
-707.631	-200.000	0.010	0.224
-706.616	-15.306	-0.342	-0.220
-705.602	-171.205	0.347	-0.012
-704.587	289.501	-0.100	-0.182
-703.572	-200.000	0.037	0.440
-702.558	86.210	-0.152	-0.168
-701.543	800.000	0.048	-0.147
-700.529	36.214	-0.097	-0.086
-699.514	-144.434	-0.129	-0.012
-698.499	157.095	-0.246	0.342
-697.485	63.163	0.207	0.209
-696.470	-13.270	-0.109	-0.071
-695.456	-137.275	0.208	-0.024
-694.441	-196.364	0.134	-0.001
-693.426	-44.723	0.262	-0.131
-692.412	-56.475	-0.324	-0.144
-691.397	800.000	0.096	-0.372
-690.383	24.596	0.208	0.173
-689.368	198.469	-0.195	-0.299
-688.354	138.346	-0.123	-0.162
-687.339	-56.806	0.254	0.113
-686.324	-200.000	-0.013	-0.112
-685.310	-200.000	0.031	-0.198
-684.295	-93.907	-0.132	0.036
-683.281	-200.000	0.062	-0.501
-682.266	-46.388	0.449	-0.221
-681.251	-156.145	-0.284	-0.018
-680.237	-156.001	-0.242	0.015
-679.222	-86.006	0.138	-0.043
-678.208	-200.000	-0.002	-0.224
-677.193	-200.000	0.031	-0.332
-676.178	-200.000	-0.040	0.196
-675.164	-132.034	-0.384	0.050
-674.149	-91.041	-0.157	-0.045
-673.135	-101.905	-0.095	-0.023
-672.120	46.733	-0.168	-0.157
-671.105	800.000	-0.078	0.282
-670.091	-82.848	-0.304	0.098
-669.076	30.090	0.116	-0.099
-668.062	-25.517	-0.153	0.091
-667.047	800.000	0.060	-0.254
-666.032	-175.000	0.184	0.005
-665.018	-42.459	0.170	-0.087
-664.003	-37.734	0.091	-0.049
-662.989	-185.439	0.279	0.004
-661.974	127.293	0.113	-0.144
-660.959	246.998	0.059	0.100
-659.945	-200.000	-0.000	-0.108
-658.930	-200.000	0.003	0.024
-657.916	800.000	0.028	0.103
-656.901	13.154	-0.114	0.088
-655.886	-200.000	-0.005	0.308
-654.872	-48.021	0.243	-0.118
-653.857	437.239	-0.070	-0.153
-652.843	43.903	-0.120	0.110
-651.828	-200.000	0.007	-0.412
-650.814	-200.000	0.018	0.392
-649.799	52.710	-0.105	0.100
-648.784	-64.565	-0.370	-0.150
-647.770	-183.656	-0.227	-0.004
-646.755	158.026	-0.106	0.147
-645.741	195.517	0.089	0.136
-644.726	-69.977	-0.063	0.024
-643.711	800.000	0.020	-0.057
-642.697	272.029	0.092	-0.163
-641.682	89.230	-0.169	-0.189
-640.668	38.408	0.216	-0.193
-639.653	-200.000	-0.026	-0.184
-638.638	233.088	0.036	0.059
-637.624	393.518	-0.082	-0.171
-636.609	19.675	0.062	-0.050
-635.595	800.000	0.028	0.108
-634.580	800.000	0.101	-0.398
-633.565	107.486	0.202	0.241
-632.551	577.623	-0.074	-0.181
-631.536	-128.567	-0.192	-0.027
-630.522	92.926	-0.099	0.112
-629.507	-114.982	-0.114	0.022
-628.492	-37.323	0.156	-0.084
-627.478	117.714	0.062	0.076
-626.463	50.674	-0.060	0.057
-625.449	230.989	0.065	-0.106
-624.434	628.128	-0.045	0.114
-623.419	-123.514	-0.069	0.011
-622.405	-96.887	-0.286	0.075
-621.390	-111.329	-0.416	-0.085
-620.376	-200.000	0.055	0.269
-619.361	800.000	-0.107	0.335
-618.346	-17.221	-0.199	0.126
-617.332	154.406	0.063	-0.087
-616.317	156.524	-0.089	-0.123
-615.303	-194.289	-0.527	0.004
-614.288	557.899	0.097	-0.234
-613.273	-200.000	-0.079	-0.347
-612.259	800.000	-0.011	0.039
-611.244	-149.242	-0.102	-0.008
-610.230	800.000	-0.077	0.321
-609.215	-23.311	-0.027	0.016
-608.201	-86.958	-0.327	0.100
-607.186	564.682	-0.035	-0.084
-606.171	-123.123	-0.209	-0.034
-605.157	91.369	-0.143	-0.161
-604.142	800.000	-0.077	-0.215
-603.128	61.877	0.130	0.130
-602.113	-45.583	0.164	0.081
-601.098	800.000	-0.027	0.079
-600.084	-94.510	-0.264	-0.072
-599.069	48.248	-0.056	-0.053
-598.055	-33.403	0.024	-0.013
-597.040	57.269	-0.146	-0.142
-596.025	-200.000	0.013	-0.119
-595.011	133.132	-0.241	0.311
-593.996	-121.024	0.034	-0.006
-592.982	-55.790	0.169	-0.076
-591.967	-164.093	0.237	0.011
-590.952	-116.552	-0.097	0.018
-589.938	-0.274	0.202	-0.144
-588.923	750.991	-0.182	0.492
-587.909	156.809	0.091	-0.126
-586.894	88.963	0.070	0.078
-585.879	-73.017	0.097	0.036
-584.865	-200.000	0.009	0.126
-583.850	67.575	-0.035	0.036
-582.836	-20.944	-0.094	0.058
-581.821	-129.704	-0.325	0.045
-580.806	108.286	0.049	0.059
-579.792	41.745	0.103	0.093
-578.777	800.000	0.084	-0.345
-577.763	268.788	0.224	0.392
-576.748	-200.000	0.023	-0.140
-575.733	-200.000	-0.025	-0.263
-574.719	-73.640	0.273	0.099
-573.704	-20.298	-0.125	0.077
-572.690	143.657	0.148	-0.197
-571.675	800.000	0.026	-0.073
-570.661	-200.000	-0.008	-0.090
-569.646	6.503	0.153	-0.113
-568.631	-89.041	-0.383	0.113
-567.617	199.125	-0.107	-0.164
-566.602	-45.875	-0.154	-0.076
-565.588	-200.000	-0.000	-0.274
-564.573	-126.125	0.089	0.013
-563.558	-200.000	0.031	0.421
-562.544	45.015	-0.157	0.145
-561.529	-108.441	0.283	-0.061
-560.515	-200.000	-0.012	-0.085
-559.500	-96.162	-0.182	0.048
-558.485	-200.000	0.032	-0.217
-557.471	-200.000	-0.001	0.059
-556.456	-77.580	0.183	-0.063
-555.442	-101.175	-0.160	0.039
-554.427	-200.000	0.014	0.290
-553.412	260.345	0.125	0.217
-552.398	12.574	-0.247	-0.190
-551.383	99.215	0.053	0.061
-550.369	-200.000	-0.066	0.476
-549.354	484.206	0.118	0.268
-548.339	-200.000	-0.027	-0.172
-547.325	486.698	-0.031	-0.071
-546.310	-200.000	0.019	-0.134
-545.296	-89.707	-0.038	-0.011
-544.281	73.389	0.151	-0.158
-543.266	-69.337	-0.311	-0.119
-542.252	18.137	-0.077	0.061
-541.237	-99.370	-0.243	0.061
-540.223	800.000	-0.082	0.277
-539.208	34.570	0.167	-0.145
-538.193	12.827	0.353	-0.272
-537.179	-50.355	-0.167	0.079
-536.164	154.565	-0.140	-0.193
-535.150	36.170	-0.244	0.215
-534.135	243.808	0.141	-0.236
-533.121	239.690	0.247	-0.411
-532.106	256.489	0.237	0.406
-531.091	34.044	-0.245	-0.213
-530.077	-44.341	0.049	-0.024
-529.062	226.202	0.126	-0.204
-528.048	-146.132	0.236	0.021
-527.033	-200.000	-0.001	-0.212
-526.018	-200.000	-0.085	-0.594
-525.004	10.786	-0.137	-0.105
-523.989	-199.968	0.413	0.002
-522.975	55.772	-0.352	-0.340
-521.960	-51.084	0.512	-0.239
-520.945	163.438	0.084	-0.117
-519.931	-200.000	0.002	-0.050
-518.916	-200.000	0.033	0.257
-517.902	-20.817	-0.136	0.083
-516.887	-187.314	-0.263	0.004
-515.872	281.419	0.078	0.140
-514.858	11.189	0.247	0.189
-513.843	-125.197	-0.170	-0.026
-512.829	43.792	0.198	0.181
-511.814	-36.769	-0.225	0.120
-510.799	728.424	0.124	-0.331
-509.785	-175.035	0.122	0.003
-508.770	800.000	-0.088	0.328
-507.756	67.633	0.286	0.291
-506.741	-200.000	0.049	0.270
-505.726	-200.000	0.067	0.312
-504.712	-16.242	-0.157	0.100
-503.697	679.137	-0.116	-0.300
-502.683	-99.653	0.240	-0.060
-501.668	-91.145	0.472	0.135
-500.653	-26.380	0.164	0.096
-499.639	-126.925	0.110	-0.016
-498.624	-200.000	-0.012	-0.239
-497.610	-3.628	-0.178	-0.124
-496.595	41.501	0.218	0.197
-495.581	800.000	-0.047	-0.179
-494.566	42.138	0.167	-0.151
-493.551	249.396	0.031	-0.052
-492.537	800.000	0.065	-0.218
-491.522	800.000	0.023	-0.065
-490.508	313.812	0.045	0.085
-489.493	10.314	0.159	0.121
-488.478	572.279	0.121	-0.294
-487.464	-17.628	0.133	0.083
-486.449	-9.180	0.133	0.089
-485.435	-132.577	0.102	0.013
-484.420	601.064	0.155	0.384
-483.405	-133.037	0.277	-0.035
-482.391	180.862	-0.080	0.116
-481.376	23.543	0.156	-0.128
-480.362	-200.000	0.017	-0.337
-479.347	-200.000	0.007	0.148
-478.332	-148.549	0.294	0.024
-477.318	-133.312	0.106	0.013
-476.303	-200.000	-0.066	0.336
-475.289	339.768	0.165	0.321
-474.274	233.273	0.070	-0.114
-473.259	-75.619	-0.223	-0.079
-472.245	-99.979	-0.293	0.073
-471.230	-19.256	0.101	-0.062
-470.216	800.000	0.092	-0.305
-469.201	-75.426	0.035	0.012
-468.186	800.000	-0.058	0.218
-467.172	800.000	0.057	0.208
-466.157	-54.316	-0.198	0.089
-465.143	168.989	0.028	-0.040
-464.128	279.258	0.117	-0.208
-463.113	-102.885	-0.130	0.031
-462.099	800.000	-0.079	-0.255
-461.084	46.510	-0.140	0.130
-460.070	-105.695	-0.226	-0.051
-459.055	-200.000	0.031	0.204
-458.040	59.922	-0.109	-0.107
-457.026	-199.284	-0.276	0.001
-456.011	-20.897	0.166	0.101
-454.997	-33.542	0.146	0.080
-453.982	-85.060	0.272	-0.085
-452.968	-48.796	-0.091	0.043
-451.953	127.678	0.070	0.088
-450.938	-55.419	-0.078	0.035
-449.924	289.270	0.065	-0.117
-448.909	-87.570	0.272	-0.082
-447.895	-19.346	0.103	-0.064
-446.880	-178.411	-0.251	-0.006
-445.865	-145.290	-0.312	0.028
-444.851	424.497	-0.047	-0.101
-443.836	-90.056	-0.217	-0.063
-442.822	-1.846	-0.150	-0.105
-441.807	-42.256	-0.158	0.080
-440.792	-49.773	0.364	0.172
-439.778	-195.203	0.062	-0.000
-438.763	107.034	-0.054	0.064
-437.749	800.000	0.069	-0.274
-436.734	-200.000	0.023	-0.260
-435.719	-12.962	0.308	0.199
-434.705	108.989	0.159	-0.189
-433.690	-200.000	-0.063	-0.387
-432.676	-200.000	0.003	0.021
-431.661	-200.000	-0.039	-0.190
-430.646	-127.402	-0.108	0.016
-429.632	54.973	-0.113	-0.109
-428.617	-200.000	-0.031	0.224
-427.603	-200.000	0.020	-0.352
-426.588	129.174	-0.248	-0.314
-425.573	271.663	0.153	0.269
-424.559	-141.549	-0.226	0.023
-423.544	-101.908	-0.087	-0.021
-422.530	-115.321	-0.360	0.067
-421.515	-122.988	-0.105	-0.017
-420.500	-75.479	0.092	0.033
-419.486	441.032	0.062	-0.134
-418.471	-137.087	0.679	-0.077
-417.457	-200.000	-0.044	-0.271
-416.442	255.404	-0.084	-0.143
-415.428	267.945	0.037	0.064
-414.413	800.000	0.037	-0.141
-413.398	-71.481	-0.280	-0.104
-412.384	800.000	-0.022	0.075
-411.369	-45.938	-0.215	0.105
-410.355	165.827	-0.051	0.072
-409.340	-56.343	0.031	-0.014
-408.325	489.648	-0.130	-0.295
-407.311	633.785	0.067	-0.169
-406.296	-200.000	-0.014	0.121
-405.282	7.756	0.168	0.125
-404.267	381.327	0.042	0.085
-403.252	23.470	0.061	0.050
-402.238	-50.969	-0.101	0.047
-401.223	800.000	-0.009	-0.028
-400.209	800.000	-0.028	0.088
-399.194	-113.941	-0.124	0.024
-398.179	634.715	0.065	-0.165
-397.165	-95.383	-0.066	-0.018
-396.150	-200.000	-0.039	0.228
-395.136	-154.083	0.240	0.016
-394.121	402.702	0.101	-0.211
-393.106	-100.008	0.176	0.044
-392.092	-122.523	-0.093	-0.015
-391.077	-166.086	0.275	-0.012
-390.063	-35.326	-0.118	-0.064
-389.048	800.000	0.019	0.069
-388.033	-133.297	0.148	0.019
-387.019	-36.184	-0.369	0.198
-386.004	80.267	-0.138	-0.147
-384.990	-7.944	0.102	0.069
-383.975	13.304	0.119	0.092
-382.960	-200.000	0.015	-0.109
-381.946	-62.156	-0.306	-0.127
-380.931	-200.000	-0.027	0.129
-379.917	-60.444	0.315	-0.133
-378.902	-200.000	0.001	0.017
-377.888	-200.000	-0.082	-0.403
-376.873	16.819	-0.345	-0.271
-375.858	-47.010	-0.338	0.164
-374.844	358.065	0.103	-0.204
-373.829	78.686	-0.115	-0.122
-372.815	-200.000	0.038	0.186
-371.800	800.000	-0.119	-0.397
-370.785	-62.968	0.288	-0.118
-369.771	398.262	-0.194	0.403
-368.756	145.193	0.082	-0.109
-367.742	-200.000	0.103	0.591
-366.727	348.652	0.134	-0.262
-365.712	365.495	0.150	-0.300
-364.698	-66.322	-0.249	0.098
-363.683	-200.000	-0.089	-0.573
-362.669	-200.000	0.086	-0.467
-361.654	-200.000	-0.019	-0.148
-360.639	-200.000	-0.057	0.323
-359.625	-27.013	-0.072	-0.042
-358.610	122.416	0.235	-0.290
-357.596	35.982	-0.103	0.090
-356.581	-200.000	-0.032	0.311
-355.566	82.527	-0.148	-0.159
-354.552	45.032	0.225	-0.205
-353.537	-76.723	-0.319	-0.111
-352.523	-53.991	-0.091	-0.041
-351.508	139.850	0.173	0.225
-350.493	-23.092	0.245	0.146
-349.479	417.586	-0.048	0.102
-348.464	-96.909	-0.288	-0.075
-347.450	-61.027	0.142	0.059
-346.435	-14.766	0.337	0.214
-345.420	167.301	-0.222	0.312
-344.406	642.918	-0.126	0.318
-343.391	105.185	0.162	0.189
-342.377	174.261	0.137	0.196
-341.362	-128.208	0.334	-0.047
-340.348	72.135	0.139	-0.143
-339.333	-89.551	0.231	0.067
-338.318	-145.851	0.160	-0.014
-337.304	-200.000	0.018	-0.104
-336.289	112.788	-0.176	-0.211
-335.275	-200.000	-0.016	-0.139
-334.260	9.827	-0.151	-0.114
-333.245	-200.000	-0.059	-0.299
-332.231	800.000	0.069	0.195
-331.216	800.000	0.078	-0.282
-330.202	-91.328	0.092	0.026
-329.187	-138.849	0.277	-0.030
-328.172	-65.542	-0.050	0.020
-327.158	-114.966	-0.303	-0.057
-326.143	-22.387	0.297	0.178
-325.129	76.104	-0.158	0.165
-324.114	0.325	0.329	-0.233
-323.099	-200.000	-0.070	-0.349
-322.085	-9.990	0.255	-0.168
-321.070	-143.699	-0.119	-0.011
-320.056	-47.449	-0.238	-0.115
-319.041	-175.863	-0.080	-0.002
-318.026	-96.916	0.378	0.098
-317.012	-101.090	-0.189	-0.046
-315.997	-63.308	-0.347	0.141
-314.983	310.082	0.149	-0.275
-313.968	40.492	-0.049	-0.043
-312.953	-200.000	-0.025	0.000
-311.939	-36.509	0.196	0.104
-310.924	-158.153	0.129	-0.007
-309.910	29.812	0.203	-0.171
-308.895	-200.000	0.067	0.327
-307.880	0.075	-0.044	0.031
-306.866	207.461	0.103	0.159
-305.851	-200.000	0.033	-0.144
-304.837	79.655	0.221	-0.234
-303.822	55.547	-0.129	-0.123
-302.807	-200.000	0.022	0.174
-301.793	256.111	-0.144	-0.244
-300.778	800.000	0.033	0.100
-299.764	37.594	0.054	0.047
-298.749	-200.000	0.013	-0.108
-297.735	-124.880	-0.097	0.015
-296.720	-78.136	-0.358	0.122
-295.705	-200.000	0.001	-0.139
-294.691	-7.284	-0.245	0.164
-293.676	450.881	-0.021	0.046
-292.662	37.911	0.025	-0.022
-291.647	-127.282	0.297	0.043
-290.632	-63.251	-0.205	0.083
-289.618	-38.022	-0.044	0.023
-288.603	-7.869	0.063	-0.042
-287.589	-200.000	0.045	0.277
-286.574	-200.000	-0.006	-0.052
-285.559	301.982	0.071	-0.129
-284.545	-121.810	0.253	-0.041
-283.530	161.917	0.084	0.116
-282.516	800.000	-0.089	-0.346
-281.501	-122.038	-0.111	0.018
-280.486	457.005	-0.121	0.267
-279.472	37.187	-0.241	-0.210
-278.457	-103.003	0.244	0.057
-277.443	-57.485	0.260	0.113
-276.428	-35.506	-0.232	-0.125
-275.413	800.000	0.007	-0.021
-274.399	57.751	0.124	-0.120
-273.384	-50.264	0.143	0.067
-272.370	149.184	-0.118	-0.157
-271.355	800.000	0.086	0.238
-270.340	131.255	0.260	0.330
-269.326	-31.781	-0.292	0.162
-268.311	-129.287	-0.079	-0.011
-267.297	260.991	-0.101	0.172
-266.282	800.000	-0.097	-0.415
-265.267	168.709	-0.284	0.400
-264.253	-124.958	0.435	-0.066
-263.238	-147.773	-0.167	-0.014
-262.224	64.952	-0.083	0.082
-261.209	97.348	-0.192	0.218
-260.195	-48.439	-0.184	-0.087
-259.180	162.019	0.115	-0.160
-258.165	-52.787	-0.091	0.041
-257.151	-120.080	0.103	0.017
-256.136	74.844	0.131	-0.136
-255.122	77.205	0.147	0.154
-254.107	-200.000	-0.009	-0.337
-253.092	51.420	-0.049	-0.046
-252.078	40.060	0.099	0.088
-251.063	-47.384	0.289	0.139
-250.049	-103.598	-0.268	0.062
-249.034	-41.144	-0.091	-0.046
-248.019	-200.000	-0.005	-0.036
-247.005	58.241	-0.153	-0.148
-245.990	73.947	0.387	0.401
-244.976	-88.682	-0.143	0.042
-243.961	-90.268	0.275	0.079
-242.946	-200.000	-0.069	-0.412
-241.932	118.357	-0.047	0.058
-240.917	-138.711	0.220	-0.024
-239.903	-200.000	-0.021	0.222
-238.888	4.763	0.081	-0.059
-237.873	800.000	-0.001	0.006
-236.859	-200.000	-0.024	-0.104
-235.844	-85.064	0.105	-0.033
-234.830	48.425	0.154	0.142
-233.815	167.066	-0.042	0.059
-232.800	19.251	-0.403	0.319
-231.786	224.836	0.132	0.211
-230.771	480.485	0.088	0.197
-229.757	-200.000	0.062	0.339
-228.742	-123.022	0.230	0.036
-227.727	-200.000	-0.033	0.222
-226.713	800.000	-0.021	0.076
-225.698	-25.893	-0.218	-0.127
-224.684	-112.603	0.226	-0.044
-223.669	-44.111	-0.159	0.078
-222.655	-89.108	-0.416	-0.121
-221.640	196.941	0.243	0.366
-220.625	-4.404	-0.281	-0.192
-219.611	61.681	-0.073	-0.072
-218.596	-90.734	-0.062	-0.018
-217.582	-149.951	-0.249	-0.019
-216.567	-125.475	-0.215	-0.032
-215.552	87.122	0.189	-0.206
-214.538	-71.859	-0.168	-0.062
-213.523	340.319	0.132	0.253
-212.509	-102.453	0.167	-0.039
-211.494	304.583	0.029	0.053
-210.479	-28.509	-0.131	-0.075
-209.465	589.958	-0.057	-0.138
-208.450	420.671	-0.209	0.442
-207.436	-200.000	0.032	0.155
-206.421	337.909	-0.188	0.360
-205.406	36.505	-0.123	-0.107
-204.392	-129.716	0.538	0.073
-203.377	-15.483	0.207	-0.130
-202.363	-90.994	0.068	0.019
-201.348	313.155	0.152	0.282
-200.333	-126.998	-0.116	0.017
-199.319	-59.609	-0.496	-0.210
-198.304	-125.437	0.095	0.014
-197.290	-135.954	0.131	-0.015
-196.275	436.087	0.109	-0.233
-195.260	185.053	0.051	0.075
-194.246	800.000	-0.070	0.239
-193.231	-200.000	0.010	0.291
-192.217	-200.000	0.019	-0.114
-191.202	686.536	-0.073	0.188
-190.187	128.497	0.209	0.262
-189.173	19.723	0.223	-0.177
-188.158	304.049	-0.059	-0.108
-187.144	-109.047	0.445	-0.093
-186.129	308.519	-0.127	-0.233
-185.114	-200.000	-0.052	0.282
-184.100	133.817	0.092	-0.117
-183.085	-200.000	-0.009	-0.155
-182.071	76.949	-0.385	0.402
-181.056	-38.751	0.065	-0.034
-180.042	-119.385	-0.230	-0.039
-179.027	53.591	-0.108	0.102
-178.012	-200.000	0.004	0.256
-176.998	0.034	-0.265	-0.186
-175.983	-200.000	0.005	0.055
-174.969	230.261	-0.218	0.351
-173.954	1.729	-0.357	0.253
-172.939	310.960	-0.113	-0.208
-171.925	-43.345	-0.330	0.164
-170.910	-128.587	0.058	0.008
-169.896	-134.463	0.061	-0.007
-168.881	-200.000	0.043	0.195
-167.866	-81.507	0.637	0.206
-166.852	590.183	0.043	-0.105
-165.837	-197.735	0.301	-0.002
-164.823	-200.000	-0.005	0.021
-163.808	-44.802	-0.201	-0.098
-162.793	69.233	0.073	-0.074
-161.779	133.520	-0.115	-0.147
-160.764	-54.375	0.205	0.091
-159.750	127.961	-0.160	-0.199
-158.735	-200.000	0.005	0.139
-157.720	72.035	0.158	0.161
-156.706	-161.102	0.182	-0.009
-155.691	800.000	-0.053	0.221
-154.677	-71.270	-0.084	0.031
-153.662	757.817	0.111	0.296
-152.647	-135.018	0.087	0.010
-151.633	-200.000	-0.008	0.066
-150.618	50.895	-0.175	0.163
-149.604	160.895	0.060	0.082
-148.589	-200.000	-0.040	0.200
-147.574	-200.000	-0.037	0.202
-146.560	-74.076	0.397	0.141
-145.545	99.651	0.211	0.240
-144.531	-200.000	0.020	-0.375
-143.516	321.576	-0.114	-0.214
-142.502	-161.196	0.279	-0.014
-141.487	92.895	-0.093	-0.104
-140.472	108.004	-0.156	0.183
-139.458	0.392	-0.379	0.266
-138.443	128.502	-0.165	0.207
-137.429	93.907	-0.090	-0.100
-136.414	194.110	-0.186	0.276
-135.399	387.023	0.107	0.217
-134.385	75.467	0.192	-0.199
-133.370	326.213	0.086	0.162
-132.356	-30.735	-0.266	-0.148
-131.341	-200.000	0.007	0.274
-130.326	39.994	-0.134	-0.118
-129.312	-46.525	0.110	-0.053
-128.297	-200.000	0.009	-0.068
-127.283	508.606	0.004	-0.010
-126.268	55.941	0.134	0.128
-125.253	800.000	-0.099	0.279
-124.239	799.737	-0.107	0.290
-123.224	-109.547	-0.143	-0.030
-122.210	800.000	0.031	-0.119
