DTS Sentinel unit serial number:	SN413079Multiplexer serial number:	ORYXHardware model number:	OX4-SRSoftware version number:	ORYX F/W v4.00 Oryx Data Collector v3.7.2.0data status	okinstallation	princeton_trtdifferential loss correction	single-endedforward channel	channel 3reverse channel	N/Adate	2019/09/13time	00:56:35forward acquisition time	60.00reverse acquisition time	0.00gamma	496.2192k internal	0.2332k external	0.2332temperature offset calibration	1.0117default loss term (dB/km)	0.3790temperature slope calibration	1.0000multiplexer offset coefficient	1.0000multiplexer slope coefficient	1.0000fibre end	0.00T internal ref (°C)	28.09T ext. ref 1 (°C)	3.66T ext. ref 2 (°C)	22.63length (m)	temperature (°C)	Stokes	anti-Stokes-747.200	294.866	0.071	-0.130
-746.185	-4.537	-0.109	-0.076
-745.171	397.647	0.194	-0.409
-744.156	-85.122	-0.235	0.074
-743.142	-131.961	-0.397	-0.052
-742.127	199.265	-0.187	0.289
-741.112	-118.619	0.167	-0.030
-740.098	741.495	-0.063	0.170
-739.083	-200.000	0.034	-0.307
-738.069	-29.600	-0.288	0.166
-737.054	42.175	0.173	-0.158
-736.039	108.426	-0.157	-0.188
-735.025	476.465	0.175	0.399
-734.010	-5.872	-0.097	-0.067
-732.996	310.390	-0.136	-0.256
-731.981	-200.000	-0.037	-0.217
-730.966	-56.898	0.200	-0.089
-729.952	270.404	-0.063	0.112
-728.937	800.000	-0.077	-0.273
-727.923	-24.784	0.086	-0.051
-726.908	513.881	-0.071	0.166
-725.894	321.817	0.152	-0.291
-724.879	185.958	0.080	0.119
-723.864	250.939	0.103	0.175
-722.850	800.000	-0.021	0.078
-721.835	-115.858	-0.095	0.018
-720.821	-103.652	0.204	0.048
-719.806	254.492	0.122	-0.209
-718.791	-100.948	-0.214	-0.053
-717.777	443.860	0.083	0.182
-716.762	584.360	-0.005	0.013
-715.748	-200.000	0.000	-0.008
-714.733	-150.899	0.191	-0.014
-713.718	232.672	-0.154	-0.254
-712.704	658.806	-0.171	-0.443
-711.689	483.252	0.061	-0.139
-710.675	-200.000	0.005	-0.060
-709.660	-100.052	0.175	0.044
-708.645	34.896	0.271	-0.239
-707.631	626.902	0.042	0.107
-706.616	-68.683	-0.147	-0.057
-705.602	174.262	-0.090	0.130
-704.587	134.825	0.046	-0.060
-703.572	121.998	0.073	-0.091
-702.558	640.671	-0.059	-0.151
-701.543	-200.000	-0.032	-0.170
-700.529	-144.473	0.318	-0.030
-699.514	361.635	0.160	-0.323
-698.499	131.541	-0.178	-0.229
-697.485	-200.000	0.014	0.103
-696.470	22.206	0.061	-0.050
-695.456	-172.857	0.223	0.007
-694.441	800.000	0.097	0.351
-693.426	-200.000	0.004	-0.122
-692.412	-153.786	-0.081	-0.006
-691.397	-138.998	0.271	-0.030
-690.383	-200.000	0.025	0.285
-689.368	13.525	-0.147	0.115
-688.354	-19.139	-0.085	-0.053
-687.339	-150.668	-0.148	-0.011
-686.324	800.000	-0.101	0.346
-685.310	19.486	0.137	-0.111
-684.295	800.000	0.122	0.510
-683.281	765.727	0.137	-0.373
-682.266	-21.245	0.271	-0.166
-681.251	209.369	-0.081	-0.127
-680.237	-32.834	-0.276	0.154
-679.222	-48.380	0.075	0.036
-678.208	-200.000	0.024	0.213
-677.193	-200.000	-0.011	-0.155
-676.178	800.000	-0.107	-0.339
-675.164	-28.367	-0.025	0.014
-674.149	-27.195	-0.220	0.128
-673.135	-171.288	0.159	-0.005
-672.120	219.577	-0.158	0.254
-671.105	128.926	0.140	0.179
-670.091	187.420	-0.026	-0.038
-669.076	-42.106	-0.259	-0.133
-668.062	96.769	0.029	0.034
-667.047	-33.252	-0.448	0.249
-666.032	800.000	-0.046	0.169
-665.018	15.564	-0.071	0.056
-664.003	114.753	0.340	-0.416
-662.989	-141.427	-0.241	0.024
-661.974	-200.000	-0.006	0.316
-660.959	-119.029	0.187	0.033
-659.945	-130.218	0.137	-0.019
-658.930	110.418	-0.237	0.286
-657.916	-51.357	0.118	-0.055
-656.901	-200.000	0.026	-0.293
-655.886	-166.454	0.130	-0.005
-654.872	-81.935	0.157	-0.051
-653.857	252.753	-0.023	0.039
-652.843	-24.903	-0.264	0.157
-651.828	-149.767	-0.131	-0.010
-650.814	230.479	0.006	0.010
-649.799	-200.000	0.032	0.142
-648.784	75.350	-0.219	-0.231
-647.770	-89.790	-0.110	-0.032
-646.755	-10.706	0.328	-0.218
-645.741	17.673	-0.193	-0.154
-644.726	800.000	0.113	0.475
-643.711	800.000	-0.027	-0.106
-642.697	-32.605	-0.149	-0.083
-641.682	36.941	0.121	0.107
-640.668	800.000	-0.027	0.090
-639.653	-200.000	-0.042	-0.385
-638.638	269.578	0.091	0.160
-637.624	-68.413	-0.396	-0.154
-636.609	189.836	-0.027	-0.041
-635.595	-64.959	-0.444	0.180
-634.580	-46.571	0.274	-0.134
-633.565	-98.271	-0.268	0.069
-632.551	365.304	-0.037	-0.075
-631.536	59.108	-0.140	-0.138
-630.522	40.721	-0.124	-0.112
-629.507	-73.103	0.357	-0.131
-628.492	-70.636	0.145	-0.055
-627.478	-168.242	-0.262	0.010
-626.463	174.287	-0.104	-0.151
-625.449	-200.000	0.001	-0.028
-624.434	-162.868	0.225	0.011
-623.419	800.000	-0.115	-0.320
-622.405	800.000	-0.072	-0.223
-621.390	28.412	-0.259	-0.219
-620.376	-145.052	0.234	0.021
-619.361	-74.757	-0.176	0.063
-618.346	-110.233	-0.273	0.057
-617.332	53.735	0.109	0.105
-616.317	330.328	-0.132	-0.255
-615.303	-99.513	-0.161	-0.041
-614.288	-200.000	0.016	-0.183
-613.273	-137.463	0.217	-0.025
-612.259	39.862	-0.191	0.171
-611.244	-76.146	-0.183	0.065
-610.230	-134.944	-0.249	0.030
-609.215	208.476	-0.179	0.281
-608.201	-65.826	-0.215	0.086
-607.186	-62.654	0.179	-0.074
-606.171	800.000	-0.032	-0.129
-605.157	-63.440	-0.182	-0.075
-604.142	-49.808	-0.202	-0.096
-603.128	-51.334	-0.387	0.181
-602.113	118.423	-0.129	0.160
-601.098	-200.000	-0.290	-0.001
-600.084	282.627	0.083	-0.150
-599.069	-103.536	-0.135	-0.032
-598.055	-8.040	-0.281	-0.189
-597.040	393.107	-0.163	-0.340
-596.025	-47.185	-0.281	-0.137
-595.011	167.067	0.272	0.386
-593.996	-200.000	0.012	-0.054
-592.982	240.142	0.046	-0.077
-591.967	-92.565	0.140	0.039
-590.952	-200.000	-0.049	0.283
-589.938	39.878	0.045	0.040
-588.923	800.000	-0.007	0.024
-587.909	-165.962	-0.372	-0.016
-586.894	337.095	-0.119	0.232
-585.879	180.457	0.202	-0.297
-584.865	-168.403	-0.276	0.011
-583.850	-66.658	0.199	0.079
-582.836	-120.992	0.310	0.052
-581.821	-61.134	-0.218	-0.092
-580.806	-73.906	-0.385	-0.140
-579.792	350.913	-0.130	-0.257
-578.777	800.000	-0.039	-0.135
-577.763	140.059	-0.063	0.083
-576.748	-14.431	0.181	-0.117
-575.733	-200.000	-0.013	0.079
-574.719	-64.884	-0.164	0.066
-573.704	157.320	0.209	-0.289
-572.690	127.693	0.053	0.067
-571.675	256.787	0.063	0.108
-570.661	60.404	0.218	-0.216
-569.646	-200.000	0.017	0.101
-568.631	-77.524	0.212	-0.073
-567.617	-17.876	0.162	-0.101
-566.602	14.126	0.235	-0.183
-565.588	800.000	0.058	0.193
-564.573	800.000	-0.055	0.162
-563.558	800.000	-0.046	-0.157
-562.544	-52.087	-0.243	-0.113
-561.529	96.307	0.148	0.169
-560.515	59.239	-0.068	-0.066
-559.500	-59.455	-0.368	-0.158
-558.485	-61.895	-0.369	0.154
-557.471	-142.079	0.139	-0.014
-556.456	-130.339	-0.092	0.013
-555.442	324.407	0.088	-0.168
-554.427	439.661	-0.064	-0.140
-553.412	-173.959	-0.267	0.008
-552.398	105.957	0.015	0.018
-551.383	-84.842	0.298	-0.094
-550.369	-87.171	0.245	-0.074
-549.354	-150.599	-0.690	0.053
-548.339	-79.839	0.241	0.081
-547.325	116.893	0.160	-0.196
-546.310	-81.088	0.172	-0.057
-545.296	-200.000	-0.009	-0.063
-544.281	-97.653	-0.157	0.041
-543.266	-90.721	-0.142	-0.041
-542.252	100.077	-0.238	-0.276
-541.237	800.000	-0.029	-0.083
-540.223	-94.314	0.219	0.060
-539.208	-200.000	-0.033	0.188
-538.193	-200.000	-0.005	0.090
-537.179	222.560	0.203	-0.327
-536.164	-113.029	-0.257	0.051
-535.150	145.742	0.183	-0.245
-534.135	523.634	0.083	0.195
-533.121	242.265	-0.091	0.151
-532.106	-22.997	-0.344	0.207
-531.091	-150.782	0.117	0.009
-530.077	83.150	-0.106	0.115
-529.062	-130.489	-0.202	0.027
-528.048	267.217	-0.101	0.177
-527.033	211.255	0.129	0.202
-526.018	24.034	-0.048	0.039
-525.004	800.000	0.074	0.253
-523.989	-127.211	0.364	-0.053
-522.975	-92.962	-0.138	0.038
-521.960	47.947	-0.112	-0.104
-520.945	-200.000	-0.059	-0.299
-519.931	-25.230	-0.435	0.257
-518.916	173.092	-0.139	-0.200
-517.902	160.592	-0.131	0.183
-516.887	755.891	-0.053	-0.144
-515.872	-35.906	0.185	-0.100
-514.858	127.996	-0.112	-0.142
-513.843	260.254	-0.120	0.207
-512.829	-200.000	-0.017	0.080
-511.814	-97.566	-0.302	-0.078
-510.799	-36.886	0.186	0.100
-509.785	-200.000	0.016	0.197
-508.770	-136.947	-0.248	0.028
-507.756	-200.000	0.021	0.263
-506.741	-54.806	0.398	-0.179
-505.726	-132.511	0.294	-0.038
-504.712	-89.317	-0.252	-0.074
-503.697	-30.912	0.079	-0.045
-502.683	219.598	-0.076	-0.121
-501.668	800.000	-0.038	-0.149
-500.653	800.000	-0.032	0.093
-499.639	-200.000	0.019	-0.161
-498.624	800.000	0.097	-0.412
-497.610	495.754	-0.057	-0.131
-496.595	-41.053	0.213	0.110
-495.581	128.731	-0.044	-0.056
-494.566	-165.368	-0.078	-0.003
-493.551	-200.000	0.076	-0.398
-492.537	-62.991	0.316	-0.130
-491.522	-200.000	-0.038	-0.307
-490.508	-200.000	-0.005	0.196
-489.493	739.370	-0.076	0.203
-488.478	217.703	0.123	0.195
-487.464	42.733	0.114	-0.103
-486.449	-81.457	0.129	-0.042
-485.435	145.438	0.161	-0.215
-484.420	-68.186	-0.190	0.074
-483.405	378.602	0.059	-0.120
-482.391	-40.390	0.318	0.165
-481.376	-73.052	0.145	-0.053
-480.362	-200.000	0.049	0.230
-479.347	800.000	-0.154	0.442
-478.332	-200.000	0.026	0.227
-477.318	-98.365	0.228	0.058
-476.303	-46.994	-0.221	-0.107
-475.289	-3.238	0.232	0.161
-474.274	-200.000	0.012	0.323
-473.259	800.000	0.027	0.118
-472.245	-194.303	0.090	0.001
-471.230	-52.457	-0.221	-0.102
-470.216	800.000	-0.092	0.362
-469.201	-146.727	0.320	-0.028
-468.186	-200.000	0.030	-0.301
-467.172	-136.684	0.252	0.029
-466.157	-200.000	0.026	0.139
-465.143	-58.683	-0.273	0.118
-464.128	-38.801	-0.201	-0.105
-463.113	800.000	0.010	-0.043
-462.099	800.000	0.052	-0.152
-461.084	-200.000	-0.043	0.445
-460.070	72.248	-0.141	0.146
-459.055	-173.431	-0.130	0.004
-458.040	-144.024	-0.197	-0.018
-457.026	74.145	-0.142	-0.148
-456.011	-112.013	0.198	-0.040
-454.997	177.917	-0.102	0.148
-453.982	-200.000	-0.001	0.022
-452.968	-192.098	0.274	-0.003
-451.953	800.000	-0.099	-0.317
-450.938	171.321	0.260	0.371
-449.924	800.000	-0.017	-0.053
-448.909	366.130	0.060	-0.120
-447.895	30.245	-0.061	-0.052
-446.880	448.097	-0.075	-0.163
-445.865	375.827	0.020	-0.041
-444.851	-25.973	0.142	-0.083
-443.836	-106.955	-0.079	0.017
-442.822	-200.000	0.014	-0.309
-441.807	800.000	0.047	0.138
-440.792	-48.960	-0.293	-0.140
-439.778	54.485	-0.156	-0.149
-438.763	-200.000	-0.027	-0.164
-437.749	130.016	0.202	0.258
-436.734	7.745	-0.152	-0.113
-435.719	-95.247	0.104	-0.028
-434.705	109.865	0.309	-0.368
-433.690	148.296	0.148	-0.198
-432.676	404.973	0.101	0.212
-431.661	61.391	-0.065	-0.064
-430.646	-106.121	0.190	0.042
-429.632	3.193	-0.370	-0.267
-428.617	800.000	-0.025	0.085
-427.603	486.722	0.060	0.136
-426.588	-11.257	-0.350	-0.229
-425.573	602.075	-0.070	-0.172
-424.559	-31.375	-0.112	0.063
-423.544	-50.144	0.262	0.123
-422.530	-94.377	-0.268	0.073
-421.515	-51.845	-0.113	-0.052
-420.500	-200.000	0.021	-0.104
-419.486	132.222	0.252	0.322
-418.471	264.953	0.113	-0.196
-417.457	451.580	0.094	0.207
-416.442	-47.696	0.254	-0.122
-415.428	-200.000	0.023	-0.320
-414.413	-60.999	-0.148	-0.062
-413.398	-1.769	-0.282	-0.197
-412.384	-55.137	-0.547	0.245
-411.369	727.991	-0.120	0.319
-410.355	-125.667	0.052	0.008
-409.340	1.350	0.115	-0.082
-408.325	-31.105	-0.412	-0.231
-407.311	800.000	0.068	-0.253
-406.296	130.562	0.250	-0.318
-405.282	-88.546	-0.147	0.044
-404.267	-77.398	-0.064	0.022
-403.252	19.139	0.167	0.133
-402.238	800.000	0.062	-0.174
-401.223	5.098	0.391	-0.286
-400.209	46.539	-0.165	0.152
-399.194	-200.000	-0.016	0.123
-398.179	701.421	0.094	0.245
-397.165	87.959	0.135	-0.149
-396.150	475.215	0.071	0.160
-395.136	430.620	-0.065	0.140
-394.121	68.773	0.134	-0.137
-393.106	-187.415	0.144	0.002
-392.092	273.449	-0.128	-0.225
-391.077	-43.577	0.136	0.068
-390.063	-196.068	0.241	0.002
-389.048	-200.000	0.034	0.385
-388.033	220.776	0.119	0.189
-387.019	109.079	-0.120	0.143
-386.004	-112.346	-0.293	-0.058
-384.990	-23.182	0.195	0.116
-383.975	-110.072	0.344	0.071
-382.960	355.980	-0.111	-0.218
-381.946	-4.970	0.193	0.132
-380.931	539.680	-0.065	0.153
-379.917	-44.832	-0.241	-0.119
-378.902	-83.350	-0.083	0.027
-377.888	268.425	0.085	-0.148
-376.873	800.000	0.082	0.318
-375.858	-106.914	0.160	-0.035
-374.844	230.841	0.130	-0.210
-373.829	-122.185	0.090	-0.015
-372.815	-1.390	-0.205	0.143
-371.800	800.000	0.034	0.093
-370.785	202.340	-0.099	-0.152
-369.771	-74.063	0.101	-0.036
-368.756	-200.000	0.049	0.217
-367.742	129.471	-0.069	-0.088
-366.727	-108.607	0.159	0.034
-365.712	-164.473	0.140	-0.006
-364.698	10.811	0.064	-0.049
-363.683	-200.000	-0.054	0.363
-362.669	-200.000	-0.044	-0.220
-361.654	122.278	-0.095	0.118
-360.639	-58.218	-0.100	0.043
-359.625	-32.575	0.253	-0.140
-358.610	-200.000	0.013	0.288
-357.596	-136.678	0.264	-0.030
-356.581	263.804	0.107	0.185
-355.566	73.025	0.132	0.137
-354.552	800.000	-0.037	0.149
-353.537	47.271	0.330	-0.305
-352.523	137.710	0.177	0.230
-351.508	-71.502	0.283	0.105
-350.493	503.292	-0.134	-0.308
-349.479	234.935	-0.043	-0.070
-348.464	-200.000	-0.069	0.347
-347.450	469.662	0.132	0.294
-346.435	4.502	0.044	-0.032
-345.420	-119.677	0.195	0.033
-344.406	200.442	0.025	-0.037
-343.391	102.233	-0.242	0.280
-342.377	-62.932	-0.598	-0.245
-341.362	-98.080	0.146	0.037
-340.348	800.000	0.075	-0.323
-339.333	23.408	0.278	-0.226
-338.318	139.884	0.075	0.097
-337.304	-171.547	0.084	-0.003
-336.289	-24.473	0.278	0.164
-335.275	-200.000	-0.023	0.306
-334.260	-126.513	0.438	0.064
-333.245	387.960	0.037	-0.077
-332.231	756.446	-0.128	-0.343
-331.216	-200.000	0.025	-0.166
-330.202	27.602	0.211	-0.176
-329.187	22.142	-0.222	-0.179
-328.172	-200.000	-0.091	-0.482
-327.158	-111.957	0.356	-0.071
-326.143	2.425	0.084	0.060
-325.129	-101.771	0.324	-0.078
-324.114	15.042	0.408	-0.316
-323.099	151.203	0.166	-0.224
-322.085	164.971	-0.059	0.083
-321.070	701.265	-0.034	0.087
-320.056	217.859	-0.213	0.337
-319.041	-37.842	-0.363	0.191
-318.026	-131.858	0.188	-0.024
-317.012	5.155	-0.214	0.156
-315.997	573.596	-0.079	0.190
-314.983	198.314	0.158	-0.240
-313.968	87.249	-0.070	0.077
-312.953	-200.000	0.008	0.079
-311.939	-112.457	-0.159	0.031
-310.924	56.740	0.287	0.276
-309.910	800.000	0.032	0.129
-308.895	-81.000	-0.568	-0.186
-307.880	335.463	0.036	-0.070
-306.866	800.000	0.143	0.445
-305.851	-179.387	-0.074	0.002
-304.837	800.000	0.134	0.390
-303.822	-200.000	-0.023	0.238
-302.807	3.438	-0.122	0.088
-301.793	-117.556	-0.330	-0.059
-300.778	-64.182	-0.297	0.120
-299.764	709.339	0.065	-0.170
-298.749	800.000	0.069	-0.191
-297.735	12.774	-0.146	-0.112
-296.720	-200.000	0.021	0.285
-295.705	-100.742	0.324	0.079
-294.691	33.066	0.162	-0.139
-293.676	470.191	0.075	0.166
-292.662	-200.000	0.064	0.288
-291.647	-200.000	-0.009	0.141
-290.632	192.628	0.078	-0.117
-289.618	16.102	-0.215	0.167
-288.603	12.311	0.060	-0.045
-287.589	-13.302	0.253	-0.162
-286.574	-82.386	-0.180	-0.058
-285.559	800.000	-0.077	-0.265
-284.545	-166.841	0.180	0.007
-283.530	495.255	-0.102	-0.231
-282.516	54.303	0.220	0.210
-281.501	-165.870	0.255	0.011
-280.486	-46.810	0.309	-0.149
-279.472	-54.291	-0.114	-0.051
-278.457	207.692	-0.015	-0.024
-277.443	-67.956	-0.253	-0.097
-276.428	686.603	-0.068	0.175
-275.413	325.613	-0.063	-0.118
-274.399	-49.550	0.276	0.130
-273.384	-121.171	-0.428	-0.071
-272.370	-51.809	-0.216	-0.099
-271.355	-200.000	0.009	0.090
-270.340	-200.000	-0.034	-0.169
-269.326	800.000	0.105	0.294
-268.311	19.678	0.236	-0.187
-267.297	-18.217	0.260	0.161
-266.282	-65.425	0.146	-0.058
-265.267	304.926	-0.116	0.212
-264.253	-200.000	-0.037	-0.282
-263.238	156.976	-0.166	0.226
-262.224	-140.803	0.161	0.016
-261.209	343.990	-0.082	-0.159
-260.195	-200.000	0.008	0.180
-259.180	-200.000	-0.076	0.536
-258.165	14.219	0.050	0.038
-257.151	-72.467	0.116	0.042
-256.136	-124.832	0.152	0.023
-255.122	252.489	-0.036	-0.060
-254.107	104.461	-0.135	0.157
-253.092	-24.264	0.153	-0.090
-252.078	800.000	-0.137	0.412
-251.063	-34.813	0.122	-0.066
-250.049	-127.261	-0.180	-0.026
-249.034	-120.758	0.419	-0.070
-248.019	-138.449	-0.041	-0.004
-247.005	-68.978	-0.096	0.036
-245.990	-60.559	-0.338	-0.142
-244.976	-114.787	-0.038	0.007
-243.961	-200.000	-0.026	-0.275
-242.946	-99.029	0.403	-0.101
-241.932	-200.000	-0.013	0.129
-240.917	129.459	0.165	-0.208
-239.903	407.571	0.066	-0.139
-238.888	647.043	0.131	-0.330
-237.873	207.165	0.113	0.175
-236.859	-150.535	0.263	-0.020
-235.844	800.000	-0.020	-0.068
-234.830	253.323	-0.078	0.132
-233.815	-79.251	-0.091	0.030
-232.800	-200.000	-0.021	-0.220
-231.786	800.000	-0.025	-0.101
-230.771	-200.000	0.013	0.324
-229.757	69.489	-0.011	0.011
-228.742	-66.227	-0.365	0.143
-227.727	-44.676	-0.342	0.169
-226.713	-1.529	0.047	-0.033
-225.698	800.000	0.072	-0.272
-224.684	800.000	-0.033	0.096
-223.669	-71.019	0.265	0.098
-222.655	-200.000	0.001	0.161
-221.640	-149.390	-0.236	-0.018
-220.625	-11.265	-0.211	0.137
-219.611	-148.914	0.225	-0.018
-218.596	441.029	0.171	0.369
-217.582	-38.414	-0.156	-0.081
-216.567	-100.715	-0.156	0.038
-215.552	-108.581	-0.244	-0.052
-214.538	-200.000	0.024	0.307
-213.523	-200.000	0.007	-0.052
-212.509	-48.070	0.295	0.140
-211.494	-200.000	0.015	-0.314
-210.479	-49.707	0.390	0.183
-209.465	800.000	-0.013	-0.041
-208.450	800.000	-0.133	-0.453
-207.436	-75.498	-0.166	-0.058
-206.421	379.233	0.041	-0.083
-205.406	-165.024	-0.195	-0.009
-204.392	-14.592	-0.229	-0.145
-203.377	-200.000	-0.041	0.189
-202.363	-200.000	-0.054	-0.254
-201.348	-83.899	-0.180	0.057
-200.333	178.494	-0.291	0.419
-199.319	-33.113	0.367	0.201
-198.304	237.281	0.105	-0.171
-197.290	-60.928	-0.211	0.088
-196.275	520.928	0.098	0.225
-195.260	278.821	-0.108	0.189
-194.246	800.000	0.081	-0.290
-193.231	-200.000	0.066	-0.414
-192.217	-54.423	-0.401	-0.179
-191.202	-133.270	0.273	-0.034
-190.187	-34.314	0.272	0.147
-189.173	74.658	-0.160	-0.166
-188.158	-76.442	0.064	-0.022
-187.144	15.258	0.112	0.086
-186.129	209.306	-0.168	-0.259
-185.114	-89.446	-0.072	0.021
-184.100	224.061	-0.127	-0.203
-183.085	800.000	0.057	0.192
-182.071	-200.000	0.001	-0.307
-181.056	800.000	0.116	-0.388
-180.042	800.000	0.050	0.147
-179.027	-142.490	0.515	0.050
-178.012	-119.122	0.083	0.014
-176.998	-133.071	0.273	0.034
-175.983	-200.000	0.029	-0.350
-174.969	2.541	0.415	0.296
-173.954	451.704	-0.101	0.219
-172.939	245.977	-0.132	-0.219
-171.925	800.000	-0.094	0.282
-170.910	7.884	-0.162	0.119
-169.896	-200.000	-0.058	0.402
-168.881	28.620	-0.079	0.065
-167.866	-34.669	0.375	0.202
-166.852	203.291	0.074	-0.113
-165.837	-148.408	0.035	-0.003
-164.823	-82.295	0.279	-0.089
-163.808	15.415	-0.060	0.046
-162.793	-200.000	-0.029	0.180
-161.779	-80.034	0.144	0.047
-160.764	-73.589	0.101	0.036
-159.750	445.392	-0.147	0.317
-158.735	40.932	-0.228	0.202
-157.720	-92.741	-0.175	0.048
-156.706	-200.000	0.006	-0.193
-155.691	-147.220	0.220	0.018
-154.677	98.324	-0.104	0.118
-153.662	-16.763	-0.184	0.115
-152.647	-149.191	0.414	0.033
-151.633	-200.000	-0.030	0.179
-150.618	-63.111	-0.179	-0.073
-149.604	67.390	0.366	-0.367
-148.589	-200.000	0.001	-0.087
-147.574	-200.000	0.002	-0.185
-146.560	-200.000	-0.058	0.281
-145.545	-132.406	-0.047	-0.006
-144.531	-200.000	0.003	-0.147
-143.516	96.538	-0.150	0.169
-142.502	122.315	0.148	-0.182
-141.487	5.534	0.074	-0.054
-140.472	-200.000	0.004	0.117
-139.458	-23.246	-0.264	-0.156
-138.443	-159.051	0.319	-0.018
-137.429	21.709	0.038	-0.031
-136.414	-162.324	0.342	-0.017
-135.399	800.000	-0.034	-0.106
-134.385	-87.873	0.444	0.131
-133.370	-154.622	0.127	0.008
-132.356	-9.990	-0.103	-0.067
-131.341	-178.656	0.145	-0.003
-130.326	126.704	0.216	-0.269
-129.312	378.094	0.080	0.161
-128.297	-32.997	0.166	0.091
-127.283	5.673	-0.114	0.083
-126.268	-117.654	-0.036	-0.006
-125.253	-156.405	-0.184	0.011
-124.239	171.931	0.189	0.267
-123.224	104.228	-0.094	-0.109
-122.210	91.726	-0.138	0.153
