DTS Sentinel unit serial number:	SN413079Multiplexer serial number:	ORYXHardware model number:	OX4-SRSoftware version number:	ORYX F/W v4.00 Oryx Data Collector v3.7.2.0data status	okinstallation	princeton_trtdifferential loss correction	single-endedforward channel	channel 3reverse channel	N/Adate	2019/09/14time	03:08:35forward acquisition time	60.00reverse acquisition time	0.00gamma	496.2192k internal	0.2339k external	0.2339temperature offset calibration	1.0053default loss term (dB/km)	0.3790temperature slope calibration	1.0000multiplexer offset coefficient	1.0000multiplexer slope coefficient	1.0000fibre end	0.00T internal ref (°C)	26.58T ext. ref 1 (°C)	3.26T ext. ref 2 (°C)	21.66length (m)	temperature (°C)	Stokes	anti-Stokes-747.200	800.000	0.023	-0.087
-746.185	214.464	-0.123	0.196
-745.171	79.718	0.148	-0.159
-744.156	-200.000	0.037	0.169
-743.142	-200.000	-0.009	0.102
-742.127	800.000	0.075	0.220
-741.112	32.498	0.215	0.186
-740.098	-45.601	0.125	-0.062
-739.083	-60.111	-0.403	0.172
-738.069	-31.984	0.294	0.165
-737.054	-25.482	0.272	0.161
-736.039	-153.281	-0.601	-0.042
-735.025	-78.785	0.366	0.125
-734.010	-123.688	-0.448	0.071
-732.996	356.163	0.061	-0.122
-731.981	-200.000	-0.049	-0.238
-730.966	-200.000	0.056	0.326
-729.952	-11.511	-0.208	0.137
-728.937	601.176	-0.065	-0.162
-727.923	107.292	-0.136	-0.162
-726.908	326.181	0.023	-0.043
-725.894	-151.267	-0.277	-0.021
-724.879	-42.106	0.171	0.088
-723.864	-68.351	0.154	0.060
-722.850	-134.501	-0.239	-0.029
-721.835	800.000	-0.034	0.144
-720.821	-3.909	0.214	-0.149
-719.806	-161.526	-0.326	0.017
-718.791	-42.391	-0.352	-0.180
-717.777	-200.000	-0.003	-0.051
-716.762	164.726	-0.128	0.180
-715.748	-200.000	0.074	-0.369
-714.733	-114.112	-0.185	0.036
-713.718	62.022	-0.272	0.271
-712.704	-54.517	0.369	0.167
-711.689	-49.362	-0.161	-0.077
-710.675	340.869	-0.147	-0.288
-709.660	-96.825	-0.177	-0.047
-708.645	-94.837	-0.163	-0.044
-707.631	25.162	0.207	0.172
-706.616	61.149	0.114	-0.113
-705.602	121.624	-0.173	-0.216
-704.587	-200.000	-0.004	-0.115
-703.572	-191.850	-0.275	0.003
-702.558	11.960	-0.171	-0.131
-701.543	-200.000	0.001	-0.297
-700.529	23.446	0.190	0.157
-699.514	800.000	0.058	0.167
-698.499	800.000	0.043	-0.168
-697.485	20.464	-0.127	0.103
-696.470	-200.000	0.023	0.200
-695.456	800.000	0.044	-0.188
-694.441	92.052	-0.051	-0.057
-693.426	-139.627	-0.263	0.028
-692.412	-200.000	-0.033	-0.284
-691.397	-200.000	0.012	-0.263
-690.383	-47.836	0.232	0.113
-689.368	800.000	0.032	0.116
-688.354	321.671	-0.055	0.105
-687.339	-40.041	-0.238	0.124
-686.324	140.044	-0.347	-0.458
-685.310	26.295	0.083	-0.070
-684.295	-33.926	0.232	-0.128
-683.281	-54.266	-0.251	-0.114
-682.266	-109.043	0.225	0.048
-681.251	-126.434	0.291	0.043
-680.237	-73.406	0.295	0.108
-679.222	-81.336	-0.114	-0.037
-678.208	577.754	-0.102	-0.251
-677.193	179.284	0.106	0.155
-676.178	-171.379	-0.400	-0.013
-675.164	-200.000	-0.076	-0.402
-674.149	123.991	-0.141	0.177
-673.135	-29.280	0.169	0.097
-672.120	346.991	-0.040	-0.079
-671.105	-130.647	-0.279	0.038
-670.091	138.361	-0.189	0.248
-669.076	-200.000	-0.014	0.289
-668.062	-85.216	0.121	-0.038
-667.047	33.625	-0.140	-0.122
-666.032	-200.000	-0.018	0.252
-665.018	5.940	0.201	0.149
-664.003	194.147	-0.221	-0.335
-662.989	-161.522	-0.325	-0.017
-661.974	34.858	-0.052	0.046
-660.959	-200.000	0.007	0.077
-659.945	46.566	-0.153	-0.142
-658.930	-49.726	-0.201	0.096
-657.916	-161.623	0.116	-0.006
-656.901	-136.685	-0.271	-0.031
-655.886	7.748	0.057	-0.043
-654.872	-40.313	-0.061	-0.032
-653.857	773.709	-0.041	0.111
-652.843	-135.646	-0.203	0.024
-651.828	699.969	-0.052	-0.137
-650.814	-132.150	-0.103	0.013
-649.799	710.687	0.120	0.319
-648.784	24.818	0.226	-0.187
-647.770	-121.795	-0.352	0.058
-646.755	-131.257	0.204	-0.027
-645.741	-127.491	0.128	0.019
-644.726	-36.224	0.335	-0.181
-643.711	-95.151	-0.262	-0.071
-642.697	167.885	-0.187	0.265
-641.682	79.781	-0.264	0.283
-640.668	800.000	-0.055	-0.178
-639.653	-1.516	-0.148	0.104
-638.638	800.000	0.038	0.107
-637.624	-69.331	0.302	0.116
-636.609	-84.631	0.267	-0.084
-635.595	-75.255	-0.493	-0.176
-634.580	-87.080	-0.162	-0.049
-633.565	41.981	-0.223	0.202
-632.551	333.223	-0.057	0.109
-631.536	621.272	0.092	0.231
-630.522	796.674	-0.065	0.179
-629.507	-45.939	-0.233	0.115
-628.492	-67.239	-0.122	-0.048
-627.478	37.821	0.042	-0.037
-626.463	-166.743	-0.356	0.015
-625.449	800.000	0.116	0.369
-624.434	88.581	-0.091	-0.101
-623.419	-80.248	0.163	-0.055
-622.405	101.698	-0.054	-0.063
-621.390	7.319	0.129	0.096
-620.376	-85.794	0.332	0.103
-619.361	382.896	-0.065	0.134
-618.346	315.924	0.085	-0.160
-617.332	800.000	-0.135	-0.554
-616.317	109.316	-0.105	-0.126
-615.303	-6.457	-0.022	0.015
-614.288	727.191	-0.068	-0.181
-613.273	-73.308	0.268	0.098
-612.259	172.847	-0.154	-0.222
-611.244	25.033	0.050	0.042
-610.230	-127.518	-0.206	-0.030
-609.215	-75.682	-0.084	-0.030
-608.201	-92.088	-0.202	0.057
-607.186	3.932	-0.234	-0.170
-606.171	591.238	0.007	-0.018
-605.157	387.797	0.132	0.273
-604.142	138.347	0.182	-0.238
-603.128	-200.000	-0.018	-0.169
-602.113	800.000	0.140	0.389
-601.098	-113.478	0.304	-0.059
-600.084	-8.840	-0.171	-0.114
-599.069	-148.625	-0.245	-0.020
-598.055	323.213	0.114	-0.216
-597.040	240.415	-0.083	-0.138
-596.025	-200.000	-0.070	-0.338
-595.011	-200.000	0.009	0.225
-593.996	800.000	-0.016	-0.068
-592.982	36.567	-0.205	-0.181
-591.967	231.817	0.164	-0.268
-590.952	-200.000	-0.081	-0.446
-589.938	78.679	0.148	-0.158
-588.923	-200.000	0.041	-0.376
-587.909	-52.289	0.224	0.104
-586.894	32.173	-0.161	0.138
-585.879	-200.000	-0.015	0.116
-584.865	87.664	-0.267	0.294
-583.850	9.296	0.276	-0.208
-582.836	40.494	-0.203	0.182
-581.821	492.207	-0.094	-0.214
-580.806	-7.108	-0.179	-0.121
-579.792	-57.232	0.117	-0.051
-578.777	-69.124	-0.410	0.157
-577.763	35.490	-0.254	0.222
-576.748	-134.109	0.368	-0.045
-575.733	-93.508	-0.656	-0.181
-574.719	287.913	0.027	-0.048
-573.704	800.000	0.055	0.240
-572.690	-200.000	-0.042	-0.223
-571.675	-200.000	-0.040	-0.276
-570.661	-200.000	-0.018	-0.161
-569.646	-60.832	-0.073	0.031
-568.631	-200.000	0.006	0.138
-567.617	-132.690	-0.234	0.030
-566.602	-28.175	0.190	0.110
-565.588	113.816	0.028	0.034
-564.573	-200.000	-0.032	0.146
-563.558	-59.461	-0.198	0.085
-562.544	-200.000	-0.015	-0.263
-561.529	-37.359	-0.146	0.078
-560.515	-92.577	-0.289	-0.081
-559.500	43.942	-0.018	-0.016
-558.485	-200.000	0.026	0.331
-557.471	-58.510	0.129	-0.056
-556.456	8.339	-0.341	-0.255
-555.442	-42.832	-0.304	-0.154
-554.427	729.686	0.103	0.275
-553.412	-48.738	0.260	0.124
-552.398	-200.000	-0.001	0.038
-551.383	-200.000	-0.013	-0.296
-550.369	7.763	-0.160	0.120
-549.354	-32.464	-0.086	0.048
-548.339	-29.048	0.086	-0.049
-547.325	-61.545	0.149	-0.062
-546.310	800.000	0.055	-0.230
-545.296	-87.929	-0.210	0.063
-544.281	213.794	-0.200	0.314
-543.266	96.784	0.071	-0.081
-542.252	-161.001	0.235	0.012
-541.237	-173.807	0.064	-0.002
-540.223	-154.060	-0.143	-0.010
-539.208	-132.099	0.192	-0.025
-538.193	-31.464	0.243	-0.136
-537.179	-159.026	-0.232	0.013
-536.164	171.204	0.162	-0.231
-535.150	78.893	0.140	-0.149
-534.135	800.000	0.122	-0.378
-533.121	3.254	-0.247	0.179
-532.106	-59.708	0.322	-0.137
-531.091	164.257	0.040	0.057
-530.077	-123.003	0.053	-0.008
-529.062	-200.000	0.004	0.232
-528.048	-200.000	-0.025	-0.124
-527.033	-40.115	0.272	0.141
-526.018	-48.657	0.176	0.084
-525.004	800.000	-0.083	-0.293
-523.989	-200.000	0.007	-0.087
-522.975	180.814	-0.282	-0.412
-521.960	121.731	0.160	0.198
-520.945	17.215	-0.193	0.152
-519.931	74.605	-0.098	-0.103
-518.916	-118.458	-0.242	-0.043
-517.902	-200.000	0.007	-0.147
-516.887	141.791	0.191	-0.252
-515.872	-90.235	0.350	-0.101
-514.858	800.000	-0.048	0.158
-513.843	-99.241	0.305	0.077
-512.829	592.663	0.029	-0.072
-511.814	113.803	0.203	-0.245
-510.799	-78.032	-0.247	0.085
-509.785	-36.356	-0.169	-0.091
-508.770	-86.045	-0.224	-0.069
-507.756	261.989	0.082	0.142
-506.741	-200.000	-0.006	0.250
-505.726	81.259	0.205	-0.220
-504.712	800.000	-0.047	-0.140
-503.697	800.000	0.008	0.027
-502.683	-128.465	0.368	0.052
-501.668	276.067	0.066	0.117
-500.653	-200.000	0.043	-0.354
-499.639	696.837	-0.043	-0.113
-498.624	-200.000	-0.032	-0.321
-497.610	108.022	-0.090	-0.106
-496.595	-135.536	-0.074	-0.009
-495.581	113.699	-0.228	-0.275
-494.566	-200.000	-0.034	-0.209
-493.551	-142.080	0.422	-0.042
-492.537	23.806	0.102	-0.083
-491.522	6.553	-0.144	-0.106
-490.508	40.824	-0.070	0.063
-489.493	-113.827	-0.293	-0.057
-488.478	-10.778	-0.293	0.193
-487.464	800.000	-0.055	0.167
-486.449	-100.754	-0.198	0.048
-485.435	800.000	0.050	0.202
-484.420	-116.337	0.020	0.004
-483.405	58.903	-0.211	0.206
-482.391	-69.658	0.381	0.145
-481.376	-113.750	-0.377	0.073
-480.362	76.138	-0.086	-0.090
-479.347	87.297	-0.204	0.225
-478.332	682.174	0.087	0.224
-477.318	-200.000	0.027	-0.324
-476.303	-1.817	0.196	-0.137
-475.289	89.717	0.210	0.232
-474.274	1.384	-0.222	-0.159
-473.259	84.044	-0.057	0.061
-472.245	800.000	0.033	-0.133
-471.230	159.577	0.178	0.245
-470.216	30.217	-0.092	-0.078
-469.201	800.000	-0.038	0.123
-468.186	51.419	-0.137	0.129
-467.172	-40.586	-0.123	-0.063
-466.157	10.621	-0.204	0.154
-465.143	48.234	-0.186	0.173
-464.128	-14.253	0.227	-0.145
-463.113	-200.000	-0.040	0.416
-462.099	-75.274	-0.358	0.127
-461.084	-53.309	-0.560	0.255
-460.070	1.057	0.321	0.228
-459.055	8.137	0.190	-0.141
-458.040	522.331	0.085	-0.199
-457.026	-200.000	-0.016	-0.107
-456.011	-81.552	-0.258	-0.084
-454.997	-86.770	-0.065	-0.020
-453.982	-47.061	0.006	0.003
-452.968	-200.000	-0.008	-0.130
-451.953	114.884	0.232	0.281
-450.938	800.000	0.068	0.226
-449.924	-155.296	0.161	-0.010
-448.909	-200.000	0.004	-0.268
-447.895	800.000	-0.075	-0.239
-446.880	-102.799	-0.082	-0.019
-445.865	-155.496	-0.325	0.021
-444.851	318.434	0.134	-0.251
-443.836	-125.134	0.312	-0.047
-442.822	-90.668	-0.250	0.071
-441.807	-91.370	0.196	0.055
-440.792	-62.642	0.180	-0.074
-439.778	-88.188	0.174	-0.052
-438.763	418.453	-0.042	-0.089
-437.749	385.757	0.154	0.316
-436.734	-14.482	-0.232	0.148
-435.719	642.426	0.085	-0.215
-434.705	-200.000	0.034	-0.332
-433.690	-70.719	0.127	0.047
-432.676	-200.000	0.059	0.295
-431.661	18.056	-0.191	0.151
-430.646	-200.000	-0.038	0.303
-429.632	119.619	-0.167	-0.205
-428.617	150.392	0.247	-0.333
-427.603	-200.000	0.017	0.140
-426.588	42.701	0.093	-0.084
-425.573	-127.978	-0.070	0.010
-424.559	-133.613	-0.198	-0.024
-423.544	-92.661	0.202	-0.056
-422.530	-121.327	0.296	-0.049
-421.515	224.784	0.122	0.196
-420.500	66.609	0.093	0.094
-419.486	377.774	0.119	0.241
-418.471	-81.416	0.289	-0.094
-417.457	-1.782	-0.372	0.259
-416.442	-105.203	0.111	-0.025
-415.428	46.788	0.129	0.119
-414.413	28.653	0.184	-0.154
-413.398	-55.918	-0.367	-0.162
-412.384	128.378	0.236	0.297
-411.369	-133.254	0.239	-0.030
-410.355	-163.963	-0.096	0.004
-409.340	8.654	0.221	-0.165
-408.325	-89.844	-0.267	-0.077
-407.311	-122.308	0.091	0.015
-406.296	-200.000	-0.023	-0.153
-405.282	97.471	0.207	-0.235
-404.267	-8.292	-0.095	-0.063
-403.252	-63.590	0.320	-0.130
-402.238	39.400	0.206	-0.183
-401.223	-20.796	-0.132	0.080
-400.209	-85.775	0.199	0.061
-399.194	124.670	0.098	0.122
-398.179	29.935	0.103	0.087
-397.165	-116.941	-0.248	0.045
-396.150	91.673	-0.105	-0.116
-395.136	-55.912	0.037	-0.016
-394.121	-63.488	0.078	-0.032
-393.106	202.163	0.097	0.149
-392.092	-0.094	0.293	0.206
-391.077	-200.000	0.058	0.287
-390.063	-200.000	0.009	0.114
-389.048	-3.573	0.205	-0.141
-388.033	-17.952	0.128	-0.080
-387.019	-26.438	-0.077	0.045
-386.004	330.651	-0.025	0.047
-384.990	-19.932	-0.097	-0.059
-383.975	85.644	-0.036	-0.040
-382.960	143.029	0.164	0.216
-381.946	-200.000	0.038	-0.272
-380.931	800.000	-0.140	0.603
-379.917	713.704	0.007	-0.018
-378.902	-10.200	0.232	-0.152
-377.888	59.342	-0.135	-0.132
-376.873	-200.000	-0.035	0.255
-375.858	121.583	0.065	0.080
-374.844	-13.785	0.177	0.113
-373.829	-80.464	0.067	-0.022
-372.815	-83.776	-0.451	0.142
-371.800	-85.266	0.201	-0.062
-370.785	-77.652	-0.502	-0.172
-369.771	643.874	0.054	0.137
-368.756	391.312	-0.179	-0.367
-367.742	15.165	0.113	-0.087
-366.727	36.419	-0.051	0.045
-365.712	-28.191	-0.279	0.159
-364.698	-92.713	0.185	-0.051
-363.683	-200.000	-0.040	-0.340
-362.669	-147.375	-0.085	0.007
-361.654	800.000	-0.035	-0.141
-360.639	16.955	-0.083	-0.065
-359.625	800.000	0.065	-0.180
-358.610	762.125	-0.048	-0.129
-357.596	167.015	0.315	-0.442
-356.581	16.462	-0.249	0.194
-355.566	167.998	0.311	0.437
-354.552	-77.708	0.023	0.008
-353.537	-91.391	0.329	-0.093
-352.523	-126.278	0.211	-0.031
-351.508	107.951	0.133	-0.157
-350.493	275.437	0.139	0.243
-349.479	-188.855	0.492	0.006
-348.464	-53.507	0.366	-0.165
-347.450	-200.000	0.018	-0.182
-346.435	416.925	-0.154	0.325
-345.420	-45.823	0.264	0.129
-344.406	-200.000	0.005	-0.035
-343.391	800.000	-0.091	-0.354
-342.377	-59.394	0.214	-0.091
-341.362	-95.728	-0.324	-0.086
-340.348	-200.000	-0.030	-0.170
-339.333	379.298	-0.036	0.072
-338.318	-54.467	0.107	-0.048
-337.304	-184.818	-0.143	-0.002
-336.289	248.402	-0.139	-0.231
-335.275	-102.091	-0.302	0.072
-334.260	-200.000	0.006	-0.145
-333.245	-97.926	0.159	-0.041
-332.231	-28.782	0.090	-0.051
-331.216	-138.861	-0.227	-0.024
-330.202	-56.314	-0.096	-0.042
-329.187	-200.000	0.035	0.390
-328.172	-87.901	-0.076	-0.023
-327.158	532.387	-0.073	-0.171
-326.143	0.068	0.276	0.194
-325.129	-44.432	-0.146	0.072
-324.114	-17.043	-0.199	-0.124
-323.099	-200.000	0.010	0.086
-322.085	-39.727	0.279	0.144
-321.070	74.715	-0.160	0.166
-320.056	215.222	-0.174	0.272
-319.041	-118.601	0.381	0.066
-318.026	-126.599	-0.074	0.011
-317.012	442.866	0.089	0.191
-315.997	-2.910	-0.166	0.114
-314.983	117.568	-0.116	0.141
-313.968	-28.749	-0.200	0.114
-312.953	-200.000	0.025	-0.179
-311.939	208.052	0.080	0.124
-310.924	-4.118	-0.226	-0.155
-309.910	182.913	0.173	-0.252
-308.895	800.000	-0.124	0.436
-307.880	325.850	0.175	0.330
-306.866	-0.439	-0.179	0.125
-305.851	521.035	-0.087	0.201
-304.837	-119.097	0.261	0.045
-303.822	144.007	-0.222	0.292
-302.807	800.000	0.065	-0.242
-301.793	-0.114	0.167	0.117
-300.778	-147.816	-0.181	0.015
-299.764	-54.679	-0.128	0.057
-298.749	-130.276	0.158	0.021
-297.735	-200.000	-0.021	-0.153
-296.720	29.477	-0.337	-0.283
-295.705	-11.345	-0.274	-0.178
-294.691	800.000	-0.096	-0.265
-293.676	-141.770	-0.083	0.008
-292.662	800.000	-0.016	0.066
-291.647	-52.463	0.039	-0.018
-290.632	-200.000	0.038	-0.203
-289.618	115.688	-0.070	-0.084
-288.603	227.018	-0.101	0.162
-287.589	29.948	0.157	-0.132
-286.574	-113.327	0.106	0.020
-285.559	-112.604	-0.114	0.022
-284.545	6.709	0.053	0.039
-283.530	82.450	-0.098	0.105
-282.516	-179.251	-0.331	0.007
-281.501	-13.014	-0.239	-0.153
-280.486	433.247	-0.038	0.081
-279.472	-200.000	0.010	0.068
-278.457	394.492	-0.040	0.083
-277.443	-200.000	-0.032	0.180
-276.428	-132.259	0.476	0.061
-275.413	-200.000	0.004	-0.173
-274.399	57.442	-0.050	0.048
-273.384	-165.614	0.126	0.005
-272.370	-2.541	0.121	0.083
-271.355	-151.483	-0.097	-0.007
-270.340	-59.427	0.082	-0.035
-269.326	800.000	-0.027	-0.090
-268.311	800.000	0.065	-0.217
-267.297	175.469	0.237	-0.338
-266.282	-76.359	-0.194	0.067
-265.267	800.000	-0.020	0.083
-264.253	273.862	0.051	0.089
-263.238	277.317	0.090	-0.157
-262.224	129.157	-0.255	-0.321
-261.209	78.346	-0.214	0.225
-260.195	-200.000	-0.021	-0.298
-259.180	-20.337	-0.154	-0.094
-258.165	-200.000	-0.007	0.160
-257.151	336.059	-0.048	0.092
-256.136	800.000	-0.028	-0.111
-255.122	-198.821	0.114	0.001
-254.107	-200.000	0.002	-0.248
-253.092	435.272	-0.041	-0.089
-252.078	17.166	0.096	0.075
-251.063	8.620	-0.079	0.058
-250.049	271.974	0.122	0.212
-249.034	-81.006	0.250	0.082
-248.019	101.965	0.205	-0.235
-247.005	-200.000	-0.035	0.308
-245.990	-184.993	0.164	-0.003
-244.976	14.256	0.352	-0.270
-243.961	-126.166	-0.148	0.022
-242.946	-200.000	-0.011	0.398
-241.932	-47.171	-0.058	0.028
-240.917	-26.810	0.242	0.139
-239.903	179.439	0.103	0.148
-238.888	-200.000	-0.002	0.219
-237.873	800.000	-0.064	0.260
-236.859	-68.420	-0.153	-0.059
-235.844	278.038	0.083	0.145
-234.830	273.462	0.065	0.112
-233.815	-16.839	-0.022	0.014
-232.800	531.446	0.037	-0.086
-231.786	-44.310	-0.338	-0.166
-230.771	-152.398	0.388	0.027
-229.757	128.261	0.036	0.046
-228.742	652.534	0.052	0.131
-227.727	308.290	0.155	-0.285
-226.713	138.113	0.304	-0.392
-225.698	-200.000	0.035	0.203
-224.684	-200.000	0.025	-0.140
-223.669	800.000	0.077	0.233
-222.655	-200.000	0.001	0.256
-221.640	720.038	0.061	0.159
-220.625	199.459	0.082	-0.124
-219.611	52.802	-0.157	0.147
-218.596	86.808	-0.036	-0.039
-217.582	-90.747	-0.215	0.061
-216.567	-200.000	0.008	-0.038
-215.552	332.632	-0.047	0.090
-214.538	-117.674	0.292	0.052
-213.523	248.499	0.085	-0.141
-212.509	-106.768	-0.078	-0.017
-211.494	6.537	0.315	-0.230
-210.479	385.265	-0.066	0.134
-209.465	-128.345	0.171	0.024
-208.450	-200.000	0.010	0.134
-207.436	-49.981	0.031	0.015
-206.421	110.381	0.197	0.233
-205.406	-34.115	0.247	0.133
-204.392	131.835	-0.286	0.361
-203.377	-55.592	-0.255	0.112
-202.363	297.242	0.118	-0.212
-201.348	25.980	0.192	0.157
-200.333	-96.149	0.163	0.042
-199.319	-200.000	0.031	-0.225
-198.304	-24.427	0.301	0.176
-197.290	-50.484	-0.199	-0.092
-196.275	17.436	0.075	-0.058
-195.260	-106.220	-0.221	-0.049
-194.246	-200.000	-0.003	-0.175
-193.231	-96.465	-0.205	-0.053
-192.217	800.000	0.037	-0.125
-191.202	-38.306	0.146	-0.076
-190.187	446.545	-0.040	-0.087
-189.173	-74.445	-0.282	0.100
-188.158	800.000	-0.017	-0.057
-187.144	800.000	-0.064	-0.272
-186.129	-200.000	-0.006	0.046
-185.114	9.275	-0.088	0.065
-184.100	-16.351	-0.042	-0.026
-183.085	19.937	0.416	-0.329
-182.071	460.092	-0.153	-0.334
-181.056	20.028	-0.432	0.342
-180.042	-200.000	-0.011	0.366
-179.027	-114.488	-0.349	0.066
-178.012	-83.994	0.148	0.046
-176.998	167.379	-0.098	0.137
-175.983	-200.000	-0.011	-0.199
-174.969	-160.310	-0.215	0.011
-173.954	-64.186	0.137	0.055
-172.939	-192.496	0.160	0.001
-171.925	-45.429	0.200	-0.097
-170.910	-80.881	0.432	0.141
-169.896	-195.118	-0.156	-0.001
-168.881	20.224	0.180	0.142
-167.866	-12.792	-0.207	-0.132
-166.852	-197.311	-0.092	0.001
-165.837	101.302	0.036	-0.041
-164.823	68.635	0.146	-0.147
-163.808	-28.276	0.166	0.094
-162.793	-35.421	-0.083	0.044
-161.779	-168.204	-0.542	-0.021
-160.764	-132.462	0.132	-0.017
-159.750	-200.000	0.040	0.427
-158.735	10.720	0.180	-0.135
-157.720	-200.000	0.028	0.126
-156.706	-200.000	-0.009	0.308
-155.691	-90.647	-0.267	0.076
-154.677	423.331	-0.122	0.256
-153.662	-59.024	0.135	0.057
-152.647	-200.000	-0.015	0.180
-151.633	-22.279	0.116	-0.069
-150.618	-134.759	-0.170	-0.020
-149.604	622.816	0.073	-0.181
-148.589	243.174	-0.058	-0.095
-147.574	-200.000	-0.033	-0.382
-146.560	69.695	-0.127	-0.128
-145.545	564.238	0.141	-0.336
-144.531	101.455	-0.132	-0.151
-143.516	-200.000	0.009	-0.375
-142.502	-200.000	-0.039	0.177
-141.487	-200.000	-0.004	0.073
-140.472	44.533	-0.040	0.036
-139.458	303.351	-0.081	-0.147
-138.443	30.844	0.057	0.047
-137.429	-75.010	0.099	0.035
-136.414	11.862	-0.325	0.245
-135.399	-200.000	0.006	-0.291
-134.385	-135.274	0.380	0.045
-133.370	-200.000	0.014	0.092
-132.356	-64.940	-0.432	0.171
-131.341	-200.000	0.035	0.152
-130.326	-52.991	-0.323	-0.145
-129.312	91.183	0.130	0.142
-128.297	-200.000	-0.024	0.215
-127.283	-53.069	-0.186	0.084
-126.268	-97.690	0.245	0.062
-125.253	-75.919	-0.187	0.065
-124.239	800.000	0.076	0.238
-123.224	-200.000	-0.073	0.390
-122.210	38.199	0.155	0.135
-121.195	-32.524	0.079	0.043
