DTS Sentinel unit serial number:	SN413079Multiplexer serial number:	ORYXHardware model number:	OX4-SRSoftware version number:	ORYX F/W v4.00 Oryx Data Collector v3.7.2.0data status	okinstallation	princeton_trtdifferential loss correction	single-endedforward channel	channel 3reverse channel	N/Adate	2019/09/18time	16:24:35forward acquisition time	60.00reverse acquisition time	0.00gamma	496.2192k internal	0.2293k external	0.2293temperature offset calibration	0.9988default loss term (dB/km)	0.3790temperature slope calibration	1.0000multiplexer offset coefficient	1.0000multiplexer slope coefficient	1.0000fibre end	0.00T internal ref (°C)	38.92T ext. ref 1 (°C)	0.84T ext. ref 2 (°C)	35.80length (m)	temperature (°C)	Stokes	anti-Stokes-747.200	273.533	0.192	0.348
-746.185	152.860	-0.198	0.277
-745.171	-23.323	-0.389	0.239
-744.156	123.649	-0.134	-0.172
-743.142	-200.000	0.004	0.087
-742.127	-19.842	0.211	0.133
-741.112	800.000	-0.071	0.279
-740.098	-160.437	-0.123	-0.007
-739.083	50.282	-0.144	0.140
-738.069	-200.000	0.008	0.376
-737.054	9.068	0.296	0.229
-736.039	11.735	-0.189	0.148
-735.025	800.000	0.091	0.278
-734.010	124.323	-0.057	-0.073
-732.996	-200.000	0.015	-0.117
-731.981	-138.044	-0.248	-0.028
-730.966	-48.613	-0.240	0.118
-729.952	15.077	-0.295	-0.236
-728.937	-73.504	0.073	0.027
-727.923	25.152	0.135	-0.115
-726.908	800.000	0.095	0.291
-725.894	800.000	0.022	-0.076
-724.879	800.000	-0.047	0.153
-723.864	-200.000	0.011	-0.260
-722.850	800.000	-0.032	0.116
-721.835	-200.000	-0.006	0.128
-720.821	-115.466	0.468	-0.090
-719.806	-14.358	-0.179	0.118
-718.791	-50.956	0.155	-0.074
-717.777	-131.055	-0.217	0.030
-716.762	40.105	0.094	-0.086
-715.748	144.416	-0.160	-0.219
-714.733	-7.115	-0.183	0.127
-713.718	13.861	0.011	-0.009
-712.704	-2.716	0.184	0.131
-711.689	14.956	-0.158	-0.127
-710.675	58.244	0.408	-0.408
-709.660	-200.000	-0.011	-0.057
-708.645	192.121	0.141	-0.218
-707.631	45.396	-0.141	0.133
-706.616	222.245	0.159	-0.261
-705.602	-8.721	-0.157	-0.107
-704.587	800.000	-0.071	-0.201
-703.572	-33.008	0.356	-0.202
-702.558	-26.212	0.115	-0.069
-701.543	-90.062	-0.243	0.072
-700.529	-200.000	-0.051	-0.249
-699.514	-113.831	-0.276	0.055
-698.499	-200.000	-0.015	0.264
-697.485	81.959	0.119	-0.132
-696.470	57.427	-0.077	-0.076
-695.456	800.000	0.056	-0.164
-694.441	-200.000	-0.007	0.288
-693.426	337.155	-0.108	0.213
-692.412	-200.000	-0.019	-0.232
-691.397	384.959	0.123	-0.260
-690.383	-29.676	-0.079	-0.046
-689.368	-200.000	-0.004	0.155
-688.354	5.196	0.180	0.135
-687.339	-200.000	-0.012	-0.287
-686.324	229.184	-0.050	-0.084
-685.310	149.819	0.050	-0.069
-684.295	-78.455	-0.245	-0.086
-683.281	44.220	0.037	-0.034
-682.266	323.033	-0.048	0.094
-681.251	9.359	0.271	0.209
-680.237	506.695	0.019	-0.045
-679.222	305.396	0.044	0.083
-678.208	-66.242	0.222	0.090
-677.193	177.126	-0.202	0.300
-676.178	-43.312	-0.287	0.148
-675.164	85.518	-0.154	-0.173
-674.149	180.956	-0.104	0.155
-673.135	-172.954	-0.279	-0.009
-672.120	800.000	-0.126	-0.408
-671.105	-69.626	0.091	0.035
-670.091	95.011	-0.116	0.135
-669.076	-200.000	0.012	0.125
-668.062	-200.000	-0.000	0.102
-667.047	11.499	-0.241	-0.189
-666.032	-151.396	-0.239	0.018
-665.018	400.964	-0.072	0.155
-664.003	35.355	0.092	-0.082
-662.989	-152.750	0.175	0.013
-661.974	-200.000	0.028	-0.153
-660.959	156.526	-0.162	0.228
-659.945	-200.000	0.001	-0.025
-658.930	-28.417	-0.256	0.150
-657.916	59.396	0.133	0.134
-656.901	-131.827	-0.418	0.056
-655.886	-89.242	-0.194	0.059
-654.872	-5.393	-0.283	0.198
-653.857	-78.889	-0.244	-0.085
-652.843	-4.542	-0.135	0.095
-651.828	760.898	-0.040	0.111
-650.814	-20.271	0.269	-0.169
-649.799	-200.000	-0.032	-0.350
-648.784	18.064	-0.214	0.174
-647.770	8.881	-0.213	0.164
-646.755	800.000	-0.007	0.022
-645.741	783.676	0.099	0.275
-644.726	24.251	-0.255	0.214
-643.711	20.555	0.076	-0.062
-642.697	-24.529	-0.147	0.089
-641.682	109.473	-0.166	-0.203
-640.668	-81.322	-0.135	-0.045
-639.653	-65.560	-0.146	-0.060
-638.638	-141.026	0.470	-0.049
-637.624	351.589	-0.073	-0.148
-636.609	96.868	-0.162	-0.190
-635.595	331.925	-0.046	0.091
-634.580	-54.573	0.269	-0.124
-633.565	402.586	-0.136	-0.290
-632.551	-5.307	0.061	-0.043
-631.536	107.920	0.101	-0.123
-630.522	796.096	-0.082	-0.231
-629.507	-36.660	-0.371	-0.203
-628.492	69.069	-0.049	0.052
-627.478	-35.421	0.264	-0.146
-626.463	60.099	-0.209	-0.211
-625.449	-200.000	0.010	-0.263
-624.434	-150.875	-0.197	0.015
-623.419	-200.000	0.008	0.061
-622.405	162.827	-0.096	-0.137
-621.390	-200.000	-0.008	-0.214
-620.376	-51.373	0.109	0.052
-619.361	-200.000	0.105	0.593
-618.346	-65.186	0.386	-0.158
-617.332	-118.921	0.281	-0.050
-616.317	83.278	0.065	-0.072
-615.303	170.725	0.071	-0.104
-614.288	-44.699	-0.198	-0.101
-613.273	190.567	-0.013	-0.020
-612.259	62.931	-0.217	0.221
-611.244	42.768	0.088	-0.082
-610.230	-200.000	0.002	-0.052
-609.215	40.116	-0.140	-0.128
-608.201	-200.000	0.044	-0.505
-607.186	144.201	0.164	-0.223
-606.171	111.648	-0.088	-0.107
-605.157	-8.075	0.056	-0.039
-604.142	87.408	-0.136	0.153
-603.128	-102.609	0.393	0.096
-602.113	-141.153	0.151	0.016
-601.098	144.782	0.100	0.136
-600.084	800.000	0.052	0.158
-599.069	-50.152	-0.221	-0.106
-598.055	191.801	-0.034	0.052
-597.040	-200.000	0.024	-0.235
-596.025	295.194	0.067	-0.125
-595.011	-41.197	-0.218	0.114
-593.996	37.194	-0.110	-0.099
-592.982	-35.127	-0.413	-0.229
-591.967	10.774	0.197	0.153
-590.952	-127.781	0.282	-0.041
-589.938	800.000	-0.105	0.314
-588.923	-1.908	0.233	-0.167
-587.909	75.894	-0.098	0.105
-586.894	-127.890	0.265	0.039
-585.879	-57.507	-0.254	-0.113
-584.865	38.973	0.247	0.224
-583.850	436.360	-0.091	0.202
-582.836	271.665	-0.160	0.287
-581.821	800.000	0.019	-0.075
-580.806	474.868	-0.125	-0.287
-579.792	-166.188	0.208	-0.009
-578.777	800.000	-0.103	-0.415
-577.763	393.400	0.197	-0.416
-576.748	800.000	0.030	0.127
-575.733	160.067	0.123	0.174
-574.719	-200.000	-0.049	-0.352
-573.704	563.553	0.027	0.067
-572.690	427.070	-0.092	-0.201
-571.675	-63.492	-0.168	0.070
-570.661	-42.745	-0.153	0.079
-569.646	-91.971	-0.092	-0.026
-568.631	160.473	-0.338	-0.480
-567.617	-52.109	0.315	-0.148
-566.602	270.725	-0.051	0.092
-565.588	-166.920	-0.144	0.006
-564.573	24.620	-0.164	-0.138
-563.558	271.780	-0.010	-0.018
-562.544	-143.078	0.129	0.013
-561.529	800.000	0.105	0.399
-560.515	-142.691	-0.104	-0.010
-559.500	-117.737	0.250	-0.046
-558.485	-200.000	-0.005	0.302
-557.471	-160.064	-0.133	0.007
-556.456	205.624	-0.070	0.110
-555.442	-200.000	0.004	0.135
-554.427	0.849	-0.167	-0.122
-553.412	-200.000	0.040	-0.181
-552.398	-74.808	0.195	0.071
-551.383	-36.967	0.126	0.068
-550.369	619.489	-0.086	-0.220
-549.354	298.573	0.126	0.236
-548.339	-200.000	0.019	-0.120
-547.325	39.985	-0.201	0.184
-546.310	-200.000	-0.003	-0.118
-545.296	38.744	0.253	-0.229
-544.281	56.383	0.142	0.141
-543.266	-90.796	0.163	0.048
-542.252	99.940	0.380	0.447
-541.237	800.000	-0.119	-0.420
-540.223	-81.926	-0.151	-0.050
-539.208	25.750	0.086	-0.073
-538.193	-102.850	0.088	-0.021
-537.179	170.215	-0.203	0.294
-536.164	230.651	0.109	0.181
-535.150	-200.000	-0.001	0.262
-534.135	-200.000	-0.023	0.179
-533.121	-177.196	-0.079	-0.002
-532.106	-119.839	0.184	-0.032
-531.091	30.271	-0.193	0.167
-530.077	216.848	-0.150	-0.242
-529.062	238.906	0.051	-0.087
-528.048	-200.000	0.000	-0.251
-527.033	-27.916	-0.525	0.308
-526.018	-15.725	0.147	-0.095
-525.004	17.648	0.236	0.191
-523.989	363.753	0.183	-0.374
-522.975	138.817	-0.029	-0.039
-521.960	-110.513	0.271	0.057
-520.945	800.000	0.028	-0.115
-519.931	-98.958	-0.078	-0.020
-518.916	-24.162	-0.162	0.098
-517.902	-75.430	-0.427	-0.154
-516.887	-200.000	0.060	0.360
-515.872	123.340	0.213	0.271
-514.858	-200.000	-0.006	0.352
-513.843	800.000	0.053	0.168
-512.829	-89.891	0.142	-0.042
-511.814	-117.255	-0.268	-0.049
-510.799	-70.108	-0.275	-0.106
-509.785	-76.218	-0.198	0.071
-508.770	-147.715	-0.188	0.016
-507.756	-200.000	-0.010	-0.055
-506.741	-175.783	-0.325	0.009
-505.726	-173.850	0.036	0.001
-504.712	345.208	0.057	0.114
-503.697	84.945	-0.178	0.198
-502.683	161.319	0.042	-0.060
-501.668	639.653	0.112	-0.290
-500.653	407.634	0.104	0.222
-499.639	727.477	0.202	0.545
-498.624	-24.238	-0.058	-0.035
-497.610	203.348	0.070	-0.109
-496.595	135.775	0.223	0.294
-495.581	740.994	0.120	-0.326
-494.566	-200.000	-0.046	-0.419
-493.551	413.897	0.075	0.162
-492.537	-59.831	-0.204	-0.089
-491.522	800.000	0.032	-0.135
-490.508	306.367	0.198	0.373
-489.493	-70.514	0.056	0.022
-488.478	-9.822	0.144	-0.097
-487.464	189.543	-0.047	0.071
-486.449	-148.430	0.276	0.023
-485.435	-200.000	-0.048	0.336
-484.420	5.893	0.167	-0.126
-483.405	-107.288	-0.514	0.115
-482.391	113.881	0.177	-0.218
-481.376	126.145	-0.067	-0.086
-480.362	-125.977	0.161	-0.025
-479.347	247.839	0.185	-0.317
-478.332	80.164	0.298	0.325
-477.318	800.000	0.039	0.136
-476.303	185.749	-0.069	0.103
-475.289	-121.607	-0.390	-0.066
-474.274	469.177	0.073	-0.166
-473.259	-17.352	0.102	-0.065
-472.245	800.000	0.039	0.110
-471.230	-62.479	0.061	0.026
-470.216	109.396	0.104	-0.126
-469.201	225.807	0.122	-0.200
-468.186	-83.364	-0.132	0.043
-467.172	-200.000	-0.008	0.113
-466.157	93.885	-0.096	-0.110
-465.143	23.776	-0.322	0.268
-464.128	166.086	-0.058	-0.084
-463.113	49.632	-0.178	-0.170
-462.099	-200.000	0.029	-0.309
-461.084	-27.000	0.073	0.043
-460.070	-136.797	-0.062	-0.007
-459.055	-200.000	0.003	-0.062
-458.040	264.005	-0.094	0.166
-457.026	27.402	0.194	0.165
-456.011	221.548	0.104	0.169
-454.997	-1.275	-0.228	-0.163
-453.982	-112.384	-0.184	0.037
-452.968	-200.000	-0.017	-0.260
-451.953	615.501	0.119	-0.302
-450.938	-101.431	-0.109	0.027
-449.924	-184.792	0.134	0.002
-448.909	226.189	-0.123	-0.202
-447.895	800.000	-0.043	0.130
-446.880	42.712	-0.189	0.174
-445.865	45.257	0.211	-0.196
-444.851	-169.700	-0.055	-0.002
-443.836	632.419	0.026	-0.067
-442.822	1.744	0.262	0.191
-441.807	98.395	-0.220	0.257
-440.792	-200.000	0.012	0.344
-439.778	10.210	0.212	0.163
-438.763	-70.148	-0.396	-0.152
-437.749	104.099	-0.334	-0.397
-436.734	80.246	0.031	-0.034
-435.719	-85.974	0.204	0.064
-434.705	-131.371	-0.008	0.001
-433.690	800.000	0.009	0.036
-432.676	19.560	-0.020	0.017
-431.661	-114.457	0.276	-0.054
-430.646	800.000	-0.030	-0.099
-429.632	-44.784	0.265	-0.133
-428.617	8.879	-0.131	0.100
-427.603	397.064	0.079	0.166
-426.588	800.000	0.093	0.277
-425.573	90.078	-0.273	0.309
-424.559	-2.853	-0.123	-0.087
-423.544	44.740	-0.184	-0.171
-422.530	423.525	-0.139	-0.302
-421.515	-78.961	0.290	0.100
-420.500	-122.100	-0.310	0.051
-419.486	-200.000	0.043	-0.194
-418.471	409.945	0.123	-0.263
-417.457	-123.478	0.058	0.009
-416.442	-99.909	0.273	-0.069
-415.428	-61.297	0.266	-0.113
-414.413	82.497	0.095	-0.104
-413.398	-200.000	-0.044	-0.371
-412.384	-85.365	0.203	-0.064
-411.369	-30.656	-0.182	0.104
-410.355	-65.262	0.233	0.095
-409.340	-82.877	-0.084	0.027
-408.325	-6.208	0.073	0.051
-407.311	394.490	-0.102	0.215
-406.296	-13.104	-0.129	0.085
-405.282	76.836	-0.189	-0.203
-404.267	-200.000	0.014	-0.211
-403.252	-200.000	-0.016	0.151
-402.238	393.524	-0.108	-0.226
-401.223	296.773	0.062	0.114
-400.209	-200.000	0.012	0.110
-399.194	-200.000	0.096	-0.000
-398.179	800.000	-0.114	0.462
-397.165	236.544	-0.124	0.206
-396.150	-43.678	0.483	-0.246
-395.136	-136.096	-0.197	0.023
-394.121	-8.951	-0.128	0.086
-393.106	-200.000	0.070	-0.422
-392.092	-44.771	-0.113	-0.057
-391.077	-44.020	-0.275	0.139
-390.063	240.199	0.081	0.137
-389.048	-97.309	-0.347	-0.091
-388.033	-43.402	0.191	0.098
-387.019	-200.000	0.011	0.251
-386.004	-143.854	-0.287	0.027
-384.990	-16.288	0.192	-0.123
-383.975	329.090	0.200	0.387
-382.960	-200.000	-0.025	-0.127
-381.946	800.000	0.077	0.248
-380.931	-88.720	0.304	0.091
-379.917	-136.753	-0.257	0.030
-378.902	-200.000	0.005	0.193
-377.888	-65.716	-0.137	0.055
-376.873	630.990	0.078	0.200
-375.858	-23.840	0.263	-0.159
-374.844	800.000	-0.047	-0.140
-373.829	3.563	0.095	-0.070
-372.815	-200.000	-0.016	-0.161
-371.800	-200.000	0.025	0.131
-370.785	-21.481	-0.094	0.058
-369.771	-200.000	-0.038	0.293
-368.756	179.398	-0.232	-0.343
-367.742	486.452	-0.083	-0.190
-366.727	-117.258	0.315	-0.058
-365.712	259.460	-0.090	-0.156
-364.698	227.847	-0.138	0.227
-363.683	74.338	-0.154	0.163
-362.669	-122.247	0.117	0.019
-361.654	93.148	0.313	-0.357
-360.639	-66.527	0.133	-0.053
-359.625	161.529	-0.064	0.090
-358.610	800.000	0.083	0.257
-357.596	-200.000	0.026	0.208
-356.581	-89.128	0.227	0.068
-355.566	800.000	-0.133	0.373
-354.552	-2.411	-0.328	-0.231
-353.537	-200.000	0.015	0.196
-352.523	5.159	-0.279	0.207
-351.508	21.025	0.102	-0.083
-350.493	32.833	-0.198	0.172
-349.479	-55.711	-0.153	-0.069
-348.464	800.000	-0.046	0.143
-347.450	72.099	-0.118	-0.124
-346.435	87.903	0.103	-0.115
-345.420	800.000	-0.013	0.046
-344.406	32.452	-0.221	0.192
-343.391	91.784	0.209	-0.237
-342.377	-200.000	0.023	-0.203
-341.362	-143.285	0.141	-0.014
-340.348	156.295	0.026	-0.037
-339.333	-200.000	0.016	0.139
-338.318	-185.049	0.267	-0.004
-337.304	67.903	-0.225	0.232
-336.289	-49.632	0.314	-0.151
-335.275	300.932	0.026	0.048
-334.260	-68.693	0.355	-0.138
-333.245	-200.000	0.012	0.068
-332.231	-200.000	-0.056	0.385
-331.216	-128.585	-0.277	-0.039
-330.202	800.000	-0.067	-0.223
-329.187	396.277	-0.092	0.194
-328.172	-122.338	-0.254	0.042
-327.158	25.299	-0.210	0.176
-326.143	-33.222	0.129	0.072
-325.129	800.000	-0.037	0.135
-324.114	-2.268	0.341	-0.241
-323.099	123.875	0.193	0.244
-322.085	161.074	0.107	0.151
-321.070	-200.000	-0.010	-0.078
-320.056	-85.265	-0.150	-0.047
-319.041	-200.000	-0.010	-0.211
-318.026	800.000	-0.029	-0.081
-317.012	-83.494	0.208	-0.067
-315.997	723.343	-0.115	-0.308
-314.983	-192.114	-0.041	-0.000
-313.968	-140.198	0.310	-0.033
-312.953	800.000	0.042	0.167
-311.939	-94.035	-0.444	0.122
-310.924	134.647	0.082	0.107
-309.910	-64.046	0.222	0.091
-308.895	6.237	-0.141	0.105
-307.880	292.444	-0.180	-0.330
-306.866	-40.191	-0.156	0.081
-305.851	-200.000	-0.038	0.183
-304.837	800.000	-0.070	0.213
-303.822	-23.758	-0.331	-0.200
-302.807	-169.512	0.108	-0.004
-301.793	-200.000	-0.010	0.332
-300.778	-74.312	0.188	-0.068
-299.764	88.597	0.071	0.080
-298.749	-200.000	0.062	0.298
-297.735	-83.552	0.206	-0.066
-296.720	-103.843	0.070	-0.017
-295.705	254.091	0.048	-0.083
-294.691	12.744	-0.115	0.090
-293.676	623.578	-0.208	0.528
-292.662	6.418	0.235	0.175
-291.647	-150.521	0.284	0.022
-290.632	-17.085	0.150	-0.095
-289.618	-200.000	-0.062	-0.307
-288.603	-200.000	0.012	-0.350
-287.589	-94.712	-0.181	-0.049
-286.574	330.111	0.108	0.209
-285.559	-51.326	0.065	-0.031
-284.545	800.000	-0.077	-0.296
-283.530	-121.351	0.321	0.054
-282.516	800.000	-0.020	0.067
-281.501	431.490	-0.013	-0.028
-280.486	-7.227	0.139	0.095
-279.472	-94.602	0.235	-0.064
-278.457	-125.133	0.027	0.004
-277.443	-99.807	-0.229	-0.057
-276.428	248.742	0.213	-0.362
-275.413	280.858	-0.194	-0.348
-274.399	-200.000	0.059	0.322
-273.384	-200.000	0.005	-0.114
-272.370	-114.213	0.048	-0.009
-271.355	36.744	-0.225	0.199
-270.340	37.841	-0.108	0.097
-269.326	57.260	-0.138	-0.135
-268.311	-183.920	-0.494	0.008
-267.297	-110.480	-0.166	-0.034
-266.282	-50.620	-0.098	0.046
-265.267	149.040	-0.105	0.142
-264.253	-150.033	0.068	-0.005
-263.238	-20.974	-0.281	-0.173
-262.224	370.877	-0.088	0.179
-261.209	-200.000	-0.027	-0.172
-260.195	-15.451	-0.084	0.054
-259.180	-159.194	0.109	0.006
-258.165	406.409	0.050	-0.107
-257.151	42.129	0.139	-0.126
-256.136	-200.000	-0.019	0.091
-255.122	-200.000	-0.014	0.198
-254.107	204.006	0.114	-0.178
-253.092	-73.703	-0.072	0.026
-252.078	171.109	-0.142	0.204
-251.063	-161.136	-0.217	0.011
-250.049	396.982	0.152	0.318
-249.034	-138.239	-0.262	-0.029
-248.019	800.000	0.072	-0.275
-247.005	-98.149	-0.124	-0.032
-245.990	-165.842	0.154	-0.007
-244.976	-82.331	-0.202	0.066
-243.961	-200.000	-0.004	0.032
-242.946	166.723	-0.134	-0.190
-241.932	800.000	0.058	0.181
-240.917	4.199	0.203	-0.149
-239.903	-88.665	0.034	0.010
-238.888	-200.000	0.013	-0.235
-237.873	-200.000	-0.002	0.052
-236.859	800.000	-0.068	0.267
-235.844	800.000	0.113	-0.495
-234.830	-149.919	0.293	0.023
-233.815	245.669	-0.081	0.137
-232.800	-200.000	-0.032	0.151
-231.786	-98.445	0.154	-0.039
-230.771	428.422	0.081	0.175
-229.757	-117.030	0.080	-0.015
-228.742	182.149	0.178	0.263
-227.727	628.990	0.054	-0.136
-226.713	-156.726	0.344	-0.021
-225.698	-83.879	0.233	-0.074
-224.684	-78.353	-0.357	-0.123
-223.669	147.187	-0.113	0.153
-222.655	488.035	-0.040	0.091
-221.640	-200.000	0.019	0.189
-220.625	-90.770	0.324	-0.094
-219.611	39.664	-0.063	0.056
-218.596	-48.863	0.070	-0.033
-217.582	107.014	-0.101	0.121
-216.567	156.847	0.167	-0.231
-215.552	-22.780	0.113	0.069
-214.538	-200.000	-0.035	0.216
-213.523	32.007	-0.244	-0.211
-212.509	-45.055	-0.267	-0.133
-211.494	-127.528	-0.334	0.049
-210.479	800.000	0.133	-0.394
-209.465	-83.955	0.186	0.059
-208.450	119.317	0.203	0.251
-207.436	-122.911	-0.176	-0.028
-206.421	-68.789	0.168	0.065
-205.406	-41.528	-0.047	0.024
-204.392	58.725	0.221	-0.218
-203.377	-200.000	-0.009	0.171
-202.363	-200.000	-0.028	0.213
-201.348	518.233	-0.036	0.085
-200.333	-73.384	0.275	-0.101
-199.319	-25.548	0.061	0.036
-198.304	-108.850	-0.138	0.030
-197.290	540.086	-0.085	0.203
-196.275	58.571	0.041	-0.040
-195.260	-131.894	-0.194	0.025
-194.246	-200.000	0.042	-0.220
-193.231	53.557	0.252	0.242
-192.217	800.000	-0.026	-0.093
-191.202	148.507	-0.122	-0.165
-190.187	146.743	0.153	-0.205
-189.173	153.944	-0.121	0.166
-188.158	609.464	-0.136	0.340
-187.144	-88.852	0.018	0.005
-186.129	513.424	0.112	-0.261
-185.114	137.546	-0.026	-0.034
-184.100	78.869	0.086	-0.092
-183.085	126.953	0.087	0.110
-182.071	-200.000	-0.020	-0.136
-181.056	136.749	-0.131	0.171
-180.042	17.491	-0.094	0.075
-179.027	-116.699	0.267	0.049
-178.012	62.873	-0.357	-0.358
-176.998	-200.000	-0.007	-0.180
-175.983	162.562	0.097	-0.137
-174.969	-70.795	0.310	-0.117
-173.954	800.000	0.071	0.269
-172.939	800.000	0.020	-0.063
-171.925	122.370	0.065	-0.081
-170.910	245.195	0.081	0.137
-169.896	800.000	-0.092	0.286
-168.881	-107.731	0.055	-0.012
-167.866	-108.739	-0.539	0.115
-166.852	280.579	0.162	0.290
-165.837	-2.957	-0.268	0.187
-164.823	343.229	0.061	0.119
-163.808	705.552	0.038	0.101
-162.793	596.533	0.141	-0.349
-161.779	96.978	0.152	-0.174
-160.764	-200.000	-0.053	-0.363
-159.750	-200.000	-0.113	0.570
-158.735	800.000	-0.057	-0.211
-157.720	239.243	0.128	-0.212
-156.706	-200.000	-0.004	-0.092
-155.691	800.000	-0.045	-0.181
-154.677	-41.383	0.073	0.038
-153.662	-200.000	-0.015	0.084
-152.647	-200.000	0.067	-0.419
-151.633	-96.605	0.329	0.087
-150.618	-200.000	-0.080	0.460
-149.604	26.889	-0.133	-0.112
-148.589	-137.640	-0.058	-0.006
-147.574	91.054	0.087	0.098
-146.560	-114.579	-0.054	0.010
-145.545	232.363	-0.148	0.244
-144.531	458.411	0.122	-0.271
-143.516	800.000	-0.075	0.299
-142.502	-69.738	0.203	-0.077
-141.487	-200.000	0.017	-0.082
-140.472	-131.236	-0.084	0.011
-139.458	-200.000	0.046	-0.241
-138.443	-71.752	-0.365	0.136
-137.429	383.285	0.044	0.090
-136.414	-61.106	-0.356	0.150
-135.399	-156.960	-0.188	0.012
-134.385	-176.231	-0.162	-0.004
-133.370	-143.041	0.102	-0.010
-132.356	142.226	-0.240	-0.318
-131.341	800.000	-0.093	-0.319
-130.326	59.936	0.085	0.084
-129.312	-91.811	0.172	-0.049
-128.297	-33.738	0.119	-0.065
-127.283	652.491	-0.081	-0.208
-126.268	-27.682	0.226	-0.131
-125.253	3.487	0.233	0.170
-124.239	19.270	-0.014	0.011
-123.224	263.908	-0.089	0.154
-122.210	-166.533	-0.446	0.019
-121.195	-81.896	-0.102	-0.033
