DTS Sentinel unit serial number:	SN413079Multiplexer serial number:	ORYXHardware model number:	OX4-SRSoftware version number:	ORYX F/W v4.00 Oryx Data Collector v3.7.2.0data status	okinstallation	princeton_trtdifferential loss correction	single-endedforward channel	channel 3reverse channel	N/Adate	2019/09/13time	10:08:34forward acquisition time	60.00reverse acquisition time	0.00gamma	496.2192k internal	0.2323k external	0.2323temperature offset calibration	1.0140default loss term (dB/km)	0.3790temperature slope calibration	1.0000multiplexer offset coefficient	1.0000multiplexer slope coefficient	1.0000fibre end	0.00T internal ref (°C)	30.50T ext. ref 1 (°C)	4.51T ext. ref 2 (°C)	27.78length (m)	temperature (°C)	Stokes	anti-Stokes-747.200	-200.000	-0.017	-0.249
-746.185	43.376	-0.072	0.066
-745.171	30.702	0.056	0.048
-744.156	2.393	0.288	-0.210
-743.142	-200.000	-0.037	0.263
-742.127	-40.815	-0.200	-0.104
-741.112	-80.369	0.113	0.038
-740.098	238.668	0.228	0.382
-739.083	-200.000	0.011	0.094
-738.069	-13.104	-0.114	-0.075
-737.054	551.163	-0.011	0.026
-736.039	-200.000	-0.003	0.201
-735.025	800.000	0.006	-0.019
-734.010	729.136	-0.057	0.153
-732.996	159.063	-0.195	-0.274
-731.981	-64.035	0.075	0.031
-730.966	19.191	-0.297	0.241
-729.952	81.640	0.253	-0.276
-728.937	-103.133	-0.064	0.015
-727.923	-95.163	-0.356	0.097
-726.908	-200.000	0.006	0.033
-725.894	-200.000	0.009	-0.190
-724.879	242.915	-0.368	-0.623
-723.864	-91.433	-0.205	-0.059
-722.850	-77.678	0.295	-0.103
-721.835	1.359	-0.224	0.163
-720.821	265.586	-0.087	-0.154
-719.806	800.000	-0.021	0.084
-718.791	645.272	-0.079	0.203
-717.777	-94.171	-0.135	0.037
-716.762	-4.193	0.146	0.102
-715.748	280.405	0.043	0.078
-714.733	292.286	-0.107	0.197
-713.718	-40.065	0.237	-0.125
-712.704	72.586	0.373	-0.392
-711.689	-132.647	0.248	0.032
-710.675	800.000	0.027	-0.089
-709.660	-63.299	-0.200	-0.083
-708.645	-91.572	-0.143	-0.041
-707.631	526.354	-0.080	0.189
-706.616	-141.876	0.441	0.045
-705.602	-200.000	-0.038	-0.286
-704.587	-200.000	-0.012	-0.164
-703.572	-200.000	-0.027	-0.143
-702.558	-178.223	0.232	0.006
-701.543	602.892	0.066	-0.165
-700.529	-200.000	0.034	0.171
-699.514	-39.127	-0.148	0.079
-698.499	-135.648	-0.315	-0.038
-697.485	380.777	0.012	-0.025
-696.470	147.964	0.153	0.207
-695.456	328.475	0.126	0.244
-694.441	255.203	-0.088	0.153
-693.426	-131.406	0.106	0.014
-692.412	-200.000	0.024	0.204
-691.397	-138.341	-0.046	-0.005
-690.383	13.695	-0.164	0.129
-689.368	-200.000	-0.043	0.274
-688.354	-24.737	-0.184	0.110
-687.339	703.851	-0.042	0.112
-686.324	35.864	0.116	0.103
-685.310	-137.666	-0.283	0.032
-684.295	68.435	0.113	0.116
-683.281	-200.000	-0.002	0.058
-682.266	800.000	0.057	0.185
-681.251	-117.497	-0.392	-0.071
-680.237	166.794	0.136	0.194
-679.222	-180.723	0.378	0.008
-678.208	158.742	-0.133	0.185
-677.193	-0.497	-0.227	0.162
-676.178	-123.266	0.096	-0.015
-675.164	-14.581	-0.232	-0.150
-674.149	-135.121	0.119	0.014
-673.135	471.312	-0.073	0.166
-672.120	-200.000	-0.028	-0.145
-671.105	-91.307	-0.232	0.067
-670.091	44.834	0.073	0.068
-669.076	-84.862	0.092	0.029
-668.062	-200.000	-0.031	-0.262
-667.047	236.131	0.195	0.324
-666.032	214.298	-0.086	0.136
-665.018	-87.713	-0.074	-0.022
-664.003	335.463	0.125	-0.244
-662.989	434.635	-0.111	0.243
-661.974	177.816	-0.107	0.157
-660.959	20.593	-0.255	-0.208
-659.945	-171.587	0.191	-0.006
-658.930	348.843	-0.048	0.095
-657.916	44.112	0.287	-0.265
-656.901	-92.696	-0.191	0.054
-655.886	800.000	-0.061	-0.181
-654.872	220.477	0.088	-0.141
-653.857	-200.000	-0.014	-0.324
-652.843	-200.000	0.019	-0.186
-651.828	800.000	-0.111	0.312
-650.814	210.032	0.139	0.219
-649.799	94.373	-0.354	0.405
-648.784	-140.057	-0.218	0.023
-647.770	-74.548	0.127	-0.046
-646.755	35.615	0.039	0.034
-645.741	-50.236	0.198	-0.094
-644.726	-200.000	0.015	-0.197
-643.711	-80.342	-0.236	-0.079
-642.697	-148.610	0.332	0.027
-641.682	106.753	0.293	0.350
-640.668	185.716	-0.128	-0.191
-639.653	-3.821	0.058	0.040
-638.638	-16.940	0.069	0.044
-637.624	-153.400	0.193	0.014
-636.609	214.649	0.116	-0.185
-635.595	3.522	-0.256	0.188
-634.580	-200.000	-0.063	0.372
-633.565	-127.605	-0.683	0.100
-632.551	248.644	0.118	0.200
-631.536	205.257	-0.215	-0.336
-630.522	272.235	-0.270	-0.478
-629.507	-200.000	0.004	-0.155
-628.492	-102.187	-0.276	0.067
-627.478	37.515	0.088	-0.079
-626.463	624.860	-0.062	0.158
-625.449	67.151	0.101	0.104
-624.434	546.934	-0.079	0.191
-623.419	325.375	-0.020	0.038
-622.405	-109.256	-0.168	-0.036
-621.390	-27.584	-0.352	0.206
-620.376	-127.392	0.204	-0.030
-619.361	8.505	-0.125	-0.094
-618.346	25.674	-0.056	0.047
-617.332	-63.108	0.127	-0.053
-616.317	153.932	-0.108	0.149
-615.303	800.000	0.026	0.079
-614.288	-72.447	0.140	0.052
-613.273	23.732	0.294	-0.243
-612.259	-0.476	-0.002	0.002
-611.244	-200.000	0.009	-0.270
-610.230	-200.000	-0.084	0.400
-609.215	201.273	0.139	0.216
-608.201	661.302	-0.108	-0.281
-607.186	-25.081	0.093	0.055
-606.171	-5.163	0.086	-0.059
-605.157	-200.000	-0.004	-0.191
-604.142	-63.618	0.145	-0.060
-603.128	26.702	-0.274	-0.230
-602.113	-185.626	-0.199	0.003
-601.098	55.034	0.307	0.298
-600.084	800.000	-0.094	-0.289
-599.069	544.423	0.070	0.168
-598.055	-98.891	0.185	-0.047
-597.040	-72.960	-0.334	-0.123
-596.025	170.666	0.038	-0.055
-595.011	-200.000	-0.049	-0.294
-593.996	800.000	0.093	-0.357
-592.982	-177.788	0.301	0.007
-591.967	104.193	-0.128	-0.151
-590.952	800.000	0.063	0.189
-589.938	232.367	0.111	-0.184
-588.923	747.371	0.065	-0.175
-587.909	53.942	-0.145	0.140
-586.894	-168.361	-0.403	-0.016
-585.879	-78.737	0.247	-0.084
-584.865	-8.269	0.018	-0.012
-583.850	-75.133	0.145	-0.052
-582.836	361.748	-0.031	-0.062
-581.821	489.818	0.092	-0.210
-580.806	-200.000	-0.032	-0.177
-579.792	-38.924	0.311	-0.164
-578.777	123.247	-0.114	0.143
-577.763	800.000	0.043	-0.143
-576.748	22.420	-0.204	0.167
-575.733	143.292	0.021	-0.028
-574.719	-115.712	0.084	0.016
-573.704	8.863	-0.221	0.167
-572.690	-28.121	-0.259	0.150
-571.675	800.000	-0.071	0.218
-570.661	12.790	-0.151	-0.117
-569.646	-43.802	-0.327	0.165
-568.631	-200.000	-0.007	-0.234
-567.617	-49.315	-0.159	-0.076
-566.602	674.070	-0.024	-0.061
-565.588	23.552	0.140	0.115
-564.573	-37.241	0.104	0.056
-563.558	24.015	-0.245	-0.203
-562.544	428.596	-0.219	0.475
-561.529	24.676	0.145	0.121
-560.515	-200.000	-0.020	-0.264
-559.500	-126.026	0.092	0.014
-558.485	59.247	0.037	0.037
-557.471	-63.014	-0.164	-0.068
-556.456	-61.474	-0.162	-0.068
-555.442	-186.485	0.108	0.002
-554.427	48.106	0.116	0.109
-553.412	-200.000	0.016	0.329
-552.398	10.722	-0.116	-0.089
-551.383	-96.445	0.126	-0.033
-550.369	800.000	0.068	-0.242
-549.354	-135.395	-0.164	0.020
-548.339	800.000	-0.111	-0.367
-547.325	-200.000	0.019	0.201
-546.310	-0.530	0.291	-0.207
-545.296	-100.479	0.191	0.047
-544.281	305.964	0.101	-0.188
-543.266	-163.341	-0.172	-0.008
-542.252	161.466	-0.016	-0.022
-541.237	51.740	-0.112	0.107
-540.223	517.194	-0.082	0.191
-539.208	-123.491	-0.093	-0.015
-538.193	-98.357	-0.110	-0.028
-537.179	156.222	0.150	-0.207
-536.164	58.461	0.140	0.137
-535.150	-200.000	-0.027	-0.154
-534.135	-120.455	0.302	-0.051
-533.121	-136.578	-0.205	-0.024
-532.106	3.614	-0.024	-0.017
-531.091	-170.821	-0.256	0.009
-530.077	371.802	-0.008	0.016
-529.062	-200.000	-0.019	-0.253
-528.048	-102.495	0.227	0.054
-527.033	-200.000	0.058	0.419
-526.018	800.000	-0.022	-0.068
-525.004	345.249	-0.073	0.143
-523.989	49.444	-0.204	-0.192
-522.975	-51.070	-0.181	0.085
-521.960	-200.000	0.012	-0.069
-520.945	-8.093	-0.175	-0.118
-519.931	-149.735	0.107	-0.008
-518.916	79.973	-0.156	-0.168
-517.902	-28.845	-0.157	-0.090
-516.887	89.707	0.139	-0.155
-515.872	-88.611	-0.299	-0.089
-514.858	800.000	0.037	-0.104
-513.843	438.330	0.052	-0.114
-512.829	659.956	-0.068	0.175
-511.814	-36.491	-0.354	0.191
-510.799	204.575	-0.251	0.390
-509.785	-116.210	0.117	-0.022
-508.770	-101.044	-0.249	-0.061
-507.756	-200.000	0.010	-0.148
-506.741	81.970	0.332	-0.360
-505.726	800.000	0.036	-0.152
-504.712	70.118	0.319	0.329
-503.697	8.955	0.072	0.054
-502.683	-75.587	-0.226	-0.080
-501.668	-148.148	0.172	0.014
-500.653	-120.117	0.111	0.019
-499.639	86.427	-0.219	-0.241
-498.624	-16.926	0.192	-0.121
-497.610	-96.954	-0.334	0.088
-496.595	187.637	-0.163	0.243
-495.581	549.956	-0.049	-0.118
-494.566	461.251	-0.106	-0.237
-493.551	76.619	-0.096	-0.102
-492.537	543.475	0.064	-0.154
-491.522	-18.064	0.238	-0.149
-490.508	555.881	0.123	-0.296
-489.493	-64.326	0.119	0.048
-488.478	-200.000	0.010	-0.175
-487.464	-47.300	0.048	-0.023
-486.449	-200.000	-0.074	0.467
-485.435	800.000	0.153	0.508
-484.420	139.114	0.097	-0.127
-483.405	-3.771	0.249	-0.173
-482.391	-81.060	-0.080	-0.026
-481.376	268.340	-0.197	-0.345
-480.362	-112.365	-0.079	0.016
-479.347	-110.687	0.294	0.061
-478.332	60.732	-0.308	0.305
-477.318	-200.000	0.032	0.209
-476.303	-60.673	0.069	-0.029
-475.289	-98.068	-0.117	-0.030
-474.274	322.302	-0.121	0.231
-473.259	199.812	-0.112	0.172
-472.245	-200.000	-0.011	0.241
-471.230	162.410	0.187	-0.261
-470.216	-200.000	-0.005	0.093
-469.201	-182.796	0.131	-0.002
-468.186	-41.202	0.372	0.192
-467.172	-123.460	-0.091	-0.015
-466.157	120.673	-0.165	0.205
-465.143	-23.231	0.081	0.049
-464.128	800.000	-0.026	-0.110
-463.113	-128.190	0.129	-0.018
-462.099	800.000	-0.014	0.046
-461.084	17.241	-0.141	-0.111
-460.070	-101.125	-0.137	0.034
-459.055	-200.000	-0.002	-0.309
-458.040	-200.000	0.035	-0.294
-457.026	-75.892	0.176	0.062
-456.011	-200.000	-0.058	0.358
-454.997	86.384	0.295	0.325
-453.982	-170.921	0.376	0.013
-452.968	-140.682	0.205	0.021
-451.953	64.957	-0.411	0.414
-450.938	-200.000	0.019	-0.082
-449.924	-200.000	-0.000	-0.011
-448.909	-200.000	0.055	-0.247
-447.895	214.467	-0.155	-0.246
-446.880	-200.000	-0.025	0.160
-445.865	-74.770	-0.116	0.042
-444.851	800.000	-0.077	0.214
-443.836	-111.051	0.310	0.064
-442.822	171.558	0.049	0.071
-441.807	-84.452	0.051	0.016
-440.792	-200.000	0.066	0.398
-439.778	-67.149	0.389	-0.153
-438.763	800.000	-0.018	0.058
-437.749	800.000	0.022	0.091
-436.734	-87.204	-0.479	0.145
-435.719	-15.692	0.423	-0.269
-434.705	-122.284	-0.169	-0.028
-433.690	9.218	0.144	0.108
-432.676	130.188	0.183	-0.233
-431.661	165.094	0.175	0.246
-430.646	800.000	-0.007	0.023
-429.632	-200.000	-0.001	0.018
-428.617	4.335	-0.032	-0.023
-427.603	-17.694	-0.064	-0.040
-426.588	-186.170	0.225	0.003
-425.573	-200.000	-0.004	-0.196
-424.559	-108.675	-0.228	0.049
-423.544	-59.389	-0.123	-0.053
-422.530	800.000	0.105	0.397
-421.515	-112.786	-0.172	-0.034
-420.500	76.051	0.070	0.073
-419.486	-200.000	0.032	-0.212
-418.471	686.210	-0.067	-0.175
-417.457	-89.641	-0.239	-0.070
-416.442	-88.707	-0.211	0.062
-415.428	-76.514	0.220	0.077
-414.413	77.826	-0.284	-0.302
-413.398	800.000	-0.020	0.074
-412.384	-35.304	-0.314	0.170
-411.369	-80.333	-0.219	-0.073
-410.355	241.119	-0.110	0.184
-409.340	86.397	0.224	-0.246
-408.325	509.354	0.057	0.132
-407.311	-55.596	-0.386	-0.172
-406.296	-91.004	0.147	-0.042
-405.282	737.782	-0.028	0.076
-404.267	-173.950	-0.268	0.008
-403.252	-200.000	-0.008	0.102
-402.238	368.641	-0.097	0.195
-401.223	-1.749	0.363	0.255
-400.209	431.493	-0.084	0.181
-399.194	189.286	-0.170	-0.254
-398.179	18.501	0.404	-0.321
-397.165	-200.000	0.058	-0.317
-396.150	-2.443	0.077	0.054
-395.136	-81.719	-0.200	0.065
-394.121	-56.286	-0.398	-0.176
-393.106	50.049	-0.159	-0.149
-392.092	-200.000	0.032	0.354
-391.077	55.985	0.104	0.100
-390.063	0.195	0.223	0.158
-389.048	-90.864	-0.055	0.016
-388.033	-79.269	-0.102	0.034
-387.019	-126.805	-0.237	0.035
-386.004	-52.091	-0.059	-0.027
-384.990	387.510	0.085	0.174
-383.975	800.000	-0.018	-0.064
-382.960	304.766	-0.138	-0.256
-381.946	-200.000	0.049	-0.274
-380.931	-200.000	-0.041	0.202
-379.917	18.350	-0.067	0.053
-378.902	-116.713	-0.247	-0.045
-377.888	-200.000	0.031	0.171
-376.873	-51.425	0.234	-0.109
-375.858	79.285	-0.207	-0.221
-374.844	-80.372	-0.172	-0.057
-373.829	-200.000	-0.030	-0.256
-372.815	106.691	-0.111	-0.131
-371.800	-65.685	0.331	0.132
-370.785	61.115	-0.229	-0.226
-369.771	800.000	0.010	0.033
-368.756	3.675	0.258	0.187
-367.742	24.703	0.313	-0.258
-366.727	-99.039	0.246	-0.062
-365.712	-200.000	0.003	0.140
-364.698	323.678	0.168	0.319
-363.683	-104.448	-0.297	0.068
-362.669	-83.463	-0.281	0.090
-361.654	143.850	0.099	-0.131
-360.639	-161.149	-0.285	-0.015
-359.625	-73.751	0.093	0.034
-358.610	139.384	-0.230	0.301
-357.596	-200.000	-0.042	-0.186
-356.581	247.683	0.050	0.083
-355.566	-180.817	-0.346	0.007
-354.552	-69.991	0.030	0.011
-353.537	800.000	-0.133	0.409
-352.523	-89.456	-0.151	0.044
-351.508	-53.410	0.460	0.209
-350.493	440.461	-0.052	0.114
-349.479	800.000	-0.047	-0.194
-348.464	90.475	0.308	-0.343
-347.450	800.000	0.034	-0.094
-346.435	-200.000	-0.134	0.000
-345.420	52.782	-0.134	-0.127
-344.406	-185.041	0.148	-0.002
-343.391	-164.502	-0.086	0.004
-342.377	-200.000	0.013	0.217
-341.362	152.530	0.130	-0.176
-340.348	24.534	-0.125	0.103
-339.333	430.338	0.039	0.083
-338.318	-28.751	-0.064	0.037
-337.304	-4.591	-0.367	-0.252
-336.289	-200.000	0.021	-0.153
-335.275	180.147	0.100	0.145
-334.260	94.097	0.129	-0.145
-333.245	61.666	-0.103	0.102
-332.231	-200.000	-0.017	-0.151
-331.216	-68.237	-0.136	-0.052
-330.202	410.604	-0.055	0.115
-329.187	581.615	0.074	-0.180
-328.172	-200.000	-0.026	-0.256
-327.158	-72.864	0.196	0.071
-326.143	167.701	-0.102	-0.144
-325.129	8.802	0.368	-0.276
-324.114	-166.106	0.209	0.009
-323.099	-85.113	-0.150	-0.047
-322.085	69.404	0.124	-0.126
-321.070	602.093	-0.181	-0.446
-320.056	45.761	0.133	0.122
-319.041	358.061	0.013	0.026
-318.026	162.566	0.114	0.159
-317.012	60.470	-0.067	0.066
-315.997	-200.000	0.065	-0.284
-314.983	-86.553	0.235	0.072
-313.968	13.527	0.077	0.059
-312.953	-200.000	0.035	-0.216
-311.939	58.230	0.175	0.170
-310.924	-67.027	0.419	-0.164
-309.910	-41.305	0.266	0.136
-308.895	-128.945	-0.146	-0.020
-307.880	800.000	-0.164	-0.467
-306.866	97.464	0.161	0.183
-305.851	71.400	0.125	-0.129
-304.837	-90.985	0.129	-0.037
-303.822	-126.344	0.187	0.028
-302.807	4.983	0.191	-0.140
-301.793	-200.000	-0.026	-0.119
-300.778	-11.479	0.115	0.075
-299.764	-141.353	-0.142	-0.014
-298.749	-200.000	-0.015	0.117
-297.735	-22.496	-0.253	0.152
-296.720	-108.965	-0.221	-0.047
-295.705	31.107	0.262	-0.223
-294.691	96.956	-0.153	-0.175
-293.676	-200.000	-0.039	-0.275
-292.662	-162.094	-0.143	0.007
-291.647	220.986	-0.217	0.345
-290.632	-97.868	0.385	0.099
-289.618	-114.011	0.319	-0.061
-288.603	-153.427	-0.174	-0.012
-287.589	-53.188	0.091	-0.041
-286.574	19.044	-0.159	-0.127
-285.559	-17.157	0.140	-0.087
-284.545	-84.062	0.199	-0.063
-283.530	800.000	-0.045	0.143
-282.516	81.741	0.187	-0.201
-281.501	-0.051	0.234	0.166
-280.486	329.788	0.118	0.226
-279.472	140.309	0.047	0.062
-278.457	38.636	0.298	0.264
-277.443	140.430	0.115	-0.151
-276.428	337.030	0.043	0.084
-275.413	-87.107	-0.160	0.048
-274.399	105.528	0.223	0.261
-273.384	120.205	-0.162	0.199
-272.370	-200.000	0.003	-0.035
-271.355	671.136	-0.115	-0.295
-270.340	-93.415	-0.245	0.067
-269.326	145.654	-0.197	-0.262
-268.311	-44.716	0.316	-0.156
-267.297	800.000	0.073	-0.209
-266.282	225.620	0.021	-0.034
-265.267	-200.000	-0.030	-0.294
-264.253	-121.025	-0.266	-0.044
-263.238	-200.000	0.011	0.071
-262.224	800.000	-0.090	-0.387
-261.209	-125.992	0.187	-0.028
-260.195	-200.000	-0.037	0.303
-259.180	-129.555	0.390	0.053
-258.165	-143.275	-0.264	0.025
-257.151	-26.373	0.367	0.213
-256.136	-200.000	-0.004	-0.075
-255.122	-109.543	-0.258	-0.054
-254.107	200.686	0.170	-0.259
-253.092	3.946	0.158	-0.115
-252.078	46.693	-0.068	-0.063
-251.063	799.637	-0.050	0.136
-250.049	-49.211	0.295	0.139
-249.034	-200.000	0.013	0.092
-248.019	-128.190	0.062	-0.009
-247.005	97.475	0.068	0.078
-245.990	12.189	0.173	0.132
-244.976	177.514	0.016	0.023
-243.961	-50.358	-0.069	-0.032
-242.946	-13.995	0.072	0.046
-241.932	38.194	0.329	0.290
-240.917	800.000	0.065	0.255
-239.903	800.000	0.066	0.228
-238.888	18.433	0.149	0.118
-237.873	-65.872	0.195	-0.077
-236.859	94.780	-0.248	0.279
-235.844	83.581	-0.323	0.348
-234.830	72.311	-0.301	0.310
-233.815	-59.727	-0.063	0.027
-232.800	99.954	0.026	-0.030
-231.786	-200.000	0.005	0.228
-230.771	-200.000	0.022	-0.147
-229.757	178.171	-0.118	0.170
-228.742	-44.283	-0.274	-0.136
-227.727	-94.760	-0.026	-0.007
-226.713	-21.559	-0.101	0.061
-225.698	800.000	0.055	0.203
-224.684	-200.000	0.061	0.286
-223.669	-129.796	-0.411	0.056
-222.655	-103.208	-0.072	0.017
-221.640	-200.000	0.011	0.167
-220.625	46.949	0.238	-0.219
-219.611	-145.904	0.074	-0.007
-218.596	371.317	0.098	-0.196
-217.582	-200.000	0.049	-0.390
-216.567	-200.000	-0.012	-0.127
-215.552	518.091	0.170	0.394
-214.538	466.845	-0.111	0.247
-213.523	-200.000	0.015	0.174
-212.509	149.535	0.203	-0.272
-211.494	200.737	0.019	0.028
-210.479	-200.000	-0.028	0.328
-209.465	-124.934	-0.369	0.056
-208.450	42.485	-0.106	0.095
-207.436	-200.000	-0.005	-0.242
-206.421	800.000	0.042	-0.150
-205.406	-200.000	-0.001	-0.083
-204.392	-16.673	0.260	0.163
-203.377	-200.000	-0.046	0.445
-202.363	-200.000	-0.014	-0.116
-201.348	472.679	-0.094	0.209
-200.333	348.236	-0.086	0.167
-199.319	-139.744	0.292	0.031
-198.304	151.371	-0.125	0.169
-197.290	-96.326	0.109	-0.028
-196.275	-200.000	-0.004	-0.201
-195.260	-116.564	-0.346	-0.063
-194.246	-200.000	0.024	0.148
-193.231	394.293	-0.078	0.160
-192.217	-18.827	0.195	0.120
-191.202	-39.267	-0.116	0.060
-190.187	97.738	-0.244	-0.277
-189.173	221.487	0.110	-0.175
-188.158	215.397	0.061	0.096
-187.144	-200.000	0.031	-0.258
-186.129	78.637	-0.073	-0.077
-185.114	570.783	0.149	-0.357
-184.100	800.000	-0.099	-0.413
-183.085	-53.163	-0.196	0.089
-182.071	-75.343	-0.057	-0.020
-181.056	800.000	0.125	0.345
-180.042	-200.000	0.012	0.093
-179.027	128.905	0.115	0.144
-178.012	106.064	0.030	0.035
-176.998	-53.717	0.264	-0.119
-175.983	-58.064	0.209	0.090
-174.969	-107.101	-0.206	0.045
-173.954	23.465	0.330	0.268
-172.939	-38.361	-0.155	0.081
-171.925	-200.000	-0.016	0.175
-170.910	12.438	0.074	0.056
-169.896	77.697	-0.344	-0.361
-168.881	-39.883	0.261	-0.134
-167.866	-69.056	-0.125	-0.048
-166.852	481.907	-0.064	0.143
-165.837	-77.923	0.194	0.066
-164.823	58.439	0.105	0.101
-163.808	-146.775	0.394	-0.034
-162.793	800.000	-0.083	-0.354
-161.779	800.000	-0.088	-0.289
-160.764	-93.009	0.318	-0.088
-159.750	-200.000	-0.026	0.254
-158.735	-133.989	0.058	0.007
-157.720	-200.000	0.021	0.402
-156.706	138.033	-0.159	-0.205
-155.691	-29.985	-0.130	0.073
-154.677	-200.000	-0.048	0.326
-153.662	-39.601	0.104	-0.054
-152.647	-200.000	-0.005	-0.049
-151.633	240.806	0.073	-0.120
-150.618	72.913	-0.079	-0.081
-149.604	-21.412	0.322	-0.194
-148.589	150.007	0.206	-0.276
-147.574	800.000	-0.025	0.089
-146.560	-105.597	0.066	-0.015
-145.545	-200.000	0.019	-0.168
-144.531	267.732	-0.129	-0.223
-143.516	-160.956	0.096	0.005
-142.502	-200.000	-0.037	0.308
-141.487	800.000	0.051	-0.163
-140.472	17.127	0.243	0.190
-139.458	-136.501	-0.347	0.040
-138.443	-86.844	-0.261	0.078
-137.429	-200.000	0.014	0.169
-136.414	-5.800	0.165	0.112
-135.399	328.694	0.145	-0.275
-134.385	212.457	0.145	0.225
-133.370	142.228	-0.239	0.313
-132.356	-154.598	0.338	-0.022
-131.341	-8.733	-0.122	-0.081
-130.326	800.000	0.157	-0.460
-129.312	-156.033	0.507	-0.032
-128.297	110.537	-0.043	0.051
-127.283	800.000	0.024	0.102
-126.268	-36.608	-0.265	-0.140
-125.253	25.080	0.211	0.173
-124.239	-143.050	-0.324	0.031
-123.224	203.033	0.156	0.238
-122.210	-31.794	0.074	-0.041
-121.195	-200.000	-0.065	-0.317
-120.180	111.738	0.360	0.428
