DTS Sentinel unit serial number:	SN413079Multiplexer serial number:	ORYXHardware model number:	OX4-SRSoftware version number:	ORYX F/W v4.00 Oryx Data Collector v3.7.2.0data status	okinstallation	princeton_trtdifferential loss correction	single-endedforward channel	channel 3reverse channel	N/Adate	2019/09/12time	00:02:10forward acquisition time	60.00reverse acquisition time	0.00gamma	496.2192k internal	0.2318k external	0.2318temperature offset calibration	1.0063default loss term (dB/km)	0.3790temperature slope calibration	1.0000multiplexer offset coefficient	1.0000multiplexer slope coefficient	1.0000fibre end	0.00T internal ref (°C)	33.75T ext. ref 1 (°C)	2.02T ext. ref 2 (°C)	28.23length (m)	temperature (°C)	Stokes	anti-Stokes-747.200	-127.798	0.240	-0.035
-746.185	135.031	-0.159	-0.209
-745.171	118.367	-0.152	0.189
-744.156	-69.607	-0.247	0.096
-743.142	-200.000	0.025	0.191
-742.127	382.188	-0.204	0.424
-741.112	9.145	0.295	0.225
-740.098	141.003	-0.315	0.422
-739.083	55.965	0.099	0.097
-738.069	-200.000	0.011	0.057
-737.054	-200.000	-0.010	0.392
-736.039	-200.000	-0.006	-0.250
-735.025	19.222	-0.198	-0.161
-734.010	522.989	-0.167	-0.396
-732.996	-200.000	-0.062	-0.338
-731.981	-200.000	-0.045	-0.411
-730.966	112.256	-0.148	-0.181
-729.952	-5.138	-0.192	-0.133
-728.937	748.090	0.039	-0.107
-727.923	-125.676	-0.228	-0.035
-726.908	533.822	-0.032	0.077
-725.894	224.643	-0.145	-0.236
-724.879	172.115	0.093	0.135
-723.864	-134.564	-0.048	-0.006
-722.850	-62.043	-0.181	0.077
-721.835	-130.490	-0.489	-0.067
-720.821	115.986	-0.106	0.131
-719.806	-3.823	0.113	-0.079
-718.791	-200.000	-0.004	-0.273
-717.777	800.000	0.050	0.155
-716.762	7.272	0.081	-0.061
-715.748	129.253	0.213	-0.275
-714.733	-200.000	-0.065	-0.357
-713.718	800.000	0.056	-0.163
-712.704	33.833	-0.098	0.086
-711.689	-134.665	0.227	-0.028
-710.675	39.481	0.022	-0.020
-709.660	-115.797	0.204	-0.039
-708.645	-140.423	0.179	-0.019
-707.631	225.549	-0.160	-0.262
-706.616	-3.604	0.315	-0.221
-705.602	-155.888	0.277	0.018
-704.587	-82.763	-0.202	0.066
-703.572	-200.000	-0.025	-0.162
-702.558	1.080	-0.165	-0.120
-701.543	68.185	-0.142	-0.147
-700.529	-8.833	-0.044	0.030
-699.514	142.142	-0.115	-0.154
-698.499	46.102	0.028	0.026
-697.485	800.000	0.064	0.252
-696.470	800.000	0.027	0.120
-695.456	-124.251	0.181	0.029
-694.441	-144.026	-0.133	-0.013
-693.426	131.005	0.018	-0.024
-692.412	-122.913	-0.259	0.042
-691.397	-200.000	-0.001	-0.026
-690.383	11.071	0.117	-0.090
-689.368	-96.344	0.136	-0.036
-688.354	246.135	0.023	-0.038
-687.339	233.859	0.123	-0.204
-686.324	-200.000	-0.012	-0.066
-685.310	606.990	-0.071	0.178
-684.295	8.296	0.191	0.145
-683.281	102.908	-0.149	-0.176
-682.266	-106.905	-0.155	-0.035
-681.251	-15.828	0.077	0.050
-680.237	-88.737	-0.384	-0.115
-679.222	-200.000	-0.020	-0.139
-678.208	138.722	-0.047	0.062
-677.193	85.650	-0.266	0.295
-676.178	-200.000	0.016	0.232
-675.164	107.151	-0.103	0.124
-674.149	800.000	-0.050	-0.140
-673.135	-84.877	-0.234	0.074
-672.120	-108.151	-0.036	-0.008
-671.105	6.728	-0.019	0.014
-670.091	-102.361	-0.064	0.016
-669.076	406.373	0.158	0.336
-668.062	44.090	-0.348	0.322
-667.047	-145.007	-0.308	0.028
-666.032	423.119	0.033	-0.072
-665.018	244.429	-0.062	0.104
-664.003	28.983	-0.048	0.041
-662.989	-68.941	-0.483	-0.188
-661.974	48.804	-0.113	0.107
-660.959	324.724	-0.101	-0.195
-659.945	800.000	0.054	0.222
-658.930	-200.000	-0.071	0.394
-657.916	-200.000	0.012	0.072
-656.901	-21.995	-0.253	0.155
-655.886	-97.302	-0.302	0.079
-654.872	-42.233	0.175	-0.090
-653.857	-200.000	-0.018	-0.414
-652.843	94.803	0.119	-0.137
-651.828	280.565	0.080	0.143
-650.814	0.968	-0.025	-0.018
-649.799	201.496	-0.243	-0.377
-648.784	-41.844	0.187	-0.097
-647.770	-148.305	-0.395	-0.033
-646.755	-49.906	-0.314	-0.150
-645.741	-64.091	0.349	-0.144
-644.726	-200.000	0.018	0.185
-643.711	54.798	-0.195	0.189
-642.697	-200.000	-0.036	-0.314
-641.682	-63.252	-0.266	0.110
-640.668	-96.462	-0.185	-0.049
-639.653	333.923	0.191	-0.373
-638.638	-110.492	-0.280	-0.059
-637.624	-69.623	-0.283	-0.109
-636.609	402.912	-0.059	0.124
-635.595	800.000	-0.012	0.040
-634.580	-77.913	-0.278	-0.097
-633.565	-50.046	-0.134	-0.064
-632.551	800.000	0.115	-0.391
-631.536	122.569	0.128	-0.162
-630.522	84.476	-0.115	-0.126
-629.507	-200.000	-0.032	-0.168
-628.492	-4.283	0.331	-0.231
-627.478	800.000	-0.110	-0.322
-626.463	-200.000	-0.001	-0.057
-625.449	264.775	-0.060	0.106
-624.434	133.771	-0.077	-0.101
-623.419	-111.762	-0.447	0.091
-622.405	-200.000	0.041	0.304
-621.390	-64.743	-0.466	-0.190
-620.376	-157.168	0.384	0.023
-619.361	262.361	-0.054	0.095
-618.346	-94.462	-0.132	-0.036
-617.332	-60.356	0.282	-0.121
-616.317	-64.277	-0.183	0.075
-615.303	21.248	-0.219	0.179
-614.288	355.570	0.114	-0.228
-613.273	62.632	0.085	0.086
-612.259	-21.363	-0.233	0.143
-611.244	564.222	-0.016	0.038
-610.230	87.094	0.367	-0.408
-609.215	296.091	0.164	-0.302
-608.201	-104.450	0.131	-0.031
-607.186	228.143	-0.084	0.138
-606.171	-181.401	-0.303	0.006
-605.157	113.923	0.233	-0.285
-604.142	-200.000	-0.031	-0.341
-603.128	-76.158	-0.159	0.056
-602.113	135.242	-0.131	-0.171
-601.098	214.551	0.066	0.105
-600.084	-117.978	-0.276	0.050
-599.069	76.378	0.161	0.172
-598.055	-135.559	-0.137	0.016
-597.040	152.554	0.160	0.220
-596.025	800.000	0.104	0.357
-595.011	-88.536	-0.353	0.106
-593.996	79.084	0.058	-0.062
-592.982	226.624	-0.121	-0.197
-591.967	187.630	-0.225	-0.338
-590.952	-71.043	0.065	0.025
-589.938	-200.000	-0.021	0.122
-588.923	322.992	-0.060	0.115
-587.909	403.996	-0.072	0.152
-586.894	800.000	0.076	0.224
-585.879	-34.806	-0.262	-0.144
-584.865	-64.671	-0.263	-0.107
-583.850	91.005	0.086	0.097
-582.836	47.637	-0.047	-0.044
-581.821	-36.447	0.071	-0.039
-580.806	-156.422	-0.265	-0.017
-579.792	400.576	-0.164	0.346
-578.777	231.068	-0.111	0.183
-577.763	-96.226	-0.282	0.075
-576.748	-99.352	0.164	0.042
-575.733	16.237	0.132	-0.104
-574.719	-200.000	-0.019	-0.310
-573.704	-200.000	-0.013	-0.078
-572.690	-96.338	0.243	0.065
-571.675	249.477	0.146	-0.249
-570.661	-43.347	-0.236	-0.120
-569.646	116.693	0.145	-0.178
-568.631	-200.000	-0.034	-0.446
-567.617	-200.000	0.092	-0.695
-566.602	-0.691	-0.255	-0.182
-565.588	800.000	-0.073	-0.312
-564.573	-131.824	-0.085	-0.011
-563.558	-1.219	-0.102	0.073
-562.544	-63.839	-0.225	-0.093
-561.529	-77.161	0.028	0.010
-560.515	152.789	0.347	-0.477
-559.500	-200.000	0.008	-0.174
-558.485	-152.988	-0.096	0.007
-557.471	278.410	0.092	0.165
-556.456	-96.222	0.322	0.086
-555.442	-183.123	0.373	-0.007
-554.427	-79.089	0.041	0.014
-553.412	43.740	0.050	0.046
-552.398	-132.659	0.171	-0.022
-551.383	-200.000	-0.004	0.136
-550.369	-17.852	-0.203	-0.128
-549.354	29.375	-0.151	-0.129
-548.339	124.369	-0.154	-0.194
-547.325	43.578	-0.084	0.077
-546.310	79.949	-0.335	-0.362
-545.296	-200.000	0.242	0.001
-544.281	-160.862	0.232	-0.012
-543.266	-200.000	-0.073	0.338
-542.252	-200.000	0.004	0.169
-541.237	64.449	-0.231	-0.234
-540.223	507.870	-0.037	-0.085
-539.208	12.305	0.196	-0.152
-538.193	-123.208	0.388	0.062
-537.179	-139.081	-0.263	0.029
-536.164	89.476	-0.097	0.109
-535.150	523.816	-0.043	-0.102
-534.135	800.000	-0.060	-0.169
-533.121	-158.382	0.194	0.011
-532.106	800.000	0.044	-0.147
-531.091	700.708	-0.045	0.120
-530.077	111.785	-0.082	-0.099
-529.062	-95.511	0.071	0.019
-528.048	-128.707	0.431	-0.061
-527.033	-106.794	-0.165	0.037
-526.018	-77.069	-0.125	0.044
-525.004	-171.168	-0.021	-0.001
-523.989	-94.403	-0.456	-0.125
-522.975	-24.307	-0.273	0.163
-521.960	-200.000	0.076	0.350
-520.945	472.578	0.112	-0.253
-519.931	-80.749	-0.129	0.043
-518.916	-200.000	-0.002	0.315
-517.902	470.118	-0.126	0.284
-516.887	167.281	0.139	0.198
-515.872	15.157	0.336	0.264
-514.858	-200.000	-0.013	-0.133
-513.843	332.088	0.079	-0.154
-512.829	-94.013	-0.180	-0.050
-511.814	20.640	0.261	0.212
-510.799	50.030	0.091	0.087
-509.785	237.842	0.052	-0.086
-508.770	-126.481	0.084	0.013
-507.756	47.003	0.231	-0.216
-506.741	-36.992	-0.121	0.065
-505.726	800.000	0.061	-0.201
-504.712	-30.735	0.069	-0.039
-503.697	-81.038	-0.088	-0.029
-502.683	-49.795	0.518	0.247
-501.668	-118.112	-0.294	0.053
-500.653	93.237	0.220	0.249
-499.639	-76.570	0.152	-0.053
-498.624	-42.586	0.314	0.160
-497.610	-162.225	0.059	0.003
-496.595	493.992	0.115	-0.264
-495.581	-54.772	0.245	0.111
-494.566	-86.350	-0.279	-0.086
-493.551	-128.947	-0.224	-0.031
-492.537	-188.372	-0.298	0.004
-491.522	-200.000	-0.006	0.112
-490.508	22.271	0.123	-0.101
-489.493	81.916	-0.251	-0.272
-488.478	67.035	0.180	-0.183
-487.464	-200.000	-0.003	-0.247
-486.449	-53.321	-0.223	-0.102
-485.435	166.956	0.062	0.088
-484.420	14.485	-0.197	0.154
-483.405	-131.691	0.328	-0.043
-482.391	-200.000	0.058	-0.327
-481.376	-89.302	-0.251	-0.074
-480.362	298.348	-0.113	-0.208
-479.347	-71.037	-0.152	0.057
-478.332	-154.716	0.567	0.038
-477.318	-57.025	-0.161	-0.071
-476.303	800.000	0.056	-0.217
-475.289	193.749	-0.203	0.308
-474.274	-158.404	-0.331	-0.019
-473.259	-142.469	-0.050	-0.005
-472.245	-200.000	-0.037	-0.253
-471.230	-160.959	-0.414	0.022
-470.216	-194.284	0.261	0.002
-469.201	-52.023	0.192	-0.089
-468.186	800.000	0.007	0.021
-467.172	-169.268	0.056	-0.002
-466.157	-27.784	-0.240	0.140
-465.143	42.752	0.177	0.161
-464.128	-82.028	-0.106	0.035
-463.113	-130.102	-0.333	0.046
-462.099	-129.038	-0.302	0.042
-461.084	-157.989	-0.752	-0.044
-460.070	257.725	-0.076	-0.131
-459.055	800.000	0.049	0.189
-458.040	636.793	0.022	0.057
-457.026	-200.000	0.015	-0.356
-456.011	800.000	0.072	-0.232
-454.997	32.370	0.161	0.139
-453.982	-135.872	0.330	-0.039
-452.968	-60.283	0.279	0.119
-451.953	-2.304	-0.179	0.125
-450.938	-200.000	0.061	0.462
-449.924	-130.874	-0.257	0.034
-448.909	-200.000	0.017	-0.154
-447.895	800.000	-0.060	0.223
-446.880	346.097	0.029	-0.056
-445.865	-62.023	0.287	-0.120
-444.851	-61.709	0.105	0.044
-443.836	-50.438	0.157	0.074
-442.822	244.734	-0.317	0.533
-441.807	-59.213	0.374	-0.161
-440.792	-200.000	-0.036	0.333
-439.778	-99.740	0.258	0.065
-438.763	-169.840	-0.297	0.011
-437.749	800.000	-0.053	0.182
-436.734	800.000	0.068	0.245
-435.719	268.041	0.108	-0.189
-434.705	-25.870	0.159	-0.094
-433.690	281.995	-0.252	-0.452
-432.676	-200.000	0.030	-0.148
-431.661	-109.138	0.087	0.019
-430.646	-38.495	-0.154	-0.081
-429.632	-200.000	0.027	-0.251
-428.617	-150.995	0.374	-0.028
-427.603	17.013	-0.189	-0.150
-426.588	800.000	0.011	0.036
-425.573	344.013	0.093	-0.182
-424.559	-200.000	0.002	0.271
-423.544	-52.975	0.234	0.108
-422.530	-200.000	0.009	-0.361
-421.515	357.587	-0.105	-0.210
-420.500	-30.156	-0.165	-0.094
-419.486	-200.000	0.054	-0.314
-418.471	192.372	-0.072	0.109
-417.457	75.807	0.153	0.162
-416.442	-171.893	-0.724	0.024
-415.428	122.712	0.144	0.180
-414.413	-59.939	-0.150	-0.064
-413.398	-86.003	0.222	-0.069
-412.384	743.958	-0.019	0.050
-411.369	5.499	-0.159	0.117
-410.355	8.208	0.078	-0.058
-409.340	284.091	0.131	0.236
-408.325	-108.291	-0.162	0.035
-407.311	-34.281	-0.131	-0.072
-406.296	83.133	-0.321	0.349
-405.282	-117.026	-0.104	-0.019
-404.267	-197.533	0.095	0.001
-403.252	365.585	-0.192	-0.386
-402.238	800.000	-0.072	0.213
-401.223	274.528	-0.063	-0.111
-400.209	-14.233	0.126	0.081
-399.194	-163.681	-0.405	0.019
-398.179	-65.313	0.280	0.113
-397.165	330.359	0.130	-0.250
-396.150	9.314	-0.132	-0.100
-395.136	800.000	-0.064	0.191
-394.121	-200.000	0.061	-0.368
-393.106	47.903	-0.123	0.115
-392.092	-11.005	-0.161	0.106
-391.077	600.659	-0.101	0.251
-390.063	57.180	0.114	-0.111
-389.048	-13.330	-0.263	0.170
-388.033	-200.000	-0.019	-0.198
-387.019	477.590	-0.183	-0.412
-386.004	4.328	-0.032	-0.023
-384.990	205.436	-0.019	-0.029
-383.975	297.341	-0.189	0.346
-382.960	800.000	-0.071	0.272
-381.946	15.511	0.065	-0.051
-380.931	59.902	-0.130	-0.128
-379.917	800.000	0.085	0.313
-378.902	55.850	-0.258	-0.250
-377.888	-91.645	0.207	-0.059
-376.873	120.031	-0.169	-0.210
-375.858	-151.658	0.145	-0.011
-374.844	12.678	-0.203	-0.156
-373.829	-58.519	-0.296	0.128
-372.815	594.279	0.065	0.160
-371.800	140.899	0.312	0.411
-370.785	800.000	0.171	0.525
-369.771	242.097	-0.160	-0.267
-368.756	-44.171	0.412	-0.206
-367.742	-111.122	0.358	0.073
-366.727	800.000	0.077	0.221
-365.712	-80.180	0.436	-0.146
-364.698	-200.000	0.020	0.093
-363.683	33.664	0.083	-0.072
-362.669	-63.801	0.297	0.121
-361.654	800.000	0.033	0.095
-360.639	-22.771	0.109	0.066
-359.625	271.764	0.160	-0.280
-358.610	-22.350	-0.179	0.108
-357.596	496.680	0.059	0.135
-356.581	-140.034	0.087	-0.009
-355.566	-142.026	-0.161	0.016
-354.552	-100.207	0.279	-0.069
-353.537	59.607	0.081	0.079
-352.523	-113.904	-0.255	0.049
-351.508	-200.000	-0.017	-0.220
-350.493	-49.547	-0.248	0.118
-349.479	17.744	0.183	0.145
-348.464	-200.000	0.033	0.193
-347.450	239.597	0.125	-0.207
-346.435	225.113	-0.194	0.313
-345.420	800.000	-0.100	0.371
-344.406	-94.794	0.183	0.049
-343.391	8.752	-0.358	-0.268
-342.377	132.130	0.180	0.230
-341.362	-137.601	0.357	-0.040
-340.348	145.603	0.103	-0.138
-339.333	-37.270	0.155	-0.082
-338.318	-19.391	0.220	0.136
-337.304	30.092	0.219	0.186
-336.289	218.460	-0.112	0.178
-335.275	148.063	-0.062	0.084
-334.260	-74.265	0.137	-0.049
-333.245	-103.452	0.104	-0.024
-332.231	50.280	-0.219	0.206
-331.216	-29.698	0.181	-0.103
-330.202	-96.950	-0.394	-0.103
-329.187	118.438	0.067	0.082
-328.172	-41.192	0.190	-0.098
-327.158	-1.963	0.237	-0.166
-326.143	-200.000	-0.018	-0.138
-325.129	-200.000	-0.008	0.143
-324.114	-200.000	-0.052	0.271
-323.099	82.642	0.047	0.051
-322.085	175.927	-0.057	-0.082
-321.070	272.975	-0.174	0.305
-320.056	305.895	-0.083	0.153
-319.041	461.971	-0.090	-0.199
-318.026	800.000	-0.216	0.652
-317.012	-39.386	0.154	0.080
-315.997	800.000	0.078	-0.313
-314.983	217.431	0.127	0.202
-313.968	-56.277	0.201	0.089
-312.953	-200.000	-0.018	0.361
-311.939	-77.875	-0.529	0.182
-310.924	57.490	-0.136	-0.132
-309.910	110.652	0.104	-0.124
-308.895	800.000	-0.054	0.219
-307.880	134.464	-0.076	-0.098
-306.866	-182.724	0.148	0.003
-305.851	-116.532	0.136	-0.025
-304.837	-111.090	0.187	-0.038
-303.822	-123.393	-0.100	0.016
-302.807	-65.707	0.295	0.117
-301.793	800.000	0.011	0.034
-300.778	602.653	-0.221	-0.547
-299.764	89.857	-0.143	-0.159
-298.749	-91.566	0.220	0.062
-297.735	-104.003	0.127	0.029
-296.720	-200.000	0.051	-0.237
-295.705	-200.000	-0.062	0.305
-294.691	-159.554	-0.142	-0.008
-293.676	137.958	-0.134	0.175
-292.662	-89.820	0.146	0.042
-291.647	-200.000	-0.031	0.311
-290.632	106.035	0.127	0.150
-289.618	-3.495	0.303	0.209
-288.603	13.988	0.169	-0.130
-287.589	-166.034	0.155	0.007
-286.574	800.000	-0.109	0.347
-285.559	387.812	0.320	0.659
-284.545	-160.917	-0.099	0.005
-283.530	121.112	-0.198	-0.245
-282.516	-90.965	-0.180	-0.051
-281.501	-25.015	-0.088	0.052
-280.486	-32.110	-0.249	0.138
-279.472	800.000	-0.042	-0.157
-278.457	-200.000	-0.010	-0.184
-277.443	800.000	0.042	0.115
-276.428	57.705	0.325	-0.316
-275.413	-59.750	-0.063	-0.027
-274.399	-69.558	0.216	-0.082
-273.384	3.217	-0.271	0.196
-272.370	-200.000	-0.047	0.221
-271.355	50.512	0.260	-0.244
-270.340	-89.289	-0.080	0.024
-269.326	196.451	-0.079	0.120
-268.311	800.000	0.045	0.144
-267.297	183.804	-0.121	0.178
-266.282	305.969	0.152	-0.281
-265.267	-19.341	0.158	-0.097
-264.253	800.000	-0.064	0.276
-263.238	-147.007	0.250	-0.021
-262.224	-200.000	0.085	0.410
-261.209	18.020	-0.087	0.069
-260.195	-156.064	0.137	-0.009
-259.180	-106.125	-0.201	0.045
-258.165	-200.000	0.029	0.226
-257.151	-28.769	-0.211	-0.120
-256.136	-171.404	0.125	0.004
-255.122	-43.760	0.194	0.097
-254.107	-200.000	0.044	0.281
-253.092	37.285	-0.169	-0.148
-252.078	-200.000	0.015	0.073
-251.063	-81.382	0.074	-0.024
-250.049	800.000	-0.122	0.349
-249.034	-2.835	0.284	0.197
-248.019	-103.621	0.037	-0.009
-247.005	46.376	0.182	0.168
-245.990	26.057	-0.271	0.224
-244.976	-61.604	-0.245	0.102
-243.961	-85.305	-0.241	0.075
-242.946	460.046	-0.108	0.239
-241.932	114.786	-0.126	0.152
-240.917	-80.344	0.174	-0.058
-239.903	-27.167	-0.208	-0.120
-238.888	15.996	-0.195	0.152
-237.873	-73.365	0.289	0.105
-236.859	125.744	0.147	-0.184
-235.844	46.532	-0.044	0.041
-234.830	-199.138	0.270	-0.001
-233.815	84.822	-0.177	-0.192
-232.800	751.474	-0.028	-0.075
-231.786	68.079	0.095	0.096
-230.771	800.000	0.054	-0.231
-229.757	-29.574	-0.157	0.089
-228.742	567.687	0.054	0.130
-227.727	-155.745	0.262	0.017
-226.713	-135.963	-0.125	-0.015
-225.698	48.413	0.177	0.164
-224.684	33.238	0.236	-0.203
-223.669	635.407	0.062	0.156
-222.655	205.673	-0.062	-0.096
-221.640	65.677	-0.111	-0.112
-220.625	-200.000	-0.015	0.107
-219.611	-41.589	0.408	-0.208
-218.596	-200.000	-0.004	0.075
-217.582	-62.855	0.038	0.016
-216.567	-200.000	-0.011	-0.148
-215.552	-56.891	-0.174	-0.076
-214.538	-114.598	0.483	-0.092
-213.523	4.431	-0.287	0.209
-212.509	451.573	0.179	-0.391
-211.494	25.869	-0.191	-0.158
-210.479	666.587	-0.044	-0.113
-209.465	-55.192	-0.171	-0.076
-208.450	425.286	0.106	-0.227
-207.436	288.493	0.295	-0.529
-206.421	-97.581	-0.218	-0.056
-205.406	-68.428	-0.062	-0.024
-204.392	6.573	0.207	0.153
-203.377	-200.000	-0.021	-0.279
-202.363	-173.708	0.074	-0.002
-201.348	-21.839	0.292	0.176
-200.333	114.314	0.122	-0.147
-199.319	-200.000	-0.013	0.092
-198.304	-200.000	-0.037	0.446
-197.290	496.834	0.127	-0.288
-196.275	800.000	0.031	-0.100
-195.260	24.278	0.132	0.108
-194.246	-160.390	0.303	-0.016
-193.231	-81.667	-0.311	0.101
-192.217	245.325	-0.196	0.327
-191.202	24.870	-0.122	0.100
-190.187	-43.010	-0.185	-0.093
-189.173	-200.000	-0.039	-0.228
-188.158	-130.491	0.121	0.016
-187.144	72.902	-0.122	0.126
-186.129	-200.000	-0.023	0.210
-185.114	-191.066	0.073	-0.001
-184.100	10.507	-0.073	0.055
-183.085	-21.759	0.269	-0.162
-182.071	31.061	0.014	-0.012
-181.056	-49.618	-0.215	-0.101
-180.042	463.288	-0.172	0.381
-179.027	-200.000	-0.019	0.248
-178.012	800.000	0.033	-0.090
-176.998	-200.000	-0.017	0.495
-175.983	35.739	0.195	-0.169
-174.969	-95.923	-0.220	-0.058
-173.954	-11.234	-0.398	-0.259
-172.939	154.140	0.272	-0.369
-171.925	369.704	-0.059	-0.119
-170.910	-41.865	0.360	0.183
-169.896	-13.060	0.129	0.083
-168.881	-200.000	-0.035	-0.421
-167.866	387.496	0.139	-0.285
-166.852	28.741	0.348	-0.291
-165.837	-200.000	0.064	0.384
-164.823	-15.034	0.235	0.149
-163.808	40.275	-0.170	0.151
-162.793	58.142	0.160	-0.155
-161.779	-113.632	0.113	-0.022
-160.764	6.175	0.276	0.202
-159.750	800.000	0.119	0.409
-158.735	-200.000	0.010	0.136
-157.720	800.000	0.072	0.247
-156.706	-6.416	0.043	-0.029
-155.691	24.695	-0.058	-0.048
-154.677	-200.000	-0.014	-0.471
-153.662	-61.191	0.127	0.053
-152.647	24.988	0.083	-0.068
-151.633	243.075	0.061	0.101
-150.618	487.088	0.054	-0.121
-149.604	-200.000	-0.005	0.159
-148.589	-120.255	0.460	0.078
-147.574	800.000	0.067	0.221
-146.560	-145.795	0.175	0.015
-145.545	252.584	0.015	0.026
-144.531	-176.350	0.086	0.002
-143.516	744.585	-0.041	-0.108
-142.502	-84.777	0.095	0.030
-141.487	462.254	-0.281	0.619
-140.472	-39.811	-0.309	-0.160
-139.458	-44.112	0.209	0.104
-138.443	48.939	0.152	0.141
-137.429	-200.000	-0.002	0.259
-136.414	-120.848	0.279	0.046
-135.399	800.000	0.139	0.435
-134.385	800.000	-0.027	-0.104
-133.370	-200.000	-0.015	-0.201
-132.356	528.052	-0.146	0.339
-131.341	195.633	0.185	-0.278
-130.326	800.000	0.068	0.228
-129.312	282.160	0.115	-0.203
-128.297	97.631	-0.173	0.197
-127.283	-57.301	0.205	-0.089
-126.268	50.779	0.076	-0.071
-125.253	800.000	-0.059	-0.206
-124.239	0.062	0.091	-0.064
-123.224	322.885	0.038	0.072
-122.210	93.537	-0.240	-0.268
-121.195	800.000	-0.056	0.170
