DTS Sentinel unit serial number:	SN413079Multiplexer serial number:	ORYXHardware model number:	OX4-SRSoftware version number:	ORYX F/W v4.00 Oryx Data Collector v3.7.2.0data status	okinstallation	princeton_trtdifferential loss correction	single-endedforward channel	channel 3reverse channel	N/Adate	2019/09/13time	06:56:34forward acquisition time	60.00reverse acquisition time	0.00gamma	496.2192k internal	0.2340k external	0.2340temperature offset calibration	1.0139default loss term (dB/km)	0.3790temperature slope calibration	1.0000multiplexer offset coefficient	1.0000multiplexer slope coefficient	1.0000fibre end	0.00T internal ref (°C)	26.00T ext. ref 1 (°C)	4.13T ext. ref 2 (°C)	20.78length (m)	temperature (°C)	Stokes	anti-Stokes-747.200	800.000	-0.055	-0.220
-746.185	263.437	-0.096	-0.167
-745.171	-60.023	0.182	0.078
-744.156	-200.000	0.030	0.196
-743.142	-200.000	0.028	0.229
-742.127	-200.000	-0.023	0.127
-741.112	204.739	0.135	-0.210
-740.098	447.546	-0.054	0.120
-739.083	-45.127	-0.253	-0.126
-738.069	-143.806	-0.311	0.029
-737.054	-200.000	0.003	0.201
-736.039	23.752	-0.083	-0.068
-735.025	-200.000	0.040	0.312
-734.010	86.077	-0.099	0.110
-732.996	-68.415	0.322	-0.125
-731.981	313.997	-0.074	0.140
-730.966	-107.057	0.052	0.011
-729.952	273.730	-0.023	0.042
-728.937	-18.887	-0.288	0.179
-727.923	-8.682	-0.059	-0.040
-726.908	-86.729	-0.300	-0.092
-725.894	-51.798	0.127	-0.059
-724.879	-132.433	-0.443	-0.057
-723.864	-24.733	-0.240	0.143
-722.850	68.447	0.098	0.101
-721.835	-21.184	-0.140	0.086
-720.821	-59.331	-0.101	-0.044
-719.806	151.196	0.029	-0.039
-718.791	-130.584	-0.047	-0.006
-717.777	800.000	-0.026	-0.086
-716.762	11.001	0.063	-0.048
-715.748	192.258	-0.243	-0.366
-714.733	-149.284	0.165	-0.013
-713.718	-200.000	-0.037	-0.188
-712.704	-101.132	0.199	-0.049
-711.689	224.354	-0.123	0.199
-710.675	-2.517	-0.355	0.249
-709.660	37.043	-0.207	-0.184
-708.645	800.000	-0.026	-0.108
-707.631	-56.461	-0.317	0.141
-706.616	22.249	0.115	-0.094
-705.602	307.770	0.240	-0.448
-704.587	-104.089	0.155	-0.036
-703.572	-200.000	-0.015	0.203
-702.558	115.701	0.023	0.028
-701.543	-200.000	0.009	0.221
-700.529	-200.000	-0.018	0.278
-699.514	-200.000	0.017	0.149
-698.499	-77.283	-0.431	-0.150
-697.485	-112.002	0.187	-0.038
-696.470	-200.000	-0.050	-0.244
-695.456	-152.661	0.254	-0.018
-694.441	800.000	0.050	0.207
-693.426	-200.000	0.008	0.058
-692.412	-93.022	0.196	0.055
-691.397	-103.438	-0.225	0.053
-690.383	290.216	0.156	-0.283
-689.368	219.220	0.089	0.143
-688.354	124.926	-0.092	0.116
-687.339	120.549	0.105	-0.131
-686.324	48.162	0.108	-0.101
-685.310	-53.763	0.120	0.055
-684.295	93.834	-0.207	-0.235
-683.281	471.581	0.018	0.041
-682.266	-47.571	0.202	0.098
-681.251	718.776	-0.033	0.088
-680.237	-10.853	-0.077	0.051
-679.222	-116.162	0.215	0.040
-678.208	-200.000	0.030	-0.236
-677.193	-80.811	0.346	-0.115
-676.178	65.791	-0.130	0.131
-675.164	481.745	0.089	-0.202
-674.149	-87.429	-0.236	-0.072
-673.135	-200.000	-0.009	0.302
-672.120	-200.000	-0.015	-0.202
-671.105	-200.000	-0.023	0.309
-670.091	-200.000	-0.027	0.181
-669.076	-11.649	-0.266	-0.175
-668.062	101.965	-0.141	-0.164
-667.047	-173.713	0.372	0.011
-666.032	65.604	-0.058	0.059
-665.018	-74.591	-0.252	-0.091
-664.003	-200.000	-0.021	0.152
-662.989	-69.101	-0.163	-0.063
-661.974	-71.858	-0.372	-0.138
-660.959	-124.785	0.240	0.037
-659.945	312.267	0.175	-0.329
-658.930	79.855	0.255	-0.274
-657.916	1.063	-0.455	-0.326
-656.901	-53.362	0.115	0.053
-655.886	-67.392	-0.120	-0.047
-654.872	-200.000	0.009	0.113
-653.857	-200.000	0.009	0.203
-652.843	800.000	-0.078	0.321
-651.828	496.558	0.137	0.315
-650.814	450.038	-0.127	-0.281
-649.799	-35.360	0.206	-0.112
-648.784	800.000	-0.035	0.099
-647.770	-22.324	0.060	-0.036
-646.755	-37.846	0.128	0.068
-645.741	37.401	-0.135	-0.119
-644.726	-140.291	-0.027	-0.003
-643.711	150.952	-0.079	-0.107
-642.697	17.625	-0.038	-0.030
-641.682	50.039	-0.153	0.144
-640.668	-65.545	0.084	0.034
-639.653	20.578	-0.158	-0.128
-638.638	-0.699	0.149	-0.105
-637.624	-77.619	-0.145	0.050
-636.609	306.875	0.108	-0.200
-635.595	261.341	0.112	-0.194
-634.580	-30.098	0.117	0.066
-633.565	14.663	0.065	-0.051
-632.551	168.516	0.051	-0.072
-631.536	162.248	-0.074	-0.103
-630.522	800.000	0.107	-0.357
-629.507	-200.000	-0.029	-0.212
-628.492	800.000	0.031	0.133
-627.478	-3.831	-0.113	-0.078
-626.463	180.339	0.065	-0.095
-625.449	-200.000	-0.025	0.138
-624.434	5.595	0.266	0.196
-623.419	-20.512	0.072	-0.044
-622.405	-200.000	0.012	-0.380
-621.390	-200.000	0.021	0.133
-620.376	45.309	0.334	-0.308
-619.361	-81.908	0.391	0.128
-618.346	274.290	-0.033	-0.058
-617.332	-8.983	-0.135	0.090
-616.317	-101.060	-0.329	-0.080
-615.303	-200.000	-0.019	-0.254
-614.288	-90.473	-0.382	0.110
-613.273	-200.000	-0.053	-0.345
-612.259	-70.273	-0.387	-0.147
-611.244	-30.499	-0.149	0.084
-610.230	25.163	0.213	-0.177
-609.215	46.535	0.082	0.076
-608.201	143.195	0.088	0.117
-607.186	-200.000	-0.003	0.073
-606.171	69.509	-0.236	-0.242
-605.157	86.881	-0.177	0.195
-604.142	-200.000	-0.069	-0.309
-603.128	-200.000	-0.030	-0.240
-602.113	92.094	-0.143	-0.161
-601.098	-90.745	0.264	0.076
-600.084	165.338	0.124	0.175
-599.069	72.504	0.075	-0.078
-598.055	73.098	0.219	0.228
-597.040	800.000	-0.026	0.085
-596.025	23.940	0.192	0.158
-595.011	-2.932	-0.112	-0.078
-593.996	800.000	-0.048	0.177
-592.982	-109.161	0.179	-0.038
-591.967	-90.067	-0.108	0.031
-590.952	-200.000	0.032	-0.323
-589.938	-35.468	-0.084	-0.046
-588.923	326.174	-0.081	-0.155
-587.909	174.699	-0.248	0.357
-586.894	800.000	0.131	0.450
-585.879	800.000	0.048	0.138
-584.865	9.731	-0.191	0.144
-583.850	-49.269	-0.326	0.155
-582.836	282.742	0.060	-0.108
-581.821	-156.154	-0.201	-0.013
-580.806	369.393	0.068	-0.137
-579.792	-40.615	0.208	0.107
-578.777	-200.000	-0.028	0.449
-577.763	221.047	0.045	0.071
-576.748	-200.000	0.009	0.039
-575.733	442.460	0.101	-0.221
-574.719	173.412	0.109	-0.157
-573.704	228.492	-0.173	0.281
-572.690	-13.455	-0.111	0.072
-571.675	-61.506	-0.361	-0.151
-570.661	-200.000	-0.066	0.342
-569.646	-41.656	-0.256	0.131
-568.631	104.159	-0.104	0.122
-567.617	8.425	-0.083	0.062
-566.602	-22.155	-0.236	-0.143
-565.588	507.179	0.062	-0.144
-564.573	240.172	-0.188	-0.312
-563.558	46.403	-0.119	0.110
-562.544	41.728	0.205	-0.185
-561.529	12.943	-0.221	0.170
-560.515	124.346	-0.202	-0.253
-559.500	-22.680	-0.040	-0.024
-558.485	-44.567	0.363	0.181
-557.471	-66.097	0.238	-0.095
-556.456	80.708	-0.113	0.122
-555.442	-132.301	-0.204	-0.026
-554.427	636.052	0.066	-0.167
-553.412	-44.025	-0.067	0.034
-552.398	434.808	-0.130	0.281
-551.383	-38.780	0.277	0.145
-550.369	26.814	0.209	-0.174
-549.354	-131.315	-0.474	0.063
-548.339	19.550	-0.129	-0.103
-547.325	-33.804	-0.270	0.148
-546.310	139.916	0.092	-0.121
-545.296	63.225	0.203	0.202
-544.281	800.000	0.127	-0.420
-543.266	800.000	-0.093	-0.323
-542.252	-131.893	-0.016	0.002
-541.237	60.320	-0.039	-0.038
-540.223	-134.770	0.072	-0.009
-539.208	-200.000	0.028	-0.354
-538.193	597.841	-0.056	0.137
-537.179	-16.096	-0.170	-0.107
-536.164	445.159	-0.140	0.305
-535.150	-200.000	-0.027	0.226
-534.135	-124.209	-0.410	-0.064
-533.121	-200.000	0.024	0.304
-532.106	-82.506	-0.170	-0.055
-531.091	12.540	0.122	-0.093
-530.077	-17.446	-0.234	0.147
-529.062	77.990	-0.188	0.199
-528.048	193.018	0.148	0.222
-527.033	143.040	-0.187	-0.248
-526.018	-31.101	-0.200	-0.112
-525.004	-200.000	0.007	-0.117
-523.989	36.403	-0.127	0.111
-522.975	-200.000	0.053	-0.236
-521.960	-116.618	0.109	0.020
-520.945	227.587	-0.097	-0.157
-519.931	-101.777	0.143	-0.034
-518.916	-22.568	-0.142	0.085
-517.902	-129.503	-0.325	0.045
-516.887	-200.000	0.008	0.205
-515.872	-142.173	0.284	-0.028
-514.858	-200.000	-0.011	0.260
-513.843	-84.784	0.425	0.133
-512.829	0.933	0.134	-0.096
-511.814	-1.905	-0.215	0.150
-510.799	-200.000	-0.038	-0.219
-509.785	-146.910	0.083	-0.007
-508.770	83.310	0.111	-0.121
-507.756	-142.523	0.238	-0.023
-506.741	166.747	-0.028	-0.040
-505.726	-109.642	-0.095	-0.020
-504.712	-24.180	-0.180	0.107
-503.697	-200.000	-0.004	0.210
-502.683	-200.000	0.036	-0.250
-501.668	234.055	0.302	-0.494
-500.653	436.704	0.038	0.082
-499.639	-128.556	0.059	-0.008
-498.624	39.078	0.081	0.072
-497.610	-175.467	0.206	-0.006
-496.595	800.000	-0.083	-0.303
-495.581	-31.198	0.240	-0.134
-494.566	-93.850	0.004	-0.001
-493.551	-44.124	-0.200	-0.100
-492.537	-107.521	0.090	-0.019
-491.522	198.559	0.080	-0.121
-490.508	6.258	-0.053	0.039
-489.493	-200.000	0.019	0.108
-488.478	-40.178	-0.254	-0.131
-487.464	-54.750	-0.138	-0.062
-486.449	4.150	0.172	-0.125
-485.435	115.628	0.073	0.089
-484.420	29.625	-0.159	-0.135
-483.405	213.202	0.068	0.107
-482.391	-59.568	0.151	0.064
-481.376	-200.000	0.023	0.220
-480.362	-200.000	0.003	-0.182
-479.347	800.000	-0.077	-0.293
-478.332	-126.534	-0.242	0.036
-477.318	-200.000	-0.026	0.255
-476.303	127.130	0.151	0.190
-475.289	13.634	-0.126	0.097
-474.274	-90.389	-0.359	-0.103
-473.259	800.000	0.060	-0.230
-472.245	-200.000	-0.062	-0.288
-471.230	-91.767	0.052	-0.015
-470.216	-200.000	-0.012	0.244
-469.201	28.370	-0.171	0.143
-468.186	92.458	0.082	-0.092
-467.172	-63.934	0.111	0.045
-466.157	-145.098	0.311	-0.028
-465.143	-79.367	0.298	-0.100
-464.128	-200.000	-0.023	-0.236
-463.113	92.289	0.100	-0.111
-462.099	705.648	-0.117	-0.305
-461.084	-200.000	0.004	-0.164
-460.070	22.611	0.042	0.034
-459.055	-35.074	0.276	-0.149
-458.040	587.157	-0.067	0.163
-457.026	89.375	0.127	0.140
-456.011	5.857	0.118	-0.086
-454.997	-200.000	0.002	-0.147
-453.982	668.700	0.045	-0.116
-452.968	-61.534	0.120	-0.050
-451.953	-68.941	0.080	0.031
-450.938	87.894	0.178	0.196
-449.924	-94.618	-0.277	-0.075
-448.909	-115.299	-0.501	-0.094
-447.895	124.157	0.185	0.230
-446.880	800.000	0.068	-0.266
-445.865	51.472	0.169	-0.159
-444.851	-17.104	0.184	-0.115
-443.836	-44.740	0.029	0.014
-442.822	582.889	-0.061	0.148
-441.807	93.594	0.087	-0.098
-440.792	-139.748	-0.074	0.008
-439.778	-53.520	-0.057	-0.026
-438.763	-7.776	0.218	0.146
-437.749	-11.106	-0.171	0.111
-436.734	-200.000	-0.011	0.152
-435.719	800.000	-0.025	0.080
-434.705	-148.488	-0.266	-0.022
-433.690	800.000	-0.073	-0.231
-432.676	639.938	0.120	0.302
-431.661	-133.497	-0.209	-0.026
-430.646	81.822	0.088	-0.095
-429.632	-200.000	0.008	0.121
-428.617	16.374	-0.106	-0.083
-427.603	-200.000	0.042	-0.193
-426.588	160.021	0.115	-0.159
-425.573	800.000	0.093	-0.327
-424.559	-165.957	0.064	0.003
-423.544	-200.000	0.018	0.583
-422.530	-140.415	0.318	0.033
-421.515	-200.000	-0.037	-0.369
-420.500	-169.876	-0.068	0.002
-419.486	-200.000	0.018	0.154
-418.471	800.000	-0.122	-0.366
-417.457	185.676	0.189	0.278
-416.442	800.000	-0.081	0.340
-415.428	-66.562	-0.177	-0.069
-414.413	57.290	-0.262	-0.253
-413.398	-200.000	0.052	0.245
-412.384	15.879	0.290	-0.226
-411.369	-126.059	-0.138	-0.021
-410.355	800.000	0.036	0.133
-409.340	-8.606	-0.060	0.040
-408.325	238.122	-0.045	0.073
-407.311	272.738	0.052	-0.091
-406.296	-200.000	-0.064	-0.511
-405.282	-42.373	0.133	0.067
-404.267	12.125	-0.221	0.168
-403.252	138.362	-0.057	0.074
-402.238	589.281	0.045	0.111
-401.223	-200.000	-0.028	-0.123
-400.209	-55.381	-0.139	0.062
-399.194	-173.271	0.316	-0.010
-398.179	388.081	-0.161	-0.330
-397.165	-200.000	-0.031	0.228
-396.150	-167.692	0.214	-0.008
-395.136	794.980	-0.148	0.402
-394.121	-200.000	-0.025	0.129
-393.106	455.338	-0.051	-0.112
-392.092	630.539	-0.095	0.237
-391.077	-4.283	0.166	-0.114
-390.063	138.718	-0.172	0.224
-389.048	-124.019	0.480	-0.075
-388.033	195.022	-0.068	0.103
-387.019	156.491	0.235	0.321
-386.004	-85.934	-0.090	-0.027
-384.990	-5.696	0.136	0.092
-383.975	-200.000	-0.007	0.104
-382.960	-200.000	-0.018	0.104
-381.946	349.306	0.084	-0.164
-380.931	265.210	0.118	0.204
-379.917	186.928	-0.169	-0.248
-378.902	-27.512	-0.183	0.105
-377.888	-64.964	0.092	-0.037
-376.873	-154.356	-0.290	0.019
-375.858	284.308	-0.017	-0.030
-374.844	-139.715	-0.153	-0.016
-373.829	41.619	0.343	-0.307
-372.815	-200.000	0.033	0.209
-371.800	-156.127	-0.090	-0.006
-370.785	258.998	0.063	-0.108
-369.771	87.147	0.222	-0.243
-368.756	-35.627	0.159	-0.085
-367.742	-62.727	0.281	-0.115
-366.727	-13.658	0.265	0.169
-365.712	-200.000	0.029	0.168
-364.698	-15.107	-0.237	0.150
-363.683	-200.000	0.139	0.000
-362.669	800.000	-0.029	0.083
-361.654	-200.000	0.004	0.242
-360.639	-193.725	0.155	0.001
-359.625	-200.000	-0.017	-0.229
-358.610	-99.694	-0.197	0.049
-357.596	-67.171	-0.406	-0.158
-356.581	-60.514	0.175	-0.073
-355.566	-42.152	-0.315	0.159
-354.552	-64.556	0.069	-0.028
-353.537	-69.314	0.177	-0.067
-352.523	16.759	-0.168	0.131
-351.508	800.000	-0.024	0.073
-350.493	32.767	0.114	-0.098
-349.479	373.888	-0.116	0.234
-348.464	174.769	-0.193	0.276
-347.450	776.590	-0.146	0.394
-346.435	800.000	-0.044	0.130
-345.420	214.044	0.183	0.286
-344.406	800.000	0.069	-0.195
-343.391	-200.000	-0.008	0.263
-342.377	-200.000	0.058	-0.251
-341.362	342.452	0.179	0.346
-340.348	800.000	-0.074	0.265
-339.333	43.857	0.088	0.080
-338.318	-22.208	-0.061	-0.037
-337.304	320.249	0.102	0.191
-336.289	98.735	-0.128	-0.146
-335.275	-52.911	-0.159	0.072
-334.260	42.049	0.133	0.119
-333.245	326.610	0.159	0.300
-332.231	534.613	-0.056	0.130
-331.216	370.749	-0.121	0.242
-330.202	-109.567	0.188	-0.039
-329.187	-64.344	0.214	0.086
-328.172	19.648	-0.048	0.038
-327.158	-25.705	0.133	0.078
-326.143	800.000	-0.032	0.087
-325.129	83.061	0.069	0.074
-324.114	800.000	-0.031	0.103
-323.099	-58.207	-0.145	-0.062
-322.085	-124.205	0.102	0.016
-321.070	-106.543	-0.037	-0.008
-320.056	-122.138	-0.216	0.035
-319.041	359.022	0.131	0.259
-318.026	800.000	0.072	0.279
-317.012	-143.361	-0.136	0.013
-315.997	-200.000	-0.003	0.068
-314.983	209.825	0.112	-0.173
-313.968	63.454	0.231	0.229
-312.953	-200.000	0.085	-0.562
-311.939	14.559	-0.160	-0.123
-310.924	96.080	-0.069	0.078
-309.910	-141.965	0.366	0.036
-308.895	-18.425	-0.103	-0.063
-307.880	-158.320	0.139	0.008
-306.866	535.173	0.121	-0.282
-305.851	-64.601	-0.109	0.044
-304.837	-122.334	0.105	-0.017
-303.822	103.409	0.041	-0.048
-302.807	-23.552	-0.220	-0.130
-301.793	-117.186	-0.323	0.058
-300.778	-53.171	0.135	-0.061
-299.764	-142.286	-0.316	-0.031
-298.749	130.227	0.097	0.123
-297.735	-48.387	-0.132	0.063
-296.720	-200.000	0.045	0.402
-295.705	57.530	0.355	-0.342
-294.691	104.319	-0.102	-0.119
-293.676	57.635	-0.384	0.370
-292.662	-200.000	0.021	-0.115
-291.647	83.893	-0.218	-0.235
-290.632	-200.000	0.030	-0.276
-289.618	550.596	-0.040	-0.094
-288.603	83.564	-0.067	-0.071
-287.589	-91.780	0.269	0.075
-286.574	-93.495	-0.230	-0.063
-285.559	-134.050	0.489	0.060
-284.545	40.684	0.286	0.254
-283.530	-83.738	-0.187	0.059
-282.516	266.705	0.043	0.075
-281.501	181.414	0.088	-0.127
-280.486	223.857	-0.090	-0.143
-279.472	21.358	-0.131	-0.105
-278.457	150.313	-0.183	0.244
-277.443	619.130	0.061	0.151
-276.428	800.000	-0.093	-0.300
-275.413	17.325	0.204	0.159
-274.399	-30.600	0.266	-0.148
-273.384	279.323	0.101	0.177
-272.370	-200.000	-0.040	-0.254
-271.355	82.770	0.185	0.198
-270.340	751.840	-0.056	0.149
-269.326	-66.303	-0.048	-0.019
-268.311	800.000	-0.085	0.242
-267.297	20.476	-0.341	0.271
-266.282	360.150	0.165	0.324
-265.267	-200.000	0.035	-0.192
-264.253	-77.003	-0.197	0.068
-263.238	-146.416	-0.514	0.044
-262.224	225.247	0.088	-0.141
-261.209	-200.000	0.003	-0.263
-260.195	-200.000	-0.007	-0.275
-259.180	270.216	0.083	0.143
-258.165	-151.298	0.291	0.021
-257.151	-137.861	-0.169	0.019
-256.136	275.635	0.182	-0.317
-255.122	-84.917	-0.084	-0.026
-254.107	-200.000	0.081	0.364
-253.092	-144.351	0.224	-0.021
-252.078	-120.768	-0.172	0.029
-251.063	800.000	-0.027	-0.083
-250.049	800.000	-0.039	0.154
-249.034	2.935	0.262	0.187
-248.019	800.000	-0.184	0.602
-247.005	800.000	0.012	-0.048
-245.990	-115.520	0.258	-0.048
-244.976	42.314	-0.230	0.205
-243.961	363.491	-0.122	0.242
-242.946	-200.000	-0.082	-0.385
-241.932	-19.494	0.143	-0.087
-240.917	50.873	0.076	-0.071
-239.903	-135.328	-0.150	0.018
-238.888	84.180	-0.110	0.119
-237.873	-200.000	-0.032	-0.262
-236.859	-200.000	-0.009	-0.141
-235.844	219.988	0.055	0.087
-234.830	-37.435	0.216	0.113
-233.815	-136.976	0.251	0.028
-232.800	-80.375	0.092	0.030
-231.786	192.504	0.130	0.192
-230.771	-87.345	-0.019	-0.006
-229.757	-141.454	0.143	-0.014
-228.742	800.000	0.032	0.114
-227.727	-47.118	-0.191	-0.091
-226.713	84.168	0.140	-0.150
-225.698	18.699	0.191	0.150
-224.684	-200.000	0.018	-0.097
-223.669	171.245	-0.193	0.272
-222.655	225.022	0.129	0.206
-221.640	-17.725	0.185	0.114
-220.625	46.628	-0.184	-0.168
-219.611	-200.000	0.002	0.094
-218.596	-178.273	0.050	0.001
-217.582	218.825	0.161	0.252
-216.567	-41.277	0.081	-0.041
-215.552	-121.556	-0.296	-0.048
-214.538	294.208	0.120	0.216
-213.523	-70.527	-0.111	0.041
-212.509	741.280	0.024	-0.064
-211.494	382.885	-0.123	0.249
-210.479	-38.720	0.057	0.029
-209.465	-200.000	0.051	0.313
-208.450	-200.000	-0.010	-0.162
-207.436	800.000	0.016	0.058
-206.421	-30.753	-0.201	-0.112
-205.406	-200.000	-0.020	-0.418
-204.392	-159.313	-0.365	-0.020
-203.377	-200.000	0.005	-0.029
-202.363	349.746	-0.082	-0.159
-201.348	-200.000	0.002	0.046
-200.333	-24.719	0.266	0.155
-199.319	264.154	0.198	-0.339
-198.304	-200.000	-0.072	-0.325
-197.290	85.062	0.220	0.236
-196.275	800.000	-0.076	-0.230
-195.260	-53.187	-0.395	-0.178
-194.246	-76.294	0.276	-0.095
-193.231	49.059	-0.205	0.189
-192.217	356.083	0.102	0.199
-191.202	95.199	0.207	-0.231
-190.187	358.353	-0.008	0.015
-189.173	-103.993	0.120	-0.028
-188.158	800.000	0.121	0.331
-187.144	-200.000	0.009	0.097
-186.129	-32.856	0.314	-0.171
-185.114	-81.702	0.304	-0.098
-184.100	-104.976	0.287	0.064
-183.085	53.644	-0.322	0.304
-182.071	27.667	0.074	0.061
-181.056	-120.435	-0.173	0.029
-180.042	800.000	0.035	0.138
-179.027	-200.000	0.016	-0.272
-178.012	-200.000	-0.026	0.203
-176.998	-87.037	-0.333	0.100
-175.983	-17.156	0.113	-0.070
-174.969	71.026	-0.135	0.138
-173.954	-36.434	-0.156	-0.082
-172.939	113.287	-0.299	-0.356
-171.925	79.887	0.067	0.070
-170.910	72.852	-0.044	-0.045
-169.896	-200.000	-0.056	-0.287
-168.881	45.857	-0.221	-0.200
-167.866	95.061	0.231	-0.257
-166.852	-42.706	-0.525	-0.262
-165.837	571.824	-0.058	-0.139
-164.823	-95.627	0.424	-0.111
-163.808	-74.263	-0.277	0.098
-162.793	-192.077	0.120	-0.001
-161.779	-200.000	-0.014	-0.081
-160.764	-200.000	-0.033	0.184
-159.750	-180.057	0.451	-0.009
-158.735	-105.550	0.038	0.008
-157.720	-110.991	0.175	-0.035
-156.706	-118.366	-0.248	0.043
-155.691	43.027	-0.055	-0.049
-154.677	-200.000	0.010	-0.396
-153.662	144.106	0.123	-0.161
-152.647	335.995	-0.125	-0.238
-151.633	-21.302	0.205	-0.123
-150.618	121.580	-0.133	0.162
-149.604	-24.558	0.388	0.227
-148.589	291.131	0.113	0.201
-147.574	-73.720	0.357	-0.127
-146.560	144.057	0.103	0.135
-145.545	-177.203	-0.333	0.008
-144.531	55.941	0.160	-0.152
-143.516	101.732	-0.079	-0.090
-142.502	20.882	-0.030	0.023
-141.487	148.433	0.224	0.297
-140.472	-135.886	-0.356	0.041
-139.458	-100.066	0.439	0.107
-138.443	800.000	-0.104	0.283
-137.429	341.365	-0.094	0.181
-136.414	-200.000	-0.003	-0.207
-135.399	156.425	0.083	-0.112
-134.385	-123.963	-0.255	0.039
-133.370	800.000	-0.040	0.138
-132.356	-165.267	0.266	0.011
-131.341	800.000	0.043	0.174
-130.326	-33.364	-0.184	0.100
-129.312	-91.048	-0.059	0.017
-128.297	-74.621	-0.137	0.048
-127.283	-85.117	0.358	0.110
-126.268	-167.432	-0.044	-0.002
-125.253	-157.655	0.143	-0.008
-124.239	47.175	-0.275	0.251
-123.224	243.561	0.044	0.073
-122.210	-11.595	0.278	-0.178
-121.195	-200.000	0.011	0.106
