DTS Sentinel unit serial number:	SN413079Multiplexer serial number:	ORYXHardware model number:	OX4-SRSoftware version number:	ORYX F/W v4.00 Oryx Data Collector v3.7.2.0data status	okinstallation	princeton_trtdifferential loss correction	single-endedforward channel	channel 3reverse channel	N/Adate	2019/09/16time	08:08:35forward acquisition time	60.00reverse acquisition time	0.00gamma	496.2192k internal	0.2327k external	0.2327temperature offset calibration	0.9958default loss term (dB/km)	0.3790temperature slope calibration	1.0000multiplexer offset coefficient	1.0000multiplexer slope coefficient	1.0000fibre end	0.00T internal ref (°C)	28.69T ext. ref 1 (°C)	11.81T ext. ref 2 (°C)	24.83length (m)	temperature (°C)	Stokes	anti-Stokes-747.200	-200.000	-0.030	-0.384
-746.185	-200.000	0.047	0.218
-745.171	-53.513	0.106	-0.049
-744.156	-171.261	-0.027	-0.001
-743.142	-30.385	-0.356	0.204
-742.127	-200.000	-0.016	0.289
-741.112	-200.000	0.019	-0.116
-740.098	-50.113	-0.269	0.129
-739.083	-111.226	-0.143	-0.029
-738.069	40.324	0.147	0.134
-737.054	-40.735	-0.122	0.064
-736.039	-88.362	0.322	-0.097
-735.025	-200.000	0.007	-0.155
-734.010	-148.614	-0.257	-0.021
-732.996	-200.000	-0.005	-0.139
-731.981	-35.024	-0.262	0.144
-730.966	-59.936	0.094	-0.040
-729.952	800.000	0.065	-0.195
-728.937	-140.365	0.288	-0.030
-727.923	53.548	-0.030	-0.029
-726.908	68.847	0.047	0.049
-725.894	144.880	-0.183	-0.247
-724.879	92.397	0.349	-0.396
-723.864	-102.391	-0.188	0.045
-722.850	800.000	-0.097	-0.287
-721.835	-200.000	-0.013	0.175
-720.821	-118.444	-0.259	-0.046
-719.806	-117.582	-0.090	0.016
-718.791	200.383	0.128	0.199
-717.777	322.593	-0.070	-0.135
-716.762	-40.971	-0.200	0.104
-715.748	410.810	0.114	-0.244
-714.733	-200.000	-0.046	0.218
-713.718	454.483	-0.070	0.156
-712.704	800.000	0.145	-0.488
-711.689	-200.000	-0.011	-0.235
-710.675	-25.902	-0.258	-0.153
-709.660	-200.000	-0.024	0.153
-708.645	-35.867	0.165	0.090
-707.631	31.810	0.098	-0.085
-706.616	4.045	-0.152	0.112
-705.602	-200.000	-0.017	-0.121
-704.587	54.416	0.132	0.128
-703.572	-200.000	0.051	0.236
-702.558	121.911	0.052	0.066
-701.543	28.005	-0.256	-0.217
-700.529	-170.010	-0.232	-0.008
-699.514	-166.496	-0.116	0.005
-698.499	309.937	-0.133	-0.251
-697.485	-82.745	0.048	-0.016
-696.470	210.679	0.181	-0.286
-695.456	-67.299	0.330	0.131
-694.441	-57.976	-0.220	-0.097
-693.426	-151.131	0.125	0.009
-692.412	60.341	0.157	-0.156
-691.397	561.850	0.107	0.260
-690.383	167.696	-0.210	-0.300
-689.368	-140.256	-0.321	0.034
-688.354	-200.000	-0.016	-0.215
-687.339	275.891	-0.194	-0.346
-686.324	-117.259	-0.396	-0.072
-685.310	-200.000	0.000	-0.083
-684.295	134.004	-0.094	-0.123
-683.281	640.843	0.108	0.275
-682.266	800.000	-0.057	-0.219
-681.251	723.553	-0.075	0.201
-680.237	-89.291	0.076	-0.022
-679.222	-200.000	-0.034	-0.153
-678.208	38.734	0.114	0.103
-677.193	-83.528	-0.373	0.120
-676.178	65.268	-0.124	-0.126
-675.164	-91.183	0.124	0.036
-674.149	299.598	0.030	-0.055
-673.135	-85.722	-0.196	-0.061
-672.120	34.536	0.286	-0.251
-671.105	328.881	0.216	-0.416
-670.091	672.076	0.037	-0.095
-669.076	173.540	-0.061	-0.089
-668.062	-47.751	0.224	-0.109
-667.047	-200.000	-0.042	-0.219
-666.032	0.850	0.115	-0.083
-665.018	-158.760	-0.051	0.003
-664.003	-200.000	0.057	-0.265
-662.989	-16.958	-0.138	0.088
-661.974	90.037	0.165	0.186
-660.959	-200.000	0.009	-0.090
-659.945	-139.065	0.236	-0.026
-658.930	-200.000	-0.078	-0.368
-657.916	-186.508	-0.322	-0.005
-656.901	-138.956	-0.352	0.038
-655.886	-101.714	0.468	0.114
-654.872	-72.923	0.324	-0.120
-653.857	44.043	0.221	-0.203
-652.843	-200.000	0.005	-0.050
-651.828	800.000	0.091	0.388
-650.814	119.423	-0.121	-0.151
-649.799	72.438	0.088	0.093
-648.784	-61.225	-0.102	-0.043
-647.770	-200.000	-0.007	0.326
-646.755	-120.730	-0.141	-0.024
-645.741	-200.000	-0.012	-0.210
-644.726	-86.333	0.245	0.076
-643.711	348.134	-0.023	-0.046
-642.697	332.044	0.118	-0.228
-641.682	-200.000	-0.000	0.132
-640.668	800.000	0.012	-0.049
-639.653	-133.463	-0.120	-0.015
-638.638	344.134	-0.199	-0.391
-637.624	48.941	-0.202	0.190
-636.609	17.229	0.227	-0.181
-635.595	11.946	-0.233	-0.180
-634.580	800.000	0.056	0.185
-633.565	800.000	0.016	0.068
-632.551	-6.331	-0.117	-0.080
-631.536	-83.595	-0.284	0.091
-630.522	-200.000	0.043	0.257
-629.507	65.779	-0.257	0.262
-628.492	-79.469	-0.257	0.087
-627.478	4.574	0.083	-0.061
-626.463	115.727	-0.249	0.306
-625.449	49.094	-0.415	0.391
-624.434	86.750	-0.294	0.326
-623.419	-145.879	0.255	0.023
-622.405	158.718	-0.073	-0.101
-621.390	-28.134	-0.245	-0.142
-620.376	-39.208	0.191	0.100
-619.361	-59.175	-0.246	0.107
-618.346	-113.986	-0.147	-0.029
-617.332	123.222	-0.229	-0.287
-616.317	800.000	-0.075	0.207
-615.303	30.871	0.232	0.199
-614.288	-105.899	-0.066	0.015
-613.273	-65.407	-0.128	0.051
-612.259	-200.000	0.025	-0.141
-611.244	-200.000	-0.017	0.193
-610.230	-72.381	-0.199	0.074
-609.215	142.399	0.165	-0.219
-608.201	-90.963	-0.258	-0.074
-607.186	-27.681	-0.143	0.084
-606.171	-67.962	-0.279	0.109
-605.157	-21.583	-0.151	0.092
-604.142	243.752	-0.113	-0.190
-603.128	-200.000	-0.001	0.041
-602.113	-200.000	0.031	0.305
-601.098	18.791	0.066	0.053
-600.084	34.498	0.141	-0.123
-599.069	114.599	-0.307	-0.375
-598.055	800.000	0.054	0.212
-597.040	218.753	-0.117	-0.188
-596.025	-29.594	-0.369	0.211
-595.011	-176.740	0.208	0.005
-593.996	93.147	-0.167	0.189
-592.982	-48.598	0.165	-0.080
-591.967	-176.686	0.285	-0.007
-590.952	103.169	-0.256	0.300
-589.938	-177.913	0.298	-0.007
-588.923	-200.000	0.008	0.143
-587.909	-175.492	-0.244	0.007
-586.894	800.000	0.070	0.248
-585.879	-49.090	0.071	-0.034
-584.865	230.108	-0.045	-0.074
-583.850	800.000	-0.068	-0.290
-582.836	91.875	-0.265	-0.298
-581.821	-200.000	0.026	-0.262
-580.806	8.948	0.127	-0.096
-579.792	427.366	-0.037	0.080
-578.777	37.064	0.211	-0.187
-577.763	330.287	-0.070	0.135
-576.748	64.061	-0.059	-0.059
-575.733	102.989	-0.111	-0.130
-574.719	111.864	-0.128	0.155
-573.704	-129.070	0.070	-0.010
-572.690	-34.182	0.241	-0.132
-571.675	-26.073	-0.336	0.198
-570.661	-132.724	0.204	0.026
-569.646	-56.059	-0.183	-0.081
-568.631	69.238	-0.139	-0.143
-567.617	0.233	-0.324	-0.231
-566.602	-200.000	0.015	-0.103
-565.588	-200.000	0.054	0.314
-564.573	-96.230	0.242	-0.064
-563.558	-106.248	-0.171	-0.038
-562.544	130.270	-0.042	0.054
-561.529	263.163	0.087	-0.151
-560.515	-200.000	-0.037	-0.370
-559.500	800.000	-0.084	-0.285
-558.485	256.491	0.084	0.144
-557.471	145.267	0.120	0.160
-556.456	-37.848	0.096	0.051
-555.442	21.815	-0.165	-0.135
-554.427	800.000	0.058	-0.200
-553.412	194.147	0.097	0.148
-552.398	-56.980	0.236	0.104
-551.383	2.200	-0.179	-0.130
-550.369	471.621	0.090	-0.202
-549.354	203.070	-0.051	-0.079
-548.339	-200.000	-0.040	0.192
-547.325	800.000	0.013	0.045
-546.310	800.000	-0.039	0.139
-545.296	-176.658	0.325	-0.008
-544.281	347.651	-0.047	-0.092
-543.266	-200.000	-0.015	0.340
-542.252	95.032	0.207	-0.235
-541.237	-71.574	-0.073	0.027
-540.223	413.511	0.101	-0.214
-539.208	-19.197	-0.119	-0.074
-538.193	-96.689	0.105	-0.028
-537.179	62.931	-0.156	0.156
-536.164	-85.626	0.095	-0.030
-535.150	-93.514	-0.198	0.055
-534.135	272.845	0.137	0.242
-533.121	800.000	0.133	0.441
-532.106	-200.000	-0.024	0.131
-531.091	-99.739	-0.114	0.028
-530.077	146.241	-0.122	-0.164
-529.062	-65.110	-0.316	-0.128
-528.048	-116.877	0.100	0.018
-527.033	14.218	-0.358	0.279
-526.018	15.231	0.069	0.054
-525.004	-81.245	0.346	0.114
-523.989	237.326	0.168	-0.278
-522.975	-21.467	-0.133	0.081
-521.960	-200.000	-0.084	0.467
-520.945	800.000	-0.039	0.170
-519.931	170.139	0.146	-0.208
-518.916	115.726	-0.184	-0.225
-517.902	-157.238	-0.149	0.009
-516.887	-135.499	-0.028	0.003
-515.872	-118.281	-0.356	0.063
-514.858	-108.693	-0.126	0.027
-513.843	105.926	0.198	0.234
-512.829	-49.597	-0.035	-0.017
-511.814	-200.000	0.002	-0.123
-510.799	-75.434	0.203	-0.072
-509.785	-69.230	0.338	-0.130
-508.770	-74.601	0.280	-0.101
-507.756	-98.592	-0.431	0.110
-506.741	330.695	-0.109	-0.209
-505.726	-164.238	-0.196	0.009
-504.712	-110.323	0.324	-0.067
-503.697	-188.623	-0.350	-0.004
-502.683	-200.000	0.017	-0.121
-501.668	43.244	-0.034	-0.031
-500.653	39.621	0.176	0.158
-499.639	81.208	0.115	0.124
-498.624	73.842	-0.279	-0.292
-497.610	-117.536	-0.118	0.021
-496.595	-200.000	-0.004	-0.091
-495.581	433.404	-0.110	0.237
-494.566	69.635	-0.152	-0.157
-493.551	-51.661	-0.188	0.088
-492.537	456.233	0.004	-0.009
-491.522	800.000	0.088	-0.244
-490.508	-66.832	-0.099	0.039
-489.493	-138.693	-0.433	0.047
-488.478	-200.000	0.066	-0.422
-487.464	-200.000	0.019	0.173
-486.449	22.963	0.326	0.266
-485.435	-46.456	-0.239	0.117
-484.420	-60.222	-0.170	0.072
-483.405	80.105	0.112	-0.120
-482.391	91.860	0.195	-0.218
-481.376	188.309	-0.079	0.117
-480.362	238.240	-0.119	-0.197
-479.347	95.950	0.112	0.127
-478.332	-200.000	-0.008	-0.050
-477.318	15.037	0.060	0.047
-476.303	-200.000	-0.004	0.168
-475.289	-131.601	-0.121	0.016
-474.274	547.275	0.104	0.248
-473.259	800.000	0.014	-0.058
-472.245	54.572	0.139	-0.133
-471.230	-97.145	0.155	-0.041
-470.216	220.153	-0.032	-0.052
-469.201	212.955	0.088	0.138
-468.186	3.489	0.083	-0.060
-467.172	-6.681	0.183	-0.124
-466.157	533.638	-0.111	0.261
-465.143	-111.775	0.121	0.024
-464.128	800.000	0.019	-0.058
-463.113	-200.000	-0.033	-0.199
-462.099	244.455	0.230	0.385
-461.084	-200.000	-0.015	0.336
-460.070	129.080	0.037	-0.046
-459.055	-14.642	0.185	0.119
-458.040	-108.260	-0.336	-0.072
-457.026	-7.598	0.165	0.111
-456.011	64.494	0.386	-0.388
-454.997	-200.000	0.040	0.336
-453.982	-86.453	-0.070	0.021
-452.968	-200.000	-0.021	-0.178
-451.953	-16.633	0.298	-0.188
-450.938	51.942	0.075	-0.071
-449.924	-93.898	0.356	-0.098
-448.909	-200.000	-0.075	-0.345
-447.895	-137.914	0.183	-0.020
-446.880	-88.541	-0.168	-0.050
-445.865	131.527	-0.129	0.166
-444.851	454.879	-0.206	-0.456
-443.836	177.606	0.093	-0.135
-442.822	-200.000	0.043	-0.312
-441.807	87.999	0.063	0.070
-440.792	147.230	-0.086	0.115
-439.778	-200.000	0.032	-0.261
-438.763	229.642	0.172	-0.280
-437.749	-47.323	0.243	0.118
-436.734	97.424	-0.095	0.108
-435.719	-32.565	0.213	-0.118
-434.705	-183.545	-0.191	-0.003
-433.690	800.000	0.131	0.398
-432.676	-57.659	0.188	0.082
-431.661	399.501	-0.131	-0.273
-430.646	366.394	-0.014	-0.028
-429.632	141.518	-0.070	-0.092
-428.617	-162.964	-0.111	-0.005
-427.603	-85.300	-0.212	-0.066
-426.588	373.530	0.085	-0.171
-425.573	800.000	0.066	0.276
-424.559	121.447	-0.243	0.301
-423.544	108.078	0.132	-0.156
-422.530	800.000	-0.052	-0.197
-421.515	-2.680	-0.123	-0.085
-420.500	197.764	-0.065	0.100
-419.486	237.364	-0.041	-0.068
-418.471	71.607	0.032	-0.033
-417.457	800.000	0.077	-0.333
-416.442	70.129	0.179	-0.184
-415.428	-23.232	0.138	-0.082
-414.413	-200.000	0.039	0.176
-413.398	800.000	-0.047	-0.145
-412.384	-43.844	-0.097	-0.048
-411.369	800.000	0.083	0.247
-410.355	-200.000	-0.014	0.625
-409.340	800.000	-0.037	0.161
-408.325	-135.834	0.240	0.028
-407.311	148.446	-0.102	0.137
-406.296	-73.581	-0.061	0.022
-405.282	-162.627	0.234	-0.011
-404.267	-152.753	0.290	-0.020
-403.252	-89.032	-0.226	-0.067
-402.238	-92.615	0.373	0.104
-401.223	800.000	0.026	-0.104
-400.209	79.091	0.246	-0.262
-399.194	800.000	0.030	0.093
-398.179	717.943	-0.047	-0.124
-397.165	-90.794	-0.093	-0.027
-396.150	458.719	-0.071	-0.158
-395.136	471.596	-0.222	-0.497
-394.121	-35.562	0.316	0.170
-393.106	800.000	-0.107	0.427
-392.092	-88.257	0.067	0.020
-391.077	110.686	-0.221	-0.264
-390.063	137.583	-0.108	-0.140
-389.048	-101.216	-0.033	-0.008
-388.033	-13.633	0.300	-0.193
-387.019	5.590	-0.083	-0.061
-386.004	30.676	-0.259	-0.221
-384.990	800.000	0.077	-0.256
-383.975	556.354	0.092	0.220
-382.960	70.127	-0.087	-0.089
-381.946	-200.000	0.066	-0.325
-380.931	165.548	-0.039	-0.055
-379.917	-187.170	0.294	0.004
-378.902	55.554	0.261	0.251
-377.888	-75.702	-0.312	0.110
-376.873	800.000	-0.027	-0.103
-375.858	-200.000	0.013	0.062
-374.844	-200.000	0.030	-0.175
-373.829	-136.365	-0.090	-0.010
-372.815	800.000	0.101	0.349
-371.800	800.000	-0.093	0.267
-370.785	187.041	0.117	-0.173
-369.771	670.335	0.054	0.138
-368.756	122.154	0.151	0.187
-367.742	665.880	-0.126	-0.324
-366.727	530.156	-0.032	0.074
-365.712	-43.638	-0.255	-0.128
-364.698	-90.038	-0.237	-0.069
-363.683	91.172	-0.098	-0.110
-362.669	284.513	-0.010	0.019
-361.654	-200.000	0.036	-0.448
-360.639	-200.000	0.061	-0.407
-359.625	-98.022	0.243	0.062
-358.610	-159.144	0.124	0.007
-357.596	-54.574	0.096	-0.043
-356.581	-200.000	-0.062	0.284
-355.566	-170.438	-0.179	0.006
-354.552	800.000	0.041	0.122
-353.537	-80.710	0.313	-0.103
-352.523	-133.500	0.075	-0.009
-351.508	133.985	-0.162	-0.209
-350.493	-200.000	-0.009	0.157
-349.479	-96.970	0.262	-0.068
-348.464	-200.000	0.051	-0.302
-347.450	20.645	0.089	0.071
-346.435	-200.000	0.042	-0.347
-345.420	-200.000	0.044	-0.357
-344.406	82.869	0.266	-0.288
-343.391	71.095	-0.154	-0.159
-342.377	-47.884	-0.358	0.172
-341.362	752.456	0.199	0.533
-340.348	-120.018	0.369	-0.063
-339.333	7.940	0.063	0.047
-338.318	762.642	-0.039	-0.106
-337.304	-200.000	0.005	0.217
-336.289	800.000	-0.098	0.346
-335.275	-105.325	-0.078	-0.018
-334.260	800.000	0.051	0.150
-333.245	-117.953	-0.126	0.022
-332.231	-72.659	0.115	0.042
-331.216	170.945	-0.107	0.152
-330.202	-157.782	0.066	-0.004
-329.187	-176.327	0.034	0.001
-328.172	313.118	0.101	0.188
-327.158	-97.767	0.093	0.024
-326.143	-52.898	0.047	0.021
-325.129	-63.052	0.378	0.155
-324.114	-200.000	-0.016	0.270
-323.099	231.582	-0.074	0.120
-322.085	-200.000	-0.031	-0.194
-321.070	800.000	0.054	0.220
-320.056	0.986	-0.128	0.091
-319.041	-26.013	-0.134	0.078
-318.026	800.000	-0.022	0.083
-317.012	-72.620	-0.238	-0.087
-315.997	-200.000	0.016	0.228
-314.983	50.945	0.164	0.154
-313.968	-2.036	-0.372	-0.259
-312.953	31.787	-0.150	-0.128
-311.939	64.508	0.202	0.202
-310.924	120.777	0.073	0.090
-309.910	46.607	-0.069	0.063
-308.895	269.778	-0.032	0.056
-307.880	800.000	0.056	0.223
-306.866	-15.075	0.092	-0.058
-305.851	387.440	-0.172	-0.353
-304.837	-200.000	-0.035	0.283
-303.822	46.437	-0.323	0.297
-302.807	-191.798	0.063	-0.001
-301.793	-1.383	0.122	0.085
-300.778	367.968	0.157	0.314
-299.764	267.386	-0.118	0.204
-298.749	-200.000	-0.077	-0.633
-297.735	384.198	0.201	-0.410
-296.720	24.056	0.071	0.058
-295.705	-200.000	-0.042	0.240
-294.691	291.848	0.086	0.155
-293.676	-93.195	0.120	0.033
-292.662	-81.658	0.092	0.030
-291.647	240.089	0.065	-0.107
-290.632	-200.000	-0.025	0.120
-289.618	273.968	0.169	0.296
-288.603	-151.127	-0.115	0.009
-287.589	-180.280	-0.092	0.002
-286.574	-35.191	0.195	0.105
-285.559	-57.165	0.170	0.074
-284.545	-200.000	-0.039	-0.297
-283.530	-27.100	-0.191	-0.110
-282.516	225.409	-0.097	-0.156
-281.501	247.920	0.115	-0.193
-280.486	800.000	0.086	-0.265
-279.472	270.748	0.127	-0.220
-278.457	457.235	-0.088	0.194
-277.443	-200.000	-0.061	0.322
-276.428	-126.346	0.182	-0.027
-275.413	207.959	0.152	-0.236
-274.399	64.109	0.141	0.140
-273.384	-103.217	-0.240	0.056
-272.370	-60.655	0.380	0.159
-271.355	-200.000	0.026	0.141
-270.340	800.000	-0.015	-0.047
-269.326	27.007	-0.198	0.165
-268.311	94.701	-0.141	0.158
-267.297	-200.000	0.014	0.081
-266.282	-100.369	0.344	-0.084
-265.267	-39.687	-0.240	0.124
-264.253	55.903	0.061	-0.059
-263.238	-200.000	-0.016	-0.198
-262.224	-161.514	0.434	0.022
-261.209	-200.000	-0.013	-0.162
-260.195	-152.046	-0.160	0.012
-259.180	-200.000	0.047	0.300
-258.165	39.645	-0.305	0.271
-257.151	35.290	-0.276	0.240
-256.136	-154.350	-0.188	-0.012
-255.122	32.808	0.228	0.195
-254.107	-146.392	0.043	-0.004
-253.092	-32.295	0.176	0.097
-252.078	493.294	0.056	-0.127
-251.063	-78.501	0.344	0.117
-250.049	-190.004	0.092	0.001
-249.034	-52.059	-0.275	0.126
-248.019	-42.929	0.188	0.094
-247.005	-147.364	0.191	-0.016
-245.990	296.354	-0.124	-0.224
-244.976	-126.800	0.248	-0.036
-243.961	481.813	0.102	-0.229
-242.946	144.477	0.177	-0.233
-241.932	-6.722	-0.318	-0.214
-240.917	50.564	0.177	0.165
-239.903	-123.169	-0.210	-0.033
-238.888	-200.000	0.046	-0.354
-237.873	33.590	-0.241	0.207
-236.859	106.222	-0.144	-0.169
-235.844	800.000	-0.098	0.332
-234.830	-85.690	0.192	-0.059
-233.815	-117.773	-0.173	-0.031
-232.800	-11.345	0.175	-0.114
-231.786	-200.000	-0.013	-0.176
-230.771	-32.195	0.156	0.086
-229.757	-200.000	-0.004	-0.073
-228.742	56.077	0.171	0.164
-227.727	-59.841	0.224	0.095
-226.713	-200.000	0.013	0.231
-225.698	-92.183	0.218	-0.061
-224.684	50.549	-0.050	0.047
-223.669	154.324	-0.033	-0.044
-222.655	-10.282	0.108	-0.071
-221.640	800.000	-0.124	0.354
-220.625	331.136	-0.195	-0.372
-219.611	800.000	-0.047	-0.192
-218.596	-147.326	0.118	0.010
-217.582	11.421	0.106	-0.080
-216.567	-108.667	-0.051	0.011
-215.552	-180.736	-0.237	-0.005
-214.538	392.925	0.109	-0.225
-213.523	41.098	-0.106	-0.094
-212.509	-184.667	-0.064	0.001
-211.494	63.523	0.189	-0.188
-210.479	-47.518	-0.161	0.077
-209.465	272.288	0.233	0.406
-208.450	205.832	-0.081	0.124
-207.436	-1.875	-0.172	0.119
-206.421	-145.682	0.153	0.013
-205.406	-114.747	0.139	0.026
-204.392	380.581	-0.164	0.332
-203.377	-93.955	-0.189	0.051
-202.363	-95.364	0.216	-0.057
-201.348	33.667	-0.241	-0.206
-200.333	359.682	-0.072	-0.142
-199.319	-0.904	-0.233	-0.163
-198.304	736.288	0.101	-0.268
-197.290	40.224	0.082	0.073
-196.275	34.964	-0.191	-0.165
-195.260	-200.000	-0.002	0.070
-194.246	122.398	-0.092	0.113
-193.231	-47.124	-0.310	0.149
-192.217	186.855	0.101	0.148
-191.202	84.169	-0.058	0.063
-190.187	-200.000	-0.019	-0.190
-189.173	-83.317	0.164	-0.052
-188.158	-99.145	0.045	-0.011
-187.144	-30.992	0.196	0.109
-186.129	-200.000	0.001	0.156
-185.114	-113.004	0.227	0.044
-184.100	-132.739	0.156	0.020
-183.085	436.090	0.092	-0.196
-182.071	-200.000	0.013	-0.079
-181.056	-118.256	0.161	0.028
-180.042	-84.766	0.435	-0.135
-179.027	302.283	-0.261	0.476
-178.012	-121.738	0.198	-0.032
-176.998	405.825	0.074	0.155
-175.983	-200.000	0.006	0.294
-174.969	2.770	-0.070	-0.050
-173.954	-147.438	0.135	-0.011
-172.939	25.645	0.032	-0.026
-171.925	1.189	-0.059	-0.042
-170.910	800.000	0.019	-0.063
-169.896	87.879	0.104	0.113
-168.881	429.036	0.115	-0.246
-167.866	543.487	-0.067	-0.158
-166.852	-158.367	-0.127	-0.007
-165.837	3.510	-0.147	0.106
-164.823	-200.000	0.058	0.288
-163.808	71.248	-0.340	0.348
-162.793	-200.000	0.018	-0.348
-161.779	-200.000	0.102	-0.457
-160.764	-105.823	0.219	-0.049
-159.750	-200.000	-0.058	0.342
-158.735	3.796	-0.166	-0.119
-157.720	72.381	-0.079	-0.081
-156.706	-80.875	-0.378	0.124
-155.691	93.631	0.136	-0.152
-154.677	-200.000	-0.031	-0.212
-153.662	-200.000	-0.043	-0.262
-152.647	248.246	0.139	-0.232
-151.633	657.112	0.029	-0.074
-150.618	111.549	-0.077	0.092
-149.604	63.993	0.161	0.159
-148.589	-20.244	0.183	0.111
-147.574	66.166	0.212	0.212
-146.560	-200.000	-0.015	0.293
-145.545	-40.794	0.076	-0.039
-144.531	-9.018	-0.072	0.047
-143.516	-151.472	0.221	0.016
-142.502	-37.803	-0.194	0.102
-141.487	-200.000	0.039	0.216
-140.472	800.000	0.089	0.272
-139.458	20.034	-0.179	0.142
-138.443	41.162	-0.126	-0.112
-137.429	-200.000	-0.052	-0.334
-136.414	-125.749	0.233	-0.035
-135.399	-151.729	0.117	-0.008
-134.385	-15.918	0.111	0.070
-133.370	800.000	-0.046	0.180
-132.356	-42.387	0.097	0.049
-131.341	-144.192	0.379	-0.035
-130.326	-27.586	0.161	0.092
-129.312	-40.342	0.250	0.128
-128.297	-140.666	0.348	0.035
-127.283	-121.689	-0.279	0.045
-126.268	-200.000	0.039	-0.489
-125.253	33.670	-0.107	-0.091
-124.239	-187.941	0.188	-0.002
-123.224	744.102	-0.094	0.248
-122.210	103.993	0.100	0.115
-121.195	585.590	0.019	-0.045
