DTS Sentinel unit serial number:	SN413079Multiplexer serial number:	ORYXHardware model number:	OX4-SRSoftware version number:	ORYX F/W v4.00 Oryx Data Collector v3.7.2.0data status	okinstallation	princeton_trtdifferential loss correction	single-endedforward channel	channel 3reverse channel	N/Adate	2019/09/18time	06:48:35forward acquisition time	60.00reverse acquisition time	0.00gamma	496.2192k internal	0.2343k external	0.2343temperature offset calibration	0.9953default loss term (dB/km)	0.3790temperature slope calibration	1.0000multiplexer offset coefficient	1.0000multiplexer slope coefficient	1.0000fibre end	0.00T internal ref (°C)	23.25T ext. ref 1 (°C)	0.20T ext. ref 2 (°C)	16.99length (m)	temperature (°C)	Stokes	anti-Stokes-747.200	45.231	-0.139	0.128
-746.185	10.379	0.129	0.099
-745.171	-135.371	-0.391	-0.047
-744.156	-200.000	-0.038	0.173
-743.142	-131.201	0.081	-0.011
-742.127	800.000	0.104	0.403
-741.112	160.430	-0.019	0.026
-740.098	216.234	-0.182	0.290
-739.083	-131.345	0.210	0.028
-738.069	27.978	0.037	-0.032
-737.054	-200.000	-0.019	-0.196
-736.039	-200.000	-0.048	-0.283
-735.025	22.962	0.087	0.071
-734.010	220.013	-0.118	-0.189
-732.996	-148.790	-0.440	-0.036
-731.981	-29.578	-0.224	0.128
-730.966	615.386	-0.017	-0.042
-729.952	-171.214	-0.171	-0.006
-728.937	124.982	-0.186	-0.235
-727.923	-200.000	0.081	-0.368
-726.908	800.000	-0.027	-0.082
-725.894	8.409	-0.105	0.079
-724.879	71.003	0.174	0.180
-723.864	35.885	-0.121	0.107
-722.850	-200.000	-0.010	-0.270
-721.835	53.780	0.122	-0.118
-720.821	227.991	-0.127	-0.207
-719.806	106.877	0.151	-0.179
-718.791	5.510	-0.084	0.062
-717.777	461.390	-0.238	-0.532
-716.762	-15.470	-0.071	-0.045
-715.748	293.448	-0.087	-0.159
-714.733	-102.318	0.319	-0.077
-713.718	169.098	0.182	0.260
-712.704	544.374	-0.104	-0.249
-711.689	-200.000	0.070	-0.326
-710.675	-184.003	-0.463	-0.008
-709.660	800.000	-0.020	-0.074
-708.645	-16.664	-0.226	-0.143
-707.631	13.090	-0.209	0.162
-706.616	-67.173	0.537	0.212
-705.602	-200.000	-0.009	-0.056
-704.587	273.697	-0.088	0.155
-703.572	-20.347	-0.150	0.093
-702.558	-200.000	0.011	0.092
-701.543	217.199	-0.165	-0.262
-700.529	363.687	-0.066	0.133
-699.514	167.809	0.020	-0.029
-698.499	439.867	0.131	-0.286
-697.485	-93.953	0.349	-0.096
-696.470	333.812	-0.209	-0.403
-695.456	144.513	0.061	0.082
-694.441	4.272	-0.008	-0.006
-693.426	37.263	0.243	0.215
-692.412	-52.967	-0.247	0.114
-691.397	-200.000	0.019	-0.105
-690.383	134.355	0.199	0.257
-689.368	-200.000	0.011	-0.165
-688.354	203.213	-0.173	-0.268
-687.339	115.816	-0.040	0.049
-686.324	-10.016	0.271	0.180
-685.310	613.846	0.146	0.365
-684.295	-145.480	-0.211	0.019
-683.281	800.000	-0.057	-0.224
-682.266	-137.638	0.191	-0.021
-681.251	-67.836	-0.149	-0.058
-680.237	-139.077	0.232	0.025
-679.222	-68.398	-0.327	-0.127
-678.208	-200.000	-0.028	0.214
-677.193	259.927	0.079	-0.136
-676.178	-200.000	-0.024	-0.139
-675.164	-83.800	0.189	0.060
-674.149	-200.000	-0.045	0.277
-673.135	65.984	-0.136	-0.137
-672.120	-145.238	0.241	0.022
-671.105	61.755	-0.148	0.147
-670.091	63.864	0.046	0.047
-669.076	-23.947	0.256	0.153
-668.062	325.224	0.087	-0.165
-667.047	800.000	0.056	0.157
-666.032	-130.970	0.207	0.028
-665.018	-200.000	0.029	-0.248
-664.003	-114.298	-0.177	-0.034
-662.989	-77.442	0.249	-0.086
-661.974	800.000	0.059	0.235
-660.959	-121.020	-0.257	-0.043
-659.945	-31.263	0.133	-0.075
-658.930	-200.000	-0.001	0.028
-657.916	390.906	-0.020	-0.042
-656.901	76.973	-0.150	0.159
-655.886	28.409	-0.417	-0.351
-654.872	800.000	-0.104	-0.299
-653.857	184.462	0.108	-0.160
-652.843	-200.000	-0.034	-0.215
-651.828	800.000	-0.067	0.187
-650.814	-200.000	-0.037	-0.324
-649.799	126.183	-0.084	-0.106
-648.784	-139.056	0.108	-0.012
-647.770	215.235	0.144	-0.229
-646.755	800.000	-0.024	0.105
-645.741	-200.000	-0.010	0.159
-644.726	470.412	-0.053	0.119
-643.711	-139.246	0.107	-0.011
-642.697	-160.421	-0.331	0.018
-641.682	-200.000	-0.017	-0.432
-640.668	-32.207	-0.155	-0.086
-639.653	-78.450	-0.304	0.104
-638.638	800.000	-0.020	0.067
-637.624	667.919	0.058	0.148
-636.609	241.783	-0.115	-0.191
-635.595	-114.379	0.270	-0.052
-634.580	37.708	0.132	0.117
-633.565	159.689	0.018	0.024
-632.551	800.000	-0.056	-0.241
-631.536	-103.347	0.118	0.028
-630.522	434.988	-0.201	0.435
-629.507	-13.825	-0.137	0.088
-628.492	234.692	-0.080	-0.132
-627.478	-162.836	-0.389	-0.019
-626.463	0.841	-0.203	0.145
-625.449	22.172	0.011	0.009
-624.434	-88.418	0.155	0.046
-623.419	-200.000	0.032	-0.240
-622.405	-92.705	0.074	-0.021
-621.390	-55.995	0.165	-0.073
-620.376	-1.252	0.333	-0.234
-619.361	-81.256	-0.208	-0.068
-618.346	800.000	0.103	-0.287
-617.332	-87.489	-0.246	0.074
-616.317	-200.000	-0.006	-0.090
-615.303	68.529	0.223	-0.228
-614.288	1.395	-0.396	-0.283
-613.273	-53.535	0.317	-0.145
-612.259	395.685	-0.080	0.166
-611.244	91.355	0.080	0.090
-610.230	212.103	0.090	0.141
-609.215	-98.524	-0.337	-0.086
-608.201	201.444	0.202	-0.310
-607.186	-129.265	-0.358	-0.050
-606.171	17.848	0.044	-0.035
-605.157	7.165	0.237	0.176
-604.142	622.367	-0.057	0.143
-603.128	-93.566	0.364	-0.100
-602.113	402.361	-0.084	-0.176
-601.098	-16.126	0.094	0.059
-600.084	125.077	0.152	-0.191
-599.069	-67.734	-0.305	-0.119
-598.055	800.000	-0.055	-0.208
-597.040	800.000	0.142	-0.423
-596.025	-104.980	0.059	0.014
-595.011	8.964	-0.029	-0.022
-593.996	800.000	0.041	0.121
-592.982	-172.403	0.187	0.006
-591.967	-96.425	-0.023	0.006
-590.952	800.000	0.089	-0.313
-589.938	-163.066	0.038	0.002
-588.923	-17.248	-0.347	0.218
-587.909	-82.660	0.418	0.135
-586.894	-12.648	-0.076	0.050
-585.879	-102.123	-0.150	0.036
-584.865	260.446	-0.215	-0.370
-583.850	226.416	-0.060	-0.097
-582.836	-129.011	0.230	0.032
-581.821	-151.487	-0.189	-0.014
-580.806	800.000	-0.059	-0.208
-579.792	56.804	0.111	-0.108
-578.777	773.299	0.036	-0.098
-577.763	430.877	0.057	-0.122
-576.748	-74.398	0.065	-0.023
-575.733	-200.000	-0.031	0.312
-574.719	83.135	0.213	-0.231
-573.704	-200.000	-0.005	-0.067
-572.690	-200.000	-0.019	0.096
-571.675	117.237	-0.213	-0.261
-570.661	-200.000	0.011	-0.411
-569.646	302.733	0.136	0.250
-568.631	-18.209	-0.172	0.107
-567.617	-63.280	-0.156	0.064
-566.602	192.435	0.118	-0.177
-565.588	34.748	-0.268	0.233
-564.573	-116.947	-0.326	-0.059
-563.558	-128.038	-0.363	-0.052
-562.544	-84.870	0.353	0.110
-561.529	-200.000	0.021	-0.108
-560.515	-179.744	-0.144	0.003
-559.500	-61.116	-0.163	-0.068
-558.485	-98.742	-0.159	-0.040
-557.471	-200.000	-0.015	0.196
-556.456	-108.152	0.346	0.074
-555.442	-58.235	0.161	0.070
-554.427	296.411	-0.052	0.096
-553.412	32.325	-0.166	0.142
-552.398	140.567	-0.226	0.297
-551.383	12.881	-0.098	-0.075
-550.369	-200.000	0.008	-0.152
-549.354	800.000	-0.023	0.093
-548.339	-200.000	-0.027	-0.320
-547.325	303.965	0.221	-0.408
-546.310	800.000	0.080	-0.348
-545.296	720.630	-0.043	0.114
-544.281	474.465	0.041	0.091
-543.266	-103.999	-0.267	-0.062
-542.252	9.827	-0.232	0.175
-541.237	-29.339	-0.224	0.128
-540.223	20.580	-0.146	-0.117
-539.208	-37.399	0.206	0.109
-538.193	568.759	0.052	-0.125
-537.179	-200.000	-0.033	0.361
-536.164	108.975	-0.140	0.166
-535.150	209.361	-0.076	0.119
-534.135	-200.000	-0.048	-0.307
-533.121	800.000	0.122	0.420
-532.106	25.089	-0.157	-0.130
-531.091	60.084	-0.086	0.085
-530.077	-200.000	-0.002	0.276
-529.062	-200.000	-0.008	0.190
-528.048	750.384	0.039	0.103
-527.033	-117.876	-0.116	0.021
-526.018	-93.842	-0.186	0.051
-525.004	-200.000	0.028	0.172
-523.989	-36.942	0.225	-0.120
-522.975	800.000	-0.085	-0.290
-521.960	-200.000	-0.044	-0.371
-520.945	171.371	0.195	-0.278
-519.931	-98.362	0.256	-0.065
-518.916	461.086	-0.048	0.107
-517.902	520.335	0.018	-0.042
-516.887	146.098	-0.136	0.182
-515.872	-43.023	-0.206	0.104
-514.858	-44.415	-0.103	0.051
-513.843	40.882	0.269	-0.241
-512.829	-200.000	-0.034	-0.331
-511.814	125.826	0.103	0.129
-510.799	762.538	-0.071	-0.192
-509.785	-130.941	0.157	-0.021
-508.770	50.237	0.049	0.046
-507.756	-200.000	0.057	0.362
-506.741	-25.798	0.265	0.155
-505.726	-34.943	-0.142	-0.077
-504.712	-186.786	0.104	-0.001
-503.697	-200.000	-0.022	0.101
-502.683	-83.501	0.329	0.105
-501.668	59.707	-0.363	-0.355
-500.653	636.795	-0.080	-0.201
-499.639	-155.202	0.181	0.012
-498.624	102.024	-0.138	0.159
-497.610	-104.333	0.136	0.031
-496.595	-200.000	-0.028	0.174
-495.581	-25.532	-0.039	-0.023
-494.566	-18.980	-0.361	0.223
-493.551	220.183	0.145	0.230
-492.537	258.785	0.033	-0.056
-491.522	110.512	0.302	-0.360
-490.508	-93.165	0.258	-0.071
-489.493	800.000	-0.119	-0.455
-488.478	89.362	-0.198	-0.218
-487.464	362.533	-0.123	-0.245
-486.449	-143.753	-0.336	0.032
-485.435	-70.878	0.138	-0.051
-484.420	-200.000	-0.048	-0.302
-483.405	263.359	0.043	0.073
-482.391	-81.864	0.308	0.100
-481.376	-200.000	-0.025	-0.162
-480.362	-109.939	0.168	0.035
-479.347	63.108	0.100	0.099
-478.332	232.314	0.222	-0.361
-477.318	-200.000	0.054	0.413
-476.303	-45.561	-0.179	-0.088
-475.289	-176.523	-0.098	0.002
-474.274	21.728	0.227	0.183
-473.259	25.796	0.060	0.049
-472.245	-200.000	0.039	-0.322
-471.230	-65.618	-0.352	0.140
-470.216	-7.421	-0.289	0.194
-469.201	-200.000	0.012	0.410
-468.186	-109.362	-0.189	0.040
-467.172	-200.000	0.034	0.154
-466.157	-13.464	0.125	-0.080
-465.143	135.216	-0.201	-0.259
-464.128	-179.906	-0.285	-0.006
-463.113	-105.368	-0.182	-0.041
-462.099	581.608	-0.078	0.190
-461.084	137.232	-0.121	0.157
-460.070	-119.215	-0.348	0.060
-459.055	-73.057	-0.267	0.097
-458.040	-11.979	-0.249	0.162
-457.026	180.504	-0.077	-0.111
-456.011	132.383	-0.331	0.422
-454.997	-12.027	-0.052	-0.034
-453.982	-28.129	-0.148	-0.085
-452.968	772.630	0.059	0.160
-451.953	-200.000	-0.013	-0.186
-450.938	50.841	0.116	-0.108
-449.924	33.869	-0.115	0.099
-448.909	-200.000	0.014	-0.254
-447.895	-141.578	0.293	0.029
-446.880	-200.000	0.020	0.138
-445.865	143.605	0.060	0.079
-444.851	509.765	0.053	0.121
-443.836	-3.866	0.268	0.184
-442.822	-200.000	0.032	0.256
-441.807	-66.913	-0.037	-0.015
-440.792	731.828	-0.113	-0.298
-439.778	-46.336	0.198	-0.096
-438.763	800.000	-0.075	0.253
-437.749	122.826	-0.116	-0.143
-436.734	-13.986	-0.234	-0.149
-435.719	122.395	-0.321	0.396
-434.705	-61.489	0.156	0.065
-433.690	-200.000	0.035	0.174
-432.676	800.000	0.118	0.412
-431.661	-200.000	-0.001	0.061
-430.646	-91.898	-0.482	0.135
-429.632	800.000	-0.121	-0.335
-428.617	-13.132	-0.425	0.273
-427.603	800.000	-0.036	0.120
-426.588	15.898	0.469	-0.365
-425.573	-132.168	-0.181	0.023
-424.559	800.000	-0.075	-0.291
-423.544	-68.958	-0.288	0.110
-422.530	-75.524	0.149	0.053
-421.515	3.000	0.077	0.056
-420.500	-20.136	0.056	-0.034
-419.486	197.816	-0.174	-0.262
-418.471	71.881	-0.134	0.138
-417.457	136.986	-0.163	-0.211
-416.442	-36.874	0.134	-0.071
-415.428	800.000	0.087	-0.267
-414.413	-200.000	-0.015	0.091
-413.398	14.954	-0.139	-0.108
-412.384	-26.326	-0.085	0.049
-411.369	538.538	0.074	0.174
-410.355	205.992	0.156	-0.239
-409.340	-200.000	0.040	0.441
-408.325	-40.780	0.358	-0.183
-407.311	-100.248	0.033	0.008
-406.296	130.273	0.268	-0.339
-405.282	800.000	0.074	-0.270
-404.267	-62.226	0.506	0.208
-403.252	-131.654	0.234	-0.030
-402.238	-200.000	-0.020	-0.207
-401.223	28.253	-0.106	0.088
-400.209	37.592	-0.168	0.147
-399.194	612.995	-0.080	0.198
-398.179	-80.276	-0.149	0.049
-397.165	-51.298	0.306	0.142
-396.150	125.749	-0.228	0.285
-395.136	-200.000	0.003	-0.046
-394.121	111.178	0.060	-0.071
-393.106	-200.000	0.029	-0.145
-392.092	-139.265	0.384	0.041
-391.077	-200.000	-0.022	-0.105
-390.063	135.322	0.239	-0.306
-389.048	-200.000	0.021	0.143
-388.033	800.000	0.092	0.310
-387.019	50.704	0.153	-0.143
-386.004	147.460	-0.038	0.051
-384.990	800.000	0.043	-0.154
-383.975	800.000	-0.044	0.143
-382.960	-117.469	-0.236	-0.042
-381.946	149.089	0.100	0.134
-380.931	-38.785	-0.279	0.145
-379.917	-25.905	-0.106	0.062
-378.902	26.846	-0.198	0.163
-377.888	404.494	-0.116	0.242
-376.873	26.127	-0.146	0.120
-375.858	-104.837	-0.077	-0.018
-374.844	-88.952	-0.210	-0.061
-373.829	800.000	-0.077	0.226
-372.815	-200.000	-0.070	-0.402
-371.800	-200.000	0.048	-0.223
-370.785	-165.297	0.239	-0.010
-369.771	-84.129	-0.114	-0.036
-368.756	-8.747	0.183	-0.121
-367.742	-200.000	0.031	-0.273
-366.727	-152.504	0.174	-0.012
-365.712	-184.248	-0.281	0.005
-364.698	-110.573	0.214	-0.044
-363.683	701.638	-0.077	0.201
-362.669	800.000	-0.101	0.303
-361.654	-87.291	0.005	0.001
-360.639	-10.601	-0.134	0.088
-359.625	215.691	0.125	0.196
-358.610	-90.280	-0.310	-0.089
-357.596	-3.619	-0.266	-0.183
-356.581	-77.425	-0.246	-0.084
-355.566	-200.000	0.001	0.257
-354.552	110.360	0.080	0.094
-353.537	-103.573	0.058	0.013
-352.523	-98.800	-0.166	0.042
-351.508	713.038	0.118	-0.309
-350.493	-142.966	0.427	-0.041
-349.479	532.155	-0.074	0.172
-348.464	541.702	-0.072	0.169
-347.450	23.095	-0.074	0.060
-346.435	-135.872	0.224	-0.026
-345.420	-63.549	0.237	0.096
-344.406	-177.044	-0.392	0.010
-343.391	111.054	0.111	0.132
-342.377	-200.000	-0.035	-0.372
-341.362	32.301	0.190	0.162
-340.348	-103.667	0.159	-0.037
-339.333	-200.000	-0.064	0.366
-338.318	-136.857	-0.430	0.049
-337.304	266.556	0.062	0.106
-336.289	-57.543	-0.162	-0.070
-335.275	800.000	-0.116	0.321
-334.260	-138.030	0.318	0.035
-333.245	61.770	0.079	0.077
-332.231	-200.000	0.005	-0.251
-331.216	81.836	-0.120	-0.128
-330.202	200.721	0.241	-0.365
-329.187	-15.266	-0.220	0.139
-328.172	422.815	-0.071	-0.151
-327.158	-200.000	-0.001	-0.461
-326.143	4.308	-0.316	-0.228
-325.129	-64.408	0.338	-0.135
-324.114	-200.000	-0.010	-0.179
-323.099	80.523	-0.332	0.353
-322.085	27.653	0.277	0.230
-321.070	800.000	-0.061	-0.176
-320.056	-200.000	0.061	-0.356
-319.041	-200.000	-0.043	-0.311
-318.026	44.688	0.208	-0.188
-317.012	319.718	0.207	0.387
-315.997	-200.000	0.002	0.198
-314.983	119.208	-0.297	-0.362
-313.968	735.149	0.111	-0.293
-312.953	-80.642	0.088	-0.029
-311.939	462.539	0.117	0.257
-310.924	-188.696	0.267	0.003
-309.910	-36.468	0.219	-0.116
-308.895	-200.000	-0.004	-0.046
-307.880	678.951	0.079	0.204
-306.866	171.260	-0.133	0.188
-305.851	-151.359	-0.119	-0.009
-304.837	-37.706	0.150	-0.079
-303.822	539.246	-0.135	0.317
-302.807	-200.000	0.026	0.133
-301.793	19.725	0.191	0.151
-300.778	-149.864	-0.043	-0.003
-299.764	565.630	0.051	-0.121
-298.749	-0.228	-0.365	0.255
-297.735	-56.707	-0.179	-0.078
-296.720	353.231	-0.046	0.090
-295.705	-200.000	0.048	-0.586
-294.691	-34.029	-0.146	-0.079
-293.676	54.139	0.153	-0.145
-292.662	800.000	-0.023	0.062
-291.647	571.075	0.086	-0.205
-290.632	-200.000	0.051	-0.243
-289.618	95.049	-0.121	-0.136
-288.603	-81.845	-0.224	0.072
-287.589	100.261	0.240	-0.274
-286.574	-200.000	-0.042	0.240
-285.559	-200.000	-0.005	-0.193
-284.545	17.320	-0.340	0.266
-283.530	-2.068	-0.338	-0.233
-282.516	-137.555	0.256	-0.028
-281.501	-122.040	0.132	0.021
-280.486	-19.858	0.167	-0.101
-279.472	-122.883	0.096	-0.015
-278.457	-200.000	-0.022	-0.230
-277.443	114.689	0.006	-0.007
-276.428	-200.000	-0.015	-0.131
-275.413	174.661	0.037	-0.052
-274.399	74.075	-0.074	-0.077
-273.384	-200.000	0.042	-0.373
-272.370	-150.185	-0.155	-0.012
-271.355	43.706	0.119	0.107
-270.340	-200.000	0.063	0.453
-269.326	800.000	0.091	-0.273
-268.311	-200.000	0.012	0.116
-267.297	800.000	-0.017	0.060
-266.282	-200.000	0.075	-0.334
-265.267	-200.000	0.011	0.323
-264.253	149.777	-0.065	0.087
-263.238	-86.507	0.345	0.104
-262.224	10.296	0.117	-0.087
-261.209	800.000	0.079	-0.259
-260.195	34.097	-0.052	-0.044
-259.180	92.393	0.190	-0.210
-258.165	-53.392	0.380	-0.171
-257.151	55.579	-0.176	0.168
-256.136	-17.978	0.293	-0.180
-255.122	-128.875	0.351	-0.049
-254.107	-44.433	-0.228	0.112
-253.092	-22.192	0.098	0.058
-252.078	410.533	0.236	0.491
-251.063	-106.463	-0.332	0.073
-250.049	168.007	-0.136	-0.190
-249.034	-18.251	0.225	-0.138
-248.019	-84.206	-0.260	-0.081
-247.005	65.864	0.092	0.092
-245.990	-200.000	-0.076	0.342
-244.976	390.891	0.128	-0.261
-243.961	-117.449	-0.092	-0.016
-242.946	16.298	0.134	0.104
-241.932	740.073	0.088	0.233
-240.917	19.220	0.161	0.127
-239.903	67.627	0.129	-0.129
-238.888	800.000	-0.055	-0.221
-237.873	-17.766	-0.282	-0.174
-236.859	-35.322	0.288	-0.154
-235.844	613.020	0.072	0.178
-234.830	634.930	0.132	0.330
-233.815	-52.196	-0.225	-0.103
-232.800	-123.542	-0.089	-0.014
-231.786	-99.094	0.064	0.016
-230.771	800.000	-0.065	-0.210
-229.757	800.000	0.132	-0.487
-228.742	-200.000	-0.026	-0.263
-227.727	800.000	-0.059	-0.162
-226.713	-161.802	-0.185	0.009
-225.698	-129.332	-0.227	0.031
-224.684	-74.352	0.102	-0.036
-223.669	231.453	0.079	-0.127
-222.655	93.850	0.073	0.081
-221.640	754.328	0.089	0.237
-220.625	-200.000	-0.017	0.123
-219.611	-44.908	-0.097	0.047
-218.596	345.390	-0.011	-0.021
-217.582	7.736	-0.161	-0.118
-216.567	-170.138	-0.206	0.007
-215.552	20.864	-0.138	0.110
-214.538	-88.613	-0.540	-0.158
-213.523	800.000	0.092	-0.268
-212.509	-200.000	0.017	0.182
-211.494	316.235	0.197	0.364
-210.479	-183.370	-0.189	-0.003
-209.465	345.285	-0.049	-0.094
-208.450	800.000	-0.140	0.433
-207.436	-121.376	0.060	0.010
-206.421	353.067	0.170	0.330
-205.406	800.000	-0.077	0.311
-204.392	-4.641	0.146	0.099
-203.377	-102.580	-0.085	0.020
-202.363	39.282	0.406	0.356
-201.348	515.746	0.139	0.317
-200.333	50.241	0.123	-0.114
-199.319	800.000	-0.053	0.145
-198.304	105.711	0.074	-0.085
-197.290	-200.000	-0.023	0.236
-196.275	-137.284	0.438	-0.049
-195.260	-2.277	-0.059	-0.041
-194.246	-200.000	-0.013	0.235
-193.231	241.956	0.261	-0.428
-192.217	624.088	0.063	-0.154
-191.202	2.389	0.159	0.113
-190.187	-147.875	0.127	-0.010
-189.173	-86.217	0.167	-0.051
-188.158	-200.000	0.034	0.259
-187.144	487.949	0.102	-0.227
-186.129	-14.186	0.322	0.204
-185.114	-3.470	-0.111	0.076
-184.100	39.951	0.227	0.200
-183.085	-200.000	-0.034	-0.164
-182.071	-104.911	-0.237	0.053
-181.056	800.000	-0.081	0.224
-180.042	345.032	-0.065	0.125
-179.027	-200.000	-0.006	0.069
-178.012	24.311	0.078	0.063
-176.998	800.000	0.112	-0.423
-175.983	-90.236	-0.163	-0.046
-174.969	774.564	0.110	-0.293
-173.954	-64.140	0.037	0.015
-172.939	-5.494	0.383	0.257
-171.925	-200.000	-0.008	-0.214
-170.910	-112.467	0.138	-0.027
-169.896	-159.290	0.424	-0.023
-168.881	-200.000	0.008	0.335
-167.866	-58.458	0.325	0.138
-166.852	118.837	0.155	-0.187
-165.837	-3.016	-0.026	0.018
-164.823	237.909	-0.031	-0.051
-163.808	777.764	-0.023	0.062
-162.793	-200.000	0.054	0.353
-161.779	-175.253	-0.414	0.011
-160.764	800.000	-0.136	0.452
-159.750	-200.000	0.008	0.073
-158.735	800.000	0.083	0.301
-157.720	624.615	0.119	0.293
-156.706	77.343	0.048	0.050
-155.691	-85.979	0.102	0.031
-154.677	-80.857	0.105	0.034
-153.662	14.247	0.358	0.273
-152.647	-200.000	-0.021	0.124
-151.633	788.638	-0.155	0.416
-150.618	287.080	0.039	-0.069
-149.604	-200.000	-0.031	0.402
-148.589	-84.970	-0.142	0.043
-147.574	-82.015	0.285	0.091
-146.560	800.000	-0.029	0.090
-145.545	112.008	-0.149	0.176
-144.531	-59.533	0.193	0.081
-143.516	182.832	0.146	-0.211
-142.502	37.686	-0.302	0.262
-141.487	800.000	-0.070	0.194
-140.472	-80.843	0.351	-0.114
-139.458	-156.385	0.183	0.011
-138.443	800.000	-0.069	-0.218
-137.429	-170.264	-0.331	-0.011
-136.414	800.000	-0.098	0.332
-135.399	441.995	0.074	0.159
-134.385	-200.000	-0.033	0.141
-133.370	256.625	-0.303	-0.508
-132.356	-60.762	0.083	0.034
-131.341	182.621	0.083	-0.119
-130.326	-105.147	0.168	0.038
-129.312	151.304	-0.157	-0.209
-128.297	-200.000	0.079	-0.454
-127.283	189.724	-0.172	-0.252
-126.268	-39.220	-0.034	-0.017
-125.253	-200.000	-0.047	0.373
-124.239	-137.816	0.407	0.045
-123.224	-83.918	-0.128	-0.040
-122.210	-200.000	0.001	-0.034
