DTS Sentinel unit serial number:	SN413079Multiplexer serial number:	ORYXHardware model number:	OX4-SRSoftware version number:	ORYX F/W v4.00 Oryx Data Collector v3.7.2.0data status	okinstallation	princeton_trtdifferential loss correction	single-endedforward channel	channel 3reverse channel	N/Adate	2019/09/14time	08:36:35forward acquisition time	60.00reverse acquisition time	0.00gamma	496.2192k internal	0.2327k external	0.2327temperature offset calibration	1.0053default loss term (dB/km)	0.3790temperature slope calibration	1.0000multiplexer offset coefficient	1.0000multiplexer slope coefficient	1.0000fibre end	0.00T internal ref (°C)	28.70T ext. ref 1 (°C)	3.65T ext. ref 2 (°C)	26.17length (m)	temperature (°C)	Stokes	anti-Stokes-747.200	-87.528	-0.258	0.079
-746.185	-85.383	0.110	0.035
-745.171	-200.000	0.000	-0.232
-744.156	-58.168	0.201	0.088
-743.142	-34.112	-0.109	0.060
-742.127	-167.490	0.298	0.012
-741.112	530.947	-0.083	-0.197
-740.098	63.071	-0.246	0.249
-739.083	-120.899	-0.176	-0.030
-738.069	-112.526	-0.513	-0.103
-737.054	-22.659	-0.196	-0.119
-736.039	-165.529	-0.111	-0.005
-735.025	85.828	0.049	0.054
-734.010	-72.445	-0.391	-0.146
-732.996	-148.501	-0.256	0.021
-731.981	-200.000	0.062	0.357
-730.966	-200.000	-0.053	0.384
-729.952	307.984	0.087	0.164
-728.937	21.239	-0.320	0.262
-727.923	7.148	0.268	0.202
-726.908	240.657	-0.082	0.138
-725.894	367.403	0.047	-0.096
-724.879	109.439	-0.145	-0.174
-723.864	34.230	-0.154	-0.135
-722.850	-77.999	-0.048	-0.017
-721.835	-200.000	0.017	0.126
-720.821	123.422	-0.029	-0.037
-719.806	-142.911	-0.234	0.023
-718.791	249.537	-0.092	-0.158
-717.777	648.677	0.166	-0.427
-716.762	-103.703	-0.235	-0.055
-715.748	-58.756	0.089	-0.039
-714.733	-31.307	-0.301	0.170
-713.718	133.384	-0.092	-0.119
-712.704	36.841	0.505	-0.450
-711.689	-46.944	-0.122	0.060
-710.675	3.405	-0.226	0.166
-709.660	-7.547	0.182	-0.124
-708.645	800.000	-0.046	0.196
-707.631	253.102	-0.039	-0.068
-706.616	252.915	-0.191	0.327
-705.602	-200.000	0.015	-0.331
-704.587	800.000	-0.147	-0.450
-703.572	-200.000	-0.034	-0.241
-702.558	71.358	0.076	0.080
-701.543	55.739	-0.200	0.195
-700.529	133.060	-0.182	-0.237
-699.514	460.781	0.016	-0.037
-698.499	-138.463	0.224	0.025
-697.485	-104.796	0.181	0.042
-696.470	128.198	-0.143	-0.183
-695.456	60.758	-0.256	-0.255
-694.441	800.000	0.076	-0.213
-693.426	182.933	0.082	0.122
-692.412	-0.583	-0.216	-0.154
-691.397	250.303	-0.063	-0.108
-690.383	-200.000	-0.032	-0.180
-689.368	25.564	0.080	-0.067
-688.354	-29.447	-0.235	-0.135
-687.339	696.101	0.061	-0.162
-686.324	-200.000	0.064	-0.286
-685.310	-34.798	0.077	-0.042
-684.295	-20.070	0.025	0.016
-683.281	-143.408	0.167	0.016
-682.266	-200.000	-0.026	-0.211
-681.251	23.578	0.212	-0.175
-680.237	-161.632	-0.172	-0.009
-679.222	-100.598	-0.455	0.113
-678.208	-142.481	-0.445	-0.044
-677.193	-58.824	-0.223	-0.097
-676.178	101.517	0.054	0.064
-675.164	-192.592	-0.143	-0.001
-674.149	800.000	-0.120	0.337
-673.135	-200.000	0.042	0.302
-672.120	-83.123	-0.508	-0.164
-671.105	-125.058	-0.092	-0.014
-670.091	99.635	-0.055	0.064
-669.076	-31.294	-0.259	-0.147
-668.062	-173.870	-0.157	0.005
-667.047	-200.000	-0.062	-0.287
-666.032	-200.000	0.091	-0.420
-665.018	-119.733	-0.308	0.053
-664.003	800.000	-0.073	0.274
-662.989	-200.000	-0.018	0.104
-661.974	36.741	0.209	0.185
-660.959	111.760	-0.193	0.235
-659.945	800.000	-0.055	0.195
-658.930	217.643	0.021	-0.034
-657.916	-200.000	-0.026	-0.126
-656.901	315.630	-0.099	-0.187
-655.886	-200.000	0.012	-0.217
-654.872	800.000	0.062	0.258
-653.857	-200.000	0.036	-0.180
-652.843	35.420	-0.116	-0.102
-651.828	370.095	-0.087	0.177
-650.814	800.000	0.081	-0.233
-649.799	-138.093	0.066	-0.007
-648.784	-32.911	-0.304	0.170
-647.770	-97.161	0.174	0.046
-646.755	-14.631	0.138	-0.089
-645.741	-81.591	-0.140	-0.046
-644.726	2.328	0.141	-0.102
-643.711	185.890	-0.037	0.055
-642.697	-118.623	-0.396	0.070
-641.682	2.765	0.038	-0.027
-640.668	-200.000	-0.045	0.254
-639.653	-21.073	0.347	-0.213
-638.638	210.617	0.009	-0.014
-637.624	-120.227	-0.592	0.101
-636.609	800.000	-0.064	0.224
-635.595	25.666	-0.273	-0.228
-634.580	-164.929	-0.185	0.008
-633.565	378.961	-0.166	0.342
-632.551	-200.000	-0.027	0.193
-631.536	-66.572	0.477	-0.190
-630.522	197.477	-0.189	-0.290
-629.507	1.957	0.345	-0.250
-628.492	-22.551	0.170	-0.103
-627.478	-147.312	0.065	-0.006
-626.463	145.342	0.088	-0.118
-625.449	-139.504	0.173	0.019
-624.434	497.986	-0.101	0.233
-623.419	-94.976	0.231	-0.063
-622.405	33.355	-0.343	-0.298
-621.390	28.548	-0.137	0.116
-620.376	800.000	0.072	-0.273
-619.361	351.864	-0.038	-0.076
-618.346	373.771	0.025	0.051
-617.332	8.929	0.181	-0.137
-616.317	23.188	0.209	0.172
-615.303	251.369	0.059	0.101
-614.288	-200.000	-0.041	-0.404
-613.273	64.011	-0.297	-0.300
-612.259	210.883	0.079	0.125
-611.244	-79.230	0.194	-0.066
-610.230	230.492	0.236	0.387
-609.215	179.280	-0.056	0.082
-608.201	68.860	-0.188	0.194
-607.186	5.420	0.172	0.127
-606.171	-118.171	0.344	0.061
-605.157	-200.000	0.014	0.105
-604.142	93.939	-0.041	-0.046
-603.128	800.000	-0.033	-0.100
-602.113	-200.000	-0.038	-0.305
-601.098	800.000	-0.064	-0.231
-600.084	-12.163	-0.260	-0.171
-599.069	-64.046	-0.243	0.099
-598.055	800.000	-0.031	0.116
-597.040	-200.000	-0.013	0.459
-596.025	-81.429	0.200	0.066
-595.011	332.347	0.024	-0.046
-593.996	106.594	-0.113	0.134
-592.982	-86.901	0.048	-0.015
-591.967	800.000	-0.052	-0.169
-590.952	-200.000	-0.022	-0.128
-589.938	-159.657	-0.385	0.021
-588.923	-122.725	0.175	0.028
-587.909	800.000	0.044	-0.158
-586.894	-200.000	-0.015	-0.169
-585.879	282.386	0.045	0.080
-584.865	-200.000	0.043	0.289
-583.850	-82.276	0.296	0.097
-582.836	-60.519	-0.080	0.034
-581.821	-200.000	0.016	-0.125
-580.806	2.449	-0.055	-0.040
-579.792	719.609	0.114	0.302
-578.777	84.279	0.089	0.097
-577.763	235.171	0.059	-0.097
-576.748	-113.805	-0.300	0.058
-575.733	-89.260	0.296	-0.087
-574.719	800.000	0.141	-0.416
-573.704	107.632	-0.216	-0.257
-572.690	473.788	-0.130	0.294
-571.675	-144.050	0.213	0.020
-570.661	-124.927	0.194	0.030
-569.646	91.188	0.077	-0.087
-568.631	-23.807	0.091	-0.055
-567.617	-200.000	0.047	-0.269
-566.602	716.268	-0.072	-0.190
-565.588	-164.514	0.456	-0.021
-564.573	311.024	-0.111	-0.209
-563.558	153.912	-0.146	0.200
-562.544	800.000	-0.072	-0.247
-561.529	800.000	-0.103	-0.291
-560.515	356.244	0.075	-0.150
-559.500	3.170	0.110	-0.080
-558.485	54.126	-0.179	0.172
-557.471	24.317	0.191	0.158
-556.456	-54.829	0.389	0.176
-555.442	-14.394	-0.169	0.109
-554.427	-77.500	0.045	0.016
-553.412	149.714	0.044	0.059
-552.398	800.000	-0.131	-0.365
-551.383	-76.554	-0.275	0.097
-550.369	-58.947	-0.255	0.110
-549.354	-80.225	-0.301	0.101
-548.339	-110.807	-0.274	0.057
-547.325	114.672	0.108	0.132
-546.310	594.932	-0.159	0.393
-545.296	-113.215	-0.145	0.029
-544.281	67.170	0.180	0.183
-543.266	800.000	-0.156	0.526
-542.252	-61.739	-0.123	-0.052
-541.237	800.000	-0.088	-0.340
-540.223	-200.000	0.049	0.301
-539.208	35.541	-0.139	0.122
-538.193	151.193	0.125	-0.170
-537.179	343.481	0.052	-0.101
-536.164	-144.710	0.159	0.015
-535.150	-200.000	0.021	-0.323
-534.135	303.137	-0.109	-0.203
-533.121	-109.333	0.166	-0.035
-532.106	800.000	0.172	0.505
-531.091	-143.481	-0.103	0.010
-530.077	800.000	0.056	0.245
-529.062	-200.000	0.020	-0.097
-528.048	126.239	-0.148	-0.187
-527.033	800.000	-0.069	0.223
-526.018	-39.557	0.096	0.050
-525.004	-165.192	0.450	0.020
-523.989	43.559	0.162	0.148
-522.975	-156.069	-0.298	0.019
-521.960	-71.671	0.125	0.047
-520.945	-60.028	0.151	0.065
-519.931	800.000	0.028	0.109
-518.916	800.000	0.045	0.195
-517.902	79.456	0.138	0.148
-516.887	166.582	0.070	0.099
-515.872	800.000	-0.065	-0.199
-514.858	-200.000	-0.055	0.457
-513.843	-151.782	0.426	-0.031
-512.829	-68.497	0.175	-0.068
-511.814	-200.000	-0.050	-0.325
-510.799	-159.156	0.253	0.014
-509.785	-15.022	-0.121	-0.078
-508.770	-6.591	-0.267	-0.182
-507.756	3.669	-0.045	-0.033
-506.741	800.000	-0.044	0.159
-505.726	-39.311	-0.286	0.150
-504.712	359.340	-0.040	-0.080
-503.697	-37.099	0.293	-0.157
-502.683	-5.590	-0.145	-0.099
-501.668	-62.734	-0.155	-0.064
-500.653	209.380	-0.051	-0.080
-499.639	387.804	-0.027	-0.055
-498.624	800.000	0.024	-0.074
-497.610	-110.476	-0.229	-0.047
-496.595	-50.462	0.276	0.130
-495.581	-28.818	-0.173	-0.099
-494.566	-115.871	-0.132	0.025
-493.551	-91.607	0.170	0.048
-492.537	-6.963	0.357	-0.242
-491.522	349.106	-0.150	-0.296
-490.508	-200.000	-0.007	0.180
-489.493	-90.819	0.151	0.043
-488.478	-200.000	0.009	-0.281
-487.464	36.500	-0.231	-0.203
-486.449	-200.000	-0.002	0.014
-485.435	800.000	-0.067	-0.243
-484.420	-87.250	0.346	0.105
-483.405	-200.000	0.022	-0.100
-482.391	-189.195	-0.387	-0.005
-481.376	-26.829	-0.201	-0.117
-480.362	800.000	-0.092	0.371
-479.347	-107.650	0.126	-0.028
-478.332	-200.000	-0.011	-0.118
-477.318	389.950	-0.106	-0.219
-476.303	149.028	0.101	-0.137
-475.289	800.000	-0.026	0.107
-474.274	341.375	0.114	-0.222
-473.259	-100.043	0.300	0.075
-472.245	37.411	0.095	0.084
-471.230	800.000	0.079	-0.333
-470.216	74.550	0.117	0.123
-469.201	-3.749	0.295	-0.204
-468.186	612.684	-0.067	-0.168
-467.172	-200.000	0.016	-0.110
-466.157	-35.253	-0.186	0.101
-465.143	42.649	0.058	0.053
-464.128	266.074	-0.091	-0.158
-463.113	-200.000	0.007	-0.182
-462.099	-9.003	0.060	0.040
-461.084	800.000	0.075	-0.233
-460.070	86.221	0.102	-0.112
-459.055	61.226	0.425	-0.421
-458.040	38.913	0.109	-0.097
-457.026	-57.337	0.061	-0.027
-456.011	139.393	0.163	-0.214
-454.997	-200.000	-0.061	-0.409
-453.982	185.111	0.086	0.127
-452.968	366.826	0.059	0.118
-451.953	235.625	-0.196	0.322
-450.938	-44.592	-0.249	0.124
-449.924	23.284	-0.184	-0.151
-448.909	415.410	-0.137	-0.292
-447.895	271.184	0.113	-0.198
-446.880	43.569	-0.140	-0.128
-445.865	537.426	0.062	-0.146
-444.851	-200.000	-0.008	-0.155
-443.836	200.228	-0.032	0.048
-442.822	761.198	-0.058	0.157
-441.807	-88.181	0.193	0.058
-440.792	441.573	-0.193	0.421
-439.778	64.501	-0.097	-0.097
-438.763	129.405	-0.162	-0.206
-437.749	-8.353	0.256	0.172
-436.734	250.165	0.137	0.232
-435.719	-98.810	0.300	-0.076
-434.705	60.549	0.249	-0.245
-433.690	66.596	-0.123	0.125
-432.676	-71.830	0.145	0.054
-431.661	-200.000	0.010	0.151
-430.646	-11.141	-0.220	-0.145
-429.632	29.486	-0.324	-0.274
-428.617	-40.251	-0.411	0.213
-427.603	-200.000	0.028	-0.494
-426.588	-87.533	-0.176	-0.053
-425.573	608.842	0.075	-0.185
-424.559	-200.000	-0.047	-0.307
-423.544	56.277	0.174	0.168
-422.530	418.723	-0.065	-0.139
-421.515	732.000	-0.035	0.093
-420.500	39.746	0.138	-0.124
-419.486	-60.731	-0.198	0.084
-418.471	800.000	0.117	0.489
-417.457	-96.301	0.192	0.051
-416.442	322.242	-0.102	0.194
-415.428	-200.000	0.014	-0.141
-414.413	32.299	-0.135	-0.116
-413.398	800.000	-0.076	-0.285
-412.384	211.710	-0.107	0.168
-411.369	78.193	0.071	0.075
-410.355	90.699	-0.255	0.284
-409.340	692.572	-0.123	0.320
-408.325	317.377	0.211	0.396
-407.311	-67.979	-0.034	0.013
-406.296	782.670	-0.105	0.286
-405.282	55.963	0.219	-0.211
-404.267	34.613	-0.125	0.108
-403.252	-200.000	0.019	0.148
-402.238	-25.000	-0.128	-0.076
-401.223	564.583	0.063	0.152
-400.209	291.866	0.079	-0.144
-399.194	-73.134	0.173	-0.063
-398.179	120.302	0.077	-0.095
-397.165	-200.000	-0.013	0.357
-396.150	3.841	-0.223	0.162
-395.136	654.677	0.056	0.143
-394.121	95.982	0.202	0.229
-393.106	-4.715	-0.121	0.083
-392.092	-108.787	-0.193	0.041
-391.077	124.500	0.049	-0.062
-390.063	-200.000	-0.037	0.229
-389.048	-97.948	0.239	0.061
-388.033	-87.030	-0.091	0.028
-387.019	19.773	0.067	0.054
-386.004	116.343	-0.282	0.344
-384.990	105.234	-0.056	0.066
-383.975	132.105	0.126	-0.161
-382.960	-165.529	-0.133	-0.006
-381.946	-200.000	-0.017	-0.127
-380.931	162.156	0.168	-0.234
-379.917	91.080	-0.303	-0.338
-378.902	-200.000	0.041	0.258
-377.888	-104.817	0.216	-0.049
-376.873	-79.845	-0.308	-0.103
-375.858	-38.865	-0.273	-0.143
-374.844	84.388	-0.046	0.050
-373.829	-200.000	0.053	0.255
-372.815	-200.000	-0.011	0.165
-371.800	-200.000	-0.005	0.093
-370.785	16.768	-0.322	-0.253
-369.771	566.571	0.034	-0.082
-368.756	-168.718	0.217	-0.008
-367.742	408.191	0.010	-0.020
-366.727	354.738	-0.220	0.434
-365.712	-57.645	0.054	-0.024
-364.698	800.000	-0.100	-0.290
-363.683	-104.071	0.188	-0.043
-362.669	347.143	0.044	-0.085
-361.654	-79.565	0.010	-0.003
-360.639	-39.797	0.281	0.146
-359.625	1.624	0.192	-0.138
-358.610	47.853	-0.178	-0.165
-357.596	409.904	-0.032	0.067
-356.581	-94.933	-0.342	-0.092
-355.566	-49.787	0.539	0.254
-354.552	-95.316	-0.097	0.026
-353.537	341.424	-0.073	0.142
-352.523	663.961	0.086	-0.220
-351.508	551.022	0.070	0.166
-350.493	-153.901	-0.348	-0.024
-349.479	800.000	0.037	-0.155
-348.464	800.000	0.024	-0.084
-347.450	-85.132	0.195	-0.060
-346.435	-200.000	-0.010	0.083
-345.420	-32.665	0.287	0.158
-344.406	-62.018	-0.056	0.023
-343.391	-45.924	-0.284	0.139
-342.377	305.870	-0.065	0.120
-341.362	-86.217	-0.185	0.057
-340.348	-200.000	-0.046	0.292
-339.333	-78.906	-0.018	0.006
-338.318	-142.275	0.247	0.024
-337.304	-145.924	-0.318	0.028
-336.289	530.788	0.073	-0.170
-335.275	-154.368	-0.117	-0.008
-334.260	-140.416	0.270	0.028
-333.245	-200.000	0.019	-0.188
-332.231	119.738	0.161	-0.198
-331.216	59.867	-0.265	-0.260
-330.202	-200.000	0.003	0.120
-329.187	-125.331	0.037	-0.006
-328.172	-35.523	-0.086	0.046
-327.158	-200.000	-0.016	0.155
-326.143	603.106	0.107	0.265
-325.129	-200.000	-0.021	-0.217
-324.114	-42.303	-0.217	-0.110
-323.099	-109.705	0.300	-0.063
-322.085	8.081	0.085	0.063
-321.070	134.093	-0.138	-0.177
-320.056	170.232	0.116	-0.165
-319.041	-127.801	0.243	0.035
-318.026	29.300	0.210	-0.177
-317.012	-54.474	0.066	-0.030
-315.997	-109.427	0.094	0.020
-314.983	214.746	0.120	0.188
-313.968	-56.119	0.225	-0.099
-312.953	-200.000	0.033	-0.207
-311.939	169.518	0.091	-0.129
-310.924	13.461	0.091	0.070
-309.910	-58.573	0.026	0.011
-308.895	14.360	0.037	-0.029
-307.880	-105.579	0.082	-0.018
-306.866	13.686	0.173	0.133
-305.851	-155.245	0.370	-0.024
-304.837	146.215	0.094	0.124
-303.822	96.636	0.064	0.073
-302.807	-200.000	0.066	0.318
-301.793	-11.119	-0.052	-0.034
-300.778	-200.000	-0.043	0.258
-299.764	-200.000	0.013	-0.207
-298.749	21.004	-0.188	-0.151
-297.735	-9.375	-0.149	0.099
-296.720	51.459	-0.438	0.412
-295.705	-43.551	-0.186	0.093
-294.691	104.540	0.038	0.045
-293.676	-104.260	0.165	-0.038
-292.662	-101.806	0.317	-0.076
-291.647	106.244	0.138	-0.162
-290.632	31.871	0.361	0.308
-289.618	184.812	0.177	0.259
-288.603	-37.726	0.162	0.085
-287.589	-168.495	-0.055	-0.002
-286.574	-200.000	0.002	0.078
-285.559	-200.000	0.003	0.115
-284.545	-149.611	0.316	-0.025
-283.530	328.880	0.120	-0.229
-282.516	52.413	0.311	-0.294
-281.501	368.440	-0.021	0.041
-280.486	-103.497	0.155	0.036
-279.472	-17.494	0.050	-0.031
-278.457	-37.311	-0.161	-0.085
-277.443	800.000	0.096	-0.264
-276.428	-116.544	-0.299	0.055
-275.413	-82.408	-0.309	0.099
-274.399	800.000	-0.037	0.111
-273.384	204.358	0.114	-0.175
-272.370	-10.355	0.127	0.083
-271.355	-178.524	-0.123	0.003
-270.340	202.135	-0.114	0.174
-269.326	800.000	0.132	-0.460
-268.311	20.797	0.162	0.130
-267.297	-151.266	-0.299	-0.022
-266.282	-132.033	0.253	0.033
-265.267	-114.011	-0.215	-0.041
-264.253	416.041	-0.164	-0.347
-263.238	-23.418	-0.041	0.025
-262.224	-0.182	-0.067	-0.047
-261.209	-76.416	-0.235	-0.082
-260.195	-200.000	-0.027	0.155
-259.180	-157.175	-0.227	0.014
-258.165	-17.036	-0.172	-0.107
-257.151	-130.653	0.134	-0.018
-256.136	4.231	0.315	-0.228
-255.122	-200.000	-0.059	0.286
-254.107	-200.000	-0.002	-0.060
-253.092	215.292	0.122	-0.192
-252.078	-200.000	-0.006	0.124
-251.063	800.000	0.028	-0.114
-250.049	-180.423	-0.133	0.003
-249.034	800.000	0.060	-0.212
-248.019	-200.000	-0.005	-0.164
-247.005	416.134	0.089	0.187
-245.990	-200.000	0.002	-0.047
-244.976	-42.988	-0.227	0.114
-243.961	-200.000	-0.009	0.049
-242.946	-200.000	-0.005	0.380
-241.932	-115.936	0.209	0.038
-240.917	-137.829	-0.399	-0.044
-239.903	-75.210	-0.180	0.064
-238.888	595.283	-0.119	-0.290
-237.873	-200.000	0.053	-0.285
-236.859	-62.688	0.165	0.067
-235.844	139.302	-0.101	0.131
-234.830	21.748	0.256	0.206
-233.815	800.000	0.085	0.313
-232.800	-122.065	-0.070	-0.011
-231.786	-104.872	-0.251	-0.057
-230.771	16.157	-0.083	-0.065
-229.757	88.164	-0.174	-0.191
-228.742	-98.785	0.069	0.017
-227.727	-12.218	0.058	0.037
-226.713	24.427	0.151	-0.123
-225.698	68.445	-0.200	0.202
-224.684	-200.000	-0.015	-0.146
-223.669	27.223	-0.215	-0.178
-222.655	116.257	-0.137	0.166
-221.640	78.165	0.118	0.124
-220.625	-200.000	-0.028	0.169
-219.611	181.116	-0.271	0.393
-218.596	-200.000	0.008	0.632
-217.582	320.243	0.098	0.184
-216.567	-200.000	-0.003	-0.201
-215.552	-57.117	-0.283	-0.123
-214.538	-140.160	-0.336	0.035
-213.523	-132.162	0.075	-0.010
-212.509	175.158	0.208	0.298
-211.494	-66.111	-0.211	-0.083
-210.479	-85.666	-0.052	0.016
-209.465	155.080	0.137	0.186
-208.450	16.976	-0.127	0.100
-207.436	-171.996	0.349	0.011
-206.421	-200.000	-0.001	-0.147
-205.406	-69.801	-0.096	-0.036
-204.392	70.522	-0.220	-0.224
-203.377	-53.743	-0.242	-0.109
-202.363	69.180	-0.236	-0.240
-201.348	67.684	0.123	0.124
-200.333	-200.000	0.029	0.155
-199.319	-186.580	-0.311	0.004
-198.304	-200.000	-0.000	-0.083
-197.290	-139.207	-0.146	-0.016
-196.275	-200.000	0.033	-0.305
-195.260	164.282	-0.105	-0.146
-194.246	-128.319	0.120	0.017
-193.231	-200.000	-0.024	-0.202
-192.217	800.000	0.108	0.386
-191.202	-36.641	0.238	0.126
-190.187	-44.906	0.197	-0.097
-189.173	-97.250	0.136	-0.035
-188.158	33.092	-0.134	-0.115
-187.144	278.933	0.057	0.100
-186.129	239.453	0.136	0.223
-185.114	174.444	0.196	-0.279
-184.100	-103.853	0.292	-0.067
-183.085	-87.803	0.337	0.100
-182.071	176.024	-0.100	-0.143
-181.056	365.116	-0.047	0.094
-180.042	800.000	-0.032	0.121
-179.027	146.125	0.098	0.130
-178.012	266.975	0.148	0.256
-176.998	497.704	-0.060	0.135
-175.983	50.021	-0.284	-0.264
-174.969	800.000	0.116	-0.367
-173.954	-78.948	-0.145	-0.049
-172.939	53.707	-0.149	-0.141
-171.925	-200.000	0.031	0.325
-170.910	-200.000	-0.080	-0.365
-169.896	644.179	0.110	0.278
-168.881	-200.000	0.009	0.359
-167.866	-92.401	-0.360	0.100
-166.852	106.604	-0.090	-0.105
-165.837	-200.000	-0.007	-0.241
-164.823	800.000	0.029	0.115
-163.808	800.000	-0.064	0.229
-162.793	-42.742	0.156	0.078
-161.779	-32.450	-0.426	-0.234
-160.764	77.745	-0.164	0.172
-159.750	-181.126	0.295	0.006
-158.735	-51.922	-0.155	-0.071
-157.720	162.688	0.188	0.260
-156.706	-112.137	0.158	0.031
-155.691	-135.962	-0.468	-0.054
-154.677	19.716	-0.097	0.077
-153.662	-51.814	0.169	-0.078
-152.647	147.150	-0.152	0.202
-151.633	-200.000	0.039	-0.200
-150.618	-145.231	0.538	-0.048
-149.604	259.297	-0.109	-0.185
-148.589	-200.000	0.009	-0.119
-147.574	-200.000	-0.035	0.289
-146.560	96.327	0.145	-0.163
-145.545	-64.043	0.243	0.098
-144.531	-200.000	-0.044	0.224
-143.516	800.000	-0.095	0.382
-142.502	40.939	0.055	0.049
-141.487	28.080	-0.101	0.084
-140.472	-148.648	0.225	-0.018
-139.458	-2.994	-0.068	0.047
-138.443	-158.076	-0.163	-0.009
-137.429	-70.953	0.384	-0.143
-136.414	136.357	-0.191	0.245
-135.399	-106.007	0.318	0.070
-134.385	570.401	0.175	-0.419
-133.370	-18.291	0.129	-0.080
-132.356	112.629	0.067	0.079
-131.341	-46.498	0.540	0.261
-130.326	-200.000	-0.007	0.101
-129.312	-200.000	-0.007	0.326
-128.297	-109.464	0.173	-0.036
-127.283	347.124	-0.174	0.338
-126.268	-141.554	0.091	-0.009
-125.253	1.119	-0.104	-0.074
-124.239	-43.770	0.211	0.104
-123.224	-102.523	-0.296	-0.070
-122.210	378.027	-0.106	0.213
-121.195	-128.803	-0.186	0.026
