DTS Sentinel unit serial number:	SN413079Multiplexer serial number:	ORYXHardware model number:	OX4-SRSoftware version number:	ORYX F/W v4.00 Oryx Data Collector v3.7.2.0data status	okinstallation	princeton_trtdifferential loss correction	single-endedforward channel	channel 3reverse channel	N/Adate	2019/09/13time	12:52:35forward acquisition time	60.00reverse acquisition time	0.00gamma	496.2192k internal	0.2305k external	0.2305temperature offset calibration	1.0148default loss term (dB/km)	0.3790temperature slope calibration	1.0000multiplexer offset coefficient	1.0000multiplexer slope coefficient	1.0000fibre end	0.00T internal ref (°C)	34.75T ext. ref 1 (°C)	4.58T ext. ref 2 (°C)	30.42length (m)	temperature (°C)	Stokes	anti-Stokes-747.200	-17.623	0.243	-0.155
-746.185	163.414	-0.142	0.203
-745.171	2.278	0.029	-0.021
-744.156	-200.000	0.000	0.153
-743.142	38.814	0.228	-0.207
-742.127	-95.172	0.151	0.041
-741.112	-200.000	0.016	0.155
-740.098	96.287	0.253	0.295
-739.083	-144.464	-0.023	0.002
-738.069	98.393	-0.206	0.242
-737.054	-200.000	-0.051	0.274
-736.039	115.040	0.223	-0.276
-735.025	-18.219	-0.214	0.136
-734.010	-118.351	0.203	-0.037
-732.996	-122.719	0.221	0.036
-731.981	-200.000	-0.010	-0.118
-730.966	-68.775	-0.282	0.111
-729.952	800.000	-0.094	-0.360
-728.937	-200.000	-0.059	-0.318
-727.923	-200.000	-0.004	-0.178
-726.908	777.531	0.130	-0.360
-725.894	-200.000	-0.006	0.059
-724.879	-200.000	0.032	-0.183
-723.864	-200.000	-0.033	0.221
-722.850	-119.647	-0.175	0.031
-721.835	-14.486	0.192	-0.125
-720.821	267.898	0.029	-0.051
-719.806	-127.269	-0.328	-0.049
-718.791	-137.161	0.107	0.012
-717.777	42.016	0.188	-0.173
-716.762	66.579	-0.131	-0.135
-715.748	-29.808	0.244	0.141
-714.733	61.161	-0.152	-0.154
-713.718	800.000	-0.053	-0.150
-712.704	-200.000	-0.052	0.232
-711.689	211.668	-0.096	0.153
-710.675	-170.863	-0.147	0.005
-709.660	-145.532	-0.310	0.028
-708.645	-16.267	0.072	-0.046
-707.631	-160.877	-0.152	-0.008
-706.616	-45.982	0.265	0.133
-705.602	-67.327	0.161	-0.064
-704.587	800.000	-0.082	0.269
-703.572	32.733	0.042	0.037
-702.558	796.268	0.034	-0.095
-701.543	-200.000	-0.005	-0.173
-700.529	-161.035	0.163	0.009
-699.514	-121.316	0.270	-0.046
-698.499	-159.065	0.177	-0.010
-697.485	800.000	-0.136	-0.457
-696.470	-200.000	0.009	0.216
-695.456	-112.465	0.200	0.041
-694.441	32.990	-0.244	-0.215
-693.426	800.000	0.083	-0.248
-692.412	-177.371	-0.211	-0.005
-691.397	-200.000	0.013	0.567
-690.383	-149.476	0.348	-0.028
-689.368	109.223	0.261	0.317
-688.354	27.913	-0.258	-0.221
-687.339	351.970	-0.182	-0.366
-686.324	-133.085	-0.283	-0.036
-685.310	132.351	-0.140	0.184
-684.295	227.244	-0.006	0.010
-683.281	-10.109	-0.158	-0.107
-682.266	-122.856	0.340	0.056
-681.251	164.425	0.119	0.170
-680.237	-143.967	0.302	0.029
-679.222	-200.000	-0.012	-0.342
-678.208	-160.702	-0.078	0.004
-677.193	-137.636	-0.207	0.024
-676.178	95.852	-0.155	-0.180
-675.164	-200.000	0.011	-0.166
-674.149	448.506	0.083	0.186
-673.135	-200.000	0.001	-0.188
-672.120	-200.000	0.033	-0.237
-671.105	-43.659	-0.114	0.058
-670.091	57.355	0.196	0.194
-669.076	800.000	0.023	0.079
-668.062	-122.879	-0.142	0.023
-667.047	-200.000	0.012	0.146
-666.032	23.930	-0.154	0.129
-665.018	-0.248	-0.100	-0.072
-664.003	88.295	-0.295	-0.332
-662.989	-86.198	0.392	0.123
-661.974	-17.218	0.130	-0.083
-660.959	-3.874	-0.141	0.099
-659.945	-15.249	0.258	0.167
-658.930	135.469	0.103	0.135
-657.916	264.452	0.133	-0.236
-656.901	500.901	0.072	0.168
-655.886	87.843	0.080	0.090
-654.872	-160.213	0.454	-0.025
-653.857	127.360	0.195	-0.251
-652.843	771.927	-0.060	0.166
-651.828	-20.991	-0.161	-0.100
-650.814	2.623	-0.234	0.172
-649.799	5.187	0.170	0.127
-648.784	64.524	0.203	-0.208
-647.770	-200.000	0.007	-0.181
-646.755	-113.958	-0.324	0.064
-645.741	-174.448	-0.472	-0.014
-644.726	-200.000	0.032	0.326
-643.711	256.487	-0.116	-0.202
-642.697	464.622	-0.050	-0.113
-641.682	-187.831	-0.263	0.003
-640.668	-101.928	-0.272	0.067
-639.653	-16.301	0.070	-0.045
-638.638	377.438	-0.061	0.125
-637.624	-200.000	-0.034	-0.171
-636.609	-168.262	0.388	0.015
-635.595	-125.226	0.201	-0.031
-634.580	-90.079	-0.392	0.116
-633.565	618.505	-0.076	0.194
-632.551	-8.326	0.303	0.207
-631.536	-73.895	0.585	0.215
-630.522	-70.229	0.343	-0.132
-629.507	800.000	0.059	0.256
-628.492	-71.902	-0.116	-0.044
-627.478	-178.487	0.369	0.009
-626.463	653.216	-0.094	-0.245
-625.449	51.631	0.069	0.066
-624.434	-200.000	0.057	-0.262
-623.419	-116.061	-0.404	0.076
-622.405	22.480	-0.057	-0.047
-621.390	263.114	0.136	-0.239
-620.376	417.507	0.105	-0.227
-619.361	-65.238	-0.084	-0.034
-618.346	106.788	-0.039	0.047
-617.332	522.629	0.185	-0.440
-616.317	143.035	-0.171	-0.231
-615.303	-0.504	-0.255	0.184
-614.288	-65.269	-0.061	0.025
-613.273	800.000	-0.114	-0.338
-612.259	800.000	-0.086	-0.259
-611.244	-37.117	-0.133	0.072
-610.230	-112.171	-0.221	-0.045
-609.215	-129.538	-0.272	-0.038
-608.201	-200.000	0.005	-0.265
-607.186	-57.355	0.211	0.094
-606.171	32.962	0.320	-0.280
-605.157	-94.430	0.132	-0.036
-604.142	375.324	0.136	0.281
-603.128	-44.139	-0.370	0.188
-602.113	-136.616	-0.236	0.028
-601.098	-200.000	0.039	-0.176
-600.084	-148.484	-0.509	-0.042
-599.069	-116.314	-0.056	0.010
-598.055	150.364	-0.074	-0.102
-597.040	194.868	-0.178	0.273
-596.025	491.783	-0.090	0.208
-595.011	252.048	-0.080	-0.139
-593.996	-101.978	-0.197	0.048
-592.982	462.484	0.162	-0.366
-591.967	727.966	0.076	0.204
-590.952	-56.893	0.054	0.024
-589.938	85.656	0.061	-0.068
-588.923	63.909	0.238	-0.242
-587.909	163.453	-0.221	-0.314
-586.894	-200.000	-0.046	-0.378
-585.879	70.290	-0.218	-0.228
-584.865	50.524	-0.055	-0.053
-583.850	-129.058	-0.219	-0.031
-582.836	41.936	-0.218	0.200
-581.821	800.000	0.055	-0.160
-580.806	98.985	0.162	-0.189
-579.792	335.515	0.071	0.140
-578.777	-200.000	0.041	-0.389
-577.763	-117.918	0.168	0.030
-576.748	800.000	0.053	0.204
-575.733	-8.891	-0.084	0.057
-574.719	800.000	0.085	0.333
-573.704	-37.061	-0.154	0.083
-572.690	-39.646	-0.155	-0.082
-571.675	-46.366	0.046	0.023
-570.661	164.114	0.060	-0.085
-569.646	-56.353	-0.273	-0.123
-568.631	800.000	0.046	-0.201
-567.617	188.027	0.139	-0.210
-566.602	-200.000	-0.001	0.125
-565.588	9.842	-0.077	0.059
-564.573	-146.972	0.225	0.020
-563.558	157.219	-0.075	-0.105
-562.544	452.053	0.063	-0.140
-561.529	-200.000	0.002	0.226
-560.515	-26.148	-0.043	-0.026
-559.500	-39.806	0.151	-0.080
-558.485	9.699	-0.168	-0.128
-557.471	-200.000	0.018	-0.089
-556.456	-123.529	-0.246	-0.039
-555.442	90.705	0.084	0.095
-554.427	-36.637	-0.266	-0.144
-553.412	-198.851	-0.154	-0.001
-552.398	543.885	0.098	-0.237
-551.383	59.370	-0.120	-0.119
-550.369	-75.268	-0.308	0.111
-549.354	-200.000	-0.003	0.157
-548.339	562.665	-0.043	-0.104
-547.325	10.091	0.060	0.046
-546.310	-200.000	-0.022	-0.156
-545.296	-200.000	-0.019	-0.155
-544.281	-200.000	0.030	-0.187
-543.266	31.039	0.070	0.061
-542.252	-45.104	0.061	-0.031
-541.237	193.036	-0.079	-0.121
-540.223	-24.402	0.282	0.170
-539.208	800.000	0.105	-0.334
-538.193	800.000	0.064	0.197
-537.179	-74.067	-0.341	0.125
-536.164	-200.000	-0.014	0.151
-535.150	33.335	0.130	-0.114
-534.135	-110.460	0.171	-0.036
-533.121	-85.763	0.517	-0.162
-532.106	131.367	0.145	0.189
-531.091	-200.000	-0.142	-0.000
-530.077	-200.000	0.011	-0.177
-529.062	800.000	0.034	-0.098
-528.048	-4.085	-0.228	-0.159
-527.033	-200.000	-0.038	0.187
-526.018	800.000	-0.049	0.172
-525.004	-200.000	-0.014	-0.188
-523.989	-179.228	0.155	0.003
-522.975	-93.121	0.133	0.037
-521.960	-112.303	-0.127	0.026
-520.945	-29.785	0.293	0.169
-519.931	381.529	0.124	-0.256
-518.916	327.891	0.055	0.107
-517.902	-45.373	0.229	0.115
-516.887	-47.675	0.154	-0.075
-515.872	-41.775	-0.320	0.166
-514.858	800.000	0.043	-0.148
-513.843	-200.000	0.022	0.277
-512.829	16.794	0.147	0.118
-511.814	223.592	0.080	0.129
-510.799	-200.000	-0.022	0.118
-509.785	800.000	-0.008	0.025
-508.770	-200.000	0.004	-0.171
-507.756	-77.024	-0.217	0.076
-506.741	136.415	0.240	0.316
-505.726	-200.000	0.006	0.109
-504.712	-7.631	0.199	0.136
-503.697	4.447	0.193	-0.143
-502.683	-5.316	0.204	0.141
-501.668	-96.409	-0.317	0.085
-500.653	-200.000	0.006	-0.121
-499.639	-22.956	0.165	-0.100
-498.624	-58.949	0.376	0.164
-497.610	-200.000	-0.003	0.107
-496.595	-72.841	0.234	0.087
-495.581	26.879	0.136	-0.115
-494.566	74.217	-0.134	0.142
-493.551	-200.000	0.051	-0.285
-492.537	-200.000	-0.013	-0.106
-491.522	277.899	0.068	0.122
-490.508	163.232	-0.188	0.266
-489.493	-200.000	0.004	-0.116
-488.478	-200.000	0.005	0.159
-487.464	-200.000	-0.001	-0.276
-486.449	11.437	-0.249	-0.192
-485.435	-35.420	-0.088	0.048
-484.420	523.525	0.046	0.109
-483.405	-90.485	0.151	-0.044
-482.391	136.888	-0.082	0.108
-481.376	800.000	0.043	0.145
-480.362	-195.493	-0.185	0.001
-479.347	-200.000	0.018	-0.252
-478.332	-164.642	-0.455	-0.021
-477.318	84.449	-0.116	0.128
-476.303	127.874	-0.096	-0.124
-475.289	-200.000	0.005	0.044
-474.274	615.267	0.055	-0.139
-473.259	202.458	-0.055	-0.085
-472.245	-200.000	-0.036	0.362
-471.230	-132.217	-0.136	-0.018
-470.216	-200.000	0.022	-0.102
-469.201	213.311	0.145	-0.230
-468.186	316.874	0.166	0.316
-467.172	483.850	0.094	0.216
-466.157	180.818	0.035	0.051
-465.143	-1.104	0.320	-0.227
-464.128	-76.754	0.272	-0.096
-463.113	800.000	-0.050	0.188
-462.099	-200.000	-0.001	0.027
-461.084	273.472	0.064	-0.114
-460.070	324.237	-0.059	0.113
-459.055	-200.000	-0.030	0.135
-458.040	-36.188	0.256	0.139
-457.026	-90.557	0.139	0.040
-456.011	-1.549	-0.283	-0.201
-454.997	258.375	-0.050	0.086
-453.982	292.758	0.092	-0.169
-452.968	118.654	-0.124	0.154
-451.953	269.757	-0.025	0.045
-450.938	-45.402	0.194	0.097
-449.924	-200.000	-0.056	0.272
-448.909	-200.000	0.011	0.110
-447.895	169.460	-0.015	-0.022
-446.880	-200.000	-0.016	-0.139
-445.865	264.357	-0.131	0.230
-444.851	800.000	-0.036	-0.129
-443.836	-115.727	-0.270	-0.051
-442.822	-200.000	-0.012	-0.057
-441.807	-200.000	0.005	-0.092
-440.792	-59.867	-0.252	-0.108
-439.778	-200.000	-0.031	-0.189
-438.763	132.394	-0.167	0.216
-437.749	145.630	0.115	0.155
-436.734	533.074	0.091	0.218
-435.719	97.938	-0.050	0.058
-434.705	589.860	-0.088	0.218
-433.690	-58.670	-0.302	-0.132
-432.676	-107.363	0.433	-0.096
-431.661	-47.800	0.139	-0.068
-430.646	-116.432	0.067	0.013
-429.632	273.217	0.032	-0.057
-428.617	36.480	-0.068	-0.061
-427.603	-10.683	0.051	-0.034
-426.588	-6.538	0.187	-0.128
-425.573	-58.846	0.285	-0.124
-424.559	230.709	0.121	0.199
-423.544	-200.000	0.032	0.434
-422.530	-89.585	-0.254	0.075
-421.515	26.139	-0.211	-0.177
-420.500	-200.000	-0.006	0.177
-419.486	49.977	0.248	-0.236
-418.471	265.184	-0.043	-0.076
-417.457	323.511	-0.208	-0.398
-416.442	-86.489	0.336	-0.104
-415.428	-26.274	-0.105	0.062
-414.413	-102.140	0.227	0.055
-413.398	800.000	-0.071	0.203
-412.384	-200.000	-0.028	-0.221
-411.369	800.000	0.048	-0.199
-410.355	177.851	-0.194	-0.285
-409.340	-106.391	0.277	0.062
-408.325	227.604	0.031	-0.050
-407.311	-41.630	-0.179	-0.092
-406.296	15.505	-0.247	0.195
-405.282	-65.568	0.146	0.059
-404.267	-130.394	-0.130	-0.018
-403.252	-200.000	0.016	-0.203
-402.238	-200.000	-0.003	0.031
-401.223	207.254	-0.075	-0.117
-400.209	-200.000	0.012	0.126
-399.194	-116.356	-0.298	0.055
-398.179	-116.488	-0.238	0.044
-397.165	599.110	-0.076	-0.188
-396.150	-28.615	0.183	0.106
-395.136	648.007	0.173	0.443
-394.121	-113.642	-0.252	0.049
-393.106	182.246	-0.059	0.087
-392.092	-200.000	-0.019	0.186
-391.077	63.037	0.161	0.162
-390.063	800.000	0.032	0.114
-389.048	206.980	0.031	-0.049
-388.033	-63.942	-0.048	0.020
-387.019	91.170	-0.101	-0.114
-386.004	-200.000	0.026	-0.139
-384.990	-25.437	0.089	0.053
-383.975	-200.000	0.003	0.200
-382.960	-200.000	-0.011	0.710
-381.946	-138.447	0.341	0.038
-380.931	16.169	0.056	0.045
-379.917	3.513	-0.053	0.039
-378.902	329.960	0.142	0.273
-377.888	0.103	-0.138	-0.099
-376.873	-105.020	-0.054	-0.012
-375.858	163.169	0.158	0.223
-374.844	85.484	-0.281	0.309
-373.829	-80.553	-0.083	0.028
-372.815	439.201	0.114	-0.249
-371.800	-140.811	0.250	0.026
-370.785	-101.002	0.158	0.039
-369.771	258.689	-0.100	-0.173
-368.756	-154.204	-0.493	0.033
-367.742	-77.621	-0.313	0.109
-366.727	-200.000	-0.332	-0.001
-365.712	-33.315	-0.090	-0.050
-364.698	800.000	-0.034	0.130
-363.683	-52.220	-0.294	0.137
-362.669	800.000	-0.049	-0.166
-361.654	137.264	-0.109	0.143
-360.639	800.000	-0.049	-0.189
-359.625	800.000	-0.061	0.191
-358.610	208.278	0.188	-0.294
-357.596	800.000	0.061	0.190
-356.581	800.000	-0.047	-0.143
-355.566	-22.461	0.281	-0.171
-354.552	17.129	0.082	-0.065
-353.537	-5.086	-0.339	0.234
-352.523	-34.978	-0.132	0.072
-351.508	2.431	0.418	0.303
-350.493	-70.253	0.147	-0.056
-349.479	-200.000	-0.061	-0.375
-348.464	-180.888	0.192	0.004
-347.450	63.895	-0.116	0.117
-346.435	-19.189	-0.067	0.042
-345.420	95.527	0.048	-0.055
-344.406	-73.929	-0.271	-0.099
-343.391	190.813	-0.191	-0.288
-342.377	-200.000	-0.015	0.168
-341.362	-117.269	-0.218	-0.040
-340.348	-200.000	0.003	0.016
-339.333	-200.000	0.023	0.194
-338.318	337.084	0.201	-0.391
-337.304	66.088	0.100	-0.102
-336.289	-30.110	0.173	-0.098
-335.275	-133.187	0.276	0.035
-334.260	-195.331	-0.353	-0.003
-333.245	-15.309	-0.069	-0.044
-332.231	-200.000	0.006	-0.053
-331.216	-5.576	0.139	-0.096
-330.202	22.479	-0.233	-0.191
-329.187	155.771	0.150	-0.207
-328.172	42.259	-0.180	0.164
-327.158	-136.940	0.120	-0.014
-326.143	157.283	-0.192	0.266
-325.129	186.309	-0.215	0.320
-324.114	614.625	0.146	0.367
-323.099	32.128	0.204	-0.176
-322.085	-19.304	0.137	0.085
-321.070	-87.536	0.048	-0.014
-320.056	234.935	-0.127	0.210
-319.041	638.346	-0.080	0.205
-318.026	127.620	-0.301	-0.383
-317.012	232.158	0.127	-0.208
-315.997	52.829	0.027	-0.026
-314.983	800.000	0.060	0.196
-313.968	-41.825	0.256	-0.132
-312.953	-5.818	0.120	-0.082
-311.939	-149.672	-0.188	-0.015
-310.924	448.675	0.099	-0.219
-309.910	297.299	-0.080	-0.146
-308.895	11.255	0.343	0.263
-307.880	-57.659	-0.194	-0.085
-306.866	-61.923	0.134	-0.056
-305.851	306.422	0.067	-0.125
-304.837	-41.850	-0.123	-0.063
-303.822	-160.389	-0.473	0.025
-302.807	665.382	0.025	-0.065
-301.793	-72.121	0.197	0.073
-300.778	-23.197	-0.325	-0.196
-299.764	88.064	0.082	0.091
-298.749	-117.972	-0.215	0.039
-297.735	76.771	0.141	-0.150
-296.720	-200.000	0.005	-0.038
-295.705	-26.175	0.087	0.051
-294.691	-22.969	-0.122	-0.073
-293.676	515.224	0.081	-0.188
-292.662	-23.586	0.260	0.156
-291.647	257.083	-0.028	-0.048
-290.632	346.405	0.068	-0.134
-289.618	-12.678	0.087	-0.056
-288.603	44.881	-0.133	0.122
-287.589	61.607	-0.186	0.185
-286.574	800.000	-0.106	0.307
-285.559	-89.366	0.267	-0.079
-284.545	-200.000	-0.035	0.187
-283.530	305.614	0.058	0.109
-282.516	-68.554	0.287	0.111
-281.501	144.755	-0.086	0.115
-280.486	-169.773	-0.282	0.010
-279.472	-199.016	0.280	0.002
-278.457	50.572	-0.309	-0.292
-277.443	28.626	-0.206	-0.174
-276.428	66.470	0.281	0.285
-275.413	800.000	0.040	-0.117
-274.399	81.629	0.169	-0.182
-273.384	-200.000	-0.043	-0.300
-272.370	137.800	-0.107	-0.140
-271.355	-108.701	0.220	-0.047
-270.340	267.150	-0.118	-0.206
-269.326	-65.022	0.105	0.042
-268.311	89.755	-0.149	0.166
-267.297	800.000	-0.028	-0.105
-266.282	-200.000	0.031	0.167
-265.267	257.709	0.167	0.288
-264.253	-106.870	0.301	-0.067
-263.238	720.867	0.067	-0.179
-262.224	-13.573	-0.190	-0.123
-261.209	-128.739	-0.237	-0.033
-260.195	85.029	-0.250	0.273
-259.180	68.281	0.150	-0.153
-258.165	42.688	0.362	-0.329
-257.151	800.000	0.075	0.328
-256.136	800.000	0.133	-0.384
-255.122	-200.000	0.028	-0.305
-254.107	308.460	0.065	-0.121
-253.092	-93.788	0.292	0.080
-252.078	214.676	0.172	0.272
-251.063	-88.263	0.341	0.102
-250.049	800.000	-0.096	-0.295
-249.034	-37.455	0.158	0.084
-248.019	50.583	-0.230	-0.218
-247.005	-200.000	0.240	0.001
-245.990	800.000	0.065	0.181
-244.976	800.000	-0.058	0.168
-243.961	-200.000	0.023	0.173
-242.946	-104.866	-0.040	0.009
-241.932	-200.000	-0.038	-0.239
-240.917	415.172	0.138	-0.294
-239.903	-88.056	0.236	0.071
-238.888	-200.000	0.000	0.107
-237.873	5.761	-0.199	0.147
-236.859	-129.246	-0.129	-0.018
-235.844	523.949	-0.116	0.273
-234.830	-200.000	-0.038	-0.168
-233.815	-33.874	0.282	-0.155
-232.800	800.000	0.066	0.276
-231.786	65.546	0.166	-0.167
-230.771	149.323	-0.128	0.173
-229.757	639.478	0.076	0.194
-228.742	119.100	0.437	0.539
-227.727	800.000	-0.039	0.141
-226.713	-54.489	-0.429	-0.194
-225.698	-93.452	-0.292	0.081
-224.684	-200.000	0.034	-0.457
-223.669	800.000	-0.060	0.208
-222.655	10.624	-0.287	0.218
-221.640	-45.545	-0.138	-0.068
-220.625	800.000	0.050	-0.171
-219.611	-183.201	0.166	-0.003
-218.596	-200.000	-0.017	-0.092
-217.582	6.472	0.187	0.139
-216.567	-7.063	-0.233	0.157
-215.552	-17.244	0.215	0.135
-214.538	-75.678	0.247	0.088
-213.523	154.658	-0.220	0.301
-212.509	107.201	-0.161	-0.191
-211.494	-65.412	-0.453	0.182
-210.479	506.207	0.091	0.210
-209.465	-200.000	0.006	0.182
-208.450	-37.681	-0.247	0.131
-207.436	-100.013	-0.240	0.060
-206.421	190.128	-0.143	-0.213
-205.406	-28.425	0.063	0.036
-204.392	800.000	0.032	-0.122
-203.377	-148.924	-0.027	-0.002
-202.363	-100.718	0.183	-0.045
-201.348	-28.723	-0.309	0.177
-200.333	-5.130	0.103	-0.071
-199.319	-200.000	-0.025	-0.199
-198.304	-104.330	0.352	-0.081
-197.290	-63.344	0.283	-0.116
-196.275	28.075	0.062	-0.052
-195.260	-59.890	-0.166	-0.071
-194.246	482.508	-0.112	0.254
-193.231	50.551	-0.168	0.158
-192.217	-200.000	0.002	0.034
-191.202	-200.000	0.074	-0.480
-190.187	-200.000	-0.035	0.220
-189.173	299.544	-0.123	0.226
-188.158	-79.955	0.119	-0.040
-187.144	448.902	0.180	0.396
-186.129	-200.000	-0.012	0.236
-185.114	90.688	-0.041	-0.046
-184.100	-24.837	-0.247	-0.146
-183.085	-200.000	-0.001	0.028
-182.071	531.816	-0.045	0.105
-181.056	-200.000	-0.025	-0.115
-180.042	-36.478	0.080	0.043
-179.027	-34.936	-0.326	0.177
-178.012	53.509	-0.121	-0.116
-176.998	800.000	-0.031	-0.100
-175.983	1.603	-0.080	0.057
-174.969	-200.000	0.005	0.024
-173.954	726.052	-0.083	0.221
-172.939	23.153	-0.279	-0.228
-171.925	-200.000	-0.006	0.056
-170.910	111.745	0.016	-0.019
-169.896	81.358	-0.058	0.063
-168.881	-200.000	-0.025	-0.292
-167.866	37.746	0.256	0.226
-166.852	-139.566	-0.099	-0.010
-165.837	-9.586	0.192	0.127
-164.823	-115.573	0.282	0.053
-163.808	-141.517	-0.059	-0.006
-162.793	-42.914	0.141	-0.071
-161.779	-33.115	0.239	0.132
-160.764	56.362	0.234	0.226
-159.750	183.697	0.087	-0.129
-158.735	800.000	0.047	-0.163
-157.720	-135.538	0.223	-0.026
-156.706	-11.874	0.337	-0.220
-155.691	-136.408	0.376	0.044
-154.677	-200.000	0.059	0.334
-153.662	194.563	0.054	-0.081
-152.647	-200.000	0.020	-0.263
-151.633	-97.224	-0.165	-0.043
-150.618	318.454	0.074	-0.140
-149.604	511.839	-0.092	-0.212
-148.589	6.998	0.100	0.074
-147.574	800.000	-0.011	0.049
-146.560	158.991	0.200	-0.276
-145.545	-200.000	0.335	-0.001
-144.531	-200.000	0.035	0.230
-143.516	72.305	0.233	-0.242
-142.502	452.324	-0.157	0.345
-141.487	-61.576	-0.116	-0.048
-140.472	-160.306	0.270	-0.014
-139.458	28.562	0.166	0.139
-138.443	-159.916	0.400	-0.022
-137.429	546.741	0.106	0.253
-136.414	-90.114	-0.288	-0.083
-135.399	800.000	0.057	-0.191
-134.385	44.602	-0.175	-0.160
-133.370	-57.458	-0.163	-0.071
-132.356	-71.807	-0.250	0.092
-131.341	-10.058	0.222	0.147
-130.326	-18.902	0.308	-0.190
-129.312	-45.248	0.285	-0.140
-128.297	-125.587	0.128	-0.019
-127.283	-44.629	-0.042	0.021
-126.268	800.000	0.023	-0.066
-125.253	-200.000	0.022	-0.206
-124.239	375.306	-0.119	0.241
-123.224	-41.618	0.269	-0.137
-122.210	-181.609	-0.321	-0.006
-121.195	-73.538	-0.132	0.048
