DTS Sentinel unit serial number:	SN413079Multiplexer serial number:	ORYXHardware model number:	OX4-SRSoftware version number:	ORYX F/W v4.00 Oryx Data Collector v3.7.2.0data status	okinstallation	princeton_trtdifferential loss correction	single-endedforward channel	channel 3reverse channel	N/Adate	2019/09/17time	23:48:34forward acquisition time	60.00reverse acquisition time	0.00gamma	496.2192k internal	0.2345k external	0.2345temperature offset calibration	0.9950default loss term (dB/km)	0.3790temperature slope calibration	1.0000multiplexer offset coefficient	1.0000multiplexer slope coefficient	1.0000fibre end	0.00T internal ref (°C)	24.02T ext. ref 1 (°C)	0.17T ext. ref 2 (°C)	17.36length (m)	temperature (°C)	Stokes	anti-Stokes-747.200	-3.161	0.325	0.227
-746.185	91.519	-0.180	0.202
-745.171	94.122	0.146	0.165
-744.156	25.455	-0.270	-0.225
-743.142	-200.000	-0.022	-0.144
-742.127	-200.000	-0.036	0.282
-741.112	138.618	-0.187	-0.245
-740.098	354.476	0.051	-0.101
-739.083	-17.130	-0.084	-0.053
-738.069	23.891	-0.234	0.193
-737.054	-133.734	0.302	-0.038
-736.039	64.933	-0.296	-0.299
-735.025	-158.389	0.315	-0.018
-734.010	8.855	-0.239	0.181
-732.996	-77.607	-0.251	-0.087
-731.981	-108.044	0.053	0.012
-730.966	-200.000	-0.160	0.001
-729.952	-104.199	-0.437	0.102
-728.937	47.768	-0.101	0.094
-727.923	-106.691	-0.393	0.087
-726.908	21.268	-0.139	0.113
-725.894	50.617	0.198	0.187
-724.879	-19.968	-0.312	-0.192
-723.864	-16.958	-0.063	0.040
-722.850	-118.633	-0.329	-0.058
-721.835	-17.348	0.180	-0.113
-720.821	127.415	-0.178	-0.226
-719.806	471.565	-0.036	-0.080
-718.791	-200.000	0.032	0.160
-717.777	86.151	-0.292	0.321
-716.762	800.000	0.013	0.047
-715.748	626.163	0.098	0.248
-714.733	49.160	-0.032	0.030
-713.718	-183.983	-0.381	0.006
-712.704	14.313	-0.157	0.123
-711.689	28.247	0.217	0.183
-710.675	-108.685	0.040	-0.008
-709.660	-73.625	-0.036	0.013
-708.645	124.718	-0.092	-0.116
-707.631	-31.732	-0.242	-0.136
-706.616	-71.913	-0.097	-0.036
-705.602	556.219	0.076	-0.183
-704.587	-79.007	0.459	-0.156
-703.572	-110.273	-0.198	-0.041
-702.558	800.000	-0.068	0.255
-701.543	-139.710	0.339	-0.036
-700.529	800.000	-0.041	-0.141
-699.514	-116.349	-0.292	-0.054
-698.499	38.912	-0.240	0.214
-697.485	110.316	0.157	0.189
-696.470	-200.000	0.015	-0.296
-695.456	800.000	-0.058	-0.171
-694.441	586.432	0.039	0.097
-693.426	800.000	0.049	-0.169
-692.412	-147.127	-0.205	0.017
-691.397	-200.000	-0.038	0.197
-690.383	-104.049	0.081	-0.019
-689.368	409.780	0.063	-0.133
-688.354	-63.252	0.270	0.111
-687.339	-52.196	0.155	-0.072
-686.324	-200.000	-0.044	0.328
-685.310	32.476	0.107	0.092
-684.295	800.000	-0.037	0.157
-683.281	-67.137	-0.078	0.031
-682.266	-200.000	0.001	0.236
-681.251	47.774	0.358	0.334
-680.237	-154.602	-0.323	0.021
-679.222	145.759	0.051	0.068
-678.208	-85.703	0.303	0.094
-677.193	349.350	-0.111	-0.218
-676.178	800.000	0.112	-0.389
-675.164	19.648	-0.176	-0.141
-674.149	-35.034	0.151	0.082
-673.135	136.571	-0.293	0.382
-672.120	277.967	-0.166	0.295
-671.105	-95.269	-0.200	-0.054
-670.091	-39.743	-0.166	-0.087
-669.076	-105.229	0.089	-0.020
-668.062	-118.001	0.463	0.083
-667.047	-200.000	0.041	0.381
-666.032	-200.000	-0.016	0.296
-665.018	800.000	0.059	0.188
-664.003	129.452	0.057	-0.073
-662.989	-5.854	-0.107	-0.073
-661.974	93.294	-0.321	-0.362
-660.959	-71.917	-0.071	-0.027
-659.945	235.340	-0.092	0.151
-658.930	259.569	0.120	-0.206
-657.916	-119.190	-0.304	0.053
-656.901	446.088	-0.154	-0.337
-655.886	13.537	-0.096	-0.074
-654.872	-132.364	0.125	-0.016
-653.857	187.471	0.092	-0.137
-652.843	800.000	-0.032	0.124
-651.828	-2.449	0.416	0.291
-650.814	-161.457	-0.194	0.010
-649.799	5.559	-0.212	-0.156
-648.784	-115.613	0.203	-0.038
-647.770	77.711	0.048	0.051
-646.755	456.408	-0.055	0.121
-645.741	-32.996	-0.315	0.174
-644.726	234.632	0.200	0.329
-643.711	-41.597	0.124	-0.063
-642.697	-119.912	0.145	-0.025
-641.682	2.442	-0.120	-0.086
-640.668	396.690	-0.045	-0.094
-639.653	-159.276	0.146	-0.008
-638.638	-200.000	0.014	-0.151
-637.624	-183.176	0.103	-0.002
-636.609	-155.819	0.303	-0.019
-635.595	800.000	-0.043	0.158
-634.580	-136.917	0.226	0.026
-633.565	-200.000	0.049	-0.524
-632.551	80.835	0.034	0.037
-631.536	-200.000	-0.044	0.221
-630.522	-200.000	-0.051	-0.231
-629.507	357.293	0.177	0.351
-628.492	800.000	-0.195	-0.588
-627.478	-200.000	0.009	-0.465
-626.463	800.000	-0.058	-0.163
-625.449	221.030	0.055	0.089
-624.434	-113.242	-0.245	0.048
-623.419	504.160	0.051	-0.118
-622.405	234.496	0.118	0.194
-621.390	-22.321	-0.224	-0.135
-620.376	761.074	-0.052	-0.142
-619.361	-138.077	-0.036	0.004
-618.346	-172.036	-0.184	0.006
-617.332	-200.000	-0.031	0.227
-616.317	157.747	-0.162	-0.223
-615.303	-200.000	0.053	-0.291
-614.288	-200.000	0.045	0.419
-613.273	-131.934	-0.127	0.016
-612.259	-88.952	0.058	-0.017
-611.244	321.408	0.082	0.155
-610.230	-53.517	-0.330	-0.150
-609.215	-200.000	0.012	-0.071
-608.201	-59.794	-0.253	-0.108
-607.186	487.906	-0.135	0.307
-606.171	-20.014	0.380	-0.233
-605.157	-123.210	0.185	0.029
-604.142	-182.389	0.154	0.003
-603.128	236.743	0.121	-0.200
-602.113	-98.996	-0.243	0.061
-601.098	37.200	0.081	0.072
-600.084	349.494	-0.029	0.057
-599.069	-200.000	0.045	-0.261
-598.055	-200.000	-0.007	0.178
-597.040	-153.207	0.132	0.009
-596.025	47.422	-0.151	-0.140
-595.011	-96.389	-0.124	-0.033
-593.996	558.836	-0.093	0.223
-592.982	-21.194	-0.113	0.069
-591.967	800.000	0.096	-0.292
-590.952	-40.333	0.019	-0.010
-589.938	279.826	0.057	0.101
-588.923	-88.215	-0.197	0.059
-587.909	-1.874	-0.099	-0.069
-586.894	60.055	-0.406	0.399
-585.879	-200.000	0.012	-0.112
-584.865	55.909	0.332	-0.320
-583.850	347.890	-0.286	-0.560
-582.836	139.008	-0.011	0.014
-581.821	-23.208	-0.164	-0.098
-580.806	3.072	0.259	-0.187
-579.792	800.000	0.033	0.094
-578.777	-160.158	0.397	-0.021
-577.763	120.502	-0.260	-0.320
-576.748	-1.678	-0.048	-0.034
-575.733	-170.397	0.217	-0.008
-574.719	336.479	0.095	0.183
-573.704	-200.000	0.013	-0.072
-572.690	67.036	-0.283	-0.286
-571.675	-200.000	0.058	-0.355
-570.661	361.884	-0.109	-0.217
-569.646	573.058	0.082	0.198
-568.631	327.978	-0.107	-0.204
-567.617	800.000	-0.037	0.129
-566.602	-31.868	-0.173	0.096
-565.588	-42.712	-0.326	-0.165
-564.573	-85.995	-0.307	0.094
-563.558	-52.190	0.068	0.031
-562.544	93.400	0.095	0.107
-561.529	37.359	-0.138	0.121
-560.515	-200.000	-0.055	0.321
-559.500	-118.630	0.166	0.029
-558.485	196.374	-0.032	0.048
-557.471	-200.000	0.023	-0.334
-556.456	-84.104	-0.366	0.115
-555.442	800.000	0.016	-0.056
-554.427	212.829	-0.083	-0.129
-553.412	745.468	-0.019	-0.051
-552.398	-74.208	0.131	0.047
-551.383	-100.185	0.129	0.032
-550.369	-120.208	-0.156	0.027
-549.354	-79.701	0.374	-0.125
-548.339	800.000	0.081	-0.232
-547.325	-29.943	-0.149	-0.084
-546.310	-200.000	0.034	0.254
-545.296	-173.784	0.507	-0.015
-544.281	-118.743	0.372	0.065
-543.266	227.855	0.150	-0.242
-542.252	-15.855	-0.216	0.137
-541.237	-200.000	-0.016	-0.106
-540.223	402.683	0.058	0.121
-539.208	-61.381	0.099	0.041
-538.193	-115.665	0.047	-0.009
-537.179	-154.012	0.004	-0.000
-536.164	-200.000	-0.058	0.290
-535.150	24.706	-0.157	-0.129
-534.135	-172.276	0.116	0.004
-533.121	-53.135	0.212	-0.097
-532.106	340.382	0.091	0.177
-531.091	34.408	-0.189	0.164
-530.077	100.719	0.031	-0.036
-529.062	-114.049	0.427	-0.082
-528.048	-121.279	0.198	0.033
-527.033	-200.000	0.016	0.365
-526.018	18.335	-0.119	0.094
-525.004	-200.000	-0.004	0.111
-523.989	10.165	0.039	0.030
-522.975	9.760	-0.269	0.203
-521.960	782.844	-0.125	0.339
-520.945	-200.000	-0.012	0.148
-519.931	158.136	-0.202	0.278
-518.916	237.228	0.053	0.087
-517.902	323.770	-0.163	0.308
-516.887	-52.825	-0.193	-0.088
-515.872	90.322	-0.086	-0.095
-514.858	800.000	0.042	-0.120
-513.843	-35.489	0.338	-0.182
-512.829	-88.836	0.196	0.058
-511.814	39.531	-0.131	0.116
-510.799	38.059	-0.140	-0.123
-509.785	-126.197	-0.461	-0.068
-508.770	-102.927	-0.207	-0.049
-507.756	-200.000	-0.025	-0.328
-506.741	77.628	-0.058	-0.062
-505.726	172.084	-0.140	0.199
-504.712	554.282	0.072	0.172
-503.697	-200.000	-0.015	-0.128
-502.683	797.969	-0.090	-0.247
-501.668	-200.000	0.001	0.098
-500.653	-16.594	0.319	-0.200
-499.639	-140.848	-0.022	0.002
-498.624	-95.698	-0.105	-0.028
-497.610	27.609	0.100	-0.083
-496.595	800.000	-0.148	0.424
-495.581	-65.951	-0.245	0.097
-494.566	800.000	-0.126	0.418
-493.551	-200.000	0.036	0.159
-492.537	-136.671	0.203	-0.023
-491.522	573.749	-0.144	-0.348
-490.508	143.324	0.210	0.277
-489.493	307.986	-0.176	-0.324
-488.478	455.127	0.097	0.213
-487.464	-200.000	0.000	0.434
-486.449	171.462	-0.132	0.188
-485.435	19.487	-0.152	0.121
-484.420	-10.220	-0.244	0.160
-483.405	12.374	0.221	-0.169
-482.391	-65.398	-0.172	0.069
-481.376	800.000	-0.044	0.130
-480.362	723.247	0.078	0.205
-479.347	-200.000	0.008	-0.079
-478.332	441.228	0.072	-0.156
-477.318	-53.238	0.241	0.109
-476.303	-200.000	0.013	-0.113
-475.289	-50.847	-0.192	-0.090
-474.274	8.183	-0.350	0.260
-473.259	269.500	-0.026	0.046
-472.245	162.153	0.121	-0.167
-471.230	209.668	-0.093	-0.144
-470.216	40.012	0.118	0.105
-469.201	-200.000	-0.010	-0.331
-468.186	-14.490	0.066	0.042
-467.172	25.743	0.090	-0.074
-466.157	-78.106	0.202	-0.069
-465.143	342.912	-0.020	0.039
-464.128	-83.039	-0.367	0.117
-463.113	-43.834	0.404	0.201
-462.099	113.482	0.267	0.321
-461.084	-200.000	-0.021	0.271
-460.070	-129.413	-0.242	0.033
-459.055	-136.786	0.156	-0.018
-458.040	419.179	-0.110	0.234
-457.026	301.529	-0.022	-0.039
-456.011	176.890	0.156	-0.225
-454.997	-162.569	0.198	-0.010
-453.982	49.561	0.121	-0.113
-452.968	-200.000	0.009	0.133
-451.953	99.545	0.205	-0.235
-450.938	-163.541	-0.306	0.014
-449.924	7.235	0.170	-0.126
-448.909	800.000	-0.052	-0.149
-447.895	-200.000	0.008	0.260
-446.880	405.281	-0.069	0.144
-445.865	12.878	0.262	0.201
-444.851	-138.433	-0.198	-0.022
-443.836	-104.962	0.269	-0.061
-442.822	-200.000	-0.069	-0.351
-441.807	-85.110	-0.317	0.098
-440.792	592.706	-0.031	-0.075
-439.778	-46.755	-0.207	0.100
-438.763	-103.673	-0.104	0.024
-437.749	243.529	0.173	0.287
-436.734	-200.000	0.008	-0.197
-435.719	433.455	0.101	-0.218
-434.705	800.000	-0.195	-0.608
-433.690	-23.049	-0.124	-0.074
-432.676	-11.862	0.014	-0.009
-431.661	800.000	-0.075	-0.249
-430.646	454.384	0.065	-0.143
-429.632	185.171	0.116	-0.170
-428.617	722.883	0.087	-0.230
-427.603	-200.000	0.004	0.072
-426.588	800.000	0.039	-0.149
-425.573	-79.290	-0.089	-0.030
-424.559	-73.970	0.154	0.055
-423.544	800.000	-0.038	-0.105
-422.530	163.692	-0.098	0.137
-421.515	388.552	-0.148	-0.302
-420.500	24.161	-0.181	-0.148
-419.486	-26.496	-0.070	0.040
-418.471	66.854	0.099	0.100
-417.457	304.460	-0.123	0.225
-416.442	235.498	0.079	0.129
-415.428	398.645	-0.097	0.200
-414.413	137.389	-0.198	-0.256
-413.398	-58.699	-0.180	-0.077
-412.384	-200.000	-0.003	0.088
-411.369	-41.563	-0.380	-0.193
-410.355	-122.564	0.173	0.028
-409.340	44.193	0.198	0.180
-408.325	570.399	0.032	0.077
-407.311	-166.942	0.356	0.014
-406.296	-151.692	-0.359	-0.026
-405.282	800.000	-0.142	0.417
-404.267	284.640	0.237	-0.422
-403.252	-162.616	0.131	-0.006
-402.238	474.013	-0.101	-0.225
-401.223	-3.243	-0.235	-0.162
-400.209	-200.000	0.020	-0.418
-399.194	37.833	-0.098	0.086
-398.179	-42.342	0.226	0.114
-397.165	-200.000	-0.034	0.531
-396.150	209.128	-0.049	0.076
-395.136	307.778	0.042	-0.077
-394.121	42.195	-0.057	-0.051
-393.106	-200.000	-0.007	-0.151
-392.092	91.181	-0.135	-0.150
-391.077	-148.325	0.396	-0.032
-390.063	-200.000	-0.045	-0.250
-389.048	85.401	-0.036	0.039
-388.033	800.000	-0.022	0.088
-387.019	-62.755	0.170	-0.070
-386.004	-50.070	-0.384	0.179
-384.990	-147.697	-0.367	-0.030
-383.975	-53.650	-0.022	-0.010
-382.960	273.887	0.113	-0.197
-381.946	800.000	-0.173	-0.472
-380.931	-200.000	-0.053	-0.323
-379.917	800.000	0.074	-0.247
-378.902	70.910	-0.246	-0.251
-377.888	196.933	0.093	0.139
-376.873	-36.043	-0.354	-0.189
-375.858	-152.500	-0.142	0.010
-374.844	-164.705	0.117	0.005
-373.829	-200.000	-0.002	-0.163
-372.815	108.251	-0.130	0.152
-371.800	703.864	0.064	0.166
-370.785	92.516	-0.260	-0.289
-369.771	-74.210	0.126	-0.045
-368.756	-67.706	0.056	0.022
-367.742	-99.632	-0.114	0.028
-366.727	14.166	-0.317	0.244
-365.712	-86.587	-0.214	0.065
-364.698	-200.000	0.167	0.001
-363.683	2.334	0.316	-0.225
-362.669	246.509	0.361	0.600
-361.654	-174.096	-0.220	0.006
-360.639	800.000	0.063	0.241
-359.625	6.414	0.143	0.105
-358.610	200.360	-0.058	0.088
-357.596	-106.960	-0.138	0.030
-356.581	68.547	0.124	-0.125
-355.566	113.020	-0.106	-0.127
-354.552	800.000	-0.054	-0.170
-353.537	91.963	0.160	0.178
-352.523	-200.000	-0.033	0.146
-351.508	-30.713	0.141	-0.079
-350.493	-200.000	0.023	-0.255
-349.479	-150.587	-0.096	0.007
-348.464	-200.000	0.045	0.276
-347.450	300.120	-0.138	0.251
-346.435	-29.447	-0.048	0.027
-345.420	-57.580	0.067	-0.029
-344.406	-200.000	-0.003	-0.186
-343.391	39.682	0.156	-0.138
-342.377	-200.000	0.015	0.085
-341.362	-89.301	0.400	-0.116
-340.348	800.000	0.099	-0.317
-339.333	-160.513	0.105	-0.006
-338.318	52.259	-0.119	0.112
-337.304	-167.433	-0.161	0.006
-336.289	103.079	0.103	-0.119
-335.275	436.021	-0.031	-0.067
-334.260	-108.781	-0.360	0.076
-333.245	271.546	0.081	0.141
-332.231	-49.570	-0.137	0.064
-331.216	54.192	0.110	0.104
-330.202	-200.000	-0.036	0.182
-329.187	-116.293	0.108	-0.020
-328.172	-94.371	0.272	0.073
-327.158	-70.959	-0.405	-0.150
-326.143	-34.134	-0.211	0.114
-325.129	485.751	-0.120	0.268
-324.114	-200.000	-0.000	0.244
-323.099	102.568	-0.188	-0.217
-322.085	98.502	0.027	-0.031
-321.070	-17.279	0.354	-0.219
-320.056	133.492	0.089	0.114
-319.041	800.000	0.016	0.067
-318.026	-96.473	-0.196	0.051
-317.012	-131.277	-0.335	0.044
-315.997	249.581	0.145	0.242
-314.983	800.000	0.070	0.273
-313.968	-130.368	0.154	-0.021
-312.953	25.867	0.151	-0.124
-311.939	48.063	0.057	-0.053
-310.924	439.478	0.088	0.189
-309.910	-108.015	-0.021	0.004
-308.895	403.369	-0.092	-0.189
-307.880	93.051	-0.120	0.133
-306.866	-38.931	0.105	-0.054
-305.851	-60.293	0.119	0.050
-304.837	-200.000	0.015	0.163
-303.822	72.280	0.193	-0.198
-302.807	-78.730	-0.074	-0.025
-301.793	67.351	0.173	-0.174
-300.778	-200.000	-0.010	-0.344
-299.764	14.327	-0.385	-0.296
-298.749	149.855	0.182	-0.242
-297.735	800.000	0.038	0.161
-296.720	800.000	-0.118	0.344
-295.705	167.145	0.348	-0.486
-294.691	51.292	-0.124	-0.116
-293.676	59.393	0.179	0.174
-292.662	-6.895	-0.082	0.055
-291.647	98.531	-0.186	0.211
-290.632	-62.979	0.134	0.054
-289.618	-38.410	-0.038	0.020
-288.603	87.559	0.073	-0.079
-287.589	261.387	0.153	0.261
-286.574	-76.491	-0.133	0.046
-285.559	28.938	-0.140	0.117
-284.545	-52.623	0.371	-0.168
-283.530	-200.000	-0.017	-0.107
-282.516	-64.726	0.239	-0.095
-281.501	-27.803	-0.351	-0.200
-280.486	-65.580	0.020	-0.008
-279.472	553.372	-0.122	0.289
-278.457	57.667	0.158	0.152
-277.443	-200.000	0.004	-0.121
-276.428	44.833	0.086	-0.078
-275.413	567.202	-0.062	0.147
-274.399	320.051	-0.107	0.199
-273.384	441.375	0.059	-0.126
-272.370	264.640	0.083	-0.143
-271.355	800.000	0.046	0.163
-270.340	-51.933	-0.255	-0.116
-269.326	-58.288	-0.315	-0.134
-268.311	127.667	0.047	-0.058
-267.297	-80.777	-0.183	-0.060
-266.282	-160.876	-0.194	0.010
-265.267	-200.000	-0.054	-0.432
-264.253	84.037	0.164	-0.176
-263.238	800.000	0.125	0.388
-262.224	-200.000	-0.373	-0.002
-261.209	-171.228	-0.386	0.013
-260.195	-21.725	0.116	-0.069
-259.180	800.000	-0.070	-0.223
-258.165	166.598	-0.102	-0.142
-257.151	613.396	0.024	0.059
-256.136	81.051	-0.027	0.028
-255.122	485.934	-0.073	-0.162
-254.107	136.792	0.153	0.196
-253.092	60.657	-0.054	0.052
-252.078	140.348	-0.255	0.330
-251.063	-200.000	0.001	0.070
-250.049	-116.965	0.270	-0.048
-249.034	-200.000	0.028	-0.189
-248.019	70.081	-0.093	-0.095
-247.005	-200.000	0.022	0.124
-245.990	-54.396	-0.036	0.016
-244.976	-200.000	-0.017	0.080
-243.961	-200.000	-0.000	-0.116
-242.946	189.963	0.233	0.343
-241.932	-99.414	0.151	0.037
-240.917	-19.283	0.273	-0.166
-239.903	444.169	0.090	-0.194
-238.888	49.496	-0.110	0.102
-237.873	41.421	0.100	0.089
-236.859	-17.218	0.216	0.134
-235.844	59.966	-0.168	0.163
-234.830	-200.000	-0.036	-0.210
-233.815	34.647	0.212	-0.182
-232.800	-94.579	-0.448	0.120
-231.786	-200.000	-0.033	0.173
-230.771	-10.373	0.131	0.085
-229.757	0.504	0.131	-0.092
-228.742	181.216	-0.123	-0.178
-227.727	328.923	-0.086	0.163
-226.713	-78.497	-0.069	0.023
-225.698	-200.000	0.043	0.225
-224.684	-74.367	0.166	0.059
-223.669	-121.941	-0.368	-0.059
-222.655	-200.000	-0.012	-0.223
-221.640	-109.169	0.018	-0.004
-220.625	-157.131	-0.477	-0.028
-219.611	-113.312	-0.273	0.053
-218.596	-88.724	0.287	-0.083
-217.582	439.996	-0.089	0.190
-216.567	-59.854	0.176	-0.074
-215.552	-77.479	0.278	-0.094
-214.538	479.087	-0.049	0.109
-213.523	-200.000	0.055	0.398
-212.509	-200.000	-0.076	0.336
-211.494	645.069	0.069	0.172
-210.479	172.597	0.079	-0.111
-209.465	6.337	0.298	0.217
-208.450	-185.053	-0.339	0.005
-207.436	-54.917	0.192	0.085
-206.421	401.038	-0.042	0.087
-205.406	800.000	-0.030	0.120
-204.392	454.409	0.024	-0.053
-203.377	117.548	0.070	-0.084
-202.363	-127.486	0.008	0.001
-201.348	261.431	-0.017	0.028
-200.333	243.753	-0.132	-0.217
-199.319	-186.599	0.073	0.001
-198.304	450.734	0.133	0.287
-197.290	-77.733	-0.355	0.120
-196.275	-200.000	0.059	-0.312
-195.260	-31.804	0.205	-0.112
-194.246	-64.039	0.121	0.048
-193.231	-165.311	0.286	-0.012
-192.217	-200.000	-0.019	0.161
-191.202	-46.977	-0.064	-0.030
-190.187	84.757	-0.017	0.018
-189.173	-78.783	-0.121	-0.040
-188.158	-40.781	-0.114	-0.058
-187.144	22.127	0.113	0.090
-186.129	-108.873	0.350	0.073
-185.114	50.839	0.422	0.392
-184.100	-45.146	0.394	-0.192
-183.085	52.722	-0.217	0.203
-182.071	-30.655	0.081	0.045
-181.056	57.827	0.084	0.081
-180.042	693.680	-0.038	0.097
-179.027	156.663	0.212	0.287
-178.012	-122.368	0.313	-0.050
-176.998	540.732	0.227	0.528
-175.983	493.007	0.186	-0.417
-174.969	-75.233	0.245	-0.086
-173.954	-144.122	-0.406	0.037
-172.939	-83.240	-0.493	0.155
-171.925	-140.759	0.355	0.036
-170.910	-200.000	0.023	0.332
-169.896	36.272	-0.111	0.096
-168.881	-200.000	0.059	-0.288
-167.866	-40.451	-0.391	-0.199
-166.852	36.305	0.168	-0.145
-165.837	24.830	0.253	0.205
-164.823	87.815	-0.177	-0.192
-163.808	127.025	0.322	0.400
-162.793	800.000	0.114	-0.355
-161.779	82.438	-0.091	-0.097
-160.764	-158.287	0.269	-0.015
-159.750	800.000	0.050	0.176
-158.735	178.027	0.091	-0.130
-157.720	-2.057	0.067	-0.046
-156.706	108.088	-0.072	0.084
-155.691	-39.308	0.151	-0.077
-154.677	122.576	0.098	0.120
-153.662	246.007	0.163	-0.268
-152.647	28.990	0.318	0.264
-151.633	-154.056	0.259	-0.017
-150.618	-186.749	-0.128	0.002
-149.604	-1.738	0.145	0.100
-148.589	-96.198	0.346	0.090
-147.574	171.796	0.164	0.231
-146.560	800.000	0.083	-0.270
-145.545	-200.000	0.003	-0.408
-144.531	800.000	-0.008	0.029
-143.516	126.650	-0.189	-0.234
-142.502	-200.000	0.008	-0.126
-141.487	-200.000	0.005	-0.149
-140.472	442.063	0.034	-0.074
-139.458	-54.973	-0.236	0.104
-138.443	-136.577	-0.265	-0.030
-137.429	800.000	-0.070	0.295
-136.414	48.740	0.262	0.241
-135.399	-30.709	-0.160	0.089
-134.385	-102.113	0.229	-0.054
-133.370	-109.494	0.318	-0.066
-132.356	108.186	-0.177	0.206
-131.341	-200.000	0.053	0.340
-130.326	250.181	0.107	0.177
-129.312	348.453	0.105	-0.202
-128.297	-200.000	-0.023	-0.336
-127.283	102.072	-0.105	0.119
-126.268	-200.000	-0.009	0.235
-125.253	-200.000	0.002	0.125
-124.239	-170.615	0.280	0.009
-123.224	800.000	0.061	-0.171
-122.210	-148.152	-0.031	0.002
-121.195	-200.000	0.165	-0.001
