DTS Sentinel unit serial number:	SN413079Multiplexer serial number:	ORYXHardware model number:	OX4-SRSoftware version number:	ORYX F/W v4.00 Oryx Data Collector v3.7.2.0data status	okinstallation	princeton_trtdifferential loss correction	single-endedforward channel	channel 3reverse channel	N/Adate	2019/09/14time	05:48:35forward acquisition time	60.00reverse acquisition time	0.00gamma	496.2192k internal	0.2337k external	0.2337temperature offset calibration	1.0057default loss term (dB/km)	0.3790temperature slope calibration	1.0000multiplexer offset coefficient	1.0000multiplexer slope coefficient	1.0000fibre end	0.00T internal ref (°C)	26.89T ext. ref 1 (°C)	3.40T ext. ref 2 (°C)	21.49length (m)	temperature (°C)	Stokes	anti-Stokes-747.200	246.755	0.087	0.148
-746.185	-105.996	-0.322	-0.073
-745.171	-200.000	-0.006	-0.328
-744.156	130.422	-0.033	0.042
-743.142	-189.311	-0.106	0.001
-742.127	-200.000	-0.197	-0.001
-741.112	-29.317	0.209	-0.120
-740.098	-175.656	-0.137	-0.004
-739.083	67.544	-0.210	0.215
-738.069	-3.786	-0.366	0.255
-737.054	379.006	-0.130	0.267
-736.039	-132.073	-0.407	0.053
-735.025	-18.725	0.103	0.064
-734.010	-200.000	-0.040	-0.187
-732.996	5.532	-0.167	-0.124
-731.981	56.547	-0.124	0.121
-730.966	-73.424	0.442	0.162
-729.952	-187.146	-0.325	-0.004
-728.937	800.000	-0.099	0.311
-727.923	45.946	0.300	0.278
-726.908	-200.000	0.004	-0.178
-725.894	490.504	0.042	0.096
-724.879	-200.000	0.020	-0.185
-723.864	34.899	0.305	0.267
-722.850	143.163	-0.192	0.256
-721.835	800.000	-0.074	0.221
-720.821	143.623	-0.119	-0.159
-719.806	-36.834	0.085	0.046
-718.791	-200.000	0.042	0.192
-717.777	102.151	0.148	-0.174
-716.762	195.142	-0.049	0.074
-715.748	-57.214	-0.131	-0.058
-714.733	137.442	-0.094	-0.123
-713.718	-200.000	-0.080	-0.405
-712.704	191.293	-0.147	-0.221
-711.689	-200.000	0.060	0.438
-710.675	800.000	0.069	-0.278
-709.660	800.000	-0.059	-0.174
-708.645	-43.980	0.084	-0.042
-707.631	-107.497	0.318	0.070
-706.616	37.953	0.156	-0.139
-705.602	-6.894	0.234	0.160
-704.587	-19.001	-0.214	-0.133
-703.572	-101.073	0.137	0.034
-702.558	-163.639	-0.193	0.009
-701.543	-54.475	0.063	-0.028
-700.529	-126.009	-0.114	0.017
-699.514	-86.609	0.198	-0.061
-698.499	-133.011	-0.181	0.023
-697.485	-130.270	-0.209	-0.028
-696.470	-125.160	-0.196	0.030
-695.456	-177.747	0.220	0.005
-694.441	260.231	0.114	-0.197
-693.426	349.915	-0.058	0.115
-692.412	-54.503	-0.126	0.057
-691.397	-169.760	-0.181	-0.007
-690.383	-170.419	0.261	-0.009
-689.368	29.419	-0.218	-0.186
-688.354	398.830	0.137	-0.288
-687.339	-106.622	-0.079	-0.018
-686.324	-91.334	-0.070	-0.020
-685.310	-170.962	-0.286	0.010
-684.295	-200.000	-0.000	0.112
-683.281	-128.339	-0.187	0.027
-682.266	-38.577	0.136	-0.072
-681.251	299.151	0.125	-0.231
-680.237	-79.593	-0.355	0.120
-679.222	5.839	-0.113	-0.084
-678.208	169.171	-0.119	0.170
-677.193	-200.000	0.039	-0.192
-676.178	20.783	-0.190	-0.154
-675.164	800.000	0.026	-0.080
-674.149	-200.000	-0.029	-0.156
-673.135	45.830	0.200	-0.185
-672.120	-47.040	-0.151	-0.074
-671.105	34.605	-0.110	0.096
-670.091	-200.000	0.219	-0.001
-669.076	-47.105	-0.132	-0.064
-668.062	800.000	0.048	0.165
-667.047	-117.891	-0.135	0.024
-666.032	76.676	0.089	-0.094
-665.018	-164.591	-0.104	0.005
-664.003	40.725	0.110	0.099
-662.989	-100.571	-0.338	-0.084
-661.974	8.288	-0.123	-0.092
-660.959	800.000	0.022	0.091
-659.945	13.799	-0.096	0.075
-658.930	788.382	-0.036	0.100
-657.916	65.020	0.068	-0.069
-656.901	-104.102	-0.049	-0.011
-655.886	-200.000	0.000	-0.228
-654.872	266.893	-0.050	-0.088
-653.857	-200.000	-0.027	-0.370
-652.843	-102.640	-0.102	0.024
-651.828	800.000	0.048	-0.138
-650.814	-119.736	0.144	-0.025
-649.799	44.286	0.078	-0.072
-648.784	-48.269	-0.235	-0.113
-647.770	800.000	0.057	-0.215
-646.755	635.168	-0.062	-0.157
-645.741	-103.031	-0.186	-0.044
-644.726	800.000	0.077	-0.226
-643.711	79.348	-0.142	0.153
-642.697	-95.597	0.119	-0.032
-641.682	-20.186	-0.164	-0.101
-640.668	-65.131	-0.260	-0.105
-639.653	-187.374	-0.159	0.002
-638.638	-69.452	0.177	-0.068
-637.624	800.000	-0.040	0.149
-636.609	-136.922	0.219	-0.025
-635.595	155.313	-0.077	-0.106
-634.580	-200.000	0.031	-0.378
-633.565	245.861	-0.024	-0.041
-632.551	800.000	-0.080	-0.267
-631.536	-131.666	-0.328	-0.043
-630.522	46.708	0.101	0.094
-629.507	800.000	-0.062	-0.212
-628.492	153.507	0.107	-0.147
-627.478	50.126	-0.078	0.074
-626.463	55.738	-0.047	-0.045
-625.449	57.079	0.134	0.131
-624.434	419.207	-0.062	-0.133
-623.419	384.020	-0.083	-0.170
-622.405	-113.120	0.259	-0.051
-621.390	745.632	-0.053	-0.142
-620.376	-42.565	-0.235	-0.120
-619.361	63.838	0.071	-0.071
-618.346	188.438	0.097	0.145
-617.332	44.704	-0.138	0.127
-616.317	52.792	0.145	0.138
-615.303	-143.694	-0.154	0.015
-614.288	-52.011	0.152	-0.071
-613.273	-27.002	0.206	0.120
-612.259	74.896	0.066	-0.070
-611.244	-93.132	-0.404	-0.112
-610.230	50.350	-0.092	-0.087
-609.215	311.913	0.041	-0.077
-608.201	-129.833	-0.270	0.037
-607.186	-129.317	-0.413	0.057
-606.171	-200.000	0.006	0.126
-605.157	587.800	0.061	-0.150
-604.142	-200.000	-0.008	0.147
-603.128	508.497	0.048	-0.110
-602.113	-148.907	-0.449	-0.036
-601.098	-187.296	-0.301	0.004
-600.084	-133.772	0.131	-0.016
-599.069	44.834	0.155	-0.142
-598.055	-200.000	-0.001	-0.335
-597.040	142.749	-0.213	-0.283
-596.025	800.000	-0.052	0.182
-595.011	603.336	0.112	-0.279
-593.996	484.544	0.103	-0.234
-592.982	21.978	-0.129	0.105
-591.967	800.000	0.102	0.303
-590.952	76.809	-0.023	-0.025
-589.938	-200.000	0.010	-0.156
-588.923	-177.074	-0.359	0.009
-587.909	800.000	-0.020	0.073
-586.894	279.827	0.123	-0.219
-585.879	-71.233	0.259	-0.097
-584.865	-200.000	0.002	-0.091
-583.850	-18.846	0.216	-0.134
-582.836	200.001	0.201	-0.307
-581.821	60.695	0.338	-0.334
-580.806	-200.000	-0.013	0.099
-579.792	299.163	-0.135	-0.248
-578.777	-200.000	-0.022	-0.138
-577.763	-200.000	0.020	0.118
-576.748	-102.014	0.039	0.009
-575.733	486.989	0.040	0.091
-574.719	168.482	0.221	0.314
-573.704	-142.409	-0.275	0.027
-572.690	37.956	-0.286	0.254
-571.675	-200.000	-0.007	-0.074
-570.661	-133.197	0.352	0.044
-569.646	94.065	0.133	0.151
-568.631	658.591	0.025	-0.063
-567.617	36.254	-0.060	-0.053
-566.602	-200.000	0.020	-0.244
-565.588	-145.736	-0.185	0.016
-564.573	-200.000	0.035	0.195
-563.558	-35.084	-0.101	0.055
-562.544	4.393	-0.183	0.134
-561.529	-19.120	-0.078	0.048
-560.515	85.863	-0.093	-0.102
-559.500	67.163	-0.232	-0.236
-558.485	-200.000	-0.006	0.106
-557.471	19.433	-0.045	-0.036
-556.456	518.466	0.122	-0.285
-555.442	800.000	0.082	0.348
-554.427	535.091	0.195	0.460
-553.412	-50.357	-0.071	0.034
-552.398	243.879	0.038	-0.064
-551.383	-169.661	-0.316	-0.011
-550.369	-117.487	0.488	-0.088
-549.354	800.000	-0.019	-0.064
-548.339	-200.000	-0.044	0.474
-547.325	133.155	-0.100	0.129
-546.310	-143.627	-0.187	-0.018
-545.296	-62.483	0.250	0.104
-544.281	-200.000	-0.027	-0.223
-543.266	337.741	-0.073	0.141
-542.252	-188.939	0.252	0.003
-541.237	-33.737	0.045	-0.025
-540.223	48.415	0.018	0.017
-539.208	430.954	0.133	0.286
-538.193	-136.355	-0.273	-0.032
-537.179	800.000	-0.022	-0.069
-536.164	-136.228	0.177	-0.021
-535.150	-58.705	-0.166	0.072
-534.135	-24.421	0.108	-0.064
-533.121	-71.096	-0.182	-0.068
-532.106	-117.518	-0.058	-0.010
-531.091	597.749	0.066	0.164
-530.077	76.446	0.102	0.107
-529.062	238.272	0.124	0.204
-528.048	-110.978	-0.111	0.023
-527.033	-149.356	0.116	0.009
-526.018	-200.000	-0.024	-0.205
-525.004	800.000	-0.077	-0.247
-523.989	-105.859	-0.045	0.010
-522.975	553.775	-0.030	0.071
-521.960	-26.440	-0.077	-0.045
-520.945	19.735	-0.072	0.058
-519.931	-76.643	0.229	0.080
-518.916	-156.155	-0.322	-0.020
-517.902	-23.205	-0.064	0.038
-516.887	35.823	-0.231	-0.202
-515.872	-135.746	-0.227	-0.027
-514.858	-72.503	0.344	-0.126
-513.843	241.786	-0.201	0.334
-512.829	-200.000	-0.018	0.143
-511.814	-175.885	0.254	0.007
-510.799	118.490	-0.184	0.226
-509.785	8.167	-0.115	-0.086
-508.770	214.104	-0.231	-0.364
-507.756	-44.118	-0.146	0.073
-506.741	513.017	0.056	0.131
-505.726	800.000	0.063	-0.260
-504.712	-43.899	-0.329	-0.165
-503.697	-168.663	0.281	-0.011
-502.683	-99.317	-0.094	-0.024
-501.668	-83.143	0.029	-0.009
-500.653	55.209	0.318	0.306
-499.639	82.311	0.175	-0.189
-498.624	800.000	-0.009	0.033
-497.610	205.853	0.140	0.216
-496.595	-46.628	0.249	-0.121
-495.581	401.568	0.120	-0.251
-494.566	-10.165	-0.196	0.130
-493.551	-51.933	0.137	0.063
-492.537	6.909	-0.163	-0.121
-491.522	579.792	-0.152	-0.371
-490.508	-200.000	-0.012	0.232
-489.493	-117.144	0.255	-0.046
-488.478	-72.282	0.037	-0.014
-487.464	68.769	-0.275	-0.280
-486.449	-72.933	0.132	-0.048
-485.435	54.429	-0.127	-0.122
-484.420	-143.493	0.329	-0.031
-483.405	-67.154	-0.238	0.093
-482.391	-72.733	-0.175	-0.064
-481.376	-200.000	-0.010	-0.098
-480.362	-22.146	-0.177	-0.107
-479.347	800.000	0.048	-0.174
-478.332	195.250	0.050	-0.075
-477.318	157.191	0.194	0.266
-476.303	-200.000	0.017	0.162
-475.289	395.718	0.094	0.194
-474.274	800.000	0.094	0.280
-473.259	800.000	-0.064	0.238
-472.245	20.825	0.212	-0.170
-471.230	800.000	-0.028	0.104
-470.216	169.137	-0.078	0.110
-469.201	-79.529	-0.128	-0.043
-468.186	800.000	0.100	0.285
-467.172	326.756	0.032	0.061
-466.157	-5.672	-0.342	-0.233
-465.143	34.310	-0.282	-0.245
-464.128	162.632	0.178	-0.249
-463.113	88.553	-0.274	0.303
-462.099	46.439	-0.348	-0.321
-461.084	621.306	0.082	-0.205
-460.070	-16.245	-0.252	0.159
-459.055	133.826	0.112	0.144
-458.040	195.734	-0.156	0.235
-457.026	426.034	0.296	0.632
-456.011	-99.792	-0.175	0.044
-454.997	-200.000	-0.007	-0.116
-453.982	-7.489	0.208	-0.140
-452.968	800.000	0.050	0.170
-451.953	19.750	0.104	0.083
-450.938	-200.000	0.002	0.050
-449.924	-200.000	0.019	0.162
-448.909	800.000	0.067	0.208
-447.895	397.953	-0.116	0.240
-446.880	164.669	0.075	0.105
-445.865	-0.946	0.208	0.146
-444.851	-97.869	0.254	0.065
-443.836	-15.069	-0.073	-0.046
-442.822	-200.000	-0.004	0.101
-441.807	9.597	0.168	-0.126
-440.792	800.000	-0.031	-0.129
-439.778	-137.214	-0.186	0.021
-438.763	129.235	0.145	-0.183
-437.749	248.482	0.062	-0.105
-436.734	41.145	0.280	0.251
-435.719	800.000	0.041	-0.159
-434.705	43.703	0.113	0.102
-433.690	-200.000	0.021	-0.286
-432.676	35.977	0.149	0.130
-431.661	-117.508	-0.121	-0.022
-430.646	-0.514	-0.021	-0.015
-429.632	94.851	-0.088	0.099
-428.617	-200.000	-0.011	-0.105
-427.603	35.202	-0.035	0.031
-426.588	-138.641	0.181	0.020
-425.573	-200.000	-0.020	0.327
-424.559	-200.000	0.009	-0.098
-423.544	50.085	0.321	0.300
-422.530	676.974	0.026	-0.066
-421.515	-109.603	-0.212	-0.044
-420.500	-60.673	-0.281	-0.118
-419.486	416.741	-0.150	0.318
-418.471	-64.967	-0.136	-0.054
-417.457	-200.000	-0.014	0.100
-416.442	361.811	0.070	-0.140
-415.428	308.002	-0.016	0.029
-414.413	-21.098	0.127	0.077
-413.398	-97.813	0.417	0.107
-412.384	102.667	0.018	0.021
-411.369	800.000	-0.080	-0.231
-410.355	-84.777	-0.180	0.056
-409.340	-108.229	-0.372	0.080
-408.325	194.958	-0.081	-0.122
-407.311	-200.000	0.051	0.272
-406.296	-200.000	-0.044	-0.327
-405.282	-123.976	0.197	-0.031
-404.267	-159.924	-0.218	-0.012
-403.252	-200.000	0.006	-0.069
-402.238	-117.587	0.118	-0.021
-401.223	-41.810	-0.112	-0.057
-400.209	1.074	0.234	0.166
-399.194	-83.192	0.123	0.039
-398.179	100.197	-0.261	0.300
-397.165	-80.500	-0.155	-0.051
-396.150	371.566	0.125	-0.251
-395.136	-66.451	-0.161	0.063
-394.121	-98.363	0.124	-0.032
-393.106	-200.000	0.022	0.179
-392.092	-93.246	-0.017	0.005
-391.077	-80.275	-0.159	0.053
-390.063	-200.000	0.074	0.369
-389.048	77.299	-0.208	0.219
-388.033	-191.816	0.159	0.002
-387.019	148.166	-0.079	0.106
-386.004	458.119	-0.003	0.006
-384.990	-49.924	0.349	-0.164
-383.975	800.000	0.002	-0.007
-382.960	409.438	0.059	-0.123
-381.946	52.668	-0.310	-0.293
-380.931	-109.118	-0.094	-0.020
-379.917	800.000	0.110	-0.345
-378.902	421.034	-0.098	-0.207
-377.888	256.956	-0.179	0.304
-376.873	-44.196	0.243	-0.120
-375.858	-32.292	0.126	0.070
-374.844	-200.000	-0.027	0.233
-373.829	800.000	0.086	0.284
-372.815	-54.540	0.487	-0.218
-371.800	-200.000	-0.046	-0.283
-370.785	74.415	-0.041	0.043
-369.771	154.878	0.010	0.014
-368.756	482.552	-0.060	-0.135
-367.742	83.059	0.056	0.060
-366.727	-130.446	0.270	0.036
-365.712	137.554	0.132	-0.171
-364.698	-200.000	-0.039	-0.250
-363.683	-45.821	-0.215	0.105
-362.669	65.289	-0.086	-0.086
-361.654	-98.696	-0.343	-0.087
-360.639	173.913	0.139	0.199
-359.625	752.986	0.088	0.236
-358.610	234.445	-0.092	0.150
-357.596	-200.000	0.047	0.206
-356.581	-43.793	-0.169	-0.084
-355.566	60.030	-0.140	-0.137
-354.552	207.708	-0.063	-0.098
-353.537	408.597	0.068	0.142
-352.523	-66.134	0.251	-0.099
-351.508	-46.125	0.241	0.117
-350.493	-45.244	0.179	-0.088
-349.479	104.020	0.146	0.170
-348.464	77.933	0.182	0.192
-347.450	-136.688	0.315	-0.036
-346.435	-32.543	0.240	0.132
-345.420	78.084	-0.222	-0.234
-344.406	-133.207	0.103	-0.013
-343.391	-85.656	0.197	-0.060
-342.377	42.224	-0.158	-0.142
-341.362	15.470	-0.267	0.207
-340.348	-38.132	-0.239	0.125
-339.333	113.047	0.264	0.316
-338.318	-136.538	-0.302	0.035
-337.304	800.000	0.054	0.161
-336.289	-200.000	-0.026	-0.363
-335.275	220.106	0.093	0.147
-334.260	202.803	0.194	-0.296
-333.245	223.333	0.246	-0.392
-332.231	-83.785	0.236	-0.074
-331.216	783.552	-0.022	-0.059
-330.202	-81.626	-0.227	0.074
-329.187	-64.964	-0.080	0.032
-328.172	23.668	-0.127	-0.103
-327.158	-143.620	-0.096	-0.009
-326.143	152.674	0.027	0.037
-325.129	-104.491	-0.288	-0.066
-324.114	22.813	0.061	0.049
-323.099	-124.508	-0.205	0.032
-322.085	423.429	-0.095	0.201
-321.070	-27.607	0.035	0.020
-320.056	40.206	0.176	0.156
-319.041	-146.359	0.293	-0.025
-318.026	87.937	0.067	0.074
-317.012	-59.389	0.079	-0.034
-315.997	127.005	-0.076	-0.095
-314.983	41.014	0.251	-0.224
-313.968	-48.717	-0.362	-0.171
-312.953	40.689	-0.118	0.105
-311.939	800.000	-0.032	-0.112
-310.924	-200.000	0.008	-0.085
-309.910	-66.926	0.168	0.065
-308.895	211.675	-0.058	0.090
-307.880	-74.691	-0.332	-0.118
-306.866	-141.947	-0.288	-0.028
-305.851	-200.000	0.009	-0.117
-304.837	-200.000	0.028	0.400
-303.822	-200.000	0.015	-0.070
-302.807	-29.117	-0.400	-0.226
-301.793	-163.127	0.374	0.018
-300.778	164.443	0.058	0.081
-299.764	-12.737	-0.083	-0.053
-298.749	-77.680	0.289	-0.099
-297.735	-32.629	-0.273	0.150
-296.720	-148.092	0.229	0.019
-295.705	-135.072	-0.185	0.022
-294.691	-64.472	0.305	-0.122
-293.676	7.339	0.029	0.021
-292.662	-165.802	-0.270	0.011
-291.647	-200.000	0.086	-0.381
-290.632	77.944	0.066	0.069
-289.618	172.085	-0.066	-0.094
-288.603	-83.958	0.185	0.058
-287.589	-24.719	0.171	0.100
-286.574	-200.000	-0.019	-0.084
-285.559	-60.689	0.302	-0.126
-284.545	288.710	-0.085	0.151
-283.530	-200.000	0.017	-0.152
-282.516	50.682	-0.175	-0.163
-281.501	-6.930	0.076	0.051
-280.486	-200.000	-0.082	0.409
-279.472	-41.622	0.285	-0.144
-278.457	-65.282	-0.253	-0.100
-277.443	-58.215	0.110	0.047
-276.428	21.291	-0.032	-0.025
-275.413	-64.138	-0.186	0.075
-274.399	184.739	-0.097	-0.141
-273.384	-19.581	0.184	0.112
-272.370	-7.724	-0.228	-0.151
-271.355	-46.457	0.416	0.201
-270.340	568.441	0.059	0.142
-269.326	-81.618	0.190	0.061
-268.311	69.079	0.125	0.126
-267.297	800.000	0.045	-0.174
-266.282	800.000	0.074	-0.279
-265.267	-12.313	0.298	0.192
-264.253	508.837	-0.093	-0.213
-263.238	349.874	-0.019	0.038
-262.224	28.385	-0.315	0.262
-261.209	-200.000	-0.006	-0.050
-260.195	-130.806	0.294	0.039
-259.180	-29.909	0.237	-0.133
-258.165	-81.494	-0.048	0.015
-257.151	-200.000	0.046	0.480
-256.136	-171.112	-0.381	-0.013
-255.122	-110.230	-0.078	0.016
-254.107	455.915	0.081	-0.177
-253.092	-33.236	-0.090	0.049
-252.078	-200.000	0.019	0.286
-251.063	-63.214	-0.173	-0.070
-250.049	800.000	-0.076	-0.219
-249.034	43.082	0.238	0.214
-248.019	97.871	0.144	0.163
-247.005	-41.908	-0.292	0.147
-245.990	-153.550	-0.241	-0.016
-244.976	-86.931	0.226	-0.068
-243.961	-200.000	0.016	-0.127
-242.946	-149.196	0.394	-0.031
-241.932	-200.000	0.018	0.104
-240.917	-85.338	-0.151	0.046
-239.903	-31.821	0.257	-0.142
-238.888	-41.458	-0.124	0.063
-237.873	-200.000	0.018	0.263
-236.859	800.000	-0.074	0.307
-235.844	215.311	0.330	0.516
-234.830	-200.000	0.060	-0.386
-233.815	-63.715	-0.137	-0.055
-232.800	-113.388	-0.148	-0.029
-231.786	-119.817	0.428	-0.072
-230.771	75.080	0.057	-0.059
-229.757	-87.061	0.151	-0.045
-228.742	-106.650	-0.032	-0.007
-227.727	-200.000	0.009	-0.081
-226.713	-16.329	0.197	-0.123
-225.698	-125.378	-0.301	-0.045
-224.684	257.257	-0.061	0.102
-223.669	-48.377	0.047	-0.022
-222.655	800.000	-0.043	0.127
-221.640	20.194	-0.311	0.247
-220.625	220.841	0.134	0.211
-219.611	-5.218	-0.079	-0.053
-218.596	50.196	0.144	0.133
-217.582	333.810	-0.018	0.035
-216.567	687.188	0.028	-0.071
-215.552	-14.015	0.227	0.144
-214.538	-61.033	-0.102	0.043
-213.523	272.958	-0.102	0.177
-212.509	800.000	0.052	0.199
-211.494	61.458	0.161	0.158
-210.479	-200.000	0.028	0.140
-209.465	-200.000	0.069	-0.332
-208.450	-200.000	-0.028	0.267
-207.436	-57.324	-0.312	-0.135
-206.421	-89.414	-0.166	0.048
-205.406	103.788	0.152	-0.176
-204.392	26.711	0.122	-0.101
-203.377	800.000	-0.024	-0.087
-202.363	-100.232	0.166	-0.040
-201.348	-86.968	0.307	0.092
-200.333	-75.360	0.088	-0.031
-199.319	77.092	-0.055	-0.057
-198.304	-117.502	0.107	-0.019
-197.290	-200.000	-0.001	0.180
-196.275	652.894	0.077	-0.194
-195.260	-19.670	0.158	-0.096
-194.246	404.889	-0.099	-0.205
-193.231	-200.000	0.067	-0.306
-192.217	-200.000	-0.015	-0.154
-191.202	-143.184	0.056	0.005
-190.187	306.939	-0.078	-0.143
-189.173	213.602	0.043	0.067
-188.158	155.497	-0.070	0.094
-187.144	152.412	-0.068	-0.091
-186.129	396.394	-0.120	-0.245
-185.114	-184.795	-0.280	-0.004
-184.100	279.050	0.137	-0.240
-183.085	18.280	0.144	-0.113
-182.071	-72.228	0.460	0.167
-181.056	-146.373	-0.105	-0.009
-180.042	-107.370	-0.199	-0.043
-179.027	135.869	0.201	-0.258
-178.012	-16.550	-0.519	0.323
-176.998	-86.944	0.234	0.070
-175.983	-200.000	0.025	0.295
-174.969	-200.000	-0.002	-0.296
-173.954	800.000	-0.070	0.215
-172.939	-200.000	0.012	0.193
-171.925	-200.000	-0.023	0.231
-170.910	457.446	-0.035	0.077
-169.896	-40.748	0.097	-0.050
-168.881	-133.618	-0.138	-0.017
-167.866	-24.272	-0.185	-0.108
-166.852	-200.000	0.013	0.212
-165.837	-200.000	0.005	-0.054
-164.823	313.439	0.154	0.285
-163.808	-83.873	-0.148	0.046
-162.793	-200.000	-0.045	-0.250
-161.779	-52.265	-0.392	0.178
-160.764	-200.000	-0.010	-0.063
-159.750	-108.849	-0.202	-0.042
-158.735	-48.021	-0.348	0.165
-157.720	-200.000	-0.001	0.022
-156.706	776.218	-0.119	-0.320
-155.691	16.124	0.158	-0.122
-154.677	-200.000	0.030	0.198
-153.662	149.013	0.017	0.022
-152.647	170.058	0.138	0.193
-151.633	800.000	0.070	-0.197
-150.618	-130.716	0.204	0.027
-149.604	-200.000	0.072	0.388
-148.589	-46.105	0.208	-0.101
-147.574	180.599	0.283	0.408
-146.560	742.933	0.101	0.267
-145.545	447.068	0.009	0.020
-144.531	110.322	0.185	-0.218
-143.516	720.029	-0.022	0.056
-142.502	125.254	-0.101	-0.125
-141.487	-6.425	-0.169	-0.113
-140.472	-28.718	0.157	-0.088
-139.458	-93.178	0.100	0.027
-138.443	507.646	-0.101	0.229
-137.429	31.610	0.285	-0.241
-136.414	-87.050	-0.135	0.040
-135.399	36.143	0.189	-0.163
-134.385	113.979	0.130	0.154
-133.370	-6.310	0.119	-0.079
-132.356	12.619	-0.155	0.117
-131.341	150.465	-0.078	-0.103
-130.326	-200.000	0.016	0.348
-129.312	-71.398	0.145	0.053
-128.297	-41.000	-0.412	-0.209
-127.283	-200.000	-0.003	0.090
-126.268	-200.000	0.018	0.184
-125.253	265.959	0.097	-0.165
-124.239	-83.081	-0.093	-0.029
-123.224	-44.461	-0.145	0.071
-122.210	-111.776	-0.163	-0.032
