DTS Sentinel unit serial number:	SN413079Multiplexer serial number:	ORYXHardware model number:	OX4-SRSoftware version number:	ORYX F/W v4.00 Oryx Data Collector v3.7.2.0data status	okinstallation	princeton_trtdifferential loss correction	single-endedforward channel	channel 3reverse channel	N/Adate	2019/09/18time	05:44:35forward acquisition time	60.00reverse acquisition time	0.00gamma	496.2192k internal	0.2343k external	0.2343temperature offset calibration	0.9949default loss term (dB/km)	0.3790temperature slope calibration	1.0000multiplexer offset coefficient	1.0000multiplexer slope coefficient	1.0000fibre end	0.00T internal ref (°C)	23.31T ext. ref 1 (°C)	0.18T ext. ref 2 (°C)	16.88length (m)	temperature (°C)	Stokes	anti-Stokes-747.200	-11.339	-0.265	-0.175
-746.185	-100.535	0.124	0.031
-745.171	516.638	0.085	0.198
-744.156	-94.872	-0.208	-0.057
-743.142	61.977	-0.117	0.117
-742.127	82.905	-0.138	0.150
-741.112	71.220	-0.168	0.175
-740.098	280.403	0.012	0.022
-739.083	-18.775	-0.300	0.187
-738.069	800.000	-0.040	0.115
-737.054	800.000	0.047	0.159
-736.039	189.792	-0.231	-0.347
-735.025	-200.000	0.010	-0.059
-734.010	800.000	0.108	-0.373
-732.996	-128.465	-0.225	-0.032
-731.981	-200.000	0.000	-0.169
-730.966	-94.162	-0.106	0.029
-729.952	513.121	-0.096	0.224
-728.937	-60.683	-0.135	-0.057
-727.923	140.711	-0.061	-0.080
-726.908	-200.000	-0.064	0.382
-725.894	-200.000	-0.000	-0.147
-724.879	24.774	0.308	-0.255
-723.864	-200.000	-0.010	0.056
-722.850	-200.000	-0.062	-0.343
-721.835	800.000	0.028	-0.104
-720.821	-17.549	-0.075	0.047
-719.806	-63.806	-0.370	-0.152
-718.791	237.089	0.079	-0.131
-717.777	-187.980	-0.312	0.004
-716.762	-200.000	-0.156	0.001
-715.748	-200.000	-0.054	0.270
-714.733	111.887	0.202	0.244
-713.718	800.000	-0.098	0.293
-712.704	-63.079	0.167	-0.069
-711.689	-82.457	-0.084	-0.027
-710.675	-18.593	-0.181	-0.113
-709.660	-137.126	0.187	-0.021
-708.645	-200.000	-0.011	-0.162
-707.631	596.518	0.083	-0.207
-706.616	355.105	-0.138	0.274
-705.602	86.062	0.085	0.093
-704.587	173.772	0.153	0.220
-703.572	-150.468	0.155	-0.012
-702.558	10.267	0.281	0.214
-701.543	-200.000	0.007	0.279
-700.529	-35.728	-0.251	-0.136
-699.514	26.999	0.056	0.047
-698.499	520.533	-0.055	-0.130
-697.485	-13.691	-0.315	0.204
-696.470	-200.000	0.030	-0.237
-695.456	17.773	-0.263	-0.209
-694.441	-59.477	0.094	0.040
-693.426	754.544	0.063	0.171
-692.412	-179.750	0.052	-0.001
-691.397	-121.686	-0.117	-0.019
-690.383	-39.794	-0.400	-0.209
-689.368	-145.724	0.133	-0.012
-688.354	357.228	-0.054	-0.108
-687.339	194.098	0.057	-0.087
-686.324	-129.306	0.137	-0.019
-685.310	374.846	0.120	-0.244
-684.295	-117.925	0.051	-0.009
-683.281	-200.000	-0.002	-0.064
-682.266	-33.592	0.343	-0.189
-681.251	-46.046	0.220	-0.108
-680.237	4.422	0.378	-0.277
-679.222	-57.331	-0.156	0.068
-678.208	-122.298	-0.284	-0.046
-677.193	800.000	0.057	0.175
-676.178	70.293	0.140	0.144
-675.164	-200.000	-0.009	0.305
-674.149	-200.000	-0.024	0.164
-673.135	219.629	-0.163	0.260
-672.120	334.097	0.059	-0.114
-671.105	121.134	0.088	-0.109
-670.091	77.590	-0.105	-0.111
-669.076	-78.632	-0.274	-0.094
-668.062	-115.101	-0.233	-0.044
-667.047	800.000	0.066	-0.244
-666.032	-23.382	0.321	-0.193
-665.018	-200.000	0.006	0.038
-664.003	-200.000	-0.005	0.112
-662.989	5.341	-0.253	0.186
-661.974	800.000	0.048	0.205
-660.959	416.031	0.071	-0.151
-659.945	93.700	-0.162	-0.183
-658.930	-42.037	-0.029	0.015
-657.916	-98.008	-0.217	-0.056
-656.901	-200.000	0.009	-0.218
-655.886	78.892	-0.156	0.167
-654.872	-35.669	0.187	-0.101
-653.857	-118.265	-0.036	-0.006
-652.843	127.408	-0.230	-0.291
-651.828	262.148	0.154	0.267
-650.814	233.472	-0.189	-0.311
-649.799	265.808	-0.161	-0.280
-648.784	395.615	-0.138	-0.288
-647.770	-64.304	0.260	-0.105
-646.755	153.490	-0.173	0.236
-645.741	-23.492	0.166	0.099
-644.726	-119.630	-0.239	0.041
-643.711	-200.000	0.061	0.385
-642.697	463.476	0.075	0.168
-641.682	-200.000	-0.020	0.125
-640.668	209.371	-0.136	0.212
-639.653	800.000	-0.055	-0.178
-638.638	230.051	-0.200	0.327
-637.624	104.582	0.237	0.279
-636.609	-135.224	-0.092	-0.011
-635.595	91.761	0.056	0.063
-634.580	185.300	-0.190	-0.281
-633.565	-188.722	0.430	0.005
-632.551	29.437	-0.187	0.158
-631.536	-73.901	0.243	0.088
-630.522	-200.000	-0.116	0.571
-629.507	-52.309	0.362	-0.167
-628.492	-200.000	-0.045	-0.224
-627.478	-200.000	-0.018	-0.118
-626.463	-101.517	0.196	0.047
-625.449	278.993	-0.032	-0.057
-624.434	-121.086	0.262	0.044
-623.419	-86.334	-0.140	-0.043
-622.405	237.437	-0.075	-0.124
-621.390	122.357	0.043	-0.053
-620.376	304.029	0.143	-0.264
-619.361	-58.262	0.106	-0.046
-618.346	-123.307	-0.142	0.023
-617.332	-200.000	-0.000	0.210
-616.317	-62.690	-0.082	-0.034
-615.303	5.614	0.115	0.085
-614.288	-150.579	-0.124	-0.009
-613.273	800.000	-0.039	0.140
-612.259	164.639	-0.072	-0.102
-611.244	-200.000	-0.009	-0.062
-610.230	-31.113	-0.186	0.104
-609.215	280.042	0.223	-0.398
-608.201	-82.826	-0.152	0.049
-607.186	306.263	0.103	-0.191
-606.171	-115.768	-0.291	-0.054
-605.157	-48.807	0.245	-0.117
-604.142	-92.040	0.376	-0.106
-603.128	124.155	-0.100	-0.124
-602.113	-43.715	-0.065	-0.033
-601.098	-200.000	0.064	-0.282
-600.084	49.406	-0.120	-0.113
-599.069	72.777	-0.168	-0.175
-598.055	233.362	-0.094	-0.154
-597.040	-47.465	-0.296	0.143
-596.025	-31.457	0.162	-0.090
-595.011	9.812	-0.164	0.123
-593.996	800.000	0.107	0.299
-592.982	-200.000	-0.002	-0.039
-591.967	409.457	0.062	-0.131
-590.952	-101.422	0.416	-0.101
-589.938	-200.000	0.022	-0.232
-588.923	-19.186	-0.096	-0.059
-587.909	139.394	0.215	0.281
-586.894	-127.002	0.159	-0.023
-585.879	92.949	-0.123	0.139
-584.865	-39.103	0.202	0.106
-583.850	800.000	0.137	-0.597
-582.836	-57.124	-0.261	-0.115
-581.821	74.432	-0.044	-0.046
-580.806	-105.415	-0.094	0.021
-579.792	-147.247	0.114	0.010
-578.777	-174.204	-0.229	-0.007
-577.763	-86.202	-0.384	0.118
-576.748	-200.000	-0.058	-0.334
-575.733	182.631	0.149	0.218
-574.719	-118.481	0.322	-0.057
-573.704	36.042	0.088	-0.077
-572.690	-200.000	0.039	-0.263
-571.675	-200.000	0.053	-0.363
-570.661	-169.950	-0.369	0.013
-569.646	-53.184	-0.417	-0.190
-568.631	800.000	0.004	0.014
-567.617	-32.339	-0.136	-0.075
-566.602	800.000	-0.070	0.202
-565.588	-105.371	-0.070	0.016
-564.573	-79.108	0.076	0.026
-563.558	800.000	0.012	0.045
-562.544	-65.832	-0.010	-0.004
-561.529	-87.463	-0.132	0.040
-560.515	-161.080	0.284	0.015
-559.500	-162.559	0.384	-0.019
-558.485	-120.471	0.092	0.016
-557.471	-23.973	-0.214	-0.127
-556.456	-81.270	-0.116	-0.038
-555.442	-200.000	0.011	0.140
-554.427	-73.895	0.055	-0.020
-553.412	-61.944	-0.112	0.047
-552.398	-84.391	-0.180	-0.056
-551.383	-37.781	0.185	0.098
-550.369	-109.496	0.150	-0.031
-549.354	128.342	-0.096	-0.121
-548.339	-61.049	0.254	-0.107
-547.325	47.652	-0.220	-0.204
-546.310	572.459	-0.149	-0.362
-545.296	-37.703	0.227	0.120
-544.281	597.294	0.122	0.301
-543.266	-200.000	-0.081	-0.400
-542.252	394.680	0.076	-0.158
-541.237	-143.797	0.158	0.015
-540.223	34.345	-0.193	0.168
-539.208	136.417	0.174	-0.225
-538.193	281.962	0.144	0.257
-537.179	-34.769	0.248	-0.135
-536.164	322.760	0.105	-0.198
-535.150	352.122	-0.235	-0.463
-534.135	19.309	-0.154	0.123
-533.121	532.664	0.156	0.366
-532.106	-122.621	0.280	0.045
-531.091	-19.607	0.110	-0.068
-530.077	156.538	-0.125	-0.172
-529.062	-200.000	0.019	-0.258
-528.048	527.801	0.072	-0.169
-527.033	77.328	-0.068	-0.072
-526.018	800.000	-0.048	0.176
-525.004	-58.765	0.253	-0.109
-523.989	87.634	0.290	0.319
-522.975	-23.841	-0.136	-0.081
-521.960	230.506	0.182	0.295
-520.945	330.642	-0.127	-0.243
-519.931	-42.009	-0.310	-0.157
-518.916	800.000	0.065	-0.188
-517.902	384.102	-0.109	-0.224
-516.887	-33.770	-0.101	0.055
-515.872	-42.640	-0.173	0.087
-514.858	-80.348	0.169	0.056
-513.843	-200.000	-0.003	0.350
-512.829	-22.345	0.370	0.222
-511.814	191.658	0.102	0.152
-510.799	-200.000	-0.009	0.290
-509.785	-128.433	0.144	-0.020
-508.770	-200.000	0.019	0.176
-507.756	800.000	0.062	0.208
-506.741	800.000	0.090	-0.292
-505.726	-32.334	0.035	-0.019
-504.712	788.510	-0.068	0.186
-503.697	-81.755	-0.343	0.111
-502.683	-51.137	0.187	0.087
-501.668	150.822	0.250	0.337
-500.653	-35.005	0.299	0.162
-499.639	-100.816	0.235	-0.057
-498.624	-150.726	-0.358	-0.027
-497.610	800.000	0.028	0.083
-496.595	-12.972	0.216	0.139
-495.581	44.326	-0.252	-0.229
-494.566	-29.693	0.229	-0.129
-493.551	271.783	0.119	-0.209
-492.537	33.589	0.237	-0.204
-491.522	200.700	-0.235	-0.358
-490.508	-200.000	-0.087	0.414
-489.493	-104.160	-0.127	-0.029
-488.478	-200.000	0.019	-0.120
-487.464	-116.340	-0.062	-0.011
-486.449	96.627	-0.052	-0.060
-485.435	-101.821	0.214	-0.051
-484.420	718.417	0.064	0.167
-483.405	465.223	-0.102	-0.226
-482.391	4.114	0.292	0.212
-481.376	-116.329	0.056	0.010
-480.362	-200.000	-0.027	0.173
-479.347	-200.000	-0.051	-0.226
-478.332	676.771	0.067	-0.173
-477.318	-200.000	0.000	-0.111
-476.303	-102.864	-0.442	0.104
-475.289	-109.869	-0.069	0.014
-474.274	193.686	0.194	-0.292
-473.259	-24.642	0.102	0.060
-472.245	-200.000	0.032	-0.178
-471.230	-130.266	-0.163	0.022
-470.216	14.364	0.233	0.180
-469.201	43.327	0.162	-0.147
-468.186	-62.186	0.127	0.052
-467.172	-200.000	-0.017	0.123
-466.157	88.021	-0.142	0.156
-465.143	800.000	-0.121	0.356
-464.128	-200.000	0.007	0.255
-463.113	-134.050	0.169	0.021
-462.099	-1.455	-0.221	-0.155
-461.084	130.040	0.115	-0.146
-460.070	-104.278	-0.188	-0.043
-459.055	-186.045	-0.209	0.003
-458.040	68.078	0.184	0.187
-457.026	323.956	-0.122	0.231
-456.011	-52.981	-0.096	-0.044
-454.997	-22.119	-0.253	0.152
-453.982	-61.739	-0.230	0.095
-452.968	47.078	0.076	-0.070
-451.953	800.000	-0.072	-0.217
-450.938	-72.654	-0.315	0.115
-449.924	800.000	0.058	0.212
-448.909	158.971	0.181	-0.249
-447.895	-200.000	0.019	-0.319
-446.880	193.061	-0.045	0.068
-445.865	-200.000	0.002	-0.060
-444.851	-75.128	-0.223	-0.079
-443.836	-45.372	-0.302	-0.148
-442.822	-68.255	-0.359	0.138
-441.807	-36.147	-0.151	-0.081
-440.792	-200.000	-0.013	-0.303
-439.778	-200.000	-0.041	0.181
-438.763	274.147	0.115	-0.202
-437.749	-34.083	0.322	-0.175
-436.734	67.887	0.240	0.243
-435.719	-157.444	-0.187	-0.011
-434.705	78.325	0.065	-0.069
-433.690	-64.964	0.151	0.060
-432.676	-200.000	-0.069	-0.308
-431.661	293.785	-0.162	0.293
-430.646	-114.352	-0.089	-0.017
-429.632	27.493	-0.135	0.112
-428.617	-97.336	0.239	0.062
-427.603	-13.512	0.151	-0.097
-426.588	25.540	-0.348	0.286
-425.573	-91.851	-0.237	-0.066
-424.559	-3.058	-0.094	0.065
-423.544	-34.866	-0.178	-0.096
-422.530	-93.118	-0.284	0.078
-421.515	-200.000	-0.027	-0.262
-420.500	-108.362	0.167	0.036
-419.486	550.368	-0.016	0.038
-418.471	-31.629	-0.054	0.030
-417.457	385.001	0.081	0.165
-416.442	-71.643	-0.244	-0.090
-415.428	-83.324	-0.063	0.020
-414.413	800.000	-0.055	-0.228
-413.398	-106.262	0.465	0.103
-412.384	-9.153	-0.294	0.194
-411.369	-37.564	0.154	-0.081
-410.355	91.656	-0.102	0.113
-409.340	-19.563	0.162	0.099
-408.325	27.004	0.109	0.090
-407.311	193.921	0.021	0.031
-406.296	114.223	0.354	0.426
-405.282	581.088	-0.144	0.350
-404.267	66.576	0.313	0.315
-403.252	-200.000	0.004	-0.056
-402.238	226.950	0.104	-0.167
-401.223	-94.732	-0.076	0.021
-400.209	-200.000	-0.025	0.151
-399.194	12.457	-0.097	0.074
-398.179	-200.000	0.018	-0.083
-397.165	-126.065	0.060	0.009
-396.150	-51.968	0.168	0.077
-395.136	-75.287	-0.466	0.164
-394.121	-87.012	0.351	-0.106
-393.106	800.000	-0.072	-0.239
-392.092	226.391	-0.132	-0.211
-391.077	114.270	-0.189	-0.228
-390.063	-200.000	0.010	0.229
-389.048	-74.594	-0.059	0.021
-388.033	-47.323	-0.016	-0.008
-387.019	-135.899	-0.398	0.046
-386.004	-200.000	-0.030	-0.210
-384.990	-200.000	0.038	-0.327
-383.975	-200.000	0.023	0.111
-382.960	-48.287	0.255	0.121
-381.946	299.341	0.074	0.135
-380.931	-200.000	-0.001	-0.421
-379.917	147.491	-0.053	0.071
-378.902	-167.575	0.184	-0.007
-377.888	-87.878	-0.398	-0.118
-376.873	-200.000	0.023	-0.236
-375.858	800.000	-0.049	-0.146
-374.844	-33.904	-0.179	-0.097
-373.829	-12.021	-0.076	0.049
-372.815	411.028	0.187	0.392
-371.800	-101.560	-0.103	0.025
-370.785	-66.913	-0.252	0.098
-369.771	-115.965	0.322	-0.059
-368.756	-200.000	0.004	0.123
-367.742	800.000	0.039	0.139
-366.727	-46.314	-0.186	0.090
-365.712	-200.000	0.004	0.243
-364.698	86.111	0.069	-0.075
-363.683	27.070	0.272	-0.225
-362.669	72.080	-0.106	0.109
-361.654	-4.768	0.168	-0.114
-360.639	-200.000	-0.066	0.294
-359.625	-71.568	-0.086	0.032
-358.610	31.934	-0.029	-0.025
-357.596	-200.000	-0.018	0.182
-356.581	-96.593	-0.224	-0.058
-355.566	-200.000	-0.023	-0.169
-354.552	129.843	-0.219	-0.277
-353.537	-70.329	-0.364	-0.136
-352.523	10.099	0.383	0.287
-351.508	32.123	-0.088	0.075
-350.493	-10.204	-0.218	-0.142
-349.479	-67.514	0.222	0.086
-348.464	-66.616	-0.123	-0.048
-347.450	800.000	-0.135	0.383
-346.435	160.188	-0.088	0.121
-345.420	276.765	-0.103	-0.180
-344.406	51.429	0.074	0.069
-343.391	-200.000	-0.028	0.301
-342.377	-164.548	-0.435	0.019
-341.362	387.056	-0.053	0.109
-340.348	327.713	0.146	-0.276
-339.333	-73.572	-0.082	0.030
-338.318	1.168	0.156	-0.110
-337.304	-97.401	-0.292	0.075
-336.289	-136.453	-0.120	0.014
-335.275	-200.000	0.040	0.293
-334.260	-15.439	-0.327	0.206
-333.245	287.419	0.149	-0.265
-332.231	-48.017	0.164	0.078
-331.216	-200.000	0.008	-0.055
-330.202	62.481	0.278	-0.273
-329.187	-78.066	-0.274	0.093
-328.172	-95.040	0.178	-0.047
-327.158	87.262	-0.090	-0.099
-326.143	398.691	-0.079	0.162
-325.129	-144.878	-0.184	-0.017
-324.114	-48.570	0.295	-0.140
-323.099	145.520	0.033	-0.043
-322.085	230.227	-0.117	-0.189
-321.070	-6.228	-0.238	0.160
-320.056	800.000	-0.090	-0.262
-319.041	93.339	-0.201	-0.224
-318.026	-59.352	-0.205	-0.087
-317.012	89.025	0.140	-0.154
-315.997	-37.310	-0.462	-0.243
-314.983	-64.236	0.154	0.062
-313.968	569.299	-0.152	-0.364
-312.953	-200.000	0.005	0.214
-311.939	-26.123	0.177	-0.102
-310.924	-114.938	-0.288	0.054
-309.910	260.368	-0.216	0.367
-308.895	70.330	-0.177	0.180
-307.880	-200.000	0.071	0.483
-306.866	-128.521	-0.152	0.021
-305.851	-96.564	0.188	-0.049
-304.837	-155.315	-0.280	0.018
-303.822	349.278	0.093	-0.180
-302.807	-31.074	0.135	0.075
-301.793	172.528	0.116	0.164
-300.778	4.736	0.229	-0.165
-299.764	101.142	-0.062	-0.071
-298.749	-86.641	0.234	0.071
-297.735	-200.000	0.013	0.079
-296.720	72.640	-0.238	0.245
-295.705	256.255	0.187	0.316
-294.691	243.961	0.051	-0.085
-293.676	-200.000	0.042	-0.260
-292.662	-134.869	-0.098	-0.012
-291.647	-200.000	0.023	0.412
-290.632	648.663	-0.105	0.264
-289.618	-7.621	-0.170	0.113
-288.603	132.583	-0.132	-0.167
-287.589	-200.000	-0.073	-0.321
-286.574	-169.298	-0.162	0.006
-285.559	523.363	0.077	-0.178
-284.545	-118.455	0.326	0.057
-283.530	-115.364	-0.436	-0.081
-282.516	44.577	-0.095	-0.086
-281.501	83.114	0.152	0.162
-280.486	-74.113	0.272	0.097
-279.472	631.292	0.073	-0.182
-278.457	800.000	0.065	-0.205
-277.443	-70.260	-0.386	0.144
-276.428	-105.592	-0.337	0.075
-275.413	126.467	-0.042	-0.053
-274.399	-200.000	-0.009	0.160
-273.384	-72.270	-0.084	-0.031
-272.370	-200.000	-0.031	-0.216
-271.355	-32.891	0.257	-0.140
-270.340	116.467	-0.159	0.191
-269.326	-75.530	-0.101	-0.035
-268.311	-200.000	-0.009	-0.215
-267.297	720.316	-0.101	0.264
-266.282	26.167	0.143	0.118
-265.267	-200.000	-0.062	-0.000
-264.253	47.994	0.318	-0.292
-263.238	108.754	0.246	-0.289
-262.224	261.493	0.128	0.218
-261.209	-67.390	0.315	0.121
-260.195	60.095	-0.106	0.103
-259.180	-154.988	0.186	-0.012
-258.165	-89.948	0.466	-0.134
-257.151	-19.784	-0.360	0.218
-256.136	-132.474	0.206	0.026
-255.122	-66.161	-0.212	-0.083
-254.107	178.232	0.086	0.124
-253.092	-71.127	0.204	-0.075
-252.078	800.000	-0.122	-0.349
-251.063	-67.026	-0.129	0.050
-250.049	-63.571	-0.258	-0.104
-249.034	107.597	-0.179	-0.209
-248.019	505.389	-0.117	0.266
-247.005	-182.100	-0.095	-0.002
-245.990	-93.986	0.159	0.043
-244.976	313.111	0.082	0.151
-243.961	-200.000	0.003	0.173
-242.946	217.692	0.052	0.082
-241.932	-108.250	-0.176	0.037
-240.917	-35.188	0.294	0.157
-239.903	-200.000	0.059	-0.255
-238.888	800.000	0.050	-0.157
-237.873	227.100	-0.134	0.214
-236.859	-146.796	-0.151	0.013
-235.844	345.078	-0.098	0.188
-234.830	-93.468	0.292	-0.079
-233.815	21.737	-0.265	0.212
-232.800	131.029	0.168	-0.211
-231.786	103.150	-0.123	0.141
-230.771	-102.663	0.294	0.069
-229.757	-144.175	0.124	0.011
-228.742	-200.000	-0.017	0.262
-227.727	228.577	0.306	-0.489
-226.713	-200.000	-0.033	0.276
-225.698	-83.482	-0.308	0.097
-224.684	-25.542	0.145	0.084
-223.669	-200.000	0.051	0.245
-222.655	129.212	0.238	0.297
-221.640	-96.714	-0.064	-0.016
-220.625	277.216	0.079	0.138
-219.611	-15.959	0.254	-0.158
-218.596	430.696	0.158	-0.336
-217.582	-70.483	-0.009	0.003
-216.567	800.000	0.086	0.251
-215.552	800.000	0.092	-0.288
-214.538	800.000	0.048	0.140
-213.523	309.881	0.167	-0.306
-212.509	-53.478	0.172	0.077
-211.494	585.671	0.143	-0.344
-210.479	-200.000	-0.030	-0.431
-209.465	-37.351	-0.024	0.013
-208.450	200.928	-0.055	-0.084
-207.436	-75.286	-0.199	0.070
-206.421	647.405	-0.073	0.184
-205.406	53.035	-0.187	-0.175
-204.392	-135.327	0.138	-0.016
-203.377	-134.008	-0.240	-0.029
-202.363	141.704	0.183	0.237
-201.348	17.089	-0.082	0.063
-200.333	535.279	0.055	-0.129
-199.319	-200.000	-0.019	-0.256
-198.304	-200.000	-0.028	-0.364
-197.290	-200.000	-0.038	-0.197
-196.275	29.578	0.122	0.102
-195.260	19.051	0.301	0.236
-194.246	-200.000	0.009	-0.272
-193.231	758.355	0.097	-0.258
-192.217	-66.317	0.144	0.056
-191.202	-200.000	-0.013	0.174
-190.187	-125.037	0.133	0.020
-189.173	428.435	-0.119	0.252
-188.158	-200.000	0.003	0.122
-187.144	376.646	0.055	-0.109
-186.129	47.025	-0.053	0.049
-185.114	-2.629	0.179	-0.123
-184.100	142.448	0.147	0.191
-183.085	800.000	0.095	0.369
-182.071	45.743	0.177	0.160
-181.056	92.854	0.273	-0.302
-180.042	-200.000	-0.227	0.001
-179.027	126.385	0.044	-0.054
-178.012	-64.384	0.205	0.082
-176.998	-105.358	-0.297	-0.066
-175.983	688.622	-0.055	0.142
-174.969	-200.000	0.005	0.219
-173.954	-76.464	0.076	0.026
-172.939	-200.000	-0.059	-0.425
-171.925	-172.711	-0.077	-0.002
-170.910	800.000	-0.051	0.142
-169.896	528.866	-0.094	-0.217
-168.881	-49.262	-0.254	-0.119
-167.866	-200.000	-0.046	0.344
-166.852	800.000	-0.023	0.092
-165.837	-23.314	0.037	0.022
-164.823	-200.000	0.036	0.219
-163.808	121.163	-0.028	-0.034
-162.793	-60.491	0.147	-0.061
-161.779	-200.000	-0.060	0.361
-160.764	281.896	0.119	-0.208
-159.750	21.087	0.172	0.136
-158.735	-200.000	-0.064	0.290
-157.720	-105.777	0.265	0.059
-156.706	-25.811	-0.089	0.051
-155.691	-92.125	-0.233	-0.064
-154.677	-77.633	0.171	0.058
-153.662	-46.666	0.405	-0.194
-152.647	187.441	0.081	-0.118
-151.633	112.041	0.129	0.153
-150.618	-165.417	-0.238	-0.010
-149.604	159.033	-0.052	0.071
-148.589	-56.433	0.393	-0.171
-147.574	-120.748	-0.465	0.077
-146.560	-49.372	0.193	-0.090
-145.545	-68.921	0.277	0.105
-144.531	66.818	-0.122	0.122
-143.516	-96.490	0.264	-0.068
-142.502	-200.000	0.001	-0.240
-141.487	266.419	0.103	-0.175
-140.472	-200.000	-0.060	-0.295
-139.458	-127.647	-0.410	-0.058
-138.443	-200.000	-0.005	0.249
-137.429	-31.813	0.237	0.130
-136.414	213.155	0.178	-0.275
-135.399	-200.000	-0.016	0.145
-134.385	-200.000	0.017	-0.169
-133.370	-117.651	-0.407	0.072
-132.356	800.000	-0.055	0.163
-131.341	-106.726	0.023	-0.005
-130.326	-81.963	-0.056	-0.018
-129.312	-44.837	-0.254	-0.124
-128.297	-135.266	-0.195	0.023
-127.283	-67.587	-0.469	0.180
-126.268	15.850	-0.186	0.143
-125.253	-79.459	-0.244	0.080
-124.239	800.000	-0.094	0.260
-123.224	-170.823	-0.336	-0.011
