DTS Sentinel unit serial number:	SN413079Multiplexer serial number:	ORYXHardware model number:	OX4-SRSoftware version number:	ORYX F/W v4.00 Oryx Data Collector v3.7.2.0data status	okinstallation	princeton_trtdifferential loss correction	single-endedforward channel	channel 3reverse channel	N/Adate	2019/09/17time	06:20:34forward acquisition time	60.00reverse acquisition time	0.00gamma	496.2192k internal	0.2330k external	0.2330temperature offset calibration	0.9945default loss term (dB/km)	0.3790temperature slope calibration	1.0000multiplexer offset coefficient	1.0000multiplexer slope coefficient	1.0000fibre end	0.00T internal ref (°C)	28.37T ext. ref 1 (°C)	0.13T ext. ref 2 (°C)	21.72length (m)	temperature (°C)	Stokes	anti-Stokes-747.200	196.488	0.099	-0.152
-746.185	-200.000	0.000	-0.128
-745.171	557.069	0.052	0.125
-744.156	145.143	-0.097	0.131
-743.142	230.133	0.122	-0.201
-742.127	-91.680	-0.130	-0.037
-741.112	-197.096	-0.318	-0.002
-740.098	800.000	0.078	0.263
-739.083	-15.224	0.213	-0.137
-738.069	203.139	-0.113	0.175
-737.054	609.363	0.033	0.084
-736.039	-200.000	-0.026	-0.314
-735.025	268.949	0.068	0.120
-734.010	-136.524	-0.243	-0.028
-732.996	-200.000	-0.028	-0.210
-731.981	25.674	-0.180	-0.151
-730.966	800.000	0.115	-0.326
-729.952	-21.633	0.113	-0.070
-728.937	608.139	-0.076	-0.191
-727.923	237.678	-0.138	-0.230
-726.908	-134.631	-0.064	-0.008
-725.894	-10.395	-0.161	0.108
-724.879	800.000	0.073	-0.206
-723.864	107.918	0.101	0.121
-722.850	800.000	0.049	0.169
-721.835	46.096	-0.084	0.079
-720.821	-181.094	0.309	-0.006
-719.806	-87.095	-0.118	0.036
-718.791	384.005	0.063	-0.130
-717.777	-40.152	0.345	-0.181
-716.762	260.745	0.160	-0.278
-715.748	-75.047	-0.250	0.090
-714.733	800.000	0.057	-0.211
-713.718	800.000	-0.160	-0.500
-712.704	466.097	0.060	0.136
-711.689	-27.609	0.172	0.101
-710.675	757.298	0.088	0.240
-709.660	800.000	-0.031	-0.116
-708.645	149.829	-0.098	0.134
-707.631	-107.517	-0.228	-0.050
-706.616	-5.184	0.142	-0.098
-705.602	-200.000	0.007	-0.112
-704.587	800.000	-0.044	-0.130
-703.572	-200.000	0.025	0.133
-702.558	591.552	0.057	-0.142
-701.543	-169.279	0.128	-0.005
-700.529	-200.000	-0.002	0.196
-699.514	9.387	-0.191	0.145
-698.499	291.400	0.031	-0.057
-697.485	-200.000	0.005	-0.078
-696.470	-110.596	-0.302	-0.063
-695.456	360.910	-0.068	0.137
-694.441	-27.187	-0.092	0.054
-693.426	-107.934	-0.346	0.075
-692.412	-200.000	0.098	0.452
-691.397	352.461	-0.124	0.247
-690.383	-200.000	-0.048	-0.270
-689.368	800.000	-0.056	-0.197
-688.354	251.523	-0.031	-0.053
-687.339	103.151	-0.199	-0.234
-686.324	-48.087	0.051	-0.025
-685.310	-25.888	-0.226	0.134
-684.295	13.837	-0.186	0.145
-683.281	-99.957	0.238	0.060
-682.266	94.898	0.265	0.303
-681.251	-38.011	0.129	-0.069
-680.237	315.144	-0.178	0.337
-679.222	-200.000	-0.018	0.137
-678.208	111.509	-0.149	-0.181
-677.193	-132.597	0.132	0.017
-676.178	268.750	0.165	0.290
-675.164	-200.000	-0.004	0.124
-674.149	57.545	-0.149	0.147
-673.135	377.030	-0.140	-0.288
-672.120	291.778	-0.103	0.189
-671.105	125.766	0.102	0.130
-670.091	-93.170	0.042	0.012
-669.076	228.441	-0.248	0.405
-668.062	-49.692	-0.097	-0.046
-667.047	-143.775	-0.195	0.019
-666.032	-200.000	-0.013	0.079
-665.018	37.399	0.079	0.071
-664.003	286.819	0.088	0.159
-662.989	151.107	-0.062	-0.085
-661.974	9.862	-0.279	0.212
-660.959	135.094	-0.280	0.365
-659.945	-200.000	0.058	0.335
-658.930	156.332	-0.145	0.201
-657.916	-200.000	0.014	0.415
-656.901	24.553	-0.161	0.133
-655.886	245.499	0.061	0.103
-654.872	-200.000	-0.003	0.224
-653.857	800.000	0.060	-0.247
-652.843	-200.000	-0.025	-0.518
-651.828	-87.583	0.066	-0.020
-650.814	-200.000	-0.001	0.180
-649.799	-120.772	-0.454	0.077
-648.784	465.464	-0.084	-0.188
-647.770	-52.920	-0.213	0.098
-646.755	332.220	0.184	-0.355
-645.741	-165.547	0.184	0.008
-644.726	-132.595	0.415	-0.053
-643.711	38.134	-0.145	0.129
-642.697	123.710	0.083	-0.105
-641.682	-94.502	0.052	-0.014
-640.668	-200.000	0.004	0.138
-639.653	-154.977	0.106	0.007
-638.638	-91.132	-0.438	-0.126
-637.624	-112.245	-0.217	-0.044
-636.609	-73.292	0.167	0.061
-635.595	25.479	0.123	0.102
-634.580	64.677	0.173	-0.175
-633.565	-13.759	-0.043	-0.028
-632.551	-89.460	-0.287	0.085
-631.536	-28.475	-0.034	-0.020
-630.522	800.000	0.048	-0.177
-629.507	22.312	-0.374	-0.306
-628.492	0.670	0.398	-0.285
-627.478	-200.000	-0.010	0.156
-626.463	800.000	0.034	0.102
-625.449	406.487	0.144	0.305
-624.434	155.019	0.163	-0.224
-623.419	68.005	0.241	-0.247
-622.405	-200.000	0.043	-0.307
-621.390	-48.829	-0.189	-0.091
-620.376	241.682	-0.038	0.064
-619.361	-200.000	-0.009	-0.064
-618.346	88.048	0.125	-0.139
-617.332	525.409	-0.065	0.152
-616.317	10.619	-0.380	-0.290
-615.303	61.857	-0.291	0.290
-614.288	-167.124	-0.149	0.006
-613.273	-144.004	0.049	0.005
-612.259	128.441	0.164	-0.209
-611.244	-133.252	-0.177	-0.022
-610.230	-64.388	0.119	0.049
-609.215	331.604	-0.094	-0.182
-608.201	149.614	0.039	0.054
-607.186	-90.344	-0.041	0.012
-606.171	129.225	-0.196	0.251
-605.157	578.822	0.052	0.129
-604.142	-147.265	-0.293	-0.025
-603.128	118.038	-0.068	-0.083
-602.113	245.666	-0.114	0.192
-601.098	63.265	0.177	0.177
-600.084	-200.000	0.012	0.152
-599.069	569.230	-0.078	0.190
-598.055	-109.559	0.227	-0.048
-597.040	491.883	-0.098	-0.226
-596.025	106.783	-0.241	-0.286
-595.011	-200.000	-0.029	-0.151
-593.996	436.939	0.122	-0.265
-592.982	189.546	0.096	0.144
-591.967	-23.372	-0.281	0.169
-590.952	10.399	-0.108	0.083
-589.938	-70.857	0.144	0.054
-588.923	99.341	-0.075	-0.087
-587.909	453.119	-0.213	0.471
-586.894	-9.464	-0.138	0.092
-585.879	-129.340	-0.123	-0.017
-584.865	9.245	0.168	0.127
-583.850	799.392	-0.067	0.184
-582.836	-0.093	-0.407	0.290
-581.821	56.498	0.197	-0.192
-580.806	-51.137	0.117	-0.055
-579.792	-200.000	0.029	-0.207
-578.777	97.372	0.042	-0.048
-577.763	-42.173	0.319	0.163
-576.748	572.976	-0.113	-0.274
-575.733	110.877	0.020	0.024
-574.719	-104.581	-0.084	0.019
-573.704	154.730	0.058	0.079
-572.690	-43.014	-0.199	-0.101
-571.675	32.865	0.197	0.170
-570.661	-41.328	-0.299	-0.154
-569.646	143.942	0.125	-0.167
-568.631	-173.250	-0.142	0.004
-567.617	64.367	-0.104	0.105
-566.602	-84.655	0.176	0.055
-565.588	-200.000	-0.018	0.121
-564.573	800.000	0.059	-0.239
-563.558	-36.705	-0.156	-0.084
-562.544	100.982	-0.134	0.156
-561.529	463.405	-0.159	-0.354
-560.515	481.468	-0.087	-0.197
-559.500	-200.000	0.011	-0.099
-558.485	99.813	-0.089	0.103
-557.471	109.457	0.158	-0.189
-556.456	-94.089	0.160	-0.044
-555.442	-200.000	0.002	0.386
-554.427	800.000	-0.048	0.172
-553.412	800.000	0.069	0.277
-552.398	-178.355	0.330	-0.008
-551.383	-200.000	-0.039	-0.286
-550.369	349.675	-0.087	-0.172
-549.354	764.043	-0.044	-0.119
-548.339	82.762	0.290	-0.315
-547.325	135.678	-0.231	-0.301
-546.310	-200.000	-0.000	-0.008
-545.296	800.000	0.044	-0.130
-544.281	670.990	-0.024	-0.061
-543.266	406.483	0.047	0.100
-542.252	95.587	0.206	-0.235
-541.237	-164.039	-0.137	0.006
-540.223	74.994	-0.243	-0.256
-539.208	-174.296	0.046	0.001
-538.193	464.058	-0.105	0.233
-537.179	-149.696	0.051	0.004
-536.164	-200.000	0.022	-0.322
-535.150	800.000	-0.105	0.372
-534.135	-200.000	0.028	0.138
-533.121	718.307	-0.134	0.356
-532.106	-52.553	0.064	-0.029
-531.091	-15.582	0.132	-0.084
-530.077	-200.000	-0.111	0.519
-529.062	-156.783	-0.024	0.001
-528.048	800.000	-0.065	-0.260
-527.033	-200.000	0.067	0.000
-526.018	18.874	-0.257	0.205
-525.004	-52.211	-0.229	-0.106
-523.989	3.766	-0.108	0.079
-522.975	145.627	0.213	-0.285
-521.960	800.000	-0.112	-0.348
-520.945	-28.028	0.090	-0.052
-519.931	-60.579	0.319	-0.135
-518.916	86.824	-0.469	-0.517
-517.902	-67.247	0.284	-0.111
-516.887	800.000	0.106	0.355
-515.872	-162.014	0.145	0.007
-514.858	-69.165	-0.259	-0.100
-513.843	38.932	0.226	-0.201
-512.829	271.067	0.180	-0.317
-511.814	599.049	-0.114	0.281
-510.799	28.512	0.225	-0.190
-509.785	-32.781	-0.141	0.078
-508.770	-134.609	0.338	0.041
-507.756	-69.699	0.092	0.035
-506.741	-12.562	-0.210	-0.137
-505.726	-59.673	-0.204	-0.087
-504.712	800.000	-0.058	-0.162
-503.697	-57.194	-0.286	0.126
-502.683	-200.000	-0.063	-0.288
-501.668	218.147	0.152	-0.243
-500.653	-89.265	-0.179	0.053
-499.639	-200.000	0.039	-0.305
-498.624	716.400	-0.062	-0.164
-497.610	105.291	-0.131	-0.154
-496.595	112.563	-0.110	-0.132
-495.581	14.979	0.099	-0.078
-494.566	-200.000	-0.009	0.364
-493.551	-200.000	-0.009	0.251
-492.537	-134.756	-0.217	-0.026
-491.522	-200.000	-0.020	0.161
-490.508	-48.938	0.458	-0.219
-489.493	-111.958	-0.213	0.043
-488.478	-140.573	-0.248	0.026
-487.464	-55.452	0.262	-0.117
-486.449	-84.059	-0.124	-0.039
-485.435	275.744	0.082	-0.145
-484.420	23.521	0.096	0.079
-483.405	478.497	0.095	-0.215
-482.391	156.046	-0.237	-0.325
-481.376	-48.006	0.166	0.080
-480.362	-63.654	-0.300	-0.123
-479.347	-200.000	0.042	-0.268
-478.332	-11.594	0.175	-0.115
-477.318	680.940	-0.008	0.021
-476.303	-200.000	-0.009	-0.139
-475.289	-200.000	0.041	0.180
-474.274	30.602	-0.051	0.044
-473.259	-200.000	0.015	-0.181
-472.245	-132.894	-0.120	-0.015
-471.230	118.698	-0.073	0.090
-470.216	1.005	-0.072	0.051
-469.201	85.015	-0.058	-0.063
-468.186	19.587	-0.391	-0.313
-467.172	-114.851	0.317	0.060
-466.157	29.478	-0.175	0.148
-465.143	-24.026	0.207	-0.123
-464.128	102.245	-0.143	-0.166
-463.113	21.610	-0.145	-0.117
-462.099	-127.029	0.331	-0.048
-461.084	-200.000	-0.040	0.234
-460.070	45.656	-0.030	0.027
-459.055	-131.470	-0.126	-0.017
-458.040	62.078	-0.124	0.123
-457.026	-18.778	0.127	0.079
-456.011	-152.612	-0.204	0.015
-454.997	-166.104	0.081	0.003
-453.982	119.690	-0.135	0.167
-452.968	-200.000	-0.027	0.416
-451.953	95.955	-0.278	0.316
-450.938	-162.517	-0.150	-0.007
-449.924	99.121	-0.156	-0.180
-448.909	538.102	-0.084	0.198
-447.895	-200.000	-0.022	-0.186
-446.880	113.723	0.156	-0.189
-445.865	-66.026	-0.126	-0.050
-444.851	634.926	0.113	-0.286
-443.836	-62.784	0.439	0.181
-442.822	-157.405	0.309	-0.019
-441.807	-31.481	-0.226	-0.127
-440.792	-147.220	-0.238	-0.020
-439.778	69.277	-0.126	0.129
-438.763	267.641	-0.179	-0.312
-437.749	115.006	0.107	-0.130
-436.734	800.000	-0.033	-0.109
-435.719	-19.890	-0.246	0.151
-434.705	-54.660	0.154	0.069
-433.690	-111.551	-0.371	-0.075
-432.676	152.172	0.152	-0.207
-431.661	-153.672	0.188	-0.013
-430.646	-162.477	0.263	0.013
-429.632	-200.000	-0.008	0.051
-428.617	800.000	-0.056	-0.240
-427.603	99.581	-0.176	-0.203
-426.588	-92.575	-0.155	0.043
-425.573	800.000	-0.146	0.416
-424.559	-86.349	0.127	0.039
-423.544	-1.279	0.299	0.210
-422.530	78.859	-0.155	0.165
-421.515	162.743	0.078	-0.109
-420.500	179.020	-0.246	-0.358
-419.486	-156.787	0.174	0.011
-418.471	-200.000	0.096	-0.540
-417.457	-30.138	-0.258	-0.146
-416.442	-18.972	0.317	-0.196
-415.428	800.000	0.055	0.187
-414.413	204.805	-0.150	0.231
-413.398	-70.711	0.145	0.054
-412.384	208.999	-0.103	0.161
-411.369	-200.000	0.027	0.151
-410.355	-63.579	0.056	0.023
-409.340	-43.888	0.098	0.049
-408.325	-69.428	-0.032	0.012
-407.311	-26.513	-0.300	0.175
-406.296	-84.784	-0.148	-0.046
-405.282	-146.896	-0.461	-0.039
-404.267	486.187	-0.094	0.213
-403.252	159.964	0.201	0.278
-402.238	-200.000	-0.016	-0.165
-401.223	-152.280	0.215	-0.015
-400.209	-200.000	0.016	0.199
-399.194	-81.828	-0.419	-0.136
-398.179	347.235	-0.091	0.178
-397.165	53.410	0.302	0.287
-396.150	-62.918	0.592	-0.243
-395.136	-94.568	-0.277	0.075
-394.121	800.000	-0.065	-0.279
-393.106	109.262	0.159	0.189
-392.092	450.953	-0.065	0.143
-391.077	-37.963	0.113	0.059
-390.063	-98.921	-0.333	-0.084
-389.048	152.803	0.311	0.423
-388.033	492.104	0.176	0.400
-387.019	160.363	-0.209	0.290
-386.004	-67.601	-0.212	-0.083
-384.990	-119.214	-0.140	0.024
-383.975	800.000	0.090	0.329
-382.960	-110.177	-0.190	-0.039
-381.946	-173.221	0.107	-0.003
-380.931	-200.000	0.009	-0.075
-379.917	157.396	0.202	-0.277
-378.902	33.329	0.218	-0.188
-377.888	701.928	-0.101	-0.263
-376.873	102.073	0.127	0.147
-375.858	-131.479	-0.264	0.035
-374.844	772.396	-0.067	-0.182
-373.829	220.671	-0.058	-0.092
-372.815	800.000	-0.091	0.348
-371.800	168.220	-0.241	0.340
-370.785	800.000	0.055	0.159
-369.771	3.839	-0.015	0.011
-368.756	-110.628	0.291	-0.060
-367.742	-111.424	-0.141	-0.028
-366.727	366.114	-0.141	-0.282
-365.712	-54.806	-0.102	-0.046
-364.698	-3.564	-0.199	-0.137
-363.683	118.212	0.223	0.273
-362.669	-200.000	0.026	0.439
-361.654	800.000	0.117	-0.343
-360.639	15.376	-0.344	0.268
-359.625	-127.747	-0.177	0.025
-358.610	-199.158	0.029	-0.000
-357.596	-57.189	-0.269	0.117
-356.581	-129.157	0.339	0.047
-355.566	-126.574	-0.108	0.016
-354.552	89.682	-0.138	-0.152
-353.537	-200.000	0.012	-0.383
-352.523	705.563	0.097	0.254
-351.508	-200.000	-0.014	-0.090
-350.493	62.149	0.241	-0.239
-349.479	-200.000	-0.084	-0.423
-348.464	-200.000	-0.010	0.175
-347.450	187.591	0.088	0.130
-346.435	-200.000	0.062	-0.277
-345.420	-200.000	0.002	0.397
-344.406	-36.413	-0.099	-0.053
-343.391	-200.000	0.011	0.174
-342.377	60.787	0.446	0.438
-341.362	800.000	0.069	0.235
-340.348	73.484	0.031	0.032
-339.333	29.065	-0.182	0.153
-338.318	-149.706	-0.268	0.021
-337.304	82.126	-0.213	-0.229
-336.289	-200.000	-0.020	0.189
-335.275	800.000	0.086	-0.322
-334.260	534.368	-0.093	0.219
-333.245	-163.612	-0.191	0.009
-332.231	778.799	0.040	0.108
-331.216	800.000	0.058	0.206
-330.202	-68.961	0.240	-0.092
-329.187	-164.009	0.132	-0.006
-328.172	-200.000	0.060	0.262
-327.158	-32.675	0.171	0.094
-326.143	116.398	0.071	-0.087
-325.129	225.851	0.114	0.184
-324.114	-200.000	0.001	-0.088
-323.099	-80.385	-0.109	0.036
-322.085	-200.000	0.037	0.304
-321.070	800.000	-0.028	0.118
-320.056	-200.000	-0.013	0.168
-319.041	-78.928	-0.213	0.072
-318.026	227.984	-0.078	0.126
-317.012	-42.157	-0.144	0.073
-315.997	-106.759	0.172	-0.038
-314.983	-200.000	-0.050	-0.241
-313.968	674.800	0.036	-0.092
-312.953	298.117	0.124	-0.226
-311.939	-200.000	0.035	-0.270
-310.924	162.617	0.076	0.105
-309.910	242.095	0.041	0.069
-308.895	-170.200	0.327	0.011
-307.880	-95.441	0.353	-0.094
-306.866	42.227	-0.224	0.201
-305.851	-88.401	0.093	-0.027
-304.837	247.164	0.063	-0.106
-303.822	-200.000	0.019	-0.159
-302.807	-114.748	0.389	-0.074
-301.793	80.189	-0.175	-0.186
-300.778	-137.620	0.263	-0.029
-299.764	422.880	0.195	-0.415
-298.749	735.686	0.132	-0.351
-297.735	296.399	0.140	-0.254
-296.720	66.069	-0.065	-0.066
-295.705	49.008	-0.096	0.089
-294.691	-64.025	0.315	0.127
-293.676	209.119	-0.160	-0.249
-292.662	-59.855	-0.258	-0.109
-291.647	-200.000	-0.003	0.015
-290.632	-112.764	-0.112	0.022
-289.618	35.028	0.124	0.108
-288.603	-200.000	0.018	0.168
-287.589	800.000	-0.089	-0.368
-286.574	247.772	0.096	-0.160
-285.559	-150.361	-0.156	-0.012
-284.545	800.000	0.009	0.033
-283.530	-102.696	0.276	-0.065
-282.516	-54.913	-0.169	-0.075
-281.501	267.911	0.035	0.060
-280.486	-127.849	0.325	0.046
-279.472	-200.000	-0.049	-0.235
-278.457	800.000	0.131	-0.412
-277.443	-200.000	-0.001	-0.159
-276.428	49.836	0.050	0.046
-275.413	-75.676	0.215	0.075
-274.399	-19.750	0.293	0.179
-273.384	-108.541	-0.415	-0.088
-272.370	597.898	0.027	-0.067
-271.355	-123.027	0.219	0.035
-270.340	-26.851	0.058	0.033
-269.326	-81.838	0.098	0.032
-268.311	116.879	0.057	0.069
-267.297	-200.000	0.040	0.288
-266.282	-165.059	0.206	0.009
-265.267	-120.386	-0.145	0.024
-264.253	24.754	-0.172	0.140
-263.238	-37.841	-0.143	-0.075
-262.224	-137.065	-0.301	0.034
-261.209	-96.970	0.215	0.056
-260.195	249.498	0.172	0.289
-259.180	-200.000	0.044	0.283
-258.165	85.247	-0.108	0.117
-257.151	-139.719	0.203	0.021
-256.136	-77.477	0.209	-0.072
-255.122	800.000	-0.073	0.226
-254.107	156.869	-0.183	0.250
-253.092	-200.000	-0.021	-0.179
-252.078	49.986	0.150	-0.140
-251.063	-169.149	0.340	-0.012
-250.049	800.000	-0.056	-0.193
-249.034	424.049	-0.066	-0.140
-248.019	-29.617	0.253	0.143
-247.005	800.000	-0.140	-0.411
-245.990	-38.092	-0.156	-0.082
-244.976	61.700	0.252	0.248
-243.961	62.501	-0.163	0.161
-242.946	-38.503	0.361	0.188
-241.932	800.000	-0.102	0.390
-240.917	800.000	0.079	0.278
-239.903	-20.141	0.256	0.156
-238.888	-85.470	0.284	-0.087
-237.873	133.878	-0.129	-0.165
-236.859	236.197	-0.094	0.153
-235.844	518.952	-0.089	0.207
-234.830	-91.255	-0.120	-0.034
-233.815	141.762	-0.128	0.167
-232.800	498.746	0.061	0.138
-231.786	-83.672	-0.116	-0.036
-230.771	311.470	-0.156	0.289
-229.757	800.000	0.076	0.229
-228.742	110.225	0.324	0.384
-227.727	-155.080	0.215	-0.014
-226.713	468.046	-0.099	0.219
-225.698	16.433	0.055	0.043
-224.684	50.870	-0.059	0.055
-223.669	800.000	0.043	-0.125
-222.655	-183.238	0.086	-0.001
-221.640	6.532	0.097	0.071
-220.625	800.000	-0.090	-0.250
-219.611	440.924	-0.107	0.230
-218.596	296.362	-0.085	-0.154
-217.582	800.000	-0.031	-0.107
-216.567	-170.354	0.441	0.015
-215.552	-200.000	-0.008	0.072
-214.538	-146.541	0.062	-0.005
-213.523	65.810	0.209	0.209
-212.509	-101.726	-0.023	-0.005
-211.494	189.846	0.220	0.326
-210.479	-3.758	-0.136	0.093
-209.465	-32.871	-0.271	-0.148
-208.450	637.881	-0.094	-0.237
-207.436	286.838	-0.158	-0.281
-206.421	-178.658	-0.131	0.003
-205.406	-200.000	0.003	-0.158
-204.392	-42.524	-0.223	0.112
-203.377	-119.905	-0.141	-0.024
-202.363	229.122	0.046	0.074
-201.348	-52.393	0.207	-0.094
-200.333	-50.556	0.166	0.077
-199.319	-76.552	0.255	-0.088
-198.304	111.110	-0.147	0.174
-197.290	-46.588	-0.189	0.091
-196.275	175.439	-0.328	0.469
-195.260	81.883	-0.046	0.049
-194.246	-200.000	0.007	0.036
-193.231	-41.759	-0.119	0.060
-192.217	-140.047	0.320	0.033
-191.202	181.458	0.236	-0.343
-190.187	55.982	0.239	-0.228
-189.173	-200.000	0.025	0.363
-188.158	-154.380	-0.090	0.006
-187.144	-74.256	0.294	0.105
-186.129	-200.000	0.003	-0.239
-185.114	198.565	-0.219	0.330
-184.100	-93.172	0.105	0.029
-183.085	65.747	-0.022	-0.022
-182.071	-200.000	-0.066	0.353
-181.056	-94.146	0.261	0.070
-180.042	129.244	0.141	0.177
-179.027	800.000	-0.022	-0.074
-178.012	15.783	-0.084	0.065
-176.998	40.111	0.216	0.192
-175.983	-121.933	0.381	0.062
-174.969	-200.000	0.017	-0.337
-173.954	175.928	-0.067	0.095
-172.939	-200.000	-0.009	0.167
-171.925	-39.273	0.268	-0.138
-170.910	34.371	-0.128	0.110
-169.896	94.698	0.110	0.124
-168.881	456.041	0.067	-0.146
-167.866	17.717	-0.196	-0.153
-166.852	-3.205	0.053	-0.036
-165.837	800.000	-0.063	0.206
-164.823	800.000	0.021	0.088
-163.808	-160.368	-0.163	-0.009
-162.793	-8.908	0.199	0.131
-161.779	800.000	-0.107	-0.344
-160.764	62.284	0.139	0.137
-159.750	-3.184	-0.153	0.105
-158.735	441.286	-0.135	-0.290
-157.720	-105.288	-0.414	0.093
-156.706	375.111	0.126	0.253
-155.691	212.315	0.288	-0.447
-154.677	-84.054	-0.102	0.032
-153.662	336.395	-0.025	0.047
-152.647	-5.143	0.082	0.055
-151.633	35.327	0.229	-0.198
-150.618	20.070	-0.074	-0.059
-149.604	-114.592	-0.346	0.065
-148.589	-171.327	-0.226	0.007
-147.574	-200.000	-0.013	0.261
-146.560	-200.000	-0.041	0.344
-145.545	800.000	-0.079	0.276
-144.531	288.857	0.124	0.221
-143.516	-49.720	0.201	-0.094
-142.502	-112.611	0.456	-0.089
-141.487	800.000	0.059	0.171
-140.472	-200.000	-0.040	0.361
-139.458	-23.706	0.254	0.150
-138.443	184.790	-0.042	-0.061
-137.429	249.580	0.160	-0.268
-136.414	-57.456	-0.237	0.102
-135.399	62.377	0.219	0.215
-134.385	-154.173	-0.069	0.005
-133.370	-127.565	-0.081	0.012
-132.356	-200.000	-0.004	-0.104
-131.341	107.047	-0.117	0.136
-130.326	-200.000	0.016	-0.202
-129.312	-97.674	0.301	-0.077
-128.297	13.462	-0.229	-0.175
-127.283	124.343	0.070	-0.087
-126.268	-62.468	-0.413	0.169
-125.253	70.303	0.086	0.088
-124.239	-183.993	-0.208	0.003
-123.224	147.968	0.116	-0.153
-122.210	-71.903	-0.109	0.040
-121.195	-200.000	-0.059	-0.311
