DTS Sentinel unit serial number:	SN413079Multiplexer serial number:	ORYXHardware model number:	OX4-SRSoftware version number:	ORYX F/W v4.00 Oryx Data Collector v3.7.2.0data status	okinstallation	princeton_trtdifferential loss correction	single-endedforward channel	channel 3reverse channel	N/Adate	2019/09/15time	18:28:34forward acquisition time	60.00reverse acquisition time	0.00gamma	496.2192k internal	0.2287k external	0.2287temperature offset calibration	0.9929default loss term (dB/km)	0.3790temperature slope calibration	1.0000multiplexer offset coefficient	1.0000multiplexer slope coefficient	1.0000fibre end	0.00T internal ref (°C)	44.14T ext. ref 1 (°C)	6.72T ext. ref 2 (°C)	37.51length (m)	temperature (°C)	Stokes	anti-Stokes-747.200	-97.827	0.069	-0.018
-746.185	-125.264	-0.164	-0.026
-745.171	-200.000	-0.046	0.347
-744.156	-200.000	0.014	0.213
-743.142	182.283	-0.165	0.250
-742.127	399.714	-0.181	0.390
-741.112	-118.249	0.179	0.033
-740.098	-200.000	0.031	0.212
-739.083	309.894	-0.207	0.397
-738.069	146.664	-0.087	0.120
-737.054	26.432	-0.365	0.313
-736.039	49.533	-0.167	0.162
-735.025	-154.547	0.163	0.011
-734.010	-200.000	-0.012	0.060
-732.996	-200.000	0.005	0.063
-731.981	-129.343	0.221	-0.031
-730.966	800.000	-0.091	0.295
-729.952	62.210	-0.013	0.013
-728.937	-200.000	-0.038	-0.221
-727.923	-200.000	-0.007	-0.248
-726.908	-87.034	0.123	-0.039
-725.894	-74.731	-0.142	0.052
-724.879	-200.000	0.005	0.089
-723.864	43.617	-0.146	-0.137
-722.850	393.721	-0.107	-0.229
-721.835	22.282	-0.088	-0.074
-720.821	-185.114	-0.182	-0.003
-719.806	101.505	-0.373	-0.445
-718.791	-92.580	-0.334	-0.096
-717.777	-38.646	0.192	-0.104
-716.762	137.942	-0.221	-0.296
-715.748	800.000	-0.104	-0.388
-714.733	-81.121	0.164	0.056
-713.718	800.000	-0.102	0.332
-712.704	-39.041	-0.279	0.151
-711.689	25.148	0.048	-0.041
-710.675	-57.781	-0.338	0.151
-709.660	-200.000	-0.004	0.029
-708.645	-171.624	0.255	0.009
-707.631	296.915	-0.080	0.150
-706.616	-200.000	0.001	-0.181
-705.602	194.048	-0.088	0.136
-704.587	-118.945	0.105	-0.019
-703.572	124.678	0.212	-0.274
-702.558	800.000	0.030	-0.107
-701.543	-200.000	-0.048	-0.249
-700.529	-200.000	0.007	0.267
-699.514	-60.133	-0.156	0.068
-698.499	-200.000	-0.088	-0.491
-697.485	296.393	0.124	-0.232
-696.470	-200.000	-0.029	-0.140
-695.456	-64.938	0.057	-0.024
-694.441	-84.482	-0.046	-0.015
-693.426	-70.049	0.050	-0.019
-692.412	59.834	-0.137	0.138
-691.397	800.000	-0.063	0.242
-690.383	-93.568	0.212	0.060
-689.368	-30.683	-0.204	0.118
-688.354	800.000	-0.099	0.313
-687.339	-200.000	-0.017	-0.114
-686.324	-35.399	0.263	-0.146
-685.310	259.665	0.091	-0.161
-684.295	136.124	-0.049	-0.066
-683.281	9.711	-0.193	0.149
-682.266	-52.509	-0.281	-0.133
-681.251	145.111	0.049	-0.068
-680.237	90.105	-0.088	0.100
-679.222	800.000	-0.044	0.155
-678.208	800.000	0.039	0.132
-677.193	402.387	0.005	-0.010
-676.178	16.226	-0.145	0.117
-675.164	800.000	-0.037	0.144
-674.149	800.000	-0.070	0.204
-673.135	97.866	-0.130	-0.153
-672.120	544.919	-0.070	-0.172
-671.105	39.620	-0.038	0.035
-670.091	-14.023	-0.218	-0.144
-669.076	130.531	-0.334	0.437
-668.062	297.219	0.069	0.130
-667.047	-97.660	-0.286	-0.076
-666.032	117.828	0.177	-0.223
-665.018	-82.620	0.280	0.093
-664.003	-200.000	0.004	-0.210
-662.989	-92.031	0.054	-0.016
-661.974	-8.247	-0.274	-0.189
-660.959	-200.000	-0.023	0.215
-659.945	-116.324	-0.407	0.077
-658.930	150.687	-0.216	0.300
-657.916	11.842	0.195	0.153
-656.901	-94.405	-0.222	-0.062
-655.886	177.142	-0.067	-0.099
-654.872	-0.918	-0.167	-0.121
-653.857	141.953	-0.080	-0.109
-652.843	-53.499	-0.242	0.113
-651.828	-4.528	0.394	0.278
-650.814	-0.673	0.383	0.278
-649.799	-131.480	0.244	-0.033
-648.784	-200.000	0.014	-0.285
-647.770	-200.000	-0.036	0.180
-646.755	456.340	-0.036	-0.083
-645.741	637.223	0.085	0.221
-644.726	-21.773	-0.122	-0.076
-643.711	30.245	-0.198	-0.173
-642.697	-92.200	-0.090	0.026
-641.682	-124.285	0.269	0.043
-640.668	7.550	-0.156	-0.119
-639.653	500.949	-0.079	-0.186
-638.638	-68.775	0.290	0.115
-637.624	6.808	-0.162	0.123
-636.609	-20.610	0.168	-0.106
-635.595	800.000	-0.037	-0.125
-634.580	36.605	-0.179	-0.161
-633.565	-200.000	0.014	-0.211
-632.551	-200.000	-0.005	0.082
-631.536	800.000	-0.083	-0.328
-630.522	622.812	0.068	-0.175
-629.507	-105.486	-0.311	0.072
-628.492	146.962	-0.052	-0.071
-627.478	-1.703	0.146	-0.105
-626.463	-60.082	0.261	0.114
-625.449	-37.107	0.038	0.021
-624.434	-28.160	-0.227	0.134
-623.419	-134.742	0.084	0.010
-622.405	69.473	0.120	0.126
-621.390	390.868	-0.140	-0.296
-620.376	-154.167	0.164	-0.011
-619.361	-110.908	0.259	0.054
-618.346	410.321	0.073	0.159
-617.332	-16.859	-0.382	-0.246
-616.317	-107.065	0.438	-0.099
-615.303	-21.386	0.065	-0.040
-614.288	-200.000	-0.007	-0.118
-613.273	2.097	-0.289	-0.213
-612.259	96.700	0.120	0.140
-611.244	25.757	-0.146	0.124
-610.230	-113.502	-0.035	-0.007
-609.215	-97.780	-0.254	0.067
-608.201	800.000	-0.055	0.221
-607.186	-30.632	-0.125	0.072
-606.171	342.401	0.081	0.162
-605.157	98.382	0.136	0.160
-604.142	-67.832	0.124	-0.050
-603.128	239.964	-0.140	0.238
-602.113	-86.469	-0.231	-0.072
-601.098	-59.152	-0.220	-0.097
-600.084	-21.898	-0.219	-0.136
-599.069	91.836	0.057	0.065
-598.055	-146.205	-0.400	0.036
-597.040	88.949	0.092	-0.105
-596.025	-200.000	0.028	0.143
-595.011	-106.844	0.164	-0.037
-593.996	680.639	0.025	-0.067
-592.982	-125.680	-0.063	-0.010
-591.967	20.657	0.057	0.047
-590.952	665.457	-0.077	-0.203
-589.938	-174.598	-0.248	0.007
-588.923	74.190	0.067	-0.072
-587.909	-131.524	-0.140	0.019
-586.894	762.809	-0.076	0.211
-585.879	-134.360	-0.103	-0.013
-584.865	8.735	0.208	0.159
-583.850	-129.642	-0.165	0.023
-582.836	-200.000	-0.019	-0.195
-581.821	-67.366	0.186	-0.075
-580.806	-139.151	-0.288	-0.032
-579.792	-126.642	0.186	0.028
-578.777	89.559	-0.101	0.114
-577.763	-57.602	0.135	0.060
-576.748	-200.000	-0.074	-0.333
-575.733	800.000	0.117	-0.368
-574.719	-200.000	0.041	-0.192
-573.704	293.614	-0.084	0.155
-572.690	-118.246	-0.137	0.025
-571.675	-4.968	-0.368	-0.258
-570.661	-200.000	-0.001	-0.081
-569.646	-79.045	0.227	0.079
-568.631	18.705	0.079	0.064
-567.617	351.442	-0.177	0.358
-566.602	-43.512	-0.146	0.075
-565.588	-47.104	0.144	0.071
-564.573	147.084	-0.172	0.236
-563.558	92.502	0.072	0.083
-562.544	-200.000	0.017	-0.143
-561.529	-43.221	0.087	-0.045
-560.515	116.967	-0.224	-0.280
-559.500	-200.000	-0.005	-0.093
-558.485	-128.591	0.152	-0.022
-557.471	183.968	-0.119	0.180
-556.456	-59.338	-0.062	0.027
-555.442	303.119	-0.127	0.240
-554.427	666.879	0.136	-0.358
-553.412	152.981	-0.182	-0.253
-552.398	-200.000	0.028	-0.162
-551.383	800.000	0.017	0.059
-550.369	346.652	0.064	-0.128
-549.354	-200.000	0.046	-0.357
-548.339	-180.082	0.142	-0.003
-547.325	-145.289	-0.247	-0.023
-546.310	-132.595	0.151	-0.020
-545.296	-99.704	0.175	0.045
-544.281	286.264	0.014	-0.026
-543.266	-47.447	0.068	-0.034
-542.252	217.176	0.046	-0.074
-541.237	-26.902	0.270	-0.161
-540.223	455.649	-0.055	-0.124
-539.208	42.640	-0.194	-0.180
-538.193	-200.000	-0.028	-0.335
-537.179	132.526	-0.091	-0.119
-536.164	-128.739	0.137	-0.020
-535.150	-98.954	0.175	-0.045
-534.135	64.450	0.092	0.094
-533.121	-200.000	-0.004	-0.192
-532.106	-39.423	-0.233	0.124
-531.091	36.239	0.168	0.151
-530.077	82.729	-0.232	0.256
-529.062	12.091	-0.137	0.107
-528.048	209.329	0.031	-0.050
-527.033	-148.416	-0.479	-0.040
-526.018	79.191	-0.066	0.072
-525.004	31.240	-0.133	0.116
-523.989	800.000	-0.067	-0.276
-522.975	-32.066	0.069	-0.039
-521.960	691.531	0.084	0.224
-520.945	-62.073	-0.112	0.048
-519.931	-142.934	-0.442	0.044
-518.916	43.919	0.043	-0.040
-517.902	167.597	-0.250	-0.361
-516.887	332.722	-0.116	-0.229
-515.872	-126.033	-0.113	0.017
-514.858	-26.529	0.133	-0.079
-513.843	-4.802	-0.166	-0.116
-512.829	-38.363	0.168	-0.090
-511.814	12.909	-0.070	-0.055
-510.799	-200.000	-0.049	-0.289
-509.785	347.208	-0.058	0.116
-508.770	-66.773	0.183	-0.073
-507.756	179.294	-0.067	0.100
-506.741	-28.707	-0.146	0.086
-505.726	128.514	-0.173	0.224
-504.712	85.378	-0.054	0.060
-503.697	41.873	-0.042	0.038
-502.683	-20.733	-0.066	-0.041
-501.668	369.208	-0.167	0.343
-500.653	-47.545	-0.477	0.236
-499.639	194.085	0.078	-0.120
-498.624	-59.948	-0.148	0.064
-497.610	399.726	0.069	-0.147
-496.595	13.093	-0.291	0.229
-495.581	-200.000	-0.026	0.336
-494.566	-172.071	-0.288	0.009
-493.551	97.331	0.074	-0.086
-492.537	47.240	-0.197	0.186
-491.522	33.611	0.285	0.252
-490.508	-200.000	0.000	-0.261
-489.493	48.216	0.292	-0.277
-488.478	138.165	-0.162	-0.216
-487.464	24.213	-0.097	-0.082
-486.449	-51.303	0.039	0.018
-485.435	-97.985	0.148	-0.039
-484.420	-155.387	-0.164	0.011
-483.405	247.637	0.041	-0.070
-482.391	-55.845	-0.163	0.074
-481.376	800.000	-0.115	0.342
-480.362	-9.964	0.211	-0.142
-479.347	-126.281	-0.239	-0.036
-478.332	152.582	-0.190	0.263
-477.318	-11.161	-0.191	0.128
-476.303	800.000	-0.004	0.016
-475.289	-164.715	-0.203	-0.009
-474.274	-84.609	0.361	-0.115
-473.259	-200.000	-0.019	0.135
-472.245	16.637	-0.174	-0.139
-471.230	173.698	-0.075	-0.110
-470.216	-52.696	0.184	-0.086
-469.201	265.098	0.046	-0.081
-468.186	227.443	0.055	0.091
-467.172	-41.334	-0.131	0.068
-466.157	2.713	0.133	-0.098
-465.143	76.361	0.123	-0.132
-464.128	-82.042	-0.172	-0.057
-463.113	-200.000	0.004	-0.209
-462.099	75.712	-0.095	0.102
-461.084	255.083	-0.059	-0.102
-460.070	-200.000	-0.010	-0.273
-459.055	-93.521	-0.266	0.075
-458.040	-60.109	0.076	-0.033
-457.026	800.000	-0.028	-0.123
-456.011	-52.772	0.133	0.062
-454.997	-192.062	-0.293	0.003
-453.982	-200.000	0.052	-0.312
-452.968	-179.952	0.317	0.007
-451.953	-200.000	0.017	0.168
-450.938	-34.316	0.285	0.159
-449.924	117.821	-0.158	0.198
-448.909	-73.549	0.207	0.077
-447.895	-200.000	-0.005	0.264
-446.880	-8.337	0.286	0.195
-445.865	-13.165	-0.267	-0.176
-444.851	-143.125	-0.222	-0.022
-443.836	800.000	0.087	-0.260
-442.822	-13.221	-0.083	0.055
-441.807	-87.865	-0.141	0.043
-440.792	-52.927	0.016	0.007
-439.778	-200.000	-0.010	0.068
-438.763	-200.000	0.011	0.084
-437.749	-99.055	0.279	0.072
-436.734	278.260	0.110	0.199
-435.719	-164.255	0.176	-0.008
-434.705	72.958	-0.204	0.216
-433.690	-200.000	-0.002	0.310
-432.676	-69.236	0.130	0.051
-431.661	-120.746	-0.449	0.077
-430.646	-200.000	-0.006	-0.034
-429.632	141.864	-0.111	-0.149
-428.617	-65.512	0.151	-0.062
-427.603	129.390	0.127	-0.164
-426.588	95.905	0.059	0.068
-425.573	172.059	0.087	-0.127
-424.559	97.313	-0.454	-0.528
-423.544	-104.841	0.168	-0.039
-422.530	22.654	0.157	0.130
-421.515	-49.620	-0.138	0.067
-420.500	81.209	-0.225	0.246
-419.486	800.000	0.034	0.131
-418.471	20.630	0.307	-0.252
-417.457	-71.006	-0.119	0.045
-416.442	227.214	-0.139	0.229
-415.428	-6.647	0.209	0.144
-414.413	-200.000	0.033	0.346
-413.398	-170.836	-0.236	-0.008
-412.384	212.921	0.179	0.287
-411.369	-172.068	-0.279	0.009
-410.355	29.603	-0.141	-0.121
-409.340	-13.422	0.214	0.140
-408.325	23.878	-0.271	0.226
-407.311	-4.840	0.244	-0.170
-406.296	-200.000	-0.037	-0.547
-405.282	-153.463	-0.111	0.008
-404.267	-165.970	-0.105	-0.005
-403.252	-82.865	0.561	0.183
-402.238	-166.381	0.177	-0.008
-401.223	-200.000	0.020	0.128
-400.209	488.539	-0.012	-0.029
-399.194	148.942	0.120	-0.164
-398.179	-6.315	-0.100	-0.069
-397.165	18.177	-0.110	-0.089
-396.150	-43.247	-0.085	-0.044
-395.136	-91.623	0.142	0.041
-394.121	-200.000	0.042	-0.282
-393.106	800.000	0.149	-0.427
-392.092	-95.463	-0.147	-0.040
-391.077	-200.000	-0.010	0.073
-390.063	84.629	0.153	0.169
-389.048	105.712	0.142	-0.170
-388.033	120.712	-0.118	-0.149
-387.019	290.771	0.093	0.170
-386.004	141.663	-0.079	-0.105
-384.990	-107.610	-0.196	0.043
-383.975	-31.984	0.252	0.143
-382.960	-200.000	0.063	0.379
-381.946	293.680	0.108	-0.199
-380.931	155.227	0.176	-0.246
-379.917	-200.000	-0.052	0.405
-378.902	137.298	-0.083	0.109
-377.888	-148.559	0.017	0.001
-376.873	40.976	-0.163	0.149
-375.858	800.000	0.009	0.032
-374.844	75.906	0.140	0.150
-373.829	211.949	-0.035	0.055
-372.815	-95.007	0.177	0.048
-371.800	-58.001	-0.174	-0.077
-370.785	-70.730	-0.152	-0.058
-369.771	800.000	-0.069	-0.244
-368.756	31.101	-0.057	-0.050
-367.742	-162.566	0.392	-0.020
-366.727	14.333	-0.074	0.059
-365.712	800.000	-0.036	-0.105
-364.698	-200.000	0.017	0.127
-363.683	-104.157	0.019	-0.005
-362.669	800.000	0.038	-0.120
-361.654	800.000	-0.075	-0.252
-360.639	-46.080	0.419	0.209
-359.625	-200.000	0.029	0.445
-358.610	-42.016	0.342	0.177
-357.596	90.077	-0.173	0.195
-356.581	386.250	-0.226	0.472
-355.566	-91.397	-0.288	0.083
-354.552	-69.426	-0.156	0.061
-353.537	-200.000	0.061	0.000
-352.523	378.611	0.117	0.242
-351.508	120.385	0.067	0.084
-350.493	-200.000	-0.015	0.221
-349.479	169.064	-0.080	-0.115
-348.464	-200.000	0.029	-0.404
-347.450	-131.780	0.152	-0.020
-346.435	-20.238	0.194	-0.121
-345.420	-200.000	0.009	-0.373
-344.406	54.676	-0.168	-0.163
-343.391	-161.871	0.125	0.006
-342.377	252.459	0.123	-0.212
-341.362	61.070	0.276	0.276
-340.348	392.956	0.155	0.326
-339.333	-29.674	-0.147	-0.084
-338.318	194.674	0.161	-0.246
-337.304	97.460	-0.115	0.133
-336.289	-200.000	0.017	-0.102
-335.275	439.205	-0.123	-0.272
-334.260	-108.634	-0.268	0.058
-333.245	-57.247	0.203	0.090
-332.231	-87.965	0.254	0.077
-331.216	58.050	0.143	-0.141
-330.202	-200.000	0.104	-0.503
-329.187	144.187	0.178	-0.240
-328.172	-144.995	0.381	0.035
-327.158	800.000	0.101	0.326
-326.143	-100.184	-0.127	-0.032
-325.129	-108.045	-0.204	-0.045
-324.114	-70.681	-0.221	0.084
-323.099	-159.638	-0.089	-0.005
-322.085	143.693	0.207	-0.278
-321.070	-71.920	-0.202	0.076
-320.056	-116.249	0.165	0.031
-319.041	107.308	-0.155	0.186
-318.026	-105.672	-0.290	0.066
-317.012	-87.027	-0.295	-0.091
-315.997	-4.462	0.140	0.098
-314.983	72.998	0.232	0.245
-313.968	-91.299	0.127	-0.037
-312.953	800.000	0.014	0.050
-311.939	-200.000	-0.090	0.000
-310.924	635.901	0.116	0.297
-309.910	-117.732	-0.309	0.056
-308.895	-83.295	-0.173	0.056
-307.880	92.790	-0.207	0.236
-306.866	71.874	0.145	0.152
-305.851	800.000	0.026	-0.110
-304.837	16.559	-0.171	-0.136
-303.822	-200.000	0.027	0.222
-302.807	-173.956	0.086	0.003
-301.793	299.522	-0.161	0.299
-300.778	-178.361	0.080	-0.002
-299.764	800.000	-0.133	0.418
-298.749	11.729	0.222	-0.171
-297.735	117.949	-0.258	0.320
-296.720	76.902	-0.146	0.156
-295.705	-66.514	0.242	0.097
-294.691	22.402	0.165	0.136
-293.676	-181.964	-0.083	0.002
-292.662	352.795	-0.125	-0.249
-291.647	800.000	-0.183	-0.562
-290.632	-200.000	0.018	0.113
-289.618	-147.322	0.134	-0.011
-288.603	-70.058	-0.299	0.115
-287.589	-200.000	-0.016	-0.112
-286.574	-109.083	-0.397	0.085
-285.559	134.386	-0.153	0.200
-284.545	-168.135	0.078	-0.003
-283.530	-23.071	-0.245	-0.148
-282.516	29.327	0.287	-0.246
-281.501	505.611	0.105	-0.245
-280.486	47.015	0.300	0.281
-279.472	683.061	-0.072	0.188
-278.457	492.914	0.104	-0.241
-277.443	-104.289	-0.090	-0.021
-276.428	-91.465	-0.168	-0.048
-275.413	-200.000	-0.009	-0.308
-274.399	-165.807	-0.360	0.016
-273.384	747.476	0.019	-0.053
-272.370	-20.109	0.154	-0.095
-271.355	-166.211	0.189	-0.008
-270.340	118.612	0.241	-0.300
-269.326	134.518	-0.122	-0.160
-268.311	465.688	0.068	0.153
-267.297	-106.253	0.595	0.134
-266.282	-200.000	0.012	-0.125
-265.267	-131.414	0.315	0.042
-264.253	-96.211	0.199	0.053
-263.238	402.007	0.071	0.150
-262.224	800.000	0.087	0.266
-261.209	-136.869	0.174	0.020
-260.195	71.231	-0.223	-0.233
-259.180	-130.189	-0.194	-0.027
-258.165	594.574	-0.031	-0.077
-257.151	463.235	-0.079	-0.179
-256.136	91.356	-0.151	-0.170
-255.122	-117.272	-0.154	-0.028
-254.107	232.974	0.161	0.266
-253.092	-165.945	-0.274	0.012
-252.078	-200.000	0.045	0.225
-251.063	296.294	-0.124	0.228
-250.049	-25.302	0.042	-0.025
-249.034	602.927	-0.034	-0.086
-248.019	-200.000	0.019	-0.191
-247.005	94.822	-0.170	-0.194
-245.990	33.307	0.192	-0.167
-244.976	800.000	-0.055	-0.172
-243.961	87.634	0.175	0.195
-242.946	392.921	0.103	0.215
-241.932	46.282	0.080	0.074
-240.917	85.667	-0.041	0.045
-239.903	270.867	0.061	-0.108
-238.888	158.196	-0.043	-0.061
-237.873	791.020	0.095	0.262
-236.859	-200.000	0.031	0.454
-235.844	-22.726	-0.406	-0.247
-234.830	-200.000	0.010	-0.116
-233.815	527.105	-0.046	0.110
-232.800	16.655	-0.129	0.102
-231.786	513.471	0.151	0.355
-230.771	305.489	-0.034	-0.064
-229.757	346.868	-0.056	-0.111
-228.742	-68.626	0.086	-0.034
-227.727	45.555	0.151	-0.140
-226.713	-18.731	0.024	-0.015
-225.698	248.920	0.095	-0.161
-224.684	-80.940	0.061	0.020
-223.669	-200.000	-0.025	0.171
-222.655	58.694	-0.175	0.173
-221.640	-102.746	0.180	0.043
-220.625	187.535	0.190	0.284
-219.611	-78.072	0.258	0.089
-218.596	800.000	-0.062	-0.219
-217.582	-106.405	-0.088	-0.020
-216.567	-130.211	-0.192	0.026
-215.552	721.234	-0.078	-0.209
-214.538	800.000	-0.034	0.142
-213.523	184.002	0.117	-0.174
-212.509	194.217	-0.076	0.116
-211.494	-111.774	-0.187	0.038
-210.479	87.249	0.242	-0.269
-209.465	-134.364	0.182	-0.022
-208.450	192.864	0.124	0.188
-207.436	566.788	0.083	0.203
-206.421	-200.000	0.012	-0.062
-205.406	-200.000	-0.032	-0.184
-204.392	444.745	-0.221	-0.487
-203.377	-94.051	0.093	-0.026
-202.363	-10.323	-0.052	-0.035
-201.348	267.144	0.111	-0.194
-200.333	9.873	-0.104	-0.079
-199.319	-32.448	0.068	-0.038
-198.304	448.607	-0.040	-0.088
-197.290	-93.683	-0.147	-0.041
-196.275	-24.876	0.325	-0.194
-195.260	-111.271	0.532	0.109
-194.246	-20.196	0.044	-0.027
-193.231	-54.122	0.247	0.113
-192.217	226.366	0.086	-0.140
-191.202	149.854	0.192	-0.261
-190.187	-89.031	0.212	-0.063
-189.173	-59.135	0.288	0.125
-188.158	-184.510	-0.234	0.004
-187.144	-137.281	0.095	0.011
-186.129	-14.733	0.244	-0.157
-185.114	202.908	0.286	0.443
-184.100	-162.754	0.342	-0.017
-183.085	-196.327	0.123	-0.001
-182.071	-9.570	-0.106	-0.071
-181.056	-7.516	0.051	0.034
-180.042	-28.648	0.298	0.172
-179.027	56.015	0.265	-0.258
-178.012	-42.503	-0.271	0.139
-176.998	-200.000	0.032	0.262
-175.983	178.310	-0.049	-0.072
-174.969	6.196	-0.055	0.041
-173.954	800.000	0.050	-0.205
-172.939	34.937	-0.127	0.111
-171.925	548.777	0.116	-0.280
-170.910	800.000	-0.095	0.298
-169.896	145.089	0.133	0.179
-168.881	60.492	0.247	0.246
-167.866	800.000	-0.042	0.153
-166.852	57.865	-0.173	-0.170
-165.837	-200.000	0.013	-0.076
-164.823	800.000	-0.082	0.290
-163.808	161.978	-0.078	0.110
-162.793	-66.429	0.167	-0.066
-161.779	186.624	-0.073	0.109
-160.764	2.848	-0.422	0.307
-159.750	88.522	-0.029	0.032
-158.735	-45.448	0.129	-0.064
-157.720	72.674	0.104	0.109
-156.706	60.732	-0.063	-0.063
-155.691	-84.764	0.143	0.045
-154.677	-88.009	0.352	0.106
-153.662	-73.496	0.254	0.093
-152.647	-200.000	0.041	-0.232
-151.633	-200.000	0.040	0.341
-150.618	-12.995	-0.111	0.072
-149.604	49.320	0.276	-0.261
-148.589	-200.000	0.013	-0.072
-147.574	215.989	-0.119	0.190
-146.560	-147.695	-0.033	-0.003
-145.545	-61.576	-0.162	0.068
-144.531	34.247	-0.260	0.227
-143.516	-200.000	0.010	0.136
-142.502	658.031	0.104	-0.269
-141.487	800.000	0.081	0.291
-140.472	-138.555	-0.083	0.009
-139.458	-135.769	0.145	0.017
-138.443	-42.549	-0.216	0.110
-137.429	-200.000	-0.016	-0.090
-136.414	800.000	-0.054	0.176
-135.399	50.988	0.249	0.236
-134.385	-15.455	0.207	0.133
-133.370	-108.558	0.350	0.075
-132.356	168.590	-0.128	0.182
-131.341	-94.717	-0.208	0.056
-130.326	-200.000	-0.018	0.131
-129.312	142.362	-0.046	0.061
-128.297	24.694	-0.233	0.193
-127.283	-57.395	0.062	0.027
-126.268	37.146	0.295	0.261
-125.253	360.350	-0.073	0.147
-124.239	-200.000	0.029	0.276
-123.224	-78.482	-0.287	0.098
-122.210	27.976	-0.111	0.093
-121.195	-169.673	0.152	-0.006
-120.180	-27.962	0.135	0.078
