DTS Sentinel unit serial number:	SN413079Multiplexer serial number:	ORYXHardware model number:	OX4-SRSoftware version number:	ORYX F/W v4.00 Oryx Data Collector v3.7.2.0data status	okinstallation	princeton_trtdifferential loss correction	single-endedforward channel	channel 3reverse channel	N/Adate	2019/09/16time	15:56:35forward acquisition time	60.00reverse acquisition time	0.00gamma	496.2192k internal	0.2292k external	0.2292temperature offset calibration	0.9944default loss term (dB/km)	0.3790temperature slope calibration	1.0000multiplexer offset coefficient	1.0000multiplexer slope coefficient	1.0000fibre end	0.00T internal ref (°C)	41.06T ext. ref 1 (°C)	14.87T ext. ref 2 (°C)	35.58length (m)	temperature (°C)	Stokes	anti-Stokes-747.200	627.782	-0.022	0.058
-746.185	181.150	-0.114	0.171
-745.171	-38.120	0.188	0.102
-744.156	800.000	0.072	0.251
-743.142	-69.513	0.307	0.120
-742.127	-200.000	-0.027	0.214
-741.112	-119.356	-0.055	-0.010
-740.098	800.000	-0.006	-0.020
-739.083	-89.855	0.016	0.005
-738.069	427.673	-0.174	0.385
-737.054	-200.000	-0.014	-0.103
-736.039	-89.530	-0.037	-0.011
-735.025	-200.000	0.026	0.273
-734.010	-67.947	-0.127	0.051
-732.996	-57.888	0.374	-0.167
-731.981	800.000	0.048	-0.143
-730.966	129.641	-0.215	-0.281
-729.952	-200.000	-0.020	0.152
-728.937	11.220	-0.252	0.197
-727.923	-89.301	0.159	0.048
-726.908	-200.000	-0.016	-0.104
-725.894	-125.869	-0.241	-0.037
-724.879	432.835	-0.053	-0.117
-723.864	674.951	-0.050	-0.133
-722.850	-106.915	-0.355	0.080
-721.835	480.885	-0.156	0.362
-720.821	-58.328	0.080	0.035
-719.806	800.000	0.120	-0.409
-718.791	-200.000	-0.015	-0.078
-717.777	130.861	-0.153	-0.200
-716.762	-14.663	0.070	0.046
-715.748	800.000	0.024	-0.077
-714.733	-58.171	-0.201	-0.089
-713.718	-166.480	-0.217	-0.009
-712.704	57.711	-0.182	-0.182
-711.689	-4.285	-0.151	-0.107
-710.675	-130.331	-0.149	-0.021
-709.660	-32.956	-0.181	-0.103
-708.645	337.129	-0.127	-0.252
-707.631	-102.730	-0.131	-0.032
-706.616	136.078	0.093	0.124
-705.602	-200.000	0.061	-0.375
-704.587	16.987	0.100	0.081
-703.572	196.922	-0.162	0.253
-702.558	800.000	-0.093	-0.277
-701.543	-123.647	-0.147	0.024
-700.529	316.239	-0.073	-0.141
-699.514	800.000	0.101	-0.355
-698.499	307.165	0.125	-0.238
-697.485	-200.000	0.034	-0.445
-696.470	-200.000	-0.030	0.139
-695.456	110.718	0.167	-0.206
-694.441	-146.474	0.067	-0.006
-693.426	-138.582	-0.284	-0.032
-692.412	-200.000	-0.021	0.267
-691.397	-132.005	0.091	0.012
-690.383	-78.917	-0.033	0.012
-689.368	-133.953	0.166	-0.021
-688.354	-47.607	0.289	-0.143
-687.339	-50.609	-0.086	-0.041
-686.324	-167.019	0.363	-0.015
-685.310	91.407	0.100	0.115
-684.295	-88.682	-0.194	0.059
-683.281	-18.592	-0.157	0.100
-682.266	-108.798	-0.139	-0.030
-681.251	58.952	-0.042	0.042
-680.237	108.286	-0.060	0.073
-679.222	229.878	0.028	-0.047
-678.208	800.000	-0.092	0.393
-677.193	329.408	-0.042	0.082
-676.178	1.509	0.070	0.051
-675.164	271.603	-0.131	0.235
-674.149	800.000	-0.044	-0.135
-673.135	200.131	0.029	-0.045
-672.120	-7.343	-0.062	-0.043
-671.105	-108.169	-0.182	-0.040
-670.091	-122.217	-0.328	0.055
-669.076	800.000	0.125	0.458
-668.062	-23.517	0.168	0.103
-667.047	423.818	-0.082	0.181
-666.032	800.000	0.098	0.350
-665.018	199.518	-0.101	0.158
-664.003	-124.625	0.158	-0.025
-662.989	-112.158	-0.397	0.081
-661.974	25.640	0.115	0.097
-660.959	-33.032	-0.216	0.122
-659.945	-173.992	0.163	-0.005
-658.930	-200.000	-0.009	0.129
-657.916	789.208	0.074	-0.209
-656.901	-200.000	0.010	-0.195
-655.886	-160.943	-0.296	0.016
-654.872	-172.325	0.149	0.005
-653.857	-55.885	0.223	-0.102
-652.843	-200.000	-0.043	-0.226
-651.828	13.681	-0.142	0.112
-650.814	-125.584	-0.258	0.040
-649.799	259.880	-0.180	0.317
-648.784	125.656	0.077	0.099
-647.770	-200.000	0.037	-0.272
-646.755	-54.703	-0.199	0.092
-645.741	-200.000	0.032	-0.337
-644.726	-71.613	-0.043	-0.017
-643.711	133.112	-0.269	0.354
-642.697	-200.000	-0.016	0.111
-641.682	442.505	0.062	-0.138
-640.668	-50.593	-0.191	0.092
-639.653	269.749	0.146	-0.261
-638.638	800.000	0.078	-0.331
-637.624	-112.551	-0.310	0.063
-636.609	800.000	0.042	-0.174
-635.595	-163.830	0.508	0.024
-634.580	180.458	0.052	0.077
-633.565	-94.743	-0.180	-0.050
-632.551	800.000	0.029	-0.121
-631.536	-68.060	-0.140	-0.056
-630.522	181.456	0.183	0.275
-629.507	-174.004	-0.491	-0.015
-628.492	737.616	-0.071	-0.194
-627.478	-107.137	-0.345	0.078
-626.463	38.021	-0.350	0.317
-625.449	-33.624	-0.270	-0.152
-624.434	-200.000	0.072	-0.340
-623.419	-0.609	-0.240	-0.173
-622.405	-103.327	-0.068	-0.016
-621.390	-200.000	0.012	-0.288
-620.376	355.731	-0.085	0.172
-619.361	172.122	0.280	0.410
-618.346	-7.787	0.315	-0.217
-617.332	800.000	0.053	-0.221
-616.317	-186.201	-0.096	0.001
-615.303	174.858	0.218	-0.322
-614.288	-18.266	0.162	-0.103
-613.273	800.000	0.093	-0.313
-612.259	800.000	-0.174	0.515
-611.244	-200.000	-0.020	0.309
-610.230	-84.956	-0.119	0.038
-609.215	-11.435	-0.233	-0.156
-608.201	800.000	0.045	-0.185
-607.186	-144.117	0.181	0.017
-606.171	213.670	0.151	-0.244
-605.157	382.325	0.087	0.182
-604.142	-200.000	0.047	0.230
-603.128	257.111	0.110	-0.192
-602.113	-200.000	0.023	-0.161
-601.098	371.093	-0.100	0.206
-600.084	21.811	0.148	-0.123
-599.069	-200.000	-0.012	-0.124
-598.055	-75.158	-0.431	-0.157
-597.040	473.268	-0.111	-0.254
-596.025	636.103	-0.205	-0.528
-595.011	171.476	-0.039	-0.056
-593.996	-200.000	-0.044	-0.211
-592.982	714.494	0.045	0.122
-591.967	51.750	-0.175	0.169
-590.952	-183.898	-0.061	0.001
-589.938	104.300	0.061	-0.073
-588.923	14.434	0.351	0.279
-587.909	-200.000	0.015	-0.358
-586.894	-48.970	0.242	-0.118
-585.879	436.461	0.127	0.281
-584.865	183.164	-0.050	-0.075
-583.850	-55.273	-0.310	-0.142
-582.836	-114.886	-0.067	0.013
-581.821	800.000	-0.084	0.298
-580.806	800.000	0.075	0.211
-579.792	800.000	-0.026	0.097
-578.777	54.742	-0.276	0.270
-577.763	800.000	-0.068	0.201
-576.748	66.312	0.269	-0.278
-575.733	-200.000	-0.098	0.531
-574.719	-60.167	-0.289	0.125
-573.704	-149.790	0.468	-0.037
-572.690	-52.015	0.130	-0.062
-571.675	-200.000	0.054	-0.284
-570.661	339.412	0.158	0.313
-569.646	-200.000	0.020	0.134
-568.631	-95.249	-0.119	-0.033
-567.617	800.000	-0.022	-0.089
-566.602	-66.841	0.279	-0.112
-565.588	-56.321	-0.089	-0.040
-564.573	-27.144	0.259	0.154
-563.558	-200.000	0.020	-0.239
-562.544	58.847	-0.177	0.177
-561.529	-200.000	-0.032	-0.389
-560.515	-166.757	-0.081	-0.003
-559.500	496.779	0.037	-0.087
-558.485	-200.000	0.020	0.112
-557.471	584.870	0.049	0.122
-556.456	-106.510	-0.202	0.046
-555.442	-200.000	0.010	0.148
-554.427	216.578	0.064	0.103
-553.412	23.166	0.069	-0.058
-552.398	-200.000	-0.002	-0.215
-551.383	-82.718	0.184	-0.060
-550.369	208.404	-0.056	0.089
-549.354	-132.460	-0.059	-0.008
-548.339	113.817	-0.136	0.168
-547.325	171.447	0.035	0.052
-546.310	800.000	-0.101	-0.386
-545.296	-200.000	-0.001	-0.131
-544.281	666.469	0.055	0.145
-543.266	-52.581	-0.129	-0.060
-542.252	800.000	-0.085	-0.251
-541.237	-20.912	0.253	-0.157
-540.223	-21.365	-0.261	0.162
-539.208	360.385	0.017	0.034
-538.193	-77.055	-0.173	0.061
-537.179	287.650	0.126	-0.230
-536.164	-200.000	0.050	-0.377
-535.150	91.809	0.075	-0.086
-534.135	29.683	-0.176	0.152
-533.121	422.518	-0.213	0.465
-532.106	55.823	-0.135	-0.133
-531.091	-86.928	0.558	0.173
-530.077	74.524	-0.260	0.278
-529.062	15.177	-0.221	0.175
-528.048	800.000	0.029	0.119
-527.033	19.554	-0.190	-0.155
-526.018	-127.050	0.105	0.016
-525.004	-24.206	0.334	0.202
-523.989	-200.000	0.013	0.122
-522.975	187.558	0.091	-0.138
-521.960	800.000	-0.051	-0.167
-520.945	-41.945	-0.121	-0.063
-519.931	-68.718	-0.169	-0.066
-518.916	103.582	0.167	0.198
-517.902	131.818	-0.123	0.160
-516.887	-162.361	0.248	-0.013
-515.872	-200.000	0.051	0.250
-514.858	439.371	-0.153	-0.339
-513.843	317.302	0.215	0.412
-512.829	800.000	-0.068	0.207
-511.814	-57.595	0.152	0.068
-510.799	800.000	-0.078	0.243
-509.785	-43.990	0.149	-0.076
-508.770	-18.233	-0.300	0.190
-507.756	-81.794	-0.122	-0.041
-506.741	-87.240	0.231	0.071
-505.726	-200.000	0.009	-0.078
-504.712	17.990	0.182	0.147
-503.697	-100.504	-0.195	-0.049
-502.683	61.985	0.168	-0.170
-501.668	800.000	0.057	-0.162
-500.653	51.504	-0.024	0.023
-499.639	-200.000	-0.028	0.615
-498.624	131.524	0.185	-0.241
-497.610	-129.581	-0.222	-0.031
-496.595	-96.736	-0.174	0.046
-495.581	782.336	0.016	0.043
-494.566	-71.678	0.123	-0.047
-493.551	-174.131	-0.246	0.007
-492.537	756.051	0.040	-0.109
-491.522	194.615	-0.115	-0.177
-490.508	800.000	0.047	0.169
-489.493	-191.711	0.192	-0.002
-488.478	103.358	0.066	0.079
-487.464	-200.000	0.010	0.150
-486.449	51.256	-0.162	0.156
-485.435	53.393	0.117	-0.113
-484.420	219.155	-0.141	-0.228
-483.405	-200.000	-0.033	-0.205
-482.391	-15.379	-0.176	0.114
-481.376	-80.620	-0.247	-0.083
-480.362	-176.135	-0.282	0.008
-479.347	294.765	0.094	-0.173
-478.332	-45.016	-0.077	-0.039
-477.318	-200.000	0.057	-0.257
-476.303	-129.229	-0.161	-0.023
-475.289	800.000	0.115	-0.323
-474.274	800.000	-0.060	-0.231
-473.259	-200.000	0.042	-0.404
-472.245	-200.000	0.002	-0.052
-471.230	-200.000	-0.002	-0.100
-470.216	-151.304	0.181	-0.014
-469.201	132.808	-0.208	-0.272
-468.186	-141.292	0.425	-0.044
-467.172	-37.337	0.324	-0.175
-466.157	800.000	-0.125	0.353
-465.143	-15.933	-0.219	0.141
-464.128	-200.000	0.034	0.291
-463.113	-200.000	0.003	0.200
-462.099	-62.746	-0.099	-0.042
-461.084	255.513	0.102	-0.177
-460.070	-69.263	-0.242	-0.094
-459.055	157.224	-0.021	0.029
-458.040	-92.963	0.198	-0.056
-457.026	-37.308	0.074	0.040
-456.011	-143.628	-0.241	-0.023
-454.997	-200.000	-0.019	-0.274
-453.982	33.058	0.245	-0.215
-452.968	-200.000	0.039	0.463
-451.953	-11.319	-0.275	0.183
-450.938	-90.029	-0.266	-0.078
-449.924	-69.515	-0.379	-0.147
-448.909	136.486	-0.166	0.220
-447.895	44.885	0.158	-0.147
-446.880	0.999	0.132	-0.096
-445.865	131.857	0.024	0.031
-444.851	-57.234	-0.132	0.059
-443.836	286.674	-0.048	-0.089
-442.822	110.012	-0.118	-0.144
-441.807	2.408	0.076	-0.056
-440.792	677.074	-0.108	0.283
-439.778	800.000	-0.032	-0.097
-438.763	19.004	-0.263	-0.213
-437.749	3.075	-0.154	-0.113
-436.734	800.000	-0.111	0.349
-435.719	-52.995	0.309	0.144
-434.705	121.377	0.016	-0.020
-433.690	73.270	0.096	0.101
-432.676	-147.915	0.164	0.014
-431.661	800.000	-0.107	-0.350
-430.646	-64.044	0.527	0.217
-429.632	670.902	-0.077	0.203
-428.617	-200.000	-0.038	0.340
-427.603	113.644	0.082	0.101
-426.588	386.374	0.029	0.061
-425.573	87.790	0.305	0.341
-424.559	-105.396	-0.277	-0.064
-423.544	49.788	0.135	-0.129
-422.530	667.200	-0.039	-0.103
-421.515	14.966	-0.100	-0.079
-420.500	-142.669	0.025	-0.003
-419.486	-166.189	-0.117	0.005
-418.471	-30.665	0.053	-0.030
-417.457	82.165	-0.184	0.201
-416.442	99.408	0.139	-0.163
-415.428	-14.566	-0.614	-0.399
-414.413	-122.427	-0.048	0.008
-413.398	-200.000	0.025	-0.336
-412.384	-54.430	0.274	-0.126
-411.369	90.121	-0.124	-0.140
-410.355	-82.661	-0.196	-0.064
-409.340	800.000	0.057	0.184
-408.325	67.557	0.271	-0.279
-407.311	-118.820	-0.118	0.021
-406.296	-200.000	0.005	0.056
-405.282	-18.473	-0.261	0.164
-404.267	-98.867	0.363	-0.093
-403.252	-200.000	0.009	-0.073
-402.238	-181.897	-0.178	0.003
-401.223	-116.013	0.233	0.044
-400.209	387.094	-0.086	0.179
-399.194	8.100	-0.113	-0.086
-398.179	800.000	-0.031	0.115
-397.165	-54.685	0.166	-0.076
-396.150	-53.288	-0.220	-0.102
-395.136	-28.295	-0.321	0.187
-394.121	462.918	0.148	-0.333
-393.106	-61.552	-0.332	0.141
-392.092	-139.132	-0.403	-0.044
-391.077	179.889	0.237	-0.351
-390.063	-80.741	0.170	-0.057
-389.048	-58.276	0.157	-0.069
-388.033	800.000	0.048	-0.189
-387.019	800.000	-0.038	-0.110
-386.004	-200.000	-0.051	-0.372
-384.990	-14.153	0.207	0.135
-383.975	713.224	-0.058	-0.154
-382.960	168.312	0.172	0.247
-381.946	281.428	0.253	-0.457
-380.931	-16.724	0.071	-0.046
-379.917	407.289	-0.150	0.319
-378.902	-39.470	-0.229	0.121
-377.888	800.000	0.027	0.076
-376.873	-200.000	0.014	-0.219
-375.858	-200.000	0.015	-0.172
-374.844	340.446	0.074	-0.146
-373.829	-168.717	-0.062	-0.002
-372.815	-61.463	-0.116	0.049
-371.800	171.770	0.102	-0.148
-370.785	-200.000	0.003	0.375
-369.771	-200.000	0.012	0.075
-368.756	130.385	0.109	-0.140
-367.742	-151.559	0.161	-0.012
-366.727	384.084	0.125	-0.259
-365.712	-200.000	0.092	0.426
-364.698	-18.894	-0.119	0.075
-363.683	-10.165	-0.143	0.095
-362.669	452.388	0.171	0.380
-361.654	-83.646	0.188	-0.061
-360.639	13.244	0.150	0.118
-359.625	-200.000	0.086	0.000
-358.610	-109.591	-0.199	0.042
-357.596	256.173	0.062	-0.107
-356.581	-200.000	0.020	-0.150
-355.566	800.000	-0.054	-0.213
-354.552	198.211	-0.094	-0.145
-353.537	211.298	0.118	0.186
-352.523	273.506	0.076	0.136
-351.508	-200.000	-0.036	-0.190
-350.493	-58.225	0.184	0.081
-349.479	800.000	0.058	0.167
-348.464	95.558	0.101	0.117
-347.450	403.485	0.211	0.447
-346.435	-86.060	-0.361	-0.112
-345.420	20.767	0.046	-0.037
-344.406	-192.250	0.258	0.002
-343.391	216.987	-0.149	-0.239
-342.377	-101.817	0.191	-0.047
-341.362	-141.276	-0.113	-0.012
-340.348	-26.837	0.086	-0.050
-339.333	-200.000	0.064	-0.360
-338.318	90.514	0.196	-0.221
-337.304	662.688	-0.051	0.132
-336.289	132.805	-0.051	0.066
-335.275	-34.231	-0.084	0.046
-334.260	37.350	-0.303	-0.270
-333.245	-27.315	-0.087	0.051
-332.231	-72.125	-0.352	-0.131
-331.216	800.000	0.101	0.364
-330.202	800.000	0.143	0.429
-329.187	-132.456	-0.182	0.024
-328.172	541.476	0.072	0.172
-327.158	452.635	0.135	0.300
-326.143	-58.799	-0.056	0.024
-325.129	800.000	0.048	0.212
-324.114	-70.090	0.575	0.220
-323.099	548.972	-0.007	-0.017
-322.085	-200.000	0.056	-0.466
-321.070	800.000	-0.147	-0.437
-320.056	-77.731	-0.145	0.051
-319.041	505.706	0.153	0.357
-318.026	-1.729	-0.259	0.183
-317.012	172.851	-0.052	-0.076
-315.997	-200.000	0.011	0.081
-314.983	2.969	0.092	0.068
-313.968	800.000	-0.150	-0.492
-312.953	-200.000	-0.059	-0.363
-311.939	382.440	0.127	-0.262
-310.924	155.974	0.053	-0.074
-309.910	800.000	0.018	0.053
-308.895	-0.386	-0.077	0.055
-307.880	-91.360	-0.104	0.030
-306.866	-200.000	-0.052	0.298
-305.851	800.000	-0.056	0.156
-304.837	139.859	0.182	-0.241
-303.822	-144.419	-0.139	0.013
-302.807	-200.000	0.064	-0.440
-301.793	-52.521	0.145	0.067
-300.778	-56.988	-0.217	-0.096
-299.764	-74.579	0.096	-0.035
-298.749	21.090	0.069	0.056
-297.735	800.000	0.074	-0.246
-296.720	-199.737	-0.118	0.001
-295.705	-200.000	-0.015	0.304
-294.691	-200.000	0.029	0.411
-293.676	268.779	-0.118	-0.209
-292.662	-66.498	0.486	-0.194
-291.647	-89.833	0.218	-0.064
-290.632	-61.197	-0.279	0.118
-289.618	800.000	0.084	-0.290
-288.603	350.491	0.099	-0.197
-287.589	136.410	0.036	-0.047
-286.574	423.197	-0.076	0.165
-285.559	-141.679	0.281	0.028
-284.545	-200.000	-0.033	-0.300
-283.530	-200.000	0.002	-0.126
-282.516	4.484	-0.095	-0.070
-281.501	32.431	-0.215	-0.187
-280.486	345.935	0.068	-0.134
-279.472	-200.000	0.022	-0.186
-278.457	-70.542	-0.326	0.124
-277.443	-130.516	-0.118	0.016
-276.428	-66.862	0.191	0.076
-275.413	800.000	0.093	0.282
-274.399	-82.908	0.119	-0.038
-273.384	-200.000	-0.037	0.375
-272.370	470.927	0.137	0.309
-271.355	536.960	0.230	0.548
-270.340	109.547	0.090	0.108
-269.326	-65.425	-0.328	-0.132
-268.311	-30.320	-0.336	-0.192
-267.297	-200.000	0.001	-0.169
-266.282	169.363	-0.108	-0.154
-265.267	-200.000	0.007	-0.197
-264.253	-200.000	-0.007	-0.132
-263.238	-110.918	0.204	-0.042
-262.224	30.139	0.249	0.214
-261.209	-41.163	0.184	-0.096
-260.195	423.964	-0.022	-0.048
-259.180	4.151	0.126	-0.093
-258.165	-111.479	0.249	0.051
-257.151	152.856	-0.067	0.091
-256.136	-98.289	0.440	-0.113
-255.122	-200.000	-0.003	-0.020
-254.107	-200.000	0.029	-0.251
-253.092	-10.908	0.126	0.084
-252.078	581.947	0.024	0.060
-251.063	-200.000	-0.014	0.135
-250.049	-200.000	-0.008	-0.090
-249.034	800.000	-0.032	0.109
-248.019	800.000	0.061	-0.250
-247.005	118.530	0.117	0.145
-245.990	155.282	-0.117	-0.162
-244.976	455.766	0.016	0.035
-243.961	225.249	-0.141	0.229
-242.946	-95.036	0.102	0.028
-241.932	4.374	0.126	-0.092
-240.917	-7.424	-0.362	-0.246
-239.903	-67.386	-0.298	0.117
-238.888	800.000	-0.054	-0.200
-237.873	-88.167	0.379	0.114
-236.859	-94.979	0.325	-0.088
-235.844	800.000	0.052	0.176
-234.830	-171.178	-0.235	0.008
-233.815	800.000	0.112	0.391
-232.800	205.782	-0.054	-0.084
-231.786	-183.117	0.418	-0.007
-230.771	101.278	-0.284	0.332
-229.757	800.000	-0.063	0.264
-228.742	120.770	0.146	0.182
-227.727	-38.324	0.027	-0.014
-226.713	12.418	-0.194	0.150
-225.698	96.175	0.107	0.123
-224.684	232.295	0.013	-0.021
-223.669	353.748	0.165	0.329
-222.655	212.552	-0.109	0.172
-221.640	-134.234	0.179	0.022
-220.625	-48.880	0.210	-0.101
-219.611	-80.456	0.156	0.052
-218.596	53.677	0.075	0.072
-217.582	227.589	-0.040	0.065
-216.567	-65.349	0.234	0.094
-215.552	-164.325	0.104	0.005
-214.538	-101.028	0.472	0.116
-213.523	67.965	-0.219	-0.224
-212.509	-200.000	-0.008	0.049
-211.494	73.445	-0.336	-0.353
-210.479	-200.000	0.013	0.384
-209.465	105.692	-0.104	-0.123
-208.450	-125.558	0.070	0.011
-207.436	51.338	0.081	-0.077
-206.421	-200.000	-0.056	0.257
-205.406	-200.000	0.028	-0.192
-204.392	-152.305	0.363	0.026
-203.377	-84.284	-0.263	0.083
-202.363	6.265	0.006	0.004
-201.348	359.761	-0.141	0.283
-200.333	-188.604	-0.124	-0.002
-199.319	255.260	-0.176	0.303
-198.304	50.846	-0.251	-0.238
-197.290	46.120	0.139	-0.129
-196.275	-76.706	-0.099	0.035
-195.260	-89.712	-0.177	0.052
-194.246	-37.072	-0.307	0.165
-193.231	-200.000	-0.007	0.184
-192.217	-92.703	-0.075	-0.021
-191.202	-3.256	0.330	0.230
-190.187	53.818	-0.269	0.259
-189.173	236.727	-0.030	0.050
-188.158	267.516	-0.121	-0.212
-187.144	111.836	0.123	-0.149
-186.129	4.740	0.158	0.116
-185.114	13.548	0.190	-0.148
-184.100	-72.281	0.381	-0.141
-183.085	-126.616	0.095	0.014
-182.071	-133.573	-0.292	-0.037
-181.056	-13.806	-0.187	0.121
-180.042	-167.603	-0.483	0.019
-179.027	800.000	0.026	-0.085
-178.012	-200.000	0.024	-0.301
-176.998	-200.000	0.028	-0.195
-175.983	63.972	0.349	0.352
-174.969	15.355	0.155	0.122
-173.954	-200.000	0.011	-0.052
-172.939	800.000	0.135	0.400
-171.925	8.001	-0.161	0.121
-170.910	402.573	0.252	0.529
-169.896	6.575	0.122	0.091
-168.881	-66.346	0.107	-0.042
-167.866	94.244	0.227	-0.258
-166.852	112.864	0.177	0.215
-165.837	177.963	-0.156	0.227
-164.823	-76.001	-0.105	-0.037
-163.808	-83.350	0.054	0.017
-162.793	-73.208	0.037	0.014
-161.779	2.153	0.161	-0.116
-160.764	215.742	0.087	0.138
-159.750	-200.000	0.022	-0.157
-158.735	-175.933	-0.374	0.010
-157.720	-112.459	-0.518	0.103
-156.706	-5.933	-0.141	0.097
-155.691	-200.000	-0.027	0.364
-154.677	108.223	-0.138	-0.165
-153.662	623.904	0.182	-0.459
-152.647	-200.000	0.020	-0.136
-151.633	-44.648	0.172	0.086
-150.618	58.743	0.123	-0.121
-149.604	657.959	0.186	-0.478
-148.589	-134.861	0.330	0.040
-147.574	172.296	0.056	-0.080
-146.560	-200.000	0.029	0.153
-145.545	-161.640	-0.338	0.017
-144.531	654.056	0.049	0.125
-143.516	800.000	-0.036	-0.106
-142.502	68.744	-0.141	0.144
-141.487	-117.026	0.138	-0.025
-140.472	-53.156	-0.200	0.092
-139.458	-125.082	0.257	-0.039
-138.443	16.609	-0.094	0.075
-137.429	36.536	0.114	0.101
-136.414	-200.000	-0.007	0.065
-135.399	-200.000	-0.046	-0.248
-134.385	-54.263	0.261	-0.118
-133.370	800.000	0.028	-0.105
-132.356	-72.659	-0.131	0.048
-131.341	-142.634	0.175	-0.017
-130.326	-161.374	0.241	-0.012
-129.312	-200.000	-0.006	-0.069
-128.297	-139.981	0.137	-0.014
-127.283	-200.000	-0.011	-0.162
-126.268	800.000	-0.026	-0.111
-125.253	791.478	-0.071	0.196
-124.239	188.967	-0.026	-0.039
-123.224	710.056	0.022	0.059
-122.210	78.184	-0.181	-0.193
