DTS Sentinel unit serial number:	SN413079Multiplexer serial number:	ORYXHardware model number:	OX4-SRSoftware version number:	ORYX F/W v4.00 Oryx Data Collector v3.7.2.0data status	okinstallation	princeton_trtdifferential loss correction	single-endedforward channel	channel 3reverse channel	N/Adate	2019/09/18time	17:32:34forward acquisition time	60.00reverse acquisition time	0.00gamma	496.2192k internal	0.2291k external	0.2291temperature offset calibration	0.9990default loss term (dB/km)	0.3790temperature slope calibration	1.0000multiplexer offset coefficient	1.0000multiplexer slope coefficient	1.0000fibre end	0.00T internal ref (°C)	40.17T ext. ref 1 (°C)	0.90T ext. ref 2 (°C)	36.12length (m)	temperature (°C)	Stokes	anti-Stokes-747.200	-200.000	0.014	0.111
-746.185	-200.000	0.016	0.285
-745.171	-146.597	0.262	0.023
-744.156	800.000	0.015	0.063
-743.142	305.270	-0.123	0.235
-742.127	-200.000	-0.002	0.410
-741.112	48.234	0.139	0.133
-740.098	454.793	-0.092	0.209
-739.083	187.607	-0.042	0.065
-738.069	-200.000	0.056	0.279
-737.054	15.774	-0.072	-0.058
-736.039	644.507	-0.150	0.391
-735.025	-90.529	0.421	-0.125
-734.010	17.493	-0.176	-0.143
-732.996	-5.247	-0.135	0.095
-731.981	-56.252	-0.198	-0.090
-730.966	-92.517	-0.292	0.084
-729.952	14.127	-0.178	0.142
-728.937	64.325	-0.080	-0.082
-727.923	759.351	-0.099	-0.274
-726.908	318.656	-0.159	-0.308
-725.894	149.676	-0.135	0.188
-724.879	86.754	-0.204	0.231
-723.864	-200.000	-0.024	-0.127
-722.850	800.000	-0.114	-0.392
-721.835	556.969	-0.063	0.156
-720.821	-20.992	-0.337	-0.211
-719.806	14.825	-0.221	-0.177
-718.791	102.681	-0.154	0.185
-717.777	-200.000	0.033	-0.172
-716.762	800.000	-0.064	-0.198
-715.748	106.085	0.123	0.149
-714.733	-133.345	-0.293	0.038
-713.718	-15.404	-0.287	0.187
-712.704	96.732	-0.135	-0.158
-711.689	594.535	0.039	-0.098
-710.675	-71.986	0.497	0.189
-709.660	99.272	-0.130	-0.154
-708.645	622.499	-0.110	0.283
-707.631	-100.875	-0.198	-0.050
-706.616	-200.000	-0.042	0.346
-705.602	-22.709	-0.182	-0.113
-704.587	83.111	-0.246	0.274
-703.572	-34.197	-0.397	0.223
-702.558	-14.773	-0.155	-0.102
-701.543	-188.376	0.063	0.001
-700.529	500.240	-0.049	0.116
-699.514	174.101	0.278	-0.411
-698.499	-133.240	0.149	-0.019
-697.485	-200.000	0.009	0.150
-696.470	800.000	-0.085	0.372
-695.456	800.000	0.070	-0.267
-694.441	-12.011	-0.078	-0.052
-693.426	-200.000	-0.153	-0.001
-692.412	385.810	-0.112	-0.237
-691.397	5.243	0.321	-0.242
-690.383	800.000	-0.088	0.301
-689.368	-89.748	0.250	0.075
-688.354	119.567	-0.032	0.040
-687.339	19.901	-0.181	-0.149
-686.324	100.890	-0.240	-0.285
-685.310	157.236	-0.116	0.164
-684.295	89.988	0.188	0.215
-683.281	800.000	-0.021	0.074
-682.266	49.627	-0.033	-0.032
-681.251	108.061	-0.187	-0.228
-680.237	-117.508	-0.334	0.062
-679.222	-200.000	-0.178	0.001
-678.208	-200.000	-0.019	-0.484
-677.193	-138.508	0.166	-0.019
-676.178	-71.455	0.134	0.051
-675.164	-200.000	-0.001	-0.072
-674.149	-200.000	0.007	-0.255
-673.135	-133.930	0.196	-0.025
-672.120	340.337	0.107	0.214
-671.105	46.430	-0.084	0.080
-670.091	-133.710	-0.365	0.046
-669.076	-200.000	-0.034	0.276
-668.062	29.189	0.091	-0.079
-667.047	-167.412	0.172	-0.007
-666.032	37.327	-0.181	-0.164
-665.018	-35.812	0.282	-0.156
-664.003	800.000	-0.038	0.143
-662.989	-26.131	-0.212	-0.127
-661.974	148.302	-0.081	-0.112
-660.959	-13.477	-0.136	0.090
-659.945	-49.927	-0.206	-0.100
-658.930	-18.477	0.247	0.158
-657.916	-200.000	0.036	-0.174
-656.901	117.362	-0.081	0.101
-655.886	98.845	0.200	0.236
-654.872	129.630	-0.076	-0.100
-653.857	-54.601	-0.073	0.034
-652.843	-200.000	-0.002	0.056
-651.828	-165.699	0.446	-0.020
-650.814	53.705	0.144	0.141
-649.799	-200.000	0.031	-0.172
-648.784	59.640	-0.279	-0.280
-647.770	34.110	-0.136	0.121
-646.755	800.000	0.043	0.183
-645.741	-82.966	0.021	0.007
-644.726	-24.078	-0.456	-0.278
-643.711	800.000	0.020	0.058
-642.697	-49.820	0.120	-0.058
-641.682	50.076	0.318	-0.306
-640.668	-200.000	-0.039	-0.588
-639.653	23.219	-0.301	-0.252
-638.638	-91.850	-0.121	0.035
-637.624	-35.868	0.072	-0.040
-636.609	-88.799	0.253	-0.077
-635.595	706.848	-0.071	-0.192
-634.580	800.000	-0.004	0.018
-633.565	520.178	0.147	0.350
-632.551	-125.853	0.175	-0.027
-631.536	-120.011	-0.140	0.025
-630.522	-120.856	-0.114	-0.020
-629.507	-120.574	-0.201	-0.035
-628.492	-130.640	-0.091	-0.013
-627.478	755.267	0.060	-0.164
-626.463	-5.907	0.130	-0.091
-625.449	20.522	0.077	0.064
-624.434	-13.781	-0.170	-0.112
-623.419	-131.706	0.143	0.019
-622.405	-6.764	0.223	0.154
-621.390	58.732	0.113	-0.113
-620.376	328.508	0.039	0.076
-619.361	800.000	0.089	0.296
-618.346	-58.986	0.258	0.113
-617.332	-20.391	0.075	-0.047
-616.317	363.110	0.037	0.076
-615.303	-189.200	-0.408	0.005
-614.288	28.649	-0.092	0.079
-613.273	72.134	-0.262	0.278
-612.259	-31.143	-0.069	0.040
-611.244	-59.216	0.226	0.099
-610.230	-200.000	0.053	0.335
-609.215	340.179	-0.020	-0.039
-608.201	-115.822	0.158	-0.030
-607.186	-98.828	0.463	-0.120
-606.171	-200.000	0.005	-0.077
-605.157	652.527	-0.122	0.317
-604.142	-86.939	-0.200	-0.062
-603.128	800.000	-0.055	0.187
-602.113	-85.521	-0.190	-0.060
-601.098	-54.453	-0.209	0.096
-600.084	89.935	-0.108	-0.123
-599.069	438.669	-0.159	-0.354
-598.055	36.319	0.176	0.158
-597.040	573.741	-0.084	0.209
-596.025	45.781	-0.232	-0.219
-595.011	-97.035	-0.161	-0.043
-593.996	-48.584	-0.222	-0.109
-592.982	0.321	0.111	0.081
-591.967	-168.339	0.066	0.003
-590.952	-56.787	0.143	-0.064
-589.938	-17.309	-0.164	-0.105
-588.923	17.150	0.080	-0.065
-587.909	136.731	-0.224	-0.298
-586.894	89.702	0.095	0.108
-585.879	-95.431	0.382	-0.104
-584.865	-2.138	0.160	0.115
-583.850	-46.448	-0.127	0.064
-582.836	155.228	0.150	0.209
-581.821	-35.403	0.128	-0.071
-580.806	102.935	-0.016	0.019
-579.792	46.767	0.132	-0.125
-578.777	208.004	0.282	0.448
-577.763	-200.000	-0.014	-0.163
-576.748	-18.926	-0.120	0.076
-575.733	-121.150	-0.318	0.054
-574.719	256.120	-0.152	0.265
-573.704	-158.425	-0.348	-0.021
-572.690	8.625	-0.289	0.222
-571.675	-62.632	0.417	-0.176
-570.661	-200.000	0.045	0.473
-569.646	0.036	-0.163	-0.118
-568.631	-31.648	-0.248	0.142
-567.617	800.000	-0.051	-0.175
-566.602	35.889	-0.255	-0.228
-565.588	800.000	0.034	-0.133
-564.573	-200.000	0.063	-0.287
-563.558	800.000	0.057	0.194
-562.544	800.000	-0.025	0.084
-561.529	103.191	0.090	0.107
-560.515	-22.285	0.438	-0.270
-559.500	-98.177	-0.188	0.049
-558.485	-200.000	0.024	-0.192
-557.471	183.142	0.231	-0.347
-556.456	-23.033	-0.409	0.251
-555.442	-100.228	-0.200	0.051
-554.427	198.485	-0.060	-0.094
-553.412	225.691	0.179	0.295
-552.398	-200.000	-0.093	-0.512
-551.383	-171.964	-0.294	-0.010
-550.369	3.369	-0.278	0.206
-549.354	800.000	0.059	-0.242
-548.339	46.160	0.357	0.336
-547.325	-182.790	-0.214	-0.004
-546.310	45.363	-0.047	0.044
-545.296	-200.000	0.029	0.176
-544.281	-133.403	0.245	0.031
-543.266	-200.000	-0.025	-0.352
-542.252	-200.000	0.025	-0.374
-541.237	-200.000	0.007	0.155
-540.223	-200.000	0.025	0.116
-539.208	32.444	-0.268	0.235
-538.193	5.254	0.173	-0.130
-537.179	-80.523	0.295	-0.100
-536.164	-165.056	0.193	-0.009
-535.150	243.402	0.173	0.294
-534.135	547.378	-0.121	0.294
-533.121	20.033	0.222	-0.182
-532.106	237.130	-0.158	-0.265
-531.091	-200.000	0.007	-0.339
-530.077	800.000	0.045	-0.153
-529.062	220.782	-0.200	0.326
-528.048	-108.468	0.299	0.065
-527.033	-144.982	0.518	0.048
-526.018	138.937	-0.204	0.272
-525.004	-200.000	0.010	0.264
-523.989	302.105	0.040	0.076
-522.975	289.575	0.032	0.059
-521.960	29.196	-0.137	-0.118
-520.945	-41.897	-0.363	0.189
-519.931	-200.000	0.064	0.377
-518.916	274.159	-0.047	-0.085
-517.902	443.666	-0.105	-0.233
-516.887	800.000	0.083	-0.267
-515.872	-88.258	0.090	-0.027
-514.858	-200.000	0.004	0.244
-513.843	71.516	-0.142	-0.150
-512.829	-200.000	0.016	-0.254
-511.814	-169.960	0.083	0.003
-510.799	-55.940	0.189	0.085
-509.785	-200.000	0.021	-0.294
-508.770	111.970	-0.062	-0.076
-507.756	438.632	-0.136	0.301
-506.741	445.199	-0.174	0.389
-505.726	36.589	-0.077	0.069
-504.712	24.762	-0.063	-0.053
-503.697	100.809	0.256	-0.302
-502.683	87.881	-0.073	-0.082
-501.668	110.228	0.065	0.079
-500.653	800.000	-0.029	0.083
-499.639	96.768	-0.011	-0.013
-498.624	-39.288	-0.177	0.094
-497.610	-135.944	0.144	-0.017
-496.595	609.212	-0.080	0.203
-495.581	-41.016	-0.260	-0.136
-494.566	537.901	-0.076	-0.182
-493.551	-52.575	-0.168	0.079
-492.537	-200.000	-0.007	0.064
-491.522	-47.834	0.070	-0.035
-490.508	-200.000	0.020	0.331
-489.493	-200.000	0.028	0.224
-488.478	156.626	0.083	-0.116
-487.464	-200.000	-0.088	-0.423
-486.449	-125.566	0.156	0.024
-485.435	-61.835	0.178	-0.075
-484.420	24.562	0.258	0.217
-483.405	98.379	0.137	-0.160
-482.391	-78.170	0.166	0.058
-481.376	13.688	0.025	-0.020
-480.362	46.019	-0.391	0.367
-479.347	800.000	-0.098	0.391
-478.332	-51.582	-0.344	0.163
-477.318	29.428	0.248	-0.214
-476.303	231.714	-0.229	-0.381
-475.289	117.438	0.178	0.222
-474.274	-115.686	0.617	0.117
-473.259	197.038	0.023	0.036
-472.245	-200.000	0.019	0.177
-471.230	800.000	0.034	0.098
-470.216	800.000	0.022	-0.062
-469.201	121.958	0.057	-0.072
-468.186	-22.140	0.102	-0.063
-467.172	-27.360	0.143	-0.084
-466.157	800.000	0.020	-0.056
-465.143	467.135	0.088	0.199
-464.128	-150.514	0.062	-0.005
-463.113	-114.431	0.069	-0.013
-462.099	-200.000	0.007	0.080
-461.084	69.338	-0.106	0.111
-460.070	-200.000	0.003	0.128
-459.055	-162.961	-0.306	0.015
-458.040	-200.000	-0.000	-0.170
-457.026	-200.000	0.001	-0.036
-456.011	110.388	0.094	-0.114
-454.997	-95.070	0.441	-0.121
-453.982	630.488	0.068	0.173
-452.968	301.809	-0.049	0.091
-451.953	114.600	-0.134	0.166
-450.938	-100.773	-0.348	-0.087
-449.924	-58.075	-0.226	0.100
-448.909	-100.359	-0.255	0.064
-447.895	-146.626	0.198	0.017
-446.880	-182.688	0.180	0.003
-445.865	-127.016	-0.207	0.031
-444.851	-93.694	0.116	0.032
-443.836	13.596	-0.175	0.138
-442.822	449.875	-0.108	0.241
-441.807	150.001	-0.224	0.308
-440.792	-98.471	-0.103	-0.027
-439.778	-101.238	-0.142	-0.035
-438.763	-64.005	-0.125	0.051
-437.749	-167.583	0.241	-0.010
-436.734	800.000	0.101	0.327
-435.719	-65.463	-0.139	-0.057
-434.705	-122.524	0.128	-0.021
-433.690	-154.450	-0.244	-0.017
-432.676	21.171	-0.116	0.095
-431.661	32.894	-0.146	0.128
-430.646	96.368	0.130	0.150
-429.632	800.000	-0.101	-0.328
-428.617	-20.477	-0.295	0.183
-427.603	541.257	0.029	-0.071
-426.588	18.678	-0.137	0.111
-425.573	-178.006	-0.071	-0.002
-424.559	200.373	0.033	0.052
-423.544	-7.550	-0.193	0.132
-422.530	119.356	0.080	0.101
-421.515	-79.405	0.205	-0.070
-420.500	-99.612	0.182	-0.046
-419.486	-200.000	0.016	0.196
-418.471	-122.145	0.199	0.033
-417.457	589.041	0.059	0.146
-416.442	800.000	-0.025	-0.072
-415.428	800.000	0.067	-0.289
-414.413	-90.346	-0.145	-0.043
-413.398	-200.000	0.069	-0.418
-412.384	759.554	0.021	-0.057
-411.369	-59.212	0.094	-0.041
-410.355	16.020	0.114	0.091
-409.340	25.638	0.188	0.158
-408.325	-46.555	0.105	0.052
-407.311	-115.848	-0.360	-0.068
-406.296	-66.841	0.083	-0.033
-405.282	196.952	0.154	-0.238
-404.267	263.103	0.026	0.046
-403.252	-87.056	0.401	0.123
-402.238	-200.000	-0.005	0.220
-401.223	-200.000	0.008	0.113
-400.209	388.911	0.077	0.161
-399.194	449.695	-0.029	0.064
-398.179	92.769	0.070	-0.079
-397.165	-200.000	0.001	0.093
-396.150	712.445	-0.117	0.314
-395.136	800.000	0.068	0.236
-394.121	81.248	0.197	-0.214
-393.106	-93.988	-0.231	-0.064
-392.092	-29.333	-0.091	-0.053
-391.077	-103.612	0.241	-0.057
-390.063	800.000	-0.010	0.043
-389.048	-57.143	0.107	0.048
-388.033	91.431	0.069	-0.079
-387.019	-200.000	-0.015	-0.136
-386.004	-73.702	-0.297	0.109
-384.990	-110.263	-0.186	0.039
-383.975	220.091	-0.119	-0.192
-382.960	-133.929	0.407	-0.051
-381.946	-113.611	-0.254	0.050
-380.931	405.784	-0.052	-0.110
-379.917	-200.000	0.023	-0.146
-378.902	-31.445	0.098	0.056
-377.888	137.632	-0.179	-0.237
-376.873	78.763	-0.160	-0.173
-375.858	-2.457	0.270	-0.191
-374.844	196.800	0.174	-0.267
-373.829	319.386	0.098	-0.188
-372.815	-67.388	0.350	-0.139
-371.800	-200.000	-0.004	0.325
-370.785	-103.130	0.234	0.056
-369.771	124.574	0.077	0.098
-368.756	800.000	0.036	0.117
-367.742	389.190	-0.166	0.347
-366.727	-129.317	0.179	0.025
-365.712	-96.806	0.240	-0.064
-364.698	-200.000	0.004	-0.111
-363.683	-108.061	0.290	0.063
-362.669	-200.000	-0.014	-0.099
-361.654	43.084	-0.136	0.125
-360.639	1.136	0.130	0.094
-359.625	-77.172	0.067	-0.023
-358.610	268.228	-0.164	-0.290
-357.596	23.489	0.074	0.062
-356.581	-200.000	-0.053	0.312
-355.566	-200.000	0.029	-0.234
-354.552	-28.436	-0.384	-0.223
-353.537	240.531	-0.190	-0.320
-352.523	190.880	-0.077	-0.117
-351.508	324.846	-0.117	-0.226
-350.493	400.020	-0.038	-0.080
-349.479	-200.000	0.003	0.128
-348.464	-71.241	-0.309	-0.117
-347.450	800.000	0.023	0.069
-346.435	45.997	0.086	0.080
-345.420	343.085	-0.068	-0.134
-344.406	800.000	-0.036	-0.123
-343.391	-137.303	-0.149	0.017
-342.377	-200.000	0.007	-0.223
-341.362	90.423	-0.143	-0.161
-340.348	93.753	-0.150	-0.171
-339.333	-19.638	0.106	-0.066
-338.318	-148.216	-0.102	0.009
-337.304	-75.511	-0.060	0.022
-336.289	2.737	0.082	0.060
-335.275	-200.000	-0.282	-0.001
-334.260	-112.790	-0.095	-0.019
-333.245	150.583	0.143	-0.196
-332.231	-62.380	-0.183	0.077
-331.216	800.000	0.050	0.176
-330.202	-78.705	-0.208	-0.072
-329.187	-200.000	0.068	-0.491
-328.172	177.433	-0.164	-0.241
-327.158	85.530	-0.015	0.017
-326.143	-21.797	-0.120	0.073
-325.129	-4.859	0.208	0.144
-324.114	-55.755	0.357	-0.161
-323.099	800.000	0.021	-0.089
-322.085	-106.467	-0.326	-0.073
-321.070	-152.985	-0.164	-0.012
-320.056	-115.148	-0.117	-0.022
-319.041	-41.240	-0.277	-0.144
-318.026	-139.042	0.263	-0.029
-317.012	164.271	-0.160	-0.228
-315.997	-105.184	-0.234	-0.054
-314.983	-23.755	-0.134	-0.081
-313.968	-44.370	-0.232	0.117
-312.953	48.869	-0.158	0.150
-311.939	2.410	0.186	0.136
-310.924	-79.932	0.203	0.069
-309.910	-200.000	0.009	0.105
-308.895	-47.103	-0.015	-0.007
-307.880	-74.153	-0.313	0.114
-306.866	-97.611	0.247	-0.064
-305.851	-200.000	-0.037	0.407
-304.837	-52.725	-0.178	-0.083
-303.822	606.890	0.105	-0.264
-302.807	-200.000	-0.004	-0.167
-301.793	276.986	-0.190	0.340
-300.778	-41.676	0.139	-0.072
-299.764	169.530	-0.122	-0.175
-298.749	108.226	0.061	-0.074
-297.735	56.240	0.295	0.288
-296.720	135.988	-0.148	0.194
-295.705	800.000	0.090	-0.260
-294.691	-181.747	-0.117	0.002
-293.676	-40.402	-0.040	-0.021
-292.662	-200.000	-0.009	0.046
-291.647	-105.189	-0.052	-0.012
-290.632	-107.757	-0.199	-0.044
-289.618	-130.485	0.225	-0.031
-288.603	-200.000	-0.003	-0.395
-287.589	-200.000	0.021	-0.360
-286.574	-64.392	0.185	0.076
-285.559	359.560	0.228	0.458
-284.545	174.484	-0.152	-0.220
-283.530	-144.897	-0.152	-0.014
-282.516	-200.000	0.014	-0.101
-281.501	-137.417	0.201	-0.023
-280.486	-99.216	-0.041	-0.010
-279.472	609.030	-0.063	-0.158
-278.457	532.610	0.110	0.261
-277.443	313.604	-0.098	0.185
-276.428	-200.000	0.006	-0.061
-275.413	-146.298	0.297	-0.026
-274.399	-115.477	0.209	-0.040
-273.384	800.000	0.049	-0.145
-272.370	3.308	0.125	0.091
-271.355	188.286	0.084	-0.126
-270.340	-112.099	0.171	-0.035
-269.326	-19.336	-0.351	0.219
-268.311	302.452	-0.005	0.010
-267.297	-49.698	0.160	0.076
-266.282	-21.866	0.354	0.217
-265.267	107.967	0.164	0.196
-264.253	800.000	0.064	0.240
-263.238	-12.688	-0.231	-0.151
-262.224	157.554	0.105	-0.146
-261.209	101.824	0.133	-0.156
-260.195	204.029	0.079	0.123
-259.180	266.781	0.129	0.227
-258.165	-132.058	0.285	0.037
-257.151	265.889	-0.037	0.065
-256.136	177.224	0.079	0.116
-255.122	323.842	0.070	0.135
-254.107	-200.000	0.011	-0.051
-253.092	-200.000	0.016	0.178
-252.078	-200.000	-0.020	-0.102
-251.063	72.706	-0.138	0.144
-250.049	-51.686	-0.207	0.097
-249.034	530.043	0.033	-0.078
-248.019	-88.305	0.319	-0.096
-247.005	800.000	0.026	0.101
-245.990	800.000	-0.035	-0.133
-244.976	154.509	-0.011	-0.015
-243.961	290.764	-0.086	-0.157
-242.946	-161.152	-0.318	0.017
-241.932	13.507	0.147	0.115
-240.917	-60.794	-0.354	-0.151
-239.903	21.433	0.271	-0.221
-238.888	-99.498	0.129	-0.033
-237.873	5.614	-0.170	-0.126
-236.859	-200.000	-0.014	-0.159
-235.844	-4.350	0.219	0.152
-234.830	-32.590	0.282	0.158
-233.815	800.000	0.041	0.145
-232.800	-200.000	0.019	0.205
-231.786	509.153	0.030	0.070
-230.771	-30.426	0.066	-0.038
-229.757	-77.166	0.201	0.070
-228.742	88.635	0.042	0.047
-227.727	-200.000	0.041	0.291
-226.713	-99.063	0.279	-0.071
-225.698	112.121	-0.085	-0.103
-224.684	155.720	0.037	-0.050
-223.669	-200.000	-0.006	0.218
-222.655	-32.656	0.184	-0.103
-221.640	-101.402	-0.070	-0.017
-220.625	-200.000	0.039	-0.222
-219.611	800.000	-0.072	-0.272
-218.596	-79.154	0.195	-0.066
-217.582	-143.382	-0.168	-0.016
-216.567	-200.000	0.027	0.131
-215.552	800.000	-0.071	0.225
-214.538	-200.000	0.018	0.162
-213.523	20.007	-0.241	-0.195
-212.509	-200.000	0.027	0.164
-211.494	-200.000	-0.007	-0.162
-210.479	92.903	0.106	0.120
-209.465	-200.000	0.044	-0.258
-208.450	163.183	0.183	0.257
-207.436	-200.000	-0.031	-0.153
-206.421	106.714	-0.077	0.092
-205.406	-115.574	0.144	0.027
-204.392	62.943	0.256	-0.257
-203.377	-200.000	0.040	0.238
-202.363	234.504	-0.045	-0.074
-201.348	800.000	0.086	-0.257
-200.333	-17.742	-0.372	-0.234
-199.319	-16.930	-0.242	-0.153
-198.304	166.656	-0.108	-0.154
-197.290	-49.075	-0.254	-0.122
-196.275	-61.583	0.175	0.074
-195.260	-31.733	0.053	0.030
-194.246	-66.320	0.442	0.176
-193.231	603.632	0.018	-0.046
-192.217	-200.000	-0.016	0.246
-191.202	-134.000	0.091	0.011
-190.187	800.000	0.027	0.076
-189.173	-200.000	0.035	-0.174
-188.158	-116.581	0.196	0.036
-187.144	-185.884	-0.106	-0.002
-186.129	203.108	-0.038	-0.059
-185.114	800.000	0.086	-0.337
-184.100	800.000	0.005	0.016
-183.085	-95.313	-0.294	0.079
-182.071	288.978	0.077	-0.140
-181.056	176.290	0.071	0.103
-180.042	287.779	-0.024	0.043
-179.027	-151.899	0.334	0.025
-178.012	-116.143	0.272	-0.051
-176.998	-149.282	-0.095	0.008
-175.983	-79.616	0.294	0.099
-174.969	621.873	-0.169	0.426
-173.954	180.654	-0.025	0.037
-172.939	800.000	-0.051	-0.175
-171.925	21.508	-0.088	0.072
-170.910	-200.000	-0.029	-0.142
-169.896	-107.939	-0.083	0.018
-168.881	-5.402	-0.191	-0.132
-167.866	-22.292	-0.036	0.022
-166.852	-131.628	0.106	-0.014
-165.837	57.225	-0.142	0.138
-164.823	-82.564	-0.318	0.103
-163.808	-160.601	0.232	-0.012
-162.793	-7.891	-0.182	0.123
-161.779	-143.536	-0.358	-0.034
-160.764	-141.145	-0.315	0.032
-159.750	71.925	-0.104	-0.109
-158.735	-200.000	0.027	-0.210
-157.720	-68.375	-0.344	-0.134
-156.706	-125.763	-0.299	0.045
-155.691	203.632	0.129	0.201
-154.677	-124.699	0.168	-0.026
-153.662	-130.531	0.196	0.026
-152.647	5.127	0.113	-0.083
-151.633	-200.000	-0.008	0.135
-150.618	-200.000	-0.019	0.119
-149.604	73.110	0.153	-0.160
-148.589	-200.000	-0.008	0.144
-147.574	366.127	0.077	-0.156
-146.560	346.128	-0.148	0.291
-145.545	142.917	-0.074	0.098
-144.531	192.162	-0.128	0.194
-143.516	-40.025	0.136	0.071
-142.502	-64.470	0.160	-0.065
-141.487	-57.186	-0.184	0.081
-140.472	-122.518	-0.180	-0.029
-139.458	-49.005	-0.136	0.065
-138.443	800.000	0.037	-0.112
-137.429	800.000	0.032	0.111
-136.414	800.000	0.062	0.204
-135.399	216.264	-0.148	-0.235
-134.385	122.001	0.131	-0.163
-133.370	145.293	0.153	-0.205
-132.356	165.298	0.025	-0.036
-131.341	-136.940	0.358	0.041
-130.326	342.801	-0.075	-0.147
-129.312	122.438	-0.283	0.354
-128.297	-60.583	0.267	0.113
-127.283	370.799	-0.062	0.126
-126.268	-200.000	0.015	0.103
-125.253	37.561	-0.191	-0.170
-124.239	-200.000	0.008	0.110
-123.224	324.962	0.132	0.253
-122.210	-65.732	0.198	0.079
-121.195	20.454	-0.289	0.233
