DTS Sentinel unit serial number:	SN413079Multiplexer serial number:	ORYXHardware model number:	OX4-SRSoftware version number:	ORYX F/W v4.00 Oryx Data Collector v3.7.2.0data status	okinstallation	princeton_trtdifferential loss correction	single-endedforward channel	channel 3reverse channel	N/Adate	2019/09/18time	16:00:34forward acquisition time	60.00reverse acquisition time	0.00gamma	496.2192k internal	0.2294k external	0.2294temperature offset calibration	0.9980default loss term (dB/km)	0.3790temperature slope calibration	1.0000multiplexer offset coefficient	1.0000multiplexer slope coefficient	1.0000fibre end	0.00T internal ref (°C)	37.31T ext. ref 1 (°C)	0.80T ext. ref 2 (°C)	36.74length (m)	temperature (°C)	Stokes	anti-Stokes-747.200	518.801	-0.168	-0.402
-746.185	800.000	-0.045	0.149
-745.171	-62.713	0.259	0.110
-744.156	120.081	-0.287	0.365
-743.142	350.863	0.095	-0.191
-742.127	-166.752	0.155	-0.007
-741.112	-23.009	-0.303	-0.186
-740.098	1.927	-0.212	0.156
-739.083	154.049	-0.060	-0.085
-738.069	31.422	0.075	-0.066
-737.054	14.322	-0.067	-0.053
-736.039	352.129	0.116	-0.235
-735.025	800.000	0.041	-0.163
-734.010	800.000	-0.111	-0.389
-732.996	457.951	-0.096	-0.219
-731.981	6.953	-0.327	0.249
-730.966	-93.558	0.063	-0.018
-729.952	-36.319	-0.162	-0.089
-728.937	-147.754	-0.400	-0.034
-727.923	8.264	0.250	0.192
-726.908	-200.000	0.006	-0.380
-725.894	-56.119	-0.295	-0.134
-724.879	800.000	-0.115	-0.331
-723.864	-32.498	-0.105	0.060
-722.850	-31.614	0.186	-0.107
-721.835	-0.997	0.256	0.185
-720.821	-28.379	0.209	-0.123
-719.806	-151.914	0.433	-0.032
-718.791	40.194	-0.291	-0.267
-717.777	-178.836	0.198	-0.005
-716.762	157.250	-0.248	-0.350
-715.748	-200.000	-0.003	-0.113
-714.733	800.000	-0.053	-0.226
-713.718	800.000	-0.040	-0.125
-712.704	-6.730	0.288	0.200
-711.689	-200.000	0.003	0.256
-710.675	-77.834	-0.075	0.026
-709.660	-60.382	0.366	0.159
-708.645	335.402	-0.054	-0.107
-707.631	-112.134	0.220	-0.045
-706.616	40.172	0.009	0.008
-705.602	-124.655	-0.386	0.061
-704.587	-23.362	-0.116	-0.071
-703.572	800.000	0.068	-0.287
-702.558	-125.161	-0.246	0.038
-701.543	-116.355	-0.170	0.032
-700.529	-46.904	0.349	-0.174
-699.514	-199.436	0.138	0.001
-698.499	-50.866	-0.293	-0.141
-697.485	-115.796	0.068	-0.013
-696.470	539.410	-0.047	0.114
-695.456	-140.461	-0.116	-0.012
-694.441	-2.272	-0.236	0.169
-693.426	101.176	0.159	-0.189
-692.412	340.567	-0.164	-0.327
-691.397	-6.709	-0.145	-0.101
-690.383	-142.883	-0.415	0.041
-689.368	-139.872	-0.192	-0.021
-688.354	-157.755	-0.190	-0.012
-687.339	-52.970	0.216	-0.102
-686.324	-77.618	-0.213	-0.075
-685.310	210.876	-0.069	0.111
-684.295	-6.493	0.027	0.019
-683.281	-28.450	0.207	-0.122
-682.266	-200.000	-0.023	-0.417
-681.251	800.000	-0.093	-0.286
-680.237	-170.216	-0.288	-0.010
-679.222	-7.918	-0.047	-0.032
-678.208	208.360	-0.018	-0.028
-677.193	800.000	-0.044	-0.142
-676.178	-200.000	-0.002	-0.062
-675.164	800.000	-0.056	-0.237
-674.149	-2.264	0.171	-0.123
-673.135	-200.000	0.031	-0.295
-672.120	68.226	0.099	-0.104
-671.105	14.576	0.141	0.112
-670.091	-163.304	-0.179	-0.009
-669.076	-200.000	-0.015	-0.230
-668.062	-28.818	0.075	-0.044
-667.047	-27.452	-0.112	0.067
-666.032	-130.323	-0.398	0.055
-665.018	173.601	0.105	-0.154
-664.003	-28.528	-0.232	-0.137
-662.989	-107.652	-0.199	-0.044
-661.974	-41.441	-0.169	0.088
-660.959	12.964	0.048	0.038
-659.945	-45.025	-0.073	0.037
-658.930	334.090	-0.193	-0.381
-657.916	211.232	-0.170	-0.272
-656.901	-200.000	0.010	0.051
-655.886	-200.000	0.018	-0.485
-654.872	72.470	0.034	-0.036
-653.857	-27.462	-0.312	-0.185
-652.843	-200.000	0.013	-0.431
-651.828	-49.888	-0.088	-0.043
-650.814	-36.473	-0.170	0.093
-649.799	-96.858	0.163	-0.044
-648.784	16.739	0.148	0.119
-647.770	-1.943	0.227	0.163
-646.755	56.172	0.096	-0.095
-645.741	-200.000	-0.035	-0.217
-644.726	-200.000	0.012	-0.427
-643.711	102.749	-0.160	-0.191
-642.697	182.180	-0.226	-0.339
-641.682	-200.000	0.048	0.414
-640.668	-105.837	-0.308	0.071
-639.653	-200.000	-0.005	-0.047
-638.638	91.316	0.137	0.157
-637.624	-173.203	-0.328	-0.010
-636.609	363.101	-0.092	-0.189
-635.595	-77.634	-0.152	-0.054
-634.580	800.000	0.076	-0.324
-633.565	-200.000	-0.032	-0.261
-632.551	-107.904	-0.177	0.039
-631.536	-57.107	0.189	0.085
-630.522	1.565	-0.101	0.074
-629.507	191.287	0.128	0.196
-628.492	-200.000	0.005	0.210
-627.478	-125.033	-0.318	-0.050
-626.463	63.877	-0.139	0.142
-625.449	800.000	-0.069	-0.217
-624.434	-56.988	-0.208	0.093
-623.419	-128.144	-0.231	0.034
-622.405	-200.000	-0.018	0.104
-621.390	-125.087	-0.212	-0.033
-620.376	452.815	-0.029	0.066
-619.361	792.892	0.048	0.135
-618.346	-58.000	0.298	-0.132
-617.332	-121.534	-0.370	0.062
-616.317	-86.027	0.396	0.124
-615.303	-6.989	-0.080	0.055
-614.288	-200.000	-0.005	0.236
-613.273	78.259	-0.160	0.174
-612.259	42.184	-0.271	0.250
-611.244	-47.355	0.225	0.111
-610.230	-200.000	-0.027	-0.211
-609.215	30.904	-0.347	-0.303
-608.201	363.663	0.044	-0.090
-607.186	-140.239	-0.166	0.018
-606.171	800.000	0.034	0.131
-605.157	-200.000	-0.006	0.219
-604.142	-97.916	0.328	0.086
-603.128	-146.799	0.142	-0.012
-602.113	119.141	-0.084	-0.106
-601.098	-121.544	0.293	0.049
-600.084	93.892	-0.294	0.338
-599.069	40.562	-0.227	0.208
-598.055	-126.899	0.392	0.059
-597.040	-64.456	-0.089	-0.037
-596.025	800.000	0.053	-0.174
-595.011	-93.489	-0.188	0.053
-593.996	185.623	0.178	0.270
-592.982	800.000	-0.015	0.059
-591.967	100.796	-0.272	0.321
-590.952	195.129	0.061	0.095
-589.938	309.122	0.099	-0.187
-588.923	-15.290	0.188	0.122
-587.909	300.488	0.040	-0.075
-586.894	-62.685	-0.112	-0.047
-585.879	-200.000	-0.063	0.453
-584.865	174.970	0.133	0.195
-583.850	-200.000	0.048	0.228
-582.836	69.542	0.058	0.060
-581.821	800.000	0.066	0.204
-580.806	-70.746	0.258	0.099
-579.792	-39.357	0.316	0.168
-578.777	-200.000	-0.012	0.162
-577.763	-56.243	0.200	-0.091
-576.748	-200.000	0.009	-0.148
-575.733	-184.735	-0.164	0.003
-574.719	-195.288	-0.309	-0.002
-573.704	5.529	-0.070	-0.052
-572.690	-121.469	-0.206	-0.035
-571.675	800.000	-0.093	-0.286
-570.661	210.310	0.053	0.084
-569.646	9.433	-0.139	-0.107
-568.631	800.000	-0.058	-0.204
-567.617	-98.612	-0.039	0.010
-566.602	-135.541	0.386	0.047
-565.588	-200.000	0.007	-0.127
-564.573	-3.672	0.294	0.207
-563.558	-85.258	-0.114	-0.036
-562.544	306.998	-0.217	-0.411
-561.529	-200.000	0.004	0.029
-560.515	-200.000	-0.004	-0.242
-559.500	148.495	-0.174	-0.239
-558.485	-34.867	-0.237	0.132
-557.471	800.000	0.039	-0.162
-556.456	-200.000	-0.010	0.214
-555.442	800.000	0.049	-0.208
-554.427	56.519	-0.215	-0.212
-553.412	517.682	0.073	-0.172
-552.398	153.602	0.027	-0.038
-551.383	-200.000	0.007	0.116
-550.369	643.879	0.038	0.098
-549.354	103.000	-0.136	-0.161
-548.339	-16.139	0.143	-0.092
-547.325	-53.688	-0.253	-0.117
-546.310	229.530	0.216	-0.357
-545.296	-200.000	0.029	0.179
-544.281	23.767	-0.026	0.022
-543.266	193.094	0.060	0.092
-542.252	597.075	0.071	0.179
-541.237	-150.637	-0.121	0.009
-540.223	62.600	-0.134	-0.136
-539.208	116.340	-0.200	-0.248
-538.193	-200.000	-0.039	-0.312
-537.179	-158.042	-0.159	0.009
-536.164	800.000	0.033	0.120
-535.150	800.000	-0.081	0.314
-534.135	-56.202	-0.137	0.062
-533.121	-200.000	0.006	-0.034
-532.106	96.931	-0.350	0.407
-531.091	-144.651	-0.249	0.023
-530.077	-3.821	-0.253	-0.178
-529.062	-137.084	-0.068	0.008
-528.048	-44.510	0.085	0.043
-527.033	-6.732	0.079	-0.055
-526.018	-49.545	0.032	-0.015
-525.004	-175.605	-0.076	-0.002
-523.989	-86.251	0.157	-0.049
-522.975	31.033	0.142	0.123
-521.960	-200.000	0.007	0.134
-520.945	-134.053	0.179	0.022
-519.931	-12.007	-0.479	-0.318
-518.916	-57.751	-0.416	0.184
-517.902	-128.643	-0.086	-0.012
-516.887	-129.088	0.360	0.051
-515.872	-46.653	0.307	0.152
-514.858	-200.000	-0.031	-0.254
-513.843	-125.685	-0.366	0.056
-512.829	800.000	0.043	-0.174
-511.814	-177.505	0.312	0.008
-510.799	-20.740	-0.154	0.096
-509.785	-165.475	0.047	0.002
-508.770	-15.949	-0.138	-0.089
-507.756	800.000	0.081	-0.277
-506.741	-200.000	-0.043	-0.218
-505.726	800.000	0.126	-0.429
-504.712	800.000	-0.067	-0.195
-503.697	-38.731	-0.273	0.146
-502.683	-159.998	0.274	-0.015
-501.668	198.858	0.119	0.184
-500.653	-7.818	-0.096	-0.066
-499.639	800.000	-0.070	-0.207
-498.624	-200.000	-0.018	0.241
-497.610	-155.380	0.125	0.008
-496.595	3.112	-0.086	-0.064
-495.581	800.000	0.063	-0.229
-494.566	30.534	-0.186	0.161
-493.551	-139.846	-0.093	0.010
-492.537	-200.000	-0.072	0.346
-491.522	-131.287	0.213	-0.029
-490.508	-129.629	-0.226	0.032
-489.493	111.914	-0.101	0.124
-488.478	-130.809	-0.244	0.033
-487.464	800.000	-0.066	0.184
-486.449	-143.900	-0.288	0.027
-485.435	-18.586	0.141	0.089
-484.420	-145.121	0.271	0.025
-483.405	60.358	-0.140	-0.140
-482.391	800.000	0.119	0.420
-481.376	442.338	0.070	-0.156
-480.362	592.597	-0.139	0.349
-479.347	-69.156	-0.280	-0.109
-478.332	58.421	-0.090	0.089
-477.318	-77.827	-0.564	0.197
-476.303	382.924	-0.054	-0.112
-475.289	-138.918	0.275	0.030
-474.274	-200.000	0.022	-0.165
-473.259	-200.000	-0.004	0.165
-472.245	-116.753	0.399	-0.074
-471.230	91.616	-0.107	-0.121
-470.216	-28.850	0.344	0.200
-469.201	319.397	-0.072	-0.138
-468.186	-45.804	-0.115	0.058
-467.172	45.258	0.155	-0.145
-466.157	-142.217	0.198	-0.020
-465.143	-20.536	-0.248	0.154
-464.128	800.000	0.083	0.248
-463.113	-6.668	0.143	0.099
-462.099	-23.467	-0.362	0.220
-461.084	271.312	-0.073	0.131
-460.070	-15.824	-0.089	-0.058
-459.055	800.000	0.104	-0.345
-458.040	511.737	0.132	0.311
-457.026	800.000	0.100	-0.442
-456.011	-159.168	-0.128	-0.007
-454.997	0.888	0.318	0.230
-453.982	719.530	-0.059	0.159
-452.968	311.188	-0.143	0.271
-451.953	65.813	0.138	-0.142
-450.938	95.618	-0.127	-0.147
-449.924	-200.000	0.003	-0.184
-448.909	-76.910	0.065	-0.023
-447.895	-200.000	-0.025	0.241
-446.880	44.078	0.178	0.165
-445.865	94.406	-0.134	0.154
-444.851	-25.341	0.465	0.278
-443.836	659.510	0.108	-0.281
-442.822	-200.000	0.005	-0.497
-441.807	86.461	0.107	-0.119
-440.792	323.523	-0.184	-0.354
-439.778	73.809	0.110	0.116
-438.763	-200.000	0.023	-0.165
-437.749	-192.071	0.183	-0.002
-436.734	-78.157	-0.353	-0.123
-435.719	-200.000	-0.003	-0.209
-434.705	70.620	0.029	-0.030
-433.690	-6.489	0.268	0.185
-432.676	-119.115	-0.037	0.007
-431.661	-75.196	-0.212	0.077
-430.646	251.521	0.267	-0.459
-429.632	448.138	0.036	-0.080
-428.617	-200.000	-0.001	0.029
-427.603	-42.470	0.169	-0.087
-426.588	800.000	0.073	-0.289
-425.573	77.493	0.060	0.064
-424.559	-61.506	-0.102	-0.043
-423.544	81.609	0.203	0.222
-422.530	252.749	0.072	0.124
-421.515	-5.473	0.245	0.170
-420.500	-88.998	0.188	-0.056
-419.486	-82.639	0.318	0.104
-418.471	-8.325	-0.044	0.030
-417.457	-200.000	0.086	-0.400
-416.442	-41.400	0.118	-0.061
-415.428	470.926	0.078	0.178
-414.413	181.326	-0.201	-0.299
-413.398	135.819	-0.157	0.207
-412.384	-200.000	0.001	0.183
-411.369	800.000	-0.032	0.109
-410.355	629.695	-0.108	-0.277
-409.340	-200.000	-0.048	0.216
-408.325	-35.556	-0.092	0.050
-407.311	-200.000	0.042	-0.230
-406.296	137.589	0.068	-0.090
-405.282	800.000	0.092	0.373
-404.267	-8.443	0.178	0.121
-403.252	800.000	0.096	0.366
-402.238	800.000	0.095	0.356
-401.223	38.699	0.258	0.232
-400.209	123.928	-0.231	0.293
-399.194	-200.000	-0.025	-0.174
-398.179	-20.896	0.249	-0.154
-397.165	87.546	-0.102	0.114
-396.150	-124.435	0.130	0.020
-395.136	357.863	-0.051	-0.102
-394.121	800.000	0.023	-0.070
-393.106	94.247	-0.095	-0.109
-392.092	-141.805	-0.363	0.037
-391.077	121.920	0.118	-0.149
-390.063	-135.010	0.083	0.010
-389.048	-200.000	-0.036	-0.357
-388.033	-44.527	0.198	-0.100
-387.019	-200.000	-0.008	-0.045
-386.004	-105.240	-0.053	-0.012
-384.990	-59.332	0.200	-0.087
-383.975	-157.940	0.427	0.025
-382.960	497.014	0.051	0.119
-381.946	-181.346	-0.323	0.006
-380.931	800.000	0.084	-0.263
-379.917	75.894	0.127	-0.136
-378.902	203.374	-0.084	0.131
-377.888	374.383	0.184	-0.378
-376.873	-140.441	0.270	-0.028
-375.858	322.668	-0.088	0.169
-374.844	800.000	-0.095	0.275
-373.829	8.114	-0.119	0.090
-372.815	-33.602	0.278	0.155
-371.800	-89.060	0.378	-0.113
-370.785	-43.691	0.084	0.043
-369.771	-126.682	-0.044	0.007
-368.756	-17.502	-0.062	-0.040
-367.742	-200.000	-0.024	0.182
-366.727	107.639	0.334	0.401
-365.712	-179.394	-0.128	0.003
-364.698	-200.000	-0.021	-0.319
-363.683	675.106	0.158	-0.413
-362.669	123.611	0.165	0.208
-361.654	800.000	0.048	0.145
-360.639	800.000	0.049	0.152
-359.625	-200.000	-0.009	0.119
-358.610	-200.000	0.032	0.281
-357.596	-99.104	0.171	-0.044
-356.581	-200.000	0.053	-0.241
-355.566	376.773	-0.055	0.113
-354.552	388.060	-0.096	0.201
-353.537	-108.614	0.301	-0.065
-352.523	12.331	0.072	-0.056
-351.508	508.773	0.044	0.102
-350.493	-136.310	0.100	-0.012
-349.479	66.846	0.118	0.121
-348.464	-200.000	0.006	0.254
-347.450	-200.000	0.009	-0.132
-346.435	-51.492	0.120	0.056
-345.420	129.341	-0.053	-0.068
-344.406	-193.468	-0.256	-0.002
-343.391	-55.103	-0.489	-0.221
-342.377	3.214	0.179	-0.131
-341.362	-76.983	0.259	-0.091
-340.348	-77.680	0.237	-0.083
-339.333	800.000	-0.045	-0.177
-338.318	-200.000	0.005	0.029
-337.304	800.000	0.033	-0.123
-336.289	86.092	0.022	-0.025
-335.275	-145.597	-0.111	0.010
-334.260	309.296	-0.057	-0.107
-333.245	41.238	0.162	-0.147
-332.231	-43.421	-0.093	0.047
-331.216	151.909	0.143	0.196
-330.202	-200.000	-0.003	0.390
-329.187	800.000	-0.088	-0.246
-328.172	161.205	0.190	-0.268
-327.158	-10.884	-0.142	-0.094
-326.143	-8.143	0.156	0.106
-325.129	97.299	-0.026	-0.030
-324.114	-200.000	0.002	-0.403
-323.099	-12.620	0.184	-0.120
-322.085	-6.760	-0.220	-0.151
-321.070	-200.000	-0.001	-0.147
-320.056	270.169	0.077	-0.137
-319.041	-200.000	-0.016	0.134
-318.026	195.446	-0.048	-0.073
-317.012	48.610	-0.116	0.110
-315.997	-67.399	0.102	0.041
-314.983	-200.000	0.017	0.255
-313.968	-154.560	0.077	-0.005
-312.953	800.000	-0.096	0.277
-311.939	-67.919	-0.183	-0.072
-310.924	-86.827	0.240	0.074
-309.910	97.003	-0.020	-0.023
-308.895	-200.000	-0.018	0.089
-307.880	-76.048	-0.132	0.047
-306.866	90.613	0.177	0.199
-305.851	-76.132	-0.181	-0.064
-304.837	-58.737	-0.149	-0.065
-303.822	-138.917	-0.277	-0.030
-302.807	272.606	-0.123	-0.219
-301.793	-104.987	-0.218	0.050
-300.778	-160.533	-0.127	0.007
-299.764	800.000	0.015	-0.059
-298.749	-158.155	0.060	-0.004
-297.735	67.165	0.133	-0.137
-296.720	-57.827	0.200	0.088
-295.705	-90.757	0.220	-0.064
-294.691	104.999	0.137	-0.162
-293.676	381.715	0.073	-0.150
-292.662	22.329	-0.057	0.047
-291.647	-200.000	0.034	-0.341
-290.632	-79.732	-0.197	-0.067
-289.618	-131.291	0.178	0.024
-288.603	-26.944	0.034	0.020
-287.589	495.878	-0.117	-0.270
-286.574	61.962	0.131	0.131
-285.559	-119.604	-0.235	-0.041
-284.545	-200.000	0.027	-0.255
-283.530	-98.618	0.527	-0.135
-282.516	-112.792	0.135	-0.027
-281.501	103.158	-0.173	0.204
-280.486	578.262	-0.142	0.349
-279.472	800.000	0.042	0.168
-278.457	-17.637	0.264	-0.166
-277.443	-43.118	0.333	0.170
-276.428	800.000	0.043	-0.134
-275.413	92.816	0.053	-0.061
-274.399	-19.134	0.193	-0.121
-273.384	8.646	-0.228	-0.172
-272.370	9.810	-0.080	-0.061
-271.355	-41.229	-0.166	-0.086
-270.340	53.158	0.053	0.051
-269.326	-73.167	-0.043	-0.016
-268.311	277.743	0.139	0.248
-267.297	211.207	-0.110	0.174
-266.282	-51.380	0.256	0.120
-265.267	260.473	-0.160	-0.278
-264.253	-152.182	-0.200	-0.015
-263.238	-200.000	-0.021	0.134
-262.224	-114.455	0.105	0.020
-261.209	48.763	0.306	0.288
-260.195	120.095	0.198	0.247
-259.180	-200.000	-0.026	-0.353
-258.165	326.576	0.077	-0.147
-257.151	-200.000	-0.048	-0.274
-256.136	48.293	-0.100	0.093
-255.122	-127.851	0.076	0.011
-254.107	616.051	-0.133	0.336
-253.092	-99.177	-0.208	-0.053
-252.078	-57.354	-0.112	-0.050
-251.063	407.670	-0.058	-0.124
-250.049	204.395	0.045	-0.071
-249.034	464.133	0.116	0.260
-248.019	-134.817	-0.046	-0.006
-247.005	-200.000	-0.005	0.102
-245.990	-200.000	0.033	0.232
-244.976	36.216	-0.035	0.031
-243.961	-103.828	-0.486	-0.114
-242.946	-70.314	-0.041	0.015
-241.932	597.692	-0.118	0.292
-240.917	-200.000	-0.059	-0.509
-239.903	219.770	-0.151	-0.242
-238.888	172.205	-0.114	-0.165
-237.873	800.000	0.034	0.111
-236.859	-117.502	-0.458	0.083
-235.844	-17.523	0.349	0.220
-234.830	67.352	0.195	-0.199
-233.815	-143.760	0.069	-0.007
-232.800	641.779	-0.055	0.141
-231.786	800.000	-0.040	-0.150
-230.771	185.579	0.125	-0.187
-229.757	-50.885	0.428	0.202
-228.742	21.543	-0.347	-0.283
-227.727	-200.000	-0.012	0.128
-226.713	107.419	0.103	-0.123
-225.698	78.962	-0.313	0.336
-224.684	25.774	-0.229	-0.192
-223.669	-200.000	0.073	-0.337
-222.655	800.000	0.067	-0.257
-221.640	-153.665	0.078	0.005
-220.625	161.285	0.063	-0.088
-219.611	263.182	0.172	0.299
-218.596	146.518	-0.096	0.129
-217.582	-171.428	0.178	0.006
-216.567	41.949	0.257	0.234
-215.552	70.334	0.102	0.105
-214.538	26.042	0.143	0.119
-213.523	83.712	0.202	0.221
-212.509	-127.088	-0.148	-0.022
-211.494	-19.746	0.241	-0.149
-210.479	231.005	0.051	-0.083
-209.465	-113.656	0.147	0.029
-208.450	800.000	-0.056	-0.195
-207.436	-109.048	0.025	-0.005
-206.421	-162.793	0.270	-0.013
-205.406	-171.551	0.041	0.001
-204.392	-81.839	-0.129	-0.042
-203.377	186.837	-0.080	0.120
-202.363	-28.835	-0.096	0.055
-201.348	133.480	0.085	-0.111
-200.333	4.343	0.072	-0.053
-199.319	3.359	0.262	0.191
-198.304	-110.584	0.102	0.021
-197.290	-120.230	-0.364	-0.062
-196.275	619.531	0.042	-0.104
-195.260	-101.281	-0.291	0.071
-194.246	-30.289	0.240	-0.136
-193.231	-111.094	-0.120	-0.025
-192.217	-122.360	-0.102	-0.017
-191.202	12.948	-0.364	-0.282
-190.187	-45.871	-0.178	-0.088
-189.173	414.174	0.173	0.369
-188.158	-72.170	-0.109	0.041
-187.144	-133.371	0.123	0.015
-186.129	-29.444	0.307	0.176
-185.114	99.986	0.144	-0.167
-184.100	-85.467	0.250	-0.078
-183.085	-33.565	-0.193	-0.107
-182.071	-176.736	-0.209	0.005
-181.056	-134.655	0.251	0.031
-180.042	-41.216	-0.327	0.169
-179.027	282.334	-0.177	0.317
-178.012	-167.438	-0.030	-0.001
-176.998	467.677	-0.094	-0.212
-175.983	11.266	0.145	0.111
-174.969	47.935	0.057	-0.053
-173.954	-200.000	0.038	0.218
-172.939	-135.133	0.424	-0.051
-171.925	-37.647	-0.307	-0.163
-170.910	-58.773	-0.450	-0.195
-169.896	-33.187	0.136	-0.075
-168.881	800.000	-0.061	0.261
-167.866	155.616	-0.139	-0.191
-166.852	167.214	-0.176	-0.250
-165.837	-34.669	-0.155	-0.085
-164.823	488.873	0.182	0.415
-163.808	-2.196	-0.282	0.198
-162.793	17.567	-0.166	-0.132
-161.779	-200.000	-0.059	-0.326
-160.764	136.081	0.106	0.139
-159.750	-61.925	-0.042	0.018
-158.735	-145.005	-0.066	-0.006
-157.720	800.000	-0.034	0.135
-156.706	111.419	-0.276	0.332
-155.691	800.000	-0.092	-0.319
-154.677	-161.473	-0.245	0.013
-153.662	70.843	-0.165	-0.171
-152.647	228.174	0.101	0.165
-151.633	-200.000	-0.046	0.343
-150.618	300.378	0.075	-0.138
-149.604	-200.000	0.016	-0.195
-148.589	-110.139	-0.291	-0.061
-147.574	-42.800	0.106	-0.054
-146.560	-200.000	0.070	-0.338
-145.545	56.582	-0.060	0.058
-144.531	348.601	0.151	0.298
-143.516	-79.357	0.094	-0.032
-142.502	-2.736	-0.262	0.183
-141.487	59.052	-0.227	0.223
-140.472	-9.261	0.184	-0.123
-139.458	-72.366	-0.283	0.104
-138.443	-106.325	0.069	0.015
-137.429	606.454	0.101	0.251
-136.414	203.882	-0.083	0.129
-135.399	-200.000	0.002	-0.039
-134.385	66.429	0.187	-0.190
-133.370	-111.013	0.176	0.036
-132.356	-37.244	0.181	-0.096
-131.341	96.805	0.020	0.023
-130.326	43.889	-0.007	-0.007
-129.312	547.583	-0.018	-0.043
-128.297	215.162	-0.071	0.113
-127.283	-62.343	-0.349	0.145
-126.268	-41.818	0.425	0.218
-125.253	397.340	-0.097	0.202
-124.239	377.673	-0.026	0.053
-123.224	-40.348	-0.280	0.145
-122.210	-30.691	0.237	-0.134
