DTS Sentinel unit serial number:	SN413079Multiplexer serial number:	ORYXHardware model number:	OX4-SRSoftware version number:	ORYX F/W v4.00 Oryx Data Collector v3.7.2.0data status	okinstallation	princeton_trtdifferential loss correction	single-endedforward channel	channel 3reverse channel	N/Adate	2019/09/12time	11:54:11forward acquisition time	60.00reverse acquisition time	0.00gamma	496.2192k internal	0.2293k external	0.2293temperature offset calibration	1.0039default loss term (dB/km)	0.3790temperature slope calibration	1.0000multiplexer offset coefficient	1.0000multiplexer slope coefficient	1.0000fibre end	0.00T internal ref (°C)	40.11T ext. ref 1 (°C)	2.02T ext. ref 2 (°C)	37.58length (m)	temperature (°C)	Stokes	anti-Stokes-747.200	7.887	-0.116	-0.089
-746.185	-0.472	0.172	0.125
-745.171	-86.861	-0.429	0.134
-744.156	-127.545	-0.204	-0.030
-743.142	-36.217	-0.318	-0.176
-742.127	800.000	-0.078	0.311
-741.112	-165.026	0.332	-0.015
-740.098	19.409	0.096	-0.079
-739.083	-108.150	0.271	0.060
-738.069	-105.183	-0.249	0.058
-737.054	-106.510	-0.279	0.064
-736.039	-97.393	-0.354	0.094
-735.025	800.000	-0.048	0.202
-734.010	-140.200	0.015	0.002
-732.996	-28.171	-0.450	-0.266
-731.981	-43.184	0.071	0.037
-730.966	39.695	-0.140	0.129
-729.952	-144.675	-0.090	-0.008
-728.937	70.892	0.162	-0.171
-727.923	108.047	-0.331	-0.404
-726.908	800.000	0.054	-0.208
-725.894	269.862	-0.208	0.373
-724.879	112.078	-0.066	-0.081
-723.864	709.667	-0.167	-0.451
-722.850	800.000	-0.025	-0.083
-721.835	-133.004	0.133	-0.017
-720.821	-90.698	-0.054	-0.016
-719.806	181.000	0.061	-0.091
-718.791	39.893	0.162	-0.148
-717.777	738.438	0.126	-0.345
-716.762	445.746	0.065	-0.145
-715.748	-95.165	0.266	-0.073
-714.733	80.745	0.167	-0.184
-713.718	48.495	-0.166	-0.159
-712.704	-32.702	0.285	0.162
-711.689	-112.020	0.165	-0.034
-710.675	4.303	-0.203	-0.152
-709.660	-166.985	0.074	0.003
-708.645	-131.041	0.049	0.007
-707.631	176.677	-0.098	0.145
-706.616	-200.000	-0.047	0.251
-705.602	132.771	0.285	-0.375
-704.587	35.550	-0.082	-0.073
-703.572	214.665	0.089	-0.145
-702.558	550.772	0.133	-0.326
-701.543	239.641	-0.264	0.448
-700.529	-200.000	-0.014	-0.118
-699.514	-38.839	0.566	0.305
-698.499	121.185	0.125	-0.159
-697.485	-100.016	0.241	-0.061
-696.470	8.551	0.201	-0.154
-695.456	-200.000	0.069	-0.335
-694.441	-12.986	-0.246	-0.164
-693.426	-51.980	-0.189	-0.090
-692.412	281.985	-0.066	-0.121
-691.397	-57.655	-0.245	0.110
-690.383	-94.314	-0.101	-0.028
-689.368	800.000	0.073	-0.256
-688.354	-152.268	-0.024	-0.002
-687.339	-200.000	-0.018	0.340
-686.324	68.711	0.215	0.226
-685.310	-78.739	0.225	-0.078
-684.295	-200.000	0.013	0.144
-683.281	-108.090	0.092	0.020
-682.266	-18.582	-0.106	0.067
-681.251	26.686	-0.184	-0.157
-680.237	-154.687	-0.251	-0.017
-679.222	800.000	0.124	-0.401
-678.208	380.421	-0.108	-0.227
-677.193	212.765	0.120	-0.192
-676.178	-80.071	0.188	0.064
-675.164	-200.000	0.011	0.059
-674.149	-102.047	0.216	-0.053
-673.135	-153.500	-0.347	-0.025
-672.120	243.920	0.076	0.130
-671.105	62.639	0.083	0.084
-670.091	800.000	-0.039	0.158
-669.076	-152.868	-0.080	-0.006
-668.062	36.279	0.118	0.106
-667.047	281.855	0.114	-0.208
-666.032	89.518	-0.218	-0.248
-665.018	-9.456	0.025	0.017
-664.003	-22.970	-0.154	-0.095
-662.989	-200.000	0.004	-0.146
-661.974	-200.000	-0.024	-0.110
-660.959	-171.996	0.077	-0.003
-659.945	-51.742	0.306	0.145
-658.930	-200.000	0.037	-0.219
-657.916	475.266	-0.104	-0.239
-656.901	-34.291	0.184	-0.103
-655.886	-12.092	-0.158	-0.106
-654.872	51.234	-0.142	-0.137
-653.857	-49.168	-0.052	0.026
-652.843	239.020	0.121	-0.205
-651.828	-200.000	-0.058	-0.400
-650.814	201.651	0.132	0.207
-649.799	28.020	-0.262	0.225
-648.784	-54.389	-0.181	0.084
-647.770	77.827	0.318	-0.345
-646.755	398.722	-0.217	-0.462
-645.741	-138.007	-0.265	0.030
-644.726	95.400	0.153	0.178
-643.711	55.072	-0.181	-0.178
-642.697	404.121	0.027	0.057
-641.682	-50.673	0.243	-0.117
-640.668	267.367	-0.140	0.250
-639.653	-200.000	0.021	0.345
-638.638	-92.344	0.097	-0.028
-637.624	412.829	0.078	0.170
-636.609	-144.358	0.166	-0.016
-635.595	-59.832	-0.142	0.062
-634.580	800.000	0.074	-0.264
-633.565	-118.378	-0.262	-0.047
-632.551	18.713	-0.161	-0.131
-631.536	-33.971	-0.136	0.076
-630.522	121.826	-0.105	-0.133
-629.507	24.271	-0.249	0.210
-628.492	-16.088	0.154	-0.099
-627.478	40.580	0.136	-0.125
-626.463	-17.734	-0.085	-0.054
-625.449	-200.000	0.043	-0.338
-624.434	136.321	-0.019	-0.026
-623.419	417.497	0.083	-0.181
-622.405	-64.020	-0.025	-0.010
-621.390	148.512	0.088	0.121
-620.376	-27.091	0.224	-0.133
-619.361	516.440	0.158	-0.376
-618.346	143.453	-0.067	-0.091
-617.332	233.340	-0.186	-0.311
-616.317	52.709	0.097	-0.095
-615.303	181.270	-0.109	0.163
-614.288	74.084	-0.091	0.097
-613.273	411.539	-0.173	0.374
-612.259	21.822	0.133	0.110
-611.244	-200.000	0.014	0.165
-610.230	117.177	-0.138	0.173
-609.215	184.889	-0.079	-0.119
-608.201	-97.952	0.299	0.079
-607.186	787.347	0.088	-0.247
-606.171	423.888	-0.144	0.314
-605.157	48.530	-0.168	-0.160
-604.142	800.000	-0.031	0.105
-603.128	-200.000	-0.124	0.632
-602.113	200.910	0.094	-0.147
-601.098	127.859	-0.082	0.106
-600.084	93.211	-0.172	-0.198
-599.069	-137.153	-0.200	0.023
-598.055	698.475	0.117	0.313
-597.040	-200.000	0.034	-0.295
-596.025	-108.807	0.521	0.113
-595.011	412.967	-0.096	0.208
-593.996	-125.875	-0.144	-0.022
-592.982	-0.160	0.127	0.092
-591.967	193.142	-0.207	-0.318
-590.952	-49.840	0.130	0.063
-589.938	-1.920	-0.246	0.176
-588.923	-200.000	0.000	-0.289
-587.909	-47.448	-0.091	-0.045
-586.894	-5.574	0.096	-0.067
-585.879	-45.108	0.185	0.094
-584.865	-200.000	-0.008	0.133
-583.850	183.110	-0.167	-0.251
-582.836	-132.226	-0.233	-0.031
-581.821	113.958	-0.233	-0.288
-580.806	-145.059	0.309	-0.029
-579.792	-39.778	-0.163	0.087
-578.777	-13.464	-0.104	0.068
-577.763	271.623	-0.018	-0.032
-576.748	-200.000	0.018	0.152
-575.733	-45.443	-0.414	-0.208
-574.719	62.334	0.135	-0.137
-573.704	457.173	-0.119	-0.268
-572.690	-36.713	-0.201	0.109
-571.675	-144.066	-0.377	-0.036
-570.661	48.134	0.281	0.267
-569.646	-200.000	-0.247	0.000
-568.631	800.000	0.071	0.212
-567.617	-2.910	0.175	-0.124
-566.602	-200.000	0.020	-0.167
-565.588	34.734	0.168	-0.150
-564.573	-79.469	-0.159	0.055
-563.558	-112.594	0.129	-0.026
-562.544	-120.670	0.210	-0.036
-561.529	71.016	-0.141	-0.149
-560.515	53.603	0.183	0.178
-559.500	-63.557	0.291	0.121
-558.485	800.000	0.064	-0.259
-557.471	-200.000	-0.022	-0.117
-556.456	-200.000	0.052	0.266
-555.442	-62.218	-0.192	-0.081
-554.427	-132.575	0.227	0.030
-553.412	105.416	0.197	-0.237
-552.398	-40.089	-0.147	-0.078
-551.383	53.308	0.098	-0.095
-550.369	-200.000	-0.018	-0.240
-549.354	19.025	-0.225	-0.183
-548.339	66.107	-0.151	0.155
-547.325	-61.111	0.350	0.150
-546.310	800.000	-0.090	0.290
-545.296	608.255	0.088	0.224
-544.281	-66.950	0.402	0.161
-543.266	-77.013	0.054	0.019
-542.252	800.000	0.077	-0.218
-541.237	504.178	0.080	-0.187
-540.223	-42.684	-0.222	0.115
-539.208	-126.405	-0.256	0.039
-538.193	-118.339	-0.395	0.071
-537.179	290.819	0.110	0.202
-536.164	-75.268	-0.157	0.057
-535.150	132.137	-0.062	-0.081
-534.135	148.488	-0.059	-0.080
-533.121	-200.000	-0.001	-0.142
-532.106	800.000	-0.157	-0.481
-531.091	-200.000	-0.036	0.191
-530.077	419.819	0.084	-0.181
-529.062	-115.421	0.336	0.064
-528.048	97.690	-0.031	-0.037
-527.033	-121.952	-0.148	0.025
-526.018	516.875	0.026	0.061
-525.004	-76.924	0.179	-0.063
-523.989	-29.775	0.185	0.107
-522.975	-106.076	-0.214	-0.049
-521.960	-64.792	0.086	-0.035
-520.945	-101.898	0.190	0.047
-519.931	-36.495	0.136	-0.074
-518.916	800.000	-0.035	-0.100
-517.902	-74.826	-0.232	-0.084
-516.887	-126.057	-0.453	-0.069
-515.872	-200.000	0.020	-0.187
-514.858	-63.143	-0.209	0.087
-513.843	-113.831	-0.097	-0.019
-512.829	525.972	-0.163	-0.389
-511.814	398.324	0.123	-0.262
-510.799	148.003	-0.123	0.168
-509.785	-106.931	0.155	-0.035
-508.770	-14.980	-0.237	-0.154
-507.756	542.987	-0.097	-0.235
-506.741	30.192	-0.099	0.086
-505.726	-116.676	-0.022	0.004
-504.712	138.680	0.039	0.052
-503.697	-200.000	-0.018	-0.170
-502.683	-200.000	-0.048	0.350
-501.668	-200.000	-0.017	0.180
-500.653	-55.867	0.146	-0.066
-499.639	-106.793	-0.175	-0.039
-498.624	-63.310	0.152	0.063
-497.610	-37.252	-0.224	0.121
-496.595	16.130	0.215	0.172
-495.581	800.000	0.109	0.431
-494.566	-200.000	-0.012	0.137
-493.551	800.000	0.022	-0.091
-492.537	-61.348	-0.264	-0.113
-491.522	59.670	-0.194	-0.194
-490.508	51.861	-0.141	0.136
-489.493	-200.000	-0.016	-0.088
-488.478	-169.746	0.094	-0.003
-487.464	-42.161	-0.137	-0.071
-486.449	-42.896	0.239	0.123
-485.435	130.375	-0.177	0.229
-484.420	-49.815	-0.271	0.130
-483.405	-200.000	-0.060	0.272
-482.391	-46.002	0.205	0.103
-481.376	800.000	0.046	-0.194
-480.362	22.024	0.080	0.066
-479.347	-101.950	0.454	-0.111
-478.332	-200.000	0.015	-0.138
-477.318	-112.929	-0.065	-0.013
-476.303	-200.000	0.109	0.636
-475.289	-200.000	-0.035	0.505
-474.274	45.180	-0.104	-0.097
-473.259	360.468	0.097	0.196
-472.245	-31.949	-0.246	0.140
-471.230	5.734	0.328	0.245
-470.216	-75.741	0.155	0.056
-469.201	387.008	0.015	0.032
-468.186	-45.326	0.141	-0.071
-467.172	-125.962	0.029	0.004
-466.157	-12.413	0.495	-0.327
-465.143	-8.316	-0.056	-0.038
-464.128	-200.000	-0.038	-0.281
-463.113	-49.641	0.148	-0.071
-462.099	556.646	0.007	-0.016
-461.084	-200.000	0.001	0.011
-460.070	-200.000	-0.023	0.257
-459.055	103.605	0.187	-0.222
-458.040	-87.487	-0.061	0.019
-457.026	-200.000	-0.001	0.005
-456.011	82.595	-0.111	0.122
-454.997	-125.070	-0.145	-0.023
-453.982	-0.343	0.144	0.104
-452.968	136.986	0.262	0.346
-451.953	101.962	-0.135	0.159
-450.938	-9.600	0.268	-0.181
-449.924	-200.000	-0.015	0.195
-448.909	95.668	0.058	-0.067
-447.895	-149.099	0.111	0.009
-446.880	451.158	0.179	0.399
-445.865	37.225	-0.241	0.215
-444.851	-117.853	-0.099	0.018
-443.836	-16.696	-0.254	0.162
-442.822	-200.000	0.011	-0.250
-441.807	800.000	-0.043	-0.129
-440.792	-200.000	-0.025	0.160
-439.778	-200.000	0.049	0.259
-438.763	27.623	0.242	0.206
-437.749	-200.000	0.036	-0.171
-436.734	-136.917	-0.469	-0.054
-435.719	735.040	-0.120	0.324
-434.705	-54.373	-0.221	0.101
-433.690	136.363	-0.151	-0.199
-432.676	262.098	-0.195	-0.342
-431.661	-187.803	-0.169	-0.002
-430.646	114.531	0.221	-0.272
-429.632	-200.000	0.006	0.094
-428.617	314.316	-0.074	0.141
-427.603	-200.000	-0.006	-0.121
-426.588	-150.530	-0.163	-0.013
-425.573	-200.000	-0.002	-0.059
-424.559	-68.455	-0.103	-0.040
-423.544	-200.000	0.002	-0.128
-422.530	192.036	-0.337	-0.513
-421.515	12.564	0.121	0.094
-420.500	-159.617	-0.185	-0.010
-419.486	-189.086	0.210	-0.003
-418.471	299.044	0.083	0.154
-417.457	94.293	-0.076	0.087
-416.442	470.483	0.169	-0.383
-415.428	499.692	-0.076	-0.177
-414.413	612.187	-0.101	0.255
-413.398	33.316	-0.397	0.348
-412.384	-36.491	0.167	0.091
-411.369	0.204	-0.260	-0.187
-410.355	37.393	0.119	-0.106
-409.340	222.501	-0.038	0.062
-408.325	116.748	-0.200	-0.248
-407.311	-88.676	-0.098	0.029
-406.296	77.881	0.113	0.121
-405.282	-200.000	0.016	0.210
-404.267	800.000	-0.039	-0.173
-403.252	330.068	-0.128	0.249
-402.238	800.000	0.022	-0.087
-401.223	-114.626	0.144	-0.028
-400.209	709.316	0.102	0.272
-399.194	52.440	0.291	-0.280
-398.179	-200.000	-0.009	-0.137
-397.165	63.783	-0.137	0.139
-396.150	1.113	-0.323	0.234
-395.136	-200.000	-0.012	0.079
-394.121	-200.000	-0.033	-0.315
-393.106	241.869	0.101	-0.171
-392.092	-200.000	-0.034	-0.373
-391.077	-7.933	-0.088	-0.060
-390.063	74.692	-0.277	0.294
-389.048	-69.946	0.109	-0.042
-388.033	-54.000	-0.374	-0.172
-387.019	-84.994	-0.172	0.054
-386.004	518.598	-0.061	0.144
-384.990	412.380	0.056	0.120
-383.975	-200.000	-0.004	0.043
-382.960	-16.394	-0.016	-0.011
-381.946	-83.641	-0.289	0.093
-380.931	-103.164	0.477	0.114
-379.917	69.762	-0.228	0.237
-378.902	-142.920	-0.414	-0.041
-377.888	-127.196	0.063	0.009
-376.873	-13.033	0.219	0.144
-375.858	-200.000	-0.033	-0.183
-374.844	-18.294	0.085	0.053
-373.829	119.713	0.076	-0.095
-372.815	-200.000	0.013	-0.172
-371.800	-96.534	-0.378	0.101
-370.785	-75.251	0.185	-0.067
-369.771	78.582	0.354	0.381
-368.756	60.608	0.098	-0.098
-367.742	21.226	-0.231	0.189
-366.727	800.000	-0.040	-0.146
-365.712	24.426	-0.200	0.167
-364.698	41.666	-0.084	-0.076
-363.683	-2.908	0.073	-0.051
-362.669	48.363	-0.148	0.139
-361.654	531.194	-0.104	-0.248
-360.639	179.331	0.055	-0.081
-359.625	-200.000	-0.048	0.214
-358.610	-102.954	0.141	0.034
-357.596	-133.580	-0.146	-0.018
-356.581	-140.909	-0.292	-0.030
-355.566	224.021	-0.085	-0.138
-354.552	362.019	-0.181	0.365
-353.537	-105.356	-0.299	0.069
-352.523	-158.579	0.253	0.015
-351.508	-49.954	-0.359	0.171
-350.493	-24.636	0.061	-0.036
-349.479	-140.061	0.249	-0.026
-348.464	-31.821	-0.282	0.159
-347.450	599.056	0.030	0.074
-346.435	-32.959	-0.160	0.090
-345.420	-200.000	-0.034	-0.152
-344.406	-200.000	-0.016	-0.139
-343.391	-79.180	-0.103	-0.035
-342.377	-109.134	0.164	-0.035
-341.362	-200.000	-0.023	0.166
-340.348	11.757	0.202	0.156
-339.333	-73.778	0.282	0.103
-338.318	96.717	0.085	0.098
-337.304	-200.000	-0.029	0.310
-336.289	-56.993	0.378	-0.168
-335.275	-143.280	0.285	-0.028
-334.260	69.101	0.392	0.406
-333.245	-200.000	0.009	-0.209
-332.231	479.608	-0.101	-0.230
-331.216	35.717	-0.365	0.323
-330.202	111.493	0.053	0.065
-329.187	-165.145	0.325	-0.015
-328.172	758.448	0.032	-0.088
-327.158	-200.000	-0.004	0.423
-326.143	800.000	0.101	-0.290
-325.129	-200.000	0.000	-0.244
-324.114	378.622	-0.097	0.200
-323.099	-173.714	-0.140	0.004
-322.085	-58.018	-0.189	-0.083
-321.070	110.750	-0.096	0.117
-320.056	60.369	-0.110	0.110
-319.041	367.619	0.188	-0.382
-318.026	800.000	-0.025	0.074
-317.012	-127.643	0.288	-0.042
-315.997	-96.202	-0.031	-0.008
-314.983	-35.069	0.186	0.102
-313.968	106.993	-0.068	0.081
-312.953	-57.201	0.102	0.045
-311.939	-25.947	0.196	0.116
-310.924	-54.051	-0.382	0.175
-309.910	-23.540	0.360	0.217
-308.895	-106.259	0.259	0.058
-307.880	-91.514	-0.082	-0.023
-306.866	179.015	0.123	0.180
-305.851	-16.513	-0.097	0.062
-304.837	-47.133	0.062	-0.031
-303.822	-101.474	0.072	0.018
-302.807	-200.000	-0.003	0.027
-301.793	0.409	-0.248	0.178
-300.778	-141.100	0.491	0.051
-299.764	-4.838	0.115	-0.080
-298.749	116.669	-0.176	0.217
-297.735	388.903	0.082	0.171
-296.720	-30.211	0.243	-0.139
-295.705	-88.984	0.147	-0.044
-294.691	800.000	-0.107	0.308
-293.676	214.722	-0.066	-0.106
-292.662	243.927	-0.069	-0.117
-291.647	-24.054	0.352	-0.211
-290.632	-200.000	0.017	0.159
-289.618	240.661	0.103	0.173
-288.603	-21.326	-0.151	-0.092
-287.589	76.532	0.300	0.320
-286.574	-41.956	0.422	-0.217
-285.559	-182.884	-0.371	-0.007
-284.545	-71.206	0.214	0.081
-283.530	114.765	0.084	0.103
-282.516	-200.000	0.031	0.165
-281.501	116.287	0.057	0.070
-280.486	589.759	0.088	0.219
-279.472	372.239	0.162	0.331
-278.457	-144.201	-0.225	0.021
-277.443	-142.786	0.282	-0.028
-276.428	-64.372	-0.036	0.015
-275.413	2.992	0.288	-0.210
-274.399	552.610	-0.040	-0.098
-273.384	18.400	-0.257	-0.206
-272.370	72.255	0.151	0.158
-271.355	147.799	0.119	0.161
-270.340	-177.375	-0.166	-0.004
-269.326	42.907	0.056	0.051
-268.311	198.746	-0.137	0.211
-267.297	147.003	0.160	-0.216
-266.282	800.000	0.026	0.082
-265.267	29.518	0.197	0.168
-264.253	327.425	0.054	-0.104
-263.238	800.000	0.162	-0.564
-262.224	52.486	-0.171	-0.164
-261.209	800.000	0.066	-0.263
-260.195	423.542	0.168	0.363
-259.180	-145.497	0.331	-0.030
-258.165	-200.000	-0.044	-0.274
-257.151	-163.858	-0.016	0.001
-256.136	-10.293	0.165	-0.110
-255.122	52.343	-0.234	0.224
-254.107	-4.125	0.106	-0.074
-253.092	800.000	-0.070	0.240
-252.078	20.108	0.258	0.209
-251.063	-128.008	-0.213	0.031
-250.049	144.784	-0.119	-0.160
-249.034	-164.747	-0.145	-0.007
-248.019	202.104	0.094	-0.145
-247.005	-200.000	0.041	-0.434
-245.990	-105.186	0.206	0.047
-244.976	709.577	-0.136	-0.360
-243.961	-97.903	-0.108	-0.028
-242.946	201.931	-0.151	0.233
-241.932	800.000	-0.010	-0.038
-240.917	-200.000	-0.066	-0.575
-239.903	296.321	-0.131	0.242
-238.888	-200.000	0.030	0.133
-237.873	-186.592	0.445	-0.006
-236.859	651.334	-0.046	0.117
-235.844	-200.000	-0.040	-0.210
-234.830	205.994	-0.067	-0.104
-233.815	800.000	0.038	0.146
-232.800	800.000	0.055	-0.170
-231.786	88.011	0.293	-0.326
-230.771	82.426	-0.129	0.141
-229.757	-122.741	-0.118	-0.019
-228.742	46.982	0.109	-0.102
-227.727	411.127	0.052	0.110
-226.713	-20.450	-0.224	-0.138
-225.698	-200.000	0.007	0.153
-224.684	618.319	0.040	0.100
-223.669	-200.000	-0.015	-0.207
-222.655	-41.808	-0.182	0.094
-221.640	-200.000	0.009	0.208
-220.625	-104.726	0.192	-0.044
-219.611	14.566	0.119	-0.093
-218.596	800.000	0.042	-0.125
-217.582	-32.437	-0.263	-0.147
-216.567	-200.000	0.247	0.000
-215.552	-200.000	-0.041	0.339
-214.538	-96.100	-0.182	0.048
-213.523	-50.667	0.378	-0.178
-212.509	620.098	-0.093	-0.234
-211.494	145.665	0.229	-0.308
-210.479	-75.950	0.276	0.098
-209.465	120.548	0.086	-0.107
-208.450	-6.541	0.200	0.137
-207.436	-24.898	-0.293	-0.174
-206.421	-200.000	-0.047	-0.385
-205.406	36.702	0.383	0.339
-204.392	13.830	0.151	0.118
-203.377	-120.536	-0.294	-0.050
-202.363	-52.577	0.076	0.035
-201.348	-98.550	-0.046	-0.012
-200.333	-92.874	-0.272	-0.076
-199.319	-4.902	-0.192	0.133
-198.304	60.710	-0.142	0.141
-197.290	160.779	0.128	-0.179
-196.275	-126.579	-0.169	-0.025
-195.260	146.771	0.216	-0.290
-194.246	-41.197	-0.183	0.095
-193.231	-45.986	-0.368	-0.182
-192.217	-17.840	-0.078	0.049
-191.202	-41.191	-0.198	0.102
-190.187	-69.543	0.262	-0.101
-189.173	81.189	-0.183	-0.198
-188.158	74.795	-0.160	0.169
-187.144	-138.515	0.262	0.029
-186.129	-127.217	0.102	-0.015
-185.114	-166.737	-0.261	-0.011
-184.100	-159.955	0.155	-0.008
-183.085	-37.782	0.192	0.102
-182.071	135.743	0.195	0.254
-181.056	156.527	-0.188	-0.260
-180.042	394.357	0.023	-0.048
-179.027	-24.047	0.518	-0.310
-178.012	515.924	-0.037	0.086
-176.998	651.723	-0.052	0.134
-175.983	-10.902	-0.288	-0.191
-174.969	102.647	-0.098	-0.114
-173.954	93.096	-0.113	-0.128
-172.939	383.281	0.040	-0.083
-171.925	1.298	-0.259	-0.186
-170.910	-60.805	-0.235	-0.100
-169.896	46.668	0.292	0.271
-168.881	800.000	0.006	-0.016
-167.866	-105.073	0.141	-0.032
-166.852	9.046	0.133	-0.101
-165.837	461.436	-0.088	-0.197
-164.823	-38.446	0.289	-0.153
-163.808	-200.000	0.022	-0.298
-162.793	-79.206	-0.325	-0.110
-161.779	-117.449	0.261	-0.047
-160.764	-37.503	0.206	-0.110
-159.750	-82.972	0.085	-0.027
-158.735	-200.000	0.053	-0.376
-157.720	-109.888	-0.240	-0.050
-156.706	16.288	0.218	0.172
-155.691	-10.650	0.241	0.159
-154.677	-67.903	0.122	-0.048
-153.662	-105.234	-0.314	-0.072
-152.647	29.231	0.334	0.283
-151.633	-63.170	0.072	-0.030
-150.618	-4.792	-0.090	-0.062
-149.604	243.354	0.090	0.150
-148.589	-200.000	-0.012	0.284
-147.574	-93.176	-0.223	0.062
-146.560	51.906	0.293	-0.278
-145.545	-200.000	0.035	0.217
-144.531	-200.000	-0.007	0.310
-143.516	-114.757	-0.201	-0.038
-142.502	257.207	-0.064	0.110
-141.487	-32.058	0.249	0.139
-140.472	-200.000	0.019	-0.291
-139.458	74.660	0.091	-0.095
-138.443	-200.000	-0.044	0.291
-137.429	80.553	-0.232	-0.249
-136.414	800.000	0.016	-0.054
-135.399	-151.374	0.094	0.007
-134.385	476.445	-0.059	0.133
-133.370	-71.600	0.306	0.114
-132.356	148.423	0.132	0.179
-131.341	159.507	0.067	0.094
-130.326	-200.000	-0.013	-0.396
-129.312	-138.458	0.230	0.025
-128.297	-37.962	-0.296	0.157
-127.283	-200.000	0.010	0.150
-126.268	628.322	0.056	0.141
-125.253	-89.832	-0.209	-0.061
-124.239	-200.000	-0.015	-0.299
-123.224	-154.802	0.216	0.014
-122.210	800.000	0.101	0.346
