DTS Sentinel unit serial number:	SN413079Multiplexer serial number:	ORYXHardware model number:	OX4-SRSoftware version number:	ORYX F/W v4.00 Oryx Data Collector v3.7.2.0data status	okinstallation	princeton_trtdifferential loss correction	single-endedforward channel	channel 3reverse channel	N/Adate	2019/09/15time	21:28:35forward acquisition time	60.00reverse acquisition time	0.00gamma	496.2192k internal	0.2329k external	0.2329temperature offset calibration	0.9943default loss term (dB/km)	0.3790temperature slope calibration	1.0000multiplexer offset coefficient	1.0000multiplexer slope coefficient	1.0000fibre end	0.00T internal ref (°C)	30.78T ext. ref 1 (°C)	8.28T ext. ref 2 (°C)	23.76length (m)	temperature (°C)	Stokes	anti-Stokes-747.200	-33.965	0.318	0.176
-746.185	-200.000	0.008	0.397
-745.171	-35.869	-0.091	0.050
-744.156	107.728	0.133	0.160
-743.142	550.841	-0.249	-0.601
-742.127	-84.679	-0.055	-0.017
-741.112	800.000	-0.119	-0.444
-740.098	139.114	0.215	0.285
-739.083	-134.830	0.293	0.036
-738.069	111.898	0.104	0.126
-737.054	-1.917	0.188	0.133
-736.039	530.020	-0.029	-0.069
-735.025	501.015	0.110	0.255
-734.010	513.626	-0.157	-0.370
-732.996	11.858	-0.187	-0.145
-731.981	-33.784	-0.054	-0.030
-730.966	159.649	-0.175	-0.246
-729.952	111.441	0.010	-0.012
-728.937	800.000	-0.047	-0.194
-727.923	-119.870	0.170	0.030
-726.908	-200.000	-0.041	0.293
-725.894	42.083	0.107	-0.098
-724.879	-46.508	0.228	-0.113
-723.864	-200.000	-0.009	0.110
-722.850	-106.663	-0.298	0.067
-721.835	-200.000	-0.068	0.351
-720.821	391.913	-0.014	-0.028
-719.806	440.608	-0.220	-0.484
-718.791	-90.030	0.139	-0.041
-717.777	-200.000	-0.003	-0.426
-716.762	-118.989	0.105	0.019
-715.748	81.719	-0.185	0.202
-714.733	-83.599	0.360	0.116
-713.718	800.000	-0.058	-0.185
-712.704	125.441	0.039	-0.050
-711.689	-138.653	0.439	0.048
-710.675	114.748	0.021	0.026
-709.660	171.910	-0.171	-0.247
-708.645	-137.549	-0.060	-0.007
-707.631	264.953	-0.160	0.281
-706.616	183.343	0.223	0.331
-705.602	46.141	0.184	0.171
-704.587	800.000	0.070	0.246
-703.572	-200.000	0.006	-0.105
-702.558	-144.265	0.266	-0.025
-701.543	176.622	0.135	-0.197
-700.529	61.685	0.176	-0.176
-699.514	-200.000	0.062	-0.295
-698.499	11.335	0.083	0.064
-697.485	-188.436	0.368	-0.005
-696.470	800.000	0.119	-0.372
-695.456	-191.953	0.277	-0.003
-694.441	-92.645	-0.193	-0.054
-693.426	-98.734	0.466	-0.119
-692.412	-200.000	-0.016	-0.198
-691.397	249.908	-0.063	-0.108
-690.383	-27.409	-0.224	-0.131
-689.368	800.000	-0.017	-0.056
-688.354	28.593	-0.180	0.153
-687.339	347.465	-0.121	0.239
-686.324	79.947	0.104	0.113
-685.310	800.000	-0.076	0.243
-684.295	170.221	-0.111	-0.160
-683.281	-6.906	-0.215	-0.147
-682.266	16.715	-0.102	0.081
-681.251	800.000	0.058	-0.224
-680.237	-200.000	0.053	0.309
-679.222	1.480	0.227	-0.164
-678.208	800.000	-0.046	-0.165
-677.193	-55.943	-0.179	0.080
-676.178	-184.126	0.151	-0.003
-675.164	-118.024	0.284	0.051
-674.149	-47.425	-0.048	0.023
-673.135	140.469	-0.167	0.221
-672.120	-186.936	0.331	-0.005
-671.105	800.000	-0.054	0.177
-670.091	-130.548	-0.110	-0.015
-669.076	99.320	0.073	0.085
-668.062	-161.819	-0.119	0.006
-667.047	-135.281	-0.285	0.034
-666.032	-38.385	-0.223	0.118
-665.018	44.443	0.295	-0.272
-664.003	-64.314	-0.189	0.077
-662.989	-200.000	0.020	0.151
-661.974	-3.614	-0.119	-0.083
-660.959	-200.000	0.004	-0.040
-659.945	-200.000	0.030	-0.139
-658.930	-139.276	-0.407	-0.044
-657.916	10.411	-0.284	-0.217
-656.901	674.879	0.093	0.242
-655.886	679.900	-0.032	-0.084
-654.872	382.307	0.226	-0.467
-653.857	6.559	0.205	-0.153
-652.843	-53.190	0.205	-0.094
-651.828	-5.958	-0.177	-0.121
-650.814	800.000	0.081	-0.299
-649.799	13.433	-0.128	0.099
-648.784	41.500	-0.253	0.230
-647.770	800.000	-0.093	-0.276
-646.755	-200.000	-0.007	-0.065
-645.741	-150.792	0.072	-0.005
-644.726	409.312	0.245	-0.521
-643.711	141.840	-0.137	-0.182
-642.697	-41.113	0.148	-0.077
-641.682	23.666	0.187	0.154
-640.668	-151.925	-0.162	0.012
-639.653	-6.293	-0.092	-0.063
-638.638	85.180	0.156	-0.172
-637.624	-39.401	0.103	-0.054
-636.609	131.989	-0.104	0.134
-635.595	409.270	0.108	0.230
-634.580	-83.307	-0.458	0.148
-633.565	85.112	0.091	-0.100
-632.551	280.301	-0.094	0.168
-631.536	-99.878	0.275	-0.069
-630.522	-200.000	0.025	-0.211
-629.507	800.000	-0.064	0.189
-628.492	2.049	-0.179	0.129
-627.478	-109.131	-0.286	-0.061
-626.463	162.353	0.054	-0.077
-625.449	-119.515	-0.248	-0.043
-624.434	800.000	-0.038	-0.153
-623.419	-112.413	0.084	-0.017
-622.405	-146.328	0.104	-0.009
-621.390	115.648	0.113	0.139
-620.376	-109.544	-0.241	0.051
-619.361	234.397	0.088	0.146
-618.346	271.150	0.140	0.247
-617.332	800.000	0.031	-0.129
-616.317	126.123	-0.162	0.206
-615.303	230.151	0.218	-0.356
-614.288	800.000	-0.033	-0.113
-613.273	30.077	-0.114	0.097
-612.259	715.457	0.079	0.210
-611.244	-140.680	-0.352	-0.037
-610.230	70.786	0.158	-0.164
-609.215	-116.578	-0.060	0.011
-608.201	-19.168	0.112	0.070
-607.186	-200.000	-0.017	-0.313
-606.171	253.677	-0.095	0.163
-605.157	-121.308	0.206	-0.034
-604.142	-55.796	0.180	-0.081
-603.128	-149.002	-0.232	0.019
-602.113	-200.000	-0.015	-0.176
-601.098	-13.266	0.117	0.076
-600.084	-200.000	-0.002	0.245
-599.069	70.202	-0.287	0.297
-598.055	-165.400	0.190	-0.008
-597.040	286.515	-0.053	0.096
-596.025	-22.497	-0.221	-0.134
-595.011	44.778	-0.356	-0.328
-593.996	-110.306	0.440	0.092
-592.982	135.506	0.259	0.337
-591.967	-200.000	-0.013	-0.310
-590.952	800.000	0.052	0.150
-589.938	800.000	0.052	0.191
-588.923	146.112	-0.225	-0.303
-587.909	12.153	-0.343	-0.264
-586.894	-200.000	0.038	0.581
-585.879	-150.862	-0.163	-0.012
-584.865	-106.505	0.190	-0.042
-583.850	234.934	-0.132	0.218
-582.836	-200.000	0.101	-0.518
-581.821	9.746	0.162	0.123
-580.806	-200.000	0.020	-0.089
-579.792	250.361	0.084	-0.144
-578.777	133.073	0.018	0.023
-577.763	-200.000	0.032	-0.148
-576.748	125.404	0.061	-0.077
-575.733	130.958	-0.027	0.035
-574.719	-24.903	-0.171	-0.102
-573.704	800.000	-0.074	0.275
-572.690	-90.056	-0.225	0.066
-571.675	-79.517	-0.202	-0.068
-570.661	-32.687	0.263	0.147
-569.646	-78.934	-0.433	0.148
-568.631	65.118	0.179	0.181
-567.617	55.068	-0.019	-0.019
-566.602	-30.017	0.072	0.041
-565.588	-200.000	-0.003	-0.217
-564.573	-13.508	-0.309	-0.200
-563.558	115.764	0.197	0.242
-562.544	-115.118	-0.454	0.086
-561.529	673.545	0.032	-0.082
-560.515	-200.000	-0.029	-0.200
-559.500	800.000	-0.125	0.355
-558.485	-200.000	0.012	0.161
-557.471	87.298	-0.232	-0.257
-556.456	800.000	0.046	-0.136
-555.442	-48.300	-0.267	0.129
-554.427	642.440	0.126	-0.320
-553.412	-5.973	0.297	0.203
-552.398	-157.174	0.286	-0.017
-551.383	13.310	0.117	0.091
-550.369	239.332	-0.123	0.204
-549.354	-159.030	-0.214	0.012
-548.339	-92.939	0.389	0.109
-547.325	-129.108	-0.136	-0.019
-546.310	-147.923	-0.337	-0.028
-545.296	-200.000	0.007	0.425
-544.281	25.885	0.120	0.100
-543.266	159.874	-0.094	0.131
-542.252	80.954	-0.175	0.189
-541.237	56.453	0.127	-0.124
-540.223	-113.050	-0.197	0.039
-539.208	-85.489	-0.282	0.088
-538.193	-200.000	-0.001	0.134
-537.179	800.000	-0.039	0.141
-536.164	-200.000	-0.016	0.324
-535.150	-70.213	-0.233	-0.089
-534.135	5.580	-0.072	-0.053
-533.121	-200.000	0.000	-0.010
-532.106	-200.000	-0.029	-0.336
-531.091	800.000	-0.040	-0.160
-530.077	126.470	-0.057	-0.072
-529.062	-84.011	0.336	0.107
-528.048	81.782	0.207	0.224
-527.033	-139.526	-0.086	0.009
-526.018	-63.646	-0.276	0.113
-525.004	-171.204	-0.275	-0.009
-523.989	-200.000	0.017	-0.196
-522.975	130.852	0.147	-0.188
-521.960	179.230	0.101	-0.148
-520.945	434.336	0.119	-0.259
-519.931	57.570	0.245	-0.239
-518.916	445.310	-0.078	-0.171
-517.902	634.633	0.063	-0.159
-516.887	-74.955	0.073	0.026
-515.872	93.017	0.107	0.121
-514.858	-174.272	0.335	-0.010
-513.843	-95.501	-0.083	0.022
-512.829	-107.130	0.378	0.083
-511.814	-47.166	-0.203	-0.099
-510.799	-62.854	-0.347	0.143
-509.785	-200.000	-0.078	-0.441
-508.770	800.000	0.052	0.155
-507.756	-155.699	-0.086	0.005
-506.741	-117.238	-0.294	-0.053
-505.726	277.187	0.094	-0.167
-504.712	139.208	-0.228	0.299
-503.697	-1.015	-0.224	-0.158
-502.683	-37.238	0.099	-0.053
-501.668	-36.796	0.173	-0.093
-500.653	-21.692	-0.085	0.052
-499.639	-130.177	0.113	-0.015
-498.624	15.557	-0.118	-0.092
-497.610	44.281	0.195	-0.179
-496.595	424.364	-0.089	-0.192
-495.581	-38.652	-0.221	0.116
-494.566	14.597	0.203	0.158
-493.551	-30.700	-0.246	0.139
-492.537	72.760	-0.128	-0.134
-491.522	-200.000	-0.009	0.064
-490.508	-91.062	-0.313	-0.090
-489.493	-82.081	0.074	0.024
-488.478	-6.084	0.224	-0.153
-487.464	-69.465	-0.068	-0.026
-486.449	-69.056	-0.215	0.083
-485.435	-6.368	-0.162	0.110
-484.420	800.000	0.124	-0.382
-483.405	28.455	-0.074	0.063
-482.391	-200.000	0.001	0.262
-481.376	-46.250	-0.345	-0.169
-480.362	7.262	0.203	-0.151
-479.347	-102.403	-0.302	0.072
-478.332	80.700	0.235	0.253
-477.318	-36.427	0.165	0.089
-476.303	379.450	-0.108	0.221
-475.289	-200.000	-0.007	-0.065
-474.274	129.579	0.160	0.203
-473.259	-11.710	0.201	-0.132
-472.245	-200.000	-0.056	0.313
-471.230	-200.000	0.006	-0.079
-470.216	0.037	0.360	-0.255
-469.201	-200.000	-0.006	-0.131
-468.186	-200.000	-0.029	-0.259
-467.172	800.000	0.004	0.017
-466.157	80.712	-0.068	0.073
-465.143	-200.000	0.040	0.265
-464.128	-83.998	-0.025	0.008
-463.113	-129.772	0.231	0.032
-462.099	800.000	0.072	0.237
-461.084	697.682	-0.083	-0.217
-460.070	713.952	-0.148	0.392
-459.055	401.546	0.085	-0.178
-458.040	323.809	0.106	-0.201
-457.026	-127.346	-0.079	0.011
-456.011	240.474	0.214	-0.356
-454.997	3.686	0.158	0.115
-453.982	39.424	0.188	-0.167
-452.968	-131.850	0.168	0.022
-451.953	-65.516	-0.108	0.043
-450.938	-176.010	-0.310	0.008
-449.924	-1.655	0.128	0.090
-448.909	-200.000	-0.011	-0.135
-447.895	513.328	0.067	0.155
-446.880	96.050	-0.194	0.220
-445.865	145.821	0.204	-0.272
-444.851	294.416	0.136	-0.247
-443.836	-165.535	-0.177	0.008
-442.822	217.655	-0.129	-0.205
-441.807	154.685	-0.090	-0.123
-440.792	-55.418	-0.350	0.156
-439.778	-200.000	-0.006	-0.131
-438.763	103.162	-0.203	-0.237
-437.749	-120.171	-0.041	-0.007
-436.734	-108.707	0.537	0.115
-435.719	-4.962	0.167	-0.115
-434.705	800.000	0.159	0.475
-433.690	-112.068	-0.250	-0.050
-432.676	621.925	0.056	-0.140
-431.661	102.470	0.149	0.174
-430.646	-115.135	-0.111	0.021
-429.632	-69.492	-0.307	-0.117
-428.617	-200.000	0.004	-0.217
-427.603	218.255	0.196	0.312
-426.588	-200.000	-0.062	0.285
-425.573	-200.000	0.003	0.223
-424.559	260.479	0.170	0.292
-423.544	101.896	0.076	-0.088
-422.530	-34.054	0.242	-0.132
-421.515	148.706	-0.150	-0.202
-420.500	563.720	-0.099	0.239
-419.486	-185.024	0.458	-0.007
-418.471	-31.007	0.357	0.200
-417.457	111.182	-0.080	0.095
-416.442	800.000	-0.020	0.081
-415.428	276.846	-0.117	-0.207
-414.413	159.725	-0.106	0.147
-413.398	-160.536	0.150	0.008
-412.384	127.696	-0.155	-0.196
-411.369	259.762	0.078	-0.134
-410.355	155.968	-0.306	-0.420
-409.340	-200.000	0.034	-0.196
-408.325	-80.680	0.316	0.104
-407.311	12.882	-0.364	0.280
-406.296	35.273	0.066	-0.057
-405.282	-200.000	0.013	-0.096
-404.267	-119.602	-0.202	0.035
-403.252	-139.746	-0.250	0.026
-402.238	65.611	-0.104	0.105
-401.223	-200.000	0.028	0.353
-400.209	-200.000	-0.035	0.523
-399.194	404.359	-0.077	0.162
-398.179	634.548	-0.133	0.335
-397.165	-105.798	-0.122	0.027
-396.150	201.372	-0.032	0.049
-395.136	192.271	-0.022	-0.032
-394.121	-101.038	0.115	0.028
-393.106	588.984	0.222	-0.543
-392.092	175.362	0.156	0.225
-391.077	-31.508	0.246	0.138
-390.063	-77.671	0.425	-0.146
-389.048	800.000	-0.034	0.125
-388.033	-39.976	-0.340	-0.176
-387.019	800.000	-0.106	0.355
-386.004	-76.785	-0.277	-0.096
-384.990	252.641	-0.094	0.159
-383.975	-200.000	0.005	-0.040
-382.960	-200.000	0.029	0.150
-381.946	-103.404	-0.345	-0.081
-380.931	105.105	0.094	-0.110
-379.917	-138.411	0.434	-0.048
-378.902	-151.102	0.087	0.006
-377.888	-130.397	0.466	-0.063
-376.873	-77.077	-0.026	0.009
-375.858	101.554	-0.178	-0.206
-374.844	-200.000	0.056	0.314
-373.829	-2.904	-0.449	0.311
-372.815	26.876	-0.118	0.098
-371.800	42.182	-0.303	-0.273
-370.785	201.234	0.124	0.189
-369.771	59.217	-0.081	-0.079
-368.756	-152.611	-0.157	0.011
-367.742	69.694	-0.082	-0.084
-366.727	-200.000	0.036	-0.236
-365.712	-167.477	0.034	-0.001
-364.698	17.832	-0.069	0.054
-363.683	-200.000	0.036	0.210
-362.669	-200.000	-0.053	-0.251
-361.654	-121.657	0.029	0.005
-360.639	-98.129	-0.144	0.037
-359.625	101.567	0.160	0.185
-358.610	-22.838	-0.425	0.255
-357.596	397.963	-0.193	0.401
-356.581	619.330	0.087	-0.216
-355.566	55.378	0.203	0.195
-354.552	-139.470	-0.187	0.020
-353.537	-93.024	-0.243	0.067
-352.523	0.707	0.082	-0.058
-351.508	-106.496	0.173	0.038
-350.493	-11.312	0.191	0.125
-349.479	-169.248	-0.130	-0.005
-348.464	800.000	0.060	-0.186
-347.450	21.441	0.085	-0.068
-346.435	274.616	0.169	-0.298
-345.420	128.766	0.188	-0.237
-344.406	-85.869	0.204	-0.063
-343.391	-172.494	-0.194	0.006
-342.377	193.045	0.181	-0.271
-341.362	800.000	-0.038	-0.114
-340.348	-101.353	0.317	-0.077
-339.333	800.000	0.115	-0.349
-338.318	800.000	0.134	-0.399
-337.304	-200.000	-0.003	0.109
-336.289	-32.859	-0.214	-0.118
-335.275	158.667	-0.259	0.356
-334.260	-93.838	-0.192	0.052
-333.245	3.457	-0.098	-0.071
-332.231	-52.387	0.337	0.155
-331.216	-200.000	0.049	-0.318
-330.202	-118.630	-0.150	-0.026
-329.187	-108.260	0.122	-0.026
-328.172	-92.884	-0.074	0.020
-327.158	800.000	-0.086	0.279
-326.143	12.261	0.282	-0.215
-325.129	159.883	-0.215	-0.296
-324.114	283.157	0.119	-0.212
-323.099	-114.946	0.319	-0.060
-322.085	88.791	0.078	-0.086
-321.070	215.389	-0.180	0.283
-320.056	-180.051	-0.122	-0.003
-319.041	502.557	0.187	0.429
-318.026	-125.340	0.252	-0.038
-317.012	-97.368	0.271	-0.070
-315.997	17.496	-0.275	-0.216
-314.983	-200.000	0.022	0.150
-313.968	252.783	-0.139	0.236
-312.953	-27.324	-0.332	0.192
-311.939	-200.000	-0.014	0.207
-310.924	131.437	0.180	0.229
-309.910	-165.008	0.290	-0.013
-308.895	-108.534	0.152	-0.032
-307.880	710.747	0.123	-0.323
-306.866	260.629	0.039	-0.068
-305.851	41.381	0.248	0.222
-304.837	-200.000	-0.007	0.237
-303.822	6.835	-0.432	0.319
-302.807	-96.401	-0.462	-0.121
-301.793	800.000	0.037	-0.140
-300.778	516.367	0.002	0.004
-299.764	-200.000	0.020	-0.096
-298.749	800.000	-0.132	-0.421
-297.735	-200.000	-0.171	-0.000
-296.720	12.029	0.253	-0.193
-295.705	-81.113	0.332	0.109
-294.691	22.974	-0.138	-0.112
-293.676	-142.437	-0.263	-0.026
-292.662	14.291	0.240	0.185
-291.647	-143.050	0.071	0.007
-290.632	800.000	-0.077	-0.216
-289.618	123.102	0.072	0.089
-288.603	730.313	0.068	-0.179
-287.589	202.890	-0.236	-0.360
-286.574	348.720	0.088	-0.172
-285.559	641.708	0.037	-0.094
-284.545	14.764	0.149	-0.116
-283.530	-146.715	0.232	0.020
-282.516	-200.000	0.063	-0.316
-281.501	310.345	0.084	0.156
-280.486	226.047	0.110	0.177
-279.472	-200.000	-0.005	0.152
-278.457	140.577	-0.202	-0.264
-277.443	79.253	0.071	-0.075
-276.428	-69.245	-0.136	-0.052
-275.413	199.208	-0.182	-0.276
-274.399	-200.000	0.006	-0.097
-273.384	-200.000	-0.074	-0.378
-272.370	-81.213	0.042	0.014
-271.355	10.430	0.067	-0.050
-270.340	28.248	-0.086	-0.072
-269.326	-73.769	0.069	0.025
-268.311	20.075	-0.156	0.124
-267.297	126.390	0.169	0.212
-266.282	-21.482	0.104	0.063
-265.267	103.771	-0.151	-0.175
-264.253	800.000	0.035	-0.138
-263.238	-200.000	0.006	0.129
-262.224	-15.692	-0.170	0.107
-261.209	-10.082	0.362	-0.238
-260.195	-32.990	0.094	-0.051
-259.180	1.166	-0.176	-0.125
-258.165	28.776	-0.131	0.109
-257.151	-200.000	0.004	0.092
-256.136	-200.000	0.073	0.406
-255.122	-72.504	-0.286	0.104
-254.107	698.864	0.139	0.362
-253.092	36.866	0.056	0.049
-252.078	201.852	0.105	0.160
-251.063	-25.150	-0.200	0.117
-250.049	50.394	0.121	-0.113
-249.034	-9.037	0.426	-0.281
-248.019	-12.517	-0.134	-0.086
-247.005	-200.000	-0.008	0.079
-245.990	-200.000	-0.014	0.275
-244.976	-33.860	-0.193	0.105
-243.961	-19.002	0.185	-0.113
-242.946	377.930	0.137	-0.277
-241.932	-117.539	0.239	0.043
-240.917	-105.908	-0.131	0.029
-239.903	-95.512	0.359	-0.095
-238.888	-180.503	-0.176	-0.004
-237.873	178.631	0.060	0.086
-236.859	-200.000	0.018	0.113
-235.844	-75.837	0.087	-0.031
-234.830	-34.306	-0.331	-0.180
-233.815	-157.603	-0.360	0.021
-232.800	544.948	0.114	0.269
-231.786	-141.698	-0.126	0.012
-230.771	-200.000	-0.014	0.275
-229.757	465.787	-0.170	-0.377
-228.742	-126.007	0.336	-0.050
-227.727	-200.000	0.021	0.359
-226.713	-98.844	0.170	0.043
-225.698	-200.000	-0.002	-0.252
-224.684	57.474	0.265	0.255
-223.669	145.977	0.175	0.232
-222.655	-200.000	-0.063	0.299
-221.640	341.722	-0.120	-0.231
-220.625	-95.753	-0.066	-0.017
-219.611	-200.000	0.008	-0.098
-218.596	99.326	-0.113	0.129
-217.582	-126.096	0.214	0.032
-216.567	800.000	-0.023	-0.095
-215.552	-149.204	0.226	-0.018
-214.538	348.427	-0.136	0.264
-213.523	-109.175	0.369	0.077
-212.509	800.000	0.063	0.187
-211.494	435.024	-0.079	0.170
-210.479	89.468	-0.110	0.121
-209.465	55.592	0.169	0.161
-208.450	-119.567	-0.368	-0.063
-207.436	207.157	0.027	0.042
-206.421	692.647	0.119	-0.308
-205.406	156.724	-0.182	0.248
-204.392	176.595	-0.047	0.068
-203.377	194.880	0.097	-0.145
-202.363	320.144	-0.067	0.125
-201.348	-116.437	0.028	-0.005
-200.333	-200.000	0.005	0.127
-199.319	32.363	0.412	0.351
-198.304	800.000	0.033	0.107
-197.290	-112.182	0.327	-0.065
-196.275	350.758	0.060	0.117
-195.260	151.641	-0.210	-0.283
-194.246	-88.627	-0.081	-0.024
-193.231	-139.090	0.106	-0.011
-192.217	406.067	0.088	0.184
-191.202	800.000	0.027	-0.100
-190.187	97.971	0.109	-0.124
-189.173	-1.880	-0.127	-0.088
-188.158	80.998	-0.009	-0.009
-187.144	-1.848	0.202	0.140
-186.129	505.643	-0.046	-0.105
-185.114	161.965	0.099	-0.136
-184.100	-47.464	0.081	0.039
-183.085	-80.481	-0.270	-0.089
-182.071	279.261	-0.155	-0.273
-181.056	800.000	0.069	-0.200
-180.042	599.159	0.025	0.061
-179.027	-11.668	0.034	-0.022
-178.012	87.981	0.215	-0.234
-176.998	205.542	-0.079	-0.121
-175.983	-116.813	0.192	-0.035
-174.969	-200.000	0.031	0.351
-173.954	170.257	-0.241	0.340
-172.939	-96.477	0.158	-0.041
-171.925	21.512	0.035	-0.028
-170.910	121.230	-0.129	0.158
-169.896	26.473	-0.066	0.054
-168.881	800.000	0.107	0.446
-167.866	-14.146	-0.043	-0.028
-166.852	157.402	-0.173	-0.236
-165.837	67.142	0.217	-0.218
-164.823	149.795	-0.051	0.068
-163.808	-96.069	0.301	0.079
-162.793	-96.277	0.256	0.067
-161.779	-42.498	0.121	0.061
-160.764	495.649	-0.200	-0.452
-159.750	-133.752	-0.273	0.034
-158.735	-76.481	0.192	0.067
-157.720	153.561	0.180	-0.242
-156.706	129.495	-0.053	0.067
-155.691	343.677	0.067	-0.129
-154.677	800.000	-0.092	-0.315
-153.662	800.000	0.074	-0.272
-152.647	-200.000	-0.008	0.129
-151.633	78.354	-0.188	-0.197
-150.618	-200.000	0.033	0.174
-149.604	800.000	-0.040	-0.129
-148.589	-28.806	0.106	-0.060
-147.574	0.987	0.117	-0.082
-146.560	-99.084	-0.164	0.041
-145.545	800.000	-0.080	-0.233
-144.531	432.553	0.126	0.268
-143.516	800.000	0.069	-0.288
-142.502	-200.000	0.061	0.561
-141.487	800.000	0.052	-0.185
-140.472	20.490	-0.163	0.130
-139.458	137.418	-0.140	0.180
-138.443	343.160	-0.174	-0.336
-137.429	182.783	0.096	0.140
-136.414	79.314	0.050	0.053
-135.399	171.300	0.084	-0.119
-134.385	575.999	0.112	0.268
-133.370	-17.129	-0.208	-0.129
-132.356	3.290	0.189	0.135
-131.341	-83.266	-0.119	-0.037
-130.326	-57.520	0.130	0.056
-129.312	-72.956	-0.205	0.074
-128.297	-89.405	-0.105	-0.030
-127.283	-49.684	0.117	-0.055
-126.268	8.148	0.175	0.129
-125.253	-42.926	0.178	-0.089
-124.239	129.744	-0.120	-0.151
-123.224	673.209	-0.045	-0.116
-122.210	-200.000	0.002	-0.285
-121.195	-79.606	0.208	-0.069
