DTS Sentinel unit serial number:	SN413079Multiplexer serial number:	ORYXHardware model number:	OX4-SRSoftware version number:	ORYX F/W v4.00 Oryx Data Collector v3.7.2.0data status	okinstallation	princeton_trtdifferential loss correction	single-endedforward channel	channel 3reverse channel	N/Adate	2019/09/16time	13:16:35forward acquisition time	60.00reverse acquisition time	0.00gamma	496.2192k internal	0.2294k external	0.2294temperature offset calibration	0.9940default loss term (dB/km)	0.3790temperature slope calibration	1.0000multiplexer offset coefficient	1.0000multiplexer slope coefficient	1.0000fibre end	0.00T internal ref (°C)	41.19T ext. ref 1 (°C)	13.71T ext. ref 2 (°C)	39.36length (m)	temperature (°C)	Stokes	anti-Stokes-747.200	-200.000	-0.025	0.390
-746.185	-0.652	-0.200	0.145
-745.171	-5.579	-0.085	0.060
-744.156	-13.967	-0.112	-0.074
-743.142	-30.949	-0.161	-0.093
-742.127	-200.000	0.028	0.248
-741.112	23.754	-0.124	0.104
-740.098	800.000	0.035	-0.124
-739.083	-2.388	0.180	-0.129
-738.069	332.334	-0.219	0.432
-737.054	303.817	0.100	0.189
-736.039	225.734	0.045	-0.074
-735.025	-83.404	0.401	-0.131
-734.010	-96.919	-0.384	0.103
-732.996	-200.000	0.014	-0.114
-731.981	32.197	0.119	-0.105
-730.966	-200.000	-0.051	-0.276
-729.952	46.347	0.215	-0.203
-728.937	800.000	-0.042	-0.156
-727.923	-103.207	-0.429	-0.104
-726.908	463.909	-0.121	-0.276
-725.894	-104.849	-0.383	-0.090
-724.879	-200.000	0.034	-0.246
-723.864	75.394	-0.315	-0.340
-722.850	-167.641	-0.202	0.008
-721.835	127.489	-0.153	-0.199
-720.821	120.611	-0.185	0.235
-719.806	-49.175	0.071	0.035
-718.791	-176.846	-0.167	0.004
-717.777	-78.333	0.146	0.051
-716.762	-90.986	-0.095	0.028
-715.748	-92.503	0.131	-0.038
-714.733	66.263	0.086	-0.089
-713.718	-4.938	0.147	-0.103
-712.704	202.645	-0.111	-0.174
-711.689	33.307	0.182	0.161
-710.675	156.553	-0.094	0.132
-709.660	-85.085	0.089	0.028
-708.645	-125.512	0.204	0.032
-707.631	268.724	-0.047	-0.084
-706.616	-200.000	0.037	-0.205
-705.602	-39.473	-0.240	0.128
-704.587	212.001	-0.035	0.056
-703.572	-200.000	0.013	0.108
-702.558	-100.372	-0.276	-0.070
-701.543	245.583	0.143	0.246
-700.529	-46.538	-0.150	0.075
-699.514	800.000	0.097	-0.283
-698.499	-107.684	-0.219	-0.049
-697.485	283.906	0.139	-0.256
-696.470	274.130	-0.054	0.098
-695.456	-200.000	0.002	0.057
-694.441	-117.021	-0.223	-0.042
-693.426	-102.178	-0.293	0.072
-692.412	800.000	-0.019	-0.081
-691.397	76.881	0.022	-0.024
-690.383	-116.757	-0.074	-0.014
-689.368	355.601	-0.133	0.270
-688.354	-75.044	0.516	0.188
-687.339	-105.985	0.112	0.026
-686.324	96.003	0.103	0.120
-685.310	109.512	0.070	-0.085
-684.295	-184.243	0.192	-0.003
-683.281	9.611	-0.097	0.075
-682.266	-200.000	-0.031	-0.194
-681.251	-89.147	0.105	-0.032
-680.237	-200.000	0.005	-0.594
-679.222	-200.000	0.043	-0.250
-678.208	-42.438	0.094	-0.049
-677.193	117.096	0.143	-0.180
-676.178	107.140	0.150	-0.182
-675.164	-37.154	0.168	-0.091
-674.149	-5.173	-0.323	0.227
-673.135	-148.194	-0.415	-0.035
-672.120	87.106	-0.136	0.153
-671.105	124.072	-0.141	-0.180
-670.091	195.545	0.085	-0.132
-669.076	800.000	0.068	-0.243
-668.062	-200.000	-0.000	-0.046
-667.047	800.000	-0.071	-0.244
-666.032	83.060	-0.196	0.218
-665.018	162.149	0.159	-0.227
-664.003	14.051	-0.185	-0.147
-662.989	-111.011	0.466	0.098
-661.974	-24.593	-0.118	0.072
-660.959	61.155	0.217	0.220
-659.945	121.079	0.234	-0.297
-658.930	14.763	-0.124	-0.099
-657.916	-139.021	-0.169	-0.019
-656.901	-101.770	0.063	-0.016
-655.886	-200.000	-0.017	-0.253
-654.872	-200.000	-0.009	-0.123
-653.857	-195.990	0.244	-0.002
-652.843	49.689	0.036	-0.035
-651.828	9.732	-0.314	-0.243
-650.814	-68.656	-0.131	-0.052
-649.799	-200.000	0.008	-0.349
-648.784	-18.297	-0.052	-0.033
-647.770	127.976	-0.116	-0.150
-646.755	513.726	-0.088	-0.208
-645.741	199.739	0.198	-0.309
-644.726	136.033	0.118	-0.157
-643.711	244.209	0.074	0.127
-642.697	680.020	0.169	-0.449
-641.682	-200.000	-0.008	0.179
-640.668	-64.771	0.082	0.034
-639.653	-59.332	0.174	-0.076
-638.638	-124.647	-0.231	0.037
-637.624	800.000	0.052	0.221
-636.609	800.000	0.080	0.247
-635.595	800.000	0.137	0.475
-634.580	133.145	0.055	0.072
-633.565	21.394	0.225	-0.186
-632.551	-79.590	0.026	-0.009
-631.536	-55.907	0.262	0.119
-630.522	-44.461	-0.347	-0.177
-629.507	603.973	0.113	-0.285
-628.492	800.000	-0.077	-0.303
-627.478	-40.121	0.282	-0.150
-626.463	135.953	0.068	0.090
-625.449	12.171	-0.130	-0.102
-624.434	-31.805	0.161	-0.092
-623.419	-159.239	-0.347	-0.020
-622.405	-105.133	-0.179	0.042
-621.390	-3.458	-0.443	-0.314
-620.376	-200.000	0.032	-0.153
-619.361	40.389	0.101	-0.093
-618.346	-73.868	0.253	0.094
-617.332	-137.894	-0.197	-0.022
-616.317	-200.000	-0.013	0.376
-615.303	3.935	0.067	-0.050
-614.288	4.122	-0.158	-0.117
-613.273	-71.159	-0.129	-0.049
-612.259	-25.410	-0.221	-0.133
-611.244	-153.043	0.314	0.022
-610.230	-62.572	-0.293	-0.124
-609.215	6.747	0.109	-0.083
-608.201	-87.349	-0.059	0.018
-607.186	514.537	0.052	0.123
-606.171	66.030	-0.167	-0.173
-605.157	-200.000	-0.020	0.144
-604.142	-99.784	-0.131	0.033
-603.128	800.000	0.093	-0.293
-602.113	-134.281	-0.305	-0.038
-601.098	-31.229	-0.293	-0.168
-600.084	-200.000	-0.031	-0.196
-599.069	-14.522	0.085	0.056
-598.055	-200.000	0.003	0.069
-597.040	206.535	0.056	0.089
-596.025	800.000	0.031	-0.120
-595.011	-28.911	0.219	0.128
-593.996	205.845	-0.102	-0.161
-592.982	-97.269	-0.186	0.049
-591.967	-88.547	-0.263	0.080
-590.952	-134.864	0.085	0.010
-589.938	192.481	0.116	-0.178
-588.923	78.202	0.102	0.110
-587.909	-200.000	-0.019	0.350
-586.894	-200.000	0.032	0.243
-585.879	-200.000	-0.019	0.253
-584.865	-200.000	0.051	-0.305
-583.850	96.352	-0.103	-0.120
-582.836	279.199	-0.229	-0.415
-581.821	477.921	0.101	-0.233
-580.806	-137.158	0.125	-0.015
-579.792	-59.308	-0.094	0.041
-578.777	34.725	0.194	0.172
-577.763	53.005	0.075	0.073
-576.748	-22.991	0.042	-0.026
-575.733	-110.754	-0.324	0.068
-574.719	-10.031	-0.166	-0.112
-573.704	-175.070	0.388	0.011
-572.690	118.042	0.199	0.250
-571.675	292.832	-0.093	-0.171
-570.661	-64.741	0.185	0.076
-569.646	49.452	-0.192	0.184
-568.631	8.891	-0.202	-0.155
-567.617	-63.176	0.058	-0.024
-566.602	800.000	-0.020	-0.061
-565.588	87.932	-0.243	-0.274
-564.573	-106.497	0.247	-0.056
-563.558	13.406	-0.085	-0.067
-562.544	-148.121	0.189	0.016
-561.529	7.985	0.539	0.410
-560.515	-200.000	-0.007	0.082
-559.500	800.000	0.096	0.349
-558.485	800.000	0.043	-0.137
-557.471	259.859	-0.127	-0.223
-556.456	-3.626	0.215	-0.151
-555.442	-200.000	-0.058	0.480
-554.427	-200.000	0.096	-0.511
-553.412	372.633	-0.064	-0.131
-552.398	-200.000	0.008	-0.221
-551.383	-200.000	0.046	0.390
-550.369	-100.853	0.197	-0.049
-549.354	-66.041	0.121	0.049
-548.339	-113.240	0.014	0.003
-547.325	10.432	0.060	-0.046
-546.310	479.050	-0.081	0.186
-545.296	47.557	0.193	0.183
-544.281	355.233	0.076	-0.154
-543.266	800.000	0.029	-0.109
-542.252	163.689	0.090	0.129
-541.237	800.000	-0.041	-0.120
-540.223	206.103	0.024	-0.038
-539.208	-174.189	-0.598	0.018
-538.193	-200.000	-0.013	0.266
-537.179	-0.372	0.159	0.115
-536.164	-117.272	-0.190	0.035
-535.150	121.178	0.193	0.244
-534.135	-131.317	0.222	0.030
-533.121	502.981	0.075	0.177
-532.106	517.937	-0.115	-0.272
-531.091	7.235	-0.111	0.084
-530.077	-63.683	0.238	0.099
-529.062	-124.699	-0.254	0.040
-528.048	304.559	0.024	0.045
-527.033	5.889	0.135	0.101
-526.018	-200.000	0.011	0.093
-525.004	-27.981	-0.073	0.043
-523.989	-161.100	0.160	0.008
-522.975	-137.441	-0.266	-0.030
-521.960	88.942	0.086	0.097
-520.945	136.670	0.111	-0.147
-519.931	-106.211	0.102	0.023
-518.916	-200.000	0.026	0.230
-517.902	-170.537	-0.172	-0.006
-516.887	800.000	0.101	-0.369
-515.872	800.000	-0.077	0.333
-514.858	-59.661	0.154	-0.067
-513.843	-137.165	0.234	0.027
-512.829	206.827	-0.039	-0.062
-511.814	184.063	-0.156	0.234
-510.799	-185.693	0.048	0.001
-509.785	469.530	-0.049	-0.111
-508.770	800.000	0.029	0.104
-507.756	-200.000	-0.000	-0.261
-506.741	194.267	-0.045	0.068
-505.726	-20.241	0.277	-0.173
-504.712	-200.000	0.043	0.246
-503.697	-200.000	-0.012	-0.186
-502.683	88.064	0.112	-0.126
-501.668	-139.970	-0.204	-0.022
-500.653	-200.000	-0.028	0.377
-499.639	-11.105	-0.211	0.141
-498.624	7.875	-0.284	0.215
-497.610	-87.001	0.320	0.099
-496.595	-86.545	-0.216	-0.067
-495.581	-200.000	-0.041	-0.346
-494.566	251.214	-0.231	0.398
-493.551	-200.000	-0.005	-0.140
-492.537	225.582	-0.120	-0.197
-491.522	-200.000	0.009	-0.128
-490.508	4.937	0.176	-0.131
-489.493	-174.777	-0.354	0.010
-488.478	-86.070	0.096	0.030
-487.464	-200.000	-0.013	-0.101
-486.449	66.408	0.108	0.112
-485.435	454.966	-0.075	-0.168
-484.420	-200.000	-0.052	-0.280
-483.405	74.075	0.256	-0.272
-482.391	503.586	-0.089	-0.209
-481.376	-24.331	-0.329	-0.198
-480.362	183.020	0.289	0.431
-479.347	40.831	0.128	0.117
-478.332	306.329	-0.055	-0.104
-477.318	105.414	-0.246	0.295
-476.303	-158.319	-0.093	0.005
-475.289	-18.622	-0.222	-0.140
-474.274	-31.496	0.134	0.076
-473.259	208.146	-0.147	0.232
-472.245	-57.661	0.090	-0.040
-471.230	-200.000	-0.013	-0.161
-470.216	-177.406	0.178	0.004
-469.201	-142.840	-0.200	-0.020
-468.186	328.295	-0.076	0.147
-467.172	-187.497	-0.409	0.006
-466.157	-33.009	-0.186	0.104
-465.143	-2.350	-0.130	-0.092
-464.128	-139.892	0.240	-0.026
-463.113	800.000	-0.067	0.191
-462.099	172.979	0.237	-0.345
-461.084	-200.000	0.031	-0.325
-460.070	136.362	-0.091	-0.120
-459.055	8.955	0.154	0.117
-458.040	-44.195	-0.068	0.034
-457.026	-13.364	-0.099	-0.065
-456.011	-200.000	0.006	0.093
-454.997	-200.000	-0.029	0.262
-453.982	92.637	-0.056	0.063
-452.968	-80.168	0.248	0.084
-451.953	-100.316	0.149	-0.037
-450.938	-200.000	-0.086	-0.465
-449.924	-120.951	0.431	-0.073
-448.909	8.584	0.100	-0.076
-447.895	17.029	-0.080	0.064
-446.880	47.254	-0.106	-0.100
-445.865	109.222	-0.088	-0.106
-444.851	-135.078	0.073	-0.009
-443.836	-18.322	0.046	0.029
-442.822	171.762	-0.020	0.029
-441.807	121.305	-0.150	0.189
-440.792	-156.453	-0.184	0.012
-439.778	-85.026	0.147	-0.047
-438.763	-95.860	-0.143	-0.039
-437.749	-8.198	-0.393	0.268
-436.734	-194.791	-0.147	-0.001
-435.719	-200.000	0.045	0.250
-434.705	132.538	-0.125	0.162
-433.690	800.000	-0.056	0.238
-432.676	-200.000	-0.003	0.012
-431.661	167.916	-0.073	0.104
-430.646	-57.123	-0.390	0.174
-429.632	-121.543	0.235	-0.039
-428.617	90.221	-0.161	0.182
-427.603	-200.000	0.012	-0.128
-426.588	49.651	-0.219	0.208
-425.573	93.402	0.206	-0.235
-424.559	-200.000	-0.000	-0.207
-423.544	-200.000	-0.033	-0.304
-422.530	-117.945	-0.099	-0.018
-421.515	202.060	0.027	-0.042
-420.500	30.784	0.067	-0.058
-419.486	-130.998	0.066	-0.009
-418.471	232.488	0.037	-0.062
-417.457	-200.000	0.014	-0.244
-416.442	34.678	0.311	0.274
-415.428	-200.000	-0.000	-0.283
-414.413	-36.543	0.171	0.093
-413.398	-10.576	-0.158	0.105
-412.384	-200.000	0.014	-0.303
-411.369	-90.532	-0.213	-0.062
-410.355	13.101	0.135	-0.105
-409.340	57.413	-0.283	0.279
-408.325	56.994	0.131	-0.129
-407.311	487.231	0.069	-0.159
-406.296	-72.635	0.251	0.093
-405.282	-145.282	0.150	0.014
-404.267	-70.781	-0.273	0.104
-403.252	483.343	-0.059	-0.136
-402.238	652.840	-0.171	0.443
-401.223	460.409	0.022	0.050
-400.209	-34.422	-0.204	0.113
-399.194	-176.649	0.292	0.008
-398.179	-123.577	0.214	0.034
-397.165	-125.989	0.167	-0.025
-396.150	-132.543	0.248	-0.032
-395.136	800.000	0.057	0.190
-394.121	-121.962	-0.303	0.050
-393.106	-97.726	0.251	-0.066
-392.092	-191.029	0.195	-0.002
-391.077	186.060	-0.150	-0.225
-390.063	-9.972	-0.283	-0.190
-389.048	-117.402	-0.198	0.036
-388.033	39.220	0.273	-0.246
-387.019	-22.207	0.300	0.183
-386.004	36.045	0.175	-0.155
-384.990	407.566	0.098	0.210
-383.975	-200.000	0.015	-0.095
-382.960	-34.830	-0.325	-0.179
-381.946	132.884	-0.165	-0.215
-380.931	-170.505	-0.043	-0.002
-379.917	105.250	-0.101	-0.121
-378.902	227.864	-0.060	-0.098
-377.888	800.000	0.018	-0.063
-376.873	-3.933	-0.274	-0.191
-375.858	-29.722	-0.457	0.263
-374.844	378.111	-0.030	0.063
-373.829	-135.515	-0.277	0.033
-372.815	-107.726	0.128	-0.028
-371.800	-200.000	0.032	0.190
-370.785	1.290	-0.127	0.092
-369.771	-122.948	0.284	-0.046
-368.756	559.322	-0.088	-0.214
-367.742	-19.508	-0.131	0.082
-366.727	-93.693	0.288	0.080
-365.712	-200.000	-0.003	0.299
-364.698	465.289	0.101	-0.228
-363.683	179.756	0.016	0.023
-362.669	-79.862	0.143	0.048
-361.654	213.566	-0.099	0.157
-360.639	800.000	-0.074	0.266
-359.625	-10.713	0.120	-0.080
-358.610	131.300	-0.138	-0.178
-357.596	-200.000	0.310	-0.001
-356.581	-83.629	-0.283	0.091
-355.566	8.693	-0.256	-0.194
-354.552	-200.000	0.025	-0.132
-353.537	-145.501	0.360	0.033
-352.523	-99.913	0.385	0.097
-351.508	-130.928	0.098	0.013
-350.493	265.240	-0.092	-0.161
-349.479	247.308	0.116	-0.198
-348.464	800.000	-0.156	-0.447
-347.450	182.567	-0.139	0.207
-346.435	47.531	0.316	0.296
-345.420	342.903	-0.028	0.056
-344.406	242.152	-0.259	0.436
-343.391	-200.000	-0.002	0.195
-342.377	356.542	0.130	0.262
-341.362	-13.694	-0.167	-0.109
-340.348	-103.389	-0.092	-0.022
-339.333	-39.078	0.094	-0.050
-338.318	-200.000	-0.053	0.294
-337.304	-136.512	-0.206	-0.024
-336.289	-17.693	0.227	-0.144
-335.275	-125.878	-0.049	0.007
-334.260	-156.630	-0.393	0.024
-333.245	73.625	-0.115	-0.121
-332.231	-35.946	0.358	0.195
-331.216	330.202	-0.056	0.108
-330.202	-159.522	0.306	-0.017
-329.187	8.454	0.239	0.181
-328.172	158.420	-0.182	-0.254
-327.158	-70.595	-0.223	0.085
-326.143	224.142	0.069	0.112
-325.129	254.373	-0.122	0.210
-324.114	134.133	-0.264	-0.344
-323.099	279.516	-0.177	-0.317
-322.085	12.153	-0.188	0.145
-321.070	-13.288	-0.261	-0.170
-320.056	-29.923	-0.211	-0.121
-319.041	-74.304	0.284	0.103
-318.026	-163.582	0.053	0.003
-317.012	231.346	-0.028	0.046
-315.997	131.084	0.068	0.088
-314.983	-200.000	-0.015	-0.231
-313.968	84.989	-0.138	-0.152
-312.953	-117.897	0.110	-0.020
-311.939	-111.108	-0.280	-0.058
-310.924	800.000	0.066	-0.185
-309.910	188.316	0.111	-0.167
-308.895	49.838	0.208	0.197
-307.880	-117.550	0.066	-0.012
-306.866	110.271	-0.203	-0.245
-305.851	-135.951	0.449	0.053
-304.837	-200.000	0.037	0.205
-303.822	-15.496	0.184	0.118
-302.807	507.609	0.103	0.240
-301.793	-200.000	-0.006	-0.072
-300.778	554.656	-0.039	0.094
-299.764	102.264	-0.086	0.101
-298.749	508.808	-0.070	0.163
-297.735	800.000	-0.053	0.217
-296.720	72.322	0.136	0.142
-295.705	67.651	-0.077	0.079
-294.691	-6.085	-0.165	-0.113
-293.676	-24.268	-0.115	-0.069
-292.662	-91.345	-0.466	0.134
-291.647	-71.097	0.282	-0.106
-290.632	-190.221	0.037	-0.000
-289.618	-59.294	0.204	-0.088
-288.603	-200.000	-0.002	-0.380
-287.589	297.930	-0.160	-0.296
-286.574	-114.563	0.198	0.038
-285.559	-200.000	-0.041	0.246
-284.545	-87.370	0.082	0.025
-283.530	-13.489	0.060	0.039
-282.516	265.499	-0.053	-0.092
-281.501	-200.000	0.064	0.368
-280.486	-200.000	-0.043	0.232
-279.472	-200.000	0.029	-0.133
-278.457	24.303	0.145	-0.120
-277.443	-200.000	0.025	-0.295
-276.428	-147.298	0.296	-0.025
-275.413	254.310	-0.211	-0.363
-274.399	112.752	-0.165	-0.201
-273.384	-200.000	0.057	-0.443
-272.370	800.000	-0.054	0.185
-271.355	211.756	-0.091	0.144
-270.340	-67.936	0.279	0.109
-269.326	-25.921	0.182	-0.108
-268.311	101.704	0.291	0.341
-267.297	-200.000	-0.022	-0.098
-266.282	-13.602	-0.224	-0.146
-265.267	-47.601	-0.037	0.018
-264.253	-104.287	0.264	0.062
-263.238	-52.302	-0.097	-0.045
-262.224	-97.761	0.263	0.068
-261.209	262.457	0.131	-0.227
-260.195	-85.762	-0.158	-0.049
-259.180	251.000	0.067	0.114
-258.165	287.839	-0.324	0.589
-257.151	-125.790	0.182	-0.028
-256.136	-92.842	0.128	-0.036
-255.122	89.743	-0.082	-0.091
-254.107	-200.000	0.019	0.117
-253.092	800.000	0.074	0.298
-252.078	273.365	0.166	-0.294
-251.063	-106.377	0.162	0.036
-250.049	-156.811	-0.173	-0.011
-249.034	522.126	-0.075	0.177
-248.019	-200.000	-0.062	0.359
-247.005	-30.544	0.279	0.159
-245.990	207.932	0.014	-0.021
-244.976	-130.813	-0.115	0.015
-243.961	264.953	0.087	0.152
-242.946	-90.541	0.364	-0.106
-241.932	-31.890	0.188	0.105
-240.917	-19.196	0.018	-0.011
-239.903	-57.518	0.067	-0.030
-238.888	-200.000	-0.000	-0.075
-237.873	169.843	-0.159	-0.227
-236.859	-51.683	-0.158	0.074
-235.844	-116.146	0.286	0.053
-234.830	-22.245	-0.330	-0.201
-233.815	195.876	-0.071	0.109
-232.800	-200.000	0.007	-0.101
-231.786	-60.308	-0.219	0.094
-230.771	363.131	-0.172	0.347
-229.757	-118.762	-0.254	-0.045
-228.742	100.358	0.244	0.284
-227.727	29.037	-0.136	0.116
-226.713	800.000	-0.044	-0.125
-225.698	475.368	0.146	0.331
-224.684	-142.055	0.100	0.010
-223.669	-200.000	0.030	-0.161
-222.655	-102.011	-0.240	0.058
-221.640	-200.000	0.037	0.415
-220.625	800.000	-0.119	0.432
-219.611	800.000	0.171	0.481
-218.596	-45.113	-0.219	0.109
-217.582	98.383	-0.089	-0.103
-216.567	314.145	0.094	-0.178
-215.552	20.191	-0.106	0.086
-214.538	388.696	-0.032	-0.066
-213.523	-70.248	0.082	-0.031
-212.509	-102.549	-0.205	0.049
-211.494	-10.658	-0.178	-0.118
-210.479	453.911	0.091	-0.202
-209.465	-132.395	-0.123	0.016
-208.450	-67.705	-0.349	0.137
-207.436	-200.000	0.022	0.205
-206.421	211.806	-0.171	-0.270
-205.406	-200.000	0.004	-0.325
-204.392	594.618	0.062	0.154
-203.377	523.507	0.073	-0.172
-202.363	468.981	-0.012	-0.027
-201.348	-200.000	-0.011	0.239
-200.333	-47.349	0.198	0.097
-199.319	-38.308	0.276	-0.147
-198.304	-121.050	0.112	-0.019
-197.290	10.401	-0.060	-0.046
-196.275	-112.327	0.239	-0.048
-195.260	405.834	-0.096	0.203
-194.246	-3.161	-0.120	-0.084
-193.231	-68.301	0.212	0.082
-192.217	-17.221	0.313	0.197
-191.202	302.631	0.079	-0.146
-190.187	-90.767	-0.244	-0.071
-189.173	-116.669	-0.346	-0.064
-188.158	59.391	0.063	0.063
-187.144	-164.778	0.177	-0.008
-186.129	308.844	0.068	-0.126
-185.114	-200.000	0.022	0.099
-184.100	333.940	0.050	-0.097
-183.085	-88.264	-0.085	-0.026
-182.071	25.034	-0.037	-0.030
-181.056	-185.742	-0.131	0.002
-180.042	-108.709	0.477	0.102
-179.027	202.314	0.044	0.068
-178.012	-182.764	-0.352	0.006
-176.998	-200.000	-0.027	-0.227
-175.983	800.000	0.132	-0.388
-174.969	-166.296	-0.218	-0.009
-173.954	30.781	0.149	0.127
-172.939	-133.726	0.124	-0.015
-171.925	615.089	0.082	-0.206
-170.910	-125.080	-0.146	0.022
-169.896	800.000	0.036	-0.153
-168.881	-0.955	-0.092	-0.065
-167.866	-110.254	-0.153	-0.032
-166.852	-117.774	-0.211	-0.038
-165.837	115.947	0.070	0.086
-164.823	-110.967	0.255	0.052
-163.808	57.503	-0.205	0.200
-162.793	336.571	-0.093	-0.180
-161.779	221.107	-0.160	0.256
-160.764	83.478	-0.046	-0.051
-159.750	58.790	-0.150	-0.148
-158.735	-24.577	0.079	-0.047
-157.720	-178.806	0.397	0.009
-156.706	-200.000	-0.037	0.290
-155.691	-149.624	0.373	0.029
-154.677	374.166	0.086	0.175
-153.662	71.819	0.142	-0.147
-152.647	-46.850	0.174	-0.085
-151.633	-136.137	0.114	-0.013
-150.618	-149.699	0.270	0.021
-149.604	800.000	0.075	-0.260
-148.589	800.000	0.083	0.282
-147.574	-62.345	-0.167	0.069
-146.560	64.957	-0.167	-0.169
-145.545	171.033	0.262	0.375
-144.531	70.110	0.155	-0.160
-143.516	454.289	0.078	-0.172
-142.502	445.315	0.065	0.143
-141.487	-200.000	-0.026	-0.288
-140.472	800.000	-0.089	0.304
-139.458	188.088	0.129	-0.192
-138.443	-32.904	-0.294	0.163
-137.429	580.533	-0.171	-0.419
-136.414	-10.809	0.141	-0.093
-135.399	-194.243	-0.382	0.003
-134.385	10.369	-0.169	0.129
-133.370	225.776	0.251	0.407
-132.356	-200.000	-0.051	0.368
-131.341	-48.173	0.141	0.068
-130.326	-36.299	-0.119	0.064
-129.312	-36.326	0.147	-0.079
-128.297	293.474	-0.214	-0.391
-127.283	-80.374	0.320	-0.107
-126.268	-200.000	-0.023	0.159
-125.253	-103.414	-0.141	0.033
-124.239	41.333	0.182	-0.165
-123.224	800.000	0.038	0.152
-122.210	225.972	-0.053	0.085
