DTS Sentinel unit serial number:	SN413079Multiplexer serial number:	ORYXHardware model number:	OX4-SRSoftware version number:	ORYX F/W v4.00 Oryx Data Collector v3.7.2.0data status	okinstallation	princeton_trtdifferential loss correction	single-endedforward channel	channel 3reverse channel	N/Adate	2019/09/13time	16:56:35forward acquisition time	60.00reverse acquisition time	0.00gamma	496.2192k internal	0.2305k external	0.2305temperature offset calibration	1.0133default loss term (dB/km)	0.3790temperature slope calibration	1.0000multiplexer offset coefficient	1.0000multiplexer slope coefficient	1.0000fibre end	0.00T internal ref (°C)	34.87T ext. ref 1 (°C)	4.83T ext. ref 2 (°C)	30.81length (m)	temperature (°C)	Stokes	anti-Stokes-747.200	-47.145	0.065	-0.032
-746.185	622.467	0.058	0.148
-745.171	800.000	-0.038	0.136
-744.156	129.886	-0.104	0.135
-743.142	85.975	0.136	-0.153
-742.127	-97.981	-0.147	0.039
-741.112	-71.661	0.284	-0.108
-740.098	-165.044	0.185	-0.008
-739.083	-200.000	-0.022	-0.305
-738.069	470.753	0.076	0.174
-737.054	118.472	-0.123	0.154
-736.039	-61.946	0.095	0.040
-735.025	31.044	-0.170	0.148
-734.010	181.950	-0.223	-0.335
-732.996	153.202	-0.131	-0.183
-731.981	398.940	0.095	-0.203
-730.966	-9.497	0.194	0.132
-729.952	581.405	-0.144	0.360
-728.937	74.384	0.074	-0.079
-727.923	-127.263	-0.206	0.031
-726.908	800.000	0.029	0.094
-725.894	-200.000	0.075	-0.380
-724.879	62.578	-0.276	0.281
-723.864	1.366	0.143	0.105
-722.850	-184.097	0.170	0.003
-721.835	122.288	-0.173	-0.220
-720.821	-200.000	0.033	-0.250
-719.806	86.759	-0.030	0.033
-718.791	307.697	0.045	0.085
-717.777	63.652	-0.093	-0.095
-716.762	-68.491	-0.307	-0.121
-715.748	-200.000	0.000	0.030
-714.733	-160.637	-0.188	0.010
-713.718	217.668	0.109	-0.177
-712.704	-71.262	0.194	-0.074
-711.689	-2.862	0.236	-0.168
-710.675	-4.147	0.153	-0.108
-709.660	-200.000	0.018	0.169
-708.645	-200.000	-0.007	0.069
-707.631	-93.018	0.210	-0.059
-706.616	-5.075	-0.113	0.079
-705.602	-200.000	-0.019	-0.106
-704.587	-200.000	0.032	0.169
-703.572	-130.138	-0.063	0.009
-702.558	432.749	0.059	0.131
-701.543	30.246	-0.182	0.158
-700.529	174.372	0.084	-0.123
-699.514	800.000	0.042	0.133
-698.499	273.642	0.034	0.062
-697.485	800.000	0.113	-0.365
-696.470	596.756	-0.175	-0.440
-695.456	337.913	-0.241	0.477
-694.441	-113.041	0.202	-0.041
-693.426	-108.013	-0.362	-0.080
-692.412	-200.000	-0.017	-0.169
-691.397	59.298	-0.376	-0.376
-690.383	-65.243	-0.125	-0.051
-689.368	78.044	-0.129	-0.139
-688.354	-45.582	0.287	-0.144
-687.339	-21.087	0.086	-0.053
-686.324	800.000	-0.063	-0.194
-685.310	126.384	-0.253	-0.325
-684.295	-75.527	-0.229	0.083
-683.281	238.714	0.143	-0.242
-682.266	800.000	-0.074	-0.260
-681.251	-135.117	0.066	-0.008
-680.237	121.792	-0.073	0.092
-679.222	2.413	0.068	0.050
-678.208	-38.975	-0.132	-0.071
-677.193	-200.000	-0.017	-0.226
-676.178	-39.238	0.118	-0.063
-675.164	126.034	0.062	-0.079
-674.149	461.573	-0.150	0.339
-673.135	-59.010	0.220	-0.097
-672.120	191.256	-0.083	-0.127
-671.105	123.550	0.190	-0.242
-670.091	-200.000	-0.019	-0.104
-669.076	-87.785	-0.372	-0.114
-668.062	-200.000	0.040	-0.208
-667.047	-6.551	-0.045	0.031
-666.032	-75.444	-0.169	-0.061
-665.018	435.611	-0.012	-0.027
-664.003	-105.124	-0.368	0.085
-662.989	325.984	-0.117	0.227
-661.974	60.502	-0.118	0.118
-660.959	-88.122	0.182	0.055
-659.945	1.445	0.240	-0.175
-658.930	288.764	-0.156	0.288
-657.916	154.743	0.279	0.389
-656.901	800.000	-0.094	0.344
-655.886	-51.429	-0.217	0.103
-654.872	-199.383	-0.269	0.001
-653.857	205.655	0.157	0.247
-652.843	-84.021	0.301	0.097
-651.828	103.992	-0.191	0.227
-650.814	-200.000	-0.088	0.493
-649.799	83.614	0.115	-0.128
-648.784	471.519	0.088	-0.200
-647.770	143.758	-0.162	-0.219
-646.755	-146.960	0.115	0.010
-645.741	-84.613	-0.162	-0.052
-644.726	16.159	-0.498	0.398
-643.711	800.000	-0.059	0.175
-642.697	-159.925	0.215	-0.012
-641.682	1.927	-0.193	-0.141
-640.668	35.117	0.069	0.062
-639.653	-135.501	-0.063	0.008
-638.638	80.315	-0.170	-0.185
-637.624	-2.925	0.219	0.155
-636.609	-141.707	-0.147	0.015
-635.595	287.220	0.057	-0.105
-634.580	-200.000	-0.002	0.043
-633.565	-112.660	-0.342	0.069
-632.551	487.818	-0.094	0.218
-631.536	800.000	-0.048	0.170
-630.522	335.123	0.054	0.105
-629.507	169.826	0.084	0.121
-628.492	11.971	0.219	-0.170
-627.478	-200.000	0.007	-0.148
-626.463	682.546	-0.057	-0.151
-625.449	-200.000	-0.028	0.143
-624.434	-105.494	-0.051	0.012
-623.419	-120.514	0.137	-0.024
-622.405	297.594	0.044	0.081
-621.390	-200.000	-0.005	-0.182
-620.376	-63.791	-0.213	-0.088
-619.361	-200.000	0.019	0.188
-618.346	-59.470	-0.360	-0.157
-617.332	14.667	0.154	-0.122
-616.317	17.015	-0.142	-0.114
-615.303	-99.016	-0.239	-0.061
-614.288	-18.415	0.148	-0.093
-613.273	800.000	0.021	0.090
-612.259	-200.000	0.004	-0.235
-611.244	25.555	-0.252	-0.212
-610.230	250.261	0.130	-0.223
-609.215	-132.752	-0.217	-0.028
-608.201	-139.098	-0.143	-0.016
-607.186	285.362	-0.157	-0.287
-606.171	-78.916	0.317	0.109
-605.157	223.512	-0.117	0.192
-604.142	-36.116	-0.083	-0.046
-603.128	-38.901	0.169	-0.090
-602.113	17.897	0.113	0.091
-601.098	-200.000	0.009	-0.433
-600.084	499.552	0.043	-0.100
-599.069	-116.551	-0.354	0.066
-598.055	389.361	0.116	0.244
-597.040	-200.000	0.074	-0.410
-596.025	-200.000	0.035	-0.300
-595.011	800.000	0.062	-0.272
-593.996	-86.580	0.094	0.029
-592.982	281.616	-0.087	0.158
-591.967	26.302	0.146	0.124
-590.952	147.968	0.079	0.108
-589.938	106.556	-0.063	-0.076
-588.923	-200.000	-0.015	-0.074
-587.909	315.403	-0.122	0.232
-586.894	120.817	0.196	0.247
-585.879	-200.000	-0.007	-0.369
-584.865	6.668	-0.131	0.099
-583.850	176.838	-0.198	-0.292
-582.836	-200.000	-0.023	-0.143
-581.821	-95.279	-0.282	-0.077
-580.806	800.000	0.086	-0.278
-579.792	-137.694	0.032	0.004
-578.777	-200.000	-0.027	0.126
-577.763	-200.000	-0.022	0.165
-576.748	-55.904	-0.176	-0.079
-575.733	-46.921	0.282	-0.139
-574.719	-47.399	-0.086	-0.043
-573.704	-143.564	0.061	-0.006
-572.690	-200.000	-0.000	0.001
-571.675	-24.484	-0.204	-0.123
-570.661	98.768	0.220	0.257
-569.646	10.642	-0.171	0.132
-568.631	-131.943	0.202	0.027
-567.617	435.331	0.049	0.107
-566.602	-22.639	0.237	0.145
-565.588	9.398	0.264	-0.202
-564.573	8.482	0.158	0.120
-563.558	-200.000	-0.065	-0.352
-562.544	12.909	-0.183	-0.143
-561.529	159.749	-0.149	0.210
-560.515	362.849	0.094	0.192
-559.500	-99.941	-0.086	0.022
-558.485	-200.000	-0.009	-0.082
-557.471	-92.912	-0.124	0.035
-556.456	-72.605	0.085	0.032
-555.442	228.500	0.150	-0.246
-554.427	800.000	-0.139	0.416
-553.412	-200.000	0.014	-0.103
-552.398	-200.000	-0.015	-0.178
-551.383	-163.578	-0.141	-0.007
-550.369	-41.111	-0.257	-0.134
-549.354	-200.000	0.037	-0.449
-548.339	42.223	-0.148	-0.136
-547.325	-71.809	-0.204	-0.077
-546.310	109.881	-0.041	0.050
-545.296	-100.912	-0.153	0.038
-544.281	-200.000	-0.023	-0.162
-543.266	-148.444	0.197	0.016
-542.252	-124.069	0.510	-0.081
-541.237	-9.915	0.139	-0.094
-540.223	-200.000	-0.016	-0.172
-539.208	-200.000	-0.039	0.348
-538.193	-103.390	-0.095	0.023
-537.179	38.314	-0.192	0.173
-536.164	4.972	0.177	-0.131
-535.150	-145.597	0.323	0.029
-534.135	800.000	0.043	0.185
-533.121	25.744	0.120	0.101
-532.106	-154.629	0.463	-0.031
-531.091	-46.553	0.174	0.086
-530.077	134.777	-0.073	-0.096
-529.062	22.958	0.108	0.089
-528.048	-9.506	-0.161	0.109
-527.033	-47.999	-0.177	-0.086
-526.018	-6.615	0.039	-0.027
-525.004	488.386	-0.121	0.280
-523.989	152.968	-0.019	0.026
-522.975	-36.535	-0.240	0.130
-521.960	-103.261	-0.136	0.032
-520.945	233.431	0.130	-0.216
-519.931	-200.000	-0.000	-0.065
-518.916	-83.525	0.236	-0.076
-517.902	-12.879	0.500	-0.329
-516.887	316.167	0.125	-0.238
-515.872	-139.947	-0.421	-0.045
-514.858	800.000	0.039	-0.134
-513.843	-40.812	-0.207	0.108
-512.829	3.153	0.154	-0.113
-511.814	52.427	0.142	-0.137
-510.799	387.599	0.019	0.040
-509.785	-66.812	0.278	-0.111
-508.770	-200.000	-0.020	-0.141
-507.756	-30.479	-0.063	0.036
-506.741	49.612	0.199	0.189
-505.726	423.214	-0.164	0.355
-504.712	-12.264	0.150	0.099
-503.697	-40.297	-0.203	0.107
-502.683	171.239	-0.075	0.108
-501.668	241.164	-0.031	-0.052
-500.653	-179.527	0.413	-0.009
-499.639	800.000	0.029	-0.129
-498.624	800.000	-0.067	-0.293
-497.610	124.789	-0.092	0.117
-496.595	-169.495	-0.244	0.009
-495.581	-200.000	0.032	-0.334
-494.566	-55.930	-0.138	-0.062
-493.551	83.797	-0.129	0.142
-492.537	12.474	0.437	0.340
-491.522	0.745	-0.252	0.182
-490.508	111.482	-0.104	0.127
-489.493	-18.304	0.193	0.121
-488.478	-67.795	-0.063	-0.025
-487.464	80.411	0.190	0.207
-486.449	-192.516	-0.263	0.002
-485.435	7.984	0.099	-0.075
-484.420	-200.000	0.000	0.179
-483.405	75.137	-0.059	0.063
-482.391	46.089	-0.302	0.282
-481.376	111.520	-0.201	-0.245
-480.362	-100.899	-0.119	-0.030
-479.347	-149.838	-0.249	0.020
-478.332	-4.418	0.123	0.086
-477.318	-200.000	-0.009	0.073
-476.303	-200.000	-0.092	0.449
-475.289	535.015	0.128	0.306
-474.274	-29.036	0.312	-0.180
-473.259	-200.000	0.025	-0.253
-472.245	-183.520	-0.244	0.004
-471.230	-91.360	-0.396	-0.114
-470.216	7.841	-0.225	0.170
-469.201	-57.141	0.059	-0.026
-468.186	139.934	0.223	0.297
-467.172	223.114	0.195	-0.316
-466.157	-200.000	-0.017	-0.082
-465.143	-101.627	0.274	-0.067
-464.128	-96.759	-0.381	0.101
-463.113	-200.000	0.033	-0.256
-462.099	-200.000	0.095	0.574
-461.084	74.307	0.333	0.352
-460.070	-32.019	0.313	-0.176
-459.055	113.008	0.244	-0.298
-458.040	-185.222	-0.443	0.007
-457.026	747.869	-0.010	0.026
-456.011	110.263	0.223	-0.270
-454.997	-134.129	0.332	-0.041
-453.982	562.553	0.016	0.039
-452.968	800.000	0.121	-0.383
-451.953	-200.000	-0.019	0.088
-450.938	-42.643	-0.228	-0.117
-449.924	94.005	-0.299	0.341
-448.909	47.221	0.288	-0.270
-447.895	-39.742	-0.156	-0.082
-446.880	-164.731	-0.306	0.014
-445.865	-108.366	0.423	0.092
-444.851	124.065	0.205	0.259
-443.836	-200.000	-0.008	0.088
-442.822	-200.000	0.000	-0.021
-441.807	784.934	-0.059	0.162
-440.792	62.953	-0.084	-0.085
-439.778	800.000	0.029	0.085
-438.763	248.397	0.108	-0.184
-437.749	-114.453	-0.255	0.049
-436.734	-63.919	-0.173	0.071
-435.719	180.018	0.087	0.128
-434.705	800.000	-0.031	0.098
-433.690	-100.388	-0.237	-0.059
-432.676	-29.874	-0.253	-0.145
-431.661	-115.765	-0.232	0.044
-430.646	-115.899	0.134	0.025
-429.632	56.957	-0.131	-0.128
-428.617	800.000	-0.026	0.095
-427.603	665.691	-0.108	-0.281
-426.588	85.289	0.178	-0.197
-425.573	-126.440	-0.264	-0.040
-424.559	-200.000	-0.065	0.322
-423.544	-126.855	0.166	-0.025
-422.530	-164.429	-0.413	-0.019
-421.515	-68.536	-0.176	-0.068
-420.500	86.845	0.290	0.321
-419.486	92.190	-0.127	0.144
-418.471	-84.516	0.352	-0.112
-417.457	84.628	-0.104	-0.114
-416.442	-200.000	-0.003	-0.257
-415.428	173.234	0.061	0.089
-414.413	-128.190	0.133	0.019
-413.398	-50.377	0.139	0.066
-412.384	-21.163	0.302	-0.186
-411.369	800.000	0.042	0.119
-410.355	-12.070	0.039	-0.026
-409.340	45.422	-0.085	-0.079
-408.325	-151.119	-0.255	-0.019
-407.311	495.438	-0.146	-0.337
-406.296	-125.027	-0.269	-0.041
-405.282	3.484	-0.149	0.109
-404.267	68.712	-0.125	-0.129
-403.252	6.750	-0.131	0.098
-402.238	-200.000	0.037	-0.165
-401.223	-71.914	0.398	0.149
-400.209	-200.000	0.023	0.272
-399.194	326.569	-0.167	-0.322
-398.179	58.256	-0.184	0.181
-397.165	-21.597	0.106	0.065
-396.150	516.969	0.132	0.310
-395.136	-200.000	0.071	0.328
-394.121	-165.956	-0.236	0.010
-393.106	-93.942	-0.091	0.025
-392.092	610.432	-0.081	0.202
-391.077	800.000	0.084	-0.316
-390.063	465.035	0.093	0.210
-389.048	-85.732	-0.141	0.044
-388.033	32.301	-0.037	-0.032
-387.019	180.646	-0.152	0.224
-386.004	119.795	0.099	0.123
-384.990	-76.633	0.238	-0.084
-383.975	68.196	0.098	-0.100
-382.960	-200.000	-0.002	0.262
-381.946	-98.357	0.129	-0.033
-380.931	22.378	0.362	0.297
-379.917	57.540	-0.299	0.294
-378.902	207.852	-0.084	0.131
-377.888	-124.039	-0.235	-0.037
-376.873	590.580	-0.085	0.210
-375.858	-119.506	-0.128	-0.022
-374.844	33.497	0.269	-0.234
-373.829	58.295	0.125	-0.123
-372.815	-200.000	-0.042	0.193
-371.800	-150.259	-0.290	-0.022
-370.785	110.316	0.083	0.100
-369.771	-6.812	-0.154	0.105
-368.756	-87.726	0.433	-0.131
-367.742	-112.301	0.264	0.053
-366.727	146.793	-0.114	0.154
-365.712	198.532	0.161	-0.247
-364.698	117.806	-0.090	-0.111
-363.683	-112.209	-0.144	-0.029
-362.669	768.146	-0.057	-0.155
-361.654	184.079	0.084	-0.125
-360.639	72.193	-0.216	-0.225
-359.625	144.378	-0.123	-0.164
-358.610	-119.553	-0.039	-0.007
-357.596	-200.000	0.037	0.206
-356.581	-8.581	-0.208	-0.140
-355.566	-39.527	-0.127	0.067
-354.552	80.273	0.182	0.197
-353.537	-127.030	0.235	-0.035
-352.523	-182.100	-0.099	0.002
-351.508	-128.063	-0.333	-0.048
-350.493	800.000	-0.032	-0.137
-349.479	429.771	-0.035	0.077
-348.464	108.424	-0.113	-0.135
-347.450	-200.000	-0.002	-0.358
-346.435	-47.948	-0.041	-0.020
-345.420	-200.000	0.058	-0.305
-344.406	309.952	-0.152	-0.284
-343.391	-118.304	-0.327	0.058
-342.377	-200.000	0.052	-0.315
-341.362	-21.424	0.212	0.130
-340.348	138.114	-0.137	-0.180
-339.333	-200.000	-0.009	0.053
-338.318	102.643	0.167	0.196
-337.304	-56.376	0.150	0.067
-336.289	-164.274	-0.230	-0.011
-335.275	42.961	-0.185	-0.169
-334.260	-152.298	0.146	-0.011
-333.245	427.807	0.067	0.146
-332.231	-200.000	-0.052	0.256
-331.216	-200.000	-0.047	0.246
-330.202	-200.000	0.057	-0.478
-329.187	-200.000	-0.001	-0.041
-328.172	202.623	-0.109	-0.169
-327.158	268.820	-0.132	-0.232
-326.143	159.289	-0.238	0.332
-325.129	451.772	-0.041	0.091
-324.114	-200.000	-0.026	0.279
-323.099	-129.980	0.200	0.027
-322.085	-24.134	0.225	-0.135
-321.070	800.000	0.039	0.134
-320.056	29.852	0.188	0.160
-319.041	168.772	-0.168	-0.239
-318.026	-131.480	-0.198	0.026
-317.012	-140.782	0.234	-0.024
-315.997	-103.635	-0.124	-0.029
-314.983	12.655	-0.095	-0.074
-313.968	800.000	-0.050	-0.141
-312.953	800.000	0.018	0.058
-311.939	-75.560	-0.169	-0.060
-310.924	103.931	-0.206	-0.242
-309.910	-124.690	-0.170	-0.026
-308.895	117.119	-0.149	-0.183
-307.880	800.000	-0.044	-0.190
-306.866	-29.040	0.147	0.085
-305.851	-200.000	0.038	-0.366
-304.837	-200.000	-0.375	-0.000
-303.822	78.269	0.066	-0.071
-302.807	-67.054	-0.085	-0.033
-301.793	-85.489	-0.087	0.027
-300.778	800.000	-0.037	-0.123
-299.764	10.997	0.077	-0.059
-298.749	102.140	-0.046	-0.054
-297.735	-151.938	-0.338	-0.025
-296.720	85.229	0.206	-0.226
-295.705	-78.999	0.073	0.025
-294.691	741.477	-0.098	0.265
-293.676	319.896	-0.136	0.259
-292.662	800.000	0.055	-0.214
-291.647	57.487	-0.153	-0.150
-290.632	-12.050	-0.151	-0.099
-289.618	87.450	0.214	0.237
-288.603	78.165	-0.204	-0.217
-287.589	-73.563	0.135	0.049
-286.574	-200.000	-0.023	-0.150
-285.559	-189.710	-0.112	0.001
-284.545	161.482	0.198	0.278
-283.530	-95.638	0.248	0.066
-282.516	-73.138	0.292	-0.107
-281.501	108.804	-0.160	0.192
-280.486	-200.000	0.001	-0.129
-279.472	312.296	-0.102	0.191
-278.457	800.000	-0.073	0.254
-277.443	-64.925	0.220	-0.089
-276.428	-200.000	0.020	0.368
-275.413	-200.000	-0.002	0.091
-274.399	-174.514	0.210	0.006
-273.384	-98.516	0.406	-0.104
-272.370	-40.867	-0.066	0.034
-271.355	-23.812	0.182	-0.109
-270.340	-200.000	-0.047	0.296
-269.326	658.101	0.077	0.197
-268.311	-44.548	-0.223	-0.111
-267.297	-76.659	0.531	-0.186
-266.282	800.000	-0.075	-0.249
-265.267	800.000	0.056	-0.217
-264.253	-60.019	0.281	-0.120
-263.238	-139.220	0.168	0.018
-262.224	374.782	0.131	0.266
-261.209	-116.352	-0.135	0.025
-260.195	-18.845	0.197	0.123
-259.180	125.875	0.013	0.017
-258.165	-200.000	-0.023	0.271
-257.151	77.079	0.140	-0.148
-256.136	-46.691	-0.160	-0.078
-255.122	-14.373	0.125	-0.080
-254.107	-99.256	0.238	-0.060
-253.092	-82.337	0.166	-0.054
-252.078	291.970	0.214	0.389
-251.063	-81.348	0.057	-0.019
-250.049	46.085	0.171	0.158
-249.034	800.000	0.074	-0.233
-248.019	-105.394	0.076	-0.017
-247.005	800.000	0.054	0.160
-245.990	-123.735	0.207	0.033
-244.976	448.923	-0.112	0.247
-243.961	231.626	0.053	0.087
-242.946	-31.545	0.210	0.118
-241.932	126.860	-0.155	-0.196
-240.917	-48.258	-0.139	0.067
-239.903	10.536	0.234	-0.178
-238.888	-166.472	-0.187	0.008
-237.873	111.715	0.120	-0.144
-236.859	-200.000	-0.055	-0.349
-235.844	-46.009	0.042	0.021
-234.830	-5.484	0.279	-0.191
-233.815	286.599	0.091	0.165
-232.800	112.167	0.212	0.256
-231.786	-151.540	-0.095	0.007
-230.771	-22.918	0.298	-0.179
-229.757	-200.000	0.001	-0.057
-228.742	-173.275	-0.057	0.002
-227.727	80.263	0.103	0.111
-226.713	-185.199	-0.341	0.005
-225.698	-200.000	0.017	-0.124
-224.684	-97.182	0.376	-0.098
-223.669	-200.000	0.027	0.199
-222.655	-134.050	-0.412	-0.051
-221.640	24.738	0.242	-0.200
-220.625	39.068	-0.190	-0.170
-219.611	145.677	0.117	0.157
-218.596	-56.741	0.116	-0.051
-217.582	28.491	0.207	-0.175
-216.567	506.360	0.043	0.100
-215.552	-100.566	0.330	-0.081
-214.538	685.318	0.115	0.300
-213.523	673.462	0.076	-0.197
-212.509	-43.828	0.139	0.070
-211.494	-200.000	-0.019	-0.109
-210.479	-200.000	0.038	0.290
-209.465	-200.000	0.030	0.375
-208.450	-166.264	0.146	-0.006
-207.436	-84.920	-0.339	0.106
-206.421	-106.613	-0.283	0.063
-205.406	-200.000	-0.010	0.075
-204.392	800.000	-0.097	0.308
-203.377	-119.158	-0.076	0.013
-202.363	800.000	-0.029	0.093
-201.348	-200.000	0.021	-0.134
-200.333	800.000	-0.095	-0.415
-199.319	-23.947	-0.098	-0.059
-198.304	-86.055	0.356	-0.109
-197.290	180.211	-0.098	0.143
-196.275	-93.176	-0.063	-0.018
-195.260	523.176	-0.173	0.406
-194.246	-65.039	0.255	-0.103
-193.231	308.568	-0.071	-0.132
-192.217	-38.512	0.055	-0.029
-191.202	-24.840	-0.273	0.162
-190.187	-33.194	-0.057	0.032
-189.173	800.000	0.054	0.177
-188.158	20.831	0.220	-0.178
-187.144	-132.327	-0.227	-0.029
-186.129	213.970	-0.349	0.550
-185.114	-96.065	-0.522	-0.138
-184.100	30.088	0.076	0.065
-183.085	-143.908	-0.175	0.016
-182.071	-146.956	0.240	-0.021
-181.056	342.360	-0.135	0.262
-180.042	-70.260	0.406	-0.154
-179.027	-200.000	0.080	0.491
-178.012	-132.480	0.106	-0.014
-176.998	164.388	-0.119	-0.167
-175.983	-200.000	-0.050	0.240
-174.969	222.321	-0.037	0.059
-173.954	-104.609	-0.127	-0.029
-172.939	800.000	0.075	0.209
-171.925	-99.293	0.229	-0.058
-170.910	69.361	0.148	-0.152
-169.896	-112.912	-0.484	-0.095
-168.881	-162.445	0.131	0.006
-167.866	422.286	-0.193	-0.412
-166.852	-7.692	0.208	0.140
-165.837	-200.000	0.023	0.337
-164.823	-140.546	-0.272	0.028
-163.808	-200.000	-0.011	0.211
-162.793	-93.905	0.484	0.132
-161.779	76.130	-0.208	-0.219
-160.764	187.101	0.190	0.282
-159.750	74.000	-0.146	-0.153
-158.735	113.269	-0.295	0.356
-157.720	-200.000	0.023	0.223
-156.706	-101.446	0.410	0.099
-155.691	-18.696	0.127	0.079
-154.677	489.823	-0.056	0.127
-153.662	800.000	0.037	-0.161
-152.647	645.052	0.090	-0.227
-151.633	-30.794	0.230	-0.130
-150.618	-200.000	-0.032	0.200
-149.604	92.783	0.021	0.024
-148.589	46.192	-0.204	0.188
-147.574	72.587	0.153	-0.159
-146.560	35.640	-0.252	-0.220
-145.545	-200.000	0.021	-0.183
-144.531	800.000	-0.118	0.422
-143.516	44.441	0.117	0.107
-142.502	800.000	0.049	-0.168
-141.487	-62.173	-0.114	0.047
-140.472	800.000	-0.064	-0.233
-139.458	62.128	-0.189	-0.187
-138.443	148.221	0.033	-0.044
-137.429	800.000	-0.084	-0.325
-136.414	-180.811	-0.218	-0.004
-135.399	-200.000	-0.006	0.422
-134.385	0.217	-0.141	-0.100
-133.370	102.590	0.013	0.015
-132.356	-200.000	-0.012	-0.067
-131.341	-200.000	0.028	-0.161
-130.326	-139.265	-0.137	-0.015
-129.312	-145.898	-0.105	-0.009
-128.297	85.097	-0.119	-0.130
-127.283	-29.748	0.134	0.076
-126.268	-40.134	0.129	0.067
-125.253	23.067	-0.140	-0.114
-124.239	-200.000	0.006	-0.428
-123.224	-53.912	-0.092	0.042
-122.210	-84.957	-0.212	-0.066
