DTS Sentinel unit serial number:	SN413079Multiplexer serial number:	ORYXHardware model number:	OX4-SRSoftware version number:	ORYX F/W v4.00 Oryx Data Collector v3.7.2.0data status	okinstallation	princeton_trtdifferential loss correction	single-endedforward channel	channel 3reverse channel	N/Adate	2019/09/12time	18:33:04forward acquisition time	15.00reverse acquisition time	0.00gamma	496.2192k internal	0.2317k external	0.2317temperature offset calibration	1.0088default loss term (dB/km)	0.3790temperature slope calibration	1.0000multiplexer offset coefficient	1.0000multiplexer slope coefficient	1.0000fibre end	0.00T internal ref (°C)	33.19T ext. ref 1 (°C)	2.96T ext. ref 2 (°C)	27.76length (m)	temperature (°C)	Stokes	anti-Stokes-747.200	-45.282	0.700	0.352
-746.185	-200.000	0.092	0.476
-745.171	12.295	-0.325	-0.253
-744.156	-71.677	-0.203	0.077
-743.142	114.733	-0.190	-0.234
-742.127	112.009	-0.561	0.686
-741.112	15.457	0.675	0.536
-740.098	83.379	-0.215	0.237
-739.083	-92.907	0.469	0.133
-738.069	800.000	-0.135	0.387
-737.054	-200.000	0.051	-0.368
-736.039	-7.298	-0.384	-0.263
-735.025	198.281	0.088	-0.137
-734.010	6.802	-0.439	-0.331
-732.996	501.638	-0.227	0.531
-731.981	-17.285	0.557	0.355
-730.966	-58.695	0.263	0.115
-729.952	34.720	0.490	-0.434
-728.937	-28.749	-0.149	-0.087
-727.923	-38.098	-0.922	0.495
-726.908	114.767	-0.462	0.570
-725.894	-53.528	-0.308	0.142
-724.879	96.988	-0.455	0.528
-723.864	-200.000	-0.718	-0.003
-722.850	-21.166	-0.303	0.187
-721.835	-200.000	-0.044	0.994
-720.821	-115.369	-0.439	-0.084
-719.806	-44.149	-0.325	0.165
-718.791	-111.395	-0.264	0.054
-717.777	127.031	0.230	0.295
-716.762	222.320	-0.719	-1.170
-715.748	-54.235	0.570	-0.262
-714.733	800.000	-0.249	0.829
-713.718	-127.414	-0.432	-0.064
-712.704	-142.207	-0.485	-0.049
-711.689	93.131	0.290	-0.331
-710.675	311.284	0.149	0.283
-709.660	800.000	0.161	0.505
-708.645	78.238	0.470	-0.507
-707.631	604.945	-0.247	-0.622
-706.616	79.867	-0.061	0.066
-705.602	-152.963	-0.161	0.011
-704.587	-200.000	-0.000	0.230
-703.572	-200.000	0.056	0.849
-702.558	-18.093	-0.691	0.437
-701.543	800.000	0.109	0.309
-700.529	303.217	0.110	-0.206
-699.514	-148.905	-0.403	0.033
-698.499	-166.594	0.545	-0.023
-697.485	-126.689	-0.347	0.052
-696.470	33.827	0.237	-0.209
-695.456	-55.243	-0.688	-0.313
-694.441	26.341	-0.685	-0.578
-693.426	33.286	-0.944	0.828
-692.412	59.370	-0.613	-0.610
-691.397	24.459	0.433	-0.362
-690.383	-141.742	0.543	0.055
-689.368	540.328	0.210	-0.506
-688.354	267.915	-0.200	0.354
-687.339	126.295	0.109	0.139
-686.324	800.000	0.143	0.422
-685.310	343.716	-0.483	0.956
-684.295	-200.000	0.045	-0.478
-683.281	12.073	-0.416	-0.324
-682.266	-58.985	0.076	0.033
-681.251	-115.898	-0.388	0.073
-680.237	800.000	0.293	-0.818
-679.222	-41.326	0.632	-0.329
-678.208	22.583	-0.717	-0.593
-677.193	-22.921	0.209	-0.127
-676.178	-170.520	-0.623	-0.022
-675.164	70.624	0.143	-0.149
-674.149	-137.204	0.912	-0.105
-673.135	335.546	0.154	0.301
-672.120	800.000	0.332	-1.236
-671.105	133.206	0.212	-0.277
-670.091	-74.249	0.521	-0.190
-669.076	-59.741	-0.264	-0.114
-668.062	11.904	0.430	-0.334
-667.047	551.045	0.124	0.300
-666.032	585.409	-0.208	0.515
-665.018	-38.140	0.465	-0.249
-664.003	176.522	-0.057	-0.083
-662.989	-3.432	0.155	0.109
-661.974	138.806	0.156	0.207
-660.959	-95.298	0.101	0.027
-659.945	550.950	0.122	0.296
-658.930	173.977	0.616	0.897
-657.916	133.890	-0.508	-0.663
-656.901	87.133	-0.411	-0.459
-655.886	-200.000	0.124	0.889
-654.872	8.036	-0.510	0.386
-653.857	588.498	0.391	-0.972
-652.843	800.000	0.155	0.586
-651.828	-90.561	0.646	-0.189
-650.814	137.107	0.039	-0.052
-649.799	311.743	0.524	0.992
-648.784	-200.000	-0.002	-0.016
-647.770	-12.593	-0.796	0.524
-646.755	-200.000	0.067	0.678
-645.741	178.929	-0.211	0.310
-644.726	-58.686	-0.674	-0.295
-643.711	163.091	-0.099	-0.141
-642.697	304.175	-0.341	-0.638
-641.682	-182.604	-0.784	0.014
-640.668	800.000	0.138	-0.446
-639.653	-200.000	-0.004	0.116
-638.638	-200.000	-0.100	0.690
-637.624	-51.929	0.425	-0.199
-636.609	-200.000	-0.047	0.834
-635.595	-200.000	0.047	0.880
-634.580	-111.746	0.704	0.144
-633.565	-93.363	-0.256	-0.072
-632.551	-200.000	-0.087	0.834
-631.536	19.984	-0.379	0.308
-630.522	65.734	-0.337	0.344
-629.507	-200.000	0.018	-0.098
-628.492	-78.837	0.104	-0.036
-627.478	-59.857	-0.458	0.198
-626.463	-200.000	-0.080	-0.384
-625.449	-19.187	0.542	-0.339
-624.434	129.592	-0.441	0.568
-623.419	-30.018	-0.903	-0.518
-622.405	143.637	-0.379	0.508
-621.390	52.560	-0.307	-0.296
-620.376	29.967	0.830	0.713
-619.361	800.000	-0.305	0.893
-618.346	84.008	0.265	0.292
-617.332	24.081	0.300	0.249
-616.317	538.974	0.214	-0.513
-615.303	187.887	-0.351	0.528
-614.288	-88.069	0.753	0.228
-613.273	359.428	-0.125	-0.251
-612.259	800.000	0.191	-0.819
-611.244	83.665	0.150	-0.165
-610.230	-69.745	-0.516	0.199
-609.215	-119.767	-0.178	0.031
-608.201	27.684	-0.853	-0.723
-607.186	281.831	0.065	-0.116
-606.171	487.598	-0.203	0.468
-605.157	-113.756	0.965	0.189
-604.142	-200.000	-0.050	-0.453
-603.128	40.711	0.712	-0.646
-602.113	15.291	0.140	0.111
-601.098	89.216	0.060	0.068
-600.084	-84.348	-0.377	-0.120
-599.069	-200.000	0.038	0.754
-598.055	-94.171	-0.784	-0.216
-597.040	627.046	-0.300	0.762
-596.025	126.488	-0.517	0.659
-595.011	108.674	0.281	-0.338
-593.996	689.624	-0.277	0.729
-592.982	-200.000	-0.050	-0.397
-591.967	-200.000	-0.041	-0.337
-590.952	-30.974	0.505	-0.287
-589.938	299.165	-0.192	-0.355
-588.923	-161.381	-0.331	0.017
-587.909	165.171	-0.063	-0.090
-586.894	-125.850	-0.314	0.048
-585.879	-200.000	0.129	0.643
-584.865	-32.316	-0.583	0.328
-583.850	800.000	0.047	0.131
-582.836	728.242	0.197	-0.529
-581.821	634.433	-0.290	-0.741
-580.806	245.184	0.243	-0.412
-579.792	800.000	-0.061	-0.223
-578.777	-115.057	0.489	-0.093
-577.763	800.000	-0.136	-0.506
-576.748	-176.153	-0.512	0.014
-575.733	-1.534	-0.839	-0.595
-574.719	-82.104	-0.766	0.251
-573.704	310.681	0.469	-0.883
-572.690	800.000	0.166	-0.624
-571.675	284.342	-0.038	-0.069
-570.661	-45.809	0.671	-0.333
-569.646	764.986	0.332	0.906
-568.631	-200.000	0.052	0.550
-567.617	86.048	-0.513	-0.568
-566.602	-66.891	0.547	-0.217
-565.588	-48.795	-0.376	0.181
-564.573	800.000	0.090	-0.284
-563.558	-200.000	0.061	-0.381
-562.544	-181.862	0.410	-0.008
-561.529	-200.000	0.048	0.318
-560.515	576.697	-0.266	-0.653
-559.500	62.130	-0.680	-0.682
-558.485	307.713	0.286	-0.536
-557.471	-91.743	-0.607	0.173
-556.456	54.676	0.431	-0.418
-555.442	563.890	0.382	-0.930
-554.427	-200.000	0.074	-0.666
-553.412	156.483	0.133	0.185
-552.398	126.668	0.514	-0.654
-551.383	512.127	0.214	0.502
-550.369	-200.000	-0.112	-0.520
-549.354	-52.803	-0.283	-0.131
-548.339	-200.000	-0.071	-0.327
-547.325	324.947	0.545	-1.046
-546.310	507.672	0.208	0.484
-545.296	794.591	0.099	-0.273
-544.281	-128.612	-0.207	0.029
-543.266	-200.000	0.066	-0.299
-542.252	-32.958	1.118	0.624
-541.237	283.174	-0.240	0.433
-540.223	-200.000	0.114	-0.535
-539.208	-200.000	0.006	0.221
-538.193	-142.885	1.022	-0.100
-537.179	588.692	-0.355	-0.878
-536.164	266.629	0.027	0.047
-535.150	125.195	0.243	0.307
-534.135	444.724	0.225	-0.496
-533.121	-116.922	0.291	0.054
-532.106	800.000	-0.208	0.697
-531.091	-25.906	0.180	0.107
-530.077	48.913	-0.974	0.918
-529.062	-34.540	0.568	-0.312
-528.048	469.532	0.270	-0.608
-527.033	57.696	-0.103	0.101
-526.018	32.739	0.518	0.450
-525.004	-150.668	-0.481	0.037
-523.989	-200.000	0.047	-0.278
-522.975	146.457	0.376	0.507
-521.960	-14.095	0.167	-0.108
-520.945	251.275	0.233	-0.397
-519.931	144.270	0.221	-0.296
-518.916	-151.674	1.040	-0.077
-517.902	-180.459	0.635	0.013
-516.887	-200.000	0.223	-1.228
-515.872	800.000	-0.101	-0.320
-514.858	57.837	-0.715	0.702
-513.843	800.000	-0.210	0.652
-512.829	320.760	-0.492	-0.938
-511.814	-33.102	0.523	0.291
-510.799	-95.411	-0.406	-0.109
-509.785	237.030	0.289	-0.480
-508.770	800.000	0.041	-0.172
-507.756	214.799	0.104	0.165
-506.741	353.097	-0.203	0.403
-505.726	-171.415	0.852	-0.029
-504.712	-45.225	0.846	-0.421
-503.697	-72.977	-0.486	-0.179
-502.683	-80.226	0.946	-0.318
-501.668	172.415	-0.780	1.125
-500.653	-200.000	0.002	-0.106
-499.639	55.870	-0.483	-0.469
-498.624	-98.169	-0.823	0.212
-497.610	-42.932	0.057	-0.029
-496.595	800.000	0.144	-0.461
-495.581	-96.692	-0.668	0.176
-494.566	100.419	0.396	0.460
-493.551	800.000	-0.191	0.564
-492.537	457.785	0.112	-0.249
-491.522	378.349	0.307	-0.630
-490.508	800.000	-0.056	0.225
-489.493	-15.285	0.296	-0.190
-488.478	196.879	0.350	0.535
-487.464	-45.040	0.835	0.416
-486.449	800.000	0.008	-0.023
-485.435	-147.282	0.675	0.057
-484.420	-76.004	0.528	0.187
-483.405	-129.038	0.379	-0.053
-482.391	102.680	0.190	0.223
-481.376	-63.794	-0.551	-0.226
-480.362	149.223	0.336	0.456
-479.347	30.679	-0.230	0.197
-478.332	62.395	-0.778	0.778
-477.318	-136.993	0.659	0.076
-476.303	-200.000	-0.094	-1.191
-475.289	206.143	-0.515	-0.803
-474.274	415.089	-0.364	-0.777
-473.259	-200.000	-0.410	0.000
-472.245	-21.768	0.538	-0.328
-471.230	-72.059	0.256	0.095
-470.216	-34.630	-0.371	0.203
-469.201	-76.142	0.643	0.227
-468.186	-107.445	0.318	0.070
-467.172	-200.000	0.167	0.991
-466.157	92.524	0.170	0.193
-465.143	325.872	-0.362	-0.693
-464.128	-200.000	-0.608	0.001
-463.113	736.651	0.165	-0.443
-462.099	-60.815	0.225	0.095
-461.084	121.894	-0.289	-0.362
-460.070	28.389	-0.313	-0.265
-459.055	-200.000	-0.067	-0.447
-458.040	800.000	0.222	-0.675
-457.026	-60.736	0.601	-0.255
-456.011	-35.333	0.608	0.331
-454.997	800.000	0.135	-0.482
-453.982	267.596	-0.401	0.703
-452.968	737.317	0.094	-0.253
-451.953	800.000	-0.198	-0.556
-450.938	-143.734	-0.556	0.053
-449.924	114.991	0.393	0.480
-448.909	82.410	0.228	-0.247
-447.895	393.915	0.296	0.617
-446.880	324.891	0.200	0.383
-445.865	-100.956	-0.978	0.240
-444.851	-134.976	0.692	0.084
-443.836	-50.014	0.596	-0.283
-442.822	766.614	0.258	0.702
-441.807	369.076	0.063	-0.128
-440.792	-148.193	-0.620	-0.051
-439.778	129.881	0.211	0.270
-438.763	-200.000	0.081	-1.037
-437.749	-3.765	-0.661	0.459
-436.734	800.000	-0.150	-0.464
-435.719	-3.299	-0.424	0.296
-434.705	800.000	0.043	-0.121
-433.690	346.454	0.367	0.721
-432.676	50.311	0.990	0.936
-431.661	-168.584	0.574	-0.022
-430.646	130.581	-0.530	0.679
-429.632	45.149	0.221	0.203
-428.617	-124.650	-0.491	0.076
-427.603	91.746	-0.534	-0.600
-426.588	112.360	-0.410	-0.496
-425.573	-151.598	-1.243	-0.092
-424.559	124.892	0.235	0.296
-423.544	800.000	0.203	0.562
-422.530	74.632	-0.181	-0.191
-421.515	122.911	0.216	-0.271
-420.500	435.945	0.159	-0.345
-419.486	-200.000	-0.037	0.397
-418.471	800.000	0.123	0.501
-417.457	371.639	-0.144	0.293
-416.442	132.699	0.603	0.778
-415.428	-200.000	-0.008	0.204
-414.413	494.857	-0.338	0.775
-413.398	389.892	0.210	-0.435
-412.384	-60.725	-0.420	0.178
-411.369	-122.018	-0.481	-0.079
-410.355	800.000	-0.105	0.425
-409.340	64.869	0.489	0.493
-408.325	436.423	0.119	0.260
-407.311	-43.041	0.711	0.360
-406.296	60.717	0.701	-0.694
-405.282	385.308	-0.270	-0.556
-404.267	176.254	-0.111	0.161
-403.252	59.121	0.159	0.157
-402.238	49.005	-0.471	0.442
-401.223	-200.000	-0.035	-0.481
-400.209	-107.802	-0.338	-0.074
-399.194	356.609	0.116	0.231
-398.179	-33.193	-0.727	0.402
-397.165	-110.840	0.702	0.144
-396.150	-158.236	-0.944	0.055
-395.136	-81.834	-0.428	0.140
-394.121	-92.422	-0.241	-0.068
-393.106	767.804	0.270	-0.732
-392.092	-135.854	-1.001	0.118
-391.077	746.372	0.116	0.312
-390.063	-48.955	-0.226	0.108
-389.048	-40.739	0.857	0.443
-388.033	-55.206	0.898	0.403
-387.019	-200.000	0.027	-1.062
-386.004	800.000	0.145	0.404
-384.990	209.489	0.292	0.457
-383.975	46.963	-0.489	-0.454
-382.960	800.000	0.307	1.263
-381.946	164.338	-0.297	0.418
-380.931	-200.000	-0.008	-0.047
-379.917	800.000	-0.348	-1.039
-378.902	-200.000	0.016	0.088
-377.888	70.359	0.201	0.208
-376.873	800.000	-0.224	0.646
-375.858	-20.508	-0.427	0.262
-374.844	93.488	-0.235	0.266
-373.829	503.025	-0.047	0.107
-372.815	-21.903	0.699	0.424
-371.800	-55.334	-0.662	-0.296
-370.785	35.423	-0.518	0.454
-369.771	-125.048	0.592	0.091
-368.756	-39.609	0.188	-0.098
-367.742	104.826	-0.117	0.138
-366.727	800.000	-0.106	0.411
-365.712	-95.377	0.320	-0.086
-364.698	800.000	0.042	0.177
-363.683	336.519	0.503	-0.974
-362.669	-200.000	-0.008	-1.030
-361.654	-148.257	0.596	0.049
-360.639	720.289	0.157	-0.416
-359.625	-30.511	-0.461	0.260
-358.610	-50.027	-0.075	-0.035
-357.596	762.408	-0.106	-0.288
-356.581	800.000	-0.140	0.399
-355.566	619.879	-0.118	0.295
-354.552	800.000	0.412	1.236
-353.537	37.993	-0.637	0.565
-352.523	-92.567	-0.754	0.211
-351.508	-200.000	0.166	-0.780
-350.493	-184.552	-0.680	-0.011
-349.479	-180.672	0.652	0.013
-348.464	-107.584	0.472	0.103
-347.450	-95.542	-0.508	0.136
-346.435	-115.526	0.677	-0.127
-345.420	53.034	0.324	0.309
-344.406	260.693	0.266	0.459
-343.391	-200.000	-0.042	0.354
-342.377	-151.373	0.763	-0.057
-341.362	174.754	-0.338	-0.488
-340.348	80.083	0.274	0.294
-339.333	107.125	-0.136	0.161
-338.318	-182.316	0.425	0.008
-337.304	38.989	0.055	-0.049
-336.289	-101.615	-0.413	0.100
-335.275	-200.000	0.103	-1.093
-334.260	-200.000	0.024	0.542
-333.245	-103.592	-0.623	-0.146
-332.231	-97.001	-0.468	-0.122
-331.216	372.756	-0.186	-0.376
-330.202	114.922	-0.714	-0.868
-329.187	-200.000	0.024	-0.169
-328.172	-65.139	0.393	-0.158
-327.158	6.880	-0.751	0.557
-326.143	27.222	0.414	-0.347
-325.129	11.366	-0.452	0.345
-324.114	179.053	0.222	-0.324
-323.099	800.000	0.219	0.808
-322.085	-25.544	-0.262	0.154
-321.070	-23.421	-0.060	-0.036
-320.056	-167.870	-0.734	0.029
-319.041	-34.835	0.256	-0.139
-318.026	103.040	0.595	-0.694
-317.012	394.003	-0.322	0.667
-315.997	531.093	-0.199	-0.467
-314.983	-195.737	-0.668	0.005
-313.968	-0.805	0.241	-0.170
-312.953	-157.642	-0.785	-0.047
-311.939	33.025	0.514	-0.444
-310.924	307.201	0.074	0.138
-309.910	196.393	0.416	0.631
-308.895	800.000	0.270	-0.982
-307.880	-200.000	-0.051	0.590
-306.866	-200.000	0.079	-0.400
-305.851	-200.000	-0.179	-0.878
-304.837	375.587	0.050	0.101
-303.822	-75.900	0.374	-0.132
-302.807	32.171	-0.578	-0.496
-301.793	-200.000	-0.034	0.256
-300.778	-95.537	-0.290	-0.077
-299.764	-200.000	0.033	-0.252
-298.749	186.850	-0.110	0.163
-297.735	-181.948	0.191	0.004
-296.720	69.222	0.767	-0.785
-295.705	-4.278	0.155	-0.107
-294.691	-38.501	-0.371	-0.195
-293.676	-18.557	-0.446	0.277
-292.662	-135.877	-0.255	-0.030
-291.647	85.974	-0.410	0.449
-290.632	174.435	-0.333	0.479
-289.618	276.991	0.170	-0.301
-288.603	-45.196	0.375	0.186
-287.589	-200.000	0.121	0.742
-286.574	-167.405	0.293	-0.012
-285.559	-9.543	0.517	0.343
-284.545	-200.000	0.057	-0.556
-283.530	-81.652	-0.650	-0.212
-282.516	-129.709	0.811	-0.111
-281.501	67.115	-0.275	0.279
-280.486	-114.871	-0.022	-0.004
-279.472	-30.521	-0.502	-0.283
-278.457	276.071	-0.365	-0.643
-277.443	-136.695	0.456	0.052
-276.428	45.062	-0.608	0.557
-275.413	-145.548	-0.744	-0.066
-274.399	207.389	-0.331	-0.514
-273.384	-70.911	-0.131	0.049
-272.370	800.000	0.171	0.482
-271.355	-83.361	-0.605	0.193
-270.340	-180.228	0.313	-0.007
-269.326	-65.631	0.650	0.259
-268.311	-200.000	-0.174	1.105
-267.297	10.704	0.460	0.349
-266.282	14.098	-0.182	0.141
-265.267	-200.000	-0.100	-0.514
-264.253	-83.590	0.335	0.106
-263.238	-27.358	-0.293	-0.169
-262.224	105.309	0.476	0.558
-261.209	-8.771	-0.498	0.332
-260.195	173.055	0.313	0.448
-259.180	121.497	0.650	-0.805
-258.165	-132.917	0.584	0.074
-257.151	5.328	-0.522	0.383
-256.136	42.409	-0.690	-0.623
-255.122	-113.982	0.542	-0.104
-254.107	-11.913	-0.140	-0.091
-253.092	-108.705	0.278	0.059
-252.078	-90.014	0.482	-0.140
-251.063	-200.000	-0.053	-0.503
-250.049	-49.934	0.395	0.186
-249.034	-200.000	0.067	0.484
-248.019	269.046	0.334	-0.581
-247.005	-200.000	0.005	0.073
-245.990	145.477	0.472	0.628
-244.976	-103.402	0.658	-0.154
-243.961	-200.000	-0.046	0.432
-242.946	37.959	-0.100	-0.088
-241.932	-127.334	-0.525	0.076
-240.917	-97.509	-0.446	-0.115
-239.903	-200.000	-0.026	0.177
-238.888	-134.812	-0.356	0.043
-237.873	687.092	-0.159	-0.413
-236.859	-200.000	0.140	-0.634
-235.844	4.584	-0.329	0.240
-234.830	-200.000	0.079	-0.463
-233.815	-200.000	-0.142	-1.210
-232.800	69.039	0.123	-0.126
-231.786	49.016	0.134	-0.125
-230.771	15.927	-0.435	-0.340
-229.757	-200.000	0.075	-0.459
-228.742	471.869	0.386	0.861
-227.727	345.051	-0.143	-0.279
-226.713	-64.748	-0.159	0.064
-225.698	404.336	0.346	0.722
-224.684	-200.000	-0.132	-0.917
-223.669	-114.050	-0.358	-0.069
-222.655	-200.000	0.029	0.293
-221.640	800.000	0.114	-0.449
-220.625	520.527	0.266	0.619
-219.611	170.708	-0.249	-0.353
-218.596	-200.000	0.131	-0.687
-217.582	-121.180	0.342	0.057
-216.567	72.666	-0.470	0.486
-215.552	-82.811	-0.687	-0.220
-214.538	-104.872	0.887	-0.202
-213.523	355.589	-0.236	0.466
-212.509	-127.535	-0.683	0.098
-211.494	438.100	-0.261	0.564
-210.479	-200.000	-0.003	-0.342
-209.465	704.148	0.147	-0.386
-208.450	-8.604	0.900	-0.599
-207.436	-141.805	0.439	-0.044
-206.421	3.920	0.632	-0.458
-205.406	-164.957	0.764	0.034
-204.392	-141.394	-0.207	-0.021
-203.377	-132.857	-0.394	0.050
-202.363	-62.976	-0.771	-0.316
-201.348	-23.732	0.953	-0.566
-200.333	-4.256	-0.088	-0.060
-199.319	-124.863	-0.540	0.083
-198.304	800.000	-0.062	0.262
-197.290	36.496	-0.703	0.615
-196.275	-200.000	-0.034	-0.221
-195.260	211.081	0.320	-0.498
-194.246	626.284	0.257	-0.642
-193.231	8.656	0.336	-0.251
-192.217	-82.853	-0.499	0.160
-191.202	133.118	0.044	-0.057
-190.187	-47.738	0.390	0.187
-189.173	99.227	0.329	0.377
-188.158	-200.000	-0.086	-0.436
-187.144	759.165	0.054	-0.145
-186.129	-39.121	-0.723	-0.377
-185.114	-75.400	-0.462	0.163
-184.100	-200.000	-0.140	1.177
-183.085	-170.184	-0.734	-0.026
-182.071	-128.967	0.445	0.062
-181.056	-83.271	0.520	-0.165
-180.042	362.215	-0.249	-0.494
-179.027	-200.000	0.067	0.613
-178.012	-200.000	-0.006	0.146
-176.998	-200.000	-0.033	0.362
-175.983	73.963	0.113	0.118
-174.969	-31.842	-0.725	-0.402
-173.954	-10.606	0.254	0.166
-172.939	-200.000	0.032	-0.487
-171.925	800.000	0.127	0.432
-170.910	-161.693	0.884	0.045
-169.896	-200.000	0.016	0.208
-168.881	203.841	0.304	0.467
-167.866	800.000	0.062	0.241
-166.852	800.000	0.058	0.184
-165.837	-35.447	-0.600	0.323
-164.823	-50.239	-0.642	0.300
-163.808	70.911	-0.241	0.247
-162.793	-200.000	0.025	-0.685
-161.779	-91.561	-0.598	-0.169
-160.764	165.773	0.290	-0.406
-159.750	87.206	0.536	-0.586
-158.735	-98.797	0.136	-0.034
-157.720	-151.432	0.584	0.043
-156.706	236.032	0.336	0.549
-155.691	-78.441	-0.562	0.191
-154.677	-200.000	0.037	0.322
-153.662	-49.371	-0.285	-0.135
-152.647	800.000	-0.163	0.593
-151.633	-200.000	0.033	-0.238
-150.618	-69.258	1.083	0.412
-149.604	-200.000	-0.001	-0.161
-148.589	-81.324	-0.766	0.250
-147.574	-82.056	-0.549	-0.177
-146.560	-47.506	-0.724	-0.348
-145.545	64.616	0.629	-0.627
-144.531	-200.000	0.025	0.128
-143.516	-200.000	-0.161	-0.875
-142.502	-15.604	-0.335	-0.211
-141.487	518.846	0.455	1.053
-140.472	-106.910	0.459	0.100
-139.458	789.264	0.247	0.672
-138.443	130.091	0.173	0.219
-137.429	-53.801	0.432	-0.195
-136.414	-200.000	0.013	0.404
-135.399	202.093	-0.387	0.590
-134.385	-132.948	-0.192	-0.024
-133.370	-200.000	0.114	0.540
-132.356	286.866	0.190	0.340
-131.341	3.894	-0.320	-0.231
-130.326	-30.594	0.528	-0.296
-129.312	195.058	0.210	-0.315
-128.297	-122.274	0.866	0.140
-127.283	-150.870	-0.469	-0.035
-126.268	-200.000	-0.094	0.498
-125.253	800.000	-0.262	0.982
-124.239	-170.924	-0.680	0.023
-123.224	137.214	-0.156	-0.201
-122.210	161.428	0.083	-0.115
-121.195	88.549	-0.224	0.246
