DTS Sentinel unit serial number:	SN413079Multiplexer serial number:	ORYXHardware model number:	OX4-SRSoftware version number:	ORYX F/W v4.00 Oryx Data Collector v3.7.2.0data status	okinstallation	princeton_trtdifferential loss correction	single-endedforward channel	channel 3reverse channel	N/Adate	2019/09/16time	08:24:35forward acquisition time	60.00reverse acquisition time	0.00gamma	496.2192k internal	0.2325k external	0.2325temperature offset calibration	0.9953default loss term (dB/km)	0.3790temperature slope calibration	1.0000multiplexer offset coefficient	1.0000multiplexer slope coefficient	1.0000fibre end	0.00T internal ref (°C)	29.12T ext. ref 1 (°C)	11.88T ext. ref 2 (°C)	25.57length (m)	temperature (°C)	Stokes	anti-Stokes-747.200	-14.406	0.258	0.168
-746.185	-131.897	-0.356	0.047
-745.171	-24.665	-0.156	0.094
-744.156	-62.426	0.268	0.113
-743.142	-33.055	-0.138	-0.077
-742.127	-200.000	-0.079	0.469
-741.112	440.393	0.089	0.197
-740.098	520.464	-0.173	0.409
-739.083	-50.238	-0.246	0.117
-738.069	-67.165	-0.107	-0.042
-737.054	-36.700	-0.115	-0.062
-736.039	-200.000	0.022	0.171
-735.025	38.784	0.111	0.100
-734.010	-137.252	-0.282	0.032
-732.996	-200.000	0.029	-0.249
-731.981	-100.331	-0.227	0.057
-730.966	-116.490	0.334	-0.062
-729.952	-200.000	-0.014	-0.173
-728.937	800.000	-0.095	0.387
-727.923	152.472	0.197	0.272
-726.908	538.514	-0.071	0.169
-725.894	-29.072	0.160	0.093
-724.879	-200.000	0.009	0.293
-723.864	-97.491	0.446	0.117
-722.850	275.537	-0.130	0.232
-721.835	634.082	-0.048	-0.124
-720.821	219.175	-0.063	0.101
-719.806	187.624	-0.272	-0.409
-718.791	525.528	-0.014	0.034
-717.777	-61.294	-0.167	-0.071
-716.762	11.618	-0.330	-0.255
-715.748	-80.253	0.060	0.020
-714.733	-58.905	-0.446	0.194
-713.718	272.305	0.098	-0.175
-712.704	-69.660	0.036	0.014
-711.689	1.662	-0.239	-0.174
-710.675	-200.000	0.002	-0.016
-709.660	190.316	0.005	-0.007
-708.645	12.934	-0.155	0.120
-707.631	-110.460	-0.171	-0.036
-706.616	-130.589	-0.139	-0.019
-705.602	-200.000	0.011	0.156
-704.587	101.178	-0.084	-0.098
-703.572	-154.166	-0.168	0.011
-702.558	-33.244	0.126	-0.070
-701.543	-83.272	-0.415	0.134
-700.529	800.000	-0.020	-0.072
-699.514	297.735	0.175	-0.323
-698.499	137.932	0.144	-0.190
-697.485	355.379	0.120	-0.241
-696.470	247.109	0.124	-0.210
-695.456	-14.240	-0.077	-0.050
-694.441	-20.977	0.184	-0.114
-693.426	-138.345	-0.116	0.013
-692.412	91.836	-0.274	-0.310
-691.397	297.256	-0.023	-0.042
-690.383	-115.212	0.117	0.022
-689.368	-200.000	-0.021	-0.388
-688.354	-46.040	0.247	-0.123
-687.339	-120.125	-0.169	0.029
-686.324	76.204	-0.087	-0.092
-685.310	-200.000	0.047	-0.409
-684.295	-38.146	-0.265	-0.141
-683.281	-73.976	0.339	-0.124
-682.266	322.990	-0.180	-0.346
-681.251	-34.492	-0.244	0.135
-680.237	140.357	0.120	-0.160
-679.222	605.347	-0.084	-0.211
-678.208	-94.051	-0.293	-0.081
-677.193	-84.431	0.253	0.081
-676.178	-129.604	0.195	-0.027
-675.164	-125.186	-0.351	0.054
-674.149	139.882	0.063	0.083
-673.135	800.000	-0.088	0.308
-672.120	329.367	-0.048	0.093
-671.105	-132.643	-0.327	-0.042
-670.091	-200.000	0.070	-0.318
-669.076	29.278	0.113	0.096
-668.062	-200.000	-0.024	-0.260
-667.047	-200.000	-0.023	0.145
-666.032	14.518	0.151	0.119
-665.018	72.433	0.173	-0.181
-664.003	-200.000	0.012	-0.146
-662.989	138.022	-0.068	0.089
-661.974	-159.296	-0.246	-0.014
-660.959	129.376	-0.181	-0.233
-659.945	52.822	-0.193	0.186
-658.930	800.000	0.088	0.338
-657.916	44.822	0.108	-0.100
-656.901	-104.231	0.235	0.055
-655.886	38.947	0.129	-0.116
-654.872	-54.081	0.194	0.089
-653.857	800.000	-0.014	-0.050
-652.843	146.191	0.188	0.254
-651.828	-180.957	-0.098	0.002
-650.814	169.018	-0.186	-0.266
-649.799	-32.290	-0.211	0.119
-648.784	104.673	0.202	-0.240
-647.770	-114.124	0.219	0.043
-646.755	-200.000	-0.028	-0.131
-645.741	-61.928	0.371	0.156
-644.726	-200.000	0.010	-0.137
-643.711	-38.123	-0.245	0.130
-642.697	-91.101	0.376	0.109
-641.682	-1.450	-0.251	-0.178
-640.668	303.556	-0.090	0.167
-639.653	800.000	0.063	-0.266
-638.638	-104.608	0.272	-0.063
-637.624	38.758	0.078	-0.070
-636.609	-93.049	0.103	-0.029
-635.595	-200.000	0.044	0.280
-634.580	-191.821	-0.301	-0.003
-633.565	-200.000	0.037	-0.285
-632.551	-200.000	-0.099	-0.450
-631.536	-189.440	0.261	-0.003
-630.522	536.878	-0.085	-0.203
-629.507	-88.672	0.264	-0.079
-628.492	16.585	-0.135	-0.107
-627.478	-118.639	-0.263	-0.047
-626.463	-131.554	-0.082	-0.011
-625.449	25.538	0.214	0.179
-624.434	-200.000	0.025	0.254
-623.419	-200.000	0.005	0.350
-622.405	131.554	-0.071	-0.092
-621.390	-162.467	0.348	-0.017
-620.376	800.000	-0.083	-0.282
-619.361	25.045	-0.196	-0.164
-618.346	482.837	0.177	-0.404
-617.332	800.000	0.024	0.071
-616.317	58.477	0.144	0.142
-615.303	800.000	-0.069	-0.301
-614.288	296.179	0.140	0.257
-613.273	-42.563	-0.081	0.042
-612.259	800.000	-0.126	0.388
-611.244	-50.563	-0.147	-0.070
-610.230	-41.920	0.194	-0.100
-609.215	-65.588	0.320	0.129
-608.201	-19.026	-0.121	-0.076
-607.186	-200.000	0.044	-0.419
-606.171	-99.268	0.201	-0.051
-605.157	800.000	0.032	-0.108
-604.142	-132.224	-0.265	0.034
-603.128	-19.630	-0.149	-0.093
-602.113	-200.000	-0.036	-0.339
-601.098	777.131	0.114	0.313
-600.084	-200.000	0.022	0.100
-599.069	-57.569	0.182	-0.080
-598.055	-53.095	0.166	0.077
-597.040	2.250	-0.146	0.106
-596.025	-42.053	-0.090	0.046
-595.011	-30.680	0.211	0.120
-593.996	-200.000	0.008	-0.072
-592.982	-3.534	0.189	0.132
-591.967	10.915	0.151	0.116
-590.952	61.838	0.197	-0.197
-589.938	126.576	-0.185	0.236
-588.923	800.000	-0.117	0.339
-587.909	340.108	0.081	-0.159
-586.894	-115.220	0.242	0.046
-585.879	-98.455	0.071	-0.018
-584.865	105.980	-0.113	0.134
-583.850	-200.000	0.046	-0.305
-582.836	-12.488	-0.118	-0.077
-581.821	38.879	-0.341	-0.305
-580.806	800.000	0.029	-0.097
-579.792	800.000	-0.036	0.105
-578.777	-68.301	0.040	0.015
-577.763	30.663	-0.320	-0.275
-576.748	51.963	0.201	0.192
-575.733	107.422	-0.074	-0.088
-574.719	130.203	0.099	-0.128
-573.704	-200.000	0.007	-0.180
-572.690	-200.000	-0.034	-0.316
-571.675	-37.588	-0.170	0.091
-570.661	323.795	0.091	-0.175
-569.646	-55.650	-0.125	0.056
-568.631	190.277	-0.118	0.177
-567.617	374.613	0.203	0.415
-566.602	101.328	-0.025	-0.029
-565.588	197.954	-0.055	0.084
-564.573	-92.904	0.140	-0.039
-563.558	-65.319	-0.264	0.107
-562.544	508.410	-0.160	0.372
-561.529	-200.000	-0.023	0.213
-560.515	-28.541	-0.067	0.038
-559.500	67.130	-0.318	0.325
-558.485	293.083	-0.206	0.377
-557.471	159.337	-0.101	0.141
-556.456	15.508	0.173	-0.136
-555.442	218.652	-0.222	-0.356
-554.427	-60.957	0.069	0.029
-553.412	-120.284	0.230	0.039
-552.398	-170.291	0.154	-0.005
-551.383	263.699	-0.141	-0.246
-550.369	-200.000	0.026	-0.186
-549.354	-39.929	-0.106	0.056
-548.339	-97.265	0.066	-0.017
-547.325	-200.000	-0.041	-0.180
-546.310	-191.529	-0.335	-0.003
-545.296	-69.717	-0.288	0.110
-544.281	-117.799	-0.299	-0.054
-543.266	81.333	0.179	-0.193
-542.252	-200.000	-0.043	-0.265
-541.237	-135.603	0.283	-0.034
-540.223	519.759	-0.073	0.171
-539.208	-200.000	0.006	0.242
-538.193	-45.991	0.116	0.057
-537.179	-200.000	-0.025	-0.157
-536.164	-95.119	-0.198	-0.054
-535.150	484.276	-0.057	0.130
-534.135	-200.000	0.015	-0.145
-533.121	84.989	0.203	0.223
-532.106	-200.000	0.015	0.384
-531.091	204.183	-0.074	-0.114
-530.077	284.760	-0.061	-0.110
-529.062	86.551	0.093	0.102
-528.048	451.140	0.072	-0.160
-527.033	800.000	0.024	-0.091
-526.018	207.339	-0.161	0.252
-525.004	31.962	0.111	-0.096
-523.989	-23.663	0.094	0.057
-522.975	-200.000	-0.015	0.201
-521.960	800.000	-0.142	0.438
-520.945	-10.119	-0.159	0.106
-519.931	98.339	-0.167	0.192
-518.916	800.000	-0.037	0.153
-517.902	-200.000	-0.061	-0.383
-516.887	-200.000	-0.057	-0.369
-515.872	-112.924	-0.200	0.040
-514.858	-119.884	0.161	0.028
-513.843	-32.990	0.325	0.180
-512.829	-83.719	-0.375	-0.120
-511.814	74.048	-0.097	0.101
-510.799	-32.122	-0.191	0.107
-509.785	-13.127	-0.300	0.195
-508.770	130.122	0.128	0.164
-507.756	-200.000	-0.008	-0.120
-506.741	-73.314	0.140	-0.051
-505.726	-61.863	0.242	-0.101
-504.712	9.940	-0.199	0.151
-503.697	93.812	-0.174	-0.197
-502.683	-200.000	-0.005	-0.286
-501.668	-13.208	0.226	-0.146
-500.653	380.804	-0.169	-0.347
-499.639	-125.424	0.360	-0.055
-498.624	-145.574	-0.169	-0.015
-497.610	410.177	0.015	0.031
-496.595	800.000	-0.057	-0.210
-495.581	-200.000	-0.027	0.212
-494.566	-7.191	0.046	0.031
-493.551	197.104	0.078	0.119
-492.537	-200.000	-0.037	-0.173
-491.522	-41.691	-0.199	-0.102
-490.508	15.772	-0.394	-0.310
-489.493	135.612	-0.245	0.318
-488.478	-200.000	0.077	0.356
-487.464	-101.586	0.282	0.068
-486.449	-200.000	0.038	0.244
-485.435	10.845	-0.149	0.113
-484.420	108.090	0.066	0.078
-483.405	47.277	-0.151	0.140
-482.391	-76.042	0.150	0.053
-481.376	-157.290	0.024	-0.001
-480.362	472.720	0.068	0.153
-479.347	-80.125	0.157	-0.052
-478.332	-9.427	-0.184	0.122
-477.318	-200.000	-0.030	0.259
-476.303	800.000	-0.100	0.356
-475.289	-58.421	-0.167	0.072
-474.274	-102.625	0.224	-0.053
-473.259	533.465	-0.114	-0.270
-472.245	296.411	-0.164	-0.300
-471.230	-200.000	0.001	-0.040
-470.216	-13.635	0.224	-0.145
-469.201	-131.874	-0.107	0.014
-468.186	-200.000	-0.059	0.548
-467.172	-23.214	-0.238	0.143
-466.157	-200.000	0.019	0.190
-465.143	464.226	-0.019	-0.042
-464.128	63.787	0.194	-0.194
-463.113	-147.539	-0.253	0.021
-462.099	88.455	0.132	0.146
-461.084	800.000	-0.044	0.152
-460.070	-68.550	-0.303	-0.117
-459.055	800.000	-0.058	-0.249
-458.040	358.240	0.074	-0.147
-457.026	800.000	0.015	0.062
-456.011	-42.942	0.169	0.086
-454.997	-200.000	-0.003	0.339
-453.982	165.129	-0.282	0.398
-452.968	215.674	0.141	-0.223
-451.953	81.108	-0.185	-0.200
-450.938	-200.000	0.067	-0.577
-449.924	-188.225	0.211	0.003
-448.909	168.778	0.261	0.371
-447.895	-200.000	0.012	-0.213
-446.880	163.420	0.023	-0.032
-445.865	162.722	0.110	-0.154
-444.851	290.842	0.026	-0.047
-443.836	-200.000	0.004	-0.224
-442.822	432.106	0.139	0.301
-441.807	-200.000	0.023	-0.211
-440.792	-93.753	-0.098	-0.027
-439.778	-143.568	0.202	0.019
-438.763	47.783	0.150	-0.140
-437.749	312.746	0.090	-0.168
-436.734	800.000	0.041	0.146
-435.719	-200.000	0.007	0.036
-434.705	-5.593	-0.351	-0.240
-433.690	147.767	-0.060	-0.080
-432.676	-200.000	0.005	-0.158
-431.661	192.602	0.027	-0.041
-430.646	-178.092	0.205	-0.005
-429.632	-10.207	0.322	0.213
-428.617	-200.000	-0.023	-0.214
-427.603	154.355	-0.152	0.208
-426.588	-88.098	-0.101	-0.030
-425.573	-200.000	0.037	-0.261
-424.559	-16.127	-0.264	-0.167
-423.544	-13.149	-0.272	-0.176
-422.530	800.000	0.061	0.205
-421.515	3.629	-0.204	-0.148
-420.500	-200.000	0.006	-0.156
-419.486	-115.104	0.225	-0.043
-418.471	-17.440	-0.156	0.098
-417.457	-200.000	0.033	0.176
-416.442	-200.000	0.017	-0.109
-415.428	42.707	-0.079	-0.072
-414.413	-49.982	0.169	0.080
-413.398	196.192	0.100	0.152
-412.384	151.792	0.094	0.127
-411.369	-80.606	0.415	0.138
-410.355	310.659	0.035	-0.066
-409.340	-31.255	0.119	0.067
-408.325	20.126	0.238	0.191
-407.311	340.927	0.045	-0.088
-406.296	-200.000	0.062	-0.451
-405.282	-40.438	-0.212	-0.110
-404.267	292.766	0.071	0.129
-403.252	-67.960	0.275	-0.107
-402.238	800.000	0.085	0.278
-401.223	-50.828	-0.272	0.127
-400.209	-144.473	0.284	0.026
-399.194	800.000	0.038	-0.145
-398.179	800.000	0.064	0.192
-397.165	-93.301	-0.165	-0.046
-396.150	-131.762	0.387	-0.050
-395.136	291.343	0.076	-0.137
-394.121	-200.000	0.065	0.352
-393.106	74.694	0.150	0.157
-392.092	-200.000	-0.008	0.085
-391.077	24.253	0.090	-0.074
-390.063	-77.020	-0.183	-0.063
-389.048	-6.362	-0.243	-0.165
-388.033	622.287	-0.218	-0.547
-387.019	-64.120	0.184	-0.075
-386.004	800.000	0.089	-0.293
-384.990	-19.918	-0.110	0.068
-383.975	59.050	0.101	0.099
-382.960	800.000	0.135	0.424
-381.946	373.420	-0.052	-0.105
-380.931	800.000	0.051	-0.211
-379.917	-81.549	0.180	-0.059
-378.902	162.347	0.163	-0.227
-377.888	-200.000	0.014	-0.072
-376.873	-80.769	-0.147	0.049
-375.858	-187.976	-0.108	0.001
-374.844	-200.000	-0.021	0.242
-373.829	95.149	0.261	0.296
-372.815	-200.000	0.022	-0.462
-371.800	-32.785	-0.182	-0.101
-370.785	188.243	0.066	0.098
-369.771	-49.230	-0.030	-0.014
-368.756	800.000	0.063	0.192
-367.742	-74.725	-0.150	0.054
-366.727	-200.000	0.002	0.242
-365.712	-95.890	-0.144	-0.038
-364.698	187.242	0.141	0.209
-363.683	-127.849	0.112	-0.016
-362.669	146.083	0.279	0.372
-361.654	-172.994	-0.428	-0.013
-360.639	-88.543	0.207	-0.061
-359.625	98.085	-0.319	0.365
-358.610	-200.000	-0.037	0.194
-357.596	-200.000	0.029	0.141
-356.581	-200.000	-0.056	-0.271
-355.566	-70.993	-0.153	0.057
-354.552	156.577	-0.154	0.212
-353.537	-88.861	-0.112	0.033
-352.523	-200.000	-0.354	0.001
-351.508	-25.088	-0.377	-0.222
-350.493	-49.194	-0.200	-0.095
-349.479	-148.041	0.137	0.011
-348.464	-152.866	0.200	-0.014
-347.450	130.693	-0.121	0.154
-346.435	-200.000	-0.022	0.108
-345.420	800.000	0.046	-0.193
-344.406	34.959	-0.239	-0.208
-343.391	52.985	0.147	-0.140
-342.377	599.149	0.157	-0.388
-341.362	-25.959	0.211	-0.123
-340.348	-200.000	-0.002	0.128
-339.333	-125.001	0.434	-0.066
-338.318	70.190	-0.014	0.014
-337.304	-200.000	0.004	-0.039
-336.289	-122.736	-0.274	0.044
-335.275	-200.000	0.015	-0.106
-334.260	87.138	-0.189	0.208
-333.245	-151.475	0.461	-0.034
-332.231	-200.000	-0.007	-0.078
-331.216	800.000	0.064	-0.185
-330.202	232.957	0.117	-0.191
-329.187	22.242	-0.094	-0.076
-328.172	-101.296	0.236	-0.057
-327.158	-73.529	0.072	-0.026
-326.143	-33.979	-0.302	-0.165
-325.129	800.000	-0.051	-0.199
-324.114	35.219	-0.186	0.162
-323.099	27.382	-0.178	0.149
-322.085	-200.000	0.017	0.209
-321.070	32.978	0.198	0.171
-320.056	704.196	0.098	0.257
-319.041	-175.677	-0.329	0.009
-318.026	800.000	-0.014	-0.053
-317.012	166.468	0.060	-0.085
-315.997	555.144	0.065	0.155
-314.983	56.701	0.175	-0.169
-313.968	-79.090	0.405	0.136
-312.953	82.675	-0.155	-0.167
-311.939	-200.000	-0.055	-0.316
-310.924	352.710	0.068	-0.133
-309.910	-54.011	-0.125	-0.057
-308.895	-108.819	0.174	-0.037
-307.880	-61.728	-0.246	-0.102
-306.866	-36.028	-0.203	-0.109
-305.851	138.444	-0.204	-0.266
-304.837	304.183	0.087	-0.160
-303.822	146.000	0.057	-0.076
-302.807	14.691	0.145	-0.113
-301.793	-200.000	-0.004	0.141
-300.778	121.792	-0.142	0.175
-299.764	169.366	0.177	0.251
-298.749	800.000	0.069	0.196
-297.735	-200.000	0.040	-0.210
-296.720	-46.722	-0.192	0.093
-295.705	-66.003	-0.118	-0.047
-294.691	117.520	0.200	0.243
-293.676	185.903	-0.079	-0.117
-292.662	161.957	-0.115	0.159
-291.647	-200.000	0.021	0.240
-290.632	204.354	0.128	-0.197
-289.618	-89.212	0.214	-0.063
-288.603	19.582	-0.085	-0.067
-287.589	-77.603	-0.165	-0.057
-286.574	-79.953	0.093	-0.031
-285.559	-29.324	0.317	-0.180
-284.545	-139.681	-0.634	0.067
-283.530	212.315	0.112	0.174
-282.516	800.000	0.051	-0.159
-281.501	324.005	-0.048	0.091
-280.486	800.000	-0.025	-0.069
-279.472	-50.430	-0.193	0.090
-278.457	97.673	-0.066	0.076
-277.443	-110.670	0.482	-0.099
-276.428	-41.698	-0.068	-0.035
-275.413	776.954	-0.055	-0.149
-274.399	-175.667	-0.241	0.006
-273.384	-200.000	0.024	-0.233
-272.370	29.418	0.035	0.030
-271.355	-134.372	0.205	-0.025
-270.340	253.275	-0.122	-0.206
-269.326	800.000	-0.066	-0.212
-268.311	-89.314	0.124	-0.036
-267.297	-106.883	-0.332	0.073
-266.282	97.287	0.180	-0.205
-265.267	-165.727	0.205	0.009
-264.253	317.019	-0.055	0.102
-263.238	-151.445	-0.299	-0.022
-262.224	282.290	-0.071	-0.126
-261.209	800.000	0.052	-0.204
-260.195	800.000	-0.044	0.147
-259.180	-200.000	0.006	-0.117
-258.165	-200.000	0.011	0.089
-257.151	-164.006	0.271	0.012
-256.136	21.750	0.159	0.128
-255.122	-200.000	0.008	0.190
-254.107	7.132	-0.329	-0.243
-253.092	-200.000	-0.034	-0.216
-252.078	-62.297	0.070	-0.029
-251.063	-200.000	-0.035	0.563
-250.049	-137.567	0.369	-0.041
-249.034	-70.271	-0.147	-0.055
-248.019	-200.000	-0.038	-0.204
-247.005	800.000	-0.072	0.280
-245.990	-125.489	-0.200	-0.030
-244.976	800.000	-0.110	0.320
-243.961	95.156	0.238	0.268
-242.946	81.125	0.049	-0.052
-241.932	-125.381	0.158	-0.024
-240.917	-68.584	0.273	0.105
-239.903	-195.584	-0.281	-0.002
-238.888	-4.024	0.174	-0.119
-237.873	-183.873	-0.361	-0.006
-236.859	121.838	0.146	0.181
-235.844	115.189	-0.055	0.067
-234.830	-89.270	-0.397	0.116
-233.815	153.508	0.140	0.190
-232.800	275.760	0.108	0.190
-231.786	-98.510	-0.303	0.076
-230.771	-95.984	-0.099	-0.026
-229.757	-113.447	-0.120	-0.023
-228.742	-200.000	0.005	0.157
-227.727	165.764	0.071	0.099
-226.713	-166.463	-0.258	-0.011
-225.698	301.079	-0.119	0.218
-224.684	274.326	-0.101	-0.177
-223.669	800.000	0.063	-0.245
-222.655	-200.000	-0.085	0.501
-221.640	-200.000	-0.036	0.338
-220.625	162.397	0.169	0.234
-219.611	685.846	0.054	0.140
-218.596	11.282	0.126	0.095
-217.582	-90.084	-0.268	0.077
-216.567	329.751	0.139	0.263
-215.552	10.070	-0.061	0.046
-214.538	232.846	-0.170	0.277
-213.523	-200.000	-0.010	0.110
-212.509	-16.035	-0.078	0.049
-211.494	537.717	-0.032	0.074
-210.479	273.143	0.158	-0.275
-209.465	-36.307	0.323	-0.172
-208.450	-200.000	-0.058	-0.421
-207.436	155.122	-0.060	-0.081
-206.421	-27.388	-0.059	-0.034
-205.406	0.319	-0.197	-0.139
-204.392	151.193	0.123	0.166
-203.377	-132.918	0.226	-0.028
-202.363	132.570	0.108	-0.138
-201.348	-49.327	0.178	-0.084
-200.333	-139.525	0.302	-0.032
-199.319	22.676	-0.256	-0.207
-198.304	20.341	0.080	0.064
-197.290	361.771	-0.140	0.277
-196.275	337.307	-0.069	-0.132
-195.260	-200.000	0.025	-0.311
-194.246	39.084	0.094	-0.083
-193.231	-21.187	-0.310	-0.187
-192.217	-200.000	-0.011	0.083
-191.202	661.852	-0.080	-0.203
-190.187	161.725	-0.146	-0.202
-189.173	-180.117	0.239	-0.005
-188.158	63.557	0.171	0.169
-187.144	800.000	-0.070	0.196
-186.129	-164.415	-0.132	-0.006
-185.114	800.000	-0.053	0.162
-184.100	-26.923	0.240	0.138
-183.085	-94.777	-0.076	-0.020
-182.071	3.779	0.268	0.193
-181.056	-112.465	-0.120	0.024
-180.042	754.961	0.123	-0.327
-179.027	-37.541	0.194	0.102
-178.012	75.639	-0.152	0.158
-176.998	6.180	0.136	-0.100
-175.983	-200.000	0.004	0.025
-174.969	-21.109	0.202	0.122
-173.954	83.286	0.136	-0.147
-172.939	-58.120	0.307	0.132
-171.925	-200.000	0.316	-0.001
-170.910	681.236	0.075	0.192
-169.896	-60.809	-0.432	0.180
-168.881	155.260	-0.109	-0.147
-167.866	20.285	-0.160	0.128
-166.852	-80.576	-0.096	0.032
-165.837	-45.372	0.378	0.185
-164.823	-130.630	0.201	0.027
-163.808	8.979	-0.160	-0.119
-162.793	-200.000	0.005	-0.133
-161.779	-92.978	-0.237	0.065
-160.764	-157.621	0.107	0.006
-159.750	-58.016	0.111	-0.048
-158.735	194.965	0.454	-0.680
-157.720	75.274	0.221	-0.229
-156.706	-78.472	-0.189	0.064
-155.691	10.270	-0.192	-0.144
-154.677	-200.000	0.019	0.145
-153.662	-200.000	0.014	0.456
-152.647	12.898	-0.220	0.167
-151.633	-200.000	0.008	-0.282
-150.618	94.964	0.303	0.340
-149.604	-200.000	-0.006	-0.126
-148.589	-92.373	0.301	0.084
-147.574	-45.843	0.277	0.135
-146.560	-35.837	0.125	-0.066
-145.545	150.130	0.178	0.238
-144.531	-51.380	0.363	0.167
-143.516	800.000	0.064	-0.202
-142.502	123.787	0.157	0.194
-141.487	85.506	-0.107	0.116
-140.472	-104.177	0.164	0.037
-139.458	481.185	-0.032	0.071
-138.443	-51.992	-0.439	-0.201
-137.429	-147.705	-0.119	0.010
-136.414	800.000	-0.056	-0.172
-135.399	484.910	-0.037	0.083
-134.385	-200.000	-0.016	0.291
-133.370	-200.000	-0.016	0.290
-132.356	12.289	0.130	0.099
-131.341	-79.232	0.176	-0.059
-130.326	21.562	0.247	-0.198
-129.312	-112.621	-0.516	0.101
-128.297	425.251	0.095	-0.201
-127.283	-27.205	0.373	0.214
-126.268	40.494	-0.216	-0.192
-125.253	-200.000	0.004	-0.176
-124.239	-63.717	0.163	0.066
-123.224	11.391	0.116	0.088
-122.210	517.052	0.124	0.285
