DTS Sentinel unit serial number:	SN413079Multiplexer serial number:	ORYXHardware model number:	OX4-SRSoftware version number:	ORYX F/W v4.00 Oryx Data Collector v3.7.2.0data status	okinstallation	princeton_trtdifferential loss correction	single-endedforward channel	channel 3reverse channel	N/Adate	2019/09/13time	15:48:34forward acquisition time	60.00reverse acquisition time	0.00gamma	496.2192k internal	0.2307k external	0.2307temperature offset calibration	1.0142default loss term (dB/km)	0.3790temperature slope calibration	1.0000multiplexer offset coefficient	1.0000multiplexer slope coefficient	1.0000fibre end	0.00T internal ref (°C)	34.69T ext. ref 1 (°C)	4.78T ext. ref 2 (°C)	29.67length (m)	temperature (°C)	Stokes	anti-Stokes-747.200	-200.000	0.063	-0.370
-746.185	182.944	-0.222	-0.333
-745.171	-111.521	-0.120	-0.025
-744.156	-32.265	-0.096	0.055
-743.142	-200.000	0.055	0.320
-742.127	760.541	0.052	-0.142
-741.112	800.000	0.054	0.160
-740.098	800.000	-0.078	0.344
-739.083	131.168	-0.204	0.267
-738.069	-35.371	-0.193	0.106
-737.054	378.669	0.102	-0.213
-736.039	80.773	-0.212	-0.233
-735.025	-126.049	0.517	-0.079
-734.010	0.981	0.105	-0.076
-732.996	-200.000	0.030	-0.201
-731.981	-29.336	-0.100	0.058
-730.966	114.635	-0.310	0.384
-729.952	-200.000	0.012	-0.326
-728.937	-57.663	0.103	0.046
-727.923	150.871	-0.148	-0.204
-726.908	-78.476	-0.220	-0.077
-725.894	-173.133	0.094	0.003
-724.879	-85.339	-0.109	0.034
-723.864	65.659	0.145	-0.149
-722.850	-97.855	-0.049	0.013
-721.835	-165.197	-0.153	-0.007
-720.821	108.549	0.214	-0.259
-719.806	34.168	0.137	-0.121
-718.791	-57.531	0.105	0.047
-717.777	204.006	0.180	0.284
-716.762	117.013	-0.094	0.117
-715.748	89.208	-0.141	-0.159
-714.733	287.334	0.031	-0.057
-713.718	4.161	0.305	0.227
-712.704	19.860	0.023	0.019
-711.689	-98.484	-0.268	-0.070
-710.675	-62.503	-0.163	-0.069
-709.660	18.881	0.172	-0.140
-708.645	-130.787	-0.279	0.038
-707.631	8.362	0.226	-0.173
-706.616	468.460	-0.062	0.141
-705.602	800.000	0.028	0.117
-704.587	172.884	0.043	-0.063
-703.572	-200.000	0.020	-0.338
-702.558	-111.135	-0.071	0.015
-701.543	-61.459	-0.124	-0.053
-700.529	82.671	-0.194	-0.214
-699.514	800.000	-0.118	-0.445
-698.499	-86.337	-0.268	0.084
-697.485	23.839	0.230	-0.192
-696.470	-148.001	-0.027	0.002
-695.456	-90.313	-0.235	0.069
-694.441	19.176	0.121	0.099
-693.426	800.000	-0.025	-0.069
-692.412	-200.000	-0.016	-0.192
-691.397	-73.628	0.220	0.082
-690.383	800.000	0.124	-0.442
-689.368	-75.687	0.179	0.064
-688.354	-94.322	-0.088	0.024
-687.339	800.000	0.069	-0.244
-686.324	-200.000	0.032	0.141
-685.310	372.250	0.112	-0.232
-684.295	-123.969	-0.220	-0.035
-683.281	212.263	0.117	-0.187
-682.266	92.997	-0.128	-0.147
-681.251	-200.000	0.012	0.151
-680.237	-200.000	-0.008	-0.448
-679.222	-41.728	0.050	-0.026
-678.208	-128.007	0.281	-0.041
-677.193	43.893	-0.446	-0.415
-676.178	304.237	-0.016	0.030
-675.164	-64.598	0.268	0.110
-674.149	-200.000	0.017	0.151
-673.135	-200.000	-0.016	0.094
-672.120	109.939	-0.170	0.207
-671.105	43.373	-0.050	0.046
-670.091	-69.797	-0.395	-0.153
-669.076	-200.000	-0.011	-0.123
-668.062	-111.357	0.157	0.032
-667.047	-113.610	0.185	0.037
-666.032	800.000	-0.153	-0.494
-665.018	62.465	-0.096	0.098
-664.003	359.654	0.045	0.092
-662.989	-62.261	-0.445	0.188
-661.974	-96.572	0.316	-0.085
-660.959	194.296	0.085	-0.131
-659.945	63.481	-0.057	-0.057
-658.930	800.000	-0.033	0.095
-657.916	-36.937	-0.116	-0.063
-656.901	3.097	-0.162	0.119
-655.886	-54.156	-0.332	-0.153
-654.872	506.118	0.041	0.097
-653.857	135.583	0.072	-0.095
-652.843	-200.000	0.007	-0.259
-651.828	-88.467	-0.065	0.020
-650.814	-37.374	0.144	0.078
-649.799	-200.000	-0.012	-0.567
-648.784	-159.051	0.244	-0.014
-647.770	719.062	-0.011	0.031
-646.755	186.117	0.193	-0.290
-645.741	800.000	-0.033	-0.144
-644.726	245.060	-0.047	0.079
-643.711	-75.482	-0.175	0.063
-642.697	65.400	0.058	-0.059
-641.682	19.520	0.050	0.041
-640.668	-154.892	0.221	0.015
-639.653	-89.277	0.202	0.060
-638.638	-129.901	-0.213	-0.030
-637.624	-52.044	0.424	0.199
-636.609	-98.275	0.256	0.067
-635.595	-200.000	-0.014	-0.196
-634.580	-200.000	0.007	0.079
-633.565	-194.035	-0.114	0.001
-632.551	-27.645	0.181	-0.107
-631.536	-28.014	-0.091	0.053
-630.522	150.214	-0.032	-0.043
-629.507	-17.801	-0.130	-0.083
-628.492	-42.622	0.086	-0.045
-627.478	-200.000	0.005	0.189
-626.463	-103.199	-0.240	-0.057
-625.449	-30.409	-0.189	-0.108
-624.434	139.941	-0.076	0.101
-623.419	58.676	0.191	0.190
-622.405	246.320	0.142	0.242
-621.390	800.000	0.083	-0.267
-620.376	254.538	-0.115	-0.200
-619.361	505.234	-0.041	0.096
-618.346	-14.722	0.054	-0.035
-617.332	11.719	0.095	-0.073
-616.317	51.407	-0.045	0.043
-615.303	325.674	0.052	-0.100
-614.288	800.000	-0.052	0.161
-613.273	69.384	0.103	-0.107
-612.259	-200.000	0.030	-0.249
-611.244	-200.000	0.040	-0.220
-610.230	776.606	-0.043	-0.119
-609.215	151.896	-0.043	0.060
-608.201	321.318	0.079	-0.153
-607.186	42.964	0.068	-0.062
-606.171	108.864	-0.071	0.086
-605.157	68.010	0.155	0.160
-604.142	59.541	-0.203	0.203
-603.128	-200.000	-0.015	-0.142
-602.113	102.197	0.079	0.094
-601.098	-135.909	-0.289	0.034
-600.084	68.988	0.073	0.076
-599.069	-200.000	0.001	-0.076
-598.055	444.073	-0.097	-0.215
-597.040	81.241	-0.190	-0.208
-596.025	-67.247	-0.046	0.018
-595.011	-76.565	0.120	0.042
-593.996	377.275	0.050	-0.103
-592.982	189.023	0.075	0.113
-591.967	207.439	0.080	0.126
-590.952	-166.583	0.287	-0.012
-589.938	-19.378	0.174	0.109
-588.923	-120.280	0.046	0.008
-587.909	111.533	-0.224	-0.274
-586.894	142.367	0.153	-0.205
-585.879	-99.340	-0.073	-0.019
-584.865	227.435	0.169	0.278
-583.850	-200.000	0.066	0.350
-582.836	-51.236	-0.317	0.150
-581.821	-200.000	0.025	-0.296
-580.806	-200.000	-0.018	0.270
-579.792	56.214	-0.361	-0.354
-578.777	-76.928	0.044	-0.016
-577.763	267.909	0.131	0.233
-576.748	-176.933	0.056	-0.001
-575.733	42.806	-0.106	0.097
-574.719	107.002	0.056	-0.067
-573.704	-200.000	-0.030	0.276
-572.690	-54.450	0.055	0.025
-571.675	-188.240	0.159	0.002
-570.661	90.806	0.397	-0.449
-569.646	256.944	-0.101	0.175
-568.631	-156.891	0.233	0.014
-567.617	160.672	-0.004	-0.006
-566.602	253.810	0.121	0.209
-565.588	686.275	-0.089	0.235
-564.573	169.138	-0.185	0.267
-563.558	-42.146	0.180	0.093
-562.544	626.554	-0.070	-0.177
-561.529	-68.313	-0.276	0.108
-560.515	-2.352	0.124	-0.088
-559.500	-164.913	-0.172	-0.008
-558.485	355.071	0.123	-0.247
-557.471	-85.639	-0.087	-0.027
-556.456	-200.000	-0.032	0.293
-555.442	-28.354	-0.161	-0.094
-554.427	-200.000	0.005	-0.437
-553.412	-94.761	0.236	-0.065
-552.398	19.331	-0.083	0.067
-551.383	117.213	-0.245	-0.303
-550.369	-200.000	-0.015	-0.224
-549.354	-82.312	0.168	-0.055
-548.339	258.097	-0.122	0.213
-547.325	25.489	-0.123	-0.103
-546.310	-154.960	-0.131	0.009
-545.296	295.592	-0.033	0.062
-544.281	223.002	-0.121	0.197
-543.266	800.000	0.116	-0.323
-542.252	-200.000	0.001	0.153
-541.237	-200.000	-0.008	0.310
-540.223	382.317	0.124	-0.258
-539.208	-173.336	0.110	0.003
-538.193	-17.752	0.230	0.145
-537.179	247.077	-0.012	-0.020
-536.164	264.727	0.220	-0.386
-535.150	422.234	-0.174	-0.378
-534.135	143.983	0.205	-0.275
-533.121	147.909	-0.154	-0.209
-532.106	101.188	-0.189	-0.222
-531.091	80.871	-0.184	-0.200
-530.077	-200.000	0.012	-0.157
-529.062	-160.186	-0.123	-0.007
-528.048	45.087	-0.171	-0.159
-527.033	176.617	0.048	-0.071
-526.018	83.727	-0.048	-0.053
-525.004	31.398	-0.228	0.197
-523.989	-70.335	0.229	0.087
-522.975	-37.914	0.082	0.044
-521.960	-103.777	0.209	0.049
-520.945	-200.000	-0.086	-0.391
-519.931	75.320	-0.211	-0.225
-518.916	-10.865	-0.131	0.087
-517.902	-200.000	-0.023	-0.116
-516.887	-127.110	-0.302	-0.045
-515.872	52.203	-0.394	0.378
-514.858	-110.582	0.278	0.058
-513.843	-39.812	-0.059	-0.031
-512.829	-200.000	-0.019	-0.200
-511.814	-150.769	-0.222	-0.017
-510.799	14.803	-0.085	0.067
-509.785	-110.755	0.270	0.056
-508.770	-61.845	-0.263	-0.111
-507.756	272.131	0.089	0.158
-506.741	-30.952	-0.220	-0.125
-505.726	-200.000	-0.011	0.250
-504.712	-62.512	-0.145	0.061
-503.697	-14.121	0.155	-0.101
-502.683	-200.000	-0.006	0.238
-501.668	-143.942	0.056	-0.005
-500.653	32.800	-0.100	-0.087
-499.639	800.000	0.106	0.396
-498.624	228.250	-0.114	0.186
-497.610	-109.349	0.065	0.014
-496.595	-157.679	0.199	0.012
-495.581	-83.553	-0.086	-0.028
-494.566	800.000	0.012	0.048
-493.551	-158.353	-0.168	0.010
-492.537	-116.419	-0.143	-0.027
-491.522	-102.607	-0.139	-0.033
-490.508	563.396	0.044	0.106
-489.493	-200.000	-0.038	0.292
-488.478	-91.360	0.179	0.051
-487.464	-64.436	0.354	0.145
-486.449	124.075	-0.255	0.323
-485.435	-112.654	0.183	0.037
-484.420	-200.000	-0.024	0.193
-483.405	800.000	0.011	0.049
-482.391	-167.739	-0.073	0.003
-481.376	-155.432	-0.183	0.012
-480.362	-137.475	-0.129	-0.015
-479.347	46.461	0.187	0.174
-478.332	-109.159	0.113	0.024
-477.318	800.000	-0.052	0.175
-476.303	4.193	-0.068	-0.050
-475.289	184.126	-0.123	-0.184
-474.274	-2.382	-0.144	0.102
-473.259	-93.322	-0.327	-0.091
-472.245	-32.629	-0.228	0.128
-471.230	133.095	0.041	-0.054
-470.216	-200.000	0.086	-0.395
-469.201	-200.000	-0.031	0.192
-468.186	-113.995	-0.205	-0.040
-467.172	108.971	0.175	-0.211
-466.157	232.364	-0.170	-0.280
-465.143	-113.222	0.182	-0.036
-464.128	-200.000	0.026	0.327
-463.113	117.170	0.099	0.122
-462.099	-64.405	-0.202	0.083
-461.084	-200.000	0.011	0.066
-460.070	-200.000	0.013	0.189
-459.055	395.523	-0.100	0.210
-458.040	167.588	-0.069	-0.099
-457.026	-176.704	0.124	0.003
-456.011	46.184	0.212	0.197
-454.997	-50.716	0.100	-0.047
-453.982	137.894	-0.055	0.072
-452.968	130.645	-0.228	-0.294
-451.953	286.934	-0.163	-0.296
-450.938	-47.912	-0.217	0.106
-449.924	800.000	-0.111	0.445
-448.909	-112.435	0.123	-0.025
-447.895	-87.505	-0.155	-0.047
-446.880	612.543	-0.085	0.215
-445.865	-25.340	-0.347	0.206
-444.851	-52.756	0.430	-0.200
-443.836	86.069	0.224	-0.248
-442.822	112.980	-0.072	-0.088
-441.807	800.000	-0.082	0.286
-440.792	383.619	-0.076	0.158
-439.778	44.437	0.085	-0.079
-438.763	-120.144	-0.143	-0.025
-437.749	40.798	-0.208	-0.188
-436.734	-200.000	0.008	-0.139
-435.719	-108.485	0.126	0.027
-434.705	195.040	0.193	-0.294
-433.690	-200.000	-0.054	0.284
-432.676	-200.000	-0.022	0.141
-431.661	-91.740	-0.398	0.114
-430.646	-55.372	0.276	0.125
-429.632	245.791	0.085	0.144
-428.617	-200.000	-0.011	0.183
-427.603	800.000	-0.098	-0.273
-426.588	-69.431	-0.282	-0.108
-425.573	-99.404	-0.103	0.026
-424.559	15.425	-0.254	-0.200
-423.544	-124.631	-0.217	-0.034
-422.530	-85.620	0.168	-0.053
-421.515	-200.000	-0.008	0.308
-420.500	107.765	-0.347	-0.415
-419.486	66.065	0.045	-0.046
-418.471	134.740	-0.094	0.123
-417.457	476.741	0.126	-0.286
-416.442	800.000	0.069	0.214
-415.428	56.262	-0.113	0.110
-414.413	800.000	-0.128	-0.543
-413.398	44.247	0.342	0.315
-412.384	9.874	-0.211	0.161
-411.369	-1.097	-0.135	-0.096
-410.355	210.544	-0.070	-0.110
-409.340	-78.772	0.246	-0.084
-408.325	222.898	0.124	0.200
-407.311	-19.755	-0.060	0.037
-406.296	442.556	-0.053	-0.116
-405.282	201.465	0.060	-0.092
-404.267	800.000	-0.034	-0.117
-403.252	-200.000	-0.079	-0.645
-402.238	-65.618	-0.241	0.097
-401.223	-133.929	0.331	0.041
-400.209	13.706	-0.236	-0.184
-399.194	-131.830	0.240	0.032
-398.179	351.231	0.087	-0.173
-397.165	-115.612	0.129	-0.024
-396.150	12.443	-0.194	-0.150
-395.136	-65.519	-0.282	0.113
-394.121	-200.000	0.037	-0.239
-393.106	17.594	0.168	0.134
-392.092	-91.746	-0.103	0.029
-391.077	-122.986	0.210	-0.034
-390.063	174.530	0.073	-0.106
-389.048	-4.705	0.069	-0.048
-388.033	164.376	0.192	0.271
-387.019	296.799	-0.241	0.443
-386.004	85.420	-0.037	-0.041
-384.990	315.956	-0.095	0.181
-383.975	-200.000	0.001	-0.087
-382.960	-91.159	0.257	0.074
-381.946	800.000	-0.014	0.038
-380.931	-200.000	-0.103	-0.500
-379.917	22.523	-0.178	0.146
-378.902	-148.362	0.153	0.013
-377.888	-79.831	-0.272	-0.092
-376.873	-108.027	0.087	-0.019
-375.858	800.000	0.029	-0.099
-374.844	800.000	-0.060	0.204
-373.829	-139.164	-0.454	0.049
-372.815	-65.517	0.170	-0.069
-371.800	412.237	0.068	0.146
-370.785	77.999	0.133	-0.142
-369.771	81.561	-0.080	0.087
-368.756	-181.699	-0.271	-0.005
-367.742	-200.000	-0.000	0.210
-366.727	45.773	0.016	0.015
-365.712	351.665	-0.101	0.201
-364.698	800.000	0.012	0.036
-363.683	-200.000	-0.008	0.365
-362.669	218.026	0.313	-0.500
-361.654	-93.337	-0.271	-0.075
-360.639	257.578	-0.078	-0.135
-359.625	177.583	-0.150	0.219
-358.610	-200.000	-0.002	-0.199
-357.596	-105.009	-0.225	-0.052
-356.581	127.450	-0.194	-0.246
-355.566	-99.521	-0.272	0.068
-354.552	-10.722	-0.316	-0.210
-353.537	-108.955	0.372	-0.079
-352.523	-173.912	0.064	0.002
-351.508	-136.214	0.226	0.026
-350.493	-85.034	0.377	-0.118
-349.479	-14.162	-0.223	0.144
-348.464	275.731	-0.131	-0.232
-347.450	-109.773	-0.283	-0.060
-346.435	800.000	-0.056	-0.187
-345.420	-13.426	0.016	0.010
-344.406	-29.696	-0.541	0.309
-343.391	-83.625	-0.136	0.043
-342.377	22.877	0.115	-0.095
-341.362	-99.178	-0.396	0.100
-340.348	4.497	-0.124	0.091
-339.333	107.787	0.078	0.093
-338.318	121.430	-0.183	0.228
-337.304	787.211	0.121	0.332
-336.289	-77.772	0.347	0.120
-335.275	-200.000	0.038	0.232
-334.260	-105.450	-0.193	-0.044
-333.245	800.000	0.022	-0.080
-332.231	-200.000	0.010	-0.147
-331.216	529.966	-0.067	-0.158
-330.202	-200.000	-0.049	0.522
-329.187	-200.000	0.012	-0.146
-328.172	-85.688	0.188	0.059
-327.158	-52.765	0.201	-0.093
-326.143	-48.966	0.161	-0.077
-325.129	-73.117	-0.020	0.007
-324.114	-26.807	-0.165	0.097
-323.099	-133.496	0.309	-0.039
-322.085	-200.000	0.014	0.105
-321.070	471.075	0.064	0.145
-320.056	69.013	0.209	0.214
-319.041	-200.000	-0.013	-0.066
-318.026	105.503	0.088	0.104
-317.012	-37.637	0.284	0.151
-315.997	-72.502	0.256	-0.095
-314.983	-128.661	0.381	0.054
-313.968	800.000	-0.060	0.227
-312.953	169.197	0.192	0.274
-311.939	-200.000	-0.022	0.266
-310.924	800.000	-0.121	-0.364
-309.910	-96.540	0.068	0.018
-308.895	225.982	-0.186	-0.302
-307.880	39.722	0.223	-0.200
-306.866	-57.997	0.254	-0.111
-305.851	237.264	0.061	-0.101
-304.837	-24.794	0.220	0.131
-303.822	-36.555	-0.096	0.052
-302.807	2.786	0.497	0.360
-301.793	21.762	0.472	-0.384
-300.778	-64.502	0.142	-0.058
-299.764	-127.244	-0.372	-0.054
-298.749	-0.818	0.390	-0.276
-297.735	-172.512	-0.391	-0.012
-296.720	-165.707	0.091	0.004
-295.705	36.955	0.191	0.169
-294.691	-200.000	0.035	0.250
-293.676	-200.000	0.026	0.120
-292.662	-200.000	-0.018	-0.172
-291.647	50.863	-0.117	-0.111
-290.632	-22.529	-0.402	-0.243
-289.618	-200.000	0.024	0.234
-288.603	166.665	0.054	-0.076
-287.589	-120.421	-0.086	-0.015
-286.574	-106.920	-0.081	0.018
-285.559	-53.795	-0.189	0.086
-284.545	-131.144	0.266	0.035
-283.530	-0.261	0.073	-0.052
-282.516	800.000	-0.102	-0.302
-281.501	-23.970	0.184	-0.110
-280.486	-104.241	0.361	-0.084
-279.472	-63.616	0.237	-0.097
-278.457	61.675	0.185	-0.184
-277.443	-200.000	-0.038	-0.185
-276.428	53.758	-0.046	0.044
-275.413	44.307	-0.103	0.094
-274.399	156.685	-0.107	0.147
-273.384	470.061	-0.036	0.082
-272.370	-30.871	-0.442	-0.250
-271.355	-10.411	0.074	-0.049
-270.340	-200.000	-0.015	0.101
-269.326	246.405	0.170	0.285
-268.311	216.559	-0.111	-0.177
-267.297	352.497	0.101	0.200
-266.282	13.518	0.118	-0.091
-265.267	14.381	0.304	-0.236
-264.253	28.154	0.024	0.020
-263.238	-81.026	0.303	-0.100
-262.224	-131.197	0.172	0.023
-261.209	245.739	0.096	-0.162
-260.195	77.785	-0.177	-0.188
-259.180	-200.000	-0.005	-0.103
-258.165	-16.504	-0.128	0.081
-257.151	-97.824	-0.152	0.039
-256.136	-157.966	0.246	0.014
-255.122	-200.000	0.017	0.236
-254.107	90.073	0.068	0.075
-253.092	149.840	-0.295	0.399
-252.078	418.762	-0.069	-0.148
-251.063	-66.792	0.154	0.061
-250.049	-200.000	0.008	0.106
-249.034	82.778	0.141	-0.152
-248.019	39.714	0.065	-0.059
-247.005	544.046	0.132	-0.314
-245.990	-122.236	-0.249	-0.041
-244.976	-200.000	-0.039	-0.239
-243.961	-101.668	0.319	0.077
-242.946	151.903	-0.145	0.197
-241.932	-200.000	0.006	0.173
-240.917	401.131	0.042	-0.087
-239.903	-200.000	0.038	0.186
-238.888	88.486	0.185	0.204
-237.873	-200.000	-0.001	-0.037
-236.859	-52.887	0.408	-0.187
-235.844	0.549	0.065	0.046
-234.830	-40.163	0.196	0.102
-233.815	800.000	0.025	0.095
-232.800	58.273	0.241	0.235
-231.786	-200.000	0.006	0.029
-230.771	-200.000	0.059	0.259
-229.757	140.415	-0.172	-0.226
-228.742	-43.170	0.275	0.139
-227.727	-109.114	0.286	0.061
-226.713	-11.298	0.260	0.171
-225.698	-73.858	0.118	-0.043
-224.684	-108.229	0.031	0.007
-223.669	-92.305	-0.470	0.132
-222.655	-200.000	-0.006	0.257
-221.640	-135.978	0.132	0.015
-220.625	188.755	-0.173	-0.258
-219.611	800.000	0.049	-0.172
-218.596	-200.000	0.066	-0.382
-217.582	55.613	-0.202	0.194
-216.567	27.796	0.293	0.246
-215.552	800.000	0.041	0.145
-214.538	-160.621	0.343	0.018
-213.523	-57.472	0.273	-0.119
-212.509	-200.000	0.066	-0.419
-211.494	-114.971	-0.203	-0.038
-210.479	800.000	0.050	0.184
-209.465	512.878	-0.016	0.038
-208.450	800.000	0.022	-0.069
-207.436	-114.231	-0.104	-0.020
-206.421	286.943	0.015	0.027
-205.406	-200.000	-0.006	-0.168
-204.392	1.096	-0.222	0.158
-203.377	-15.145	-0.307	0.196
-202.363	-51.617	0.330	0.153
-201.348	6.479	-0.180	-0.133
-200.333	-74.889	0.218	0.078
-199.319	-57.072	0.163	0.071
-198.304	216.225	0.216	0.341
-197.290	-138.022	-0.216	0.024
-196.275	800.000	0.068	-0.226
-195.260	-72.762	-0.412	0.151
-194.246	-136.316	0.393	-0.046
-193.231	-70.897	-0.138	-0.052
-192.217	4.267	0.125	-0.091
-191.202	19.323	0.269	-0.215
-190.187	224.002	0.165	0.265
-189.173	751.038	0.083	0.224
-188.158	-200.000	-0.035	-0.228
-187.144	39.352	0.235	0.209
-186.129	26.652	0.174	-0.145
-185.114	110.580	-0.082	0.098
-184.100	169.904	-0.286	-0.406
-183.085	-64.097	0.338	-0.137
-182.071	800.000	-0.053	-0.201
-181.056	800.000	-0.078	0.316
-180.042	290.806	-0.074	-0.134
-179.027	167.004	-0.124	0.175
-178.012	180.771	-0.041	0.060
-176.998	234.142	-0.113	0.185
-175.983	37.050	-0.068	-0.060
-174.969	-13.523	-0.241	0.155
-173.954	353.792	-0.062	-0.123
-172.939	-120.144	0.210	-0.036
-171.925	31.317	-0.374	0.320
-170.910	71.339	0.142	-0.147
-169.896	-65.958	0.193	-0.077
-168.881	182.832	0.082	0.120
-167.866	-8.008	0.351	0.236
-166.852	-131.016	-0.217	0.029
-165.837	-138.558	-0.391	0.043
-164.823	96.170	-0.139	0.158
-163.808	-7.086	-0.159	-0.107
-162.793	-79.016	0.102	-0.034
-161.779	13.834	-0.124	-0.096
-160.764	-53.871	-0.249	0.113
-159.750	-75.806	-0.204	0.072
-158.735	229.647	0.065	-0.106
-157.720	-94.351	-0.120	0.033
-156.706	-121.996	-0.111	-0.018
-155.691	165.417	0.036	0.051
-154.677	270.848	0.055	-0.095
-153.662	474.950	-0.145	-0.326
-152.647	121.139	-0.109	0.135
-151.633	8.466	-0.235	0.176
-150.618	-102.416	-0.122	0.029
-149.604	50.783	0.159	-0.150
-148.589	289.130	-0.161	0.290
-147.574	267.581	-0.197	-0.343
-146.560	456.555	-0.129	-0.284
-145.545	44.603	-0.022	0.020
-144.531	800.000	-0.049	-0.197
-143.516	2.474	0.172	0.124
-142.502	-200.000	0.028	0.313
-141.487	-51.519	0.070	0.032
-140.472	498.993	-0.097	-0.223
-139.458	-133.985	-0.290	-0.036
-138.443	-185.917	-0.276	0.004
-137.429	-60.841	0.128	0.054
-136.414	225.846	-0.094	0.151
-135.399	-200.000	-0.002	0.202
-134.385	-35.923	0.209	-0.112
-133.370	240.537	0.174	0.289
-132.356	67.179	-0.066	-0.067
-131.341	-200.000	-0.019	0.101
-130.326	-102.482	-0.165	0.039
-129.312	161.402	0.205	0.284
-128.297	-114.557	0.123	0.023
-127.283	500.788	0.043	-0.099
-126.268	377.724	-0.194	-0.394
-125.253	-98.457	-0.181	0.046
-124.239	-200.000	-0.070	0.306
-123.224	800.000	0.064	0.230
-122.210	159.628	0.044	-0.060
-121.195	-110.645	0.396	-0.081
