DTS Sentinel unit serial number:	SN413079Multiplexer serial number:	ORYXHardware model number:	OX4-SRSoftware version number:	ORYX F/W v4.00 Oryx Data Collector v3.7.2.0data status	okinstallation	princeton_trtdifferential loss correction	single-endedforward channel	channel 3reverse channel	N/Adate	2019/09/17time	13:28:34forward acquisition time	60.00reverse acquisition time	0.00gamma	496.2192k internal	0.2307k external	0.2307temperature offset calibration	0.9958default loss term (dB/km)	0.3790temperature slope calibration	1.0000multiplexer offset coefficient	1.0000multiplexer slope coefficient	1.0000fibre end	0.00T internal ref (°C)	34.50T ext. ref 1 (°C)	0.42T ext. ref 2 (°C)	31.41length (m)	temperature (°C)	Stokes	anti-Stokes-747.200	-154.781	-0.008	-0.001
-746.185	-20.506	0.419	0.262
-745.171	-200.000	-0.001	0.305
-744.156	-200.000	0.019	0.174
-743.142	17.158	-0.124	-0.100
-742.127	303.503	0.323	0.609
-741.112	69.001	-0.144	-0.151
-740.098	707.461	-0.082	0.220
-739.083	287.089	-0.171	0.315
-738.069	469.336	-0.130	0.297
-737.054	71.574	0.336	-0.355
-736.039	-4.974	-0.204	-0.143
-735.025	-25.973	0.328	0.196
-734.010	90.410	-0.083	0.095
-732.996	-74.632	-0.287	0.105
-731.981	-35.501	0.322	0.178
-730.966	800.000	-0.069	-0.270
-729.952	-200.000	0.006	-0.126
-728.937	-8.629	-0.168	0.114
-727.923	-14.458	0.204	-0.134
-726.908	-177.275	-0.234	-0.006
-725.894	126.767	-0.124	-0.159
-724.879	122.664	-0.218	0.276
-723.864	800.000	-0.066	0.201
-722.850	-200.000	-0.028	0.159
-721.835	-10.275	-0.218	-0.147
-720.821	400.391	0.026	0.054
-719.806	156.016	0.259	-0.363
-718.791	-200.000	-0.010	-0.126
-717.777	-63.616	0.285	0.119
-716.762	-78.256	0.293	0.102
-715.748	800.000	-0.029	-0.108
-714.733	190.756	-0.159	-0.242
-713.718	0.235	0.018	0.013
-712.704	-11.561	-0.087	-0.058
-711.689	-200.000	0.058	-0.309
-710.675	-200.000	-0.034	-0.434
-709.660	-68.055	-0.440	-0.174
-708.645	800.000	0.044	0.139
-707.631	35.135	-0.258	-0.229
-706.616	233.765	0.063	0.106
-705.602	-152.147	0.199	0.015
-704.587	-35.101	0.273	0.151
-703.572	-108.667	0.102	-0.022
-702.558	306.330	0.003	-0.006
-701.543	-47.310	0.039	-0.019
-700.529	-100.901	-0.621	-0.155
-699.514	-3.483	-0.044	0.031
-698.499	254.514	-0.065	0.112
-697.485	5.722	0.407	-0.306
-696.470	-104.028	0.166	-0.039
-695.456	-31.841	-0.285	-0.162
-694.441	-160.094	-0.334	0.018
-693.426	-200.000	0.034	-0.393
-692.412	-200.000	0.019	-0.117
-691.397	800.000	0.100	-0.296
-690.383	-64.703	0.228	0.094
-689.368	-15.264	-0.135	0.088
-688.354	-99.488	-0.115	0.029
-687.339	-200.000	0.003	-0.173
-686.324	800.000	-0.074	-0.304
-685.310	109.990	0.402	0.490
-684.295	61.557	-0.068	0.068
-683.281	-16.638	0.137	-0.088
-682.266	112.828	-0.120	-0.147
-681.251	-85.611	-0.196	-0.062
-680.237	10.290	0.292	0.225
-679.222	-118.191	-0.307	-0.056
-678.208	-69.834	-0.304	-0.118
-677.193	4.331	-0.180	0.134
-676.178	243.804	-0.138	0.234
-675.164	-158.652	0.346	-0.020
-674.149	59.697	0.168	-0.168
-673.135	669.845	-0.046	0.120
-672.120	-89.370	0.225	-0.067
-671.105	800.000	0.108	-0.338
-670.091	74.273	-0.067	0.071
-669.076	-200.000	-0.004	0.292
-668.062	-200.000	-0.028	-0.149
-667.047	800.000	0.047	-0.162
-666.032	-147.046	0.304	-0.026
-665.018	461.266	-0.211	0.477
-664.003	-200.000	0.011	0.347
-662.989	-130.357	0.398	-0.055
-661.974	46.730	-0.044	-0.042
-660.959	-32.277	0.223	0.126
-659.945	-51.722	-0.302	-0.143
-658.930	-200.000	-0.021	-0.252
-657.916	144.895	0.073	-0.100
-656.901	-7.770	-0.164	0.112
-655.886	-53.241	-0.178	-0.083
-654.872	96.981	0.050	0.058
-653.857	770.313	0.035	0.098
-652.843	-33.171	0.212	-0.119
-651.828	-200.000	-0.005	-0.174
-650.814	74.208	-0.168	-0.179
-649.799	-107.397	-0.264	0.059
-648.784	-115.312	-0.294	0.056
-647.770	-91.978	-0.180	0.052
-646.755	-2.230	-0.306	-0.218
-645.741	-152.962	0.217	-0.016
-644.726	-162.736	0.219	-0.011
-643.711	-200.000	-0.024	0.182
-642.697	-23.767	0.147	-0.089
-641.682	-64.919	-0.256	-0.105
-640.668	-200.000	0.514	-0.001
-639.653	335.339	0.138	-0.271
-638.638	-147.477	-0.215	0.018
-637.624	-200.000	-0.009	0.068
-636.609	-80.109	-0.184	-0.062
-635.595	12.028	-0.182	0.142
-634.580	-17.535	-0.042	-0.026
-633.565	800.000	-0.109	-0.396
-632.551	330.541	0.165	-0.321
-631.536	-31.434	-0.158	0.090
-630.522	181.087	-0.177	-0.263
-629.507	800.000	0.073	-0.207
-628.492	55.113	-0.298	-0.291
-627.478	307.194	0.081	-0.153
-626.463	320.466	-0.037	-0.071
-625.449	-9.734	-0.144	0.097
-624.434	-24.113	-0.381	0.230
-623.419	-37.913	0.094	-0.051
-622.405	213.049	0.108	0.173
-621.390	-22.992	0.145	0.088
-620.376	-9.678	0.394	0.266
-619.361	-47.455	-0.059	0.029
-618.346	800.000	-0.044	-0.167
-617.332	800.000	0.047	0.169
-616.317	541.128	-0.116	-0.280
-615.303	800.000	-0.047	-0.202
-614.288	170.216	0.116	0.168
-613.273	155.556	-0.338	-0.470
-612.259	92.925	-0.297	-0.340
-611.244	-181.597	0.237	0.005
-610.230	-63.092	-0.221	0.092
-609.215	-139.869	-0.188	0.020
-608.201	-146.705	0.121	-0.011
-607.186	-123.758	-0.056	-0.009
-606.171	-129.079	0.366	-0.052
-605.157	-46.075	-0.257	-0.128
-604.142	21.956	-0.327	0.269
-603.128	-42.842	-0.044	-0.023
-602.113	-200.000	-0.013	-0.110
-601.098	-24.710	-0.154	0.093
-600.084	-200.000	-0.002	-0.158
-599.069	-62.913	0.248	-0.104
-598.055	-89.572	0.200	-0.060
-597.040	800.000	0.074	-0.255
-596.025	-200.000	0.002	0.228
-595.011	-90.920	-0.310	0.090
-593.996	-69.951	0.117	-0.045
-592.982	76.216	-0.324	-0.347
-591.967	157.470	-0.101	0.142
-590.952	-109.894	-0.280	-0.059
-589.938	271.631	-0.044	0.079
-588.923	-119.495	-0.128	-0.022
-587.909	-200.000	0.026	0.154
-586.894	-138.683	0.303	-0.033
-585.879	714.418	-0.037	-0.100
-584.865	800.000	-0.078	0.264
-583.850	-99.942	0.099	0.025
-582.836	-200.000	0.011	0.085
-581.821	-32.841	-0.268	-0.151
-580.806	-134.749	-0.217	0.027
-579.792	24.262	0.078	-0.065
-578.777	15.741	-0.019	0.015
-577.763	-46.860	0.230	0.114
-576.748	-73.331	0.177	-0.065
-575.733	460.401	-0.147	0.331
-574.719	113.840	-0.215	0.264
-573.704	49.550	0.161	-0.153
-572.690	-200.000	0.032	0.439
-571.675	800.000	-0.042	0.159
-570.661	-85.890	0.117	-0.037
-569.646	800.000	-0.063	-0.274
-568.631	-200.000	-0.240	0.001
-567.617	-62.547	-0.161	-0.067
-566.602	800.000	-0.081	0.302
-565.588	-57.601	0.095	0.042
-564.573	800.000	-0.062	-0.208
-563.558	-18.470	0.212	0.134
-562.544	-200.000	0.029	0.338
-561.529	-200.000	0.012	0.220
-560.515	-104.353	0.146	-0.034
-559.500	-16.700	0.118	-0.075
-558.485	-93.802	0.301	-0.084
-557.471	244.632	0.023	-0.039
-556.456	199.610	-0.135	-0.209
-555.442	-200.000	-0.007	-0.089
-554.427	-17.116	-0.265	0.169
-553.412	-139.986	0.223	0.024
-552.398	149.979	-0.199	0.272
-551.383	-184.055	0.034	0.001
-550.369	-200.000	-0.002	-0.132
-549.354	-35.764	-0.129	0.070
-548.339	-200.000	-0.018	-0.228
-547.325	-26.594	-0.247	0.146
-546.310	-107.056	-0.151	0.034
-545.296	17.986	-0.061	0.049
-544.281	-191.461	0.141	-0.001
-543.266	-61.442	0.121	-0.052
-542.252	137.475	-0.168	-0.222
-541.237	-200.000	-0.042	-0.270
-540.223	259.850	-0.068	0.119
-539.208	-107.590	0.253	0.056
-538.193	470.091	0.050	-0.114
-537.179	443.523	-0.137	-0.303
-536.164	-200.000	-0.037	-0.390
-535.150	-200.000	-0.022	0.132
-534.135	-200.000	0.012	-0.338
-533.121	29.439	-0.371	0.318
-532.106	800.000	0.045	-0.181
-531.091	138.402	0.093	-0.123
-530.077	-35.448	0.143	-0.078
-529.062	-174.162	0.434	0.013
-528.048	414.151	0.053	-0.113
-527.033	-45.324	0.275	0.138
-526.018	-170.605	0.389	-0.014
-525.004	82.219	-0.226	-0.247
-523.989	-53.204	0.310	-0.144
-522.975	800.000	0.044	0.136
-521.960	70.340	-0.193	0.201
-520.945	281.299	-0.158	-0.286
-519.931	159.350	0.113	-0.159
-518.916	89.544	-0.202	-0.227
-517.902	7.372	0.141	-0.106
-516.887	54.632	-0.056	-0.054
-515.872	-144.661	-0.242	-0.022
-514.858	346.022	-0.196	0.389
-513.843	142.903	0.178	-0.239
-512.829	14.980	0.364	0.288
-511.814	-200.000	0.033	-0.159
-510.799	71.919	0.070	0.073
-509.785	800.000	0.015	0.049
-508.770	-33.256	0.184	-0.103
-507.756	-38.025	0.103	-0.055
-506.741	87.688	-0.297	0.331
-505.726	491.583	0.046	-0.107
-504.712	-200.000	0.023	0.216
-503.697	140.919	-0.185	-0.246
-502.683	117.004	0.218	0.270
-501.668	-165.893	0.351	0.015
-500.653	-106.546	-0.332	0.075
-499.639	8.896	0.124	-0.094
-498.624	800.000	0.037	0.142
-497.610	-64.090	-0.293	-0.120
-496.595	800.000	-0.066	0.212
-495.581	36.025	0.254	0.225
-494.566	-12.110	-0.317	0.209
-493.551	-72.237	-0.303	-0.113
-492.537	-74.432	0.371	0.135
-491.522	-9.524	-0.027	-0.018
-490.508	69.824	0.170	-0.177
-489.493	441.908	-0.044	0.096
-488.478	-158.780	-0.167	0.010
-487.464	473.840	0.048	-0.109
-486.449	383.112	0.112	-0.232
-485.435	110.390	0.280	-0.339
-484.420	-133.743	0.141	0.018
-483.405	121.145	-0.264	0.331
-482.391	-200.000	-0.013	0.226
-481.376	-69.217	-0.210	-0.081
-480.362	-200.000	-0.001	0.061
-479.347	-1.779	-0.234	0.166
-478.332	-200.000	-0.035	-0.250
-477.318	-15.904	-0.229	0.146
-476.303	79.673	-0.283	-0.306
-475.289	211.766	0.173	0.275
-474.274	108.569	0.104	0.125
-473.259	16.855	-0.151	0.120
-472.245	21.716	-0.170	0.139
-471.230	-1.144	-0.227	0.162
-470.216	-117.767	0.265	0.048
-469.201	-87.236	0.077	-0.023
-468.186	321.435	0.003	0.005
-467.172	800.000	-0.041	-0.129
-466.157	13.077	-0.150	-0.117
-465.143	77.001	-0.094	0.100
-464.128	722.658	0.110	0.294
-463.113	-95.386	0.304	0.082
-462.099	29.689	-0.083	0.071
-461.084	-81.761	0.204	-0.067
-460.070	-80.483	-0.238	0.080
-459.055	37.358	-0.156	-0.139
-458.040	52.485	-0.122	0.117
-457.026	-187.588	-0.174	-0.002
-456.011	-27.901	0.172	0.100
-454.997	29.969	0.245	0.210
-453.982	-200.000	0.003	0.037
-452.968	-119.620	0.526	-0.091
-451.953	-105.880	0.175	0.040
-450.938	249.143	0.261	-0.445
-449.924	467.007	0.061	-0.138
-448.909	0.772	-0.098	0.070
-447.895	-140.654	0.214	-0.022
-446.880	800.000	0.071	0.265
-445.865	-15.544	-0.114	0.073
-444.851	800.000	0.016	-0.069
-443.836	53.422	0.127	-0.123
-442.822	-71.159	0.144	-0.055
-441.807	-200.000	0.091	0.775
-440.792	-30.712	-0.260	0.148
-439.778	6.911	-0.365	0.273
-438.763	-143.620	0.209	0.020
-437.749	101.270	-0.013	-0.015
-436.734	-116.180	-0.424	0.079
-435.719	800.000	0.030	-0.094
-434.705	-200.000	0.025	0.261
-433.690	-200.000	0.012	-0.226
-432.676	-200.000	-0.026	0.118
-431.661	349.323	-0.041	0.081
-430.646	-119.239	0.256	-0.045
-429.632	25.580	0.084	0.071
-428.617	-33.434	0.107	0.059
-427.603	800.000	0.034	-0.127
-426.588	800.000	0.137	-0.543
-425.573	-200.000	-0.029	0.214
-424.559	57.361	-0.224	-0.220
-423.544	-173.466	0.353	-0.011
-422.530	468.686	0.021	-0.047
-421.515	-11.783	-0.206	0.136
-420.500	-81.628	-0.321	-0.106
-419.486	118.625	-0.033	0.041
-418.471	-200.000	-0.010	-0.055
-417.457	31.943	0.144	0.125
-416.442	800.000	0.050	0.147
-415.428	-104.631	0.426	-0.099
-414.413	25.246	-0.122	0.102
-413.398	715.000	0.063	-0.167
-412.384	13.885	-0.150	0.117
-411.369	-101.707	0.256	-0.062
-410.355	-200.000	-0.046	-0.208
-409.340	141.235	-0.167	0.222
-408.325	-200.000	0.055	0.242
-407.311	-152.144	-0.332	0.024
-406.296	244.863	0.220	-0.371
-405.282	223.114	0.119	0.193
-404.267	193.616	-0.078	0.118
-403.252	60.858	-0.057	0.057
-402.238	180.725	-0.181	-0.266
-401.223	57.173	0.129	0.126
-400.209	-200.000	-0.001	-0.044
-399.194	-133.898	-0.305	-0.038
-398.179	-7.552	-0.350	-0.237
-397.165	179.563	-0.157	-0.231
-396.150	189.867	-0.036	0.054
-395.136	-187.559	-0.035	-0.000
-394.121	800.000	0.048	0.210
-393.106	-120.714	-0.156	-0.026
-392.092	293.784	0.028	0.051
-391.077	800.000	-0.018	0.061
-390.063	-93.333	0.205	0.057
-389.048	-200.000	-0.067	-0.345
-388.033	-5.447	-0.179	0.123
-387.019	276.897	0.107	-0.192
-386.004	0.181	-0.395	-0.282
-384.990	-154.895	0.308	-0.020
-383.975	-200.000	-0.040	0.200
-382.960	-78.786	0.036	0.012
-381.946	168.147	0.091	-0.130
-380.931	-200.000	0.058	0.273
-379.917	-200.000	0.002	0.113
-378.902	-146.160	0.509	0.045
-377.888	-200.000	-0.088	0.412
-376.873	28.488	0.145	-0.123
-375.858	253.617	0.210	0.360
-374.844	128.050	-0.116	-0.147
-373.829	95.517	-0.080	-0.092
-372.815	8.779	0.201	-0.152
-371.800	-129.611	0.174	-0.024
-370.785	70.655	-0.149	0.155
-369.771	-121.935	0.307	-0.051
-368.756	800.000	0.029	0.116
-367.742	699.819	0.022	-0.058
-366.727	54.255	-0.165	-0.160
-365.712	46.485	-0.218	-0.202
-364.698	-37.906	0.197	0.105
-363.683	71.335	-0.357	0.371
-362.669	278.550	0.191	-0.342
-361.654	-110.787	0.224	0.046
-360.639	-146.191	0.473	0.042
-359.625	1.519	0.229	0.165
-358.610	-117.791	-0.111	-0.020
-357.596	-107.835	0.138	-0.030
-356.581	128.272	-0.105	-0.134
-355.566	800.000	-0.062	0.223
-354.552	800.000	0.049	-0.157
-353.537	-8.346	-0.084	0.057
-352.523	59.226	0.161	-0.159
-351.508	-81.860	0.198	-0.065
-350.493	-156.326	0.227	0.014
-349.479	-16.423	-0.136	0.086
-348.464	74.443	-0.080	0.084
-347.450	-91.957	0.356	0.101
-346.435	-6.112	-0.240	-0.164
-345.420	-43.027	-0.321	0.163
-344.406	361.978	-0.156	-0.312
-343.391	-25.307	-0.235	0.139
-342.377	202.589	-0.151	-0.234
-341.362	-200.000	0.011	-0.100
-340.348	51.418	0.178	-0.170
-339.333	-200.000	-0.012	0.205
-338.318	-76.677	0.113	-0.040
-337.304	231.127	0.191	-0.313
-336.289	800.000	0.030	0.106
-335.275	507.337	-0.038	-0.087
-334.260	169.265	-0.126	0.180
-333.245	134.721	-0.210	-0.273
-332.231	-163.718	0.072	0.003
-331.216	-99.553	-0.038	-0.009
-330.202	174.686	0.235	0.341
-329.187	40.472	-0.281	0.253
-328.172	-17.947	0.080	-0.050
-327.158	56.519	0.152	0.148
-326.143	-4.474	-0.186	-0.129
-325.129	-59.505	0.374	-0.161
-324.114	83.444	0.125	-0.136
-323.099	261.346	-0.043	-0.075
-322.085	16.385	0.222	-0.176
-321.070	8.134	0.400	-0.300
-320.056	65.020	-0.305	0.308
-319.041	-200.000	-0.006	0.111
-318.026	-200.000	-0.070	0.343
-317.012	115.181	0.133	0.163
-315.997	388.957	-0.091	-0.189
-314.983	220.960	0.200	-0.320
-313.968	800.000	0.061	0.257
-312.953	-51.876	-0.242	0.113
-311.939	330.643	-0.091	-0.175
-310.924	-200.000	-0.014	-0.110
-309.910	14.524	-0.271	-0.211
-308.895	201.040	0.311	0.479
-307.880	-116.778	0.157	0.029
-306.866	-67.788	-0.181	0.071
-305.851	800.000	0.117	0.373
-304.837	-137.833	0.130	0.015
-303.822	257.076	-0.114	0.196
-302.807	89.230	0.152	0.169
-301.793	22.020	0.166	0.135
-300.778	-200.000	0.011	-0.185
-299.764	-200.000	0.030	-0.135
-298.749	-34.009	0.080	-0.044
-297.735	646.538	0.044	0.113
-296.720	-114.748	-0.117	-0.022
-295.705	124.359	0.080	-0.101
-294.691	-187.777	0.211	-0.003
-293.676	56.222	-0.100	0.097
-292.662	-200.000	-0.022	-0.103
-291.647	25.808	-0.174	-0.145
-290.632	-200.000	0.026	0.156
-289.618	-200.000	-0.016	0.085
-288.603	800.000	0.090	-0.356
-287.589	587.295	0.155	-0.381
-286.574	-143.904	0.105	0.010
-285.559	-200.000	-0.014	-0.233
-284.545	57.791	-0.205	0.200
-283.530	-200.000	-0.022	0.404
-282.516	-29.792	-0.032	0.018
-281.501	151.513	0.251	-0.342
-280.486	-64.067	0.146	0.060
-279.472	-65.775	-0.409	0.163
-278.457	800.000	0.052	-0.209
-277.443	709.373	-0.042	-0.111
-276.428	-50.372	0.186	0.088
-275.413	-132.716	-0.318	0.041
-274.399	-159.669	-0.262	-0.014
-273.384	-115.577	-0.135	-0.025
-272.370	800.000	0.039	0.136
-271.355	-200.000	-0.004	-0.213
-270.340	-178.254	0.217	0.005
-269.326	-12.014	-0.117	0.076
-268.311	-189.707	0.134	0.002
-267.297	237.138	0.054	-0.090
-266.282	-96.015	0.173	-0.046
-265.267	-200.000	-0.026	-0.162
-264.253	-162.831	-0.264	-0.013
-263.238	800.000	-0.034	0.111
-262.224	149.160	-0.122	0.164
-261.209	20.243	-0.242	-0.195
-260.195	800.000	-0.058	0.233
-259.180	-99.344	0.165	0.042
-258.165	-143.440	-0.259	-0.025
-257.151	-200.000	0.015	-0.125
-256.136	82.363	-0.011	0.012
-255.122	-188.302	0.140	0.002
-254.107	-55.256	0.202	-0.090
-253.092	351.497	0.040	0.078
-252.078	637.870	0.104	0.263
-251.063	800.000	-0.041	0.163
-250.049	-200.000	-0.046	-0.226
-249.034	140.814	0.147	0.193
-248.019	75.301	-0.255	0.268
-247.005	-163.006	0.295	-0.014
-245.990	-110.304	0.482	-0.100
-244.976	434.731	0.096	-0.208
-243.961	34.381	0.163	-0.142
-242.946	-31.000	0.212	-0.119
-241.932	-2.192	-0.366	-0.256
-240.917	-35.062	-0.210	-0.114
-239.903	-37.145	0.341	-0.182
-238.888	-96.095	-0.220	-0.058
-237.873	800.000	0.039	0.140
-236.859	-200.000	0.054	0.351
-235.844	206.702	0.200	0.311
-234.830	-200.000	0.019	-0.156
-233.815	603.416	-0.057	0.142
-232.800	-50.602	0.108	-0.051
-231.786	89.188	0.137	-0.152
-230.771	-101.043	-0.093	0.023
-229.757	86.478	0.149	0.164
-228.742	185.306	-0.115	-0.170
-227.727	800.000	0.077	0.221
-226.713	267.859	-0.086	-0.150
-225.698	-171.767	0.387	0.013
-224.684	-132.503	-0.234	-0.030
-223.669	-108.049	-0.303	-0.066
-222.655	800.000	-0.012	-0.049
-221.640	-200.000	-0.014	0.078
-220.625	9.724	-0.221	-0.167
-219.611	192.172	-0.068	0.102
-218.596	800.000	0.047	-0.163
-217.582	226.610	0.223	-0.360
-216.567	56.831	0.110	-0.107
-215.552	82.933	0.046	-0.050
-214.538	-100.850	0.043	-0.011
-213.523	751.530	-0.021	0.056
-212.509	-108.026	-0.031	-0.007
-211.494	800.000	0.127	0.405
-210.479	176.625	0.261	-0.378
-209.465	-71.912	0.088	-0.032
-208.450	241.382	-0.119	0.198
-207.436	-86.532	-0.411	-0.125
-206.421	-200.000	-0.009	-0.165
-205.406	-25.995	0.218	-0.128
-204.392	57.705	0.115	0.112
-203.377	800.000	0.054	0.219
-202.363	-178.984	0.198	0.004
-201.348	10.650	0.185	0.140
-200.333	-44.532	-0.233	0.116
-199.319	-81.345	-0.279	-0.092
-198.304	-111.271	0.088	0.018
-197.290	-3.994	-0.332	0.229
-196.275	800.000	-0.009	0.032
-195.260	338.849	0.128	-0.249
-194.246	11.413	0.191	-0.146
-193.231	-53.352	0.131	-0.060
-192.217	-200.000	-0.017	0.092
-191.202	-133.968	-0.214	-0.026
-190.187	-3.161	0.248	-0.172
-189.173	95.128	0.141	0.160
-188.158	-112.778	-0.210	0.042
-187.144	-157.718	0.087	-0.005
-186.129	-196.151	-0.688	-0.005
-185.114	41.929	0.185	0.167
-184.100	-69.835	-0.251	-0.095
-183.085	-200.000	-0.014	0.085
-182.071	-27.002	-0.195	0.113
-181.056	106.446	-0.102	-0.121
-180.042	-200.000	0.014	-0.130
-179.027	-67.643	-0.402	0.157
-178.012	-32.423	-0.189	-0.105
-176.998	108.934	-0.064	-0.076
-175.983	-71.682	0.097	-0.036
-174.969	-185.384	-0.431	0.007
-173.954	800.000	-0.184	0.562
-172.939	-200.000	-0.029	0.336
-171.925	195.617	-0.076	-0.115
-170.910	649.909	-0.099	0.252
-169.896	-200.000	-0.010	-0.122
-168.881	32.398	0.149	-0.128
-167.866	-200.000	0.063	0.279
-166.852	283.222	-0.063	-0.112
-165.837	-200.000	0.058	-0.349
-164.823	254.925	0.084	0.144
-163.808	-200.000	0.008	-0.052
-162.793	-51.570	-0.167	0.078
-161.779	-187.899	0.197	-0.003
-160.764	350.415	-0.033	0.065
-159.750	9.568	-0.107	0.081
-158.735	6.190	-0.065	0.048
-157.720	-127.465	-0.113	0.016
-156.706	-96.850	0.398	-0.104
-155.691	-107.362	0.346	-0.076
-154.677	-80.932	0.228	-0.075
-153.662	-200.000	0.073	0.449
-152.647	-48.408	0.394	-0.189
-151.633	99.197	-0.086	0.099
-150.618	-89.801	0.483	-0.140
-149.604	71.943	-0.289	-0.299
-148.589	162.516	-0.124	0.173
-147.574	-95.411	0.317	-0.085
-146.560	-110.173	0.243	-0.050
-145.545	-200.000	0.046	0.279
-144.531	61.375	0.240	-0.237
-143.516	800.000	0.048	-0.157
-142.502	-79.405	-0.034	-0.011
-141.487	-110.200	0.264	0.055
-140.472	-200.000	-0.042	0.216
-139.458	-170.466	0.119	0.004
-138.443	-200.000	0.004	-0.119
-137.429	-161.864	-0.136	-0.007
-136.414	-200.000	-0.022	-0.095
-135.399	-198.277	-0.280	0.002
-134.385	621.910	-0.057	0.144
-133.370	800.000	0.030	-0.083
-132.356	178.311	-0.024	0.035
-131.341	355.547	-0.094	-0.185
-130.326	149.377	0.276	0.371
-129.312	352.885	0.151	0.298
-128.297	-200.000	-0.003	0.123
-127.283	-200.000	-0.005	-0.035
-126.268	-138.414	-0.295	0.032
-125.253	457.313	-0.180	0.397
-124.239	-200.000	-0.006	0.215
-123.224	14.862	0.236	-0.184
-122.210	2.487	-0.171	-0.123
-121.195	800.000	-0.025	0.069
