DTS Sentinel unit serial number:	SN413079Multiplexer serial number:	ORYXHardware model number:	OX4-SRSoftware version number:	ORYX F/W v4.00 Oryx Data Collector v3.7.2.0data status	okinstallation	princeton_trtdifferential loss correction	single-endedforward channel	channel 3reverse channel	N/Adate	2019/09/12time	05:38:10forward acquisition time	60.00reverse acquisition time	0.00gamma	496.2192k internal	0.2321k external	0.2321temperature offset calibration	1.0030default loss term (dB/km)	0.3790temperature slope calibration	1.0000multiplexer offset coefficient	1.0000multiplexer slope coefficient	1.0000fibre end	0.00T internal ref (°C)	32.00T ext. ref 1 (°C)	1.59T ext. ref 2 (°C)	27.51length (m)	temperature (°C)	Stokes	anti-Stokes-747.200	-43.462	-0.273	0.140
-746.185	182.315	-0.062	0.092
-745.171	80.411	-0.105	0.114
-744.156	-5.102	-0.227	0.158
-743.142	8.991	-0.117	0.089
-742.127	98.716	0.021	-0.025
-741.112	800.000	0.128	0.404
-740.098	-27.190	-0.148	0.087
-739.083	-33.135	-0.181	-0.102
-738.069	-74.678	0.175	-0.064
-737.054	259.104	-0.175	-0.305
-736.039	-29.968	-0.181	-0.104
-735.025	-32.275	0.366	0.206
-734.010	-83.370	-0.175	-0.057
-732.996	-200.000	0.035	0.324
-731.981	-25.009	0.063	-0.038
-730.966	-98.204	-0.113	0.029
-729.952	115.720	0.118	0.145
-728.937	-200.000	-0.031	-0.218
-727.923	82.236	-0.019	0.021
-726.908	103.055	0.161	-0.191
-725.894	-94.544	0.148	0.041
-724.879	54.735	0.171	0.167
-723.864	-103.417	-0.109	-0.026
-722.850	186.417	0.128	-0.192
-721.835	35.970	0.118	-0.105
-720.821	-200.000	0.041	0.224
-719.806	-9.227	0.385	-0.260
-718.791	-157.043	-0.461	-0.028
-717.777	-45.671	0.487	0.243
-716.762	-200.000	-0.014	-0.358
-715.748	-105.320	-0.220	-0.051
-714.733	-127.564	0.449	-0.066
-713.718	0.141	-0.243	-0.175
-712.704	-145.235	-0.009	-0.001
-711.689	800.000	-0.072	0.252
-710.675	-38.059	-0.259	0.139
-709.660	-30.422	-0.211	-0.121
-708.645	595.783	0.145	-0.361
-707.631	-60.198	-0.194	-0.083
-706.616	-200.000	-0.035	0.182
-705.602	-200.000	0.000	-0.023
-704.587	72.601	0.054	-0.057
-703.572	800.000	-0.012	-0.040
-702.558	89.692	-0.085	-0.096
-701.543	32.720	-0.393	0.343
-700.529	-173.169	0.194	0.006
-699.514	1.686	-0.301	-0.218
-698.499	58.130	-0.122	-0.120
-697.485	-200.000	0.021	0.153
-696.470	-108.335	0.193	0.042
-695.456	12.326	0.211	-0.164
-694.441	401.995	-0.141	-0.299
-693.426	-63.143	-0.280	0.117
-692.412	-85.588	-0.300	0.094
-691.397	125.022	-0.093	-0.118
-690.383	-7.433	-0.252	-0.172
-689.368	690.817	0.112	0.297
-688.354	86.910	-0.118	-0.131
-687.339	-200.000	0.015	0.204
-686.324	-132.556	0.072	-0.009
-685.310	-8.782	0.119	0.081
-684.295	332.950	-0.052	0.102
-683.281	126.722	0.071	-0.091
-682.266	-63.138	0.300	-0.125
-681.251	-2.998	-0.060	0.043
-680.237	-163.354	-0.347	0.017
-679.222	-49.355	-0.253	-0.122
-678.208	768.572	0.021	-0.059
-677.193	-120.615	-0.027	0.005
-676.178	-44.436	-0.150	0.076
-675.164	800.000	0.044	-0.179
-674.149	800.000	-0.104	-0.333
-673.135	-52.564	0.205	0.095
-672.120	800.000	0.099	0.302
-671.105	-167.128	0.447	-0.018
-670.091	-200.000	-0.065	0.370
-669.076	-105.812	0.168	-0.038
-668.062	617.080	-0.030	-0.076
-667.047	80.724	0.361	-0.392
-666.032	68.028	-0.112	-0.116
-665.018	-200.000	0.006	-0.026
-664.003	27.171	-0.101	0.086
-662.989	90.442	0.179	0.201
-661.974	5.034	0.230	-0.171
-660.959	508.770	0.017	-0.040
-659.945	-130.609	0.189	-0.026
-658.930	-0.975	-0.148	-0.106
-657.916	-15.451	-0.216	-0.139
-656.901	-150.630	0.327	-0.025
-655.886	525.961	-0.072	-0.171
-654.872	-80.021	0.180	0.061
-653.857	800.000	-0.087	0.349
-652.843	-39.867	0.294	-0.155
-651.828	757.316	-0.065	0.177
-650.814	-198.574	-0.329	0.002
-649.799	-93.123	0.139	0.039
-648.784	443.298	0.164	0.361
-647.770	-200.000	-0.006	0.039
-646.755	-132.641	0.386	0.050
-645.741	800.000	-0.081	-0.228
-644.726	-52.958	-0.227	-0.105
-643.711	800.000	0.033	0.128
-642.697	800.000	-0.040	-0.140
-641.682	498.031	0.044	-0.102
-640.668	88.340	-0.204	0.228
-639.653	110.429	-0.058	-0.071
-638.638	-64.835	-0.055	0.022
-637.624	274.221	-0.082	-0.147
-636.609	-129.785	-0.430	-0.060
-635.595	-63.170	-0.204	0.085
-634.580	346.529	-0.013	0.026
-633.565	-200.000	-0.004	0.289
-632.551	-3.845	-0.215	-0.150
-631.536	-200.000	0.012	0.215
-630.522	53.187	-0.036	-0.035
-629.507	-200.000	-0.046	-0.320
-628.492	304.700	-0.165	-0.309
-627.478	-200.000	0.031	-0.239
-626.463	-29.279	-0.169	0.098
-625.449	-181.700	0.210	0.004
-624.434	303.089	0.085	0.158
-623.419	-100.490	-0.237	0.059
-622.405	800.000	0.027	-0.092
-621.390	184.630	0.102	-0.152
-620.376	-102.528	0.294	-0.071
-619.361	-200.000	-0.037	0.199
-618.346	14.065	-0.200	-0.157
-617.332	-59.774	-0.167	-0.072
-616.317	-96.288	0.098	0.026
-615.303	800.000	0.073	0.268
-614.288	-160.736	0.160	-0.009
-613.273	-17.352	-0.113	-0.072
-612.259	518.841	-0.080	-0.189
-611.244	45.253	-0.211	-0.196
-610.230	-131.578	-0.155	0.021
-609.215	-200.000	0.002	0.238
-608.201	93.427	0.057	0.065
-607.186	-92.662	-0.174	0.049
-606.171	357.269	-0.067	0.134
-605.157	51.949	-0.074	-0.071
-604.142	-136.266	-0.122	0.014
-603.128	431.308	0.164	-0.357
-602.113	-191.348	-0.038	0.000
-601.098	-200.000	-0.070	0.517
-600.084	656.273	-0.107	-0.277
-599.069	-200.000	0.022	-0.124
-598.055	60.728	-0.110	-0.110
-597.040	-200.000	-0.004	-0.053
-596.025	-51.836	-0.170	0.080
-595.011	192.717	0.183	0.278
-593.996	-200.000	0.032	0.209
-592.982	268.623	-0.183	0.322
-591.967	164.733	0.170	0.242
-590.952	-20.464	0.415	0.257
-589.938	-174.014	-0.184	0.005
-588.923	-45.579	0.260	-0.130
-587.909	800.000	-0.145	0.567
-586.894	100.670	-0.185	-0.216
-585.879	800.000	-0.010	0.030
-584.865	-181.745	0.181	0.003
-583.850	-200.000	-0.062	-0.309
-582.836	33.467	0.116	-0.101
-581.821	800.000	-0.042	-0.172
-580.806	-112.098	-0.362	0.073
-579.792	42.986	-0.112	-0.103
-578.777	89.346	0.105	-0.117
-577.763	-140.271	-0.109	-0.011
-576.748	435.847	0.081	-0.177
-575.733	-162.013	-0.503	0.025
-574.719	442.527	0.098	0.216
-573.704	-49.241	0.219	-0.105
-572.690	-90.797	-0.145	-0.042
-571.675	-13.744	0.033	-0.022
-570.661	22.325	-0.143	0.117
-569.646	95.469	0.325	-0.372
-568.631	-23.908	0.118	-0.071
-567.617	-200.000	-0.057	-0.254
-566.602	224.705	0.300	-0.486
-565.588	71.370	-0.232	-0.241
-564.573	-89.811	0.285	0.084
-563.558	281.328	-0.243	-0.436
-562.544	-200.000	-0.025	0.207
-561.529	-151.311	-0.248	-0.019
-560.515	-139.310	-0.226	0.024
-559.500	524.179	0.077	0.181
-558.485	-26.722	-0.180	0.106
-557.471	2.038	-0.147	0.106
-556.456	517.149	-0.025	0.058
-555.442	-200.000	0.021	-0.134
-554.427	-195.880	-0.051	-0.000
-553.412	-66.762	0.199	0.079
-552.398	-53.374	0.048	-0.022
-551.383	329.041	0.081	0.156
-550.369	574.752	0.168	0.412
-549.354	216.186	-0.255	0.407
-548.339	-200.000	-0.027	-0.209
-547.325	-103.803	0.117	-0.027
-546.310	-189.848	-0.111	0.001
-545.296	456.269	-0.121	0.269
-544.281	-178.916	0.160	-0.004
-543.266	199.366	0.064	-0.098
-542.252	489.911	-0.235	-0.539
-541.237	23.032	0.308	0.253
-540.223	800.000	0.029	0.126
-539.208	-168.762	-0.128	0.005
-538.193	-200.000	0.000	-0.204
-537.179	-89.612	0.054	0.016
-536.164	44.108	-0.142	-0.131
-535.150	-200.000	-0.025	0.180
-534.135	201.068	-0.021	-0.033
-533.121	154.288	0.050	-0.069
-532.106	-84.279	0.136	-0.043
-531.091	-200.000	-0.113	-0.001
-530.077	800.000	-0.084	-0.302
-529.062	6.335	-0.259	-0.193
-528.048	82.253	-0.074	-0.081
-527.033	36.615	-0.087	-0.077
-526.018	-105.854	0.202	0.046
-525.004	15.146	0.347	-0.273
-523.989	12.998	0.142	-0.110
-522.975	-137.066	0.110	0.013
-521.960	470.289	0.069	-0.156
-520.945	800.000	0.035	-0.140
-519.931	-113.406	-0.517	-0.102
-518.916	12.588	0.269	-0.208
-517.902	-61.007	0.095	0.040
-516.887	-78.236	-0.385	0.133
-515.872	-200.000	0.024	0.327
-514.858	-88.345	0.172	-0.051
-513.843	2.145	0.096	0.070
-512.829	13.776	0.247	-0.192
-511.814	-200.000	-0.047	-0.262
-510.799	-200.000	-0.036	0.167
-509.785	800.000	-0.085	0.262
-508.770	-194.328	-0.213	0.002
-507.756	-21.716	-0.193	-0.118
-506.741	332.603	-0.123	0.239
-505.726	-152.633	-0.225	-0.016
-504.712	800.000	-0.058	-0.199
-503.697	-48.907	-0.188	0.090
-502.683	547.586	-0.039	-0.093
-501.668	800.000	0.070	0.223
-500.653	78.243	-0.184	-0.196
-499.639	35.166	-0.117	-0.102
-498.624	113.875	0.117	-0.142
-497.610	-78.629	0.125	-0.043
-496.595	117.969	-0.153	-0.188
-495.581	-61.328	0.132	0.056
-494.566	-200.000	0.076	0.394
-493.551	51.569	0.066	0.063
-492.537	-64.605	-0.400	-0.162
-491.522	-160.774	-0.234	-0.012
-490.508	-105.251	-0.281	0.064
-489.493	263.071	-0.169	-0.294
-488.478	113.628	0.110	-0.134
-487.464	-54.504	0.097	-0.044
-486.449	-114.017	-0.202	-0.039
-485.435	-68.865	0.213	-0.082
-484.420	87.788	0.267	-0.296
-483.405	285.424	-0.042	-0.076
-482.391	-158.403	0.216	0.013
-481.376	-126.967	0.220	-0.032
-480.362	-51.961	-0.245	-0.114
-479.347	800.000	-0.050	0.143
-478.332	171.308	-0.028	-0.041
-477.318	-47.121	-0.023	0.011
-476.303	33.862	0.050	0.043
-475.289	800.000	-0.083	-0.280
-474.274	20.925	0.068	0.055
-473.259	-94.670	-0.084	0.023
-472.245	-9.800	-0.071	-0.048
-471.230	800.000	-0.023	-0.076
-470.216	60.578	0.208	0.206
-469.201	183.180	-0.130	0.193
-468.186	-200.000	0.043	0.252
-467.172	-172.663	0.328	-0.010
-466.157	374.330	-0.047	0.095
-465.143	800.000	-0.112	0.314
-464.128	-79.550	0.212	-0.072
-463.113	800.000	-0.121	0.476
-462.099	-200.000	-0.019	0.332
-461.084	77.352	-0.166	0.176
-460.070	2.233	-0.202	0.146
-459.055	-200.000	-0.040	-0.265
-458.040	-73.214	-0.146	-0.054
-457.026	-200.000	-0.022	0.106
-456.011	150.349	0.247	-0.336
-454.997	-6.301	-0.150	-0.103
-453.982	132.362	-0.091	-0.118
-452.968	33.092	0.382	-0.331
-451.953	-126.537	0.052	0.008
-450.938	344.775	0.211	-0.413
-449.924	-200.000	0.008	0.307
-448.909	29.089	-0.206	0.174
-447.895	-162.380	0.285	-0.014
-446.880	572.132	-0.136	0.331
-445.865	-49.293	-0.035	0.017
-444.851	800.000	0.019	-0.066
-443.836	-200.000	0.045	-0.279
-442.822	-200.000	-0.030	-0.212
-441.807	91.494	-0.091	-0.102
-440.792	64.773	-0.143	-0.144
-439.778	-110.500	0.386	0.080
-438.763	26.350	-0.016	0.013
-437.749	92.064	-0.089	0.100
-436.734	508.720	0.071	0.165
-435.719	-48.726	-0.143	-0.068
-434.705	-144.565	-0.247	0.023
-433.690	15.092	-0.085	0.066
-432.676	67.072	0.146	-0.148
-431.661	157.767	0.393	0.544
-430.646	65.146	0.103	-0.104
-429.632	117.547	0.091	-0.111
-428.617	-144.123	-0.267	0.025
-427.603	-200.000	0.016	0.198
-426.588	-200.000	-0.032	-0.232
-425.573	139.631	-0.087	0.114
-424.559	351.928	-0.133	-0.263
-423.544	-200.000	-0.027	-0.159
-422.530	762.479	-0.069	0.188
-421.515	-21.408	0.147	0.090
-420.500	-1.484	0.205	0.144
-419.486	-139.531	0.237	0.025
-418.471	-164.347	-0.200	0.009
-417.457	800.000	-0.089	0.272
-416.442	-134.395	-0.420	-0.051
-415.428	-174.384	0.219	-0.006
-414.413	800.000	-0.024	0.097
-413.398	-9.209	0.362	0.241
-412.384	-145.023	-0.218	-0.020
-411.369	-47.272	-0.144	-0.070
-410.355	114.306	0.147	-0.179
-409.340	383.082	-0.197	0.404
-408.325	20.526	0.035	0.028
-407.311	203.928	-0.055	-0.085
-406.296	-200.000	0.001	0.049
-405.282	-200.000	-0.081	-0.505
-404.267	19.482	0.146	0.117
-403.252	-149.838	0.217	-0.017
-402.238	54.172	-0.108	-0.104
-401.223	-73.481	-0.113	-0.041
-400.209	-22.095	-0.082	0.050
-399.194	45.269	0.104	-0.096
-398.179	-200.000	0.024	0.190
-397.165	-200.000	0.040	-0.227
-396.150	-177.256	0.309	-0.008
-395.136	-84.854	-0.126	0.040
-394.121	71.812	0.293	-0.303
-393.106	120.030	0.181	-0.224
-392.092	-107.803	0.168	0.036
-391.077	756.557	0.048	0.130
-390.063	-8.368	-0.257	0.172
-389.048	-84.503	0.231	0.073
-388.033	313.886	0.090	0.169
-387.019	12.241	-0.190	-0.146
-386.004	800.000	-0.121	-0.476
-384.990	130.734	-0.116	-0.149
-383.975	-182.783	0.383	0.007
-382.960	-144.096	0.315	0.029
-381.946	37.487	0.107	0.094
-380.931	184.184	0.085	0.126
-379.917	-97.729	0.055	0.014
-378.902	-20.158	-0.381	0.234
-377.888	-200.000	-0.018	-0.213
-376.873	-200.000	0.019	-0.103
-375.858	61.717	-0.173	-0.172
-374.844	-29.164	0.285	-0.163
-373.829	183.335	0.240	-0.353
-372.815	410.110	-0.097	0.206
-371.800	-31.738	0.288	-0.161
-370.785	800.000	0.031	-0.093
-369.771	-200.000	0.001	0.156
-368.756	800.000	0.066	-0.258
-367.742	-42.340	-0.071	-0.036
-366.727	-49.456	-0.115	0.054
-365.712	-200.000	0.000	-0.169
-364.698	82.850	-0.129	-0.140
-363.683	7.990	-0.274	0.205
-362.669	-200.000	0.013	0.355
-361.654	-29.669	0.185	0.105
-360.639	-200.000	-0.067	0.376
-359.625	-200.000	0.010	0.128
-358.610	182.757	-0.243	0.357
-357.596	-63.084	-0.137	-0.056
-356.581	83.289	-0.060	-0.065
-355.566	-200.000	-0.022	0.205
-354.552	-150.878	-0.280	-0.021
-353.537	-22.771	-0.298	0.179
-352.523	-198.412	-0.192	-0.001
-351.508	581.522	0.067	-0.164
-350.493	800.000	0.175	-0.652
-349.479	14.246	-0.126	0.098
-348.464	176.879	0.039	0.056
-347.450	-200.000	0.030	-0.145
-346.435	613.819	0.117	-0.291
-345.420	299.475	-0.055	-0.101
-344.406	26.475	0.102	0.085
-343.391	0.179	0.174	0.123
-342.377	-5.669	-0.061	-0.041
-341.362	417.824	0.101	0.216
-340.348	765.821	-0.047	-0.128
-339.333	-96.684	0.177	0.046
-338.318	-200.000	0.033	0.152
-337.304	5.473	-0.222	-0.163
-336.289	-20.598	-0.088	0.053
-335.275	16.330	0.225	-0.176
-334.260	800.000	-0.069	0.270
-333.245	-101.505	0.098	-0.024
-332.231	-33.576	0.095	0.052
-331.216	800.000	-0.072	-0.203
-330.202	-106.100	-0.319	-0.071
-329.187	-200.000	-0.013	-0.066
-328.172	131.948	0.158	-0.202
-327.158	-200.000	0.049	0.225
-326.143	733.248	-0.148	0.394
-325.129	-16.318	-0.005	-0.003
-324.114	66.472	0.160	-0.162
-323.099	108.855	0.143	-0.170
-322.085	800.000	0.020	0.072
-321.070	-33.523	-0.289	0.159
-320.056	300.741	0.108	-0.198
-319.041	-200.000	0.007	0.112
-318.026	800.000	0.073	-0.228
-317.012	-50.364	-0.175	0.082
-315.997	483.366	0.120	-0.270
-314.983	800.000	0.057	-0.247
-313.968	-41.517	-0.205	0.105
-312.953	46.921	-0.147	-0.136
-311.939	-115.635	0.238	-0.044
-310.924	163.654	-0.238	0.333
-309.910	-131.538	0.041	-0.005
-308.895	-94.099	-0.344	0.094
-307.880	-200.000	0.003	-0.130
-306.866	13.091	0.160	0.123
-305.851	-27.892	0.047	-0.027
-304.837	26.342	0.105	0.087
-303.822	-4.958	0.152	-0.104
-302.807	-200.000	-0.014	0.186
-301.793	-200.000	-0.004	0.091
-300.778	-65.871	0.075	-0.030
-299.764	-200.000	-0.000	-0.195
-298.749	-103.843	0.258	0.060
-297.735	-200.000	0.042	-0.226
-296.720	53.064	0.267	-0.254
-295.705	-200.000	-0.019	0.232
-294.691	-156.509	-0.208	0.013
-293.676	740.599	-0.118	0.314
-292.662	-200.000	0.011	0.112
-291.647	-67.480	0.144	-0.056
-290.632	-200.000	-0.023	-0.267
-289.618	-200.000	-0.077	0.419
-288.603	40.598	0.269	-0.240
-287.589	439.102	0.151	-0.327
-286.574	569.785	-0.047	0.114
-285.559	-200.000	-0.018	0.104
-284.545	453.970	-0.014	0.031
-283.530	18.755	-0.255	0.203
-282.516	574.696	0.139	-0.336
-281.501	3.359	-0.108	-0.078
-280.486	800.000	-0.020	-0.080
-279.472	718.189	0.063	-0.166
-278.457	-184.735	0.537	-0.009
-277.443	277.284	0.117	0.207
-276.428	197.685	0.008	0.011
-275.413	-200.000	0.078	-0.381
-274.399	800.000	-0.040	0.157
-273.384	-30.983	0.194	0.108
-272.370	-97.759	-0.109	-0.028
-271.355	-200.000	-0.048	0.284
-270.340	-60.967	0.213	0.090
-269.326	-69.744	0.075	0.028
-268.311	-112.800	-0.107	0.021
-267.297	-200.000	-0.016	0.361
-266.282	433.442	-0.073	-0.157
-265.267	454.822	0.059	0.130
-264.253	-123.087	-0.352	0.056
-263.238	120.741	0.226	0.278
-262.224	116.380	0.041	0.050
-261.209	246.966	-0.060	0.101
-260.195	-200.000	-0.029	0.377
-259.180	112.676	-0.126	-0.152
-258.165	184.339	-0.037	-0.055
-257.151	196.026	-0.043	-0.065
-256.136	-88.920	-0.294	0.086
-255.122	49.767	0.198	-0.185
-254.107	134.613	0.096	0.124
-253.092	-22.225	0.081	0.049
-252.078	81.198	-0.118	0.127
-251.063	183.160	0.083	-0.121
-250.049	800.000	0.011	0.041
-249.034	-200.000	0.055	-0.297
-248.019	526.911	0.110	-0.257
-247.005	203.253	0.143	-0.219
-245.990	-200.000	0.040	0.233
-244.976	800.000	-0.034	-0.142
-243.961	-200.000	0.004	0.037
-242.946	9.552	-0.153	-0.115
-241.932	-63.520	-0.302	-0.123
-240.917	800.000	0.126	0.447
-239.903	-117.444	0.251	-0.045
-238.888	105.141	0.021	-0.025
-237.873	91.754	-0.138	0.154
-236.859	-200.000	-0.006	-0.168
-235.844	36.204	-0.197	0.172
-234.830	185.058	-0.046	-0.068
-233.815	-79.316	0.223	-0.075
-232.800	47.103	0.284	-0.262
-231.786	60.732	0.270	0.265
-230.771	-101.403	0.214	0.052
-229.757	-35.203	-0.279	0.151
-228.742	-113.893	-0.260	0.050
-227.727	-77.196	0.210	0.073
-226.713	-200.000	-0.014	0.297
-225.698	61.185	0.180	0.177
-224.684	183.740	-0.146	0.214
-223.669	-65.225	0.172	0.069
-222.655	89.784	0.300	0.332
-221.640	-104.890	0.229	-0.052
-220.625	150.796	-0.202	0.272
-219.611	43.342	-0.234	-0.212
-218.596	28.273	0.433	0.362
-217.582	800.000	-0.090	-0.317
-216.567	42.712	-0.063	-0.057
-215.552	-72.819	0.400	-0.146
-214.538	-200.000	-0.010	-0.356
-213.523	433.769	-0.053	0.114
-212.509	425.941	0.203	-0.432
-211.494	-130.309	-0.340	0.046
-210.479	-200.000	0.002	0.156
-209.465	-90.717	-0.111	0.032
-208.450	800.000	0.039	0.147
-207.436	-158.215	-0.122	-0.007
-206.421	-200.000	0.044	-0.212
-205.406	800.000	-0.041	-0.115
-204.392	626.401	-0.090	0.226
-203.377	-138.666	-0.244	-0.026
-202.363	513.540	-0.137	0.316
-201.348	800.000	0.049	-0.147
-200.333	-200.000	-0.002	-0.104
-199.319	-200.000	0.013	0.092
-198.304	-143.337	-0.141	-0.013
-197.290	111.248	0.193	0.230
-196.275	730.029	-0.091	0.240
-195.260	89.641	0.036	0.040
-194.246	29.404	0.307	-0.258
-193.231	-200.000	0.011	0.076
-192.217	-18.614	-0.198	-0.122
-191.202	41.745	-0.052	0.047
-190.187	-122.285	0.280	-0.045
-189.173	124.635	0.035	-0.043
-188.158	200.228	0.133	-0.202
-187.144	49.162	0.344	-0.320
-186.129	-172.422	0.154	0.005
-185.114	149.956	-0.033	0.044
-184.100	59.787	0.032	0.032
-183.085	97.464	-0.120	0.136
-182.071	-57.597	0.126	-0.055
-181.056	800.000	0.071	0.212
-180.042	800.000	-0.109	0.404
-179.027	800.000	0.061	0.195
-178.012	207.383	-0.073	0.112
-176.998	11.056	-0.182	-0.137
-175.983	425.552	-0.080	0.169
-174.969	-200.000	-0.046	0.229
-173.954	-98.455	0.211	-0.053
-172.939	-200.000	0.020	0.179
-171.925	-200.000	-0.015	-0.237
-170.910	-146.241	-0.071	-0.006
-169.896	-129.426	0.266	-0.037
-168.881	89.816	0.128	0.141
-167.866	-147.640	-0.365	-0.030
-166.852	117.353	0.160	0.195
-165.837	181.089	0.118	-0.171
-164.823	-140.984	0.267	-0.027
-163.808	-58.216	0.059	0.025
-162.793	18.535	0.163	-0.129
-161.779	0.221	0.077	-0.054
-160.764	-141.405	-0.195	-0.019
-159.750	424.989	-0.161	0.342
-158.735	-200.000	-0.013	0.277
-157.720	800.000	-0.068	-0.192
-156.706	-70.929	0.321	-0.119
-155.691	-200.000	0.002	0.031
-154.677	9.810	-0.093	-0.070
-153.662	-39.495	-0.174	0.090
-152.647	21.002	0.145	-0.116
-151.633	-86.216	-0.198	-0.060
-150.618	-146.101	0.135	0.012
-149.604	-5.372	-0.301	-0.204
-148.589	-61.110	-0.264	0.110
-147.574	689.548	0.048	0.123
-146.560	800.000	-0.045	0.127
-145.545	98.614	-0.119	-0.135
-144.531	-200.000	-0.011	-0.213
-143.516	230.157	0.037	-0.059
-142.502	162.288	-0.075	0.104
-141.487	730.504	0.099	0.262
-140.472	218.114	-0.143	0.226
-139.458	-164.345	0.123	0.006
-138.443	-174.825	-0.259	0.007
-137.429	800.000	0.043	-0.130
-136.414	-200.000	-0.039	0.512
-135.399	-200.000	0.001	-0.110
-134.385	800.000	0.031	-0.091
-133.370	-97.785	-0.304	0.078
-132.356	615.846	-0.138	-0.341
-131.341	154.876	-0.168	-0.228
-130.326	619.832	-0.039	0.096
-129.312	192.814	0.116	-0.173
-128.297	-116.067	0.291	-0.053
-127.283	-200.000	-0.005	0.036
-126.268	108.965	0.096	0.113
-125.253	800.000	-0.099	-0.335
-124.239	514.471	-0.083	0.192
-123.224	-200.000	0.053	-0.296
-122.210	57.897	-0.182	0.176
-121.195	-50.808	0.176	0.082
