DTS Sentinel unit serial number:	SN413079Multiplexer serial number:	ORYXHardware model number:	OX4-SRSoftware version number:	ORYX F/W v4.00 Oryx Data Collector v3.7.2.0data status	okinstallation	princeton_trtdifferential loss correction	single-endedforward channel	channel 3reverse channel	N/Adate	2019/09/19time	03:44:35forward acquisition time	60.00reverse acquisition time	0.00gamma	496.2192k internal	0.2347k external	0.2347temperature offset calibration	0.9983default loss term (dB/km)	0.3790temperature slope calibration	1.0000multiplexer offset coefficient	1.0000multiplexer slope coefficient	1.0000fibre end	0.00T internal ref (°C)	20.52T ext. ref 1 (°C)	0.64T ext. ref 2 (°C)	14.16length (m)	temperature (°C)	Stokes	anti-Stokes-747.200	-109.810	0.060	-0.013
-746.185	-141.235	-0.297	0.030
-745.171	129.519	-0.061	-0.078
-744.156	-110.758	-0.180	-0.037
-743.142	-61.969	-0.443	0.185
-742.127	-200.000	-0.085	0.530
-741.112	40.440	0.111	-0.099
-740.098	-200.000	-0.037	0.166
-739.083	-55.255	-0.139	0.063
-738.069	-109.175	0.118	-0.025
-737.054	800.000	0.014	0.057
-736.039	-74.607	-0.084	0.030
-735.025	-113.362	-0.215	-0.042
-734.010	-22.735	-0.261	0.157
-732.996	-124.870	0.306	0.047
-731.981	-124.077	0.399	-0.063
-730.966	172.436	-0.078	0.112
-729.952	-118.108	-0.034	-0.006
-728.937	-200.000	-0.024	-0.408
-727.923	-48.167	-0.113	-0.055
-726.908	800.000	0.130	-0.482
-725.894	-200.000	0.002	-0.187
-724.879	151.321	-0.246	-0.334
-723.864	-200.000	-0.013	-0.236
-722.850	-129.310	0.352	-0.049
-721.835	-200.000	-0.075	-0.455
-720.821	327.838	-0.149	0.286
-719.806	-135.057	-0.272	0.033
-718.791	-16.489	0.183	-0.116
-717.777	-55.725	0.273	-0.122
-716.762	149.429	-0.065	-0.088
-715.748	-32.992	0.278	-0.154
-714.733	8.114	-0.029	0.021
-713.718	413.747	0.055	0.117
-712.704	742.941	-0.137	-0.367
-711.689	-200.000	0.010	-0.095
-710.675	-200.000	-0.029	-0.408
-709.660	52.985	-0.270	0.258
-708.645	-7.792	-0.157	-0.106
-707.631	800.000	0.009	0.024
-706.616	52.922	0.168	0.160
-705.602	170.285	-0.182	-0.260
-704.587	323.174	-0.013	-0.025
-703.572	207.438	-0.071	-0.111
-702.558	15.582	0.141	0.110
-701.543	338.202	0.078	0.152
-700.529	-89.371	-0.329	-0.097
-699.514	499.894	-0.034	0.078
-698.499	-133.535	-0.072	-0.009
-697.485	-128.869	0.228	0.032
-696.470	10.463	-0.138	0.105
-695.456	38.839	0.214	0.191
-694.441	197.720	0.316	0.482
-693.426	-200.000	-0.016	-0.164
-692.412	-200.000	-0.338	-0.000
-691.397	12.107	0.075	-0.057
-690.383	74.283	0.338	-0.355
-689.368	112.348	-0.269	0.324
-688.354	-200.000	-0.004	0.093
-687.339	-70.304	0.244	0.092
-686.324	-8.352	0.320	-0.214
-685.310	593.977	-0.027	0.067
-684.295	366.314	-0.023	0.046
-683.281	-49.428	0.093	-0.044
-682.266	4.165	0.177	-0.129
-681.251	70.611	-0.152	0.157
-680.237	249.945	-0.143	-0.242
-679.222	-69.232	-0.052	0.020
-678.208	14.459	-0.056	0.044
-677.193	176.024	0.058	-0.084
-676.178	-8.355	-0.081	-0.055
-675.164	-41.375	0.213	0.109
-674.149	160.215	0.109	0.151
-673.135	784.335	-0.019	-0.051
-672.120	127.655	0.075	-0.095
-671.105	-200.000	0.065	0.371
-670.091	288.203	0.083	-0.150
-669.076	-164.871	-0.242	0.011
-668.062	800.000	-0.080	0.279
-667.047	-85.343	-0.361	-0.112
-666.032	-200.000	0.012	0.201
-665.018	-200.000	0.011	0.141
-664.003	-31.215	-0.075	0.042
-662.989	187.679	0.083	0.124
-661.974	-104.291	0.268	0.062
-660.959	158.489	-0.077	-0.107
-659.945	761.618	-0.157	0.425
-658.930	-200.000	0.016	0.455
-657.916	-2.746	-0.084	0.059
-656.901	529.803	-0.009	0.022
-655.886	-138.490	0.109	0.012
-654.872	46.607	0.034	-0.031
-653.857	800.000	0.049	0.209
-652.843	276.973	-0.131	-0.233
-651.828	-200.000	0.060	-0.412
-650.814	-200.000	-0.018	-0.114
-649.799	331.033	0.155	-0.298
-648.784	695.692	-0.031	-0.080
-647.770	800.000	-0.136	0.429
-646.755	185.767	-0.169	-0.250
-645.741	-71.115	0.281	0.105
-644.726	-62.541	-0.197	0.082
-643.711	117.760	0.112	-0.137
-642.697	-27.414	0.385	0.223
-641.682	111.304	-0.092	0.110
-640.668	800.000	-0.031	-0.135
-639.653	-171.556	-0.204	-0.007
-638.638	-165.770	0.193	0.008
-637.624	29.921	0.299	-0.254
-636.609	-67.382	-0.136	-0.053
-635.595	11.217	-0.086	-0.065
-634.580	-200.000	-0.010	0.185
-633.565	-42.082	0.059	0.030
-632.551	-100.117	-0.309	-0.077
-631.536	697.734	-0.026	0.068
-630.522	-200.000	0.075	0.488
-629.507	82.704	0.087	-0.094
-628.492	-16.990	0.353	-0.222
-627.478	800.000	-0.079	0.248
-626.463	-124.749	-0.201	0.031
-625.449	800.000	-0.063	-0.172
-624.434	-96.105	-0.261	0.069
-623.419	-138.725	0.235	0.025
-622.405	-65.920	0.246	-0.098
-621.390	-64.494	-0.139	0.056
-620.376	-200.000	-0.017	0.142
-619.361	-63.735	0.315	0.129
-618.346	-200.000	-0.091	0.406
-617.332	-200.000	-0.019	0.144
-616.317	524.894	-0.047	-0.110
-615.303	46.907	-0.177	0.164
-614.288	11.513	-0.160	-0.122
-613.273	21.489	0.173	-0.140
-612.259	-200.000	0.011	0.059
-611.244	13.784	-0.107	0.083
-610.230	1.569	0.168	-0.120
-609.215	800.000	0.047	0.150
-608.201	800.000	-0.057	0.205
-607.186	227.969	-0.117	-0.189
-606.171	-82.904	0.040	0.013
-605.157	-28.071	0.111	-0.064
-604.142	545.870	0.081	0.192
-603.128	23.275	-0.211	0.172
-602.113	3.522	0.245	0.177
-601.098	-200.000	-0.023	0.100
-600.084	-88.482	-0.560	0.166
-599.069	-34.680	0.217	0.118
-598.055	-200.000	-0.005	-0.198
-597.040	557.627	0.153	0.365
-596.025	9.570	-0.113	0.085
-595.011	-200.000	-0.046	0.237
-593.996	-122.829	0.130	-0.021
-592.982	-200.000	0.021	-0.208
-591.967	800.000	-0.032	0.104
-590.952	-94.155	0.201	-0.055
-589.938	610.425	-0.049	0.123
-588.923	-114.931	0.065	-0.012
-587.909	-3.003	-0.127	-0.088
-586.894	-19.565	0.057	-0.035
-585.879	-140.796	0.100	0.010
-584.865	-200.000	0.024	0.144
-583.850	125.040	-0.139	-0.173
-582.836	102.839	0.102	0.118
-581.821	696.939	0.075	0.195
-580.806	-58.263	0.152	0.066
-579.792	-111.218	0.218	-0.044
-578.777	11.081	-0.277	0.210
-577.763	47.529	-0.345	-0.320
-576.748	-50.603	0.516	0.241
-575.733	800.000	0.056	-0.180
-574.719	-32.080	-0.165	0.092
-573.704	-102.513	0.376	0.089
-572.690	-4.759	0.260	0.178
-571.675	180.085	0.164	-0.238
-570.661	685.058	0.048	0.125
-569.646	188.557	0.114	0.169
-568.631	-108.786	0.210	0.045
-567.617	-3.802	0.247	-0.171
-566.602	6.441	-0.160	-0.118
-565.588	-200.000	-0.045	-0.307
-564.573	-200.000	-0.004	0.134
-563.558	-200.000	-0.035	-0.236
-562.544	126.729	0.045	-0.056
-561.529	-114.895	0.239	0.045
-560.515	800.000	0.083	0.240
-559.500	11.375	0.286	0.218
-558.485	800.000	-0.002	-0.005
-557.471	48.764	-0.096	0.089
-556.456	800.000	-0.098	-0.350
-555.442	-200.000	-0.005	-0.269
-554.427	-41.371	0.280	0.143
-553.412	-22.735	-0.238	-0.143
-552.398	-133.713	-0.267	-0.033
-551.383	-109.769	-0.305	0.064
-550.369	10.015	-0.148	0.111
-549.354	-200.000	0.047	0.246
-548.339	-115.468	-0.016	0.003
-547.325	171.175	0.135	-0.193
-546.310	-130.361	0.184	-0.025
-545.296	-111.111	0.105	0.021
-544.281	-200.000	0.011	0.147
-543.266	-72.488	0.500	0.183
-542.252	59.835	0.195	-0.190
-541.237	-47.164	0.245	-0.119
-540.223	800.000	0.054	0.149
-539.208	-49.166	0.042	-0.020
-538.193	-45.345	-0.194	-0.095
-537.179	-167.582	-0.146	0.006
-536.164	-32.077	0.132	-0.073
-535.150	-45.136	0.195	-0.096
-534.135	-200.000	0.007	0.132
-533.121	13.374	-0.279	0.214
-532.106	800.000	-0.085	-0.332
-531.091	-76.080	-0.043	0.015
-530.077	266.635	0.077	0.133
-529.062	44.165	-0.291	-0.265
-528.048	-72.190	-0.211	-0.078
-527.033	-90.548	0.186	-0.053
-526.018	103.636	-0.151	0.175
-525.004	-200.000	0.001	0.004
-523.989	-97.965	-0.298	-0.076
-522.975	-50.932	-0.095	0.044
-521.960	-200.000	0.033	-0.170
-520.945	12.957	-0.206	0.158
-519.931	-200.000	0.008	0.053
-518.916	455.936	-0.082	0.181
-517.902	113.982	-0.077	-0.093
-516.887	42.694	-0.123	-0.111
-515.872	-106.630	0.192	0.042
-514.858	-90.295	-0.129	0.037
-513.843	800.000	0.031	-0.090
-512.829	800.000	-0.060	0.234
-511.814	104.398	-0.072	-0.084
-510.799	145.402	0.051	-0.068
-509.785	-46.842	0.219	-0.106
-508.770	21.188	0.072	0.058
-507.756	-200.000	-0.034	0.154
-506.741	-200.000	-0.022	-0.123
-505.726	99.862	0.441	-0.506
-504.712	73.492	0.012	-0.012
-503.697	-5.837	-0.329	0.223
-502.683	-54.371	0.170	-0.076
-501.668	263.838	0.018	0.031
-500.653	-200.000	-0.003	-0.112
-499.639	-127.113	0.138	0.020
-498.624	-89.627	-0.203	-0.059
-497.610	800.000	0.055	-0.176
-496.595	-162.457	-0.063	0.003
-495.581	800.000	-0.037	-0.151
-494.566	800.000	-0.070	-0.207
-493.551	-81.788	-0.059	-0.019
-492.537	-95.716	-0.151	0.040
-491.522	-97.186	-0.258	-0.067
-490.508	165.897	-0.169	-0.236
-489.493	148.472	0.168	-0.225
-488.478	39.460	0.152	-0.135
-487.464	220.118	0.109	-0.174
-486.449	-63.859	-0.456	0.185
-485.435	490.183	-0.187	-0.424
-484.420	-79.358	0.265	-0.089
-483.405	-200.000	0.032	-0.272
-482.391	-200.000	-0.038	-0.281
-481.376	-131.553	0.192	0.025
-480.362	-30.533	0.283	0.159
-479.347	-29.220	-0.139	0.079
-478.332	-200.000	-0.029	-0.151
-477.318	87.902	-0.098	-0.107
-476.303	89.196	0.050	-0.055
-475.289	-200.000	-0.041	0.207
-474.274	-171.710	0.156	-0.005
-473.259	-10.832	-0.146	-0.095
-472.245	-102.046	0.192	0.046
-471.230	109.184	-0.128	-0.151
-470.216	-83.421	-0.327	-0.104
-469.201	-142.153	-0.070	-0.007
-468.186	-145.920	-0.093	0.008
-467.172	41.428	0.103	0.092
-466.157	237.502	0.056	-0.091
-465.143	-60.350	-0.409	0.172
-464.128	-141.653	-0.288	0.029
-463.113	115.497	-0.100	-0.120
-462.099	-20.875	0.025	0.015
-461.084	-63.240	0.171	0.070
-460.070	-35.728	-0.135	0.072
-459.055	6.278	-0.281	0.206
-458.040	-200.000	0.080	0.417
-457.026	-127.654	-0.356	0.051
-456.011	-30.857	0.297	0.166
-454.997	-200.000	0.072	-0.362
-453.982	420.642	-0.149	-0.316
-452.968	66.825	-0.137	-0.138
-451.953	-200.000	-0.038	0.317
-450.938	-192.441	0.218	0.002
-449.924	-146.234	0.071	0.006
-448.909	29.344	-0.258	-0.217
-447.895	-23.798	-0.189	0.112
-446.880	-75.171	0.187	-0.066
-445.865	-56.304	0.217	-0.095
-444.851	-47.547	-0.260	0.125
-443.836	383.437	0.073	0.149
-442.822	-200.000	0.001	0.164
-441.807	178.070	0.047	-0.068
-440.792	-200.000	-0.000	0.166
-439.778	-26.443	0.169	-0.098
-438.763	58.259	-0.035	-0.034
-437.749	28.721	-0.188	-0.157
-436.734	800.000	-0.164	0.453
-435.719	-122.138	0.317	-0.051
-434.705	158.198	-0.052	0.071
-433.690	800.000	-0.137	-0.386
-432.676	-121.287	-0.111	0.018
-431.661	257.745	0.099	-0.168
-430.646	5.265	-0.171	-0.125
-429.632	52.743	-0.076	0.072
-428.617	-11.694	-0.150	-0.097
-427.603	310.636	-0.221	0.409
-426.588	127.813	-0.134	-0.169
-425.573	800.000	0.058	0.173
-424.559	-119.477	-0.176	-0.030
-423.544	49.687	-0.201	0.187
-422.530	-124.237	-0.276	0.043
-421.515	271.886	0.125	-0.217
-420.500	131.051	-0.088	-0.111
-419.486	-200.000	-0.089	-0.397
-418.471	87.121	-0.065	-0.070
-417.457	-200.000	-0.045	0.240
-416.442	-200.000	0.003	-0.258
-415.428	-127.813	0.168	0.024
-414.413	146.328	-0.117	0.155
-413.398	800.000	0.132	-0.390
-412.384	-56.416	-0.335	-0.147
-411.369	47.164	0.170	0.156
-410.355	334.345	-0.073	0.139
-409.340	-200.000	-0.034	-0.272
-408.325	-200.000	-0.003	-0.063
-407.311	-156.236	-0.210	0.013
-406.296	51.901	0.230	0.216
-405.282	-77.187	-0.176	-0.060
-404.267	243.290	-0.114	0.188
-403.252	149.304	0.157	0.210
-402.238	-47.169	-0.227	0.109
-401.223	132.749	-0.134	-0.170
-400.209	159.695	-0.080	0.110
-399.194	-200.000	0.024	-0.220
-398.179	-153.609	0.042	-0.003
-397.165	298.313	0.139	-0.252
-396.150	800.000	-0.105	0.398
-395.136	-12.041	-0.202	0.130
-394.121	132.564	0.173	0.220
-393.106	800.000	0.100	0.300
-392.092	-200.000	0.017	0.305
-391.077	-77.678	0.289	-0.099
-390.063	-161.606	-0.307	-0.016
-389.048	-200.000	0.041	-0.198
-388.033	122.717	0.116	0.144
-387.019	8.064	0.313	-0.231
-386.004	319.916	-0.086	0.161
-384.990	-200.000	-0.037	-0.257
-383.975	800.000	0.039	-0.162
-382.960	253.525	-0.208	0.350
-381.946	17.096	-0.121	-0.095
-380.931	-78.742	-0.112	0.038
-379.917	123.319	-0.168	0.207
-378.902	-127.601	-0.172	-0.025
-377.888	104.231	0.106	-0.123
-376.873	-200.000	0.002	0.095
-375.858	-200.000	-0.007	0.257
-374.844	-93.675	-0.084	-0.023
-373.829	800.000	-0.056	-0.216
-372.815	-66.909	-0.165	-0.064
-371.800	-2.893	0.108	0.074
-370.785	65.676	0.100	0.100
-369.771	-200.000	-0.000	-0.071
-368.756	-135.604	0.403	-0.047
-367.742	-128.570	0.288	-0.040
-366.727	-119.273	0.052	0.009
-365.712	-15.947	-0.218	0.137
-364.698	18.974	-0.205	-0.162
-363.683	-200.000	-0.022	0.115
-362.669	34.951	0.184	-0.159
-361.654	-200.000	0.005	-0.231
-360.639	-122.547	0.183	-0.029
-359.625	-22.102	0.062	0.037
-358.610	-113.693	-0.366	-0.070
-357.596	536.920	0.048	-0.111
-356.581	-59.299	-0.045	-0.019
-355.566	-163.883	-0.244	-0.011
-354.552	-108.770	0.083	-0.017
-353.537	-17.876	0.235	-0.145
-352.523	-151.070	-0.133	-0.010
-351.508	-159.188	-0.119	-0.007
-350.493	144.953	0.238	-0.314
-349.479	33.351	-0.087	-0.074
-348.464	-154.716	-0.200	0.013
-347.450	-67.559	-0.121	0.047
-346.435	-135.264	-0.078	-0.009
-345.420	-145.840	0.393	0.034
-344.406	183.616	-0.176	0.256
-343.391	61.222	-0.016	0.015
-342.377	-200.000	0.007	0.061
-341.362	-200.000	0.038	-0.249
-340.348	-19.038	-0.242	-0.148
-339.333	-200.000	0.043	0.291
-338.318	26.024	0.241	0.198
-337.304	541.663	0.097	-0.228
-336.289	-157.886	-0.131	-0.008
-335.275	-200.000	-0.255	0.000
-334.260	494.596	0.056	-0.127
-333.245	800.000	0.056	0.166
-332.231	225.028	0.152	0.241
-331.216	-34.690	0.173	0.093
-330.202	-74.616	0.075	0.026
-329.187	471.440	-0.079	0.174
-328.172	-66.984	-0.122	0.047
-327.158	278.210	0.081	0.142
-326.143	-200.000	-0.036	0.180
-325.129	-2.718	0.151	-0.104
-324.114	800.000	-0.039	-0.150
-323.099	-200.000	-0.015	0.147
-322.085	135.088	-0.112	-0.143
-321.070	-200.000	-0.005	0.129
-320.056	-142.461	-0.407	0.039
-319.041	800.000	0.094	-0.392
-318.026	547.411	0.060	0.141
-317.012	-200.000	-0.041	-0.268
-315.997	-19.483	0.061	-0.037
-314.983	3.368	0.056	-0.040
-313.968	27.651	-0.039	0.033
-312.953	800.000	0.047	0.153
-311.939	406.043	-0.055	0.115
-310.924	-101.528	-0.233	-0.056
-309.910	9.779	-0.077	0.058
-308.895	169.429	0.070	0.099
-307.880	-200.000	0.029	0.191
-306.866	-162.018	-0.187	-0.009
-305.851	371.420	0.099	-0.197
-304.837	260.995	0.078	0.133
-303.822	-59.262	0.226	0.096
-302.807	-101.411	-0.197	0.047
-301.793	-17.312	0.206	0.127
-300.778	59.499	0.101	-0.098
-299.764	-104.637	0.388	0.088
-298.749	-163.631	0.155	-0.007
-297.735	100.752	0.130	0.148
-296.720	-139.844	-0.192	0.020
-295.705	23.997	0.301	0.244
-294.691	97.983	-0.277	0.313
-293.676	6.837	0.055	-0.040
-292.662	-200.000	-0.063	-0.492
-291.647	-65.366	-0.489	0.193
-290.632	125.248	-0.095	0.117
-289.618	4.366	-0.121	-0.087
-288.603	-22.888	-0.119	0.070
-287.589	-73.428	0.259	0.093
-286.574	-160.792	-0.281	-0.015
-285.559	94.348	0.072	-0.081
-284.545	-200.000	-0.033	-0.267
-283.530	-200.000	-0.002	0.060
-282.516	-200.000	-0.064	0.468
-281.501	-151.120	0.214	-0.016
-280.486	191.730	-0.201	-0.297
-279.472	800.000	0.044	0.182
-278.457	-27.080	0.108	-0.062
-277.443	-153.292	0.177	0.012
-276.428	630.427	0.177	-0.439
-275.413	-74.599	-0.139	0.049
-274.399	317.385	-0.159	0.294
-273.384	699.297	0.060	0.154
-272.370	-130.597	0.186	-0.025
-271.355	25.279	0.145	-0.119
-270.340	-113.131	-0.195	0.038
-269.326	-152.792	-0.167	-0.012
-268.311	487.617	-0.015	0.033
-267.297	-200.000	-0.002	0.113
-266.282	-200.000	0.023	-0.111
-265.267	-200.000	-0.044	-0.263
-264.253	800.000	0.131	-0.357
-263.238	74.459	-0.137	-0.141
-262.224	190.309	-0.097	-0.142
-261.209	-80.490	-0.207	0.068
-260.195	800.000	0.078	-0.265
-259.180	-200.000	0.007	0.103
-258.165	-67.767	0.183	-0.070
-257.151	139.317	-0.075	0.097
-256.136	-137.880	-0.228	-0.025
-255.122	-200.000	-0.017	0.104
-254.107	348.070	0.160	-0.309
-253.092	-200.000	-0.019	0.136
-252.078	-200.000	0.053	0.390
-251.063	485.576	0.216	0.482
-250.049	144.548	0.270	0.354
-249.034	-19.181	-0.300	0.182
-248.019	-200.000	0.036	0.246
-247.005	-146.821	-0.398	0.034
-245.990	589.696	-0.145	-0.350
-244.976	-194.768	-0.306	0.002
-243.961	339.266	0.147	-0.282
-242.946	-200.000	0.050	-0.249
-241.932	-2.343	0.087	0.059
-240.917	-173.962	-0.339	0.010
-239.903	0.263	-0.146	-0.102
-238.888	-200.000	-0.002	-0.180
-237.873	-38.484	-0.268	0.139
-236.859	-143.372	0.057	-0.005
-235.844	-55.377	-0.040	-0.017
-234.830	11.315	0.322	0.241
-233.815	800.000	0.145	-0.415
-232.800	-108.040	0.163	-0.035
-231.786	-131.424	0.196	0.025
-230.771	169.257	-0.059	0.082
-229.757	800.000	-0.073	0.217
-228.742	-177.999	0.081	0.002
-227.727	-95.912	0.120	-0.031
-226.713	100.717	-0.066	0.075
-225.698	17.694	0.181	-0.141
-224.684	396.461	-0.112	-0.229
-223.669	-200.000	0.028	-0.186
-222.655	-200.000	0.006	0.063
-221.640	322.027	0.153	0.285
-220.625	800.000	0.050	0.205
-219.611	-133.268	0.382	-0.047
-218.596	800.000	-0.124	-0.406
-217.582	-72.649	-0.253	0.091
-216.567	113.874	0.272	-0.324
-215.552	-200.000	-0.010	0.234
-214.538	-26.570	-0.369	0.211
-213.523	120.617	0.089	-0.108
-212.509	390.776	-0.033	-0.067
-211.494	-82.478	0.362	-0.115
-210.479	-200.000	0.025	0.257
-209.465	54.176	-0.103	-0.097
-208.450	-200.000	-0.035	-0.278
-207.436	35.320	0.345	0.296
-206.421	69.179	-0.204	-0.205
-205.406	800.000	0.027	-0.077
-204.392	160.980	-0.286	0.391
-203.377	-90.147	0.528	-0.151
-202.363	17.616	0.036	0.028
-201.348	-200.000	0.193	0.000
-200.333	800.000	0.053	0.220
-199.319	-200.000	0.023	-0.330
-198.304	800.000	-0.103	-0.400
-197.290	-12.088	-0.231	-0.148
-196.275	-83.160	0.082	0.026
-195.260	-200.000	-0.003	-0.244
-194.246	71.681	0.249	0.253
-193.231	-34.258	0.435	0.234
-192.217	-149.363	-0.493	-0.038
-191.202	93.737	0.080	-0.089
-190.187	-24.550	0.170	-0.099
-189.173	800.000	0.104	0.336
-188.158	88.714	-0.043	-0.047
-187.144	-29.484	-0.068	0.038
-186.129	14.299	0.117	0.089
-185.114	110.778	0.268	-0.315
-184.100	220.347	-0.072	0.113
-183.085	32.174	0.102	-0.086
-182.071	-129.825	0.451	0.061
-181.056	755.792	-0.137	0.362
-180.042	119.008	0.158	-0.191
-179.027	-34.427	-0.199	-0.106
-178.012	-48.400	-0.057	-0.027
-176.998	-200.000	0.326	-0.001
-175.983	-200.000	0.053	0.274
-174.969	233.143	0.050	0.080
-173.954	-9.412	-0.035	0.023
-172.939	-26.112	-0.170	-0.098
-171.925	-100.766	0.149	-0.036
-170.910	-200.000	-0.010	0.074
-169.896	9.309	0.159	0.117
-168.881	216.986	0.071	0.110
-167.866	-200.000	-0.034	-0.261
-166.852	-22.569	0.105	0.062
-165.837	34.866	0.135	0.115
-164.823	-200.000	0.009	0.243
-163.808	800.000	0.042	-0.128
-162.793	187.940	-0.080	-0.117
-161.779	-75.972	0.146	0.050
-160.764	163.521	-0.032	0.043
-159.750	204.986	0.090	-0.137
-158.735	-200.000	-0.014	-0.232
-157.720	123.856	-0.060	0.073
-156.706	588.423	-0.063	0.151
-155.691	-37.067	0.142	0.075
-154.677	-43.732	-0.091	0.045
-153.662	800.000	-0.091	-0.255
-152.647	501.555	-0.132	-0.299
-151.633	559.045	0.068	-0.160
-150.618	800.000	0.065	-0.208
-149.604	-28.025	0.117	0.066
-148.589	-110.528	-0.267	-0.054
-147.574	63.580	0.138	0.135
-146.560	78.634	0.260	0.271
-145.545	-146.899	0.072	0.006
-144.531	-200.000	0.004	0.089
-143.516	-63.659	-0.236	-0.095
-142.502	-48.507	0.388	-0.182
-141.487	89.024	0.214	-0.233
-140.472	-130.276	-0.061	-0.008
-139.458	-117.350	-0.108	-0.019
-138.443	800.000	0.080	-0.270
-137.429	-44.288	0.169	0.083
-136.414	-195.174	0.532	-0.004
-135.399	-200.000	-0.048	-0.328
-134.385	5.677	-0.200	-0.144
-133.370	-25.283	-0.128	0.074
-132.356	-116.935	-0.096	0.017
-131.341	-51.328	0.373	0.170
-130.326	-200.000	0.041	0.224
-129.312	800.000	0.042	-0.168
-128.297	52.321	-0.076	-0.071
-127.283	-144.735	-0.067	-0.006
-126.268	140.892	0.263	0.339
-125.253	-142.947	0.100	0.009
-124.239	800.000	0.097	0.402
-123.224	87.843	0.260	-0.281
-122.210	-140.983	-0.292	0.029
