DTS Sentinel unit serial number:	SN413079Multiplexer serial number:	ORYXHardware model number:	OX4-SRSoftware version number:	ORYX F/W v4.00 Oryx Data Collector v3.7.2.0data status	okinstallation	princeton_trtdifferential loss correction	single-endedforward channel	channel 3reverse channel	N/Adate	2019/09/12time	16:46:10forward acquisition time	60.00reverse acquisition time	0.00gamma	496.2192k internal	0.2308k external	0.2308temperature offset calibration	1.0081default loss term (dB/km)	0.3790temperature slope calibration	1.0000multiplexer offset coefficient	1.0000multiplexer slope coefficient	1.0000fibre end	0.00T internal ref (°C)	36.42T ext. ref 1 (°C)	2.70T ext. ref 2 (°C)	29.61length (m)	temperature (°C)	Stokes	anti-Stokes-747.200	-81.362	0.274	-0.092
-746.185	-200.000	0.032	0.158
-745.171	15.170	0.194	0.155
-744.156	-61.663	-0.139	0.059
-743.142	397.432	0.013	0.027
-742.127	-200.000	-0.038	0.522
-741.112	499.695	0.033	-0.078
-740.098	-89.045	-0.135	0.041
-739.083	-105.339	-0.060	-0.014
-738.069	-200.000	-0.049	0.270
-737.054	114.320	0.077	0.095
-736.039	-0.388	0.112	-0.081
-735.025	800.000	0.113	0.469
-734.010	-24.958	0.315	0.190
-732.996	458.649	-0.113	-0.256
-731.981	-75.518	-0.196	0.071
-730.966	-86.112	-0.240	-0.075
-729.952	181.164	-0.110	0.164
-728.937	-24.784	-0.055	0.033
-727.923	800.000	0.094	-0.283
-726.908	-108.173	0.160	0.035
-725.894	682.916	-0.205	-0.542
-724.879	81.615	0.087	-0.095
-723.864	-153.961	-0.280	0.019
-722.850	644.335	-0.057	0.147
-721.835	-81.199	-0.438	-0.147
-720.821	112.975	-0.212	0.261
-719.806	146.088	0.244	-0.332
-718.791	64.895	0.187	-0.192
-717.777	47.464	0.196	-0.185
-716.762	761.571	0.087	-0.239
-715.748	41.510	0.155	0.142
-714.733	-200.000	-0.016	0.223
-713.718	-93.455	-0.245	0.069
-712.704	-145.306	-0.236	-0.022
-711.689	-133.478	0.152	-0.019
-710.675	800.000	-0.088	-0.284
-709.660	-200.000	-0.003	0.086
-708.645	-157.944	-0.280	-0.017
-707.631	98.342	-0.152	-0.177
-706.616	-200.000	-0.011	0.189
-705.602	451.667	-0.019	0.043
-704.587	-126.966	-0.274	0.041
-703.572	-88.166	-0.166	0.051
-702.558	-200.000	-0.003	-0.072
-701.543	-200.000	0.011	-0.196
-700.529	-200.000	-0.018	-0.193
-699.514	800.000	-0.063	0.191
-698.499	-47.899	0.053	-0.026
-697.485	41.306	-0.190	-0.174
-696.470	-200.000	0.016	0.106
-695.456	62.648	-0.045	-0.045
-694.441	-81.481	-0.188	-0.063
-693.426	1.368	-0.137	0.100
-692.412	800.000	0.052	0.182
-691.397	-200.000	0.052	-0.340
-690.383	15.074	-0.146	-0.116
-689.368	-46.061	0.121	-0.060
-688.354	-200.000	0.022	-0.150
-687.339	-200.000	0.011	-0.094
-686.324	-69.606	-0.269	0.104
-685.310	-62.225	0.135	0.057
-684.295	-68.233	-0.148	0.058
-683.281	-200.000	0.022	-0.329
-682.266	-200.000	-0.037	-0.408
-681.251	110.355	-0.286	-0.349
-680.237	-200.000	0.013	-0.230
-679.222	50.889	0.240	-0.231
-678.208	93.996	-0.222	-0.255
-677.193	-25.459	0.169	0.101
-676.178	800.000	-0.160	0.520
-675.164	-25.357	0.414	-0.248
-674.149	-171.207	-0.161	0.005
-673.135	800.000	0.067	-0.273
-672.120	800.000	0.054	-0.205
-671.105	106.932	0.233	-0.280
-670.091	600.276	0.073	-0.185
-669.076	-90.973	-0.231	-0.067
-668.062	-115.515	0.216	0.041
-667.047	189.620	-0.055	-0.083
-666.032	315.521	-0.035	0.066
-665.018	543.261	-0.108	-0.261
-664.003	-47.443	-0.295	-0.145
-662.989	297.553	0.156	-0.291
-661.974	-200.000	-0.021	-0.333
-660.959	611.788	0.039	-0.099
-659.945	-154.495	-0.081	0.005
-658.930	800.000	-0.052	-0.203
-657.916	-102.963	-0.561	0.135
-656.901	-3.589	-0.096	-0.067
-655.886	32.097	-0.188	0.165
-654.872	-78.834	0.116	-0.040
-653.857	39.720	0.164	0.149
-652.843	-98.738	-0.322	-0.083
-651.828	695.491	0.083	0.220
-650.814	-200.000	0.001	0.029
-649.799	109.223	0.077	0.093
-648.784	-200.000	-0.003	-0.116
-647.770	-99.112	-0.163	-0.042
-646.755	-81.913	0.166	-0.055
-645.741	-64.886	-0.185	0.076
-644.726	-61.254	0.112	0.048
-643.711	-181.840	0.138	0.003
-642.697	34.274	0.096	-0.085
-641.682	800.000	-0.089	-0.290
-640.668	-82.191	-0.482	-0.159
-639.653	212.404	0.103	-0.165
-638.638	-49.813	0.045	0.022
-637.624	48.795	-0.226	0.215
-636.609	261.011	0.080	0.141
-635.595	724.795	0.015	-0.042
-634.580	-142.619	0.166	0.016
-633.565	-55.396	-0.034	-0.015
-632.551	800.000	0.018	-0.051
-631.536	395.128	-0.110	-0.233
-630.522	-60.328	0.221	0.095
-629.507	-200.000	0.002	-0.113
-628.492	79.995	0.170	0.185
-627.478	-200.000	0.011	-0.293
-626.463	-158.807	0.371	0.021
-625.449	-200.000	-0.011	0.126
-624.434	731.476	-0.151	-0.408
-623.419	-8.774	-0.276	-0.187
-622.405	-200.000	0.011	0.238
-621.390	26.163	0.078	-0.066
-620.376	68.757	-0.164	-0.170
-619.361	-163.516	-0.238	-0.011
-618.346	-96.304	0.258	0.069
-617.332	-128.638	0.195	0.028
-616.317	-33.089	-0.367	0.206
-615.303	164.060	0.170	-0.243
-614.288	4.258	-0.309	-0.229
-613.273	47.294	-0.168	-0.159
-612.259	72.263	0.112	-0.118
-611.244	-113.194	-0.149	-0.030
-610.230	30.719	-0.165	-0.143
-609.215	-57.070	0.234	0.104
-608.201	-117.436	-0.077	-0.014
-607.186	-200.000	0.010	0.116
-606.171	-66.437	0.139	-0.056
-605.157	-147.810	0.140	0.012
-604.142	-125.828	0.479	-0.073
-603.128	-200.000	-0.004	-0.138
-602.113	-109.835	-0.164	-0.035
-601.098	-52.177	-0.343	-0.161
-600.084	800.000	0.070	-0.255
-599.069	-169.608	0.016	-0.001
-598.055	800.000	-0.043	0.129
-597.040	18.104	0.216	0.174
-596.025	23.368	0.112	0.093
-595.011	11.120	-0.157	0.121
-593.996	89.917	0.223	-0.251
-592.982	-91.543	-0.212	0.061
-591.967	85.634	-0.016	0.017
-590.952	-200.000	-0.054	0.338
-589.938	145.226	0.024	0.032
-588.923	-90.994	-0.152	0.044
-587.909	-135.741	-0.169	-0.020
-586.894	-200.000	-0.042	-0.235
-585.879	-60.579	-0.399	0.171
-584.865	-200.000	0.025	-0.125
-583.850	-94.092	0.278	0.077
-582.836	800.000	-0.042	-0.123
-581.821	-65.200	-0.194	0.079
-580.806	-200.000	-0.058	0.475
-579.792	-151.618	-0.194	-0.014
-578.777	133.461	-0.090	-0.117
-577.763	-52.234	-0.085	-0.040
-576.748	-200.000	0.038	-0.294
-575.733	35.604	0.073	-0.065
-574.719	800.000	0.074	-0.303
-573.704	800.000	0.100	-0.434
-572.690	-160.691	0.174	-0.009
-571.675	129.930	0.059	0.077
-570.661	-140.030	0.330	0.035
-569.646	-188.244	0.355	0.005
-568.631	800.000	0.043	-0.128
-567.617	397.327	0.135	-0.285
-566.602	-7.912	-0.113	-0.077
-565.588	-200.000	-0.039	0.296
-564.573	58.013	-0.217	-0.215
-563.558	53.540	0.237	-0.229
-562.544	24.456	0.266	-0.222
-561.529	-74.442	-0.211	0.077
-560.515	540.011	-0.081	0.195
-559.500	190.432	-0.258	0.391
-558.485	-7.863	-0.167	-0.114
-557.471	-200.000	-0.034	0.284
-556.456	94.866	0.199	0.229
-555.442	456.279	-0.113	0.253
-554.427	-146.055	-0.101	-0.009
-553.412	102.804	0.240	-0.284
-552.398	-81.099	-0.386	-0.129
-551.383	-117.311	-0.043	0.008
-550.369	397.106	-0.117	-0.246
-549.354	252.208	0.042	0.072
-548.339	14.845	-0.043	-0.034
-547.325	-50.383	-0.260	0.124
-546.310	-4.354	-0.380	-0.265
-545.296	122.465	0.129	-0.163
-544.281	-116.924	-0.240	0.044
-543.266	211.241	-0.152	0.241
-542.252	-172.807	0.137	0.004
-541.237	538.288	-0.157	0.375
-540.223	-139.936	0.118	-0.013
-539.208	-130.366	-0.402	-0.055
-538.193	-142.743	0.244	0.024
-537.179	26.972	-0.239	0.202
-536.164	-19.669	0.172	-0.108
-535.150	-200.000	-0.034	-0.307
-534.135	680.766	-0.034	-0.089
-533.121	309.630	0.193	-0.365
-532.106	-86.297	0.271	-0.084
-531.091	18.862	0.135	-0.109
-530.077	-200.000	-0.014	-0.110
-529.062	9.818	-0.139	-0.106
-528.048	-200.000	-0.010	-0.056
-527.033	800.000	0.113	0.325
-526.018	234.698	-0.124	0.206
-525.004	-109.044	0.108	0.023
-523.989	211.832	0.100	0.159
-522.975	-124.172	-0.172	-0.027
-521.960	-188.565	-0.084	0.001
-520.945	-169.464	0.260	0.010
-519.931	37.801	0.311	-0.279
-518.916	-25.581	-0.226	0.134
-517.902	-145.449	-0.283	-0.026
-516.887	-77.771	0.100	-0.035
-515.872	-200.000	0.050	0.236
-514.858	221.102	-0.321	0.519
-513.843	-200.000	0.062	-0.301
-512.829	-200.000	-0.000	0.109
-511.814	-200.000	0.044	0.225
-510.799	228.556	-0.181	-0.297
-509.785	10.105	0.333	-0.255
-508.770	-200.000	-0.065	-0.380
-507.756	208.226	-0.225	0.353
-506.741	-7.133	-0.196	0.134
-505.726	-91.046	-0.034	0.010
-504.712	-200.000	0.067	-0.504
-503.697	-95.696	0.294	0.079
-502.683	-52.853	-0.162	0.075
-501.668	96.476	0.094	-0.109
-500.653	-114.277	0.136	0.026
-499.639	259.064	-0.139	0.242
-498.624	-200.000	0.009	0.122
-497.610	82.640	0.060	0.066
-496.595	437.347	0.053	-0.116
-495.581	23.873	0.396	0.328
-494.566	-56.244	-0.219	-0.098
-493.551	-179.202	-0.172	-0.004
-492.537	-130.808	0.172	0.023
-491.522	58.867	0.085	0.084
-490.508	-41.992	0.177	-0.091
-489.493	-124.023	0.313	0.050
-488.478	-163.923	0.116	0.005
-487.464	-63.858	0.334	0.137
-486.449	-114.239	0.239	0.046
-485.435	-170.450	0.198	-0.007
-484.420	-100.848	0.110	0.027
-483.405	800.000	0.045	-0.179
-482.391	-105.982	-0.115	-0.026
-481.376	800.000	0.071	-0.212
-480.362	-170.175	0.136	0.005
-479.347	-11.016	0.093	0.062
-478.332	-200.000	0.012	-0.144
-477.318	87.920	0.155	-0.173
-476.303	78.934	-0.066	-0.071
-475.289	291.279	-0.297	0.544
-474.274	800.000	-0.054	0.161
-473.259	132.449	0.153	-0.199
-472.245	-200.000	-0.037	-0.207
-471.230	282.210	-0.158	0.285
-470.216	-83.400	0.297	-0.096
-469.201	-85.495	0.223	-0.070
-468.186	666.533	0.065	0.169
-467.172	-200.000	-0.051	-0.321
-466.157	-161.682	-0.342	-0.018
-465.143	-200.000	-0.017	-0.278
-464.128	343.074	-0.056	-0.111
-463.113	-101.387	-0.246	0.060
-462.099	-120.541	0.172	0.029
-461.084	126.223	0.142	0.180
-460.070	27.616	-0.137	0.116
-459.055	187.752	-0.115	-0.172
-458.040	92.157	0.173	-0.196
-457.026	23.964	-0.261	0.216
-456.011	800.000	0.036	-0.140
-454.997	-75.800	0.437	0.156
-453.982	-200.000	0.056	-0.311
-452.968	-68.439	-0.380	-0.148
-451.953	-200.000	-0.025	-0.214
-450.938	165.043	0.053	-0.075
-449.924	-12.985	-0.115	0.075
-448.909	2.755	-0.134	0.098
-447.895	-128.629	0.122	0.017
-446.880	163.701	0.130	-0.184
-445.865	800.000	0.023	0.082
-444.851	58.378	-0.121	-0.120
-443.836	2.217	-0.198	0.144
-442.822	665.295	0.023	0.060
-441.807	-56.048	-0.331	-0.148
-440.792	800.000	-0.064	-0.251
-439.778	29.390	-0.077	-0.065
-438.763	-11.476	-0.120	0.079
-437.749	800.000	-0.194	-0.565
-436.734	-97.365	0.193	0.050
-435.719	52.277	-0.055	-0.053
-434.705	-88.464	0.260	-0.078
-433.690	-39.072	0.204	-0.108
-432.676	2.110	0.076	-0.055
-431.661	-46.119	0.091	0.045
-430.646	800.000	0.075	0.225
-429.632	-129.920	0.234	-0.032
-428.617	-59.248	0.150	-0.065
-427.603	800.000	-0.012	0.047
-426.588	-200.000	0.031	-0.432
-425.573	-200.000	-0.066	0.300
-424.559	-16.165	-0.123	0.078
-423.544	-16.624	-0.341	0.217
-422.530	-32.377	-0.257	-0.144
-421.515	800.000	0.082	0.281
-420.500	-200.000	-0.009	-0.456
-419.486	-151.677	-0.277	-0.021
-418.471	627.957	-0.094	0.238
-417.457	666.684	-0.020	0.052
-416.442	110.251	-0.074	0.089
-415.428	800.000	-0.044	-0.137
-414.413	800.000	0.012	0.047
-413.398	248.136	-0.048	0.082
-412.384	243.012	-0.119	0.201
-411.369	419.722	-0.075	-0.162
-410.355	-63.714	-0.272	-0.112
-409.340	800.000	-0.029	-0.098
-408.325	-200.000	-0.009	-0.043
-407.311	60.435	0.158	0.157
-406.296	-200.000	-0.199	0.001
-405.282	-200.000	-0.002	0.158
-404.267	-200.000	-0.004	-0.024
-403.252	203.804	-0.120	0.186
-402.238	382.073	-0.150	0.308
-401.223	275.532	-0.031	0.055
-400.209	-101.960	-0.102	0.025
-399.194	-118.686	0.229	0.041
-398.179	334.077	-0.092	-0.179
-397.165	-56.248	0.363	-0.162
-396.150	-200.000	-0.009	-0.177
-395.136	-200.000	-0.002	-0.192
-394.121	-152.677	0.453	0.032
-393.106	70.967	0.182	0.189
-392.092	-200.000	-0.025	0.137
-391.077	56.408	-0.109	-0.106
-390.063	53.535	-0.437	0.421
-389.048	262.087	-0.159	-0.276
-388.033	-3.128	-0.271	-0.189
-387.019	-91.894	0.153	-0.044
-386.004	-113.962	0.031	0.006
-384.990	-80.326	-0.121	-0.040
-383.975	84.282	-0.226	-0.248
-382.960	-47.251	0.317	-0.155
-381.946	-4.126	0.051	-0.035
-380.931	-62.501	0.297	0.124
-379.917	357.030	-0.194	0.387
-378.902	-200.000	-0.004	-0.247
-377.888	36.027	-0.272	-0.239
-376.873	387.544	0.040	-0.083
-375.858	-62.079	-0.208	0.087
-374.844	-40.235	-0.078	-0.041
-373.829	122.026	0.093	0.117
-372.815	77.528	0.086	0.092
-371.800	235.548	-0.211	0.350
-370.785	13.633	0.204	0.159
-369.771	147.789	0.219	-0.296
-368.756	800.000	-0.012	0.039
-367.742	-92.060	-0.092	0.026
-366.727	248.622	0.190	0.322
-365.712	295.545	0.087	-0.159
-364.698	174.213	-0.114	0.165
-363.683	-200.000	-0.038	0.289
-362.669	204.023	0.128	0.199
-361.654	116.184	-0.244	-0.299
-360.639	32.314	-0.155	0.134
-359.625	14.403	0.237	0.185
-358.610	115.978	0.164	-0.201
-357.596	315.756	0.095	-0.180
-356.581	-48.480	-0.142	0.069
-355.566	68.431	-0.170	-0.175
-354.552	-200.000	0.035	-0.584
-353.537	-7.522	-0.266	0.180
-352.523	207.159	0.421	0.657
-351.508	800.000	-0.047	0.180
-350.493	9.219	-0.149	0.113
-349.479	-200.000	-0.020	-0.218
-348.464	-155.455	-0.095	-0.006
-347.450	-134.569	-0.244	-0.030
-346.435	-129.257	0.175	0.024
-345.420	-187.103	0.292	0.004
-344.406	-25.020	0.271	-0.161
-343.391	-126.790	-0.124	-0.018
-342.377	-157.187	0.245	-0.015
-341.362	159.638	0.104	-0.144
-340.348	82.778	0.049	0.053
-339.333	800.000	-0.087	-0.349
-338.318	152.558	0.137	0.187
-337.304	800.000	0.039	-0.161
-336.289	76.039	-0.106	0.112
-335.275	59.197	0.227	-0.224
-334.260	-200.000	-0.037	0.375
-333.245	800.000	-0.056	0.210
-332.231	90.372	0.156	0.175
-331.216	-95.361	0.082	-0.022
-330.202	29.167	-0.283	0.240
-329.187	-112.133	-0.296	0.059
-328.172	-200.000	-0.016	0.248
-327.158	-120.953	-0.525	0.088
-326.143	-45.399	0.150	-0.074
-325.129	-143.997	-0.230	-0.022
-324.114	-136.140	0.118	-0.014
-323.099	756.982	-0.045	0.122
-322.085	60.879	-0.151	0.150
-321.070	-129.635	0.204	-0.028
-320.056	-76.598	0.028	0.010
-319.041	235.020	0.084	0.139
-318.026	-96.053	-0.537	0.143
-317.012	-20.290	-0.315	0.194
-315.997	-106.275	-0.252	0.056
-314.983	285.584	0.044	0.080
-313.968	-44.467	0.217	0.108
-312.953	-14.830	-0.089	0.057
-311.939	-182.945	-0.094	-0.002
-310.924	99.322	0.276	0.319
-309.910	-200.000	-0.008	-0.231
-308.895	480.569	-0.039	0.087
-307.880	21.809	0.190	-0.155
-306.866	18.213	-0.161	0.128
-305.851	234.296	-0.080	-0.131
-304.837	-78.776	-0.171	-0.058
-303.822	-193.590	-0.392	0.003
-302.807	-200.000	0.030	0.208
-301.793	705.038	0.137	-0.362
-300.778	800.000	0.060	0.193
-299.764	4.672	0.221	-0.162
-298.749	-96.420	0.288	-0.076
-297.735	800.000	0.034	-0.101
-296.720	-26.150	-0.228	-0.134
-295.705	-48.109	-0.027	-0.013
-294.691	-10.908	-0.131	0.086
-293.676	401.644	-0.078	-0.163
-292.662	-67.481	0.185	0.072
-291.647	124.858	-0.192	0.242
-290.632	800.000	-0.067	-0.186
-289.618	-200.000	0.019	-0.112
-288.603	-200.000	0.027	0.147
-287.589	473.200	0.084	-0.189
-286.574	81.966	-0.207	-0.224
-285.559	-72.735	0.142	0.052
-284.545	-107.133	0.187	0.041
-283.530	800.000	-0.094	0.276
-282.516	-171.950	0.252	0.008
-281.501	178.854	-0.108	-0.158
-280.486	-182.878	-0.198	-0.004
-279.472	-52.627	0.183	-0.084
-278.457	132.226	0.294	0.377
-277.443	696.118	-0.070	0.183
-276.428	428.967	-0.056	0.121
-275.413	232.990	-0.179	0.293
-274.399	46.761	0.245	-0.227
-273.384	3.707	-0.095	0.069
-272.370	-15.326	-0.250	0.159
-271.355	195.387	-0.147	0.223
-270.340	336.731	0.049	-0.094
-269.326	800.000	0.082	-0.314
-268.311	800.000	0.063	-0.174
-267.297	-200.000	0.005	-0.054
-266.282	576.577	-0.134	0.326
-265.267	-197.127	-0.340	0.002
-264.253	106.497	0.096	0.114
-263.238	44.716	0.114	-0.105
-262.224	-150.571	-0.356	-0.027
-261.209	587.358	0.123	-0.302
-260.195	84.954	0.122	-0.133
-259.180	-200.000	-0.042	0.390
-258.165	-28.631	0.124	0.071
-257.151	-81.924	-0.139	-0.045
-256.136	-154.833	0.281	0.019
-255.122	437.939	0.095	-0.208
-254.107	11.958	0.127	0.097
-253.092	-42.465	0.359	-0.183
-252.078	-0.829	0.185	-0.131
-251.063	-126.160	0.292	0.044
-250.049	85.312	-0.302	0.331
-249.034	800.000	0.031	0.094
-248.019	-59.852	-0.201	0.086
-247.005	71.834	0.100	0.104
-245.990	-20.778	-0.230	0.140
-244.976	-28.442	0.131	-0.076
-243.961	-156.877	0.238	0.015
-242.946	151.220	-0.045	-0.061
-241.932	-200.000	0.052	-0.345
-240.917	-163.517	0.165	0.008
-239.903	-186.187	-0.184	0.003
-238.888	-73.986	0.144	0.052
-237.873	87.701	0.060	-0.066
-236.859	1.572	-0.208	0.149
-235.844	-171.426	0.455	-0.015
-234.830	-117.081	-0.191	-0.035
-233.815	800.000	-0.024	0.101
-232.800	168.447	-0.172	-0.244
-231.786	103.139	-0.224	0.261
-230.771	-84.305	0.088	0.028
-229.757	-200.000	0.038	0.355
-228.742	74.830	-0.209	0.219
-227.727	-200.000	0.010	0.051
-226.713	800.000	0.040	-0.158
-225.698	-38.321	0.253	0.134
-224.684	-178.207	0.167	-0.004
-223.669	-47.105	0.322	-0.156
-222.655	658.495	0.017	0.044
-221.640	266.119	0.046	0.079
-220.625	559.063	-0.052	0.126
-219.611	47.278	0.278	-0.258
-218.596	63.247	0.025	0.025
-217.582	358.267	-0.189	-0.375
-216.567	800.000	0.039	-0.118
-215.552	-49.691	0.118	0.056
-214.538	40.490	-0.080	-0.072
-213.523	-192.257	0.266	-0.003
-212.509	-9.714	0.070	-0.046
-211.494	-85.048	0.430	-0.134
-210.479	-101.631	-0.275	-0.066
-209.465	-200.000	0.015	0.138
-208.450	800.000	0.095	0.402
-207.436	-40.813	0.179	0.092
-206.421	593.316	-0.115	-0.283
-205.406	143.635	0.130	0.172
-204.392	-107.674	0.164	0.036
-203.377	800.000	-0.056	0.219
-202.363	-200.000	-0.044	0.259
-201.348	-57.282	-0.400	-0.175
-200.333	-55.026	-0.208	-0.093
-199.319	800.000	0.073	0.307
-198.304	182.445	0.060	0.088
-197.290	153.615	0.079	-0.107
-196.275	2.561	0.143	0.103
-195.260	-200.000	-0.034	0.231
-194.246	27.276	-0.150	0.126
-193.231	-88.276	0.169	0.050
-192.217	495.254	-0.044	-0.101
-191.202	315.327	0.068	0.128
-190.187	-88.015	-0.160	-0.048
-189.173	-106.969	-0.214	-0.047
-188.158	-116.903	0.155	-0.028
-187.144	-110.605	0.292	0.060
-186.129	-32.320	-0.102	0.057
-185.114	7.881	-0.328	0.244
-184.100	168.950	-0.116	-0.164
-183.085	800.000	0.032	-0.127
-182.071	96.386	-0.434	0.493
-181.056	460.272	0.079	0.175
-180.042	83.412	-0.186	0.202
-179.027	319.490	0.132	-0.248
-178.012	-200.000	0.006	-0.154
-176.998	800.000	-0.020	0.075
-175.983	251.298	0.134	0.226
-174.969	672.179	-0.046	0.119
-173.954	46.693	-0.015	-0.014
-172.939	133.471	0.142	-0.183
-171.925	-106.954	0.267	-0.059
-170.910	515.095	0.106	-0.246
-169.896	-120.970	-0.242	0.040
-168.881	-99.979	0.158	-0.039
-167.866	135.669	0.058	-0.075
-166.852	19.997	-0.134	0.108
-165.837	-81.285	-0.354	0.116
-164.823	251.752	0.089	-0.150
-163.808	-200.000	-0.021	-0.116
-162.793	-200.000	0.007	0.065
-161.779	-53.184	0.126	0.058
-160.764	800.000	0.088	0.293
-159.750	-117.911	-0.097	0.017
-158.735	-200.000	-0.025	0.238
-157.720	17.382	-0.247	-0.195
-156.706	465.876	-0.054	-0.121
-155.691	-165.771	0.331	0.014
-154.677	107.645	0.107	-0.127
-153.662	-32.965	0.241	-0.133
-152.647	-97.169	0.397	-0.103
-151.633	-95.946	0.243	-0.064
-150.618	-90.642	0.401	0.115
-149.604	-196.829	0.371	-0.002
-148.589	-94.747	0.124	-0.034
-147.574	-65.169	0.158	-0.063
-146.560	693.888	-0.074	-0.193
-145.545	55.226	0.225	-0.216
-144.531	59.124	-0.389	0.380
-143.516	5.060	0.458	0.335
-142.502	-54.733	0.083	-0.037
-141.487	800.000	0.018	0.056
-140.472	-164.213	0.175	0.008
-139.458	41.909	0.160	-0.144
-138.443	800.000	-0.053	-0.170
-137.429	-172.138	-0.178	-0.006
-136.414	91.901	0.135	-0.151
-135.399	-109.957	0.375	-0.078
-134.385	-200.000	-0.030	0.198
-133.370	-60.007	-0.213	-0.090
-132.356	-41.054	-0.165	0.085
-131.341	-48.279	0.101	-0.049
-130.326	800.000	0.130	0.473
-129.312	117.415	0.120	0.146
-128.297	585.502	0.079	0.193
-127.283	-36.998	0.114	-0.061
-126.268	-126.773	-0.210	-0.031
-125.253	-112.422	-0.256	-0.051
-124.239	-200.000	-0.037	-0.166
-123.224	640.995	-0.135	-0.341
-122.210	-200.000	-0.007	0.144
-121.195	-116.196	0.054	0.010
