DTS Sentinel unit serial number:	SN413079Multiplexer serial number:	ORYXHardware model number:	OX4-SRSoftware version number:	ORYX F/W v4.00 Oryx Data Collector v3.7.2.0data status	okinstallation	princeton_trtdifferential loss correction	single-endedforward channel	channel 3reverse channel	N/Adate	2019/09/13time	01:20:35forward acquisition time	60.00reverse acquisition time	0.00gamma	496.2192k internal	0.2333k external	0.2333temperature offset calibration	1.0122default loss term (dB/km)	0.3790temperature slope calibration	1.0000multiplexer offset coefficient	1.0000multiplexer slope coefficient	1.0000fibre end	0.00T internal ref (°C)	27.87T ext. ref 1 (°C)	3.71T ext. ref 2 (°C)	22.45length (m)	temperature (°C)	Stokes	anti-Stokes-747.200	261.245	-0.152	-0.264
-746.185	-200.000	0.037	0.371
-745.171	-53.707	0.528	0.243
-744.156	-142.838	-0.193	0.019
-743.142	-200.000	0.029	-0.253
-742.127	800.000	-0.097	0.329
-741.112	-64.913	0.082	-0.033
-740.098	704.127	0.113	-0.299
-739.083	-153.819	0.132	0.009
-738.069	119.774	0.125	0.156
-737.054	-182.225	-0.223	0.004
-736.039	-37.599	-0.062	0.033
-735.025	-66.559	0.325	0.130
-734.010	-111.684	-0.330	0.067
-732.996	-174.620	-0.351	-0.010
-731.981	-142.043	-0.156	0.016
-730.966	-137.701	0.077	-0.009
-729.952	-200.000	-0.046	-0.693
-728.937	59.123	0.183	-0.181
-727.923	170.041	-0.072	-0.103
-726.908	128.506	0.021	-0.027
-725.894	-33.538	-0.195	-0.108
-724.879	26.347	-0.202	-0.169
-723.864	-32.728	0.063	-0.035
-722.850	-129.133	-0.114	-0.016
-721.835	197.052	0.025	-0.038
-720.821	-139.480	0.327	-0.035
-719.806	-200.000	-0.022	-0.192
-718.791	215.926	0.195	-0.311
-717.777	133.122	-0.231	0.299
-716.762	-106.322	-0.548	-0.123
-715.748	-131.101	-0.124	-0.017
-714.733	-174.650	0.193	0.006
-713.718	200.588	0.162	0.250
-712.704	-95.669	-0.225	0.060
-711.689	76.414	0.046	0.049
-710.675	-200.000	-0.037	0.528
-709.660	136.777	0.122	-0.160
-708.645	94.659	0.108	-0.124
-707.631	-90.826	-0.110	-0.032
-706.616	422.909	-0.022	-0.048
-705.602	-97.123	0.249	-0.065
-704.587	2.631	0.272	-0.198
-703.572	473.890	-0.107	-0.242
-702.558	8.116	-0.218	0.164
-701.543	-200.000	-0.055	0.280
-700.529	-117.458	0.305	0.055
-699.514	-39.622	-0.173	0.091
-698.499	800.000	-0.064	-0.205
-697.485	800.000	-0.084	-0.258
-696.470	-200.000	0.010	-0.132
-695.456	800.000	-0.027	-0.090
-694.441	299.972	-0.094	0.174
-693.426	8.957	0.133	0.100
-692.412	800.000	0.161	0.482
-691.397	10.876	0.173	0.133
-690.383	76.322	-0.112	0.119
-689.368	250.427	0.034	-0.058
-688.354	167.698	0.056	0.080
-687.339	23.620	-0.161	0.133
-686.324	-139.994	-0.152	-0.016
-685.310	-3.005	0.222	-0.155
-684.295	151.137	0.078	-0.107
-683.281	486.039	0.102	0.233
-682.266	126.627	-0.016	-0.020
-681.251	25.703	0.087	0.073
-680.237	173.305	-0.190	0.274
-679.222	-90.612	-0.325	-0.094
-678.208	738.990	-0.119	0.319
-677.193	759.559	0.029	0.079
-676.178	-50.669	0.134	0.063
-675.164	147.495	-0.049	-0.066
-674.149	731.276	-0.045	-0.121
-673.135	-139.005	0.119	-0.013
-672.120	60.483	-0.122	-0.121
-671.105	-42.284	0.098	0.050
-670.091	66.923	0.214	-0.218
-669.076	-98.240	0.119	-0.031
-668.062	800.000	-0.026	-0.108
-667.047	34.144	-0.282	-0.246
-666.032	-51.652	0.146	-0.068
-665.018	200.603	-0.105	-0.162
-664.003	-89.835	-0.305	-0.090
-662.989	40.421	0.118	0.107
-661.974	-127.319	0.550	-0.080
-660.959	-120.814	0.043	0.007
-659.945	-90.316	0.052	0.015
-658.930	800.000	0.099	0.369
-657.916	36.385	-0.233	-0.206
-656.901	3.382	-0.125	-0.091
-655.886	203.790	0.090	0.140
-654.872	-101.375	0.098	-0.024
-653.857	70.138	-0.129	-0.134
-652.843	28.628	-0.154	-0.131
-651.828	206.766	-0.123	0.193
-650.814	87.930	-0.086	-0.095
-649.799	-47.559	0.154	0.075
-648.784	416.695	0.063	-0.135
-647.770	800.000	0.056	0.191
-646.755	81.682	-0.231	0.251
-645.741	-85.140	-0.342	0.107
-644.726	-22.409	-0.268	0.163
-643.711	431.275	-0.041	-0.090
-642.697	-56.531	-0.205	0.091
-641.682	-200.000	-0.042	-0.230
-640.668	411.362	-0.070	0.148
-639.653	-45.093	-0.276	0.137
-638.638	31.068	-0.193	0.166
-637.624	-107.349	0.197	0.043
-636.609	-63.788	0.174	0.071
-635.595	362.639	0.162	-0.325
-634.580	47.943	-0.131	0.122
-633.565	16.780	0.169	0.134
-632.551	41.933	-0.097	0.088
-631.536	341.929	0.121	0.236
-630.522	38.629	-0.047	-0.042
-629.507	-33.743	-0.033	0.018
-628.492	-48.152	0.231	0.112
-627.478	-99.880	0.306	-0.076
-626.463	381.582	-0.161	-0.331
-625.449	-161.487	0.260	0.013
-624.434	-75.326	-0.067	-0.024
-623.419	-183.482	-0.101	-0.002
-622.405	-200.000	0.010	-0.076
-621.390	-56.531	0.233	-0.103
-620.376	338.536	0.123	0.240
-619.361	-129.312	-0.214	0.030
-618.346	-200.000	-0.012	-0.490
-617.332	36.087	-0.063	0.055
-616.317	-200.000	0.045	-0.247
-615.303	-142.876	0.157	-0.015
-614.288	-129.612	-0.259	-0.036
-613.273	-126.630	0.169	-0.025
-612.259	800.000	0.025	0.107
-611.244	800.000	-0.006	0.020
-610.230	-124.283	-0.165	0.026
-609.215	83.033	0.260	-0.283
-608.201	448.317	0.068	0.150
-607.186	135.233	0.186	-0.242
-606.171	565.570	-0.115	0.278
-605.157	-200.000	0.028	-0.337
-604.142	-111.437	-0.103	-0.021
-603.128	13.425	0.155	-0.120
-602.113	-200.000	-0.014	-0.328
-601.098	-143.927	0.091	-0.009
-600.084	181.486	-0.241	0.355
-599.069	-14.767	0.279	-0.179
-598.055	132.698	-0.144	0.186
-597.040	800.000	-0.094	-0.314
-596.025	27.721	-0.067	-0.056
-595.011	-200.000	0.048	-0.248
-593.996	-0.531	0.170	0.120
-592.982	-141.039	0.225	0.023
-591.967	-29.130	-0.171	0.098
-590.952	-18.902	-0.320	0.199
-589.938	-200.000	0.017	-0.186
-588.923	1.415	-0.333	-0.239
-587.909	119.490	0.112	-0.139
-586.894	-200.000	-0.006	-0.072
-585.879	451.413	-0.083	-0.183
-584.865	-89.042	0.139	0.041
-583.850	-62.710	0.075	0.031
-582.836	56.275	-0.177	-0.172
-581.821	181.229	0.157	-0.231
-580.806	-142.442	-0.366	0.036
-579.792	79.775	0.026	0.028
-578.777	-15.993	-0.141	0.090
-577.763	-85.714	-0.259	-0.080
-576.748	-119.884	-0.406	-0.070
-575.733	-39.021	-0.231	-0.121
-574.719	-5.632	-0.177	-0.121
-573.704	-152.626	-0.216	0.015
-572.690	193.428	0.194	-0.293
-571.675	-145.983	0.275	-0.024
-570.661	-13.203	0.282	-0.183
-569.646	36.829	-0.080	0.070
-568.631	800.000	0.062	0.212
-567.617	-79.493	0.073	0.024
-566.602	-74.768	-0.196	-0.070
-565.588	-125.029	0.184	0.028
-564.573	97.930	-0.084	0.097
-563.558	0.352	0.344	0.246
-562.544	-37.236	0.140	0.075
-561.529	53.129	-0.168	0.161
-560.515	135.059	-0.123	-0.160
-559.500	-200.000	0.090	0.564
-558.485	-200.000	-0.002	-0.020
-557.471	174.909	0.097	-0.141
-556.456	-62.486	-0.115	-0.048
-555.442	-59.260	-0.359	-0.154
-554.427	785.696	0.077	0.210
-553.412	715.517	-0.105	-0.277
-552.398	-41.123	-0.263	-0.135
-551.383	-102.287	-0.516	0.124
-550.369	-200.000	0.068	-0.404
-549.354	121.827	-0.099	0.123
-548.339	23.479	0.089	0.073
-547.325	-110.688	0.155	0.032
-546.310	34.224	0.110	-0.096
-545.296	-200.000	-0.044	-0.230
-544.281	43.807	-0.205	0.187
-543.266	70.944	0.319	0.329
-542.252	-65.023	0.261	-0.105
-541.237	-154.333	-0.170	-0.011
-540.223	-152.125	-0.369	0.027
-539.208	-200.000	0.007	-0.128
-538.193	-2.257	0.085	0.060
-537.179	-200.000	0.032	0.238
-536.164	296.701	-0.042	-0.077
-535.150	800.000	-0.070	-0.251
-534.135	596.147	0.027	0.067
-533.121	-137.402	0.511	0.058
-532.106	62.065	-0.090	0.089
-531.091	-116.492	-0.348	-0.064
-530.077	87.122	0.147	-0.162
-529.062	419.987	-0.157	-0.335
-528.048	-58.192	-0.086	-0.037
-527.033	22.713	-0.258	0.210
-526.018	57.439	-0.087	0.085
-525.004	-68.613	-0.166	0.064
-523.989	-177.056	-0.088	-0.002
-522.975	-200.000	-0.017	0.092
-521.960	-177.179	0.133	0.003
-520.945	117.077	-0.141	-0.173
-519.931	-200.000	-0.006	0.187
-518.916	-100.016	0.291	-0.072
-517.902	-55.394	-0.075	0.033
-516.887	-72.556	0.121	0.045
-515.872	-68.340	-0.234	0.091
-514.858	-47.833	0.266	-0.128
-513.843	44.498	0.062	-0.057
-512.829	9.291	0.157	-0.118
-511.814	-200.000	-0.060	-0.263
-510.799	-28.944	0.225	-0.129
-509.785	211.760	0.031	-0.048
-508.770	568.150	-0.089	-0.216
-507.756	162.353	-0.157	0.220
-506.741	-200.000	0.040	0.261
-505.726	-122.037	0.243	0.040
-504.712	-200.000	-0.073	-0.326
-503.697	89.114	-0.265	-0.294
-502.683	-135.879	0.188	-0.022
-501.668	254.592	0.074	-0.126
-500.653	6.128	0.086	0.063
-499.639	30.927	0.172	0.147
-498.624	800.000	0.059	0.193
-497.610	95.537	-0.087	-0.099
-496.595	19.329	-0.179	-0.143
-495.581	105.672	-0.152	0.179
-494.566	-145.450	0.483	0.043
-493.551	800.000	-0.016	0.053
-492.537	76.788	-0.024	-0.025
-491.522	-200.000	-0.003	0.320
-490.508	800.000	-0.105	0.407
-489.493	-55.438	-0.176	-0.079
-488.478	-21.408	0.327	0.199
-487.464	-7.839	-0.174	-0.117
-486.449	592.345	-0.064	-0.157
-485.435	24.055	0.139	0.114
-484.420	82.253	0.188	-0.203
-483.405	-155.575	0.175	-0.011
-482.391	-14.850	0.131	0.083
-481.376	-200.000	-0.013	-0.103
-480.362	-200.000	0.027	-0.388
-479.347	-104.807	0.109	-0.025
-478.332	24.289	-0.144	-0.119
-477.318	800.000	0.086	-0.349
-476.303	34.172	0.128	0.111
-475.289	-127.969	0.136	0.019
-474.274	-200.000	-0.036	-0.177
-473.259	-200.000	0.006	-0.092
-472.245	459.490	0.088	-0.194
-471.230	-200.000	-0.011	-0.115
-470.216	-200.000	0.012	0.056
-469.201	428.950	0.043	-0.092
-468.186	2.914	-0.130	-0.094
-467.172	-103.529	-0.216	0.051
-466.157	-130.600	0.140	0.019
-465.143	24.318	0.299	0.246
-464.128	800.000	-0.029	-0.127
-463.113	793.746	-0.040	-0.110
-462.099	6.321	0.118	0.087
-461.084	-107.543	-0.121	0.026
-460.070	234.139	0.138	-0.226
-459.055	25.374	-0.105	-0.087
-458.040	-184.988	0.161	0.003
-457.026	800.000	-0.101	0.371
-456.011	121.907	0.190	-0.235
-454.997	-35.286	-0.179	-0.097
-453.982	613.751	-0.155	-0.385
-452.968	-200.000	-0.083	0.383
-451.953	608.411	-0.019	0.047
-450.938	-150.112	0.418	-0.032
-449.924	-200.000	-0.001	-0.317
-448.909	72.443	-0.162	0.168
-447.895	618.959	-0.072	0.179
-446.880	109.302	0.222	0.264
-445.865	-131.583	0.424	0.055
-444.851	72.887	0.187	0.194
-443.836	800.000	0.086	-0.271
-442.822	-10.213	-0.295	-0.195
-441.807	189.530	0.246	0.367
-440.792	-200.000	-0.034	0.315
-439.778	-78.573	0.091	0.031
-438.763	800.000	0.056	-0.218
-437.749	-190.018	-0.160	0.002
-436.734	322.961	-0.199	-0.376
-435.719	800.000	-0.052	0.153
-434.705	-143.803	0.177	0.017
-433.690	111.960	0.010	0.012
-432.676	-85.092	0.098	-0.030
-431.661	152.764	-0.207	0.281
-430.646	-200.000	-0.012	0.088
-429.632	-115.294	-0.239	0.045
-428.617	800.000	-0.039	-0.140
-427.603	-53.507	-0.099	0.045
-426.588	-94.121	-0.144	-0.039
-425.573	-63.726	0.203	-0.083
-424.559	85.890	0.281	0.307
-423.544	-198.449	-0.287	-0.002
-422.530	297.342	0.112	0.204
-421.515	324.721	0.141	-0.268
-420.500	-156.091	-0.408	-0.026
-419.486	-200.000	0.021	0.249
-418.471	-148.949	0.264	-0.021
-417.457	398.940	0.092	0.191
-416.442	104.506	0.054	-0.063
-415.428	-200.000	0.027	-0.187
-414.413	-73.731	-0.261	0.094
-413.398	576.722	-0.048	0.116
-412.384	-1.842	0.278	0.194
-411.369	82.306	0.104	0.112
-410.355	-127.135	-0.339	0.049
-409.340	-177.467	-0.213	-0.005
-408.325	-90.292	-0.341	-0.098
-407.311	-200.000	-0.016	0.158
-406.296	-53.365	-0.243	0.110
-405.282	-102.349	-0.139	-0.033
-404.267	-130.246	0.545	-0.074
-403.252	519.652	-0.088	-0.204
-402.238	-50.036	0.319	0.150
-401.223	-39.977	0.354	-0.183
-400.209	157.685	-0.111	-0.153
-399.194	-18.706	0.253	-0.156
-398.179	-200.000	0.016	0.393
-397.165	224.999	0.079	-0.127
-396.150	-141.258	0.296	-0.030
-395.136	212.876	-0.168	-0.264
-394.121	54.154	0.122	-0.116
-393.106	19.808	-0.170	0.136
-392.092	-49.398	0.299	0.142
-391.077	-200.000	-0.014	0.069
-390.063	800.000	0.030	-0.106
-389.048	-18.258	0.039	-0.024
-388.033	800.000	0.145	-0.482
-387.019	800.000	0.050	0.141
-386.004	40.605	0.181	0.162
-384.990	64.659	0.107	-0.107
-383.975	643.513	-0.116	-0.294
-382.960	-64.090	0.005	-0.002
-381.946	-200.000	-0.023	0.202
-380.931	-129.861	-0.320	-0.044
-379.917	84.118	-0.327	-0.354
-378.902	662.694	-0.032	0.082
-377.888	-130.453	-0.370	0.050
-376.873	21.304	0.057	0.046
-375.858	126.208	-0.123	-0.154
-374.844	-64.416	0.188	0.076
-373.829	-156.754	0.132	0.008
-372.815	-30.459	-0.195	0.110
-371.800	-200.000	0.003	0.107
-370.785	-109.222	0.106	0.022
-369.771	400.832	0.094	-0.195
-368.756	-76.719	-0.200	-0.069
-367.742	-8.630	0.196	0.131
-366.727	-88.063	-0.150	0.044
-365.712	-47.248	-0.137	-0.066
-364.698	-140.739	-0.449	-0.046
-363.683	-43.822	0.220	0.110
-362.669	-99.517	0.171	-0.043
-361.654	159.511	0.140	0.193
-360.639	-64.957	0.084	-0.034
-359.625	-118.486	-0.389	-0.068
-358.610	-200.000	0.043	-0.235
-357.596	17.885	-0.161	-0.127
-356.581	800.000	0.048	-0.149
-355.566	-83.279	-0.187	0.059
-354.552	160.807	-0.047	-0.065
-353.537	-39.704	-0.182	0.094
-352.523	800.000	0.127	0.422
-351.508	683.083	-0.100	0.259
-350.493	-97.705	0.183	-0.047
-349.479	66.273	0.091	-0.092
-348.464	118.777	0.239	0.293
-347.450	-78.014	0.133	-0.045
-346.435	94.397	0.198	0.222
-345.420	27.006	-0.032	0.026
-344.406	12.516	-0.252	0.192
-343.391	-19.593	0.104	-0.064
-342.377	800.000	0.082	-0.328
-341.362	-76.302	-0.125	-0.043
-340.348	800.000	-0.066	-0.184
-339.333	387.796	0.048	-0.098
-338.318	-41.234	-0.128	-0.066
-337.304	367.698	-0.174	0.348
-336.289	139.954	-0.010	-0.013
-335.275	70.180	0.257	0.263
-334.260	-83.414	-0.229	0.073
-333.245	-200.000	0.018	-0.144
-332.231	800.000	0.044	0.129
-331.216	-200.000	-0.130	0.654
-330.202	17.461	-0.310	-0.244
-329.187	-200.000	0.018	0.156
-328.172	-200.000	-0.014	0.082
-327.158	-44.073	-0.305	-0.152
-326.143	800.000	-0.058	0.162
-325.129	109.845	0.072	0.085
-324.114	-37.067	-0.180	0.095
-323.099	-158.837	-0.108	0.006
-322.085	-32.821	-0.225	0.124
-321.070	-200.000	-0.004	0.093
-320.056	-200.000	-0.004	-0.125
-319.041	-200.000	0.002	0.025
-318.026	15.127	0.064	-0.050
-317.012	-118.611	-0.265	-0.046
-315.997	-106.717	0.589	0.129
-314.983	346.102	-0.040	0.078
-313.968	102.655	0.182	-0.210
-312.953	748.057	-0.068	0.180
-311.939	-176.446	0.069	-0.002
-310.924	478.327	0.107	0.239
-309.910	800.000	-0.082	0.225
-308.895	800.000	0.036	0.116
-307.880	33.235	-0.238	-0.204
-306.866	374.849	0.129	-0.260
-305.851	-136.680	0.227	-0.026
-304.837	-143.317	-0.262	0.025
-303.822	-200.000	-0.026	-0.150
-302.807	-31.918	0.353	0.195
-301.793	-200.000	-0.051	0.283
-300.778	-135.419	0.162	-0.019
-299.764	-126.042	0.377	0.056
-298.749	-148.589	-0.292	-0.024
-297.735	800.000	-0.064	0.252
-296.720	-63.517	0.056	-0.023
-295.705	-200.000	-0.083	0.421
-294.691	39.824	-0.204	0.181
-293.676	-194.732	-0.191	-0.001
-292.662	23.643	0.183	0.149
-291.647	-200.000	-0.013	-0.070
-290.632	-200.000	-0.002	-0.030
-289.618	545.025	0.122	0.289
-288.603	-2.855	-0.081	0.056
-287.589	-200.000	-0.001	0.031
-286.574	67.864	-0.121	-0.122
-285.559	63.267	-0.133	0.132
-284.545	-200.000	0.007	-0.345
-283.530	-200.000	0.019	-0.215
-282.516	140.661	0.068	0.088
-281.501	248.861	-0.096	-0.160
-280.486	-53.016	0.173	-0.078
-279.472	500.534	0.074	0.168
-278.457	344.668	-0.098	0.190
-277.443	-122.217	-0.184	-0.030
-276.428	-200.000	0.049	-0.489
-275.413	-200.000	0.019	-0.093
-274.399	276.628	-0.148	-0.260
-273.384	-45.032	0.110	0.054
-272.370	-91.640	-0.426	0.120
-271.355	-200.000	-0.000	0.146
-270.340	-81.880	0.195	0.063
-269.326	-108.697	0.163	-0.035
-268.311	16.304	0.202	-0.157
-267.297	-200.000	0.010	0.117
-266.282	159.296	0.317	0.435
-265.267	-200.000	0.030	-0.264
-264.253	672.925	0.142	0.362
-263.238	-1.478	0.023	-0.016
-262.224	-89.151	-0.123	0.036
-261.209	85.009	0.192	0.208
-260.195	36.025	0.335	0.291
-259.180	-39.822	0.135	0.069
-258.165	43.484	-0.287	-0.259
-257.151	467.066	0.098	0.217
-256.136	383.365	-0.114	0.231
-255.122	-200.000	-0.086	0.478
-254.107	137.884	-0.113	0.147
-253.092	-153.316	-0.280	0.019
-252.078	-27.898	0.180	-0.103
-251.063	-39.652	-0.079	0.041
-250.049	93.417	0.034	-0.038
-249.034	163.071	-0.315	0.437
-248.019	0.497	-0.151	0.106
-247.005	67.102	-0.030	0.030
-245.990	800.000	0.008	0.025
-244.976	-108.677	0.111	-0.023
-243.961	-18.361	-0.238	-0.147
-242.946	-8.532	0.358	0.237
-241.932	113.831	-0.096	-0.115
-240.917	58.836	-0.072	0.069
-239.903	60.676	0.052	0.051
-238.888	-200.000	-0.010	0.143
-237.873	85.622	0.152	-0.165
-236.859	62.489	-0.165	0.163
-235.844	200.085	0.123	-0.186
-234.830	285.927	0.070	-0.125
-233.815	-200.000	0.039	0.181
-232.800	-200.000	0.036	-0.254
-231.786	-16.301	-0.212	0.133
-230.771	800.000	0.019	-0.075
-229.757	58.743	-0.144	-0.140
-228.742	-28.567	0.074	0.042
-227.727	67.011	0.166	-0.166
-226.713	9.098	-0.167	-0.124
-225.698	-116.672	0.086	-0.016
-224.684	316.422	0.105	-0.196
-223.669	-200.000	0.050	0.328
-222.655	-91.062	0.105	0.030
-221.640	-45.563	0.212	-0.103
-220.625	-28.817	-0.125	0.071
-219.611	-39.106	0.046	-0.024
-218.596	238.062	-0.072	-0.118
-217.582	-134.402	0.128	0.015
-216.567	14.368	-0.019	0.014
-215.552	-156.067	-0.114	-0.007
-214.538	-145.579	0.296	-0.026
-213.523	-47.161	0.093	-0.045
-212.509	-40.804	-0.187	-0.096
-211.494	-200.000	0.072	-0.407
-210.479	-95.069	0.518	-0.138
-209.465	-31.979	-0.175	-0.096
-208.450	-136.589	0.206	-0.023
-207.436	-200.000	-0.035	0.203
-206.421	0.179	0.171	0.120
-205.406	-142.900	0.280	-0.027
-204.392	24.907	0.330	-0.269
-203.377	-71.726	0.274	-0.101
-202.363	-82.247	-0.341	0.109
-201.348	-72.198	0.233	-0.085
-200.333	-77.079	0.029	-0.010
-199.319	-152.073	-0.114	0.008
-198.304	-200.000	-0.056	0.380
-197.290	-138.432	-0.113	0.012
-196.275	-200.000	0.010	-0.102
-195.260	-30.324	0.099	-0.055
-194.246	282.682	-0.068	-0.120
-193.231	-46.300	-0.193	-0.093
-192.217	-124.853	0.372	0.057
-191.202	492.973	-0.118	-0.267
-190.187	-200.000	-0.010	-0.093
-189.173	56.149	0.339	0.324
-188.158	519.795	0.113	-0.261
-187.144	-149.263	0.245	-0.019
-186.129	241.589	-0.226	-0.371
-185.114	-47.135	0.252	0.121
-184.100	-117.705	-0.152	0.027
-183.085	-200.000	0.001	0.011
-182.071	-200.000	0.008	-0.154
-181.056	-200.000	-0.042	0.205
-180.042	-6.860	0.388	0.260
-179.027	800.000	-0.032	-0.088
-178.012	-200.000	0.020	-0.131
-176.998	12.473	-0.271	-0.205
-175.983	146.426	-0.309	-0.408
-174.969	29.330	-0.158	0.132
-173.954	-104.772	0.096	0.022
-172.939	-107.668	0.279	-0.060
-171.925	-200.000	-0.007	0.090
-170.910	-114.634	-0.232	-0.044
-169.896	68.484	0.019	0.019
-168.881	-95.338	-0.153	0.040
-167.866	58.692	-0.263	-0.254
-166.852	800.000	-0.054	0.222
-165.837	79.897	-0.142	0.150
-164.823	-200.000	0.052	-0.240
-163.808	-98.406	0.131	0.033
-162.793	-200.000	0.002	0.114
-161.779	-189.687	-0.342	0.004
-160.764	-200.000	0.092	0.648
-159.750	318.506	0.004	0.008
-158.735	-140.577	-0.112	-0.011
-157.720	-21.118	-0.127	-0.076
-156.706	-167.980	-0.228	0.009
-155.691	-112.033	-0.083	0.016
-154.677	-200.000	-0.006	-0.270
-153.662	53.921	-0.192	-0.181
-152.647	-200.000	0.007	-0.141
-151.633	-48.802	0.280	-0.132
-150.618	282.096	-0.243	-0.427
-149.604	-200.000	-0.025	-0.217
-148.589	281.309	-0.081	0.143
-147.574	-169.159	-0.216	-0.008
-146.560	-200.000	-0.021	-0.223
-145.545	-200.000	-0.006	-0.049
-144.531	-68.492	0.204	-0.078
-143.516	-200.000	-0.080	0.407
-142.502	-62.161	0.226	0.093
-141.487	-156.361	-0.121	0.007
-140.472	800.000	0.050	0.190
-139.458	33.321	-0.137	0.117
-138.443	406.487	0.050	0.103
-137.429	632.780	0.215	0.535
-136.414	-40.057	-0.312	0.159
-135.399	-134.229	0.189	0.023
-134.385	-200.000	0.055	0.258
-133.370	-29.920	0.544	0.304
-132.356	-200.000	-0.002	-0.168
-131.341	105.444	-0.154	0.179
-130.326	53.157	-0.199	0.187
-129.312	19.832	0.032	0.025
-128.297	-200.000	-0.020	0.090
-127.283	800.000	0.045	0.164
-126.268	-200.000	-0.020	0.181
-125.253	13.040	-0.086	-0.066
-124.239	800.000	-0.047	-0.191
-123.224	206.809	0.124	-0.190
-122.210	-200.000	0.069	0.531
-121.195	396.451	-0.048	0.099
