DTS Sentinel unit serial number:	SN413079Multiplexer serial number:	ORYXHardware model number:	OX4-SRSoftware version number:	ORYX F/W v4.00 Oryx Data Collector v3.7.2.0data status	okinstallation	princeton_trtdifferential loss correction	single-endedforward channel	channel 3reverse channel	N/Adate	2019/09/17time	16:40:34forward acquisition time	60.00reverse acquisition time	0.00gamma	496.2192k internal	0.2292k external	0.2292temperature offset calibration	0.9954default loss term (dB/km)	0.3790temperature slope calibration	1.0000multiplexer offset coefficient	1.0000multiplexer slope coefficient	1.0000fibre end	0.00T internal ref (°C)	41.95T ext. ref 1 (°C)	0.36T ext. ref 2 (°C)	38.74length (m)	temperature (°C)	Stokes	anti-Stokes-747.200	2.076	0.080	-0.059
-746.185	-112.484	-0.027	-0.006
-745.171	-90.461	0.289	0.086
-744.156	-122.783	0.187	-0.031
-743.142	-53.341	0.284	0.133
-742.127	16.280	0.089	0.072
-741.112	800.000	-0.020	0.086
-740.098	395.292	-0.125	0.266
-739.083	-12.560	-0.297	-0.198
-738.069	-34.936	-0.045	0.025
-737.054	-200.000	-0.021	0.138
-736.039	-147.497	-0.246	0.021
-735.025	-18.824	0.284	0.181
-734.010	23.837	-0.171	-0.144
-732.996	647.547	0.027	0.071
-731.981	-42.725	0.128	-0.067
-730.966	-12.520	-0.219	0.146
-729.952	-72.779	0.442	0.166
-728.937	-190.900	-0.228	-0.002
-727.923	151.778	-0.109	0.152
-726.908	-67.606	0.164	-0.066
-725.894	69.122	-0.145	-0.153
-724.879	-200.000	0.033	-0.334
-723.864	-74.583	0.312	-0.115
-722.850	727.882	-0.070	-0.191
-721.835	-26.972	-0.237	-0.141
-720.821	361.373	-0.094	-0.193
-719.806	-200.000	-0.012	0.069
-718.791	-135.479	-0.207	0.025
-717.777	86.996	-0.091	-0.103
-716.762	-93.908	-0.241	-0.068
-715.748	287.102	0.200	0.369
-714.733	-118.469	-0.415	0.075
-713.718	163.224	-0.223	0.321
-712.704	342.686	-0.174	0.347
-711.689	532.653	-0.177	0.428
-710.675	75.367	0.175	-0.189
-709.660	231.348	-0.061	-0.103
-708.645	-100.632	0.053	-0.013
-707.631	203.553	0.169	-0.267
-706.616	-24.723	0.143	0.087
-705.602	-159.269	-0.210	0.012
-704.587	-200.000	-0.032	0.304
-703.572	98.809	0.151	0.178
-702.558	46.087	0.197	-0.186
-701.543	-200.000	0.012	-0.080
-700.529	125.624	-0.113	0.146
-699.514	-200.000	0.003	-0.213
-698.499	-96.087	0.011	0.003
-697.485	105.030	-0.300	0.362
-696.470	-53.235	-0.216	0.101
-695.456	158.826	0.017	-0.024
-694.441	800.000	-0.081	-0.284
-693.426	-200.000	0.008	0.175
-692.412	-114.100	0.156	-0.031
-691.397	-37.334	0.201	-0.110
-690.383	-130.517	0.114	-0.016
-689.368	-200.000	-0.019	0.201
-688.354	-133.274	-0.446	0.057
-687.339	800.000	0.073	0.241
-686.324	-8.712	-0.172	-0.118
-685.310	502.228	-0.088	-0.209
-684.295	15.872	-0.199	0.160
-683.281	-34.915	-0.218	0.121
-682.266	456.005	-0.099	-0.224
-681.251	800.000	-0.089	0.327
-680.237	800.000	0.064	0.260
-679.222	-23.895	-0.125	0.076
-678.208	67.411	0.109	-0.113
-677.193	49.984	0.083	0.080
-676.178	170.142	-0.128	-0.187
-675.164	-200.000	0.024	-0.349
-674.149	-82.735	-0.258	0.085
-673.135	-92.625	-0.123	0.035
-672.120	89.990	-0.146	-0.166
-671.105	-8.807	-0.163	-0.112
-670.091	-26.730	0.222	0.132
-669.076	-21.079	0.250	0.156
-668.062	-200.000	0.026	-0.221
-667.047	-94.855	-0.307	0.085
-666.032	-200.000	0.006	0.085
-665.018	101.927	0.175	-0.209
-664.003	521.426	0.071	-0.171
-662.989	-200.000	-0.007	0.216
-661.974	78.313	-0.123	0.134
-660.959	-6.128	0.306	-0.213
-659.945	-22.670	0.245	-0.151
-658.930	38.233	0.169	-0.154
-657.916	20.523	-0.271	-0.224
-656.901	-35.122	0.228	0.127
-655.886	-200.000	0.009	-0.126
-654.872	-106.718	-0.214	0.049
-653.857	-30.711	0.321	-0.185
-652.843	-49.344	-0.120	0.058
-651.828	-130.436	-0.146	-0.020
-650.814	61.865	-0.097	-0.098
-649.799	-113.984	-0.177	0.035
-648.784	-34.033	-0.294	-0.165
-647.770	-200.000	0.017	0.233
-646.755	-72.741	-0.049	-0.018
-645.741	-32.839	-0.193	-0.109
-644.726	153.226	0.208	-0.290
-643.711	800.000	-0.005	-0.018
-642.697	-200.000	0.009	0.050
-641.682	300.100	0.064	0.121
-640.668	-104.857	-0.123	0.029
-639.653	800.000	-0.049	0.203
-638.638	-200.000	-0.045	-0.274
-637.624	-102.118	0.193	-0.047
-636.609	-60.452	-0.221	0.096
-635.595	-200.000	-0.031	-0.244
-634.580	-147.722	0.072	-0.006
-633.565	4.195	-0.122	0.091
-632.551	-149.021	0.236	0.019
-631.536	800.000	-0.059	-0.181
-630.522	800.000	0.036	-0.112
-629.507	-31.730	-0.141	-0.081
-628.492	-200.000	0.031	0.364
-627.478	-23.881	-0.334	0.204
-626.463	-200.000	-0.035	-0.287
-625.449	-77.287	-0.117	0.042
-624.434	800.000	0.054	-0.168
-623.419	-200.000	-0.018	-0.270
-622.405	57.760	-0.062	-0.061
-621.390	674.795	0.066	0.175
-620.376	-47.034	0.245	-0.122
-619.361	385.904	0.130	-0.274
-618.346	-152.267	0.168	-0.012
-617.332	55.872	-0.084	0.083
-616.317	310.934	-0.170	0.324
-615.303	96.053	-0.232	-0.270
-614.288	78.132	-0.156	-0.170
-613.273	-200.000	0.001	0.050
-612.259	416.975	-0.032	0.069
-611.244	-92.317	0.200	0.057
-610.230	16.643	0.182	0.146
-609.215	-89.210	-0.176	0.053
-608.201	57.989	-0.237	0.236
-607.186	-141.250	0.119	-0.012
-606.171	100.200	0.100	0.118
-605.157	-200.000	-0.033	0.238
-604.142	149.890	-0.079	-0.110
-603.128	53.041	-0.104	0.101
-602.113	-200.000	0.013	0.163
-601.098	-108.975	-0.073	0.016
-600.084	-144.779	-0.115	-0.011
-599.069	159.290	0.182	-0.258
-598.055	800.000	-0.113	-0.459
-597.040	-139.237	-0.143	-0.016
-596.025	-166.316	0.119	0.005
-595.011	23.773	-0.122	-0.102
-593.996	16.710	-0.153	-0.123
-592.982	4.386	-0.057	0.043
-591.967	-97.629	-0.236	-0.062
-590.952	58.630	-0.168	-0.168
-589.938	-54.943	-0.121	0.056
-588.923	158.221	-0.029	0.041
-587.909	-57.776	-0.158	-0.070
-586.894	-98.114	0.341	-0.089
-585.879	-157.378	0.072	-0.004
-584.865	800.000	0.076	-0.298
-583.850	289.717	-0.092	-0.170
-582.836	-176.502	-0.172	0.005
-581.821	-69.331	-0.361	0.141
-580.806	-172.646	0.239	0.008
-579.792	181.896	-0.165	-0.247
-578.777	338.091	0.063	0.125
-577.763	63.237	-0.134	-0.137
-576.748	-148.949	-0.439	-0.036
-575.733	8.345	-0.220	-0.168
-574.719	45.800	0.247	-0.232
-573.704	82.743	0.073	0.080
-572.690	-148.950	-0.341	-0.028
-571.675	-200.000	-0.006	0.037
-570.661	-200.000	0.016	0.317
-569.646	-46.104	-0.063	0.032
-568.631	-200.000	-0.009	0.057
-567.617	-102.498	0.200	0.049
-566.602	-200.000	-0.005	-0.170
-565.588	800.000	-0.104	-0.324
-564.573	-200.000	0.208	0.001
-563.558	800.000	-0.069	-0.249
-562.544	422.882	-0.095	-0.206
-561.529	-77.899	0.086	0.030
-560.515	-73.807	-0.139	0.052
-559.500	344.088	0.227	-0.452
-558.485	287.574	-0.140	-0.258
-557.471	-139.123	-0.150	0.017
-556.456	-200.000	0.010	-0.181
-555.442	-200.000	0.006	-0.157
-554.427	-161.632	0.110	-0.006
-553.412	80.288	0.175	-0.192
-552.398	284.294	-0.104	-0.191
-551.383	-107.293	-0.294	0.066
-550.369	-98.458	-0.229	0.060
-549.354	-70.353	0.367	0.141
-548.339	-93.533	0.077	0.022
-547.325	564.662	0.058	-0.142
-546.310	800.000	-0.023	0.067
-545.296	191.670	0.145	0.223
-544.281	-14.843	0.143	-0.093
-543.266	-123.963	0.178	0.029
-542.252	533.984	-0.092	0.221
-541.237	-131.893	-0.234	-0.031
-540.223	800.000	0.061	-0.180
-539.208	43.846	0.202	-0.188
-538.193	491.065	-0.037	-0.087
-537.179	234.407	-0.129	0.217
-536.164	-125.521	-0.139	-0.021
-535.150	-149.019	0.079	-0.006
-534.135	-81.183	0.113	-0.038
-533.121	-95.545	-0.196	0.053
-532.106	800.000	0.040	-0.127
-531.091	-144.795	-0.126	0.012
-530.077	236.244	-0.143	0.241
-529.062	-200.000	-0.066	0.315
-528.048	-137.997	-0.088	0.010
-527.033	-122.229	0.128	-0.021
-526.018	-89.302	0.171	0.051
-525.004	-69.020	0.186	0.073
-523.989	57.731	-0.359	-0.356
-522.975	105.088	0.162	0.194
-521.960	-13.320	-0.236	0.155
-520.945	78.365	-0.118	-0.128
-519.931	407.556	-0.086	-0.184
-518.916	-124.947	-0.154	0.024
-517.902	-139.965	0.099	-0.011
-516.887	-26.910	0.116	-0.069
-515.872	-200.000	0.012	-0.086
-514.858	-60.038	-0.098	0.042
-513.843	67.207	-0.061	-0.063
-512.829	230.272	-0.136	-0.226
-511.814	-9.715	-0.247	0.167
-510.799	-22.567	0.031	0.019
-509.785	55.996	-0.225	0.221
-508.770	290.606	0.099	0.182
-507.756	230.098	0.068	-0.113
-506.741	708.808	-0.135	0.361
-505.726	-39.498	0.029	-0.016
-504.712	-200.000	0.060	0.403
-503.697	800.000	0.066	-0.197
-502.683	756.369	-0.127	-0.348
-501.668	152.108	-0.085	-0.118
-500.653	-96.512	-0.229	-0.061
-499.639	-17.987	0.211	0.134
-498.624	153.139	-0.082	0.113
-497.610	-100.279	0.113	-0.028
-496.595	-163.806	0.126	0.006
-495.581	42.339	-0.189	0.174
-494.566	106.835	0.094	-0.114
-493.551	-200.000	0.056	-0.458
-492.537	259.549	0.119	0.208
-491.522	-59.771	0.148	-0.064
-490.508	-41.188	-0.164	0.086
-489.493	-12.364	-0.176	-0.117
-488.478	-163.580	-0.131	0.006
-487.464	-0.307	0.269	0.194
-486.449	-200.000	0.003	-0.169
-485.435	443.565	-0.137	0.304
-484.420	570.306	0.092	-0.227
-483.405	673.915	0.216	-0.569
-482.391	-58.678	-0.039	0.017
-481.376	800.000	0.075	0.213
-480.362	-200.000	-0.033	0.169
-479.347	-93.102	-0.352	-0.099
-478.332	-134.016	-0.125	-0.016
-477.318	-32.062	0.242	-0.137
-476.303	66.562	0.179	0.184
-475.289	-22.962	-0.079	-0.048
-474.274	-200.000	-0.028	0.235
-473.259	303.196	-0.047	-0.088
-472.245	-11.196	0.315	0.210
-471.230	44.141	-0.167	-0.155
-470.216	-54.463	0.130	0.060
-469.201	318.122	-0.160	0.307
-468.186	-200.000	0.002	0.474
-467.172	-1.639	-0.220	-0.157
-466.157	-200.000	0.010	0.103
-465.143	-103.513	0.107	-0.026
-464.128	63.956	-0.266	-0.271
-463.113	94.686	0.195	0.224
-462.099	800.000	0.014	0.045
-461.084	-23.706	-0.175	0.106
-460.070	-200.000	-0.014	0.126
-459.055	800.000	-0.116	0.390
-458.040	-200.000	-0.011	0.088
-457.026	45.693	-0.386	-0.361
-456.011	-53.836	0.127	-0.059
-454.997	-133.460	0.132	0.017
-453.982	686.172	0.148	-0.392
-452.968	22.176	-0.072	-0.060
-451.953	791.240	-0.061	-0.170
-450.938	-147.870	-0.320	0.027
-449.924	164.719	-0.027	-0.038
-448.909	-200.000	-0.015	0.274
-447.895	-41.635	0.135	-0.070
-446.880	371.425	0.173	0.355
-445.865	-21.939	0.091	-0.056
-444.851	618.462	-0.080	0.202
-443.836	-200.000	-0.044	0.304
-442.822	-200.000	0.009	0.239
-441.807	87.335	-0.203	0.228
-440.792	-38.719	0.104	-0.055
-439.778	800.000	0.027	0.114
-438.763	-200.000	-0.004	-0.059
-437.749	800.000	0.111	0.442
-436.734	-200.000	-0.024	-0.206
-435.719	800.000	0.047	-0.194
-434.705	202.362	-0.101	0.158
-433.690	-200.000	-0.008	-0.053
-432.676	439.256	-0.137	-0.303
-431.661	-200.000	-0.017	0.229
-430.646	-31.640	0.212	0.121
-429.632	-200.000	0.013	-0.213
-428.617	-128.205	0.456	-0.066
-427.603	800.000	-0.036	0.159
-426.588	34.714	-0.108	0.096
-425.573	189.359	-0.101	0.152
-424.559	-115.876	0.240	-0.045
-423.544	409.327	-0.056	0.120
-422.530	20.152	0.123	0.100
-421.515	-9.770	-0.036	-0.025
-420.500	-135.922	0.111	-0.013
-419.486	-33.689	0.139	-0.078
-418.471	259.153	0.080	-0.139
-417.457	-88.621	0.169	-0.051
-416.442	-114.943	0.276	-0.053
-415.428	800.000	0.023	-0.092
-414.413	-15.720	0.301	0.194
-413.398	-100.490	-0.226	0.057
-412.384	541.413	0.120	0.290
-411.369	800.000	-0.090	0.263
-410.355	-57.704	-0.298	-0.132
-409.340	20.093	-0.199	-0.162
-408.325	597.459	-0.027	0.067
-407.311	-103.688	-0.350	0.083
-406.296	-200.000	0.025	0.162
-405.282	173.784	0.083	-0.122
-404.267	94.047	-0.073	0.084
-403.252	213.286	0.049	-0.078
-402.238	-200.000	-0.073	-0.366
-401.223	-200.000	0.029	0.303
-400.209	-200.000	0.062	-0.299
-399.194	800.000	0.063	0.240
-398.179	-60.658	-0.235	0.101
-397.165	199.170	0.069	-0.107
-396.150	-25.996	0.240	-0.143
-395.136	800.000	0.083	-0.315
-394.121	86.377	0.145	0.162
-393.106	299.461	0.037	0.068
-392.092	-200.000	-0.000	0.206
-391.077	-15.530	-0.003	-0.002
-390.063	56.118	0.061	-0.060
-389.048	109.595	0.007	-0.008
-388.033	-158.222	0.134	0.008
-387.019	800.000	0.086	-0.296
-386.004	-200.000	0.020	-0.206
-384.990	37.757	0.117	0.105
-383.975	165.957	-0.251	-0.358
-382.960	532.545	-0.118	0.282
-381.946	-200.000	-0.007	-0.101
-380.931	-144.869	0.080	-0.007
-379.917	-200.000	0.029	0.174
-378.902	-13.795	0.195	-0.127
-377.888	4.530	-0.035	0.026
-376.873	-200.000	-0.028	-0.252
-375.858	-124.409	-0.090	-0.014
-374.844	-200.000	0.036	0.415
-373.829	800.000	0.046	-0.151
-372.815	147.264	-0.057	-0.078
-371.800	-200.000	0.001	-0.064
-370.785	-102.112	0.281	-0.068
-369.771	96.622	-0.221	-0.255
-368.756	22.530	-0.191	0.157
-367.742	28.366	0.052	-0.045
-366.727	87.627	0.046	-0.052
-365.712	314.859	0.227	0.431
-364.698	-70.334	-0.142	0.054
-363.683	-200.000	-0.021	0.454
-362.669	-143.543	0.018	-0.002
-361.654	-142.712	0.213	-0.021
-360.639	-200.000	0.002	0.106
-359.625	131.531	0.254	-0.329
-358.610	29.413	0.075	0.065
-357.596	-200.000	-0.023	0.208
-356.581	-186.222	0.156	0.002
-355.566	-86.133	-0.293	0.091
-354.552	-18.550	0.328	-0.207
-353.537	468.931	0.169	-0.382
-352.523	349.253	-0.053	-0.106
-351.508	171.003	-0.144	-0.208
-350.493	187.764	-0.195	0.294
-349.479	-200.000	0.047	0.220
-348.464	275.778	0.088	-0.157
-347.450	303.409	-0.128	0.239
-346.435	800.000	0.067	0.271
-345.420	24.541	-0.169	0.141
-344.406	117.327	-0.315	0.391
-343.391	268.352	0.131	-0.231
-342.377	800.000	-0.075	-0.270
-341.362	458.382	0.098	0.220
-340.348	-119.236	-0.272	-0.048
-339.333	-152.935	-0.282	-0.020
-338.318	-68.903	0.054	0.021
-337.304	-93.395	0.017	0.005
-336.289	-200.000	0.048	-0.225
-335.275	175.760	-0.029	0.042
-334.260	-114.430	-0.254	0.049
-333.245	-100.212	0.366	-0.092
-332.231	800.000	0.058	0.209
-331.216	-109.870	0.214	0.045
-330.202	140.815	0.174	0.232
-329.187	-193.720	0.322	-0.003
-328.172	-6.968	-0.090	-0.061
-327.158	394.385	-0.009	0.018
-326.143	-156.033	0.066	0.004
-325.129	-200.000	-0.030	-0.215
-324.114	-51.244	-0.286	-0.135
-323.099	293.924	-0.146	0.268
-322.085	-22.935	0.155	0.094
-321.070	68.544	0.208	-0.215
-320.056	-174.469	0.024	-0.001
-319.041	800.000	0.049	-0.180
-318.026	89.908	0.095	-0.107
-317.012	359.569	-0.140	0.281
-315.997	800.000	-0.046	-0.164
-314.983	528.136	0.099	-0.235
-313.968	-22.915	0.455	-0.276
-312.953	24.978	0.160	0.134
-311.939	-94.773	-0.163	-0.044
-310.924	113.397	0.074	0.091
-309.910	-200.000	-0.001	0.472
-308.895	-123.858	-0.076	-0.012
-307.880	480.802	-0.133	-0.304
-306.866	800.000	-0.058	0.204
-305.851	-97.211	-0.097	-0.026
-304.837	800.000	-0.096	0.295
-303.822	800.000	0.040	0.166
-302.807	-24.829	-0.095	-0.057
-301.793	-3.861	0.084	-0.059
-300.778	-200.000	0.011	-0.096
-299.764	800.000	-0.091	-0.316
-298.749	357.616	-0.058	0.116
-297.735	800.000	-0.074	-0.261
-296.720	-200.000	0.009	-0.217
-295.705	-77.053	0.238	-0.084
-294.691	-109.690	-0.056	-0.012
-293.676	-78.758	-0.195	0.067
-292.662	-200.000	-0.001	-0.125
-291.647	-38.668	-0.063	-0.033
-290.632	-200.000	0.004	-0.141
-289.618	-87.693	-0.372	0.113
-288.603	-192.057	0.130	0.001
-287.589	-200.000	0.046	0.286
-286.574	-200.000	-0.024	0.249
-285.559	-200.000	-0.010	0.180
-284.545	75.958	0.158	-0.169
-283.530	-147.621	0.254	-0.021
-282.516	310.268	-0.093	0.175
-281.501	626.574	0.123	0.313
-280.486	-200.000	0.038	0.169
-279.472	114.924	-0.079	0.097
-278.457	-119.622	-0.363	-0.063
-277.443	475.028	-0.083	-0.189
-276.428	-200.000	0.008	-0.163
-275.413	-200.000	0.032	-0.320
-274.399	208.108	0.201	-0.315
-273.384	-200.000	-0.069	0.317
-272.370	302.316	-0.026	-0.049
-271.355	470.647	-0.080	-0.181
-270.340	-200.000	0.045	0.366
-269.326	-117.725	-0.270	-0.049
-268.311	-97.795	0.204	-0.053
-267.297	-200.000	0.000	-0.058
-266.282	-45.810	0.033	-0.016
-265.267	800.000	0.056	-0.189
-264.253	316.151	0.110	-0.209
-263.238	83.189	-0.072	0.079
-262.224	-3.603	0.092	-0.064
-261.209	-30.368	0.141	-0.080
-260.195	800.000	-0.087	0.249
-259.180	221.319	0.196	-0.317
-258.165	-78.472	0.188	0.065
-257.151	-70.714	0.121	0.046
-256.136	137.608	0.127	0.167
-255.122	-189.522	0.211	-0.002
-254.107	-7.983	-0.222	-0.151
-253.092	-23.472	-0.194	-0.117
-252.078	-50.935	-0.043	0.020
-251.063	94.821	0.179	0.204
-250.049	-10.914	0.085	0.056
-249.034	800.000	0.037	-0.105
-248.019	292.603	-0.146	0.267
-247.005	-92.995	-0.188	-0.053
-245.990	-7.702	-0.171	0.116
-244.976	12.329	-0.127	0.098
-243.961	-123.611	0.072	-0.011
-242.946	68.017	-0.067	0.069
-241.932	3.305	0.333	-0.244
-240.917	-107.308	0.071	0.016
-239.903	-200.000	0.001	0.225
-238.888	-200.000	-0.038	-0.297
-237.873	-125.844	-0.008	-0.001
-236.859	102.425	0.167	-0.195
-235.844	800.000	0.109	0.306
-234.830	800.000	-0.023	0.068
-233.815	22.581	0.250	0.205
-232.800	-69.492	0.521	-0.200
-231.786	-63.786	-0.068	-0.028
-230.771	800.000	0.127	-0.376
-229.757	113.516	0.242	0.294
-228.742	-63.743	0.059	0.024
-227.727	-39.966	-0.211	0.110
-226.713	-119.522	-0.117	0.020
-225.698	800.000	-0.029	0.127
-224.684	-3.547	-0.407	-0.284
-223.669	68.435	0.083	-0.085
-222.655	-2.567	0.272	-0.191
-221.640	-21.177	0.301	0.185
-220.625	565.747	0.128	-0.312
-219.611	-57.233	-0.238	0.105
-218.596	160.466	-0.144	0.201
-217.582	20.405	0.162	0.131
-216.567	-0.911	0.067	-0.048
-215.552	199.841	0.072	0.111
-214.538	800.000	-0.096	-0.315
-213.523	20.842	-0.103	-0.084
-212.509	226.176	0.114	-0.185
-211.494	610.497	-0.098	0.245
-210.479	800.000	-0.118	0.418
-209.465	-167.834	0.133	-0.005
-208.450	190.239	0.093	0.139
-207.436	-49.023	-0.056	-0.027
-206.421	-32.010	0.379	0.212
-205.406	800.000	0.039	-0.110
-204.392	-85.946	-0.312	0.097
-203.377	167.256	0.176	-0.251
-202.363	-26.675	0.363	-0.213
-201.348	304.091	0.133	-0.248
-200.333	-5.766	0.025	-0.017
-199.319	-146.969	-0.178	-0.015
-198.304	-137.649	-0.416	-0.047
-197.290	-147.572	-0.103	-0.009
-196.275	-120.092	0.082	0.014
-195.260	-28.902	0.422	-0.243
-194.246	-100.015	-0.207	-0.052
-193.231	-135.357	0.280	-0.034
-192.217	307.180	0.120	0.224
-191.202	100.098	-0.188	0.219
-190.187	-200.000	-0.011	-0.128
-189.173	-200.000	0.020	-0.444
-188.158	-200.000	0.047	0.208
-187.144	-32.401	-0.070	0.039
-186.129	122.967	0.262	-0.328
-185.114	-200.000	-0.019	-0.217
-184.100	-200.000	0.029	0.359
-183.085	-200.000	-0.026	-0.145
-182.071	-185.335	-0.206	0.003
-181.056	33.918	-0.041	-0.036
-180.042	-200.000	-0.001	-0.033
-179.027	-99.254	0.184	-0.046
-178.012	61.873	0.037	0.037
-176.998	47.398	-0.113	0.105
-175.983	643.048	0.109	0.277
-174.969	149.202	0.084	0.114
-173.954	-200.000	-0.007	0.052
-172.939	-200.000	0.003	-0.308
-171.925	-200.000	0.036	0.287
-170.910	375.526	0.037	-0.075
-169.896	-200.000	0.039	0.416
-168.881	-200.000	0.049	0.323
-167.866	-130.000	0.110	-0.015
-166.852	-155.322	-0.085	0.006
-165.837	-200.000	0.024	0.118
-164.823	-0.118	-0.031	-0.022
-163.808	235.046	0.109	-0.180
-162.793	302.222	0.058	0.107
-161.779	-200.000	0.008	-0.048
-160.764	800.000	-0.025	-0.101
-159.750	159.503	0.039	0.055
-158.735	481.553	-0.199	0.451
-157.720	349.643	0.021	-0.041
-156.706	-136.484	0.228	0.026
-155.691	-99.875	0.184	-0.046
-154.677	-58.413	-0.080	0.035
-153.662	-200.000	-0.040	0.188
-152.647	132.564	-0.172	0.222
-151.633	17.562	0.097	-0.077
-150.618	84.465	0.141	-0.155
-149.604	16.005	-0.225	-0.177
-148.589	386.032	-0.138	0.284
-147.574	186.591	-0.023	0.034
-146.560	267.287	-0.107	0.188
-145.545	800.000	0.047	-0.162
-144.531	-200.000	-0.020	-0.279
-143.516	-200.000	-0.011	-0.437
-142.502	-67.416	-0.197	-0.077
-141.487	394.956	0.085	0.177
-140.472	587.784	-0.069	0.171
-139.458	-10.065	0.126	0.084
-138.443	-130.865	-0.343	0.046
-137.429	-33.112	0.266	0.147
-136.414	-135.185	-0.091	-0.011
-135.399	800.000	-0.125	-0.344
-134.385	800.000	0.040	0.128
-133.370	-39.335	-0.300	-0.157
-132.356	-200.000	-0.001	0.087
-131.341	293.673	-0.213	0.389
-130.326	-127.668	0.057	0.008
-129.312	36.985	0.220	0.194
-128.297	-4.867	0.226	0.155
-127.283	109.062	0.154	-0.184
-126.268	548.048	0.090	-0.214
-125.253	53.780	0.275	0.264
-124.239	800.000	-0.060	-0.167
-123.224	88.723	-0.123	0.137
-122.210	63.229	-0.233	-0.233
