DTS Sentinel unit serial number:	SN413079Multiplexer serial number:	ORYXHardware model number:	OX4-SRSoftware version number:	ORYX F/W v4.00 Oryx Data Collector v3.7.2.0data status	okinstallation	princeton_trtdifferential loss correction	single-endedforward channel	channel 3reverse channel	N/Adate	2019/09/14time	07:20:35forward acquisition time	60.00reverse acquisition time	0.00gamma	496.2192k internal	0.2340k external	0.2340temperature offset calibration	1.0053default loss term (dB/km)	0.3790temperature slope calibration	1.0000multiplexer offset coefficient	1.0000multiplexer slope coefficient	1.0000fibre end	0.00T internal ref (°C)	26.19T ext. ref 1 (°C)	3.44T ext. ref 2 (°C)	20.95length (m)	temperature (°C)	Stokes	anti-Stokes-747.200	-146.879	0.103	0.009
-746.185	324.215	-0.140	0.268
-745.171	-97.286	0.150	0.039
-744.156	-200.000	-0.027	0.206
-743.142	53.757	-0.060	0.058
-742.127	-73.345	0.265	0.097
-741.112	757.912	0.112	-0.303
-740.098	800.000	-0.103	0.400
-739.083	-145.252	0.210	0.019
-738.069	-42.336	-0.413	0.211
-737.054	218.415	0.158	0.253
-736.039	-200.000	0.017	-0.278
-735.025	-166.452	0.207	0.009
-734.010	-80.149	0.152	-0.051
-732.996	-90.155	0.345	-0.101
-731.981	40.138	-0.502	0.452
-730.966	-83.964	-0.013	-0.004
-729.952	13.313	-0.296	-0.230
-728.937	452.256	-0.076	-0.169
-727.923	-102.187	-0.122	-0.029
-726.908	800.000	-0.056	0.236
-725.894	110.492	-0.102	0.122
-724.879	-42.674	0.174	0.089
-723.864	800.000	0.133	-0.427
-722.850	207.186	0.106	0.166
-721.835	229.509	-0.241	-0.394
-720.821	-62.375	-0.458	-0.191
-719.806	218.633	-0.008	0.013
-718.791	-200.000	-0.000	-0.078
-717.777	-160.048	0.078	-0.004
-716.762	652.718	-0.090	0.232
-715.748	-127.087	-0.200	0.029
-714.733	60.952	0.118	-0.117
-713.718	726.734	-0.096	0.257
-712.704	-12.153	-0.400	0.262
-711.689	-200.000	-0.020	0.115
-710.675	-33.865	0.147	0.081
-709.660	-200.000	0.020	0.138
-708.645	81.786	-0.084	-0.091
-707.631	-200.000	0.006	0.073
-706.616	719.082	-0.071	-0.188
-705.602	32.235	0.111	-0.096
-704.587	44.886	0.166	-0.153
-703.572	341.457	0.066	-0.130
-702.558	539.177	0.057	-0.135
-701.543	-74.725	0.356	-0.128
-700.529	-137.175	-0.229	-0.026
-699.514	-200.000	-0.024	0.134
-698.499	-200.000	-0.046	-0.348
-697.485	366.889	-0.146	0.294
-696.470	457.380	-0.072	-0.161
-695.456	-107.179	-0.208	0.046
-694.441	-143.386	-0.271	-0.026
-693.426	-79.875	-0.198	0.067
-692.412	-92.499	0.266	0.075
-691.397	414.377	0.083	-0.176
-690.383	156.894	-0.125	-0.173
-689.368	52.020	0.306	-0.292
-688.354	-148.317	-0.068	0.006
-687.339	-151.343	-0.205	0.015
-686.324	10.763	-0.325	0.248
-685.310	59.775	0.144	0.142
-684.295	2.570	-0.458	-0.332
-683.281	-200.000	-0.023	-0.193
-682.266	172.112	0.275	-0.396
-681.251	304.931	-0.181	0.336
-680.237	-200.000	0.062	-0.300
-679.222	-57.886	-0.237	-0.104
-678.208	-115.041	-0.535	-0.102
-677.193	-154.218	-0.364	-0.025
-676.178	-200.000	0.004	0.100
-675.164	23.141	-0.131	-0.108
-674.149	256.315	0.045	0.078
-673.135	-200.000	-0.050	0.347
-672.120	263.247	-0.015	0.026
-671.105	2.276	-0.144	0.104
-670.091	107.755	-0.097	-0.115
-669.076	-200.000	-0.006	-0.034
-668.062	390.347	-0.121	-0.251
-667.047	-200.000	-0.012	-0.235
-666.032	611.663	0.045	0.114
-665.018	-200.000	0.017	0.276
-664.003	254.506	0.110	0.188
-662.989	276.962	-0.084	0.150
-661.974	800.000	-0.117	-0.354
-660.959	-200.000	-0.033	-0.208
-659.945	526.303	-0.034	0.079
-658.930	178.300	0.119	-0.174
-657.916	-51.651	0.255	0.119
-656.901	-200.000	-0.060	-0.399
-655.886	-1.905	0.139	0.098
-654.872	279.025	0.094	-0.167
-653.857	-65.827	-0.226	-0.090
-652.843	22.026	0.125	0.102
-651.828	56.899	-0.073	0.071
-650.814	-13.798	0.236	0.152
-649.799	-76.269	-0.273	-0.096
-648.784	-51.770	0.184	-0.086
-647.770	-131.831	0.118	-0.015
-646.755	46.973	0.046	-0.042
-645.741	122.501	-0.146	-0.183
-644.726	134.615	-0.257	-0.333
-643.711	-200.000	-0.022	-0.274
-642.697	202.895	-0.073	0.112
-641.682	-200.000	-0.038	0.188
-640.668	-58.281	-0.070	0.030
-639.653	-148.594	-0.167	0.014
-638.638	-71.760	0.362	-0.135
-637.624	-200.000	-0.002	-0.071
-636.609	130.443	-0.162	-0.207
-635.595	114.357	-0.071	-0.086
-634.580	357.213	0.046	0.091
-633.565	-120.782	-0.455	0.077
-632.551	-133.658	0.147	-0.018
-631.536	-77.743	-0.127	0.044
-630.522	-41.463	0.199	-0.102
-629.507	90.540	0.081	-0.090
-628.492	800.000	-0.073	-0.249
-627.478	-200.000	0.046	0.366
-626.463	80.505	0.096	0.104
-625.449	-89.543	0.176	-0.052
-624.434	-200.000	-0.005	-0.023
-623.419	800.000	-0.022	-0.076
-622.405	123.633	-0.121	-0.151
-621.390	-45.443	-0.393	0.195
-620.376	-90.533	-0.331	0.096
-619.361	-14.752	0.100	0.064
-618.346	45.751	-0.172	0.159
-617.332	356.568	-0.051	-0.101
-616.317	-136.401	0.373	0.043
-615.303	195.057	-0.077	0.116
-614.288	-145.188	-0.452	-0.041
-613.273	155.236	-0.167	0.229
-612.259	-200.000	0.058	-0.305
-611.244	99.280	-0.152	0.175
-610.230	-143.342	0.118	0.011
-609.215	-200.000	-0.037	-0.224
-608.201	80.969	0.267	-0.287
-607.186	-145.944	0.281	-0.025
-606.171	-200.000	-0.014	0.254
-605.157	-47.587	-0.175	0.085
-604.142	-200.000	0.060	-0.396
-603.128	161.548	0.140	-0.195
-602.113	-200.000	-0.075	-0.331
-601.098	-39.489	0.079	0.041
-600.084	-99.491	0.185	-0.046
-599.069	52.423	-0.093	-0.088
-598.055	-64.847	0.117	0.047
-597.040	-125.204	-0.068	-0.010
-596.025	103.675	0.173	-0.203
-595.011	202.858	0.108	0.167
-593.996	-21.785	-0.145	0.088
-592.982	504.648	0.071	-0.164
-591.967	335.981	-0.111	0.215
-590.952	523.694	-0.062	0.146
-589.938	800.000	0.126	-0.368
-588.923	800.000	-0.082	0.284
-587.909	-68.492	-0.265	-0.102
-586.894	-137.765	0.015	-0.002
-585.879	-200.000	-0.012	-0.085
-584.865	-115.160	-0.096	0.018
-583.850	373.311	-0.055	-0.112
-582.836	246.855	-0.062	-0.105
-581.821	-200.000	-0.021	-0.216
-580.806	174.711	-0.110	0.159
-579.792	-140.729	0.145	0.015
-578.777	-200.000	-0.023	-0.139
-577.763	98.064	-0.004	0.004
-576.748	-153.821	-0.203	-0.014
-575.733	800.000	0.025	-0.103
-574.719	3.597	-0.036	-0.026
-573.704	-81.439	-0.196	-0.064
-572.690	-30.353	-0.071	-0.040
-571.675	338.489	0.135	0.262
-570.661	168.714	-0.057	0.081
-569.646	-200.000	-0.004	-0.020
-568.631	800.000	-0.142	-0.472
-567.617	289.455	0.196	0.353
-566.602	-14.445	-0.298	0.191
-565.588	117.086	-0.047	0.058
-564.573	68.473	-0.269	-0.274
-563.558	50.119	-0.032	-0.030
-562.544	-71.302	0.058	-0.022
-561.529	-136.150	-0.384	-0.045
-560.515	-134.294	-0.115	0.014
-559.500	-93.499	0.401	0.111
-558.485	800.000	0.118	0.353
-557.471	287.573	0.115	-0.208
-556.456	40.959	0.285	-0.256
-555.442	-149.681	-0.171	0.013
-554.427	-130.464	0.047	-0.006
-553.412	-90.441	-0.166	0.048
-552.398	800.000	0.073	-0.232
-551.383	-97.512	-0.222	-0.057
-550.369	800.000	0.122	-0.414
-549.354	-200.000	0.008	0.096
-548.339	-111.003	0.138	-0.028
-547.325	-45.283	-0.173	-0.086
-546.310	109.704	0.112	0.133
-545.296	-57.949	-0.224	0.097
-544.281	-77.903	0.113	0.039
-543.266	76.519	0.095	-0.101
-542.252	800.000	-0.043	0.171
-541.237	434.689	-0.048	-0.104
-540.223	385.033	-0.160	-0.329
-539.208	-12.029	0.083	-0.054
-538.193	-200.000	0.047	0.442
-537.179	271.671	0.156	-0.274
-536.164	-114.098	-0.409	-0.079
-535.150	-45.724	0.257	0.126
-534.135	95.716	-0.237	0.269
-533.121	800.000	0.032	-0.137
-532.106	-60.663	-0.380	0.160
-531.091	-200.000	-0.006	0.180
-530.077	-44.599	-0.215	-0.107
-529.062	-5.511	0.057	-0.039
-528.048	-38.198	-0.087	0.046
-527.033	-67.856	0.280	-0.109
-526.018	194.192	0.166	0.249
-525.004	-41.731	0.123	0.063
-523.989	-114.040	0.247	-0.048
-522.975	-64.919	-0.341	0.137
-521.960	800.000	-0.059	-0.247
-520.945	-23.185	-0.230	0.137
-519.931	-163.921	0.225	-0.010
-518.916	422.292	0.139	-0.298
-517.902	157.035	-0.140	-0.192
-516.887	-33.716	0.117	-0.064
-515.872	-71.310	0.178	-0.066
-514.858	-129.983	-0.227	0.031
-513.843	144.766	0.237	-0.315
-512.829	55.683	-0.103	-0.099
-511.814	-38.116	0.295	0.156
-510.799	-65.038	-0.090	-0.036
-509.785	313.274	0.077	-0.143
-508.770	-82.122	-0.350	-0.113
-507.756	507.219	0.097	0.223
-506.741	-101.630	-0.118	0.029
-505.726	-6.971	0.340	0.230
-504.712	720.758	-0.083	0.219
-503.697	172.836	0.159	0.227
-502.683	-141.769	-0.147	-0.015
-501.668	-150.860	0.312	-0.023
-500.653	-16.131	-0.224	0.142
-499.639	170.088	0.193	-0.275
-498.624	-87.803	-0.242	-0.072
-497.610	174.297	0.109	-0.157
-496.595	-200.000	-0.015	-0.087
-495.581	-134.047	0.230	0.028
-494.566	537.585	0.038	0.091
-493.551	-106.882	0.094	-0.021
-492.537	90.748	-0.216	-0.241
-491.522	595.114	0.119	-0.292
-490.508	-98.003	0.149	0.038
-489.493	-47.655	0.142	0.068
-488.478	-158.306	0.103	0.006
-487.464	-68.416	-0.266	-0.103
-486.449	435.697	-0.156	0.338
-485.435	-56.421	0.126	-0.055
-484.420	-113.947	-0.350	0.067
-483.405	-100.961	-0.146	0.036
-482.391	-200.000	-0.020	0.098
-481.376	59.709	0.121	-0.119
-480.362	303.497	0.029	0.054
-479.347	-30.006	0.086	0.048
-478.332	800.000	0.028	0.114
-477.318	-128.909	-0.024	0.003
-476.303	230.082	-0.042	0.068
-475.289	16.112	-0.124	-0.097
-474.274	-200.000	-0.015	-0.394
-473.259	80.120	0.206	-0.220
-472.245	322.812	0.046	0.087
-471.230	17.117	0.169	0.133
-470.216	755.551	0.059	-0.157
-469.201	-146.935	-0.208	-0.018
-468.186	800.000	-0.074	-0.217
-467.172	-200.000	0.002	-0.042
-466.157	-6.159	0.068	0.046
-465.143	-200.000	-0.005	-0.256
-464.128	143.203	-0.024	-0.032
-463.113	550.906	-0.052	-0.124
-462.099	-78.691	-0.088	0.030
-461.084	-200.000	0.004	0.381
-460.070	-200.000	-0.023	0.265
-459.055	-11.383	-0.076	-0.049
-458.040	343.446	0.069	0.135
-457.026	800.000	-0.021	0.084
-456.011	420.082	0.128	0.271
-454.997	150.367	0.050	0.068
-453.982	-68.766	0.178	0.068
-452.968	51.925	0.068	0.064
-451.953	-89.986	-0.293	-0.085
-450.938	235.393	0.069	0.113
-449.924	-2.135	-0.199	-0.138
-448.909	135.580	0.272	-0.350
-447.895	-200.000	-0.022	0.180
-446.880	37.918	-0.285	-0.251
-445.865	47.472	-0.168	0.155
-444.851	-200.000	0.023	0.220
-443.836	-44.084	0.278	0.138
-442.822	-10.608	0.099	0.065
-441.807	306.937	0.104	0.191
-440.792	800.000	-0.039	-0.157
-439.778	-139.070	0.186	0.020
-438.763	167.247	0.071	-0.100
-437.749	-170.440	0.183	-0.006
-436.734	35.326	-0.056	-0.049
-435.719	-83.541	-0.306	-0.097
-434.705	-200.000	-0.012	0.123
-433.690	575.537	-0.112	-0.271
-432.676	-51.737	-0.259	0.119
-431.661	-101.865	-0.008	0.002
-430.646	215.416	-0.101	-0.158
-429.632	447.098	0.070	-0.153
-428.617	-133.977	-0.206	-0.025
-427.603	-65.832	0.176	0.070
-426.588	35.540	-0.241	-0.210
-425.573	97.986	0.036	-0.041
-424.559	-73.657	-0.156	0.056
-423.544	800.000	-0.070	0.300
-422.530	149.986	0.119	0.159
-421.515	56.500	-0.355	-0.342
-420.500	-93.404	0.379	0.104
-419.486	-34.281	0.419	0.228
-418.471	65.500	-0.115	-0.115
-417.457	539.157	0.049	-0.115
-416.442	-200.000	0.106	0.480
-415.428	800.000	-0.123	0.357
-414.413	-180.650	-0.053	-0.001
-413.398	535.550	-0.138	-0.324
-412.384	-55.371	0.080	0.035
-411.369	-105.500	-0.340	-0.076
-410.355	-92.049	0.274	0.077
-409.340	-108.016	0.076	-0.016
-408.325	-200.000	0.012	0.271
-407.311	83.911	-0.096	0.104
-406.296	31.505	0.206	-0.175
-405.282	-25.889	-0.124	-0.072
-404.267	189.976	-0.135	-0.201
-403.252	-60.778	-0.406	-0.170
-402.238	800.000	0.026	-0.087
-401.223	19.329	0.124	0.099
-400.209	-142.578	0.182	0.018
-399.194	-173.183	-0.209	-0.006
-398.179	-56.609	-0.204	-0.089
-397.165	188.507	0.123	0.182
-396.150	35.115	0.142	0.123
-395.136	96.219	0.177	-0.200
-394.121	800.000	-0.036	-0.109
-393.106	-58.665	-0.155	-0.066
-392.092	-78.530	0.133	0.045
-391.077	109.972	0.111	-0.131
-390.063	-153.298	-0.540	-0.037
-389.048	-90.623	-0.175	-0.050
-388.033	-200.000	0.029	0.140
-387.019	-70.636	-0.192	-0.072
-386.004	-45.674	-0.176	-0.086
-384.990	-60.104	-0.200	-0.084
-383.975	-179.165	-0.090	-0.002
-382.960	8.955	0.115	0.086
-381.946	-88.716	-0.190	0.056
-380.931	-90.155	-0.131	0.038
-379.917	-22.765	-0.209	0.125
-378.902	-189.719	0.109	0.001
-377.888	429.347	-0.119	0.255
-376.873	-200.000	0.039	0.200
-375.858	-50.246	-0.078	0.037
-374.844	-200.000	0.043	-0.202
-373.829	279.975	-0.137	0.242
-372.815	-176.659	0.233	-0.006
-371.800	-12.354	-0.279	-0.180
-370.785	800.000	0.062	0.242
-369.771	-200.000	-0.055	-0.281
-368.756	-8.083	-0.059	0.039
-367.742	-59.799	0.186	0.079
-366.727	378.270	-0.187	0.377
-365.712	-33.368	-0.266	0.145
-364.698	-67.851	-0.175	0.068
-363.683	-71.998	0.276	-0.101
-362.669	-159.623	0.246	-0.013
-361.654	40.737	-0.184	-0.164
-360.639	35.113	0.235	0.203
-359.625	248.086	-0.192	0.321
-358.610	33.966	0.071	0.061
-357.596	552.299	-0.006	-0.015
-356.581	-106.081	-0.393	0.087
-355.566	-126.996	0.075	-0.011
-354.552	-177.354	-0.059	-0.001
-353.537	95.978	0.318	0.358
-352.523	-200.000	-0.017	0.139
-351.508	-107.434	0.386	0.084
-350.493	-67.440	0.074	-0.029
-349.479	-10.694	0.202	0.132
-348.464	-11.880	0.325	-0.211
-347.450	-183.068	-0.166	0.003
-346.435	-94.566	0.192	-0.052
-345.420	-48.319	0.306	-0.146
-344.406	4.241	-0.215	0.156
-343.391	157.957	0.290	0.397
-342.377	-200.000	0.019	0.150
-341.362	800.000	-0.181	-0.635
-340.348	-26.771	-0.155	0.089
-339.333	404.942	0.155	0.323
-338.318	-86.914	0.179	0.054
-337.304	-200.000	-0.031	-0.342
-336.289	-54.302	-0.112	-0.050
-335.275	118.541	0.163	-0.198
-334.260	-151.042	-0.085	-0.006
-333.245	-200.000	0.040	0.235
-332.231	-59.447	0.231	-0.098
-331.216	618.320	0.063	0.157
-330.202	-59.665	-0.129	0.054
-329.187	141.254	0.133	-0.173
-328.172	-131.191	-0.228	0.030
-327.158	-96.187	-0.110	0.029
-326.143	32.765	-0.106	-0.091
-325.129	146.822	0.250	-0.332
-324.114	-150.244	-0.141	0.011
-323.099	-10.231	-0.198	0.130
-322.085	-33.515	0.242	-0.132
-321.070	120.725	0.247	-0.303
-320.056	324.732	0.120	0.226
-319.041	-69.155	0.132	0.050
-318.026	-200.000	0.034	0.244
-317.012	-28.908	0.245	-0.139
-315.997	109.602	0.058	-0.069
-314.983	186.920	0.127	0.186
-313.968	-106.718	0.132	-0.029
-312.953	800.000	0.052	0.140
-311.939	-82.790	0.309	-0.098
-310.924	359.192	-0.186	0.367
-309.910	-21.310	0.276	0.166
-308.895	-62.275	0.287	0.118
-307.880	14.891	0.207	-0.160
-306.866	21.293	0.235	-0.188
-305.851	-81.299	-0.292	-0.095
-304.837	62.748	0.287	0.283
-303.822	-200.000	-0.085	0.406
-302.807	-199.999	-0.131	-0.001
-301.793	-79.202	-0.283	0.095
-300.778	-191.705	-0.223	0.002
-299.764	328.381	0.061	-0.116
-298.749	-200.000	0.018	0.214
-297.735	-200.000	-0.020	0.283
-296.720	-200.000	0.026	-0.229
-295.705	-77.681	-0.413	0.141
-294.691	496.238	-0.067	-0.151
-293.676	-29.662	-0.155	-0.087
-292.662	51.113	0.269	-0.251
-291.647	-200.000	0.052	0.254
-290.632	800.000	0.096	0.310
-289.618	23.259	-0.226	-0.183
-288.603	-41.353	-0.240	-0.122
-287.589	-200.000	0.007	0.096
-286.574	-111.532	-0.077	0.015
-285.559	207.635	-0.130	0.199
-284.545	-89.859	-0.202	-0.058
-283.530	264.208	0.067	-0.114
-282.516	-42.957	0.201	-0.101
-281.501	-200.000	-0.022	-0.253
-280.486	800.000	-0.068	-0.195
-279.472	-98.957	-0.052	0.013
-278.457	-200.000	0.003	0.065
-277.443	321.880	0.151	0.283
-276.428	-200.000	0.015	0.312
-275.413	-200.000	-0.025	-0.204
-274.399	465.905	-0.070	0.154
-273.384	716.186	-0.037	0.096
-272.370	-97.642	0.317	0.081
-271.355	30.521	0.072	0.061
-270.340	50.795	0.164	-0.153
-269.326	-118.112	0.410	0.072
-268.311	133.181	-0.218	-0.277
-267.297	-38.332	0.204	0.106
-266.282	61.733	-0.111	0.108
-265.267	68.692	0.213	-0.216
-264.253	800.000	-0.084	-0.306
-263.238	106.992	-0.212	0.247
-262.224	-21.014	0.144	-0.087
-261.209	-130.820	0.311	-0.041
-260.195	-200.000	-0.015	-0.216
-259.180	-62.951	0.152	0.062
-258.165	-140.358	-0.281	-0.029
-257.151	800.000	-0.131	-0.369
-256.136	56.775	0.266	0.255
-255.122	-200.000	0.028	0.331
-254.107	34.558	-0.227	0.195
-253.092	-75.879	0.160	-0.056
-252.078	-48.985	0.210	0.099
-251.063	121.868	0.126	-0.155
-250.049	-200.000	-0.006	-0.113
-249.034	800.000	0.037	-0.140
-248.019	105.180	-0.172	-0.200
-247.005	56.262	-0.309	0.295
-245.990	-62.053	0.181	-0.074
-244.976	-52.474	0.278	0.127
-243.961	9.867	-0.202	-0.151
-242.946	800.000	-0.013	-0.048
-241.932	100.132	-0.080	-0.091
-240.917	-33.543	0.296	-0.161
-239.903	499.701	-0.139	0.314
-238.888	800.000	-0.103	-0.434
-237.873	39.821	-0.040	-0.035
-236.859	101.178	0.115	0.132
-235.844	480.844	0.112	0.250
-234.830	-200.000	-0.028	0.233
-233.815	480.326	-0.116	0.259
-232.800	-200.000	-0.002	0.315
-231.786	-48.693	-0.167	-0.079
-230.771	454.967	0.029	0.064
-229.757	-12.727	-0.086	-0.055
-228.742	-0.333	-0.106	-0.074
-227.727	737.569	0.132	0.348
-226.713	-42.587	0.202	0.101
-225.698	-28.824	-0.054	-0.030
-224.684	-74.965	0.028	0.010
-223.669	160.092	0.068	-0.093
-222.655	-82.138	-0.235	-0.075
-221.640	-156.930	0.260	0.016
-220.625	-134.990	-0.225	0.027
-219.611	-200.000	0.080	0.433
-218.596	-55.513	0.219	0.097
-217.582	17.315	-0.206	-0.161
-216.567	-141.049	-0.124	0.013
-215.552	166.135	0.050	0.069
-214.538	543.156	0.016	-0.037
-213.523	-111.290	0.210	-0.042
-212.509	-61.549	0.202	-0.083
-211.494	102.166	-0.284	0.325
-210.479	-197.889	0.244	-0.001
-209.465	102.535	0.059	0.068
-208.450	-57.346	0.053	0.023
-207.436	-117.239	0.016	-0.003
-206.421	-200.000	-0.004	0.214
-205.406	-200.000	-0.021	0.137
-204.392	-117.787	0.156	-0.028
-203.377	159.809	-0.051	-0.070
-202.363	-200.000	-0.014	-0.069
-201.348	92.127	0.227	0.251
-200.333	90.043	0.217	-0.238
-199.319	346.323	0.128	-0.248
-198.304	-200.000	-0.022	0.255
-197.290	800.000	0.056	0.227
-196.275	-74.613	0.372	0.131
-195.260	69.866	-0.209	0.211
-194.246	-93.008	0.239	-0.065
-193.231	-89.914	-0.203	-0.058
-192.217	-84.945	0.362	-0.111
-191.202	371.261	-0.175	-0.348
-190.187	369.935	0.029	-0.057
-189.173	-47.277	-0.182	0.087
-188.158	593.611	-0.101	-0.244
-187.144	-200.000	0.022	-0.280
-186.129	51.416	0.066	0.061
-185.114	263.199	-0.065	-0.111
-184.100	-200.000	-0.029	-0.295
-183.085	800.000	-0.072	0.282
-182.071	43.574	0.106	0.095
-181.056	-32.162	0.134	-0.074
-180.042	-27.602	-0.231	-0.132
-179.027	-129.536	0.123	0.017
-178.012	800.000	0.074	0.212
-176.998	93.320	0.069	-0.077
-175.983	98.392	-0.245	-0.277
-174.969	-11.121	0.080	0.052
-173.954	800.000	0.044	0.188
-172.939	-200.000	0.108	0.000
-171.925	-200.000	-0.059	0.285
-170.910	-8.680	-0.139	-0.091
-169.896	74.345	-0.093	0.096
-168.881	300.051	0.159	0.288
-167.866	-9.207	0.022	-0.015
-166.852	86.409	0.188	-0.203
-165.837	100.038	0.171	-0.194
-164.823	-92.318	-0.056	-0.015
-163.808	-84.061	0.168	-0.052
-162.793	-96.130	-0.197	0.051
-161.779	34.588	-0.096	-0.082
-160.764	-51.579	0.201	-0.092
-159.750	3.880	-0.113	-0.081
-158.735	407.291	0.065	0.135
-157.720	-23.779	0.050	0.030
-156.706	-115.799	-0.196	0.036
-155.691	-200.000	0.040	0.219
-154.677	330.231	-0.131	-0.246
-153.662	-200.000	-0.097	-0.446
-152.647	800.000	-0.144	-0.535
-151.633	446.018	0.152	0.328
-150.618	-83.156	-0.181	-0.057
-149.604	30.258	0.154	0.129
-148.589	-13.221	0.346	-0.220
-147.574	-71.970	0.251	0.092
-146.560	-101.656	-0.206	-0.049
-145.545	64.611	-0.157	0.155
-144.531	148.644	0.115	0.152
-143.516	432.859	-0.039	-0.083
-142.502	313.615	0.147	0.271
-141.487	-200.000	0.068	0.307
-140.472	-200.000	-0.031	0.313
-139.458	41.400	-0.270	-0.239
-138.443	800.000	0.037	-0.139
-137.429	-200.000	0.009	0.192
-136.414	257.223	0.073	-0.123
-135.399	623.121	-0.113	0.278
-134.385	8.219	-0.091	-0.067
-133.370	-89.886	0.238	0.068
-132.356	-200.000	-0.022	0.174
-131.341	-69.724	0.278	-0.104
-130.326	-132.668	0.284	-0.036
-129.312	800.000	-0.091	-0.263
-128.297	63.877	0.082	-0.081
-127.283	800.000	0.053	0.166
-126.268	58.854	0.229	0.220
-125.253	-106.249	0.261	-0.057
-124.239	109.608	-0.069	0.080
-123.224	104.805	0.075	-0.087
-122.210	-200.000	-0.002	-0.252
