DTS Sentinel unit serial number:	SN413079Multiplexer serial number:	ORYXHardware model number:	OX4-SRSoftware version number:	ORYX F/W v4.00 Oryx Data Collector v3.7.2.0data status	okinstallation	princeton_trtdifferential loss correction	single-endedforward channel	channel 3reverse channel	N/Adate	2019/09/10time	18:22:11forward acquisition time	60.00reverse acquisition time	0.00gamma	496.2192k internal	0.2305k external	0.2305temperature offset calibration	0.9911default loss term (dB/km)	0.3790temperature slope calibration	1.0000multiplexer offset coefficient	1.0000multiplexer slope coefficient	1.0000fibre end	0.00T internal ref (°C)	36.25T ext. ref 1 (°C)	-0.37T ext. ref 2 (°C)	28.31length (m)	temperature (°C)	Stokes	anti-Stokes-747.200	-163.989	-0.314	0.015
-746.185	225.099	0.124	0.204
-745.171	46.976	-0.240	-0.227
-744.156	337.074	-0.083	0.164
-743.142	-66.794	0.149	0.060
-742.127	-200.000	-0.021	-0.119
-741.112	-81.821	-0.448	-0.149
-740.098	-18.592	-0.132	0.084
-739.083	-200.000	-0.008	0.339
-738.069	-97.221	0.204	-0.054
-737.054	-83.271	0.232	-0.076
-736.039	638.502	-0.033	-0.085
-735.025	437.376	0.211	0.469
-734.010	-200.000	0.011	-0.062
-732.996	-64.927	-0.304	-0.125
-731.981	-3.436	-0.046	-0.033
-730.966	-34.283	-0.195	-0.109
-729.952	-200.000	-0.056	0.375
-728.937	-200.000	-0.033	0.211
-727.923	112.505	0.133	-0.164
-726.908	763.945	-0.064	0.176
-725.894	74.394	0.129	0.138
-724.879	124.040	-0.222	-0.284
-723.864	60.592	-0.117	-0.118
-722.850	-70.627	0.114	0.044
-721.835	-200.000	-0.043	0.274
-720.821	-21.400	-0.155	-0.096
-719.806	220.172	-0.152	0.247
-718.791	58.211	-0.096	-0.096
-717.777	-58.423	-0.278	0.123
-716.762	537.414	0.113	-0.273
-715.748	-200.000	-0.076	-0.389
-714.733	-194.980	-0.340	-0.003
-713.718	112.238	-0.157	-0.193
-712.704	-12.101	-0.286	0.191
-711.689	-158.098	-0.102	-0.006
-710.675	-200.000	0.012	0.251
-709.660	65.816	-0.283	-0.292
-708.645	-121.349	-0.062	-0.011
-707.631	14.562	-0.159	0.126
-706.616	-142.525	-0.399	-0.040
-705.602	-32.034	0.147	0.084
-704.587	-138.667	-0.212	-0.024
-703.572	-139.537	-0.222	0.024
-702.558	-200.000	0.045	-0.347
-701.543	-200.000	-0.021	-0.283
-700.529	688.167	-0.075	0.200
-699.514	40.020	-0.243	0.222
-698.499	-54.214	-0.082	0.038
-697.485	-22.716	-0.360	-0.221
-696.470	17.618	-0.091	-0.073
-695.456	-49.411	-0.180	0.087
-694.441	380.651	0.208	-0.434
-693.426	800.000	0.103	-0.299
-692.412	-20.589	-0.143	0.089
-691.397	-200.000	-0.001	0.073
-690.383	300.348	-0.104	-0.194
-689.368	-31.842	-0.250	0.142
-688.354	-40.111	0.244	0.129
-687.339	800.000	0.023	-0.067
-686.324	-114.654	-0.338	-0.066
-685.310	-125.507	-0.445	-0.069
-684.295	312.339	0.073	0.139
-683.281	120.090	0.067	0.084
-682.266	-107.959	-0.206	-0.045
-681.251	31.648	-0.136	-0.119
-680.237	23.544	-0.165	-0.138
-679.222	-200.000	-0.005	-0.222
-678.208	-200.000	0.005	0.083
-677.193	-110.441	-0.136	0.029
-676.178	-200.000	0.013	-0.096
-675.164	-200.000	-0.026	-0.162
-674.149	-47.577	-0.299	-0.147
-673.135	800.000	0.041	0.164
-672.120	-17.974	-0.248	-0.158
-671.105	182.614	-0.105	0.157
-670.091	-200.000	-0.271	-0.001
-669.076	40.496	-0.208	0.191
-668.062	-200.000	0.029	0.223
-667.047	-12.235	0.158	0.105
-666.032	-93.425	-0.227	0.064
-665.018	-19.118	-0.090	0.057
-664.003	232.019	0.168	0.279
-662.989	372.843	-0.113	0.234
-661.974	-200.000	-0.053	-0.257
-660.959	-17.977	-0.224	0.142
-659.945	456.455	-0.169	0.381
-658.930	465.258	-0.077	0.174
-657.916	364.959	-0.049	-0.099
-656.901	-168.215	0.052	-0.002
-655.886	106.782	-0.230	-0.277
-654.872	-14.135	-0.266	0.174
-653.857	-200.000	-0.010	-0.067
-652.843	-155.260	-0.249	-0.016
-651.828	-121.034	0.041	0.007
-650.814	448.006	-0.040	-0.088
-649.799	249.638	-0.277	-0.476
-648.784	-200.000	-0.033	-0.235
-647.770	713.540	-0.091	-0.244
-646.755	-200.000	0.003	-0.100
-645.741	-46.427	-0.202	0.101
-644.726	-200.000	0.013	-0.081
-643.711	-200.000	-0.091	-0.553
-642.697	58.925	0.168	-0.167
-641.682	-53.273	-0.248	0.115
-640.668	104.853	0.137	-0.163
-639.653	220.047	-0.048	0.078
-638.638	89.980	-0.081	-0.091
-637.624	-97.912	-0.215	0.056
-636.609	-148.261	-0.156	-0.013
-635.595	-140.819	0.131	-0.014
-634.580	306.209	0.153	0.288
-633.565	-20.173	-0.295	-0.184
-632.551	345.601	-0.041	0.082
-631.536	52.968	0.225	0.218
-630.522	-1.870	0.148	-0.105
-629.507	520.821	-0.115	0.273
-628.492	587.284	-0.136	0.338
-627.478	235.921	0.171	-0.286
-626.463	-200.000	0.109	-0.513
-625.449	-74.296	-0.049	0.018
-624.434	6.921	0.195	-0.147
-623.419	-200.000	-0.006	-0.098
-622.405	-23.578	0.081	0.049
-621.390	-76.095	0.229	-0.082
-620.376	-52.719	0.051	-0.024
-619.361	7.614	-0.247	-0.188
-618.346	-200.000	0.017	0.212
-617.332	800.000	-0.081	-0.323
-616.317	-200.000	-0.040	0.192
-615.303	800.000	0.172	-0.529
-614.288	-147.711	-0.434	0.037
-613.273	-37.723	-0.158	0.085
-612.259	65.335	0.211	-0.216
-611.244	-41.924	-0.111	0.058
-610.230	-88.562	0.072	-0.022
-609.215	-87.836	-0.375	0.114
-608.201	-200.000	0.018	0.110
-607.186	-200.000	-0.007	0.185
-606.171	86.786	0.193	-0.215
-605.157	122.492	0.138	-0.175
-604.142	377.120	0.121	-0.249
-603.128	-40.631	0.302	-0.159
-602.113	-6.399	-0.190	-0.131
-601.098	-200.000	0.001	-0.182
-600.084	800.000	-0.165	-0.481
-599.069	-32.778	-0.125	0.070
-598.055	800.000	0.088	-0.305
-597.040	-200.000	-0.008	0.065
-596.025	365.662	0.197	-0.403
-595.011	102.687	0.086	0.101
-593.996	-118.832	0.134	0.024
-592.982	448.979	0.030	0.066
-591.967	800.000	-0.055	0.228
-590.952	106.393	-0.144	0.173
-589.938	-200.000	0.039	-0.177
-588.923	-5.608	-0.324	-0.225
-587.909	-34.964	-0.332	-0.184
-586.894	-82.376	-0.273	0.090
-585.879	-165.442	0.338	-0.015
-584.865	86.960	-0.172	0.192
-583.850	-176.783	-0.195	-0.005
-582.836	-200.000	-0.051	0.303
-581.821	323.877	-0.214	0.413
-580.806	15.881	-0.161	0.128
-579.792	124.159	-0.159	0.202
-578.777	455.451	0.144	-0.322
-577.763	-200.000	0.020	-0.299
-576.748	-41.376	-0.017	-0.009
-575.733	-200.000	0.006	-0.081
-574.719	306.534	-0.099	0.187
-573.704	-138.289	0.022	-0.002
-572.690	4.999	0.145	-0.108
-571.675	176.876	0.033	-0.049
-570.661	121.298	0.095	0.120
-569.646	800.000	0.064	0.265
-568.631	-16.389	-0.118	0.076
-567.617	68.502	-0.164	0.170
-566.602	164.110	-0.006	0.009
-565.588	16.090	-0.310	0.247
-564.573	-124.768	-0.463	0.072
-563.558	-200.000	-0.004	-0.161
-562.544	714.063	0.096	0.258
-561.529	234.796	0.043	0.071
-560.515	150.622	-0.146	-0.201
-559.500	-53.955	0.411	0.189
-558.485	800.000	0.048	0.162
-557.471	-133.673	-0.254	-0.032
-556.456	61.351	0.105	0.105
-555.442	-31.538	-0.127	-0.072
-554.427	-96.716	-0.093	0.025
-553.412	-128.070	0.090	0.013
-552.398	157.868	0.153	-0.215
-551.383	-13.580	-0.425	-0.278
-550.369	89.745	-0.014	-0.016
-549.354	-118.988	-0.090	-0.016
-548.339	14.099	-0.096	0.075
-547.325	800.000	0.062	0.223
-546.310	-146.688	0.137	-0.012
-545.296	-166.889	0.107	-0.004
-544.281	58.673	0.115	-0.114
-543.266	-80.668	0.170	-0.057
-542.252	107.301	0.135	-0.162
-541.237	279.861	0.143	0.257
-540.223	-186.430	-0.091	-0.001
-539.208	-115.805	-0.128	-0.024
-538.193	-33.777	-0.147	0.082
-537.179	-200.000	0.077	0.340
-536.164	436.221	-0.005	-0.011
-535.150	-80.017	-0.386	0.131
-534.135	-200.000	0.014	-0.092
-533.121	-200.000	-0.001	0.146
-532.106	-200.000	-0.170	0.000
-531.091	-126.334	-0.139	-0.021
-530.077	-134.161	-0.137	0.017
-529.062	-132.930	0.241	-0.031
-528.048	-105.993	-0.167	0.038
-527.033	-200.000	-0.005	0.075
-526.018	-200.000	0.047	-0.301
-525.004	153.184	-0.097	-0.134
-523.989	-17.616	0.117	-0.074
-522.975	-62.009	-0.049	0.021
-521.960	800.000	-0.045	-0.159
-520.945	-134.155	0.319	-0.040
-519.931	325.683	-0.083	0.160
-518.916	-9.698	0.186	-0.125
-517.902	193.247	0.187	-0.285
-516.887	800.000	0.049	-0.158
-515.872	252.736	0.044	-0.076
-514.858	11.319	-0.082	-0.064
-513.843	28.576	0.196	-0.167
-512.829	-79.919	-0.155	-0.052
-511.814	800.000	0.102	0.406
-510.799	800.000	0.043	0.187
-509.785	-109.642	0.130	0.028
-508.770	-33.224	-0.079	0.044
-507.756	-4.839	-0.089	-0.062
-506.741	-159.074	-0.070	-0.004
-505.726	14.108	0.296	0.233
-504.712	-200.000	-0.032	0.250
-503.697	-32.788	-0.077	-0.043
-502.683	316.047	0.039	-0.075
-501.668	-54.231	0.077	0.035
-500.653	219.689	0.126	0.203
-499.639	-200.000	-0.031	0.230
-498.624	-95.716	0.021	-0.006
-497.610	-81.075	-0.110	-0.037
-496.595	58.325	-0.034	0.033
-495.581	-130.745	0.276	-0.037
-494.566	-200.000	-0.014	0.204
-493.551	-200.000	-0.029	-0.136
-492.537	-200.000	0.012	0.107
-491.522	-200.000	-0.020	-0.136
-490.508	-116.676	-0.310	-0.057
-489.493	-119.644	-0.026	-0.005
-488.478	-16.308	-0.044	0.028
-487.464	134.217	-0.252	-0.329
-486.449	-48.232	-0.207	0.101
-485.435	75.211	0.193	0.205
-484.420	166.264	0.061	-0.088
-483.405	237.927	0.266	-0.444
-482.391	-200.000	-0.213	-0.001
-481.376	-200.000	0.034	0.248
-480.362	-157.473	-0.272	-0.016
-479.347	95.686	-0.230	-0.264
-478.332	-97.393	-0.159	-0.042
-477.318	71.808	0.075	-0.078
-476.303	-101.539	-0.263	0.064
-475.289	5.034	-0.198	0.146
-474.274	-131.468	0.280	-0.037
-473.259	800.000	-0.032	-0.132
-472.245	145.794	0.005	0.007
-471.230	17.699	-0.164	0.132
-470.216	78.800	-0.148	0.160
-469.201	425.251	0.154	0.335
-468.186	-103.197	-0.269	-0.064
-467.172	-200.000	-0.013	0.326
-466.157	656.713	0.078	0.203
-465.143	-200.000	-0.288	-0.001
-464.128	-67.751	-0.188	-0.074
-463.113	-200.000	-0.007	-0.082
-462.099	69.052	0.079	-0.082
-461.084	374.510	0.092	0.188
-460.070	-155.142	0.224	0.015
-459.055	800.000	0.046	0.183
-458.040	-95.379	-0.171	-0.046
-457.026	800.000	0.092	-0.376
-456.011	40.281	-0.032	0.029
-454.997	-120.307	0.126	0.022
-453.982	-53.465	0.274	-0.126
-452.968	322.798	0.087	-0.167
-451.953	155.366	0.293	-0.406
-450.938	93.721	-0.038	-0.043
-449.924	800.000	-0.030	0.112
-448.909	-114.071	-0.448	0.087
-447.895	119.521	0.170	0.211
-446.880	727.903	-0.052	-0.140
-445.865	-164.634	0.107	-0.005
-444.851	260.138	0.119	-0.208
-443.836	119.325	0.066	-0.083
-442.822	-65.942	0.086	0.035
-441.807	69.847	0.123	0.128
-440.792	800.000	-0.025	0.101
-439.778	-91.146	0.023	0.007
-438.763	-28.413	0.243	0.141
-437.749	778.172	0.137	0.377
-436.734	800.000	-0.112	-0.314
-435.719	-22.756	-0.011	0.007
-434.705	61.051	0.285	-0.285
-433.690	441.488	-0.183	0.404
-432.676	-200.000	0.066	-0.389
-431.661	-115.792	0.302	0.057
-430.646	140.912	-0.075	-0.099
-429.632	-67.057	0.056	-0.022
-428.617	800.000	-0.078	0.326
-427.603	14.856	0.086	-0.068
-426.588	105.410	-0.084	0.100
-425.573	7.925	0.021	0.016
-424.559	-200.000	0.021	-0.150
-423.544	-186.721	-0.176	-0.002
-422.530	-124.836	-0.138	0.021
-421.515	133.044	-0.181	0.235
-420.500	164.646	0.154	0.219
-419.486	-152.556	-0.227	-0.016
-418.471	-25.784	-0.384	0.228
-417.457	800.000	-0.049	-0.149
-416.442	-41.888	0.356	-0.183
-415.428	-93.781	0.575	0.159
-414.413	-17.884	-0.105	-0.066
-413.398	238.131	-0.114	-0.189
-412.384	85.103	0.120	0.132
-411.369	67.167	0.213	0.218
-410.355	800.000	-0.063	-0.198
-409.340	70.833	0.087	-0.090
-408.325	-71.606	0.091	-0.034
-407.311	800.000	0.160	-0.453
-406.296	-115.484	-0.144	-0.027
-405.282	-1.380	0.106	-0.075
-404.267	324.627	0.037	0.070
-403.252	-200.000	-0.040	0.257
-402.238	-25.308	-0.199	0.119
-401.223	-200.000	-0.081	0.370
-400.209	-94.017	-0.067	0.019
-399.194	439.929	0.075	0.164
-398.179	800.000	0.011	0.040
-397.165	-71.135	-0.121	-0.046
-396.150	-200.000	0.061	-0.390
-395.136	-200.000	0.019	0.141
-394.121	-200.000	0.016	0.095
-393.106	-147.104	0.085	0.007
-392.092	-200.000	-0.027	0.337
-391.077	-200.000	-0.008	0.048
-390.063	800.000	0.043	0.133
-389.048	127.372	0.087	0.110
-388.033	-27.635	0.157	-0.092
-387.019	0.893	-0.219	-0.158
-386.004	-200.000	0.001	0.065
-384.990	-69.011	-0.198	-0.077
-383.975	-200.000	-0.065	0.479
-382.960	-142.425	-0.132	-0.013
-381.946	40.980	0.168	-0.152
-380.931	10.154	-0.154	-0.118
-379.917	-113.298	-0.290	-0.057
-378.902	-122.773	0.208	-0.034
-377.888	-65.195	0.155	-0.063
-376.873	186.154	0.072	0.108
-375.858	-71.383	0.402	-0.151
-374.844	-200.000	-0.008	-0.082
-373.829	192.652	0.210	-0.318
-372.815	218.908	0.184	-0.295
-371.800	800.000	-0.058	-0.193
-370.785	161.694	0.208	-0.292
-369.771	-157.756	0.099	-0.006
-368.756	800.000	-0.053	0.174
-367.742	-20.350	0.223	-0.138
-366.727	87.166	-0.126	-0.139
-365.712	800.000	-0.055	0.232
-364.698	23.799	0.135	0.112
-363.683	800.000	0.076	-0.296
-362.669	-200.000	-0.057	-0.352
-361.654	553.407	-0.033	-0.078
-360.639	-48.292	0.161	-0.078
-359.625	-93.316	-0.203	-0.056
-358.610	189.937	0.125	-0.188
-357.596	-200.000	0.028	0.127
-356.581	633.549	0.088	-0.225
-355.566	-188.743	-0.083	-0.001
-354.552	-40.863	0.230	0.119
-353.537	260.035	-0.069	-0.119
-352.523	-135.958	-0.296	-0.035
-351.508	-87.298	0.167	-0.051
-350.493	-67.441	-0.244	0.096
-349.479	-200.000	-0.024	0.289
-348.464	-200.000	0.079	-0.492
-347.450	-43.611	-0.344	-0.174
-346.435	62.822	-0.111	-0.112
-345.420	-170.813	-0.238	0.008
-344.406	119.797	0.084	-0.104
-343.391	-111.316	0.231	0.047
-342.377	-137.553	-0.226	-0.026
-341.362	46.560	0.152	0.142
-340.348	-129.989	0.259	-0.035
-339.333	-200.000	0.058	0.349
-338.318	-75.829	-0.328	0.116
-337.304	-200.000	0.016	0.145
-336.289	39.638	-0.319	-0.286
-335.275	248.576	-0.127	0.216
-334.260	-148.247	0.320	0.026
-333.245	158.790	-0.065	0.091
-332.231	-29.237	0.219	0.126
-331.216	222.809	0.129	0.208
-330.202	183.414	0.211	0.312
-329.187	800.000	-0.043	-0.147
-328.172	391.749	0.068	0.141
-327.158	-123.861	-0.192	0.030
-326.143	35.359	0.209	0.184
-325.129	150.207	-0.050	-0.067
-324.114	-61.322	0.061	0.026
-323.099	434.080	0.051	-0.110
-322.085	-149.523	0.233	0.018
-321.070	-200.000	-0.037	-0.476
-320.056	-160.294	0.413	0.022
-319.041	202.066	-0.240	0.371
-318.026	-200.000	0.007	-0.356
-317.012	-96.274	0.112	-0.030
-315.997	-28.129	-0.096	-0.056
-314.983	383.697	-0.128	0.264
-313.968	800.000	0.024	0.098
-312.953	-82.545	-0.111	0.036
-311.939	82.829	-0.215	0.234
-310.924	336.900	0.059	-0.115
-309.910	204.250	0.078	0.122
-308.895	-2.092	0.118	0.083
-307.880	758.218	-0.127	0.343
-306.866	284.692	0.217	0.391
-305.851	-38.999	0.104	-0.055
-304.837	-200.000	-0.025	-0.195
-303.822	-200.000	-0.003	0.106
-302.807	-71.961	0.246	0.091
-301.793	-8.528	0.289	-0.194
-300.778	51.991	-0.095	-0.090
-299.764	25.193	0.172	0.143
-298.749	-45.619	-0.054	0.027
-297.735	800.000	-0.081	-0.245
-296.720	-36.082	-0.159	-0.086
-295.705	399.863	0.152	0.318
-294.691	48.236	0.229	0.214
-293.676	255.118	-0.066	0.113
-292.662	800.000	-0.076	0.217
-291.647	210.361	-0.074	0.116
-290.632	-200.000	-0.014	0.145
-289.618	-83.917	0.064	0.021
-288.603	38.258	-0.291	0.259
-287.589	800.000	-0.065	-0.194
-286.574	10.259	0.109	-0.083
-285.559	-14.683	0.131	-0.084
-284.545	-96.956	-0.167	-0.044
-283.530	-2.010	0.194	-0.136
-282.516	-7.308	0.209	-0.141
-281.501	-200.000	0.078	-0.402
-280.486	326.045	0.110	0.210
-279.472	151.679	-0.140	0.191
-278.457	233.579	-0.318	0.524
-277.443	246.422	-0.114	0.192
-276.428	800.000	-0.060	0.212
-275.413	-43.579	0.197	-0.099
-274.399	800.000	0.099	0.318
-273.384	-139.727	0.210	0.022
-272.370	-51.329	0.262	0.123
-271.355	-149.038	-0.130	0.010
-270.340	146.843	0.041	-0.055
-269.326	-200.000	-0.015	0.227
-268.311	-68.081	0.093	0.036
-267.297	-117.679	0.453	0.082
-266.282	412.816	0.185	0.393
-265.267	313.208	0.049	-0.093
-264.253	-141.364	0.147	0.015
-263.238	800.000	-0.061	-0.226
-262.224	19.465	-0.224	-0.180
-261.209	-138.850	-0.197	0.021
-260.195	-200.000	0.064	-0.315
-259.180	131.919	-0.103	0.133
-258.165	-97.667	-0.452	0.117
-257.151	800.000	0.070	0.300
-256.136	-144.533	0.368	0.034
-255.122	5.690	-0.215	-0.159
-254.107	-144.844	-0.188	-0.017
-253.092	-39.595	0.076	0.040
-252.078	104.171	0.299	-0.351
-251.063	126.723	-0.082	0.104
-250.049	3.089	0.095	-0.069
-249.034	-200.000	0.006	0.185
-248.019	18.563	-0.259	-0.207
-247.005	-200.000	-0.044	0.000
-245.990	89.622	-0.035	-0.039
-244.976	30.170	-0.240	-0.204
-243.961	45.042	0.240	-0.221
-242.946	213.896	-0.149	0.235
-241.932	243.071	0.121	-0.203
-240.917	-29.559	0.216	-0.123
-239.903	-80.200	-0.349	-0.117
-238.888	87.333	0.215	-0.237
-237.873	-44.128	-0.268	0.134
-236.859	-166.423	0.061	0.003
-235.844	-200.000	0.040	0.247
-234.830	-17.367	0.102	-0.064
-233.815	521.704	-0.143	-0.336
-232.800	-82.502	-0.085	-0.028
-231.786	-35.226	-0.084	-0.046
-230.771	-131.571	-0.159	-0.021
-229.757	-12.488	0.073	-0.048
-228.742	-135.659	-0.171	0.020
-227.727	-106.608	0.258	-0.057
-226.713	-96.062	-0.223	-0.059
-225.698	-137.780	0.261	0.029
-224.684	-100.481	0.336	0.083
-223.669	133.495	0.115	0.148
-222.655	135.266	0.167	0.216
-221.640	474.921	-0.056	-0.125
-220.625	-139.687	-0.200	-0.021
-219.611	-200.000	-0.006	-0.055
-218.596	-136.488	-0.069	-0.008
-217.582	-40.457	0.222	-0.115
-216.567	150.513	-0.116	-0.157
-215.552	-200.000	-0.045	-0.341
-214.538	-200.000	0.063	-0.424
-213.523	271.537	-0.109	-0.191
-212.509	-200.000	-0.062	0.278
-211.494	-200.000	-0.053	0.373
-210.479	-35.785	-0.215	-0.116
-209.465	365.487	-0.076	0.152
-208.450	-84.180	-0.317	0.100
-207.436	-200.000	0.082	-0.447
-206.421	22.369	0.334	0.272
-205.406	-83.208	-0.261	0.084
-204.392	800.000	-0.060	-0.170
-203.377	426.351	0.228	0.491
-202.363	-130.638	-0.228	0.031
-201.348	81.055	0.178	-0.191
-200.333	-39.277	0.100	-0.053
-199.319	243.593	-0.135	0.226
-198.304	233.731	0.139	-0.227
-197.290	80.390	0.165	-0.177
-196.275	268.735	-0.077	0.134
-195.260	182.163	0.085	0.125
-194.246	-13.510	-0.170	0.109
-193.231	17.216	0.263	0.208
-192.217	34.971	-0.031	0.027
-191.202	793.554	-0.105	0.287
-190.187	-200.000	0.005	-0.129
-189.173	-11.736	0.376	0.246
-188.158	84.623	0.022	-0.024
-187.144	800.000	0.039	0.159
-186.129	-74.357	-0.277	0.100
-185.114	-51.257	0.257	0.120
-184.100	-139.385	-0.337	0.036
-183.085	-101.425	0.264	-0.064
-182.071	-200.000	-0.004	-0.060
-181.056	-26.969	0.319	-0.186
-180.042	800.000	0.068	0.204
-179.027	-135.392	-0.306	0.036
-178.012	96.225	0.064	0.073
-176.998	800.000	0.051	0.193
-175.983	-26.928	0.089	-0.052
-174.969	-25.930	0.212	0.124
-173.954	-11.735	-0.378	0.247
-172.939	286.811	0.115	0.207
-171.925	-200.000	-0.055	0.265
-170.910	-62.794	-0.226	0.093
-169.896	112.650	-0.119	0.143
-168.881	-99.528	0.249	0.062
-167.866	148.186	0.074	-0.099
-166.852	-115.930	0.118	-0.022
-165.837	180.094	0.196	-0.286
-164.823	64.058	-0.031	0.031
-163.808	118.102	0.063	-0.078
-162.793	99.398	-0.109	-0.126
-161.779	-179.671	-0.070	0.002
-160.764	800.000	0.087	-0.250
-159.750	7.011	0.065	-0.048
-158.735	44.110	-0.172	0.157
-157.720	-47.133	-0.177	0.086
-156.706	33.495	-0.027	-0.024
-155.691	631.888	-0.034	-0.085
-154.677	414.398	-0.025	-0.053
-153.662	-93.378	-0.068	-0.019
-152.647	-200.000	0.015	-0.184
-151.633	-39.743	-0.107	-0.056
-150.618	670.576	0.143	-0.369
-149.604	512.787	0.028	0.066
-148.589	-30.488	-0.226	-0.128
-147.574	541.006	-0.018	0.044
-146.560	184.944	0.112	0.165
-145.545	-31.196	-0.117	-0.065
-144.531	-200.000	-0.017	-0.119
-143.516	95.495	-0.139	0.158
-142.502	-78.076	0.301	-0.103
-141.487	94.364	-0.120	0.136
-140.472	-200.000	0.036	-0.374
-139.458	799.115	-0.083	-0.228
-138.443	-161.044	0.314	0.016
-137.429	-118.915	0.063	0.011
-136.414	156.103	0.111	-0.152
-135.399	-98.677	0.223	0.057
-134.385	36.042	0.276	0.241
-133.370	-164.905	-0.194	0.009
-132.356	800.000	-0.078	-0.296
-131.341	-200.000	0.010	0.109
-130.326	-128.791	0.149	-0.021
-129.312	800.000	-0.031	-0.114
-128.297	111.995	0.055	-0.066
-127.283	-125.374	0.145	-0.022
-126.268	290.295	-0.130	0.234
-125.253	800.000	-0.085	0.257
-124.239	23.991	0.094	0.077
-123.224	800.000	0.062	-0.236
-122.210	275.939	0.113	0.199
