DTS Sentinel unit serial number:	SN413079Multiplexer serial number:	ORYXHardware model number:	OX4-SRSoftware version number:	ORYX F/W v4.00 Oryx Data Collector v3.7.2.0data status	okinstallation	princeton_trtdifferential loss correction	single-endedforward channel	channel 3reverse channel	N/Adate	2019/09/11time	03:22:11forward acquisition time	60.00reverse acquisition time	0.00gamma	496.2192k internal	0.2331k external	0.2331temperature offset calibration	0.9911default loss term (dB/km)	0.3790temperature slope calibration	1.0000multiplexer offset coefficient	1.0000multiplexer slope coefficient	1.0000fibre end	0.00T internal ref (°C)	29.41T ext. ref 1 (°C)	-0.31T ext. ref 2 (°C)	24.20length (m)	temperature (°C)	Stokes	anti-Stokes-747.200	-117.953	-0.044	0.008
-746.185	-200.000	0.098	0.503
-745.171	-200.000	0.050	0.342
-744.156	127.466	-0.139	0.178
-743.142	-200.000	-0.013	-0.491
-742.127	242.497	-0.250	0.421
-741.112	4.492	0.205	-0.152
-740.098	-31.601	-0.235	0.133
-739.083	7.854	0.050	0.038
-738.069	-70.151	0.295	-0.113
-737.054	-147.514	0.252	0.021
-736.039	32.210	-0.207	-0.180
-735.025	635.685	-0.096	-0.245
-734.010	-47.566	0.192	0.094
-732.996	-200.000	0.055	-0.274
-731.981	-130.711	-0.287	-0.039
-730.966	-200.000	-0.072	-0.561
-729.952	-99.647	0.040	-0.010
-728.937	-90.817	0.137	-0.040
-727.923	-43.526	-0.270	-0.137
-726.908	-149.405	-0.306	-0.024
-725.894	-126.567	-0.168	-0.025
-724.879	32.415	0.222	0.192
-723.864	-144.466	-0.338	0.031
-722.850	28.437	0.168	-0.143
-721.835	679.707	-0.092	0.240
-720.821	-32.844	0.083	0.046
-719.806	-45.870	-0.075	-0.037
-718.791	800.000	-0.016	0.049
-717.777	-200.000	0.000	-0.181
-716.762	60.218	-0.180	0.179
-715.748	-200.000	-0.059	-0.300
-714.733	-15.602	-0.082	-0.053
-713.718	108.444	0.107	0.128
-712.704	715.706	0.072	-0.192
-711.689	800.000	0.024	0.066
-710.675	288.533	0.033	0.059
-709.660	-200.000	0.060	0.426
-708.645	-1.769	0.055	0.039
-707.631	-4.736	-0.274	-0.190
-706.616	-71.035	-0.162	0.061
-705.602	-200.000	-0.011	-0.279
-704.587	-110.141	-0.139	-0.029
-703.572	154.831	0.159	0.219
-702.558	-200.000	-0.013	0.210
-701.543	224.485	-0.102	-0.165
-700.529	-200.000	-0.001	-0.134
-699.514	82.836	-0.094	-0.103
-698.499	-145.595	0.481	-0.043
-697.485	-70.227	-0.163	-0.062
-696.470	267.279	0.093	0.164
-695.456	9.639	0.110	-0.083
-694.441	-99.200	0.066	0.017
-693.426	-48.837	-0.235	-0.113
-692.412	-91.394	0.113	0.032
-691.397	800.000	-0.072	0.248
-690.383	-200.000	0.046	-0.236
-689.368	160.815	-0.165	0.231
-688.354	-91.282	-0.157	-0.045
-687.339	-150.881	-0.206	-0.016
-686.324	420.126	0.066	0.143
-685.310	23.333	0.191	-0.158
-684.295	-33.675	-0.184	-0.102
-683.281	96.883	-0.066	-0.075
-682.266	800.000	0.036	0.108
-681.251	-51.524	-0.232	0.109
-680.237	-77.797	-0.244	-0.085
-679.222	79.345	0.207	-0.223
-678.208	-32.707	-0.138	0.077
-677.193	-200.000	0.015	-0.273
-676.178	1.911	-0.123	-0.089
-675.164	-165.897	-0.264	-0.011
-674.149	-74.228	0.116	-0.042
-673.135	17.402	-0.122	-0.097
-672.120	800.000	-0.087	-0.245
-671.105	366.631	-0.133	0.270
-670.091	86.783	-0.050	0.055
-669.076	-179.078	-0.143	-0.003
-668.062	306.657	-0.144	0.269
-667.047	-77.186	-0.214	0.075
-666.032	-46.963	0.054	0.026
-665.018	-136.176	0.401	0.047
-664.003	-41.705	-0.172	0.089
-662.989	-71.757	-0.161	-0.060
-661.974	-200.000	-0.014	0.064
-660.959	-200.000	-0.004	-0.216
-659.945	-78.967	0.110	0.038
-658.930	-200.000	-0.020	0.228
-657.916	800.000	-0.073	0.313
-656.901	-97.600	0.060	-0.016
-655.886	-200.000	-0.036	-0.211
-654.872	-200.000	0.014	0.191
-653.857	554.408	0.091	-0.220
-652.843	-81.644	-0.270	-0.089
-651.828	91.174	0.054	0.061
-650.814	-200.000	0.045	-0.226
-649.799	136.947	0.182	-0.239
-648.784	-141.924	-0.134	0.013
-647.770	1.434	0.024	-0.017
-646.755	-144.721	-0.200	-0.018
-645.741	11.195	0.177	-0.136
-644.726	-95.472	0.110	-0.030
-643.711	115.552	-0.104	-0.127
-642.697	-15.567	-0.079	0.051
-641.682	-143.496	0.158	0.015
-640.668	800.000	-0.073	0.256
-639.653	-36.880	-0.101	0.054
-638.638	106.240	0.288	0.342
-637.624	-115.839	0.199	-0.037
-636.609	39.539	0.234	-0.210
-635.595	-200.000	0.016	-0.260
-634.580	-200.000	-0.003	-0.259
-633.565	448.150	-0.110	-0.244
-632.551	-106.717	0.202	-0.045
-631.536	543.806	0.108	0.259
-630.522	800.000	-0.081	-0.352
-629.507	146.734	-0.279	0.376
-628.492	-127.198	-0.134	0.020
-627.478	8.388	0.040	0.030
-626.463	-200.000	-0.024	-0.159
-625.449	800.000	-0.043	0.129
-624.434	-200.000	0.044	0.379
-623.419	800.000	0.024	-0.087
-622.405	61.372	-0.082	-0.082
-621.390	-115.694	0.429	-0.081
-620.376	-104.754	0.132	-0.030
-619.361	2.669	-0.234	-0.170
-618.346	115.800	-0.018	-0.022
-617.332	111.162	0.050	0.061
-616.317	132.895	-0.099	0.128
-615.303	-200.000	0.007	0.136
-614.288	278.466	-0.128	-0.228
-613.273	-16.414	-0.143	0.091
-612.259	-90.018	-0.378	0.111
-611.244	-165.859	0.172	-0.007
-610.230	57.879	0.217	-0.213
-609.215	-35.579	-0.310	-0.168
-608.201	800.000	0.036	-0.142
-607.186	57.263	0.014	-0.014
-606.171	-149.313	0.244	0.019
-605.157	-200.000	0.019	0.287
-604.142	9.613	-0.078	-0.059
-603.128	-200.000	-0.016	0.210
-602.113	137.974	-0.092	-0.120
-601.098	60.465	0.217	0.215
-600.084	-200.000	0.042	-0.209
-599.069	-47.417	0.248	-0.121
-598.055	-200.000	0.028	-0.307
-597.040	-0.854	0.328	-0.232
-596.025	-200.000	-0.014	0.298
-595.011	-200.000	0.036	0.232
-593.996	-70.232	0.168	-0.064
-592.982	-58.404	-0.332	-0.145
-591.967	260.283	-0.139	-0.240
-590.952	-95.011	0.144	-0.039
-589.938	-86.380	0.146	0.045
-588.923	62.093	0.400	0.400
-587.909	800.000	-0.080	0.311
-586.894	289.926	-0.100	-0.181
-585.879	-142.344	0.162	-0.016
-584.865	800.000	0.113	0.314
-583.850	-3.691	-0.209	0.146
-582.836	-49.173	-0.053	0.026
-581.821	199.468	0.076	0.116
-580.806	-200.000	-0.003	0.178
-579.792	272.716	0.212	-0.375
-578.777	-200.000	-0.004	0.024
-577.763	16.570	0.368	-0.291
-576.748	-22.242	0.141	-0.085
-575.733	26.528	0.357	0.299
-574.719	-192.289	-0.093	-0.001
-573.704	587.745	-0.200	0.494
-572.690	800.000	0.071	-0.231
-571.675	266.839	0.105	-0.184
-570.661	526.907	-0.157	-0.370
-569.646	-74.064	0.137	-0.049
-568.631	-128.603	-0.138	-0.020
-567.617	281.685	-0.052	0.093
-566.602	57.790	-0.133	-0.130
-565.588	287.618	-0.087	-0.157
-564.573	800.000	-0.095	-0.272
-563.558	-200.000	-0.027	-0.234
-562.544	8.016	0.213	0.160
-561.529	208.995	0.130	-0.203
-560.515	-142.587	0.252	0.025
-559.500	521.336	-0.045	-0.105
-558.485	-16.084	0.168	-0.107
-557.471	-200.000	-0.030	0.131
-556.456	300.159	0.085	0.157
-555.442	600.641	0.082	-0.203
-554.427	-118.245	0.149	-0.027
-553.412	87.810	-0.344	-0.381
-552.398	-63.367	0.185	-0.076
-551.383	-200.000	-0.068	0.566
-550.369	152.057	-0.182	-0.247
-549.354	800.000	-0.029	-0.094
-548.339	-200.000	-0.080	-0.382
-547.325	-8.763	-0.077	0.051
-546.310	100.260	-0.160	-0.185
-545.296	192.619	-0.026	0.038
-544.281	-200.000	-0.000	-0.348
-543.266	-200.000	-0.077	0.381
-542.252	-73.526	-0.122	0.044
-541.237	800.000	0.038	-0.113
-540.223	800.000	-0.036	-0.141
-539.208	-15.889	-0.030	-0.019
-538.193	-177.306	-0.211	0.005
-537.179	-34.182	-0.276	-0.151
-536.164	-200.000	0.021	-0.145
-535.150	22.162	0.240	0.195
-534.135	50.116	0.191	-0.180
-533.121	-137.996	-0.203	0.023
-532.106	-200.000	-0.050	-0.229
-531.091	282.240	0.046	0.083
-530.077	800.000	-0.075	0.230
-529.062	-115.979	-0.182	-0.034
-528.048	800.000	-0.085	-0.353
-527.033	-200.000	0.080	0.539
-526.018	548.687	0.094	0.224
-525.004	-16.409	0.027	0.017
-523.989	-4.360	0.092	0.063
-522.975	-69.033	-0.081	0.031
-521.960	691.630	-0.051	0.134
-520.945	-200.000	0.035	-0.191
-519.931	-200.000	-0.071	-0.000
-518.916	-107.567	0.102	-0.022
-517.902	-92.102	-0.098	-0.028
-516.887	-84.812	0.123	-0.039
-515.872	170.406	-0.110	-0.157
-514.858	3.007	-0.089	-0.064
-513.843	594.578	0.045	-0.112
-512.829	800.000	-0.065	0.225
-511.814	256.593	0.127	-0.218
-510.799	-112.034	0.558	0.112
-509.785	-200.000	-0.013	-0.113
-508.770	-99.109	-0.303	0.077
-507.756	119.379	-0.089	-0.109
-506.741	415.095	0.011	0.023
-505.726	87.165	0.259	0.286
-504.712	-136.524	0.145	0.017
-503.697	73.658	-0.196	-0.205
-502.683	120.982	-0.193	0.240
-501.668	-116.074	0.128	-0.024
-500.653	154.980	0.075	0.103
-499.639	-115.880	-0.155	-0.029
-498.624	-200.000	-0.026	-0.186
-497.610	-81.914	-0.254	-0.083
-496.595	-78.645	0.250	-0.085
-495.581	800.000	0.083	-0.324
-494.566	-200.000	0.001	-0.014
-493.551	443.870	0.086	-0.187
-492.537	-9.477	-0.313	-0.208
-491.522	800.000	0.024	0.069
-490.508	800.000	0.046	0.146
-489.493	-200.000	-0.022	-0.173
-488.478	-82.840	-0.251	0.081
-487.464	-55.989	0.264	-0.117
-486.449	-76.278	0.272	-0.096
-485.435	193.828	-0.091	0.137
-484.420	49.974	-0.170	0.159
-483.405	800.000	0.068	0.237
-482.391	-200.000	0.022	-0.424
-481.376	-28.329	0.118	0.068
-480.362	232.535	-0.143	0.233
-479.347	31.424	-0.142	-0.121
-478.332	-165.529	0.132	-0.006
-477.318	-200.000	0.046	0.336
-476.303	417.330	0.073	0.154
-475.289	516.792	0.152	-0.354
-474.274	4.120	-0.090	-0.065
-473.259	67.386	0.081	0.082
-472.245	-34.342	-0.230	-0.125
-471.230	0.319	-0.136	0.097
-470.216	369.905	-0.073	0.148
-469.201	92.729	-0.248	0.278
-468.186	-85.275	0.097	0.030
-467.172	-94.096	-0.278	0.076
-466.157	284.514	0.149	0.268
-465.143	800.000	0.017	0.067
-464.128	-200.000	-0.062	0.317
-463.113	-34.388	0.132	-0.072
-462.099	251.086	0.066	-0.111
-461.084	-200.000	-0.044	0.312
-460.070	-63.165	0.164	-0.067
-459.055	644.415	-0.097	-0.246
-458.040	-133.180	-0.219	-0.028
-457.026	297.546	-0.153	0.280
-456.011	-200.000	0.013	-0.237
-454.997	-75.840	0.097	0.034
-453.982	800.000	0.053	-0.200
-452.968	-51.200	0.191	-0.089
-451.953	-22.293	-0.044	0.027
-450.938	-101.759	0.058	0.014
-449.924	-200.000	0.031	0.172
-448.909	-200.000	-0.002	-0.062
-447.895	319.668	0.010	0.019
-446.880	100.456	0.389	-0.449
-445.865	80.938	0.227	0.243
-444.851	680.211	0.132	0.341
-443.836	-200.000	0.013	-0.339
-442.822	144.305	-0.120	-0.159
-441.807	-138.154	-0.671	0.074
-440.792	714.897	-0.131	-0.345
-439.778	-200.000	-0.024	0.255
-438.763	5.580	-0.341	-0.251
-437.749	-200.000	0.018	0.084
-436.734	-11.446	0.065	0.042
-435.719	160.168	0.081	-0.112
-434.705	209.057	-0.183	0.284
-433.690	304.143	0.135	-0.249
-432.676	51.437	0.051	-0.049
-431.661	-144.007	-0.088	-0.008
-430.646	680.624	0.059	0.153
-429.632	-200.000	-0.031	-0.165
-428.617	-74.255	0.206	-0.074
-427.603	-200.000	0.029	0.308
-426.588	-53.808	0.174	-0.079
-425.573	385.398	-0.067	-0.137
-424.559	-200.000	-0.039	0.295
-423.544	800.000	-0.131	0.415
-422.530	68.718	0.051	0.052
-421.515	47.013	0.170	0.157
-420.500	800.000	0.055	0.155
-419.486	505.232	0.021	-0.048
-418.471	-200.000	0.004	0.318
-417.457	-97.429	-0.145	0.037
-416.442	215.206	-0.159	0.251
-415.428	390.102	-0.077	0.159
-414.413	-10.435	0.173	-0.114
-413.398	-41.585	-0.203	-0.103
-412.384	46.262	0.212	-0.195
-411.369	127.586	0.008	-0.010
-410.355	-84.932	-0.190	-0.059
-409.340	290.413	-0.176	-0.318
-408.325	-94.087	0.365	0.100
-407.311	-109.718	-0.075	0.016
-406.296	-200.000	-0.028	0.295
-405.282	122.309	0.140	0.174
-404.267	800.000	0.053	0.157
-403.252	-200.000	0.013	0.124
-402.238	160.657	-0.106	0.147
-401.223	190.132	0.039	-0.059
-400.209	28.802	-0.141	0.118
-399.194	800.000	-0.029	-0.101
-398.179	63.087	-0.274	-0.273
-397.165	-92.057	-0.270	-0.076
-396.150	-83.950	-0.232	-0.073
-395.136	-31.756	0.299	-0.166
-394.121	40.511	-0.204	0.183
-393.106	-200.000	0.020	-0.310
-392.092	-107.566	-0.307	-0.067
-391.077	-31.647	-0.221	0.123
-390.063	63.723	0.212	0.211
-389.048	219.917	-0.178	-0.282
-388.033	-20.598	0.094	0.057
-387.019	-91.996	-0.260	-0.073
-386.004	145.330	-0.058	-0.077
-384.990	-68.215	0.352	-0.136
-383.975	-200.000	0.019	-0.136
-382.960	-141.382	-0.074	0.007
-381.946	141.008	0.014	-0.018
-380.931	-45.097	0.062	0.031
-379.917	-42.342	-0.194	-0.098
-378.902	-14.574	-0.176	0.112
-377.888	-200.000	0.003	0.110
-376.873	-200.000	0.002	-0.213
-375.858	-200.000	-0.004	-0.089
-374.844	-36.418	0.014	0.008
-373.829	-21.528	-0.193	-0.117
-372.815	178.463	0.206	-0.299
-371.800	-200.000	0.036	0.266
-370.785	-140.263	-0.122	-0.013
-369.771	476.497	0.039	0.088
-368.756	54.317	-0.292	0.279
-367.742	403.766	-0.112	0.234
-366.727	263.174	-0.082	-0.141
-365.712	-200.000	-0.020	-0.304
-364.698	61.942	-0.059	0.058
-363.683	-200.000	-0.051	-0.257
-362.669	99.948	0.132	-0.152
-361.654	-73.717	-0.192	-0.069
-360.639	32.508	0.040	-0.034
-359.625	-200.000	-0.055	-0.322
-358.610	336.700	-0.178	-0.342
-357.596	-21.195	-0.377	-0.229
-356.581	6.021	0.213	-0.156
-355.566	236.407	-0.155	-0.254
-354.552	-141.600	0.152	0.015
-353.537	83.593	0.093	-0.101
-352.523	-200.000	0.015	0.072
-351.508	43.643	-0.294	0.267
-350.493	35.382	0.400	-0.347
-349.479	71.519	0.227	-0.234
-348.464	173.642	0.073	0.104
-347.450	-142.459	0.341	0.033
-346.435	-5.230	-0.408	0.278
-345.420	-172.128	-0.162	-0.005
-344.406	50.759	0.192	0.180
-343.391	-147.038	-0.269	0.023
-342.377	-79.059	0.043	-0.014
-341.362	-115.072	-0.243	0.046
-340.348	800.000	-0.031	-0.110
-339.333	800.000	0.111	0.442
-338.318	-200.000	0.012	0.181
-337.304	279.827	-0.097	-0.172
-336.289	208.722	-0.152	0.236
-335.275	-26.637	-0.300	-0.174
-334.260	259.921	-0.204	-0.350
-333.245	-200.000	-0.020	0.172
-332.231	800.000	-0.082	-0.256
-331.216	800.000	0.062	0.188
-330.202	57.672	0.177	0.171
-329.187	-146.815	0.262	0.022
-328.172	58.936	0.070	-0.068
-327.158	800.000	-0.130	-0.496
-326.143	141.787	0.164	0.216
-325.129	73.581	-0.153	0.158
-324.114	-63.628	0.211	0.086
-323.099	-200.000	-0.029	-0.141
-322.085	-200.000	-0.021	0.222
-321.070	57.491	0.136	0.132
-320.056	-190.984	-0.383	-0.004
-319.041	-88.630	-0.315	-0.093
-318.026	420.116	0.204	-0.433
-317.012	-38.393	0.192	-0.100
-315.997	-66.798	-0.168	-0.066
-314.983	-35.366	0.154	0.083
-313.968	800.000	0.123	0.346
-312.953	-41.465	-0.279	-0.142
-311.939	800.000	-0.057	0.206
-310.924	-48.127	0.135	0.065
-309.910	800.000	-0.129	0.378
-308.895	-93.586	0.215	0.059
-307.880	-200.000	0.020	0.120
-306.866	-3.621	-0.237	0.163
-305.851	690.355	-0.154	0.399
-304.837	-172.422	0.146	-0.005
-303.822	48.202	0.069	0.064
-302.807	-55.671	-0.145	-0.064
-301.793	-126.458	0.099	0.015
-300.778	-200.000	-0.019	0.099
-299.764	-131.854	0.310	0.040
-298.749	334.087	-0.114	0.217
-297.735	13.732	-0.132	0.102
-296.720	-200.000	-0.048	0.281
-295.705	-109.441	-0.086	-0.018
-294.691	-200.000	-0.019	0.133
-293.676	-77.382	-0.150	-0.052
-292.662	65.236	0.158	0.158
-291.647	30.924	-0.120	0.102
-290.632	12.537	-0.261	-0.199
-289.618	191.456	0.200	0.298
-288.603	48.970	-0.157	0.146
-287.589	202.964	0.078	-0.119
-286.574	-200.000	0.008	0.079
-285.559	-63.368	-0.211	-0.086
-284.545	-34.044	-0.050	0.027
-283.530	-33.900	0.272	0.148
-282.516	-39.351	-0.108	0.056
-281.501	-21.632	-0.214	-0.129
-280.486	-55.409	0.311	0.138
-279.472	-200.000	-0.009	-0.082
-278.457	32.092	-0.373	0.318
-277.443	-23.873	-0.103	0.061
-276.428	800.000	0.079	0.318
-275.413	151.540	0.092	-0.124
-274.399	-46.544	0.277	0.134
-273.384	341.012	0.096	-0.186
-272.370	800.000	0.082	0.275
-271.355	-200.000	-0.037	0.282
-270.340	-200.000	0.065	-0.295
-269.326	686.437	0.097	-0.250
-268.311	-144.619	0.312	0.028
-267.297	392.782	0.060	0.124
-266.282	464.066	-0.049	-0.109
-265.267	-200.000	-0.064	0.299
-264.253	-46.774	0.342	-0.165
-263.238	112.769	0.016	-0.019
-262.224	-88.973	-0.179	0.052
-261.209	99.784	-0.154	-0.176
-260.195	147.884	-0.136	-0.182
-259.180	57.583	0.326	-0.315
-258.165	107.952	-0.105	0.124
-257.151	-127.681	0.144	-0.021
-256.136	77.372	-0.174	0.183
-255.122	58.499	0.066	0.064
-254.107	-134.745	-0.196	-0.024
-253.092	-200.000	-0.006	-0.032
-252.078	160.368	0.203	-0.279
-251.063	41.832	-0.267	0.239
-250.049	47.099	0.141	0.129
-249.034	800.000	-0.055	-0.227
-248.019	-105.110	0.118	-0.027
-247.005	-200.000	-0.053	-0.322
-245.990	-123.356	0.220	-0.035
-244.976	-110.245	0.077	0.016
-243.961	-37.111	0.094	0.050
-242.946	137.929	0.121	0.157
-241.932	-200.000	-0.050	-0.320
-240.917	288.345	-0.012	-0.021
-239.903	-101.246	0.167	0.040
-238.888	-75.569	0.110	0.038
-237.873	-14.509	-0.125	0.079
-236.859	-67.345	0.085	-0.033
-235.844	40.866	0.046	0.041
-234.830	-200.000	0.051	-0.284
-233.815	-15.741	0.484	0.304
-232.800	-200.000	-0.013	-0.155
-231.786	-31.617	0.123	-0.068
-230.771	800.000	-0.097	0.295
-229.757	-126.427	0.160	-0.024
-228.742	52.958	0.059	-0.056
-227.727	-64.258	0.168	-0.067
-226.713	465.177	0.073	0.160
-225.698	119.196	-0.215	-0.262
-224.684	19.569	0.171	0.135
-223.669	-4.357	-0.094	0.064
-222.655	698.420	0.077	-0.201
-221.640	94.529	0.056	0.063
-220.625	-127.220	-0.111	-0.016
-219.611	-49.652	0.176	0.082
-218.596	-114.796	0.231	-0.043
-217.582	519.151	-0.107	0.248
-216.567	139.944	0.102	0.132
-215.552	-133.287	-0.296	-0.037
-214.538	111.723	0.071	-0.084
-213.523	-42.468	0.161	-0.081
-212.509	-29.154	-0.181	-0.102
-211.494	103.850	0.116	-0.134
-210.479	-27.424	0.225	0.129
-209.465	-200.000	-0.013	-0.142
-208.450	-158.832	0.346	0.019
-207.436	800.000	0.083	0.272
-206.421	118.944	-0.085	0.103
-205.406	264.169	0.293	0.503
-204.392	77.347	-0.082	-0.086
-203.377	614.601	-0.046	0.113
-202.363	-26.795	0.293	-0.169
-201.348	-44.105	0.114	0.056
-200.333	-103.703	0.228	-0.053
-199.319	-200.000	0.013	-0.167
-198.304	-79.888	0.118	0.039
-197.290	74.461	-0.092	0.096
-196.275	361.786	-0.102	0.202
-195.260	169.048	-0.038	-0.054
-194.246	-48.522	0.067	-0.032
-193.231	304.170	0.251	-0.459
-192.217	3.055	0.278	-0.199
-191.202	800.000	0.059	0.184
-190.187	-60.179	-0.407	-0.171
-189.173	-75.574	-0.089	0.031
-188.158	-59.126	-0.210	-0.089
-187.144	-161.649	-0.141	0.007
-186.129	-49.640	0.211	0.099
-185.114	800.000	-0.088	0.243
-184.100	-16.531	-0.301	-0.188
-183.085	-200.000	0.024	-0.161
-182.071	-85.005	0.030	-0.009
-181.056	-64.179	0.109	-0.044
-180.042	644.836	0.008	0.021
-179.027	13.262	-0.188	-0.144
-178.012	139.012	0.210	0.272
-176.998	22.363	0.122	-0.098
-175.983	93.697	-0.101	-0.113
-174.969	34.242	0.163	0.140
-173.954	-7.903	-0.039	-0.026
-172.939	-1.929	0.213	0.147
-171.925	800.000	0.097	-0.308
-170.910	-130.416	-0.432	-0.058
-169.896	-123.519	0.124	-0.019
-168.881	-120.886	-0.186	-0.031
-167.866	-200.000	-0.000	0.014
-166.852	19.372	0.134	0.106
-165.837	-20.000	-0.309	-0.188
-164.823	-179.534	-0.104	0.002
-163.808	-200.000	-0.014	0.202
-162.793	2.975	-0.215	-0.154
-161.779	-62.113	0.304	0.125
-160.764	30.080	-0.095	-0.080
-159.750	-125.199	-0.111	-0.017
-158.735	298.319	0.083	-0.151
-157.720	-161.958	-0.410	0.020
-156.706	465.254	0.139	0.306
-155.691	114.984	-0.139	0.167
-154.677	800.000	-0.041	0.121
-153.662	547.479	-0.072	0.169
-152.647	98.027	-0.210	0.238
-151.633	41.499	-0.137	0.122
-150.618	-193.473	-0.452	-0.004
-149.604	-200.000	0.003	-0.292
-148.589	800.000	0.004	-0.012
-147.574	519.764	0.048	0.111
-146.560	-111.159	0.133	0.027
-145.545	-7.899	-0.155	-0.103
-144.531	-200.000	0.003	-0.053
-143.516	20.215	-0.148	0.117
-142.502	203.333	0.077	-0.118
-141.487	-200.000	0.013	0.107
-140.472	138.300	-0.114	0.147
-139.458	6.637	0.373	-0.273
-138.443	128.612	-0.323	0.405
-137.429	-200.000	-0.020	0.093
-136.414	-28.381	-0.386	-0.219
-135.399	197.411	0.157	0.236
-134.385	-200.000	-0.023	0.120
-133.370	-16.769	0.246	0.153
-132.356	-119.745	-0.297	0.050
-131.341	-65.803	-0.054	0.021
-130.326	376.768	-0.099	0.198
-129.312	-118.946	-0.259	0.045
-128.297	-83.041	-0.312	-0.099
-127.283	-27.407	0.108	-0.062
-126.268	-19.869	-0.035	-0.021
-125.253	-103.966	-0.531	-0.122
-124.239	670.395	-0.091	0.230
-123.224	-156.906	-0.021	-0.001
-122.210	209.507	0.070	0.108
-121.195	-130.550	-0.240	0.032
