DTS Sentinel unit serial number:	SN413079Multiplexer serial number:	ORYXHardware model number:	OX4-SRSoftware version number:	ORYX F/W v4.00 Oryx Data Collector v3.7.2.0data status	okinstallation	princeton_trtdifferential loss correction	single-endedforward channel	channel 3reverse channel	N/Adate	2019/09/15time	23:00:34forward acquisition time	60.00reverse acquisition time	0.00gamma	496.2192k internal	0.2334k external	0.2334temperature offset calibration	0.9948default loss term (dB/km)	0.3790temperature slope calibration	1.0000multiplexer offset coefficient	1.0000multiplexer slope coefficient	1.0000fibre end	0.00T internal ref (°C)	28.56T ext. ref 1 (°C)	8.94T ext. ref 2 (°C)	22.19length (m)	temperature (°C)	Stokes	anti-Stokes-747.200	-200.000	0.031	-0.332
-746.185	394.013	0.128	0.268
-745.171	-37.743	0.227	0.122
-744.156	111.544	0.234	0.283
-743.142	701.266	0.008	-0.022
-742.127	-131.277	-0.383	0.051
-741.112	-200.000	-0.001	-0.208
-740.098	3.761	0.246	0.180
-739.083	126.947	0.175	0.223
-738.069	148.179	0.154	0.209
-737.054	-200.000	-0.009	-0.317
-736.039	800.000	-0.063	-0.252
-735.025	-200.000	0.034	0.206
-734.010	-59.816	-0.329	0.141
-732.996	-95.443	0.415	-0.112
-731.981	228.462	-0.044	0.071
-730.966	74.113	0.132	0.139
-729.952	-31.015	-0.288	-0.163
-728.937	-77.035	0.043	-0.015
-727.923	-200.000	0.013	-0.160
-726.908	83.582	-0.309	-0.339
-725.894	-121.054	-0.041	-0.007
-724.879	800.000	-0.025	0.079
-723.864	-106.514	-0.070	-0.016
-722.850	122.773	0.158	0.199
-721.835	-23.377	-0.397	0.240
-720.821	182.828	0.087	0.129
-719.806	92.124	0.072	-0.081
-718.791	-200.000	0.011	-0.359
-717.777	-22.804	-0.221	0.134
-716.762	-200.000	0.007	-0.171
-715.748	22.493	-0.249	-0.205
-714.733	-37.076	-0.164	-0.088
-713.718	-38.465	-0.256	-0.136
-712.704	-161.343	0.308	0.016
-711.689	414.966	0.137	-0.292
-710.675	-200.000	0.042	-0.203
-709.660	-200.000	-0.004	-0.355
-708.645	-200.000	-0.062	-0.296
-707.631	-119.759	0.157	0.027
-706.616	-200.000	0.071	-0.367
-705.602	800.000	-0.030	0.122
-704.587	-45.859	0.107	0.053
-703.572	511.103	-0.102	0.238
-702.558	263.267	-0.059	-0.103
-701.543	10.157	-0.258	-0.197
-700.529	181.301	-0.022	0.032
-699.514	-175.425	0.246	0.007
-698.499	2.722	-0.276	-0.201
-697.485	-24.844	0.094	-0.056
-696.470	125.965	0.061	-0.078
-695.456	171.129	0.042	-0.060
-694.441	800.000	0.026	-0.076
-693.426	352.123	0.039	-0.077
-692.412	157.466	-0.270	-0.375
-691.397	49.260	0.220	0.207
-690.383	103.344	-0.178	0.209
-689.368	-71.435	0.205	0.077
-688.354	800.000	0.027	0.096
-687.339	600.196	-0.126	-0.314
-686.324	800.000	-0.073	0.227
-685.310	213.620	0.125	0.199
-684.295	325.570	0.081	-0.155
-683.281	800.000	-0.081	-0.334
-682.266	-37.671	0.182	-0.097
-681.251	-150.772	0.274	-0.021
-680.237	-200.000	-0.020	0.123
-679.222	37.143	-0.183	0.162
-678.208	423.282	-0.105	-0.225
-677.193	94.372	0.218	-0.248
-676.178	119.687	0.060	0.074
-675.164	16.926	0.130	-0.104
-674.149	800.000	0.010	-0.036
-673.135	208.086	-0.162	0.254
-672.120	-185.266	0.192	-0.003
-671.105	-188.576	0.221	-0.003
-670.091	-104.215	0.092	0.021
-669.076	-55.951	0.308	-0.138
-668.062	-99.562	0.089	0.023
-667.047	-200.000	0.020	0.091
-666.032	-200.000	-0.010	-0.130
-665.018	-26.159	0.191	-0.113
-664.003	227.234	0.073	0.118
-662.989	58.273	0.087	0.086
-661.974	104.246	-0.138	-0.163
-660.959	800.000	-0.032	0.106
-659.945	-108.634	-0.355	-0.076
-658.930	-200.000	-0.035	-0.174
-657.916	145.676	0.225	-0.302
-656.901	11.693	-0.056	0.043
-655.886	-39.142	0.356	0.188
-654.872	800.000	0.053	0.151
-653.857	111.586	-0.037	-0.044
-652.843	-11.853	0.185	-0.121
-651.828	-119.572	0.440	-0.076
-650.814	111.051	-0.083	-0.100
-649.799	-131.956	0.209	0.027
-648.784	65.676	0.181	0.184
-647.770	513.829	-0.046	0.108
-646.755	131.257	-0.129	0.166
-645.741	101.310	0.100	-0.116
-644.726	-88.899	-0.486	-0.144
-643.711	-137.748	0.151	-0.017
-642.697	-200.000	-0.014	-0.130
-641.682	83.157	-0.242	-0.264
-640.668	-200.000	-0.055	-0.305
-639.653	-140.435	-0.223	0.023
-638.638	292.638	-0.040	-0.074
-637.624	2.944	-0.193	-0.140
-636.609	-200.000	0.024	-0.137
-635.595	91.303	-0.172	0.193
-634.580	59.650	-0.194	-0.191
-633.565	-17.265	0.154	0.097
-632.551	800.000	0.056	0.200
-631.536	29.183	0.136	0.116
-630.522	514.615	0.082	-0.191
-629.507	-93.660	0.076	-0.021
-628.492	-44.779	0.083	0.041
-627.478	195.259	0.109	-0.166
-626.463	64.943	0.211	-0.213
-625.449	49.732	-0.331	-0.312
-624.434	158.516	-0.118	-0.164
-623.419	-159.373	0.599	-0.034
-622.405	105.922	-0.055	-0.065
-621.390	151.133	0.168	-0.229
-620.376	-200.000	-0.011	-0.171
-619.361	800.000	-0.109	-0.385
-618.346	60.627	-0.207	-0.205
-617.332	50.514	-0.139	-0.131
-616.317	-87.787	-0.120	-0.036
-615.303	465.328	-0.064	-0.143
-614.288	100.780	0.173	0.201
-613.273	-200.000	-0.059	0.285
-612.259	-133.116	-0.168	-0.021
-611.244	-25.108	-0.223	0.132
-610.230	-200.000	-0.015	-0.095
-609.215	-100.585	0.232	0.057
-608.201	800.000	-0.034	0.121
-607.186	-200.000	-0.003	-0.199
-606.171	-90.691	-0.175	-0.051
-605.157	-83.364	-0.143	0.046
-604.142	800.000	-0.035	0.108
-603.128	32.858	-0.117	0.101
-602.113	-17.867	-0.265	-0.166
-601.098	512.845	0.026	-0.061
-600.084	-86.638	0.108	0.033
-599.069	800.000	-0.054	-0.225
-598.055	-65.469	0.154	-0.062
-597.040	664.805	-0.051	-0.131
-596.025	128.396	-0.098	0.124
-595.011	-27.288	-0.305	-0.177
-593.996	40.203	0.123	-0.111
-592.982	800.000	-0.046	-0.181
-591.967	-115.033	0.196	-0.037
-590.952	-138.813	-0.120	-0.013
-589.938	-21.117	0.084	0.051
-588.923	-200.000	-0.034	-0.152
-587.909	-91.696	-0.129	-0.037
-586.894	-200.000	0.004	-0.037
-585.879	274.971	0.012	0.022
-584.865	-200.000	0.022	0.179
-583.850	108.622	-0.104	0.124
-582.836	144.654	-0.173	0.231
-581.821	-200.000	-0.021	0.380
-580.806	-200.000	0.008	0.317
-579.792	19.500	-0.089	0.072
-578.777	255.342	-0.051	-0.087
-577.763	112.970	-0.042	0.051
-576.748	51.160	0.246	0.233
-575.733	-116.911	-0.372	-0.068
-574.719	284.288	-0.149	0.267
-573.704	-200.000	0.009	0.362
-572.690	112.613	0.118	-0.142
-571.675	401.582	-0.056	-0.117
-570.661	4.449	-0.229	0.168
-569.646	-167.405	-0.264	0.011
-568.631	348.661	0.167	-0.329
-567.617	486.851	0.078	-0.178
-566.602	-35.030	-0.158	0.086
-565.588	-200.000	-0.031	-0.398
-564.573	-149.494	-0.225	0.018
-563.558	-200.000	0.047	0.274
-562.544	73.168	-0.202	-0.211
-561.529	112.081	-0.241	0.290
-560.515	-200.000	-0.012	-0.285
-559.500	547.611	0.081	-0.193
-558.485	800.000	0.047	0.170
-557.471	-200.000	0.037	0.188
-556.456	58.368	-0.109	0.107
-555.442	800.000	0.076	-0.227
-554.427	353.374	0.161	0.319
-553.412	-89.773	0.106	0.031
-552.398	307.786	-0.073	-0.135
-551.383	-57.610	-0.097	0.042
-550.369	97.364	-0.129	-0.148
-549.354	-200.000	-0.044	0.259
-548.339	-94.711	0.331	0.090
-547.325	-69.974	-0.126	0.048
-546.310	73.849	0.157	0.165
-545.296	-85.650	0.232	0.072
-544.281	800.000	0.025	0.071
-543.266	800.000	-0.060	0.238
-542.252	-49.038	-0.126	-0.060
-541.237	-121.955	0.451	0.074
-540.223	-174.629	-0.287	0.008
-539.208	800.000	-0.078	-0.215
-538.193	61.748	-0.178	-0.176
-537.179	-184.704	-0.255	-0.004
-536.164	126.291	0.065	-0.081
-535.150	755.868	-0.030	-0.082
-534.135	30.981	0.059	-0.051
-533.121	39.993	0.220	-0.197
-532.106	-76.528	0.241	-0.084
-531.091	-131.428	-0.062	0.008
-530.077	78.003	-0.093	-0.099
-529.062	-200.000	0.010	0.180
-528.048	800.000	-0.021	-0.080
-527.033	719.296	0.090	0.237
-526.018	-105.501	-0.307	-0.070
-525.004	-17.946	0.186	0.116
-523.989	-200.000	0.059	0.459
-522.975	-200.000	-0.004	-0.031
-521.960	188.389	0.023	0.034
-520.945	-55.331	-0.141	-0.063
-519.931	-176.392	0.166	0.004
-518.916	16.370	0.097	0.076
-517.902	-86.479	-0.445	0.136
-516.887	99.357	0.051	0.059
-515.872	83.905	0.178	-0.193
-514.858	-200.000	0.001	0.096
-513.843	-200.000	0.018	-0.163
-512.829	-71.443	-0.332	0.124
-511.814	158.894	-0.083	0.115
-510.799	-174.431	-0.236	-0.007
-509.785	54.796	-0.159	0.153
-508.770	800.000	-0.067	0.213
-507.756	183.577	0.105	0.154
-506.741	800.000	-0.031	0.088
-505.726	-102.684	-0.122	-0.029
-504.712	800.000	-0.068	-0.204
-503.697	162.827	-0.287	-0.401
-502.683	800.000	0.066	-0.202
-501.668	28.265	-0.114	0.096
-500.653	-93.081	-0.274	0.076
-499.639	800.000	-0.059	0.192
-498.624	34.602	0.127	0.110
-497.610	-12.991	-0.038	0.024
-496.595	-72.524	0.317	0.117
-495.581	763.202	-0.061	-0.165
-494.566	-55.649	0.110	0.049
-493.551	-35.435	0.092	0.050
-492.537	225.359	0.178	0.287
-491.522	301.457	-0.160	0.295
-490.508	40.382	0.150	-0.134
-489.493	-200.000	0.038	0.189
-488.478	-200.000	0.019	0.327
-487.464	309.428	-0.112	-0.208
-486.449	-96.929	-0.324	0.085
-485.435	48.069	0.149	-0.139
-484.420	285.091	-0.118	0.212
-483.405	-87.815	0.076	0.023
-482.391	-40.879	-0.276	-0.142
-481.376	-75.083	0.240	0.085
-480.362	-200.000	0.007	0.058
-479.347	-59.029	0.184	0.079
-478.332	166.844	-0.168	-0.237
-477.318	19.792	0.287	0.230
-476.303	189.265	0.058	-0.086
-475.289	-134.793	-0.108	-0.013
-474.274	-47.122	0.153	-0.074
-473.259	59.325	-0.231	0.227
-472.245	80.745	-0.138	-0.148
-471.230	755.314	-0.116	-0.312
-470.216	-110.062	-0.187	-0.039
-469.201	-43.563	0.323	-0.162
-468.186	-200.000	0.009	-0.380
-467.172	158.338	0.066	-0.092
-466.157	146.639	-0.114	0.152
-465.143	800.000	-0.063	-0.241
-464.128	199.712	-0.043	-0.066
-463.113	-117.842	0.227	-0.040
-462.099	-154.341	-0.094	0.006
-461.084	-200.000	0.037	-0.403
-460.070	-200.000	-0.023	0.136
-459.055	-5.645	0.237	-0.161
-458.040	800.000	-0.041	-0.125
-457.026	-200.000	0.006	-0.068
-456.011	800.000	0.045	-0.150
-454.997	109.509	0.267	-0.318
-453.982	-26.356	-0.103	0.060
-452.968	105.216	-0.164	0.192
-451.953	256.177	-0.081	-0.138
-450.938	-167.204	0.269	-0.011
-449.924	-126.458	0.140	-0.021
-448.909	-48.106	0.116	-0.055
-447.895	16.598	0.352	-0.276
-446.880	-147.632	-0.151	0.013
-445.865	-44.563	-0.443	0.220
-444.851	240.240	-0.062	0.102
-443.836	174.923	0.107	0.155
-442.822	-33.553	-0.417	-0.229
-441.807	-200.000	0.068	0.347
-440.792	-200.000	0.021	-0.161
-439.778	170.144	0.055	-0.078
-438.763	-103.901	0.206	0.048
-437.749	-200.000	0.006	-0.083
-436.734	316.721	-0.063	0.118
-435.719	-52.963	-0.274	-0.125
-434.705	106.582	-0.125	-0.148
-433.690	348.101	0.133	-0.261
-432.676	-47.151	-0.074	0.036
-431.661	-114.440	-0.194	0.037
-430.646	800.000	0.101	-0.301
-429.632	-115.241	-0.114	0.021
-428.617	120.337	-0.208	0.256
-427.603	-18.906	0.288	0.178
-426.588	551.565	0.096	0.228
-425.573	-200.000	0.031	0.312
-424.559	12.211	-0.162	-0.124
-423.544	4.254	0.501	-0.364
-422.530	-200.000	-0.004	0.145
-421.515	800.000	0.082	-0.283
-420.500	42.405	0.051	0.046
-419.486	160.785	-0.080	-0.111
-418.471	-8.530	0.183	0.122
-417.457	-200.000	-0.056	0.405
-416.442	-200.000	-0.001	0.047
-415.428	-200.000	0.029	0.216
-414.413	-109.900	-0.394	0.082
-413.398	520.713	0.165	-0.385
-412.384	615.232	0.055	0.137
-411.369	800.000	0.064	-0.195
-410.355	-200.000	-0.027	-0.171
-409.340	-81.496	0.302	0.099
-408.325	-200.000	0.085	0.435
-407.311	-200.000	0.027	0.168
-406.296	223.260	-0.112	0.179
-405.282	73.184	0.258	0.267
-404.267	-95.020	0.388	0.104
-403.252	351.629	0.108	0.213
-402.238	602.415	0.165	0.408
-401.223	-36.335	-0.071	-0.038
-400.209	52.997	-0.199	-0.189
-399.194	-16.671	-0.128	-0.080
-398.179	426.712	0.029	-0.063
-397.165	-25.753	0.424	-0.248
-396.150	-200.000	-0.022	0.231
-395.136	-200.000	-0.023	0.115
-394.121	28.267	0.405	0.339
-393.106	506.902	0.151	0.348
-392.092	800.000	0.105	-0.358
-391.077	594.358	0.108	-0.264
-390.063	469.559	-0.053	0.119
-389.048	-200.000	0.018	-0.120
-388.033	-109.536	0.290	0.061
-387.019	362.772	0.049	-0.097
-386.004	-33.511	-0.153	-0.084
-384.990	-16.589	0.307	0.192
-383.975	-126.261	0.085	-0.013
-382.960	293.641	0.069	0.124
-381.946	-200.000	-0.008	0.166
-380.931	77.342	0.079	0.083
-379.917	109.448	-0.148	0.175
-378.902	112.870	-0.102	-0.123
-377.888	50.811	-0.163	-0.153
-376.873	-99.112	0.057	-0.014
-375.858	-41.094	-0.084	0.043
-374.844	-200.000	0.063	-0.429
-373.829	-40.421	0.093	0.048
-372.815	-58.997	-0.100	-0.043
-371.800	-200.000	-0.059	-0.339
-370.785	800.000	0.078	0.230
-369.771	-200.000	0.018	-0.144
-368.756	-94.331	0.104	0.028
-367.742	-81.197	0.257	-0.084
-366.727	490.441	-0.073	-0.165
-365.712	169.930	-0.152	-0.215
-364.698	-88.759	-0.365	-0.107
-363.683	-68.721	-0.253	-0.097
-362.669	-141.608	0.154	0.015
-361.654	19.521	0.021	0.016
-360.639	470.680	0.022	0.049
-359.625	800.000	0.141	0.469
-358.610	-54.463	0.066	0.030
-357.596	-146.187	-0.431	0.038
-356.581	-69.562	-0.045	-0.017
-355.566	-200.000	-0.053	0.292
-354.552	800.000	0.092	-0.333
-353.537	401.004	-0.102	0.213
-352.523	33.855	0.178	-0.153
-351.508	260.168	-0.152	0.260
-350.493	-10.768	-0.180	0.118
-349.479	-200.000	0.018	-0.217
-348.464	-68.649	0.238	0.091
-347.450	-141.497	0.114	-0.011
-346.435	-200.000	0.009	0.043
-345.420	-65.268	-0.275	-0.110
-344.406	-24.530	-0.448	0.264
-343.391	-95.323	0.167	-0.044
-342.377	-200.000	-0.004	0.042
-341.362	-118.294	-0.212	-0.037
-340.348	-200.000	-0.001	0.131
-339.333	20.276	-0.127	-0.102
-338.318	800.000	-0.088	-0.343
-337.304	-200.000	0.000	-0.319
-336.289	800.000	-0.066	0.269
-335.275	-200.000	0.060	0.321
-334.260	-200.000	0.004	-0.138
-333.245	-56.019	0.027	-0.012
-332.231	-200.000	-0.088	-0.480
-331.216	-200.000	0.066	-0.297
-330.202	-108.036	-0.271	0.058
-329.187	-3.209	0.285	0.197
-328.172	800.000	0.103	0.290
-327.158	-96.161	0.170	0.045
-326.143	139.476	-0.101	0.132
-325.129	128.419	0.057	0.072
-324.114	308.579	-0.159	0.293
-323.099	130.230	0.052	-0.066
-322.085	800.000	0.055	-0.163
-321.070	72.880	0.076	0.078
-320.056	380.514	0.112	-0.227
-319.041	74.588	-0.151	-0.157
-318.026	-57.972	0.237	-0.102
-317.012	-47.893	-0.127	0.061
-315.997	-1.789	-0.161	-0.112
-314.983	304.387	0.091	-0.167
-313.968	-200.000	-0.043	-0.273
-312.953	-200.000	0.024	0.121
-311.939	-121.507	0.679	-0.111
-310.924	152.567	-0.181	-0.245
-309.910	-1.794	-0.266	-0.185
-308.895	-38.381	0.063	0.033
-307.880	134.205	-0.066	0.084
-306.866	-82.098	0.200	-0.065
-305.851	800.000	-0.064	-0.273
-304.837	-139.571	-0.374	0.039
-303.822	-145.866	0.242	0.021
-302.807	113.194	0.160	0.191
-301.793	42.982	-0.091	-0.082
-300.778	194.078	-0.025	0.037
-299.764	141.688	-0.058	-0.076
-298.749	-96.353	-0.188	0.049
-297.735	36.361	0.068	-0.059
-296.720	-153.090	-0.190	-0.013
-295.705	-11.035	-0.403	0.263
-294.691	276.122	0.202	0.354
-293.676	-35.826	-0.049	-0.026
-292.662	282.226	-0.169	-0.299
-291.647	-7.133	-0.032	0.022
-290.632	800.000	-0.076	0.239
-289.618	800.000	0.080	-0.236
-288.603	-2.312	0.057	-0.039
-287.589	500.329	0.140	-0.318
-286.574	126.018	0.125	0.156
-285.559	-200.000	-0.032	0.361
-284.545	309.688	0.187	0.345
-283.530	-200.000	0.053	0.258
-282.516	-167.261	0.238	-0.010
-281.501	60.534	0.241	0.236
-280.486	48.445	0.274	0.253
-279.472	-81.874	-0.071	0.023
-278.457	297.248	0.269	0.487
-277.443	110.483	-0.150	0.178
-276.428	50.316	0.135	0.126
-275.413	159.593	-0.249	-0.341
-274.399	99.414	0.250	0.286
-273.384	-2.421	0.170	0.118
-272.370	50.027	0.115	0.107
-271.355	-65.014	0.324	0.129
-270.340	-94.274	-0.197	0.053
-269.326	-124.979	-0.097	0.015
-268.311	183.523	-0.221	-0.322
-267.297	566.170	0.088	-0.210
-266.282	-47.892	0.365	0.174
-265.267	127.229	-0.034	-0.043
-264.253	-34.477	-0.251	0.136
-263.238	-200.000	-0.040	-0.213
-262.224	-200.000	0.032	-0.235
-261.209	-200.000	0.021	-0.092
-260.195	714.802	0.059	0.155
-259.180	50.786	0.320	-0.299
-258.165	-128.183	0.042	0.006
-257.151	800.000	0.135	-0.459
-256.136	800.000	-0.028	-0.105
-255.122	-11.553	-0.136	-0.088
-254.107	800.000	0.069	-0.236
-253.092	-200.000	-0.082	-0.426
-252.078	-200.000	-0.006	-0.093
-251.063	-90.522	0.372	0.106
-250.049	-101.637	0.132	-0.032
-249.034	51.134	0.337	-0.315
-248.019	26.434	-0.095	0.078
-247.005	-200.000	0.005	0.134
-245.990	76.393	-0.158	-0.165
-244.976	473.765	-0.014	-0.030
-243.961	-200.000	-0.012	0.075
-242.946	800.000	0.060	0.233
-241.932	-103.259	0.100	0.023
-240.917	29.403	-0.167	-0.140
-239.903	-34.230	-0.062	0.033
-238.888	-62.215	-0.176	0.072
-237.873	-38.797	-0.172	-0.089
-236.859	800.000	0.176	0.514
-235.844	-200.000	0.013	-0.105
-234.830	-96.136	-0.213	-0.056
-233.815	77.615	-0.052	0.055
-232.800	-130.034	-0.187	0.025
-231.786	-181.447	0.176	0.003
-230.771	34.140	-0.284	0.244
-229.757	-4.467	0.030	-0.020
-228.742	48.541	0.172	-0.159
-227.727	42.779	0.115	0.103
-226.713	-111.866	-0.254	-0.051
-225.698	-200.000	0.036	-0.169
-224.684	18.721	0.236	0.186
-223.669	67.478	-0.175	-0.176
-222.655	-145.824	-0.367	-0.032
-221.640	19.472	0.279	0.221
-220.625	33.162	-0.135	0.115
-219.611	800.000	0.017	0.054
-218.596	292.289	-0.056	-0.100
-217.582	-200.000	0.004	-0.121
-216.567	585.697	0.148	0.357
-215.552	800.000	0.070	0.227
-214.538	800.000	0.046	-0.177
-213.523	-125.306	0.305	0.046
-212.509	-35.852	-0.218	0.116
-211.494	-116.556	-0.238	-0.043
-210.479	43.239	0.298	-0.268
-209.465	111.932	0.038	0.045
-208.450	-76.046	0.152	0.053
-207.436	-57.619	0.117	0.051
-206.421	-200.000	0.013	-0.065
-205.406	660.021	0.104	-0.264
-204.392	-87.772	-0.138	0.041
-203.377	38.354	0.123	-0.108
-202.363	-48.017	-0.126	-0.060
-201.348	-191.314	-0.164	-0.002
-200.333	-98.386	0.329	-0.083
-199.319	144.525	-0.130	-0.171
-198.304	-47.980	0.117	0.056
-197.290	316.082	-0.091	-0.168
-196.275	124.302	-0.121	0.150
-195.260	-78.416	0.096	0.032
-194.246	-161.952	0.291	-0.014
-193.231	-102.450	0.231	-0.054
-192.217	-200.000	-0.006	0.124
-191.202	-200.000	0.018	0.174
-190.187	215.482	-0.080	0.124
-189.173	255.811	-0.128	-0.217
-188.158	-132.190	0.117	0.015
-187.144	-137.702	0.452	0.050
-186.129	-99.298	0.021	0.005
-185.114	-200.000	-0.004	-0.034
-184.100	63.054	0.130	-0.128
-183.085	96.851	-0.220	-0.248
-182.071	264.317	-0.264	0.452
-181.056	-111.267	-0.244	-0.049
-180.042	-3.056	-0.092	0.063
-179.027	800.000	-0.115	-0.312
-178.012	422.964	-0.203	0.429
-176.998	8.466	-0.278	0.206
-175.983	-200.000	-0.179	0.001
-174.969	199.453	0.029	0.044
-173.954	300.387	0.124	-0.225
-172.939	-126.286	-0.031	0.005
-171.925	186.382	-0.146	-0.213
-170.910	334.963	0.071	-0.135
-169.896	800.000	0.021	0.091
-168.881	418.040	0.073	-0.153
-167.866	163.473	0.080	0.111
-166.852	752.799	-0.174	0.463
-165.837	-192.327	-0.199	0.002
-164.823	466.736	-0.070	-0.155
-163.808	31.774	0.307	0.260
-162.793	-1.194	0.206	0.143
-161.779	-175.411	-0.340	-0.009
-160.764	-162.015	0.105	0.005
-159.750	-200.000	0.016	0.174
-158.735	216.896	0.014	0.022
-157.720	-141.905	0.125	-0.012
-156.706	-142.959	0.293	0.028
-155.691	-200.000	-0.087	0.444
-154.677	-83.925	0.169	-0.053
-153.662	-107.759	0.269	-0.058
-152.647	-16.604	-0.270	-0.168
-151.633	-65.680	0.320	-0.126
-150.618	-200.000	-0.047	0.267
-149.604	683.565	-0.075	0.192
-148.589	800.000	0.044	-0.127
-147.574	-33.678	-0.142	-0.077
-146.560	656.659	0.027	-0.069
-145.545	173.768	-0.095	0.134
-144.531	-136.062	0.120	0.014
-143.516	-6.658	-0.190	-0.127
-142.502	-200.000	0.033	0.424
-141.487	-50.391	0.167	0.077
-140.472	-200.000	-0.039	0.228
-139.458	-75.613	0.075	0.026
-138.443	127.764	-0.193	-0.240
-137.429	-168.228	-0.119	0.005
-136.414	-114.780	-0.175	-0.033
-135.399	-30.425	0.067	0.037
-134.385	800.000	0.045	0.174
-133.370	-70.330	-0.213	0.079
-132.356	53.812	0.213	-0.201
-131.341	-48.027	0.086	-0.041
-130.326	-200.000	-0.002	-0.018
-129.312	219.709	0.081	-0.127
-128.297	191.005	0.179	-0.264
-127.283	-42.575	0.222	-0.111
-126.268	75.032	0.104	0.107
-125.253	-149.684	-0.139	0.011
-124.239	26.783	-0.311	-0.256
-123.224	-200.000	-0.043	-0.315
-122.210	-200.000	-0.025	0.198
-121.195	-129.875	-0.158	-0.021
