DTS Sentinel unit serial number:	SN413079Multiplexer serial number:	ORYXHardware model number:	OX4-SRSoftware version number:	ORYX F/W v4.00 Oryx Data Collector v3.7.2.0data status	okinstallation	princeton_trtdifferential loss correction	single-endedforward channel	channel 3reverse channel	N/Adate	2019/09/13time	02:00:35forward acquisition time	60.00reverse acquisition time	0.00gamma	496.2192k internal	0.2334k external	0.2334temperature offset calibration	1.0126default loss term (dB/km)	0.3790temperature slope calibration	1.0000multiplexer offset coefficient	1.0000multiplexer slope coefficient	1.0000fibre end	0.00T internal ref (°C)	27.62T ext. ref 1 (°C)	3.85T ext. ref 2 (°C)	22.23length (m)	temperature (°C)	Stokes	anti-Stokes-747.200	555.718	-0.141	-0.342
-746.185	277.951	0.056	0.101
-745.171	-166.150	-0.407	-0.017
-744.156	800.000	0.065	0.220
-743.142	-128.129	0.239	-0.034
-742.127	-200.000	-0.008	0.054
-741.112	-200.000	-0.002	0.216
-740.098	-89.105	-0.307	0.091
-739.083	-99.917	0.173	0.043
-738.069	-200.000	0.005	0.396
-737.054	-124.048	-0.158	-0.025
-736.039	-200.000	-0.014	0.160
-735.025	-38.911	-0.220	-0.117
-734.010	-200.000	0.057	-0.378
-732.996	-50.774	-0.527	0.249
-731.981	-33.435	-0.227	0.126
-730.966	-67.881	0.071	0.028
-729.952	-200.000	0.022	-0.147
-728.937	-102.464	-0.111	-0.027
-727.923	-76.651	0.278	0.098
-726.908	148.120	0.158	-0.214
-725.894	-183.666	-0.312	-0.005
-724.879	730.480	0.049	0.132
-723.864	-130.967	-0.189	-0.025
-722.850	607.080	-0.078	-0.195
-721.835	45.255	-0.085	-0.079
-720.821	-73.771	0.164	0.060
-719.806	209.082	-0.208	-0.328
-718.791	-63.365	0.336	0.139
-717.777	-100.788	0.187	0.046
-716.762	100.391	0.196	-0.229
-715.748	-118.530	-0.242	-0.043
-714.733	800.000	0.083	0.272
-713.718	-200.000	-0.022	0.180
-712.704	-63.062	-0.393	0.163
-711.689	800.000	0.030	0.121
-710.675	351.881	-0.095	0.189
-709.660	-81.420	-0.089	-0.029
-708.645	71.981	-0.132	0.138
-707.631	-50.938	-0.238	0.112
-706.616	800.000	-0.035	-0.103
-705.602	219.355	-0.157	-0.252
-704.587	90.351	-0.095	0.106
-703.572	-200.000	-0.019	-0.155
-702.558	800.000	-0.081	-0.324
-701.543	800.000	0.088	-0.286
-700.529	22.263	-0.160	-0.131
-699.514	364.038	-0.203	-0.410
-698.499	481.824	-0.100	-0.229
-697.485	-60.861	0.305	-0.129
-696.470	-200.000	-0.057	-0.265
-695.456	-74.061	0.367	0.134
-694.441	-8.047	0.081	0.054
-693.426	694.660	-0.063	-0.165
-692.412	302.499	-0.153	-0.285
-691.397	-140.609	-0.442	0.046
-690.383	212.022	-0.142	-0.225
-689.368	174.806	-0.184	-0.267
-688.354	-38.211	-0.250	0.133
-687.339	39.070	0.151	-0.135
-686.324	-72.585	0.513	0.190
-685.310	-200.000	-0.040	-0.309
-684.295	30.901	-0.203	0.174
-683.281	-130.200	-0.133	0.018
-682.266	-124.596	-0.049	-0.008
-681.251	24.105	-0.029	-0.024
-680.237	-10.549	-0.352	0.233
-679.222	-62.613	0.153	0.063
-678.208	-34.386	0.076	-0.042
-677.193	-160.347	0.087	0.005
-676.178	-168.922	0.332	0.012
-675.164	-121.499	-0.374	0.062
-674.149	-73.876	-0.114	0.041
-673.135	-33.847	-0.185	0.102
-672.120	-172.930	-0.076	-0.002
-671.105	597.901	0.067	0.165
-670.091	-76.957	0.220	-0.077
-669.076	-81.881	-0.056	0.019
-668.062	-86.415	0.061	0.019
-667.047	-200.000	-0.047	-0.208
-666.032	-34.275	0.138	-0.076
-665.018	75.404	0.158	-0.167
-664.003	211.245	0.141	-0.222
-662.989	800.000	-0.028	-0.091
-661.974	-11.551	-0.295	0.194
-660.959	-128.296	-0.218	0.031
-659.945	-11.718	0.275	-0.181
-658.930	-200.000	-0.015	-0.294
-657.916	-166.765	-0.191	0.008
-656.901	66.971	0.201	0.205
-655.886	-200.000	0.056	0.311
-654.872	-110.591	-0.132	0.027
-653.857	151.235	-0.103	-0.141
-652.843	-114.860	-0.269	0.051
-651.828	51.088	-0.186	-0.177
-650.814	-200.000	0.021	0.198
-649.799	-90.010	0.322	0.094
-648.784	-93.354	0.250	-0.069
-647.770	-93.486	0.049	0.014
-646.755	-36.826	-0.165	0.089
-645.741	8.340	-0.284	-0.214
-644.726	420.467	0.055	-0.117
-643.711	4.451	-0.324	-0.238
-642.697	31.331	-0.305	0.262
-641.682	166.657	-0.100	0.141
-640.668	46.033	-0.317	0.293
-639.653	800.000	-0.082	-0.352
-638.638	121.755	-0.231	-0.288
-637.624	-43.092	0.075	0.038
-636.609	10.795	0.094	0.072
-635.595	-200.000	0.014	0.180
-634.580	-93.445	0.140	-0.039
-633.565	217.355	-0.100	0.160
-632.551	181.693	-0.215	0.316
-631.536	-114.317	-0.148	0.029
-630.522	33.722	-0.060	-0.052
-629.507	800.000	-0.032	-0.093
-628.492	-79.114	-0.084	-0.029
-627.478	-183.389	0.044	0.001
-626.463	37.056	-0.075	0.066
-625.449	-94.043	-0.192	0.053
-624.434	-145.807	-0.338	0.030
-623.419	-200.000	0.007	0.286
-622.405	-166.875	0.220	0.009
-621.390	-152.286	-0.278	0.020
-620.376	-192.520	0.131	-0.001
-619.361	-120.541	-0.185	0.031
-618.346	-200.000	0.002	0.035
-617.332	-200.000	0.031	-0.156
-616.317	726.759	-0.118	-0.315
-615.303	269.767	-0.180	-0.316
-614.288	630.254	0.069	-0.174
-613.273	641.613	0.151	0.384
-612.259	800.000	0.056	-0.180
-611.244	-140.625	-0.120	-0.012
-610.230	800.000	-0.130	-0.400
-609.215	-156.687	-0.147	0.009
-608.201	-123.474	-0.037	-0.006
-607.186	38.543	0.104	-0.093
-606.171	77.224	0.094	-0.100
-605.157	-200.000	0.018	-0.345
-604.142	-56.656	-0.155	-0.069
-603.128	1.738	0.037	-0.027
-602.113	-200.000	-0.017	0.219
-601.098	-38.961	-0.160	0.084
-600.084	57.442	0.171	0.167
-599.069	-110.346	0.099	0.021
-598.055	49.719	-0.225	0.212
-597.040	249.391	-0.098	-0.166
-596.025	382.633	0.183	0.377
-595.011	-147.580	-0.249	0.021
-593.996	800.000	0.093	-0.276
-592.982	163.421	0.104	-0.146
-591.967	12.981	0.125	-0.096
-590.952	-200.000	0.015	0.237
-589.938	-200.000	0.013	0.117
-588.923	162.055	-0.206	0.289
-587.909	-95.890	0.294	-0.078
-586.894	423.713	-0.073	-0.156
-585.879	208.138	-0.073	0.114
-584.865	800.000	0.017	0.052
-583.850	800.000	0.046	-0.165
-582.836	125.774	0.155	0.196
-581.821	233.723	-0.092	0.152
-580.806	129.239	-0.117	0.149
-579.792	29.874	0.022	0.019
-578.777	-161.038	-0.170	-0.009
-577.763	120.688	0.160	0.198
-576.748	95.256	0.028	-0.032
-575.733	-36.502	0.243	0.130
-574.719	120.967	0.070	-0.087
-573.704	295.339	0.297	0.543
-572.690	27.324	0.170	-0.142
-571.675	-200.000	0.016	0.095
-570.661	-114.535	0.315	0.060
-569.646	-20.763	0.338	0.207
-568.631	-38.133	0.407	-0.215
-567.617	800.000	-0.058	-0.211
-566.602	-20.069	-0.249	-0.153
-565.588	-21.314	0.251	-0.153
-564.573	46.543	0.087	-0.080
-563.558	103.122	-0.131	0.153
-562.544	-139.718	0.178	0.019
-561.529	-7.809	0.067	0.045
-560.515	-200.000	-0.030	-0.292
-559.500	-180.983	0.147	0.003
-558.485	-22.092	-0.226	-0.137
-557.471	-150.581	0.120	0.009
-556.456	-200.000	0.018	-0.092
-555.442	-91.822	0.342	-0.097
-554.427	-200.000	0.026	-0.114
-553.412	800.000	0.059	-0.181
-552.398	-200.000	0.045	-0.277
-551.383	21.273	0.118	0.096
-550.369	-200.000	0.062	-0.435
-549.354	-200.000	-0.023	-0.298
-548.339	24.986	0.114	0.094
-547.325	-170.086	-0.284	0.010
-546.310	-112.755	-0.324	0.064
-545.296	36.652	0.293	0.258
-544.281	800.000	0.044	-0.194
-543.266	800.000	0.063	-0.229
-542.252	-200.000	-0.016	0.282
-541.237	760.667	0.092	0.249
-540.223	-111.159	-0.129	-0.026
-539.208	-200.000	0.011	-0.054
-538.193	-200.000	0.033	-0.193
-537.179	683.268	-0.120	0.312
-536.164	-200.000	0.024	0.217
-535.150	107.387	0.227	0.269
-534.135	602.840	0.118	0.292
-533.121	24.569	-0.148	0.122
-532.106	-119.084	0.035	-0.006
-531.091	-60.798	0.247	0.104
-530.077	-52.768	0.078	-0.036
-529.062	-160.592	0.213	-0.011
-528.048	800.000	0.028	0.085
-527.033	-200.000	0.002	0.013
-526.018	-200.000	0.013	0.113
-525.004	99.906	-0.258	-0.298
-523.989	-200.000	-0.005	-0.181
-522.975	-99.664	0.086	0.021
-521.960	-102.111	-0.107	0.026
-520.945	218.710	-0.205	0.327
-519.931	-10.906	0.185	0.122
-518.916	36.307	-0.256	-0.225
-517.902	654.721	0.056	0.144
-516.887	136.483	0.097	0.126
-515.872	-200.000	-0.020	-0.221
-514.858	-93.181	-0.220	-0.061
-513.843	800.000	-0.069	0.195
-512.829	-200.000	-0.001	-0.231
-511.814	363.934	-0.020	0.040
-510.799	-200.000	-0.005	-0.038
-509.785	10.802	-0.208	-0.158
-508.770	-0.394	0.182	-0.129
-507.756	239.126	0.126	0.208
-506.741	107.031	-0.087	0.103
-505.726	538.778	0.085	0.202
-504.712	422.405	-0.071	0.151
-503.697	163.430	-0.105	0.147
-502.683	-55.732	0.146	-0.065
-501.668	207.452	0.138	-0.215
-500.653	-38.134	-0.265	0.140
-499.639	64.720	0.205	-0.206
-498.624	-37.855	-0.118	-0.063
-497.610	-200.000	0.013	-0.096
-496.595	410.127	-0.047	-0.100
-495.581	505.166	-0.126	-0.290
-494.566	-43.117	0.124	0.063
-493.551	115.805	-0.089	0.108
-492.537	35.503	-0.295	-0.258
-491.522	332.306	0.119	-0.229
-490.508	-200.000	-0.001	-0.234
-489.493	-75.033	0.278	0.099
-488.478	-100.843	-0.158	0.039
-487.464	80.247	-0.114	0.122
-486.449	27.295	-0.169	-0.142
-485.435	-200.000	0.023	-0.109
-484.420	-200.000	0.002	-0.239
-483.405	149.579	-0.061	-0.083
-482.391	-200.000	-0.012	0.072
-481.376	698.111	0.120	-0.315
-480.362	-80.743	-0.253	0.084
-479.347	16.846	0.169	0.133
-478.332	76.136	0.151	0.158
-477.318	-58.777	-0.054	-0.023
-476.303	-200.000	-0.008	-0.155
-475.289	-61.505	-0.152	-0.063
-474.274	98.810	0.127	-0.146
-473.259	75.455	-0.181	0.190
-472.245	800.000	0.086	0.292
-471.230	-109.669	0.126	0.026
-470.216	-200.000	0.008	-0.163
-469.201	768.280	0.029	-0.080
-468.186	800.000	-0.060	-0.205
-467.172	-0.653	-0.110	-0.078
-466.157	-200.000	-0.032	-0.184
-465.143	85.199	0.290	0.316
-464.128	-151.096	-0.414	-0.031
-463.113	153.489	0.145	-0.197
-462.099	-146.774	-0.183	0.016
-461.084	41.565	0.413	-0.371
-460.070	-103.831	0.095	0.022
-459.055	-200.000	0.056	0.259
-458.040	455.677	-0.040	0.088
-457.026	60.399	-0.206	0.202
-456.011	-103.115	-0.307	0.072
-454.997	-95.824	0.016	0.004
-453.982	800.000	0.078	0.300
-452.968	177.214	0.101	0.146
-451.953	-200.000	0.018	0.317
-450.938	125.939	-0.190	0.239
-449.924	-200.000	0.066	-0.373
-448.909	-94.093	-0.078	-0.021
-447.895	-200.000	0.027	0.144
-446.880	-139.333	0.187	-0.020
-445.865	-200.000	0.023	0.244
-444.851	2.300	-0.250	0.179
-443.836	-20.999	-0.139	0.085
-442.822	-63.908	0.172	-0.070
-441.807	-148.331	-0.115	-0.009
-440.792	-51.653	-0.160	-0.074
-439.778	134.470	-0.211	-0.271
-438.763	800.000	-0.028	-0.101
-437.749	97.833	-0.088	-0.101
-436.734	54.789	-0.102	0.098
-435.719	-97.364	-0.107	0.028
-434.705	-162.360	0.142	0.007
-433.690	-129.488	0.212	-0.029
-432.676	-74.488	-0.149	0.053
-431.661	-162.123	-0.251	-0.012
-430.646	-32.451	-0.116	-0.064
-429.632	-200.000	-0.028	0.302
-428.617	-133.019	-0.152	0.019
-427.603	2.805	-0.108	-0.078
-426.588	-200.000	-0.006	-0.028
-425.573	-56.339	0.416	-0.183
-424.559	228.054	0.057	-0.093
-423.544	8.253	0.101	0.076
-422.530	27.173	0.261	-0.217
-421.515	95.829	-0.169	0.191
-420.500	-87.432	0.239	0.072
-419.486	664.041	-0.149	0.382
-418.471	800.000	0.062	-0.175
-417.457	118.298	0.104	0.128
-416.442	193.510	0.077	0.116
-415.428	800.000	0.025	0.075
-414.413	48.871	-0.166	-0.154
-413.398	774.892	0.160	-0.432
-412.384	30.752	0.214	0.182
-411.369	327.978	-0.137	-0.262
-410.355	-200.000	-0.020	-0.128
-409.340	-92.407	-0.189	-0.053
-408.325	800.000	0.034	0.108
-407.311	68.559	0.266	-0.271
-406.296	557.474	-0.074	-0.176
-405.282	-51.920	-0.111	-0.051
-404.267	2.734	0.186	-0.134
-403.252	113.115	-0.113	-0.135
-402.238	315.134	-0.119	-0.223
-401.223	-200.000	-0.005	-0.143
-400.209	-150.481	0.165	-0.013
-399.194	-9.235	0.270	0.179
-398.179	-136.258	-0.234	-0.027
-397.165	-200.000	-0.017	-0.294
-396.150	-8.537	-0.163	0.109
-395.136	-105.694	0.240	-0.054
-394.121	800.000	-0.040	-0.116
-393.106	720.932	0.096	-0.254
-392.092	-200.000	0.026	0.301
-391.077	103.571	0.127	-0.148
-390.063	57.323	-0.188	-0.182
-389.048	160.116	0.029	0.039
-388.033	52.713	-0.040	-0.038
-387.019	-200.000	0.083	0.452
-386.004	-93.152	-0.251	0.069
-384.990	800.000	-0.027	-0.108
-383.975	7.269	-0.181	-0.134
-382.960	-200.000	0.027	-0.162
-381.946	-88.854	-0.299	0.088
-380.931	-142.989	-0.369	0.035
-379.917	112.953	0.144	0.172
-378.902	529.888	0.146	-0.341
-377.888	5.405	-0.143	-0.105
-376.873	75.969	-0.147	0.154
-375.858	162.784	-0.164	-0.228
-374.844	291.894	0.020	0.037
-373.829	-74.242	0.226	0.081
-372.815	61.296	0.034	0.033
-371.800	404.956	-0.046	0.097
-370.785	-200.000	0.032	-0.357
-369.771	-200.000	-0.004	0.339
-368.756	564.357	0.171	0.409
-367.742	-91.538	-0.177	-0.050
-366.727	126.984	-0.385	0.483
-365.712	-39.071	0.147	0.077
-364.698	-88.083	-0.100	0.030
-363.683	11.380	0.350	0.266
-362.669	800.000	-0.042	-0.123
-361.654	-47.641	0.276	0.133
-360.639	-150.322	-0.179	-0.014
-359.625	-125.022	0.391	0.060
-358.610	-5.297	0.065	-0.044
-357.596	28.860	-0.393	0.329
-356.581	102.548	-0.094	0.109
-355.566	-161.011	-0.103	0.005
-354.552	30.930	0.075	-0.064
-353.537	-200.000	-0.032	-0.248
-352.523	-200.000	0.027	0.245
-351.508	358.550	-0.023	0.046
-350.493	243.402	0.109	-0.181
-349.479	137.335	0.088	-0.113
-348.464	-59.198	0.267	0.114
-347.450	-131.099	-0.154	-0.020
-346.435	-88.430	0.245	-0.072
-345.420	-43.087	0.259	0.130
-344.406	800.000	-0.048	-0.156
-343.391	-2.098	0.079	-0.055
-342.377	-54.858	-0.230	-0.103
-341.362	-200.000	-0.043	-0.262
-340.348	-69.028	0.189	0.072
-339.333	-200.000	0.026	0.290
-338.318	-104.584	0.240	-0.055
-337.304	313.997	0.049	-0.090
-336.289	-200.000	0.010	-0.063
-335.275	92.982	-0.175	0.195
-334.260	87.495	-0.043	-0.047
-333.245	-117.340	-0.310	-0.056
-332.231	31.629	-0.096	0.082
-331.216	-178.089	0.094	-0.002
-330.202	-93.553	-0.339	0.093
-329.187	18.397	-0.269	0.212
-328.172	-75.936	-0.131	-0.046
-327.158	-200.000	0.065	0.290
-326.143	-16.141	-0.267	0.168
-325.129	-119.875	0.237	-0.040
-324.114	-200.000	-0.024	0.184
-323.099	226.504	-0.084	-0.135
-322.085	64.499	0.142	0.141
-321.070	288.861	0.076	-0.137
-320.056	-156.206	-0.171	0.011
-319.041	127.685	-0.132	-0.165
-318.026	-200.000	0.012	-0.093
-317.012	131.606	0.093	0.118
-315.997	30.658	0.145	-0.123
-314.983	31.472	0.344	-0.292
-313.968	-200.000	-0.038	-0.228
-312.953	118.260	0.069	0.084
-311.939	-164.399	-0.408	-0.018
-310.924	-200.000	0.010	-0.267
-309.910	353.357	0.158	-0.309
-308.895	-200.000	-0.052	0.236
-307.880	-72.392	0.052	0.019
-306.866	-200.000	0.032	-0.264
-305.851	-116.066	-0.293	0.054
-304.837	-200.000	-0.020	0.343
-303.822	152.234	-0.118	0.159
-302.807	-68.037	-0.213	-0.082
-301.793	-14.645	-0.220	-0.139
-300.778	109.525	0.083	0.098
-299.764	-105.723	-0.198	0.044
-298.749	800.000	-0.085	0.270
-297.735	95.213	-0.080	-0.090
-296.720	-75.677	-0.302	0.106
-295.705	-127.067	-0.156	-0.023
-294.691	800.000	0.040	0.154
-293.676	-33.607	0.058	0.032
-292.662	144.929	0.139	0.183
-291.647	-125.777	-0.201	0.030
-290.632	645.566	0.015	-0.039
-289.618	45.226	-0.035	-0.032
-288.603	-114.196	0.175	-0.033
-287.589	567.927	-0.106	0.255
-286.574	800.000	0.015	0.049
-285.559	27.242	0.219	-0.182
-284.545	4.976	-0.192	-0.139
-283.530	49.326	0.245	0.228
-282.516	-58.405	-0.276	-0.118
-281.501	-133.540	0.097	0.012
-280.486	93.528	0.259	0.290
-279.472	458.584	-0.098	0.215
-278.457	25.871	-0.020	-0.017
-277.443	-79.953	-0.182	-0.060
-276.428	184.905	-0.067	-0.098
-275.413	238.595	-0.097	-0.159
-274.399	76.984	-0.044	0.046
-273.384	215.313	0.252	0.394
-272.370	-56.874	0.054	-0.023
-271.355	-73.285	0.392	0.141
-270.340	46.962	-0.231	0.212
-269.326	-88.100	0.141	0.042
-268.311	-174.613	0.218	0.006
-267.297	-109.954	0.250	0.052
-266.282	-200.000	-0.049	0.401
-265.267	-89.756	0.075	0.022
-264.253	160.350	-0.185	0.254
-263.238	800.000	0.085	-0.272
-262.224	-133.299	-0.295	0.037
-261.209	800.000	0.056	-0.164
-260.195	-90.116	-0.441	0.127
-259.180	800.000	-0.101	0.358
-258.165	220.463	0.151	0.239
-257.151	94.162	0.037	-0.042
-256.136	-200.000	-0.013	0.246
-255.122	-200.000	-0.021	-0.240
-254.107	-5.275	0.102	0.069
-253.092	-93.063	0.104	0.028
-252.078	-24.144	0.141	-0.083
-251.063	-124.727	0.341	-0.052
-250.049	356.595	-0.162	-0.318
-249.034	800.000	0.015	0.061
-248.019	-16.865	-0.084	-0.053
-247.005	-88.890	0.311	0.091
-245.990	-176.133	0.171	-0.004
-244.976	164.447	-0.076	0.105
-243.961	-58.424	0.228	0.098
-242.946	-60.541	-0.247	0.104
-241.932	-4.396	0.119	0.081
-240.917	357.156	0.051	0.100
-239.903	-15.546	0.089	-0.056
-238.888	-145.073	-0.125	0.011
-237.873	-200.000	-0.009	-0.069
-236.859	-8.549	-0.148	-0.098
-235.844	111.322	0.198	-0.235
-234.830	141.430	0.136	-0.177
-233.815	142.141	0.152	-0.199
-232.800	-173.423	-0.066	-0.002
-231.786	46.873	-0.272	0.249
-230.771	-72.023	0.411	-0.151
-229.757	66.674	0.155	0.156
-228.742	229.333	-0.116	-0.186
-227.727	-130.261	0.201	0.027
-226.713	-89.333	0.074	-0.022
-225.698	-6.220	0.227	-0.152
-224.684	-128.091	-0.499	0.070
-223.669	-41.963	0.144	-0.073
-222.655	-63.710	0.330	-0.133
-221.640	-200.000	0.006	0.101
-220.625	-200.000	0.029	0.330
-219.611	-141.943	-0.229	-0.023
-218.596	-39.559	0.167	-0.086
-217.582	668.092	0.137	-0.349
-216.567	11.436	-0.137	-0.103
-215.552	-88.243	0.223	0.066
-214.538	-200.000	0.033	0.315
-213.523	-69.976	-0.376	0.141
-212.509	-70.429	0.366	-0.136
-211.494	242.206	0.078	0.129
-210.479	-160.063	0.229	0.012
-209.465	-162.944	0.130	-0.006
-208.450	-101.757	-0.323	-0.077
-207.436	-174.402	-0.135	-0.004
-206.421	135.490	0.069	0.088
-205.406	-127.616	0.331	-0.047
-204.392	253.056	-0.253	0.425
-203.377	107.142	-0.130	0.152
-202.363	457.465	-0.043	-0.094
-201.348	-200.000	-0.003	-0.342
-200.333	-200.000	0.088	-0.386
-199.319	320.370	-0.064	-0.120
-198.304	342.934	-0.103	0.199
-197.290	-200.000	0.010	0.125
-196.275	-200.000	0.007	-0.161
-195.260	-200.000	0.076	0.398
-194.246	-39.704	0.331	0.170
-193.231	525.249	-0.098	0.227
-192.217	211.235	-0.017	-0.026
-191.202	-74.079	-0.132	-0.047
-190.187	800.000	-0.098	-0.364
-189.173	800.000	0.048	-0.197
-188.158	274.489	0.046	-0.080
-187.144	-60.752	-0.176	0.073
-186.129	-82.753	-0.374	-0.119
-185.114	800.000	0.052	0.177
-184.100	11.161	0.238	-0.179
-183.085	800.000	-0.048	-0.180
-182.071	-138.853	-0.283	-0.030
-181.056	51.417	-0.231	-0.216
-180.042	10.283	0.206	-0.154
-179.027	-128.877	-0.300	-0.042
-178.012	142.268	0.039	-0.051
-176.998	-92.392	0.144	-0.040
-175.983	-145.323	0.311	0.028
-174.969	24.432	0.339	-0.275
-173.954	-23.602	-0.093	0.055
-172.939	800.000	0.050	-0.167
-171.925	-181.362	-0.178	-0.003
-170.910	-40.513	-0.254	-0.130
-169.896	-200.000	-0.013	-0.155
-168.881	-53.064	0.072	0.032
-167.866	-75.020	0.204	0.072
-166.852	159.145	0.021	-0.029
-165.837	415.538	0.246	0.514
-164.823	800.000	0.064	0.183
-163.808	800.000	-0.069	-0.248
-162.793	45.388	0.092	-0.084
-161.779	-20.969	0.089	0.053
-160.764	-54.350	0.136	0.061
-159.750	98.943	-0.228	-0.259
-158.735	106.349	0.110	-0.128
-157.720	134.062	0.157	-0.200
-156.706	-98.228	0.202	-0.051
-155.691	0.448	-0.025	-0.017
-154.677	-200.000	-0.023	0.141
-153.662	54.982	-0.097	0.092
-152.647	65.888	0.213	-0.212
-151.633	-200.000	-0.042	0.208
-150.618	-200.000	0.071	0.336
-149.604	-52.940	-0.210	0.095
-148.589	-43.310	0.076	-0.038
-147.574	800.000	0.112	-0.366
-146.560	131.276	-0.177	0.223
-145.545	-1.181	-0.163	-0.113
-144.531	-104.837	-0.166	-0.038
-143.516	-6.570	0.147	-0.098
-142.502	-200.000	0.024	0.138
-141.487	237.999	-0.182	-0.297
-140.472	153.196	0.145	-0.195
-139.458	-17.991	-0.077	0.048
-138.443	-7.440	0.122	0.081
-137.429	-200.000	0.053	0.392
-136.414	-58.349	-0.145	0.062
-135.399	-200.000	0.042	-0.384
-134.385	23.125	-0.116	-0.093
-133.370	75.163	-0.018	0.019
-132.356	-25.489	0.386	0.224
-131.341	800.000	-0.044	0.151
-130.326	-200.000	-0.013	-0.061
-129.312	-27.353	0.206	0.118
-128.297	121.615	-0.113	-0.138
-127.283	105.460	-0.091	-0.106
-126.268	166.304	-0.118	-0.165
-125.253	4.327	0.330	-0.237
-124.239	159.954	-0.187	0.255
-123.224	594.894	0.095	-0.232
-122.210	-200.000	-0.031	-0.546
-121.195	563.169	0.075	-0.177
