DTS Sentinel unit serial number:	SN413079Multiplexer serial number:	ORYXHardware model number:	OX4-SRSoftware version number:	ORYX F/W v4.00 Oryx Data Collector v3.7.2.0data status	okinstallation	princeton_trtdifferential loss correction	single-endedforward channel	channel 3reverse channel	N/Adate	2019/09/13time	06:40:35forward acquisition time	60.00reverse acquisition time	0.00gamma	496.2192k internal	0.2339k external	0.2339temperature offset calibration	1.0134default loss term (dB/km)	0.3790temperature slope calibration	1.0000multiplexer offset coefficient	1.0000multiplexer slope coefficient	1.0000fibre end	0.00T internal ref (°C)	26.02T ext. ref 1 (°C)	4.09T ext. ref 2 (°C)	20.66length (m)	temperature (°C)	Stokes	anti-Stokes-747.200	-143.270	-0.241	-0.023
-746.185	-142.001	0.295	0.029
-745.171	-200.000	-0.007	-0.148
-744.156	800.000	0.094	0.283
-743.142	444.918	-0.107	-0.235
-742.127	-105.661	-0.302	0.069
-741.112	800.000	-0.061	0.233
-740.098	576.544	-0.186	0.456
-739.083	-57.430	0.280	-0.123
-738.069	410.578	-0.113	0.240
-737.054	-87.281	-0.227	-0.069
-736.039	172.981	-0.091	0.131
-735.025	800.000	0.058	0.164
-734.010	-154.831	-0.135	0.009
-732.996	-200.000	-0.030	-0.294
-731.981	138.932	0.273	-0.360
-730.966	-200.000	-0.002	0.256
-729.952	-49.317	-0.278	0.133
-728.937	-150.978	-0.379	0.029
-727.923	699.903	-0.034	-0.091
-726.908	0.714	-0.285	0.205
-725.894	-52.532	-0.211	-0.098
-724.879	-158.187	-0.127	0.007
-723.864	-185.250	-0.378	0.006
-722.850	-54.113	-0.048	-0.022
-721.835	377.628	-0.138	-0.283
-720.821	8.796	-0.447	-0.338
-719.806	-146.626	0.240	0.021
-718.791	-88.119	-0.235	-0.071
-717.777	-33.351	-0.143	-0.080
-716.762	399.689	-0.080	0.168
-715.748	224.697	-0.024	0.038
-714.733	-177.313	0.290	0.007
-713.718	-114.321	-0.084	0.016
-712.704	177.609	0.115	0.169
-711.689	-200.000	0.009	0.070
-710.675	89.271	0.111	0.124
-709.660	-168.007	-0.255	-0.010
-708.645	-101.643	-0.184	0.045
-707.631	-47.383	0.185	-0.090
-706.616	619.781	-0.042	-0.105
-705.602	-8.561	0.167	-0.112
-704.587	-34.099	0.185	0.102
-703.572	-65.385	-0.212	0.085
-702.558	526.538	-0.033	0.079
-701.543	-122.721	-0.141	0.023
-700.529	800.000	0.021	-0.077
-699.514	71.007	-0.177	-0.183
-698.499	-121.288	0.064	-0.011
-697.485	593.266	0.044	-0.110
-696.470	-25.535	0.124	0.073
-695.456	-61.930	0.445	-0.186
-694.441	-77.929	0.467	-0.161
-693.426	98.703	-0.048	0.055
-692.412	177.311	-0.107	0.157
-691.397	217.908	0.157	-0.250
-690.383	-68.137	0.090	-0.035
-689.368	800.000	0.117	0.404
-688.354	108.100	0.153	0.182
-687.339	-95.898	-0.275	0.073
-686.324	182.982	0.234	-0.346
-685.310	386.671	-0.025	-0.052
-684.295	518.818	0.041	-0.096
-683.281	800.000	-0.104	0.342
-682.266	-84.675	-0.371	0.117
-681.251	246.842	-0.142	-0.240
-680.237	-200.000	0.000	-0.139
-679.222	685.127	0.116	-0.303
-678.208	95.289	-0.089	0.101
-677.193	-44.868	-0.430	-0.214
-676.178	444.414	0.037	0.081
-675.164	800.000	-0.111	0.360
-674.149	-133.514	0.102	-0.013
-673.135	-7.075	0.155	-0.105
-672.120	169.338	0.122	-0.175
-671.105	-200.000	-0.020	-0.166
-670.091	-59.435	-0.094	0.040
-669.076	14.365	0.069	-0.054
-668.062	-166.391	0.277	0.012
-667.047	88.817	-0.311	0.346
-666.032	331.833	-0.113	-0.218
-665.018	800.000	-0.129	-0.525
-664.003	434.215	0.123	-0.267
-662.989	800.000	-0.041	0.158
-661.974	660.808	-0.061	-0.157
-660.959	23.027	0.079	0.065
-659.945	-31.295	-0.178	0.100
-658.930	-18.950	0.102	0.063
-657.916	87.978	0.220	0.244
-656.901	145.116	0.156	0.209
-655.886	-84.918	0.071	0.022
-654.872	-156.172	-0.300	-0.019
-653.857	-110.565	-0.027	-0.006
-652.843	-200.000	0.010	-0.204
-651.828	-200.000	-0.056	-0.295
-650.814	91.330	-0.088	0.099
-649.799	93.507	0.201	-0.228
-648.784	-124.215	-0.121	-0.019
-647.770	-39.226	-0.028	-0.015
-646.755	-19.262	0.264	0.164
-645.741	-139.161	0.116	0.013
-644.726	297.863	0.161	-0.296
-643.711	-200.000	-0.021	0.216
-642.697	-79.742	-0.141	0.048
-641.682	174.802	0.141	-0.204
-640.668	120.273	0.135	0.167
-639.653	800.000	-0.057	0.197
-638.638	800.000	0.089	-0.245
-637.624	-168.050	-0.383	-0.015
-636.609	213.516	0.132	-0.209
-635.595	20.119	0.153	0.123
-634.580	47.208	0.233	-0.216
-633.565	-2.365	0.214	-0.150
-632.551	800.000	0.040	0.160
-631.536	-7.194	-0.083	0.056
-630.522	800.000	-0.084	-0.331
-629.507	-144.582	0.187	-0.017
-628.492	-12.887	-0.415	-0.270
-627.478	22.610	-0.264	-0.216
-626.463	247.091	-0.182	-0.307
-625.449	-47.862	-0.141	-0.068
-624.434	-200.000	-0.043	0.194
-623.419	-28.943	0.229	0.131
-622.405	182.636	0.126	-0.185
-621.390	-114.298	-0.151	0.029
-620.376	-200.000	0.006	-0.124
-619.361	800.000	0.060	-0.231
-618.346	-195.188	-0.070	0.001
-617.332	-143.300	0.365	-0.035
-616.317	-85.399	0.112	-0.035
-615.303	-46.921	0.086	-0.042
-614.288	-16.544	-0.214	0.135
-613.273	6.575	0.199	0.147
-612.259	-128.822	0.049	0.007
-611.244	542.482	-0.054	-0.128
-610.230	-81.914	0.044	-0.014
-609.215	789.937	-0.059	0.161
-608.201	-87.621	-0.139	0.042
-607.186	300.189	0.182	-0.334
-606.171	66.412	0.160	-0.163
-605.157	23.891	-0.175	0.144
-604.142	83.757	0.017	0.018
-603.128	-111.606	-0.074	-0.015
-602.113	-78.592	0.241	-0.082
-601.098	-30.864	-0.316	-0.178
-600.084	-75.774	-0.242	-0.085
-599.069	584.390	-0.162	0.396
-598.055	261.533	0.030	0.051
-597.040	7.604	0.252	0.188
-596.025	351.651	0.067	0.132
-595.011	800.000	-0.044	-0.130
-593.996	-200.000	0.027	0.324
-592.982	800.000	-0.069	0.233
-591.967	-112.680	-0.212	0.042
-590.952	-71.314	0.207	-0.077
-589.938	-140.107	-0.143	-0.015
-588.923	44.992	0.078	0.072
-587.909	471.219	-0.025	0.057
-586.894	470.889	0.032	-0.071
-585.879	800.000	0.052	-0.216
-584.865	411.854	0.122	-0.258
-583.850	195.340	0.095	-0.144
-582.836	108.723	-0.266	-0.317
-581.821	-200.000	-0.051	0.317
-580.806	-63.047	0.310	-0.127
-579.792	-143.444	-0.251	-0.024
-578.777	-68.702	-0.107	0.041
-577.763	97.960	-0.024	0.028
-576.748	-70.396	-0.201	0.076
-575.733	27.149	-0.114	-0.096
-574.719	-57.477	-0.316	0.138
-573.704	165.125	0.107	-0.150
-572.690	124.278	-0.284	-0.356
-571.675	212.330	0.038	0.060
-570.661	26.393	-0.150	-0.125
-569.646	519.184	-0.123	0.288
-568.631	-128.432	-0.103	-0.015
-567.617	-51.354	0.066	0.031
-566.602	-25.753	-0.395	-0.232
-565.588	356.131	-0.115	0.228
-564.573	-115.202	-0.217	-0.041
-563.558	-200.000	0.031	0.295
-562.544	468.924	-0.075	0.169
-561.529	-200.000	0.024	-0.145
-560.515	-101.306	-0.350	0.085
-559.500	-31.180	0.102	-0.057
-558.485	-85.754	0.042	-0.013
-557.471	455.509	-0.059	0.131
-556.456	360.471	0.098	-0.195
-555.442	-69.286	-0.159	-0.061
-554.427	42.780	0.256	-0.233
-553.412	800.000	0.110	-0.359
-552.398	19.695	-0.161	0.129
-551.383	184.864	-0.149	0.220
-550.369	-140.466	0.264	-0.027
-549.354	471.432	-0.097	-0.218
-548.339	122.187	-0.163	-0.202
-547.325	209.501	-0.136	0.213
-546.310	317.458	-0.131	-0.246
-545.296	1.139	0.188	0.135
-544.281	-200.000	-0.067	0.457
-543.266	-200.000	0.008	0.196
-542.252	350.722	-0.037	0.073
-541.237	-105.477	0.158	0.036
-540.223	102.505	0.040	-0.047
-539.208	-41.925	-0.379	0.193
-538.193	-86.568	-0.052	-0.016
-537.179	-200.000	0.011	-0.321
-536.164	119.367	-0.213	0.263
-535.150	-200.000	-0.044	0.478
-534.135	-200.000	-0.003	0.262
-533.121	175.657	-0.097	0.140
-532.106	-88.165	-0.260	0.078
-531.091	-119.721	0.217	-0.037
-530.077	-156.952	-0.218	0.013
-529.062	-151.033	0.209	-0.016
-528.048	800.000	-0.092	0.378
-527.033	121.573	-0.147	0.182
-526.018	-38.674	0.194	0.102
-525.004	-58.245	-0.098	-0.042
-523.989	800.000	-0.048	0.137
-522.975	-64.914	0.326	0.131
-521.960	-200.000	-0.008	-0.160
-520.945	742.948	0.129	0.345
-519.931	-55.377	0.383	0.171
-518.916	-106.859	-0.127	-0.028
-517.902	-200.000	-0.002	-0.131
-516.887	294.405	-0.103	0.187
-515.872	73.318	0.226	-0.235
-514.858	380.955	-0.090	-0.184
-513.843	-113.422	-0.127	0.025
-512.829	-75.716	0.310	0.110
-511.814	-200.000	-0.044	0.229
-510.799	800.000	-0.017	-0.053
-509.785	-54.753	-0.221	0.099
-508.770	-105.067	0.257	0.058
-507.756	-200.000	-0.010	0.307
-506.741	800.000	-0.052	0.196
-505.726	136.460	0.046	0.060
-504.712	-59.132	-0.215	-0.092
-503.697	357.002	0.199	0.393
-502.683	-97.884	0.150	0.038
-501.668	-200.000	0.023	-0.391
-500.653	-113.727	0.160	-0.031
-499.639	783.523	0.068	-0.185
-498.624	117.965	-0.096	-0.117
-497.610	-164.514	-0.228	0.010
-496.595	114.846	0.139	0.168
-495.581	35.424	-0.244	0.213
-494.566	-200.000	0.013	-0.135
-493.551	800.000	-0.055	-0.224
-492.537	-63.806	-0.244	-0.099
-491.522	-142.185	-0.177	-0.017
-490.508	-58.737	0.187	0.080
-489.493	-200.000	0.048	-0.225
-488.478	-8.540	0.190	0.127
-487.464	-39.549	0.330	0.172
-486.449	800.000	0.042	-0.130
-485.435	79.786	0.295	-0.314
-484.420	117.607	0.056	0.068
-483.405	80.729	0.163	-0.174
-482.391	-200.000	0.050	-0.296
-481.376	-129.946	0.177	-0.024
-480.362	78.514	-0.080	0.085
-479.347	800.000	-0.050	-0.191
-478.332	800.000	0.087	0.283
-477.318	306.918	-0.191	0.354
-476.303	-200.000	0.054	0.293
-475.289	34.199	0.166	-0.144
-474.274	620.842	0.092	-0.231
-473.259	-200.000	-0.005	-0.054
-472.245	64.999	-0.061	0.061
-471.230	-35.479	-0.276	0.149
-470.216	49.139	-0.323	0.301
-469.201	-61.227	0.191	0.080
-468.186	-4.542	0.196	-0.134
-467.172	10.810	0.196	-0.149
-466.157	-169.944	-0.148	-0.005
-465.143	-13.813	-0.203	0.130
-464.128	211.349	-0.197	0.308
-463.113	-76.381	0.244	0.085
-462.099	-14.888	0.179	-0.114
-461.084	-198.207	0.272	-0.002
-460.070	-72.489	0.134	0.049
-459.055	164.182	-0.128	0.179
-458.040	-192.780	0.024	-0.000
-457.026	-36.851	-0.272	0.145
-456.011	-200.000	0.010	-0.046
-454.997	800.000	-0.064	-0.223
-453.982	618.981	0.090	0.224
-452.968	800.000	-0.088	0.258
-451.953	-200.000	-0.046	-0.226
-450.938	-200.000	-0.017	-0.151
-449.924	476.225	0.033	-0.074
-448.909	143.387	0.352	-0.465
-447.895	-95.305	-0.173	-0.046
-446.880	-200.000	-0.014	-0.152
-445.865	-200.000	0.003	0.366
-444.851	84.563	-0.143	-0.155
-443.836	-72.287	0.160	-0.059
-442.822	800.000	-0.066	-0.273
-441.807	22.406	-0.071	-0.058
-440.792	-200.000	-0.051	-0.348
-439.778	-200.000	0.034	-0.278
-438.763	45.900	0.046	0.042
-437.749	41.049	-0.289	-0.258
-436.734	68.589	0.101	-0.102
-435.719	295.715	-0.129	0.234
-434.705	152.042	0.033	-0.045
-433.690	-39.575	-0.182	-0.094
-432.676	-200.000	0.098	-0.491
-431.661	-77.067	0.249	-0.086
-430.646	69.513	0.119	-0.121
-429.632	-166.764	-0.248	-0.010
-428.617	-200.000	-0.019	-0.265
-427.603	29.455	0.079	-0.066
-426.588	-200.000	0.006	-0.242
-425.573	800.000	-0.084	0.264
-424.559	800.000	0.066	0.195
-423.544	-74.713	0.131	0.047
-422.530	200.292	0.052	-0.079
-421.515	36.142	0.106	0.092
-420.500	-200.000	0.054	-0.315
-419.486	-200.000	-0.060	-0.294
-418.471	-122.252	-0.307	-0.050
-417.457	-150.852	0.392	-0.029
-416.442	-72.142	-0.061	0.023
-415.428	-167.805	-0.469	0.018
-414.413	272.089	-0.124	-0.216
-413.398	60.173	0.114	-0.111
-412.384	-174.722	0.204	-0.006
-411.369	81.009	0.153	-0.164
-410.355	-24.062	0.115	0.068
-409.340	-200.000	-0.081	-0.420
-408.325	0.165	0.153	0.108
-407.311	-149.770	-0.173	-0.013
-406.296	609.750	0.020	-0.050
-405.282	-200.000	-0.059	-0.300
-404.267	-85.802	-0.100	0.031
-403.252	65.912	0.201	-0.202
-402.238	-2.350	0.370	0.257
-401.223	8.178	-0.189	0.140
-400.209	200.803	-0.125	-0.190
-399.194	-104.590	0.258	-0.059
-398.179	65.920	-0.242	0.243
-397.165	-41.712	-0.297	-0.151
-396.150	-136.447	0.175	-0.020
-395.136	125.976	-0.220	0.275
-394.121	-170.068	0.153	0.005
-393.106	-14.009	0.427	0.273
-392.092	-200.000	0.004	-0.027
-391.077	640.753	0.035	0.089
-390.063	-173.582	-0.427	0.013
-389.048	2.829	-0.054	-0.039
-388.033	49.999	0.175	-0.164
-387.019	-69.806	-0.284	-0.107
-386.004	200.210	0.049	0.075
-384.990	173.796	0.342	-0.488
-383.975	210.171	0.113	0.175
-382.960	208.149	-0.069	0.107
-381.946	8.679	0.049	-0.037
-380.931	161.811	0.200	0.277
-379.917	800.000	0.112	0.313
-378.902	-200.000	0.027	-0.132
-377.888	201.167	-0.102	-0.155
-376.873	-200.000	0.050	-0.474
-375.858	3.467	-0.148	0.106
-374.844	135.838	0.089	0.114
-373.829	386.589	-0.058	-0.118
-372.815	-24.001	0.307	0.182
-371.800	-100.776	-0.449	0.109
-370.785	-77.973	0.141	0.048
-369.771	36.210	0.010	0.009
-368.756	-81.848	0.144	-0.046
-367.742	106.291	0.154	-0.180
-366.727	249.033	-0.105	-0.176
-365.712	17.760	0.162	-0.128
-364.698	-200.000	-0.025	0.178
-363.683	-101.476	-0.185	0.044
-362.669	-129.918	-0.254	-0.034
-361.654	-136.093	-0.168	0.019
-360.639	-200.000	0.086	0.582
-359.625	-53.751	0.254	0.114
-358.610	95.854	0.281	-0.317
-357.596	221.880	-0.125	-0.199
-356.581	681.813	0.077	0.199
-355.566	-140.592	0.309	-0.032
-354.552	206.549	-0.126	0.194
-353.537	-36.865	0.154	0.082
-352.523	2.166	0.134	-0.095
-351.508	-42.054	-0.327	-0.165
-350.493	8.413	-0.168	0.125
-349.479	227.171	-0.021	-0.034
-348.464	410.547	-0.101	-0.212
-347.450	9.182	-0.107	-0.080
-346.435	-101.125	0.191	0.046
-345.420	-65.859	0.276	-0.109
-344.406	97.237	-0.141	0.160
-343.391	-200.000	-0.033	0.249
-342.377	-82.415	-0.031	0.010
-341.362	800.000	0.029	0.094
-340.348	711.683	0.021	0.056
-339.333	-121.572	-0.018	-0.003
-338.318	289.405	-0.105	0.188
-337.304	-118.870	0.105	0.018
-336.289	167.661	-0.047	-0.065
-335.275	-111.598	-0.145	0.029
-334.260	-126.338	-0.208	0.031
-333.245	30.730	0.174	0.147
-332.231	175.990	0.054	-0.078
-331.216	533.490	0.104	-0.244
-330.202	114.639	-0.118	0.142
-329.187	-200.000	-0.018	-0.095
-328.172	8.242	0.058	-0.043
-327.158	159.660	0.108	-0.148
-326.143	-200.000	0.008	0.112
-325.129	243.255	0.113	-0.187
-324.114	31.325	0.295	0.250
-323.099	41.451	0.252	0.225
-322.085	-88.503	0.025	-0.007
-321.070	192.853	-0.040	0.060
-320.056	-200.000	0.033	-0.254
-319.041	-200.000	0.017	-0.243
-318.026	45.864	-0.215	0.196
-317.012	800.000	0.044	0.138
-315.997	32.651	-0.298	-0.254
-314.983	94.007	-0.030	-0.033
-313.968	270.987	-0.130	-0.226
-312.953	-200.000	0.021	-0.272
-311.939	-200.000	-0.069	-0.310
-310.924	-123.348	-0.200	-0.032
-309.910	-128.228	-0.148	-0.021
-308.895	-200.000	-0.061	0.306
-307.880	19.411	-0.311	0.246
-306.866	-23.955	0.252	-0.148
-305.851	251.197	0.222	0.372
-304.837	122.800	-0.093	0.115
-303.822	-40.262	0.281	-0.144
-302.807	234.290	0.055	-0.090
-301.793	800.000	-0.016	-0.043
-300.778	-139.860	0.242	-0.025
-299.764	-114.329	0.172	0.033
-298.749	-74.809	-0.048	-0.017
-297.735	-151.474	-0.402	-0.029
-296.720	2.597	-0.256	0.183
-295.705	36.113	-0.288	-0.250
-294.691	-10.858	-0.199	0.129
-293.676	80.779	0.159	0.169
-292.662	23.028	-0.172	-0.139
-291.647	206.107	-0.096	-0.147
-290.632	13.496	-0.318	-0.243
-289.618	375.851	0.097	-0.195
-288.603	-200.000	-0.011	-0.055
-287.589	64.082	-0.119	0.118
-286.574	800.000	0.049	0.136
-285.559	-42.354	-0.164	-0.083
-284.545	144.157	0.066	0.087
-283.530	-200.000	-0.008	0.211
-282.516	124.117	0.193	0.239
-281.501	-117.148	-0.100	-0.018
-280.486	-15.850	-0.139	0.087
-279.472	32.290	0.115	-0.098
-278.457	273.524	0.105	0.183
-277.443	9.339	-0.205	0.153
-276.428	-112.607	0.307	-0.060
-275.413	366.964	0.126	-0.250
-274.399	-82.129	0.309	-0.099
-273.384	289.379	-0.028	0.050
-272.370	-50.930	0.129	-0.060
-271.355	-200.000	-0.004	0.111
-270.340	169.052	0.073	-0.103
-269.326	-10.264	-0.163	-0.106
-268.311	279.219	0.123	-0.217
-267.297	800.000	0.065	0.206
-266.282	-41.525	0.040	0.020
-265.267	166.521	0.153	-0.214
-264.253	94.708	0.097	-0.109
-263.238	-29.008	-0.231	-0.130
-262.224	-194.254	-0.359	0.003
-261.209	-54.943	0.165	0.073
-260.195	800.000	0.088	-0.360
-259.180	-145.625	0.326	-0.029
-258.165	800.000	0.091	0.316
-257.151	31.276	0.091	-0.077
-256.136	-200.000	0.022	0.207
-255.122	-50.952	-0.062	-0.029
-254.107	55.955	-0.168	0.160
-253.092	-0.294	-0.388	-0.271
-252.078	455.290	0.043	-0.094
-251.063	181.575	-0.221	-0.320
-250.049	-119.517	0.204	0.035
-249.034	-99.999	-0.206	0.051
-248.019	-54.215	0.209	0.093
-247.005	-74.309	-0.043	0.015
-245.990	124.510	0.126	0.156
-244.976	-85.703	-0.281	-0.086
-243.961	3.870	-0.180	0.130
-242.946	475.913	-0.032	0.070
-241.932	800.000	-0.069	-0.198
-240.917	266.000	-0.069	0.118
-239.903	-92.675	-0.272	0.075
-238.888	362.056	0.041	-0.081
-237.873	-154.460	-0.256	-0.017
-236.859	-200.000	0.007	0.180
-235.844	-122.521	0.285	0.046
-234.830	-97.667	0.267	0.068
-233.815	87.571	-0.090	-0.098
-232.800	-159.125	0.071	-0.004
-231.786	53.348	-0.104	0.098
-230.771	19.102	-0.362	-0.286
-229.757	-175.303	0.162	-0.004
-228.742	-200.000	0.036	-0.422
-227.727	331.189	-0.058	0.109
-226.713	-93.547	-0.162	-0.044
-225.698	-121.639	0.134	-0.022
-224.684	-1.992	0.220	0.152
-223.669	425.015	0.146	0.308
-222.655	211.956	-0.117	-0.181
-221.640	138.375	-0.239	0.308
-220.625	-64.010	0.200	0.080
-219.611	-200.000	0.032	0.278
-218.596	-94.688	0.237	0.063
-217.582	149.650	0.268	0.356
-216.567	488.277	0.109	-0.245
-215.552	218.435	-0.175	0.275
-214.538	26.671	0.103	-0.085
-213.523	-17.356	0.194	-0.120
-212.509	32.168	0.150	-0.127
-211.494	114.402	-0.089	-0.107
-210.479	-176.710	-0.175	0.004
-209.465	-162.510	0.215	0.010
-208.450	-122.451	0.039	-0.006
-207.436	-157.061	-0.194	0.012
-206.421	333.578	-0.171	0.324
-205.406	-103.739	0.033	-0.008
-204.392	-200.000	0.038	-0.476
-203.377	-117.878	0.102	-0.018
-202.363	-25.080	-0.214	0.125
-201.348	523.217	0.087	0.200
-200.333	-43.301	-0.038	-0.019
-199.319	123.728	-0.240	0.296
-198.304	-65.819	-0.275	-0.108
-197.290	134.117	0.175	0.223
-196.275	-200.000	-0.018	0.379
-195.260	-49.509	0.211	0.099
-194.246	-200.000	0.015	0.367
-193.231	-91.191	-0.080	0.023
-192.217	73.531	0.213	0.219
-191.202	-161.648	0.161	-0.008
-190.187	-34.798	0.079	0.042
-189.173	-98.251	0.079	0.020
-188.158	-200.000	-0.001	-0.023
-187.144	-10.416	-0.075	-0.049
-186.129	-56.601	0.323	0.141
-185.114	800.000	-0.049	-0.187
-184.100	-138.773	-0.211	-0.023
-183.085	-93.397	-0.138	0.038
-182.071	18.785	0.211	0.166
-181.056	-20.668	-0.300	0.181
-180.042	63.904	-0.152	0.150
-179.027	121.105	0.049	0.060
-178.012	-98.307	0.243	0.061
-176.998	-61.278	-0.188	-0.077
-175.983	106.520	0.252	0.294
-174.969	-88.086	-0.324	0.095
-173.954	61.894	0.111	0.108
-172.939	463.896	0.095	0.208
-171.925	-32.834	-0.300	0.163
-170.910	-200.000	-0.022	0.299
-169.896	132.779	0.212	-0.268
-168.881	-103.151	-0.194	0.045
-167.866	302.526	0.116	0.210
-166.852	-89.182	0.223	-0.065
-165.837	-200.000	0.015	-0.260
-164.823	81.185	-0.135	-0.143
-163.808	-189.213	0.273	-0.003
-162.793	208.623	0.243	0.372
-161.779	126.262	0.199	0.247
-160.764	-166.764	-0.353	0.014
-159.750	32.839	0.222	-0.189
-158.735	265.501	0.175	-0.300
-157.720	-55.064	-0.192	-0.085
-156.706	800.000	0.072	-0.279
-155.691	-65.099	-0.270	-0.107
-154.677	-10.088	-0.146	-0.095
-153.662	-88.359	0.135	0.040
-152.647	550.955	0.124	0.292
-151.633	562.045	0.117	-0.276
-150.618	81.641	0.109	-0.115
-149.604	463.406	-0.012	0.026
-148.589	42.756	-0.234	0.209
-147.574	-108.733	0.329	0.069
-146.560	0.900	-0.226	-0.159
-145.545	194.520	-0.078	-0.116
-144.531	-128.085	0.224	0.031
-143.516	-162.553	0.118	-0.006
-142.502	-108.306	0.212	-0.045
-141.487	-200.000	-0.064	-0.470
-140.472	-98.466	0.121	-0.030
-139.458	74.683	0.112	0.115
-138.443	800.000	0.047	-0.146
-137.429	-85.618	0.074	-0.022
-136.414	-200.000	-0.032	0.216
-135.399	-200.000	-0.066	0.357
-134.385	212.734	-0.031	0.047
-133.370	126.713	0.127	0.158
-132.356	-200.000	-0.013	-0.270
-131.341	85.463	-0.137	0.148
-130.326	69.711	-0.159	-0.161
-129.312	-163.725	0.253	0.012
-128.297	65.791	-0.318	0.316
-127.283	211.362	-0.077	0.119
-126.268	508.237	-0.094	0.215
-125.253	30.785	-0.098	-0.082
-124.239	-200.000	-0.022	-0.104
-123.224	93.395	-0.166	0.184
-122.210	-133.773	0.287	0.035
-121.195	800.000	-0.070	-0.241
