DTS Sentinel unit serial number:	SN413079Multiplexer serial number:	ORYXHardware model number:	OX4-SRSoftware version number:	ORYX F/W v4.00 Oryx Data Collector v3.7.2.0data status	okinstallation	princeton_trtdifferential loss correction	single-endedforward channel	channel 3reverse channel	N/Adate	2019/09/14time	04:28:35forward acquisition time	60.00reverse acquisition time	0.00gamma	496.2192k internal	0.2338k external	0.2338temperature offset calibration	1.0056default loss term (dB/km)	0.3790temperature slope calibration	1.0000multiplexer offset coefficient	1.0000multiplexer slope coefficient	1.0000fibre end	0.00T internal ref (°C)	26.75T ext. ref 1 (°C)	3.35T ext. ref 2 (°C)	21.93length (m)	temperature (°C)	Stokes	anti-Stokes-747.200	545.897	0.122	-0.294
-746.185	-10.285	-0.216	0.144
-745.171	-159.203	-0.334	0.019
-744.156	-168.552	0.037	-0.001
-743.142	800.000	0.047	-0.177
-742.127	-123.540	-0.291	0.046
-741.112	-136.383	0.166	0.019
-740.098	47.768	-0.335	0.314
-739.083	-179.127	0.093	0.002
-738.069	-47.057	0.068	-0.033
-737.054	164.631	0.129	0.182
-736.039	-43.997	-0.399	-0.201
-735.025	-81.247	0.133	-0.044
-734.010	23.530	-0.278	-0.230
-732.996	550.287	-0.084	0.202
-731.981	488.029	0.069	0.159
-730.966	800.000	-0.106	-0.294
-729.952	800.000	-0.052	0.171
-728.937	-102.852	-0.206	0.049
-727.923	-113.035	0.173	-0.034
-726.908	-200.000	-0.021	-0.296
-725.894	-38.148	0.173	0.092
-724.879	192.217	0.076	-0.115
-723.864	-33.106	-0.195	-0.109
-722.850	800.000	0.043	-0.141
-721.835	-46.605	-0.144	-0.071
-720.821	236.988	0.090	0.149
-719.806	569.825	-0.094	-0.228
-718.791	304.456	-0.118	-0.219
-717.777	750.010	0.055	-0.148
-716.762	65.874	-0.106	0.108
-715.748	-200.000	-0.014	0.183
-714.733	-25.168	0.188	-0.111
-713.718	-170.016	-0.338	0.012
-712.704	-131.811	-0.370	0.049
-711.689	-200.000	-0.247	-0.001
-710.675	-50.836	-0.053	-0.025
-709.660	-200.000	-0.012	0.247
-708.645	69.328	-0.188	-0.194
-707.631	301.599	-0.145	0.268
-706.616	-98.672	0.302	0.077
-705.602	261.507	-0.056	-0.097
-704.587	-125.980	0.589	-0.089
-703.572	-116.264	-0.158	-0.029
-702.558	-176.811	0.141	0.004
-701.543	-162.777	-0.111	-0.005
-700.529	-140.311	0.107	-0.011
-699.514	-82.363	0.298	-0.097
-698.499	-200.000	0.006	-0.049
-697.485	-85.142	-0.156	-0.049
-696.470	28.641	0.078	0.066
-695.456	200.137	0.143	0.220
-694.441	-47.650	0.179	-0.087
-693.426	411.174	-0.115	-0.245
-692.412	66.986	-0.174	0.177
-691.397	-52.476	0.425	-0.197
-690.383	257.120	0.068	-0.117
-689.368	-5.919	-0.076	0.052
-688.354	-73.917	-0.327	0.119
-687.339	-60.710	0.187	-0.079
-686.324	800.000	-0.144	-0.455
-685.310	-98.523	0.273	0.070
-684.295	196.250	0.221	-0.336
-683.281	506.189	0.089	0.206
-682.266	511.691	0.090	-0.211
-681.251	-117.386	-0.140	0.025
-680.237	235.877	-0.043	-0.071
-679.222	-170.242	0.258	0.009
-678.208	800.000	0.060	-0.202
-677.193	92.466	0.133	0.150
-676.178	-29.725	-0.153	-0.087
-675.164	800.000	0.085	-0.281
-674.149	85.065	-0.083	0.091
-673.135	-200.000	0.013	-0.304
-672.120	-200.000	-0.027	-0.315
-671.105	-175.699	0.261	0.007
-670.091	-154.348	0.189	-0.013
-669.076	-77.114	0.064	0.022
-668.062	89.736	-0.116	0.130
-667.047	-92.629	-0.403	0.113
-666.032	-200.000	0.002	0.236
-665.018	-200.000	0.005	-0.240
-664.003	72.112	0.126	-0.132
-662.989	145.911	0.128	-0.172
-661.974	-35.693	-0.430	-0.233
-660.959	30.644	0.130	-0.111
-659.945	46.693	0.145	-0.135
-658.930	41.657	-0.106	-0.096
-657.916	14.560	0.395	0.309
-656.901	-40.149	0.112	0.058
-655.886	17.583	0.187	-0.148
-654.872	-172.733	0.026	0.001
-653.857	516.656	0.157	-0.367
-652.843	154.541	0.062	-0.085
-651.828	23.687	0.125	0.103
-650.814	45.108	0.134	-0.123
-649.799	-44.023	0.335	0.168
-648.784	-160.053	-0.290	0.016
-647.770	161.143	-0.162	-0.227
-646.755	-200.000	0.006	-0.094
-645.741	32.029	0.069	-0.060
-644.726	-200.000	0.003	-0.113
-643.711	3.786	0.128	-0.093
-642.697	-134.827	-0.411	-0.050
-641.682	245.045	0.134	-0.226
-640.668	137.354	0.010	-0.013
-639.653	800.000	0.013	0.042
-638.638	614.715	0.049	0.122
-637.624	-122.162	0.066	0.011
-636.609	8.099	-0.217	0.163
-635.595	-118.557	-0.101	-0.018
-634.580	75.930	-0.107	-0.113
-633.565	-33.629	0.056	-0.031
-632.551	171.413	-0.172	-0.247
-631.536	150.818	-0.216	0.294
-630.522	552.842	-0.044	0.105
-629.507	572.090	0.180	0.437
-628.492	-5.948	0.179	0.122
-627.478	636.956	-0.122	-0.310
-626.463	207.869	-0.116	-0.182
-625.449	-125.345	-0.360	-0.055
-624.434	-200.000	-0.038	0.193
-623.419	-113.142	-0.057	0.011
-622.405	-200.000	0.018	-0.154
-621.390	85.810	0.091	-0.100
-620.376	-98.975	0.137	0.035
-619.361	-54.756	-0.164	0.074
-618.346	-200.000	-0.024	0.235
-617.332	-135.664	0.293	-0.035
-616.317	795.542	-0.016	0.043
-615.303	112.034	-0.181	-0.218
-614.288	800.000	0.051	0.150
-613.273	-58.629	0.153	0.066
-612.259	-200.000	0.012	0.242
-611.244	-147.526	-0.359	0.030
-610.230	208.073	0.032	-0.050
-609.215	78.353	0.075	0.080
-608.201	-200.000	-0.021	-0.107
-607.186	-200.000	0.014	-0.270
-606.171	187.573	0.259	-0.386
-605.157	-5.962	-0.169	-0.115
-604.142	-28.695	-0.202	0.116
-603.128	-67.498	-0.185	-0.073
-602.113	-60.218	-0.232	-0.099
-601.098	800.000	-0.115	0.447
-600.084	79.751	0.099	0.107
-599.069	487.433	-0.052	-0.118
-598.055	-18.082	0.051	0.032
-597.040	-30.701	-0.284	-0.160
-596.025	-200.000	0.040	0.179
-595.011	-200.000	0.040	0.409
-593.996	186.246	0.138	0.205
-592.982	86.533	0.190	0.209
-591.967	215.934	0.064	0.102
-590.952	172.946	0.369	-0.530
-589.938	-33.416	0.294	0.162
-588.923	-141.656	0.173	-0.017
-587.909	98.748	-0.169	0.195
-586.894	-88.281	0.172	-0.051
-585.879	95.930	0.047	0.053
-584.865	83.837	0.177	-0.192
-583.850	135.663	0.054	0.070
-582.836	-104.994	0.176	0.040
-581.821	-43.855	-0.386	-0.194
-580.806	-200.000	0.029	-0.145
-579.792	-200.000	-0.005	-0.150
-578.777	-78.052	-0.253	-0.087
-577.763	504.898	0.080	0.184
-576.748	-200.000	-0.008	0.329
-575.733	41.750	0.117	0.106
-574.719	-200.000	0.088	-0.409
-573.704	800.000	0.055	0.198
-572.690	-35.071	0.284	-0.155
-571.675	111.130	0.202	0.242
-570.661	150.742	0.095	0.129
-569.646	-200.000	0.002	0.092
-568.631	800.000	0.053	0.155
-567.617	-200.000	-0.017	0.395
-566.602	-43.142	-0.081	-0.041
-565.588	85.609	0.111	-0.121
-564.573	-141.894	0.097	-0.010
-563.558	800.000	-0.047	-0.162
-562.544	579.942	0.028	-0.067
-561.529	-200.000	0.024	0.321
-560.515	800.000	-0.046	0.132
-559.500	-124.885	-0.208	0.032
-558.485	-143.947	0.182	0.017
-557.471	471.372	-0.048	0.107
-556.456	-68.427	-0.223	-0.086
-555.442	-49.786	0.285	0.135
-554.427	116.034	0.152	0.185
-553.412	68.280	-0.073	0.074
-552.398	45.960	-0.198	-0.182
-551.383	-133.176	-0.353	-0.044
-550.369	42.232	-0.124	-0.112
-549.354	266.517	-0.165	0.286
-548.339	185.770	-0.124	-0.183
-547.325	-36.187	0.211	0.113
-546.310	-58.696	0.294	-0.127
-545.296	546.936	-0.116	-0.276
-544.281	-169.094	0.237	0.009
-543.266	322.288	-0.092	-0.174
-542.252	563.545	0.081	-0.195
-541.237	-200.000	0.029	-0.231
-540.223	-200.000	0.057	0.284
-539.208	-25.317	0.113	-0.067
-538.193	23.385	0.060	-0.049
-537.179	-13.546	-0.277	-0.178
-536.164	-97.878	0.073	-0.019
-535.150	12.333	-0.326	-0.250
-534.135	115.422	0.191	-0.232
-533.121	800.000	0.086	0.342
-532.106	-104.224	0.096	-0.022
-531.091	2.420	-0.081	-0.058
-530.077	-200.000	-0.008	-0.220
-529.062	-0.343	-0.391	0.276
-528.048	304.559	0.080	-0.147
-527.033	-200.000	0.029	-0.176
-526.018	-200.000	-0.016	-0.198
-525.004	800.000	0.070	-0.291
-523.989	-47.482	-0.323	-0.156
-522.975	-200.000	0.019	0.249
-521.960	-56.963	-0.432	0.190
-520.945	29.368	0.175	-0.148
-519.931	509.705	0.044	-0.101
-518.916	-132.742	0.047	-0.006
-517.902	800.000	-0.055	-0.158
-516.887	180.883	0.096	0.140
-515.872	-32.401	0.328	0.182
-514.858	-124.529	-0.020	0.003
-513.843	358.875	-0.117	-0.232
-512.829	-113.378	-0.043	-0.008
-511.814	800.000	0.056	-0.217
-510.799	-16.378	0.416	-0.262
-509.785	553.831	0.114	-0.274
-508.770	64.547	-0.062	-0.062
-507.756	-17.325	0.195	-0.122
-506.741	-153.827	0.321	-0.022
-505.726	800.000	0.040	0.150
-504.712	-67.962	-0.364	0.141
-503.697	61.907	-0.213	-0.211
-502.683	800.000	-0.064	0.210
-501.668	800.000	-0.028	0.099
-500.653	32.725	-0.229	-0.197
-499.639	175.138	-0.211	-0.304
-498.624	58.369	-0.095	-0.092
-497.610	767.355	-0.095	0.257
-496.595	475.313	0.075	-0.169
-495.581	-75.849	0.321	0.113
-494.566	-200.000	-0.010	0.056
-493.551	-32.580	-0.024	-0.013
-492.537	70.745	0.120	0.123
-491.522	51.820	0.315	0.298
-490.508	800.000	0.061	-0.199
-489.493	-39.881	0.163	-0.084
-488.478	630.153	0.076	-0.192
-487.464	-95.815	-0.283	-0.075
-486.449	9.317	0.236	-0.177
-485.435	-200.000	-0.014	-0.103
-484.420	-160.841	0.148	0.008
-483.405	242.619	0.035	0.059
-482.391	800.000	0.030	0.095
-481.376	54.069	0.081	0.077
-480.362	-41.621	0.011	0.006
-479.347	39.505	-0.144	-0.128
-478.332	260.325	-0.036	-0.063
-477.318	95.116	0.067	0.076
-476.303	-102.599	-0.048	0.011
-475.289	727.860	-0.072	-0.190
-474.274	-200.000	-0.004	0.201
-473.259	-127.514	-0.333	0.048
-472.245	-73.205	0.169	0.062
-471.230	-35.822	-0.099	-0.053
-470.216	-175.292	0.177	-0.005
-469.201	-153.544	-0.313	0.022
-468.186	-158.061	0.146	0.009
-467.172	-80.189	0.374	0.124
-466.157	186.284	0.040	-0.059
-465.143	-171.947	0.206	-0.007
-464.128	800.000	-0.039	0.120
-463.113	-78.441	0.196	0.067
-462.099	108.598	0.146	0.174
-461.084	-44.659	-0.174	0.086
-460.070	800.000	0.029	0.084
-459.055	139.871	-0.235	0.307
-458.040	800.000	0.086	-0.290
-457.026	147.905	-0.127	-0.169
-456.011	125.601	0.138	-0.173
-454.997	269.159	-0.129	-0.225
-453.982	150.866	0.107	0.144
-452.968	387.968	0.093	-0.190
-451.953	273.646	-0.117	0.205
-450.938	165.016	-0.106	-0.149
-449.924	-146.130	-0.411	-0.036
-448.909	649.349	0.033	-0.083
-447.895	-77.477	-0.036	-0.013
-446.880	800.000	0.078	-0.218
-445.865	-175.136	0.116	0.003
-444.851	-134.221	-0.158	-0.019
-443.836	-135.024	-0.389	-0.046
-442.822	0.505	0.148	0.105
-441.807	-110.205	-0.149	0.031
-440.792	-172.614	-0.162	0.005
-439.778	-190.279	0.238	0.003
-438.763	-101.277	0.072	0.017
-437.749	125.522	-0.114	-0.142
-436.734	-144.915	-0.172	0.016
-435.719	-93.007	0.488	0.135
-434.705	1.758	0.204	0.146
-433.690	305.226	-0.160	0.295
-432.676	81.478	0.335	0.359
-431.661	-97.805	-0.202	-0.052
-430.646	-168.092	0.304	0.012
-429.632	498.813	0.042	-0.095
-428.617	-200.000	-0.038	0.169
-427.603	-200.000	0.049	-0.231
-426.588	-113.145	0.149	-0.029
-425.573	-200.000	-0.023	-0.159
-424.559	19.983	0.205	0.164
-423.544	-200.000	0.025	0.217
-422.530	53.431	0.213	-0.203
-421.515	-136.629	0.076	0.009
-420.500	-2.271	0.181	-0.126
-419.486	169.097	0.185	-0.262
-418.471	-116.462	-0.283	-0.052
-417.457	-200.000	0.006	-0.372
-416.442	-200.000	-0.016	-0.170
-415.428	-101.048	-0.388	0.094
-414.413	327.748	0.040	0.077
-413.398	78.530	-0.126	0.134
-412.384	4.691	-0.281	-0.204
-411.369	27.808	0.219	0.182
-410.355	-200.000	0.049	0.357
-409.340	10.837	-0.255	-0.193
-408.325	-200.000	-0.059	0.259
-407.311	162.684	-0.112	0.156
-406.296	-115.080	-0.330	0.062
-405.282	643.210	0.119	0.299
-404.267	103.306	0.035	-0.041
-403.252	-94.278	0.013	0.004
-402.238	64.252	-0.119	-0.119
-401.223	102.312	0.091	-0.105
-400.209	166.882	-0.175	-0.246
-399.194	717.419	-0.028	-0.075
-398.179	-21.003	0.292	0.177
-397.165	-119.141	-0.379	-0.065
-396.150	-200.000	-0.022	0.210
-395.136	800.000	-0.060	-0.239
-394.121	-110.928	-0.199	-0.040
-393.106	115.328	-0.226	-0.274
-392.092	-36.869	-0.149	-0.079
-391.077	26.281	0.285	0.236
-390.063	-200.000	0.067	-0.471
-389.048	-200.000	-0.002	-0.110
-388.033	572.904	-0.043	0.104
-387.019	-200.000	0.076	0.336
-386.004	-140.985	-0.212	-0.021
-384.990	-111.847	0.245	0.049
-383.975	276.036	-0.198	0.348
-382.960	-200.000	-0.015	-0.173
-381.946	102.041	0.226	-0.261
-380.931	-67.160	0.236	-0.092
-379.917	96.989	0.104	0.118
-378.902	-175.005	-0.277	0.008
-377.888	-127.002	0.155	0.023
-376.873	-108.697	0.236	-0.050
-375.858	-62.070	0.179	-0.074
-374.844	-25.428	-0.012	-0.007
-373.829	-40.483	0.088	-0.045
-372.815	259.692	-0.052	0.088
-371.800	-200.000	-0.013	0.112
-370.785	34.405	-0.210	0.182
-369.771	-106.336	0.277	-0.061
-368.756	-16.943	0.124	-0.077
-367.742	800.000	0.067	0.237
-366.727	54.953	-0.112	-0.107
-365.712	-112.688	0.240	0.047
-364.698	41.788	0.274	-0.246
-363.683	192.070	-0.025	0.037
-362.669	800.000	-0.088	-0.342
-361.654	-16.012	-0.128	0.080
-360.639	800.000	0.020	-0.085
-359.625	73.288	0.159	0.164
-358.610	800.000	-0.052	0.154
-357.596	800.000	0.149	0.427
-356.581	-200.000	0.031	0.416
-355.566	-39.944	-0.211	0.109
-354.552	800.000	0.103	-0.407
-353.537	-109.394	-0.362	0.076
-352.523	-200.000	-0.014	0.309
-351.508	-42.403	0.291	-0.147
-350.493	391.203	0.099	-0.204
-349.479	8.070	0.098	0.073
-348.464	35.305	-0.179	0.155
-347.450	-200.000	-0.021	-0.144
-346.435	184.577	0.069	-0.101
-345.420	-200.000	-0.065	0.288
-344.406	170.809	0.059	0.084
-343.391	800.000	0.029	0.086
-342.377	800.000	-0.068	-0.200
-341.362	286.989	0.034	0.062
-340.348	103.492	0.125	-0.145
-339.333	82.740	-0.264	0.284
-338.318	-200.000	-0.026	-0.210
-337.304	-111.643	0.138	-0.028
-336.289	800.000	-0.099	0.368
-335.275	-12.024	0.059	-0.038
-334.260	311.470	-0.252	-0.466
-333.245	310.239	-0.029	-0.054
-332.231	40.445	-0.233	0.207
-331.216	-125.310	-0.171	0.026
-330.202	-134.116	0.238	-0.029
-329.187	-158.085	0.305	0.018
-328.172	769.825	0.091	-0.245
-327.158	-200.000	0.035	0.437
-326.143	800.000	0.091	0.381
-325.129	800.000	0.086	-0.242
-324.114	-200.000	-0.012	0.162
-323.099	-200.000	0.010	-0.045
-322.085	-25.138	-0.234	0.137
-321.070	190.718	0.122	0.181
-320.056	1.596	0.100	-0.071
-319.041	800.000	0.035	-0.120
-318.026	-60.988	0.330	0.138
-317.012	-65.197	-0.252	0.100
-315.997	-200.000	0.002	-0.094
-314.983	416.858	-0.035	-0.074
-313.968	-200.000	-0.003	0.387
-312.953	18.013	-0.209	-0.164
-311.939	-22.268	0.241	-0.144
-310.924	-73.291	-0.341	0.123
-309.910	-117.673	-0.234	-0.042
-308.895	800.000	0.116	0.366
-307.880	676.691	0.010	-0.026
-306.866	-164.872	-0.366	0.016
-305.851	-6.547	0.227	0.153
-304.837	334.386	-0.149	0.285
-303.822	-188.780	0.313	0.004
-302.807	-164.611	-0.342	0.015
-301.793	30.502	0.165	-0.139
-300.778	-81.177	-0.137	-0.045
-299.764	96.982	-0.245	-0.277
-298.749	800.000	0.115	-0.395
-297.735	63.443	0.055	0.054
-296.720	46.397	0.205	0.188
-295.705	800.000	0.023	-0.072
-294.691	237.212	0.101	0.165
-293.676	288.076	-0.058	0.104
-292.662	234.252	-0.192	-0.313
-291.647	202.730	-0.135	0.206
-290.632	147.505	0.159	-0.211
-289.618	72.482	-0.074	-0.076
-288.603	-200.000	0.050	0.273
-287.589	85.159	-0.104	-0.112
-286.574	-200.000	0.004	-0.155
-285.559	35.754	0.210	-0.182
-284.545	-200.000	0.004	0.021
-283.530	417.978	-0.061	-0.128
-282.516	600.691	-0.027	-0.067
-281.501	-38.658	0.265	0.138
-280.486	-92.555	0.015	0.004
-279.472	800.000	0.118	0.470
-278.457	-96.181	-0.091	-0.024
-277.443	-200.000	-0.029	0.166
-276.428	49.546	-0.069	-0.064
-275.413	81.940	0.201	-0.214
-274.399	234.847	-0.083	-0.135
-273.384	-149.319	0.095	-0.007
-272.370	216.970	-0.214	0.335
-271.355	-200.000	0.008	-0.130
-270.340	-101.114	0.110	-0.027
-269.326	-200.000	-0.017	-0.162
-268.311	-14.857	-0.192	0.121
-267.297	-200.000	-0.055	0.289
-266.282	-94.356	-0.512	-0.138
-265.267	-136.237	0.328	0.038
-264.253	-69.525	-0.072	-0.027
-263.238	-200.000	-0.005	-0.424
-262.224	104.777	-0.212	-0.246
-261.209	117.538	-0.224	-0.271
-260.195	-132.775	-0.449	-0.056
-259.180	-104.077	0.433	0.099
-258.165	-126.192	0.076	0.011
-257.151	19.970	0.111	0.088
-256.136	13.054	-0.216	0.164
-255.122	-200.000	0.005	-0.111
-254.107	-119.863	-0.045	-0.008
-253.092	-91.440	-0.405	-0.114
-252.078	620.189	0.054	-0.133
-251.063	144.794	-0.013	0.017
-250.049	800.000	0.072	-0.300
-249.034	499.557	-0.115	-0.261
-248.019	-164.564	0.129	-0.006
-247.005	-60.496	0.328	-0.137
-245.990	288.357	-0.056	-0.101
-244.976	73.959	0.060	-0.062
-243.961	119.380	0.056	-0.068
-242.946	800.000	-0.051	0.138
-241.932	-23.093	-0.266	0.157
-240.917	369.962	0.073	-0.145
-239.903	800.000	0.087	0.268
-238.888	-200.000	0.073	0.327
-237.873	392.775	-0.023	0.048
-236.859	-91.892	-0.576	0.161
-235.844	485.120	0.034	0.076
-234.830	1.049	-0.091	-0.064
-233.815	800.000	0.035	0.135
-232.800	-52.324	-0.154	-0.070
-231.786	492.303	0.033	-0.073
-230.771	-78.958	-0.354	0.118
-229.757	373.476	-0.075	0.150
-228.742	800.000	0.025	0.080
-227.727	-95.696	0.197	-0.052
-226.713	-149.950	-0.152	0.012
-225.698	800.000	-0.008	-0.029
-224.684	230.167	-0.115	-0.184
-223.669	421.951	-0.045	0.095
-222.655	-151.033	-0.382	-0.028
-221.640	-101.869	0.245	0.058
-220.625	-112.017	0.276	-0.055
-219.611	381.193	-0.034	-0.068
-218.596	-200.000	-0.034	-0.285
-217.582	104.164	0.224	0.260
-216.567	-101.748	0.096	0.023
-215.552	14.501	0.098	-0.075
-214.538	-67.439	-0.033	-0.013
-213.523	-14.674	-0.150	0.095
-212.509	-200.000	0.064	-0.287
-211.494	29.704	0.156	0.130
-210.479	11.318	-0.240	0.180
-209.465	15.386	0.043	0.033
-208.450	430.617	0.033	-0.071
-207.436	-82.990	-0.280	-0.089
-206.421	-200.000	0.029	-0.185
-205.406	-117.904	0.287	0.051
-204.392	-200.000	0.028	-0.153
-203.377	-114.565	0.194	-0.037
-202.363	-49.933	-0.063	0.029
-201.348	41.794	0.178	0.159
-200.333	223.170	0.193	0.306
-199.319	115.575	-0.127	-0.153
-198.304	-178.896	-0.317	-0.007
-197.290	800.000	-0.104	-0.441
-196.275	137.604	0.200	-0.258
-195.260	83.727	-0.101	0.108
-194.246	180.932	-0.057	-0.082
-193.231	122.643	0.191	0.234
-192.217	-14.464	-0.094	0.059
-191.202	-88.847	0.297	0.087
-190.187	-8.707	-0.086	-0.057
-189.173	-153.560	0.212	-0.014
-188.158	-49.495	-0.117	0.055
-187.144	54.937	0.127	0.120
-186.129	800.000	0.065	0.264
-185.114	800.000	0.066	-0.266
-184.100	-200.000	-0.011	0.128
-183.085	468.067	0.065	0.144
-182.071	-50.314	0.120	-0.056
-181.056	-63.758	-0.022	-0.009
-180.042	243.509	0.011	-0.019
-179.027	151.398	0.191	0.255
-178.012	-109.432	0.102	-0.021
-176.998	-124.652	-0.157	-0.024
-175.983	800.000	-0.023	0.094
-174.969	228.579	0.113	-0.181
-173.954	800.000	0.127	0.365
-172.939	-143.147	-0.187	0.018
-171.925	22.534	0.102	0.082
-170.910	-52.442	0.105	0.048
-169.896	-93.340	0.230	0.063
-168.881	-90.930	-0.271	-0.077
-167.866	357.165	0.090	-0.176
-166.852	-79.420	0.277	0.092
-165.837	-77.524	0.332	0.113
-164.823	-200.000	-0.022	0.179
-163.808	-148.180	-0.118	0.010
-162.793	69.921	0.079	-0.080
-161.779	69.252	-0.165	0.166
-160.764	159.564	-0.269	-0.368
-159.750	526.394	0.094	-0.218
-158.735	190.995	-0.220	0.325
-157.720	-74.486	-0.076	0.027
-156.706	800.000	-0.036	0.144
-155.691	-111.740	0.043	0.009
-154.677	-41.299	-0.293	-0.148
-153.662	-188.495	0.164	-0.002
-152.647	108.052	0.194	0.226
-151.633	-37.300	-0.248	-0.130
-150.618	-108.507	0.317	0.067
-149.604	-200.000	-0.009	0.519
-148.589	-23.287	0.154	0.091
-147.574	191.593	0.017	-0.025
-146.560	202.041	-0.085	-0.129
-145.545	241.933	-0.103	0.168
-144.531	154.298	0.039	-0.052
-143.516	-200.000	-0.021	-0.114
-142.502	43.966	-0.161	-0.145
-141.487	-88.102	0.196	0.058
-140.472	800.000	-0.089	-0.320
-139.458	202.817	-0.108	0.164
-138.443	-200.000	0.002	0.204
-137.429	446.657	-0.070	-0.151
-136.414	-188.550	0.206	-0.003
-135.399	-114.238	0.109	-0.021
-134.385	800.000	-0.073	-0.289
-133.370	-46.683	0.371	-0.178
-132.356	-53.256	-0.347	0.156
-131.341	18.934	0.192	-0.151
-130.326	-136.594	-0.228	0.026
-129.312	-200.000	0.010	-0.154
-128.297	-145.682	0.168	0.015
-127.283	382.311	-0.184	-0.370
-126.268	307.835	0.074	-0.135
-125.253	449.720	-0.062	-0.135
-124.239	-71.836	0.279	-0.102
-123.224	-39.561	-0.325	0.166
-122.210	-200.000	-0.033	0.269
-121.195	-4.942	-0.145	0.098
