DTS Sentinel unit serial number:	SN413079Multiplexer serial number:	ORYXHardware model number:	OX4-SRSoftware version number:	ORYX F/W v4.00 Oryx Data Collector v3.7.2.0data status	okinstallation	princeton_trtdifferential loss correction	single-endedforward channel	channel 3reverse channel	N/Adate	2019/09/16time	07:20:34forward acquisition time	60.00reverse acquisition time	0.00gamma	496.2192k internal	0.2334k external	0.2334temperature offset calibration	0.9952default loss term (dB/km)	0.3790temperature slope calibration	1.0000multiplexer offset coefficient	1.0000multiplexer slope coefficient	1.0000fibre end	0.00T internal ref (°C)	27.44T ext. ref 1 (°C)	11.58T ext. ref 2 (°C)	22.78length (m)	temperature (°C)	Stokes	anti-Stokes-747.200	-89.138	0.107	-0.032
-746.185	0.181	0.267	0.191
-745.171	-200.000	0.018	-0.107
-744.156	-48.428	-0.225	0.109
-743.142	-116.795	0.177	0.033
-742.127	800.000	-0.076	0.257
-741.112	42.503	0.330	-0.301
-740.098	-200.000	-0.052	0.233
-739.083	-48.114	0.168	0.082
-738.069	-74.705	-0.128	0.046
-737.054	-200.000	-0.050	0.218
-736.039	49.309	-0.066	0.062
-735.025	-38.239	-0.167	0.089
-734.010	800.000	-0.040	0.129
-732.996	-118.986	-0.336	-0.059
-731.981	800.000	-0.084	0.323
-730.966	-34.052	0.471	0.260
-729.952	575.260	0.066	-0.162
-728.937	-10.494	-0.402	-0.268
-727.923	-68.998	-0.111	0.043
-726.908	100.339	0.075	-0.087
-725.894	5.731	-0.052	-0.039
-724.879	-56.245	-0.307	-0.137
-723.864	198.115	0.077	-0.118
-722.850	-200.000	-0.039	0.247
-721.835	800.000	-0.071	0.229
-720.821	-19.163	-0.350	-0.218
-719.806	739.030	-0.048	0.129
-718.791	144.755	0.091	-0.122
-717.777	237.892	-0.107	-0.178
-716.762	36.301	0.090	-0.080
-715.748	800.000	-0.096	-0.423
-714.733	-200.000	-0.029	0.162
-713.718	205.395	0.251	-0.392
-712.704	-200.000	0.081	0.389
-711.689	-54.489	-0.079	-0.036
-710.675	79.043	-0.138	-0.148
-709.660	-120.365	0.277	0.047
-708.645	612.777	-0.056	-0.140
-707.631	-200.000	-0.074	0.339
-706.616	101.897	0.149	-0.175
-705.602	-76.190	-0.362	-0.128
-704.587	3.868	0.135	0.099
-703.572	-101.806	0.352	-0.085
-702.558	-200.000	-0.012	0.196
-701.543	800.000	0.019	0.081
-700.529	36.096	0.243	-0.215
-699.514	-200.000	0.171	-0.000
-698.499	-200.000	0.000	-0.250
-697.485	-83.911	0.316	-0.101
-696.470	179.301	-0.075	-0.111
-695.456	-16.784	-0.341	0.216
-694.441	-43.136	-0.082	-0.042
-693.426	-99.632	0.243	-0.061
-692.412	126.520	0.159	-0.202
-691.397	72.769	-0.011	0.012
-690.383	692.899	0.104	-0.275
-689.368	354.856	0.026	-0.051
-688.354	-24.132	-0.246	0.148
-687.339	800.000	-0.037	0.162
-686.324	202.835	-0.072	0.111
-685.310	192.808	0.123	0.186
-684.295	51.115	0.275	-0.262
-683.281	-200.000	0.008	-0.113
-682.266	-200.000	-0.003	-0.047
-681.251	-114.108	-0.278	-0.054
-680.237	407.296	-0.060	0.127
-679.222	19.695	-0.172	-0.139
-678.208	800.000	-0.092	0.271
-677.193	23.321	-0.197	0.163
-676.178	276.281	0.213	0.379
-675.164	-200.000	0.005	-0.158
-674.149	800.000	0.061	-0.246
-673.135	-42.190	-0.052	-0.026
-672.120	-142.047	-0.169	-0.017
-671.105	77.828	-0.029	0.031
-670.091	430.711	-0.060	0.131
-669.076	-0.167	0.042	-0.030
-668.062	-126.795	0.423	-0.063
-667.047	-200.000	-0.010	0.071
-666.032	-49.652	-0.181	0.086
-665.018	12.804	-0.162	-0.125
-664.003	-108.343	0.156	-0.034
-662.989	-61.534	-0.044	-0.019
-661.974	143.366	-0.183	-0.243
-660.959	-200.000	-0.047	-0.293
-659.945	-200.000	0.019	0.390
-658.930	-11.487	0.222	0.146
-657.916	-121.024	-0.071	0.012
-656.901	-143.073	0.124	-0.012
-655.886	-106.522	-0.299	-0.067
-654.872	-200.000	-0.032	-0.264
-653.857	707.327	-0.051	0.136
-652.843	696.071	0.039	-0.103
-651.828	48.984	-0.155	0.146
-650.814	161.577	0.034	-0.048
-649.799	423.396	-0.086	-0.184
-648.784	48.263	0.121	0.114
-647.770	-99.036	-0.649	0.165
-646.755	-200.000	-0.026	0.312
-645.741	406.075	-0.083	0.174
-644.726	-200.000	-0.035	0.452
-643.711	84.327	-0.097	0.106
-642.697	-200.000	-0.028	-0.268
-641.682	483.969	-0.038	-0.087
-640.668	800.000	0.102	-0.315
-639.653	-130.626	0.174	0.024
-638.638	-122.494	-0.352	-0.057
-637.624	507.886	-0.090	-0.210
-636.609	-200.000	0.045	0.478
-635.595	-200.000	-0.008	0.129
-634.580	143.272	-0.099	0.132
-633.565	-200.000	0.050	-0.277
-632.551	90.641	0.069	-0.078
-631.536	200.460	-0.089	-0.137
-630.522	800.000	-0.049	0.204
-629.507	64.695	-0.010	-0.010
-628.492	-171.433	-0.231	-0.008
-627.478	-200.000	0.057	0.294
-626.463	-161.287	-0.163	0.008
-625.449	-50.685	0.221	0.104
-624.434	-126.752	0.164	0.024
-623.419	83.146	0.174	-0.190
-622.405	-60.302	0.600	-0.255
-621.390	173.972	-0.200	-0.289
-620.376	-75.215	0.121	0.043
-619.361	249.466	0.040	0.068
-618.346	-77.893	0.299	0.103
-617.332	-110.790	0.253	-0.052
-616.317	500.701	-0.118	-0.273
-615.303	800.000	-0.021	-0.073
-614.288	-178.782	-0.156	-0.004
-613.273	-69.591	0.292	-0.112
-612.259	115.704	0.111	-0.136
-611.244	-200.000	0.030	0.194
-610.230	6.591	-0.163	-0.121
-609.215	-104.177	0.088	0.021
-608.201	37.714	-0.207	-0.183
-607.186	76.703	-0.166	-0.176
-606.171	377.477	0.100	-0.204
-605.157	90.368	-0.207	-0.232
-604.142	-124.764	0.397	-0.061
-603.128	23.957	0.175	-0.145
-602.113	146.660	-0.077	0.103
-601.098	-200.000	0.030	0.277
-600.084	317.971	-0.187	-0.354
-599.069	208.913	-0.118	-0.185
-598.055	-200.000	0.018	-0.089
-597.040	-48.145	-0.216	0.104
-596.025	59.339	0.024	0.024
-595.011	-87.889	-0.261	-0.078
-593.996	183.041	0.194	0.286
-592.982	23.175	-0.048	-0.040
-591.967	-25.866	-0.185	0.109
-590.952	800.000	0.092	0.263
-589.938	-200.000	-0.081	-0.524
-588.923	-89.463	-0.424	-0.124
-587.909	151.690	-0.167	0.227
-586.894	14.352	0.102	-0.080
-585.879	-79.086	-0.218	-0.074
-584.865	-17.941	-0.064	0.040
-583.850	-50.488	0.068	-0.032
-582.836	-62.159	-0.196	-0.082
-581.821	-29.597	0.249	0.142
-580.806	-187.498	0.184	0.002
-579.792	68.804	-0.180	-0.184
-578.777	5.865	-0.099	0.073
-577.763	-20.006	-0.229	-0.141
-576.748	-9.612	0.240	-0.160
-575.733	74.399	-0.227	0.238
-574.719	-200.000	0.007	0.146
-573.704	-125.449	-0.321	-0.049
-572.690	180.730	0.195	-0.286
-571.675	267.939	-0.142	0.248
-570.661	-198.451	0.144	0.001
-569.646	-126.239	-0.101	-0.015
-568.631	244.739	-0.163	0.273
-567.617	121.703	0.081	0.101
-566.602	-200.000	-0.061	0.462
-565.588	76.473	-0.068	0.072
-564.573	464.977	-0.037	-0.084
-563.558	800.000	-0.041	-0.167
-562.544	-200.000	-0.007	-0.086
-561.529	-188.358	0.224	0.003
-560.515	-84.244	-0.171	-0.054
-559.500	137.772	0.202	-0.264
-558.485	-158.960	-0.122	0.007
-557.471	62.299	-0.126	-0.125
-556.456	783.082	-0.022	0.059
-555.442	513.211	0.030	-0.070
-554.427	54.071	-0.199	-0.191
-553.412	357.121	-0.013	-0.026
-552.398	598.235	0.066	0.163
-551.383	800.000	-0.066	-0.210
-550.369	11.840	0.280	0.215
-549.354	66.181	-0.101	-0.102
-548.339	-158.008	-0.085	0.005
-547.325	63.092	0.228	0.228
-546.310	-153.733	-0.155	0.011
-545.296	376.900	-0.190	0.387
-544.281	-91.694	-0.034	-0.010
-543.266	174.441	-0.211	0.305
-542.252	-200.000	0.004	-0.052
-541.237	295.251	0.166	-0.303
-540.223	31.747	-0.051	-0.043
-539.208	-133.732	0.019	0.002
-538.193	85.767	0.287	-0.315
-537.179	1.600	0.121	-0.087
-536.164	800.000	0.082	-0.299
-535.150	-76.079	0.251	0.088
-534.135	40.468	0.376	-0.338
-533.121	429.476	0.085	-0.183
-532.106	800.000	0.020	-0.058
-531.091	-27.269	-0.201	-0.116
-530.077	63.064	-0.272	0.271
-529.062	-121.830	0.371	-0.061
-528.048	-72.729	-0.184	0.067
-527.033	-21.125	0.363	-0.221
-526.018	-46.095	0.148	-0.073
-525.004	-200.000	-0.033	-0.296
-523.989	85.987	-0.135	-0.148
-522.975	276.377	0.040	0.071
-521.960	82.194	0.299	0.324
-520.945	133.824	-0.114	-0.148
-519.931	15.822	-0.086	0.067
-518.916	76.877	-0.292	0.309
-517.902	-95.025	0.163	-0.044
-516.887	43.894	0.089	0.081
-515.872	-200.000	-0.001	0.260
-514.858	-144.017	-0.241	0.023
-513.843	-200.000	0.034	-0.321
-512.829	-200.000	-0.030	0.320
-511.814	-59.669	-0.175	-0.075
-510.799	588.425	-0.048	-0.118
-509.785	-200.000	-0.017	-0.125
-508.770	800.000	-0.062	0.182
-507.756	48.553	0.092	-0.086
-506.741	-200.000	-0.011	-0.072
-505.726	285.568	0.213	0.383
-504.712	180.699	-0.155	-0.226
-503.697	-107.115	-0.171	-0.038
-502.683	256.657	-0.051	-0.087
-501.668	306.771	0.212	-0.393
-500.653	800.000	-0.068	0.229
-499.639	137.651	-0.081	0.105
-498.624	-200.000	-0.035	0.180
-497.610	800.000	-0.078	-0.240
-496.595	-95.800	-0.321	-0.085
-495.581	132.376	-0.215	0.276
-494.566	-101.163	-0.449	-0.109
-493.551	-13.354	0.198	0.128
-492.537	-116.218	-0.109	0.020
-491.522	480.527	0.183	-0.414
-490.508	-77.821	-0.226	-0.078
-489.493	418.644	0.140	0.299
-488.478	411.477	0.050	0.106
-487.464	-120.144	-0.058	0.010
-486.449	-31.530	-0.212	0.119
-485.435	-131.675	-0.044	0.006
-484.420	118.051	0.097	0.119
-483.405	-114.271	0.439	0.084
-482.391	-200.000	0.004	0.083
-481.376	-200.000	-0.007	-0.334
-480.362	677.765	-0.055	-0.143
-479.347	-93.081	-0.386	0.107
-478.332	-200.000	0.046	-0.343
-477.318	-200.000	0.051	0.301
-476.303	238.671	-0.083	-0.138
-475.289	-200.000	0.005	-0.376
-474.274	-180.856	0.346	0.007
-473.259	27.967	0.273	-0.229
-472.245	-126.737	-0.049	-0.007
-471.230	-200.000	0.014	-0.348
-470.216	-200.000	0.011	0.077
-469.201	-200.000	-0.019	-0.110
-468.186	-34.566	0.205	-0.112
-467.172	-8.480	-0.129	0.086
-466.157	-31.712	0.162	-0.090
-465.143	-149.050	-0.339	-0.027
-464.128	61.248	-0.150	0.149
-463.113	-62.128	0.255	-0.106
-462.099	-114.436	-0.172	0.033
-461.084	63.909	0.119	0.119
-460.070	-1.104	0.119	-0.084
-459.055	-181.164	-0.409	0.008
-458.040	-74.679	-0.100	0.036
-457.026	-5.568	0.090	0.061
-456.011	-200.000	-0.069	-0.314
-454.997	731.558	-0.120	0.320
-453.982	-33.020	0.084	-0.047
-452.968	-200.000	0.007	-0.174
-451.953	-200.000	-0.012	-0.350
-450.938	752.720	-0.108	0.291
-449.924	-200.000	0.041	-0.309
-448.909	37.023	0.246	0.216
-447.895	-90.172	0.352	-0.102
-446.880	-101.674	-0.155	0.037
-445.865	168.819	0.126	-0.179
-444.851	13.643	0.146	-0.112
-443.836	-91.326	0.254	0.072
-442.822	-20.775	-0.096	-0.058
-441.807	800.000	-0.028	0.109
-440.792	48.783	0.236	0.220
-439.778	-124.580	-0.102	-0.016
-438.763	-49.897	0.166	0.078
-437.749	-200.000	-0.070	0.454
-436.734	642.522	0.080	0.202
-435.719	668.343	0.011	0.029
-434.705	12.194	-0.290	0.221
-433.690	-85.117	0.341	-0.106
-432.676	312.719	0.119	0.221
-431.661	151.938	0.210	0.284
-430.646	-123.604	-0.431	0.068
-429.632	-98.201	0.289	-0.074
-428.617	106.176	-0.157	0.185
-427.603	-200.000	0.006	-0.085
-426.588	-200.000	-0.025	-0.241
-425.573	-86.271	-0.040	0.012
-424.559	173.161	0.167	-0.240
-423.544	96.773	-0.099	-0.113
-422.530	143.053	0.201	-0.266
-421.515	143.529	0.021	-0.028
-420.500	82.793	-0.028	0.030
-419.486	-60.832	0.287	-0.121
-418.471	0.328	0.062	0.044
-417.457	137.373	-0.221	0.286
-416.442	-171.391	0.092	0.003
-415.428	595.141	-0.129	-0.317
-414.413	188.620	-0.159	-0.236
-413.398	633.762	0.079	0.200
-412.384	-64.476	-0.422	-0.170
-411.369	800.000	-0.042	-0.129
-410.355	-154.055	0.294	0.020
-409.340	-200.000	-0.008	-0.291
-408.325	800.000	0.133	-0.417
-407.311	-42.484	-0.085	0.043
-406.296	449.294	0.076	0.167
-405.282	-129.672	-0.172	-0.024
-404.267	-45.360	-0.157	-0.077
-403.252	-135.197	-0.384	-0.046
-402.238	4.395	-0.047	0.034
-401.223	-32.472	0.172	-0.095
-400.209	394.760	-0.119	-0.246
-399.194	256.354	-0.195	-0.332
-398.179	-14.192	0.353	0.225
-397.165	-170.011	-0.369	-0.013
-396.150	170.647	-0.087	0.123
-395.136	413.789	-0.061	-0.129
-394.121	-96.002	-0.054	0.014
-393.106	-200.000	-0.002	0.338
-392.092	-80.314	-0.231	0.077
-391.077	-200.000	0.025	-0.189
-390.063	189.817	0.192	0.285
-389.048	254.180	0.060	0.102
-388.033	-187.011	-0.276	-0.004
-387.019	-159.295	0.229	-0.013
-386.004	-111.865	0.025	-0.005
-384.990	-200.000	-0.021	-0.360
-383.975	283.408	0.243	-0.433
-382.960	-17.407	-0.094	-0.059
-381.946	43.680	0.178	0.161
-380.931	783.818	0.038	-0.102
-379.917	-200.000	-0.065	-0.290
-378.902	-63.947	0.495	-0.200
-377.888	-200.000	-0.018	0.180
-376.873	179.084	0.238	0.344
-375.858	-163.001	-0.372	-0.018
-374.844	430.423	0.083	0.179
-373.829	-12.221	0.199	0.129
-372.815	12.202	-0.193	0.147
-371.800	-25.082	-0.143	0.084
-370.785	800.000	-0.086	-0.254
-369.771	52.876	-0.248	0.235
-368.756	13.724	-0.164	-0.127
-367.742	-9.123	0.107	-0.071
-366.727	-62.387	0.069	0.028
-365.712	-149.211	-0.213	0.017
-364.698	155.474	-0.104	0.142
-363.683	-61.931	0.321	0.133
-362.669	-184.765	0.216	-0.003
-361.654	36.825	0.064	-0.056
-360.639	-3.754	0.252	-0.174
-359.625	-200.000	-0.048	0.323
-358.610	-13.165	0.260	0.167
-357.596	250.634	0.009	0.015
-356.581	139.330	0.162	-0.211
-355.566	-115.305	-0.138	-0.026
-354.552	115.837	-0.171	-0.207
-353.537	173.983	-0.122	-0.174
-352.523	-67.270	-0.123	-0.048
-351.508	59.093	0.095	0.092
-350.493	-200.000	0.022	-0.132
-349.479	-112.879	-0.146	0.029
-348.464	297.932	-0.066	0.120
-347.450	-13.523	-0.094	0.060
-346.435	-200.000	-0.017	-0.114
-345.420	-200.000	-0.038	-0.482
-344.406	-200.000	0.003	0.357
-343.391	800.000	0.119	-0.350
-342.377	-128.303	0.220	-0.031
-341.362	-64.667	-0.251	-0.101
-340.348	211.385	0.066	0.103
-339.333	-93.830	0.255	0.069
-338.318	-51.590	0.520	0.240
-337.304	84.743	0.072	0.078
-336.289	800.000	-0.084	0.239
-335.275	34.666	-0.229	0.198
-334.260	444.034	0.096	-0.209
-333.245	-200.000	0.007	0.090
-332.231	-109.625	0.188	0.039
-331.216	-200.000	0.015	-0.191
-330.202	-200.000	-0.036	-0.182
-329.187	7.387	0.255	0.189
-328.172	-179.409	-0.620	0.013
-327.158	-200.000	0.038	-0.351
-326.143	604.610	0.055	0.136
-325.129	305.962	0.180	0.332
-324.114	30.048	-0.094	0.079
-323.099	149.570	0.099	0.133
-322.085	255.376	0.049	0.084
-321.070	800.000	-0.025	0.077
-320.056	116.468	-0.072	0.087
-319.041	800.000	0.068	-0.273
-318.026	-165.547	-0.158	0.007
-317.012	800.000	-0.004	-0.019
-315.997	134.300	-0.122	0.156
-314.983	69.930	-0.066	0.067
-313.968	-100.205	-0.246	-0.060
-312.953	-200.000	-0.006	0.053
-311.939	-200.000	0.037	-0.254
-310.924	800.000	0.048	0.162
-309.910	-127.355	0.275	-0.040
-308.895	288.833	0.130	0.233
-307.880	4.764	0.044	-0.032
-306.866	-151.827	-0.347	-0.025
-305.851	242.788	0.072	-0.119
-304.837	-200.000	-0.005	-0.083
-303.822	-80.130	-0.287	-0.095
-302.807	-5.972	-0.148	0.100
-301.793	161.530	-0.229	0.317
-300.778	-44.281	-0.087	0.043
-299.764	21.767	0.182	0.146
-298.749	800.000	0.093	-0.324
-297.735	-171.059	-0.155	0.005
-296.720	800.000	0.153	-0.562
-295.705	-82.537	-0.303	0.097
-294.691	95.833	-0.212	-0.239
-293.676	58.592	0.217	0.210
-292.662	-157.160	-0.127	-0.008
-291.647	-157.626	-0.294	0.017
-290.632	-109.385	0.386	-0.081
-289.618	-118.019	0.066	-0.012
-288.603	-18.740	-0.205	-0.126
-287.589	-66.134	0.069	-0.027
-286.574	171.316	-0.118	-0.168
-285.559	139.951	-0.102	0.132
-284.545	-200.000	0.001	-0.203
-283.530	-19.743	-0.231	0.141
-282.516	80.509	0.174	-0.185
-281.501	-43.007	0.163	-0.081
-280.486	-200.000	0.069	0.412
-279.472	-200.000	0.001	0.172
-278.457	-200.000	0.022	0.209
-277.443	-145.606	0.292	-0.026
-276.428	-76.959	-0.273	0.094
-275.413	342.392	0.099	0.191
-274.399	37.675	0.156	-0.137
-273.384	-200.000	-0.012	-0.122
-272.370	800.000	0.101	-0.309
-271.355	-200.000	0.001	-0.140
-270.340	7.635	-0.151	0.111
-269.326	-200.000	0.009	0.084
-268.311	485.254	0.152	-0.342
-267.297	-73.379	0.095	-0.034
-266.282	-107.903	0.080	-0.017
-265.267	190.092	0.295	0.437
-264.253	202.659	-0.107	-0.163
-263.238	99.509	0.133	0.152
-262.224	71.168	-0.194	0.198
-261.209	122.302	0.090	-0.111
-260.195	455.263	-0.125	-0.273
-259.180	800.000	-0.062	0.176
-258.165	-146.254	-0.092	-0.008
-257.151	-73.075	-0.182	0.066
-256.136	-200.000	-0.022	0.232
-255.122	613.096	0.025	0.061
-254.107	-149.770	0.256	-0.020
-253.092	-138.410	-0.042	-0.005
-252.078	440.425	0.088	-0.190
-251.063	-100.713	0.120	-0.029
-250.049	55.655	0.167	-0.160
-249.034	-86.907	0.121	-0.036
-248.019	-200.000	0.019	0.149
-247.005	-132.160	-0.239	0.031
-245.990	-92.270	-0.177	0.049
-244.976	294.156	0.151	0.272
-243.961	-200.000	-0.069	0.308
-242.946	597.301	-0.084	0.204
-241.932	236.819	0.074	0.122
-240.917	-42.215	-0.174	0.088
-239.903	-150.899	0.086	-0.006
-238.888	-8.435	0.188	0.124
-237.873	6.024	-0.076	0.056
-236.859	800.000	-0.126	-0.409
-235.844	-42.822	0.098	0.049
-234.830	-200.000	0.042	0.185
-233.815	800.000	-0.095	0.268
-232.800	93.551	0.029	0.032
-231.786	-142.834	0.316	-0.030
-230.771	12.175	0.106	-0.080
-229.757	198.684	-0.015	0.022
-228.742	-93.410	0.133	0.036
-227.727	-107.695	-0.204	0.044
-226.713	-137.622	0.333	-0.037
-225.698	-38.869	0.448	0.233
-224.684	69.862	0.119	-0.121
-223.669	-169.585	0.462	-0.017
-222.655	-200.000	-0.031	-0.196
-221.640	-127.120	0.157	0.023
-220.625	-79.528	0.098	-0.032
-219.611	-200.000	-0.018	0.390
-218.596	-175.340	-0.077	0.002
-217.582	-200.000	0.055	0.405
-216.567	-56.717	-0.137	-0.059
-215.552	-61.917	-0.239	-0.099
-214.538	800.000	-0.042	-0.162
-213.523	-122.503	-0.272	0.044
-212.509	-15.682	-0.037	0.023
-211.494	205.348	0.129	0.198
-210.479	-82.807	-0.323	-0.103
-209.465	9.477	-0.178	0.133
-208.450	-128.567	0.132	0.018
-207.436	-200.000	0.005	0.092
-206.421	-89.759	-0.422	0.121
-205.406	24.963	-0.065	0.053
-204.392	-143.037	-0.257	-0.024
-203.377	270.364	-0.194	-0.336
-202.363	70.354	0.119	0.121
-201.348	-11.857	0.419	-0.270
-200.333	-200.000	0.001	0.354
-199.319	4.695	-0.218	-0.157
-198.304	800.000	-0.038	-0.117
-197.290	44.288	0.070	0.063
-196.275	-79.604	0.163	0.054
-195.260	-90.035	0.197	0.057
-194.246	224.678	0.134	-0.214
-193.231	800.000	0.032	0.115
-192.217	-200.000	0.037	0.332
-191.202	-200.000	-0.016	0.234
-190.187	-63.413	0.330	-0.134
-189.173	265.722	0.130	0.224
-188.158	-200.000	0.017	0.217
-187.144	-195.876	0.285	-0.002
-186.129	-101.800	-0.135	-0.032
-185.114	-200.000	0.018	-0.267
-184.100	-148.078	-0.158	-0.013
-183.085	-123.327	-0.335	-0.053
-182.071	151.906	-0.090	-0.121
-181.056	465.427	0.055	-0.121
-180.042	163.261	0.110	0.152
-179.027	68.293	-0.181	-0.182
-178.012	44.218	-0.076	-0.069
-176.998	100.017	-0.296	0.338
-175.983	-100.843	0.047	-0.011
-174.969	43.221	-0.115	0.103
-173.954	-129.755	0.107	-0.015
-172.939	-73.553	-0.281	-0.101
-171.925	-200.000	0.024	-0.104
-170.910	-117.945	-0.070	0.012
-169.896	-53.611	0.142	-0.064
-168.881	-200.000	0.081	0.464
-167.866	800.000	0.104	0.286
-166.852	132.443	-0.168	0.213
-165.837	800.000	-0.018	-0.069
-164.823	115.228	-0.047	0.056
-163.808	245.037	0.105	0.174
-162.793	-109.496	0.198	0.041
-161.779	79.696	0.166	0.175
-160.764	-79.838	0.113	0.037
-159.750	-118.384	0.181	0.032
-158.735	-166.808	0.251	-0.010
-157.720	-42.874	-0.364	-0.182
-156.706	387.188	0.070	0.142
-155.691	407.180	-0.108	0.225
-154.677	23.474	0.160	0.129
-153.662	-4.463	0.118	0.080
-152.647	31.813	0.294	-0.249
-151.633	-156.194	-0.038	0.002
-150.618	-25.536	0.220	-0.127
-149.604	-169.120	0.110	-0.004
-148.589	-57.435	0.170	0.073
-147.574	-200.000	-0.014	0.191
-146.560	-54.152	-0.222	-0.099
-145.545	266.984	-0.028	0.048
-144.531	20.846	0.079	0.063
-143.516	-63.451	0.305	0.123
-142.502	32.260	-0.107	0.091
-141.487	179.048	-0.202	-0.290
-140.472	-200.000	0.017	0.169
-139.458	800.000	-0.094	-0.368
-138.443	-150.733	0.249	0.019
-137.429	352.994	0.176	-0.343
-136.414	-93.349	0.275	-0.075
-135.399	-200.000	0.018	0.093
-134.385	-140.975	-0.254	-0.026
-133.370	29.574	-0.095	0.079
-132.356	800.000	-0.033	0.129
-131.341	-200.000	-0.054	0.332
-130.326	-33.194	0.178	0.097
-129.312	-31.210	0.240	0.133
-128.297	130.018	0.022	0.027
-127.283	-132.130	0.049	0.006
-126.268	-26.648	0.175	0.100
-125.253	651.427	0.008	-0.020
-124.239	69.784	0.202	0.204
-123.224	-52.283	-0.325	0.148
-122.210	800.000	0.065	0.179
