DTS Sentinel unit serial number:	SN413079Multiplexer serial number:	ORYXHardware model number:	OX4-SRSoftware version number:	ORYX F/W v4.00 Oryx Data Collector v3.7.2.0data status	okinstallation	princeton_trtdifferential loss correction	single-endedforward channel	channel 3reverse channel	N/Adate	2019/09/15time	07:36:35forward acquisition time	60.00reverse acquisition time	0.00gamma	496.2192k internal	0.2324k external	0.2324temperature offset calibration	0.9985default loss term (dB/km)	0.3790temperature slope calibration	1.0000multiplexer offset coefficient	1.0000multiplexer slope coefficient	1.0000fibre end	0.00T internal ref (°C)	30.62T ext. ref 1 (°C)	4.99T ext. ref 2 (°C)	25.42length (m)	temperature (°C)	Stokes	anti-Stokes-747.200	-188.042	-0.228	-0.003
-746.185	258.193	-0.211	0.367
-745.171	-30.142	-0.148	0.085
-744.156	-19.847	-0.415	0.259
-743.142	566.451	0.040	0.098
-742.127	23.357	-0.127	-0.105
-741.112	-200.000	0.010	0.051
-740.098	-116.812	-0.290	0.054
-739.083	800.000	-0.059	0.169
-738.069	32.712	-0.143	0.124
-737.054	239.319	0.115	0.192
-736.039	-200.000	0.027	-0.380
-735.025	61.313	-0.061	0.061
-734.010	50.720	-0.033	0.032
-732.996	-147.378	-0.451	0.039
-731.981	68.593	-0.151	-0.157
-730.966	111.795	-0.169	-0.206
-729.952	-23.542	-0.376	0.227
-728.937	-111.477	-0.230	0.047
-727.923	95.186	0.078	-0.089
-726.908	164.820	-0.131	-0.186
-725.894	-16.729	-0.170	0.109
-724.879	70.358	-0.071	0.074
-723.864	-94.374	-0.134	0.037
-722.850	88.178	-0.290	-0.324
-721.835	-194.934	-0.264	-0.002
-720.821	-83.632	-0.177	0.057
-719.806	800.000	0.062	-0.206
-718.791	-79.930	-0.120	0.041
-717.777	-12.762	0.093	0.061
-716.762	-154.077	0.236	0.016
-715.748	-99.012	0.425	0.109
-714.733	-143.587	0.260	-0.025
-713.718	-120.170	0.356	0.061
-712.704	-200.000	-0.020	-0.234
-711.689	182.290	-0.042	-0.063
-710.675	-43.656	-0.262	0.133
-709.660	256.851	-0.150	-0.259
-708.645	800.000	0.036	0.122
-707.631	-14.469	0.093	0.060
-706.616	-87.943	-0.318	-0.096
-705.602	-120.397	-0.322	0.055
-704.587	-200.000	0.024	0.157
-703.572	-3.034	0.048	-0.034
-702.558	-200.000	-0.001	-0.076
-701.543	800.000	0.030	-0.109
-700.529	800.000	0.148	0.424
-699.514	800.000	0.053	-0.213
-698.499	-166.822	-0.275	-0.011
-697.485	-171.631	-0.094	0.003
-696.470	-91.469	-0.333	-0.096
-695.456	797.571	0.063	-0.175
-694.441	-143.898	-0.272	0.026
-693.426	-50.060	0.072	-0.035
-692.412	309.968	0.159	-0.299
-691.397	310.608	-0.071	-0.135
-690.383	-182.535	-0.137	0.003
-689.368	18.723	0.342	0.275
-688.354	-200.000	-0.045	-0.209
-687.339	-200.000	-0.015	-0.267
-686.324	356.476	-0.072	-0.144
-685.310	-200.000	0.013	0.282
-684.295	-200.000	0.004	0.065
-683.281	324.634	-0.016	0.031
-682.266	-8.510	0.269	0.182
-681.251	800.000	0.021	0.088
-680.237	-200.000	-0.041	-0.367
-679.222	-55.444	-0.136	-0.061
-678.208	210.368	0.084	0.133
-677.193	-76.293	-0.089	-0.031
-676.178	-83.572	0.139	0.045
-675.164	-31.532	-0.216	-0.122
-674.149	49.863	-0.160	0.152
-673.135	640.885	-0.115	-0.295
-672.120	-200.000	0.003	0.258
-671.105	-130.071	-0.162	0.022
-670.091	-200.000	0.008	-0.282
-669.076	719.178	0.028	-0.075
-668.062	-36.228	0.083	0.045
-667.047	267.670	-0.117	-0.206
-666.032	722.530	0.127	-0.340
-665.018	153.404	-0.155	-0.213
-664.003	186.577	-0.074	-0.112
-662.989	27.936	0.121	0.102
-661.974	446.683	-0.155	0.343
-660.959	353.123	-0.025	-0.050
-659.945	-17.183	-0.121	-0.077
-658.930	-57.044	-0.318	-0.141
-657.916	95.641	0.127	-0.146
-656.901	-140.883	-0.408	-0.042
-655.886	-106.654	0.245	-0.055
-654.872	-200.000	-0.055	-0.286
-653.857	-200.000	-0.067	0.335
-652.843	21.438	0.076	-0.062
-651.828	102.583	0.248	-0.292
-650.814	800.000	-0.065	-0.190
-649.799	207.159	0.158	0.248
-648.784	113.408	-0.312	-0.380
-647.770	778.407	0.063	-0.174
-646.755	147.149	0.074	0.100
-645.741	-45.614	0.249	0.124
-644.726	-154.529	0.188	0.013
-643.711	18.876	0.196	0.158
-642.697	-112.749	0.281	-0.056
-641.682	-51.511	0.143	0.067
-640.668	800.000	-0.031	-0.134
-639.653	-120.691	-0.088	-0.015
-638.638	-97.891	-0.236	-0.061
-637.624	-45.952	0.308	-0.153
-636.609	55.711	-0.122	-0.119
-635.595	201.127	-0.039	0.060
-634.580	-200.000	0.005	0.210
-633.565	390.720	0.046	-0.097
-632.551	225.378	0.079	0.128
-631.536	-200.000	0.005	-0.157
-630.522	-87.905	-0.308	-0.093
-629.507	633.161	-0.104	-0.265
-628.492	0.914	0.211	-0.152
-627.478	-200.000	0.015	-0.086
-626.463	24.213	0.363	0.301
-625.449	-122.695	0.145	-0.024
-624.434	545.336	0.073	-0.174
-623.419	800.000	-0.053	0.206
-622.405	-71.505	-0.395	-0.149
-621.390	-149.597	0.122	0.010
-620.376	800.000	0.081	-0.266
-619.361	-18.906	-0.171	0.107
-618.346	800.000	-0.063	0.226
-617.332	800.000	0.082	0.236
-616.317	29.147	0.251	0.214
-615.303	-9.729	0.100	-0.067
-614.288	-98.036	-0.230	-0.059
-613.273	456.936	0.148	-0.330
-612.259	800.000	0.089	-0.254
-611.244	800.000	-0.055	-0.209
-610.230	18.692	0.204	-0.164
-609.215	-20.524	-0.356	-0.220
-608.201	-60.993	0.090	-0.038
-607.186	-200.000	-0.043	-0.421
-606.171	538.402	0.125	-0.299
-605.157	800.000	-0.074	-0.297
-604.142	20.596	-0.165	-0.134
-603.128	142.645	0.179	0.239
-602.113	216.364	-0.156	-0.249
-601.098	-13.863	0.209	-0.135
-600.084	126.352	-0.228	0.290
-599.069	53.262	-0.278	0.267
-598.055	20.397	0.080	0.065
-597.040	69.969	0.079	-0.082
-596.025	169.258	0.134	-0.193
-595.011	30.113	-0.142	-0.122
-593.996	-131.943	-0.192	0.025
-592.982	-116.690	-0.286	0.053
-591.967	345.622	0.106	0.210
-590.952	-11.061	0.035	-0.023
-589.938	800.000	0.065	0.248
-588.923	-73.634	0.207	-0.076
-587.909	18.868	0.197	-0.158
-586.894	-200.000	0.019	0.191
-585.879	-2.309	-0.213	-0.150
-584.865	800.000	-0.107	-0.300
-583.850	-200.000	0.009	-0.074
-582.836	-122.150	-0.258	-0.042
-581.821	-200.000	-0.006	0.082
-580.806	72.478	0.129	-0.135
-579.792	-12.211	0.085	0.056
-578.777	-148.262	-0.061	0.005
-577.763	-29.180	-0.645	-0.371
-576.748	-34.837	0.196	0.107
-575.733	-62.607	0.437	0.182
-574.719	-27.400	0.037	0.022
-573.704	-53.800	0.201	0.092
-572.690	-42.126	-0.088	0.045
-571.675	-106.724	-0.091	0.020
-570.661	183.410	-0.072	-0.106
-569.646	245.101	-0.160	0.270
-568.631	-134.713	-0.038	-0.005
-567.617	557.287	0.066	0.160
-566.602	-47.366	-0.247	0.121
-565.588	800.000	-0.063	0.174
-564.573	17.862	0.175	-0.140
-563.558	-200.000	-0.040	-0.212
-562.544	197.374	0.179	-0.274
-561.529	800.000	0.135	-0.415
-560.515	-18.881	-0.169	0.105
-559.500	-44.484	0.331	-0.166
-558.485	629.984	0.117	0.296
-557.471	81.864	0.204	-0.221
-556.456	-159.978	0.070	-0.004
-555.442	-200.000	-0.015	-0.298
-554.427	-118.484	0.197	0.035
-553.412	800.000	-0.068	0.189
-552.398	-84.561	-0.123	-0.039
-551.383	345.305	0.086	-0.169
-550.369	-65.290	0.086	-0.035
-549.354	588.603	-0.054	-0.134
-548.339	526.012	0.094	0.221
-547.325	-174.418	-0.186	0.005
-546.310	-200.000	0.015	-0.326
-545.296	327.789	-0.119	-0.228
-544.281	609.263	-0.036	-0.090
-543.266	-6.892	-0.131	-0.089
-542.252	-69.017	-0.099	-0.038
-541.237	457.019	0.055	0.123
-540.223	135.904	0.171	0.223
-539.208	196.442	-0.108	0.165
-538.193	-200.000	0.025	0.139
-537.179	-93.243	-0.312	0.087
-536.164	800.000	0.012	-0.051
-535.150	-200.000	-0.020	0.116
-534.135	-122.347	0.154	0.025
-533.121	24.709	-0.187	0.155
-532.106	56.524	0.057	-0.056
-531.091	-23.614	-0.219	0.132
-530.077	800.000	-0.032	-0.091
-529.062	-1.383	0.190	0.134
-528.048	-117.814	0.318	-0.057
-527.033	-73.890	-0.097	0.035
-526.018	800.000	-0.034	-0.129
-525.004	-125.042	-0.524	-0.081
-523.989	-200.000	0.003	-0.202
-522.975	-26.267	-0.280	-0.164
-521.960	-5.038	0.127	0.087
-520.945	-200.000	-0.010	-0.073
-519.931	800.000	-0.091	0.362
-518.916	800.000	-0.131	-0.382
-517.902	-144.812	-0.231	-0.021
-516.887	-200.000	0.018	0.220
-515.872	127.738	0.122	-0.156
-514.858	-200.000	-0.036	0.198
-513.843	-200.000	-0.023	0.184
-512.829	5.046	0.094	0.069
-511.814	-200.000	-0.017	0.215
-510.799	-98.283	0.306	0.079
-509.785	-200.000	0.001	0.223
-508.770	133.680	-0.248	-0.321
-507.756	-200.000	0.008	0.164
-506.741	-36.955	0.282	0.151
-505.726	119.036	0.154	-0.191
-504.712	-200.000	-0.007	-0.119
-503.697	-45.592	0.032	-0.016
-502.683	102.265	-0.126	-0.147
-501.668	259.858	-0.154	0.266
-500.653	194.318	0.130	0.196
-499.639	-200.000	0.014	-0.076
-498.624	63.234	0.079	-0.079
-497.610	566.361	-0.095	-0.231
-496.595	-200.000	0.023	-0.179
-495.581	721.628	0.049	-0.131
-494.566	245.668	0.129	-0.218
-493.551	-120.555	-0.300	0.051
-492.537	-200.000	0.046	0.267
-491.522	-200.000	0.044	0.253
-490.508	756.509	0.159	0.429
-489.493	-59.182	-0.138	-0.059
-488.478	-200.000	0.019	-0.139
-487.464	-78.031	-0.255	0.088
-486.449	-112.777	0.221	0.044
-485.435	800.000	-0.064	0.218
-484.420	-118.891	0.278	0.049
-483.405	-101.980	0.129	0.031
-482.391	252.202	-0.157	0.267
-481.376	-200.000	0.007	0.155
-480.362	26.432	-0.194	-0.162
-479.347	-43.085	0.221	0.112
-478.332	26.755	-0.236	0.198
-477.318	203.448	-0.047	0.072
-476.303	-200.000	-0.009	0.081
-475.289	526.843	0.023	0.054
-474.274	-200.000	0.009	-0.123
-473.259	-200.000	-0.066	0.358
-472.245	71.700	0.170	0.176
-471.230	266.675	0.073	0.128
-470.216	-200.000	-0.016	-0.395
-469.201	-135.971	0.184	-0.022
-468.186	800.000	0.073	0.204
-467.172	323.057	0.099	-0.188
-466.157	-54.715	-0.147	0.066
-465.143	-129.181	-0.218	-0.030
-464.128	49.852	0.320	0.301
-463.113	165.137	-0.059	0.083
-462.099	800.000	0.018	0.049
-461.084	112.511	0.160	0.194
-460.070	480.484	0.129	-0.293
-459.055	-32.556	0.034	-0.019
-458.040	-115.450	0.083	-0.016
-457.026	800.000	-0.074	0.214
-456.011	70.343	-0.056	0.058
-454.997	200.421	0.116	0.179
-453.982	233.561	-0.065	-0.106
-452.968	-200.000	0.038	0.297
-451.953	800.000	-0.061	0.219
-450.938	3.830	-0.103	0.075
-449.924	8.957	-0.235	0.177
-448.909	-100.379	-0.142	-0.035
-447.895	268.172	-0.077	0.135
-446.880	-62.874	0.164	0.068
-445.865	41.689	-0.275	-0.249
-444.851	800.000	0.063	-0.224
-443.836	-169.195	-0.213	0.008
-442.822	-43.464	0.172	0.087
-441.807	800.000	0.100	-0.311
-440.792	370.203	-0.093	0.189
-439.778	306.691	0.115	0.213
-438.763	-92.161	0.168	0.047
-437.749	-59.529	0.125	0.054
-436.734	-200.000	-0.001	-0.269
-435.719	-109.901	-0.272	0.057
-434.705	-176.937	0.342	-0.009
-433.690	-200.000	0.058	-0.300
-432.676	134.110	-0.069	0.089
-431.661	-200.000	-0.030	0.161
-430.646	17.105	0.216	0.171
-429.632	-1.243	-0.186	-0.131
-428.617	159.165	-0.105	-0.145
-427.603	108.533	0.051	-0.060
-426.588	392.408	-0.174	0.361
-425.573	98.387	0.236	0.271
-424.559	98.214	0.073	-0.084
-423.544	-4.339	0.203	0.140
-422.530	-200.000	0.026	-0.162
-421.515	-61.299	-0.096	-0.040
-420.500	-158.703	0.163	-0.009
-419.486	59.161	-0.118	0.116
-418.471	-200.000	-0.001	-0.012
-417.457	-200.000	-0.009	-0.165
-416.442	-126.299	0.529	-0.079
-415.428	-76.155	-0.267	0.094
-414.413	-142.102	-0.124	0.012
-413.398	-2.924	0.346	0.241
-412.384	800.000	0.072	-0.295
-411.369	-53.193	-0.122	0.056
-410.355	-104.051	0.249	-0.058
-409.340	-78.707	0.193	-0.066
-408.325	271.954	0.149	-0.262
-407.311	676.188	0.041	-0.107
-406.296	170.583	-0.219	0.312
-405.282	0.261	0.178	0.127
-404.267	190.704	-0.186	0.278
-403.252	-119.446	-0.058	0.010
-402.238	800.000	-0.102	-0.307
-401.223	20.387	-0.382	-0.307
-400.209	-200.000	0.030	-0.232
-399.194	800.000	0.054	-0.195
-398.179	-104.768	-0.129	-0.030
-397.165	135.015	0.068	0.088
-396.150	3.176	-0.075	-0.054
-395.136	550.541	-0.018	-0.042
-394.121	49.226	-0.252	0.236
-393.106	800.000	-0.072	0.215
-392.092	-200.000	-0.262	-0.000
-391.077	12.104	-0.199	-0.152
-390.063	-200.000	-0.007	-0.176
-389.048	-200.000	0.000	0.054
-388.033	800.000	-0.085	-0.238
-387.019	206.734	0.201	-0.311
-386.004	800.000	-0.082	-0.318
-384.990	-55.089	0.273	-0.122
-383.975	-113.479	0.172	-0.034
-382.960	340.291	-0.234	0.454
-381.946	-200.000	-0.000	-0.032
-380.931	-159.299	0.144	0.008
-379.917	271.779	-0.202	0.354
-378.902	702.374	-0.120	-0.315
-377.888	-140.468	0.126	0.013
-376.873	170.136	-0.171	0.243
-375.858	-66.247	0.104	-0.041
-374.844	-58.864	0.238	0.102
-373.829	-200.000	-0.004	-0.182
-372.815	800.000	-0.074	0.287
-371.800	-200.000	-0.007	-0.151
-370.785	-130.291	0.103	0.014
-369.771	-10.491	0.079	-0.052
-368.756	-52.352	-0.125	-0.058
-367.742	-121.172	0.210	0.035
-366.727	-200.000	0.021	-0.188
-365.712	476.915	-0.029	0.065
-364.698	-200.000	0.018	-0.215
-363.683	558.674	-0.058	0.139
-362.669	-172.297	0.057	0.002
-361.654	-200.000	0.040	-0.270
-360.639	169.913	-0.077	0.109
-359.625	-34.161	-0.194	-0.106
-358.610	-142.396	0.491	0.048
-357.596	230.722	-0.074	0.121
-356.581	12.108	0.184	-0.140
-355.566	-66.641	-0.430	0.170
-354.552	800.000	-0.038	0.144
-353.537	-152.123	0.275	0.020
-352.523	49.790	-0.161	-0.151
-351.508	-200.000	0.039	0.226
-350.493	108.325	0.133	0.157
-349.479	-142.478	0.176	-0.017
-348.464	-61.736	0.217	-0.090
-347.450	435.179	0.027	0.059
-346.435	-156.929	0.207	-0.013
-345.420	800.000	-0.055	0.184
-344.406	-69.425	-0.138	0.053
-343.391	-94.565	-0.326	0.088
-342.377	-22.963	-0.313	-0.188
-341.362	-154.188	-0.101	-0.007
-340.348	-200.000	-0.039	0.608
-339.333	53.950	-0.233	0.223
-338.318	-200.000	0.093	0.602
-337.304	-13.624	-0.137	0.088
-336.289	192.653	0.082	0.123
-335.275	-39.320	-0.160	-0.083
-334.260	800.000	-0.046	0.179
-333.245	91.006	-0.185	0.206
-332.231	234.987	-0.089	-0.146
-331.216	103.303	-0.159	-0.186
-330.202	-108.654	0.043	0.009
-329.187	-121.665	0.232	0.038
-328.172	16.878	0.039	0.031
-327.158	313.420	0.103	-0.192
-326.143	800.000	0.147	-0.455
-325.129	-95.425	0.194	0.052
-324.114	-6.537	-0.101	0.068
-323.099	-130.292	0.347	-0.047
-322.085	800.000	-0.024	0.074
-321.070	-69.912	0.322	0.122
-320.056	22.707	0.201	-0.164
-319.041	269.065	-0.226	-0.394
-318.026	-81.019	-0.456	-0.150
-317.012	-53.431	0.016	0.007
-315.997	-200.000	-0.090	-0.393
-314.983	-198.184	0.127	-0.001
-313.968	380.097	0.177	-0.360
-312.953	-128.135	0.159	-0.023
-311.939	-68.593	0.430	0.165
-310.924	205.818	-0.074	-0.115
-309.910	-111.660	-0.066	-0.013
-308.895	-200.000	-0.001	0.161
-307.880	178.868	0.214	-0.310
-306.866	-109.803	-0.277	-0.058
-305.851	72.273	0.164	-0.169
-304.837	-200.000	0.002	-0.158
-303.822	-200.000	-0.022	0.315
-302.807	-79.741	0.225	-0.075
-301.793	-160.499	0.386	0.020
-300.778	274.627	0.073	0.128
-299.764	27.586	0.145	0.121
-298.749	195.141	0.182	-0.273
-297.735	-64.162	0.096	-0.039
-296.720	-87.024	0.070	0.021
-295.705	-63.035	0.354	0.145
-294.691	39.226	-0.257	-0.228
-293.676	2.355	-0.261	-0.187
-292.662	-46.051	-0.244	-0.119
-291.647	-102.451	0.529	-0.126
-290.632	-33.456	-0.080	-0.044
-289.618	-87.756	0.227	0.068
-288.603	-38.323	-0.193	0.101
-287.589	-169.132	-0.305	-0.011
-286.574	-143.203	-0.281	-0.027
-285.559	-104.171	-0.244	-0.056
-284.545	-100.288	0.378	-0.093
-283.530	-65.805	-0.331	-0.132
-282.516	-15.023	0.317	-0.202
-281.501	-200.000	-0.033	-0.288
-280.486	624.156	-0.196	0.489
-279.472	524.626	0.083	-0.193
-278.457	-85.223	0.128	0.040
-277.443	92.045	0.179	-0.200
-276.428	-200.000	-0.024	0.289
-275.413	154.347	0.106	0.144
-274.399	637.207	-0.049	0.123
-273.384	153.797	-0.105	0.142
-272.370	-200.000	0.001	-0.050
-271.355	1.748	-0.252	0.180
-270.340	38.278	0.122	0.108
-269.326	-17.085	0.054	0.034
-268.311	156.767	-0.219	-0.300
-267.297	97.159	0.165	-0.188
-266.282	464.138	-0.100	-0.221
-265.267	-22.573	-0.339	0.203
-264.253	61.929	-0.173	-0.171
-263.238	10.688	-0.146	0.111
-262.224	-67.227	0.162	0.063
-261.209	623.316	0.144	0.359
-260.195	-200.000	0.029	-0.133
-259.180	-93.559	-0.161	0.044
-258.165	-51.703	-0.166	-0.077
-257.151	265.464	-0.243	-0.420
-256.136	-85.741	-0.102	0.031
-255.122	9.186	-0.254	-0.190
-254.107	173.421	-0.157	0.224
-253.092	45.386	-0.144	0.132
-252.078	-200.000	-0.028	-0.124
-251.063	112.418	0.104	0.124
-250.049	-200.000	0.023	-0.182
-249.034	-93.335	0.166	-0.046
-248.019	199.935	0.123	-0.187
-247.005	-200.000	-0.029	-0.176
-245.990	132.492	0.042	0.053
-244.976	110.665	-0.045	-0.053
-243.961	-200.000	0.018	0.274
-242.946	-20.003	-0.257	-0.157
-241.932	146.728	-0.027	-0.036
-240.917	-200.000	0.007	-0.303
-239.903	311.408	-0.170	-0.316
-238.888	-104.386	0.249	0.057
-237.873	142.118	-0.176	-0.231
-236.859	79.064	-0.159	0.168
-235.844	356.391	0.053	-0.104
-234.830	-175.376	0.088	0.002
-233.815	-60.803	0.262	0.110
-232.800	-200.000	0.042	0.307
-231.786	275.678	0.096	0.169
-230.771	-132.524	-0.163	-0.021
-229.757	800.000	0.030	0.108
-228.742	-2.369	-0.028	0.019
-227.727	-22.650	0.211	0.126
-226.713	-200.000	0.006	-0.290
-225.698	-200.000	-0.027	-0.270
-224.684	800.000	-0.099	-0.312
-223.669	-153.233	-0.135	0.009
-222.655	303.998	0.051	-0.093
-221.640	342.515	0.046	0.090
-220.625	-29.266	0.084	0.048
-219.611	-200.000	-0.004	-0.184
-218.596	-200.000	-0.007	0.090
-217.582	-81.834	-0.186	0.060
-216.567	119.243	0.128	-0.157
-215.552	-107.746	-0.182	0.039
-214.538	-168.340	0.106	0.004
-213.523	-78.763	-0.421	-0.142
-212.509	5.856	0.015	0.011
-211.494	-52.141	0.210	0.096
-210.479	-38.934	-0.246	-0.128
-209.465	792.337	0.043	-0.117
-208.450	71.808	-0.053	0.055
-207.436	-52.917	-0.219	-0.100
-206.421	276.316	-0.063	0.110
-205.406	107.985	-0.059	0.070
-204.392	247.584	0.043	0.072
-203.377	-200.000	0.013	-0.164
-202.363	-69.039	-0.102	-0.039
-201.348	425.016	-0.138	0.293
-200.333	-95.061	-0.106	0.028
-199.319	207.081	-0.326	0.502
-198.304	800.000	0.031	-0.134
-197.290	68.609	-0.132	-0.134
-196.275	-200.000	-0.023	0.223
-195.260	-60.432	0.088	-0.037
-194.246	695.674	-0.151	0.392
-193.231	-42.835	0.077	0.039
-192.217	-200.000	0.039	0.610
-191.202	-200.000	0.247	0.001
-190.187	238.536	0.172	-0.282
-189.173	800.000	-0.115	-0.450
-188.158	92.180	-0.033	0.037
-187.144	24.616	0.027	0.022
-186.129	-121.411	-0.257	-0.042
-185.114	-200.000	0.003	-0.225
-184.100	800.000	-0.012	0.053
-183.085	-129.926	0.203	0.027
-182.071	-20.288	-0.128	-0.078
-181.056	33.862	-0.192	-0.165
-180.042	-114.091	-0.247	-0.047
-179.027	-200.000	0.017	0.116
-178.012	-52.800	0.321	0.146
-176.998	-118.139	0.210	0.037
-175.983	-200.000	0.042	0.247
-174.969	351.851	-0.099	0.193
-173.954	31.065	0.144	0.121
-172.939	595.303	-0.073	0.178
-171.925	268.776	-0.090	0.156
-170.910	160.860	-0.125	-0.172
-169.896	-17.699	0.073	-0.045
-168.881	-200.000	0.014	0.273
-167.866	175.812	0.270	0.386
-166.852	34.879	0.276	0.238
-165.837	-2.094	0.202	0.140
-164.823	-200.000	-0.039	0.203
-163.808	144.420	0.067	0.088
-162.793	30.739	0.300	0.253
-161.779	355.780	-0.089	-0.175
-160.764	-115.956	-0.066	0.012
-159.750	5.850	0.233	0.170
-158.735	-200.000	-0.022	-0.372
-157.720	345.644	-0.056	0.109
-156.706	-200.000	-0.016	0.085
-155.691	-2.706	-0.093	0.064
-154.677	427.824	-0.031	-0.066
-153.662	800.000	-0.020	-0.078
-152.647	-2.811	-0.388	0.267
-151.633	-200.000	-0.011	0.136
-150.618	5.335	0.086	-0.063
-149.604	-102.366	0.319	-0.075
-148.589	-81.264	0.088	0.028
-147.574	22.561	-0.274	-0.221
-146.560	-24.227	-0.183	0.108
-145.545	708.579	-0.041	0.108
-144.531	-15.209	-0.235	-0.149
-143.516	115.046	0.273	-0.328
-142.502	-8.008	0.166	-0.111
-141.487	251.216	-0.089	-0.150
-140.472	-113.989	-0.256	-0.049
-139.458	16.213	-0.251	-0.195
-138.443	-167.655	0.250	-0.010
-137.429	-113.534	-0.251	0.048
-136.414	123.762	0.237	0.293
-135.399	-40.858	-0.141	0.072
-134.385	68.673	-0.014	-0.014
-133.370	24.350	0.067	0.054
-132.356	7.937	-0.016	-0.012
-131.341	800.000	0.082	0.317
-130.326	800.000	0.082	0.335
-129.312	248.796	0.119	-0.198
-128.297	-155.864	-0.163	0.010
-127.283	-200.000	0.006	-0.283
-126.268	-49.865	-0.119	0.056
-125.253	-200.000	0.003	0.069
-124.239	800.000	0.105	0.295
-123.224	-57.998	0.173	0.074
-122.210	-90.993	-0.304	0.086
-121.195	33.598	0.103	-0.088
