DTS Sentinel unit serial number:	SN413079Multiplexer serial number:	ORYXHardware model number:	OX4-SRSoftware version number:	ORYX F/W v4.00 Oryx Data Collector v3.7.2.0data status	okinstallation	princeton_trtdifferential loss correction	single-endedforward channel	channel 3reverse channel	N/Adate	2019/09/15time	00:20:35forward acquisition time	60.00reverse acquisition time	0.00gamma	496.2192k internal	0.2319k external	0.2319temperature offset calibration	0.9977default loss term (dB/km)	0.3790temperature slope calibration	1.0000multiplexer offset coefficient	1.0000multiplexer slope coefficient	1.0000fibre end	0.00T internal ref (°C)	32.12T ext. ref 1 (°C)	4.57T ext. ref 2 (°C)	27.21length (m)	temperature (°C)	Stokes	anti-Stokes-747.200	-64.599	0.141	0.058
-746.185	-200.000	-0.007	0.271
-745.171	-200.000	0.004	-0.116
-744.156	-71.626	-0.326	0.123
-743.142	-21.157	0.166	0.103
-742.127	346.479	0.040	0.080
-741.112	800.000	-0.084	0.275
-740.098	-14.372	0.109	-0.071
-739.083	-160.938	-0.149	-0.008
-738.069	-89.056	-0.118	-0.035
-737.054	-9.827	-0.154	0.103
-736.039	-69.785	-0.423	-0.163
-735.025	800.000	0.066	0.230
-734.010	79.666	0.269	0.292
-732.996	163.819	0.207	-0.294
-731.981	113.759	-0.085	-0.104
-730.966	-200.000	-0.012	-0.095
-729.952	94.417	0.136	0.156
-728.937	-200.000	-0.011	-0.249
-727.923	-200.000	-0.025	-0.122
-726.908	-200.000	-0.027	0.308
-725.894	-163.890	-0.346	-0.016
-724.879	6.139	-0.160	-0.120
-723.864	-119.635	0.036	0.006
-722.850	-92.264	-0.231	0.066
-721.835	-200.000	-0.002	0.142
-720.821	6.341	-0.275	-0.207
-719.806	-94.673	-0.188	-0.052
-718.791	-7.330	-0.156	-0.106
-717.777	572.870	-0.181	0.445
-716.762	-54.357	-0.268	0.123
-715.748	298.433	0.120	0.223
-714.733	141.520	-0.234	0.313
-713.718	-200.000	-0.036	-0.365
-712.704	101.644	-0.025	-0.029
-711.689	-149.409	0.390	0.031
-710.675	-100.722	0.176	0.044
-709.660	112.178	0.053	-0.064
-708.645	42.390	0.277	0.255
-707.631	94.785	0.076	-0.088
-706.616	-146.191	-0.171	0.015
-705.602	251.307	-0.227	-0.391
-704.587	-72.581	0.347	0.129
-703.572	15.313	-0.346	0.274
-702.558	-143.557	-0.251	0.024
-701.543	202.152	0.152	-0.236
-700.529	5.711	-0.172	-0.128
-699.514	-23.086	-0.356	-0.217
-698.499	800.000	0.047	0.202
-697.485	-200.000	-0.003	0.032
-696.470	30.396	0.122	-0.105
-695.456	-90.476	-0.139	0.041
-694.441	-10.975	0.297	0.198
-693.426	50.686	-0.055	0.053
-692.412	-200.000	0.026	0.342
-691.397	800.000	0.043	-0.169
-690.383	-119.479	-0.471	-0.082
-689.368	-94.639	-0.178	0.049
-688.354	-69.883	0.131	0.050
-687.339	394.029	0.095	0.199
-686.324	712.151	-0.104	-0.278
-685.310	-16.138	0.025	0.016
-684.295	-6.767	-0.298	0.205
-683.281	-200.000	-0.033	0.212
-682.266	397.035	-0.091	0.192
-681.251	168.536	-0.219	0.315
-680.237	44.432	-0.072	0.066
-679.222	282.792	-0.130	-0.235
-678.208	-200.000	0.061	-0.390
-677.193	108.271	-0.046	-0.056
-676.178	-16.346	-0.307	-0.196
-675.164	800.000	-0.031	-0.106
-674.149	-141.487	0.221	0.022
-673.135	-200.000	-0.017	-0.426
-672.120	253.189	0.087	-0.150
-671.105	-200.000	0.041	0.235
-670.091	-145.182	-0.084	0.008
-669.076	-19.133	-0.150	0.094
-668.062	-15.760	0.068	-0.044
-667.047	-200.000	-0.003	-0.350
-666.032	-28.196	-0.416	0.243
-665.018	257.866	0.104	0.181
-664.003	-81.175	-0.052	0.017
-662.989	-15.828	0.119	0.077
-661.974	50.773	-0.195	0.186
-660.959	-154.844	-0.267	0.018
-659.945	-112.431	0.257	-0.052
-658.930	-200.000	-0.008	0.336
-657.916	-59.284	0.011	0.005
-656.901	-32.414	0.279	-0.157
-655.886	-116.074	-0.312	0.059
-654.872	-10.939	0.218	0.145
-653.857	30.874	-0.303	-0.261
-652.843	800.000	0.057	-0.165
-651.828	12.398	0.193	0.150
-650.814	723.640	0.030	0.081
-649.799	-77.211	-0.392	0.138
-648.784	567.327	0.081	-0.198
-647.770	-137.028	0.293	0.034
-646.755	140.069	0.144	0.191
-645.741	-200.000	0.008	0.357
-644.726	-122.735	0.117	0.019
-643.711	-144.877	0.088	-0.008
-642.697	91.665	-0.045	0.051
-641.682	800.000	-0.118	0.329
-640.668	-130.309	-0.315	-0.043
-639.653	-33.658	0.073	-0.040
-638.638	371.490	0.028	0.056
-637.624	-189.649	0.044	-0.001
-636.609	-200.000	-0.007	-0.060
-635.595	-87.275	-0.350	0.107
-634.580	-161.864	0.227	0.012
-633.565	351.018	-0.049	-0.098
-632.551	-169.138	-0.075	0.003
-631.536	-200.000	0.052	-0.262
-630.522	-180.762	0.239	0.005
-629.507	-33.561	-0.225	0.125
-628.492	800.000	-0.040	-0.155
-627.478	28.041	0.236	-0.201
-626.463	308.586	-0.205	0.386
-625.449	-128.785	-0.330	0.047
-624.434	-107.571	-0.192	-0.042
-623.419	-42.036	-0.058	-0.030
-622.405	580.189	0.131	-0.323
-621.390	459.825	-0.165	0.371
-620.376	-123.794	-0.236	0.038
-619.361	-67.946	0.146	-0.058
-618.346	492.478	-0.059	-0.137
-617.332	-200.000	0.050	0.250
-616.317	102.571	-0.108	0.128
-615.303	-109.349	0.308	0.066
-614.288	-200.000	-0.006	-0.099
-613.273	-196.388	-0.099	0.001
-612.259	11.551	-0.164	-0.126
-611.244	177.224	-0.076	-0.112
-610.230	-200.000	0.016	0.214
-609.215	-80.214	-0.142	0.048
-608.201	-200.000	0.034	-0.224
-607.186	800.000	0.047	-0.144
-606.171	60.498	-0.100	0.099
-605.157	-42.055	-0.161	0.083
-604.142	-200.000	-0.014	-0.190
-603.128	-176.210	-0.155	0.004
-602.113	18.688	0.203	0.163
-601.098	118.010	-0.137	-0.169
-600.084	84.007	-0.050	-0.055
-599.069	392.434	-0.073	0.153
-598.055	468.066	-0.271	-0.612
-597.040	800.000	0.113	-0.457
-596.025	800.000	-0.044	-0.186
-595.011	555.891	-0.060	0.146
-593.996	-22.469	0.175	0.106
-592.982	-200.000	-0.035	-0.259
-591.967	-200.000	0.025	-0.421
-590.952	110.639	0.165	-0.199
-589.938	136.855	-0.067	-0.089
-588.923	762.203	-0.075	0.204
-587.909	-200.000	0.015	0.080
-586.894	107.884	0.058	0.070
-585.879	-200.000	-0.003	0.070
-584.865	-25.273	-0.317	0.188
-583.850	-200.000	-0.010	0.089
-582.836	463.976	0.145	-0.326
-581.821	159.654	-0.040	0.055
-580.806	-95.914	-0.130	-0.035
-579.792	216.018	-0.161	0.258
-578.777	-169.634	-0.283	0.010
-577.763	7.085	0.023	-0.017
-576.748	-200.000	-0.028	-0.157
-575.733	15.672	-0.036	-0.029
-574.719	138.948	-0.093	0.123
-573.704	-200.000	0.036	-0.433
-572.690	-35.183	-0.222	-0.121
-571.675	-114.691	0.138	0.026
-570.661	-60.808	0.548	-0.233
-569.646	-63.483	0.356	-0.147
-568.631	-200.000	0.011	0.057
-567.617	-71.371	-0.300	0.113
-566.602	-111.036	0.221	-0.046
-565.588	-200.000	0.053	-0.311
-564.573	-75.352	-0.323	0.116
-563.558	-76.830	0.267	0.094
-562.544	-60.202	-0.197	-0.084
-561.529	748.909	0.070	-0.190
-560.515	-200.000	-0.019	-0.211
-559.500	115.742	-0.186	-0.229
-558.485	-142.298	0.023	0.002
-557.471	113.938	0.073	-0.089
-556.456	82.200	0.154	-0.168
-555.442	259.620	-0.227	0.394
-554.427	-81.545	-0.231	0.076
-553.412	53.798	0.164	-0.158
-552.398	24.576	0.126	0.105
-551.383	-200.000	-0.004	0.090
-550.369	335.447	-0.070	0.136
-549.354	-200.000	0.016	0.104
-548.339	533.814	-0.076	0.180
-547.325	333.316	-0.080	0.155
-546.310	-39.726	-0.140	-0.074
-545.296	185.504	-0.131	0.195
-544.281	-95.272	0.380	-0.103
-543.266	-80.459	-0.182	-0.061
-542.252	0.708	-0.219	-0.158
-541.237	-102.593	-0.139	-0.033
-540.223	-200.000	0.023	0.101
-539.208	115.178	0.147	-0.181
-538.193	800.000	0.077	0.229
-537.179	-84.438	-0.144	0.046
-536.164	-54.011	-0.256	-0.117
-535.150	49.718	-0.251	-0.237
-534.135	-120.019	0.185	0.032
-533.121	-29.293	-0.138	0.079
-532.106	-63.748	-0.198	-0.081
-531.091	50.026	0.251	-0.238
-530.077	9.365	-0.046	-0.035
-529.062	-135.929	-0.158	0.019
-528.048	52.471	-0.106	-0.102
-527.033	128.067	-0.212	-0.270
-526.018	297.402	0.060	0.110
-525.004	800.000	-0.021	0.057
-523.989	-88.759	-0.347	-0.104
-522.975	-19.686	0.153	0.095
-521.960	778.887	0.057	-0.155
-520.945	78.359	0.087	0.093
-519.931	-200.000	-0.095	0.422
-518.916	800.000	-0.142	0.412
-517.902	-95.992	-0.404	0.108
-516.887	-141.888	0.465	0.047
-515.872	-39.398	-0.084	0.044
-514.858	238.787	0.018	-0.030
-513.843	-143.972	-0.166	0.016
-512.829	70.468	0.080	0.083
-511.814	539.209	0.134	0.320
-510.799	-152.395	-0.519	-0.037
-509.785	709.750	-0.042	0.112
-508.770	43.186	0.086	-0.079
-507.756	295.667	0.083	0.153
-506.741	-126.284	0.135	-0.020
-505.726	-200.000	0.003	-0.434
-504.712	-115.828	0.203	0.038
-503.697	109.887	-0.128	0.154
-502.683	800.000	0.031	0.130
-501.668	320.686	-0.095	-0.180
-500.653	-32.568	-0.072	-0.040
-499.639	-112.302	-0.168	-0.034
-498.624	207.462	-0.107	-0.167
-497.610	-144.647	0.157	-0.014
-496.595	-200.000	-0.037	-0.396
-495.581	800.000	0.149	0.501
-494.566	-47.357	-0.399	-0.195
-493.551	38.521	0.202	-0.181
-492.537	-146.845	0.234	-0.020
-491.522	-78.145	-0.285	-0.098
-490.508	-76.953	0.395	0.138
-489.493	-49.492	0.186	-0.089
-488.478	-200.000	-0.008	-0.195
-487.464	-14.722	-0.296	-0.190
-486.449	800.000	-0.161	-0.453
-485.435	-39.037	0.212	-0.112
-484.420	800.000	-0.092	-0.376
-483.405	185.701	-0.010	0.014
-482.391	-2.262	-0.130	0.091
-481.376	174.332	-0.133	0.192
-480.362	-200.000	-0.011	-0.181
-479.347	-200.000	-0.058	-0.298
-478.332	497.634	-0.036	-0.082
-477.318	-77.706	-0.141	0.049
-476.303	121.337	-0.110	-0.138
-475.289	-36.127	0.134	0.072
-474.274	-200.000	0.013	0.188
-473.259	348.828	-0.079	-0.156
-472.245	-169.153	-0.292	-0.011
-471.230	3.186	0.186	-0.135
-470.216	-200.000	-0.021	-0.212
-469.201	-89.877	0.210	-0.062
-468.186	299.409	0.140	-0.258
-467.172	-200.000	0.001	-0.160
-466.157	-200.000	-0.035	-0.233
-465.143	-84.001	0.288	-0.091
-464.128	800.000	-0.028	0.079
-463.113	127.477	0.096	-0.122
-462.099	-19.010	0.102	-0.063
-461.084	-115.708	-0.090	-0.017
-460.070	284.323	0.145	0.261
-459.055	800.000	-0.042	-0.166
-458.040	443.241	-0.130	-0.284
-457.026	-5.258	0.079	-0.054
-456.011	183.599	-0.044	0.065
-454.997	800.000	-0.064	-0.201
-453.982	155.696	0.060	0.082
-452.968	-60.756	0.491	0.208
-451.953	107.924	0.173	0.206
-450.938	-107.950	-0.353	-0.077
-449.924	-19.919	-0.227	-0.140
-448.909	92.087	-0.063	0.071
-447.895	-200.000	-0.057	-0.432
-446.880	-15.178	0.123	0.079
-445.865	360.820	-0.048	-0.095
-444.851	-200.000	-0.006	0.213
-443.836	214.152	0.102	0.161
-442.822	-200.000	-0.235	-0.001
-441.807	34.241	-0.141	0.123
-440.792	24.086	0.070	-0.058
-439.778	778.643	-0.032	0.087
-438.763	-60.003	0.245	0.104
-437.749	-39.700	-0.172	0.090
-436.734	-200.000	0.022	-0.162
-435.719	-199.246	-0.083	-0.000
-434.705	648.174	0.091	-0.232
-433.690	800.000	0.072	-0.213
-432.676	158.695	0.226	-0.314
-431.661	363.967	-0.126	-0.253
-430.646	470.644	0.098	-0.221
-429.632	486.381	0.098	0.223
-428.617	-126.202	-0.159	-0.024
-427.603	-98.169	0.237	-0.061
-426.588	-85.097	-0.130	0.041
-425.573	99.141	-0.170	0.196
-424.559	800.000	-0.012	0.037
-423.544	261.736	0.170	0.294
-422.530	-114.298	-0.254	0.049
-421.515	-44.930	-0.137	0.068
-420.500	-138.857	0.324	0.035
-419.486	750.765	0.063	0.171
-418.471	-11.265	-0.150	-0.099
-417.457	-200.000	0.041	0.246
-416.442	800.000	0.043	0.120
-415.428	-200.000	0.007	0.237
-414.413	-200.000	-0.031	0.407
-413.398	-200.000	-0.009	-0.219
-412.384	626.674	-0.063	-0.159
-411.369	292.183	0.146	-0.265
-410.355	-122.750	0.107	-0.017
-409.340	-9.133	-0.083	0.055
-408.325	-120.465	-0.224	-0.038
-407.311	527.604	0.112	-0.264
-406.296	-200.000	0.062	-0.482
-405.282	-24.096	0.291	-0.174
-404.267	-200.000	-0.007	-0.240
-403.252	-8.782	-0.371	-0.248
-402.238	800.000	-0.070	-0.246
-401.223	-200.000	-0.032	0.232
-400.209	-23.513	-0.211	-0.127
-399.194	192.523	0.252	0.379
-398.179	60.807	-0.216	0.214
-397.165	106.705	0.113	-0.133
-396.150	186.147	0.161	-0.239
-395.136	-136.393	-0.031	-0.004
-394.121	-200.000	-0.013	0.228
-393.106	47.745	-0.111	0.104
-392.092	-131.130	0.108	-0.014
-391.077	289.141	-0.023	-0.042
-390.063	-42.743	-0.172	-0.087
-389.048	800.000	0.091	-0.388
-388.033	-200.000	0.023	-0.286
-387.019	466.749	0.118	-0.263
-386.004	-200.000	-0.020	0.116
-384.990	197.978	0.033	-0.050
-383.975	-96.363	-0.335	-0.089
-382.960	800.000	-0.048	0.152
-381.946	-112.586	0.186	-0.037
-380.931	-200.000	-0.006	-0.118
-379.917	800.000	-0.075	0.222
-378.902	-171.993	0.243	0.008
-377.888	73.778	0.232	0.242
-376.873	42.562	-0.177	0.161
-375.858	16.833	-0.095	0.075
-374.844	505.594	0.097	-0.224
-373.829	800.000	-0.020	0.064
-372.815	65.248	-0.195	0.196
-371.800	15.311	-0.157	0.123
-370.785	123.749	-0.215	-0.269
-369.771	-96.146	-0.151	-0.040
-368.756	786.371	0.072	-0.196
-367.742	-11.296	-0.148	-0.097
-366.727	-6.718	0.203	-0.138
-365.712	-200.000	-0.008	-0.306
-364.698	-76.412	0.180	0.063
-363.683	-101.211	0.436	0.106
-362.669	-200.000	-0.007	-0.100
-361.654	800.000	0.130	0.384
-360.639	-200.000	0.026	0.140
-359.625	351.152	0.140	0.276
-358.610	-80.687	0.138	-0.046
-357.596	113.856	-0.084	0.102
-356.581	231.329	-0.210	0.343
-355.566	71.123	-0.093	0.097
-354.552	577.733	0.081	0.198
-353.537	-195.701	-0.194	-0.001
-352.523	75.104	-0.120	0.126
-351.508	-187.179	0.290	0.004
-350.493	-108.806	-0.395	-0.084
-349.479	-200.000	-0.032	-0.241
-348.464	380.724	-0.186	0.379
-347.450	-42.769	0.256	-0.129
-346.435	-92.176	-0.072	-0.020
-345.420	203.694	-0.238	-0.366
-344.406	-200.000	0.011	0.307
-343.391	-200.000	-0.019	0.086
-342.377	-115.688	0.052	-0.010
-341.362	-83.894	0.342	-0.108
-340.348	102.436	0.063	0.073
-339.333	-56.385	0.008	0.003
-338.318	278.915	0.100	0.178
-337.304	-200.000	0.008	-0.103
-336.289	-177.562	0.159	-0.004
-335.275	-200.000	-0.021	0.308
-334.260	13.366	-0.374	-0.289
-333.245	-83.896	0.212	0.067
-332.231	683.613	0.122	0.316
-331.216	245.510	0.028	-0.047
-330.202	800.000	0.094	0.298
-329.187	-104.465	0.318	-0.073
-328.172	6.206	-0.157	0.116
-327.158	11.821	-0.178	0.136
-326.143	-123.692	0.244	0.038
-325.129	31.031	0.186	-0.158
-324.114	-16.647	0.253	0.159
-323.099	430.337	0.053	-0.113
-322.085	109.139	-0.073	-0.087
-321.070	800.000	0.021	0.065
-320.056	-200.000	-0.036	-0.232
-319.041	800.000	0.109	-0.413
-318.026	371.355	-0.161	-0.326
-317.012	-66.305	0.360	-0.142
-315.997	-129.592	0.013	0.002
-314.983	800.000	-0.015	-0.060
-313.968	-12.383	0.065	-0.042
-312.953	7.878	0.064	0.048
-311.939	-21.825	0.224	0.135
-310.924	-200.000	0.016	0.176
-309.910	-200.000	0.009	0.235
-308.895	-115.531	-0.293	0.055
-307.880	-70.676	0.161	0.060
-306.866	-36.012	0.049	-0.026
-305.851	115.961	0.062	0.075
-304.837	-200.000	0.021	0.118
-303.822	168.063	0.285	0.403
-302.807	-81.931	-0.367	-0.119
-301.793	-159.044	0.290	0.016
-300.778	-200.000	0.035	0.361
-299.764	-103.973	0.197	-0.046
-298.749	-200.000	-0.019	-0.287
-297.735	-27.722	0.176	0.101
-296.720	-200.000	-0.069	0.349
-295.705	-62.117	0.083	0.034
-294.691	293.853	-0.067	-0.121
-293.676	-60.393	-0.201	-0.085
-292.662	-95.248	0.224	-0.060
-291.647	-128.434	0.330	0.047
-290.632	-200.000	0.027	-0.444
-289.618	27.396	-0.157	0.131
-288.603	-200.000	0.052	0.294
-287.589	-117.375	-0.214	0.038
-286.574	-200.000	0.038	-0.251
-285.559	-147.289	0.206	-0.017
-284.545	-60.307	-0.157	0.066
-283.530	92.485	-0.052	0.059
-282.516	187.407	-0.069	-0.103
-281.501	-136.502	0.288	-0.033
-280.486	-50.123	-0.097	0.046
-279.472	87.187	-0.070	0.077
-278.457	800.000	0.058	0.227
-277.443	-9.422	-0.284	0.189
-276.428	-123.081	-0.364	-0.058
-275.413	-200.000	0.000	0.012
-274.399	-1.966	0.076	0.053
-273.384	82.511	0.225	0.243
-272.370	-200.000	-0.015	0.396
-271.355	800.000	0.013	0.046
-270.340	-22.381	0.354	0.213
-269.326	-5.790	0.172	0.117
-268.311	248.176	0.098	-0.164
-267.297	-39.963	-0.159	0.082
-266.282	-136.128	-0.093	0.011
-265.267	-63.398	0.360	-0.147
-264.253	-200.000	0.029	-0.240
-263.238	411.393	0.086	-0.182
-262.224	98.094	-0.214	0.245
-261.209	800.000	0.057	0.157
-260.195	-200.000	0.000	0.332
-259.180	50.396	-0.009	0.008
-258.165	-200.000	0.017	0.186
-257.151	-114.654	0.093	-0.018
-256.136	152.570	-0.152	0.206
-255.122	158.262	0.073	0.100
-254.107	-38.157	-0.136	0.072
-253.092	800.000	0.039	-0.137
-252.078	-100.538	-0.089	-0.022
-251.063	-106.299	-0.525	0.117
-250.049	-130.392	0.407	0.055
-249.034	771.252	0.045	0.121
-248.019	-198.008	-0.090	0.001
-247.005	-200.000	-0.330	0.000
-245.990	504.828	-0.060	-0.137
-244.976	91.399	-0.108	-0.121
-243.961	-10.560	0.204	-0.134
-242.946	477.087	0.010	-0.022
-241.932	-77.291	0.399	0.138
-240.917	800.000	0.127	0.437
-239.903	-38.328	0.192	0.101
-238.888	800.000	0.006	0.017
-237.873	-67.103	-0.065	0.025
-236.859	-135.021	0.181	-0.022
-235.844	-200.000	-0.010	0.182
-234.830	-200.000	-0.006	0.264
-233.815	646.023	-0.164	0.415
-232.800	-137.779	0.250	0.028
-231.786	800.000	0.023	0.063
-230.771	-13.590	-0.234	0.150
-229.757	262.919	0.098	-0.168
-228.742	-89.838	0.205	0.060
-227.727	97.671	0.106	0.121
-226.713	-85.953	-0.095	0.029
-225.698	33.608	-0.100	0.086
-224.684	800.000	-0.011	0.040
-223.669	-200.000	-0.028	-0.333
-222.655	-200.000	-0.023	-0.321
-221.640	800.000	0.112	-0.461
-220.625	148.207	0.190	0.255
-219.611	60.185	0.262	0.256
-218.596	800.000	0.056	0.189
-217.582	-133.348	0.229	-0.029
-216.567	800.000	-0.073	-0.232
-215.552	-84.408	-0.230	-0.072
-214.538	-200.000	0.007	-0.122
-213.523	800.000	-0.025	0.087
-212.509	543.060	0.135	-0.320
-211.494	611.121	-0.121	0.300
-210.479	-81.333	0.180	-0.059
-209.465	90.899	-0.087	0.096
-208.450	800.000	0.072	-0.218
-207.436	134.209	0.179	0.229
-206.421	-12.955	0.105	-0.067
-205.406	-22.164	-0.269	0.162
-204.392	32.139	-0.213	-0.182
-203.377	-46.414	-0.055	-0.027
-202.363	-43.837	-0.261	0.130
-201.348	85.012	0.197	0.214
-200.333	243.048	-0.149	0.246
-199.319	-101.463	0.198	0.048
-198.304	-22.859	-0.218	-0.130
-197.290	-109.852	-0.260	-0.054
-196.275	-110.635	0.423	0.087
-195.260	-21.125	0.090	-0.054
-194.246	-24.249	-0.183	-0.108
-193.231	192.710	-0.141	0.211
-192.217	-200.000	-0.066	0.503
-191.202	800.000	0.108	-0.327
-190.187	-200.000	0.002	0.158
-189.173	-0.093	0.147	0.104
-188.158	-83.900	-0.294	0.093
-187.144	-42.564	-0.113	0.057
-186.129	69.202	0.122	0.125
-185.114	-132.523	-0.037	-0.005
-184.100	229.767	-0.033	0.054
-183.085	-146.667	-0.195	0.017
-182.071	148.737	0.116	-0.155
-181.056	64.868	0.079	-0.079
-180.042	-200.000	0.022	-0.190
-179.027	-200.000	-0.017	-0.094
-178.012	-200.000	0.005	0.148
-176.998	1.446	-0.042	-0.030
-175.983	-200.000	0.047	0.307
-174.969	251.423	0.057	-0.096
-173.954	4.201	0.077	0.056
-172.939	112.590	0.127	0.152
-171.925	115.706	0.174	0.210
-170.910	-105.584	0.361	-0.081
-169.896	140.940	-0.248	-0.325
-168.881	611.845	0.084	0.209
-167.866	-200.000	-0.007	0.163
-166.852	-69.015	0.101	0.039
-165.837	-151.350	-0.111	0.008
-164.823	-53.959	0.122	0.055
-163.808	800.000	-0.021	0.076
-162.793	-63.255	-0.057	0.023
-161.779	-200.000	-0.037	0.216
-160.764	217.679	0.134	0.212
-159.750	-27.393	0.254	-0.146
-158.735	54.966	0.228	-0.218
-157.720	-98.531	-0.387	-0.098
-156.706	-200.000	-0.007	-0.080
-155.691	598.439	-0.095	0.233
-154.677	72.317	0.345	-0.355
-153.662	26.991	-0.176	-0.146
-152.647	-28.518	-0.056	-0.032
-151.633	-52.824	0.184	-0.084
-150.618	-70.586	0.130	0.049
-149.604	267.897	-0.095	-0.165
-148.589	-136.539	-0.216	-0.025
-147.574	371.084	0.184	0.368
-146.560	-200.000	0.071	-0.350
-145.545	-200.000	-0.014	0.091
-144.531	-200.000	0.036	-0.190
-143.516	631.096	0.096	-0.239
-142.502	20.726	-0.203	-0.162
-141.487	-118.019	-0.347	-0.061
-140.472	176.742	0.129	0.185
-139.458	9.583	-0.173	-0.129
-138.443	80.812	0.138	0.147
-137.429	375.102	0.139	0.280
-136.414	-89.047	0.052	-0.015
-135.399	71.755	-0.086	0.088
-134.385	159.673	-0.174	0.240
-133.370	335.944	-0.232	-0.444
-132.356	800.000	0.038	-0.122
-131.341	12.653	-0.170	0.129
-130.326	61.356	-0.349	0.342
-129.312	-31.307	0.042	0.023
-128.297	-130.212	0.304	-0.041
-127.283	3.782	-0.124	-0.089
-126.268	201.425	-0.041	0.063
-125.253	-1.504	0.208	-0.145
-124.239	-200.000	-0.018	0.138
-123.224	-165.334	-0.380	0.016
-122.210	800.000	0.134	0.380
