DTS Sentinel unit serial number:	SN413079Multiplexer serial number:	ORYXHardware model number:	OX4-SRSoftware version number:	ORYX F/W v4.00 Oryx Data Collector v3.7.2.0data status	okinstallation	princeton_trtdifferential loss correction	single-endedforward channel	channel 3reverse channel	N/Adate	2019/09/12time	11:46:11forward acquisition time	60.00reverse acquisition time	0.00gamma	496.2192k internal	0.2293k external	0.2293temperature offset calibration	1.0038default loss term (dB/km)	0.3790temperature slope calibration	1.0000multiplexer offset coefficient	1.0000multiplexer slope coefficient	1.0000fibre end	0.00T internal ref (°C)	39.84T ext. ref 1 (°C)	2.00T ext. ref 2 (°C)	38.01length (m)	temperature (°C)	Stokes	anti-Stokes-747.200	-51.308	0.331	-0.159
-746.185	-200.000	0.065	0.331
-745.171	28.154	0.065	0.057
-744.156	800.000	0.035	0.130
-743.142	-200.000	0.356	-0.002
-742.127	-59.621	-0.120	-0.053
-741.112	-108.592	0.183	0.040
-740.098	-200.000	-0.004	0.223
-739.083	28.710	-0.040	-0.034
-738.069	259.388	-0.028	0.049
-737.054	-111.139	-0.280	0.059
-736.039	-108.095	-0.103	-0.023
-735.025	-3.233	-0.190	0.135
-734.010	-66.730	-0.265	-0.107
-732.996	-200.000	-0.012	-0.063
-731.981	800.000	0.073	0.282
-730.966	-111.967	-0.088	-0.018
-729.952	-98.565	-0.182	-0.048
-728.937	-200.000	0.000	-0.004
-727.923	800.000	0.021	-0.091
-726.908	-69.161	-0.165	-0.065
-725.894	-160.382	-0.667	-0.037
-724.879	65.315	-0.045	-0.047
-723.864	-198.204	0.639	0.004
-722.850	-90.010	-0.180	-0.054
-721.835	-12.648	0.043	-0.029
-720.821	208.525	0.087	0.140
-719.806	-43.374	0.178	0.092
-718.791	90.002	0.117	0.133
-717.777	800.000	0.031	0.094
-716.762	736.811	-0.096	0.264
-715.748	27.513	-0.153	0.131
-714.733	143.783	-0.161	0.219
-713.718	208.208	0.079	-0.126
-712.704	-19.554	0.040	0.025
-711.689	800.000	-0.060	-0.192
-710.675	11.024	0.224	-0.175
-709.660	-76.932	-0.250	-0.089
-708.645	182.846	0.070	-0.105
-707.631	1.947	-0.136	0.101
-706.616	156.244	-0.014	-0.020
-705.602	172.913	-0.119	-0.175
-704.587	155.501	-0.121	0.170
-703.572	-100.555	0.248	0.063
-702.558	376.020	0.120	-0.251
-701.543	164.503	-0.130	0.187
-700.529	-46.188	0.398	0.200
-699.514	85.887	0.196	-0.220
-698.499	74.416	0.290	-0.312
-697.485	422.828	0.135	0.296
-696.470	33.983	0.259	0.230
-695.456	-175.315	-0.102	-0.003
-694.441	-34.062	0.168	0.094
-693.426	96.821	-0.323	0.378
-692.412	-130.912	-0.275	0.038
-691.397	-175.086	0.228	0.006
-690.383	-124.629	-0.311	-0.049
-689.368	-200.000	-0.028	0.168
-688.354	-200.000	-0.008	-0.387
-687.339	800.000	0.131	-0.375
-686.324	15.094	0.261	0.209
-685.310	-37.726	0.316	0.172
-684.295	313.068	0.014	0.027
-683.281	-19.922	-0.271	-0.171
-682.266	-72.156	-0.070	-0.026
-681.251	79.182	-0.053	0.058
-680.237	32.212	-0.346	0.305
-679.222	800.000	-0.031	0.129
-678.208	800.000	-0.043	-0.179
-677.193	-33.009	0.237	-0.134
-676.178	-53.987	-0.236	-0.110
-675.164	-200.000	0.055	-0.260
-674.149	188.284	0.036	-0.055
-673.135	323.519	-0.168	0.327
-672.120	46.275	-0.101	0.096
-671.105	-52.823	0.188	-0.088
-670.091	46.164	-0.109	-0.103
-669.076	137.564	-0.280	-0.374
-668.062	800.000	0.048	0.212
-667.047	336.869	0.119	0.236
-666.032	-27.587	-0.191	0.113
-665.018	50.522	0.183	0.177
-664.003	215.714	-0.046	-0.075
-662.989	-55.604	0.502	0.229
-661.974	-65.856	-0.580	0.237
-660.959	800.000	0.041	-0.171
-659.945	-69.664	-0.209	-0.082
-658.930	-113.947	0.098	-0.019
-657.916	54.128	0.110	0.108
-656.901	-54.091	0.294	0.136
-655.886	-37.769	0.103	-0.056
-654.872	317.963	-0.120	0.232
-653.857	-23.422	0.126	-0.077
-652.843	4.015	0.253	-0.189
-651.828	-200.000	0.025	-0.367
-650.814	800.000	0.083	-0.244
-649.799	43.249	-0.121	-0.113
-648.784	-11.783	-0.244	-0.163
-647.770	800.000	0.095	0.277
-646.755	-200.000	0.029	0.313
-645.741	91.087	0.187	0.214
-644.726	-182.966	0.104	0.002
-643.711	-85.750	-0.072	-0.023
-642.697	-200.000	-0.003	0.097
-641.682	178.716	-0.106	0.158
-640.668	-133.207	-0.243	0.031
-639.653	-139.250	0.182	-0.020
-638.638	-18.298	-0.231	-0.147
-637.624	-26.395	-0.252	0.150
-636.609	800.000	0.116	0.487
-635.595	-130.790	-0.176	0.024
-634.580	800.000	0.041	0.132
-633.565	800.000	-0.088	0.321
-632.551	26.877	-0.234	-0.200
-631.536	84.124	-0.081	0.090
-630.522	101.566	-0.113	0.134
-629.507	26.602	0.159	-0.136
-628.492	-6.284	-0.058	0.040
-627.478	-158.779	0.213	-0.012
-626.463	47.919	0.045	0.043
-625.449	-105.093	-0.241	-0.056
-624.434	23.287	-0.173	-0.144
-623.419	254.864	-0.108	-0.188
-622.405	681.176	0.098	0.259
-621.390	-125.711	-0.153	-0.024
-620.376	-78.078	0.348	-0.122
-619.361	-17.082	-0.056	-0.036
-618.346	107.201	-0.109	-0.131
-617.332	-127.823	0.386	-0.057
-616.317	-42.655	-0.194	-0.100
-615.303	800.000	0.076	0.305
-614.288	-103.496	-0.218	0.052
-613.273	800.000	-0.049	-0.214
-612.259	-104.970	-0.010	-0.002
-611.244	-33.183	0.152	-0.086
-610.230	-112.439	-0.193	-0.039
-609.215	-49.808	0.182	-0.088
-608.201	10.286	0.091	0.071
-607.186	-200.000	-0.016	0.162
-606.171	800.000	-0.081	-0.309
-605.157	800.000	0.107	-0.314
-604.142	-182.293	0.598	-0.011
-603.128	130.878	-0.237	-0.310
-602.113	-58.371	-0.285	0.126
-601.098	53.485	-0.169	-0.165
-600.084	-89.147	0.324	0.097
-599.069	800.000	0.079	-0.243
-598.055	-64.917	-0.250	0.103
-597.040	-200.000	-0.001	0.219
-596.025	-200.000	-0.003	0.282
-595.011	273.952	0.078	-0.140
-593.996	3.822	-0.132	0.098
-592.982	41.806	0.181	0.167
-591.967	-150.370	-0.534	0.042
-590.952	276.385	-0.012	0.022
-589.938	-200.000	-0.015	-0.249
-588.923	-200.000	-0.033	-0.239
-587.909	-200.000	0.058	0.273
-586.894	-200.000	0.043	-0.319
-585.879	-94.784	-0.169	0.047
-584.865	46.277	-0.203	0.191
-583.850	-30.184	0.100	0.058
-582.836	632.525	0.016	-0.041
-581.821	161.153	-0.141	0.201
-580.806	63.723	0.204	0.208
-579.792	96.769	-0.060	0.070
-578.777	43.695	-0.151	0.141
-577.763	98.322	0.099	0.116
-576.748	-200.000	0.022	0.323
-575.733	-200.000	-0.014	-0.083
-574.719	55.593	-0.302	0.297
-573.704	368.851	-0.116	-0.238
-572.690	-159.507	-0.327	-0.019
-571.675	-131.015	-0.356	0.048
-570.661	517.442	0.072	-0.171
-569.646	292.709	-0.139	0.257
-568.631	224.076	-0.151	0.249
-567.617	-171.456	0.120	-0.004
-566.602	53.339	-0.148	0.144
-565.588	19.045	0.152	-0.124
-564.573	-124.001	-0.369	-0.059
-563.558	64.564	-0.054	-0.056
-562.544	309.172	0.050	-0.094
-561.529	463.101	-0.168	-0.382
-560.515	17.577	0.272	-0.219
-559.500	-90.223	0.241	-0.071
-558.485	-200.000	0.044	-0.203
-557.471	62.239	-0.135	0.137
-556.456	358.796	0.127	-0.258
-555.442	-200.000	0.010	-0.118
-554.427	-200.000	0.002	-0.236
-553.412	187.886	0.127	-0.193
-552.398	19.033	0.120	-0.098
-551.383	-16.374	0.094	0.060
-550.369	384.687	-0.127	-0.265
-549.354	306.905	0.133	-0.251
-548.339	-147.762	-0.149	0.013
-547.325	800.000	0.049	0.154
-546.310	127.399	-0.074	-0.095
-545.296	29.461	-0.203	-0.175
-544.281	-110.535	0.270	0.057
-543.266	57.322	-0.292	-0.289
-542.252	95.082	0.064	-0.074
-541.237	97.971	-0.070	-0.081
-540.223	8.219	0.098	0.075
-539.208	126.639	0.235	-0.302
-538.193	131.958	-0.092	0.120
-537.179	-99.457	-0.141	-0.036
-536.164	-35.925	0.135	-0.074
-535.150	300.096	-0.065	0.121
-534.135	-109.644	0.105	0.022
-533.121	385.455	-0.176	0.368
-532.106	-64.742	0.041	0.017
-531.091	798.108	-0.126	0.353
-530.077	564.922	0.093	-0.229
-529.062	-153.091	-0.093	0.007
-528.048	58.765	-0.252	-0.251
-527.033	-123.512	0.560	-0.090
-526.018	444.473	-0.088	-0.196
-525.004	800.000	-0.032	-0.116
-523.989	457.473	0.045	-0.101
-522.975	171.856	0.153	-0.223
-521.960	15.012	-0.090	0.071
-520.945	-45.137	-0.198	-0.100
-519.931	-200.000	0.029	0.196
-518.916	355.243	-0.067	0.135
-517.902	157.402	-0.146	0.204
-516.887	800.000	0.089	-0.279
-515.872	-200.000	0.001	0.113
-514.858	-18.535	-0.387	-0.245
-513.843	70.065	0.175	0.183
-512.829	-179.042	0.376	0.009
-511.814	69.104	0.139	-0.145
-510.799	188.316	0.082	0.124
-509.785	170.517	-0.133	-0.192
-508.770	56.289	-0.051	-0.050
-507.756	-55.597	-0.239	-0.109
-506.741	109.373	-0.060	-0.072
-505.726	-200.000	0.026	0.232
-504.712	-85.006	-0.039	0.012
-503.697	-5.375	-0.169	-0.118
-502.683	282.415	0.068	-0.124
-501.668	780.247	-0.045	-0.124
-500.653	212.400	-0.181	-0.290
-499.639	277.201	0.086	0.155
-498.624	210.459	0.120	0.192
-497.610	-32.980	0.208	-0.117
-496.595	-200.000	-0.036	0.265
-495.581	-22.709	0.256	-0.156
-494.566	-200.000	-0.021	0.436
-493.551	42.651	-0.309	0.285
-492.537	165.140	0.140	0.200
-491.522	78.807	-0.241	0.261
-490.508	279.548	-0.038	-0.070
-489.493	-200.000	0.047	-0.443
-488.478	153.363	-0.235	-0.326
-487.464	219.594	0.105	-0.170
-486.449	183.089	-0.112	-0.168
-485.435	150.303	0.171	-0.235
-484.420	-10.816	-0.170	-0.113
-483.405	-91.947	0.222	0.064
-482.391	800.000	0.023	0.077
-481.376	564.114	-0.100	0.246
-480.362	68.541	0.220	-0.229
-479.347	32.079	-0.184	-0.161
-478.332	56.419	0.176	0.173
-477.318	9.748	-0.117	-0.090
-476.303	34.496	-0.076	-0.067
-475.289	311.212	0.135	0.257
-474.274	-15.734	-0.180	-0.116
-473.259	-200.000	0.003	-0.032
-472.245	17.475	-0.310	0.250
-471.230	800.000	0.050	0.180
-470.216	403.746	-0.015	-0.032
-469.201	316.043	0.087	0.166
-468.186	-200.000	0.024	-0.186
-467.172	-96.379	0.279	0.075
-466.157	65.155	0.077	-0.079
-465.143	146.217	-0.279	0.379
-464.128	-106.003	0.550	-0.125
-463.113	123.536	0.093	-0.118
-462.099	-200.000	-0.012	-0.124
-461.084	-156.098	0.322	-0.021
-460.070	-200.000	-0.010	0.174
-459.055	-128.463	0.225	-0.032
-458.040	-137.859	0.200	0.023
-457.026	800.000	0.097	0.272
-456.011	192.776	0.112	0.171
-454.997	-74.112	0.469	-0.172
-453.982	-200.000	0.009	-0.231
-452.968	155.456	0.075	-0.104
-451.953	-80.566	0.130	-0.044
-450.938	115.390	-0.117	0.144
-449.924	-200.000	0.022	0.263
-448.909	-60.290	0.255	-0.110
-447.895	223.304	0.253	-0.413
-446.880	-124.439	-0.291	-0.046
-445.865	800.000	-0.035	0.148
-444.851	106.879	0.092	0.110
-443.836	-89.175	0.114	0.034
-442.822	-200.000	0.007	0.185
-441.807	55.960	-0.109	-0.107
-440.792	53.606	-0.152	-0.148
-439.778	-134.778	-0.233	0.029
-438.763	279.567	-0.143	0.259
-437.749	161.666	-0.034	-0.048
-436.734	800.000	-0.103	-0.301
-435.719	4.159	0.275	0.203
-434.705	-200.000	-0.036	-0.166
-433.690	240.069	-0.110	-0.185
-432.676	30.172	0.071	-0.061
-431.661	-200.000	0.016	-0.260
-430.646	800.000	-0.071	-0.251
-429.632	-200.000	-0.009	0.147
-428.617	800.000	-0.083	0.277
-427.603	196.181	-0.105	0.162
-426.588	183.875	0.040	-0.060
-425.573	72.208	0.029	0.031
-424.559	-200.000	0.023	0.123
-423.544	800.000	0.088	-0.365
-422.530	-75.292	0.153	-0.055
-421.515	-120.055	0.304	-0.053
-420.500	-20.824	-0.099	-0.061
-419.486	800.000	0.106	-0.406
-418.471	-125.709	-0.188	0.029
-417.457	-54.092	0.102	0.047
-416.442	-107.711	0.120	0.026
-415.428	300.300	0.063	0.117
-414.413	47.685	-0.341	-0.321
-413.398	-200.000	0.011	-0.093
-412.384	-183.053	0.299	0.005
-411.369	-64.527	-0.193	-0.079
-410.355	6.222	0.111	-0.083
-409.340	-196.738	-0.193	0.001
-408.325	800.000	-0.095	-0.409
-407.311	-136.917	0.136	-0.016
-406.296	800.000	-0.025	0.103
-405.282	-19.442	0.194	0.121
-404.267	3.275	0.074	0.054
-403.252	253.903	0.123	0.211
-402.238	35.113	-0.018	0.016
-401.223	219.479	-0.217	0.351
-400.209	120.396	-0.151	0.190
-399.194	-38.906	-0.216	-0.115
-398.179	-3.005	-0.151	0.107
-397.165	-200.000	-0.005	-0.210
-396.150	800.000	0.013	-0.044
-395.136	-139.377	-0.122	-0.013
-394.121	-98.966	-0.151	-0.039
-393.106	-27.483	0.429	-0.252
-392.092	126.572	0.095	0.121
-391.077	10.939	-0.049	-0.038
-390.063	800.000	0.064	0.253
-389.048	800.000	0.080	-0.306
-388.033	-66.965	0.156	0.062
-387.019	-200.000	-0.004	0.124
-386.004	2.182	0.110	0.080
-384.990	-172.256	-0.267	-0.009
-383.975	461.836	0.055	-0.123
-382.960	341.805	0.123	0.243
-381.946	82.167	-0.174	0.190
-380.931	615.414	0.053	-0.135
-379.917	-9.045	0.079	-0.054
-378.902	800.000	0.059	-0.166
-377.888	-49.064	0.055	-0.027
-376.873	194.782	0.168	-0.258
-375.858	182.758	-0.031	0.046
-374.844	-200.000	-0.034	0.196
-373.829	-67.202	0.246	0.097
-372.815	-128.574	0.093	-0.013
-371.800	-200.000	0.060	0.288
-370.785	-83.663	-0.224	0.072
-369.771	38.619	-0.170	0.153
-368.756	-25.190	-0.041	-0.025
-367.742	-200.000	-0.045	0.361
-366.727	800.000	0.030	0.095
-365.712	-200.000	-0.014	-0.170
-364.698	-27.558	-0.209	0.122
-363.683	596.003	-0.030	-0.075
-362.669	-72.564	0.106	0.039
-361.654	800.000	-0.125	-0.461
-360.639	-97.634	0.117	-0.031
-359.625	-200.000	-0.015	-0.205
-358.610	360.655	-0.043	-0.087
-357.596	-200.000	-0.358	-0.001
-356.581	369.709	0.195	0.397
-355.566	-30.859	-0.069	-0.040
-354.552	335.805	0.014	0.027
-353.537	170.312	-0.144	-0.207
-352.523	-193.191	0.295	0.003
-351.508	-95.048	-0.301	-0.082
-350.493	108.837	0.102	0.123
-349.479	-121.066	0.283	-0.048
-348.464	-159.087	0.163	0.009
-347.450	83.993	-0.078	-0.085
-346.435	675.735	0.090	-0.236
-345.420	-14.332	-0.208	-0.135
-344.406	-89.089	0.347	-0.103
-343.391	-0.820	0.191	-0.136
-342.377	-172.172	0.326	-0.011
-341.362	11.160	-0.230	-0.177
-340.348	800.000	-0.032	0.122
-339.333	32.140	0.303	0.263
-338.318	-200.000	-0.037	0.187
-337.304	493.098	0.099	-0.230
-336.289	-126.446	-0.245	-0.037
-335.275	29.785	-0.052	0.045
-334.260	794.411	-0.011	-0.031
-333.245	-145.237	-0.227	0.021
-332.231	-65.496	0.066	-0.027
-331.216	-158.097	-0.168	-0.010
-330.202	575.650	0.061	0.151
-329.187	-200.000	-0.025	0.146
-328.172	-1.889	0.295	0.209
-327.158	800.000	0.134	0.428
-326.143	216.791	-0.129	0.206
-325.129	-200.000	-0.026	0.164
-324.114	-41.680	0.141	0.073
-323.099	-38.006	0.194	0.104
-322.085	-66.736	0.441	-0.176
-321.070	-200.000	0.006	0.133
-320.056	85.943	0.149	0.165
-319.041	105.864	0.113	0.134
-318.026	8.712	0.192	0.146
-317.012	48.663	0.137	-0.130
-315.997	-35.472	-0.160	-0.087
-314.983	-89.479	0.084	0.025
-313.968	-101.474	0.169	0.041
-312.953	-200.000	0.013	-0.097
-311.939	78.304	-0.269	-0.288
-310.924	8.223	0.228	-0.173
-309.910	58.324	-0.164	-0.161
-308.895	-200.000	0.034	0.341
-307.880	-200.000	0.024	0.192
-306.866	392.411	-0.188	-0.393
-305.851	-85.535	-0.487	0.152
-304.837	113.424	-0.113	0.138
-303.822	800.000	0.026	-0.112
-302.807	53.270	0.128	-0.124
-301.793	-111.991	-0.336	0.068
-300.778	71.898	0.076	-0.079
-299.764	-142.878	0.073	-0.007
-298.749	347.482	-0.043	0.086
-297.735	-200.000	0.009	-0.258
-296.720	-175.867	0.150	0.004
-295.705	-109.126	-0.250	0.053
-294.691	-106.535	0.098	-0.022
-293.676	273.857	-0.149	-0.265
-292.662	-75.029	-0.216	-0.078
-291.647	47.008	-0.061	0.057
-290.632	-36.521	0.036	0.020
-289.618	800.000	0.035	0.101
-288.603	-13.306	-0.064	-0.042
-287.589	248.656	0.065	-0.111
-286.574	78.859	-0.273	-0.293
-285.559	-119.115	-0.330	0.058
-284.545	149.042	-0.226	0.307
-283.530	-178.736	0.170	-0.004
-282.516	172.113	0.106	-0.153
-281.501	144.352	-0.167	0.224
-280.486	401.880	0.131	0.276
-279.472	-143.697	0.067	0.006
-278.457	800.000	-0.079	-0.223
-277.443	-148.244	0.300	-0.025
-276.428	506.781	-0.121	0.282
-275.413	-38.701	-0.165	-0.088
-274.399	-48.859	-0.020	-0.010
-273.384	-97.164	-0.182	-0.048
-272.370	239.672	0.095	0.159
-271.355	13.175	-0.154	-0.119
-270.340	-100.626	-0.544	0.135
-269.326	-200.000	-0.005	0.197
-268.311	-200.000	-0.002	0.266
-267.297	37.635	-0.169	0.150
-266.282	7.280	0.304	0.228
-265.267	0.857	-0.226	0.163
-264.253	9.430	0.215	-0.163
-263.238	144.765	-0.083	0.112
-262.224	39.386	0.222	0.200
-261.209	-200.000	-0.054	0.363
-260.195	217.559	-0.055	-0.088
-259.180	-200.000	-0.041	-0.331
-258.165	519.132	0.088	0.208
-257.151	29.683	-0.154	-0.131
-256.136	349.364	-0.119	0.236
-255.122	-102.628	0.360	0.086
-254.107	-115.246	-0.378	0.072
-253.092	-157.728	-0.263	0.016
-252.078	-140.401	0.363	0.038
-251.063	-200.000	-0.003	0.334
-250.049	-128.603	0.143	-0.020
-249.034	-200.000	0.000	-0.146
-248.019	-74.702	-0.143	-0.051
-247.005	-118.665	0.011	0.002
-245.990	-200.000	0.011	0.071
-244.976	-23.237	-0.153	0.092
-243.961	106.686	-0.057	0.068
-242.946	-127.383	-0.149	-0.022
-241.932	-200.000	0.037	-0.234
-240.917	-52.377	-0.200	0.093
-239.903	-200.000	-0.021	0.142
-238.888	20.738	0.154	0.125
-237.873	394.059	-0.121	0.252
-236.859	356.643	0.113	0.225
-235.844	800.000	0.080	0.232
-234.830	62.890	-0.286	-0.287
-233.815	22.149	0.209	0.171
-232.800	-142.816	0.228	0.022
-231.786	60.231	0.164	0.163
-230.771	-0.830	-0.118	-0.084
-229.757	-162.241	0.482	-0.024
-228.742	-200.000	-0.001	0.412
-227.727	-200.000	-0.053	-0.345
-226.713	85.672	0.105	-0.115
-225.698	66.513	0.142	-0.145
-224.684	-167.403	-0.250	0.010
-223.669	170.268	0.122	0.175
-222.655	-63.747	0.185	-0.076
-221.640	86.054	-0.179	0.198
-220.625	192.190	-0.062	0.094
-219.611	-55.900	0.145	-0.065
-218.596	89.359	0.175	-0.195
-217.582	32.882	-0.162	-0.141
-216.567	-146.293	0.346	0.030
-215.552	-3.657	0.185	-0.129
-214.538	-125.006	0.201	0.031
-213.523	260.110	-0.221	-0.383
-212.509	-200.000	0.060	-0.339
-211.494	-149.593	-0.238	-0.019
-210.479	-55.085	-0.221	-0.100
-209.465	54.699	0.122	-0.117
-208.450	-45.750	0.180	-0.089
-207.436	-156.616	0.138	-0.009
-206.421	462.435	-0.086	-0.192
-205.406	39.274	-0.078	0.070
-204.392	531.944	-0.098	-0.231
-203.377	291.423	0.095	0.173
-202.363	45.223	0.190	-0.175
-201.348	-9.599	0.068	-0.045
-200.333	-96.310	0.141	-0.037
-199.319	-200.000	-0.011	-0.167
-198.304	26.403	0.271	-0.227
-197.290	194.336	-0.029	-0.044
-196.275	9.431	0.170	-0.129
-195.260	691.923	0.191	0.500
-194.246	-186.358	0.100	0.001
-193.231	-200.000	0.036	-0.305
-192.217	-200.000	-0.041	0.321
-191.202	163.290	-0.188	0.264
-190.187	-39.802	0.148	-0.078
-189.173	800.000	-0.121	-0.336
-188.158	-58.899	-0.157	0.068
-187.144	33.768	0.129	-0.113
-186.129	326.245	0.017	-0.033
-185.114	-94.951	-0.083	-0.023
-184.100	800.000	-0.103	0.337
-183.085	-113.873	-0.461	0.090
-182.071	-104.089	-0.338	0.079
-181.056	319.121	0.120	0.229
-180.042	123.213	-0.045	-0.057
-179.027	-200.000	0.004	-0.400
-178.012	-200.000	0.003	0.033
-176.998	615.023	-0.090	0.226
-175.983	-43.181	-0.144	0.073
-174.969	29.935	0.186	-0.159
-173.954	39.700	0.150	0.134
-172.939	-59.168	0.334	0.144
-171.925	-200.000	0.020	0.104
-170.910	-145.687	-0.119	-0.011
-169.896	-200.000	0.300	0.001
-168.881	-80.451	-0.247	-0.083
-167.866	-55.651	-0.187	0.084
-166.852	-200.000	0.057	-0.354
-165.837	126.910	0.145	-0.184
-164.823	241.900	-0.066	0.111
-163.808	185.198	0.195	0.289
-162.793	800.000	-0.053	0.208
-161.779	-120.908	-0.241	0.041
-160.764	448.243	-0.232	-0.510
-159.750	123.930	0.178	0.223
-158.735	-200.000	0.039	0.336
-157.720	-87.414	0.220	-0.067
-156.706	-79.210	0.240	-0.081
-155.691	-158.694	-0.098	0.006
-154.677	18.971	0.074	-0.059
-153.662	-200.000	0.026	0.135
-152.647	-174.140	-0.192	-0.006
-151.633	69.840	0.203	-0.209
-150.618	152.620	0.248	-0.338
-149.604	339.445	0.200	0.390
-148.589	384.385	-0.106	0.219
-147.574	645.993	0.086	0.219
-146.560	21.706	-0.206	-0.168
-145.545	138.780	-0.150	0.198
-144.531	132.734	0.019	-0.024
-143.516	-116.644	-0.501	0.092
-142.502	-28.231	0.203	-0.117
-141.487	-200.000	0.030	0.386
-140.472	22.163	-0.110	0.090
-139.458	-176.516	-0.197	-0.005
-138.443	105.838	0.174	0.206
-137.429	-200.000	-0.000	0.145
-136.414	38.778	0.238	0.212
-135.399	-7.220	-0.379	0.256
-134.385	249.746	0.083	0.140
-133.370	-134.057	-0.161	0.020
-132.356	-60.018	0.176	0.075
-131.341	-41.860	-0.067	0.034
-130.326	37.802	-0.087	0.077
-129.312	189.084	0.148	-0.222
-128.297	9.767	0.280	0.212
-127.283	-97.062	0.114	-0.030
-126.268	-31.456	0.099	0.055
-125.253	-50.503	-0.033	-0.016
-124.239	-70.698	-0.147	-0.055
-123.224	-120.987	0.248	0.042
-122.210	-61.979	0.299	-0.125
-121.195	366.131	-0.107	-0.216
-120.180	-64.294	-0.224	0.091
