DTS Sentinel unit serial number:	SN413079Multiplexer serial number:	ORYXHardware model number:	OX4-SRSoftware version number:	ORYX F/W v4.00 Oryx Data Collector v3.7.2.0data status	okinstallation	princeton_trtdifferential loss correction	single-endedforward channel	channel 3reverse channel	N/Adate	2019/09/17time	16:00:35forward acquisition time	60.00reverse acquisition time	0.00gamma	496.2192k internal	0.2292k external	0.2292temperature offset calibration	0.9953default loss term (dB/km)	0.3790temperature slope calibration	1.0000multiplexer offset coefficient	1.0000multiplexer slope coefficient	1.0000fibre end	0.00T internal ref (°C)	39.92T ext. ref 1 (°C)	0.37T ext. ref 2 (°C)	38.60length (m)	temperature (°C)	Stokes	anti-Stokes-747.200	79.919	0.169	-0.186
-746.185	303.096	0.087	-0.165
-745.171	344.104	-0.113	0.227
-744.156	-16.581	0.418	0.271
-743.142	197.498	-0.121	0.189
-742.127	-49.647	0.157	0.077
-741.112	122.074	0.149	-0.190
-740.098	-34.964	0.183	0.102
-739.083	-79.075	-0.093	0.032
-738.069	502.698	0.186	0.440
-737.054	-200.000	0.024	0.179
-736.039	-189.921	-0.261	0.003
-735.025	132.271	-0.116	0.153
-734.010	-122.429	0.315	0.053
-732.996	-157.096	-0.054	0.003
-731.981	369.330	0.094	0.194
-730.966	-13.153	-0.185	-0.123
-729.952	173.418	-0.137	-0.202
-728.937	800.000	0.028	0.083
-727.923	-140.529	0.083	-0.009
-726.908	800.000	-0.118	-0.365
-725.894	-121.086	-0.272	0.047
-724.879	-5.314	-0.040	-0.028
-723.864	-17.450	0.280	-0.180
-722.850	174.242	-0.100	0.148
-721.835	-93.683	0.084	-0.024
-720.821	-53.603	0.049	-0.023
-719.806	213.040	-0.140	-0.226
-718.791	-44.736	-0.382	0.195
-717.777	418.244	0.037	-0.080
-716.762	84.077	0.051	0.057
-715.748	800.000	-0.047	-0.143
-714.733	181.045	0.071	-0.107
-713.718	-74.414	-0.181	0.067
-712.704	65.949	-0.170	-0.176
-711.689	-129.158	0.347	-0.049
-710.675	-112.061	-0.212	0.044
-709.660	-194.378	0.534	-0.004
-708.645	317.345	0.039	-0.076
-707.631	800.000	-0.074	0.303
-706.616	800.000	0.040	0.126
-705.602	-17.096	-0.399	0.257
-704.587	125.652	0.081	0.104
-703.572	23.370	0.196	0.165
-702.558	-200.000	0.076	-0.395
-701.543	-200.000	-0.067	-0.301
-700.529	46.419	0.076	-0.072
-699.514	-54.035	0.104	-0.048
-698.499	800.000	0.098	-0.388
-697.485	515.756	0.094	-0.225
-696.470	-20.730	0.276	0.173
-695.456	115.397	0.079	-0.099
-694.441	200.836	-0.162	-0.254
-693.426	615.431	-0.098	-0.251
-692.412	-21.627	0.123	-0.077
-691.397	48.150	0.085	-0.081
-690.383	-86.952	0.213	0.066
-689.368	67.629	-0.006	-0.007
-688.354	-21.259	-0.025	-0.016
-687.339	30.455	-0.099	0.086
-686.324	-200.000	-0.007	0.137
-685.310	-1.729	0.150	-0.108
-684.295	-13.608	-0.102	-0.068
-683.281	409.801	-0.094	-0.204
-682.266	494.008	-0.046	-0.109
-681.251	-31.869	-0.337	-0.193
-680.237	-200.000	-0.012	-0.294
-679.222	-152.982	-0.176	-0.013
-678.208	173.791	-0.135	-0.198
-677.193	98.410	0.134	-0.157
-676.178	25.822	0.126	0.107
-675.164	236.408	-0.175	0.296
-674.149	0.188	-0.130	-0.094
-673.135	800.000	-0.080	-0.300
-672.120	16.664	-0.114	0.092
-671.105	170.587	0.150	-0.220
-670.091	-200.000	-0.057	-0.472
-669.076	548.443	-0.085	0.207
-668.062	17.637	-0.073	0.059
-667.047	-116.279	-0.501	0.095
-666.032	-120.965	-0.112	0.019
-665.018	540.657	0.055	0.133
-664.003	-75.828	-0.300	-0.109
-662.989	800.000	0.019	-0.075
-661.974	-67.486	0.224	-0.090
-660.959	281.792	-0.091	-0.166
-659.945	-163.548	-0.179	-0.009
-658.930	-135.899	0.102	-0.012
-657.916	77.283	-0.315	-0.342
-656.901	-73.491	0.584	-0.217
-655.886	-100.969	-0.242	0.061
-654.872	800.000	0.136	0.428
-653.857	-65.343	0.160	0.066
-652.843	-200.000	0.049	-0.326
-651.828	66.628	0.108	-0.112
-650.814	183.570	-0.032	0.048
-649.799	438.255	-0.023	0.051
-648.784	-200.000	0.024	-0.222
-647.770	8.122	-0.406	-0.311
-646.755	196.649	-0.037	-0.058
-645.741	-117.245	-0.041	0.008
-644.726	43.979	-0.073	-0.068
-643.711	-174.778	-0.393	-0.011
-642.697	-200.000	-0.016	0.331
-641.682	-200.000	-0.014	-0.135
-640.668	-128.269	-0.307	-0.045
-639.653	251.589	0.139	0.241
-638.638	8.283	-0.079	-0.061
-637.624	114.604	0.032	0.039
-636.609	-115.505	0.202	0.039
-635.595	-83.054	0.415	-0.136
-634.580	800.000	-0.066	-0.201
-633.565	275.856	0.030	0.054
-632.551	-78.728	-0.401	-0.139
-631.536	225.602	0.094	-0.155
-630.522	-10.644	0.272	0.183
-629.507	322.811	0.176	-0.342
-628.492	-131.651	-0.247	-0.033
-627.478	-121.770	-0.132	-0.022
-626.463	-133.682	0.153	0.019
-625.449	241.310	0.126	0.215
-624.434	-191.258	-0.393	-0.004
-623.419	103.196	-0.210	0.251
-622.405	58.726	0.072	-0.072
-621.390	-96.781	0.183	0.049
-620.376	-144.006	-0.080	-0.008
-619.361	592.631	0.065	-0.163
-618.346	21.648	0.078	0.065
-617.332	346.916	-0.055	0.110
-616.317	77.361	-0.147	-0.160
-615.303	800.000	-0.065	0.274
-614.288	-129.795	-0.265	-0.037
-613.273	-60.563	0.134	-0.058
-612.259	-200.000	0.040	-0.333
-611.244	-9.705	-0.164	-0.111
-610.230	-120.952	-0.375	0.064
-609.215	-83.310	-0.099	-0.032
-608.201	324.328	-0.163	0.318
-607.186	83.073	0.097	-0.107
-606.171	79.523	0.180	-0.197
-605.157	-144.761	0.203	-0.019
-604.142	-200.000	0.005	0.293
-603.128	799.112	-0.071	-0.199
-602.113	97.947	-0.164	0.192
-601.098	25.144	-0.081	0.068
-600.084	161.174	0.137	-0.195
-599.069	21.878	0.141	0.117
-598.055	-66.854	-0.157	-0.063
-597.040	383.193	0.040	0.084
-596.025	-43.790	-0.142	0.073
-595.011	-200.000	-0.065	0.381
-593.996	196.979	0.051	-0.079
-592.982	800.000	0.005	0.015
-591.967	138.415	0.198	0.265
-590.952	-51.899	-0.188	0.089
-589.938	-49.149	-0.079	-0.039
-588.923	800.000	-0.134	-0.403
-587.909	785.259	0.179	-0.499
-586.894	-127.057	-0.445	0.066
-585.879	800.000	0.028	0.105
-584.865	-160.277	0.247	0.014
-583.850	-200.000	0.016	0.105
-582.836	-200.000	-0.005	0.046
-581.821	228.478	0.183	0.303
-580.806	-145.758	-0.385	-0.035
-579.792	691.986	-0.164	0.437
-578.777	-92.872	-0.285	-0.081
-577.763	277.433	0.150	-0.272
-576.748	250.949	0.094	0.163
-575.733	306.921	-0.202	0.383
-574.719	-105.775	-0.304	-0.070
-573.704	687.726	-0.025	-0.065
-572.690	-126.746	-0.252	-0.038
-571.675	-96.542	-0.175	0.047
-570.661	8.012	0.284	0.217
-569.646	43.309	-0.364	-0.338
-568.631	58.189	0.137	0.137
-567.617	63.872	-0.101	-0.104
-566.602	-119.424	0.289	-0.051
-565.588	-178.185	0.369	-0.009
-564.573	-14.693	-0.289	0.189
-563.558	-36.154	0.286	-0.157
-562.544	-54.336	-0.102	-0.047
-561.529	-24.884	-0.097	0.059
-560.515	136.273	0.081	0.108
-559.500	800.000	0.022	0.089
-558.485	243.725	0.069	-0.118
-557.471	-116.551	0.176	0.033
-556.456	-114.176	-0.183	0.036
-555.442	-180.404	0.297	0.006
-554.427	-168.905	0.057	0.002
-553.412	480.413	-0.076	-0.175
-552.398	69.837	-0.150	-0.158
-551.383	173.020	-0.053	0.077
-550.369	-89.421	-0.220	0.066
-549.354	17.512	0.131	-0.105
-548.339	695.768	0.040	-0.106
-547.325	5.325	-0.042	0.031
-546.310	16.565	0.197	-0.158
-545.296	-77.767	0.236	0.083
-544.281	-82.963	-0.238	0.078
-543.266	28.746	-0.156	0.134
-542.252	-200.000	0.032	0.444
-541.237	-99.477	0.083	-0.021
-540.223	2.992	0.227	-0.168
-539.208	-200.000	0.039	-0.265
-538.193	800.000	0.013	-0.055
-537.179	-200.000	-0.001	-0.050
-536.164	765.318	-0.105	0.290
-535.150	13.328	-0.131	0.103
-534.135	154.433	0.261	-0.364
-533.121	35.781	0.248	-0.221
-532.106	364.193	-0.107	-0.219
-531.091	-146.760	-0.260	-0.023
-530.077	120.390	-0.273	-0.344
-529.062	52.416	0.083	-0.081
-528.048	-77.801	0.117	0.041
-527.033	240.476	0.057	0.096
-526.018	-188.467	0.511	0.006
-525.004	-68.712	0.301	-0.118
-523.989	800.000	0.103	-0.378
-522.975	-163.757	0.210	0.010
-521.960	-101.741	-0.205	-0.050
-520.945	70.665	-0.068	-0.071
-519.931	-200.000	-0.011	0.102
-518.916	-9.939	0.112	-0.075
-517.902	508.969	0.143	-0.338
-516.887	-76.731	0.087	-0.031
-515.872	526.142	0.091	0.218
-514.858	13.036	-0.040	0.032
-513.843	-65.262	-0.093	-0.038
-512.829	-200.000	-0.088	0.455
-511.814	-155.642	-0.190	-0.012
-510.799	-200.000	0.052	0.287
-509.785	-15.695	-0.283	-0.183
-508.770	13.666	0.181	0.143
-507.756	23.952	-0.194	-0.162
-506.741	-109.873	0.184	-0.039
-505.726	-187.879	-0.060	-0.001
-504.712	-66.753	-0.211	0.085
-503.697	81.772	-0.192	0.211
-502.683	-91.515	0.267	-0.077
-501.668	129.510	-0.220	-0.285
-500.653	87.394	-0.048	0.054
-499.639	-87.514	-0.210	0.064
-498.624	292.179	0.116	-0.214
-497.610	-156.598	-0.282	0.018
-496.595	-200.000	-0.017	-0.096
-495.581	504.246	0.040	-0.095
-494.566	-33.535	-0.049	-0.027
-493.551	111.658	-0.091	-0.111
-492.537	-38.332	0.087	-0.047
-491.522	-200.000	-0.033	-0.281
-490.508	30.624	0.115	0.100
-489.493	27.375	0.214	-0.182
-488.478	-200.000	0.052	0.331
-487.464	-200.000	0.004	-0.207
-486.449	-164.407	-0.353	0.016
-485.435	792.949	0.026	0.071
-484.420	-31.293	0.216	-0.123
-483.405	135.434	0.039	0.052
-482.391	-140.128	0.179	0.019
-481.376	-100.840	-0.333	-0.083
-480.362	170.799	0.058	0.085
-479.347	-70.973	-0.205	0.078
-478.332	-164.730	-0.053	0.002
-477.318	-3.014	0.137	-0.097
-476.303	-64.282	0.331	-0.136
-475.289	-200.000	-0.019	-0.152
-474.274	800.000	0.043	0.161
-473.259	-200.000	-0.009	-0.077
-472.245	-81.375	-0.254	-0.085
-471.230	524.829	-0.046	0.111
-470.216	-86.218	-0.286	0.089
-469.201	400.100	0.066	0.139
-468.186	245.504	0.139	-0.238
-467.172	800.000	0.023	0.065
-466.157	8.379	0.052	-0.040
-465.143	-16.923	-0.064	-0.041
-464.128	-24.549	-0.227	0.137
-463.113	381.090	-0.067	-0.140
-462.099	416.406	-0.022	-0.048
-461.084	412.267	0.114	-0.246
-460.070	-53.154	-0.104	0.048
-459.055	-200.000	-0.009	-0.204
-458.040	-200.000	-0.007	0.117
-457.026	157.186	0.113	-0.158
-456.011	-24.847	-0.077	-0.047
-454.997	424.923	0.092	0.200
-453.982	-200.000	-0.052	-0.361
-452.968	800.000	-0.057	0.185
-451.953	-13.942	0.274	-0.179
-450.938	-181.492	0.275	0.005
-449.924	-128.550	0.088	0.013
-448.909	-65.349	0.060	0.024
-447.895	-45.370	-0.149	0.075
-446.880	-15.351	0.185	-0.120
-445.865	-200.000	0.042	0.000
-444.851	64.072	0.089	0.090
-443.836	-170.728	-0.231	0.008
-442.822	263.740	0.050	0.088
-441.807	-34.118	0.101	0.056
-440.792	-104.486	-0.038	-0.009
-439.778	-39.816	0.331	-0.175
-438.763	-157.218	-0.072	0.004
-437.749	682.569	0.030	-0.079
-436.734	-90.874	-0.214	0.062
-435.719	228.109	0.224	-0.369
-434.705	157.194	-0.029	0.040
-433.690	-81.919	0.279	0.092
-432.676	-200.000	0.009	0.122
-431.661	-105.740	-0.096	-0.022
-430.646	-200.000	-0.001	-0.217
-429.632	-119.249	-0.129	-0.023
-428.617	-2.986	0.342	-0.242
-427.603	566.043	0.101	0.247
-426.588	-24.953	-0.156	-0.093
-425.573	-37.082	0.129	-0.070
-424.559	146.614	0.031	-0.042
-423.544	119.378	0.126	0.157
-422.530	-70.888	0.154	0.059
-421.515	72.264	0.154	0.162
-420.500	-130.654	0.319	0.043
-419.486	19.863	-0.295	0.240
-418.471	800.000	0.018	0.069
-417.457	26.123	-0.053	-0.045
-416.442	392.125	0.134	0.281
-415.428	245.704	0.111	0.190
-414.413	800.000	0.060	0.172
-413.398	-200.000	0.001	0.231
-412.384	-49.268	0.206	-0.100
-411.369	-200.000	-0.032	0.375
-410.355	800.000	-0.021	-0.076
-409.340	469.892	-0.156	0.355
-408.325	800.000	0.048	0.180
-407.311	-200.000	-0.030	0.141
-406.296	20.152	0.144	-0.118
-405.282	86.852	-0.176	0.196
-404.267	96.780	0.181	0.210
-403.252	143.074	-0.039	0.052
-402.238	-39.099	-0.149	-0.079
-401.223	271.458	-0.101	-0.180
-400.209	-200.000	0.034	-0.340
-399.194	73.114	-0.058	-0.061
-398.179	-95.702	0.109	-0.030
-397.165	-73.112	-0.202	-0.075
-396.150	-200.000	0.016	0.267
-395.136	-48.502	-0.058	0.028
-394.121	-62.618	0.194	0.081
-393.106	128.994	-0.087	-0.113
-392.092	-6.406	0.316	-0.218
-391.077	-17.283	-0.059	-0.038
-390.063	800.000	-0.103	0.351
-389.048	-15.370	0.161	-0.104
-388.033	713.942	-0.074	-0.199
-387.019	-191.746	0.139	0.001
-386.004	-99.013	0.197	0.051
-384.990	-26.968	0.113	0.067
-383.975	261.665	0.183	-0.321
-382.960	-47.302	-0.177	-0.087
-381.946	-200.000	0.006	-0.247
-380.931	-200.000	0.034	-0.373
-379.917	-94.435	-0.243	-0.067
-378.902	160.807	0.208	0.294
-377.888	89.044	-0.137	0.153
-376.873	-30.610	-0.152	-0.087
-375.858	-79.346	-0.203	0.069
-374.844	-149.586	0.177	0.014
-373.829	166.277	0.286	0.408
-372.815	114.457	-0.242	-0.298
-371.800	-121.212	-0.231	-0.039
-370.785	800.000	-0.032	-0.123
-369.771	-200.000	0.009	-0.201
-368.756	-40.273	0.204	0.107
-367.742	-31.356	-0.291	0.165
-366.727	439.389	-0.022	-0.049
-365.712	-23.441	0.262	-0.159
-364.698	-180.386	-0.362	0.008
-363.683	63.890	-0.148	0.150
-362.669	283.319	-0.176	-0.319
-361.654	-200.000	-0.005	0.159
-360.639	132.341	-0.088	-0.114
-359.625	-200.000	0.004	-0.086
-358.610	-200.000	-0.014	0.236
-357.596	85.500	0.151	-0.167
-356.581	-95.748	0.122	0.033
-355.566	-100.999	-0.377	-0.093
-354.552	800.000	-0.061	-0.184
-353.537	-83.401	-0.126	-0.041
-352.523	-32.405	0.304	0.171
-351.508	56.092	0.295	-0.289
-350.493	-47.022	0.241	0.119
-349.479	182.366	-0.054	-0.080
-348.464	800.000	-0.096	-0.284
-347.450	303.583	-0.106	0.198
-346.435	-121.214	0.197	0.033
-345.420	-200.000	-0.010	0.164
-344.406	10.131	0.101	0.077
-343.391	-101.085	-0.218	0.054
-342.377	33.489	-0.164	-0.144
-341.362	238.633	-0.059	-0.099
-340.348	-200.000	-0.030	-0.274
-339.333	175.165	-0.074	0.108
-338.318	371.230	-0.114	0.233
-337.304	28.886	0.284	-0.242
-336.289	-80.488	-0.080	0.027
-335.275	-200.000	0.047	-0.300
-334.260	29.750	0.067	0.057
-333.245	-96.231	-0.386	-0.103
-332.231	62.176	0.154	0.155
-331.216	262.726	0.094	-0.165
-330.202	151.738	0.094	0.129
-329.187	263.652	-0.100	-0.176
-328.172	800.000	-0.059	0.167
-327.158	-193.639	0.150	0.001
-326.143	18.553	-0.223	-0.180
-325.129	-110.667	0.449	0.094
-324.114	365.780	-0.041	-0.083
-323.099	61.462	0.134	-0.134
-322.085	236.875	-0.118	0.197
-321.070	-44.915	-0.156	0.078
-320.056	-69.571	0.215	-0.083
-319.041	-158.032	-0.122	0.007
-318.026	24.858	-0.049	0.041
-317.012	627.598	-0.100	0.255
-315.997	-25.868	0.250	-0.149
-314.983	546.788	0.072	0.173
-313.968	-39.300	-0.410	0.217
-312.953	-116.516	0.079	-0.015
-311.939	-200.000	0.085	-0.464
-310.924	84.953	0.236	-0.260
-309.910	14.527	0.184	0.145
-308.895	-200.000	-0.014	0.292
-307.880	-200.000	0.035	-0.295
-306.866	479.011	-0.046	0.104
-305.851	-200.000	-0.039	-0.195
-304.837	-77.137	0.271	0.095
-303.822	185.004	-0.066	0.099
-302.807	-117.968	0.404	-0.073
-301.793	-41.087	0.114	-0.059
-300.778	-60.122	0.281	-0.121
-299.764	-200.000	0.020	-0.202
-298.749	98.911	0.197	0.229
-297.735	659.572	-0.039	0.101
-296.720	-82.338	0.193	0.063
-295.705	-78.956	-0.023	-0.008
-294.691	468.834	0.070	0.159
-293.676	-200.000	0.047	0.293
-292.662	-65.525	0.292	-0.118
-291.647	-115.058	0.072	-0.014
-290.632	378.228	-0.135	0.277
-289.618	-95.251	-0.174	0.047
-288.603	-182.055	0.052	0.001
-287.589	-58.426	-0.219	-0.096
-286.574	569.310	0.126	0.308
-285.559	-39.467	-0.162	0.085
-284.545	-116.443	0.221	0.041
-283.530	-128.930	-0.353	0.050
-282.516	25.924	0.059	0.049
-281.501	-55.395	0.315	0.142
-280.486	46.059	-0.228	-0.212
-279.472	605.506	0.132	-0.329
-278.457	-156.965	-0.169	-0.010
-277.443	142.054	-0.160	0.213
-276.428	-200.000	0.029	0.300
-275.413	-168.780	0.194	-0.007
-274.399	-187.056	-0.286	0.004
-273.384	-112.221	0.125	-0.025
-272.370	151.311	-0.217	0.298
-271.355	54.641	-0.225	-0.218
-270.340	-36.291	-0.238	0.129
-269.326	-129.568	-0.357	-0.050
-268.311	257.305	0.201	-0.347
-267.297	-200.000	-0.015	-0.211
-266.282	335.190	0.123	-0.240
-265.267	-200.000	-0.004	-0.024
-264.253	800.000	0.122	-0.344
-263.238	-135.525	0.271	-0.032
-262.224	-150.359	0.284	-0.022
-261.209	-200.000	0.005	0.126
-260.195	-21.713	0.162	-0.099
-259.180	113.210	0.097	-0.118
-258.165	-119.895	0.114	-0.020
-257.151	-200.000	-0.029	-0.286
-256.136	-142.206	0.252	-0.025
-255.122	-158.167	-0.220	0.013
-254.107	232.912	-0.066	0.109
-253.092	658.422	0.187	0.483
-252.078	698.416	0.034	0.091
-251.063	14.907	-0.237	-0.186
-250.049	-141.276	-0.137	0.014
-249.034	-125.281	-0.091	0.014
-248.019	682.249	-0.135	0.353
-247.005	800.000	0.089	-0.290
-245.990	-60.122	-0.205	0.088
-244.976	147.082	0.049	0.066
-243.961	699.386	-0.105	0.278
-242.946	124.860	-0.176	0.222
-241.932	-60.723	-0.037	-0.016
-240.917	-3.093	0.288	0.202
-239.903	-109.234	0.144	0.031
-238.888	52.643	0.187	0.179
-237.873	-87.152	-0.281	0.086
-236.859	57.118	-0.098	-0.096
-235.844	-20.025	-0.099	0.061
-234.830	-129.280	0.120	0.017
-233.815	433.779	0.205	0.447
-232.800	-64.636	0.086	0.035
-231.786	-186.540	-0.173	0.002
-230.771	625.863	0.011	0.027
-229.757	12.130	-0.068	-0.053
-228.742	-200.000	0.002	-0.162
-227.727	-79.770	0.111	0.038
-226.713	-59.543	-0.307	0.132
-225.698	800.000	-0.100	0.336
-224.684	-200.000	-0.123	0.000
-223.669	-6.952	0.137	0.094
-222.655	-200.000	-0.039	0.180
-221.640	800.000	-0.053	-0.180
-220.625	-200.000	0.017	0.231
-219.611	-200.000	-0.002	-0.204
-218.596	759.361	0.103	-0.281
-217.582	-152.657	0.217	0.016
-216.567	81.368	-0.210	-0.228
-215.552	-110.893	-0.217	-0.045
-214.538	-90.475	-0.278	-0.081
-213.523	123.129	-0.073	-0.091
-212.509	800.000	-0.076	0.251
-211.494	-121.391	-0.149	-0.025
-210.479	-200.000	-0.005	-0.125
-209.465	-200.000	0.079	0.361
-208.450	243.408	-0.036	0.060
-207.436	95.814	-0.031	0.035
-206.421	543.542	-0.085	0.202
-205.406	-200.000	0.013	-0.065
-204.392	153.771	0.130	-0.179
-203.377	-200.000	0.038	0.301
-202.363	800.000	0.025	0.087
-201.348	-40.777	-0.095	0.049
-200.333	-200.000	0.026	-0.217
-199.319	800.000	0.054	0.152
-198.304	217.697	-0.147	-0.235
-197.290	800.000	-0.030	0.111
-196.275	800.000	-0.091	0.389
-195.260	800.000	0.051	-0.176
-194.246	-19.016	-0.231	-0.144
-193.231	129.890	0.167	0.214
-192.217	101.124	0.105	0.122
-191.202	-200.000	0.004	0.026
-190.187	-30.323	0.161	0.092
-189.173	-125.741	-0.340	0.052
-188.158	9.644	0.125	0.095
-187.144	-33.606	0.203	0.112
-186.129	389.825	0.028	-0.057
-185.114	-55.438	-0.182	0.082
-184.100	188.999	-0.171	-0.256
-183.085	-200.000	0.124	0.642
-182.071	-193.919	0.366	-0.003
-181.056	68.229	-0.258	-0.264
-180.042	-22.148	-0.117	-0.071
-179.027	800.000	-0.060	-0.251
-178.012	574.704	-0.028	0.068
-176.998	-200.000	0.019	0.120
-175.983	-200.000	0.027	0.242
-174.969	-128.353	-0.042	-0.006
-173.954	278.422	0.148	-0.264
-172.939	800.000	0.096	-0.339
-171.925	800.000	0.050	0.159
-170.910	-39.799	-0.372	-0.195
-169.896	-200.000	-0.039	-0.256
-168.881	-4.331	0.188	0.130
-167.866	648.303	0.046	0.117
-166.852	69.530	0.018	0.018
-165.837	535.927	-0.050	0.118
-164.823	-200.000	-0.013	-0.147
-163.808	-7.573	0.343	-0.232
-162.793	-115.866	-0.135	0.025
-161.779	472.481	-0.101	-0.227
-160.764	9.367	0.091	-0.069
-159.750	519.139	-0.154	0.361
-158.735	-200.000	0.002	-0.062
-157.720	800.000	0.073	0.266
-156.706	61.029	0.198	0.197
-155.691	-70.704	0.282	0.107
-154.677	-101.943	-0.473	-0.114
-153.662	-76.142	0.240	-0.085
-152.647	-91.971	0.318	-0.090
-151.633	-189.028	0.078	0.001
-150.618	-68.902	-0.132	0.051
-149.604	-83.317	0.237	0.076
-148.589	-200.000	0.003	0.025
-147.574	800.000	0.073	-0.281
-146.560	48.986	0.125	0.117
-145.545	-99.169	0.248	-0.063
-144.531	-92.781	0.593	0.166
-143.516	-200.000	-0.040	-0.273
-142.502	-106.750	0.233	-0.052
-141.487	-87.852	-0.111	-0.033
-140.472	800.000	0.062	-0.177
-139.458	81.739	-0.162	0.175
-138.443	-200.000	0.032	0.333
-137.429	-125.285	0.425	0.065
-136.414	-37.535	-0.146	0.078
-135.399	-58.011	0.256	-0.112
-134.385	-3.141	-0.237	-0.165
-133.370	69.402	-0.220	0.226
-132.356	611.973	-0.044	-0.111
-131.341	-200.000	0.024	-0.117
-130.326	303.061	-0.097	-0.179
-129.312	-162.644	0.117	-0.006
-128.297	-152.210	0.154	-0.011
-127.283	12.965	-0.071	0.055
-126.268	61.110	0.139	0.138
-125.253	-4.032	-0.380	0.263
-124.239	171.262	0.117	0.167
-123.224	381.218	0.112	-0.229
-122.210	-12.943	0.036	0.024
-121.195	520.088	0.155	-0.363
