DTS Sentinel unit serial number:	SN413079Multiplexer serial number:	ORYXHardware model number:	OX4-SRSoftware version number:	ORYX F/W v4.00 Oryx Data Collector v3.7.2.0data status	okinstallation	princeton_trtdifferential loss correction	single-endedforward channel	channel 3reverse channel	N/Adate	2019/09/19time	15:24:34forward acquisition time	60.00reverse acquisition time	0.00gamma	496.2192k internal	0.2312k external	0.2312temperature offset calibration	1.0011default loss term (dB/km)	0.3790temperature slope calibration	1.0000multiplexer offset coefficient	1.0000multiplexer slope coefficient	1.0000fibre end	0.00T internal ref (°C)	33.87T ext. ref 1 (°C)	1.14T ext. ref 2 (°C)	30.64length (m)	temperature (°C)	Stokes	anti-Stokes-747.200	800.000	0.069	-0.286
-746.185	78.632	0.179	0.195
-745.171	-62.635	0.256	0.108
-744.156	-38.843	-0.370	0.198
-743.142	-74.812	0.383	-0.140
-742.127	517.997	-0.140	0.332
-741.112	-94.384	-0.181	0.050
-740.098	-117.128	-0.200	-0.037
-739.083	-178.314	-0.194	0.005
-738.069	800.000	-0.099	0.333
-737.054	-110.484	0.093	0.020
-736.039	658.736	-0.082	-0.214
-735.025	218.127	0.252	0.408
-734.010	203.123	-0.157	-0.247
-732.996	122.199	-0.239	-0.303
-731.981	41.638	0.064	0.059
-730.966	-200.000	-0.036	0.204
-729.952	53.653	-0.264	-0.257
-728.937	-200.000	-0.008	-0.080
-727.923	308.850	-0.126	0.239
-726.908	-194.752	0.170	0.001
-725.894	-129.900	0.029	-0.004
-724.879	-15.725	0.039	0.025
-723.864	800.000	-0.041	0.145
-722.850	-143.712	0.026	0.003
-721.835	-188.844	-0.200	-0.002
-720.821	165.087	0.199	-0.285
-719.806	198.761	0.068	-0.105
-718.791	731.567	-0.108	0.293
-717.777	383.419	-0.150	-0.314
-716.762	64.737	0.165	-0.168
-715.748	82.498	-0.050	0.055
-714.733	-18.487	-0.109	0.069
-713.718	-6.068	0.114	0.079
-712.704	-200.000	-0.025	-0.331
-711.689	-45.271	0.310	-0.156
-710.675	-68.827	0.143	0.056
-709.660	-94.650	-0.124	0.034
-708.645	-200.000	-0.064	-0.329
-707.631	-104.560	-0.454	0.106
-706.616	-65.300	0.241	-0.098
-705.602	184.698	0.197	-0.295
-704.587	207.810	0.154	-0.244
-703.572	46.897	0.261	0.246
-702.558	274.361	0.123	0.221
-701.543	182.280	-0.120	0.180
-700.529	-131.936	-0.121	-0.016
-699.514	-200.000	0.018	0.153
-698.499	-18.225	0.259	-0.164
-697.485	-79.855	-0.083	-0.028
-696.470	-66.242	0.291	0.118
-695.456	29.098	0.090	0.077
-694.441	321.929	0.048	-0.092
-693.426	72.691	0.143	0.151
-692.412	-45.429	0.113	-0.057
-691.397	-155.116	0.093	0.006
-690.383	-93.445	-0.428	-0.120
-689.368	26.009	0.234	0.198
-688.354	-200.000	0.007	0.322
-687.339	156.996	-0.225	-0.315
-686.324	-62.124	-0.343	0.145
-685.310	401.722	0.018	-0.039
-684.295	-91.365	0.115	0.033
-683.281	18.213	0.153	0.124
-682.266	-180.204	0.271	-0.006
-681.251	575.850	-0.142	-0.352
-680.237	-157.170	0.164	-0.010
-679.222	-25.139	0.264	0.158
-678.208	-78.231	0.127	-0.044
-677.193	-76.946	-0.378	-0.134
-676.178	57.184	-0.266	-0.263
-675.164	503.556	-0.120	-0.282
-674.149	71.465	0.126	-0.133
-673.135	263.048	-0.158	0.277
-672.120	-200.000	0.021	-0.179
-671.105	-8.971	0.240	-0.163
-670.091	81.114	0.031	-0.034
-669.076	76.266	0.081	0.086
-668.062	307.179	0.038	-0.072
-667.047	18.037	-0.398	0.321
-666.032	-108.785	-0.272	0.059
-665.018	-153.847	-0.117	0.008
-664.003	137.199	-0.118	-0.156
-662.989	800.000	-0.055	-0.164
-661.974	-134.765	-0.181	-0.022
-660.959	-95.901	-0.098	0.026
-659.945	-75.051	0.235	0.085
-658.930	800.000	0.032	-0.121
-657.916	-50.395	0.251	0.120
-656.901	-200.000	-0.020	0.163
-655.886	800.000	0.080	-0.272
-654.872	-78.449	-0.352	0.122
-653.857	76.303	0.178	-0.191
-652.843	-0.275	-0.021	-0.015
-651.828	137.430	0.123	0.162
-650.814	800.000	0.005	-0.019
-649.799	-96.128	0.468	0.126
-648.784	-28.984	-0.160	0.093
-647.770	800.000	-0.089	-0.269
-646.755	12.399	0.056	-0.043
-645.741	-20.763	-0.211	-0.131
-644.726	-124.742	0.120	-0.019
-643.711	-200.000	-0.003	0.196
-642.697	800.000	0.064	0.256
-641.682	-149.046	-0.289	0.023
-640.668	11.670	0.194	0.150
-639.653	69.336	-0.343	0.357
-638.638	32.666	-0.040	-0.035
-637.624	429.408	-0.052	-0.114
-636.609	800.000	0.056	-0.235
-635.595	800.000	-0.028	-0.112
-634.580	-82.202	-0.168	-0.055
-633.565	800.000	-0.082	0.283
-632.551	800.000	0.179	-0.562
-631.536	218.255	-0.159	0.256
-630.522	-76.100	0.173	-0.062
-629.507	212.263	-0.237	-0.378
-628.492	-108.147	0.228	0.050
-627.478	-123.794	-0.250	-0.040
-626.463	258.747	-0.044	-0.077
-625.449	-200.000	-0.053	-0.282
-624.434	632.031	-0.055	-0.142
-623.419	-200.000	-0.015	0.461
-622.405	88.540	0.171	-0.192
-621.390	-139.140	-0.229	0.025
-620.376	51.357	-0.196	-0.188
-619.361	-112.511	-0.056	0.011
-618.346	-88.067	0.267	0.081
-617.332	-169.388	0.096	-0.004
-616.317	-183.519	-0.182	0.003
-615.303	-66.371	-0.156	-0.062
-614.288	536.779	0.058	-0.139
-613.273	1.566	-0.203	-0.148
-612.259	-140.723	-0.251	-0.026
-611.244	800.000	0.031	-0.100
-610.230	-64.813	-0.205	-0.084
-609.215	-129.347	-0.184	-0.026
-608.201	-64.546	0.210	-0.086
-607.186	-200.000	0.051	-0.236
-606.171	108.266	0.079	-0.095
-605.157	49.829	0.005	0.004
-604.142	11.709	-0.376	-0.291
-603.128	221.002	0.151	-0.245
-602.113	589.792	0.052	-0.130
-601.098	19.826	0.293	0.238
-600.084	329.967	-0.073	-0.142
-599.069	566.050	0.024	-0.060
-598.055	48.396	0.097	0.092
-597.040	-200.000	0.013	-0.147
-596.025	-50.220	-0.093	-0.044
-595.011	-123.934	-0.333	-0.053
-593.996	-54.232	0.375	-0.172
-592.982	-200.000	0.037	-0.190
-591.967	283.261	0.019	-0.035
-590.952	40.611	0.112	-0.102
-589.938	272.336	0.064	-0.113
-588.923	-200.000	0.005	-0.132
-587.909	-125.345	0.217	-0.033
-586.894	800.000	-0.015	-0.061
-585.879	-108.354	-0.131	-0.028
-584.865	-200.000	-0.046	-0.224
-583.850	-200.000	0.007	-0.133
-582.836	15.471	0.207	-0.164
-581.821	48.152	0.271	-0.256
-580.806	-200.000	-0.073	0.364
-579.792	-162.277	0.117	-0.006
-578.777	-200.000	-0.026	-0.131
-577.763	240.295	0.208	-0.349
-576.748	-183.082	0.291	0.005
-575.733	-200.000	-0.021	-0.185
-574.719	800.000	-0.013	-0.045
-573.704	-200.000	0.011	-0.473
-572.690	33.876	-0.309	-0.272
-571.675	-132.387	0.320	-0.042
-570.661	-48.199	-0.117	0.057
-569.646	-200.000	-0.028	-0.260
-568.631	-67.558	-0.163	-0.065
-567.617	291.574	0.174	-0.319
-566.602	-170.418	-0.273	-0.010
-565.588	-75.223	0.141	0.051
-564.573	0.625	0.253	0.182
-563.558	-38.187	-0.256	-0.137
-562.544	-88.141	0.209	-0.063
-561.529	242.474	0.157	-0.265
-560.515	-200.000	-0.054	0.268
-559.500	-150.559	-0.298	-0.023
-558.485	-62.197	-0.214	-0.090
-557.471	153.239	-0.131	0.180
-556.456	-200.000	-0.017	-0.181
-555.442	-136.229	0.040	-0.005
-554.427	-58.463	0.113	-0.049
-553.412	35.758	-0.272	-0.241
-552.398	-164.587	0.234	-0.011
-551.383	460.196	0.153	-0.344
-550.369	-200.000	-0.001	-0.077
-549.354	800.000	0.034	-0.135
-548.339	-96.282	0.083	0.022
-547.325	-58.267	-0.335	-0.147
-546.310	138.863	-0.086	0.113
-545.296	-73.143	-0.125	0.046
-544.281	-77.336	0.086	-0.030
-543.266	-129.092	-0.217	0.031
-542.252	800.000	-0.027	-0.083
-541.237	214.945	0.133	0.212
-540.223	85.558	-0.199	-0.220
-539.208	-10.189	0.175	0.117
-538.193	-142.632	0.239	-0.024
-537.179	-200.000	-0.014	0.089
-536.164	-13.766	-0.133	0.087
-535.150	55.132	0.213	-0.207
-534.135	-200.000	0.030	-0.415
-533.121	186.217	-0.139	0.209
-532.106	249.599	0.091	0.156
-531.091	478.899	-0.010	0.022
-530.077	13.491	0.176	0.137
-529.062	-200.000	-0.226	-0.000
-528.048	-94.029	0.198	-0.055
-527.033	-200.000	-0.065	-0.369
-526.018	-200.000	-0.089	0.548
-525.004	-200.000	-0.087	0.398
-523.989	301.116	0.040	0.074
-522.975	-112.964	-0.237	0.047
-521.960	0.660	-0.055	0.040
-520.945	-151.337	0.056	0.004
-519.931	-200.000	-0.043	0.360
-518.916	-11.506	-0.446	0.295
-517.902	-8.445	0.238	0.161
-516.887	332.606	0.050	-0.098
-515.872	480.994	-0.170	-0.387
-514.858	800.000	0.092	-0.402
-513.843	536.473	-0.158	0.377
-512.829	-200.000	0.000	0.186
-511.814	-117.994	-0.272	-0.049
-510.799	-98.026	-0.138	-0.036
-509.785	-200.000	0.044	0.270
-508.770	208.039	-0.145	0.228
-507.756	-200.000	0.017	0.193
-506.741	-74.026	-0.358	-0.131
-505.726	78.838	-0.050	-0.054
-504.712	-61.388	-0.550	0.233
-503.697	59.806	0.050	0.050
-502.683	-55.907	0.250	0.112
-501.668	691.083	0.090	0.238
-500.653	488.984	0.025	0.057
-499.639	-121.871	-0.385	-0.064
-498.624	-200.000	0.004	-0.103
-497.610	-127.143	0.215	-0.032
-496.595	-84.348	0.070	-0.022
-495.581	5.287	-0.274	0.203
-494.566	1.400	0.246	0.178
-493.551	52.105	-0.208	0.199
-492.537	-39.562	0.194	-0.102
-491.522	-200.000	-0.003	0.037
-490.508	-30.255	-0.141	-0.081
-489.493	24.966	-0.158	0.132
-488.478	-59.203	0.207	-0.090
-487.464	124.037	0.242	-0.306
-486.449	185.154	-0.056	0.083
-485.435	148.081	0.130	0.176
-484.420	-59.623	-0.272	0.117
-483.405	-89.901	0.145	-0.043
-482.391	800.000	0.076	0.274
-481.376	-54.037	-0.241	0.110
-480.362	72.076	-0.257	0.269
-479.347	255.660	0.099	0.171
-478.332	800.000	-0.056	-0.156
-477.318	-200.000	-0.030	0.395
-476.303	-46.530	-0.115	-0.056
-475.289	-200.000	-0.014	-0.088
-474.274	246.833	-0.086	0.146
-473.259	330.873	-0.084	-0.163
-472.245	-121.754	0.248	0.041
-471.230	179.805	-0.153	-0.224
-470.216	-148.929	-0.250	0.020
-469.201	800.000	-0.057	-0.202
-468.186	28.014	-0.051	-0.043
-467.172	327.338	0.038	-0.074
-466.157	88.266	-0.232	-0.259
-465.143	64.638	0.198	0.200
-464.128	662.404	0.107	0.276
-463.113	-63.311	0.308	0.127
-462.099	-77.279	0.395	-0.138
-461.084	-68.658	0.118	-0.046
-460.070	-200.000	-0.036	0.399
-459.055	-66.685	0.278	-0.111
-458.040	149.764	-0.132	0.180
-457.026	-130.144	-0.257	-0.035
-456.011	-200.000	-0.020	0.154
-454.997	-110.977	0.071	0.015
-453.982	59.865	-0.242	-0.240
-452.968	-116.224	-0.226	-0.042
-451.953	-33.416	-0.235	-0.130
-450.938	-113.106	0.206	0.041
-449.924	70.775	-0.188	0.195
-448.909	-144.905	0.162	0.015
-447.895	-101.498	0.120	-0.029
-446.880	800.000	0.048	-0.156
-445.865	-160.000	0.261	0.014
-444.851	-142.970	-0.284	-0.028
-443.836	11.650	-0.170	0.131
-442.822	-200.000	-0.018	0.147
-441.807	358.917	-0.079	0.159
-440.792	-200.000	0.051	0.411
-439.778	-200.000	0.063	0.549
-438.763	-200.000	0.005	0.136
-437.749	-200.000	-0.028	-0.303
-436.734	215.356	0.097	-0.154
-435.719	19.624	0.294	0.237
-434.705	-22.229	0.101	0.062
-433.690	-120.819	0.022	-0.004
-432.676	272.013	0.051	-0.090
-431.661	385.452	0.095	-0.197
-430.646	-200.000	-0.062	0.363
-429.632	167.429	-0.106	0.150
-428.617	-182.394	-0.215	-0.004
-427.603	-115.851	-0.147	0.028
-426.588	-12.482	0.059	-0.038
-425.573	-72.052	-0.303	0.113
-424.559	-16.614	0.278	-0.176
-423.544	70.932	-0.085	0.088
-422.530	664.449	-0.100	-0.258
-421.515	800.000	-0.126	-0.379
-420.500	55.886	0.135	-0.132
-419.486	-163.106	-0.216	0.010
-418.471	13.309	-0.138	-0.108
-417.457	81.767	0.144	-0.156
-416.442	-200.000	-0.007	0.197
-415.428	-139.039	-0.333	-0.036
-414.413	-138.017	-0.073	0.008
-413.398	800.000	-0.041	0.177
-412.384	-132.186	0.272	0.035
-411.369	593.554	-0.178	-0.441
-410.355	-79.104	0.233	0.079
-409.340	-59.178	0.109	0.047
-408.325	670.591	0.068	-0.175
-407.311	101.242	-0.216	-0.252
-406.296	515.854	-0.086	0.201
-405.282	-16.453	-0.094	0.059
-404.267	19.719	0.164	-0.132
-403.252	-5.395	0.207	0.142
-402.238	-200.000	-0.006	0.189
-401.223	216.733	-0.091	-0.145
-400.209	-136.288	-0.141	-0.016
-399.194	-200.000	0.062	0.294
-398.179	-200.000	-0.002	0.105
-397.165	248.153	0.175	0.296
-396.150	100.959	0.083	-0.097
-395.136	148.184	-0.215	-0.290
-394.121	800.000	0.061	-0.178
-393.106	136.645	-0.159	-0.208
-392.092	-200.000	-0.045	-0.310
-391.077	-141.162	-0.276	0.028
-390.063	49.189	0.247	0.232
-389.048	335.706	-0.095	-0.184
-388.033	263.632	0.042	-0.074
-387.019	-200.000	-0.070	-0.360
-386.004	-200.000	-0.037	0.197
-384.990	222.606	0.179	-0.289
-383.975	48.889	-0.098	0.092
-382.960	-200.000	-0.032	0.192
-381.946	-46.238	0.531	0.261
-380.931	9.454	-0.140	0.106
-379.917	428.453	-0.032	0.068
-378.902	-200.000	-0.002	-0.179
-377.888	110.572	0.216	-0.260
-376.873	134.097	0.108	-0.140
-375.858	-55.669	0.090	0.040
-374.844	-180.648	0.444	0.009
-373.829	-200.000	0.007	-0.114
-372.815	-60.642	0.384	0.163
-371.800	32.740	-0.144	-0.124
-370.785	-135.594	0.077	0.009
-369.771	-4.147	0.221	-0.153
-368.756	-135.688	0.290	-0.034
-367.742	643.096	-0.069	-0.175
-366.727	205.959	0.149	0.232
-365.712	-12.995	-0.202	-0.132
-364.698	800.000	-0.063	-0.212
-363.683	-200.000	0.005	0.063
-362.669	502.221	-0.138	0.319
-361.654	-95.764	0.402	-0.107
-360.639	-12.196	-0.124	-0.081
-359.625	-200.000	-0.106	-0.468
-358.610	-155.493	0.180	0.012
-357.596	147.084	0.102	0.137
-356.581	800.000	-0.030	-0.093
-355.566	800.000	-0.060	0.210
-354.552	345.145	0.050	0.099
-353.537	178.047	0.076	0.110
-352.523	-49.790	0.191	0.091
-351.508	-23.251	0.136	0.082
-350.493	365.503	0.049	0.099
-349.479	120.840	0.039	0.049
-348.464	44.645	-0.236	-0.216
-347.450	-200.000	-0.042	0.215
-346.435	800.000	0.037	0.112
-345.420	57.088	0.078	0.076
-344.406	-200.000	0.014	0.170
-343.391	218.218	-0.232	-0.371
-342.377	-84.335	0.082	-0.026
-341.362	53.993	-0.054	0.052
-340.348	-200.000	-0.084	0.547
-339.333	-91.256	0.225	0.064
-338.318	-200.000	-0.017	0.322
-337.304	-200.000	-0.056	-0.254
-336.289	-200.000	-0.004	-0.067
-335.275	191.255	-0.080	-0.120
-334.260	324.684	-0.105	0.199
-333.245	159.550	0.113	0.157
-332.231	-15.453	-0.068	-0.043
-331.216	106.168	0.143	-0.169
-330.202	-200.000	0.037	0.245
-329.187	-60.110	0.262	-0.111
-328.172	-44.503	0.293	-0.147
-327.158	142.701	-0.188	0.249
-326.143	1.976	0.050	-0.036
-325.129	333.773	0.094	-0.181
-324.114	146.475	0.214	0.287
-323.099	-200.000	-0.008	0.070
-322.085	-200.000	-0.053	0.385
-321.070	99.841	-0.381	0.441
-320.056	39.079	0.338	0.302
-319.041	-108.729	0.225	-0.048
-318.026	800.000	0.058	-0.207
-317.012	800.000	0.051	-0.212
-315.997	800.000	0.136	0.406
-314.983	168.505	-0.185	-0.263
-313.968	800.000	0.077	-0.234
-312.953	30.336	-0.250	-0.213
-311.939	-0.188	-0.102	0.072
-310.924	220.095	0.028	-0.045
-309.910	274.978	-0.024	-0.042
-308.895	800.000	0.037	0.107
-307.880	1.922	0.356	0.256
-306.866	-46.153	-0.281	0.138
-305.851	-200.000	0.000	-0.040
-304.837	-200.000	-0.050	0.288
-303.822	-134.979	-0.146	-0.018
-302.807	711.853	-0.053	-0.140
-301.793	-148.035	-0.044	0.004
-300.778	191.184	0.202	-0.303
-299.764	800.000	-0.044	-0.155
-298.749	-37.310	-0.357	0.190
-297.735	219.242	-0.076	0.121
-296.720	5.758	0.170	-0.125
-295.705	-1.599	0.262	0.184
-294.691	-131.369	-0.085	-0.011
-293.676	800.000	0.036	0.152
-292.662	-4.641	-0.429	-0.295
-291.647	227.569	0.231	-0.374
-290.632	-175.248	-0.140	-0.004
-289.618	516.850	0.133	0.311
-288.603	-31.795	0.183	-0.102
-287.589	55.346	-0.197	0.190
-286.574	-200.000	-0.022	0.115
-285.559	765.062	-0.069	0.186
-284.545	-62.248	0.217	-0.090
-283.530	-103.955	0.215	0.050
-282.516	-200.000	-0.001	-0.311
-281.501	-0.571	-0.225	-0.159
-280.486	35.795	-0.040	0.035
-279.472	-112.674	0.249	0.049
-278.457	125.880	0.124	-0.157
-277.443	285.089	-0.120	-0.215
-276.428	11.613	0.059	-0.045
-275.413	800.000	-0.010	-0.033
-274.399	-125.194	0.265	-0.040
-273.384	-79.097	0.071	-0.024
-272.370	-200.000	0.052	-0.353
-271.355	-200.000	0.003	0.072
-270.340	-104.842	-0.272	-0.062
-269.326	-200.000	-0.024	-0.237
-268.311	-154.192	0.106	-0.007
-267.297	-158.375	0.163	-0.009
-266.282	266.546	0.061	0.107
-265.267	217.904	0.076	0.121
-264.253	26.177	-0.125	-0.104
-263.238	215.135	-0.104	0.164
-262.224	-200.000	0.041	0.320
-261.209	-199.194	-0.184	-0.001
-260.195	66.253	0.057	-0.057
-259.180	-4.413	0.286	0.197
-258.165	800.000	0.054	0.184
-257.151	29.176	0.221	0.186
-256.136	146.615	-0.114	-0.152
-255.122	45.465	-0.143	-0.131
-254.107	-44.942	0.099	0.049
-253.092	800.000	-0.078	0.218
-252.078	-200.000	-0.019	0.088
-251.063	635.171	-0.023	0.059
-250.049	84.774	-0.065	-0.071
-249.034	-200.000	0.014	-0.082
-248.019	800.000	0.011	-0.031
-247.005	800.000	-0.009	-0.032
-245.990	-200.000	-0.037	-0.204
-244.976	-128.198	-0.292	-0.041
-243.961	-200.000	-0.032	0.153
-242.946	-58.113	0.264	0.115
-241.932	-200.000	-0.044	0.231
-240.917	800.000	0.091	0.271
-239.903	-112.767	0.164	0.033
-238.888	-118.434	0.011	-0.002
-237.873	-92.149	-0.468	-0.132
-236.859	-200.000	0.054	-0.302
-235.844	800.000	0.037	0.154
-234.830	-34.706	-0.159	0.086
-233.815	204.254	-0.186	-0.287
-232.800	-81.737	-0.074	-0.024
-231.786	-127.179	0.157	-0.023
-230.771	208.194	-0.213	0.332
-229.757	240.025	0.287	0.476
-228.742	-200.000	0.001	0.008
-227.727	59.295	0.245	-0.240
-226.713	-163.784	0.641	-0.030
-225.698	-16.881	0.171	0.108
-224.684	208.263	0.203	0.316
-223.669	74.864	-0.241	-0.253
-222.655	-200.000	-0.022	0.165
-221.640	162.095	-0.094	-0.131
-220.625	-94.209	-0.166	-0.045
-219.611	-155.916	-0.159	-0.010
-218.596	-104.003	-0.446	-0.103
-217.582	-200.000	-0.033	0.145
-216.567	-134.463	-0.232	-0.028
-215.552	-200.000	0.014	-0.139
-214.538	308.457	0.150	0.278
-213.523	433.288	0.116	-0.251
-212.509	74.098	0.059	-0.061
-211.494	21.769	0.272	-0.220
-210.479	225.656	-0.070	0.113
-209.465	262.270	-0.120	0.206
-208.450	-200.000	0.012	0.123
-207.436	800.000	0.024	-0.106
-206.421	37.364	-0.067	-0.059
-205.406	118.882	0.031	-0.038
-204.392	-145.664	0.146	-0.013
-203.377	51.618	-0.278	-0.262
-202.363	80.059	0.152	0.162
-201.348	490.831	0.070	0.159
-200.333	-70.888	-0.173	0.065
-199.319	-200.000	0.048	0.215
-198.304	-80.928	0.381	-0.125
-197.290	-71.770	-0.287	0.106
-196.275	-154.037	-0.030	-0.002
-195.260	84.543	0.100	0.108
-194.246	-160.310	-0.218	-0.012
-193.231	-158.307	0.136	0.008
-192.217	6.812	-0.130	0.096
-191.202	-200.000	0.044	0.260
-190.187	-200.000	0.186	0.001
-189.173	676.978	-0.096	0.248
-188.158	-10.678	-0.390	-0.256
-187.144	-200.000	-0.005	0.356
-186.129	-79.194	-0.324	-0.109
-185.114	47.294	0.145	-0.134
-184.100	149.912	0.195	0.262
-183.085	-200.000	0.005	-0.066
-182.071	-6.627	0.203	0.137
-181.056	-35.572	0.135	0.073
-180.042	75.264	0.290	0.304
-179.027	-200.000	0.041	0.353
-178.012	289.763	-0.049	-0.088
-176.998	800.000	0.083	0.351
-175.983	89.472	-0.054	-0.060
-174.969	-108.398	0.253	-0.054
-173.954	200.493	-0.161	0.246
-172.939	125.927	0.163	0.205
-171.925	-200.000	0.039	0.194
-170.910	-190.626	-0.224	0.002
-169.896	29.834	-0.097	-0.082
-168.881	-200.000	-0.251	0.001
-167.866	-52.334	0.176	-0.081
-166.852	800.000	0.043	0.119
-165.837	110.888	0.189	-0.225
-164.823	225.854	-0.119	0.192
-163.808	-181.922	0.248	-0.005
-162.793	-39.930	0.086	0.044
-161.779	-200.000	-0.012	0.060
-160.764	800.000	0.069	-0.217
-159.750	-53.292	-0.038	-0.017
-158.735	-93.548	0.051	0.014
-157.720	80.766	-0.218	-0.233
-156.706	-24.668	-0.176	0.104
-155.691	142.758	0.255	-0.336
-154.677	-200.000	-0.052	-0.263
-153.662	228.862	-0.109	-0.176
-152.647	728.203	0.071	-0.189
-151.633	176.124	-0.178	-0.256
-150.618	-126.822	0.265	-0.039
-149.604	-113.597	-0.217	0.042
-148.589	-200.000	0.033	0.177
-147.574	275.552	0.100	0.176
-146.560	93.252	-0.189	0.212
-145.545	-68.229	0.122	-0.047
-144.531	-200.000	-0.019	-0.204
-143.516	-60.602	-0.326	-0.137
-142.502	-103.651	0.345	-0.080
-141.487	800.000	-0.079	-0.338
-140.472	-112.270	-0.259	0.051
-139.458	162.019	-0.244	0.338
-138.443	-123.573	-0.261	-0.041
-137.429	-36.053	0.488	0.262
-136.414	-157.297	0.161	-0.010
-135.399	130.145	0.204	-0.259
-134.385	-79.279	-0.147	-0.049
-133.370	-200.000	-0.030	0.164
-132.356	-200.000	0.002	0.089
-131.341	344.471	0.067	-0.131
-130.326	252.848	-0.143	-0.241
-129.312	-38.764	0.354	-0.185
-128.297	113.802	0.077	0.093
-127.283	74.978	-0.147	-0.153
-126.268	323.760	0.029	0.054
-125.253	-26.495	0.225	0.131
-124.239	800.000	0.018	-0.050
-123.224	29.613	0.069	-0.058
-122.210	800.000	-0.064	0.275
