DTS Sentinel unit serial number:	SN413079Multiplexer serial number:	ORYXHardware model number:	OX4-SRSoftware version number:	ORYX F/W v4.00 Oryx Data Collector v3.7.2.0data status	okinstallation	princeton_trtdifferential loss correction	single-endedforward channel	channel 3reverse channel	N/Adate	2019/09/11time	22:10:11forward acquisition time	60.00reverse acquisition time	0.00gamma	496.2192k internal	0.2312k external	0.2312temperature offset calibration	1.0043default loss term (dB/km)	0.3790temperature slope calibration	1.0000multiplexer offset coefficient	1.0000multiplexer slope coefficient	1.0000fibre end	0.00T internal ref (°C)	35.37T ext. ref 1 (°C)	1.77T ext. ref 2 (°C)	29.57length (m)	temperature (°C)	Stokes	anti-Stokes-747.200	105.103	-0.123	-0.147
-746.185	-68.436	-0.164	0.065
-745.171	-88.314	0.173	-0.052
-744.156	-91.459	0.088	0.026
-743.142	-200.000	-0.283	-0.001
-742.127	320.864	0.225	0.434
-741.112	25.648	0.148	-0.125
-740.098	-90.191	0.120	0.035
-739.083	-180.224	0.218	-0.005
-738.069	-43.694	0.347	-0.177
-737.054	340.951	-0.022	0.044
-736.039	-84.353	0.266	0.085
-735.025	-186.505	0.331	-0.005
-734.010	-200.000	-0.042	-0.514
-732.996	-40.820	-0.332	0.174
-731.981	-21.590	-0.363	0.224
-730.966	103.828	-0.134	0.160
-729.952	-121.762	-0.084	0.014
-728.937	19.034	-0.252	0.205
-727.923	205.316	0.238	0.375
-726.908	162.407	-0.094	0.134
-725.894	-200.000	-0.036	-0.236
-724.879	-200.000	-0.001	0.260
-723.864	3.644	-0.111	-0.082
-722.850	-9.532	0.222	0.150
-721.835	59.987	-0.354	-0.355
-720.821	-51.505	0.368	-0.174
-719.806	800.000	-0.056	-0.198
-718.791	-95.516	-0.213	0.058
-717.777	73.183	-0.125	0.133
-716.762	-200.000	-0.070	-0.361
-715.748	281.268	0.122	0.221
-714.733	195.101	-0.086	-0.132
-713.718	-200.000	-0.045	0.247
-712.704	-88.363	0.109	-0.033
-711.689	-37.663	-0.128	-0.069
-710.675	99.663	0.190	0.223
-709.660	287.352	0.107	0.196
-708.645	484.839	0.116	-0.267
-707.631	242.911	-0.065	-0.110
-706.616	-13.500	0.112	-0.074
-705.602	214.464	-0.173	-0.278
-704.587	-76.860	0.184	0.065
-703.572	82.523	-0.197	0.217
-702.558	-200.000	-0.031	-0.382
-701.543	317.312	0.184	0.353
-700.529	-35.043	-0.223	-0.123
-699.514	-200.000	-0.009	0.351
-698.499	800.000	-0.042	-0.127
-697.485	98.600	0.268	0.313
-696.470	204.533	0.087	-0.137
-695.456	-200.000	-0.033	0.181
-694.441	256.241	-0.102	0.178
-693.426	122.607	0.097	-0.122
-692.412	209.922	0.175	-0.277
-691.397	53.240	-0.047	0.046
-690.383	-190.387	0.272	-0.003
-689.368	130.985	0.062	0.081
-688.354	-112.400	-0.265	0.054
-687.339	130.220	0.126	0.164
-686.324	800.000	0.039	0.133
-685.310	-28.100	-0.132	0.077
-684.295	-200.000	0.041	-0.353
-683.281	88.828	-0.115	0.129
-682.266	-52.440	-0.295	-0.138
-681.251	352.968	-0.180	-0.361
-680.237	514.506	-0.045	-0.107
-679.222	-200.000	-0.032	-0.218
-678.208	55.584	-0.190	-0.187
-677.193	125.694	-0.301	0.384
-676.178	-200.000	-0.004	0.232
-675.164	-18.179	-0.107	-0.068
-674.149	-131.029	-0.182	-0.025
-673.135	-200.000	-0.018	-0.310
-672.120	-85.734	-0.182	0.057
-671.105	247.147	-0.148	-0.253
-670.091	-0.683	0.259	-0.186
-669.076	-81.935	0.166	-0.055
-668.062	-34.624	0.172	-0.095
-667.047	8.064	-0.156	-0.118
-666.032	268.964	0.196	0.348
-665.018	92.061	-0.213	0.243
-664.003	-72.772	-0.172	-0.064
-662.989	-87.279	0.198	-0.061
-661.974	-128.146	0.253	-0.037
-660.959	234.595	0.047	0.078
-659.945	133.895	0.177	0.232
-658.930	-200.000	-0.013	0.057
-657.916	-88.299	0.420	0.127
-656.901	85.102	-0.103	-0.114
-655.886	-200.000	-0.018	0.084
-654.872	-139.880	-0.101	0.011
-653.857	-135.760	-0.490	-0.059
-652.843	-91.868	0.101	0.029
-651.828	292.774	0.030	-0.056
-650.814	-7.730	-0.239	0.163
-649.799	-16.517	-0.080	-0.051
-648.784	-200.000	-0.003	0.114
-647.770	10.596	0.104	-0.080
-646.755	-65.556	0.107	0.043
-645.741	-27.515	-0.092	-0.054
-644.726	-52.700	0.131	-0.061
-643.711	-146.570	-0.093	-0.008
-642.697	-43.888	-0.165	-0.084
-641.682	-169.078	0.098	0.004
-640.668	-120.419	-0.320	0.055
-639.653	800.000	-0.018	0.053
-638.638	370.008	-0.064	0.130
-637.624	-75.806	-0.284	0.102
-636.609	-35.107	-0.396	-0.218
-635.595	-200.000	0.046	-0.279
-634.580	174.134	0.151	0.220
-633.565	404.652	0.043	0.092
-632.551	84.728	0.132	0.146
-631.536	-200.000	-0.015	0.181
-630.522	361.349	-0.084	0.171
-629.507	346.975	0.059	0.117
-628.492	35.016	0.101	0.089
-627.478	633.592	-0.066	-0.169
-626.463	-120.487	-0.306	0.053
-625.449	-90.658	0.148	-0.043
-624.434	146.928	0.125	0.170
-623.419	547.110	-0.113	0.273
-622.405	209.725	0.114	0.181
-621.390	-200.000	0.013	0.527
-620.376	8.178	-0.204	0.155
-619.361	-103.336	0.103	0.025
-618.346	800.000	0.065	0.195
-617.332	19.177	-0.114	-0.092
-616.317	-45.632	0.062	-0.031
-615.303	-62.744	0.023	0.010
-614.288	-200.000	0.004	-0.099
-613.273	-200.000	0.030	0.251
-612.259	76.876	-0.147	-0.157
-611.244	108.216	0.136	-0.164
-610.230	15.039	0.030	0.024
-609.215	410.686	0.157	0.336
-608.201	-64.585	-0.123	0.050
-607.186	-16.636	0.234	-0.149
-606.171	-200.000	0.010	0.162
-605.157	21.330	0.084	-0.069
-604.142	-46.975	0.154	0.076
-603.128	-95.763	0.064	-0.017
-602.113	304.052	0.200	-0.374
-601.098	-87.358	-0.129	0.039
-600.084	129.768	0.227	0.293
-599.069	125.085	-0.109	0.138
-598.055	-24.920	0.382	-0.229
-597.040	504.061	-0.058	-0.135
-596.025	-200.000	0.007	-0.159
-595.011	764.246	-0.084	0.229
-593.996	-200.000	0.000	-0.007
-592.982	-88.019	0.205	0.062
-591.967	-200.000	0.009	0.113
-590.952	559.781	-0.142	-0.347
-589.938	-200.000	-0.010	0.058
-588.923	391.576	0.091	-0.190
-587.909	23.688	-0.190	-0.158
-586.894	-108.656	-0.145	0.031
-585.879	-102.518	0.093	-0.022
-584.865	800.000	0.101	0.283
-583.850	552.394	0.069	0.166
-582.836	81.293	0.297	0.323
-581.821	-121.206	-0.065	-0.011
-580.806	24.134	0.173	-0.144
-579.792	478.072	-0.041	0.093
-578.777	-200.000	0.010	-0.146
-577.763	37.226	-0.176	-0.158
-576.748	153.082	-0.165	0.227
-575.733	800.000	0.067	-0.191
-574.719	800.000	0.050	-0.174
-573.704	-200.000	-0.010	-0.326
-572.690	-176.068	-0.478	0.013
-571.675	-107.990	-0.349	-0.076
-570.661	-200.000	-0.006	-0.287
-569.646	-44.288	-0.334	-0.169
-568.631	377.285	0.098	-0.201
-567.617	799.544	-0.038	-0.105
-566.602	130.708	-0.240	-0.310
-565.588	800.000	0.071	-0.239
-564.573	-168.651	-0.125	-0.005
-563.558	800.000	-0.021	0.088
-562.544	-200.000	0.006	0.263
-561.529	-143.695	0.171	0.016
-560.515	-92.975	-0.451	-0.127
-559.500	613.402	0.113	-0.286
-558.485	-102.400	-0.167	0.040
-557.471	49.441	0.175	0.166
-556.456	-200.000	0.011	-0.172
-555.442	-133.244	-0.157	-0.020
-554.427	329.770	-0.035	0.068
-553.412	-20.880	-0.152	0.094
-552.398	317.797	-0.101	-0.193
-551.383	-200.000	-0.003	-0.398
-550.369	11.009	-0.100	0.077
-549.354	39.110	0.149	0.134
-548.339	-200.000	-0.008	-0.191
-547.325	139.980	0.318	-0.422
-546.310	-117.425	0.243	0.044
-545.296	-200.000	0.029	0.348
-544.281	-200.000	0.072	-0.343
-543.266	-122.613	-0.307	0.050
-542.252	-67.483	0.082	0.032
-541.237	800.000	-0.070	-0.272
-540.223	-126.217	0.212	0.032
-539.208	317.225	-0.055	0.105
-538.193	260.316	-0.139	-0.241
-537.179	20.787	-0.242	0.197
-536.164	133.558	0.186	0.242
-535.150	-116.190	0.138	-0.026
-534.135	167.428	0.051	-0.073
-533.121	-200.000	0.001	0.038
-532.106	-200.000	0.052	-0.420
-531.091	33.134	0.246	0.215
-530.077	50.555	0.117	-0.111
-529.062	800.000	0.067	-0.227
-528.048	800.000	0.032	0.116
-527.033	32.333	0.244	0.212
-526.018	-30.193	-0.196	0.112
-525.004	-55.643	-0.309	-0.139
-523.989	-200.000	-0.000	-0.374
-522.975	-97.175	0.194	-0.051
-521.960	347.857	0.114	0.225
-520.945	68.972	-0.154	0.159
-519.931	746.478	0.017	-0.045
-518.916	339.324	0.045	0.089
-517.902	-25.889	-0.251	-0.148
-516.887	116.114	-0.163	-0.200
-515.872	-9.113	-0.225	0.151
-514.858	208.880	-0.086	-0.136
-513.843	422.038	0.048	0.104
-512.829	485.637	-0.142	0.326
-511.814	256.952	-0.119	0.205
-510.799	-200.000	0.003	-0.291
-509.785	336.867	0.103	0.201
-508.770	-91.321	0.255	0.073
-507.756	-200.000	0.002	-0.415
-506.741	-200.000	-0.043	-0.270
-505.726	-200.000	-0.035	-0.306
-504.712	-200.000	-0.013	-0.117
-503.697	-89.341	-0.076	-0.022
-502.683	24.568	-0.134	0.111
-501.668	-116.823	0.279	0.051
-500.653	-46.325	0.194	0.096
-499.639	-200.000	-0.007	-0.145
-498.624	-200.000	0.035	-0.476
-497.610	800.000	0.087	-0.289
-496.595	29.430	-0.134	0.114
-495.581	-110.657	-0.389	0.081
-494.566	-58.844	-0.391	-0.170
-493.551	800.000	0.080	0.326
-492.537	800.000	-0.039	-0.122
-491.522	423.864	-0.011	-0.023
-490.508	-200.000	-0.062	-0.334
-489.493	-94.797	-0.040	-0.011
-488.478	251.028	0.164	-0.280
-487.464	-72.956	-0.354	0.131
-486.449	93.368	0.151	-0.171
-485.435	-167.329	0.102	0.004
-484.420	-150.043	0.169	0.013
-483.405	-200.000	-0.008	0.061
-482.391	423.321	0.144	-0.310
-481.376	127.673	-0.198	-0.252
-480.362	85.713	-0.031	-0.034
-479.347	148.976	-0.271	-0.369
-478.332	-66.699	0.280	0.111
-477.318	56.353	-0.092	0.090
-476.303	800.000	-0.033	-0.142
-475.289	18.601	0.182	-0.146
-474.274	-33.045	0.273	-0.152
-473.259	378.708	0.165	-0.340
-472.245	-151.653	-0.511	-0.038
-471.230	170.583	-0.145	-0.208
-470.216	87.265	0.087	0.096
-469.201	800.000	0.036	0.107
-468.186	356.724	-0.020	0.039
-467.172	-149.823	0.234	-0.018
-466.157	-200.000	0.019	-0.122
-465.143	29.507	-0.161	0.137
-464.128	800.000	0.043	-0.133
-463.113	-142.656	-0.129	-0.013
-462.099	-200.000	-0.287	0.001
-461.084	116.410	0.136	0.167
-460.070	-135.952	-0.140	-0.016
-459.055	800.000	0.150	-0.441
-458.040	240.861	-0.151	-0.253
-457.026	800.000	-0.115	0.320
-456.011	-59.717	-0.149	0.064
-454.997	800.000	-0.012	0.041
-453.982	800.000	0.038	0.161
-452.968	800.000	-0.099	-0.343
-451.953	308.808	0.087	-0.163
-450.938	4.121	0.185	0.136
-449.924	-121.692	-0.431	-0.072
-448.909	-19.891	-0.307	-0.190
-447.895	140.134	-0.065	0.086
-446.880	56.424	0.160	-0.156
-445.865	-111.267	0.348	-0.071
-444.851	104.905	-0.133	0.157
-443.836	178.793	0.086	0.126
-442.822	-38.947	-0.140	0.074
-441.807	-47.076	-0.219	0.107
-440.792	111.369	0.010	-0.012
-439.778	-74.144	-0.094	0.034
-438.763	-143.894	0.189	-0.018
-437.749	-116.372	-0.173	-0.032
-436.734	55.067	-0.142	0.137
-435.719	238.586	0.167	-0.278
-434.705	-200.000	0.015	-0.079
-433.690	-88.793	-0.211	-0.063
-432.676	-173.773	0.171	-0.005
-431.661	-120.081	0.024	0.004
-430.646	-40.199	0.209	-0.109
-429.632	-33.303	0.101	-0.056
-428.617	-200.000	0.012	-0.219
-427.603	-95.269	0.193	-0.052
-426.588	191.706	0.156	-0.236
-425.573	-200.000	0.004	0.024
-424.559	770.805	-0.072	0.196
-423.544	-81.988	-0.094	-0.031
-422.530	-149.966	-0.112	0.009
-421.515	-60.924	-0.418	0.177
-420.500	-200.000	-0.005	0.223
-419.486	-36.933	0.106	0.057
-418.471	86.443	-0.280	-0.309
-417.457	39.211	0.271	-0.243
-416.442	240.298	-0.125	-0.208
-415.428	-32.868	0.145	0.081
-414.413	-200.000	-0.019	0.207
-413.398	-96.241	0.062	-0.016
-412.384	-25.392	0.156	0.092
-411.369	-73.280	-0.167	-0.061
-410.355	136.107	-0.114	0.149
-409.340	800.000	-0.038	0.122
-408.325	456.042	-0.101	0.225
-407.311	-35.557	0.309	0.168
-406.296	800.000	-0.113	0.397
-405.282	184.361	0.082	0.122
-404.267	-195.345	0.214	0.002
-403.252	-182.414	0.047	0.001
-402.238	142.769	0.155	-0.206
-401.223	-99.585	0.122	-0.031
-400.209	-200.000	0.047	-0.401
-399.194	-68.608	-0.283	-0.110
-398.179	-114.081	-0.103	-0.020
-397.165	268.599	-0.132	-0.231
-396.150	120.113	0.121	0.151
-395.136	22.306	-0.056	-0.046
-394.121	336.834	-0.018	0.035
-393.106	18.266	0.099	-0.079
-392.092	-20.395	-0.250	-0.154
-391.077	-166.889	0.246	-0.010
-390.063	363.293	0.089	0.180
-389.048	-137.254	-0.107	-0.012
-388.033	-28.025	0.160	0.093
-387.019	66.879	0.217	-0.222
-386.004	70.477	-0.105	-0.109
-384.990	78.771	-0.050	0.053
-383.975	-133.783	-0.215	0.027
-382.960	5.982	-0.161	0.119
-381.946	267.778	-0.064	-0.111
-380.931	-45.648	-0.299	0.148
-379.917	43.403	0.091	-0.084
-378.902	-116.692	0.354	-0.065
-377.888	-171.447	0.133	0.004
-376.873	-106.828	0.038	0.008
-375.858	-94.465	0.624	0.170
-374.844	2.033	0.063	-0.045
-373.829	-118.879	-0.181	0.032
-372.815	-137.881	-0.184	0.021
-371.800	-100.737	-0.319	0.079
-370.785	189.886	0.029	0.043
-369.771	-102.069	-0.102	-0.025
-368.756	800.000	-0.050	0.213
-367.742	-127.622	0.090	0.013
-366.727	25.054	-0.083	0.069
-365.712	-141.799	-0.199	-0.020
-364.698	127.630	0.115	0.146
-363.683	-200.000	0.004	-0.245
-362.669	-192.558	0.207	0.002
-361.654	-34.850	0.261	0.142
-360.639	-200.000	-0.011	0.055
-359.625	361.171	0.272	0.545
-358.610	-5.585	-0.046	-0.031
-357.596	-200.000	-0.046	-0.394
-356.581	62.940	-0.222	0.222
-355.566	-25.171	-0.141	-0.083
-354.552	52.086	0.256	0.244
-353.537	635.006	0.086	0.217
-352.523	-76.766	0.470	0.164
-351.508	-83.861	0.274	-0.087
-350.493	-165.706	-0.196	-0.008
-349.479	213.851	0.167	-0.264
-348.464	82.877	-0.118	0.128
-347.450	-27.816	0.172	0.100
-346.435	-95.486	0.264	0.071
-345.420	95.598	-0.335	0.382
-344.406	-87.368	-0.179	0.054
-343.391	-77.004	-0.332	-0.116
-342.377	-45.486	0.064	-0.032
-341.362	710.019	0.130	0.344
-340.348	-117.907	0.328	-0.059
-339.333	-200.000	0.012	-0.056
-338.318	-95.160	-0.492	0.133
-337.304	-97.770	0.185	-0.048
-336.289	17.618	0.089	-0.071
-335.275	-17.506	-0.189	0.119
-334.260	99.744	0.065	-0.075
-333.245	74.508	0.085	0.089
-332.231	3.537	0.386	0.281
-331.216	46.158	0.108	-0.100
-330.202	207.667	-0.157	-0.245
-329.187	-64.977	-0.085	-0.034
-328.172	404.180	0.052	0.109
-327.158	-136.200	-0.297	-0.035
-326.143	-8.146	-0.224	0.150
-325.129	-200.000	-0.005	0.194
-324.114	-200.000	0.023	-0.149
-323.099	-152.699	0.084	-0.006
-322.085	-200.000	0.002	0.084
-321.070	183.422	0.080	0.118
-320.056	160.336	-0.307	0.427
-319.041	-200.000	0.016	0.075
-318.026	293.759	0.083	0.151
-317.012	-200.000	-0.007	-0.315
-315.997	-200.000	0.002	0.216
-314.983	-102.203	-0.285	-0.068
-313.968	41.351	-0.057	0.052
-312.953	800.000	0.087	0.337
-311.939	284.436	0.211	0.379
-310.924	-41.047	0.215	0.111
-309.910	-200.000	0.028	0.269
-308.895	26.668	-0.270	0.226
-307.880	148.591	-0.115	0.155
-306.866	-138.057	-0.089	-0.010
-305.851	20.851	-0.317	-0.256
-304.837	150.989	-0.104	-0.142
-303.822	-135.765	0.087	-0.010
-302.807	-125.391	0.148	0.023
-301.793	131.263	0.105	-0.134
-300.778	-200.000	0.006	-0.217
-299.764	800.000	-0.063	-0.205
-298.749	234.115	0.086	0.141
-297.735	-31.698	-0.287	0.161
-296.720	643.197	0.130	0.331
-295.705	-151.186	0.229	-0.017
-294.691	-200.000	-0.011	-0.142
-293.676	209.095	-0.139	-0.216
-292.662	-68.532	-0.430	0.166
-291.647	569.183	0.154	0.373
-290.632	103.109	-0.137	-0.160
-289.618	-168.547	0.179	0.007
-288.603	-114.029	0.075	0.015
-287.589	122.653	-0.223	-0.277
-286.574	223.525	0.137	-0.220
-285.559	-200.000	-0.063	-0.347
-284.545	-86.466	0.101	-0.031
-283.530	700.467	-0.040	0.106
-282.516	-200.000	0.004	-0.192
-281.501	-200.000	-0.011	0.098
-280.486	580.873	-0.021	-0.051
-279.472	-200.000	0.018	0.099
-278.457	8.887	0.310	0.233
-277.443	161.198	-0.067	-0.094
-276.428	-41.130	0.246	-0.127
-275.413	447.360	0.184	0.404
-274.399	79.718	0.138	0.147
-273.384	-160.571	-0.215	0.011
-272.370	-200.000	0.042	-0.290
-271.355	-19.320	-0.080	0.050
-270.340	-78.116	0.150	-0.052
-269.326	-200.000	-0.027	-0.160
-268.311	160.434	0.128	0.177
-267.297	-160.785	-0.211	-0.011
-266.282	15.887	0.121	0.095
-265.267	-200.000	-0.020	0.276
-264.253	-58.258	0.205	-0.089
-263.238	-200.000	-0.001	0.215
-262.224	800.000	0.136	0.423
-261.209	800.000	-0.097	0.303
-260.195	22.243	0.287	0.233
-259.180	0.252	0.339	-0.241
-258.165	-89.239	0.144	-0.042
-257.151	39.982	0.088	-0.078
-256.136	0.958	-0.129	-0.092
-255.122	463.843	0.071	-0.157
-254.107	73.478	0.129	0.134
-253.092	44.381	0.275	0.252
-252.078	53.984	-0.004	0.003
-251.063	23.880	0.322	0.264
-250.049	91.094	0.147	0.164
-249.034	161.023	-0.117	0.163
-248.019	-200.000	0.008	0.215
-247.005	-123.752	-0.104	-0.016
-245.990	-71.235	-0.314	0.117
-244.976	800.000	0.150	0.463
-243.961	-65.122	-0.095	0.038
-242.946	194.694	-0.092	0.138
-241.932	187.295	-0.105	-0.155
-240.917	-48.908	-0.074	-0.035
-239.903	-66.216	-0.319	-0.126
-238.888	-103.194	0.046	-0.011
-237.873	800.000	-0.112	0.355
-236.859	-6.244	-0.150	-0.102
-235.844	-200.000	0.015	-0.303
-234.830	800.000	0.036	-0.133
-233.815	-105.212	-0.019	-0.004
-232.800	-138.183	0.087	0.010
-231.786	394.746	0.094	0.196
-230.771	166.032	-0.140	-0.197
-229.757	-112.943	0.056	-0.011
-228.742	453.021	-0.090	0.198
-227.727	-3.303	-0.204	-0.141
-226.713	-8.139	-0.211	-0.141
-225.698	3.602	-0.126	-0.091
-224.684	-28.275	0.134	-0.077
-223.669	-200.000	-0.005	0.240
-222.655	50.061	-0.102	0.096
-221.640	-125.514	-0.394	0.059
-220.625	142.176	-0.151	-0.199
-219.611	-200.000	0.003	0.178
-218.596	-200.000	0.014	0.171
-217.582	186.063	-0.155	0.229
-216.567	-79.852	0.275	0.092
-215.552	79.320	-0.191	-0.204
-214.538	-200.000	0.046	0.307
-213.523	746.324	-0.098	0.261
-212.509	-200.000	-0.012	0.186
-211.494	213.294	-0.060	0.094
-210.479	229.419	0.174	-0.282
-209.465	24.535	-0.109	-0.090
-208.450	-44.100	-0.081	-0.040
-207.436	-200.000	-0.049	0.345
-206.421	124.535	0.279	0.349
-205.406	-163.901	0.215	-0.010
-204.392	453.254	0.066	0.144
-203.377	112.286	0.254	0.305
-202.363	211.581	0.177	-0.276
-201.348	3.540	0.101	0.073
-200.333	-200.000	0.012	0.083
-199.319	118.681	0.171	-0.210
-198.304	376.364	0.066	-0.133
-197.290	-132.279	-0.300	0.039
-196.275	800.000	0.022	-0.093
-195.260	-148.546	0.329	0.027
-194.246	-31.564	-0.259	-0.144
-193.231	-200.000	0.014	0.072
-192.217	800.000	-0.096	-0.367
-191.202	-146.972	-0.124	-0.011
-190.187	786.219	-0.095	-0.259
-189.173	-102.199	0.182	-0.043
-188.158	800.000	-0.040	0.146
-187.144	-23.341	0.126	0.075
-186.129	800.000	-0.053	-0.170
-185.114	132.653	0.124	0.159
-184.100	641.769	-0.062	-0.158
-183.085	-45.383	0.113	0.055
-182.071	-5.132	0.143	0.097
-181.056	-63.342	-0.082	-0.034
-180.042	800.000	0.027	0.078
-179.027	-190.908	-0.231	-0.002
-178.012	29.704	-0.038	-0.032
-176.998	-9.580	-0.088	-0.059
-175.983	319.480	0.091	0.171
-174.969	-200.000	0.041	0.245
-173.954	-108.117	-0.210	-0.045
-172.939	-55.565	-0.177	0.079
-171.925	800.000	0.072	0.296
-170.910	121.618	-0.149	-0.184
-169.896	125.229	0.103	-0.129
-168.881	18.694	-0.055	0.043
-167.866	-200.000	0.025	0.273
-166.852	672.213	0.041	-0.105
-165.837	74.663	-0.063	0.066
-164.823	92.522	0.084	-0.094
-163.808	-200.000	-0.091	-0.400
-162.793	-83.421	0.429	-0.136
-161.779	618.351	0.124	-0.309
-160.764	127.609	0.163	-0.206
-159.750	21.093	0.276	-0.222
-158.735	800.000	0.060	-0.186
-157.720	-78.650	0.218	0.074
-156.706	348.588	-0.139	-0.272
-155.691	285.183	0.062	0.111
-154.677	-132.368	0.440	-0.056
-153.662	102.549	-0.137	-0.159
-152.647	-200.000	0.000	-0.308
-151.633	-171.772	0.115	-0.004
-150.618	158.180	-0.117	0.161
-149.604	-43.264	-0.063	0.032
-148.589	-102.662	-0.096	-0.023
-147.574	-200.000	-0.011	0.133
-146.560	700.065	0.056	-0.146
-145.545	-200.000	0.032	-0.378
-144.531	-48.754	0.063	0.030
-143.516	80.200	0.138	0.147
-142.502	32.105	-0.247	0.211
-141.487	108.556	0.050	0.059
-140.472	-21.857	-0.170	0.103
-139.458	28.067	0.070	0.059
-138.443	-12.657	-0.135	-0.087
-137.429	-8.524	0.141	-0.094
-136.414	506.759	-0.125	0.288
-135.399	-200.000	0.045	0.364
-134.385	-75.681	0.156	0.055
-133.370	-110.281	-0.243	-0.050
-132.356	259.678	-0.193	-0.331
-131.341	200.046	0.037	-0.057
-130.326	-83.703	0.062	-0.020
-129.312	-61.877	0.061	0.025
-128.297	277.844	0.162	0.286
-127.283	19.452	0.142	-0.113
-126.268	-200.000	0.000	0.011
-125.253	66.140	0.129	-0.130
-124.239	771.812	0.065	-0.175
-123.224	-30.897	-0.128	-0.072
-122.210	-89.765	0.276	-0.080
-121.195	255.163	0.092	0.157
