DTS Sentinel unit serial number:	SN413079Multiplexer serial number:	ORYXHardware model number:	OX4-SRSoftware version number:	ORYX F/W v4.00 Oryx Data Collector v3.7.2.0data status	okinstallation	princeton_trtdifferential loss correction	single-endedforward channel	channel 3reverse channel	N/Adate	2019/09/13time	20:12:35forward acquisition time	60.00reverse acquisition time	0.00gamma	496.2192k internal	0.2330k external	0.2330temperature offset calibration	1.0069default loss term (dB/km)	0.3790temperature slope calibration	1.0000multiplexer offset coefficient	1.0000multiplexer slope coefficient	1.0000fibre end	0.00T internal ref (°C)	29.50T ext. ref 1 (°C)	3.35T ext. ref 2 (°C)	24.04length (m)	temperature (°C)	Stokes	anti-Stokes-747.200	-150.156	0.585	0.046
-746.185	-200.000	0.006	0.319
-745.171	-36.586	-0.286	0.155
-744.156	-200.000	0.065	0.469
-743.142	-198.930	-0.130	-0.001
-742.127	-83.606	-0.277	-0.089
-741.112	212.102	0.240	-0.381
-740.098	-21.758	-0.154	-0.094
-739.083	-80.460	-0.266	-0.089
-738.069	279.234	0.099	0.177
-737.054	-200.000	0.069	-0.313
-736.039	800.000	-0.118	-0.356
-735.025	-200.000	0.027	0.491
-734.010	64.673	-0.311	-0.315
-732.996	-129.912	0.202	0.028
-731.981	428.028	-0.221	0.481
-730.966	-28.014	-0.260	-0.152
-729.952	115.345	-0.282	-0.347
-728.937	67.168	-0.195	0.200
-727.923	-91.115	-0.103	-0.030
-726.908	-200.000	-0.067	-0.368
-725.894	800.000	-0.135	-0.411
-724.879	-104.167	0.328	0.077
-723.864	14.664	-0.153	0.120
-722.850	40.548	-0.182	0.165
-721.835	317.319	0.159	-0.302
-720.821	524.991	-0.169	-0.400
-719.806	43.457	-0.221	0.204
-718.791	-32.782	-0.135	0.076
-717.777	391.480	-0.072	-0.149
-716.762	-106.616	0.160	0.036
-715.748	467.069	-0.144	0.324
-714.733	36.124	-0.107	0.094
-713.718	55.470	0.036	-0.035
-712.704	800.000	-0.122	-0.344
-711.689	-47.185	0.077	0.038
-710.675	-79.491	-0.217	0.074
-709.660	-108.458	-0.488	-0.106
-708.645	-200.000	0.030	0.388
-707.631	-20.476	0.127	0.078
-706.616	800.000	-0.095	0.285
-705.602	313.593	0.149	-0.282
-704.587	583.958	-0.078	-0.192
-703.572	-200.000	-0.015	-0.152
-702.558	125.071	0.067	-0.085
-701.543	-200.000	0.073	0.443
-700.529	-50.122	-0.285	-0.136
-699.514	-200.000	0.001	-0.014
-698.499	430.124	-0.046	0.101
-697.485	-68.958	-0.314	-0.122
-696.470	25.065	-0.111	-0.093
-695.456	-14.526	0.265	-0.171
-694.441	-35.367	-0.291	-0.159
-693.426	-88.570	0.252	0.075
-692.412	-27.294	0.141	-0.083
-691.397	-107.033	-0.183	0.041
-690.383	-167.870	0.285	-0.011
-689.368	524.293	0.051	-0.120
-688.354	12.774	0.133	-0.103
-687.339	24.626	-0.169	0.141
-686.324	-40.514	0.258	0.135
-685.310	-166.289	-0.154	0.007
-684.295	-200.000	-0.006	0.179
-683.281	-81.465	0.253	0.084
-682.266	-116.395	-0.209	-0.039
-681.251	800.000	-0.033	-0.111
-680.237	-12.990	0.095	-0.062
-679.222	219.353	0.120	0.192
-678.208	-18.679	0.200	-0.125
-677.193	139.524	0.249	-0.330
-676.178	-200.000	-0.022	-0.107
-675.164	800.000	0.077	-0.327
-674.149	397.684	0.119	-0.249
-673.135	175.631	0.184	-0.268
-672.120	23.949	0.105	-0.087
-671.105	348.327	0.035	-0.070
-670.091	-84.199	0.236	0.075
-669.076	-182.105	0.235	-0.004
-668.062	-31.274	-0.181	0.102
-667.047	387.658	-0.100	-0.207
-666.032	81.105	0.098	0.107
-665.018	227.498	-0.133	0.217
-664.003	800.000	0.027	0.094
-662.989	-85.165	0.294	-0.092
-661.974	722.118	0.053	0.140
-660.959	173.170	-0.067	0.097
-659.945	-54.136	-0.232	0.106
-658.930	19.035	0.230	-0.185
-657.916	58.234	-0.229	-0.225
-656.901	88.552	-0.182	-0.203
-655.886	-27.191	-0.142	-0.083
-654.872	-78.258	-0.245	0.084
-653.857	-66.400	0.049	-0.020
-652.843	294.586	-0.002	-0.004
-651.828	-96.142	-0.331	0.088
-650.814	-66.479	-0.294	0.117
-649.799	800.000	0.067	0.220
-648.784	-19.319	-0.036	0.022
-647.770	-135.909	-0.235	0.028
-646.755	769.072	0.095	-0.258
-645.741	-103.817	0.085	-0.020
-644.726	-127.491	-0.151	-0.022
-643.711	-54.291	-0.252	-0.115
-642.697	-120.416	0.110	-0.019
-641.682	-149.497	0.233	-0.019
-640.668	-154.869	-0.159	-0.011
-639.653	-85.275	0.032	-0.010
-638.638	-200.000	0.086	-0.486
-637.624	71.742	-0.122	-0.127
-636.609	40.712	-0.260	0.235
-635.595	3.954	-0.294	0.216
-634.580	-82.175	-0.104	-0.034
-633.565	-7.501	-0.182	-0.123
-632.551	178.383	-0.263	-0.386
-631.536	-114.154	0.201	-0.039
-630.522	-123.621	0.280	-0.044
-629.507	-57.405	-0.256	0.113
-628.492	17.072	0.248	-0.197
-627.478	-95.255	0.065	-0.017
-626.463	800.000	-0.065	-0.200
-625.449	32.897	0.057	0.049
-624.434	-122.318	0.071	-0.012
-623.419	800.000	0.073	0.202
-622.405	66.273	-0.113	-0.115
-621.390	-9.216	0.034	0.023
-620.376	28.909	0.029	-0.025
-619.361	-200.000	0.090	0.591
-618.346	177.135	-0.161	0.234
-617.332	-200.000	-0.002	0.113
-616.317	8.406	-0.292	-0.220
-615.303	41.839	-0.358	-0.325
-614.288	-57.222	-0.306	0.135
-613.273	-33.725	0.159	-0.088
-612.259	-200.000	0.027	-0.208
-611.244	-1.705	-0.079	0.056
-610.230	-200.000	-0.003	-0.160
-609.215	380.105	-0.158	-0.323
-608.201	104.658	0.127	0.149
-607.186	-22.670	-0.051	0.031
-606.171	-59.561	-0.173	0.074
-605.157	800.000	0.105	0.325
-604.142	-56.934	-0.278	0.123
-603.128	646.843	-0.132	-0.337
-602.113	65.368	-0.284	0.288
-601.098	-85.950	-0.211	0.065
-600.084	250.972	0.067	-0.114
-599.069	-200.000	-0.027	0.191
-598.055	258.968	-0.058	-0.100
-597.040	703.963	0.045	0.118
-596.025	-127.199	-0.234	0.034
-595.011	-46.871	0.504	0.246
-593.996	-94.767	0.134	0.036
-592.982	800.000	-0.039	-0.133
-591.967	800.000	0.020	-0.085
-590.952	-191.638	0.419	0.004
-589.938	171.845	-0.210	-0.302
-588.923	-125.449	-0.348	0.053
-587.909	-75.426	0.456	0.162
-586.894	800.000	0.045	-0.129
-585.879	81.837	-0.170	-0.184
-584.865	35.933	-0.216	0.190
-583.850	-127.628	0.182	-0.026
-582.836	50.215	0.101	0.095
-581.821	123.543	0.085	-0.106
-580.806	114.553	0.146	-0.178
-579.792	46.014	0.079	0.073
-578.777	-95.610	-0.177	-0.047
-577.763	800.000	0.021	-0.087
-576.748	-94.718	-0.213	-0.058
-575.733	124.833	0.103	0.129
-574.719	-200.000	0.051	-0.250
-573.704	-54.820	-0.345	-0.156
-572.690	231.501	-0.095	-0.156
-571.675	-69.329	-0.241	-0.093
-570.661	-138.096	0.375	0.042
-569.646	36.821	-0.123	-0.109
-568.631	-200.000	-0.075	0.368
-567.617	77.357	-0.038	-0.041
-566.602	444.057	-0.131	-0.287
-565.588	-200.000	-0.018	-0.121
-564.573	-176.059	0.371	0.010
-563.558	243.310	0.116	0.194
-562.544	-200.000	-0.037	0.191
-561.529	-200.000	-0.011	-0.084
-560.515	253.517	0.280	-0.477
-559.500	116.411	-0.115	-0.141
-558.485	-200.000	-0.005	-0.060
-557.471	304.856	0.044	0.082
-556.456	234.402	-0.052	0.085
-555.442	-200.000	-0.037	-0.285
-554.427	-172.016	0.118	-0.004
-553.412	-97.110	-0.232	0.061
-552.398	110.174	0.192	-0.231
-551.383	289.208	0.087	-0.158
-550.369	29.929	-0.261	-0.222
-549.354	13.485	0.110	-0.085
-548.339	23.996	0.153	0.126
-547.325	-138.073	-0.142	0.016
-546.310	421.382	0.085	-0.182
-545.296	800.000	-0.051	-0.177
-544.281	-98.505	-0.402	0.103
-543.266	-40.682	0.115	-0.059
-542.252	800.000	0.108	0.400
-541.237	-200.000	-0.034	0.160
-540.223	-103.433	-0.179	0.042
-539.208	-200.000	-0.046	-0.483
-538.193	-200.000	-0.039	0.224
-537.179	800.000	-0.053	0.181
-536.164	-65.258	-0.057	0.023
-535.150	220.823	-0.021	0.034
-534.135	-138.045	0.421	0.047
-533.121	-137.583	-0.402	-0.045
-532.106	-200.000	0.035	-0.163
-531.091	645.433	-0.077	-0.198
-530.077	-70.116	-0.083	0.032
-529.062	800.000	0.064	-0.178
-528.048	285.332	0.157	0.283
-527.033	-79.359	0.052	0.018
-526.018	-38.044	-0.348	-0.184
-525.004	167.373	-0.066	-0.093
-523.989	-200.000	-0.013	0.227
-522.975	-80.685	0.129	-0.043
-521.960	-145.815	-0.274	-0.024
-520.945	52.004	0.202	-0.192
-519.931	193.949	-0.128	-0.194
-518.916	800.000	0.087	-0.266
-517.902	217.518	-0.417	-0.663
-516.887	209.955	0.207	-0.325
-515.872	13.987	0.192	-0.149
-514.858	-44.253	-0.093	-0.047
-513.843	-41.246	0.075	0.039
-512.829	-23.191	0.246	-0.148
-511.814	800.000	0.111	-0.398
-510.799	-135.422	-0.176	0.021
-509.785	299.404	-0.058	-0.107
-508.770	39.103	0.194	-0.173
-507.756	-84.024	-0.096	-0.031
-506.741	-200.000	-0.001	-0.216
-505.726	-70.344	-0.163	0.062
-504.712	40.891	0.330	0.297
-503.697	88.408	-0.038	0.042
-502.683	-27.877	-0.192	0.111
-501.668	23.582	0.410	-0.336
-500.653	-194.269	0.221	0.002
-499.639	-77.144	0.353	-0.123
-498.624	92.130	-0.075	-0.084
-497.610	-5.371	-0.084	-0.058
-496.595	105.087	0.166	-0.195
-495.581	82.229	-0.067	-0.072
-494.566	69.198	-0.115	0.117
-493.551	190.420	0.103	-0.154
-492.537	-200.000	0.021	-0.176
-491.522	541.138	0.057	0.136
-490.508	-166.226	-0.204	-0.009
-489.493	800.000	-0.090	-0.257
-488.478	-200.000	0.005	0.242
-487.464	-200.000	-0.002	-0.286
-486.449	-131.325	0.119	0.016
-485.435	800.000	-0.041	-0.135
-484.420	418.375	0.036	0.076
-483.405	516.306	-0.054	0.125
-482.391	506.541	0.081	0.188
-481.376	-200.000	0.002	0.318
-480.362	-107.143	-0.296	-0.065
-479.347	144.955	0.153	-0.203
-478.332	36.697	0.179	-0.157
-477.318	72.740	-0.178	0.185
-476.303	534.920	-0.144	-0.339
-475.289	7.576	-0.216	-0.161
-474.274	-200.000	0.014	-0.160
-473.259	-200.000	0.022	0.195
-472.245	580.690	-0.141	0.345
-471.230	800.000	0.053	0.225
-470.216	194.831	-0.189	-0.285
-469.201	797.869	0.163	-0.449
-468.186	-164.883	-0.223	-0.010
-467.172	-200.000	-0.014	-0.064
-466.157	-83.997	0.252	0.080
-465.143	-28.272	0.347	-0.199
-464.128	20.234	-0.084	-0.068
-463.113	800.000	0.072	0.226
-462.099	800.000	0.058	0.183
-461.084	-200.000	-0.030	-0.391
-460.070	-172.318	0.066	0.002
-459.055	-104.878	0.268	0.061
-458.040	147.408	0.181	-0.243
-457.026	-7.023	-0.294	-0.198
-456.011	209.191	0.056	0.088
-454.997	-58.195	-0.229	0.099
-453.982	-200.000	0.065	-0.335
-452.968	376.235	0.026	-0.054
-451.953	800.000	-0.035	0.102
-450.938	800.000	-0.037	-0.123
-449.924	101.830	-0.107	-0.124
-448.909	-200.000	-0.076	0.439
-447.895	-110.838	-0.083	-0.017
-446.880	45.961	-0.231	-0.213
-445.865	-200.000	-0.033	-0.168
-444.851	-116.481	0.154	0.028
-443.836	-55.988	0.307	-0.136
-442.822	-78.611	0.333	0.113
-441.807	6.588	-0.104	-0.077
-440.792	9.923	-0.118	0.089
-439.778	-200.000	-0.049	-0.220
-438.763	-200.000	0.006	0.319
-437.749	800.000	-0.100	-0.401
-436.734	24.861	-0.180	-0.149
-435.719	-200.000	-0.015	0.306
-434.705	12.975	-0.212	-0.163
-433.690	-2.695	-0.238	0.166
-432.676	-200.000	-0.006	-0.187
-431.661	-147.794	0.196	-0.016
-430.646	800.000	0.063	-0.178
-429.632	800.000	-0.036	-0.115
-428.617	-200.000	0.007	0.470
-427.603	-94.740	0.286	0.077
-426.588	58.527	0.091	-0.089
-425.573	-6.182	0.261	0.177
-424.559	442.553	-0.097	0.212
-423.544	-144.555	0.260	-0.024
-422.530	-55.156	-0.289	-0.129
-421.515	-114.180	-0.108	-0.021
-420.500	294.902	-0.136	-0.248
-419.486	208.316	-0.177	0.274
-418.471	-47.755	-0.159	0.077
-417.457	-200.000	-0.047	-0.215
-416.442	-200.000	0.018	-0.098
-415.428	30.762	0.155	-0.132
-414.413	-25.130	0.221	-0.130
-413.398	-51.364	0.072	0.034
-412.384	-20.289	0.335	0.205
-411.369	-89.162	-0.260	0.076
-410.355	51.413	0.105	-0.099
-409.340	-200.000	0.023	0.140
-408.325	-200.000	0.010	0.142
-407.311	-132.295	0.320	-0.041
-406.296	318.797	-0.138	0.260
-405.282	601.977	0.096	0.236
-404.267	-56.236	0.209	-0.092
-403.252	800.000	-0.022	-0.092
-402.238	800.000	0.032	-0.087
-401.223	-136.395	0.196	0.023
-400.209	-200.000	-0.002	0.191
-399.194	-145.506	0.155	0.014
-398.179	-173.217	-0.405	-0.012
-397.165	-200.000	0.013	0.102
-396.150	-116.196	-0.116	-0.021
-395.136	409.458	0.068	0.143
-394.121	312.257	0.161	0.299
-393.106	-21.384	0.021	-0.013
-392.092	57.914	-0.193	-0.187
-391.077	800.000	-0.034	0.132
-390.063	-55.140	0.211	-0.094
-389.048	800.000	0.061	0.201
-388.033	-200.000	-0.031	0.141
-387.019	199.535	0.062	0.095
-386.004	-167.225	-0.126	0.005
-384.990	73.670	-0.297	-0.309
-383.975	-4.485	-0.092	-0.063
-382.960	769.963	-0.084	0.227
-381.946	-118.540	0.328	-0.058
-380.931	-98.175	0.072	0.018
-379.917	-53.445	0.360	-0.163
-378.902	74.046	0.159	-0.166
-377.888	498.715	-0.138	-0.316
-376.873	-118.647	-0.276	-0.048
-375.858	77.672	0.076	-0.081
-374.844	132.061	-0.050	0.064
-373.829	-28.150	0.072	0.041
-372.815	259.501	0.029	-0.049
-371.800	-200.000	-0.035	0.359
-370.785	-125.073	0.295	-0.045
-369.771	75.276	0.126	0.132
-368.756	239.225	-0.141	0.233
-367.742	-44.965	-0.346	0.171
-366.727	-32.249	-0.157	0.087
-365.712	-38.515	0.067	-0.035
-364.698	116.951	-0.130	0.158
-363.683	299.893	0.015	-0.028
-362.669	117.872	-0.155	0.189
-361.654	-50.929	-0.124	0.058
-360.639	800.000	-0.063	-0.234
-359.625	-104.280	0.322	0.074
-358.610	44.235	-0.098	0.089
-357.596	-24.330	0.099	-0.059
-356.581	51.431	-0.032	0.030
-355.566	800.000	-0.029	0.084
-354.552	-102.921	-0.134	0.031
-353.537	88.741	-0.189	0.209
-352.523	-73.696	-0.157	0.057
-351.508	-102.098	-0.320	-0.076
-350.493	299.937	-0.045	-0.082
-349.479	-144.260	-0.282	-0.026
-348.464	557.279	-0.129	0.309
-347.450	737.863	0.114	0.303
-346.435	28.303	-0.102	0.085
-345.420	-200.000	0.015	0.170
-344.406	-107.511	0.085	-0.019
-343.391	112.733	-0.152	-0.183
-342.377	552.605	-0.020	0.047
-341.362	-136.063	0.132	-0.015
-340.348	242.758	0.138	-0.230
-339.333	-200.000	-0.065	-0.333
-338.318	-200.000	0.031	-0.226
-337.304	-78.789	0.223	0.076
-336.289	-32.542	0.063	-0.035
-335.275	-16.625	-0.298	0.187
-334.260	-200.000	0.011	-0.136
-333.245	-27.668	-0.235	0.135
-332.231	-200.000	-0.006	0.423
-331.216	-21.167	0.120	-0.073
-330.202	-139.527	-0.217	-0.023
-329.187	800.000	-0.091	0.259
-328.172	588.091	-0.152	0.371
-327.158	-58.252	-0.130	-0.056
-326.143	123.219	-0.103	-0.128
-325.129	283.895	0.120	-0.214
-324.114	50.173	-0.114	-0.106
-323.099	-7.097	0.122	-0.082
-322.085	16.888	-0.092	-0.073
-321.070	15.150	-0.219	0.170
-320.056	3.893	0.047	-0.034
-319.041	204.288	-0.253	0.388
-318.026	597.073	-0.078	0.192
-317.012	38.430	0.251	-0.221
-315.997	208.542	0.115	0.178
-314.983	-28.912	0.333	-0.190
-313.968	-167.199	-0.174	0.007
-312.953	800.000	-0.124	-0.528
-311.939	-200.000	0.005	-0.069
-310.924	-85.750	-0.146	0.045
-309.910	256.455	0.030	-0.051
-308.895	533.703	0.053	-0.124
-307.880	-74.618	0.097	0.035
-306.866	800.000	0.058	0.166
-305.851	366.517	-0.082	0.163
-304.837	-9.438	0.143	0.094
-303.822	-179.674	-0.297	-0.006
-302.807	-11.552	-0.224	0.146
-301.793	135.601	-0.166	-0.214
-300.778	-40.367	0.371	0.191
-299.764	395.979	-0.242	0.499
-298.749	-161.942	-0.383	0.019
-297.735	405.884	0.072	-0.149
-296.720	313.209	0.153	-0.284
-295.705	567.676	0.045	0.109
-294.691	272.762	0.092	0.160
-293.676	-200.000	-0.042	-0.209
-292.662	149.079	0.145	0.195
-291.647	-140.959	0.264	0.027
-290.632	197.611	-0.200	-0.301
-289.618	-153.738	0.277	0.019
-288.603	-53.200	-0.125	-0.057
-287.589	786.928	0.151	0.409
-286.574	-83.559	0.050	0.016
-285.559	186.036	-0.168	-0.246
-284.545	292.787	-0.104	0.188
-283.530	-100.288	0.116	0.028
-282.516	-113.527	-0.120	0.023
-281.501	-8.955	-0.132	0.087
-280.486	-200.000	-0.016	-0.356
-279.472	249.275	-0.063	0.106
-278.457	-71.237	0.125	-0.046
-277.443	126.886	-0.101	-0.127
-276.428	-162.344	-0.256	-0.013
-275.413	-111.102	0.101	0.020
-274.399	-116.281	-0.175	0.032
-273.384	692.829	-0.079	0.205
-272.370	409.752	-0.160	-0.335
-271.355	470.087	-0.155	0.344
-270.340	800.000	-0.083	0.253
-269.326	360.204	0.079	0.156
-268.311	74.920	0.070	-0.073
-267.297	282.156	-0.084	0.150
-266.282	219.618	0.094	0.149
-265.267	-130.459	-0.049	-0.007
-264.253	399.131	-0.014	0.029
-263.238	25.498	-0.132	0.108
-262.224	-145.843	-0.211	0.019
-261.209	200.881	0.296	0.449
-260.195	800.000	-0.026	-0.108
-259.180	-166.612	0.224	0.009
-258.165	-74.252	-0.244	-0.087
-257.151	-33.184	0.247	0.135
-256.136	124.267	-0.329	-0.408
-255.122	-48.406	0.242	0.115
-254.107	406.245	0.158	0.328
-253.092	213.617	0.179	-0.279
-252.078	-73.522	0.271	-0.098
-251.063	800.000	-0.027	-0.080
-250.049	22.833	-0.092	0.074
-249.034	800.000	-0.063	0.233
-248.019	247.993	-0.118	0.197
-247.005	118.945	0.199	-0.243
-245.990	-56.094	-0.172	0.076
-244.976	769.593	0.061	0.164
-243.961	-200.000	0.004	-0.104
-242.946	92.121	-0.222	0.247
-241.932	-152.125	-0.236	-0.017
-240.917	-8.088	0.237	-0.157
-239.903	-200.000	0.058	-0.355
-238.888	-105.946	0.311	0.069
-237.873	-200.000	-0.111	0.000
-236.859	-200.000	0.052	0.279
-235.844	567.445	-0.082	0.196
-234.830	-1.112	0.258	0.180
-233.815	577.234	-0.049	0.119
-232.800	-123.679	-0.146	-0.023
-231.786	-67.483	-0.143	-0.055
-230.771	496.313	0.059	0.134
-229.757	-93.287	0.182	-0.050
-228.742	196.081	0.135	-0.203
-227.727	800.000	0.036	0.116
-226.713	-200.000	-0.016	-0.209
-225.698	-63.377	0.093	0.038
-224.684	73.867	-0.126	-0.131
-223.669	36.026	0.055	-0.048
-222.655	-86.012	0.071	-0.021
-221.640	260.283	0.135	0.230
-220.625	-200.000	0.013	0.082
-219.611	-24.528	0.351	-0.206
-218.596	-36.308	-0.011	0.006
-217.582	485.951	0.107	0.241
-216.567	172.144	0.184	0.261
-215.552	11.286	0.274	-0.207
-214.538	178.303	0.144	-0.207
-213.523	233.405	-0.122	-0.199
-212.509	474.117	-0.161	-0.359
-211.494	800.000	0.028	0.096
-210.479	-1.056	-0.259	0.181
-209.465	286.540	-0.060	0.106
-208.450	465.218	-0.072	-0.159
-207.436	112.228	0.079	-0.094
-206.421	-115.442	0.314	-0.058
-205.406	-143.649	0.146	0.014
-204.392	-12.032	0.215	-0.139
-203.377	-122.585	0.113	0.018
-202.363	492.237	-0.067	0.152
-201.348	-29.145	-0.191	0.108
-200.333	-108.756	0.400	-0.085
-199.319	-200.000	-0.008	0.182
-198.304	0.476	-0.129	-0.091
-197.290	800.000	-0.020	0.066
-196.275	595.006	-0.090	0.220
-195.260	-84.123	0.238	0.074
-194.246	-200.000	-0.017	-0.123
-193.231	-56.442	0.451	-0.197
-192.217	-48.708	0.084	-0.040
-191.202	-38.750	0.089	0.046
-190.187	-49.284	-0.095	-0.044
-189.173	667.756	0.037	-0.094
-188.158	92.720	0.155	0.172
-187.144	247.608	-0.048	0.080
-186.129	85.017	0.191	0.206
-185.114	51.508	-0.206	0.193
-184.100	40.644	-0.123	0.110
-183.085	-200.000	0.012	-0.173
-182.071	-200.000	0.003	0.204
-181.056	-200.000	-0.004	0.233
-180.042	-200.000	-0.004	-0.073
-179.027	789.555	0.078	-0.211
-178.012	800.000	0.072	0.217
-176.998	-87.473	0.416	0.124
-175.983	-200.000	-0.038	0.306
-174.969	-14.705	0.239	0.151
-173.954	-29.186	-0.112	0.063
-172.939	-112.404	0.317	-0.062
-171.925	34.224	-0.231	-0.198
-170.910	-200.000	0.031	0.161
-169.896	-90.505	0.100	-0.028
-168.881	-142.946	-0.420	0.040
-167.866	38.850	0.117	0.103
-166.852	-56.625	-0.186	-0.081
-165.837	-200.000	-0.025	0.251
-164.823	7.493	0.169	0.124
-163.808	31.921	0.388	0.329
-162.793	-200.000	0.019	0.287
-161.779	3.418	-0.268	0.192
-160.764	-70.972	0.346	-0.128
-159.750	-22.687	-0.040	0.024
-158.735	-200.000	0.023	0.164
-157.720	-100.800	0.205	0.050
-156.706	-104.478	0.230	0.052
-155.691	-6.565	0.307	0.206
-154.677	37.364	0.252	0.220
-153.662	24.319	-0.099	0.080
-152.647	205.676	-0.100	0.153
-151.633	115.775	-0.025	0.030
-150.618	-200.000	0.003	0.198
-149.604	235.650	0.028	-0.045
-148.589	137.308	0.156	0.201
-147.574	-176.926	0.209	-0.005
-146.560	-200.000	0.043	0.230
-145.545	369.775	-0.039	-0.078
-144.531	142.779	0.030	-0.039
-143.516	84.010	-0.113	0.122
-142.502	-195.908	-0.194	0.001
-141.487	-28.390	0.299	0.170
-140.472	-49.232	-0.184	0.086
-139.458	-156.423	-0.171	-0.011
-138.443	25.083	0.081	-0.066
-137.429	-200.000	-0.009	-0.257
-136.414	-200.000	0.077	0.343
-135.399	-2.750	0.309	0.212
-134.385	-114.690	-0.192	0.036
-133.370	-178.143	-0.154	0.004
-132.356	-131.668	0.280	-0.036
-131.341	-93.445	-0.185	0.050
-130.326	-176.743	0.149	0.004
-129.312	-70.491	-0.326	0.121
-128.297	51.059	-0.140	0.130
-127.283	-200.000	0.050	-0.278
-126.268	12.999	-0.177	0.135
-125.253	800.000	-0.100	0.280
-124.239	-146.234	-0.136	0.012
-123.224	242.403	-0.090	0.148
-122.210	800.000	-0.010	-0.030
-121.195	244.359	-0.080	0.132
