DTS Sentinel unit serial number:	SN413079Multiplexer serial number:	ORYXHardware model number:	OX4-SRSoftware version number:	ORYX F/W v4.00 Oryx Data Collector v3.7.2.0data status	okinstallation	princeton_trtdifferential loss correction	single-endedforward channel	channel 3reverse channel	N/Adate	2019/09/16time	21:32:34forward acquisition time	60.00reverse acquisition time	0.00gamma	496.2192k internal	0.2325k external	0.2325temperature offset calibration	0.9936default loss term (dB/km)	0.3790temperature slope calibration	1.0000multiplexer offset coefficient	1.0000multiplexer slope coefficient	1.0000fibre end	0.00T internal ref (°C)	31.44T ext. ref 1 (°C)	0.05T ext. ref 2 (°C)	25.56length (m)	temperature (°C)	Stokes	anti-Stokes-747.200	-82.697	0.044	-0.014
-746.185	-137.625	-0.569	-0.065
-745.171	-164.288	0.239	-0.011
-744.156	100.603	0.284	0.333
-743.142	-103.893	0.191	0.045
-742.127	800.000	-0.049	0.142
-741.112	27.490	0.153	-0.130
-740.098	-200.000	0.005	-0.137
-739.083	83.984	0.262	-0.289
-738.069	-77.628	0.078	-0.027
-737.054	-44.880	0.386	-0.194
-736.039	193.236	-0.246	-0.376
-735.025	52.070	-0.122	0.117
-734.010	430.258	0.145	-0.317
-732.996	39.214	-0.100	-0.091
-731.981	-139.013	-0.194	0.021
-730.966	-26.009	0.058	-0.035
-729.952	-172.366	-0.480	-0.015
-728.937	96.490	0.073	-0.084
-727.923	-82.735	-0.459	-0.150
-726.908	145.995	-0.224	-0.303
-725.894	-200.000	-0.015	-0.243
-724.879	800.000	-0.151	-0.472
-723.864	-55.679	0.163	0.073
-722.850	462.328	-0.029	-0.066
-721.835	-154.302	0.260	0.018
-720.821	-106.771	-0.204	-0.046
-719.806	-200.000	0.014	-0.342
-718.791	11.071	-0.175	-0.135
-717.777	-200.000	0.029	-0.161
-716.762	-200.000	0.010	-0.083
-715.748	135.521	0.230	0.302
-714.733	-200.000	-0.024	0.376
-713.718	23.838	-0.122	-0.102
-712.704	-200.000	0.035	0.173
-711.689	-166.117	-0.125	0.005
-710.675	57.138	0.097	0.095
-709.660	800.000	0.091	0.323
-708.645	-57.227	0.131	-0.058
-707.631	800.000	-0.037	-0.107
-706.616	-156.403	-0.220	0.014
-705.602	15.479	-0.194	-0.153
-704.587	479.512	-0.041	-0.094
-703.572	-94.730	0.274	-0.075
-702.558	-39.674	-0.108	0.057
-701.543	-200.000	-0.039	0.499
-700.529	-103.549	0.122	0.029
-699.514	-65.875	0.290	-0.117
-698.499	-200.000	0.016	-0.096
-697.485	57.602	-0.178	-0.176
-696.470	-76.252	-0.221	0.078
-695.456	156.197	-0.171	-0.237
-694.441	800.000	0.028	-0.110
-693.426	204.123	-0.031	-0.048
-692.412	-200.000	0.040	-0.415
-691.397	59.865	0.226	-0.224
-690.383	-200.000	-0.006	0.321
-689.368	-151.080	0.337	-0.025
-688.354	800.000	-0.056	0.240
-687.339	-200.000	0.025	-0.171
-686.324	-200.000	0.015	-0.195
-685.310	533.780	0.138	-0.329
-684.295	164.857	0.109	-0.155
-683.281	-92.902	0.332	0.093
-682.266	-87.659	-0.153	0.046
-681.251	-94.187	-0.247	0.068
-680.237	-200.000	-0.042	-0.187
-679.222	-200.000	0.019	-0.301
-678.208	-146.694	-0.052	0.005
-677.193	-152.337	-0.484	-0.035
-676.178	-41.190	0.168	-0.087
-675.164	86.064	0.111	0.123
-674.149	22.354	-0.079	0.065
-673.135	-35.554	-0.243	0.133
-672.120	19.699	0.161	0.130
-671.105	146.166	0.143	-0.194
-670.091	-92.477	0.083	-0.024
-669.076	-165.589	-0.227	-0.010
-668.062	-90.950	-0.275	-0.080
-667.047	-90.743	0.183	-0.053
-666.032	800.000	0.087	-0.252
-665.018	-80.175	0.136	0.046
-664.003	-4.810	-0.234	0.162
-662.989	-114.804	0.226	0.043
-661.974	-86.914	0.327	-0.100
-660.959	-200.000	-0.026	-0.357
-659.945	-14.144	0.162	-0.105
-658.930	35.826	0.137	0.121
-657.916	-93.145	0.116	-0.033
-656.901	163.876	-0.162	-0.229
-655.886	-22.523	0.134	-0.081
-654.872	-120.948	-0.173	-0.029
-653.857	-1.505	-0.248	-0.176
-652.843	-200.000	0.074	-0.495
-651.828	330.521	0.099	-0.193
-650.814	56.043	-0.096	-0.093
-649.799	800.000	-0.034	-0.122
-648.784	539.641	0.011	-0.027
-647.770	-30.111	0.153	-0.088
-646.755	-180.779	0.421	0.009
-645.741	-200.000	-0.008	-0.370
-644.726	-78.032	-0.205	0.071
-643.711	15.176	0.216	-0.170
-642.697	273.170	-0.069	-0.122
-641.682	-103.247	-0.077	-0.018
-640.668	256.188	0.055	-0.095
-639.653	-118.309	0.150	-0.027
-638.638	172.490	0.130	-0.188
-637.624	-63.194	-0.194	-0.080
-636.609	-37.112	-0.106	-0.057
-635.595	-102.777	0.251	0.060
-634.580	-200.000	0.012	0.137
-633.565	-20.819	0.107	-0.066
-632.551	78.870	0.090	-0.096
-631.536	186.593	-0.207	-0.310
-630.522	193.093	0.083	0.126
-629.507	273.115	-0.038	0.068
-628.492	127.778	-0.088	0.113
-627.478	-200.000	-0.008	0.123
-626.463	-200.000	0.036	0.181
-625.449	708.865	0.100	0.266
-624.434	72.804	0.093	0.098
-623.419	458.285	0.100	-0.224
-622.405	-102.374	-0.182	0.044
-621.390	-200.000	0.003	0.092
-620.376	-200.000	-0.051	0.371
-619.361	-17.844	-0.215	0.136
-618.346	-16.681	0.370	0.235
-617.332	-200.000	-0.003	0.111
-616.317	-200.000	-0.057	0.341
-615.303	-200.000	0.008	0.082
-614.288	-126.159	-0.143	0.022
-613.273	71.939	-0.067	0.070
-612.259	-200.000	0.028	-0.223
-611.244	-200.000	-0.031	0.321
-610.230	-200.000	0.007	0.244
-609.215	2.609	-0.115	-0.084
-608.201	607.783	0.065	-0.162
-607.186	800.000	-0.037	0.139
-606.171	-52.443	-0.180	-0.084
-605.157	-81.198	0.080	-0.026
-604.142	70.886	-0.084	-0.087
-603.128	-113.975	0.246	0.048
-602.113	-103.113	0.273	-0.065
-601.098	-99.950	0.377	-0.094
-600.084	-110.734	-0.103	0.021
-599.069	117.285	-0.036	-0.045
-598.055	72.729	0.065	0.068
-597.040	581.482	-0.089	0.220
-596.025	262.155	0.092	-0.161
-595.011	-79.174	-0.140	-0.048
-593.996	310.487	-0.220	-0.413
-592.982	800.000	0.094	0.306
-591.967	-138.938	0.275	0.030
-590.952	-189.017	-0.191	-0.002
-589.938	199.383	0.145	0.222
-588.923	-82.293	-0.201	0.066
-587.909	39.542	-0.136	-0.122
-586.894	-169.667	-0.349	0.013
-585.879	522.201	-0.104	-0.245
-584.865	-189.958	-0.283	-0.003
-583.850	42.740	0.131	-0.120
-582.836	-194.276	0.063	0.001
-581.821	359.776	0.074	-0.148
-580.806	800.000	-0.063	0.218
-579.792	761.638	0.176	0.480
-578.777	568.316	-0.128	0.311
-577.763	-80.025	0.326	-0.110
-576.748	765.430	0.095	-0.258
-575.733	47.319	-0.176	-0.164
-574.719	-75.890	-0.377	-0.134
-573.704	-97.844	0.085	0.022
-572.690	98.638	0.063	-0.072
-571.675	16.821	0.179	-0.142
-570.661	542.768	-0.127	0.304
-569.646	72.589	0.071	0.074
-568.631	356.595	0.083	0.166
-567.617	41.929	0.169	0.153
-566.602	24.029	-0.108	0.089
-565.588	-74.066	-0.197	0.071
-564.573	-159.295	-0.184	-0.010
-563.558	-104.446	-0.205	-0.048
-562.544	131.084	0.068	0.088
-561.529	226.113	0.174	-0.282
-560.515	66.583	-0.094	0.096
-559.500	-39.962	0.200	-0.105
-558.485	24.737	-0.173	0.143
-557.471	-46.399	0.174	-0.085
-556.456	-165.510	-0.192	-0.008
-555.442	-102.558	-0.169	0.040
-554.427	-93.386	0.077	-0.021
-553.412	-200.000	-0.286	0.001
-552.398	120.396	0.080	-0.100
-551.383	-200.000	-0.001	-0.115
-550.369	800.000	-0.039	-0.131
-549.354	20.050	-0.132	-0.107
-548.339	-55.228	0.321	0.144
-547.325	384.992	0.203	0.419
-546.310	-114.532	-0.556	-0.107
-545.296	-89.927	-0.232	-0.068
-544.281	325.175	0.074	0.141
-543.266	-60.037	-0.262	-0.112
-542.252	-60.290	0.205	-0.087
-541.237	93.371	0.131	0.149
-540.223	-50.046	-0.117	-0.056
-539.208	-200.000	-0.024	0.138
-538.193	0.506	-0.053	0.038
-537.179	-135.286	0.475	-0.057
-536.164	-156.951	0.045	-0.003
-535.150	-125.831	0.271	-0.041
-534.135	-14.055	-0.121	0.078
-533.121	48.892	-0.197	-0.185
-532.106	-92.611	0.223	-0.063
-531.091	92.701	0.063	0.071
-530.077	-121.507	-0.107	0.018
-529.062	800.000	-0.039	0.156
-528.048	800.000	0.077	0.266
-527.033	-200.000	-0.004	0.234
-526.018	-78.199	-0.275	0.095
-525.004	-200.000	-0.012	-0.129
-523.989	376.440	-0.101	-0.206
-522.975	415.775	0.212	0.452
-521.960	-200.000	0.042	-0.269
-520.945	451.738	-0.041	-0.092
-519.931	-68.431	0.095	0.037
-518.916	-32.662	0.061	0.034
-517.902	79.992	-0.089	0.095
-516.887	-200.000	0.120	-0.616
-515.872	-200.000	0.000	0.084
-514.858	-200.000	0.014	0.116
-513.843	434.653	0.092	-0.199
-512.829	-200.000	-0.050	-0.243
-511.814	346.450	0.151	-0.297
-510.799	-67.672	-0.326	0.128
-509.785	6.457	0.120	-0.090
-508.770	800.000	0.063	0.265
-507.756	246.648	0.187	-0.316
-506.741	-114.450	0.173	-0.033
-505.726	-200.000	0.029	0.159
-504.712	192.437	0.098	0.148
-503.697	800.000	-0.024	-0.066
-502.683	95.676	-0.127	0.145
-501.668	223.489	0.152	0.245
-500.653	212.875	-0.176	-0.277
-499.639	-27.362	0.427	-0.249
-498.624	180.583	0.017	-0.025
-497.610	-200.000	-0.052	-0.341
-496.595	800.000	-0.077	-0.339
-495.581	93.584	-0.168	0.190
-494.566	773.259	-0.086	0.235
-493.551	-67.376	-0.363	0.143
-492.537	-200.000	0.013	0.219
-491.522	-200.000	-0.026	0.350
-490.508	402.953	-0.054	0.114
-489.493	7.657	-0.158	-0.118
-488.478	-139.756	0.108	0.011
-487.464	800.000	-0.078	0.285
-486.449	-200.000	0.007	0.058
-485.435	41.459	0.090	-0.081
-484.420	101.643	-0.075	0.088
-483.405	800.000	-0.017	0.059
-482.391	-200.000	0.063	-0.425
-481.376	278.522	-0.158	-0.282
-480.362	-62.364	0.173	0.072
-479.347	432.998	-0.154	-0.334
-478.332	-0.025	0.125	-0.089
-477.318	-78.343	-0.092	-0.031
-476.303	-125.289	-0.111	0.017
-475.289	800.000	0.033	-0.135
-474.274	534.808	-0.082	0.194
-473.259	-46.193	-0.212	0.104
-472.245	-200.000	-0.035	-0.290
-471.230	116.502	-0.290	-0.355
-470.216	800.000	-0.058	0.171
-469.201	-14.145	-0.149	-0.096
-468.186	-92.710	-0.287	-0.080
-467.172	-92.835	-0.178	0.050
-466.157	800.000	0.081	0.227
-465.143	201.482	0.090	0.138
-464.128	-200.000	0.000	-0.271
-463.113	-131.631	-0.214	-0.028
-462.099	338.018	0.109	-0.212
-461.084	450.163	0.132	0.290
-460.070	228.086	0.166	0.269
-459.055	9.739	-0.113	0.085
-458.040	800.000	0.098	0.341
-457.026	800.000	0.006	0.022
-456.011	-92.539	0.110	-0.031
-454.997	-58.402	-0.120	0.052
-453.982	-200.000	-0.006	-0.030
-452.968	167.258	0.110	0.156
-451.953	-200.000	0.026	0.202
-450.938	-47.503	-0.081	0.039
-449.924	-132.397	-0.181	-0.023
-448.909	800.000	-0.183	-0.509
-447.895	2.252	-0.144	-0.104
-446.880	-200.000	0.058	0.281
-445.865	297.687	-0.175	0.321
-444.851	126.287	-0.141	0.177
-443.836	55.300	0.090	0.086
-442.822	800.000	0.029	0.113
-441.807	-8.717	-0.024	0.016
-440.792	246.039	0.022	-0.036
-439.778	-152.832	0.487	-0.034
-438.763	133.329	0.145	-0.187
-437.749	800.000	-0.068	0.276
-436.734	40.499	-0.093	-0.083
-435.719	-200.000	0.005	0.108
-434.705	-30.879	0.182	0.102
-433.690	-200.000	0.004	-0.188
-432.676	-200.000	0.012	0.157
-431.661	437.706	0.028	-0.061
-430.646	345.054	-0.092	0.180
-429.632	73.395	-0.207	-0.216
-428.617	-200.000	0.000	0.608
-427.603	-75.486	-0.346	-0.123
-426.588	208.824	-0.030	0.048
-425.573	-105.133	0.277	0.063
-424.559	-106.268	-0.176	-0.039
-423.544	-50.161	0.282	-0.133
-422.530	-183.987	0.386	0.006
-421.515	-64.475	0.113	-0.046
-420.500	-200.000	-0.003	0.131
-419.486	102.074	-0.131	0.153
-418.471	-7.148	0.226	0.153
-417.457	115.421	-0.113	0.137
-416.442	-200.000	-0.013	0.277
-415.428	12.812	-0.267	0.206
-414.413	-72.993	-0.209	-0.076
-413.398	287.321	-0.098	0.177
-412.384	-200.000	-0.007	0.138
-411.369	-200.000	0.047	-0.329
-410.355	458.880	0.041	-0.091
-409.340	-22.801	-0.163	-0.098
-408.325	354.421	-0.131	0.260
-407.311	-129.354	0.109	0.015
-406.296	-200.000	0.010	-0.161
-405.282	-200.000	-0.018	-0.140
-404.267	109.135	0.356	-0.425
-403.252	16.729	-0.113	0.089
-402.238	13.754	-0.208	0.161
-401.223	1.670	-0.216	0.155
-400.209	64.802	0.125	-0.125
-399.194	138.175	0.133	0.173
-398.179	120.692	-0.077	-0.095
-397.165	232.839	0.112	-0.183
-396.150	-123.065	0.263	-0.042
-395.136	109.456	-0.099	-0.118
-394.121	-132.183	0.182	0.023
-393.106	-67.935	0.385	-0.150
-392.092	-45.329	0.115	-0.057
-391.077	800.000	0.127	-0.388
-390.063	-200.000	0.051	-0.337
-389.048	-200.000	0.003	0.190
-388.033	-131.511	-0.155	0.020
-387.019	44.618	0.053	-0.049
-386.004	34.145	0.251	0.217
-384.990	-200.000	0.010	0.361
-383.975	-121.761	0.174	0.029
-382.960	-43.315	-0.332	0.167
-381.946	-53.277	-0.267	-0.122
-380.931	-21.473	0.267	-0.162
-379.917	252.262	0.077	0.131
-378.902	82.899	-0.249	-0.270
-377.888	380.635	-0.127	0.258
-376.873	-200.000	0.055	0.283
-375.858	-133.997	-0.370	0.046
-374.844	87.499	0.114	-0.125
-373.829	245.832	0.186	-0.312
-372.815	551.385	-0.023	-0.055
-371.800	-123.035	0.234	0.037
-370.785	-25.216	0.021	0.013
-369.771	800.000	0.033	-0.136
-368.756	-106.055	-0.066	0.015
-367.742	-200.000	0.014	0.145
-366.727	166.089	0.150	-0.211
-365.712	-126.884	-0.262	0.038
-364.698	800.000	-0.069	-0.265
-363.683	-129.247	0.405	-0.056
-362.669	-200.000	-0.026	-0.169
-361.654	-200.000	0.048	-0.252
-360.639	222.320	0.177	-0.283
-359.625	-67.913	-0.015	-0.006
-358.610	-62.068	0.139	0.058
-357.596	-40.261	-0.196	0.101
-356.581	10.439	-0.235	-0.178
-355.566	-131.977	-0.094	0.012
-354.552	31.305	-0.227	-0.194
-353.537	-152.771	-0.312	-0.022
-352.523	-142.138	0.559	0.055
-351.508	-131.239	-0.152	-0.020
-350.493	-200.000	-0.015	-0.130
-349.479	-44.797	-0.158	-0.078
-348.464	-156.938	-0.288	0.018
-347.450	-141.806	-0.101	-0.010
-346.435	-163.599	-0.170	-0.008
-345.420	4.404	-0.282	0.206
-344.406	-200.000	0.077	0.442
-343.391	676.572	0.146	-0.377
-342.377	-127.078	-0.090	0.013
-341.362	-165.117	-0.136	-0.006
-340.348	-121.739	-0.122	0.020
-339.333	-124.360	-0.210	-0.033
-338.318	17.742	-0.039	-0.031
-337.304	-196.639	0.077	0.001
-336.289	-200.000	0.002	-0.066
-335.275	66.998	0.114	-0.115
-334.260	800.000	-0.012	-0.041
-333.245	-171.911	-0.282	0.009
-332.231	-47.394	0.165	-0.079
-331.216	46.924	0.257	-0.237
-330.202	-107.684	-0.168	-0.036
-329.187	255.127	0.265	-0.451
-328.172	383.102	-0.073	-0.149
-327.158	-30.203	-0.165	-0.093
-326.143	800.000	0.045	0.123
-325.129	72.564	0.155	-0.161
-324.114	-34.259	0.118	-0.064
-323.099	-67.537	0.223	-0.087
-322.085	-200.000	0.054	-0.299
-321.070	211.237	0.184	0.287
-320.056	-1.291	-0.186	-0.130
-319.041	60.036	-0.115	-0.113
-318.026	-71.140	0.430	0.160
-317.012	-59.664	0.163	-0.069
-315.997	-200.000	0.009	-0.314
-314.983	-52.181	-0.079	0.037
-313.968	-14.363	0.452	0.289
-312.953	458.738	-0.056	0.124
-311.939	-58.145	-0.164	-0.071
-310.924	94.047	-0.012	-0.013
-309.910	-50.739	0.106	0.050
-308.895	-114.854	-0.429	0.081
-307.880	-200.000	-0.020	0.300
-306.866	236.428	0.118	-0.194
-305.851	127.777	-0.183	-0.231
-304.837	373.199	0.100	-0.202
-303.822	-6.510	0.114	0.077
-302.807	24.675	-0.022	0.018
-301.793	-200.000	0.031	-0.430
-300.778	97.745	0.087	-0.099
-299.764	800.000	0.045	0.129
-298.749	-83.750	0.259	-0.082
-297.735	118.740	0.120	-0.147
-296.720	800.000	0.055	0.209
-295.705	13.533	-0.088	0.068
-294.691	-51.390	0.186	-0.086
-293.676	200.331	0.269	-0.410
-292.662	424.201	0.082	-0.175
-291.647	-100.417	0.400	0.098
-290.632	-26.970	-0.085	0.049
-289.618	38.981	-0.168	0.149
-288.603	-70.211	0.155	-0.059
-287.589	-200.000	0.011	-0.200
-286.574	-137.456	-0.391	0.044
-285.559	-72.442	0.181	-0.066
-284.545	-124.340	0.178	0.028
-283.530	-99.203	0.130	0.033
-282.516	207.545	-0.180	-0.279
-281.501	143.077	-0.030	-0.040
-280.486	674.471	0.061	-0.157
-279.472	-200.000	-0.014	-0.096
-278.457	-143.941	-0.236	-0.022
-277.443	293.572	-0.172	-0.310
-276.428	-120.256	0.465	-0.079
-275.413	800.000	-0.100	0.280
-274.399	16.275	-0.196	-0.153
-273.384	-143.358	-0.172	-0.016
-272.370	-56.839	0.249	0.109
-271.355	54.498	-0.211	0.201
-270.340	-140.398	0.250	0.026
-269.326	-200.000	-0.042	0.398
-268.311	-200.000	-0.015	0.169
-267.297	800.000	0.075	0.320
-266.282	453.525	0.109	-0.239
-265.267	18.751	0.060	0.047
-264.253	-115.890	-0.069	0.013
-263.238	-25.777	0.104	0.061
-262.224	-200.000	0.045	0.273
-261.209	136.453	0.052	0.067
-260.195	50.793	-0.128	-0.120
-259.180	68.948	-0.159	-0.162
-258.165	-92.915	-0.150	0.042
-257.151	157.626	-0.168	0.230
-256.136	217.248	0.118	0.186
-255.122	121.902	-0.196	-0.242
-254.107	200.491	0.222	0.338
-253.092	800.000	-0.078	0.250
-252.078	338.513	0.015	-0.030
-251.063	-96.177	-0.298	-0.078
-250.049	99.207	0.144	0.165
-249.034	102.459	0.172	-0.199
-248.019	-40.877	0.223	0.114
-247.005	51.335	-0.055	0.052
-245.990	-95.607	-0.127	0.034
-244.976	-161.974	-0.228	-0.011
-243.961	220.857	0.019	-0.030
-242.946	22.690	-0.161	-0.130
-241.932	415.210	0.118	-0.249
-240.917	501.865	-0.078	0.178
-239.903	81.348	-0.126	0.135
-238.888	82.468	-0.033	0.036
-237.873	-151.684	-0.166	-0.012
-236.859	-172.184	-0.289	0.009
-235.844	-4.421	-0.059	0.040
-234.830	-200.000	-0.051	0.471
-233.815	-48.689	0.339	0.161
-232.800	-200.000	-0.005	0.197
-231.786	-200.000	-0.040	0.377
-230.771	144.859	0.170	-0.224
-229.757	111.139	0.129	-0.154
-228.742	-19.714	0.057	-0.035
-227.727	-123.505	-0.219	-0.034
-226.713	47.430	0.169	-0.156
-225.698	-174.154	0.218	0.006
-224.684	-38.904	0.038	0.020
-223.669	-160.067	0.111	0.006
-222.655	-191.753	0.197	-0.002
-221.640	602.103	0.094	0.231
-220.625	245.851	0.050	-0.084
-219.611	-38.094	-0.231	-0.121
-218.596	3.268	-0.146	0.105
-217.582	183.294	0.155	-0.226
-216.567	-200.000	0.013	0.091
-215.552	1.427	-0.233	-0.165
-214.538	-200.000	0.006	0.040
-213.523	-43.428	0.205	0.102
-212.509	504.460	0.135	-0.309
-211.494	-200.000	0.002	-0.197
-210.479	-99.838	-0.269	0.066
-209.465	-90.856	0.544	-0.155
-208.450	-84.013	-0.169	-0.053
-207.436	-1.348	0.063	0.044
-206.421	-200.000	0.019	-0.140
-205.406	800.000	-0.030	0.123
-204.392	-106.547	-0.081	-0.018
-203.377	83.132	0.075	0.080
-202.363	-129.701	-0.279	-0.038
-201.348	-90.300	-0.365	-0.105
-200.333	-2.529	-0.265	0.184
-199.319	800.000	0.080	0.326
-198.304	800.000	-0.095	-0.299
-197.290	-35.522	0.208	-0.111
-196.275	-200.000	-0.039	0.567
-195.260	-6.451	0.079	-0.053
-194.246	84.252	0.113	0.122
-193.231	332.384	0.120	-0.229
-192.217	89.490	-0.144	-0.159
-191.202	35.388	0.192	0.166
-190.187	472.197	0.040	-0.089
-189.173	339.248	-0.058	0.111
-188.158	-200.000	-0.102	0.456
-187.144	-116.992	-0.135	-0.024
-186.129	-200.000	0.007	-0.273
-185.114	-32.449	-0.278	-0.153
-184.100	-162.446	0.170	0.008
-183.085	800.000	0.046	0.153
-182.071	408.860	0.121	-0.253
-181.056	350.453	0.085	-0.165
-180.042	91.029	0.146	-0.161
-179.027	-125.777	-0.197	0.029
-178.012	800.000	0.048	0.133
-176.998	211.915	-0.029	-0.046
-175.983	27.937	0.234	-0.194
-174.969	-20.199	0.348	0.212
-173.954	-200.000	-0.071	-0.316
-172.939	8.360	0.094	-0.069
-171.925	-7.142	-0.181	0.121
-170.910	73.453	0.162	-0.167
-169.896	-56.752	-0.365	0.159
-168.881	800.000	0.055	0.210
-167.866	30.198	-0.036	-0.031
-166.852	-119.414	-0.386	-0.066
-165.837	-96.195	0.127	-0.033
-164.823	-39.120	-0.122	-0.063
-163.808	-200.000	0.015	-0.302
-162.793	-60.764	0.175	0.073
-161.779	12.136	-0.182	0.139
-160.764	133.618	0.127	0.162
-159.750	-125.433	0.104	-0.016
-158.735	18.487	-0.102	-0.080
-157.720	800.000	-0.157	0.501
-156.706	-112.995	0.149	0.029
-155.691	32.325	-0.167	-0.142
-154.677	-195.665	0.175	0.001
-153.662	325.400	-0.148	0.279
-152.647	800.000	-0.024	-0.081
-151.633	573.825	0.129	0.311
-150.618	33.374	0.298	0.255
-149.604	-146.522	0.161	0.014
-148.589	-96.514	0.221	0.058
-147.574	91.521	-0.061	-0.068
-146.560	-32.220	-0.021	0.012
-145.545	-200.000	0.022	-0.202
-144.531	90.703	0.264	0.292
-143.516	-125.469	0.059	0.009
-142.502	336.394	-0.083	-0.158
-141.487	-161.043	0.149	-0.008
-140.472	-183.533	0.205	-0.003
-139.458	-128.586	-0.247	-0.034
-138.443	-50.407	0.179	-0.083
-137.429	130.590	-0.032	0.041
-136.414	233.199	0.126	0.204
-135.399	800.000	0.052	-0.199
-134.385	-98.827	-0.355	-0.089
-133.370	240.673	0.153	-0.252
-132.356	-112.910	0.035	-0.007
-131.341	308.300	-0.007	-0.014
-130.326	-43.725	0.092	-0.045
-129.312	800.000	0.012	0.049
-128.297	-24.043	0.272	0.160
-127.283	265.432	0.151	-0.260
-126.268	732.452	0.146	-0.386
-125.253	61.607	-0.131	0.128
-124.239	-133.192	-0.121	-0.015
-123.224	-21.202	0.144	-0.087
-122.210	302.442	0.179	0.326
-121.195	3.076	-0.174	0.125
