DTS Sentinel unit serial number:	SN413079Multiplexer serial number:	ORYXHardware model number:	OX4-SRSoftware version number:	ORYX F/W v4.00 Oryx Data Collector v3.7.2.0data status	okinstallation	princeton_trtdifferential loss correction	single-endedforward channel	channel 3reverse channel	N/Adate	2019/09/19time	00:24:35forward acquisition time	60.00reverse acquisition time	0.00gamma	496.2192k internal	0.2346k external	0.2346temperature offset calibration	0.9991default loss term (dB/km)	0.3790temperature slope calibration	1.0000multiplexer offset coefficient	1.0000multiplexer slope coefficient	1.0000fibre end	0.00T internal ref (°C)	22.56T ext. ref 1 (°C)	0.73T ext. ref 2 (°C)	15.57length (m)	temperature (°C)	Stokes	anti-Stokes-747.200	-98.262	0.167	0.043
-746.185	-115.544	-0.321	-0.060
-745.171	63.145	0.184	0.185
-744.156	432.180	0.088	0.190
-743.142	-200.000	0.001	0.037
-742.127	-71.147	-0.248	0.093
-741.112	-96.558	0.371	-0.098
-740.098	81.928	-0.273	0.295
-739.083	343.323	0.018	-0.036
-738.069	372.653	0.317	0.643
-737.054	-200.000	0.004	-0.265
-736.039	29.749	-0.133	-0.113
-735.025	-183.012	0.208	0.004
-734.010	-200.000	-0.024	0.180
-732.996	-200.000	-0.036	-0.268
-731.981	-54.711	-0.066	0.030
-730.966	-200.000	-0.037	-0.311
-729.952	-31.095	0.307	0.173
-728.937	254.458	-0.153	-0.261
-727.923	-67.865	-0.182	-0.071
-726.908	-161.809	-0.126	0.006
-725.894	-200.000	-0.019	0.233
-724.879	-130.153	0.377	0.051
-723.864	800.000	-0.052	-0.206
-722.850	156.055	-0.212	-0.292
-721.835	-78.213	0.464	-0.159
-720.821	4.440	0.399	-0.292
-719.806	-200.000	-0.001	-0.046
-718.791	-63.041	0.137	-0.057
-717.777	42.846	0.239	-0.218
-716.762	234.843	0.024	0.039
-715.748	98.483	-0.032	-0.037
-714.733	20.958	-0.128	-0.104
-713.718	-200.000	-0.004	-0.120
-712.704	-8.233	0.052	-0.035
-711.689	800.000	0.072	-0.223
-710.675	-200.000	-0.025	-0.454
-709.660	-182.326	-0.126	0.002
-708.645	-200.000	0.012	-0.139
-707.631	-200.000	0.005	-0.077
-706.616	197.169	-0.107	0.163
-705.602	9.434	-0.112	0.085
-704.587	-200.000	-0.017	-0.174
-703.572	-189.238	0.249	0.003
-702.558	-65.560	-0.321	-0.129
-701.543	-55.557	0.127	0.057
-700.529	-107.832	-0.359	-0.078
-699.514	179.628	0.132	-0.193
-698.499	-64.646	-0.266	-0.108
-697.485	155.595	-0.112	0.153
-696.470	-200.000	0.012	0.080
-695.456	11.690	-0.200	0.153
-694.441	-121.907	-0.099	-0.016
-693.426	-69.839	0.127	0.048
-692.412	800.000	-0.127	0.415
-691.397	-116.079	0.229	0.043
-690.383	28.054	0.129	-0.109
-689.368	-83.694	0.092	0.029
-688.354	546.942	0.099	-0.237
-687.339	442.075	-0.068	0.148
-686.324	361.920	0.106	-0.213
-685.310	-200.000	-0.012	-0.349
-684.295	562.216	0.163	0.393
-683.281	67.448	-0.162	-0.165
-682.266	-108.370	-0.055	-0.012
-681.251	-200.000	-0.002	-0.054
-680.237	-115.524	-0.094	-0.018
-679.222	265.092	0.128	-0.223
-678.208	-117.352	0.327	0.059
-677.193	112.761	0.162	-0.196
-676.178	-57.564	-0.078	0.034
-675.164	259.947	0.068	0.117
-674.149	-51.496	0.392	0.183
-673.135	-200.000	0.018	0.377
-672.120	-29.975	0.175	-0.099
-671.105	-105.812	0.230	-0.052
-670.091	-118.256	-0.229	-0.041
-669.076	22.387	-0.277	0.225
-668.062	-105.486	0.126	0.028
-667.047	445.560	-0.064	0.141
-666.032	58.520	0.052	-0.051
-665.018	800.000	-0.040	-0.119
-664.003	19.094	-0.075	0.060
-662.989	107.613	-0.295	0.350
-661.974	-138.951	0.333	0.036
-660.959	5.120	0.176	-0.129
-659.945	-200.000	-0.013	-0.086
-658.930	-177.944	-0.092	0.002
-657.916	35.746	-0.063	0.055
-656.901	99.725	0.047	0.055
-655.886	-200.000	-0.022	-0.109
-654.872	127.337	-0.232	-0.294
-653.857	800.000	0.037	0.130
-652.843	61.269	-0.121	-0.120
-651.828	800.000	-0.071	0.229
-650.814	-148.937	-0.421	0.034
-649.799	142.246	-0.108	-0.142
-648.784	-120.069	0.190	0.032
-647.770	52.247	-0.281	0.267
-646.755	68.198	0.085	-0.087
-645.741	800.000	0.172	-0.596
-644.726	192.222	0.261	0.392
-643.711	77.799	0.079	-0.083
-642.697	800.000	0.055	-0.223
-641.682	191.737	0.108	0.162
-640.668	-200.000	0.049	0.271
-639.653	-121.275	-0.190	0.032
-638.638	-187.264	-0.376	-0.005
-637.624	-200.000	0.083	0.369
-636.609	112.833	-0.229	0.276
-635.595	-200.000	-0.007	0.323
-634.580	-153.819	0.071	0.005
-633.565	724.581	0.067	-0.178
-632.551	-52.093	0.256	-0.118
-631.536	201.789	0.192	-0.295
-630.522	-200.000	0.052	-0.325
-629.507	-200.000	0.027	0.258
-628.492	567.396	-0.098	0.238
-627.478	6.873	-0.022	-0.016
-626.463	0.156	0.170	0.121
-625.449	-138.862	-0.155	-0.017
-624.434	-200.000	0.034	-0.235
-623.419	546.082	0.121	-0.287
-622.405	-126.093	0.157	0.023
-621.390	211.678	-0.096	0.150
-620.376	-200.000	0.041	0.197
-619.361	115.467	-0.268	-0.326
-618.346	13.824	-0.084	0.065
-617.332	180.688	-0.195	0.284
-616.317	-200.000	-0.038	-0.178
-615.303	-134.988	0.035	-0.004
-614.288	31.395	0.127	-0.109
-613.273	2.512	-0.225	-0.162
-612.259	-200.000	-0.001	-0.047
-611.244	84.144	-0.189	0.205
-610.230	483.339	0.116	-0.263
-609.215	-71.376	0.230	-0.086
-608.201	30.045	0.095	-0.081
-607.186	141.744	-0.054	0.072
-606.171	-200.000	0.073	-0.381
-605.157	-200.000	-0.026	-0.178
-604.142	800.000	0.085	-0.315
-603.128	18.941	-0.069	0.055
-602.113	-26.443	-0.150	0.088
-601.098	-200.000	-0.043	0.193
-600.084	345.055	-0.096	0.188
-599.069	-115.268	-0.247	0.046
-598.055	-164.725	-0.136	-0.006
-597.040	-41.752	-0.205	0.105
-596.025	307.842	0.090	-0.167
-595.011	352.349	0.171	-0.337
-593.996	-180.905	0.275	-0.006
-592.982	-200.000	0.090	-0.407
-591.967	-160.276	-0.468	-0.025
-590.952	-200.000	-0.032	0.442
-589.938	317.646	-0.118	-0.223
-588.923	-144.946	0.248	0.023
-587.909	273.124	-0.020	0.035
-586.894	304.314	-0.010	-0.019
-585.879	2.050	-0.104	0.075
-584.865	264.150	-0.063	0.109
-583.850	-29.201	0.283	-0.161
-582.836	-47.434	-0.165	-0.080
-581.821	273.722	0.079	0.138
-580.806	-200.000	0.058	-0.337
-579.792	643.640	-0.112	0.284
-578.777	-41.339	0.208	0.107
-577.763	266.294	0.112	-0.195
-576.748	-66.947	-0.290	-0.114
-575.733	-9.149	0.198	-0.131
-574.719	800.000	0.022	0.073
-573.704	-82.793	-0.185	-0.059
-572.690	-200.000	-0.024	-0.192
-571.675	-32.726	0.226	0.125
-570.661	-200.000	-0.017	-0.145
-569.646	-200.000	0.053	-0.318
-568.631	800.000	-0.109	-0.413
-567.617	-200.000	0.015	0.163
-566.602	-23.772	0.303	0.180
-565.588	-200.000	0.014	0.236
-564.573	-64.876	-0.388	0.156
-563.558	0.117	0.247	0.175
-562.544	-140.292	-0.207	0.022
-561.529	-200.000	-0.023	0.219
-560.515	-200.000	-0.009	-0.134
-559.500	-47.529	0.118	0.057
-558.485	503.611	-0.069	0.158
-557.471	22.181	-0.127	0.103
-556.456	-200.000	-0.003	0.251
-555.442	-200.000	-0.007	0.036
-554.427	-0.855	0.140	0.098
-553.412	-200.000	0.032	-0.511
-552.398	-200.000	-0.008	-0.254
-551.383	800.000	0.095	-0.349
-550.369	-135.483	0.108	0.013
-549.354	302.499	-0.151	0.278
-548.339	386.726	-0.060	-0.123
-547.325	23.266	-0.064	-0.052
-546.310	450.642	-0.042	-0.093
-545.296	-19.512	-0.334	-0.205
-544.281	378.628	-0.156	0.317
-543.266	-200.000	-0.027	0.254
-542.252	-103.507	0.381	0.089
-541.237	-200.000	0.015	0.239
-540.223	-79.170	0.068	-0.023
-539.208	-186.608	-0.361	-0.005
-538.193	-61.903	-0.278	0.115
-537.179	800.000	0.034	-0.097
-536.164	27.570	-0.048	0.040
-535.150	-183.661	-0.430	-0.007
-534.135	-21.449	-0.054	0.033
-533.121	264.533	0.178	0.307
-532.106	-32.187	-0.281	0.156
-531.091	205.876	0.057	-0.088
-530.077	-200.000	0.009	-0.418
-529.062	383.291	-0.054	-0.110
-528.048	-200.000	-0.036	0.214
-527.033	-28.421	0.187	-0.107
-526.018	-137.972	-0.093	0.010
-525.004	-77.552	-0.111	0.038
-523.989	800.000	-0.062	0.267
-522.975	31.128	0.147	-0.125
-521.960	30.077	-0.132	0.112
-520.945	-63.249	0.104	-0.042
-519.931	6.300	-0.244	0.179
-518.916	-200.000	0.038	-0.258
-517.902	3.766	0.004	0.003
-516.887	293.020	0.094	-0.171
-515.872	440.353	0.133	-0.288
-514.858	-200.000	0.020	-0.262
-513.843	36.806	-0.237	-0.208
-512.829	800.000	-0.057	0.218
-511.814	168.140	-0.042	0.059
-510.799	-44.464	0.217	-0.108
-509.785	67.720	0.147	-0.149
-508.770	-200.000	-0.015	0.215
-507.756	-200.000	0.022	-0.187
-506.741	-68.593	-0.188	-0.072
-505.726	28.915	0.122	-0.102
-504.712	97.077	0.171	0.194
-503.697	-200.000	-0.031	0.363
-502.683	800.000	0.084	0.357
-501.668	143.840	-0.159	-0.210
-500.653	800.000	-0.054	-0.149
-499.639	112.358	0.076	-0.091
-498.624	800.000	0.019	-0.053
-497.610	22.620	-0.119	-0.096
-496.595	-139.516	0.225	0.024
-495.581	-38.444	-0.039	-0.021
-494.566	-200.000	0.022	-0.398
-493.551	507.239	-0.093	-0.215
-492.537	93.279	-0.127	-0.143
-491.522	221.711	0.161	-0.257
-490.508	-158.706	-0.170	-0.010
-489.493	800.000	-0.071	0.220
-488.478	209.545	0.157	0.243
-487.464	-200.000	-0.058	0.354
-486.449	753.246	0.034	0.092
-485.435	-46.582	0.139	-0.068
-484.420	800.000	0.044	-0.191
-483.405	-121.917	0.135	0.022
-482.391	-200.000	0.057	-0.353
-481.376	-35.873	-0.344	0.184
-480.362	-113.868	-0.297	-0.057
-479.347	-200.000	-0.016	-0.137
-478.332	11.851	-0.130	-0.099
-477.318	-200.000	-0.047	0.602
-476.303	0.047	0.081	0.057
-475.289	-53.421	-0.327	-0.148
-474.274	769.585	-0.099	-0.266
-473.259	41.675	0.147	-0.132
-472.245	17.797	-0.266	-0.210
-471.230	-42.240	-0.063	-0.032
-470.216	438.531	0.143	0.308
-469.201	328.850	-0.150	-0.285
-468.186	85.920	0.208	-0.226
-467.172	-200.000	0.002	-0.076
-466.157	18.011	0.072	0.056
-465.143	-200.000	0.019	-0.168
-464.128	190.361	-0.127	-0.189
-463.113	-200.000	0.018	-0.287
-462.099	-200.000	-0.020	-0.120
-461.084	-200.000	0.017	0.139
-460.070	88.241	-0.080	0.088
-459.055	-33.710	-0.115	-0.063
-458.040	-94.347	0.096	-0.026
-457.026	395.796	0.138	0.284
-456.011	554.165	0.039	0.093
-454.997	-200.000	0.029	-0.491
-453.982	-87.554	0.302	-0.090
-452.968	800.000	0.052	-0.186
-451.953	800.000	0.016	-0.045
-450.938	-185.233	-0.301	-0.005
-449.924	119.362	-0.075	-0.092
-448.909	282.052	-0.210	0.373
-447.895	800.000	0.013	0.044
-446.880	800.000	0.081	0.261
-445.865	359.367	0.054	0.107
-444.851	-200.000	0.011	-0.131
-443.836	-127.070	0.309	0.045
-442.822	800.000	0.063	-0.178
-441.807	-67.522	0.157	-0.061
-440.792	-46.567	0.190	-0.092
-439.778	596.187	-0.042	-0.102
-438.763	-200.000	0.016	0.136
-437.749	-174.954	-0.300	0.008
-436.734	22.128	-0.320	-0.258
-435.719	116.825	0.092	0.112
-434.705	-200.000	0.030	0.245
-433.690	-200.000	0.001	0.209
-432.676	203.927	0.136	-0.208
-431.661	199.918	0.129	-0.196
-430.646	525.302	-0.107	0.250
-429.632	-101.277	0.266	-0.064
-428.617	355.749	-0.047	-0.093
-427.603	79.557	-0.136	-0.144
-426.588	-103.810	0.149	-0.034
-425.573	-101.165	0.137	-0.033
-424.559	-200.000	0.002	0.179
-423.544	-200.000	-0.002	-0.229
-422.530	-184.445	0.286	-0.005
-421.515	167.062	0.095	0.134
-420.500	180.637	0.133	-0.193
-419.486	784.208	0.066	-0.177
-418.471	75.113	0.093	0.097
-417.457	800.000	-0.075	0.239
-416.442	800.000	0.097	0.349
-415.428	-23.073	-0.217	-0.129
-414.413	116.612	-0.113	-0.137
-413.398	-91.143	0.098	-0.028
-412.384	-165.113	-0.126	-0.006
-411.369	173.255	-0.109	0.156
-410.355	-134.181	0.342	-0.042
-409.340	800.000	-0.026	-0.096
-408.325	-49.532	-0.254	-0.120
-407.311	479.715	-0.130	0.290
-406.296	321.730	-0.081	0.153
-405.282	-50.896	0.221	0.103
-404.267	-200.000	-0.009	-0.136
-403.252	-33.873	-0.106	-0.058
-402.238	-44.702	0.105	-0.052
-401.223	-45.320	0.109	0.053
-400.209	267.743	0.021	-0.036
-399.194	392.029	0.002	-0.005
-398.179	-61.375	0.197	-0.082
-397.165	-20.379	-0.380	-0.230
-396.150	-59.983	-0.414	-0.175
-395.136	93.893	-0.115	0.128
-394.121	-125.720	-0.295	0.044
-393.106	-80.650	-0.132	-0.043
-392.092	-47.348	0.341	0.163
-391.077	157.988	-0.151	0.207
-390.063	-105.563	0.159	0.036
-389.048	106.275	0.160	0.186
-388.033	-100.948	0.340	0.082
-387.019	800.000	0.092	0.317
-386.004	40.305	-0.239	-0.212
-384.990	-200.000	0.012	-0.217
-383.975	-200.000	-0.004	0.133
-382.960	-126.149	-0.166	-0.025
-381.946	9.860	0.397	-0.297
-380.931	245.462	0.073	-0.122
-379.917	-200.000	-0.010	0.256
-378.902	800.000	0.095	-0.324
-377.888	464.858	-0.059	0.129
-376.873	285.824	0.063	0.112
-375.858	800.000	0.077	-0.308
-374.844	123.941	0.242	0.299
-373.829	414.545	0.140	0.293
-372.815	90.120	-0.159	-0.175
-371.800	68.699	-0.126	-0.127
-370.785	-32.212	0.173	-0.095
-369.771	40.227	-0.122	-0.108
-368.756	-200.000	0.038	0.571
-367.742	450.322	-0.065	-0.141
-366.727	352.362	0.086	-0.168
-365.712	246.061	0.035	-0.058
-364.698	-200.000	-0.022	-0.130
-363.683	-124.520	0.119	0.018
-362.669	94.609	0.126	0.142
-361.654	487.490	0.161	0.363
-360.639	172.799	-0.041	0.059
-359.625	-11.233	-0.130	0.084
-358.610	131.709	0.088	0.112
-357.596	61.831	-0.240	0.236
-356.581	26.950	0.213	0.176
-355.566	-200.000	-0.004	-0.083
-354.552	-200.000	-0.051	0.246
-353.537	105.934	-0.122	-0.142
-352.523	541.095	0.022	-0.052
-351.508	39.411	0.226	0.199
-350.493	195.840	-0.174	0.261
-349.479	-18.021	-0.094	0.058
-348.464	-55.001	-0.292	-0.130
-347.450	-61.547	-0.163	0.067
-346.435	-42.851	-0.060	-0.030
-345.420	-172.964	0.209	0.006
-344.406	218.847	-0.026	0.041
-343.391	800.000	0.040	-0.127
-342.377	-131.852	0.170	-0.022
-341.362	-200.000	0.051	0.311
-340.348	219.206	-0.093	-0.146
-339.333	-89.894	0.491	0.141
-338.318	-79.971	-0.296	0.098
-337.304	-113.068	0.247	-0.048
-336.289	-133.793	-0.186	-0.023
-335.275	-200.000	0.017	0.125
-334.260	559.146	-0.120	0.286
-333.245	73.108	0.194	-0.200
-332.231	-20.626	0.124	0.075
-331.216	49.678	-0.324	-0.300
-330.202	800.000	0.056	-0.242
-329.187	-170.649	0.192	0.007
-328.172	44.302	-0.198	-0.178
-327.158	91.541	0.043	0.047
-326.143	-64.229	-0.214	0.086
-325.129	131.847	-0.095	0.120
-324.114	-200.000	-0.032	0.171
-323.099	-200.000	0.055	-0.348
-322.085	-200.000	-0.031	-0.466
-321.070	424.991	-0.038	0.081
-320.056	149.154	-0.168	-0.224
-319.041	146.617	0.163	0.215
-318.026	51.566	0.193	0.181
-317.012	800.000	-0.041	-0.132
-315.997	-200.000	0.080	-0.449
-314.983	73.558	-0.302	-0.311
-313.968	62.477	-0.126	-0.124
-312.953	-193.061	0.322	-0.003
-311.939	4.998	-0.246	0.178
-310.924	-116.542	0.061	0.011
-309.910	-200.000	-0.038	0.181
-308.895	-154.744	-0.230	0.015
-307.880	-200.000	-0.014	-0.180
-306.866	800.000	0.160	-0.502
-305.851	-76.861	0.169	0.058
-304.837	800.000	-0.025	-0.070
-303.822	-121.530	-0.234	0.038
-302.807	800.000	0.064	0.247
-301.793	121.154	0.280	0.342
-300.778	-200.000	-0.072	-0.345
-299.764	-140.707	-0.264	0.027
-298.749	234.105	-0.065	0.105
-297.735	-52.140	-0.170	0.077
-296.720	800.000	0.111	0.307
-295.705	-90.555	0.149	-0.042
-294.691	-66.489	-0.193	0.075
-293.676	401.329	-0.075	-0.154
-292.662	-17.487	0.044	-0.027
-291.647	800.000	-0.055	0.231
-290.632	0.042	0.352	-0.246
-289.618	232.908	0.125	0.201
-288.603	-200.000	-0.015	0.183
-287.589	-139.824	0.315	0.033
-286.574	43.223	0.086	0.077
-285.559	-123.943	0.204	-0.032
-284.545	-96.851	-0.260	0.067
-283.530	-3.242	-0.088	0.060
-282.516	-59.790	-0.156	0.066
-281.501	800.000	-0.011	-0.036
-280.486	-48.109	0.346	-0.164
-279.472	-67.671	-0.191	0.074
-278.457	-96.509	-0.172	-0.045
-277.443	371.836	-0.196	0.391
-276.428	72.622	0.118	0.121
-275.413	-23.969	0.163	-0.096
-274.399	-126.417	0.132	-0.019
-273.384	-200.000	0.030	0.231
-272.370	-200.000	-0.020	-0.129
-271.355	-200.000	0.005	0.162
-270.340	25.593	0.072	-0.059
-269.326	-143.460	-0.351	0.033
-268.311	-129.128	-0.267	0.037
-267.297	319.136	-0.135	0.251
-266.282	800.000	-0.052	0.199
-265.267	20.429	-0.059	0.046
-264.253	183.480	-0.310	-0.449
-263.238	-135.167	0.066	-0.008
-262.224	-200.000	-0.025	0.429
-261.209	160.420	0.069	0.094
-260.195	-106.355	0.202	0.044
-259.180	800.000	0.100	0.425
-258.165	74.550	0.124	-0.128
-257.151	217.654	0.202	-0.316
-256.136	-49.441	0.109	-0.051
-255.122	800.000	0.097	0.323
-254.107	7.720	-0.090	0.066
-253.092	-45.893	-0.158	0.077
-252.078	539.142	0.089	0.208
-251.063	-200.000	0.023	0.272
-250.049	24.770	0.081	0.066
-249.034	-200.000	0.060	-0.291
-248.019	-144.614	-0.098	0.009
-247.005	113.185	0.069	-0.082
-245.990	-200.000	-0.002	0.169
-244.976	-57.760	-0.310	-0.133
-243.961	800.000	0.037	-0.109
-242.946	159.226	-0.172	-0.235
-241.932	-132.802	0.468	0.059
-240.917	-67.700	-0.192	0.074
-239.903	-60.748	-0.209	-0.087
-238.888	-200.000	-0.002	-0.251
-237.873	-200.000	-0.037	-0.166
-236.859	-89.461	0.365	-0.105
-235.844	316.627	0.058	0.108
-234.830	19.901	0.088	0.070
-233.815	215.939	-0.044	0.068
-232.800	46.848	0.148	-0.134
-231.786	184.060	-0.107	-0.156
-230.771	179.590	0.100	-0.144
-229.757	620.989	0.102	-0.252
-228.742	-200.000	0.101	-0.576
-227.727	-35.580	0.162	0.086
-226.713	90.777	-0.060	0.066
-225.698	-57.994	-0.235	-0.100
-224.684	800.000	-0.128	-0.387
-223.669	14.259	0.229	0.175
-222.655	-117.318	-0.450	-0.080
-221.640	-34.920	-0.093	-0.050
-220.625	43.393	0.191	0.171
-219.611	800.000	0.075	0.260
-218.596	216.276	0.094	0.146
-217.582	-200.000	0.025	0.152
-216.567	800.000	-0.035	-0.110
-215.552	18.613	0.219	-0.172
-214.538	-62.343	-0.210	-0.086
-213.523	28.480	-0.048	-0.040
-212.509	61.966	0.414	-0.404
-211.494	-43.178	0.124	0.062
-210.479	-200.000	0.010	0.144
-209.465	-46.529	0.430	-0.206
-208.450	-21.088	-0.254	0.152
-207.436	-41.065	0.249	0.126
-206.421	-136.681	-0.184	0.021
-205.406	-50.552	-0.086	-0.040
-204.392	-200.000	0.057	-0.282
-203.377	231.643	0.070	0.112
-202.363	59.548	-0.148	0.143
-201.348	198.550	-0.135	0.203
-200.333	-152.679	0.201	-0.014
-199.319	-39.136	0.134	0.069
-198.304	-142.540	-0.161	-0.015
-197.290	-88.015	0.276	0.081
-196.275	-200.000	0.001	0.262
-195.260	-200.000	-0.004	-0.030
-194.246	-200.000	0.021	0.473
-193.231	-130.749	-0.329	-0.043
-192.217	-105.481	0.132	0.029
-191.202	341.678	-0.143	0.274
-190.187	-200.000	0.005	-0.184
-189.173	338.262	0.183	-0.349
-188.158	74.214	0.168	0.172
-187.144	568.872	-0.078	0.186
-186.129	-131.222	-0.509	-0.066
-185.114	218.183	0.061	-0.095
-184.100	-81.265	0.106	0.034
-183.085	182.760	-0.039	0.056
-182.071	800.000	-0.038	0.107
-181.056	-200.000	-0.091	0.431
-180.042	115.382	-0.166	-0.198
-179.027	440.117	-0.040	-0.086
-178.012	-200.000	0.038	0.307
-176.998	281.279	-0.074	-0.130
-175.983	-38.112	0.106	0.055
-174.969	135.096	-0.133	0.169
-173.954	474.429	-0.060	-0.133
-172.939	-133.940	0.196	0.024
-171.925	-74.277	-0.013	0.004
-170.910	151.723	-0.157	-0.210
-169.896	64.483	0.131	0.129
-168.881	-120.767	0.387	-0.064
-167.866	688.212	-0.007	0.017
-166.852	163.789	-0.203	0.280
-165.837	800.000	0.046	0.139
-164.823	-200.000	0.010	0.099
-163.808	-10.916	-0.244	-0.158
-162.793	800.000	-0.066	0.234
-161.779	-200.000	0.026	0.190
-160.764	74.668	0.244	-0.251
-159.750	800.000	0.036	-0.103
-158.735	-66.931	-0.190	0.073
-157.720	3.602	-0.287	0.205
-156.706	-167.808	0.146	0.006
-155.691	-1.608	0.175	0.121
-154.677	302.638	0.053	-0.095
-153.662	-55.935	0.327	0.143
-152.647	198.993	-0.124	0.185
-151.633	-33.517	0.216	-0.116
-150.618	-200.000	-0.008	-0.305
-149.604	800.000	0.061	-0.202
-148.589	350.246	0.212	-0.408
-147.574	-200.000	0.029	0.149
-146.560	6.283	-0.207	-0.150
-145.545	2.776	0.208	-0.147
-144.531	-200.000	0.018	0.382
-143.516	115.614	-0.251	-0.300
-142.502	627.810	0.009	0.022
-141.487	13.012	-0.178	-0.135
-140.472	-5.678	-0.090	0.061
-139.458	-36.787	0.130	-0.068
-138.443	183.232	0.086	-0.124
-137.429	-63.858	0.258	-0.103
-136.414	-8.429	0.167	0.109
-135.399	444.127	0.062	-0.134
-134.385	800.000	-0.114	-0.330
-133.370	-105.844	0.210	-0.046
-132.356	800.000	0.100	-0.418
-131.341	-29.636	0.370	0.206
-130.326	-139.767	-0.090	-0.009
-129.312	-53.491	-0.407	-0.182
-128.297	-200.000	0.293	-0.001
-127.283	37.038	0.270	-0.233
-126.268	-200.000	0.001	0.075
-125.253	90.905	0.120	-0.132
-124.239	-155.357	-0.345	0.022
-123.224	800.000	-0.085	0.235
-122.210	-200.000	0.003	-0.116
-121.195	800.000	-0.128	0.365
