DTS Sentinel unit serial number:	SN413079Multiplexer serial number:	ORYXHardware model number:	OX4-SRSoftware version number:	ORYX F/W v4.00 Oryx Data Collector v3.7.2.0data status	okinstallation	princeton_trtdifferential loss correction	single-endedforward channel	channel 3reverse channel	N/Adate	2019/09/17time	21:12:35forward acquisition time	60.00reverse acquisition time	0.00gamma	496.2192k internal	0.2340k external	0.2340temperature offset calibration	0.9953default loss term (dB/km)	0.3790temperature slope calibration	1.0000multiplexer offset coefficient	1.0000multiplexer slope coefficient	1.0000fibre end	0.00T internal ref (°C)	28.00T ext. ref 1 (°C)	0.19T ext. ref 2 (°C)	19.72length (m)	temperature (°C)	Stokes	anti-Stokes-747.200	94.169	-0.062	0.070
-746.185	-51.643	-0.113	0.053
-745.171	-4.808	-0.266	-0.184
-744.156	800.000	0.047	0.174
-743.142	-200.000	0.009	0.077
-742.127	-200.000	-0.001	0.118
-741.112	111.226	-0.131	0.159
-740.098	646.152	-0.128	0.328
-739.083	-200.000	0.046	0.530
-738.069	19.308	-0.113	-0.091
-737.054	800.000	0.094	0.265
-736.039	800.000	-0.029	0.101
-735.025	31.078	-0.502	-0.432
-734.010	81.313	0.036	0.039
-732.996	-200.000	0.021	0.131
-731.981	800.000	0.079	-0.235
-730.966	-51.864	-0.191	-0.089
-729.952	64.794	0.116	-0.117
-728.937	800.000	-0.094	-0.329
-727.923	163.022	-0.271	-0.382
-726.908	-200.000	0.029	0.208
-725.894	-29.140	-0.203	-0.117
-724.879	-146.339	-0.269	-0.024
-723.864	58.170	-0.274	0.269
-722.850	-32.299	0.171	0.095
-721.835	10.988	-0.253	0.194
-720.821	211.740	-0.145	-0.228
-719.806	2.753	-0.119	0.086
-718.791	-128.010	-0.336	0.048
-717.777	-74.578	-0.183	-0.066
-716.762	-7.239	0.263	-0.179
-715.748	-91.759	0.152	-0.043
-714.733	-200.000	-0.028	0.219
-713.718	239.608	-0.162	-0.270
-712.704	-132.225	0.114	0.015
-711.689	-13.169	0.046	0.030
-710.675	-132.251	-0.231	0.030
-709.660	-42.648	-0.110	-0.056
-708.645	371.527	-0.091	0.185
-707.631	708.508	-0.091	0.242
-706.616	-149.433	-0.288	-0.023
-705.602	-200.000	-0.026	-0.228
-704.587	-47.992	0.258	-0.125
-703.572	-200.000	0.052	-0.365
-702.558	229.292	0.089	0.146
-701.543	158.169	-0.107	0.149
-700.529	800.000	0.021	0.077
-699.514	-200.000	0.003	0.158
-698.499	800.000	0.112	0.322
-697.485	-57.126	0.139	-0.061
-696.470	230.443	-0.095	-0.156
-695.456	-160.520	0.394	0.021
-694.441	295.339	0.159	0.292
-693.426	26.478	0.044	0.037
-692.412	409.516	0.048	-0.101
-691.397	-194.191	-0.466	-0.004
-690.383	-5.999	0.237	0.162
-689.368	-67.360	-0.248	-0.098
-688.354	-40.774	-0.165	-0.086
-687.339	-4.671	0.227	-0.157
-686.324	-120.186	-0.435	-0.074
-685.310	-112.775	-0.186	-0.037
-684.295	145.391	0.197	0.264
-683.281	440.073	0.055	-0.120
-682.266	-6.485	-0.245	0.167
-681.251	-106.157	0.285	-0.064
-680.237	44.801	-0.267	-0.246
-679.222	-58.645	-0.242	-0.105
-678.208	406.889	-0.100	-0.211
-677.193	332.489	0.087	0.168
-676.178	-58.512	-0.078	-0.034
-675.164	800.000	-0.115	0.368
-674.149	318.939	-0.136	-0.258
-673.135	88.593	0.340	0.378
-672.120	-157.703	0.114	0.007
-671.105	-111.190	-0.428	0.088
-670.091	-150.584	-0.244	0.019
-669.076	644.909	-0.106	0.270
-668.062	306.873	0.103	0.191
-667.047	-43.929	0.240	0.121
-666.032	20.287	0.119	-0.096
-665.018	-0.345	-0.079	-0.056
-664.003	-80.562	-0.209	-0.070
-662.989	-64.351	-0.254	0.103
-661.974	59.198	-0.237	0.234
-660.959	-75.124	0.348	0.124
-659.945	-200.000	0.056	0.252
-658.930	-50.449	0.284	-0.134
-657.916	-102.378	-0.334	-0.080
-656.901	-71.291	-0.111	0.042
-655.886	222.158	0.141	0.227
-654.872	-200.000	-0.052	-0.256
-653.857	-200.000	-0.047	-0.250
-652.843	359.019	0.069	0.137
-651.828	-200.000	0.092	0.505
-650.814	-32.809	0.108	0.060
-649.799	-85.684	0.142	0.044
-648.784	-200.000	-0.001	0.189
-647.770	741.314	-0.031	-0.083
-646.755	-126.814	-0.265	-0.039
-645.741	35.244	-0.205	-0.179
-644.726	800.000	0.104	-0.293
-643.711	-200.000	0.002	-0.297
-642.697	-22.349	0.051	-0.031
-641.682	229.560	0.102	-0.166
-640.668	-200.000	-0.038	-0.365
-639.653	-55.845	-0.192	0.086
-638.638	-18.031	0.441	0.276
-637.624	120.649	0.082	-0.101
-636.609	96.207	-0.121	0.138
-635.595	-158.222	-0.249	-0.015
-634.580	92.847	0.215	0.242
-633.565	130.950	0.214	0.275
-632.551	-200.000	-0.050	0.290
-631.536	-65.334	-0.111	0.044
-630.522	-200.000	0.045	-0.334
-629.507	-100.802	0.138	-0.034
-628.492	800.000	-0.040	0.133
-627.478	-120.472	0.293	-0.050
-626.463	-144.637	0.032	-0.003
-625.449	-89.549	0.259	0.076
-624.434	-96.667	0.451	-0.119
-623.419	32.393	-0.488	0.421
-622.405	117.197	0.206	0.253
-621.390	218.279	-0.169	0.269
-620.376	16.872	0.181	-0.143
-619.361	227.239	-0.111	-0.181
-618.346	142.293	-0.199	0.264
-617.332	530.375	0.177	0.416
-616.317	-98.976	0.374	0.095
-615.303	-135.408	-0.187	-0.022
-614.288	-48.379	-0.212	0.102
-613.273	-150.285	0.085	-0.007
-612.259	-123.405	-0.204	0.032
-611.244	57.865	-0.289	-0.282
-610.230	-200.000	0.018	-0.104
-609.215	-137.754	0.232	0.026
-608.201	78.571	-0.235	-0.251
-607.186	618.934	-0.059	0.149
-606.171	-20.593	-0.147	0.090
-605.157	800.000	-0.090	0.352
-604.142	-21.024	0.070	-0.043
-603.128	-87.517	-0.088	-0.027
-602.113	140.676	-0.259	-0.341
-601.098	800.000	0.085	-0.253
-600.084	-159.790	0.168	0.009
-599.069	-17.522	-0.184	0.115
-598.055	312.608	0.077	0.145
-597.040	20.159	0.088	0.071
-596.025	-105.770	0.237	0.053
-595.011	251.464	-0.052	0.089
-593.996	-200.000	-0.059	0.594
-592.982	670.670	0.158	-0.408
-591.967	-17.530	0.145	0.091
-590.952	-143.408	-0.583	0.056
-589.938	28.960	-0.263	-0.223
-588.923	-105.823	0.355	-0.080
-587.909	115.750	-0.111	0.136
-586.894	42.035	0.238	0.215
-585.879	800.000	-0.018	-0.063
-584.865	-153.871	-0.150	0.010
-583.850	56.752	0.107	0.104
-582.836	-200.000	0.005	-0.139
-581.821	-103.373	-0.408	-0.096
-580.806	800.000	-0.116	-0.355
-579.792	38.087	0.431	0.382
-578.777	221.426	-0.126	-0.201
-577.763	-11.215	-0.286	-0.188
-576.748	71.175	-0.091	0.094
-575.733	16.739	-0.152	0.120
-574.719	40.926	0.191	0.172
-573.704	661.130	-0.009	0.024
-572.690	-200.000	-0.004	-0.072
-571.675	165.794	-0.069	-0.097
-570.661	21.858	-0.043	0.035
-569.646	274.620	-0.145	-0.256
-568.631	-151.128	0.043	0.003
-567.617	-63.302	-0.380	0.156
-566.602	208.192	0.124	0.193
-565.588	800.000	0.039	0.110
-564.573	233.936	0.210	-0.345
-563.558	58.344	0.204	0.200
-562.544	-32.817	0.329	0.182
-561.529	-80.424	-0.186	-0.062
-560.515	16.662	0.080	-0.063
-559.500	146.639	-0.129	-0.172
-558.485	-110.888	-0.310	0.063
-557.471	-27.289	-0.203	-0.117
-556.456	66.337	-0.152	-0.154
-555.442	531.961	0.226	-0.532
-554.427	-28.876	0.192	-0.110
-553.412	-172.589	-0.107	-0.003
-552.398	-37.491	-0.068	-0.036
-551.383	-22.413	-0.105	-0.063
-550.369	-143.132	-0.031	0.003
-549.354	800.000	0.097	0.270
-548.339	-46.673	0.413	-0.201
-547.325	223.636	-0.221	-0.355
-546.310	-200.000	0.038	0.216
-545.296	-200.000	-0.031	-0.246
-544.281	-200.000	0.027	0.357
-543.266	46.144	0.125	-0.115
-542.252	-111.394	0.128	-0.026
-541.237	140.960	-0.082	-0.107
-540.223	-95.991	0.220	0.058
-539.208	-12.251	-0.166	-0.108
-538.193	158.296	0.258	0.355
-537.179	-12.506	-0.299	-0.194
-536.164	-14.795	-0.401	-0.256
-535.150	800.000	0.139	-0.421
-534.135	-45.283	0.252	0.124
-533.121	-167.693	-0.234	0.009
-532.106	-164.627	0.257	-0.012
-531.091	-158.875	-0.302	0.017
-530.077	-49.658	-0.324	0.153
-529.062	-122.207	-0.206	-0.033
-528.048	-95.158	-0.196	0.053
-527.033	-200.000	-0.011	0.117
-526.018	-132.249	0.072	-0.009
-525.004	-200.000	-0.015	0.286
-523.989	784.772	-0.016	0.044
-522.975	-200.000	-0.043	0.242
-521.960	466.841	0.096	0.214
-520.945	-81.022	-0.223	0.073
-519.931	5.756	-0.180	-0.132
-518.916	-66.863	-0.228	-0.090
-517.902	171.555	0.016	-0.023
-516.887	800.000	0.062	0.209
-515.872	-146.858	-0.137	-0.012
-514.858	332.136	0.142	0.272
-513.843	-135.935	0.104	-0.012
-512.829	44.430	-0.049	0.045
-511.814	-107.715	-0.408	-0.088
-510.799	-5.951	-0.156	-0.106
-509.785	106.601	0.060	-0.070
-508.770	12.559	0.132	0.101
-507.756	-78.291	-0.315	0.107
-506.741	-25.891	0.131	-0.077
-505.726	-200.000	-0.027	0.225
-504.712	757.241	-0.135	-0.362
-503.697	429.073	-0.063	0.136
-502.683	-74.196	-0.078	0.028
-501.668	15.171	0.112	0.087
-500.653	-13.210	-0.149	0.096
-499.639	-132.873	-0.339	0.043
-498.624	91.158	-0.287	0.319
-497.610	-200.000	0.015	-0.114
-496.595	368.535	0.168	-0.337
-495.581	-103.065	-0.094	-0.022
-494.566	-200.000	-0.033	-0.205
-493.551	-14.683	-0.296	0.189
-492.537	-140.901	0.334	-0.034
-491.522	-200.000	0.002	-0.234
-490.508	-158.519	0.214	-0.012
-489.493	72.114	0.167	0.173
-488.478	119.438	-0.298	0.366
-487.464	45.088	-0.239	-0.219
-486.449	28.484	0.154	0.129
-485.435	-142.225	-0.250	0.025
-484.420	-84.300	0.209	0.066
-483.405	583.652	-0.168	-0.410
-482.391	-98.209	-0.102	-0.026
-481.376	259.853	0.171	0.293
-480.362	-200.000	-0.043	0.215
-479.347	52.198	-0.109	0.103
-478.332	-173.792	0.580	0.017
-477.318	-200.000	0.014	-0.086
-476.303	-154.077	-0.160	-0.011
-475.289	-41.115	-0.306	-0.157
-474.274	185.631	0.119	0.176
-473.259	43.531	-0.165	-0.150
-472.245	45.018	-0.219	-0.200
-471.230	800.000	-0.033	0.118
-470.216	-200.000	0.034	-0.193
-469.201	800.000	0.038	0.132
-468.186	-191.527	-0.264	-0.003
-467.172	81.442	0.264	-0.283
-466.157	-103.155	-0.190	0.045
-465.143	-147.014	-0.236	-0.020
-464.128	-164.698	0.165	-0.007
-463.113	-142.578	0.204	0.020
-462.099	12.591	0.253	-0.194
-461.084	-200.000	-0.051	-0.263
-460.070	142.428	-0.115	0.151
-459.055	800.000	-0.093	-0.289
-458.040	-200.000	-0.003	0.040
-457.026	-112.765	-0.058	0.011
-456.011	461.883	0.071	0.157
-454.997	-51.501	0.127	0.059
-453.982	-71.858	0.316	-0.117
-452.968	697.762	0.054	0.142
-451.953	432.233	-0.101	0.218
-450.938	342.742	-0.056	-0.108
-449.924	800.000	0.067	-0.219
-448.909	800.000	-0.005	0.016
-447.895	292.361	0.151	-0.272
-446.880	-200.000	-0.034	0.271
-445.865	-200.000	-0.019	-0.090
-444.851	623.097	0.061	-0.152
-443.836	-18.867	-0.236	-0.146
-442.822	-60.577	0.152	-0.064
-441.807	800.000	0.050	-0.191
-440.792	-87.448	-0.332	0.100
-439.778	217.566	0.145	0.229
-438.763	-200.000	0.011	-0.115
-437.749	153.398	0.079	-0.107
-436.734	-57.792	-0.063	0.027
-435.719	-47.891	-0.161	0.077
-434.705	-84.036	0.121	0.038
-433.690	34.712	0.215	-0.186
-432.676	-9.721	-0.213	0.141
-431.661	398.022	-0.077	0.159
-430.646	-146.161	0.109	0.009
-429.632	352.884	-0.097	-0.191
-428.617	-167.385	-0.112	-0.004
-427.603	32.635	0.223	-0.191
-426.588	-132.106	-0.196	0.025
-425.573	800.000	0.044	0.181
-424.559	-32.216	0.204	0.113
-423.544	102.191	0.064	-0.074
-422.530	-200.000	-0.001	0.254
-421.515	-12.440	0.098	-0.064
-420.500	-200.000	0.022	-0.141
-419.486	-96.626	0.330	-0.086
-418.471	-164.609	-0.258	-0.012
-417.457	338.204	0.162	0.312
-416.442	-133.035	-0.083	-0.010
-415.428	-149.465	0.058	-0.005
-414.413	-76.159	0.225	0.078
-413.398	30.957	0.333	0.282
-412.384	-2.664	-0.114	0.079
-411.369	-200.000	0.008	-0.174
-410.355	-54.517	-0.266	0.119
-409.340	170.893	-0.204	-0.289
-408.325	800.000	-0.058	-0.220
-407.311	800.000	0.047	-0.137
-406.296	-44.393	-0.090	-0.045
-405.282	125.455	0.221	0.275
-404.267	-49.522	0.099	0.047
-403.252	-153.452	-0.131	-0.009
-402.238	-114.183	0.179	0.034
-401.223	-44.540	-0.244	-0.121
-400.209	-200.000	-0.025	-0.153
-399.194	329.367	-0.107	0.204
-398.179	-200.000	0.032	-0.250
-397.165	-11.202	0.090	-0.058
-396.150	-200.000	-0.026	-0.351
-395.136	-114.104	0.324	-0.062
-394.121	243.779	-0.059	0.098
-393.106	73.325	-0.078	0.081
-392.092	-61.853	0.384	-0.159
-391.077	800.000	-0.045	0.152
-390.063	161.024	-0.030	-0.042
-389.048	-200.000	0.005	0.303
-388.033	40.647	-0.152	-0.136
-387.019	-71.862	-0.329	-0.121
-386.004	-75.864	-0.390	0.136
-384.990	10.228	0.210	-0.158
-383.975	-149.256	0.300	0.024
-382.960	58.555	-0.164	0.159
-381.946	-172.215	0.042	0.001
-380.931	-71.672	0.182	-0.067
-379.917	-123.280	-0.120	0.019
-378.902	-94.666	-0.226	-0.061
-377.888	32.712	-0.087	0.074
-376.873	-200.000	0.001	-0.082
-375.858	663.317	-0.090	0.228
-374.844	342.401	0.047	-0.091
-373.829	-58.833	0.107	0.046
-372.815	-54.615	0.208	-0.093
-371.800	-200.000	0.002	0.221
-370.785	352.852	-0.091	0.179
-369.771	597.687	0.023	0.055
-368.756	390.154	0.152	-0.310
-367.742	-200.000	0.039	0.337
-366.727	-157.161	-0.413	0.025
-365.712	800.000	0.115	-0.450
-364.698	-55.524	-0.363	-0.161
-363.683	180.935	0.063	-0.092
-362.669	51.283	-0.104	0.098
-361.654	800.000	0.139	0.432
-360.639	-46.472	0.344	-0.167
-359.625	590.032	-0.075	0.184
-358.610	-113.991	0.121	-0.023
-357.596	413.537	0.071	-0.150
-356.581	176.315	-0.098	-0.141
-355.566	-105.751	0.220	0.049
-354.552	-39.127	0.370	-0.192
-353.537	-200.000	0.002	0.055
-352.523	22.113	0.258	-0.208
-351.508	-177.497	0.147	0.004
-350.493	-162.499	0.308	0.015
-349.479	-19.372	-0.081	-0.050
-348.464	-200.000	0.010	0.222
-347.450	497.714	0.072	0.163
-346.435	64.008	0.339	0.336
-345.420	-106.094	0.249	0.055
-344.406	33.899	-0.163	-0.140
-343.391	800.000	0.067	0.253
-342.377	-67.732	-0.307	-0.119
-341.362	127.291	0.336	0.421
-340.348	87.775	0.050	0.054
-339.333	-200.000	-0.085	0.411
-338.318	-175.765	0.469	-0.012
-337.304	-42.724	0.190	-0.095
-336.289	-200.000	0.015	0.286
-335.275	510.714	-0.056	-0.129
-334.260	236.246	-0.207	0.337
-333.245	-200.000	-0.011	0.225
-332.231	-200.000	0.059	-0.312
-331.216	71.569	0.125	-0.128
-330.202	144.322	-0.172	0.226
-329.187	800.000	0.019	-0.052
-328.172	-137.944	-0.163	-0.018
-327.158	-64.373	0.093	0.037
-326.143	-115.705	0.130	-0.024
-325.129	800.000	0.099	-0.285
-324.114	-169.715	0.188	0.007
-323.099	237.903	-0.238	0.389
-322.085	156.193	-0.215	-0.293
-321.070	-71.993	0.192	0.070
-320.056	-65.353	0.345	0.137
-319.041	325.467	-0.038	0.072
-318.026	800.000	0.091	0.316
-317.012	-89.409	0.247	-0.072
-315.997	31.385	-0.101	-0.086
-314.983	-18.872	0.241	-0.148
-313.968	-200.000	-0.111	-0.000
-312.953	-162.809	0.323	0.016
-311.939	413.076	-0.043	0.091
-310.924	67.477	0.042	-0.042
-309.910	112.558	0.119	0.142
-308.895	-28.057	-0.249	0.142
-307.880	800.000	-0.034	0.091
-306.866	-200.000	-0.020	-0.213
-305.851	-183.341	0.270	0.005
-304.837	800.000	0.050	-0.143
-303.822	16.048	0.130	0.101
-302.807	800.000	0.064	-0.251
-301.793	800.000	-0.112	-0.471
-300.778	800.000	0.049	-0.149
-299.764	97.165	-0.080	0.090
-298.749	-200.000	0.010	0.144
-297.735	-25.759	-0.110	0.064
-296.720	520.284	-0.077	-0.178
-295.705	-111.658	-0.127	-0.025
-294.691	4.616	-0.109	0.079
-293.676	540.023	0.050	0.117
-292.662	23.827	0.214	-0.174
-291.647	464.786	0.098	-0.215
-290.632	71.564	0.114	-0.117
-289.618	-92.096	-0.231	0.064
-288.603	-117.173	-0.183	0.033
-287.589	-19.672	0.083	0.050
-286.574	249.182	0.030	0.050
-285.559	800.000	-0.041	-0.134
-284.545	161.721	-0.115	0.158
-283.530	97.074	-0.099	-0.112
-282.516	203.630	-0.140	-0.214
-281.501	15.955	-0.140	0.109
-280.486	37.096	0.183	-0.159
-279.472	286.268	-0.151	0.269
-278.457	21.246	-0.203	0.163
-277.443	38.000	0.048	0.042
-276.428	271.647	-0.077	-0.134
-275.413	-200.000	-0.058	-0.281
-274.399	-92.791	0.246	0.068
-273.384	29.131	-0.058	-0.048
-272.370	140.418	0.110	-0.143
-271.355	246.174	-0.058	-0.097
-270.340	-22.224	0.135	0.081
-269.326	213.699	0.059	0.092
-268.311	-116.217	0.233	-0.043
-267.297	188.618	0.206	0.303
-266.282	-128.191	-0.105	0.015
-265.267	-200.000	0.020	0.141
-264.253	84.038	0.148	-0.160
-263.238	800.000	0.047	-0.150
-262.224	-113.461	0.102	-0.020
-261.209	517.646	0.159	0.365
-260.195	179.026	0.108	-0.156
-259.180	-68.255	-0.183	0.070
-258.165	466.130	-0.068	0.151
-257.151	-200.000	0.015	-0.145
-256.136	12.741	-0.244	-0.185
-255.122	361.976	0.083	-0.165
-254.107	-51.494	0.127	0.058
-253.092	-200.000	-0.026	-0.207
-252.078	-81.110	0.514	-0.167
-251.063	-16.993	0.111	0.069
-250.049	-134.467	0.227	0.027
-249.034	800.000	0.025	-0.082
-248.019	-131.138	-0.158	-0.021
-247.005	205.512	-0.040	-0.061
-245.990	-200.000	0.071	0.336
-244.976	261.190	-0.101	-0.172
-243.961	800.000	0.047	0.155
-242.946	-135.909	0.257	-0.030
-241.932	23.923	0.160	-0.130
-240.917	-98.754	0.273	0.068
-239.903	-200.000	-0.047	0.243
-238.888	68.383	-0.085	0.085
-237.873	-120.470	-0.133	-0.022
-236.859	-107.972	0.214	-0.046
-235.844	3.949	0.283	0.203
-234.830	-117.204	0.154	-0.028
-233.815	-0.467	0.242	-0.169
-232.800	-200.000	0.047	0.343
-231.786	13.130	0.054	0.041
-230.771	-200.000	0.003	-0.116
-229.757	80.783	0.166	-0.176
-228.742	-200.000	-0.024	0.187
-227.727	120.521	0.097	-0.119
-226.713	-147.251	0.130	0.011
-225.698	-121.337	-0.431	-0.071
-224.684	6.837	0.177	-0.129
-223.669	-31.172	0.248	-0.137
-222.655	-134.508	-0.108	0.013
-221.640	277.246	-0.116	-0.202
-220.625	-200.000	-0.027	0.297
-219.611	-200.000	-0.030	-0.143
-218.596	490.846	-0.174	-0.392
-217.582	-137.472	-0.080	0.009
-216.567	-112.986	-0.091	-0.018
-215.552	-162.317	-0.158	-0.008
-214.538	-121.664	-0.160	0.026
-213.523	-163.265	0.097	0.005
-212.509	-200.000	0.014	-0.125
-211.494	800.000	0.049	0.139
-210.479	-45.848	-0.243	-0.118
-209.465	58.361	0.097	-0.093
-208.450	-161.193	-0.346	0.018
-207.436	75.353	0.081	0.084
-206.421	284.195	0.124	-0.219
-205.406	-116.457	-0.220	0.040
-204.392	-76.991	0.195	-0.067
-203.377	-112.796	-0.329	-0.064
-202.363	-131.831	0.454	0.058
-201.348	-6.662	-0.162	-0.108
-200.333	800.000	0.165	0.569
-199.319	372.766	0.126	-0.251
-198.304	-121.707	-0.202	0.033
-197.290	-137.488	-0.161	-0.018
-196.275	-23.150	-0.206	-0.122
-195.260	171.361	-0.056	-0.079
-194.246	193.941	-0.074	-0.110
-193.231	299.846	0.031	-0.055
-192.217	270.834	-0.061	0.106
-191.202	59.967	0.093	-0.090
-190.187	-67.005	0.207	-0.080
-189.173	-200.000	0.012	-0.112
-188.158	-130.603	0.236	0.031
-187.144	-45.686	-0.164	0.080
-186.129	-42.604	-0.215	0.108
-185.114	-123.835	0.348	-0.054
-184.100	542.879	-0.249	0.583
-183.085	341.629	-0.103	-0.197
-182.071	53.965	0.123	0.116
-181.056	-32.222	0.149	0.082
-180.042	-88.292	-0.160	-0.047
-179.027	53.927	-0.198	0.187
-178.012	64.978	-0.114	-0.113
-176.998	-200.000	0.036	-0.208
-175.983	261.338	0.097	-0.165
-174.969	-169.981	-0.233	0.008
-173.954	330.642	-0.041	-0.077
-172.939	106.706	-0.087	-0.102
-171.925	249.769	0.149	0.247
-170.910	-105.889	0.087	-0.019
-169.896	137.453	-0.169	-0.216
-168.881	-162.680	-0.345	-0.017
-167.866	792.441	-0.079	-0.214
-166.852	-200.000	0.004	0.169
-165.837	-31.255	0.180	-0.099
-164.823	-83.716	-0.160	-0.050
-163.808	37.069	-0.093	-0.081
-162.793	-117.924	0.047	-0.008
-161.779	119.135	0.109	0.132
-160.764	153.917	0.119	0.160
-159.750	-200.000	0.043	0.269
-158.735	531.415	-0.098	-0.226
-157.720	-155.871	-0.227	-0.014
-156.706	57.060	-0.232	0.221
-155.691	-117.649	-0.320	-0.056
-154.677	800.000	-0.097	0.293
-153.662	256.038	-0.160	-0.269
-152.647	81.949	0.009	0.009
-151.633	-200.000	0.046	0.240
-150.618	68.712	0.157	0.158
-149.604	577.430	-0.134	0.321
-148.589	-51.789	0.163	-0.074
-147.574	-65.405	0.212	0.083
-146.560	-53.799	0.462	0.207
-145.545	141.979	0.073	-0.095
-144.531	-68.749	0.417	0.158
-143.516	208.120	-0.069	-0.105
-142.502	-70.175	-0.206	0.077
-141.487	-0.115	0.189	0.132
-140.472	-46.014	0.105	0.051
-139.458	477.218	0.170	0.376
-138.443	-81.073	-0.253	0.082
-137.429	-142.116	-0.114	-0.011
-136.414	-31.069	0.249	0.137
-135.399	800.000	-0.073	0.276
-134.385	124.355	0.278	-0.342
-133.370	-64.842	0.149	-0.059
-132.356	800.000	-0.023	-0.066
-131.341	-95.563	-0.258	-0.068
-130.326	155.910	0.220	0.297
-129.312	-49.160	-0.265	-0.124
-128.297	-200.000	-0.033	-0.185
-127.283	157.359	-0.138	0.187
-126.268	-130.280	0.111	0.015
-125.253	-100.855	-0.356	-0.086
-124.239	-88.981	-0.115	0.033
-123.224	800.000	-0.048	0.150
-122.210	-37.108	-0.126	-0.066
