DTS Sentinel unit serial number:	SN413079Multiplexer serial number:	ORYXHardware model number:	OX4-SRSoftware version number:	ORYX F/W v4.00 Oryx Data Collector v3.7.2.0data status	okinstallation	princeton_trtdifferential loss correction	single-endedforward channel	channel 3reverse channel	N/Adate	2019/09/12time	15:50:11forward acquisition time	60.00reverse acquisition time	0.00gamma	496.2192k internal	0.2297k external	0.2297temperature offset calibration	1.0069default loss term (dB/km)	0.3790temperature slope calibration	1.0000multiplexer offset coefficient	1.0000multiplexer slope coefficient	1.0000fibre end	0.00T internal ref (°C)	39.59T ext. ref 1 (°C)	2.47T ext. ref 2 (°C)	32.33length (m)	temperature (°C)	Stokes	anti-Stokes-747.200	-93.774	0.219	0.062
-746.185	21.615	0.081	-0.068
-745.171	-14.838	0.293	0.192
-744.156	121.189	-0.131	0.166
-743.142	75.868	-0.080	0.087
-742.127	174.512	-0.190	0.281
-741.112	-50.330	-0.184	-0.089
-740.098	-93.206	-0.180	-0.051
-739.083	42.740	-0.132	-0.122
-738.069	-200.000	-0.004	0.200
-737.054	-135.808	0.293	0.035
-736.039	-82.735	-0.152	0.050
-735.025	-200.000	-0.052	-0.305
-734.010	-170.203	-0.095	0.003
-732.996	-115.844	-0.403	-0.077
-731.981	-50.605	0.223	-0.107
-730.966	-200.000	-0.009	-0.302
-729.952	-163.346	-0.241	0.012
-728.937	-200.000	-0.051	-0.243
-727.923	-141.679	-0.295	-0.030
-726.908	-200.000	0.018	-0.125
-725.894	594.478	0.036	0.090
-724.879	-37.420	0.167	0.091
-723.864	-3.988	-0.417	0.295
-722.850	213.349	0.057	-0.092
-721.835	-48.311	-0.264	0.130
-720.821	348.360	0.117	0.236
-719.806	8.288	0.265	-0.203
-718.791	-121.563	-0.051	-0.009
-717.777	101.868	0.089	0.106
-716.762	64.957	0.005	0.005
-715.748	542.432	0.127	-0.309
-714.733	-26.864	-0.322	-0.192
-713.718	367.378	-0.115	-0.236
-712.704	384.395	0.106	-0.222
-711.689	-71.628	-0.159	0.060
-710.675	-118.530	-0.232	0.042
-709.660	-127.927	-0.291	-0.043
-708.645	148.532	0.147	-0.202
-707.631	-65.736	-0.066	-0.027
-706.616	-84.631	-0.308	-0.099
-705.602	-146.231	-0.173	0.015
-704.587	-200.000	0.009	-0.087
-703.572	-149.218	0.240	-0.020
-702.558	120.875	-0.153	0.194
-701.543	42.164	0.087	0.080
-700.529	-10.218	-0.092	-0.062
-699.514	-145.992	0.138	-0.012
-698.499	-13.708	0.157	-0.103
-697.485	-200.000	0.006	-0.213
-696.470	-200.000	0.020	-0.172
-695.456	-200.000	0.007	-0.232
-694.441	-200.000	0.022	-0.205
-693.426	123.100	-0.136	0.173
-692.412	214.254	-0.177	0.286
-691.397	303.459	-0.100	-0.188
-690.383	-103.322	-0.296	-0.071
-689.368	135.859	-0.069	-0.092
-688.354	183.349	-0.090	-0.136
-687.339	800.000	-0.068	0.222
-686.324	-200.000	-0.008	-0.093
-685.310	138.118	-0.068	-0.090
-684.295	226.311	-0.098	-0.163
-683.281	-200.000	-0.021	0.240
-682.266	-36.058	0.150	0.082
-681.251	-174.544	-0.189	0.006
-680.237	188.518	-0.047	-0.072
-679.222	-91.613	-0.289	-0.084
-678.208	-200.000	-0.019	-0.123
-677.193	35.888	-0.148	-0.133
-676.178	-40.784	0.128	-0.068
-675.164	84.253	-0.079	0.088
-674.149	-75.909	-0.274	0.099
-673.135	436.557	-0.118	0.262
-672.120	-154.391	-0.301	-0.021
-671.105	117.948	0.075	-0.094
-670.091	42.889	0.164	-0.152
-669.076	91.431	-0.045	0.051
-668.062	-96.373	-0.055	0.015
-667.047	-62.872	-0.174	0.073
-666.032	76.358	-0.110	0.118
-665.018	-46.887	-0.147	0.073
-664.003	92.600	0.154	-0.177
-662.989	144.759	0.161	-0.219
-661.974	639.988	-0.024	0.061
-660.959	-46.992	-0.239	-0.119
-659.945	472.178	-0.175	-0.402
-658.930	-7.265	-0.127	-0.088
-657.916	-200.000	0.002	-0.213
-656.901	3.122	-0.082	-0.060
-655.886	274.021	0.065	0.117
-654.872	-28.412	0.217	-0.128
-653.857	-62.626	-0.155	0.066
-652.843	-82.028	-0.124	0.041
-651.828	800.000	0.028	-0.080
-650.814	-23.904	-0.177	0.108
-649.799	-9.785	-0.211	0.143
-648.784	800.000	0.112	-0.461
-647.770	-200.000	-0.006	0.141
-646.755	-200.000	0.061	0.334
-645.741	-200.000	0.038	-0.177
-644.726	101.823	-0.129	-0.154
-643.711	130.801	0.162	0.211
-642.697	800.000	-0.014	-0.040
-641.682	-200.000	0.019	-0.113
-640.668	-58.513	0.309	0.136
-639.653	220.082	-0.259	0.422
-638.638	65.563	-0.026	-0.026
-637.624	-200.000	-0.049	-0.268
-636.609	800.000	-0.034	-0.145
-635.595	800.000	-0.093	-0.319
-634.580	-71.350	0.182	0.069
-633.565	279.031	-0.217	0.393
-632.551	29.523	-0.195	0.169
-631.536	66.463	0.052	-0.053
-630.522	238.417	-0.099	0.168
-629.507	48.019	0.230	0.219
-628.492	1.896	0.167	0.122
-627.478	16.022	0.205	-0.164
-626.463	545.707	-0.052	-0.126
-625.449	92.756	-0.015	-0.017
-624.434	-46.533	-0.114	-0.057
-623.419	-200.000	-0.010	-0.161
-622.405	57.988	0.166	0.165
-621.390	-107.435	0.267	-0.060
-620.376	-93.666	0.159	0.045
-619.361	227.489	-0.052	-0.087
-618.346	222.026	-0.081	0.132
-617.332	-47.322	-0.065	0.032
-616.317	124.819	0.174	0.222
-615.303	24.360	-0.248	-0.208
-614.288	577.770	-0.024	-0.059
-613.273	203.000	0.125	-0.196
-612.259	45.314	-0.115	0.108
-611.244	485.089	-0.108	-0.251
-610.230	-48.252	0.299	-0.147
-609.215	-200.000	-0.003	-0.241
-608.201	-16.358	-0.332	0.214
-607.186	-21.372	-0.186	0.115
-606.171	-55.386	0.030	0.014
-605.157	-12.379	0.564	0.374
-604.142	99.166	-0.208	0.244
-603.128	4.987	0.332	-0.248
-602.113	750.938	-0.079	0.215
-601.098	12.111	-0.075	0.059
-600.084	-200.000	-0.043	-0.209
-599.069	-116.038	0.073	-0.014
-598.055	-179.279	-0.344	0.008
-597.040	-131.255	-0.131	0.018
-596.025	-46.696	0.131	-0.065
-595.011	-8.458	-0.108	0.074
-593.996	-200.000	-0.002	0.039
-592.982	204.715	0.106	-0.167
-591.967	-83.597	0.113	0.037
-590.952	131.787	-0.158	0.206
-589.938	-58.667	0.207	-0.091
-588.923	-171.318	-0.196	-0.007
-587.909	800.000	0.099	-0.348
-586.894	-200.000	-0.058	0.284
-585.879	-130.740	-0.292	-0.040
-584.865	-89.025	-0.194	-0.058
-583.850	266.699	-0.103	-0.183
-582.836	124.180	0.150	-0.191
-581.821	-5.242	0.044	0.031
-580.806	364.321	-0.083	0.170
-579.792	-5.483	-0.057	-0.039
-578.777	800.000	-0.108	-0.337
-577.763	-156.962	0.117	-0.007
-576.748	-179.849	-0.225	0.005
-575.733	117.577	-0.082	-0.103
-574.719	151.541	-0.214	0.296
-573.704	-200.000	0.009	0.046
-572.690	760.296	0.048	0.131
-571.675	149.979	0.108	0.149
-570.661	-83.046	0.287	0.094
-569.646	-92.947	-0.281	0.080
-568.631	5.924	0.074	-0.056
-567.617	410.048	-0.150	-0.322
-566.602	-200.000	0.007	0.523
-565.588	-48.082	-0.160	0.079
-564.573	-200.000	0.059	0.268
-563.558	-164.724	0.075	0.003
-562.544	44.543	-0.257	-0.240
-561.529	-200.000	0.022	-0.415
-560.515	67.171	-0.114	-0.118
-559.500	-38.971	0.213	-0.114
-558.485	-1.483	0.402	-0.287
-557.471	-62.838	-0.224	-0.094
-556.456	-200.000	-0.002	0.060
-555.442	-157.459	-0.078	0.005
-554.427	-200.000	0.023	-0.400
-553.412	800.000	-0.055	-0.223
-552.398	-200.000	0.060	0.350
-551.383	-200.000	-0.041	-0.211
-550.369	277.190	0.082	0.148
-549.354	-88.941	0.102	-0.031
-548.339	-116.647	0.032	0.006
-547.325	17.423	0.238	-0.192
-546.310	303.922	0.118	-0.221
-545.296	208.111	-0.166	-0.263
-544.281	416.672	-0.150	-0.325
-543.266	344.390	-0.032	-0.063
-542.252	-22.803	0.186	-0.114
-541.237	277.630	0.090	0.163
-540.223	-78.160	-0.315	0.110
-539.208	164.947	0.125	0.179
-538.193	800.000	0.071	-0.238
-537.179	-86.400	-0.172	0.054
-536.164	-54.815	-0.314	0.144
-535.150	-69.970	0.163	-0.063
-534.135	-96.085	-0.173	0.046
-533.121	-152.144	0.191	-0.014
-532.106	-125.199	-0.124	0.019
-531.091	-200.000	-0.161	0.000
-530.077	139.982	-0.101	0.135
-529.062	146.135	0.211	-0.286
-528.048	-117.228	0.121	-0.022
-527.033	40.818	-0.059	0.054
-526.018	-90.242	-0.216	-0.064
-525.004	13.460	0.219	-0.172
-523.989	-200.000	-0.031	-0.202
-522.975	288.350	-0.193	-0.354
-521.960	-162.956	0.561	-0.028
-520.945	-200.000	0.002	0.074
-519.931	-91.868	0.178	-0.051
-518.916	-33.730	-0.113	-0.063
-517.902	-200.000	0.018	-0.262
-516.887	-93.552	-0.078	0.022
-515.872	800.000	-0.013	0.040
-514.858	24.459	-0.209	-0.175
-513.843	800.000	0.079	0.234
-512.829	339.420	-0.116	0.229
-511.814	71.143	0.206	-0.216
-510.799	-116.808	-0.117	0.022
-509.785	14.347	-0.123	-0.097
-508.770	12.283	-0.109	0.085
-507.756	226.799	0.012	0.019
-506.741	800.000	0.092	0.283
-505.726	298.436	0.046	0.086
-504.712	-198.812	-0.261	-0.001
-503.697	-200.000	0.024	0.164
-502.683	-120.174	0.296	0.051
-501.668	-15.386	-0.156	-0.101
-500.653	62.557	0.065	0.066
-499.639	138.767	0.038	0.050
-498.624	-200.000	-0.000	-0.068
-497.610	-200.000	-0.016	-0.155
-496.595	-95.318	-0.040	-0.011
-495.581	70.340	-0.099	0.104
-494.566	2.532	0.249	0.182
-493.551	9.657	-0.125	-0.096
-492.537	-200.000	-0.088	-0.395
-491.522	449.621	0.085	-0.190
-490.508	-200.000	-0.016	0.154
-489.493	-51.767	-0.245	0.115
-488.478	-61.993	-0.110	0.046
-487.464	283.083	-0.066	-0.120
-486.449	88.883	-0.088	-0.099
-485.435	207.553	0.133	0.209
-484.420	39.023	-0.055	-0.050
-483.405	6.586	0.264	0.198
-482.391	759.661	0.077	0.212
-481.376	-200.000	0.058	-0.374
-480.362	-58.840	0.288	-0.126
-479.347	12.518	-0.209	0.163
-478.332	-117.875	-0.368	0.067
-477.318	-82.444	-0.241	0.079
-476.303	703.515	-0.023	0.062
-475.289	-200.000	-0.052	-0.401
-474.274	19.249	0.151	-0.122
-473.259	-9.674	-0.240	-0.162
-472.245	-92.223	0.338	0.096
-471.230	-49.473	-0.239	-0.115
-470.216	-200.000	0.004	0.084
-469.201	-32.194	0.190	-0.107
-468.186	307.572	-0.067	0.126
-467.172	-159.266	0.189	0.011
-466.157	-200.000	0.014	-0.373
-465.143	330.881	0.045	0.088
-464.128	21.044	0.188	0.154
-463.113	-200.000	0.002	0.093
-462.099	-30.401	-0.235	0.135
-461.084	-200.000	0.000	0.071
-460.070	800.000	-0.026	0.075
-459.055	-200.000	0.003	-0.091
-458.040	800.000	0.037	0.133
-457.026	-21.852	-0.176	-0.108
-456.011	353.516	-0.118	0.237
-454.997	212.578	0.112	0.179
-453.982	84.450	-0.149	-0.165
-452.968	-200.000	0.011	0.090
-451.953	-33.377	0.248	0.139
-450.938	306.511	-0.131	0.247
-449.924	298.042	0.108	0.200
-448.909	-200.000	-0.011	-0.108
-447.895	-162.605	0.129	0.006
-446.880	-200.000	-0.032	-0.257
-445.865	800.000	-0.094	-0.328
-444.851	800.000	-0.098	0.331
-443.836	248.431	0.139	-0.237
-442.822	126.812	0.086	0.110
-441.807	800.000	0.019	-0.065
-440.792	113.624	0.156	0.191
-439.778	-200.000	-0.040	0.209
-438.763	800.000	0.064	-0.249
-437.749	-145.562	-0.075	-0.007
-436.734	800.000	-0.095	-0.297
-435.719	-200.000	0.055	0.544
-434.705	-98.853	-0.537	-0.138
-433.690	157.008	-0.054	0.075
-432.676	-55.479	-0.271	-0.123
-431.661	-130.094	0.338	-0.047
-430.646	129.419	-0.158	0.203
-429.632	-161.195	-0.059	-0.003
-428.617	178.138	0.054	0.080
-427.603	-66.523	-0.063	-0.025
-426.588	-2.176	0.098	0.069
-425.573	-117.048	-0.392	0.072
-424.559	13.390	0.170	0.133
-423.544	100.383	-0.202	-0.236
-422.530	-24.232	0.103	0.062
-421.515	-75.921	-0.296	0.106
-420.500	-30.691	0.141	0.081
-419.486	175.216	0.117	-0.171
-418.471	61.790	-0.178	0.179
-417.457	800.000	0.077	0.320
-416.442	-200.000	-0.026	0.159
-415.428	-95.659	-0.318	0.086
-414.413	157.839	-0.043	0.061
-413.398	-200.000	0.027	-0.186
-412.384	675.231	-0.116	-0.304
-411.369	232.615	-0.032	-0.053
-410.355	800.000	0.102	-0.365
-409.340	-24.635	-0.166	0.100
-408.325	-114.950	0.176	0.034
-407.311	-44.348	0.246	-0.124
-406.296	-200.000	0.018	0.146
-405.282	800.000	-0.017	-0.071
-404.267	-26.759	0.098	-0.058
-403.252	-21.520	-0.191	-0.117
-402.238	568.155	-0.090	-0.220
-401.223	800.000	0.030	-0.088
-400.209	7.569	-0.219	-0.165
-399.194	-200.000	0.019	-0.216
-398.179	653.736	0.083	-0.214
-397.165	-93.499	0.261	0.073
-396.150	-200.000	0.016	0.143
-395.136	92.912	0.079	0.090
-394.121	-95.936	0.200	-0.054
-393.106	109.544	-0.100	-0.121
-392.092	-74.020	-0.167	-0.061
-391.077	800.000	-0.109	0.429
-390.063	418.154	0.141	0.304
-389.048	-52.025	0.248	0.116
-388.033	-200.000	0.089	-0.407
-387.019	-200.000	-0.038	-0.401
-386.004	-23.938	0.161	0.097
-384.990	346.800	0.123	-0.244
-383.975	188.063	0.042	0.064
-382.960	-153.811	0.228	0.016
-381.946	-30.891	-0.093	0.053
-380.931	800.000	0.064	0.223
-379.917	-0.015	-0.242	0.174
-378.902	69.112	-0.302	0.312
-377.888	-161.255	0.158	-0.008
-376.873	-82.714	0.235	-0.077
-375.858	-147.168	0.103	-0.009
-374.844	-154.932	-0.038	0.003
-373.829	-200.000	0.003	0.165
-372.815	63.944	0.010	0.010
-371.800	66.704	0.159	0.162
-370.785	-117.208	-0.290	0.053
-369.771	183.062	0.045	0.067
-368.756	-150.951	0.105	-0.008
-367.742	8.626	-0.336	-0.255
-366.727	-51.746	-0.211	0.099
-365.712	654.363	0.049	-0.127
-364.698	165.634	-0.106	-0.150
-363.683	346.925	0.104	-0.206
-362.669	-159.830	-0.304	0.017
-361.654	142.530	-0.099	0.133
-360.639	-80.006	-0.246	-0.083
-359.625	-164.533	0.081	-0.004
-358.610	-200.000	0.024	-0.112
-357.596	25.914	-0.168	0.141
-356.581	-38.364	-0.180	-0.096
-355.566	800.000	-0.053	0.174
-354.552	-40.912	0.195	-0.101
-353.537	190.815	0.081	0.122
-352.523	342.578	-0.082	0.161
-351.508	-107.535	0.348	-0.077
-350.493	-29.058	-0.294	-0.170
-349.479	-200.000	0.020	-0.109
-348.464	-200.000	-0.002	0.229
-347.450	24.999	0.120	-0.100
-346.435	196.613	-0.273	-0.418
-345.420	599.288	-0.035	-0.088
-344.406	-200.000	-0.005	0.258
-343.391	184.641	-0.202	0.301
-342.377	-52.106	-0.199	0.093
-341.362	97.726	-0.294	-0.340
-340.348	-177.581	0.358	0.009
-339.333	162.720	0.100	0.142
-338.318	348.548	0.155	-0.308
-337.304	76.885	-0.132	-0.141
-336.289	800.000	0.082	0.274
-335.275	-108.223	0.373	0.081
-334.260	236.895	0.082	-0.137
-333.245	800.000	0.096	0.292
-332.231	-99.337	0.533	0.135
-331.216	-83.481	0.304	0.098
-330.202	-200.000	-0.021	0.304
-329.187	43.443	-0.245	0.225
-328.172	211.861	-0.047	-0.075
-327.158	-5.173	-0.129	0.089
-326.143	-25.219	-0.303	-0.180
-325.129	800.000	-0.063	-0.218
-324.114	-157.316	-0.286	-0.017
-323.099	800.000	-0.027	0.108
-322.085	-93.951	-0.193	-0.053
-321.070	613.876	-0.054	-0.135
-320.056	-200.000	0.034	-0.261
-319.041	-200.000	0.026	-0.135
-318.026	53.580	-0.410	-0.395
-317.012	800.000	-0.026	0.106
-315.997	-200.000	0.103	0.467
-314.983	341.694	-0.024	-0.046
-313.968	38.904	0.184	-0.165
-312.953	370.925	-0.095	0.193
-311.939	-200.000	0.036	-0.304
-310.924	218.237	-0.128	-0.205
-309.910	-200.000	-0.004	0.062
-308.895	-166.359	0.239	-0.010
-307.880	-200.000	0.029	-0.146
-306.866	178.221	0.074	0.108
-305.851	123.671	-0.084	0.105
-304.837	-191.722	0.133	-0.001
-303.822	-197.890	-0.127	0.001
-302.807	213.086	0.134	-0.212
-301.793	54.421	-0.263	0.255
-300.778	800.000	0.090	-0.258
-299.764	107.811	0.176	-0.211
-298.749	2.866	0.236	0.172
-297.735	-71.556	-0.114	0.043
-296.720	78.281	0.062	-0.066
-295.705	-118.476	0.155	0.027
-294.691	-87.979	-0.138	0.042
-293.676	287.947	0.185	0.336
-292.662	274.559	0.162	0.288
-291.647	668.533	0.022	-0.058
-290.632	800.000	0.032	0.125
-289.618	800.000	0.011	0.039
-288.603	293.892	-0.059	-0.108
-287.589	-97.764	-0.339	0.088
-286.574	-120.186	-0.244	-0.042
-285.559	154.805	0.060	-0.083
-284.545	-101.842	0.181	0.044
-283.530	-37.338	-0.109	0.058
-282.516	12.386	0.215	-0.166
-281.501	-200.000	0.039	-0.244
-280.486	51.185	-0.200	-0.190
-279.472	22.970	-0.225	0.185
-278.457	-111.925	0.225	0.046
-277.443	183.700	0.191	-0.284
-276.428	204.206	-0.101	0.157
-275.413	65.976	0.229	-0.232
-274.399	-43.264	0.090	0.046
-273.384	-145.937	-0.242	-0.021
-272.370	-200.000	0.018	0.255
-271.355	-200.000	-0.001	-0.039
-270.340	-127.243	0.290	0.042
-269.326	191.228	-0.068	0.102
-268.311	-200.000	-0.022	-0.203
-267.297	-64.455	0.359	-0.146
-266.282	66.844	-0.059	0.061
-265.267	-141.005	-0.095	-0.010
-264.253	-104.107	0.110	-0.026
-263.238	-200.000	0.065	0.495
-262.224	772.342	-0.054	0.147
-261.209	240.909	0.253	-0.423
-260.195	-121.721	0.095	0.016
-259.180	800.000	0.010	0.034
-258.165	96.849	0.241	0.276
-257.151	-135.508	-0.179	0.021
-256.136	-200.000	0.006	-0.201
-255.122	-101.905	0.348	0.084
-254.107	-200.000	-0.011	0.122
-253.092	-24.339	0.352	0.210
-252.078	-200.000	-0.119	0.589
-251.063	-76.624	0.260	-0.091
-250.049	-34.924	0.348	-0.190
-249.034	130.124	0.079	-0.101
-248.019	-200.000	-0.001	-0.124
-247.005	-59.381	-0.065	-0.028
-245.990	-30.077	-0.043	-0.025
-244.976	-200.000	0.007	0.184
-243.961	21.795	-0.236	0.193
-242.946	-90.453	0.349	0.101
-241.932	46.190	0.123	0.115
-240.917	7.151	0.048	-0.036
-239.903	258.121	0.026	-0.044
-238.888	800.000	-0.031	0.129
-237.873	-34.842	-0.262	-0.143
-236.859	800.000	0.057	-0.204
-235.844	-141.550	-0.239	0.024
-234.830	-86.150	0.212	-0.065
-233.815	96.785	-0.062	-0.071
-232.800	-72.690	0.321	0.119
-231.786	-89.261	0.039	0.011
-230.771	-200.000	0.021	-0.183
-229.757	-68.590	0.250	0.097
-228.742	317.767	0.044	0.084
-227.727	62.703	0.113	-0.113
-226.713	-200.000	-0.046	0.253
-225.698	6.878	-0.206	-0.154
-224.684	49.445	0.222	0.210
-223.669	-200.000	0.068	0.514
-222.655	249.218	0.064	-0.108
-221.640	-117.790	0.163	0.029
-220.625	39.274	-0.355	0.318
-219.611	-0.662	0.147	0.104
-218.596	800.000	-0.103	-0.338
-217.582	493.867	0.085	-0.195
-216.567	11.226	-0.327	0.250
-215.552	-72.684	0.128	0.047
-214.538	222.731	0.039	0.062
-213.523	-200.000	-0.030	0.135
-212.509	-32.398	0.151	-0.084
-211.494	800.000	0.087	0.381
-210.479	800.000	0.100	-0.326
-209.465	-115.238	-0.236	-0.045
-208.450	74.976	0.140	-0.147
-207.436	800.000	0.121	-0.349
-206.421	-39.500	-0.130	-0.068
-205.406	-90.521	-0.287	-0.083
-204.392	607.887	0.029	-0.072
-203.377	-69.235	0.211	0.081
-202.363	80.550	-0.177	0.191
-201.348	136.185	0.085	-0.111
-200.333	-115.207	-0.193	-0.036
-199.319	-112.360	-0.140	-0.028
-198.304	800.000	-0.010	0.036
-197.290	-200.000	-0.062	0.292
-196.275	-41.316	0.344	-0.177
-195.260	800.000	-0.071	0.198
-194.246	800.000	-0.040	-0.154
-193.231	-200.000	-0.317	0.001
-192.217	242.267	0.101	0.169
-191.202	-156.485	0.157	-0.010
-190.187	800.000	-0.151	0.447
-189.173	-37.945	-0.055	-0.029
-188.158	431.863	0.012	-0.025
-187.144	365.956	0.079	0.159
-186.129	-74.495	0.094	-0.034
-185.114	800.000	0.046	-0.148
-184.100	445.169	-0.142	0.311
-183.085	-195.751	-0.147	0.001
-182.071	-74.913	0.129	0.046
-181.056	98.009	0.072	-0.083
-180.042	-200.000	-0.009	0.140
-179.027	477.214	-0.146	-0.330
-178.012	800.000	-0.025	-0.079
-176.998	-2.541	-0.071	-0.049
-175.983	-200.000	0.008	-0.085
-174.969	1.724	-0.507	-0.365
-173.954	83.782	0.191	0.208
-172.939	-127.849	0.285	0.041
-171.925	226.530	-0.105	0.171
-170.910	-70.609	0.109	-0.041
-169.896	-200.000	0.005	-0.047
-168.881	-200.000	0.019	-0.310
-167.866	800.000	0.055	-0.166
-166.852	800.000	-0.037	0.122
-165.837	222.327	-0.121	0.194
-164.823	-46.983	0.033	-0.016
-163.808	209.625	-0.081	-0.127
-162.793	800.000	0.069	0.231
-161.779	649.800	-0.013	0.034
-160.764	-200.000	0.023	0.115
-159.750	-2.029	0.214	-0.150
-158.735	102.418	-0.095	-0.111
-157.720	-200.000	-0.028	0.352
-156.706	213.959	0.133	0.210
-155.691	686.103	0.065	-0.170
-154.677	-103.511	-0.143	-0.034
-153.662	265.656	-0.114	0.199
-152.647	394.808	-0.070	-0.147
-151.633	-27.570	0.264	0.153
-150.618	-71.230	0.297	0.111
-149.604	-48.520	0.010	-0.005
-148.589	-39.656	-0.023	-0.012
-147.574	-134.019	-0.195	0.024
-146.560	-100.073	0.180	-0.045
-145.545	-54.538	0.136	-0.062
-144.531	566.693	-0.098	0.237
-143.516	0.983	0.127	-0.091
-142.502	-109.953	0.424	-0.089
-141.487	-94.498	-0.158	0.043
-140.472	-200.000	0.036	-0.171
-139.458	-200.000	-0.031	0.230
-138.443	-107.657	0.275	0.060
-137.429	522.569	0.070	0.164
-136.414	-90.051	-0.065	-0.019
-135.399	331.360	-0.027	0.053
-134.385	-130.646	0.180	0.024
-133.370	-58.430	-0.098	0.043
-132.356	183.598	0.043	-0.063
-131.341	23.070	-0.165	0.135
-130.326	50.426	-0.075	-0.071
-129.312	-40.937	0.133	0.068
-128.297	88.482	-0.121	-0.134
-127.283	-125.182	-0.158	0.024
-126.268	-200.000	-0.016	0.083
-125.253	-37.536	0.154	0.082
-124.239	604.426	-0.135	-0.336
-123.224	201.756	-0.098	0.151
-122.210	40.421	0.067	0.060
-121.195	87.431	0.053	0.058
