DTS Sentinel unit serial number:	SN413079Multiplexer serial number:	ORYXHardware model number:	OX4-SRSoftware version number:	ORYX F/W v4.00 Oryx Data Collector v3.7.2.0data status	okinstallation	princeton_trtdifferential loss correction	single-endedforward channel	channel 3reverse channel	N/Adate	2019/09/15time	21:08:35forward acquisition time	60.00reverse acquisition time	0.00gamma	496.2192k internal	0.2328k external	0.2328temperature offset calibration	0.9935default loss term (dB/km)	0.3790temperature slope calibration	1.0000multiplexer offset coefficient	1.0000multiplexer slope coefficient	1.0000fibre end	0.00T internal ref (°C)	31.45T ext. ref 1 (°C)	8.14T ext. ref 2 (°C)	24.34length (m)	temperature (°C)	Stokes	anti-Stokes-747.200	-170.373	0.292	-0.010
-746.185	800.000	-0.114	0.323
-745.171	384.823	0.165	-0.343
-744.156	-65.202	0.069	0.028
-743.142	-200.000	0.027	-0.217
-742.127	-122.623	-0.016	0.003
-741.112	407.969	-0.043	0.092
-740.098	-52.108	-0.117	0.055
-739.083	-21.142	0.091	0.056
-738.069	-38.924	-0.064	-0.034
-737.054	800.000	0.022	0.062
-736.039	15.389	-0.382	-0.302
-735.025	-200.000	0.014	-0.070
-734.010	-126.866	-0.240	0.036
-732.996	265.539	0.060	-0.106
-731.981	-16.384	-0.163	0.104
-730.966	30.740	-0.087	-0.075
-729.952	-87.587	-0.586	0.178
-728.937	-200.000	0.014	0.076
-727.923	8.831	-0.177	0.135
-726.908	800.000	0.058	-0.179
-725.894	277.579	-0.051	-0.091
-724.879	122.271	0.154	0.193
-723.864	-154.235	-0.332	-0.023
-722.850	-141.622	0.166	0.017
-721.835	100.374	-0.311	0.363
-720.821	516.231	-0.105	-0.246
-719.806	-200.000	-0.028	-0.130
-718.791	253.317	0.107	-0.183
-717.777	-200.000	-0.079	-0.384
-716.762	-200.000	-0.048	-0.222
-715.748	129.016	0.185	0.237
-714.733	370.520	0.037	-0.075
-713.718	485.722	0.048	-0.110
-712.704	90.690	0.084	-0.095
-711.689	533.152	-0.068	-0.162
-710.675	-80.638	-0.301	0.101
-709.660	-77.207	0.212	-0.074
-708.645	-64.784	0.151	0.061
-707.631	112.665	0.272	0.331
-706.616	-200.000	0.018	-0.175
-705.602	477.302	0.057	-0.131
-704.587	-103.149	0.276	0.066
-703.572	-69.211	-0.450	0.174
-702.558	77.884	-0.135	-0.144
-701.543	-104.873	0.212	0.049
-700.529	-192.600	0.056	0.001
-699.514	92.069	0.199	0.225
-698.499	57.311	0.096	0.094
-697.485	3.517	-0.161	-0.118
-696.470	800.000	-0.089	-0.277
-695.456	-97.678	0.030	-0.008
-694.441	-200.000	0.010	-0.271
-693.426	-200.000	-0.030	0.203
-692.412	-66.829	0.210	-0.084
-691.397	-105.230	0.306	-0.070
-690.383	-2.729	-0.224	0.158
-689.368	670.883	-0.081	-0.212
-688.354	33.870	0.009	-0.008
-687.339	-40.054	-0.077	0.040
-686.324	-72.195	-0.198	-0.074
-685.310	198.665	-0.026	-0.040
-684.295	-106.212	0.142	-0.032
-683.281	-200.000	-0.023	0.183
-682.266	-170.000	0.180	-0.006
-681.251	-64.364	-0.283	0.116
-680.237	62.145	-0.264	0.264
-679.222	23.892	0.352	-0.291
-678.208	107.311	-0.036	0.043
-677.193	26.168	-0.267	-0.224
-676.178	18.733	-0.222	-0.179
-675.164	-175.792	-0.271	-0.007
-674.149	1.654	0.144	-0.104
-673.135	-68.602	-0.386	-0.150
-672.120	469.117	0.051	0.115
-671.105	-200.000	0.006	0.109
-670.091	-197.491	-0.297	0.002
-669.076	-150.130	0.079	-0.006
-668.062	-200.000	-0.022	-0.449
-667.047	800.000	0.028	-0.082
-666.032	-26.228	0.099	-0.059
-665.018	430.928	0.199	-0.434
-664.003	800.000	-0.047	0.132
-662.989	-27.603	-0.022	0.013
-661.974	-114.048	-0.133	-0.026
-660.959	-26.086	-0.090	0.053
-659.945	-200.000	0.028	-0.395
-658.930	-200.000	0.017	-0.256
-657.916	-36.387	0.100	-0.054
-656.901	17.276	-0.128	0.102
-655.886	-30.911	-0.231	-0.131
-654.872	-200.000	0.021	-0.505
-653.857	30.920	-0.117	0.101
-652.843	-83.941	-0.508	-0.162
-651.828	-188.273	0.437	-0.006
-650.814	-46.933	-0.045	-0.022
-649.799	-200.000	-0.034	0.219
-648.784	306.795	0.099	0.184
-647.770	-100.248	0.205	0.051
-646.755	800.000	0.024	-0.084
-645.741	370.661	-0.076	-0.155
-644.726	96.068	-0.358	0.411
-643.711	125.527	0.081	-0.102
-642.697	231.878	-0.248	-0.409
-641.682	800.000	-0.129	0.367
-640.668	-134.148	-0.191	-0.024
-639.653	-109.856	0.210	-0.044
-638.638	50.483	-0.210	-0.199
-637.624	40.289	0.129	0.117
-636.609	-68.434	0.084	-0.033
-635.595	15.038	0.295	-0.232
-634.580	103.334	-0.216	-0.254
-633.565	3.728	-0.066	-0.048
-632.551	439.484	-0.122	0.267
-631.536	-200.000	-0.015	0.084
-630.522	5.084	0.148	-0.109
-629.507	-74.007	-0.134	0.049
-628.492	112.871	0.053	-0.064
-627.478	-200.000	-0.001	-0.059
-626.463	-73.690	-0.364	0.133
-625.449	-8.720	0.386	0.260
-624.434	517.913	-0.017	0.040
-623.419	7.177	-0.128	-0.096
-622.405	-32.234	0.214	0.120
-621.390	-23.355	-0.195	0.118
-620.376	-119.138	0.253	0.044
-619.361	-54.469	-0.269	0.122
-618.346	-110.668	0.048	0.010
-617.332	74.130	0.260	0.274
-616.317	645.737	-0.189	-0.485
-615.303	-112.907	-0.357	0.071
-614.288	-31.846	0.408	0.229
-613.273	-117.410	-0.346	0.063
-612.259	-200.000	-0.077	0.395
-611.244	767.092	0.034	0.092
-610.230	21.157	0.032	-0.026
-609.215	34.587	0.096	-0.084
-608.201	58.803	-0.298	-0.294
-607.186	43.612	0.169	-0.155
-606.171	689.612	0.005	-0.013
-605.157	-200.000	0.000	-0.170
-604.142	-200.000	-0.028	-0.225
-603.128	-200.000	-0.011	0.321
-602.113	-35.695	0.032	0.017
-601.098	14.798	-0.221	-0.173
-600.084	-68.611	-0.160	0.062
-599.069	122.769	0.116	-0.146
-598.055	15.533	0.323	-0.254
-597.040	-200.000	-0.008	-0.186
-596.025	103.922	-0.153	0.180
-595.011	-101.590	-0.083	-0.020
-593.996	-65.130	-0.152	0.061
-592.982	-200.000	-0.022	-0.189
-591.967	107.263	-0.087	-0.104
-590.952	-119.258	0.220	-0.038
-589.938	483.918	-0.102	-0.232
-588.923	-200.000	-0.033	0.261
-587.909	-87.438	0.205	-0.062
-586.894	-200.000	-0.020	-0.198
-585.879	-47.917	0.336	0.163
-584.865	-167.449	-0.334	-0.013
-583.850	-200.000	0.021	-0.457
-582.836	207.238	-0.154	-0.241
-581.821	-184.480	0.243	0.004
-580.806	-200.000	0.008	0.064
-579.792	226.473	-0.165	-0.268
-578.777	157.409	-0.188	-0.260
-577.763	502.503	-0.127	-0.295
-576.748	-62.475	0.066	0.028
-575.733	138.118	-0.027	0.035
-574.719	52.792	-0.018	0.017
-573.704	298.781	-0.126	-0.232
-572.690	800.000	-0.064	-0.250
-571.675	-173.297	0.042	0.001
-570.661	55.560	-0.208	0.202
-569.646	474.308	-0.070	0.157
-568.631	-29.552	0.118	0.068
-567.617	-169.339	-0.482	0.018
-566.602	15.733	-0.083	0.065
-565.588	-200.000	-0.026	0.190
-564.573	-11.376	0.086	0.057
-563.558	-113.552	-0.262	-0.051
-562.544	91.124	-0.241	-0.271
-561.529	379.106	0.070	-0.143
-560.515	689.327	0.060	0.158
-559.500	6.204	0.362	0.269
-558.485	-75.011	0.298	0.107
-557.471	-43.932	-0.151	-0.076
-556.456	-14.149	-0.044	-0.028
-555.442	9.143	-0.169	-0.128
-554.427	101.498	-0.093	0.108
-553.412	-70.197	0.523	0.199
-552.398	84.919	0.064	0.070
-551.383	800.000	-0.059	0.216
-550.369	-200.000	-0.047	0.349
-549.354	33.608	0.126	0.109
-548.339	-80.024	0.162	0.054
-547.325	-29.125	-0.070	-0.040
-546.310	-81.528	0.173	0.057
-545.296	800.000	0.045	0.176
-544.281	-145.145	-0.380	-0.034
-543.266	272.360	0.094	-0.165
-542.252	-123.138	0.152	0.024
-541.237	-200.000	-0.083	-0.372
-540.223	-117.554	0.069	0.013
-539.208	-200.000	-0.054	-0.378
-538.193	46.671	-0.075	0.069
-537.179	-200.000	-0.008	0.073
-536.164	197.965	0.175	-0.268
-535.150	422.832	0.102	0.220
-534.135	-200.000	-0.000	-0.142
-533.121	-54.542	-0.045	0.020
-532.106	-64.347	0.194	-0.079
-531.091	21.369	0.051	-0.041
-530.077	-38.624	-0.367	0.193
-529.062	11.341	0.146	-0.112
-528.048	800.000	-0.077	-0.225
-527.033	53.636	-0.058	-0.056
-526.018	4.292	-0.262	-0.192
-525.004	-164.039	0.162	0.008
-523.989	129.766	-0.174	0.222
-522.975	203.847	0.153	-0.237
-521.960	344.354	-0.203	0.398
-520.945	244.782	0.121	-0.203
-519.931	7.726	0.109	-0.081
-518.916	10.659	0.120	-0.092
-517.902	-200.000	-0.026	-0.230
-516.887	-200.000	-0.018	-0.151
-515.872	11.434	-0.164	-0.125
-514.858	800.000	-0.003	0.008
-513.843	494.579	0.121	-0.278
-512.829	-103.525	-0.162	0.038
-511.814	800.000	-0.125	-0.394
-510.799	-167.000	-0.315	0.013
-509.785	-42.360	-0.172	-0.087
-508.770	-200.000	0.018	-0.267
-507.756	-76.128	-0.265	0.094
-506.741	181.425	-0.192	-0.281
-505.726	603.808	0.100	0.247
-504.712	-7.283	0.083	0.056
-503.697	-180.804	0.194	0.004
-502.683	-126.197	0.341	-0.051
-501.668	-149.751	0.198	-0.015
-500.653	-16.260	0.104	0.066
-499.639	-124.985	-0.311	-0.048
-498.624	453.746	-0.140	-0.309
-497.610	306.419	0.109	0.203
-496.595	27.017	-0.164	0.137
-495.581	361.775	-0.102	-0.203
-494.566	414.451	-0.012	0.025
-493.551	-200.000	-0.242	-0.000
-492.537	84.609	-0.145	0.159
-491.522	-15.498	0.156	-0.099
-490.508	-113.193	0.367	0.072
-489.493	-87.071	0.148	0.045
-488.478	785.043	0.083	-0.226
-487.464	155.153	-0.177	-0.243
-486.449	-200.000	0.029	0.326
-485.435	-175.534	-0.232	-0.006
-484.420	17.924	-0.150	-0.119
-483.405	-25.190	0.165	0.097
-482.391	219.927	-0.040	-0.064
-481.376	800.000	-0.052	0.160
-480.362	192.682	-0.103	-0.155
-479.347	86.997	0.194	0.214
-478.332	141.958	-0.251	0.331
-477.318	-29.713	-0.085	0.048
-476.303	-200.000	0.002	-0.347
-475.289	-155.413	0.332	0.021
-474.274	-51.502	0.165	0.077
-473.259	-147.102	-0.356	-0.030
-472.245	-35.594	-0.057	-0.031
-471.230	51.859	-0.117	-0.111
-470.216	-35.495	0.349	-0.189
-469.201	-200.000	-0.037	-0.357
-468.186	-66.466	0.232	-0.092
-467.172	-125.958	0.184	0.028
-466.157	51.583	-0.269	-0.255
-465.143	-83.711	-0.235	0.075
-464.128	-24.906	0.474	0.280
-463.113	14.418	-0.265	0.206
-462.099	89.861	0.192	-0.214
-461.084	99.002	0.204	0.234
-460.070	150.811	0.098	0.133
-459.055	-74.961	-0.345	-0.123
-458.040	-106.321	-0.186	-0.041
-457.026	85.146	-0.062	0.068
-456.011	-108.434	0.139	0.030
-454.997	86.162	-0.113	0.123
-453.982	-3.711	-0.080	0.056
-452.968	-22.394	-0.273	0.165
-451.953	-155.482	-0.596	0.038
-450.938	-174.279	0.203	0.006
-449.924	211.054	0.124	0.195
-448.909	-200.000	0.027	0.159
-447.895	59.783	-0.182	0.179
-446.880	612.075	-0.069	-0.172
-445.865	105.810	0.102	0.120
-444.851	325.325	0.134	0.255
-443.836	342.151	-0.083	0.162
-442.822	-152.038	0.140	-0.010
-441.807	45.803	0.095	0.088
-440.792	521.344	-0.020	0.046
-439.778	-200.000	-0.005	0.033
-438.763	-20.112	0.198	0.121
-437.749	13.259	0.043	0.033
-436.734	-113.358	-0.198	0.039
-435.719	-99.947	0.198	-0.049
-434.705	170.601	-0.134	-0.192
-433.690	63.268	0.070	0.070
-432.676	-200.000	-0.001	-0.195
-431.661	-72.972	-0.329	-0.120
-430.646	225.972	0.063	-0.101
-429.632	-171.207	-0.087	0.003
-428.617	241.552	-0.157	-0.261
-427.603	-36.752	-0.441	-0.236
-426.588	-200.000	0.069	-0.309
-425.573	-91.003	0.242	-0.069
-424.559	-136.227	0.238	-0.028
-423.544	800.000	0.083	0.269
-422.530	9.209	-0.137	0.103
-421.515	317.752	-0.135	0.255
-420.500	-200.000	-0.093	0.459
-419.486	130.431	-0.265	0.338
-418.471	-61.894	0.309	0.129
-417.457	260.472	0.061	-0.106
-416.442	-51.314	-0.096	-0.045
-415.428	-200.000	0.009	-0.205
-414.413	800.000	-0.054	0.220
-413.398	-200.000	0.089	0.418
-412.384	-4.935	0.122	0.084
-411.369	285.158	0.050	0.089
-410.355	103.567	-0.049	-0.058
-409.340	800.000	-0.079	-0.227
-408.325	453.446	0.107	-0.235
-407.311	-106.794	-0.098	-0.022
-406.296	38.266	0.112	-0.100
-405.282	53.685	0.085	0.081
-404.267	144.815	0.186	0.247
-403.252	-200.000	0.002	0.088
-402.238	129.827	0.095	-0.121
-401.223	84.269	-0.217	-0.235
-400.209	-153.542	-0.419	0.029
-399.194	126.980	0.144	0.181
-398.179	-125.712	0.202	0.030
-397.165	-170.813	0.242	0.008
-396.150	800.000	-0.074	-0.262
-395.136	-113.859	-0.215	-0.042
-394.121	-113.631	0.256	-0.050
-393.106	229.466	0.270	0.439
-392.092	-200.000	0.004	0.043
-391.077	109.327	0.164	0.195
-390.063	27.028	-0.196	0.164
-389.048	-157.895	0.264	0.016
-388.033	-130.953	0.318	-0.042
-387.019	603.826	-0.101	0.251
-386.004	167.020	0.115	-0.162
-384.990	70.684	0.074	0.076
-383.975	614.978	-0.125	0.310
-382.960	278.285	-0.116	0.206
-381.946	12.123	-0.091	0.070
-380.931	800.000	0.043	0.127
-379.917	-92.338	0.221	-0.062
-378.902	-86.488	0.095	-0.029
-377.888	597.712	-0.095	-0.235
-376.873	-18.987	-0.088	0.054
-375.858	107.526	-0.243	0.288
-374.844	-139.568	-0.398	-0.042
-373.829	-42.519	-0.160	0.081
-372.815	198.249	0.084	0.128
-371.800	-156.827	-0.089	0.005
-370.785	-106.594	0.215	-0.048
-369.771	32.954	-0.187	-0.161
-368.756	-131.104	-0.391	0.052
-367.742	-89.679	-0.191	0.056
-366.727	130.855	0.045	-0.057
-365.712	-52.974	-0.367	-0.168
-364.698	61.420	0.166	-0.164
-363.683	800.000	-0.034	0.131
-362.669	800.000	0.114	-0.351
-361.654	-200.000	0.004	-0.257
-360.639	-161.118	0.125	0.006
-359.625	50.897	0.092	0.086
-358.610	-200.000	-0.021	-0.091
-357.596	-61.992	-0.190	-0.079
-356.581	800.000	-0.023	0.078
-355.566	539.121	-0.047	0.112
-354.552	-41.425	-0.165	-0.084
-353.537	566.940	0.118	-0.285
-352.523	-49.876	-0.561	-0.264
-351.508	-81.551	-0.057	0.019
-350.493	163.332	-0.052	0.072
-349.479	-51.436	0.252	-0.117
-348.464	-47.644	-0.112	0.054
-347.450	127.297	-0.183	-0.230
-346.435	417.417	0.037	0.078
-345.420	-132.798	0.098	0.012
-344.406	-200.000	-0.064	0.323
-343.391	-195.392	-0.131	-0.001
-342.377	14.267	-0.205	-0.159
-341.362	225.896	0.193	-0.310
-340.348	75.211	-0.252	-0.263
-339.333	144.101	0.230	0.305
-338.318	-141.633	0.197	0.020
-337.304	-200.000	-0.001	0.031
-336.289	351.252	0.104	-0.205
-335.275	-75.946	0.164	0.057
-334.260	47.972	0.087	0.080
-333.245	800.000	-0.088	0.282
-332.231	294.165	0.180	-0.326
-331.216	-200.000	0.012	-0.204
-330.202	8.444	-0.247	-0.185
-329.187	-200.000	-0.020	-0.089
-328.172	-26.974	0.252	0.146
-327.158	-30.679	-0.052	0.029
-326.143	1.343	-0.232	0.166
-325.129	149.055	0.016	-0.021
-324.114	-29.416	0.361	0.205
-323.099	-200.000	-0.043	-0.316
-322.085	-200.000	0.036	0.274
-321.070	-200.000	-0.012	-0.156
-320.056	-27.653	-0.116	0.067
-319.041	800.000	0.048	-0.144
-318.026	222.592	0.235	-0.374
-317.012	-200.000	-0.029	0.405
-315.997	800.000	0.135	0.466
-314.983	-108.060	-0.180	0.039
-313.968	-128.229	0.266	-0.038
-312.953	-158.249	-0.171	-0.010
-311.939	-200.000	0.072	-0.326
-310.924	-161.535	0.287	-0.015
-309.910	245.726	0.140	-0.233
-308.895	-34.576	0.348	-0.189
-307.880	-43.937	0.164	-0.082
-306.866	50.707	-0.120	0.112
-305.851	-161.099	-0.276	-0.014
-304.837	-95.704	0.309	0.082
-303.822	79.208	-0.138	-0.146
-302.807	-176.451	0.477	-0.012
-301.793	-200.000	0.005	0.195
-300.778	-200.000	0.020	-0.124
-299.764	-200.000	0.040	-0.185
-298.749	-37.974	-0.089	0.047
-297.735	70.811	-0.172	0.176
-296.720	191.234	0.060	0.089
-295.705	-200.000	-0.033	0.289
-294.691	104.609	-0.252	-0.294
-293.676	-200.000	0.030	-0.365
-292.662	-114.712	-0.101	-0.019
-291.647	-200.000	-0.006	-0.394
-290.632	66.599	0.135	-0.136
-289.618	196.400	0.210	-0.317
-288.603	-53.613	-0.199	-0.090
-287.589	-118.138	-0.067	0.012
-286.574	117.418	-0.157	-0.191
-285.559	142.355	-0.305	-0.400
-284.545	-10.121	0.187	0.123
-283.530	-116.606	0.348	0.063
-282.516	-200.000	0.009	-0.125
-281.501	800.000	0.064	0.226
-280.486	-5.982	-0.093	0.063
-279.472	-54.006	-0.332	0.150
-278.457	-200.000	-0.044	0.556
-277.443	-195.435	-0.177	0.001
-276.428	-18.217	0.189	0.117
-275.413	-3.011	0.191	0.132
-274.399	-158.897	-0.059	0.003
-273.384	550.913	0.033	0.079
-272.370	-12.499	0.155	-0.100
-271.355	-59.034	0.164	-0.070
-270.340	800.000	-0.060	0.221
-269.326	-66.114	0.074	0.029
-268.311	800.000	0.081	0.225
-267.297	41.366	-0.325	0.291
-266.282	-200.000	-0.035	-0.164
-265.267	211.638	-0.141	-0.220
-264.253	800.000	0.033	0.141
-263.238	318.487	-0.113	-0.211
-262.224	-200.000	0.004	0.016
-261.209	144.662	-0.112	-0.148
-260.195	-97.987	-0.122	0.031
-259.180	56.322	0.026	0.025
-258.165	477.688	0.059	-0.131
-257.151	-116.122	0.291	0.053
-256.136	-26.173	-0.256	0.149
-255.122	-3.849	-0.239	0.164
-254.107	-156.869	0.092	-0.006
-253.092	-117.496	0.227	0.041
-252.078	54.765	-0.174	0.166
-251.063	-74.219	-0.187	-0.067
-250.049	85.480	0.139	-0.151
-249.034	-114.429	-0.398	0.076
-248.019	118.386	0.101	-0.123
-247.005	-125.418	0.267	-0.040
-245.990	60.963	0.097	0.096
-244.976	-200.000	-0.009	0.242
-243.961	-61.782	0.128	-0.053
-242.946	800.000	-0.108	0.371
-241.932	202.312	0.031	0.047
-240.917	800.000	0.037	-0.160
-239.903	800.000	0.065	0.227
-238.888	471.362	-0.013	0.028
-237.873	-152.074	-0.346	-0.025
-236.859	-29.841	0.250	-0.141
-235.844	-200.000	-0.019	-0.205
-234.830	-138.331	-0.219	-0.024
-233.815	800.000	0.034	0.133
-232.800	213.843	-0.209	0.326
-231.786	-146.735	0.282	-0.024
-230.771	93.756	0.122	0.137
-229.757	76.073	-0.131	-0.137
-228.742	-90.282	-0.255	-0.073
-227.727	-35.901	-0.115	-0.061
-226.713	16.019	0.376	-0.293
-225.698	62.359	0.113	-0.112
-224.684	485.285	-0.091	0.205
-223.669	-119.232	0.049	0.008
-222.655	-200.000	-0.003	0.193
-221.640	224.928	0.018	-0.029
-220.625	-9.298	0.058	0.038
-219.611	-106.037	-0.129	-0.029
-218.596	800.000	-0.061	-0.190
-217.582	-200.000	0.083	-0.370
-216.567	-185.603	0.315	0.005
-215.552	-79.470	0.197	0.066
-214.538	-17.837	-0.098	0.060
-213.523	-54.546	0.233	0.104
-212.509	-63.752	0.096	0.039
-211.494	-51.827	-0.312	0.143
-210.479	762.047	0.086	0.229
-209.465	-56.820	0.155	0.068
-208.450	800.000	-0.093	-0.279
-207.436	88.146	0.127	0.139
-206.421	112.069	0.142	-0.169
-205.406	136.911	0.173	0.222
-204.392	-200.000	-0.031	0.338
-203.377	-66.047	0.224	-0.088
-202.363	200.337	0.181	0.274
-201.348	800.000	0.046	-0.171
-200.333	516.840	0.156	-0.359
-199.319	-78.067	0.276	0.094
-198.304	800.000	0.037	-0.146
-197.290	-129.057	0.233	0.032
-196.275	11.929	0.134	-0.101
-195.260	-200.000	-0.041	0.268
-194.246	103.178	-0.150	0.173
-193.231	-26.254	0.107	0.062
-192.217	-200.000	0.024	-0.124
-191.202	800.000	0.082	-0.241
-190.187	-32.355	0.147	0.081
-189.173	-154.985	0.264	-0.017
-188.158	177.465	-0.082	0.118
-187.144	-33.060	0.147	-0.080
-186.129	118.741	0.112	0.137
-185.114	-52.821	-0.256	0.116
-184.100	374.398	-0.158	0.318
-183.085	-200.000	0.011	-0.195
-182.071	418.021	0.024	0.051
-181.056	-49.373	0.056	-0.026
-180.042	-85.767	-0.226	0.069
-179.027	-200.000	-0.023	0.208
-178.012	-140.119	-0.146	-0.015
-176.998	43.519	-0.197	0.177
-175.983	-87.080	-0.061	0.018
-174.969	-147.342	0.148	-0.012
-173.954	-100.298	0.476	0.117
-172.939	-57.134	0.209	0.091
-171.925	-149.432	0.220	-0.017
-170.910	-200.000	0.007	-0.180
-169.896	-97.056	0.165	0.043
-168.881	-200.000	0.014	-0.275
-167.866	730.856	0.041	0.107
-166.852	-5.303	-0.349	-0.236
-165.837	-1.456	0.176	-0.122
-164.823	21.652	0.100	-0.080
-163.808	176.200	-0.161	0.230
-162.793	35.010	0.256	0.221
-161.779	-200.000	-0.009	-0.077
-160.764	-200.000	-0.014	0.370
-159.750	201.877	0.082	0.125
-158.735	-200.000	-0.079	-0.419
-157.720	800.000	-0.069	0.214
-156.706	20.713	-0.149	0.119
-155.691	-129.732	-0.142	0.019
-154.677	800.000	0.109	0.385
-153.662	-22.475	0.093	-0.055
-152.647	33.761	0.183	-0.157
-151.633	280.255	0.120	0.212
-150.618	218.569	0.065	-0.102
-149.604	-127.871	-0.046	0.006
-148.589	800.000	-0.047	0.147
-147.574	-200.000	-0.017	-0.090
-146.560	800.000	0.079	0.311
-145.545	589.183	0.078	0.189
-144.531	19.337	0.148	-0.117
-143.516	31.705	0.235	-0.199
-142.502	-51.548	0.107	-0.049
-141.487	-200.000	0.025	-0.190
-140.472	27.437	0.124	0.102
-139.458	-95.264	-0.188	-0.050
-138.443	-129.928	0.308	-0.042
-137.429	-130.928	-0.282	-0.037
-136.414	-200.000	0.008	-0.299
-135.399	-158.543	-0.348	-0.020
-134.385	49.203	0.349	0.323
-133.370	-200.000	0.080	0.379
-132.356	-200.000	0.018	0.080
-131.341	150.289	-0.041	0.055
-130.326	-53.136	-0.143	0.065
-129.312	-99.608	-0.143	0.035
-128.297	-137.012	0.160	0.018
-127.283	294.576	0.164	-0.295
-126.268	-200.000	0.010	-0.300
-125.253	-200.000	-0.015	0.359
-124.239	-17.574	0.132	-0.082
-123.224	230.717	-0.197	-0.316
-122.210	-200.000	0.003	0.030
-121.195	94.899	-0.383	0.428
