DTS Sentinel unit serial number:	SN413079Multiplexer serial number:	ORYXHardware model number:	OX4-SRSoftware version number:	ORYX F/W v4.00 Oryx Data Collector v3.7.2.0data status	okinstallation	princeton_trtdifferential loss correction	single-endedforward channel	channel 3reverse channel	N/Adate	2019/09/12time	08:26:11forward acquisition time	60.00reverse acquisition time	0.00gamma	496.2192k internal	0.2311k external	0.2311temperature offset calibration	1.0031default loss term (dB/km)	0.3790temperature slope calibration	1.0000multiplexer offset coefficient	1.0000multiplexer slope coefficient	1.0000fibre end	0.00T internal ref (°C)	33.56T ext. ref 1 (°C)	1.71T ext. ref 2 (°C)	29.60length (m)	temperature (°C)	Stokes	anti-Stokes-747.200	800.000	0.053	-0.203
-746.185	-38.301	0.345	0.185
-745.171	-200.000	-0.015	0.095
-744.156	-200.000	-0.000	0.423
-743.142	283.465	-0.113	-0.207
-742.127	88.683	-0.134	0.151
-741.112	800.000	0.032	0.097
-740.098	800.000	0.107	0.323
-739.083	163.684	0.143	0.205
-738.069	163.393	-0.113	0.161
-737.054	-42.909	-0.331	0.171
-736.039	-3.169	-0.188	0.133
-735.025	-106.490	0.064	-0.015
-734.010	-38.431	-0.222	0.119
-732.996	-200.000	-0.009	0.077
-731.981	-200.000	0.064	0.289
-730.966	-40.912	-0.107	-0.056
-729.952	-188.087	-0.350	-0.005
-728.937	-93.419	-0.096	-0.027
-727.923	-200.000	-0.015	-0.280
-726.908	-75.845	-0.224	-0.081
-725.894	390.465	0.167	0.351
-724.879	-43.642	-0.350	0.179
-723.864	309.057	-0.109	-0.206
-722.850	-45.678	0.281	-0.141
-721.835	-200.000	0.005	-0.136
-720.821	26.140	-0.151	-0.128
-719.806	5.188	-0.119	0.089
-718.791	-92.162	0.160	0.046
-717.777	-41.761	-0.248	-0.129
-716.762	51.033	-0.079	-0.076
-715.748	-41.934	0.285	-0.148
-714.733	-173.299	0.252	-0.008
-713.718	-17.960	0.241	0.153
-712.704	25.941	0.177	0.149
-711.689	-47.731	-0.059	0.029
-710.675	-10.765	-0.271	0.181
-709.660	70.400	0.028	-0.030
-708.645	-103.436	-0.231	0.055
-707.631	311.817	0.067	-0.127
-706.616	-200.000	-0.043	-0.454
-705.602	-80.329	-0.218	-0.074
-704.587	-115.004	0.190	0.037
-703.572	-97.568	-0.064	-0.017
-702.558	800.000	-0.009	0.041
-701.543	-200.000	0.000	-0.185
-700.529	288.319	-0.015	0.028
-699.514	800.000	0.034	-0.108
-698.499	278.047	0.059	0.107
-697.485	-133.282	-0.331	0.042
-696.470	58.174	0.233	0.231
-695.456	453.453	0.126	0.282
-694.441	651.167	0.118	0.306
-693.426	161.239	0.055	-0.078
-692.412	-118.166	0.097	0.017
-691.397	-140.143	-0.078	-0.008
-690.383	-67.233	-0.080	0.032
-689.368	-186.285	-0.179	-0.003
-688.354	800.000	-0.055	-0.202
-687.339	-200.000	-0.020	-0.321
-686.324	-105.590	-0.160	0.037
-685.310	-188.434	-0.230	-0.003
-684.295	-127.430	-0.295	0.043
-683.281	6.205	-0.301	0.226
-682.266	-40.351	-0.280	-0.147
-681.251	-110.892	-0.276	0.058
-680.237	333.612	-0.049	0.095
-679.222	88.528	0.196	-0.220
-678.208	114.160	-0.040	0.049
-677.193	-130.533	-0.119	0.016
-676.178	-157.682	-0.274	-0.017
-675.164	175.633	-0.062	-0.091
-674.149	-107.307	-0.268	0.060
-673.135	-200.000	0.050	0.275
-672.120	-62.454	-0.245	-0.103
-671.105	367.214	0.084	-0.171
-670.091	718.066	0.107	-0.289
-669.076	135.019	0.217	0.285
-668.062	-108.514	0.261	-0.057
-667.047	544.239	0.055	0.134
-666.032	-77.158	0.262	0.092
-665.018	77.927	-0.233	0.252
-664.003	70.057	-0.225	-0.235
-662.989	138.590	0.164	-0.217
-661.974	-2.450	-0.304	0.216
-660.959	-50.721	0.076	-0.036
-659.945	134.064	0.311	-0.407
-658.930	-82.859	-0.153	0.050
-657.916	113.497	-0.167	-0.205
-656.901	409.561	-0.120	0.257
-655.886	-160.089	0.241	-0.013
-654.872	202.380	-0.166	-0.258
-653.857	-101.068	0.454	-0.113
-652.843	-200.000	0.018	0.198
-651.828	-161.598	-0.173	-0.009
-650.814	-104.264	-0.198	-0.046
-649.799	-200.000	-0.002	0.232
-648.784	800.000	0.108	-0.452
-647.770	-200.000	0.033	-0.298
-646.755	-138.378	0.296	-0.033
-645.741	800.000	0.035	-0.112
-644.726	45.553	0.128	0.120
-643.711	-200.000	0.031	-0.400
-642.697	120.452	-0.110	-0.139
-641.682	-118.889	0.297	-0.053
-640.668	-83.616	-0.127	-0.041
-639.653	54.232	-0.080	0.078
-638.638	-200.000	0.020	0.116
-637.624	28.204	-0.090	-0.077
-636.609	-41.793	-0.148	-0.077
-635.595	-200.000	0.027	-0.131
-634.580	618.945	-0.054	0.138
-633.565	-31.977	0.170	-0.096
-632.551	800.000	0.069	0.217
-631.536	800.000	-0.079	-0.264
-630.522	288.695	0.106	-0.195
-629.507	-52.638	-0.463	-0.216
-628.492	-25.054	0.108	0.065
-627.478	800.000	-0.147	-0.504
-626.463	-5.542	0.149	-0.103
-625.449	-60.938	0.307	0.131
-624.434	800.000	0.034	-0.106
-623.419	-132.826	-0.101	0.013
-622.405	-165.486	-0.120	-0.005
-621.390	800.000	0.053	0.221
-620.376	-194.361	0.224	0.002
-619.361	-142.816	0.263	0.026
-618.346	1.955	0.077	-0.056
-617.332	256.911	0.240	0.416
-616.317	-200.000	0.018	-0.253
-615.303	1.030	-0.032	0.023
-614.288	-37.169	-0.092	0.050
-613.273	280.580	-0.068	0.122
-612.259	152.013	-0.163	0.224
-611.244	496.525	0.054	0.125
-610.230	90.201	0.046	0.052
-609.215	419.620	0.092	-0.198
-608.201	-70.771	-0.161	-0.061
-607.186	-31.824	0.187	-0.106
-606.171	800.000	-0.061	0.241
-605.157	745.420	0.076	0.205
-604.142	761.830	0.046	0.127
-603.128	-38.469	-0.203	-0.108
-602.113	124.517	-0.187	0.237
-601.098	800.000	-0.086	-0.304
-600.084	-108.507	-0.436	-0.095
-599.069	51.984	0.059	0.056
-598.055	-69.459	-0.148	-0.057
-597.040	-130.343	0.132	-0.018
-596.025	717.630	-0.087	0.232
-595.011	455.118	0.062	-0.140
-593.996	693.227	0.063	-0.167
-592.982	-143.788	0.383	0.037
-591.967	800.000	0.071	0.213
-590.952	40.212	0.060	-0.054
-589.938	-75.211	-0.231	0.083
-588.923	800.000	-0.086	-0.316
-587.909	9.881	0.128	-0.098
-586.894	800.000	0.091	-0.283
-585.879	800.000	-0.048	0.140
-584.865	-124.180	-0.170	-0.027
-583.850	118.684	-0.032	0.040
-582.836	-39.987	0.307	0.162
-581.821	-9.003	0.038	0.026
-580.806	-66.844	0.085	-0.034
-579.792	-64.544	0.166	-0.068
-578.777	-120.634	-0.305	0.052
-577.763	-81.627	-0.378	0.125
-576.748	-124.578	-0.179	0.028
-575.733	-122.110	0.279	0.046
-574.719	229.816	-0.112	0.185
-573.704	-143.159	0.303	-0.029
-572.690	-79.809	0.214	0.073
-571.675	-8.739	-0.540	0.365
-570.661	91.817	0.112	0.127
-569.646	-112.151	0.320	-0.065
-568.631	-200.000	0.038	-0.248
-567.617	-81.448	-0.344	-0.114
-566.602	-172.864	-0.069	0.002
-565.588	-84.346	0.081	0.026
-564.573	-200.000	-0.038	0.408
-563.558	-116.812	0.235	0.043
-562.544	-161.823	-0.117	-0.006
-561.529	55.783	0.079	0.077
-560.515	584.612	-0.055	-0.136
-559.500	102.618	0.271	0.319
-558.485	-200.000	0.016	0.166
-557.471	-130.010	0.137	0.019
-556.456	-73.026	-0.051	0.019
-555.442	215.569	0.016	-0.026
-554.427	460.656	0.036	-0.081
-553.412	23.151	0.076	0.063
-552.398	0.499	-0.335	0.241
-551.383	-200.000	-0.021	0.165
-550.369	-200.000	-0.014	-0.189
-549.354	-34.098	0.210	0.116
-548.339	601.021	0.073	0.183
-547.325	800.000	-0.089	0.286
-546.310	-64.902	-0.377	0.153
-545.296	115.971	0.152	-0.187
-544.281	51.376	-0.172	-0.165
-543.266	-200.000	-0.050	-0.304
-542.252	166.398	-0.065	-0.093
-541.237	222.048	0.109	0.176
-540.223	-142.270	0.078	-0.008
-539.208	63.555	0.477	-0.482
-538.193	-4.033	-0.184	0.128
-537.179	-65.678	-0.191	-0.077
-536.164	402.478	0.148	0.312
-535.150	-132.514	-0.299	-0.039
-534.135	238.601	0.084	0.141
-533.121	-108.340	-0.124	-0.027
-532.106	-200.000	0.013	0.115
-531.091	29.859	0.225	0.193
-530.077	-89.478	-0.097	-0.029
-529.062	-6.875	0.184	-0.126
-528.048	-125.055	0.110	0.017
-527.033	136.386	0.136	-0.178
-526.018	-200.000	-0.017	-0.173
-525.004	-200.000	-0.058	-0.350
-523.989	-36.310	-0.297	-0.161
-522.975	-200.000	0.021	-0.197
-521.960	121.054	-0.218	0.274
-520.945	-200.000	-0.001	-0.156
-519.931	800.000	-0.086	-0.272
-518.916	-200.000	-0.041	0.370
-517.902	70.974	0.268	-0.279
-516.887	-188.798	-0.197	0.002
-515.872	-141.497	0.215	0.022
-514.858	-124.527	-0.140	-0.022
-513.843	-16.644	-0.308	0.196
-512.829	76.612	-0.045	-0.048
-511.814	46.571	-0.104	-0.097
-510.799	-35.960	-0.268	-0.146
-509.785	-87.156	0.148	0.045
-508.770	311.542	0.170	0.321
-507.756	-55.549	0.185	0.084
-506.741	263.491	-0.194	0.340
-505.726	-200.000	-0.042	-0.266
-504.712	-129.013	0.213	-0.030
-503.697	28.823	0.049	0.042
-502.683	-200.000	-0.006	-0.048
-501.668	29.683	-0.123	0.105
-500.653	-200.000	-0.012	-0.057
-499.639	239.632	0.098	-0.165
-498.624	38.646	-0.076	-0.068
-497.610	-71.534	-0.263	-0.099
-496.595	-200.000	0.009	-0.053
-495.581	800.000	-0.035	0.145
-494.566	61.355	0.049	0.049
-493.551	-101.558	-0.306	0.075
-492.537	-33.402	0.070	-0.039
-491.522	59.438	-0.290	0.287
-490.508	148.627	-0.267	0.362
-489.493	-138.471	0.176	-0.019
-488.478	-140.840	0.353	0.037
-487.464	402.318	0.100	0.212
-486.449	63.015	-0.239	0.241
-485.435	361.145	0.096	-0.193
-484.420	39.094	-0.044	0.039
-483.405	-147.471	0.343	0.029
-482.391	-50.576	0.133	-0.063
-481.376	290.752	-0.197	0.359
-480.362	48.984	0.158	0.149
-479.347	-188.273	0.110	-0.001
-478.332	-108.359	-0.222	-0.048
-477.318	-130.389	-0.174	-0.024
-476.303	86.663	0.038	-0.043
-475.289	600.151	-0.094	0.236
-474.274	625.156	-0.058	0.146
-473.259	108.093	0.175	0.209
-472.245	-200.000	0.002	-0.526
-471.230	-46.607	0.335	-0.165
-470.216	-70.191	0.092	-0.035
-469.201	-200.000	-0.051	-0.283
-468.186	176.180	0.055	0.081
-467.172	-129.764	-0.155	0.021
-466.157	-155.287	0.299	-0.020
-465.143	-200.000	-0.020	0.185
-464.128	79.963	-0.082	0.089
-463.113	304.749	0.097	-0.181
-462.099	-48.832	-0.039	0.019
-461.084	-78.444	-0.362	0.124
-460.070	579.036	-0.084	-0.206
-459.055	284.244	0.179	0.323
-458.040	21.424	0.065	-0.053
-457.026	129.512	0.057	0.073
-456.011	-114.418	-0.308	0.060
-454.997	151.852	-0.159	0.218
-453.982	65.107	0.092	0.093
-452.968	206.676	0.191	0.298
-451.953	663.823	-0.180	0.467
-450.938	280.997	-0.079	0.142
-449.924	800.000	-0.013	-0.056
-448.909	113.764	0.182	-0.221
-447.895	-93.912	0.237	0.065
-446.880	4.674	0.222	-0.163
-445.865	378.398	-0.124	-0.255
-444.851	-4.626	0.145	0.100
-443.836	88.192	-0.139	-0.155
-442.822	575.351	-0.110	-0.270
-441.807	-66.636	-0.274	-0.109
-440.792	92.657	-0.212	-0.240
-439.778	295.063	-0.107	-0.197
-438.763	-200.000	-0.007	-0.092
-437.749	37.855	0.093	0.083
-436.734	-200.000	0.003	0.110
-435.719	181.701	-0.114	-0.168
-434.705	227.095	-0.140	-0.228
-433.690	-200.000	0.042	0.442
-432.676	-200.000	0.022	-0.148
-431.661	-131.619	0.051	0.007
-430.646	305.549	-0.177	0.330
-429.632	-52.722	-0.044	-0.020
-428.617	161.873	0.185	0.260
-427.603	-95.010	-0.194	0.053
-426.588	289.440	-0.049	-0.089
-425.573	121.603	-0.160	0.200
-424.559	-167.526	0.087	-0.003
-423.544	-185.328	0.512	0.008
-422.530	67.195	-0.259	0.265
-421.515	-34.740	-0.166	0.091
-420.500	-58.609	-0.268	0.116
-419.486	-200.000	-0.018	0.138
-418.471	38.334	-0.095	-0.085
-417.457	-95.965	-0.091	-0.024
-416.442	-200.000	-0.043	0.387
-415.428	-134.872	0.127	0.015
-414.413	103.480	-0.183	0.216
-413.398	84.795	-0.142	-0.156
-412.384	45.016	-0.142	-0.131
-411.369	-54.400	0.203	0.092
-410.355	4.954	-0.143	-0.105
-409.340	48.148	-0.120	0.112
-408.325	68.951	-0.047	-0.049
-407.311	-41.819	0.070	0.036
-406.296	-20.722	0.138	0.085
-405.282	17.738	-0.233	0.186
-404.267	-127.985	0.297	-0.043
-403.252	800.000	-0.088	-0.297
-402.238	-200.000	-0.031	-0.219
-401.223	64.792	-0.242	-0.244
-400.209	-200.000	0.009	-0.410
-399.194	-200.000	0.067	-0.470
-398.179	212.429	0.070	0.110
-397.165	38.153	-0.235	-0.210
-396.150	-54.242	-0.028	0.013
-395.136	-61.125	-0.253	-0.107
-394.121	-200.000	0.001	-0.213
-393.106	-66.486	-0.423	-0.168
-392.092	-200.000	0.040	0.270
-391.077	800.000	0.160	-0.492
-390.063	420.019	-0.234	0.502
-389.048	572.034	0.040	-0.099
-388.033	-65.796	0.261	-0.105
-387.019	72.611	0.111	-0.116
-386.004	526.204	0.161	-0.380
-384.990	63.873	0.118	0.119
-383.975	-143.066	-0.119	0.011
-382.960	800.000	-0.043	0.119
-381.946	457.508	0.101	-0.225
-380.931	62.595	0.092	-0.092
-379.917	800.000	0.063	-0.200
-378.902	35.677	0.240	-0.211
-377.888	-104.253	-0.042	-0.010
-376.873	130.900	0.140	-0.180
-375.858	-148.543	0.364	0.030
-374.844	42.417	-0.096	-0.088
-373.829	-200.000	0.093	-0.408
-372.815	81.178	-0.109	-0.118
-371.800	-200.000	0.037	-0.173
-370.785	-66.012	0.081	-0.032
-369.771	-200.000	0.038	0.207
-368.756	695.225	-0.062	0.164
-367.742	-200.000	-0.022	-0.262
-366.727	58.474	-0.189	-0.185
-365.712	29.586	0.241	0.205
-364.698	294.817	-0.118	0.217
-363.683	-53.578	0.073	-0.033
-362.669	-53.787	-0.383	-0.175
-361.654	-69.050	0.324	-0.125
-360.639	-200.000	0.019	0.161
-359.625	536.152	-0.092	0.218
-358.610	51.390	-0.124	0.117
-357.596	-57.743	0.343	0.150
-356.581	-200.000	0.008	0.255
-355.566	-46.868	0.223	0.109
-354.552	39.931	0.075	-0.068
-353.537	-81.465	-0.188	0.062
-352.523	678.602	0.180	0.468
-351.508	23.242	0.150	0.123
-350.493	23.130	-0.142	0.117
-349.479	800.000	-0.034	-0.146
-348.464	-99.929	-0.404	0.101
-347.450	-200.000	0.043	-0.308
-346.435	-160.042	-0.157	-0.009
-345.420	-126.240	0.213	0.032
-344.406	-67.765	0.035	0.014
-343.391	800.000	-0.066	-0.236
-342.377	-99.184	0.326	-0.082
-341.362	-3.951	-0.267	-0.185
-340.348	-200.000	0.025	-0.241
-339.333	-21.053	0.015	-0.009
-338.318	-200.000	-0.014	0.318
-337.304	44.285	0.338	-0.310
-336.289	-200.000	-0.001	-0.245
-335.275	-25.207	0.285	-0.169
-334.260	-126.303	-0.150	-0.022
-333.245	221.861	-0.144	0.232
-332.231	36.911	0.048	-0.043
-331.216	139.550	-0.293	0.385
-330.202	55.192	-0.226	-0.218
-329.187	-1.138	0.123	-0.087
-328.172	-63.706	0.381	-0.156
-327.158	-157.030	-0.330	0.020
-326.143	-34.527	0.267	-0.146
-325.129	117.157	0.174	0.214
-324.114	732.425	-0.055	0.148
-323.099	-200.000	0.043	-0.189
-322.085	-200.000	0.056	-0.251
-321.070	249.704	-0.240	-0.407
-320.056	453.848	-0.046	0.102
-319.041	800.000	0.006	-0.024
-318.026	-47.582	0.591	0.287
-317.012	13.566	-0.219	0.170
-315.997	263.165	0.183	0.318
-314.983	-4.588	0.177	0.122
-313.968	-159.365	0.152	0.008
-312.953	-76.438	-0.298	-0.105
-311.939	-104.935	0.084	-0.019
-310.924	-54.710	-0.117	-0.053
-309.910	-200.000	0.005	-0.027
-308.895	66.255	0.097	0.098
-307.880	91.831	-0.016	-0.018
-306.866	146.398	-0.125	0.167
-305.851	232.276	-0.086	-0.140
-304.837	-1.767	-0.226	0.159
-303.822	252.586	0.114	0.193
-302.807	96.585	-0.137	0.157
-301.793	251.479	-0.183	0.310
-300.778	800.000	0.051	-0.161
-299.764	-200.000	-0.002	-0.093
-298.749	800.000	-0.036	0.138
-297.735	-12.029	0.146	-0.096
-296.720	64.982	0.113	-0.114
-295.705	-110.559	0.235	0.049
-294.691	134.405	-0.080	0.104
-293.676	-200.000	0.045	0.327
-292.662	-0.294	0.252	0.179
-291.647	-200.000	-0.016	-0.176
-290.632	453.347	0.056	-0.123
-289.618	-1.675	0.170	0.119
-288.603	120.814	0.055	0.068
-287.589	-42.601	-0.050	0.026
-286.574	-127.004	-0.339	0.050
-285.559	-200.000	0.029	-0.319
-284.545	-32.502	-0.376	-0.209
-283.530	-144.062	0.088	-0.008
-282.516	-85.595	0.127	0.039
-281.501	225.032	0.108	-0.174
-280.486	-200.000	-0.005	-0.023
-279.472	800.000	-0.044	0.159
-278.457	-145.872	0.326	-0.029
-277.443	143.080	0.182	0.242
-276.428	-200.000	0.010	-0.199
-275.413	-54.970	0.199	-0.089
-274.399	3.647	-0.177	-0.129
-273.384	98.304	-0.173	0.199
-272.370	-9.742	0.314	0.208
-271.355	-112.289	0.210	-0.042
-270.340	141.102	0.105	-0.138
-269.326	-80.274	-0.179	0.060
-268.311	-120.864	0.220	0.037
-267.297	800.000	-0.037	0.162
-266.282	-81.451	-0.151	0.050
-265.267	-133.806	-0.201	0.025
-264.253	800.000	0.109	-0.301
-263.238	29.030	-0.200	-0.169
-262.224	-200.000	0.095	-0.463
-261.209	-200.000	-0.049	-0.259
-260.195	-86.611	0.301	-0.092
-259.180	145.941	0.107	-0.142
-258.165	278.626	-0.102	-0.181
-257.151	-127.227	-0.338	0.049
-256.136	81.316	-0.118	0.127
-255.122	122.125	-0.129	-0.161
-254.107	-66.944	-0.024	0.010
-253.092	278.774	-0.085	-0.150
-252.078	800.000	-0.034	0.100
-251.063	-200.000	0.006	0.192
-250.049	-5.312	-0.183	0.125
-249.034	-150.467	0.362	-0.028
-248.019	-179.904	-0.171	0.004
-247.005	-26.500	-0.365	-0.213
-245.990	275.774	-0.119	-0.209
-244.976	294.321	-0.079	0.144
-243.961	336.711	-0.057	0.110
-242.946	-200.000	-0.016	-0.225
-241.932	-56.150	-0.292	0.129
-240.917	-143.076	0.067	-0.006
-239.903	495.715	0.073	0.166
-238.888	-10.005	0.329	-0.218
-237.873	-147.381	-0.226	-0.019
-236.859	18.402	0.127	0.101
-235.844	221.073	0.151	0.241
-234.830	800.000	-0.071	0.279
-233.815	-30.879	-0.285	0.160
-232.800	800.000	0.021	0.062
-231.786	232.118	-0.063	-0.103
-230.771	-128.527	-0.221	0.031
-229.757	-86.764	0.298	-0.091
-228.742	-155.644	0.043	-0.003
-227.727	42.207	-0.030	0.027
-226.713	62.977	0.138	-0.137
-225.698	800.000	-0.030	-0.088
-224.684	800.000	0.020	-0.069
-223.669	-200.000	0.061	0.278
-222.655	-77.078	0.353	-0.122
-221.640	-71.967	-0.274	0.101
-220.625	-11.670	-0.135	0.088
-219.611	-83.910	-0.145	0.046
-218.596	-146.987	0.393	0.034
-217.582	11.235	0.197	-0.150
-216.567	205.201	-0.167	-0.259
-215.552	800.000	0.060	0.254
-214.538	-200.000	-0.040	0.250
-213.523	-108.211	-0.342	0.074
-212.509	-200.000	0.021	-0.111
-211.494	-200.000	-0.091	-0.000
-210.479	24.473	-0.112	-0.092
-209.465	11.294	0.157	0.120
-208.450	-75.386	0.136	-0.048
-207.436	-51.538	0.239	0.111
-206.421	-200.000	0.000	-0.388
-205.406	-181.506	0.088	0.002
-204.392	800.000	0.055	0.154
-203.377	-114.304	0.041	-0.008
-202.363	800.000	0.022	0.096
-201.348	119.762	0.206	0.253
-200.333	800.000	0.047	0.154
-199.319	16.544	-0.087	0.069
-198.304	-142.698	-0.444	0.043
-197.290	800.000	-0.110	-0.353
-196.275	520.732	0.060	-0.139
-195.260	-76.227	-0.106	0.037
-194.246	-157.110	-0.070	-0.004
-193.231	32.459	0.020	-0.017
-192.217	-128.933	0.316	-0.044
-191.202	800.000	0.030	0.090
-190.187	-179.129	-0.162	0.004
-189.173	800.000	0.062	-0.181
-188.158	-200.000	-0.005	-0.115
-187.144	-200.000	0.033	0.174
-186.129	551.026	0.185	0.442
-185.114	-2.673	0.126	0.088
-184.100	-146.749	-0.165	0.014
-183.085	-127.822	0.164	0.024
-182.071	-43.669	-0.263	-0.132
-181.056	-74.499	0.408	-0.146
-180.042	182.056	0.114	-0.166
-179.027	472.910	-0.128	-0.287
-178.012	-77.753	-0.213	-0.073
-176.998	-118.311	-0.311	0.055
-175.983	17.475	-0.103	-0.081
-174.969	1.271	0.266	0.190
-173.954	-200.000	0.017	0.311
-172.939	14.649	0.336	0.261
-171.925	117.046	-0.056	-0.068
-170.910	-78.130	0.102	0.035
-169.896	254.905	0.183	-0.310
-168.881	800.000	-0.048	0.163
-167.866	-100.291	-0.272	-0.067
-166.852	441.531	0.072	0.157
-165.837	19.195	0.285	0.227
-164.823	800.000	0.052	0.210
-163.808	-200.000	0.007	0.230
-162.793	-56.572	-0.302	-0.133
-161.779	85.545	0.151	0.165
-160.764	-32.448	0.092	-0.051
-159.750	162.217	0.124	0.173
-158.735	-136.796	0.033	-0.004
-157.720	800.000	-0.162	0.555
-156.706	545.663	-0.074	-0.175
-155.691	-200.000	0.022	-0.124
-154.677	-137.064	-0.364	-0.041
-153.662	708.843	0.096	-0.251
-152.647	437.893	-0.115	-0.249
-151.633	240.454	0.053	-0.087
-150.618	-200.000	0.020	0.128
-149.604	23.903	0.044	0.036
-148.589	-150.220	0.113	-0.009
-147.574	-200.000	-0.003	-0.195
-146.560	-200.000	-0.052	-0.263
-145.545	-45.346	-0.228	0.112
-144.531	250.113	0.068	0.114
-143.516	800.000	-0.022	-0.092
-142.502	-200.000	0.031	-0.185
-141.487	13.125	-0.085	0.065
-140.472	-14.847	0.372	0.237
-139.458	-67.069	0.078	-0.030
-138.443	78.726	-0.085	0.090
-137.429	-84.345	-0.144	-0.045
-136.414	-33.326	-0.310	0.170
-135.399	-61.777	-0.076	0.031
-134.385	33.843	-0.092	-0.080
-133.370	-137.080	0.301	-0.034
-132.356	110.328	0.204	0.243
-131.341	-200.000	0.012	0.056
-130.326	423.716	0.226	0.482
-129.312	800.000	0.064	-0.183
-128.297	-30.388	0.310	0.174
-127.283	-38.061	0.300	-0.158
-126.268	118.273	-0.030	0.036
-125.253	495.073	-0.038	-0.087
-124.239	-154.189	-0.081	-0.005
-123.224	-57.092	0.290	0.127
-122.210	290.148	-0.171	0.307
-121.195	175.196	0.092	-0.132
