DTS Sentinel unit serial number:	SN413079Multiplexer serial number:	ORYXHardware model number:	OX4-SRSoftware version number:	ORYX F/W v4.00 Oryx Data Collector v3.7.2.0data status	okinstallation	princeton_trtdifferential loss correction	single-endedforward channel	channel 3reverse channel	N/Adate	2019/09/14time	08:56:35forward acquisition time	60.00reverse acquisition time	0.00gamma	496.2192k internal	0.2325k external	0.2325temperature offset calibration	1.0052default loss term (dB/km)	0.3790temperature slope calibration	1.0000multiplexer offset coefficient	1.0000multiplexer slope coefficient	1.0000fibre end	0.00T internal ref (°C)	29.69T ext. ref 1 (°C)	3.72T ext. ref 2 (°C)	27.81length (m)	temperature (°C)	Stokes	anti-Stokes-747.200	-200.000	-0.025	0.288
-746.185	-91.760	-0.338	0.097
-745.171	-129.706	-0.159	0.022
-744.156	152.971	0.165	0.227
-743.142	474.410	0.076	0.173
-742.127	602.644	0.149	-0.375
-741.112	-55.525	-0.366	0.166
-740.098	-13.913	0.136	0.089
-739.083	-200.000	0.013	0.065
-738.069	35.581	0.272	0.241
-737.054	-28.103	-0.038	0.022
-736.039	-200.000	-0.004	-0.155
-735.025	-21.349	0.231	0.142
-734.010	800.000	0.055	-0.156
-732.996	-200.000	-0.035	-0.311
-731.981	-200.000	-0.022	-0.128
-730.966	-43.787	-0.522	-0.265
-729.952	-84.181	-0.054	0.017
-728.937	-200.000	0.082	-0.402
-727.923	12.619	-0.140	-0.109
-726.908	201.107	-0.055	-0.086
-725.894	-200.000	0.009	-0.474
-724.879	-43.794	-0.166	-0.084
-723.864	151.010	0.053	0.073
-722.850	518.510	-0.128	-0.301
-721.835	-110.180	0.083	0.017
-720.821	34.234	-0.356	-0.313
-719.806	-192.226	0.216	0.002
-718.791	-147.306	-0.111	0.010
-717.777	800.000	-0.070	-0.256
-716.762	130.703	-0.121	-0.156
-715.748	255.693	0.203	0.351
-714.733	368.390	-0.125	0.255
-713.718	-108.044	0.141	-0.031
-712.704	63.403	0.274	-0.277
-711.689	128.225	-0.174	-0.223
-710.675	144.166	0.160	-0.215
-709.660	-139.570	-0.171	0.018
-708.645	-200.000	0.195	-0.000
-707.631	694.308	-0.094	-0.250
-706.616	-200.000	0.035	-0.200
-705.602	-200.000	-0.018	-0.097
-704.587	323.632	-0.142	-0.273
-703.572	111.938	-0.086	-0.105
-702.558	-33.717	-0.300	0.167
-701.543	-200.000	-0.081	-0.423
-700.529	-131.036	-0.076	0.010
-699.514	-102.872	-0.328	-0.079
-698.499	342.551	0.123	-0.242
-697.485	43.234	-0.269	-0.247
-696.470	109.988	-0.090	0.108
-695.456	290.089	0.147	0.268
-694.441	-105.401	-0.038	0.009
-693.426	-117.592	0.247	-0.045
-692.412	-144.749	-0.242	-0.022
-691.397	-103.332	-0.369	0.088
-690.383	-200.000	-0.013	-0.313
-689.368	-200.000	0.064	-0.488
-688.354	12.022	-0.176	0.136
-687.339	-45.328	-0.333	0.166
-686.324	-84.750	-0.359	0.114
-685.310	-111.307	-0.146	-0.030
-684.295	-95.381	-0.279	0.076
-683.281	0.718	-0.143	-0.103
-682.266	800.000	0.020	0.056
-681.251	-200.000	-0.024	0.226
-680.237	3.603	-0.303	0.222
-679.222	-52.772	-0.220	-0.102
-678.208	800.000	-0.018	0.051
-677.193	112.224	0.179	0.218
-676.178	319.972	-0.046	-0.087
-675.164	-125.503	-0.295	-0.045
-674.149	-97.547	0.044	-0.011
-673.135	-200.000	0.002	0.071
-672.120	-42.493	-0.134	-0.069
-671.105	800.000	0.098	-0.391
-670.091	-200.000	0.013	-0.090
-669.076	-200.000	0.009	0.206
-668.062	-200.000	-0.058	-0.345
-667.047	560.617	0.182	-0.442
-666.032	461.301	-0.063	0.141
-665.018	28.848	0.144	-0.123
-664.003	-200.000	-0.026	-0.372
-662.989	107.212	-0.169	0.202
-661.974	86.281	-0.128	-0.142
-660.959	723.102	0.071	0.191
-659.945	-66.710	0.075	0.030
-658.930	-200.000	-0.026	-0.300
-657.916	80.778	-0.177	-0.192
-656.901	800.000	0.037	-0.128
-655.886	99.157	-0.175	-0.204
-654.872	-200.000	-0.126	-0.000
-653.857	-33.920	-0.125	0.069
-652.843	-200.000	0.009	0.074
-651.828	273.954	-0.061	-0.109
-650.814	83.975	0.109	-0.119
-649.799	-76.203	-0.020	0.007
-648.784	31.053	0.141	-0.122
-647.770	-200.000	-0.027	0.218
-646.755	-107.714	0.308	0.068
-645.741	220.032	-0.112	-0.181
-644.726	-200.000	-0.000	-0.144
-643.711	-33.093	-0.214	0.119
-642.697	437.770	0.086	0.189
-641.682	-123.544	-0.162	-0.026
-640.668	78.796	-0.465	-0.499
-639.653	-144.760	0.317	0.029
-638.638	571.709	-0.061	-0.149
-637.624	-200.000	0.032	0.143
-636.609	-98.285	-0.286	-0.074
-635.595	-200.000	-0.041	0.213
-634.580	-164.596	-0.199	-0.009
-633.565	133.070	-0.117	0.151
-632.551	-65.208	0.267	-0.108
-631.536	-89.774	0.084	0.025
-630.522	-121.672	0.225	-0.037
-629.507	-40.735	-0.157	0.082
-628.492	-31.345	0.096	0.054
-627.478	-200.000	-0.024	0.139
-626.463	120.391	0.155	0.193
-625.449	305.959	0.036	-0.067
-624.434	180.428	-0.037	0.054
-623.419	-52.360	-0.054	-0.025
-622.405	-19.097	0.085	-0.053
-621.390	40.344	0.183	0.165
-620.376	800.000	0.010	-0.040
-619.361	-42.547	-0.361	0.185
-618.346	-110.684	0.456	-0.095
-617.332	7.015	0.274	-0.205
-616.317	74.679	-0.111	-0.118
-615.303	357.394	-0.193	-0.387
-614.288	165.125	0.121	0.171
-613.273	22.633	0.211	-0.174
-612.259	800.000	0.048	-0.152
-611.244	17.566	-0.091	-0.072
-610.230	120.211	-0.030	0.037
-609.215	-200.000	-0.002	0.199
-608.201	-200.000	-0.009	-0.155
-607.186	72.547	-0.032	0.033
-606.171	390.230	-0.105	0.219
-605.157	571.093	-0.149	-0.364
-604.142	800.000	0.039	-0.136
-603.128	-200.000	0.078	-0.380
-602.113	-200.000	0.013	-0.147
-601.098	471.932	0.089	0.202
-600.084	-200.000	0.019	0.234
-599.069	-160.369	0.248	0.013
-598.055	-200.000	-0.063	-0.342
-597.040	-200.000	0.028	0.128
-596.025	-151.503	-0.381	0.028
-595.011	800.000	0.018	-0.064
-593.996	800.000	0.094	-0.293
-592.982	-6.190	0.137	-0.094
-591.967	46.960	0.254	0.237
-590.952	-16.707	-0.191	-0.121
-589.938	-120.044	0.205	-0.035
-588.923	4.336	-0.157	0.116
-587.909	-44.156	-0.075	0.038
-586.894	800.000	-0.114	0.386
-585.879	-2.831	-0.193	0.135
-584.865	-5.579	-0.050	0.034
-583.850	-55.026	-0.395	-0.179
-582.836	-200.000	0.027	-0.294
-581.821	717.227	-0.025	0.068
-580.806	-105.133	0.236	-0.054
-579.792	415.620	0.156	0.333
-578.777	-112.890	0.213	-0.042
-577.763	49.297	0.084	0.079
-576.748	-125.522	-0.219	0.033
-575.733	-200.000	0.007	0.233
-574.719	-159.097	-0.228	0.013
-573.704	-77.029	-0.247	0.086
-572.690	-116.837	0.068	0.012
-571.675	-200.000	0.001	-0.188
-570.661	-133.970	-0.052	-0.006
-569.646	140.338	-0.194	-0.257
-568.631	-128.155	0.328	0.047
-567.617	437.994	-0.113	-0.248
-566.602	-34.080	-0.172	-0.095
-565.588	-200.000	-0.013	0.147
-564.573	-88.263	-0.116	0.035
-563.558	-200.000	0.048	-0.259
-562.544	-27.755	0.091	0.053
-561.529	-21.851	-0.215	0.131
-560.515	105.964	-0.198	-0.235
-559.500	447.404	0.048	0.106
-558.485	198.768	-0.279	0.428
-557.471	-46.598	-0.255	0.125
-556.456	133.608	0.114	-0.148
-555.442	162.223	-0.222	-0.311
-554.427	-178.014	-0.303	-0.007
-553.412	526.945	0.159	0.376
-552.398	-55.082	-0.277	-0.125
-551.383	800.000	-0.057	-0.157
-550.369	78.035	-0.202	-0.215
-549.354	73.156	-0.111	0.117
-548.339	800.000	0.092	0.368
-547.325	800.000	-0.061	0.242
-546.310	218.450	-0.131	-0.210
-545.296	204.902	-0.065	-0.101
-544.281	13.881	0.048	-0.037
-543.266	-200.000	0.012	-0.110
-542.252	-141.359	0.109	-0.011
-541.237	211.522	0.104	-0.164
-540.223	-157.439	0.297	-0.018
-539.208	-107.476	0.064	0.014
-538.193	-98.820	0.164	-0.042
-537.179	-200.000	-0.026	0.185
-536.164	-200.000	-0.009	-0.309
-535.150	35.937	0.229	0.202
-534.135	-200.000	0.000	-0.026
-533.121	-78.818	-0.172	-0.059
-532.106	-118.953	0.281	-0.049
-531.091	-153.601	0.249	0.017
-530.077	449.807	-0.053	0.117
-529.062	565.601	0.081	0.197
-528.048	-129.967	-0.100	0.014
-527.033	90.223	0.072	-0.081
-526.018	731.529	0.027	0.073
-525.004	-0.377	0.127	0.090
-523.989	36.131	-0.093	-0.082
-522.975	-120.348	0.078	-0.013
-521.960	-73.695	-0.530	0.193
-520.945	286.115	-0.118	0.213
-519.931	714.523	-0.052	-0.138
-518.916	-165.786	-0.413	-0.018
-517.902	-98.183	0.180	0.046
-516.887	71.974	-0.235	-0.245
-515.872	-82.474	-0.140	0.045
-514.858	-86.296	-0.424	0.131
-513.843	-119.969	-0.065	0.011
-512.829	-19.187	-0.393	-0.244
-511.814	-3.012	-0.358	-0.250
-510.799	800.000	-0.037	0.147
-509.785	800.000	-0.048	-0.179
-508.770	-123.199	0.136	-0.022
-507.756	477.961	0.103	-0.234
-506.741	197.400	-0.043	-0.066
-505.726	-86.955	0.289	-0.088
-504.712	174.195	-0.227	-0.328
-503.697	-200.000	0.005	-0.094
-502.683	1.569	-0.090	-0.065
-501.668	-128.496	0.198	0.028
-500.653	800.000	-0.016	-0.068
-499.639	-17.856	0.295	0.185
-498.624	762.913	0.061	0.165
-497.610	-200.000	0.056	-0.332
-496.595	604.487	0.039	-0.098
-495.581	800.000	-0.068	0.206
-494.566	-104.664	0.085	-0.020
-493.551	-200.000	0.017	-0.112
-492.537	104.166	0.135	0.159
-491.522	-12.664	0.109	-0.071
-490.508	-107.030	-0.279	0.062
-489.493	800.000	0.130	0.407
-488.478	131.255	0.151	-0.194
-487.464	800.000	0.031	0.119
-486.449	-30.425	0.337	-0.191
-485.435	257.467	-0.224	-0.385
-484.420	-136.744	0.346	-0.040
-483.405	-107.442	-0.177	-0.039
-482.391	16.127	0.229	0.180
-481.376	254.154	0.091	-0.156
-480.362	63.433	-0.189	0.190
-479.347	-109.241	0.122	-0.026
-478.332	431.357	0.069	0.150
-477.318	124.227	0.103	-0.129
-476.303	129.904	-0.063	-0.081
-475.289	-127.396	0.013	-0.002
-474.274	-200.000	-0.049	0.367
-473.259	-200.000	0.010	0.275
-472.245	110.177	-0.027	0.032
-471.230	87.273	-0.110	0.121
-470.216	-200.000	0.014	0.267
-469.201	-200.000	-0.004	0.196
-468.186	-151.871	-0.219	-0.016
-467.172	800.000	0.057	0.212
-466.157	-52.861	0.065	0.030
-465.143	-76.147	-0.017	0.006
-464.128	589.939	0.071	-0.175
-463.113	374.237	-0.132	-0.268
-462.099	-160.947	0.220	-0.012
-461.084	134.841	-0.180	-0.233
-460.070	-8.871	0.007	0.005
-459.055	-76.787	-0.210	-0.074
-458.040	-36.936	0.135	-0.072
-457.026	-200.000	-0.028	-0.321
-456.011	-141.226	0.260	-0.026
-454.997	513.215	0.037	0.085
-453.982	-28.366	-0.228	-0.132
-452.968	517.818	-0.061	0.143
-451.953	-69.354	0.192	-0.074
-450.938	-113.133	0.287	-0.056
-449.924	-19.751	-0.252	0.155
-448.909	-140.267	-0.240	-0.025
-447.895	-200.000	0.050	-0.267
-446.880	-165.561	0.090	0.004
-445.865	483.854	0.140	0.318
-444.851	-200.000	-0.052	-0.362
-443.836	-81.748	0.104	0.034
-442.822	-78.736	0.074	-0.025
-441.807	-130.578	-0.327	-0.044
-440.792	136.395	-0.049	0.064
-439.778	112.863	0.037	0.044
-438.763	150.042	-0.108	0.146
-437.749	-27.400	0.243	-0.141
-436.734	158.404	0.061	0.084
-435.719	-91.073	0.342	0.098
-434.705	79.380	0.099	-0.106
-433.690	175.487	-0.024	0.035
-432.676	-32.538	0.152	0.085
-431.661	-200.000	-0.013	-0.070
-430.646	318.130	0.156	-0.294
-429.632	-141.604	-0.402	0.040
-428.617	294.242	-0.111	0.201
-427.603	216.807	-0.252	-0.399
-426.588	-200.000	-0.036	0.342
-425.573	273.831	-0.093	-0.163
-424.559	62.772	-0.226	0.226
-423.544	-121.058	0.078	0.013
-422.530	-200.000	-0.014	0.118
-421.515	254.501	0.021	-0.036
-420.500	199.244	0.149	-0.227
-419.486	-200.000	0.014	0.257
-418.471	-103.527	-0.076	0.018
-417.457	-94.239	-0.245	0.067
-416.442	-200.000	0.002	-0.118
-415.428	55.476	0.018	-0.017
-414.413	2.739	-0.409	0.295
-413.398	-101.407	0.134	0.033
-412.384	1.674	0.216	-0.155
-411.369	-32.341	0.233	0.130
-410.355	206.943	0.074	0.115
-409.340	10.737	-0.418	-0.318
-408.325	358.496	-0.125	0.250
-407.311	337.653	-0.099	-0.191
-406.296	-159.217	0.195	-0.011
-405.282	-34.364	0.067	-0.037
-404.267	-42.447	0.515	-0.262
-403.252	229.130	0.165	0.267
-402.238	-200.000	0.033	-0.155
-401.223	-46.479	-0.187	-0.091
-400.209	-125.107	0.265	0.041
-399.194	4.923	-0.220	-0.161
-398.179	361.526	-0.095	-0.190
-397.165	-200.000	0.010	0.179
-396.150	-198.607	-0.311	-0.002
-395.136	-43.918	0.088	-0.044
-394.121	628.738	-0.149	0.374
-393.106	219.633	0.119	0.190
-392.092	507.549	0.053	0.123
-391.077	-1.793	0.135	-0.095
-390.063	-163.840	0.139	-0.006
-389.048	-75.674	0.123	0.043
-388.033	-200.000	-0.042	-0.371
-387.019	-28.376	-0.109	0.063
-386.004	-94.593	0.092	0.025
-384.990	489.301	0.147	0.334
-383.975	800.000	0.048	0.190
-382.960	738.124	0.085	-0.226
-381.946	-200.000	-0.076	-0.348
-380.931	-61.768	-0.246	0.102
-379.917	48.884	0.069	-0.065
-378.902	57.233	-0.235	-0.229
-377.888	-200.000	0.009	-0.106
-376.873	-61.220	0.120	-0.050
-375.858	-200.000	0.033	-0.225
-374.844	-200.000	0.008	0.282
-373.829	-95.408	-0.269	0.072
-372.815	-8.527	-0.230	-0.154
-371.800	300.529	-0.052	0.096
-370.785	40.418	-0.176	-0.158
-369.771	-144.547	-0.099	0.009
-368.756	-100.187	-0.502	0.124
-367.742	-134.302	0.256	-0.031
-366.727	448.541	-0.094	0.206
-365.712	-65.947	0.254	-0.101
-364.698	-12.874	-0.302	0.196
-363.683	781.626	-0.106	-0.289
-362.669	58.315	-0.168	-0.164
-361.654	-200.000	0.035	0.187
-360.639	-152.151	-0.290	-0.021
-359.625	21.875	-0.171	0.139
-358.610	-200.000	0.025	0.179
-357.596	1.002	-0.222	-0.158
-356.581	19.194	-0.033	-0.026
-355.566	-188.215	0.091	-0.001
-354.552	-48.724	0.076	0.036
-353.537	-200.000	0.037	0.500
-352.523	-134.741	0.468	0.056
-351.508	184.325	-0.087	0.128
-350.493	80.015	0.080	-0.085
-349.479	-93.641	0.183	-0.050
-348.464	-63.302	0.323	0.132
-347.450	103.957	-0.189	-0.220
-346.435	-200.000	-0.006	-0.051
-345.420	-67.800	0.102	-0.040
-344.406	80.273	0.066	0.070
-343.391	-85.732	0.038	-0.012
-342.377	-200.000	-0.030	0.235
-341.362	800.000	-0.058	-0.180
-340.348	297.797	0.208	-0.379
-339.333	800.000	-0.045	0.166
-338.318	-200.000	0.003	0.549
-337.304	800.000	0.077	-0.268
-336.289	10.261	0.122	0.092
-335.275	-109.492	-0.206	0.043
-334.260	547.026	0.060	0.143
-333.245	-23.342	-0.090	0.054
-332.231	-87.921	0.210	-0.063
-331.216	172.812	0.119	0.170
-330.202	376.859	0.110	0.222
-329.187	-34.586	0.088	-0.048
-328.172	733.963	0.129	0.342
-327.158	-200.000	0.074	-0.346
-326.143	0.972	0.103	0.073
-325.129	93.573	0.127	-0.142
-324.114	800.000	-0.102	0.282
-323.099	104.023	0.155	0.181
-322.085	-181.993	0.197	-0.004
-321.070	-112.691	-0.215	0.042
-320.056	700.093	0.081	0.212
-319.041	-36.297	-0.136	-0.073
-318.026	-200.000	-0.003	-0.309
-317.012	-66.454	-0.211	-0.083
-315.997	23.342	0.233	-0.190
-314.983	800.000	-0.095	0.271
-313.968	101.389	0.136	0.157
-312.953	-68.561	0.121	0.046
-311.939	644.012	0.098	-0.248
-310.924	-128.069	-0.137	0.019
-309.910	1.138	-0.215	-0.153
-308.895	-88.375	0.118	0.035
-307.880	800.000	0.010	0.028
-306.866	77.896	-0.120	-0.127
-305.851	-42.945	-0.310	-0.156
-304.837	-21.786	-0.178	0.108
-303.822	263.310	0.180	0.311
-302.807	283.482	-0.156	-0.278
-301.793	192.867	-0.211	-0.316
-300.778	800.000	-0.041	0.166
-299.764	-137.473	0.064	-0.007
-298.749	-200.000	0.040	0.308
-297.735	-200.000	0.000	0.158
-296.720	-101.130	-0.297	-0.072
-295.705	800.000	-0.068	-0.283
-294.691	23.527	-0.132	-0.108
-293.676	-40.001	-0.053	0.028
-292.662	800.000	0.015	-0.048
-291.647	21.989	0.041	-0.033
-290.632	41.352	-0.143	0.129
-289.618	462.976	-0.046	-0.101
-288.603	112.980	0.100	0.120
-287.589	467.402	0.148	0.328
-286.574	-35.696	0.362	-0.194
-285.559	97.246	0.072	-0.082
-284.545	-173.664	0.169	-0.005
-283.530	-200.000	0.015	-0.208
-282.516	174.785	0.142	0.203
-281.501	-68.192	0.514	-0.198
-280.486	-177.963	-0.218	-0.005
-279.472	654.116	0.092	0.233
-278.457	-153.875	-0.186	-0.013
-277.443	800.000	0.052	-0.185
-276.428	-184.442	0.227	-0.004
-275.413	-200.000	0.102	-0.459
-274.399	-200.000	-0.016	-0.275
-273.384	-23.656	-0.074	-0.044
-272.370	800.000	-0.037	0.104
-271.355	-94.876	0.193	0.052
-270.340	-151.011	-0.086	0.006
-269.326	53.608	0.085	0.081
-268.311	162.262	-0.042	0.058
-267.297	131.115	-0.053	-0.067
-266.282	303.638	0.193	0.355
-265.267	-200.000	-0.033	0.148
-264.253	-169.046	0.160	-0.006
-263.238	17.463	0.061	-0.048
-262.224	-15.543	0.204	0.129
-261.209	800.000	0.016	-0.062
-260.195	105.453	-0.317	-0.370
-259.180	151.163	-0.216	-0.291
-258.165	-138.013	0.234	0.026
-257.151	-176.459	-0.139	-0.004
-256.136	452.178	-0.087	-0.190
-255.122	800.000	0.061	-0.173
-254.107	770.161	0.051	0.137
-253.092	750.078	0.071	0.189
-252.078	-104.418	0.426	-0.098
-251.063	-200.000	0.034	0.345
-250.049	-200.000	0.004	-0.262
-249.034	-200.000	-0.002	0.255
-248.019	94.249	-0.106	-0.119
-247.005	-200.000	-0.045	0.196
-245.990	-80.162	0.299	-0.099
-244.976	671.602	-0.129	-0.331
-243.961	-112.927	0.108	-0.021
-242.946	-136.213	-0.203	0.023
-241.932	-107.368	0.187	-0.041
-240.917	67.107	0.207	-0.209
-239.903	91.316	0.118	0.131
-238.888	228.048	0.198	0.319
-237.873	-57.820	0.331	0.143
-236.859	-200.000	0.008	0.209
-235.844	-200.000	-0.003	-0.131
-234.830	173.533	-0.012	0.017
-233.815	-171.903	-0.153	0.005
-232.800	-34.377	0.222	-0.120
-231.786	-162.085	0.153	0.008
-230.771	171.671	0.150	0.212
-229.757	31.214	-0.300	0.255
-228.742	-69.519	0.179	-0.068
-227.727	-52.269	0.166	-0.076
-226.713	-121.442	-0.113	0.019
-225.698	33.712	0.171	0.147
-224.684	290.774	0.150	0.270
-223.669	63.612	0.150	0.149
-222.655	-30.643	-0.112	-0.063
-221.640	-153.420	-0.160	0.011
-220.625	-115.616	0.085	0.016
-219.611	211.456	0.067	0.104
-218.596	-3.064	-0.299	-0.206
-217.582	73.435	0.156	0.162
-216.567	75.775	0.258	-0.270
-215.552	-143.160	-0.179	-0.017
-214.538	541.658	0.134	0.316
-213.523	-200.000	-0.057	0.307
-212.509	60.072	-0.221	0.216
-211.494	715.377	0.043	0.112
-210.479	-200.000	0.033	-0.339
-209.465	117.091	0.165	0.200
-208.450	-200.000	-0.024	0.128
-207.436	81.306	-0.099	0.105
-206.421	141.124	0.103	-0.134
-205.406	35.693	-0.116	0.101
-204.392	-40.875	-0.288	-0.147
-203.377	729.067	0.142	-0.376
-202.363	-200.000	0.053	-0.470
-201.348	-200.000	0.032	0.243
-200.333	151.525	-0.038	-0.052
-199.319	235.119	-0.211	-0.344
-198.304	800.000	0.046	0.131
-197.290	-157.864	-0.207	-0.012
-196.275	-200.000	-0.039	-0.182
-195.260	59.149	0.122	-0.119
-194.246	163.204	0.076	0.105
-193.231	-200.000	-0.014	0.215
-192.217	-124.551	0.216	0.033
-191.202	56.685	-0.345	-0.332
-190.187	286.511	0.061	-0.109
-189.173	-78.887	0.240	-0.081
-188.158	-200.000	0.011	0.089
-187.144	-61.407	0.077	0.032
-186.129	-200.000	-0.017	0.177
-185.114	181.587	-0.082	0.119
-184.100	-79.327	-0.165	0.055
-183.085	-200.000	0.030	-0.263
-182.071	800.000	-0.100	-0.295
-181.056	171.140	0.086	0.121
-180.042	-200.000	0.000	0.108
-179.027	25.017	-0.169	0.139
-178.012	132.697	0.144	-0.184
-176.998	259.553	0.141	0.240
-175.983	169.309	0.081	-0.114
-174.969	-200.000	0.025	0.396
-173.954	253.695	-0.154	0.260
-172.939	11.757	-0.153	-0.116
-171.925	16.369	-0.204	-0.159
-170.910	-104.428	-0.055	-0.013
-169.896	345.783	0.028	0.055
-168.881	7.226	0.342	0.252
-167.866	108.459	-0.178	0.210
-166.852	-200.000	0.028	0.440
-165.837	800.000	-0.016	0.057
-164.823	144.068	0.167	0.219
-163.808	40.115	-0.260	0.230
-162.793	4.284	0.183	-0.132
-161.779	-39.907	0.153	-0.079
-160.764	84.613	0.224	-0.241
-159.750	512.759	0.013	0.030
-158.735	-73.267	-0.221	0.080
-157.720	208.743	-0.167	-0.258
-156.706	22.078	-0.057	-0.045
-155.691	-200.000	0.003	-0.158
-154.677	-72.232	-0.183	0.067
-153.662	-7.255	0.213	0.142
-152.647	292.783	-0.103	-0.185
-151.633	-115.339	-0.040	-0.007
-150.618	107.238	0.122	-0.144
-149.604	280.621	0.121	-0.214
-148.589	26.424	-0.094	-0.078
-147.574	800.000	-0.116	0.319
-146.560	127.003	-0.034	0.043
-145.545	312.652	0.198	0.367
-144.531	-68.106	-0.062	-0.024
-143.516	-200.000	-0.189	-0.001
-142.502	-200.000	-0.030	0.252
-141.487	800.000	0.150	0.453
-140.472	388.245	-0.124	0.253
-139.458	800.000	0.043	-0.139
-138.443	-137.369	0.249	-0.028
-137.429	77.958	0.169	0.178
-136.414	82.802	-0.070	-0.075
-135.399	-109.501	-0.344	0.072
-134.385	212.446	0.169	0.262
-133.370	800.000	0.067	-0.213
-132.356	-135.213	0.164	-0.019
-131.341	169.620	-0.134	0.188
-130.326	-200.000	0.000	0.101
-129.312	-116.383	-0.061	0.011
-128.297	-200.000	-0.026	0.191
-127.283	591.256	0.064	-0.155
-126.268	-200.000	-0.008	-0.156
-125.253	32.533	0.149	-0.127
-124.239	-200.000	-0.074	-0.325
-123.224	-120.264	0.263	0.044
-122.210	-59.661	-0.105	-0.044
