DTS Sentinel unit serial number:	SN413079Multiplexer serial number:	ORYXHardware model number:	OX4-SRSoftware version number:	ORYX F/W v4.00 Oryx Data Collector v3.7.2.0data status	okinstallation	princeton_trtdifferential loss correction	single-endedforward channel	channel 3reverse channel	N/Adate	2019/09/17time	09:44:35forward acquisition time	60.00reverse acquisition time	0.00gamma	496.2192k internal	0.2324k external	0.2324temperature offset calibration	0.9938default loss term (dB/km)	0.3790temperature slope calibration	1.0000multiplexer offset coefficient	1.0000multiplexer slope coefficient	1.0000fibre end	0.00T internal ref (°C)	29.31T ext. ref 1 (°C)	0.16T ext. ref 2 (°C)	25.44length (m)	temperature (°C)	Stokes	anti-Stokes-747.200	-9.767	-0.145	-0.098
-746.185	78.917	0.212	-0.229
-745.171	-75.773	0.114	-0.041
-744.156	-86.138	-0.028	0.009
-743.142	-15.699	-0.041	0.027
-742.127	-21.317	-0.146	0.090
-741.112	-55.724	-0.350	-0.158
-740.098	108.207	-0.101	-0.122
-739.083	-52.424	0.048	-0.022
-738.069	566.684	0.058	-0.142
-737.054	395.905	-0.130	-0.274
-736.039	-74.708	-0.231	0.084
-735.025	-200.000	0.045	0.249
-734.010	-45.885	-0.286	-0.142
-732.996	26.389	-0.054	-0.046
-731.981	14.404	-0.168	-0.132
-730.966	-73.226	-0.290	-0.107
-729.952	-70.172	-0.369	-0.141
-728.937	-161.435	-0.049	-0.003
-727.923	-200.000	-0.044	-0.247
-726.908	102.537	0.094	0.111
-725.894	295.933	0.147	-0.273
-724.879	800.000	0.058	0.231
-723.864	-94.114	-0.079	-0.022
-722.850	800.000	-0.125	0.360
-721.835	83.525	-0.200	0.220
-720.821	-17.825	-0.191	-0.121
-719.806	299.735	-0.170	-0.316
-718.791	46.152	-0.221	-0.207
-717.777	800.000	0.022	0.067
-716.762	625.752	-0.111	-0.283
-715.748	95.339	-0.361	-0.415
-714.733	369.040	0.100	0.204
-713.718	774.351	0.045	-0.125
-712.704	-200.000	-0.018	0.184
-711.689	-42.940	-0.219	-0.112
-710.675	-200.000	-0.033	0.188
-709.660	-109.590	0.259	0.055
-708.645	-129.471	-0.167	0.023
-707.631	800.000	0.040	-0.175
-706.616	-13.366	0.196	-0.128
-705.602	690.298	-0.082	-0.216
-704.587	-200.000	-0.056	-0.325
-703.572	800.000	0.059	-0.192
-702.558	189.090	0.124	-0.187
-701.543	-198.101	0.097	-0.001
-700.529	63.840	0.036	0.036
-699.514	-67.967	-0.174	-0.068
-698.499	-167.703	0.160	-0.006
-697.485	-182.086	-0.194	-0.004
-696.470	558.177	-0.084	0.203
-695.456	-200.000	-0.049	0.266
-694.441	-200.000	0.007	0.194
-693.426	29.518	-0.274	0.235
-692.412	49.961	-0.193	0.184
-691.397	800.000	-0.072	-0.297
-690.383	-75.106	-0.247	-0.089
-689.368	69.837	0.133	0.138
-688.354	-148.301	0.074	-0.006
-687.339	-64.292	-0.069	-0.028
-686.324	186.750	0.172	-0.259
-685.310	-84.176	-0.321	-0.103
-684.295	319.062	0.125	-0.238
-683.281	553.345	-0.114	0.275
-682.266	800.000	-0.036	-0.109
-681.251	-200.000	0.055	0.318
-680.237	552.094	0.159	0.384
-679.222	-26.505	-0.048	-0.028
-678.208	126.310	-0.087	-0.110
-677.193	-200.000	0.002	-0.126
-676.178	-200.000	0.022	0.130
-675.164	-200.000	0.017	0.106
-674.149	114.937	0.123	-0.151
-673.135	-38.645	-0.252	0.134
-672.120	69.678	-0.310	0.322
-671.105	-157.405	0.220	0.013
-670.091	-175.227	0.180	0.005
-669.076	203.132	-0.107	-0.167
-668.062	-51.523	-0.084	-0.039
-667.047	-184.071	0.063	0.001
-666.032	86.075	0.070	0.078
-665.018	800.000	-0.039	0.170
-664.003	-200.000	0.003	-0.339
-662.989	800.000	0.051	-0.171
-661.974	-200.000	0.000	-0.228
-660.959	25.636	-0.165	0.138
-659.945	157.830	-0.204	-0.284
-658.930	-15.800	-0.392	0.251
-657.916	175.391	0.085	-0.124
-656.901	688.176	0.082	0.215
-655.886	-189.252	0.122	0.001
-654.872	-200.000	0.006	0.119
-653.857	-71.416	-0.254	-0.096
-652.843	-200.000	-0.407	-0.001
-651.828	-95.929	0.215	0.058
-650.814	-80.477	-0.237	0.080
-649.799	18.069	0.218	-0.175
-648.784	143.572	-0.179	-0.240
-647.770	84.613	-0.064	-0.071
-646.755	-11.437	0.201	-0.133
-645.741	-151.800	-0.383	0.028
-644.726	-25.933	0.080	-0.047
-643.711	-200.000	0.002	-0.249
-642.697	41.354	0.018	0.017
-641.682	241.219	-0.107	-0.179
-640.668	-120.473	0.145	0.025
-639.653	-5.095	0.198	-0.137
-638.638	170.469	0.188	-0.270
-637.624	-111.093	-0.114	0.024
-636.609	47.405	0.220	-0.206
-635.595	343.914	0.029	0.057
-634.580	800.000	0.051	-0.169
-633.565	-200.000	0.002	-0.125
-632.551	448.567	0.152	-0.337
-631.536	800.000	0.066	0.262
-630.522	271.419	-0.061	-0.108
-629.507	-67.530	0.220	0.087
-628.492	448.754	0.162	0.359
-627.478	-140.090	-0.439	0.046
-626.463	-134.377	0.055	-0.007
-625.449	-134.174	0.260	-0.032
-624.434	42.434	-0.332	-0.304
-623.419	-200.000	0.015	-0.148
-622.405	-105.787	-0.214	0.049
-621.390	-199.760	0.140	0.001
-620.376	-200.000	-0.020	0.118
-619.361	-99.560	0.091	-0.023
-618.346	-200.000	-0.038	-0.288
-617.332	2.689	0.026	0.019
-616.317	-70.789	0.367	0.139
-615.303	509.104	-0.019	0.044
-614.288	-73.770	0.115	-0.042
-613.273	-53.325	-0.183	0.085
-612.259	-75.328	0.335	0.120
-611.244	163.096	-0.080	-0.112
-610.230	117.524	0.238	-0.294
-609.215	-121.464	-0.399	-0.067
-608.201	-69.363	-0.076	-0.029
-607.186	103.842	-0.121	0.142
-606.171	-81.256	0.015	-0.005
-605.157	-95.988	-0.057	-0.015
-604.142	250.815	-0.069	-0.118
-603.128	-87.266	-0.071	-0.022
-602.113	-96.226	-0.120	-0.032
-601.098	-62.609	-0.093	0.039
-600.084	-143.188	-0.348	-0.034
-599.069	-110.269	0.214	-0.045
-598.055	307.178	-0.125	0.235
-597.040	-151.801	0.159	-0.012
-596.025	4.129	0.315	-0.231
-595.011	-166.779	0.010	0.000
-593.996	359.204	-0.058	0.116
-592.982	-200.000	0.005	-0.118
-591.967	-200.000	0.018	0.148
-590.952	40.067	0.104	-0.093
-589.938	-34.142	0.289	-0.159
-588.923	-131.360	0.222	0.029
-587.909	-200.000	0.054	-0.288
-586.894	800.000	0.040	-0.131
-585.879	157.538	0.217	0.302
-584.865	77.378	-0.226	-0.242
-583.850	-83.597	0.192	0.062
-582.836	34.027	-0.105	0.092
-581.821	800.000	-0.095	-0.322
-580.806	-20.277	0.259	-0.160
-579.792	37.015	-0.052	0.046
-578.777	752.590	0.028	-0.075
-577.763	-200.000	0.067	0.311
-576.748	604.392	-0.165	0.411
-575.733	759.141	-0.084	0.227
-574.719	77.865	0.115	-0.123
-573.704	-121.675	-0.135	-0.022
-572.690	-123.791	0.238	-0.038
-571.675	532.822	0.082	0.194
-570.661	490.266	0.116	-0.266
-569.646	-4.204	0.070	-0.049
-568.631	-1.054	-0.043	-0.030
-567.617	79.467	-0.081	0.087
-566.602	159.617	0.071	-0.099
-565.588	-200.000	-0.066	0.304
-564.573	-90.268	-0.106	0.031
-563.558	-194.835	0.326	0.003
-562.544	-156.221	-0.195	0.012
-561.529	800.000	-0.072	-0.308
-560.515	-22.921	-0.168	-0.102
-559.500	711.511	-0.073	-0.194
-558.485	800.000	0.057	-0.202
-557.471	-17.526	-0.142	0.089
-556.456	87.517	0.179	0.199
-555.442	-157.490	-0.431	-0.026
-554.427	368.686	0.131	-0.266
-553.412	522.974	0.077	-0.182
-552.398	610.714	-0.127	-0.317
-551.383	-43.491	0.314	-0.159
-550.369	-79.465	-0.111	0.037
-549.354	-98.511	0.140	0.036
-548.339	198.837	-0.116	-0.178
-547.325	-77.589	0.256	-0.089
-546.310	-28.336	0.159	0.092
-545.296	-200.000	0.024	-0.392
-544.281	-171.660	-0.304	0.010
-543.266	124.662	0.225	0.284
-542.252	800.000	-0.064	0.189
-541.237	-49.468	0.201	0.096
-540.223	-200.000	-0.037	-0.339
-539.208	-52.253	-0.113	0.053
-538.193	-38.558	-0.091	-0.048
-537.179	-200.000	0.006	0.164
-536.164	374.994	0.239	-0.488
-535.150	-49.529	-0.244	0.116
-534.135	800.000	0.058	0.225
-533.121	-110.816	-0.170	-0.035
-532.106	204.516	-0.200	0.310
-531.091	-127.689	-0.205	-0.030
-530.077	-33.235	0.279	0.154
-529.062	-60.490	-0.187	-0.079
-528.048	673.299	0.145	-0.375
-527.033	-200.000	-0.005	0.392
-526.018	-130.399	-0.226	-0.031
-525.004	362.728	-0.169	-0.340
-523.989	98.596	0.115	-0.132
-522.975	-200.000	-0.016	0.136
-521.960	119.527	-0.150	-0.186
-520.945	-200.000	-0.024	-0.243
-519.931	-58.218	0.158	0.069
-518.916	-49.334	0.133	0.063
-517.902	-30.416	0.123	-0.070
-516.887	-43.083	-0.193	-0.098
-515.872	159.099	-0.225	0.313
-514.858	117.941	-0.052	0.065
-513.843	-200.000	-0.099	-0.455
-512.829	-49.104	-0.253	-0.121
-511.814	25.405	0.145	0.121
-510.799	31.640	0.211	0.181
-509.785	-132.963	-0.268	0.034
-508.770	-164.583	0.228	-0.010
-507.756	-8.990	-0.169	-0.113
-506.741	480.210	0.061	-0.138
-505.726	-200.000	0.014	-0.080
-504.712	96.328	0.265	-0.303
-503.697	680.843	-0.109	-0.284
-502.683	-123.716	-0.188	-0.030
-501.668	55.282	-0.106	0.103
-500.653	800.000	0.039	0.168
-499.639	800.000	-0.115	-0.330
-498.624	-200.000	0.008	0.417
-497.610	184.035	-0.124	-0.184
-496.595	59.236	0.109	-0.108
-495.581	538.359	-0.043	0.103
-494.566	280.395	-0.163	0.291
-493.551	-95.573	-0.142	-0.038
-492.537	-80.238	-0.356	0.119
-491.522	48.207	-0.166	0.155
-490.508	-73.821	-0.171	-0.062
-489.493	29.262	0.147	-0.125
-488.478	-200.000	0.047	-0.274
-487.464	72.454	0.241	-0.252
-486.449	104.498	-0.198	-0.233
-485.435	-113.590	0.119	-0.023
-484.420	190.048	-0.173	-0.259
-483.405	-200.000	0.017	0.405
-482.391	602.603	-0.117	-0.291
-481.376	32.716	-0.180	0.156
-480.362	-78.197	0.112	0.039
-479.347	87.173	0.147	-0.162
-478.332	263.054	-0.205	-0.356
-477.318	-59.233	-0.067	0.029
-476.303	-58.991	0.246	0.106
-475.289	-92.751	0.291	-0.081
-474.274	141.602	-0.056	-0.074
-473.259	-109.372	-0.166	-0.035
-472.245	62.887	0.077	0.077
-471.230	425.289	-0.110	0.237
-470.216	450.116	0.088	0.195
-469.201	-200.000	-0.075	0.372
-468.186	23.133	-0.205	0.168
-467.172	-87.709	-0.229	-0.069
-466.157	631.803	0.041	0.103
-465.143	-200.000	0.034	0.171
-464.128	-200.000	-0.069	0.474
-463.113	800.000	-0.056	-0.167
-462.099	6.031	-0.065	0.048
-461.084	-200.000	-0.071	-0.335
-460.070	90.003	-0.200	0.224
-459.055	253.424	-0.009	0.015
-458.040	244.255	0.080	0.133
-457.026	208.659	-0.118	-0.184
-456.011	24.387	0.095	-0.079
-454.997	-200.000	-0.037	0.278
-453.982	423.295	-0.193	-0.415
-452.968	-200.000	-0.067	0.310
-451.953	-68.215	-0.241	-0.093
-450.938	-200.000	-0.025	-0.180
-449.924	69.112	-0.127	0.131
-448.909	-75.859	0.363	0.128
-447.895	91.961	-0.363	0.408
-446.880	-200.000	0.013	-0.132
-445.865	5.166	-0.170	-0.125
-444.851	-57.027	0.253	-0.111
-443.836	-108.346	0.275	-0.059
-442.822	419.262	0.067	0.144
-441.807	-36.670	0.271	-0.145
-440.792	-110.043	-0.133	0.028
-439.778	-115.923	-0.179	-0.033
-438.763	-39.863	0.062	-0.033
-437.749	-53.634	0.118	0.054
-436.734	-145.082	-0.443	-0.040
-435.719	316.125	-0.068	0.128
-434.705	-51.645	0.019	0.009
-433.690	-68.559	0.031	0.012
-432.676	-144.193	-0.210	0.020
-431.661	-129.368	-0.062	-0.009
-430.646	6.227	0.158	-0.117
-429.632	800.000	-0.027	-0.098
-428.617	-69.329	-0.137	0.052
-427.603	7.941	0.388	0.290
-426.588	434.645	0.083	0.179
-425.573	166.518	0.142	0.200
-424.559	236.693	-0.259	-0.427
-423.544	-78.803	0.296	0.101
-422.530	-64.835	0.242	-0.098
-421.515	159.600	0.350	-0.486
-420.500	442.835	-0.037	-0.080
-419.486	130.696	-0.034	-0.043
-418.471	492.524	0.034	0.078
-417.457	-175.515	-0.121	0.003
-416.442	192.638	-0.139	0.210
-415.428	-200.000	-0.012	0.109
-414.413	-200.000	0.003	-0.119
-413.398	375.314	0.246	0.499
-412.384	800.000	0.091	0.362
-411.369	800.000	-0.036	-0.132
-410.355	800.000	0.035	0.123
-409.340	446.385	0.112	0.244
-408.325	26.650	0.101	-0.084
-407.311	-145.084	-0.250	-0.023
-406.296	-200.000	-0.058	0.324
-405.282	800.000	0.022	-0.092
-404.267	-200.000	-0.011	0.318
-403.252	-200.000	-0.008	0.092
-402.238	13.267	0.366	-0.282
-401.223	5.664	0.125	-0.092
-400.209	-41.827	0.025	-0.013
-399.194	-96.491	0.112	-0.029
-398.179	-98.011	0.166	-0.043
-397.165	141.127	-0.185	-0.243
-396.150	179.698	0.180	-0.262
-395.136	82.311	-0.076	0.082
-394.121	65.050	0.123	0.124
-393.106	86.677	-0.071	-0.078
-392.092	130.057	-0.144	0.184
-391.077	-200.000	0.011	0.096
-390.063	-200.000	0.014	-0.267
-389.048	-31.570	0.179	-0.100
-388.033	-200.000	0.079	-0.430
-387.019	192.874	0.105	-0.159
-386.004	42.258	0.088	0.080
-384.990	-200.000	0.051	-0.277
-383.975	-19.918	0.175	-0.108
-382.960	-27.689	-0.169	-0.098
-381.946	-200.000	0.031	-0.180
-380.931	94.793	0.106	0.120
-379.917	-200.000	0.013	-0.068
-378.902	-93.802	-0.328	0.090
-377.888	-143.438	-0.180	-0.017
-376.873	7.115	0.050	-0.037
-375.858	45.724	-0.036	0.033
-374.844	227.748	0.113	0.184
-373.829	800.000	-0.045	0.193
-372.815	-126.038	0.230	-0.034
-371.800	380.575	-0.017	-0.034
-370.785	50.297	-0.036	0.034
-369.771	-200.000	-0.003	-0.321
-368.756	-200.000	0.007	-0.111
-367.742	-84.087	0.287	-0.091
-366.727	302.587	0.090	-0.166
-365.712	-200.000	0.029	0.418
-364.698	178.871	-0.192	-0.279
-363.683	-23.909	-0.350	-0.209
-362.669	-200.000	0.022	-0.142
-361.654	39.693	-0.306	-0.273
-360.639	-37.603	0.032	0.017
-359.625	389.423	-0.108	0.222
-358.610	21.401	-0.238	0.193
-357.596	800.000	0.075	0.215
-356.581	70.279	-0.131	-0.134
-355.566	50.612	0.281	0.265
-354.552	-55.608	0.410	0.183
-353.537	48.088	-0.130	0.121
-352.523	245.129	-0.090	0.150
-351.508	-200.000	-0.010	0.302
-350.493	800.000	0.035	0.134
-349.479	25.534	-0.224	0.185
-348.464	589.850	-0.025	0.062
-347.450	441.919	-0.024	-0.052
-346.435	33.188	-0.296	-0.255
-345.420	-196.249	-0.263	-0.002
-344.406	392.295	-0.093	-0.191
-343.391	-16.092	-0.086	0.054
-342.377	-161.099	-0.266	0.014
-341.362	312.429	0.055	0.103
-340.348	-135.499	0.223	0.026
-339.333	28.889	0.129	-0.109
-338.318	-120.447	-0.139	-0.023
-337.304	-63.742	-0.332	0.135
-336.289	718.000	-0.084	0.221
-335.275	-107.871	0.338	0.073
-334.260	-38.201	-0.216	-0.114
-333.245	800.000	0.103	-0.342
-332.231	800.000	0.080	-0.344
-331.216	-200.000	-0.034	0.181
-330.202	-71.977	-0.335	0.124
-329.187	325.306	0.178	-0.337
-328.172	212.340	-0.201	-0.315
-327.158	800.000	-0.147	0.473
-326.143	19.820	0.181	-0.145
-325.129	47.083	-0.288	0.266
-324.114	-109.275	0.259	0.055
-323.099	266.349	0.275	0.477
-322.085	-200.000	0.022	0.149
-321.070	-98.860	0.290	-0.073
-320.056	-200.000	-0.038	-0.281
-319.041	167.734	0.195	-0.275
-318.026	-134.463	0.246	-0.030
-317.012	-2.180	-0.185	0.129
-315.997	-23.444	-0.250	0.149
-314.983	10.706	-0.100	-0.076
-313.968	-62.472	0.101	-0.042
-312.953	-83.577	-0.174	0.055
-311.939	-36.191	-0.236	-0.126
-310.924	114.883	0.186	0.225
-309.910	-200.000	0.061	0.391
-308.895	-200.000	-0.004	0.230
-307.880	334.257	-0.023	0.045
-306.866	48.013	0.185	-0.172
-305.851	508.425	-0.121	0.280
-304.837	-133.502	0.225	-0.028
-303.822	62.058	-0.126	-0.125
-302.807	-200.000	0.022	0.328
-301.793	-0.739	0.101	-0.071
-300.778	22.556	0.312	-0.253
-299.764	31.323	-0.298	-0.254
-298.749	354.693	-0.142	-0.280
-297.735	-63.392	-0.164	0.067
-296.720	139.195	0.138	0.180
-295.705	800.000	0.041	0.132
-294.691	-200.000	0.061	-0.376
-293.676	-70.730	-0.101	0.038
-292.662	-200.000	-0.061	0.347
-291.647	-145.043	0.107	-0.010
-290.632	800.000	-0.017	0.064
-289.618	251.329	0.113	0.190
-288.603	800.000	-0.037	-0.153
-287.589	53.058	0.267	0.253
-286.574	60.689	0.155	0.153
-285.559	-138.645	-0.156	0.017
-284.545	-200.000	-0.066	-0.332
-283.530	-12.388	-0.294	0.190
-282.516	34.757	0.154	0.133
-281.501	-200.000	-0.000	0.063
-280.486	219.604	-0.099	0.158
-279.472	56.781	-0.330	-0.319
-278.457	51.582	0.077	0.073
-277.443	-200.000	0.013	-0.137
-276.428	-130.133	0.087	-0.012
-275.413	-200.000	0.007	-0.096
-274.399	-153.177	-0.067	-0.005
-273.384	800.000	0.018	-0.063
-272.370	173.424	-0.047	-0.067
-271.355	96.482	-0.148	0.168
-270.340	129.482	-0.065	0.083
-269.326	138.164	0.077	0.100
-268.311	-93.889	-0.362	0.099
-267.297	-140.779	0.045	0.005
-266.282	-98.308	-0.283	0.072
-265.267	-200.000	0.022	0.200
-264.253	-18.655	-0.285	0.176
-263.238	-45.138	-0.210	-0.104
-262.224	53.855	0.018	0.017
-261.209	-20.267	-0.220	-0.134
-260.195	-200.000	0.025	0.167
-259.180	-82.332	0.190	-0.061
-258.165	39.592	-0.080	-0.071
-257.151	-200.000	0.004	0.278
-256.136	192.978	0.205	0.307
-255.122	-107.123	0.229	-0.050
-254.107	-200.000	-0.000	0.193
-253.092	-182.802	0.099	-0.002
-252.078	123.354	0.167	0.207
-251.063	432.524	-0.095	0.203
-250.049	34.051	-0.092	-0.079
-249.034	-67.983	0.111	0.043
-248.019	-8.865	-0.302	0.200
-247.005	-171.859	0.234	0.008
-245.990	9.903	-0.053	0.040
-244.976	325.407	-0.066	-0.126
-243.961	-132.630	-0.228	0.029
-242.946	-54.736	0.309	-0.138
-241.932	127.901	0.230	-0.290
-240.917	-200.000	0.012	0.234
-239.903	-200.000	0.026	0.159
-238.888	-137.336	-0.085	0.010
-237.873	342.037	0.131	0.254
-236.859	247.107	0.039	-0.066
-235.844	94.437	0.203	-0.229
-234.830	57.447	0.251	-0.243
-233.815	-120.646	0.092	0.015
-232.800	-200.000	0.094	0.507
-231.786	-131.276	0.278	0.036
-230.771	325.854	0.111	-0.210
-229.757	-75.288	0.265	-0.093
-228.742	200.708	-0.112	-0.171
-227.727	-34.858	0.349	-0.188
-226.713	84.309	0.080	0.086
-225.698	-61.065	-0.202	0.084
-224.684	-10.388	0.129	0.085
-223.669	53.076	0.185	0.175
-222.655	15.642	-0.243	-0.189
-221.640	-55.647	0.153	-0.068
-220.625	-119.608	-0.141	-0.024
-219.611	-92.141	0.176	0.049
-218.596	-38.890	0.165	0.086
-217.582	-84.628	-0.089	0.028
-216.567	102.874	-0.261	0.302
-215.552	-120.294	-0.418	0.071
-214.538	-200.000	-0.016	0.261
-213.523	203.771	-0.064	-0.097
-212.509	-74.156	-0.023	0.008
-211.494	-200.000	-0.004	0.045
-210.479	33.443	0.072	0.061
-209.465	-66.060	0.350	0.138
-208.450	800.000	0.141	0.403
-207.436	-58.196	-0.322	0.138
-206.421	-45.259	0.258	-0.126
-205.406	390.658	0.085	0.175
-204.392	282.916	-0.160	-0.284
-203.377	-94.007	-0.060	-0.016
-202.363	21.123	-0.195	0.157
-201.348	-200.000	-0.015	0.087
-200.333	279.469	-0.131	0.232
-199.319	92.545	-0.170	-0.190
-198.304	-200.000	0.003	-0.056
-197.290	-173.283	-0.109	-0.003
-196.275	177.043	0.069	0.099
-195.260	-67.816	-0.173	0.067
-194.246	-137.579	0.390	0.043
-193.231	201.489	0.160	0.243
-192.217	311.938	0.020	-0.037
-191.202	7.188	-0.109	-0.080
-190.187	218.232	-0.064	-0.101
-189.173	381.590	-0.135	0.274
-188.158	301.960	0.096	0.176
-187.144	308.480	0.059	0.108
-186.129	-200.000	-0.005	-0.162
-185.114	50.499	0.152	-0.142
-184.100	175.713	0.146	0.210
-183.085	-200.000	0.024	-0.141
-182.071	-200.000	-0.051	-0.255
-181.056	71.042	-0.035	0.035
-180.042	563.575	0.110	-0.264
-179.027	320.074	-0.063	-0.119
-178.012	43.743	0.130	-0.118
-176.998	-200.000	0.002	-0.164
-175.983	-200.000	-0.014	-0.116
-174.969	107.070	0.073	-0.086
-173.954	-137.414	0.280	0.031
-172.939	269.665	-0.116	-0.201
-171.925	-93.120	0.087	0.024
-170.910	561.043	0.108	-0.257
-169.896	-118.521	-0.106	-0.019
-168.881	-85.457	0.213	-0.065
-167.866	800.000	0.064	0.190
-166.852	6.074	0.036	0.026
-165.837	134.812	-0.175	0.224
-164.823	350.428	0.103	0.201
-163.808	-76.765	-0.317	-0.110
-162.793	-200.000	0.040	0.364
-161.779	55.025	0.099	0.094
-160.764	-200.000	-0.003	0.087
-159.750	-200.000	-0.056	0.268
-158.735	-79.622	0.242	-0.081
-157.720	154.776	-0.162	0.220
-156.706	-162.447	0.164	-0.008
-155.691	163.581	0.062	0.086
-154.677	528.457	0.023	0.053
-153.662	-67.613	-0.146	-0.057
-152.647	-86.676	-0.275	-0.083
-151.633	800.000	0.018	-0.072
-150.618	-143.517	0.569	0.054
-149.604	-200.000	0.003	-0.232
-148.589	59.023	0.083	-0.080
-147.574	-102.818	-0.286	0.067
-146.560	-41.997	0.276	0.139
-145.545	-15.531	-0.227	-0.143
-144.531	778.631	0.156	0.420
-143.516	-200.000	-0.003	-0.026
-142.502	800.000	0.125	0.345
-141.487	185.404	0.113	0.166
-140.472	-73.474	0.103	0.037
-139.458	-200.000	-0.001	0.245
-138.443	-200.000	0.034	0.320
-137.429	-200.000	-0.020	-0.151
-136.414	6.883	0.107	0.078
-135.399	800.000	-0.060	-0.173
-134.385	-200.000	-0.016	0.193
-133.370	-200.000	-0.006	0.239
-132.356	439.878	0.098	0.211
-131.341	-200.000	-0.049	-0.272
-130.326	-200.000	-0.013	0.170
-129.312	0.691	0.326	0.230
-128.297	110.476	0.093	0.110
-127.283	-107.307	0.348	0.076
-126.268	-200.000	0.032	-0.145
-125.253	-62.020	0.208	-0.086
-124.239	6.378	-0.320	-0.234
-123.224	-19.370	-0.062	0.038
-122.210	121.941	0.072	0.088
-121.195	-200.000	0.002	-0.164
