DTS Sentinel unit serial number:	SN413079Multiplexer serial number:	ORYXHardware model number:	OX4-SRSoftware version number:	ORYX F/W v4.00 Oryx Data Collector v3.7.2.0data status	okinstallation	princeton_trtdifferential loss correction	single-endedforward channel	channel 3reverse channel	N/Adate	2019/09/12time	18:22:04forward acquisition time	15.00reverse acquisition time	0.00gamma	496.2192k internal	0.2317k external	0.2317temperature offset calibration	1.0097default loss term (dB/km)	0.3790temperature slope calibration	1.0000multiplexer offset coefficient	1.0000multiplexer slope coefficient	1.0000fibre end	0.00T internal ref (°C)	33.37T ext. ref 1 (°C)	2.97T ext. ref 2 (°C)	28.07length (m)	temperature (°C)	Stokes	anti-Stokes-747.200	-80.806	0.513	-0.173
-746.185	800.000	-0.064	-0.187
-745.171	-45.900	0.860	0.430
-744.156	800.000	-0.384	1.318
-743.142	-200.000	-0.043	0.869
-742.127	-151.046	-0.596	-0.045
-741.112	402.337	0.684	1.456
-740.098	-112.918	0.204	-0.041
-739.083	8.900	-0.443	-0.338
-738.069	55.341	0.333	0.326
-737.054	-96.155	0.728	0.196
-736.039	-67.693	-0.215	-0.085
-735.025	167.138	0.479	0.688
-734.010	-200.000	-0.071	0.562
-732.996	-107.425	-0.533	-0.118
-731.981	-163.647	-0.495	0.024
-730.966	41.910	0.532	-0.488
-729.952	-109.336	0.619	-0.133
-728.937	-200.000	-0.087	-0.919
-727.923	-161.840	-0.856	-0.044
-726.908	-131.732	0.231	0.031
-725.894	72.658	-0.967	-1.021
-724.879	-200.000	0.138	-1.070
-723.864	528.938	-0.291	-0.695
-722.850	56.090	0.427	-0.419
-721.835	121.445	0.246	-0.310
-720.821	-87.303	-0.941	0.289
-719.806	-200.000	-0.037	-0.316
-718.791	-200.000	-0.016	0.627
-717.777	-31.487	0.140	0.079
-716.762	399.674	0.117	0.249
-715.748	800.000	0.212	-0.678
-714.733	800.000	-0.079	-0.276
-713.718	-200.000	-0.068	-1.108
-712.704	-200.000	-0.004	-0.407
-711.689	130.831	0.266	-0.345
-710.675	132.317	-0.339	-0.442
-709.660	246.576	0.259	0.441
-708.645	326.942	-0.217	0.421
-707.631	-200.000	0.072	-0.725
-706.616	800.000	0.155	0.612
-705.602	-200.000	-0.078	-0.380
-704.587	-193.687	-0.384	-0.003
-703.572	216.080	-0.099	-0.159
-702.558	-15.900	0.761	-0.490
-701.543	-110.497	1.107	0.232
-700.529	-136.654	0.201	-0.024
-699.514	-80.756	0.928	0.312
-698.499	-48.221	-1.091	0.532
-697.485	-200.000	-0.038	0.333
-696.470	800.000	-0.238	0.774
-695.456	-72.773	0.958	0.357
-694.441	148.853	-0.080	0.109
-693.426	-132.753	0.333	-0.043
-692.412	-97.526	0.319	-0.084
-691.397	-55.275	0.140	0.063
-690.383	-59.602	-0.321	-0.139
-689.368	-31.147	-0.419	0.239
-688.354	250.872	-0.163	0.281
-687.339	-37.038	0.382	0.207
-686.324	-127.370	0.390	-0.057
-685.310	-148.515	0.270	-0.022
-684.295	800.000	0.102	0.289
-683.281	21.323	0.351	0.288
-682.266	-36.791	-0.603	0.327
-681.251	703.871	-0.132	-0.351
-680.237	-27.341	-0.032	-0.019
-679.222	800.000	0.215	-0.935
-678.208	800.000	-0.021	-0.061
-677.193	146.649	-0.113	-0.153
-676.178	-200.000	-0.012	0.202
-675.164	-143.700	-0.339	0.032
-674.149	-29.161	0.388	-0.225
-673.135	515.947	-0.278	0.656
-672.120	110.573	0.150	-0.182
-671.105	20.422	0.128	0.104
-670.091	800.000	-0.255	-0.877
-669.076	164.581	0.099	0.141
-668.062	10.709	-0.842	0.648
-667.047	210.675	-0.361	-0.573
-666.032	357.362	-0.504	1.015
-665.018	800.000	0.277	-1.145
-664.003	-100.930	0.469	0.116
-662.989	800.000	0.181	0.514
-661.974	173.368	0.131	0.191
-660.959	-200.000	-0.201	-1.346
-659.945	-200.000	-0.060	-0.427
-658.930	675.773	0.106	-0.278
-657.916	-96.427	0.887	-0.237
-656.901	79.401	0.214	-0.232
-655.886	-200.000	0.093	0.710
-654.872	-200.000	-0.134	-1.166
-653.857	-96.649	-0.350	-0.093
-652.843	478.973	0.353	0.806
-651.828	-200.000	-0.025	0.933
-650.814	-159.717	0.557	-0.031
-649.799	-159.054	0.627	0.036
-648.784	99.813	0.112	0.131
-647.770	-200.000	0.037	-0.733
-646.755	-98.202	-0.569	-0.147
-645.741	138.393	-0.395	0.523
-644.726	111.211	-0.481	0.584
-643.711	140.600	0.196	0.261
-642.697	-200.000	-0.190	0.979
-641.682	-111.312	-0.765	0.158
-640.668	800.000	-0.154	-0.455
-639.653	-34.272	0.041	0.023
-638.638	-200.000	0.131	0.905
-637.624	800.000	-0.257	-0.796
-636.609	305.577	-0.018	0.034
-635.595	-70.530	-0.781	0.298
-634.580	50.680	0.423	0.404
-633.565	157.303	-0.340	0.474
-632.551	-94.330	0.856	0.236
-631.536	-35.620	0.471	0.257
-630.522	-200.000	-0.036	-0.272
-629.507	125.084	0.457	0.581
-628.492	-200.000	-0.014	0.074
-627.478	-21.539	-0.587	-0.361
-626.463	104.432	-0.159	-0.188
-625.449	26.283	0.278	0.234
-624.434	100.568	-0.232	0.271
-623.419	-200.000	-0.039	-0.273
-622.405	-116.537	0.073	-0.014
-621.390	295.926	-0.052	0.096
-620.376	-139.803	0.380	0.041
-619.361	-90.236	-0.353	0.103
-618.346	-200.000	0.087	-0.565
-617.332	-115.101	-0.160	-0.031
-616.317	514.623	-0.336	0.790
-615.303	800.000	0.182	-0.780
-614.288	192.152	0.318	-0.483
-613.273	800.000	0.238	-0.871
-612.259	-200.000	-0.013	-0.125
-611.244	184.634	0.244	0.365
-610.230	17.707	0.091	-0.073
-609.215	-200.000	-0.088	-0.903
-608.201	-18.521	0.765	-0.481
-607.186	800.000	-0.104	-0.395
-606.171	-131.975	-0.604	0.079
-605.157	-114.790	-0.287	0.055
-604.142	-85.606	-0.456	-0.143
-603.128	6.307	-0.156	0.116
-602.113	313.656	-0.182	-0.344
-601.098	-58.960	-0.339	0.148
-600.084	-166.989	-0.837	-0.034
-599.069	60.714	0.302	0.301
-598.055	30.022	-0.514	0.441
-597.040	388.485	0.087	-0.181
-596.025	-48.808	0.328	-0.158
-595.011	-120.428	0.353	-0.061
-593.996	-90.352	-0.443	-0.129
-592.982	15.890	0.455	-0.361
-591.967	-176.888	-0.617	-0.016
-590.952	140.924	-0.092	-0.122
-589.938	193.454	0.250	-0.381
-588.923	-35.458	-0.385	0.211
-587.909	547.613	-0.465	-1.121
-586.894	-108.416	0.626	-0.136
-585.879	58.108	0.536	0.529
-584.865	-144.441	-0.507	-0.047
-583.850	270.392	0.292	-0.517
-582.836	66.844	0.560	-0.574
-581.821	341.697	-0.195	0.383
-580.806	-95.302	-0.226	-0.061
-579.792	-200.000	-0.002	-0.226
-578.777	3.020	-0.186	-0.136
-577.763	380.634	0.139	-0.286
-576.748	-48.696	-0.315	0.152
-575.733	-48.021	0.502	0.244
-574.719	200.649	-0.227	0.352
-573.704	95.966	-0.555	-0.638
-572.690	95.533	0.357	-0.410
-571.675	708.360	-0.161	-0.428
-570.661	-44.604	-0.490	-0.246
-569.646	-139.526	0.895	-0.096
-568.631	65.187	-0.109	-0.111
-567.617	415.919	-0.141	-0.303
-566.602	-72.329	-0.458	-0.171
-565.588	-6.431	-0.657	0.451
-564.573	107.432	-0.266	0.318
-563.558	-92.656	0.558	-0.157
-562.544	-200.000	-0.076	0.529
-561.529	-70.832	0.086	0.032
-560.515	293.728	0.333	0.612
-559.500	51.336	-0.319	-0.305
-558.485	326.503	-0.238	-0.457
-557.471	-142.568	0.445	0.044
-556.456	-200.000	-0.009	0.568
-555.442	-200.000	-0.044	-0.282
-554.427	-200.000	0.007	-0.159
-553.412	67.992	-0.410	0.422
-552.398	-200.000	0.006	-0.187
-551.383	-154.092	0.915	0.062
-550.369	-165.222	-0.367	-0.016
-549.354	-179.357	0.416	-0.009
-548.339	513.943	-0.185	0.434
-547.325	-9.812	-0.234	-0.157
-546.310	-17.097	0.678	0.430
-545.296	800.000	0.137	0.569
-544.281	-33.341	-0.365	-0.203
-543.266	146.256	0.401	-0.541
-542.252	-129.319	0.162	-0.023
-541.237	35.285	0.287	0.253
-540.223	103.923	-0.397	-0.468
-539.208	-200.000	-0.015	-0.260
-538.193	442.815	-0.163	-0.358
-537.179	63.297	-0.259	-0.261
-536.164	-19.466	-0.304	0.189
-535.150	191.590	0.122	0.184
-534.135	-131.291	-0.480	-0.064
-533.121	-200.000	0.019	0.229
-532.106	-53.828	-0.362	0.166
-531.091	363.375	-0.105	0.212
-530.077	-106.104	0.808	-0.182
-529.062	152.264	0.188	0.258
-528.048	216.939	-0.265	0.424
-527.033	-70.643	-0.143	0.054
-526.018	-200.000	-0.040	-0.334
-525.004	-138.264	-1.147	-0.127
-523.989	-109.928	-0.203	-0.043
-522.975	14.767	0.200	0.157
-521.960	-154.250	0.316	0.021
-520.945	-43.162	-0.371	0.189
-519.931	-21.924	-0.260	-0.159
-518.916	-200.000	-0.038	0.783
-517.902	28.187	-0.380	0.322
-516.887	-177.181	-0.395	0.010
-515.872	44.803	0.853	-0.788
-514.858	-200.000	0.020	-0.648
-513.843	-200.000	-0.020	0.127
-512.829	12.604	0.526	0.407
-511.814	103.086	-0.496	0.583
-510.799	-84.920	-0.963	0.303
-509.785	569.053	0.172	-0.419
-508.770	-141.523	1.410	0.143
-507.756	-165.006	-0.699	-0.031
-506.741	129.055	0.453	0.580
-505.726	59.269	0.392	-0.387
-504.712	800.000	-0.175	0.512
-503.697	138.089	-0.195	0.257
-502.683	-17.601	-0.326	-0.206
-501.668	171.492	-0.163	-0.235
-500.653	27.287	0.342	-0.289
-499.639	288.226	-0.101	-0.184
-498.624	-59.364	0.613	0.264
-497.610	-29.533	0.470	-0.270
-496.595	-55.048	-0.145	0.066
-495.581	82.866	-0.674	-0.735
-494.566	-65.223	-0.436	-0.176
-493.551	9.081	0.135	-0.103
-492.537	-39.830	-0.038	-0.020
-491.522	100.140	0.587	-0.682
-490.508	-110.480	-0.327	0.068
-489.493	-47.973	-0.250	-0.121
-488.478	-14.026	-0.045	0.029
-487.464	-81.103	0.382	-0.127
-486.449	-135.923	0.625	0.074
-485.435	121.869	-0.532	-0.665
-484.420	676.742	-0.045	-0.118
-483.405	-200.000	0.040	-0.452
-482.391	800.000	-0.335	-1.103
-481.376	-92.760	0.407	-0.114
-480.362	-23.865	-0.409	-0.245
-479.347	-200.000	-0.045	1.495
-478.332	239.182	0.284	0.474
-477.318	-17.048	0.426	0.269
-476.303	-200.000	0.011	-0.123
-475.289	-63.735	0.149	0.061
-474.274	243.641	0.322	0.541
-473.259	-66.004	-1.103	0.441
-472.245	32.809	-0.287	0.249
-471.230	200.531	0.258	0.398
-470.216	-79.353	-0.882	-0.299
-469.201	-200.000	0.007	-0.426
-468.186	-36.511	0.568	-0.306
-467.172	17.467	-0.194	-0.154
-466.157	-200.000	0.033	-0.359
-465.143	730.238	-0.111	-0.298
-464.128	-152.245	-0.604	0.044
-463.113	4.104	-0.581	-0.426
-462.099	-200.000	-0.087	-0.540
-461.084	-200.000	-0.159	0.777
-460.070	-149.792	0.680	0.053
-459.055	-66.452	-0.432	0.172
-458.040	177.859	0.493	-0.720
-457.026	-20.599	0.525	0.323
-456.011	-200.000	-0.044	0.478
-454.997	-107.296	-0.289	0.064
-453.982	800.000	0.103	0.377
-452.968	800.000	-0.032	0.137
-451.953	-5.116	-0.255	0.175
-450.938	25.691	0.746	0.622
-449.924	800.000	-0.320	-1.012
-448.909	-4.362	0.506	0.350
-447.895	-117.648	-0.096	0.017
-446.880	-200.000	0.005	-0.232
-445.865	126.375	0.210	-0.266
-444.851	-61.683	-0.331	-0.139
-443.836	90.397	0.218	-0.244
-442.822	800.000	0.229	-0.782
-441.807	800.000	0.202	0.664
-440.792	-200.000	-0.064	0.300
-439.778	-200.000	-0.154	-0.817
-438.763	800.000	0.106	-0.432
-437.749	-36.041	-0.086	0.046
-436.734	243.394	0.241	-0.404
-435.719	-13.058	0.283	0.184
-434.705	-200.000	-0.050	-0.392
-433.690	-3.403	0.826	0.575
-432.676	-200.000	-0.002	-0.603
-431.661	-12.147	-0.621	-0.406
-430.646	-200.000	0.073	-1.151
-429.632	129.493	0.368	0.471
-428.617	-133.774	0.614	0.076
-427.603	-200.000	-0.005	-0.133
-426.588	-200.000	-0.010	-0.681
-425.573	96.209	0.645	-0.737
-424.559	-65.888	-0.435	-0.174
-423.544	-200.000	-0.032	-0.155
-422.530	-147.428	1.177	-0.100
-421.515	71.097	-0.406	0.421
-420.500	-200.000	-0.013	0.767
-419.486	-168.285	-0.503	-0.019
-418.471	-101.357	-0.612	0.149
-417.457	-200.000	-0.008	-0.856
-416.442	-17.580	-0.514	-0.323
-415.428	376.550	-0.418	0.852
-414.413	169.272	-0.134	0.191
-413.398	-145.248	-0.622	-0.056
-412.384	-111.825	1.096	-0.222
-411.369	212.752	0.128	-0.203
-410.355	-94.550	-0.428	0.116
-409.340	-119.983	1.016	-0.174
-408.325	-200.000	-0.042	-0.354
-407.311	-124.610	-0.181	-0.028
-406.296	726.863	0.139	-0.370
-405.282	49.841	0.574	-0.541
-404.267	-110.180	-0.720	0.150
-403.252	34.248	-0.540	-0.471
-402.238	-76.574	-0.632	0.222
-401.223	-40.117	-0.707	0.368
-400.209	26.389	0.336	0.280
-399.194	-22.925	-0.532	0.321
-398.179	-58.130	-0.729	0.317
-397.165	-103.566	0.505	-0.118
-396.150	-92.279	0.555	0.156
-395.136	-123.934	-0.653	0.103
-394.121	214.530	0.273	-0.431
-393.106	217.800	0.362	-0.577
-392.092	-191.341	-0.347	-0.004
-391.077	4.782	0.856	0.628
-390.063	23.836	0.014	-0.011
-389.048	272.611	0.122	0.215
-388.033	220.541	-0.768	1.230
-387.019	-142.249	-0.524	0.052
-386.004	-148.237	-0.566	0.047
-384.990	61.147	0.153	0.151
-383.975	213.579	-0.255	0.402
-382.960	-200.000	-0.009	0.119
-381.946	800.000	0.124	-0.395
-380.931	800.000	0.142	-0.574
-379.917	-137.522	-0.343	0.039
-378.902	-125.281	0.307	-0.047
-377.888	172.835	0.156	0.225
-376.873	47.993	-0.075	0.070
-375.858	8.832	0.887	-0.667
-374.844	164.874	-0.425	-0.598
-373.829	136.234	0.655	0.853
-372.815	28.055	-0.227	-0.191
-371.800	800.000	0.042	-0.157
-370.785	-60.649	0.787	-0.333
-369.771	256.817	0.233	-0.399
-368.756	-122.232	0.658	-0.107
-367.742	103.504	-0.189	0.221
-366.727	-20.495	-0.767	-0.471
-365.712	13.697	-0.460	-0.357
-364.698	-200.000	0.060	-0.748
-363.683	-102.019	-0.724	-0.174
-362.669	279.012	-0.307	-0.547
-361.654	49.623	-0.357	0.335
-360.639	-36.947	-0.410	0.219
-359.625	-187.109	-0.396	0.005
-358.610	-200.000	0.677	0.002
-357.596	-109.454	-0.243	-0.051
-356.581	-144.425	-0.706	-0.065
-355.566	-113.092	0.195	-0.038
-354.552	-200.000	0.032	-0.170
-353.537	-200.000	-0.018	-0.090
-352.523	-126.648	-0.919	0.136
-351.508	50.120	0.454	-0.428
-350.493	-100.885	0.668	0.164
-349.479	81.352	-0.850	-0.916
-348.464	800.000	-0.077	-0.303
-347.450	800.000	0.177	0.543
-346.435	209.374	0.262	-0.410
-345.420	57.251	0.261	0.254
-344.406	-200.000	0.071	0.424
-343.391	-95.609	-0.964	-0.257
-342.377	180.732	-0.464	0.680
-341.362	488.756	-0.285	-0.649
-340.348	-200.000	0.032	0.813
-339.333	800.000	0.290	0.941
-338.318	200.933	-0.329	-0.505
-337.304	-110.350	0.703	0.146
-336.289	9.511	0.299	0.226
-335.275	456.392	0.411	-0.910
-334.260	-78.867	-0.191	0.065
-333.245	800.000	-0.100	0.304
-332.231	118.916	-0.406	-0.500
-331.216	-146.055	0.178	-0.016
-330.202	-200.000	-0.073	0.348
-329.187	102.999	0.446	0.520
-328.172	129.771	-0.471	-0.600
-327.158	-200.000	0.087	0.964
-326.143	-65.396	0.215	-0.086
-325.129	800.000	0.227	-0.711
-324.114	-200.000	0.148	-0.729
-323.099	800.000	-0.163	0.672
-322.085	380.307	0.281	0.575
-321.070	-107.831	0.593	-0.129
-320.056	-39.999	-0.334	0.173
-319.041	13.810	0.588	-0.455
-318.026	-48.690	-0.509	-0.243
-317.012	-121.709	0.962	-0.158
-315.997	-93.083	0.437	-0.121
-314.983	-134.493	0.718	0.087
-313.968	-200.000	0.013	-1.187
-312.953	-10.421	0.557	0.367
-311.939	-161.370	0.537	0.028
-310.924	11.879	0.712	-0.545
-309.910	39.525	-0.630	-0.562
-308.895	64.378	-0.402	-0.404
-307.880	-143.964	0.375	-0.035
-306.866	26.977	0.468	0.391
-305.851	-82.814	-1.027	-0.330
-304.837	-140.033	0.915	-0.096
-303.822	156.925	-0.218	-0.300
-302.807	-39.605	-0.557	0.290
-301.793	-36.782	-0.759	0.406
-300.778	800.000	0.318	1.065
-299.764	-15.779	0.500	0.317
-298.749	-189.043	-0.595	-0.007
-297.735	-130.969	0.609	0.081
-296.720	-60.934	0.146	-0.062
-295.705	-33.832	-0.291	0.160
-294.691	-94.817	-0.545	0.147
-293.676	186.270	-0.351	-0.520
-292.662	217.747	0.109	-0.173
-291.647	392.061	-0.131	0.270
-290.632	-77.686	-0.701	-0.241
-289.618	-164.205	-0.020	0.001
-288.603	83.110	0.448	0.484
-287.589	800.000	-0.107	-0.340
-286.574	-109.065	0.419	-0.089
-285.559	-200.000	0.209	1.228
-284.545	39.955	-0.388	0.346
-283.530	-46.052	-0.329	-0.161
-282.516	-95.655	0.195	-0.052
-281.501	348.298	0.424	0.832
-280.486	-34.630	0.533	-0.290
-279.472	-156.152	0.409	-0.026
-278.457	7.578	-0.201	-0.150
-277.443	-200.000	-0.055	0.375
-276.428	129.137	0.339	0.430
-275.413	330.252	0.413	-0.790
-274.399	190.902	-0.241	0.360
-273.384	-28.095	-0.428	0.246
-272.370	-200.000	-0.118	0.770
-271.355	-200.000	0.115	0.685
-270.340	-46.455	0.333	-0.162
-269.326	-88.035	1.043	-0.311
-268.311	800.000	-0.183	0.739
-267.297	800.000	-0.081	-0.291
-266.282	10.046	0.479	0.362
-265.267	15.980	-0.231	-0.181
-264.253	-200.000	0.140	-0.841
-263.238	739.648	0.093	0.248
-262.224	-39.485	0.779	-0.406
-261.209	-165.706	0.085	-0.004
-260.195	-151.620	-0.684	-0.050
-259.180	60.942	-0.307	0.303
-258.165	-66.699	0.316	-0.124
-257.151	-158.632	-0.185	-0.011
-256.136	800.000	0.135	-0.394
-255.122	44.395	-0.676	0.617
-254.107	83.080	-0.153	-0.166
-253.092	-47.072	0.203	-0.099
-252.078	-105.426	-0.547	0.124
-251.063	-200.000	0.100	0.500
-250.049	304.681	-0.176	0.324
-249.034	-122.323	0.471	0.076
-248.019	308.806	0.175	0.324
-247.005	-143.377	-0.246	-0.023
-245.990	-86.124	-0.419	0.128
-244.976	800.000	0.342	1.013
-243.961	-96.139	0.790	0.208
-242.946	-200.000	-0.013	-0.755
-241.932	11.820	-0.409	0.312
-240.917	480.234	-0.258	-0.581
-239.903	800.000	-0.305	-0.839
-238.888	-114.532	0.415	-0.079
-237.873	473.057	-0.194	-0.434
-236.859	-200.000	0.097	0.850
-235.844	22.569	-0.705	0.573
-234.830	-85.729	0.209	0.064
-233.815	240.232	0.020	-0.032
-232.800	296.724	0.182	0.331
-231.786	-200.000	-0.092	1.057
-230.771	27.726	-0.606	-0.507
-229.757	83.448	0.375	0.406
-228.742	-111.689	-0.539	-0.108
-227.727	67.659	0.152	-0.154
-226.713	-200.000	-0.071	-0.513
-225.698	210.038	0.348	0.541
-224.684	-200.000	-0.058	0.392
-223.669	71.326	-0.446	0.459
-222.655	142.570	-0.319	0.420
-221.640	255.772	0.262	-0.445
-220.625	-71.503	-0.138	-0.051
-219.611	-100.466	-0.575	0.141
-218.596	-57.967	0.177	-0.077
-217.582	-198.725	-0.275	-0.002
-216.567	-29.621	0.402	0.228
-215.552	-92.333	0.176	0.049
-214.538	-74.395	0.666	0.238
-213.523	-200.000	0.162	-0.844
-212.509	100.744	0.193	0.222
-211.494	49.876	0.826	-0.773
-210.479	304.843	0.392	0.722
-209.465	800.000	0.106	0.406
-208.450	-121.733	0.356	0.058
-207.436	14.572	0.656	0.508
-206.421	0.499	1.156	0.819
-205.406	800.000	-0.151	-0.488
-204.392	-200.000	0.130	1.101
-203.377	800.000	0.130	-0.461
-202.363	60.884	-0.570	-0.561
-201.348	10.131	0.161	0.121
-200.333	800.000	-0.216	0.601
-199.319	800.000	-0.160	-0.470
-198.304	800.000	0.332	0.970
-197.290	105.553	-0.272	-0.318
-196.275	-54.496	0.212	0.095
-195.260	448.492	0.276	0.602
-194.246	-192.172	-0.739	-0.007
-193.231	800.000	0.194	0.713
-192.217	-110.345	0.094	-0.019
-191.202	196.729	-0.253	0.382
-190.187	-40.690	-0.285	0.147
-189.173	-32.969	-0.795	-0.437
-188.158	384.844	-0.098	-0.200
-187.144	-37.013	0.442	-0.235
-186.129	-48.539	0.603	-0.287
-185.114	-64.591	0.289	0.116
-184.100	227.822	0.385	-0.620
-183.085	62.292	-0.180	0.178
-182.071	666.965	0.325	0.832
-181.056	-77.812	0.168	-0.058
-180.042	-200.000	0.182	0.923
-179.027	-27.932	0.287	-0.165
-178.012	0.705	0.730	0.517
-176.998	266.306	-0.592	1.024
-175.983	444.418	-0.087	-0.188
-174.969	-103.287	0.875	-0.205
-173.954	-200.000	-0.121	-0.637
-172.939	28.030	0.234	0.196
-171.925	139.416	-0.290	-0.378
-170.910	-106.812	-0.176	0.039
-169.896	27.557	-0.240	-0.200
-168.881	800.000	-0.200	0.604
-167.866	33.939	0.281	0.242
-166.852	-200.000	0.059	0.709
-165.837	194.633	0.325	-0.489
-164.823	-200.000	0.042	-0.457
-163.808	-200.000	-0.014	-0.108
-162.793	529.875	0.186	0.434
-161.779	-200.000	-0.150	-1.010
-160.764	800.000	0.143	0.510
-159.750	84.842	0.247	-0.268
-158.735	-200.000	-0.073	0.662
-157.720	21.997	0.558	0.450
-156.706	95.576	-0.332	-0.375
-155.691	-3.932	-0.552	-0.379
-154.677	-200.000	0.047	-0.525
-153.662	48.359	-0.813	0.753
-152.647	698.178	-0.073	-0.190
-151.633	-91.662	-0.293	-0.083
-150.618	457.672	0.455	1.001
-149.604	-158.433	0.767	-0.044
-148.589	120.583	-0.272	-0.334
-147.574	-100.111	-0.542	0.134
-146.560	800.000	-0.066	0.239
-145.545	-200.000	-0.121	0.756
-144.531	800.000	0.124	-0.477
-143.516	38.783	0.311	0.275
-142.502	-134.621	1.036	0.125
-141.487	229.160	0.333	-0.537
-140.472	262.707	-0.452	-0.775
-139.458	-127.598	0.245	0.035
-138.443	209.353	0.221	-0.342
-137.429	283.863	-0.642	1.141
-136.414	-95.877	-0.848	-0.224
-135.399	-98.292	1.104	-0.280
-134.385	-200.000	0.081	0.655
-133.370	-122.821	0.437	0.070
-132.356	43.678	0.779	-0.704
-131.341	-200.000	-0.135	0.602
-130.326	40.336	0.327	0.291
-129.312	800.000	0.207	-0.571
-128.297	800.000	-0.297	-0.832
-127.283	-200.000	-0.166	1.175
-126.268	-200.000	-0.059	-0.726
-125.253	-172.066	0.596	-0.019
-124.239	167.172	0.282	-0.395
-123.224	-48.971	-0.466	-0.221
