DTS Sentinel unit serial number:	SN413079Multiplexer serial number:	ORYXHardware model number:	OX4-SRSoftware version number:	ORYX F/W v4.00 Oryx Data Collector v3.7.2.0data status	okinstallation	princeton_trtdifferential loss correction	single-endedforward channel	channel 3reverse channel	N/Adate	2019/09/13time	03:08:35forward acquisition time	60.00reverse acquisition time	0.00gamma	496.2192k internal	0.2335k external	0.2335temperature offset calibration	1.0138default loss term (dB/km)	0.3790temperature slope calibration	1.0000multiplexer offset coefficient	1.0000multiplexer slope coefficient	1.0000fibre end	0.00T internal ref (°C)	27.41T ext. ref 1 (°C)	4.06T ext. ref 2 (°C)	22.19length (m)	temperature (°C)	Stokes	anti-Stokes-747.200	800.000	-0.064	-0.227
-746.185	-200.000	0.056	0.413
-745.171	-110.389	0.147	0.031
-744.156	-98.632	0.250	0.064
-743.142	404.186	-0.060	0.127
-742.127	-27.629	0.105	0.062
-741.112	-60.209	0.120	0.051
-740.098	455.051	0.176	0.391
-739.083	-28.124	0.279	0.162
-738.069	-200.000	-0.002	0.310
-737.054	-74.445	0.072	0.026
-736.039	-93.393	-0.370	0.103
-735.025	91.053	0.104	0.118
-734.010	174.651	0.073	-0.107
-732.996	136.567	-0.175	-0.230
-731.981	-200.000	-0.005	-0.340
-730.966	-19.051	-0.167	0.104
-729.952	-106.062	-0.123	0.028
-728.937	18.823	-0.070	0.056
-727.923	-200.000	-0.036	0.201
-726.908	800.000	-0.046	0.164
-725.894	-162.247	0.190	-0.010
-724.879	155.471	-0.142	0.196
-723.864	-154.483	-0.250	-0.017
-722.850	-75.742	-0.142	-0.050
-721.835	187.152	0.030	0.045
-720.821	-96.887	0.345	-0.091
-719.806	35.955	-0.217	-0.192
-718.791	98.834	0.127	0.147
-717.777	-131.993	-0.042	0.005
-716.762	197.162	-0.096	-0.148
-715.748	-200.000	-0.017	-0.421
-714.733	800.000	-0.024	-0.101
-713.718	-113.133	0.129	0.026
-712.704	-111.291	-0.154	0.032
-711.689	-200.000	-0.011	-0.224
-710.675	74.875	0.126	-0.133
-709.660	800.000	-0.097	0.328
-708.645	-61.452	-0.146	0.061
-707.631	225.163	-0.030	-0.049
-706.616	-46.823	0.368	-0.180
-705.602	800.000	-0.140	0.390
-704.587	269.913	0.111	0.196
-703.572	-9.147	-0.259	0.174
-702.558	-200.000	-0.014	-0.065
-701.543	-56.096	0.112	-0.050
-700.529	800.000	0.124	0.400
-699.514	800.000	-0.007	0.032
-698.499	434.570	0.099	-0.215
-697.485	87.457	0.096	-0.107
-696.470	-85.771	-0.261	-0.081
-695.456	-38.702	-0.183	-0.097
-694.441	49.162	0.198	-0.187
-693.426	18.707	-0.131	0.105
-692.412	-121.416	-0.428	-0.071
-691.397	-109.399	-0.322	0.068
-690.383	-200.000	-0.021	0.167
-689.368	-110.432	0.199	0.041
-688.354	-200.000	0.002	-0.505
-687.339	-200.000	0.011	0.164
-686.324	27.405	0.192	-0.162
-685.310	-110.983	-0.217	0.045
-684.295	18.549	-0.102	-0.082
-683.281	-200.000	0.002	-0.079
-682.266	51.919	0.155	0.148
-681.251	169.626	0.015	-0.021
-680.237	-151.758	0.092	0.007
-679.222	46.103	-0.175	-0.163
-678.208	232.652	-0.164	0.270
-677.193	-86.108	-0.102	-0.031
-676.178	-60.839	0.236	-0.100
-675.164	-200.000	-0.178	0.001
-674.149	-5.770	0.063	0.043
-673.135	172.341	-0.049	-0.071
-672.120	272.432	0.083	-0.146
-671.105	122.017	-0.287	0.359
-670.091	-0.935	0.168	0.119
-669.076	454.977	-0.144	-0.321
-668.062	-158.997	0.236	-0.013
-667.047	304.199	0.035	0.064
-666.032	221.032	0.048	0.077
-665.018	800.000	-0.033	-0.131
-664.003	183.376	-0.226	-0.335
-662.989	-136.672	0.259	-0.030
-661.974	-104.745	0.265	-0.061
-660.959	-64.372	-0.095	-0.039
-659.945	800.000	0.089	0.257
-658.930	-27.168	0.138	-0.080
-657.916	321.919	-0.030	-0.057
-656.901	-20.791	-0.198	-0.122
-655.886	-200.000	0.002	0.107
-654.872	-99.229	-0.232	-0.059
-653.857	-100.132	-0.123	0.031
-652.843	30.440	-0.048	0.041
-651.828	294.710	-0.076	0.139
-650.814	-123.928	-0.315	-0.050
-649.799	-11.379	0.209	-0.138
-648.784	800.000	0.025	0.085
-647.770	721.359	0.145	0.386
-646.755	138.155	-0.135	-0.178
-645.741	-200.000	0.007	0.118
-644.726	-89.796	-0.196	-0.057
-643.711	-87.952	-0.089	-0.027
-642.697	64.674	0.176	-0.178
-641.682	-67.370	-0.225	0.088
-640.668	8.744	0.090	0.068
-639.653	5.724	0.221	0.163
-638.638	49.633	-0.173	-0.163
-637.624	167.024	-0.144	-0.205
-636.609	-148.189	-0.184	0.015
-635.595	505.200	0.059	-0.137
-634.580	-100.922	-0.222	0.055
-633.565	800.000	0.097	-0.350
-632.551	389.143	0.017	-0.036
-631.536	-200.000	-0.054	-0.350
-630.522	800.000	0.034	-0.143
-629.507	-169.488	0.205	0.007
-628.492	7.525	0.295	-0.221
-627.478	136.630	-0.245	-0.320
-626.463	-200.000	-0.011	-0.107
-625.449	220.256	-0.186	-0.298
-624.434	-200.000	-0.055	0.244
-623.419	392.330	0.065	-0.136
-622.405	-86.622	-0.111	-0.034
-621.390	800.000	-0.072	0.219
-620.376	291.707	-0.078	-0.143
-619.361	-46.812	-0.301	-0.147
-618.346	-200.000	-0.001	0.042
-617.332	-178.127	-0.361	0.009
-616.317	-52.836	-0.222	-0.102
-615.303	-200.000	0.110	0.001
-614.288	-200.000	0.029	-0.303
-613.273	-67.111	-0.199	0.078
-612.259	53.531	0.267	-0.256
-611.244	-76.440	-0.170	-0.060
-610.230	-6.786	-0.304	0.207
-609.215	-200.000	0.023	0.232
-608.201	-148.251	-0.125	-0.010
-607.186	176.526	0.097	-0.141
-606.171	-36.092	0.137	0.074
-605.157	800.000	0.119	-0.429
-604.142	115.248	-0.306	-0.373
-603.128	57.585	-0.116	-0.114
-602.113	513.417	-0.109	0.253
-601.098	121.383	0.130	0.162
-600.084	-80.260	0.097	-0.032
-599.069	-106.327	0.279	-0.062
-598.055	568.035	-0.052	-0.126
-597.040	168.873	0.261	-0.372
-596.025	-200.000	0.000	0.051
-595.011	-27.300	-0.208	-0.121
-593.996	-110.094	-0.201	-0.042
-592.982	11.524	0.078	0.060
-591.967	61.237	0.092	-0.091
-590.952	-200.000	0.011	-0.309
-589.938	800.000	0.058	0.226
-588.923	393.018	-0.151	0.313
-587.909	-200.000	0.113	0.538
-586.894	800.000	-0.105	-0.396
-585.879	-127.953	0.180	0.026
-584.865	94.116	-0.262	-0.296
-583.850	-70.804	0.154	-0.058
-582.836	-200.000	-0.041	0.247
-581.821	-13.683	0.173	-0.112
-580.806	-32.361	0.219	-0.122
-579.792	-31.628	0.212	-0.119
-578.777	-123.841	0.259	0.041
-577.763	800.000	-0.025	0.071
-576.748	-200.000	-0.059	0.297
-575.733	305.317	0.157	0.290
-574.719	-126.963	0.089	0.013
-573.704	-20.508	-0.247	-0.152
-572.690	-200.000	0.017	0.125
-571.675	-200.000	0.026	-0.242
-570.661	-200.000	0.018	0.139
-569.646	-30.190	-0.183	0.104
-568.631	154.507	0.182	0.249
-567.617	-183.070	-0.308	0.005
-566.602	268.591	-0.149	0.260
-565.588	114.646	0.293	0.357
-564.573	32.941	-0.208	-0.180
-563.558	-106.847	0.214	0.047
-562.544	6.274	-0.131	-0.097
-561.529	289.116	0.152	-0.276
-560.515	287.659	-0.122	0.220
-559.500	-90.780	-0.155	-0.045
-558.485	358.221	-0.036	-0.071
-557.471	-46.814	-0.214	0.104
-556.456	48.122	0.070	0.065
-555.442	800.000	-0.058	0.196
-554.427	182.723	-0.159	0.235
-553.412	165.253	0.139	-0.196
-552.398	-120.214	0.061	0.010
-551.383	-200.000	0.107	0.471
-550.369	44.966	-0.099	-0.091
-549.354	-9.919	0.122	-0.081
-548.339	38.172	-0.132	-0.117
-547.325	85.744	0.018	0.020
-546.310	26.986	0.167	-0.139
-545.296	-86.552	-0.390	-0.119
-544.281	35.926	-0.215	-0.189
-543.266	-185.416	-0.245	-0.004
-542.252	-36.593	-0.166	-0.089
-541.237	617.249	0.111	0.279
-540.223	425.143	-0.117	0.251
-539.208	89.221	-0.064	0.071
-538.193	-123.186	-0.067	-0.011
-537.179	-200.000	-0.050	0.241
-536.164	-137.846	0.099	-0.011
-535.150	-143.367	0.148	-0.014
-534.135	-175.799	0.214	0.006
-533.121	372.251	0.128	0.259
-532.106	-114.098	-0.359	-0.069
-531.091	318.979	-0.037	-0.070
-530.077	268.535	-0.056	0.097
-529.062	800.000	0.101	-0.351
-528.048	-23.950	-0.256	-0.152
-527.033	-119.470	0.153	-0.026
-526.018	-135.614	-0.276	0.033
-525.004	-200.000	-0.030	-0.469
-523.989	-73.541	0.135	-0.049
-522.975	-11.279	0.192	0.126
-521.960	-89.121	0.213	0.063
-520.945	-200.000	-0.005	-0.236
-519.931	14.040	-0.338	0.262
-518.916	-200.000	0.010	0.049
-517.902	627.833	0.131	-0.329
-516.887	800.000	-0.104	0.302
-515.872	-200.000	-0.011	-0.055
-514.858	262.396	0.100	0.173
-513.843	-80.149	-0.112	-0.037
-512.829	-63.920	-0.187	0.076
-511.814	-43.084	0.428	-0.216
-510.799	-200.000	-0.052	-0.416
-509.785	66.957	0.023	0.024
-508.770	156.612	-0.120	-0.165
-507.756	111.406	0.133	0.159
-506.741	-12.514	-0.194	-0.126
-505.726	-86.615	0.069	0.021
-504.712	800.000	0.035	0.150
-503.697	120.435	-0.147	0.181
-502.683	-200.000	-0.014	0.191
-501.668	-200.000	-0.028	0.225
-500.653	-62.579	0.200	-0.083
-499.639	-122.763	-0.176	-0.028
-498.624	-113.511	0.199	-0.039
-497.610	44.086	0.220	0.201
-496.595	800.000	0.133	0.391
-495.581	-54.209	0.041	0.018
-494.566	110.108	-0.064	0.076
-493.551	-145.573	0.332	-0.030
-492.537	800.000	-0.115	0.375
-491.522	-200.000	-0.010	0.116
-490.508	-200.000	-0.022	0.301
-489.493	-7.121	0.277	0.187
-488.478	-200.000	-0.019	-0.164
-487.464	-200.000	0.079	0.412
-486.449	72.125	-0.084	-0.087
-485.435	-200.000	0.009	-0.089
-484.420	190.569	0.134	0.201
-483.405	-47.799	-0.123	-0.059
-482.391	-3.555	0.168	0.117
-481.376	-98.059	-0.112	0.029
-480.362	-165.281	-0.253	0.011
-479.347	-200.000	0.004	0.215
-478.332	101.275	0.079	0.091
-477.318	-114.441	0.138	-0.026
-476.303	-109.040	0.111	-0.023
-475.289	800.000	0.019	-0.077
-474.274	4.193	0.111	0.081
-473.259	119.611	0.209	-0.257
-472.245	-74.030	-0.372	0.134
-471.230	-24.345	-0.095	-0.056
-470.216	508.069	-0.020	0.046
-469.201	386.269	0.062	0.127
-468.186	800.000	-0.057	0.181
-467.172	-26.198	-0.144	-0.084
-466.157	-19.964	0.215	-0.132
-465.143	346.526	0.070	-0.138
-464.128	318.887	-0.045	0.085
-463.113	629.965	0.023	-0.058
-462.099	108.563	-0.093	-0.110
-461.084	130.615	0.076	0.097
-460.070	-8.974	-0.037	0.025
-459.055	613.041	0.026	0.064
-458.040	60.772	-0.189	-0.186
-457.026	66.703	0.177	-0.178
-456.011	141.871	0.109	-0.144
-454.997	153.735	-0.082	0.112
-453.982	-104.904	0.126	-0.029
-452.968	-175.407	-0.221	-0.006
-451.953	11.390	-0.076	-0.058
-450.938	80.109	-0.106	0.113
-449.924	313.204	-0.034	0.063
-448.909	172.294	-0.027	-0.039
-447.895	78.130	0.055	-0.059
-446.880	209.769	0.096	0.149
-445.865	131.843	0.114	0.146
-444.851	157.721	-0.054	0.074
-443.836	-159.038	-0.163	0.009
-442.822	375.104	-0.051	0.103
-441.807	30.414	0.354	-0.301
-440.792	231.640	-0.045	-0.073
-439.778	-68.878	0.114	0.044
-438.763	-134.370	0.069	0.008
-437.749	244.827	-0.066	-0.110
-436.734	240.836	0.074	0.122
-435.719	-28.691	0.113	-0.064
-434.705	800.000	-0.168	-0.499
-433.690	-165.983	0.368	-0.016
-432.676	-39.606	0.082	0.043
-431.661	13.228	0.211	0.162
-430.646	155.619	-0.210	0.288
-429.632	-106.098	-0.198	0.044
-428.617	-73.313	-0.117	-0.043
-427.603	-100.700	0.381	-0.093
-426.588	162.753	0.143	0.199
-425.573	-84.435	-0.196	-0.062
-424.559	78.578	0.183	-0.194
-423.544	-120.627	-0.465	0.078
-422.530	402.819	0.039	0.082
-421.515	800.000	0.049	0.183
-420.500	-25.392	-0.216	-0.127
-419.486	-200.000	0.040	-0.289
-418.471	747.852	0.040	-0.106
-417.457	147.760	0.013	-0.017
-416.442	-200.000	0.019	-0.341
-415.428	-127.106	-0.172	-0.025
-414.413	695.490	0.115	-0.299
-413.398	38.657	0.189	0.167
-412.384	-54.622	-0.082	-0.037
-411.369	332.157	0.133	-0.255
-410.355	-20.711	0.218	0.133
-409.340	110.213	0.114	-0.135
-408.325	140.604	-0.246	-0.323
-407.311	-200.000	0.003	-0.214
-406.296	59.943	-0.074	0.072
-405.282	-200.000	-0.005	0.309
-404.267	800.000	-0.063	0.208
-403.252	269.103	-0.160	0.279
-402.238	265.705	-0.113	-0.195
-401.223	-71.002	-0.327	0.122
-400.209	-109.064	0.057	0.012
-399.194	536.630	-0.040	0.095
-398.179	212.762	-0.017	0.027
-397.165	54.148	0.239	-0.228
-396.150	-55.595	-0.311	0.138
-395.136	-16.822	0.112	0.070
-394.121	49.416	-0.088	0.082
-393.106	-68.274	-0.037	0.014
-392.092	800.000	0.150	0.418
-391.077	-85.771	-0.113	-0.035
-390.063	-200.000	-0.019	0.208
-389.048	800.000	-0.070	-0.216
-388.033	16.461	0.140	-0.110
-387.019	-44.643	-0.334	-0.165
-386.004	-200.000	-0.039	0.376
-384.990	242.753	-0.182	0.302
-383.975	-81.707	0.338	0.110
-382.960	126.504	-0.109	-0.137
-381.946	-200.000	-0.046	-0.285
-380.931	-153.993	-0.157	-0.011
-379.917	37.716	0.033	0.029
-378.902	8.012	-0.185	-0.138
-377.888	-46.099	-0.170	0.083
-376.873	-31.059	0.210	-0.117
-375.858	-200.000	-0.039	0.275
-374.844	-109.582	-0.250	-0.052
-373.829	455.555	0.140	0.307
-372.815	-116.773	0.345	-0.063
-371.800	800.000	-0.017	0.063
-370.785	122.774	-0.242	0.300
-369.771	21.753	-0.324	-0.261
-368.756	189.766	0.143	0.213
-367.742	151.944	-0.055	0.075
-366.727	38.654	0.159	0.141
-365.712	106.138	0.147	0.173
-364.698	708.568	-0.017	0.045
-363.683	290.280	0.131	-0.235
-362.669	-91.503	0.289	-0.082
-361.654	752.259	-0.030	0.080
-360.639	360.993	-0.057	0.113
-359.625	-136.954	-0.121	0.014
-358.610	-35.507	-0.284	-0.152
-357.596	-52.172	0.039	-0.018
-356.581	-44.341	0.397	-0.197
-355.566	800.000	-0.058	-0.187
-354.552	-99.024	-0.201	-0.050
-353.537	-0.983	0.186	-0.130
-352.523	210.375	0.161	-0.250
-351.508	445.331	-0.043	-0.093
-350.493	789.745	-0.042	-0.115
-349.479	94.566	-0.243	-0.273
-348.464	123.771	-0.194	-0.241
-347.450	279.172	-0.143	0.253
-346.435	259.802	-0.086	-0.148
-345.420	-124.038	0.053	0.008
-344.406	-200.000	-0.002	-0.034
-343.391	800.000	0.024	0.102
-342.377	344.244	-0.107	-0.207
-341.362	-127.370	0.062	0.009
-340.348	-143.522	0.138	0.013
-339.333	-24.957	0.190	-0.111
-338.318	531.831	-0.049	-0.113
-337.304	18.086	-0.380	-0.299
-336.289	-200.000	0.076	-0.471
-335.275	-86.228	0.351	-0.107
-334.260	-109.329	-0.207	0.043
-333.245	53.291	-0.249	0.236
-332.231	159.733	0.102	-0.140
-331.216	-27.842	-0.192	0.110
-330.202	-200.000	0.019	0.171
-329.187	-31.288	-0.088	-0.049
-328.172	-91.440	0.063	-0.018
-327.158	800.000	0.023	0.089
-326.143	-71.921	0.187	-0.069
-325.129	-117.005	0.090	-0.016
-324.114	-133.246	0.294	-0.037
-323.099	-200.000	-0.036	-0.253
-322.085	-33.257	0.195	-0.107
-321.070	-46.670	-0.253	-0.122
-320.056	-173.211	-0.141	0.004
-319.041	264.523	0.122	-0.210
-318.026	204.959	0.133	-0.204
-317.012	-128.772	0.285	-0.040
-315.997	613.620	0.110	-0.273
-314.983	-92.412	0.242	0.067
-313.968	209.394	0.172	0.266
-312.953	-59.136	-0.228	0.097
-311.939	77.601	-0.222	0.233
-310.924	-196.693	0.416	-0.003
-309.910	800.000	0.097	-0.284
-308.895	180.560	0.086	0.124
-307.880	13.540	-0.190	-0.146
-306.866	-200.000	0.010	-0.122
-305.851	11.982	-0.124	-0.095
-304.837	-186.550	0.164	0.002
-303.822	-178.708	0.106	-0.002
-302.807	761.128	-0.045	-0.121
-301.793	-117.138	0.029	-0.005
-300.778	-92.634	0.103	0.029
-299.764	482.685	0.067	0.150
-298.749	-53.422	-0.223	-0.101
-297.735	-200.000	0.041	0.308
-296.720	-89.410	0.267	0.077
-295.705	-138.831	0.195	-0.021
-294.691	84.255	0.270	-0.291
-293.676	800.000	0.050	-0.170
-292.662	-142.873	0.075	0.007
-291.647	58.823	0.253	-0.245
-290.632	94.345	-0.065	0.073
-289.618	117.924	-0.119	0.144
-288.603	-18.286	0.296	0.183
-287.589	-200.000	0.020	0.320
-286.574	166.681	0.179	0.251
-285.559	-99.334	0.207	0.052
-284.545	-96.405	0.441	0.115
-283.530	203.593	-0.172	-0.263
-282.516	-173.027	-0.280	0.009
-281.501	134.865	-0.162	0.208
-280.486	-122.467	-0.054	0.009
-279.472	-142.750	0.292	-0.028
-278.457	-200.000	-0.063	0.492
-277.443	-32.202	-0.232	-0.128
-276.428	-25.504	0.138	-0.081
-275.413	618.626	-0.061	0.150
-274.399	289.810	0.143	0.256
-273.384	122.919	0.107	0.132
-272.370	-50.708	0.167	0.078
-271.355	368.664	0.048	-0.096
-270.340	158.528	-0.032	-0.044
-269.326	343.291	-0.049	0.095
-268.311	86.659	-0.233	0.254
-267.297	428.213	-0.054	-0.114
-266.282	-62.661	-0.351	0.144
-265.267	59.429	-0.187	0.181
-264.253	63.884	-0.123	-0.122
-263.238	-28.286	-0.454	-0.259
-262.224	107.799	0.285	-0.334
-261.209	800.000	-0.058	-0.229
-260.195	-11.659	0.447	-0.290
-259.180	-135.131	0.275	0.033
-258.165	-127.384	-0.394	0.057
-257.151	20.800	0.184	-0.147
-256.136	-60.551	-0.146	-0.061
-255.122	12.192	-0.215	0.164
-254.107	-56.605	-0.415	-0.181
-253.092	76.156	-0.045	-0.047
-252.078	800.000	-0.103	0.282
-251.063	8.454	-0.088	-0.065
-250.049	-40.354	0.321	0.165
-249.034	-200.000	0.069	0.380
-248.019	-100.368	-0.230	-0.056
-247.005	-200.000	0.030	0.198
-245.990	800.000	-0.010	0.029
-244.976	121.821	0.175	0.215
-243.961	-200.000	0.033	-0.160
-242.946	800.000	-0.086	-0.278
-241.932	-76.565	-0.287	0.099
-240.917	782.815	-0.056	-0.151
-239.903	-102.062	0.107	0.025
-238.888	90.506	-0.113	-0.124
-237.873	17.017	-0.196	0.153
-236.859	-161.215	0.197	-0.010
-235.844	-200.000	-0.009	-0.077
-234.830	-194.749	0.092	0.001
-233.815	-112.758	0.330	0.065
-232.800	261.611	-0.140	-0.239
-231.786	68.168	0.265	-0.268
-230.771	-200.000	0.013	-0.071
-229.757	57.213	0.140	-0.134
-228.742	-92.048	-0.085	-0.024
-227.727	403.606	0.034	-0.071
-226.713	7.552	0.229	-0.169
-225.698	-150.653	-0.226	-0.017
-224.684	-38.216	-0.174	0.091
-223.669	800.000	0.041	-0.168
-222.655	-94.947	0.289	-0.077
-221.640	-23.097	-0.073	0.043
-220.625	84.458	-0.314	-0.338
-219.611	153.344	0.064	0.086
-218.596	3.638	0.184	0.132
-217.582	583.298	-0.108	-0.261
-216.567	-86.684	-0.223	-0.067
-215.552	182.857	-0.183	0.266
-214.538	36.322	-0.078	0.067
-213.523	-84.558	-0.154	0.048
-212.509	-44.980	-0.361	0.177
-211.494	-188.115	0.360	0.005
-210.479	800.000	0.014	-0.048
-209.465	105.234	0.060	0.069
-208.450	271.656	-0.198	0.343
-207.436	-66.966	0.139	0.054
-206.421	-142.789	0.232	0.022
-205.406	782.213	-0.117	-0.315
-204.392	-114.140	-0.241	0.046
-203.377	-146.488	-0.361	0.031
-202.363	-73.158	0.251	0.091
-201.348	5.454	0.137	-0.099
-200.333	767.404	-0.160	0.429
-199.319	280.389	-0.015	0.026
-198.304	-200.000	0.055	0.249
-197.290	-83.125	0.108	0.034
-196.275	256.579	-0.105	-0.177
-195.260	800.000	-0.034	0.100
-194.246	-73.744	-0.417	-0.149
-193.231	34.113	-0.077	0.066
-192.217	31.175	0.314	0.265
-191.202	-200.000	-0.018	-0.270
-190.187	-70.939	0.094	0.035
-189.173	-42.394	0.303	0.152
-188.158	800.000	0.085	0.290
-187.144	-200.000	-0.021	-0.158
-186.129	665.643	-0.074	-0.187
-185.114	49.578	0.154	-0.142
-184.100	29.392	-0.082	-0.068
-183.085	-160.769	0.204	0.011
-182.071	90.387	0.301	0.331
-181.056	-23.547	0.235	-0.138
-180.042	-11.571	0.057	0.037
-179.027	-38.546	-0.078	0.040
-178.012	-200.000	-0.027	0.278
-176.998	112.987	-0.204	-0.243
-175.983	800.000	0.121	-0.349
-174.969	137.517	0.091	0.117
-173.954	92.847	0.179	-0.198
-172.939	260.324	-0.177	0.301
-171.925	-121.678	0.181	0.029
-170.910	-71.264	-0.213	0.079
-169.896	-31.778	0.136	-0.075
-168.881	800.000	0.005	-0.015
-167.866	-200.000	-0.079	0.470
-166.852	800.000	-0.073	0.284
-165.837	800.000	-0.116	0.389
-164.823	37.621	0.200	0.174
-163.808	107.869	0.109	-0.128
-162.793	-200.000	-0.010	0.433
-161.779	-200.000	0.001	-0.061
-160.764	132.658	0.046	-0.058
-159.750	800.000	-0.170	0.575
-158.735	-85.691	0.086	0.026
-157.720	-200.000	0.001	0.019
-156.706	-23.392	-0.036	-0.021
-155.691	-19.808	0.187	-0.113
-154.677	-200.000	0.017	0.167
-153.662	800.000	0.109	-0.404
-152.647	800.000	0.082	-0.243
-151.633	69.774	-0.179	0.181
-150.618	47.763	0.298	-0.273
-149.604	-85.800	0.115	-0.035
-148.589	58.846	-0.132	0.127
-147.574	-175.648	-0.365	-0.010
-146.560	-200.000	-0.045	-0.245
-145.545	94.081	0.241	-0.268
-144.531	486.903	0.012	0.026
-143.516	-39.216	0.103	0.053
-142.502	324.701	0.126	0.236
-141.487	9.879	0.150	0.112
-140.472	-36.758	-0.195	-0.103
-139.458	56.614	-0.266	-0.254
-138.443	800.000	-0.040	0.142
-137.429	-17.649	-0.282	0.174
-136.414	800.000	-0.043	-0.125
-135.399	-200.000	0.054	0.679
-134.385	134.487	0.182	-0.231
-133.370	-7.720	-0.098	-0.065
-132.356	178.315	0.051	0.073
-131.341	-85.265	0.161	0.049
-130.326	-153.642	-0.249	-0.017
-129.312	-200.000	0.013	-0.124
-128.297	-152.400	0.140	0.010
-127.283	-143.217	0.210	0.020
-126.268	-200.000	0.040	-0.242
-125.253	800.000	-0.017	0.047
-124.239	-200.000	0.013	-0.103
-123.224	281.804	-0.143	0.251
-122.210	-200.000	-0.005	0.061
-121.195	800.000	0.015	-0.050
