DTS Sentinel unit serial number:	SN413079Multiplexer serial number:	ORYXHardware model number:	OX4-SRSoftware version number:	ORYX F/W v4.00 Oryx Data Collector v3.7.2.0data status	okinstallation	princeton_trtdifferential loss correction	single-endedforward channel	channel 3reverse channel	N/Adate	2019/09/15time	19:20:34forward acquisition time	60.00reverse acquisition time	0.00gamma	496.2192k internal	0.2297k external	0.2297temperature offset calibration	0.9932default loss term (dB/km)	0.3790temperature slope calibration	1.0000multiplexer offset coefficient	1.0000multiplexer slope coefficient	1.0000fibre end	0.00T internal ref (°C)	39.84T ext. ref 1 (°C)	7.22T ext. ref 2 (°C)	29.18length (m)	temperature (°C)	Stokes	anti-Stokes-747.200	-84.184	-0.278	0.090
-746.185	-4.015	0.322	0.228
-745.171	-131.516	0.277	-0.037
-744.156	-200.000	0.040	0.209
-743.142	-106.378	-0.174	0.040
-742.127	-200.000	-0.022	0.169
-741.112	239.446	-0.073	0.124
-740.098	50.099	0.101	0.097
-739.083	-85.956	-0.106	-0.033
-738.069	800.000	-0.043	0.121
-737.054	-132.972	0.336	0.044
-736.039	242.665	-0.058	0.099
-735.025	-200.000	-0.001	-0.177
-734.010	55.672	-0.310	-0.307
-732.996	537.672	0.065	-0.159
-731.981	-200.000	0.013	-0.183
-730.966	-3.244	-0.164	-0.116
-729.952	-128.597	-0.162	-0.023
-728.937	442.287	0.084	-0.187
-727.923	-120.913	-0.311	-0.054
-726.908	440.909	-0.155	0.347
-725.894	-139.657	-0.157	-0.017
-724.879	11.108	0.059	-0.046
-723.864	-200.000	-0.022	0.159
-722.850	-41.307	-0.269	-0.141
-721.835	24.529	-0.143	-0.121
-720.821	800.000	0.001	0.004
-719.806	-200.000	-0.008	-0.097
-718.791	4.651	-0.163	-0.122
-717.777	76.965	0.098	-0.106
-716.762	-11.312	-0.179	0.120
-715.748	-109.675	-0.183	0.039
-714.733	-87.084	-0.040	-0.012
-713.718	-20.352	0.252	0.158
-712.704	-102.947	-0.094	-0.023
-711.689	800.000	-0.122	0.349
-710.675	81.134	0.043	0.048
-709.660	800.000	-0.036	0.130
-708.645	-92.303	0.219	-0.063
-707.631	-53.160	-0.605	0.284
-706.616	602.079	-0.115	0.292
-705.602	-143.811	-0.132	-0.013
-704.587	-200.000	-0.039	0.179
-703.572	-200.000	0.001	0.198
-702.558	-20.850	-0.126	0.079
-701.543	-105.774	-0.208	0.048
-700.529	108.631	0.320	-0.389
-699.514	39.632	0.117	0.107
-698.499	-107.863	0.454	-0.101
-697.485	-200.000	-0.004	0.051
-696.470	364.572	0.160	0.328
-695.456	144.639	0.041	-0.056
-694.441	-200.000	-0.009	0.087
-693.426	90.191	-0.086	0.098
-692.412	13.279	-0.234	-0.185
-691.397	-5.658	-0.043	-0.030
-690.383	759.254	0.066	0.181
-689.368	115.212	-0.141	-0.175
-688.354	11.571	0.041	0.032
-687.339	-27.301	-0.165	-0.098
-686.324	-9.622	0.156	-0.106
-685.310	-25.352	-0.539	0.325
-684.295	-88.227	-0.299	0.091
-683.281	-120.383	-0.382	0.066
-682.266	296.422	0.090	0.169
-681.251	800.000	0.047	-0.171
-680.237	-128.713	-0.248	0.036
-679.222	217.857	-0.248	-0.403
-678.208	145.273	0.061	-0.083
-677.193	159.127	0.169	-0.239
-676.178	-10.750	0.049	-0.033
-675.164	-196.061	0.253	0.002
-674.149	297.245	0.111	0.208
-673.135	-146.409	-0.205	0.018
-672.120	246.583	-0.083	0.142
-671.105	391.575	-0.106	0.224
-670.091	-200.000	-0.032	0.204
-669.076	-102.734	0.103	-0.025
-668.062	499.152	0.110	-0.259
-667.047	-41.310	0.141	-0.074
-666.032	-40.795	-0.320	0.169
-665.018	47.582	-0.124	0.118
-664.003	-106.502	-0.211	-0.048
-662.989	-148.844	-0.369	-0.030
-661.974	-200.000	-0.021	0.168
-660.959	-33.263	-0.265	0.150
-659.945	112.169	0.135	0.167
-658.930	800.000	0.056	-0.173
-657.916	-48.559	-0.123	0.060
-656.901	404.983	0.122	0.262
-655.886	31.023	0.221	-0.192
-654.872	230.545	-0.091	-0.151
-653.857	-200.000	0.018	-0.149
-652.843	-1.016	0.067	0.048
-651.828	-200.000	-0.010	0.324
-650.814	800.000	0.038	0.132
-649.799	31.074	-0.300	0.262
-648.784	-113.242	-0.338	-0.068
-647.770	-200.000	-0.012	-0.134
-646.755	7.923	-0.286	0.218
-645.741	-60.657	0.146	-0.063
-644.726	-118.164	-0.328	0.059
-643.711	-74.244	0.133	-0.049
-642.697	800.000	-0.055	-0.242
-641.682	-49.000	-0.144	-0.070
-640.668	47.813	-0.070	-0.066
-639.653	130.610	-0.158	0.206
-638.638	639.254	0.130	-0.337
-637.624	-38.133	-0.109	-0.059
-636.609	-162.304	-0.239	-0.012
-635.595	20.835	0.171	-0.141
-634.580	53.376	0.034	-0.033
-633.565	74.186	-0.248	-0.265
-632.551	-69.943	-0.436	-0.169
-631.536	-200.000	-0.023	-0.222
-630.522	-23.118	0.224	0.137
-629.507	-200.000	-0.042	0.285
-628.492	-49.022	-0.158	0.077
-627.478	125.663	0.244	0.313
-626.463	800.000	-0.047	0.158
-625.449	300.822	-0.106	-0.200
-624.434	-3.757	-0.192	-0.135
-623.419	-63.669	-0.384	-0.160
-622.405	-200.000	-0.017	0.137
-621.390	-197.435	-0.387	-0.002
-620.376	517.785	-0.126	0.300
-619.361	-39.911	-0.203	0.108
-618.346	-35.549	0.241	0.133
-617.332	-41.790	-0.283	0.147
-616.317	800.000	0.075	-0.328
-615.303	-129.812	0.153	0.021
-614.288	-200.000	0.041	-0.521
-613.273	18.553	-0.250	-0.203
-612.259	800.000	0.056	0.165
-611.244	-192.388	-0.193	0.002
-610.230	-200.000	-0.041	-0.290
-609.215	-120.528	0.334	-0.058
-608.201	-91.951	0.187	0.054
-607.186	-36.953	-0.302	0.164
-606.171	279.163	-0.125	0.226
-605.157	-107.668	-0.059	-0.013
-604.142	379.369	0.198	-0.412
-603.128	85.158	-0.224	-0.249
-602.113	163.145	-0.099	-0.142
-601.098	-75.229	0.284	-0.103
-600.084	-14.459	-0.168	0.110
-599.069	-64.371	0.288	-0.119
-598.055	59.908	0.158	-0.159
-597.040	41.127	-0.150	-0.138
-596.025	-57.654	0.172	-0.077
-595.011	222.479	0.145	0.237
-593.996	-111.927	-0.268	0.055
-592.982	-171.173	-0.439	0.015
-591.967	800.000	0.082	-0.293
-590.952	-200.000	-0.021	-0.213
-589.938	800.000	0.054	0.206
-588.923	-200.000	0.028	-0.154
-587.909	-40.815	-0.236	-0.124
-586.894	-200.000	-0.026	-0.273
-585.879	-11.064	0.264	-0.177
-584.865	-200.000	-0.010	0.219
-583.850	-101.499	0.072	0.018
-582.836	800.000	-0.052	0.153
-581.821	105.435	-0.173	-0.208
-580.806	-200.000	-0.053	-0.275
-579.792	165.965	-0.080	-0.115
-578.777	-200.000	0.002	-0.085
-577.763	-200.000	-0.039	-0.219
-576.748	-75.436	0.142	-0.051
-575.733	376.936	0.130	-0.270
-574.719	148.600	0.087	0.119
-573.704	-55.960	0.206	-0.093
-572.690	-200.000	0.013	-0.267
-571.675	-68.024	0.137	-0.054
-570.661	-60.887	-0.349	0.150
-569.646	38.534	0.192	0.174
-568.631	214.782	-0.035	-0.056
-567.617	-79.936	-0.160	0.055
-566.602	800.000	0.029	-0.090
-565.588	-81.324	0.171	0.057
-564.573	51.851	0.186	0.180
-563.558	-25.687	-0.125	-0.075
-562.544	-100.891	-0.251	-0.063
-561.529	100.326	0.170	-0.200
-560.515	673.104	0.060	-0.158
-559.500	92.932	-0.194	0.223
-558.485	-63.169	-0.156	-0.065
-557.471	84.395	0.240	-0.266
-556.456	297.949	-0.291	-0.541
-555.442	800.000	-0.027	-0.076
-554.427	-80.713	-0.087	-0.029
-553.412	-25.475	0.093	0.055
-552.398	-53.694	-0.425	-0.197
-551.383	66.346	-0.311	0.321
-550.369	93.645	0.091	0.104
-549.354	156.936	0.165	-0.231
-548.339	-135.530	0.028	0.003
-547.325	-200.000	-0.020	0.310
-546.310	156.182	-0.116	0.162
-545.296	800.000	-0.069	-0.271
-544.281	-29.717	0.189	-0.109
-543.266	-119.520	0.158	0.028
-542.252	17.219	0.144	-0.116
-541.237	-56.407	-0.209	0.094
-540.223	-42.201	-0.170	-0.088
-539.208	68.269	-0.193	-0.201
-538.193	192.893	0.100	-0.153
-537.179	180.077	0.103	0.154
-536.164	-7.450	0.347	0.238
-535.150	-25.576	-0.248	0.149
-534.135	81.374	-0.247	0.271
-533.121	-7.904	0.320	0.219
-532.106	-162.827	0.032	-0.002
-531.091	-100.159	-0.206	0.052
-530.077	126.073	0.136	-0.174
-529.062	41.129	-0.241	0.221
-528.048	-29.249	0.232	-0.135
-527.033	-28.371	0.355	0.207
-526.018	-104.535	0.213	-0.050
-525.004	800.000	0.164	-0.488
-523.989	-200.000	-0.029	0.413
-522.975	223.463	-0.093	0.152
-521.960	-26.129	0.172	-0.102
-520.945	573.701	0.079	0.194
-519.931	535.431	0.078	0.188
-518.916	-200.000	0.010	0.339
-517.902	-43.128	-0.092	-0.047
-516.887	-86.177	-0.359	0.112
-515.872	-200.000	-0.037	0.245
-514.858	112.668	0.238	0.292
-513.843	516.314	0.029	0.069
-512.829	-75.452	-0.235	-0.085
-511.814	-49.664	0.328	-0.158
-510.799	-200.000	-0.009	-0.178
-509.785	23.413	0.348	-0.290
-508.770	8.130	-0.165	0.125
-507.756	231.768	-0.149	0.248
-506.741	-180.827	0.102	0.002
-505.726	800.000	-0.096	-0.332
-504.712	-16.420	0.110	0.071
-503.697	-99.673	-0.217	-0.055
-502.683	-107.296	0.173	-0.039
-501.668	56.106	-0.147	0.145
-500.653	-98.186	-0.205	0.053
-499.639	-69.541	-0.321	-0.124
-498.624	-10.969	-0.192	0.128
-497.610	-48.998	-0.144	0.070
-496.595	-164.663	0.282	-0.013
-495.581	343.157	-0.125	0.248
-494.566	-200.000	0.020	0.203
-493.551	-20.317	0.258	0.160
-492.537	494.136	0.064	-0.148
-491.522	-169.596	0.066	0.002
-490.508	377.406	-0.056	0.117
-489.493	237.329	0.078	-0.131
-488.478	-200.000	-0.051	0.285
-487.464	12.299	0.302	0.235
-486.449	257.671	0.230	-0.401
-485.435	-112.246	0.063	-0.013
-484.420	-102.147	-0.123	-0.030
-483.405	-200.000	0.013	0.224
-482.391	-200.000	0.009	0.137
-481.376	152.814	0.080	0.111
-480.362	-141.789	-0.148	0.015
-479.347	71.076	-0.134	0.141
-478.332	-133.400	0.269	0.034
-477.318	-103.146	0.057	-0.014
-476.303	-86.375	0.119	-0.037
-475.289	-194.512	0.195	-0.002
-474.274	-136.905	-0.064	-0.007
-473.259	-80.553	0.215	-0.072
-472.245	-153.546	-0.274	0.019
-471.230	-86.113	-0.052	-0.016
-470.216	-200.000	-0.002	0.014
-469.201	-200.000	0.005	-0.072
-468.186	-200.000	0.008	-0.046
-467.172	134.043	0.091	0.120
-466.157	29.314	-0.204	0.175
-465.143	800.000	-0.064	-0.216
-464.128	202.559	0.239	0.373
-463.113	28.484	0.107	-0.092
-462.099	22.135	-0.220	0.181
-461.084	800.000	0.044	0.158
-460.070	68.246	-0.203	-0.210
-459.055	-138.525	0.455	-0.051
-458.040	110.780	0.135	-0.164
-457.026	310.553	0.122	-0.230
-456.011	379.044	0.055	0.113
-454.997	-124.023	-0.375	0.060
-453.982	149.782	0.124	0.170
-452.968	-44.902	-0.211	-0.106
-451.953	800.000	0.020	0.079
-450.938	-14.359	0.234	0.152
-449.924	160.591	-0.323	0.456
-448.909	-141.472	-0.011	-0.001
-447.895	-58.374	0.102	-0.045
-446.880	-200.000	-0.043	-0.312
-445.865	267.584	0.128	0.226
-444.851	89.363	0.131	0.147
-443.836	45.728	0.155	-0.144
-442.822	-16.799	-0.204	0.130
-441.807	-181.858	-0.122	-0.002
-440.792	-200.000	-0.006	0.100
-439.778	-178.370	0.125	-0.003
-438.763	379.448	0.061	0.126
-437.749	-200.000	0.002	0.033
-436.734	-80.814	0.321	0.108
-435.719	-198.681	0.425	0.002
-434.705	-200.000	0.016	-0.162
-433.690	-200.000	-0.019	-0.115
-432.676	800.000	-0.090	0.262
-431.661	-137.203	0.299	-0.034
-430.646	447.255	0.053	-0.118
-429.632	-200.000	0.021	-0.197
-428.617	-200.000	0.000	0.069
-427.603	-85.032	0.067	-0.021
-426.588	-8.169	-0.120	0.082
-425.573	-200.000	-0.016	0.281
-424.559	-110.458	0.153	-0.032
-423.544	-33.306	-0.309	0.172
-422.530	87.643	0.255	0.285
-421.515	-153.120	0.099	0.007
-420.500	-125.823	0.059	0.009
-419.486	-145.052	0.050	-0.005
-418.471	733.464	0.066	0.177
-417.457	97.980	0.254	0.295
-416.442	240.334	0.095	0.161
-415.428	6.506	-0.130	0.098
-414.413	-154.333	0.174	-0.012
-413.398	800.000	-0.028	0.103
-412.384	110.817	0.084	-0.102
-411.369	18.250	-0.236	-0.190
-410.355	-158.730	-0.396	0.023
-409.340	258.107	-0.160	0.277
-408.325	800.000	-0.051	0.161
-407.311	113.214	-0.034	0.042
-406.296	-12.689	-0.177	0.116
-405.282	-132.894	-0.131	-0.017
-404.267	800.000	-0.010	-0.033
-403.252	-55.798	-0.142	-0.064
-402.238	800.000	0.061	0.247
-401.223	627.666	-0.064	-0.164
-400.209	-12.675	-0.251	-0.165
-399.194	-71.230	-0.205	0.078
-398.179	-111.746	-0.246	-0.050
-397.165	418.147	-0.035	0.076
-396.150	-200.000	0.055	0.440
-395.136	-111.741	-0.158	-0.032
-394.121	125.072	-0.120	-0.152
-393.106	-185.523	-0.311	0.005
-392.092	66.599	-0.087	-0.089
-391.077	800.000	-0.062	0.183
-390.063	274.449	-0.012	0.022
-389.048	-79.323	-0.051	0.018
-388.033	800.000	0.034	-0.146
-387.019	98.115	0.193	-0.224
-386.004	190.689	0.127	0.193
-384.990	-180.578	0.187	0.004
-383.975	506.006	0.117	0.272
-382.960	-200.000	0.002	-0.089
-381.946	36.055	0.103	0.091
-380.931	-65.711	0.369	-0.149
-379.917	-27.420	0.103	-0.060
-378.902	-16.521	-0.243	-0.155
-377.888	178.891	0.213	-0.313
-376.873	-17.990	0.240	0.152
-375.858	148.241	0.105	-0.142
-374.844	239.141	0.097	-0.163
-373.829	800.000	-0.150	-0.473
-372.815	-38.418	0.274	0.146
-371.800	-46.972	-0.217	0.107
-370.785	46.310	-0.249	0.232
-369.771	67.527	0.168	0.173
-368.756	-103.548	-0.427	0.101
-367.742	90.122	0.173	-0.194
-366.727	800.000	0.045	0.197
-365.712	104.186	0.091	-0.108
-364.698	800.000	0.076	-0.262
-363.683	170.592	-0.072	-0.104
-362.669	-200.000	0.001	-0.173
-361.654	54.789	0.135	0.131
-360.639	218.841	0.056	0.090
-359.625	14.676	-0.224	-0.176
-358.610	191.621	-0.153	-0.232
-357.596	343.812	-0.015	0.029
-356.581	-24.261	0.209	-0.126
-355.566	800.000	0.081	0.269
-354.552	206.416	0.161	-0.252
-353.537	-119.053	0.186	0.033
-352.523	-32.997	-0.335	0.187
-351.508	412.311	-0.023	0.049
-350.493	-147.722	-0.220	0.019
-349.479	57.543	-0.211	-0.208
-348.464	532.158	0.105	-0.250
-347.450	-143.464	0.066	0.006
-346.435	-71.041	0.492	0.186
-345.420	68.951	-0.091	0.094
-344.406	101.404	0.083	-0.098
-343.391	283.971	-0.144	0.261
-342.377	-200.000	-0.006	-0.092
-341.362	-91.755	0.308	0.088
-340.348	-54.328	0.272	-0.124
-339.333	-44.774	0.331	0.166
-338.318	94.717	-0.088	-0.101
-337.304	-9.233	-0.159	0.107
-336.289	90.750	0.237	-0.267
-335.275	-96.533	0.366	0.097
-334.260	-200.000	-0.039	-0.337
-333.245	-100.215	-0.102	0.025
-332.231	-85.533	-0.257	-0.080
-331.216	800.000	0.021	0.071
-330.202	-138.615	-0.222	-0.024
-329.187	-129.268	0.131	-0.018
-328.172	800.000	0.021	-0.080
-327.158	77.661	0.113	-0.121
-326.143	-100.115	0.026	0.006
-325.129	-105.815	0.243	0.055
-324.114	-45.338	-0.262	0.131
-323.099	800.000	-0.047	0.132
-322.085	74.891	-0.211	-0.223
-321.070	207.169	-0.072	-0.113
-320.056	-200.000	0.010	0.250
-319.041	-200.000	-0.016	0.177
-318.026	-4.758	-0.054	0.038
-317.012	-47.461	-0.256	0.125
-315.997	9.425	0.198	-0.151
-314.983	68.243	0.049	0.051
-313.968	-79.908	0.317	0.107
-312.953	127.341	0.208	-0.265
-311.939	-88.903	0.221	-0.066
-310.924	-200.000	0.010	-0.061
-309.910	33.596	0.400	-0.349
-308.895	-112.738	-0.059	0.012
-307.880	-72.584	-0.207	0.077
-306.866	-94.231	-0.217	0.060
-305.851	164.623	0.158	-0.223
-304.837	5.167	-0.270	-0.200
-303.822	202.677	0.041	0.063
-302.807	14.947	0.129	-0.101
-301.793	-200.000	0.002	0.111
-300.778	-46.287	0.232	0.115
-299.764	-171.190	-0.189	0.006
-298.749	-45.144	0.299	0.149
-297.735	-70.496	-0.317	0.120
-296.720	79.736	-0.117	0.126
-295.705	155.065	0.120	-0.166
-294.691	800.000	0.094	0.405
-293.676	-26.395	-0.579	0.341
-292.662	92.054	0.091	-0.103
-291.647	-109.944	0.129	-0.027
-290.632	-134.736	0.142	-0.017
-289.618	-156.396	0.104	0.007
-288.603	-200.000	-0.049	-0.289
-287.589	260.714	-0.096	-0.166
-286.574	800.000	-0.050	-0.169
-285.559	-200.000	0.036	0.174
-284.545	800.000	0.083	-0.248
-283.530	800.000	-0.058	0.206
-282.516	-119.874	-0.239	-0.041
-281.501	238.087	0.143	-0.238
-280.486	110.250	-0.134	-0.162
-279.472	-127.257	0.024	-0.004
-278.457	-200.000	0.046	-0.207
-277.443	-12.968	-0.197	0.129
-276.428	-200.000	-0.048	0.241
-275.413	-142.800	0.211	0.021
-274.399	213.096	0.044	0.069
-273.384	800.000	-0.054	-0.167
-272.370	-157.430	0.097	-0.006
-271.355	-4.025	0.294	0.205
-270.340	-80.789	-0.223	-0.074
-269.326	-57.243	-0.396	0.175
-268.311	-105.037	0.179	-0.041
-267.297	800.000	0.107	-0.329
-266.282	-85.694	-0.078	0.024
-265.267	-8.920	0.133	-0.089
-264.253	-200.000	-0.015	-0.179
-263.238	-52.926	-0.372	-0.172
-262.224	14.986	0.097	-0.076
-261.209	200.209	0.124	-0.191
-260.195	782.837	0.093	-0.256
-259.180	-25.817	0.078	-0.046
-258.165	-102.035	0.437	-0.106
-257.151	443.419	-0.074	0.163
-256.136	127.751	0.056	0.071
-255.122	46.449	-0.097	0.090
-254.107	47.185	-0.187	0.174
-253.092	800.000	0.047	-0.175
-252.078	800.000	-0.076	0.237
-251.063	-165.914	-0.079	-0.003
-250.049	-124.698	0.164	0.025
-249.034	-24.810	0.171	0.102
-248.019	184.091	0.112	0.166
-247.005	-200.000	-0.020	0.343
-245.990	-200.000	0.000	0.104
-244.976	-200.000	-0.038	0.448
-243.961	-200.000	-0.002	0.237
-242.946	-177.344	-0.191	-0.005
-241.932	-134.408	0.127	0.016
-240.917	800.000	0.108	0.325
-239.903	-170.765	0.140	0.005
-238.888	-41.319	0.204	-0.105
-237.873	529.273	0.052	-0.123
-236.859	-82.422	-0.061	-0.020
-235.844	-200.000	-0.012	0.200
-234.830	-200.000	-0.002	0.203
-233.815	-91.080	-0.232	-0.067
-232.800	-136.565	-0.103	0.012
-231.786	24.375	0.052	-0.043
-230.771	-144.121	0.235	-0.022
-229.757	800.000	0.054	-0.162
-228.742	-126.205	0.385	-0.058
-227.727	-200.000	0.029	-0.346
-226.713	-149.465	0.433	-0.034
-225.698	-76.895	-0.097	-0.034
-224.684	211.644	-0.092	0.145
-223.669	195.205	-0.184	-0.280
-222.655	458.312	-0.159	-0.353
-221.640	109.077	-0.203	0.243
-220.625	94.932	-0.116	0.132
-219.611	-142.248	-0.154	-0.015
-218.596	7.429	0.167	-0.125
-217.582	-200.000	-0.057	0.268
-216.567	296.425	0.094	-0.173
-215.552	-200.000	-0.019	0.111
-214.538	-152.853	0.205	0.015
-213.523	395.347	-0.088	0.183
-212.509	49.668	-0.204	0.192
-211.494	725.078	-0.064	0.170
-210.479	800.000	-0.120	0.397
-209.465	-112.885	0.225	0.045
-208.450	232.318	0.055	-0.091
-207.436	-94.925	0.199	-0.054
-206.421	195.961	-0.111	-0.169
-205.406	-200.000	0.005	-0.024
-204.392	11.442	-0.046	0.036
-203.377	281.622	-0.042	-0.075
-202.363	76.806	0.022	-0.024
-201.348	-200.000	0.001	-0.044
-200.333	69.060	0.089	0.091
-199.319	229.053	-0.120	-0.196
-198.304	800.000	0.063	0.216
-197.290	-72.284	0.335	0.124
-196.275	617.734	-0.179	-0.450
-195.260	-75.002	0.030	-0.011
-194.246	409.312	-0.080	-0.169
-193.231	800.000	0.025	0.098
-192.217	-34.100	-0.286	0.157
-191.202	311.174	0.046	-0.086
-190.187	-175.813	0.367	0.010
-189.173	81.691	0.167	-0.180
-188.158	290.172	0.111	0.202
-187.144	42.416	-0.186	0.169
-186.129	94.594	0.141	0.161
-185.114	-26.406	-0.228	0.134
-184.100	77.642	0.080	0.085
-183.085	97.619	-0.209	-0.240
-182.071	170.799	-0.276	0.395
-181.056	-75.391	0.104	-0.037
-180.042	245.914	0.071	-0.120
-179.027	-200.000	-0.012	-0.075
-178.012	-126.302	-0.077	0.011
-176.998	0.988	-0.228	-0.163
-175.983	-97.093	0.286	0.075
-174.969	574.241	0.090	-0.219
-173.954	14.157	-0.283	-0.220
-172.939	211.722	-0.182	0.286
-171.925	228.534	-0.143	-0.232
-170.910	-145.225	0.322	-0.029
-169.896	-188.416	0.353	-0.004
-168.881	137.394	-0.086	-0.113
-167.866	-29.108	0.053	-0.030
-166.852	800.000	0.143	0.415
-165.837	185.749	-0.118	-0.175
-164.823	-65.848	0.150	-0.060
-163.808	190.306	0.080	0.120
-162.793	-96.493	0.195	0.051
-161.779	-94.163	0.239	0.065
-160.764	-104.711	-0.628	-0.144
-159.750	-200.000	0.018	-0.085
-158.735	-85.206	-0.248	0.077
-157.720	-126.542	-0.153	0.023
-156.706	-15.684	-0.180	-0.114
-155.691	-43.300	0.165	-0.083
-154.677	-145.336	0.304	0.027
-153.662	-200.000	-0.003	0.043
-152.647	-187.467	-0.205	0.003
-151.633	255.165	0.165	-0.281
-150.618	-26.720	0.332	0.194
-149.604	348.966	0.063	0.124
-148.589	-90.188	-0.369	0.107
-147.574	-159.184	0.142	-0.008
-146.560	-50.428	0.056	0.027
-145.545	-102.456	0.177	-0.042
-144.531	-119.811	-0.116	0.020
-143.516	-86.202	0.186	-0.057
-142.502	-34.116	0.168	-0.092
-141.487	477.188	-0.033	-0.074
-140.472	-36.418	-0.217	-0.116
-139.458	41.352	0.182	-0.164
-138.443	102.704	0.247	-0.288
-137.429	-3.765	0.128	-0.089
-136.414	320.443	0.065	0.123
-135.399	-47.952	0.085	-0.041
-134.385	263.081	-0.086	-0.149
-133.370	-43.732	0.234	0.117
-132.356	800.000	0.084	0.361
-131.341	-133.074	0.126	0.016
-130.326	-129.760	0.252	0.035
-129.312	395.791	-0.059	0.124
-128.297	73.747	-0.116	0.122
-127.283	398.573	-0.068	-0.142
-126.268	-200.000	-0.003	0.147
-125.253	353.583	0.095	-0.188
-124.239	117.096	-0.164	-0.201
-123.224	-200.000	0.009	0.121
-122.210	-115.475	0.347	0.065
-121.195	-200.000	-0.054	-0.268
