DTS Sentinel unit serial number:	SN413079Multiplexer serial number:	ORYXHardware model number:	OX4-SRSoftware version number:	ORYX F/W v4.00 Oryx Data Collector v3.7.2.0data status	okinstallation	princeton_trtdifferential loss correction	single-endedforward channel	channel 3reverse channel	N/Adate	2019/09/12time	10:54:11forward acquisition time	60.00reverse acquisition time	0.00gamma	496.2192k internal	0.2295k external	0.2295temperature offset calibration	1.0034default loss term (dB/km)	0.3790temperature slope calibration	1.0000multiplexer offset coefficient	1.0000multiplexer slope coefficient	1.0000fibre end	0.00T internal ref (°C)	38.14T ext. ref 1 (°C)	1.92T ext. ref 2 (°C)	36.59length (m)	temperature (°C)	Stokes	anti-Stokes-747.200	73.574	-0.031	0.034
-746.185	800.000	0.021	-0.073
-745.171	10.330	0.204	0.159
-744.156	11.387	-0.196	0.154
-743.142	565.577	-0.100	0.247
-742.127	86.316	-0.126	-0.141
-741.112	-50.480	-0.070	0.034
-740.098	-61.127	-0.129	0.055
-739.083	-200.000	-0.026	0.192
-738.069	800.000	-0.104	0.302
-737.054	-200.000	0.020	-0.185
-736.039	581.707	0.072	0.181
-735.025	-200.000	-0.049	-0.286
-734.010	-41.093	0.297	0.157
-732.996	-14.707	-0.101	-0.066
-731.981	800.000	0.047	-0.149
-730.966	-87.597	-0.431	-0.133
-729.952	-46.455	-0.363	0.182
-728.937	32.248	0.024	0.021
-727.923	-120.708	-0.396	0.068
-726.908	3.800	-0.255	-0.190
-725.894	-26.408	-0.194	-0.116
-724.879	-33.008	-0.202	-0.114
-723.864	-82.740	0.235	-0.078
-722.850	-107.831	-0.288	0.064
-721.835	62.799	-0.170	-0.174
-720.821	-200.000	-0.011	-0.157
-719.806	-53.143	-0.087	0.041
-718.791	800.000	-0.084	-0.371
-717.777	-200.000	0.060	0.340
-716.762	101.917	0.172	0.205
-715.748	-63.812	0.447	0.187
-714.733	235.613	-0.090	0.151
-713.718	-200.000	-0.002	0.065
-712.704	-200.000	0.024	0.140
-711.689	54.329	-0.070	-0.069
-710.675	380.755	0.154	0.322
-709.660	-148.222	-0.079	-0.007
-708.645	692.778	0.130	0.349
-707.631	-16.437	-0.162	0.105
-706.616	100.385	-0.026	-0.031
-705.602	-200.000	0.004	-0.152
-704.587	-69.289	0.209	0.082
-703.572	152.830	-0.216	-0.301
-702.558	-163.676	-0.042	-0.002
-701.543	10.059	-0.111	-0.086
-700.529	-119.150	-0.064	0.011
-699.514	102.866	-0.128	-0.153
-698.499	323.275	-0.053	-0.102
-697.485	-200.000	0.043	-0.370
-696.470	-200.000	-0.014	0.217
-695.456	800.000	0.115	-0.360
-694.441	327.291	-0.045	-0.088
-693.426	800.000	0.055	-0.183
-692.412	213.965	-0.149	-0.240
-691.397	-75.126	-0.124	-0.045
-690.383	-33.579	0.367	0.206
-689.368	85.662	0.138	-0.155
-688.354	119.862	-0.103	0.130
-687.339	-200.000	0.028	-0.490
-686.324	62.387	0.104	-0.106
-685.310	-89.699	-0.150	-0.045
-684.295	5.385	-0.079	-0.059
-683.281	800.000	0.023	0.097
-682.266	-12.388	-0.361	-0.240
-681.251	565.290	-0.156	-0.386
-680.237	-110.366	0.360	0.076
-679.222	-55.813	-0.310	-0.141
-678.208	200.417	-0.172	0.270
-677.193	132.802	-0.045	-0.059
-676.178	-6.888	0.146	0.101
-675.164	54.604	0.070	0.069
-674.149	800.000	-0.073	0.208
-673.135	106.437	-0.379	-0.458
-672.120	-138.181	0.389	-0.044
-671.105	275.049	0.088	0.159
-670.091	-107.674	0.242	-0.054
-669.076	310.995	0.040	0.076
-668.062	800.000	0.081	0.292
-667.047	-25.628	-0.140	-0.084
-666.032	800.000	-0.060	0.254
-665.018	-15.526	-0.106	0.069
-664.003	109.082	-0.096	-0.117
-662.989	-200.000	-0.018	0.117
-661.974	103.756	0.130	-0.156
-660.959	-168.708	-0.176	0.007
-659.945	331.677	-0.036	0.071
-658.930	-80.260	0.180	-0.061
-657.916	-200.000	-0.002	-0.168
-656.901	-136.350	-0.305	0.036
-655.886	800.000	-0.098	-0.428
-654.872	795.313	-0.223	-0.627
-653.857	773.763	0.156	-0.433
-652.843	-200.000	0.042	-0.269
-651.828	243.451	0.095	-0.163
-650.814	-14.394	-0.116	0.076
-649.799	-200.000	-0.026	-0.352
-648.784	-200.000	0.017	0.138
-647.770	-127.409	0.256	-0.038
-646.755	-200.000	0.000	-0.150
-645.741	800.000	0.064	0.207
-644.726	-23.225	0.132	-0.081
-643.711	-200.000	0.008	-0.298
-642.697	159.214	0.129	0.183
-641.682	68.266	0.124	-0.130
-640.668	383.551	-0.118	-0.247
-639.653	133.626	0.131	-0.172
-638.638	-76.969	0.095	0.034
-637.624	-76.055	-0.304	0.109
-636.609	229.288	-0.103	-0.172
-635.595	-88.916	-0.411	0.124
-634.580	175.781	-0.081	0.119
-633.565	-200.000	0.026	-0.118
-632.551	10.748	0.167	-0.130
-631.536	331.524	0.092	0.180
-630.522	800.000	0.061	0.175
-629.507	-45.627	-0.028	0.014
-628.492	800.000	-0.144	0.456
-627.478	-200.000	0.098	-0.000
-626.463	48.835	0.144	-0.138
-625.449	305.902	0.121	0.229
-624.434	-94.712	-0.218	-0.060
-623.419	-200.000	0.003	0.160
-622.405	800.000	-0.046	0.201
-621.390	93.766	-0.047	-0.054
-620.376	164.503	-0.121	-0.174
-619.361	-141.210	0.269	0.028
-618.346	-107.579	0.325	0.072
-617.332	-200.000	-0.006	-0.065
-616.317	-200.000	0.041	-0.389
-615.303	695.239	-0.116	-0.310
-614.288	-159.669	0.238	-0.013
-613.273	8.994	0.188	-0.144
-612.259	800.000	-0.036	-0.104
-611.244	-46.609	0.094	0.047
-610.230	100.988	-0.203	-0.240
-609.215	733.231	0.061	-0.167
-608.201	-49.548	0.221	-0.107
-607.186	48.190	0.213	0.203
-606.171	201.396	-0.126	0.197
-605.157	-127.124	0.160	0.024
-604.142	-200.000	-0.000	-0.083
-603.128	-156.321	-0.074	-0.005
-602.113	-8.558	-0.367	-0.250
-601.098	-200.000	-0.012	-0.069
-600.084	-200.000	0.002	0.112
-599.069	335.082	0.083	0.164
-598.055	255.809	0.187	-0.326
-597.040	-174.124	-0.167	0.005
-596.025	-68.822	0.224	-0.088
-595.011	453.644	0.035	-0.078
-593.996	375.599	-0.023	-0.047
-592.982	270.742	-0.166	0.297
-591.967	194.982	0.097	0.150
-590.952	-123.070	-0.072	0.012
-589.938	-133.532	-0.331	0.042
-588.923	275.850	-0.095	0.170
-587.909	800.000	0.051	0.161
-586.894	69.699	-0.038	0.040
-585.879	800.000	-0.063	0.189
-584.865	-138.921	0.165	-0.018
-583.850	-94.720	0.236	0.065
-582.836	346.742	-0.200	-0.400
-581.821	-25.837	-0.293	0.176
-580.806	68.853	-0.210	0.219
-579.792	-51.172	-0.234	-0.112
-578.777	-200.000	0.013	-0.100
-577.763	-122.419	-0.214	-0.035
-576.748	109.194	0.083	-0.101
-575.733	-200.000	-0.028	-0.137
-574.719	132.803	0.262	0.344
-573.704	76.441	0.196	0.211
-572.690	-43.129	-0.417	-0.215
-571.675	-82.407	-0.372	0.123
-570.661	8.981	-0.186	-0.143
-569.646	-200.000	-0.078	-0.421
-568.631	72.667	-0.090	0.095
-567.617	-200.000	-0.003	0.159
-566.602	-115.264	-0.101	-0.019
-565.588	-200.000	-0.027	0.289
-564.573	86.701	-0.185	0.207
-563.558	-200.000	-0.002	-0.027
-562.544	49.120	-0.166	-0.158
-561.529	-58.882	-0.210	0.092
-560.515	370.995	0.056	0.116
-559.500	-10.374	-0.171	0.115
-558.485	152.432	-0.116	-0.161
-557.471	384.246	0.108	-0.227
-556.456	420.252	-0.128	-0.278
-555.442	267.901	-0.197	-0.350
-554.427	800.000	0.056	-0.159
-553.412	2.038	-0.138	-0.101
-552.398	95.129	0.175	-0.203
-551.383	72.924	0.288	-0.305
-550.369	19.280	-0.173	-0.141
-549.354	19.997	0.271	0.221
-548.339	-200.000	-0.023	0.203
-547.325	-145.820	0.340	0.031
-546.310	0.837	-0.155	-0.113
-545.296	488.211	-0.046	-0.108
-544.281	-132.265	0.113	0.015
-543.266	-48.661	-0.165	0.081
-542.252	-200.000	-0.031	-0.244
-541.237	-200.000	0.015	-0.288
-540.223	468.476	-0.078	0.178
-539.208	94.599	-0.078	-0.090
-538.193	-121.838	0.123	-0.021
-537.179	-152.667	-0.175	-0.013
-536.164	-200.000	-0.026	0.181
-535.150	-200.000	-0.062	0.300
-534.135	160.956	0.091	0.128
-533.121	25.744	-0.227	0.192
-532.106	-18.763	0.201	0.127
-531.091	-139.791	0.203	0.022
-530.077	-116.049	0.122	-0.023
-529.062	-17.062	0.016	-0.010
-528.048	26.273	-0.246	-0.208
-527.033	-21.624	0.176	0.109
-526.018	-84.368	-0.277	0.089
-525.004	-136.544	0.380	-0.045
-523.989	95.294	0.215	-0.249
-522.975	351.737	-0.201	0.404
-521.960	-200.000	0.016	0.113
-520.945	-200.000	-0.003	-0.093
-519.931	-97.740	0.084	0.022
-518.916	-10.028	0.303	-0.204
-517.902	-200.000	0.003	-0.238
-516.887	77.537	-0.074	-0.079
-515.872	179.979	0.162	-0.241
-514.858	-200.000	-0.056	0.329
-513.843	-95.694	-0.313	0.085
-512.829	-124.887	0.067	-0.011
-511.814	-113.036	-0.157	-0.031
-510.799	76.961	0.160	0.172
-509.785	-118.414	-0.258	0.046
-508.770	-164.175	0.254	0.012
-507.756	289.517	0.045	0.084
-506.741	-11.634	-0.138	0.092
-505.726	-89.148	0.114	0.034
-504.712	257.686	0.097	-0.170
-503.697	106.337	-0.105	-0.126
-502.683	-101.969	-0.132	-0.032
-501.668	800.000	0.121	-0.350
-500.653	130.229	0.144	-0.187
-499.639	166.215	-0.044	-0.063
-498.624	800.000	-0.067	0.218
-497.610	-116.266	0.567	0.106
-496.595	-200.000	0.049	-0.349
-495.581	-200.000	0.013	-0.133
-494.566	-109.179	0.128	-0.028
-493.551	-153.115	-0.218	-0.016
-492.537	800.000	-0.065	-0.234
-491.522	-35.605	-0.034	-0.019
-490.508	-116.768	-0.196	-0.036
-489.493	-26.602	-0.058	0.034
-488.478	-199.460	-0.251	0.001
-487.464	-141.297	0.157	-0.016
-486.449	-200.000	-0.036	0.202
-485.435	-163.047	0.353	0.017
-484.420	17.023	-0.433	-0.347
-483.405	-200.000	0.034	0.174
-482.391	191.128	0.189	0.288
-481.376	162.740	0.035	-0.050
-480.362	-30.603	0.222	-0.127
-479.347	-200.000	0.052	0.252
-478.332	185.258	0.095	-0.142
-477.318	-77.545	0.279	-0.098
-476.303	239.267	0.084	0.141
-475.289	-95.668	-0.275	0.074
-474.274	367.574	-0.044	0.090
-473.259	-5.668	0.048	0.033
-472.245	340.496	-0.023	-0.045
-471.230	-200.000	0.014	-0.082
-470.216	88.304	-0.099	0.111
-469.201	481.990	0.070	-0.161
-468.186	-72.964	-0.185	-0.069
-467.172	82.507	-0.077	0.085
-466.157	-200.000	0.009	-0.330
-465.143	-200.000	0.023	-0.115
-464.128	800.000	-0.038	0.153
-463.113	-200.000	0.043	0.232
-462.099	-200.000	-0.018	-0.253
-461.084	344.087	-0.088	-0.174
-460.070	-200.000	-0.049	0.257
-459.055	209.579	0.052	-0.082
-458.040	7.035	0.352	-0.265
-457.026	-109.274	0.065	-0.014
-456.011	739.653	-0.102	-0.277
-454.997	-200.000	0.018	0.084
-453.982	-115.897	0.257	-0.049
-452.968	78.252	0.384	0.415
-451.953	-200.000	-0.003	-0.086
-450.938	104.366	-0.104	0.124
-449.924	293.815	-0.015	0.027
-448.909	-79.591	-0.125	-0.043
-447.895	-142.064	0.288	-0.029
-446.880	220.334	-0.116	0.188
-445.865	251.484	-0.135	0.233
-444.851	800.000	0.040	0.167
-443.836	48.202	-0.113	-0.107
-442.822	216.337	0.034	-0.054
-441.807	-40.881	-0.117	0.061
-440.792	80.791	0.112	0.122
-439.778	800.000	0.100	-0.293
-438.763	17.016	-0.160	-0.128
-437.749	-86.450	0.075	0.023
-436.734	-121.062	-0.332	-0.056
-435.719	265.494	0.072	-0.127
-434.705	167.397	-0.080	-0.114
-433.690	-200.000	0.063	-0.522
-432.676	440.314	-0.066	0.146
-431.661	80.232	-0.197	0.214
-430.646	-143.724	-0.225	0.022
-429.632	524.851	0.158	0.375
-428.617	101.027	0.083	0.097
-427.603	173.728	-0.194	-0.282
-426.588	-168.570	-0.423	-0.016
-425.573	-133.957	-0.156	-0.020
-424.559	-49.662	0.197	-0.095
-423.544	-90.718	-0.356	-0.104
-422.530	-145.485	0.269	-0.024
-421.515	-41.270	-0.144	0.075
-420.500	800.000	-0.131	0.410
-419.486	318.500	0.069	-0.132
-418.471	800.000	-0.046	0.180
-417.457	-40.308	-0.190	-0.100
-416.442	556.920	0.142	-0.347
-415.428	64.193	0.374	0.380
-414.413	-34.679	0.096	0.053
-413.398	800.000	0.005	-0.014
-412.384	-62.834	-0.142	0.059
-411.369	-85.260	0.220	-0.069
-410.355	-175.083	0.162	-0.005
-409.340	-33.783	-0.335	0.186
-408.325	244.245	-0.018	0.031
-407.311	-118.825	-0.136	-0.024
-406.296	-93.004	0.211	0.059
-405.282	140.282	-0.320	0.426
-404.267	-26.132	-0.145	0.086
-403.252	-133.274	-0.157	0.020
-402.238	283.228	-0.039	0.070
-401.223	-200.000	-0.050	0.450
-400.209	-64.362	-0.104	-0.043
-399.194	-122.858	0.185	-0.030
-398.179	-160.405	-0.299	0.016
-397.165	800.000	0.078	-0.301
-396.150	-75.101	-0.146	0.053
-395.136	99.137	0.274	0.320
-394.121	-200.000	0.049	0.316
-393.106	-139.645	-0.110	0.012
-392.092	-57.622	-0.302	-0.133
-391.077	1.236	0.227	0.164
-390.063	-4.675	0.118	-0.082
-389.048	6.730	-0.328	-0.246
-388.033	-127.589	0.143	0.021
-387.019	-147.615	0.434	-0.037
-386.004	-81.485	-0.191	0.063
-384.990	-200.000	-0.014	-0.122
-383.975	-79.127	0.411	0.141
-382.960	-113.152	-0.105	-0.021
-381.946	-200.000	-0.007	0.086
-380.931	61.222	0.013	-0.013
-379.917	-200.000	-0.022	0.201
-378.902	778.834	-0.175	-0.481
-377.888	-71.944	-0.040	-0.015
-376.873	53.841	-0.261	0.253
-375.858	29.442	0.041	0.035
-374.844	-174.128	-0.510	-0.015
-373.829	26.616	0.123	0.104
-372.815	38.617	-0.180	0.162
-371.800	-200.000	0.011	-0.217
-370.785	-200.000	0.041	0.293
-369.771	-200.000	-0.005	0.028
-368.756	-200.000	0.006	-0.125
-367.742	208.784	0.148	0.234
-366.727	-79.686	0.074	-0.025
-365.712	-128.740	-0.261	0.037
-364.698	-200.000	-0.004	0.213
-363.683	-67.688	-0.082	-0.032
-362.669	-16.981	0.124	-0.079
-361.654	-81.308	-0.239	-0.079
-360.639	-163.229	-0.117	-0.006
-359.625	-44.287	-0.374	-0.189
-358.610	46.967	-0.084	0.079
-357.596	-104.361	-0.379	0.088
-356.581	61.334	0.200	-0.201
-355.566	51.223	-0.207	0.198
-354.552	-200.000	0.051	-0.433
-353.537	-88.828	-0.043	0.013
-352.523	-200.000	-0.003	-0.211
-351.508	35.167	-0.039	0.034
-350.493	-200.000	-0.062	-0.488
-349.479	339.466	0.105	0.207
-348.464	-72.216	-0.198	0.074
-347.450	12.141	-0.085	-0.066
-346.435	-73.763	0.223	0.082
-345.420	155.313	0.112	0.156
-344.406	-103.975	-0.152	-0.036
-343.391	-148.265	-0.251	-0.021
-342.377	69.650	0.108	0.112
-341.362	-200.000	-0.008	-0.040
-340.348	251.463	-0.053	0.090
-339.333	276.763	0.193	0.346
-338.318	-200.000	0.024	-0.178
-337.304	209.423	0.136	-0.214
-336.289	-190.206	0.132	0.001
-335.275	800.000	0.069	0.269
-334.260	-92.542	0.269	0.076
-333.245	193.952	0.072	0.109
-332.231	-86.397	0.179	0.055
-331.216	508.296	-0.008	0.018
-330.202	-109.230	0.058	0.012
-329.187	-200.000	0.033	0.266
-328.172	-45.044	-0.020	-0.010
-327.158	-105.567	-0.010	0.002
-326.143	800.000	-0.058	0.195
-325.129	-200.000	0.030	-0.135
-324.114	212.368	-0.188	0.299
-323.099	-139.935	-0.034	0.004
-322.085	800.000	0.031	-0.095
-321.070	-200.000	-0.044	0.266
-320.056	-80.330	0.243	-0.082
-319.041	147.693	0.036	0.049
-318.026	90.611	0.171	0.192
-317.012	-23.195	0.236	-0.143
-315.997	-46.013	-0.207	0.103
-314.983	79.015	-0.161	0.173
-313.968	-200.000	-0.018	-0.145
-312.953	-93.192	0.279	-0.078
-311.939	8.673	0.193	-0.146
-310.924	-109.398	0.136	-0.029
-309.910	301.316	-0.105	-0.196
-308.895	57.057	-0.094	-0.092
-307.880	78.532	0.030	-0.032
-306.866	151.134	-0.117	-0.160
-305.851	-200.000	-0.007	0.167
-304.837	-102.087	-0.037	0.009
-303.822	168.384	-0.178	0.254
-302.807	-48.864	-0.476	0.229
-301.793	-200.000	-0.058	0.293
-300.778	26.227	0.140	0.118
-299.764	-69.011	-0.560	0.217
-298.749	-110.756	-0.060	-0.012
-297.735	-50.981	-0.213	0.100
-296.720	5.102	0.147	-0.109
-295.705	-26.073	0.331	0.195
-294.691	-42.438	-0.262	0.134
-293.676	-200.000	-0.007	0.193
-292.662	-200.000	0.004	0.161
-291.647	130.837	-0.085	-0.109
-290.632	-26.524	0.172	0.101
-289.618	-7.507	0.315	-0.214
-288.603	185.454	-0.123	0.184
-287.589	21.614	0.200	0.164
-286.574	637.381	-0.057	-0.145
-285.559	-34.032	-0.094	-0.052
-284.545	-75.416	0.185	0.066
-283.530	-200.000	-0.007	-0.429
-282.516	-23.061	-0.085	-0.051
-281.501	-64.938	-0.338	-0.137
-280.486	-159.607	-0.194	-0.011
-279.472	503.910	-0.098	-0.227
-278.457	-148.184	-0.189	-0.016
-277.443	-42.111	0.309	-0.159
-276.428	-200.000	-0.046	-0.260
-275.413	-118.532	-0.254	-0.045
-274.399	-128.307	0.393	0.056
-273.384	-200.000	-0.002	-0.127
-272.370	337.875	0.067	-0.131
-271.355	101.856	-0.095	-0.111
-270.340	362.140	-0.072	0.146
-269.326	-21.131	0.093	-0.057
-268.311	196.578	-0.098	-0.150
-267.297	272.492	0.099	-0.175
-266.282	-3.521	0.118	-0.082
-265.267	26.752	0.127	0.107
-264.253	800.000	-0.073	0.221
-263.238	-200.000	0.009	-0.097
-262.224	-200.000	0.004	-0.269
-261.209	-84.105	0.273	0.087
-260.195	-84.706	0.247	-0.078
-259.180	800.000	0.057	0.230
-258.165	-98.584	0.126	0.032
-257.151	336.028	0.058	0.113
-256.136	-109.265	-0.273	-0.058
-255.122	23.398	-0.260	-0.215
-254.107	24.810	0.041	0.034
-253.092	-3.499	0.331	0.231
-252.078	691.984	-0.155	0.407
-251.063	122.067	-0.069	0.086
-250.049	108.423	0.053	-0.063
-249.034	-1.019	-0.168	0.120
-248.019	90.613	0.105	-0.118
-247.005	62.093	-0.146	0.146
-245.990	800.000	-0.058	0.245
-244.976	-0.660	0.079	-0.057
-243.961	53.551	0.062	-0.060
-242.946	65.896	0.288	0.292
-241.932	-117.052	-0.182	-0.033
-240.917	-18.787	-0.172	0.108
-239.903	382.391	-0.065	0.135
-238.888	-80.357	0.091	0.031
-237.873	-200.000	0.011	-0.112
-236.859	-181.275	0.158	-0.003
-235.844	201.035	0.086	0.133
-234.830	-109.777	0.337	-0.071
-233.815	-200.000	-0.006	-0.107
-232.800	488.447	-0.044	-0.101
-231.786	109.415	0.179	-0.215
-230.771	21.303	0.241	0.196
-229.757	-10.452	0.170	-0.113
-228.742	213.525	0.057	-0.090
-227.727	-15.266	0.263	-0.169
-226.713	-65.848	0.178	-0.071
-225.698	378.153	0.143	0.292
-224.684	529.205	-0.046	0.109
-223.669	366.861	-0.025	0.050
-222.655	144.173	-0.119	0.159
-221.640	-200.000	0.063	0.285
-220.625	800.000	-0.086	0.245
-219.611	580.711	0.149	-0.366
-218.596	45.786	-0.112	0.104
-217.582	-88.077	0.367	-0.110
-216.567	-45.555	0.436	0.216
-215.552	82.335	-0.072	-0.079
-214.538	-108.392	0.106	0.023
-213.523	446.999	0.134	-0.296
-212.509	-184.332	-0.333	0.005
-211.494	-97.098	0.090	0.024
-210.479	-127.468	0.253	-0.037
-209.465	-200.000	0.060	0.351
-208.450	-122.555	0.057	0.009
-207.436	-200.000	-0.025	0.319
-206.421	96.854	0.032	0.037
-205.406	756.701	-0.065	-0.176
-204.392	325.832	0.107	-0.205
-203.377	-200.000	0.052	0.232
-202.363	645.919	-0.052	-0.132
-201.348	-200.000	0.064	-0.303
-200.333	158.759	0.051	0.071
-199.319	800.000	0.018	0.060
-198.304	-162.802	-0.055	-0.003
-197.290	-200.000	0.026	-0.214
-196.275	800.000	0.072	-0.300
-195.260	67.592	0.059	0.060
-194.246	-200.000	0.014	0.170
-193.231	800.000	0.062	0.210
-192.217	-35.072	-0.122	0.067
-191.202	-20.856	0.193	-0.118
-190.187	195.024	-0.071	-0.108
-189.173	800.000	-0.130	-0.386
-188.158	-200.000	0.005	-0.136
-187.144	-2.165	0.144	-0.101
-186.129	-200.000	0.026	-0.161
-185.114	738.447	-0.064	-0.172
-184.100	-97.448	0.230	0.060
-183.085	-70.085	0.167	0.064
-182.071	-172.985	-0.159	-0.005
-181.056	196.300	0.239	0.363
-180.042	-200.000	0.056	0.413
-179.027	537.565	-0.155	-0.368
-178.012	63.253	0.136	-0.137
-176.998	800.000	0.081	-0.333
-175.983	212.398	0.064	0.101
-174.969	37.317	0.047	-0.041
-173.954	-16.007	-0.282	-0.179
-172.939	-200.000	-0.066	-0.349
-171.925	-39.256	-0.086	0.045
-170.910	800.000	-0.040	0.159
-169.896	455.776	0.053	-0.117
-168.881	-57.033	-0.192	-0.085
-167.866	800.000	-0.094	0.281
-166.852	48.263	-0.371	-0.347
-165.837	8.894	0.140	0.105
-164.823	-200.000	-0.038	0.252
-163.808	28.472	-0.138	0.117
-162.793	800.000	0.014	0.061
-161.779	-50.470	-0.221	-0.104
-160.764	313.410	0.075	0.140
-159.750	-84.740	0.160	0.050
-158.735	-200.000	0.003	-0.322
-157.720	-200.000	0.013	-0.181
-156.706	96.818	-0.151	-0.173
-155.691	800.000	-0.122	0.355
-154.677	-57.682	0.101	0.044
-153.662	-169.077	0.319	-0.012
-152.647	-30.507	0.395	-0.223
-151.633	462.178	-0.091	0.202
-150.618	284.156	0.126	-0.226
-149.604	-27.238	0.128	-0.074
-148.589	-100.912	-0.347	0.085
-147.574	36.865	0.388	-0.342
-146.560	-200.000	0.030	-0.282
-145.545	-21.621	0.297	-0.181
-144.531	-147.894	0.248	0.021
-143.516	-200.000	-0.017	0.294
-142.502	800.000	0.102	0.286
-141.487	-15.689	0.265	-0.169
-140.472	117.819	0.077	0.095
-139.458	-97.608	0.085	0.022
-138.443	145.988	-0.145	0.194
-137.429	-134.893	0.193	-0.023
-136.414	-102.249	0.223	0.053
-135.399	-200.000	-0.061	-0.336
-134.385	-103.774	0.152	0.035
-133.370	-133.506	0.156	-0.020
-132.356	182.295	-0.074	-0.109
-131.341	800.000	-0.047	-0.185
-130.326	-32.720	-0.313	-0.174
-129.312	-200.000	-0.004	0.113
-128.297	15.542	-0.104	-0.082
-127.283	335.081	-0.104	0.200
-126.268	71.511	-0.161	-0.166
-125.253	611.170	-0.116	0.290
-124.239	-129.452	0.343	0.048
-123.224	27.735	0.161	-0.136
-122.210	-117.232	-0.334	-0.061
