DTS Sentinel unit serial number:	SN413079Multiplexer serial number:	ORYXHardware model number:	OX4-SRSoftware version number:	ORYX F/W v4.00 Oryx Data Collector v3.7.2.0data status	okinstallation	princeton_trtdifferential loss correction	single-endedforward channel	channel 3reverse channel	N/Adate	2019/09/12time	18:18:04forward acquisition time	15.00reverse acquisition time	0.00gamma	496.2192k internal	0.2317k external	0.2317temperature offset calibration	1.0087default loss term (dB/km)	0.3790temperature slope calibration	1.0000multiplexer offset coefficient	1.0000multiplexer slope coefficient	1.0000fibre end	0.00T internal ref (°C)	33.50T ext. ref 1 (°C)	2.94T ext. ref 2 (°C)	28.06length (m)	temperature (°C)	Stokes	anti-Stokes-747.200	-75.590	-1.284	0.462
-746.185	800.000	0.214	-0.651
-745.171	-21.226	-0.655	-0.406
-744.156	54.707	0.771	0.753
-743.142	207.099	0.363	0.572
-742.127	-26.902	0.546	0.323
-741.112	-147.034	0.189	-0.016
-740.098	77.127	-0.146	0.157
-739.083	280.587	-0.452	0.819
-738.069	219.952	-0.468	-0.759
-737.054	800.000	-0.077	0.273
-736.039	-139.400	-0.207	-0.022
-735.025	43.276	0.073	0.068
-734.010	48.817	-0.373	0.354
-732.996	800.000	0.151	-0.486
-731.981	-7.852	-0.707	0.483
-730.966	609.765	0.155	0.391
-729.952	-44.688	-0.196	-0.099
-728.937	-200.000	0.035	-0.260
-727.923	-52.458	-0.440	-0.206
-726.908	-153.496	-0.457	-0.032
-725.894	57.339	-0.715	-0.707
-724.879	121.837	0.375	-0.473
-723.864	-111.933	0.469	-0.096
-722.850	-200.000	-0.098	-0.788
-721.835	-142.102	0.564	0.057
-720.821	498.925	0.066	0.155
-719.806	-87.203	-0.588	0.181
-718.791	-107.608	-0.571	-0.126
-717.777	-200.000	-0.158	-0.753
-716.762	43.440	0.261	-0.241
-715.748	-200.000	-0.053	0.486
-714.733	51.966	-0.356	-0.343
-713.718	82.473	0.072	0.079
-712.704	-57.713	0.251	0.111
-711.689	-200.000	-0.012	0.575
-710.675	-37.934	-0.577	-0.310
-709.660	113.471	0.759	-0.932
-708.645	-200.000	-0.083	-0.970
-707.631	114.465	0.490	-0.603
-706.616	800.000	-0.101	-0.319
-705.602	-166.786	0.868	-0.036
-704.587	31.725	-0.222	-0.193
-703.572	-200.000	-0.006	0.197
-702.558	5.245	0.560	-0.417
-701.543	-93.272	-0.572	-0.161
-700.529	-200.000	0.096	0.503
-699.514	-200.000	0.053	0.350
-698.499	89.575	-0.372	0.420
-697.485	27.294	0.640	0.543
-696.470	-24.141	0.777	-0.469
-695.456	-148.149	1.068	-0.089
-694.441	-200.000	-0.007	0.181
-693.426	-88.309	-0.431	0.130
-692.412	800.000	0.063	0.192
-691.397	542.243	-0.117	-0.281
-690.383	-44.662	0.237	0.120
-689.368	124.225	-0.994	-1.263
-688.354	-200.000	0.120	-0.710
-687.339	-102.881	-0.858	0.206
-686.324	752.925	-0.070	-0.191
-685.310	-98.219	0.261	0.068
-684.295	-62.587	-0.926	-0.388
-683.281	800.000	0.056	0.200
-682.266	166.327	-0.541	-0.774
-681.251	800.000	0.124	-0.451
-680.237	-16.617	-0.565	-0.361
-679.222	28.882	-0.626	-0.535
-678.208	-75.655	0.487	0.175
-677.193	-200.000	0.019	0.387
-676.178	-200.000	-0.061	0.436
-675.164	115.007	0.501	-0.617
-674.149	-200.000	-0.120	-0.736
-673.135	-147.056	-0.508	0.044
-672.120	278.419	0.175	0.316
-671.105	800.000	-0.112	-0.416
-670.091	-64.420	0.387	-0.159
-669.076	28.746	0.090	-0.077
-668.062	464.223	-0.203	-0.458
-667.047	-102.545	-0.354	0.085
-666.032	-16.443	-0.796	-0.510
-665.018	22.470	-0.423	-0.349
-664.003	306.615	0.472	-0.887
-662.989	-115.575	0.366	0.069
-661.974	193.985	-0.116	0.177
-660.959	-70.347	0.316	-0.121
-659.945	-200.000	-0.227	1.156
-658.930	-77.783	1.175	0.410
-657.916	-5.212	-0.683	0.474
-656.901	800.000	-0.176	-0.646
-655.886	-108.489	0.793	-0.172
-654.872	-200.000	0.112	-0.705
-653.857	296.599	0.336	0.621
-652.843	-14.776	0.530	0.343
-651.828	48.864	0.244	-0.231
-650.814	-96.330	0.412	0.110
-649.799	-12.648	-0.456	0.300
-648.784	-47.786	-0.368	-0.180
-647.770	228.318	-0.489	0.804
-646.755	-76.262	0.246	0.088
-645.741	32.094	-0.465	-0.405
-644.726	196.495	-0.377	-0.579
-643.711	-200.000	-0.156	-0.861
-642.697	-101.397	0.354	0.087
-641.682	-9.973	0.346	0.232
-640.668	-140.607	1.094	0.114
-639.653	-32.367	-0.126	-0.071
-638.638	-152.628	0.837	0.060
-637.624	-200.000	0.058	-1.154
-636.609	764.159	-0.048	0.131
-635.595	-21.128	-0.676	0.417
-634.580	155.227	-0.093	-0.129
-633.565	-75.904	0.505	0.180
-632.551	-200.000	0.022	0.561
-631.536	-134.901	-0.725	-0.088
-630.522	239.610	0.172	0.289
-629.507	-104.823	-0.692	-0.160
-628.492	-17.389	-0.440	0.279
-627.478	102.803	0.404	-0.477
-626.463	18.529	0.243	0.196
-625.449	105.139	-0.390	0.464
-624.434	294.954	-0.182	-0.335
-623.419	-46.631	-0.670	-0.331
-622.405	-63.137	0.457	-0.190
-621.390	62.731	-0.567	0.572
-620.376	301.737	0.072	-0.133
-619.361	47.289	0.344	-0.323
-618.346	-200.000	0.049	-0.324
-617.332	598.849	0.206	0.515
-616.317	-164.897	0.643	0.029
-615.303	-44.183	-0.226	-0.114
-614.288	-93.473	0.792	-0.221
-613.273	-200.000	-0.012	-0.091
-612.259	72.405	-0.709	-0.744
-611.244	-99.517	-1.069	0.271
-610.230	-35.709	-0.422	-0.230
-609.215	185.994	0.193	-0.288
-608.201	-200.000	0.081	-0.455
-607.186	137.241	-0.225	-0.296
-606.171	-200.000	-0.050	0.450
-605.157	691.743	-0.038	0.101
-604.142	-200.000	0.071	-0.665
-603.128	-82.773	0.289	-0.094
-602.113	-64.120	-0.523	0.215
-601.098	98.446	0.395	0.458
-600.084	-5.012	-0.268	-0.186
-599.069	-200.000	-0.108	-1.146
-598.055	54.207	-0.273	-0.264
-597.040	-58.829	0.705	0.307
-596.025	84.780	0.539	0.594
-595.011	22.086	0.567	0.466
-593.996	-146.613	0.139	-0.012
-592.982	-200.000	0.131	0.625
-591.967	308.738	0.209	0.392
-590.952	300.004	0.150	0.278
-589.938	-2.514	-0.837	-0.590
-588.923	-200.000	0.093	-1.164
-587.909	138.777	-0.411	-0.544
-586.894	-120.719	1.005	0.171
-585.879	30.255	0.211	-0.181
-584.865	-99.144	-0.887	0.226
-583.850	-90.013	-0.656	-0.192
-582.836	57.540	0.459	-0.451
-581.821	800.000	0.230	0.710
-580.806	127.378	0.501	-0.640
-579.792	-97.793	-0.771	0.201
-578.777	-39.421	0.517	0.273
-577.763	-30.984	0.466	0.265
-576.748	-65.531	-1.207	0.487
-575.733	-132.901	0.803	0.103
-574.719	195.932	-0.511	0.781
-573.704	51.496	0.376	-0.359
-572.690	800.000	-0.142	0.467
-571.675	-200.000	0.026	0.318
-570.661	800.000	-0.180	-0.504
-569.646	-68.213	0.751	-0.294
-568.631	103.194	-0.228	0.269
-567.617	800.000	-0.185	-0.522
-566.602	-107.546	0.799	0.176
-565.588	-133.599	0.711	-0.089
-564.573	111.110	0.098	-0.119
-563.558	-127.706	-0.498	0.072
-562.544	-132.167	-0.536	-0.070
-561.529	-111.653	0.613	-0.125
-560.515	800.000	0.094	-0.270
-559.500	107.513	0.099	0.119
-558.485	-200.000	0.006	1.015
-557.471	4.839	-0.403	-0.298
-556.456	100.668	0.204	0.239
-555.442	-200.000	0.045	0.200
-554.427	-200.000	-0.041	-0.211
-553.412	171.162	-0.078	-0.113
-552.398	-200.000	-0.023	0.292
-551.383	-79.771	0.758	0.256
-550.369	112.644	-0.491	-0.597
-549.354	3.789	0.936	0.687
-548.339	47.555	0.329	-0.308
-547.325	17.361	0.260	-0.207
-546.310	76.126	-0.902	0.958
-545.296	-63.666	-0.440	0.181
-544.281	800.000	0.200	0.812
-543.266	-65.811	-0.608	0.244
-542.252	96.649	0.717	0.825
-541.237	605.936	0.053	-0.134
-540.223	15.277	-0.549	0.432
-539.208	-200.000	-0.065	-0.433
-538.193	-88.173	0.665	0.200
-537.179	-56.978	-0.245	-0.109
-536.164	800.000	-0.088	0.383
-535.150	-155.285	0.490	0.032
-534.135	800.000	-0.073	0.205
-533.121	-67.601	-0.510	0.201
-532.106	1.174	-0.215	-0.155
-531.091	-96.410	-0.601	0.160
-530.077	-200.000	-0.064	-0.634
-529.062	256.987	0.129	-0.223
-528.048	136.033	-0.201	0.263
-527.033	94.810	-0.574	-0.655
-526.018	-124.135	0.716	0.113
-525.004	8.002	-0.585	-0.441
-523.989	-23.832	-0.430	-0.259
-522.975	92.828	-0.634	-0.719
-521.960	-200.000	-0.124	-0.679
-520.945	118.816	0.497	-0.617
-519.931	-106.994	-0.444	0.099
-518.916	-157.509	-0.870	0.052
-517.902	-135.217	0.559	-0.067
-516.887	-65.968	0.997	-0.400
-515.872	82.501	0.384	-0.418
-514.858	174.128	0.435	-0.631
-513.843	-200.000	0.004	0.082
-512.829	21.680	0.323	-0.264
-511.814	7.055	-0.633	-0.474
-510.799	-200.000	-0.008	0.222
-509.785	-200.000	0.126	0.852
-508.770	-113.447	-0.442	0.087
-507.756	33.723	0.471	0.410
-506.741	-200.000	-0.020	0.671
-505.726	-117.320	-0.288	0.052
-504.712	800.000	0.118	-0.450
-503.697	344.899	0.228	0.449
-502.683	-43.914	-0.131	0.066
-501.668	692.537	-0.224	0.589
-500.653	-200.000	0.059	-0.442
-499.639	41.120	0.355	-0.322
-498.624	7.344	-0.442	0.331
-497.610	506.620	0.058	0.134
-496.595	-54.241	-0.439	-0.200
-495.581	2.799	-0.324	-0.236
-494.566	-58.097	-0.319	-0.139
-493.551	-116.418	-0.871	0.161
-492.537	308.794	0.190	0.356
-491.522	78.063	-0.209	0.224
-490.508	554.821	0.122	0.294
-489.493	-155.463	0.422	-0.027
-488.478	4.889	-0.889	-0.655
-487.464	-200.000	0.043	-0.748
-486.449	92.824	0.533	0.603
-485.435	54.388	-0.195	0.189
-484.420	180.032	-0.462	0.679
-483.405	50.514	-0.087	-0.082
-482.391	-200.000	-0.142	-0.996
-481.376	-66.575	-0.241	-0.096
-480.362	800.000	0.243	0.808
-479.347	-200.000	-0.017	-0.451
-478.332	160.373	0.216	0.301
-477.318	128.128	0.230	0.294
-476.303	-64.049	-0.375	0.153
-475.289	-58.369	-0.498	-0.217
-474.274	-44.733	0.242	-0.121
-473.259	186.103	-0.213	0.317
-472.245	22.663	-0.730	-0.598
-471.230	-200.000	-0.225	1.022
-470.216	436.341	0.193	0.422
-469.201	-87.199	0.478	0.146
-468.186	800.000	0.294	-0.883
-467.172	-48.235	-0.214	0.104
-466.157	-200.000	0.071	0.571
-465.143	-113.599	-0.850	-0.166
-464.128	9.527	0.610	0.462
-463.113	-200.000	-0.064	0.473
-462.099	-162.699	-0.678	-0.033
-461.084	-21.081	-0.366	0.224
-460.070	-104.379	0.888	-0.206
-459.055	102.353	0.233	0.273
-458.040	-48.942	-0.734	-0.352
-457.026	-160.983	-0.958	0.050
-456.011	-47.127	-0.384	-0.187
-454.997	-200.000	-0.077	0.791
-453.982	800.000	0.145	0.581
-452.968	-200.000	-0.052	0.530
-451.953	-113.688	0.993	0.194
-450.938	800.000	-0.125	-0.462
-449.924	-103.448	-0.858	-0.202
-448.909	-97.781	-0.835	-0.216
-447.895	-60.196	0.606	0.258
-446.880	310.513	-0.208	-0.389
-445.865	80.784	0.473	-0.511
-444.851	-50.827	-0.924	0.435
-443.836	4.947	0.283	0.208
-442.822	790.668	0.247	0.678
-441.807	768.052	-0.052	-0.143
-440.792	347.332	0.196	-0.386
-439.778	117.300	0.232	0.285
-438.763	246.404	0.098	-0.166
-437.749	584.693	-0.172	0.423
-436.734	-169.453	0.298	0.011
-435.719	-38.612	-0.632	0.334
-434.705	-87.905	0.708	-0.213
-433.690	-200.000	-0.076	0.370
-432.676	-81.319	0.684	0.226
-431.661	800.000	-0.232	0.684
-430.646	800.000	0.026	0.111
-429.632	-13.012	0.523	-0.340
-428.617	-85.015	0.464	0.146
-427.603	-200.000	0.044	0.384
-426.588	-87.051	0.365	-0.111
-425.573	-34.688	-0.601	-0.329
-424.559	-200.000	0.017	0.183
-423.544	533.646	0.313	0.741
-422.530	-200.000	-0.013	0.073
-421.515	-135.716	-0.054	0.006
-420.500	-200.000	-0.076	-0.467
-419.486	-101.090	-0.868	-0.213
-418.471	139.168	0.806	1.060
-417.457	82.948	-0.181	0.196
-416.442	-200.000	-0.027	0.484
-415.428	-74.946	-0.339	0.121
-414.413	-153.041	0.110	-0.008
-413.398	800.000	0.151	-0.580
-412.384	-200.000	-0.241	-1.095
-411.369	-65.187	-0.163	0.066
-410.355	800.000	0.083	0.308
-409.340	313.896	-0.223	0.418
-408.325	149.043	-0.117	-0.158
-407.311	-92.548	-0.363	0.102
-406.296	15.663	0.335	0.263
-405.282	-87.173	0.559	0.170
-404.267	-106.313	-0.429	-0.096
-403.252	800.000	-0.058	0.245
-402.238	-26.267	0.405	-0.238
-401.223	-200.000	-0.058	-0.350
-400.209	800.000	0.064	-0.196
-399.194	-39.665	0.324	-0.169
-398.179	98.610	-0.154	-0.177
-397.165	800.000	-0.062	0.185
-396.150	-200.000	0.108	0.755
-395.136	800.000	0.158	0.454
-394.121	56.586	-0.334	-0.325
-393.106	-4.119	0.406	-0.281
-392.092	103.162	0.296	-0.346
-391.077	-72.291	-0.359	-0.133
-390.063	-49.451	0.721	-0.343
-389.048	683.958	0.255	0.665
-388.033	37.362	0.418	0.370
-387.019	-149.990	1.134	0.088
-386.004	-105.267	-0.667	0.152
-384.990	354.870	-0.326	0.646
-383.975	-200.000	0.067	1.056
-382.960	-152.540	0.475	-0.034
-381.946	-46.839	-0.703	-0.343
-380.931	110.349	-0.439	-0.527
-379.917	-44.011	0.670	-0.336
-378.902	-54.747	0.671	0.303
-377.888	-50.557	-0.510	-0.240
-376.873	800.000	-0.204	-0.624
-375.858	-128.875	0.364	0.051
-374.844	-200.000	0.037	-0.473
-373.829	130.844	-0.518	-0.664
-372.815	-168.751	0.195	-0.007
-371.800	-200.000	-0.046	-0.220
-370.785	-200.000	-0.374	0.001
-369.771	341.929	-0.011	-0.021
-368.756	-200.000	0.048	-0.342
-367.742	800.000	-0.170	-0.606
-366.727	163.803	-0.241	-0.339
-365.712	125.491	0.300	-0.378
-364.698	8.275	0.655	0.491
-363.683	-86.294	-0.293	0.090
-362.669	6.237	-0.433	-0.320
-361.654	-148.429	0.587	-0.048
-360.639	-168.038	-0.907	-0.035
-359.625	-200.000	0.032	0.299
-358.610	-200.000	0.005	-0.551
-357.596	271.689	0.238	-0.418
-356.581	-200.000	-0.069	-0.325
-355.566	184.106	0.385	-0.568
-354.552	539.865	0.162	-0.384
-353.537	800.000	0.142	0.447
-352.523	-1.640	-0.174	0.122
-351.508	88.697	-0.558	-0.619
-350.493	-184.550	0.141	-0.002
-349.479	-67.424	-0.401	-0.157
-348.464	-110.085	-1.119	-0.233
-347.450	-23.763	0.585	0.349
-346.435	155.167	0.802	1.100
-345.420	-74.528	-0.514	-0.185
-344.406	-200.000	-0.015	-0.630
-343.391	-150.904	0.664	-0.050
-342.377	533.604	0.187	-0.440
-341.362	93.561	-0.463	0.523
-340.348	-45.229	-1.249	0.618
-339.333	-179.797	0.458	-0.010
-338.318	-154.245	0.377	0.025
-337.304	-200.000	0.008	0.083
-336.289	394.558	-0.349	-0.725
-335.275	-200.000	0.079	-0.374
-334.260	243.168	0.381	0.636
-333.245	-200.000	0.055	0.877
-332.231	-197.752	-0.430	-0.003
-331.216	404.260	0.308	-0.646
-330.202	18.977	-0.578	0.461
-329.187	69.095	0.579	-0.593
-328.172	89.443	-0.499	0.554
-327.158	-154.354	-0.423	0.028
-326.143	134.720	-0.126	0.163
-325.129	-200.000	-0.148	-0.664
-324.114	103.343	-0.399	0.466
-323.099	293.769	0.230	-0.418
-322.085	26.301	0.394	-0.328
-321.070	-107.445	0.505	-0.110
-320.056	32.374	0.423	-0.363
-319.041	-162.759	-0.377	-0.018
-318.026	12.438	0.704	0.540
-317.012	99.065	-0.155	0.178
-315.997	-72.635	0.623	0.229
-314.983	-127.686	0.349	0.050
-313.968	-32.936	-0.043	-0.024
-312.953	800.000	-0.164	0.538
-311.939	-129.426	0.781	0.108
-310.924	-44.165	-0.596	-0.298
-309.910	-57.400	-0.540	-0.236
-308.895	84.250	0.394	0.428
-307.880	62.459	0.277	-0.275
-306.866	-1.048	-0.271	0.191
-305.851	-165.372	-0.664	-0.029
-304.837	800.000	-0.329	-1.248
-303.822	67.350	-0.268	0.272
-302.807	800.000	-0.056	-0.185
-301.793	800.000	-0.167	0.565
-300.778	103.003	-0.119	-0.139
-299.764	-109.953	-0.298	0.062
-298.749	180.974	-0.417	0.609
-297.735	435.332	0.410	-0.886
-296.720	-177.208	0.270	0.007
-295.705	-102.051	-0.389	-0.093
-294.691	-200.000	-0.036	0.217
-293.676	-4.906	-0.182	-0.125
-292.662	-98.686	-0.418	0.106
-291.647	-200.000	0.044	0.386
-290.632	325.515	-0.373	-0.709
-289.618	-136.213	-0.615	0.072
-288.603	-200.000	-0.002	0.082
-287.589	763.081	-0.133	0.360
-286.574	-12.083	0.319	0.208
-285.559	-66.103	-0.587	-0.233
-284.545	82.632	0.743	-0.803
-283.530	57.857	-0.463	0.450
-282.516	2.487	0.165	0.119
-281.501	277.196	0.331	0.586
-280.486	-200.000	0.043	0.303
-279.472	-72.645	0.406	0.149
-278.457	-22.499	-0.279	0.168
-277.443	116.878	0.365	-0.446
-276.428	800.000	0.349	-1.325
-275.413	-66.489	0.447	0.176
-274.399	-24.240	0.160	-0.095
-273.384	115.253	0.500	-0.606
-272.370	800.000	0.051	-0.183
-271.355	532.713	-0.353	0.831
-270.340	-6.903	0.404	0.273
-269.326	-200.000	-0.044	-0.231
-268.311	-200.000	-0.075	0.459
-267.297	174.812	-0.141	-0.203
-266.282	271.707	-0.257	0.451
-265.267	-103.196	-0.521	0.122
-264.253	49.125	0.740	0.691
-263.238	-30.015	-0.429	0.243
-262.224	77.617	0.404	-0.427
-261.209	536.806	-0.099	0.233
-260.195	-34.958	-0.206	0.112
-259.180	-69.765	0.758	0.288
-258.165	-62.572	-0.507	-0.209
-257.151	443.620	0.325	0.707
-256.136	-39.948	0.143	-0.074
-255.122	-126.957	0.386	-0.056
-254.107	38.107	0.217	-0.191
-253.092	-66.629	-0.558	0.220
-252.078	-19.305	-0.416	-0.256
-251.063	-104.071	0.829	-0.192
-250.049	-0.228	0.870	-0.615
-249.034	-149.273	1.019	0.081
-248.019	-200.000	0.016	0.358
-247.005	-72.503	-0.404	-0.148
-245.990	-96.104	-0.523	-0.138
-244.976	107.991	-0.338	0.400
-243.961	10.828	-0.294	0.222
-242.946	237.295	-0.346	-0.569
-241.932	10.498	0.734	0.555
-240.917	-74.884	0.587	0.209
-239.903	59.869	-0.479	-0.469
-238.888	64.442	0.680	-0.680
-237.873	209.314	0.504	0.784
-236.859	16.138	0.531	-0.416
-235.844	43.272	0.635	0.575
-234.830	800.000	-0.221	0.708
-233.815	63.354	-0.880	-0.876
-232.800	-133.852	-0.741	0.091
-231.786	123.977	-0.239	-0.297
-230.771	-13.113	0.947	-0.611
-229.757	233.023	-0.428	0.698
-228.742	-56.239	0.414	0.183
-227.727	-200.000	0.283	1.257
-226.713	87.303	-0.188	0.206
-225.698	51.966	0.396	-0.374
-224.684	800.000	-0.101	0.317
-223.669	-45.779	-0.759	-0.372
-222.655	800.000	-0.185	-0.586
-221.640	169.830	0.252	0.357
-220.625	-19.210	-0.677	-0.417
-219.611	-150.632	1.179	0.089
-218.596	391.058	-0.345	0.709
-217.582	-118.183	0.750	0.133
-216.567	129.090	-0.796	1.008
-215.552	44.495	0.516	-0.470
-214.538	421.690	-0.389	-0.827
-213.523	-47.284	-0.544	-0.263
-212.509	-102.625	0.550	-0.130
-211.494	-200.000	0.006	-0.357
-210.479	-34.028	0.324	0.177
-209.465	254.253	0.332	-0.563
-208.450	-200.000	-0.019	0.610
-207.436	-200.000	-0.218	-1.179
-206.421	92.361	0.174	-0.194
-205.406	108.317	0.355	-0.419
-204.392	553.685	0.145	0.345
-203.377	550.701	-0.045	-0.107
-202.363	28.646	0.452	0.379
-201.348	-52.587	-0.456	0.209
-200.333	45.845	-0.336	-0.308
-199.319	280.986	-0.191	0.339
-198.304	-55.951	0.788	-0.349
-197.290	431.308	0.151	-0.325
-196.275	-44.326	0.222	-0.110
-195.260	1.239	0.630	-0.449
-194.246	390.503	-0.205	0.420
-193.231	-6.482	0.386	-0.261
-192.217	-91.954	0.653	0.183
-191.202	-121.502	0.450	-0.074
-190.187	486.293	0.195	0.440
-189.173	-167.667	-0.703	0.028
-188.158	-200.000	0.100	0.645
-187.144	146.145	0.317	0.421
-186.129	615.884	-0.274	-0.680
-185.114	-60.009	0.382	-0.162
-184.100	144.216	-0.438	-0.578
-183.085	-200.000	0.021	0.299
-182.071	-0.971	-0.187	0.131
-181.056	1.895	0.368	-0.263
-180.042	315.356	-0.178	0.333
-179.027	800.000	-0.163	0.635
-178.012	55.138	0.589	-0.564
-176.998	-200.000	-0.068	-0.416
-175.983	128.186	-0.176	0.221
-174.969	-200.000	0.026	-0.489
-173.954	58.601	-0.602	-0.586
-172.939	-141.147	-0.783	-0.079
-171.925	-7.143	-0.379	0.255
-170.910	400.204	-0.228	0.474
-169.896	-141.238	-0.524	-0.053
-168.881	-193.593	0.741	-0.006
-167.866	-164.228	0.451	0.021
-166.852	-200.000	-0.061	-0.316
-165.837	112.471	0.554	0.663
-164.823	-21.349	-0.275	-0.166
-163.808	-200.000	-0.062	0.292
-162.793	-126.708	-0.532	-0.078
-161.779	-88.233	-0.378	-0.112
-160.764	-142.887	0.807	-0.078
-159.750	353.172	0.247	-0.485
-158.735	786.842	0.309	-0.839
-157.720	800.000	-0.113	-0.419
-156.706	60.114	-0.329	0.322
-155.691	163.014	0.389	-0.540
-154.677	113.771	0.253	0.304
-153.662	102.436	-0.312	-0.360
-152.647	800.000	-0.230	0.639
-151.633	608.291	-0.147	-0.364
-150.618	-79.331	-0.278	0.093
-149.604	-133.007	-0.316	0.040
-148.589	-153.826	0.292	0.020
-147.574	-115.831	0.423	-0.078
-146.560	71.643	0.149	0.153
-145.545	110.095	-0.208	0.247
-144.531	49.141	-0.193	0.179
-143.516	-119.223	-0.469	0.081
-142.502	380.232	0.406	0.823
-141.487	-3.081	0.217	-0.149
-140.472	-39.836	-0.636	-0.328
-139.458	-200.000	-0.183	-0.983
-138.443	-56.322	-0.513	-0.226
-137.429	-200.000	-0.057	-0.389
-136.414	50.876	-0.037	0.035
-135.399	-121.139	-1.149	-0.190
-134.385	316.462	-0.207	-0.386
-133.370	-129.932	-0.712	-0.096
-132.356	-135.074	0.710	0.084
-131.341	-200.000	-0.044	0.470
-130.326	-15.871	0.343	0.216
-129.312	-53.286	0.297	-0.134
-128.297	-200.000	-0.018	-0.205
-127.283	-66.083	0.390	0.154
-126.268	-77.670	0.383	-0.131
-125.253	-15.410	-0.189	-0.120
-124.239	-55.738	-0.512	-0.226
-123.224	-8.648	0.993	0.659
-122.210	-200.000	0.110	0.626
-121.195	-135.130	-0.609	0.072
