DTS Sentinel unit serial number:	SN413079Multiplexer serial number:	ORYXHardware model number:	OX4-SRSoftware version number:	ORYX F/W v4.00 Oryx Data Collector v3.7.2.0data status	okinstallation	princeton_trtdifferential loss correction	single-endedforward channel	channel 3reverse channel	N/Adate	2019/09/16time	16:16:35forward acquisition time	60.00reverse acquisition time	0.00gamma	496.2192k internal	0.2294k external	0.2294temperature offset calibration	0.9945default loss term (dB/km)	0.3790temperature slope calibration	1.0000multiplexer offset coefficient	1.0000multiplexer slope coefficient	1.0000fibre end	0.00T internal ref (°C)	40.62T ext. ref 1 (°C)	15.00T ext. ref 2 (°C)	34.70length (m)	temperature (°C)	Stokes	anti-Stokes-747.200	-16.786	0.228	0.147
-746.185	-200.000	0.013	0.351
-745.171	-170.079	-0.211	0.008
-744.156	-200.000	-0.028	0.219
-743.142	-186.417	0.492	0.007
-742.127	252.078	-0.148	0.259
-741.112	108.499	-0.160	0.195
-740.098	128.155	0.183	-0.238
-739.083	-34.199	-0.254	0.143
-738.069	800.000	0.007	0.023
-737.054	455.848	-0.093	0.212
-736.039	-119.814	-0.242	-0.043
-735.025	79.114	-0.076	-0.083
-734.010	-62.903	-0.414	-0.175
-732.996	-131.076	-0.088	-0.012
-731.981	800.000	0.063	0.213
-730.966	14.940	-0.154	0.123
-729.952	232.675	0.093	0.156
-728.937	-135.925	-0.154	0.018
-727.923	-200.000	0.067	0.437
-726.908	194.293	0.070	0.109
-725.894	80.392	-0.224	0.246
-724.879	-200.000	0.019	-0.086
-723.864	293.745	-0.037	0.070
-722.850	-180.073	0.278	0.006
-721.835	-155.090	-0.298	-0.020
-720.821	-24.784	-0.051	-0.031
-719.806	-134.648	-0.427	0.053
-718.791	236.267	-0.044	-0.075
-717.777	73.396	0.151	-0.161
-716.762	12.078	-0.147	-0.116
-715.748	8.704	-0.241	-0.185
-714.733	-200.000	-0.053	-0.367
-713.718	141.794	0.062	-0.084
-712.704	-15.661	-0.311	0.203
-711.689	668.613	-0.134	-0.355
-710.675	-200.000	0.059	-0.321
-709.660	-124.513	0.291	0.046
-708.645	800.000	0.024	0.069
-707.631	64.467	0.145	-0.149
-706.616	33.002	-0.111	0.098
-705.602	-154.436	-0.211	0.014
-704.587	61.917	0.269	-0.274
-703.572	-148.671	-0.206	-0.017
-702.558	-70.325	-0.092	-0.036
-701.543	-129.057	-0.112	0.016
-700.529	75.007	0.188	-0.203
-699.514	800.000	0.078	-0.273
-698.499	-80.978	-0.334	-0.113
-697.485	304.186	0.068	-0.128
-696.470	-89.474	-0.168	0.051
-695.456	-200.000	0.029	0.172
-694.441	111.900	0.049	-0.061
-693.426	82.085	-0.152	-0.169
-692.412	800.000	-0.106	-0.396
-691.397	-200.000	0.014	0.313
-690.383	271.945	-0.090	0.161
-689.368	299.758	0.192	0.362
-688.354	413.161	0.010	-0.021
-687.339	-200.000	-0.035	0.174
-686.324	-31.491	-0.296	0.170
-685.310	264.104	0.097	-0.172
-684.295	-200.000	-0.016	0.081
-683.281	-29.005	-0.112	0.066
-682.266	-125.995	-0.048	-0.007
-681.251	-35.616	0.114	-0.063
-680.237	446.792	0.053	-0.120
-679.222	17.905	-0.201	0.163
-678.208	-124.722	-0.284	-0.045
-677.193	-200.000	0.061	-0.318
-676.178	-8.653	-0.283	-0.194
-675.164	-133.352	0.049	0.006
-674.149	-200.000	0.005	0.119
-673.135	165.981	-0.179	-0.258
-672.120	-200.000	0.028	0.128
-671.105	34.955	-0.191	0.170
-670.091	800.000	-0.028	-0.096
-669.076	800.000	0.053	0.156
-668.062	208.176	-0.126	0.200
-667.047	102.939	-0.054	-0.064
-666.032	-200.000	0.005	0.076
-665.018	48.673	-0.178	0.170
-664.003	-63.468	-0.134	0.056
-662.989	76.978	0.155	0.168
-661.974	-200.000	-0.020	0.327
-660.959	102.899	0.072	0.086
-659.945	12.827	-0.042	-0.033
-658.930	386.036	-0.129	-0.271
-657.916	-39.750	-0.311	-0.166
-656.901	69.245	0.216	-0.226
-655.886	153.452	-0.037	0.052
-654.872	-200.000	0.020	-0.104
-653.857	-129.397	0.029	0.004
-652.843	316.389	0.036	-0.069
-651.828	-69.714	0.194	0.076
-650.814	751.516	0.081	-0.222
-649.799	61.658	-0.164	0.166
-648.784	-200.000	0.001	0.005
-647.770	-112.775	0.212	-0.043
-646.755	800.000	-0.107	-0.411
-645.741	800.000	0.016	-0.049
-644.726	800.000	0.068	-0.254
-643.711	246.334	-0.142	0.244
-642.697	-110.447	0.167	-0.035
-641.682	106.483	0.147	-0.178
-640.668	43.437	0.203	0.189
-639.653	218.758	-0.113	0.184
-638.638	-200.000	-0.006	-0.220
-637.624	239.857	-0.117	0.199
-636.609	79.779	-0.144	-0.158
-635.595	-54.103	0.092	-0.043
-634.580	335.071	-0.185	-0.365
-633.565	42.574	-0.080	-0.074
-632.551	63.544	-0.291	-0.297
-631.536	800.000	-0.035	0.141
-630.522	-164.724	0.176	-0.008
-629.507	-200.000	0.032	-0.311
-628.492	4.995	0.222	0.167
-627.478	800.000	-0.053	-0.185
-626.463	226.692	0.227	-0.376
-625.449	253.708	-0.084	0.147
-624.434	-163.930	0.233	0.011
-623.419	-200.000	-0.090	0.495
-622.405	214.335	0.091	-0.147
-621.390	-102.817	-0.201	-0.049
-620.376	299.476	-0.079	-0.149
-619.361	-200.000	0.011	-0.186
-618.346	-200.000	-0.052	-0.363
-617.332	193.427	0.121	0.186
-616.317	-99.370	0.136	-0.035
-615.303	218.474	-0.129	-0.209
-614.288	161.450	0.074	-0.106
-613.273	652.675	-0.039	-0.101
-612.259	-96.311	-0.293	0.079
-611.244	-170.547	-0.149	0.005
-610.230	-67.009	0.259	-0.104
-609.215	-47.507	0.213	0.105
-608.201	-200.000	-0.035	0.253
-607.186	-38.006	-0.273	0.148
-606.171	-33.312	-0.219	-0.123
-605.157	-155.327	-0.359	0.024
-604.142	221.825	0.131	0.214
-603.128	-171.852	0.280	0.009
-602.113	-17.442	0.183	0.117
-601.098	80.167	0.501	-0.549
-600.084	-121.478	-0.395	-0.067
-599.069	56.818	0.218	-0.216
-598.055	-87.125	-0.303	0.094
-597.040	800.000	-0.083	-0.242
-596.025	302.369	-0.147	0.277
-595.011	459.551	0.059	-0.132
-593.996	-200.000	0.030	-0.296
-592.982	292.915	0.095	0.175
-591.967	-129.380	-0.151	0.021
-590.952	-40.553	0.023	-0.012
-589.938	25.272	-0.068	-0.058
-588.923	55.370	-0.276	-0.272
-587.909	1.222	-0.287	-0.210
-586.894	696.931	-0.031	0.084
-585.879	59.419	-0.115	-0.115
-584.865	-70.956	-0.066	0.025
-583.850	125.799	-0.227	0.291
-582.836	13.231	-0.121	-0.095
-581.821	252.118	-0.096	-0.166
-580.806	-200.000	-0.003	-0.135
-579.792	-127.747	-0.242	-0.036
-578.777	-58.019	0.130	0.058
-577.763	800.000	0.022	0.077
-576.748	-109.366	-0.127	-0.027
-575.733	-93.643	0.034	0.010
-574.719	-200.000	-0.002	0.016
-573.704	-200.000	-0.004	0.047
-572.690	-63.898	-0.201	0.084
-571.675	125.737	-0.021	-0.026
-570.661	-8.149	0.432	0.295
-569.646	46.702	-0.256	0.242
-568.631	-172.715	0.208	0.007
-567.617	-200.000	-0.024	0.271
-566.602	43.211	-0.052	-0.048
-565.588	377.923	0.079	-0.163
-564.573	-200.000	-0.009	-0.387
-563.558	-200.000	-0.062	-0.427
-562.544	-16.639	0.156	0.100
-561.529	34.333	-0.157	0.139
-560.515	-200.000	-0.039	0.196
-559.500	-141.437	-0.151	-0.016
-558.485	259.171	-0.086	-0.150
-557.471	-0.900	0.244	0.175
-556.456	91.846	-0.090	-0.103
-555.442	279.255	-0.258	0.467
-554.427	89.014	0.200	-0.226
-553.412	-200.000	0.024	-0.256
-552.398	547.379	-0.055	0.133
-551.383	-77.179	0.226	-0.080
-550.369	-129.181	0.069	0.010
-549.354	-200.000	0.007	0.061
-548.339	282.307	0.175	0.319
-547.325	-200.000	0.006	0.052
-546.310	-200.000	0.000	0.042
-545.296	218.493	0.228	-0.370
-544.281	37.236	-0.174	0.156
-543.266	34.118	0.119	-0.105
-542.252	-59.763	0.063	-0.027
-541.237	-200.000	-0.009	0.339
-540.223	-119.946	0.346	-0.060
-539.208	153.266	-0.140	-0.194
-538.193	126.064	0.139	-0.178
-537.179	-11.071	0.216	0.144
-536.164	-67.402	-0.264	-0.105
-535.150	153.453	0.183	0.254
-534.135	452.845	-0.099	-0.222
-533.121	-1.522	0.167	0.119
-532.106	416.309	-0.093	0.202
-531.091	-200.000	0.033	-0.337
-530.077	69.050	-0.233	-0.243
-529.062	366.490	-0.027	-0.055
-528.048	-50.776	0.190	-0.091
-527.033	564.461	0.034	-0.083
-526.018	100.020	0.078	0.092
-525.004	-66.916	0.209	0.084
-523.989	55.867	-0.093	-0.091
-522.975	-200.000	0.028	-0.138
-521.960	-132.962	-0.151	-0.019
-520.945	14.780	-0.304	0.241
-519.931	-114.946	-0.025	-0.005
-518.916	800.000	0.038	0.118
-517.902	-81.968	-0.336	0.111
-516.887	114.934	0.190	-0.235
-515.872	409.323	-0.041	-0.089
-514.858	198.285	0.157	0.243
-513.843	88.049	-0.361	0.406
-512.829	-102.968	-0.417	0.100
-511.814	218.831	-0.200	0.324
-510.799	167.942	-0.090	-0.129
-509.785	-200.000	-0.009	-0.076
-508.770	-64.173	-0.377	-0.156
-507.756	37.888	0.139	-0.125
-506.741	37.977	-0.270	-0.243
-505.726	-101.273	0.189	-0.047
-504.712	224.778	-0.108	-0.176
-503.697	800.000	-0.074	-0.313
-502.683	800.000	-0.015	-0.049
-501.668	800.000	0.083	0.279
-500.653	-108.011	-0.209	0.046
-499.639	-173.041	0.068	-0.002
-498.624	-30.464	0.192	-0.111
-497.610	-138.344	-0.175	0.020
-496.595	-153.166	-0.214	0.015
-495.581	-150.217	-0.488	0.038
-494.566	334.094	-0.134	-0.262
-493.551	-200.000	0.063	-0.285
-492.537	800.000	-0.055	0.235
-491.522	-200.000	0.021	0.125
-490.508	800.000	0.088	0.275
-489.493	-55.350	0.363	0.165
-488.478	-119.033	0.209	-0.037
-487.464	-200.000	0.015	0.075
-486.449	-200.000	0.013	-0.123
-485.435	643.038	-0.118	0.305
-484.420	-200.000	0.031	-0.137
-483.405	-200.000	-0.015	-0.157
-482.391	260.443	-0.194	-0.340
-481.376	-63.251	-0.271	0.113
-480.362	-19.280	0.026	-0.016
-479.347	-189.467	0.206	-0.002
-478.332	179.586	0.150	0.222
-477.318	800.000	0.180	-0.513
-476.303	-160.554	0.248	0.013
-475.289	800.000	-0.081	0.251
-474.274	-200.000	0.010	0.275
-473.259	-69.234	0.123	0.048
-472.245	293.504	-0.129	-0.238
-471.230	157.095	0.130	-0.183
-470.216	29.275	-0.247	0.212
-469.201	153.599	0.221	0.307
-468.186	167.802	0.169	0.243
-467.172	-200.000	0.006	0.065
-466.157	303.106	0.098	0.184
-465.143	800.000	-0.034	-0.110
-464.128	-200.000	0.017	-0.105
-463.113	-15.594	-0.311	-0.201
-462.099	-166.326	0.357	0.015
-461.084	-132.176	-0.150	0.020
-460.070	-200.000	-0.036	-0.223
-459.055	-200.000	-0.016	-0.151
-458.040	572.218	-0.209	0.514
-457.026	-137.058	-0.316	-0.037
-456.011	-96.029	0.395	-0.106
-454.997	70.485	-0.120	0.125
-453.982	-2.795	-0.175	0.123
-452.968	277.171	0.124	-0.223
-451.953	-118.529	-0.258	0.046
-450.938	183.846	-0.084	-0.126
-449.924	-200.000	0.034	-0.286
-448.909	29.007	0.019	-0.016
-447.895	-44.624	0.218	0.110
-446.880	143.119	-0.029	0.039
-445.865	125.835	-0.138	0.177
-444.851	444.329	0.074	0.165
-443.836	-3.611	0.227	0.159
-442.822	106.645	0.183	-0.220
-441.807	-200.000	0.018	0.260
-440.792	99.754	-0.090	0.106
-439.778	-96.428	0.389	-0.104
-438.763	-134.469	-0.279	-0.034
-437.749	-69.327	0.160	-0.062
-436.734	-200.000	0.007	0.274
-435.719	-148.786	0.148	-0.012
-434.705	-188.151	-0.096	-0.001
-433.690	-46.171	0.171	-0.085
-432.676	586.004	-0.053	0.132
-431.661	-200.000	-0.019	-0.307
-430.646	58.159	0.099	0.098
-429.632	-142.710	-0.153	-0.015
-428.617	-200.000	-0.028	-0.132
-427.603	198.765	-0.058	0.090
-426.588	63.294	0.210	-0.213
-425.573	-36.223	-0.044	-0.024
-424.559	10.997	0.054	0.042
-423.544	-200.000	-0.039	-0.435
-422.530	228.930	0.110	-0.181
-421.515	11.117	0.126	0.097
-420.500	-200.000	-0.003	0.132
-419.486	-96.554	-0.040	0.011
-418.471	-200.000	-0.016	0.078
-417.457	800.000	-0.078	-0.235
-416.442	417.492	0.057	0.123
-415.428	-26.845	0.129	0.076
-414.413	-143.581	0.393	0.038
-413.398	356.281	0.102	0.205
-412.384	800.000	-0.031	-0.112
-411.369	-143.964	-0.045	0.004
-410.355	-84.517	-0.270	0.086
-409.340	-27.450	-0.107	-0.063
-408.325	18.087	0.162	0.130
-407.311	-51.657	-0.213	-0.100
-406.296	-200.000	0.026	0.289
-405.282	-3.070	-0.066	0.047
-404.267	110.544	0.235	0.286
-403.252	-200.000	0.013	0.338
-402.238	-31.222	0.180	-0.102
-401.223	-152.494	0.251	0.018
-400.209	-132.109	-0.483	0.063
-399.194	60.932	-0.166	-0.167
-398.179	800.000	-0.115	-0.348
-397.165	-49.418	-0.147	-0.071
-396.150	309.736	-0.037	0.069
-395.136	476.972	-0.053	0.121
-394.121	-90.929	-0.485	-0.141
-393.106	-46.315	0.255	0.127
-392.092	-200.000	0.038	-0.304
-391.077	800.000	0.012	-0.051
-390.063	-200.000	-0.031	-0.143
-389.048	386.351	-0.018	0.038
-388.033	80.320	-0.176	-0.191
-387.019	25.452	-0.271	0.228
-386.004	236.169	-0.189	0.316
-384.990	91.430	-0.012	0.013
-383.975	800.000	-0.095	0.294
-382.960	188.669	0.176	0.266
-381.946	49.505	0.163	-0.155
-380.931	-142.144	-0.204	0.020
-379.917	-200.000	-0.035	-0.177
-378.902	83.142	0.135	0.148
-377.888	800.000	-0.074	-0.253
-376.873	-200.000	0.036	-0.309
-375.858	-24.807	0.226	0.135
-374.844	-192.218	-0.301	0.003
-373.829	-47.848	-0.079	0.039
-372.815	20.355	0.194	0.158
-371.800	-200.000	0.010	-0.353
-370.785	-45.131	0.132	0.066
-369.771	277.837	0.049	0.088
-368.756	192.832	0.158	-0.241
-367.742	40.399	0.124	0.113
-366.727	800.000	0.059	0.170
-365.712	-172.648	-0.350	0.011
-364.698	800.000	-0.011	0.044
-363.683	-200.000	-0.003	0.156
-362.669	-41.225	-0.018	0.010
-361.654	-122.289	-0.151	-0.025
-360.639	55.331	-0.150	0.147
-359.625	-24.176	-0.245	0.147
-358.610	-200.000	0.069	-0.313
-357.596	-200.000	0.053	-0.247
-356.581	604.794	-0.100	-0.251
-355.566	216.643	-0.106	0.170
-354.552	39.623	0.234	-0.211
-353.537	524.896	0.101	-0.240
-352.523	-43.575	-0.125	-0.063
-351.508	-17.066	0.171	-0.109
-350.493	-79.804	-0.170	0.058
-349.479	118.808	0.109	0.136
-348.464	-173.018	0.389	-0.012
-347.450	10.779	-0.295	0.227
-346.435	-177.088	0.309	0.008
-345.420	649.742	-0.037	0.095
-344.406	6.736	-0.137	0.102
-343.391	-200.000	0.015	-0.205
-342.377	-38.138	0.142	-0.076
-341.362	203.033	0.125	0.195
-340.348	26.819	-0.197	0.166
-339.333	-200.000	0.034	0.260
-338.318	800.000	-0.069	-0.222
-337.304	-20.359	0.152	-0.094
-336.289	344.117	-0.137	-0.270
-335.275	-200.000	-0.054	-0.248
-334.260	31.833	-0.002	-0.002
-333.245	800.000	0.069	0.290
-332.231	-134.126	0.450	-0.056
-331.216	436.764	0.113	-0.247
-330.202	-9.655	-0.173	-0.116
-329.187	800.000	-0.106	0.321
-328.172	211.174	0.074	-0.117
-327.158	-87.327	0.208	0.064
-326.143	174.973	-0.170	-0.247
-325.129	-49.207	-0.179	-0.086
-324.114	-133.636	0.284	-0.036
-323.099	153.158	0.233	-0.320
-322.085	-200.000	0.047	-0.256
-321.070	-77.157	-0.099	-0.035
-320.056	-200.000	-0.007	0.191
-319.041	-200.000	0.034	0.179
-318.026	71.707	0.168	-0.176
-317.012	306.640	0.064	0.120
-315.997	-37.997	0.102	0.055
-314.983	-139.287	0.282	0.031
-313.968	-200.000	0.002	-0.014
-312.953	-29.801	-0.103	0.059
-311.939	482.228	0.118	0.269
-310.924	800.000	0.074	-0.234
-309.910	145.266	0.129	0.174
-308.895	-87.159	0.241	0.074
-307.880	156.915	0.197	0.274
-306.866	-200.000	-0.053	0.284
-305.851	-200.000	-0.005	0.243
-304.837	-88.967	-0.075	0.022
-303.822	19.959	-0.085	-0.069
-302.807	-200.000	-0.034	-0.152
-301.793	-200.000	-0.008	-0.053
-300.778	221.338	-0.164	-0.265
-299.764	46.458	-0.448	-0.417
-298.749	93.594	0.043	-0.049
-297.735	-179.919	0.107	-0.002
-296.720	231.794	0.155	0.256
-295.705	-200.000	-0.009	0.323
-294.691	-24.689	-0.233	0.139
-293.676	-200.000	0.002	0.036
-292.662	-200.000	0.000	0.307
-291.647	-103.098	0.243	-0.058
-290.632	482.999	0.123	0.280
-289.618	91.678	-0.208	-0.235
-288.603	88.155	0.015	0.016
-287.589	-160.577	0.162	-0.009
-286.574	62.911	0.197	0.198
-285.559	221.118	0.026	0.042
-284.545	280.744	-0.220	-0.395
-283.530	50.873	0.161	0.154
-282.516	-46.351	0.268	0.132
-281.501	-99.633	-0.086	0.022
-280.486	-154.109	-0.095	-0.006
-279.472	-200.000	0.020	0.369
-278.457	309.614	-0.065	0.121
-277.443	-182.900	-0.144	-0.003
-276.428	-200.000	0.025	0.233
-275.413	-41.948	0.082	-0.042
-274.399	-95.750	0.334	0.090
-273.384	347.970	0.152	0.301
-272.370	391.325	0.014	0.030
-271.355	-27.347	-0.275	-0.161
-270.340	800.000	-0.041	-0.164
-269.326	44.599	0.251	0.232
-268.311	-91.666	-0.357	0.102
-267.297	-200.000	0.025	-0.292
-266.282	-200.000	-0.056	0.351
-265.267	-116.272	-0.180	0.033
-264.253	600.385	-0.026	0.064
-263.238	36.484	-0.090	-0.080
-262.224	-114.316	-0.080	0.015
-261.209	-25.967	-0.298	-0.176
-260.195	-97.845	-0.272	-0.071
-259.180	8.189	0.320	0.241
-258.165	800.000	0.042	0.132
-257.151	-112.099	0.217	0.044
-256.136	-118.264	-0.342	-0.061
-255.122	-200.000	-0.050	0.400
-254.107	342.911	0.110	-0.216
-253.092	-200.000	-0.013	0.176
-252.078	24.593	0.059	-0.049
-251.063	-63.392	-0.317	0.131
-250.049	21.692	0.134	0.110
-249.034	-75.770	-0.236	-0.084
-248.019	-200.000	0.014	0.203
-247.005	-144.533	0.084	0.008
-245.990	-77.880	-0.089	0.031
-244.976	573.137	-0.096	-0.234
-243.961	-200.000	-0.009	-0.138
-242.946	99.274	0.248	-0.288
-241.932	101.129	0.057	0.067
-240.917	-98.811	0.340	0.087
-239.903	-66.572	0.062	-0.025
-238.888	297.385	0.144	0.266
-237.873	-84.229	-0.126	-0.040
-236.859	-27.049	0.080	0.047
-235.844	-200.000	-0.067	-0.306
-234.830	-27.651	-0.126	0.073
-233.815	286.965	0.191	0.346
-232.800	-22.142	-0.173	0.105
-231.786	-200.000	-0.002	-0.226
-230.771	133.606	-0.031	0.040
-229.757	-34.109	0.451	0.248
-228.742	-200.000	-0.008	-0.210
-227.727	198.571	-0.064	-0.098
-226.713	-104.104	0.215	0.050
-225.698	85.895	-0.091	-0.100
-224.684	800.000	0.052	-0.189
-223.669	-23.873	0.316	-0.190
-222.655	17.972	-0.216	-0.172
-221.640	-200.000	-0.022	0.116
-220.625	-176.933	0.238	-0.006
-219.611	-48.713	0.188	-0.090
-218.596	396.801	-0.128	-0.267
-217.582	-83.274	0.467	-0.150
-216.567	-37.836	0.115	0.061
-215.552	-10.756	-0.198	0.131
-214.538	-115.806	-0.046	-0.009
-213.523	-200.000	0.055	-0.408
-212.509	129.151	-0.043	0.055
-211.494	70.591	0.059	0.061
-210.479	-200.000	0.065	0.538
-209.465	-62.932	0.346	0.143
-208.450	-120.548	-0.122	-0.021
-207.436	-200.000	-0.073	0.370
-206.421	-50.306	-0.143	-0.068
-205.406	-73.437	0.346	-0.127
-204.392	95.649	-0.261	-0.299
-203.377	115.808	-0.126	0.155
-202.363	187.719	-0.080	0.119
-201.348	-200.000	-0.078	-0.347
-200.333	81.994	0.057	0.062
-199.319	800.000	0.103	-0.328
-198.304	-138.307	0.087	0.010
-197.290	207.852	-0.126	0.197
-196.275	-39.204	-0.277	0.146
-195.260	-71.357	0.325	0.122
-194.246	-81.608	-0.217	0.071
-193.231	-84.502	-0.108	-0.034
-192.217	69.274	-0.271	0.279
-191.202	-133.105	0.240	-0.030
-190.187	-104.365	0.372	0.086
-189.173	242.935	-0.208	-0.349
-188.158	-127.018	-0.418	-0.061
-187.144	68.906	0.108	0.111
-186.129	-200.000	0.030	-0.188
-185.114	-83.738	-0.158	0.051
-184.100	778.659	0.095	0.260
-183.085	693.370	0.120	-0.315
-182.071	-200.000	0.016	0.132
-181.056	182.219	0.123	0.182
-180.042	-178.165	-0.110	-0.003
-179.027	304.012	0.057	-0.105
-178.012	-74.924	0.328	0.117
-176.998	-200.000	-0.053	0.265
-175.983	57.528	-0.162	0.158
-174.969	800.000	0.063	0.236
-173.954	-191.572	-0.334	0.003
-172.939	-38.057	0.236	-0.125
-171.925	40.176	-0.070	0.063
-170.910	140.939	-0.152	0.201
-169.896	-46.939	0.196	0.096
-168.881	224.069	-0.091	0.146
-167.866	-67.200	0.198	-0.078
-166.852	583.110	-0.070	-0.173
-165.837	-112.816	-0.085	0.017
-164.823	-32.776	-0.164	-0.091
-163.808	-200.000	-0.005	-0.052
-162.793	-156.699	-0.063	-0.004
-161.779	58.256	-0.094	0.092
-160.764	17.481	-0.176	-0.140
-159.750	157.704	0.083	0.115
-158.735	17.010	0.231	-0.183
-157.720	800.000	0.058	-0.212
-156.706	118.287	0.110	0.135
-155.691	-200.000	-0.055	0.330
-154.677	-200.000	-0.037	-0.176
-153.662	-98.598	0.245	-0.063
-152.647	-200.000	0.059	-0.293
-151.633	-21.672	0.233	0.142
-150.618	-165.494	0.155	0.007
-149.604	-200.000	0.036	0.161
-148.589	800.000	-0.067	0.222
-147.574	-83.780	0.268	-0.085
-146.560	-200.000	0.047	0.260
-145.545	293.475	0.128	0.234
-144.531	-143.811	0.141	0.013
-143.516	-121.259	0.123	0.021
-142.502	-77.756	-0.182	-0.063
-141.487	275.061	0.093	0.165
-140.472	32.467	0.087	-0.075
-139.458	-93.866	0.087	0.024
-138.443	82.821	-0.071	0.077
-137.429	-11.812	-0.179	-0.118
-136.414	-9.489	-0.111	-0.074
-135.399	-200.000	-0.052	0.309
-134.385	98.351	0.239	0.275
-133.370	-200.000	-0.040	-0.383
-132.356	-90.062	-0.173	0.050
-131.341	259.452	0.077	0.134
-130.326	17.562	0.145	-0.115
-129.312	-60.273	0.310	0.132
-128.297	380.626	0.145	-0.296
-127.283	445.630	0.145	0.319
-126.268	-200.000	-0.003	0.163
-125.253	800.000	0.084	-0.281
-124.239	709.514	0.059	0.157
-123.224	-200.000	0.014	-0.209
-122.210	800.000	-0.127	0.362
