DTS Sentinel unit serial number:	SN413079Multiplexer serial number:	ORYXHardware model number:	OX4-SRSoftware version number:	ORYX F/W v4.00 Oryx Data Collector v3.7.2.0data status	okinstallation	princeton_trtdifferential loss correction	single-endedforward channel	channel 3reverse channel	N/Adate	2019/09/12time	10:26:10forward acquisition time	60.00reverse acquisition time	0.00gamma	496.2192k internal	0.2298k external	0.2298temperature offset calibration	1.0027default loss term (dB/km)	0.3790temperature slope calibration	1.0000multiplexer offset coefficient	1.0000multiplexer slope coefficient	1.0000fibre end	0.00T internal ref (°C)	36.94T ext. ref 1 (°C)	1.87T ext. ref 2 (°C)	34.63length (m)	temperature (°C)	Stokes	anti-Stokes-747.200	-30.719	0.081	0.047
-746.185	56.136	0.159	0.157
-745.171	-106.864	-0.217	0.049
-744.156	150.475	-0.280	0.388
-743.142	207.252	0.079	0.126
-742.127	800.000	0.055	0.194
-741.112	138.571	0.032	-0.043
-740.098	-200.000	-0.004	-0.189
-739.083	-200.000	-0.050	0.435
-738.069	283.157	-0.238	0.435
-737.054	-200.000	0.025	0.385
-736.039	-140.784	0.276	0.029
-735.025	143.780	0.137	0.186
-734.010	-35.079	-0.137	-0.076
-732.996	-8.701	-0.306	-0.209
-731.981	88.313	0.044	0.050
-730.966	255.176	-0.061	-0.107
-729.952	800.000	-0.078	-0.338
-728.937	563.889	-0.264	-0.651
-727.923	18.275	0.187	-0.152
-726.908	7.505	-0.071	0.054
-725.894	330.357	0.111	0.219
-724.879	311.285	-0.119	-0.227
-723.864	389.669	-0.091	-0.193
-722.850	218.792	0.142	-0.231
-721.835	800.000	-0.129	-0.427
-720.821	630.343	-0.072	0.187
-719.806	183.436	0.172	0.259
-718.791	-76.831	-0.199	0.071
-717.777	-54.249	0.059	-0.027
-716.762	-195.944	0.118	0.001
-715.748	49.326	0.229	-0.220
-714.733	-49.829	-0.025	-0.012
-713.718	190.755	-0.168	-0.258
-712.704	800.000	-0.114	0.402
-711.689	131.730	0.162	0.213
-710.675	800.000	-0.128	0.402
-709.660	-200.000	-0.028	-0.250
-708.645	-160.378	0.189	0.010
-707.631	-51.874	0.246	0.117
-706.616	800.000	-0.125	0.480
-705.602	-44.047	0.275	0.141
-704.587	-121.644	-0.316	-0.053
-703.572	-200.000	-0.007	-0.062
-702.558	94.785	0.097	0.112
-701.543	23.847	-0.253	0.213
-700.529	25.807	0.191	0.162
-699.514	-142.580	0.190	-0.019
-698.499	96.556	0.044	-0.051
-697.485	460.911	0.093	-0.210
-696.470	112.420	0.133	-0.164
-695.456	-74.829	-0.268	-0.098
-694.441	-119.089	-0.349	-0.062
-693.426	-200.000	-0.015	0.102
-692.412	-21.838	0.134	-0.083
-691.397	159.434	-0.225	-0.319
-690.383	52.158	-0.181	-0.176
-689.368	-84.249	-0.169	-0.055
-688.354	-85.157	0.122	-0.039
-687.339	24.303	0.233	0.196
-686.324	14.180	-0.097	-0.077
-685.310	-200.000	0.007	-0.036
-684.295	-116.292	-0.278	-0.053
-683.281	-12.917	0.258	0.171
-682.266	26.043	0.080	0.068
-681.251	182.430	0.101	-0.152
-680.237	-200.000	0.035	-0.305
-679.222	-110.979	-0.328	-0.069
-678.208	269.045	-0.078	0.140
-677.193	-143.537	-0.168	-0.016
-676.178	116.989	-0.075	0.093
-675.164	240.402	0.222	0.377
-674.149	644.662	0.108	0.280
-673.135	476.355	-0.165	0.380
-672.120	327.859	-0.130	0.254
-671.105	-45.235	-0.248	-0.125
-670.091	-200.000	-0.054	0.370
-669.076	374.730	-0.046	0.096
-668.062	800.000	0.106	0.433
-667.047	444.994	0.051	0.113
-666.032	225.040	0.038	0.063
-665.018	-200.000	-0.005	0.295
-664.003	-165.154	-0.292	0.013
-662.989	-35.851	0.163	0.090
-661.974	-46.681	0.168	0.084
-660.959	211.372	-0.150	0.240
-659.945	-68.855	0.140	0.055
-658.930	-107.352	-0.173	0.039
-657.916	95.669	0.159	0.185
-656.901	-71.705	-0.341	-0.129
-655.886	454.476	0.049	0.111
-654.872	-103.610	-0.236	0.056
-653.857	184.046	-0.204	-0.307
-652.843	-85.660	-0.268	-0.085
-651.828	-200.000	-0.009	0.239
-650.814	158.731	0.133	-0.188
-649.799	-181.423	-0.072	0.001
-648.784	-148.199	-0.150	-0.013
-647.770	-200.000	0.014	-0.082
-646.755	-200.000	0.004	-0.236
-645.741	-72.958	0.189	0.071
-644.726	535.529	0.068	-0.165
-643.711	563.667	0.039	-0.097
-642.697	-33.840	-0.183	0.102
-641.682	-200.000	0.028	-0.155
-640.668	-200.000	-0.003	-0.162
-639.653	-99.318	-0.247	-0.063
-638.638	-134.110	-0.005	0.001
-637.624	-200.000	-0.012	-0.296
-636.609	-48.336	0.297	-0.146
-635.595	248.867	-0.150	-0.259
-634.580	800.000	0.086	-0.292
-633.565	-86.507	0.056	-0.018
-632.551	-73.708	0.368	0.136
-631.536	-135.403	0.165	0.020
-630.522	449.883	-0.098	0.219
-629.507	-15.493	0.061	0.040
-628.492	-155.065	0.171	-0.011
-627.478	-200.000	0.001	0.272
-626.463	-87.579	0.321	0.099
-625.449	1.086	-0.160	-0.116
-624.434	2.847	0.162	-0.120
-623.419	581.447	0.097	-0.242
-622.405	274.133	-0.141	0.253
-621.390	800.000	-0.060	0.219
-620.376	-45.695	-0.140	0.070
-619.361	596.316	0.053	-0.133
-618.346	-200.000	0.021	-0.151
-617.332	54.759	0.210	0.205
-616.317	106.922	0.162	0.195
-615.303	125.893	-0.117	0.150
-614.288	-134.596	-0.281	-0.035
-613.273	474.414	-0.095	0.217
-612.259	-80.958	-0.195	-0.066
-611.244	179.973	0.145	0.216
-610.230	-59.345	-0.227	-0.099
-609.215	-128.921	-0.317	-0.045
-608.201	424.460	0.134	-0.294
-607.186	115.932	-0.122	-0.152
-606.171	-135.302	-0.310	-0.038
-605.157	60.147	-0.075	0.075
-604.142	422.450	-0.078	0.171
-603.128	-105.903	-0.014	-0.003
-602.113	120.913	-0.104	0.131
-601.098	231.806	0.138	0.229
-600.084	-0.990	-0.198	0.142
-599.069	4.428	-0.145	-0.108
-598.055	-51.101	-0.257	-0.122
-597.040	-200.000	0.026	0.144
-596.025	-16.750	-0.212	-0.136
-595.011	-153.222	0.200	0.014
-593.996	800.000	0.008	-0.028
-592.982	86.340	-0.195	-0.218
-591.967	198.035	-0.079	-0.123
-590.952	20.835	-0.293	0.241
-589.938	222.348	-0.116	-0.189
-588.923	-200.000	0.002	0.036
-587.909	84.748	0.021	0.023
-586.894	-140.388	-0.314	-0.033
-585.879	126.476	0.176	0.226
-584.865	115.319	0.117	-0.145
-583.850	202.620	0.063	0.099
-582.836	-2.099	-0.177	-0.126
-581.821	-200.000	-0.063	0.380
-580.806	-87.378	-0.296	-0.091
-579.792	-200.000	0.001	0.116
-578.777	-136.833	-0.219	-0.026
-577.763	90.805	-0.132	-0.150
-576.748	73.041	-0.131	0.139
-575.733	-140.868	0.058	0.006
-574.719	800.000	-0.055	0.200
-573.704	-121.437	0.184	0.031
-572.690	306.905	0.103	0.195
-571.675	-112.947	0.154	0.031
-570.661	39.866	0.267	-0.243
-569.646	-92.335	0.103	-0.029
-568.631	-106.616	-0.328	0.074
-567.617	-5.271	0.194	-0.135
-566.602	-55.713	-0.091	0.041
-565.588	-200.000	0.026	-0.139
-564.573	-99.392	0.485	0.124
-563.558	81.139	-0.351	-0.384
-562.544	800.000	-0.094	-0.298
-561.529	215.279	-0.055	0.089
-560.515	3.822	-0.078	-0.058
-559.500	126.306	0.145	-0.186
-558.485	278.625	-0.062	-0.111
-557.471	-94.866	-0.133	0.037
-556.456	26.266	0.190	0.161
-555.442	26.965	0.232	-0.197
-554.427	-54.733	0.138	-0.063
-553.412	-58.394	0.030	-0.013
-552.398	130.662	0.186	0.242
-551.383	-149.219	-0.430	-0.035
-550.369	800.000	0.059	-0.221
-549.354	-200.000	0.067	-0.417
-548.339	800.000	-0.048	-0.174
-547.325	157.670	-0.090	-0.127
-546.310	-200.000	0.026	-0.231
-545.296	-143.908	0.068	-0.007
-544.281	800.000	0.080	-0.263
-543.266	-200.000	-0.019	-0.222
-542.252	626.924	0.127	-0.323
-541.237	-60.280	-0.254	0.110
-540.223	138.167	-0.331	-0.439
-539.208	11.603	0.059	-0.046
-538.193	324.647	0.072	-0.140
-537.179	-132.940	0.299	-0.039
-536.164	-200.000	0.014	-0.285
-535.150	194.686	-0.271	0.417
-534.135	749.387	0.090	-0.245
-533.121	-140.975	0.248	-0.026
-532.106	-146.270	0.201	-0.018
-531.091	-200.000	0.015	-0.187
-530.077	800.000	-0.099	0.380
-529.062	55.687	0.180	-0.177
-528.048	97.539	-0.132	-0.154
-527.033	-47.078	-0.102	-0.050
-526.018	-200.000	-0.008	-0.126
-525.004	41.811	-0.190	-0.174
-523.989	34.416	-0.213	-0.188
-522.975	-36.057	-0.062	0.034
-521.960	-52.869	0.135	-0.063
-520.945	599.271	-0.067	-0.168
-519.931	-23.688	-0.103	-0.062
-518.916	-54.603	0.164	0.075
-517.902	39.013	0.164	-0.148
-516.887	-200.000	0.036	-0.187
-515.872	-200.000	-0.016	0.127
-514.858	-127.521	-0.177	0.026
-513.843	76.023	0.198	0.212
-512.829	48.073	-0.304	-0.288
-511.814	-67.484	0.362	-0.144
-510.799	-31.372	-0.102	-0.058
-509.785	-152.173	0.053	-0.004
-508.770	524.805	-0.056	0.133
-507.756	-200.000	0.052	0.320
-506.741	800.000	-0.066	0.199
-505.726	-40.539	0.258	0.135
-504.712	18.341	0.249	-0.201
-503.697	-200.000	-0.005	-0.051
-502.683	-127.475	-0.162	0.024
-501.668	-33.446	-0.193	-0.108
-500.653	21.270	-0.306	-0.252
-499.639	647.689	0.067	-0.174
-498.624	92.388	0.131	0.149
-497.610	-200.000	-0.016	-0.089
-496.595	800.000	-0.037	-0.134
-495.581	-200.000	0.054	-0.357
-494.566	-22.806	-0.220	-0.134
-493.551	-200.000	0.010	0.509
-492.537	196.438	-0.166	0.256
-491.522	800.000	-0.071	0.286
-490.508	-200.000	0.042	0.258
-489.493	-123.269	0.324	0.052
-488.478	11.290	-0.270	0.209
-487.464	-140.179	0.138	0.015
-486.449	103.066	-0.083	-0.099
-485.435	242.148	-0.081	-0.136
-484.420	178.323	0.034	-0.050
-483.405	-59.675	-0.189	0.082
-482.391	-98.555	0.144	0.037
-481.376	-85.570	-0.301	0.095
-480.362	-69.452	-0.287	0.111
-479.347	65.236	0.302	0.309
-478.332	13.425	-0.164	0.129
-477.318	-64.643	-0.133	-0.055
-476.303	60.614	0.116	-0.116
-475.289	706.791	0.141	-0.377
-474.274	-88.635	-0.333	-0.100
-473.259	-157.495	-0.286	0.017
-472.245	-85.428	0.150	0.047
-471.230	-200.000	-0.040	-0.229
-470.216	124.336	-0.119	-0.151
-469.201	-151.815	0.284	0.021
-468.186	-200.000	0.014	0.179
-467.172	-200.000	0.001	0.197
-466.157	-119.505	-0.099	-0.017
-465.143	-107.758	0.086	0.019
-464.128	-59.222	0.321	0.140
-463.113	-200.000	0.012	0.232
-462.099	640.674	0.171	0.440
-461.084	-193.074	0.251	-0.002
-460.070	609.140	-0.154	-0.389
-459.055	-200.000	-0.045	0.247
-458.040	-128.805	0.286	0.041
-457.026	180.296	0.030	-0.044
-456.011	119.035	0.060	0.074
-454.997	141.457	0.047	0.063
-453.982	625.609	0.076	-0.192
-452.968	-200.000	0.037	-0.426
-451.953	310.501	0.072	0.137
-450.938	-149.992	0.198	-0.016
-449.924	43.839	-0.255	0.236
-448.909	286.431	0.056	0.102
-447.895	-129.500	0.293	-0.041
-446.880	614.656	0.186	0.469
-445.865	241.765	0.082	-0.139
-444.851	-18.873	-0.265	0.166
-443.836	-162.134	-0.161	-0.008
-442.822	93.960	-0.214	-0.244
-441.807	-95.506	0.330	0.089
-440.792	-200.000	0.003	-0.135
-439.778	77.629	-0.221	0.238
-438.763	124.265	0.123	0.156
-437.749	71.100	-0.392	0.410
-436.734	-200.000	0.049	0.247
-435.719	-200.000	-0.062	-0.301
-434.705	-200.000	-0.048	-0.252
-433.690	61.724	0.170	-0.170
-432.676	800.000	-0.037	-0.152
-431.661	-79.460	-0.153	0.052
-430.646	-37.659	-0.267	-0.143
-429.632	-125.392	-0.132	-0.020
-428.617	-23.165	-0.194	0.118
-427.603	-200.000	0.013	0.089
-426.588	-55.753	-0.280	-0.126
-425.573	193.487	-0.216	0.330
-424.559	-45.027	-0.115	0.058
-423.544	800.000	-0.081	0.313
-422.530	360.329	-0.066	0.134
-421.515	-146.543	-0.514	-0.045
-420.500	800.000	0.036	-0.158
-419.486	-47.839	0.166	0.081
-418.471	399.253	0.118	0.249
-417.457	751.026	-0.037	-0.100
-416.442	-200.000	-0.026	0.153
-415.428	-50.516	0.053	0.025
-414.413	-130.536	0.220	-0.030
-413.398	-85.228	0.229	0.072
-412.384	444.617	-0.032	0.070
-411.369	27.727	0.184	0.156
-410.355	204.630	-0.084	0.131
-409.340	-100.795	-0.327	-0.081
-408.325	-155.429	-0.114	-0.007
-407.311	800.000	-0.077	0.292
-406.296	-200.000	-0.009	-0.091
-405.282	137.503	0.032	-0.042
-404.267	-161.748	-0.226	-0.012
-403.252	32.258	0.060	0.052
-402.238	-50.458	0.056	0.027
-401.223	-74.572	0.264	-0.096
-400.209	122.270	-0.049	-0.062
-399.194	193.074	0.076	-0.116
-398.179	800.000	-0.076	0.266
-397.165	-34.882	-0.365	0.201
-396.150	800.000	0.083	0.279
-395.136	-116.072	-0.123	-0.023
-394.121	260.843	0.082	-0.143
-393.106	-200.000	0.053	-0.383
-392.092	-136.099	-0.478	0.056
-391.077	-200.000	-0.004	-0.079
-390.063	-200.000	0.007	0.094
-389.048	288.769	0.140	0.255
-388.033	-161.138	0.561	0.029
-387.019	800.000	0.089	0.275
-386.004	-82.844	0.180	0.059
-384.990	-172.680	0.136	-0.004
-383.975	-91.404	0.163	0.047
-382.960	137.414	0.104	-0.137
-381.946	-154.398	0.089	0.006
-380.931	-51.114	0.402	0.190
-379.917	507.006	0.112	-0.262
-378.902	800.000	0.079	-0.259
-377.888	-18.646	-0.196	-0.123
-376.873	-86.503	0.098	0.030
-375.858	-200.000	0.020	0.124
-374.844	-4.802	0.298	-0.207
-373.829	-52.533	-0.130	-0.060
-372.815	42.475	0.167	0.153
-371.800	-120.732	-0.095	0.016
-370.785	199.026	-0.062	-0.096
-369.771	-161.261	-0.083	-0.004
-368.756	-200.000	0.009	0.115
-367.742	-97.467	0.286	0.075
-366.727	224.661	0.100	0.163
-365.712	-200.000	0.087	0.384
-364.698	29.714	0.286	-0.245
-363.683	-200.000	0.005	-0.156
-362.669	415.447	0.165	-0.353
-361.654	157.868	0.012	-0.016
-360.639	-167.559	-0.218	-0.009
-359.625	-154.111	-0.216	-0.015
-358.610	-51.849	-0.207	0.097
-357.596	45.701	-0.174	0.162
-356.581	307.245	-0.109	-0.204
-355.566	167.781	0.085	0.122
-354.552	-200.000	-0.057	0.273
-353.537	-165.111	0.511	0.023
-352.523	-140.508	-0.145	0.015
-351.508	81.814	0.206	0.224
-350.493	137.575	0.109	-0.143
-349.479	-200.000	0.002	0.044
-348.464	-60.876	0.061	0.026
-347.450	153.005	-0.143	0.196
-346.435	-78.318	-0.212	-0.073
-345.420	-68.248	-0.161	-0.063
-344.406	-200.000	0.062	-0.381
-343.391	154.604	-0.163	-0.225
-342.377	800.000	-0.036	-0.146
-341.362	69.929	0.143	-0.148
-340.348	-186.852	0.095	0.001
-339.333	800.000	-0.060	-0.237
-338.318	-72.902	0.201	-0.074
-337.304	-102.251	0.065	-0.016
-336.289	-200.000	-0.030	-0.177
-335.275	272.529	0.083	-0.147
-334.260	-200.000	-0.005	-0.159
-333.245	502.085	-0.073	0.169
-332.231	-108.260	0.397	0.086
-331.216	252.319	0.236	0.404
-330.202	176.213	-0.096	0.140
-329.187	-158.268	-0.174	0.010
-328.172	23.998	0.213	0.176
-327.158	-2.252	-0.143	-0.101
-326.143	-195.155	0.333	-0.003
-325.129	101.275	-0.124	0.144
-324.114	-71.355	0.237	-0.089
-323.099	516.850	-0.041	-0.096
-322.085	-178.435	0.515	-0.012
-321.070	233.051	0.047	0.078
-320.056	37.249	0.101	-0.090
-319.041	800.000	0.077	-0.301
-318.026	66.723	0.307	0.314
-317.012	620.308	-0.056	0.141
-315.997	282.721	-0.136	0.245
-314.983	-200.000	0.015	0.289
-313.968	150.695	0.120	-0.164
-312.953	25.059	-0.193	0.160
-311.939	-115.573	0.322	0.061
-310.924	800.000	-0.125	0.397
-309.910	719.440	0.015	0.041
-308.895	376.577	0.129	0.265
-307.880	-83.744	0.137	0.044
-306.866	-200.000	-0.018	0.088
-305.851	60.057	-0.168	-0.167
-304.837	291.941	0.135	0.247
-303.822	-89.623	0.016	-0.005
-302.807	31.601	0.111	0.095
-301.793	-84.376	0.260	0.083
-300.778	15.916	-0.112	0.089
-299.764	16.250	0.211	0.167
-298.749	-36.105	0.267	-0.144
-297.735	-21.534	0.101	0.062
-296.720	-127.812	-0.072	-0.010
-295.705	-200.000	-0.039	-0.233
-294.691	79.832	0.156	0.168
-293.676	-87.602	-0.147	-0.045
-292.662	-8.864	0.054	0.036
-291.647	125.519	0.163	0.206
-290.632	215.270	0.296	-0.470
-289.618	-95.265	-0.310	0.084
-288.603	438.036	-0.087	0.189
-287.589	729.467	-0.115	-0.307
-286.574	-199.625	-0.079	0.000
-285.559	230.908	-0.130	-0.214
-284.545	-200.000	0.002	0.089
-283.530	-77.448	0.255	0.089
-282.516	30.051	-0.155	0.132
-281.501	-200.000	0.057	0.570
-280.486	-200.000	-0.031	0.167
-279.472	-74.653	0.255	-0.092
-278.457	-200.000	0.025	0.113
-277.443	-127.517	-0.143	-0.021
-276.428	23.768	-0.083	-0.069
-275.413	-200.000	-0.079	-0.354
-274.399	-200.000	-0.001	-0.136
-273.384	800.000	0.040	0.136
-272.370	-77.192	-0.136	-0.047
-271.355	92.873	-0.065	-0.073
-270.340	28.411	0.101	0.086
-269.326	513.525	0.064	-0.148
-268.311	47.998	0.234	0.219
-267.297	601.900	0.120	0.298
-266.282	49.471	-0.209	-0.197
-265.267	9.912	0.080	0.060
-264.253	-122.762	-0.091	0.015
-263.238	78.392	0.080	-0.085
-262.224	-200.000	0.006	0.134
-261.209	79.135	-0.249	0.267
-260.195	149.914	0.154	-0.209
-259.180	14.370	0.067	-0.053
-258.165	-29.086	-0.142	0.082
-257.151	-164.869	0.182	-0.008
-256.136	-101.021	0.424	-0.104
-255.122	-68.417	-0.069	0.027
-254.107	331.002	-0.052	-0.100
-253.092	18.697	0.077	-0.062
-252.078	-200.000	0.009	-0.117
-251.063	270.758	0.131	0.230
-250.049	92.629	-0.187	0.212
-249.034	800.000	-0.073	0.209
-248.019	800.000	0.044	0.161
-247.005	42.199	-0.130	0.118
-245.990	-4.352	-0.071	-0.049
-244.976	800.000	0.030	-0.123
-243.961	-77.427	-0.275	-0.096
-242.946	384.410	0.034	-0.070
-241.932	-200.000	-0.008	0.157
-240.917	45.281	0.049	0.045
-239.903	-30.194	0.241	-0.137
-238.888	-200.000	-0.000	0.100
-237.873	-133.523	-0.084	0.010
-236.859	102.132	-0.094	-0.109
-235.844	-114.333	0.128	0.025
-234.830	800.000	-0.049	0.141
-233.815	-200.000	0.045	-0.353
-232.800	33.492	0.019	-0.016
-231.786	221.590	-0.080	-0.129
-230.771	-169.109	-0.048	0.002
-229.757	-200.000	0.026	-0.150
-228.742	-200.000	-0.003	-0.052
-227.727	-200.000	0.011	-0.204
-226.713	-200.000	0.058	-0.295
-225.698	148.815	-0.116	-0.157
-224.684	245.667	0.199	-0.335
-223.669	-34.926	0.172	-0.094
-222.655	-97.453	-0.175	-0.046
-221.640	-200.000	0.022	0.327
-220.625	-200.000	0.012	-0.107
-219.611	-119.365	0.196	0.034
-218.596	-200.000	0.001	0.024
-217.582	-85.189	0.138	0.043
-216.567	-65.232	0.126	0.051
-215.552	-121.524	0.355	0.059
-214.538	207.352	-0.154	0.241
-213.523	245.543	-0.154	-0.259
-212.509	386.125	0.098	0.202
-211.494	346.252	-0.067	-0.133
-210.479	132.573	-0.094	-0.121
-209.465	113.627	0.079	0.096
-208.450	-32.570	0.140	0.078
-207.436	-0.007	0.270	-0.192
-206.421	-141.162	-0.368	-0.038
-205.406	-200.000	0.002	-0.158
-204.392	-91.572	0.292	-0.083
-203.377	-200.000	-0.005	0.263
-202.363	69.317	-0.239	0.246
-201.348	230.919	0.049	0.080
-200.333	-120.529	-0.311	0.053
-199.319	478.983	-0.042	-0.095
-198.304	800.000	0.043	0.185
-197.290	800.000	-0.045	-0.152
-196.275	582.094	-0.027	0.065
-195.260	307.512	-0.047	0.088
-194.246	61.247	-0.131	0.130
-193.231	800.000	-0.117	-0.443
-192.217	-107.279	-0.312	-0.069
-191.202	-200.000	-0.056	0.315
-190.187	250.871	0.042	0.072
-189.173	2.543	0.089	0.064
-188.158	335.258	0.148	0.287
-187.144	800.000	-0.110	0.313
-186.129	-22.942	-0.042	0.026
-185.114	800.000	0.074	-0.307
-184.100	-45.484	0.020	-0.010
-183.085	5.438	-0.212	-0.156
-182.071	281.101	-0.155	0.278
-181.056	30.477	-0.304	0.259
-180.042	-36.842	0.196	0.105
-179.027	-8.680	0.184	-0.123
-178.012	12.853	-0.259	-0.200
-176.998	-88.660	-0.121	0.036
-175.983	530.307	0.056	-0.133
-174.969	800.000	0.066	0.185
-173.954	800.000	0.089	0.348
-172.939	-143.858	-0.096	0.009
-171.925	506.733	0.019	-0.044
-170.910	-130.046	-0.129	-0.018
-169.896	318.271	0.090	0.170
-168.881	-200.000	-0.037	-0.315
-167.866	-200.000	-0.011	-0.387
-166.852	800.000	0.024	-0.094
-165.837	97.091	-0.097	-0.111
-164.823	-91.327	0.140	0.040
-163.808	-100.428	-0.319	-0.079
-162.793	-16.028	-0.226	0.144
-161.779	-84.176	-0.369	-0.117
-160.764	254.709	0.223	-0.380
-159.750	-200.000	0.019	-0.195
-158.735	800.000	-0.102	-0.305
-157.720	-89.991	0.166	0.048
-156.706	-120.379	0.137	0.023
-155.691	263.411	-0.132	0.229
-154.677	750.358	-0.052	-0.139
-153.662	-200.000	0.013	0.148
-152.647	23.955	-0.439	0.361
-151.633	-51.657	0.035	-0.016
-150.618	21.806	0.211	0.172
-149.604	800.000	-0.007	0.020
-148.589	800.000	-0.048	-0.168
-147.574	800.000	0.041	-0.131
-146.560	519.190	0.241	0.562
-145.545	-89.289	0.135	-0.040
-144.531	375.532	-0.058	0.119
-143.516	125.526	-0.212	-0.266
-142.502	800.000	0.026	0.105
-141.487	-200.000	0.020	0.126
-140.472	22.703	-0.151	0.123
-139.458	13.112	-0.139	-0.108
-138.443	-36.002	-0.140	0.076
-137.429	-13.822	0.098	0.063
-136.414	-200.000	-0.009	0.217
-135.399	277.348	0.056	0.098
-134.385	-146.148	0.220	-0.019
-133.370	-200.000	-0.025	0.160
-132.356	-200.000	0.004	-0.244
-131.341	162.331	-0.053	0.074
-130.326	31.714	0.209	0.179
-129.312	800.000	-0.056	0.203
-128.297	-166.189	0.277	0.012
-127.283	108.313	-0.093	-0.111
-126.268	-90.686	0.116	0.033
-125.253	-3.760	0.139	0.096
-124.239	800.000	0.106	0.359
-123.224	156.902	-0.149	0.204
-122.210	-200.000	0.069	-0.326
-121.195	20.976	-0.256	0.207
