DTS Sentinel unit serial number:	SN413079Multiplexer serial number:	ORYXHardware model number:	OX4-SRSoftware version number:	ORYX F/W v4.00 Oryx Data Collector v3.7.2.0data status	okinstallation	princeton_trtdifferential loss correction	single-endedforward channel	channel 3reverse channel	N/Adate	2019/09/12time	22:36:35forward acquisition time	60.00reverse acquisition time	0.00gamma	496.2192k internal	0.2327k external	0.2327temperature offset calibration	1.0129default loss term (dB/km)	0.3790temperature slope calibration	1.0000multiplexer offset coefficient	1.0000multiplexer slope coefficient	1.0000fibre end	0.00T internal ref (°C)	29.62T ext. ref 1 (°C)	3.73T ext. ref 2 (°C)	24.21length (m)	temperature (°C)	Stokes	anti-Stokes-747.200	-108.273	-0.050	0.011
-746.185	601.350	-0.087	-0.219
-745.171	-200.000	-0.030	0.209
-744.156	175.278	0.106	0.155
-743.142	362.765	-0.067	-0.136
-742.127	-200.000	-0.106	0.666
-741.112	-169.706	0.110	0.004
-740.098	-6.547	0.160	0.110
-739.083	54.009	0.236	-0.229
-738.069	145.647	0.233	0.314
-737.054	800.000	0.058	-0.166
-736.039	251.705	-0.092	-0.157
-735.025	-200.000	0.019	-0.146
-734.010	-127.372	-0.131	0.019
-732.996	-104.085	0.161	-0.038
-731.981	-93.442	-0.219	0.061
-730.966	800.000	0.066	-0.216
-729.952	-77.748	-0.139	-0.048
-728.937	-200.000	-0.033	0.187
-727.923	-200.000	0.013	-0.095
-726.908	417.086	-0.013	0.027
-725.894	-2.549	-0.151	0.107
-724.879	-165.451	-0.232	-0.010
-723.864	19.310	0.139	-0.113
-722.850	-200.000	-0.016	0.089
-721.835	-85.291	-0.128	-0.040
-720.821	-21.373	-0.182	0.112
-719.806	-145.119	-0.243	0.022
-718.791	-200.000	0.048	-0.324
-717.777	-200.000	0.067	-0.392
-716.762	-200.000	0.022	-0.211
-715.748	800.000	-0.051	-0.196
-714.733	-89.779	0.234	-0.069
-713.718	800.000	0.133	-0.420
-712.704	381.107	-0.087	-0.179
-711.689	-200.000	0.017	-0.082
-710.675	-1.731	0.252	-0.179
-709.660	224.343	-0.155	-0.252
-708.645	-74.331	-0.331	-0.120
-707.631	244.834	-0.142	-0.240
-706.616	800.000	-0.055	-0.204
-705.602	-16.242	-0.146	0.094
-704.587	-165.575	0.186	0.008
-703.572	800.000	-0.033	-0.133
-702.558	-91.377	0.097	-0.028
-701.543	-171.861	0.060	-0.002
-700.529	438.129	-0.093	0.205
-699.514	-156.846	0.210	0.013
-698.499	-105.466	0.402	0.092
-697.485	668.781	-0.133	0.347
-696.470	800.000	0.060	-0.234
-695.456	-38.357	0.211	-0.112
-694.441	800.000	-0.047	-0.182
-693.426	14.932	0.079	0.063
-692.412	-200.000	0.010	0.271
-691.397	34.013	0.028	-0.024
-690.383	38.989	-0.291	-0.262
-689.368	635.882	-0.168	-0.428
-688.354	-18.319	0.208	0.131
-687.339	397.912	-0.072	0.151
-686.324	242.194	0.085	0.143
-685.310	368.791	-0.069	-0.141
-684.295	305.590	-0.058	0.109
-683.281	-44.395	-0.162	0.081
-682.266	34.224	-0.216	-0.189
-681.251	-76.325	0.428	0.152
-680.237	-17.127	0.250	-0.159
-679.222	-28.109	0.164	0.096
-678.208	-139.523	-0.363	-0.039
-677.193	-149.811	0.394	0.031
-676.178	554.898	0.076	-0.184
-675.164	318.877	-0.191	-0.364
-674.149	-117.789	-0.127	-0.023
-673.135	-46.902	-0.218	0.107
-672.120	-111.110	-0.191	-0.039
-671.105	800.000	0.017	0.053
-670.091	-70.803	-0.362	0.137
-669.076	-200.000	0.103	0.528
-668.062	-101.561	-0.150	-0.037
-667.047	-124.705	0.153	0.024
-666.032	262.904	0.031	-0.055
-665.018	0.255	0.093	-0.067
-664.003	163.030	-0.259	0.366
-662.989	-22.289	-0.167	-0.102
-661.974	-38.870	-0.063	-0.033
-660.959	126.030	0.152	0.193
-659.945	-36.600	0.148	0.080
-658.930	-25.699	0.061	0.036
-657.916	-154.518	-0.124	-0.008
-656.901	142.246	-0.084	0.112
-655.886	800.000	0.080	0.243
-654.872	800.000	0.066	-0.187
-653.857	-67.990	0.188	-0.074
-652.843	361.799	-0.102	-0.205
-651.828	-125.263	-0.132	-0.020
-650.814	-112.191	0.156	-0.031
-649.799	-125.830	-0.391	0.059
-648.784	-200.000	-0.008	0.066
-647.770	5.885	0.096	-0.071
-646.755	9.477	0.053	-0.040
-645.741	-149.708	0.197	-0.016
-644.726	1.986	0.162	0.117
-643.711	212.044	0.093	0.148
-642.697	-125.140	-0.150	-0.023
-641.682	167.986	-0.191	-0.273
-640.668	66.148	-0.224	0.228
-639.653	598.078	0.028	-0.069
-638.638	126.639	-0.304	-0.386
-637.624	-200.000	-0.005	-0.298
-636.609	-83.944	-0.165	0.053
-635.595	-200.000	-0.010	0.072
-634.580	50.186	-0.255	-0.242
-633.565	412.214	0.062	-0.131
-632.551	-31.193	-0.274	0.155
-631.536	3.665	-0.141	-0.104
-630.522	800.000	0.060	-0.232
-629.507	59.737	0.063	-0.062
-628.492	-165.640	-0.185	-0.008
-627.478	200.464	-0.115	0.178
-626.463	-200.000	0.021	-0.169
-625.449	-165.096	-0.010	0.000
-624.434	-200.000	0.037	0.219
-623.419	85.142	-0.109	-0.120
-622.405	349.938	0.088	0.174
-621.390	199.986	-0.064	0.099
-620.376	-16.575	-0.278	0.177
-619.361	-200.000	0.004	-0.590
-618.346	-127.238	-0.541	0.079
-617.332	290.296	-0.224	-0.409
-616.317	-16.199	-0.110	-0.070
-615.303	-82.103	-0.520	0.170
-614.288	164.515	0.156	-0.221
-613.273	9.850	-0.110	-0.084
-612.259	666.901	0.085	0.220
-611.244	9.990	0.293	0.223
-610.230	-200.000	-0.024	-0.148
-609.215	-200.000	-0.050	0.304
-608.201	121.782	-0.294	0.368
-607.186	48.386	-0.114	0.107
-606.171	-37.458	-0.198	0.106
-605.157	-69.795	-0.185	-0.071
-604.142	-200.000	-0.003	0.061
-603.128	-57.581	-0.144	-0.063
-602.113	85.809	-0.326	-0.360
-601.098	-200.000	0.021	-0.152
-600.084	188.641	-0.104	-0.156
-599.069	25.765	0.334	-0.279
-598.055	-111.596	0.420	-0.086
-597.040	-58.884	-0.365	0.158
-596.025	26.731	0.168	-0.141
-595.011	41.888	0.067	-0.061
-593.996	-133.448	0.269	0.034
-592.982	-123.637	-0.493	0.078
-591.967	-200.000	-0.071	-0.365
-590.952	57.468	-0.092	0.090
-589.938	234.134	0.274	-0.452
-588.923	279.339	-0.194	-0.347
-587.909	304.482	-0.033	-0.061
-586.894	-200.000	0.015	0.208
-585.879	-71.427	0.159	0.060
-584.865	-91.435	-0.152	0.043
-583.850	116.837	-0.174	0.213
-582.836	-130.123	-0.092	-0.013
-581.821	-200.000	0.039	0.170
-580.806	200.626	0.148	-0.227
-579.792	-90.233	0.307	-0.089
-578.777	-200.000	-0.040	0.203
-577.763	-139.866	-0.193	0.020
-576.748	-200.000	0.034	-0.210
-575.733	665.801	0.196	-0.507
-574.719	-200.000	-0.069	-0.478
-573.704	-38.281	0.065	0.035
-572.690	-165.870	0.090	-0.004
-571.675	34.102	0.234	0.204
-570.661	-57.395	-0.242	-0.106
-569.646	-146.655	-0.458	-0.040
-568.631	-43.928	0.352	0.177
-567.617	800.000	0.084	-0.240
-566.602	27.010	-0.173	0.145
-565.588	-98.013	0.248	-0.064
-564.573	-200.000	0.010	0.143
-563.558	-200.000	0.057	-0.397
-562.544	146.038	-0.125	-0.168
-561.529	26.854	-0.111	0.093
-560.515	-77.729	-0.089	-0.031
-559.500	-51.918	0.217	-0.101
-558.485	403.036	0.195	-0.411
-557.471	-117.344	0.431	0.078
-556.456	548.808	-0.056	0.134
-555.442	-200.000	-0.024	-0.109
-554.427	-200.000	-0.001	0.062
-553.412	54.573	0.205	0.197
-552.398	370.517	-0.068	0.138
-551.383	-69.708	-0.259	-0.099
-550.369	-10.467	-0.108	0.072
-549.354	114.973	-0.181	0.221
-548.339	256.161	-0.076	-0.130
-547.325	217.197	-0.045	0.072
-546.310	338.295	0.056	0.109
-545.296	34.383	-0.198	0.173
-544.281	-80.754	0.217	-0.072
-543.266	-16.593	0.143	0.091
-542.252	420.793	-0.116	-0.250
-541.237	20.917	-0.056	-0.045
-540.223	66.398	-0.090	0.092
-539.208	9.391	0.166	0.125
-538.193	438.080	-0.068	0.148
-537.179	111.390	0.127	0.153
-536.164	263.291	-0.066	0.114
-535.150	-110.012	-0.388	0.081
-534.135	-67.341	-0.496	0.195
-533.121	-41.688	-0.356	0.183
-532.106	-95.245	-0.194	0.052
-531.091	-200.000	0.010	-0.143
-530.077	-116.603	-0.168	0.031
-529.062	85.372	-0.138	-0.151
-528.048	0.969	-0.183	-0.131
-527.033	-123.861	0.257	-0.041
-526.018	-43.431	-0.204	-0.103
-525.004	-54.946	-0.258	-0.116
-523.989	-56.662	-0.141	-0.062
-522.975	-79.713	0.335	-0.113
-521.960	698.274	0.093	-0.244
-520.945	110.271	-0.141	0.170
-519.931	707.726	-0.094	0.249
-518.916	800.000	0.047	0.135
-517.902	-200.000	0.045	-0.259
-516.887	-15.352	0.144	0.092
-515.872	223.881	0.104	-0.168
-514.858	800.000	-0.057	0.203
-513.843	-200.000	0.035	-0.238
-512.829	-81.780	-0.283	-0.093
-511.814	207.335	0.073	0.114
-510.799	-200.000	-0.003	-0.283
-509.785	-138.954	0.157	0.017
-508.770	-200.000	-0.014	-0.108
-507.756	79.869	0.253	-0.271
-506.741	416.509	0.073	0.156
-505.726	-200.000	0.003	-0.078
-504.712	-16.760	0.095	-0.060
-503.697	-35.824	0.073	-0.039
-502.683	-87.224	0.125	-0.038
-501.668	287.873	-0.089	0.161
-500.653	503.718	0.144	-0.334
-499.639	-200.000	-0.051	-0.311
-498.624	25.723	0.093	0.078
-497.610	168.392	-0.208	0.295
-496.595	-200.000	-0.007	-0.284
-495.581	340.275	0.109	-0.213
-494.566	-98.959	0.408	0.103
-493.551	227.850	-0.155	-0.251
-492.537	800.000	-0.088	0.245
-491.522	10.404	-0.103	-0.078
-490.508	-158.879	0.249	0.014
-489.493	265.815	0.097	-0.168
-488.478	-39.232	-0.034	-0.018
-487.464	209.165	-0.049	0.077
-486.449	-16.560	0.331	-0.209
-485.435	12.736	-0.177	0.137
-484.420	-1.281	-0.177	-0.125
-483.405	800.000	0.054	0.188
-482.391	-200.000	0.000	0.340
-481.376	567.242	0.107	0.258
-480.362	80.186	0.182	0.195
-479.347	-61.743	0.073	0.031
-478.332	-74.247	-0.239	-0.086
-477.318	-98.768	-0.129	0.033
-476.303	389.772	0.131	-0.272
-475.289	-200.000	-0.013	-0.101
-474.274	35.807	-0.149	-0.131
-473.259	163.217	-0.107	-0.151
-472.245	-77.758	-0.140	0.048
-471.230	-200.000	0.024	0.179
-470.216	-56.850	0.367	0.162
-469.201	-105.177	0.109	0.025
-468.186	79.073	-0.174	0.186
-467.172	193.574	-0.033	-0.049
-466.157	-98.122	0.269	-0.069
-465.143	37.576	0.309	0.274
-464.128	-28.339	-0.205	0.118
-463.113	-39.110	0.316	0.166
-462.099	-200.000	0.026	-0.269
-461.084	800.000	0.075	0.214
-460.070	16.900	-0.294	0.232
-459.055	-122.635	0.099	0.016
-458.040	800.000	-0.066	-0.267
-457.026	-10.948	-0.106	-0.070
-456.011	800.000	0.056	0.168
-454.997	123.786	0.219	0.275
-453.982	12.378	0.308	-0.237
-452.968	-200.000	0.003	-0.192
-451.953	103.728	0.180	0.211
-450.938	9.813	0.060	-0.046
-449.924	-88.938	-0.314	0.093
-448.909	-134.448	0.338	0.041
-447.895	289.170	-0.042	0.075
-446.880	-59.721	0.147	-0.063
-445.865	-200.000	-0.013	-0.094
-444.851	14.208	-0.278	-0.216
-443.836	-164.338	-0.322	-0.015
-442.822	-126.515	-0.248	0.037
-441.807	800.000	0.030	-0.123
-440.792	-3.802	-0.167	0.116
-439.778	6.113	-0.262	-0.194
-438.763	800.000	0.003	-0.009
-437.749	-200.000	0.002	-0.188
-436.734	128.267	0.089	-0.112
-435.719	511.283	0.095	0.220
-434.705	-200.000	0.029	0.344
-433.690	13.357	0.183	-0.141
-432.676	-0.698	-0.175	-0.124
-431.661	-96.875	0.408	-0.107
-430.646	-114.041	0.320	0.062
-429.632	-157.026	-0.120	-0.007
-428.617	-200.000	0.002	-0.152
-427.603	158.863	-0.110	0.153
-426.588	19.901	0.181	-0.145
-425.573	800.000	-0.085	0.340
-424.559	565.101	0.023	0.056
-423.544	142.347	0.118	-0.155
-422.530	-23.882	-0.364	0.217
-421.515	52.090	-0.046	0.043
-420.500	431.213	-0.117	0.251
-419.486	800.000	0.014	0.042
-418.471	-200.000	-0.025	-0.288
-417.457	359.997	0.104	-0.207
-416.442	-200.000	0.007	0.099
-415.428	-88.821	0.089	0.026
-414.413	-101.281	-0.267	-0.065
-413.398	-74.416	-0.243	-0.087
-412.384	-3.720	0.218	-0.151
-411.369	556.858	-0.141	0.338
-410.355	-181.737	0.294	0.006
-409.340	800.000	0.150	0.486
-408.325	-200.000	0.009	0.325
-407.311	657.906	-0.099	0.254
-406.296	-41.227	0.248	-0.127
-405.282	-135.900	-0.075	-0.009
-404.267	-150.279	0.145	0.011
-403.252	32.154	0.069	0.059
-402.238	98.575	-0.097	0.111
-401.223	130.337	-0.070	0.090
-400.209	-109.855	-0.315	-0.066
-399.194	-116.012	0.454	0.084
-398.179	-85.967	-0.360	0.111
-397.165	-9.732	-0.110	-0.073
-396.150	-106.277	0.184	-0.041
-395.136	94.043	0.112	-0.126
-394.121	800.000	-0.042	0.177
-393.106	-200.000	0.006	-0.119
-392.092	-88.381	0.157	-0.047
-391.077	-200.000	-0.007	-0.104
-390.063	800.000	0.087	0.298
-389.048	11.188	-0.195	-0.148
-388.033	-99.109	0.174	-0.044
-387.019	-200.000	0.028	0.189
-386.004	-104.822	-0.493	-0.113
-384.990	-20.776	0.381	0.233
-383.975	-101.111	-0.136	0.033
-382.960	418.158	0.186	0.396
-381.946	-160.592	-0.269	-0.014
-380.931	37.197	0.200	0.176
-379.917	584.033	-0.050	0.123
-378.902	800.000	-0.061	0.240
-377.888	-159.053	0.261	-0.015
-376.873	103.499	0.093	-0.108
-375.858	-200.000	0.006	0.039
-374.844	-95.521	-0.100	-0.027
-373.829	266.759	-0.087	0.152
-372.815	41.936	0.122	0.110
-371.800	-17.968	-0.220	-0.137
-370.785	-121.592	-0.215	0.035
-369.771	-200.000	-0.009	-0.184
-368.756	98.850	0.049	0.056
-367.742	78.690	0.128	-0.136
-366.727	543.623	0.106	-0.250
-365.712	-171.421	0.447	0.015
-364.698	-200.000	0.002	-0.179
-363.683	-65.152	-0.224	-0.090
-362.669	-200.000	0.139	-0.000
-361.654	-200.000	-0.048	0.282
-360.639	-200.000	0.029	-0.380
-359.625	-142.330	0.044	-0.004
-358.610	800.000	-0.041	0.151
-357.596	-200.000	0.023	0.156
-356.581	435.056	-0.168	0.363
-355.566	-87.942	-0.070	-0.021
-354.552	-104.795	0.210	0.048
-353.537	262.068	-0.023	0.040
-352.523	151.808	-0.197	0.266
-351.508	471.093	-0.018	0.040
-350.493	664.075	-0.141	0.361
-349.479	35.019	0.191	0.166
-348.464	-17.590	-0.084	-0.052
-347.450	-200.000	0.038	0.194
-346.435	-194.700	-0.120	-0.001
-345.420	-151.329	0.178	0.013
-344.406	448.596	-0.105	-0.229
-343.391	800.000	0.099	-0.352
-342.377	-61.522	-0.327	-0.136
-341.362	-36.088	0.039	-0.021
-340.348	-120.418	-0.218	0.037
-339.333	-200.000	0.019	0.211
-338.318	233.452	0.155	0.253
-337.304	-19.852	0.138	0.085
-336.289	-28.212	0.327	0.188
-335.275	-200.000	0.065	-0.341
-334.260	-18.247	-0.052	-0.032
-333.245	25.022	0.054	0.044
-332.231	-126.251	0.173	0.026
-331.216	-127.458	-0.283	-0.041
-330.202	-89.494	0.221	-0.064
-329.187	224.284	0.099	0.158
-328.172	-125.072	0.174	-0.026
-327.158	84.629	0.083	-0.090
-326.143	-79.798	-0.254	0.085
-325.129	-200.000	-0.017	0.345
-324.114	-200.000	-0.081	0.408
-323.099	255.432	-0.098	-0.166
-322.085	171.061	-0.210	0.299
-321.070	-200.000	0.025	0.132
-320.056	-200.000	0.008	0.222
-319.041	170.426	0.183	0.260
-318.026	-107.058	0.398	0.087
-317.012	102.826	-0.020	-0.024
-315.997	-47.881	-0.190	0.091
-314.983	-200.000	0.034	-0.174
-313.968	78.672	0.112	0.118
-312.953	-174.231	0.391	0.011
-311.939	-200.000	0.012	0.132
-310.924	-43.845	0.204	-0.102
-309.910	172.310	-0.168	-0.239
-308.895	-168.248	0.101	0.004
-307.880	-81.876	-0.231	-0.075
-306.866	800.000	-0.078	0.267
-305.851	-109.107	-0.417	0.088
-304.837	-200.000	0.037	-0.222
-303.822	65.729	0.102	-0.102
-302.807	8.965	0.138	-0.103
-301.793	-134.097	0.195	-0.024
-300.778	800.000	0.070	0.250
-299.764	-143.592	-0.223	0.021
-298.749	800.000	0.091	0.252
-297.735	-200.000	0.030	-0.416
-296.720	800.000	0.047	-0.140
-295.705	-51.428	0.182	-0.084
-294.691	-72.329	0.242	-0.089
-293.676	-46.860	0.047	-0.023
-292.662	-200.000	-0.028	-0.134
-291.647	31.968	-0.236	0.201
-290.632	-71.918	0.227	0.084
-289.618	-136.971	0.269	0.031
-288.603	-200.000	-0.004	0.022
-287.589	-16.199	0.279	0.176
-286.574	-134.606	0.246	0.030
-285.559	-51.811	0.162	0.075
-284.545	45.493	0.206	-0.188
-283.530	322.281	-0.129	0.243
-282.516	22.219	0.172	-0.139
-281.501	-38.201	0.238	0.125
-280.486	147.425	0.089	0.118
-279.472	-23.441	0.222	-0.132
-278.457	800.000	0.118	0.366
-277.443	800.000	0.045	0.129
-276.428	-103.622	-0.069	-0.016
-275.413	-200.000	0.452	0.000
-274.399	800.000	-0.095	-0.306
-273.384	-56.595	-0.089	0.039
-272.370	-200.000	0.009	0.214
-271.355	789.920	-0.007	0.020
-270.340	-138.476	-0.206	-0.022
-269.326	-200.000	-0.012	0.276
-268.311	-123.915	0.245	0.038
-267.297	-51.493	-0.357	-0.165
-266.282	-200.000	-0.010	-0.072
-265.267	11.654	-0.166	-0.126
-264.253	-200.000	-0.016	0.304
-263.238	30.481	0.164	0.139
-262.224	-200.000	0.003	0.067
-261.209	235.008	0.076	0.124
-260.195	-107.125	-0.088	0.019
-259.180	156.019	-0.220	-0.300
-258.165	-129.396	0.146	-0.020
-257.151	395.636	-0.087	0.180
-256.136	-165.406	0.407	-0.018
-255.122	59.051	-0.250	-0.243
-254.107	-200.000	0.005	0.058
-253.092	-200.000	0.006	0.242
-252.078	-7.696	-0.116	0.078
-251.063	-70.620	0.254	-0.095
-250.049	67.681	0.141	0.143
-249.034	-200.000	0.006	0.102
-248.019	-75.188	-0.185	0.066
-247.005	288.361	-0.057	0.102
-245.990	135.775	-0.136	-0.175
-244.976	254.648	0.136	0.230
-243.961	49.548	0.225	0.210
-242.946	-117.608	-0.130	-0.023
-241.932	82.300	-0.086	-0.092
-240.917	-42.728	-0.182	0.092
-239.903	321.200	-0.137	-0.257
-238.888	-200.000	0.034	0.242
-237.873	354.512	-0.050	0.098
-236.859	-200.000	0.043	0.191
-235.844	-200.000	0.022	0.109
-234.830	370.740	-0.048	-0.095
-233.815	-200.000	0.020	-0.201
-232.800	217.045	-0.111	-0.174
-231.786	-150.353	-0.232	0.018
-230.771	-102.556	0.181	0.043
-229.757	-167.816	-0.274	0.011
-228.742	633.911	0.032	-0.080
-227.727	-67.210	-0.494	-0.192
-226.713	-200.000	0.056	0.257
-225.698	53.780	0.026	-0.025
-224.684	-156.399	-0.088	0.005
-223.669	-200.000	0.017	0.339
-222.655	115.146	-0.170	0.205
-221.640	-200.000	0.056	0.370
-220.625	-96.437	0.041	0.011
-219.611	-50.946	0.238	0.111
-218.596	143.834	0.154	-0.202
-217.582	16.819	-0.250	0.195
-216.567	800.000	-0.094	-0.258
-215.552	185.909	0.165	-0.243
-214.538	67.481	-0.257	0.259
-213.523	264.593	-0.152	-0.262
-212.509	135.250	0.252	-0.324
-211.494	-144.385	0.150	-0.014
-210.479	-58.597	0.031	0.013
-209.465	-167.712	-0.201	0.008
-208.450	-101.288	-0.139	-0.033
-207.436	-21.514	-0.155	0.093
-206.421	364.536	-0.015	0.030
-205.406	-76.615	0.178	0.062
-204.392	-89.736	0.574	0.166
-203.377	-52.696	-0.100	0.046
-202.363	429.534	0.061	-0.130
-201.348	800.000	0.017	0.057
-200.333	123.632	0.197	-0.244
-199.319	-121.485	0.419	0.069
-198.304	-142.015	-0.083	-0.008
-197.290	800.000	-0.059	-0.171
-196.275	800.000	-0.069	-0.248
-195.260	1.813	0.161	-0.115
-194.246	283.751	0.163	0.290
-193.231	89.586	0.081	0.089
-192.217	-67.620	0.156	-0.060
-191.202	-48.492	-0.003	-0.001
-190.187	-114.683	-0.237	0.045
-189.173	-163.984	0.381	-0.017
-188.158	710.665	0.155	-0.405
-187.144	-133.430	-0.038	0.005
-186.129	204.014	-0.146	-0.224
-185.114	-58.362	-0.307	0.132
-184.100	236.194	-0.181	-0.295
-183.085	-99.684	-0.029	0.007
-182.071	-200.000	-0.077	-0.338
-181.056	-200.000	-0.003	0.041
-180.042	50.982	-0.360	-0.337
-179.027	-87.708	0.244	0.073
-178.012	184.616	-0.106	0.156
-176.998	-200.000	-0.043	-0.201
-175.983	-145.362	-0.414	-0.037
-174.969	460.752	0.068	0.150
-173.954	-70.992	0.138	-0.051
-172.939	-200.000	0.026	-0.125
-171.925	-200.000	-0.015	-0.112
-170.910	-141.684	0.066	-0.007
-169.896	11.741	0.265	-0.200
-168.881	-97.618	0.371	0.095
-167.866	-65.587	-0.037	-0.015
-166.852	-34.384	-0.099	0.053
-165.837	298.208	0.033	0.059
-164.823	-155.983	0.085	-0.005
-163.808	-97.886	0.142	0.036
-162.793	-69.718	0.122	-0.046
-161.779	-73.417	0.043	-0.016
-160.764	-101.604	-0.296	0.071
-159.750	-115.920	-0.264	-0.049
-158.735	264.988	0.151	-0.259
-157.720	157.401	0.165	-0.225
-156.706	-82.089	0.227	-0.073
-155.691	163.460	0.241	-0.335
-154.677	360.825	0.067	-0.133
-153.662	-200.000	-0.096	-0.448
-152.647	53.011	-0.176	0.166
-151.633	276.800	-0.041	0.072
-150.618	-8.033	-0.195	0.130
-149.604	-22.261	-0.342	0.204
-148.589	-127.589	0.220	0.031
-147.574	7.859	0.225	0.166
-146.560	-169.516	0.318	-0.011
-145.545	-68.587	-0.329	0.125
-144.531	737.620	-0.035	-0.092
-143.516	-113.661	0.209	-0.040
-142.502	62.618	0.246	-0.243
-141.487	800.000	0.029	-0.114
-140.472	-200.000	0.006	0.300
-139.458	118.352	0.124	0.151
-138.443	-92.462	-0.203	0.056
-137.429	800.000	0.118	0.370
-136.414	-63.136	0.052	0.021
-135.399	65.731	-0.135	-0.135
-134.385	-200.000	-0.028	0.449
-133.370	-36.183	-0.255	0.135
-132.356	-39.490	0.202	-0.104
-131.341	-200.000	0.048	-0.375
-130.326	-31.704	-0.071	-0.039
-129.312	800.000	0.038	-0.155
-128.297	109.777	-0.058	0.069
-127.283	-57.004	0.258	0.112
-126.268	800.000	0.023	0.064
-125.253	-3.321	-0.052	-0.036
-124.239	-183.162	-0.256	0.004
-123.224	33.458	-0.155	0.132
-122.210	-101.618	0.047	0.011
