DTS Sentinel unit serial number:	SN413079Multiplexer serial number:	ORYXHardware model number:	OX4-SRSoftware version number:	ORYX F/W v4.00 Oryx Data Collector v3.7.2.0data status	okinstallation	princeton_trtdifferential loss correction	single-endedforward channel	channel 3reverse channel	N/Adate	2019/09/11time	14:34:11forward acquisition time	60.00reverse acquisition time	0.00gamma	496.2192k internal	0.2291k external	0.2291temperature offset calibration	0.9981default loss term (dB/km)	0.3790temperature slope calibration	1.0000multiplexer offset coefficient	1.0000multiplexer slope coefficient	1.0000fibre end	0.00T internal ref (°C)	42.25T ext. ref 1 (°C)	0.89T ext. ref 2 (°C)	37.44length (m)	temperature (°C)	Stokes	anti-Stokes-747.200	81.294	-0.208	-0.230
-746.185	98.164	-0.099	0.117
-745.171	800.000	-0.077	0.309
-744.156	-200.000	0.013	0.161
-743.142	-165.101	-0.053	0.002
-742.127	-200.000	0.013	0.685
-741.112	19.340	-0.101	0.083
-740.098	-200.000	0.001	0.215
-739.083	162.642	-0.142	0.204
-738.069	800.000	-0.090	0.394
-737.054	-17.914	-0.267	-0.172
-736.039	111.241	0.084	-0.103
-735.025	666.815	0.133	0.352
-734.010	49.749	0.126	-0.122
-732.996	-200.000	-0.038	0.329
-731.981	69.248	-0.052	-0.055
-730.966	800.000	-0.049	-0.161
-729.952	-104.116	-0.358	-0.085
-728.937	257.706	-0.044	-0.078
-727.923	-20.663	0.049	0.031
-726.908	-164.539	-0.241	-0.011
-725.894	365.903	-0.039	0.081
-724.879	-163.261	-0.213	-0.010
-723.864	-101.611	0.088	-0.022
-722.850	9.260	-0.222	0.172
-721.835	-51.417	0.266	-0.127
-720.821	-114.470	-0.156	-0.031
-719.806	-47.912	-0.203	-0.100
-718.791	-133.906	-0.541	0.069
-717.777	-200.000	0.062	-0.344
-716.762	-120.435	-0.104	-0.018
-715.748	159.534	0.194	-0.276
-714.733	-27.150	-0.235	-0.140
-713.718	-200.000	0.003	0.059
-712.704	147.439	-0.171	-0.236
-711.689	-49.053	-0.218	0.107
-710.675	404.809	-0.077	0.166
-709.660	177.616	0.082	-0.122
-708.645	328.673	0.049	-0.095
-707.631	306.872	0.113	0.215
-706.616	344.269	-0.121	0.243
-705.602	45.641	-0.259	0.245
-704.587	205.213	-0.053	-0.083
-703.572	4.414	0.129	-0.096
-702.558	-111.246	-0.202	0.042
-701.543	-53.474	0.305	0.143
-700.529	110.336	0.257	-0.315
-699.514	-75.011	-0.148	0.054
-698.499	449.740	-0.067	0.152
-697.485	-200.000	0.055	0.335
-696.470	-116.327	-0.276	0.052
-695.456	-128.727	0.301	-0.043
-694.441	-98.682	0.122	0.032
-693.426	309.006	0.144	0.275
-692.412	141.894	-0.205	-0.277
-691.397	-97.967	-0.182	0.048
-690.383	192.552	-0.112	0.173
-689.368	-200.000	-0.016	0.194
-688.354	0.239	0.392	-0.286
-687.339	-98.991	0.305	-0.079
-686.324	116.672	-0.102	-0.128
-685.310	800.000	-0.101	-0.415
-684.295	653.322	-0.044	0.116
-683.281	-137.308	0.222	0.026
-682.266	496.963	0.106	0.250
-681.251	-110.868	0.116	-0.024
-680.237	-198.914	0.308	-0.002
-679.222	69.238	-0.060	-0.063
-678.208	58.175	0.291	0.291
-677.193	-110.472	-0.243	0.052
-676.178	800.000	0.055	-0.222
-675.164	87.373	-0.222	-0.251
-674.149	43.928	-0.276	-0.258
-673.135	-89.955	0.119	-0.035
-672.120	239.461	-0.164	-0.279
-671.105	-200.000	-0.037	-0.210
-670.091	-79.740	0.269	0.092
-669.076	407.834	0.239	-0.517
-668.062	-153.354	-0.197	-0.014
-667.047	81.375	0.180	0.198
-666.032	-58.779	-0.091	0.040
-665.018	-122.395	-0.214	-0.036
-664.003	-18.287	-0.300	0.192
-662.989	416.105	-0.058	-0.127
-661.974	-104.465	-0.127	0.030
-660.959	-89.659	-0.377	0.113
-659.945	-200.000	0.025	-0.343
-658.930	676.338	0.038	0.101
-657.916	218.740	0.055	-0.090
-656.901	160.095	0.259	0.369
-655.886	44.826	-0.156	0.146
-654.872	566.740	-0.055	0.137
-653.857	26.204	-0.185	-0.158
-652.843	-38.883	0.110	-0.059
-651.828	579.911	-0.073	0.182
-650.814	-144.136	0.146	-0.014
-649.799	377.700	0.109	0.228
-648.784	310.766	-0.034	0.065
-647.770	136.720	-0.089	0.119
-646.755	-200.000	-0.011	-0.106
-645.741	359.164	-0.064	-0.130
-644.726	-200.000	0.041	-0.404
-643.711	30.155	0.038	-0.033
-642.697	800.000	-0.017	0.050
-641.682	122.411	0.085	-0.108
-640.668	33.975	-0.122	-0.109
-639.653	29.920	-0.106	-0.092
-638.638	800.000	0.035	0.132
-637.624	-200.000	-0.021	-0.181
-636.609	800.000	0.019	-0.075
-635.595	131.605	0.079	0.103
-634.580	-174.782	-0.248	-0.007
-633.565	-91.159	0.284	-0.083
-632.551	58.835	-0.084	0.084
-631.536	488.590	-0.040	-0.092
-630.522	-86.054	0.294	0.093
-629.507	523.982	0.120	0.286
-628.492	-200.000	-0.026	-0.218
-627.478	519.128	-0.205	-0.490
-626.463	-200.000	0.000	0.173
-625.449	-115.106	-0.139	-0.027
-624.434	-93.769	-0.311	-0.087
-623.419	800.000	-0.091	0.292
-622.405	285.678	0.042	-0.076
-621.390	24.856	-0.217	-0.184
-620.376	647.492	0.052	0.136
-619.361	800.000	-0.071	0.310
-618.346	-176.817	0.219	-0.006
-617.332	-42.482	-0.206	-0.107
-616.317	-160.803	-0.110	-0.006
-615.303	800.000	-0.042	-0.123
-614.288	-109.217	-0.033	0.007
-613.273	-6.821	0.331	-0.229
-612.259	-200.000	-0.028	-0.344
-611.244	731.517	0.152	-0.414
-610.230	-48.499	-0.320	-0.157
-609.215	-13.406	-0.310	-0.205
-608.201	52.812	-0.129	0.126
-607.186	-15.376	0.200	-0.130
-606.171	216.393	0.199	0.323
-605.157	74.460	0.237	0.253
-604.142	578.008	-0.113	-0.282
-603.128	31.284	-0.276	0.241
-602.113	-200.000	-0.057	0.390
-601.098	142.656	0.060	0.081
-600.084	-90.728	-0.412	0.121
-599.069	-20.955	-0.151	-0.094
-598.055	-200.000	-0.038	-0.404
-597.040	140.047	0.052	0.070
-596.025	269.969	-0.197	-0.353
-595.011	339.038	0.165	-0.327
-593.996	73.615	0.097	0.103
-592.982	-114.504	0.275	-0.054
-591.967	619.205	-0.060	0.153
-590.952	-200.000	0.043	-0.236
-589.938	264.218	-0.062	-0.109
-588.923	49.926	-0.133	0.128
-587.909	96.081	-0.162	-0.189
-586.894	-49.655	-0.385	-0.186
-585.879	-82.212	-0.171	-0.057
-584.865	400.936	-0.050	0.106
-583.850	98.373	-0.198	-0.232
-582.836	-200.000	0.017	-0.302
-581.821	-200.000	0.038	-0.257
-580.806	113.371	0.153	0.189
-579.792	409.931	-0.233	-0.501
-578.777	155.222	0.267	-0.374
-577.763	-101.737	-0.095	-0.023
-576.748	-193.267	-0.325	-0.003
-575.733	19.755	-0.094	0.077
-574.719	-37.731	0.367	-0.198
-573.704	468.105	0.013	0.029
-572.690	97.629	-0.146	0.171
-571.675	489.308	0.057	-0.133
-570.661	-67.377	-0.143	-0.057
-569.646	-55.004	-0.314	-0.144
-568.631	-30.985	-0.209	0.120
-567.617	-167.078	0.251	-0.010
-566.602	-73.920	-0.306	0.113
-565.588	-124.240	-0.313	0.050
-564.573	498.029	-0.039	-0.092
-563.558	23.644	-0.231	-0.194
-562.544	43.665	0.113	-0.105
-561.529	-200.000	-0.027	0.217
-560.515	672.181	-0.070	-0.184
-559.500	255.594	-0.024	-0.041
-558.485	475.399	-0.074	-0.170
-557.471	213.533	0.070	-0.112
-556.456	-200.000	0.035	0.328
-555.442	-152.499	0.222	-0.016
-554.427	-200.000	-0.054	-0.326
-553.412	800.000	0.087	0.376
-552.398	-102.330	0.085	-0.021
-551.383	-66.649	0.121	0.049
-550.369	108.343	-0.132	0.161
-549.354	339.428	-0.024	-0.047
-548.339	-53.774	0.044	-0.020
-547.325	118.664	-0.082	-0.103
-546.310	-137.829	-0.241	0.027
-545.296	276.421	-0.095	0.172
-544.281	-200.000	0.019	-0.104
-543.266	-149.432	0.226	-0.018
-542.252	30.332	0.065	-0.056
-541.237	-70.885	-0.089	-0.034
-540.223	-40.723	0.114	-0.060
-539.208	800.000	0.075	0.229
-538.193	-54.291	0.167	0.077
-537.179	-158.666	-0.106	0.006
-536.164	-114.558	-0.552	-0.108
-535.150	-200.000	-0.023	0.113
-534.135	-70.070	0.214	-0.083
-533.121	-106.773	0.162	-0.037
-532.106	54.317	-0.185	-0.181
-531.091	800.000	-0.057	0.190
-530.077	317.356	-0.156	-0.300
-529.062	-133.797	-0.129	0.016
-528.048	-22.693	0.297	-0.182
-527.033	-200.000	-0.034	0.409
-526.018	800.000	0.024	0.074
-525.004	-72.135	-0.169	-0.064
-523.989	58.415	0.183	-0.182
-522.975	-96.727	0.124	-0.033
-521.960	37.379	0.138	-0.124
-520.945	-67.774	0.188	-0.075
-519.931	-71.991	-0.191	0.072
-518.916	-200.000	-0.009	0.057
-517.902	-12.801	0.121	-0.080
-516.887	222.399	-0.049	0.080
-515.872	-107.820	0.130	0.029
-514.858	-142.744	0.175	0.017
-513.843	40.603	0.092	-0.084
-512.829	274.893	-0.069	-0.124
-511.814	525.277	0.049	-0.117
-510.799	-51.535	-0.116	-0.055
-509.785	-144.376	-0.345	-0.033
-508.770	5.687	0.396	0.297
-507.756	170.838	0.063	0.091
-506.741	-200.000	-0.036	0.212
-505.726	65.310	-0.188	0.193
-504.712	-127.292	0.364	-0.054
-503.697	250.783	0.107	-0.184
-502.683	800.000	0.079	0.250
-501.668	800.000	-0.086	-0.294
-500.653	-87.012	0.169	0.052
-499.639	-122.521	0.222	0.037
-498.624	-61.125	0.026	-0.011
-497.610	-85.277	-0.126	0.040
-496.595	-200.000	0.013	0.309
-495.581	-172.872	-0.619	-0.020
-494.566	-39.600	-0.132	-0.070
-493.551	800.000	-0.067	0.289
-492.537	14.811	0.176	-0.140
-491.522	91.606	-0.293	0.333
-490.508	-56.713	0.250	-0.112
-489.493	800.000	-0.047	0.176
-488.478	-200.000	0.005	0.268
-487.464	-86.266	0.277	-0.087
-486.449	517.450	0.072	-0.170
-485.435	541.459	-0.042	-0.101
-484.420	585.643	-0.074	-0.185
-483.405	800.000	-0.036	0.127
-482.391	332.007	-0.027	-0.053
-481.376	-119.450	0.086	-0.015
-480.362	-97.658	-0.161	-0.042
-479.347	43.028	-0.145	0.134
-478.332	800.000	-0.019	-0.057
-477.318	-81.902	0.188	-0.062
-476.303	-200.000	0.009	0.042
-475.289	102.693	0.072	0.086
-474.274	-132.125	-0.359	-0.047
-473.259	46.672	0.230	-0.217
-472.245	800.000	0.069	-0.263
-471.230	-200.000	-0.025	-0.249
-470.216	-53.694	0.331	0.153
-469.201	-200.000	-0.042	0.269
-468.186	-200.000	-0.053	0.292
-467.172	-168.089	0.313	0.012
-466.157	174.512	-0.221	-0.323
-465.143	800.000	0.043	-0.141
-464.128	-200.000	-0.026	-0.262
-463.113	-19.430	-0.163	0.102
-462.099	800.000	-0.086	0.352
-461.084	269.829	0.186	-0.332
-460.070	30.760	-0.085	-0.074
-459.055	-53.166	0.313	0.146
-458.040	144.305	0.149	-0.202
-457.026	25.680	0.090	-0.076
-456.011	-62.864	-0.082	0.034
-454.997	57.390	-0.140	-0.139
-453.982	-53.904	0.297	-0.137
-452.968	-105.712	-0.226	0.052
-451.953	-200.000	0.037	0.199
-450.938	-131.109	-0.165	0.022
-449.924	744.457	-0.041	-0.112
-448.909	26.054	-0.261	0.221
-447.895	-122.985	-0.387	0.063
-446.880	720.088	0.063	0.170
-445.865	-38.028	-0.043	-0.023
-444.851	-92.355	-0.162	-0.046
-443.836	363.562	-0.124	0.252
-442.822	-79.016	-0.309	-0.106
-441.807	-86.287	-0.195	0.061
-440.792	-69.518	0.189	0.073
-439.778	-159.198	-0.322	0.018
-438.763	-200.000	0.020	-0.227
-437.749	-200.000	-0.016	0.273
-436.734	-180.490	0.243	0.005
-435.719	-200.000	-0.004	0.086
-434.705	-171.416	-0.208	0.007
-433.690	-200.000	0.007	-0.135
-432.676	-4.155	-0.154	-0.108
-431.661	-81.174	0.064	-0.022
-430.646	-22.788	0.117	-0.071
-429.632	29.151	-0.106	-0.091
-428.617	-123.631	-0.309	0.050
-427.603	14.995	0.195	-0.155
-426.588	800.000	-0.069	0.272
-425.573	47.394	0.133	0.125
-424.559	-165.143	-0.124	0.006
-423.544	1.788	0.317	0.231
-422.530	99.228	0.239	0.280
-421.515	-153.599	-0.259	-0.018
-420.500	-31.796	0.117	0.067
-419.486	260.356	0.121	0.211
-418.471	800.000	0.065	-0.273
-417.457	-135.032	0.210	0.026
-416.442	-70.259	-0.327	0.126
-415.428	-200.000	-0.009	0.130
-414.413	-25.416	0.147	-0.088
-413.398	-200.000	0.013	0.126
-412.384	-46.972	-0.137	0.068
-411.369	-40.882	-0.381	0.199
-410.355	800.000	-0.132	0.502
-409.340	-70.089	0.092	-0.035
-408.325	376.821	-0.090	-0.186
-407.311	-52.699	0.226	-0.106
-406.296	139.707	0.053	0.071
-405.282	800.000	0.061	0.243
-404.267	116.549	-0.101	-0.125
-403.252	800.000	0.057	0.245
-402.238	800.000	-0.110	0.343
-401.223	800.000	-0.124	-0.391
-400.209	-46.257	-0.207	0.103
-399.194	256.829	0.160	0.278
-398.179	-104.394	0.125	-0.029
-397.165	800.000	-0.025	-0.079
-396.150	17.636	-0.162	0.130
-395.136	-105.777	0.143	0.033
-394.121	303.829	-0.021	-0.040
-393.106	-90.140	-0.120	-0.035
-392.092	210.633	0.093	-0.148
-391.077	22.482	0.087	0.072
-390.063	-54.133	-0.015	-0.007
-389.048	159.351	0.186	0.262
-388.033	1.306	0.096	-0.070
-387.019	800.000	-0.069	-0.299
-386.004	358.625	-0.068	-0.137
-384.990	-66.064	0.074	-0.030
-383.975	-136.411	-0.339	0.040
-382.960	800.000	-0.021	0.058
-381.946	800.000	-0.049	0.197
-380.931	444.560	-0.095	-0.210
-379.917	-58.824	-0.171	-0.075
-378.902	13.136	0.139	-0.109
-377.888	742.389	-0.192	0.520
-376.873	-113.407	-0.318	-0.063
-375.858	-88.702	0.163	-0.049
-374.844	19.822	0.216	-0.175
-373.829	124.388	-0.171	0.217
-372.815	-145.487	-0.340	-0.031
-371.800	-88.020	-0.226	0.068
-370.785	-95.516	0.273	0.074
-369.771	800.000	-0.060	0.246
-368.756	-117.857	0.121	0.022
-367.742	57.588	-0.062	-0.061
-366.727	-16.864	0.130	0.083
-365.712	-165.748	0.070	-0.003
-364.698	251.849	0.069	-0.119
-363.683	581.925	0.046	-0.113
-362.669	800.000	0.062	-0.247
-361.654	-121.757	0.079	-0.013
-360.639	-200.000	-0.012	-0.394
-359.625	-54.228	0.133	-0.061
-358.610	800.000	-0.024	-0.066
-357.596	800.000	0.129	-0.360
-356.581	183.994	-0.215	-0.320
-355.566	-32.550	0.347	0.195
-354.552	36.860	0.108	-0.096
-353.537	-147.372	0.611	-0.052
-352.523	-129.086	-0.304	0.043
-351.508	800.000	0.049	0.177
-350.493	-137.571	0.242	0.028
-349.479	42.105	-0.047	-0.043
-348.464	589.768	-0.088	-0.218
-347.450	-15.692	0.129	0.083
-346.435	-200.000	-0.011	-0.143
-345.420	67.716	0.167	-0.172
-344.406	52.852	0.244	-0.235
-343.391	-56.584	0.059	-0.026
-342.377	-149.400	-0.061	0.005
-341.362	-54.015	0.173	0.079
-340.348	-53.508	0.208	-0.096
-339.333	66.345	0.295	0.302
-338.318	-80.185	-0.346	-0.117
-337.304	-60.502	-0.232	-0.099
-336.289	782.553	0.031	0.086
-335.275	-200.000	0.033	-0.239
-334.260	-200.000	-0.012	0.063
-333.245	477.498	-0.023	-0.052
-332.231	117.086	-0.055	0.068
-331.216	-168.982	-0.124	-0.005
-330.202	717.844	-0.068	0.181
-329.187	246.939	0.001	0.002
-328.172	-169.793	0.150	0.005
-327.158	-103.511	-0.329	0.078
-326.143	800.000	0.043	0.147
-325.129	800.000	-0.047	0.182
-324.114	-200.000	-0.045	0.254
-323.099	-90.853	0.144	-0.042
-322.085	-200.000	-0.001	0.044
-321.070	-200.000	-0.010	-0.219
-320.056	417.001	-0.050	0.107
-319.041	-4.017	0.055	0.038
-318.026	-200.000	-0.013	0.299
-317.012	800.000	0.085	-0.262
-315.997	-27.691	0.256	-0.150
-314.983	-200.000	0.012	0.483
-313.968	-71.302	-0.186	-0.070
-312.953	-133.943	0.106	0.013
-311.939	133.980	-0.104	0.136
-310.924	-32.834	0.151	-0.085
-309.910	-44.595	-0.400	-0.201
-308.895	33.373	-0.219	0.191
-307.880	-115.036	-0.211	0.040
-306.866	-200.000	0.037	0.179
-305.851	-40.605	0.229	0.119
-304.837	437.465	0.044	0.096
-303.822	-75.359	-0.195	0.070
-302.807	-31.251	-0.203	0.115
-301.793	800.000	0.050	0.217
-300.778	442.550	-0.108	-0.238
-299.764	800.000	-0.088	0.345
-298.749	125.394	0.238	0.302
-297.735	-200.000	-0.030	-0.378
-296.720	129.420	0.177	-0.227
-295.705	41.844	-0.218	0.199
-294.691	-56.747	0.174	0.077
-293.676	216.610	0.170	-0.272
-292.662	800.000	0.043	-0.145
-291.647	-74.364	-0.140	0.051
-290.632	-124.571	-0.396	0.062
-289.618	-164.108	0.252	-0.012
-288.603	411.068	0.075	0.161
-287.589	-75.601	0.074	0.026
-286.574	493.532	0.063	0.145
-285.559	-56.823	-0.277	-0.123
-284.545	800.000	0.130	0.368
-283.530	-60.894	0.103	0.044
-282.516	-155.508	0.218	0.014
-281.501	-110.594	0.232	-0.048
-280.486	470.286	0.110	-0.249
-279.472	256.281	0.065	0.112
-278.457	-200.000	-0.033	0.213
-277.443	407.187	0.224	-0.477
-276.428	157.788	0.255	0.356
-275.413	11.258	-0.040	-0.030
-274.399	-78.304	-0.281	0.097
-273.384	420.276	-0.085	-0.183
-272.370	172.605	0.053	0.077
-271.355	624.060	-0.130	0.328
-270.340	-166.950	0.146	-0.006
-269.326	69.691	-0.237	0.245
-268.311	-24.389	-0.113	0.068
-267.297	800.000	-0.109	0.416
-266.282	-200.000	0.223	-0.001
-265.267	-200.000	0.041	0.258
-264.253	-65.636	-0.144	-0.058
-263.238	124.129	0.045	0.057
-262.224	-15.475	0.261	-0.168
-261.209	-4.543	-0.037	-0.025
-260.195	109.779	-0.232	-0.279
-259.180	800.000	0.145	-0.440
-258.165	532.844	-0.058	-0.139
-257.151	-200.000	0.068	0.351
-256.136	-131.774	-0.254	0.033
-255.122	800.000	0.042	-0.154
-254.107	800.000	-0.054	0.158
-253.092	-116.604	0.240	0.044
-252.078	-200.000	0.009	-0.108
-251.063	428.673	-0.075	0.164
-250.049	-170.948	0.019	0.001
-249.034	405.924	0.044	-0.093
-248.019	-200.000	-0.061	0.337
-247.005	362.691	-0.072	-0.145
-245.990	24.952	0.091	0.075
-244.976	-168.839	0.142	-0.005
-243.961	-200.000	0.044	-0.512
-242.946	-28.491	-0.241	-0.140
-241.932	184.811	-0.055	0.082
-240.917	-200.000	-0.021	0.212
-239.903	-200.000	0.335	-0.000
-238.888	-200.000	-0.049	-0.247
-237.873	-200.000	0.014	-0.097
-236.859	-200.000	0.046	-0.405
-235.844	184.503	0.252	0.375
-234.830	86.536	0.232	0.257
-233.815	-104.709	0.199	-0.046
-232.800	-63.333	0.250	-0.103
-231.786	119.204	0.152	-0.189
-230.771	53.784	0.076	0.073
-229.757	800.000	-0.061	0.263
-228.742	158.832	0.159	0.222
-227.727	58.684	0.116	0.115
-226.713	-200.000	0.035	0.333
-225.698	-159.663	0.105	0.006
-224.684	-79.498	0.286	0.097
-223.669	-149.566	-0.248	-0.020
-222.655	-95.691	-0.297	-0.080
-221.640	800.000	-0.051	-0.201
-220.625	-12.296	0.149	-0.098
-219.611	-200.000	-0.007	-0.160
-218.596	59.211	-0.082	0.081
-217.582	29.242	0.158	0.135
-216.567	-29.044	0.196	-0.113
-215.552	-26.358	-0.278	0.164
-214.538	800.000	-0.020	-0.078
-213.523	-26.536	-0.041	-0.024
-212.509	43.746	0.288	0.265
-211.494	-123.350	-0.210	0.034
-210.479	-200.000	0.012	-0.101
-209.465	136.726	0.170	-0.223
-208.450	800.000	0.093	0.297
-207.436	681.896	0.152	0.398
-206.421	15.173	0.289	-0.227
-205.406	-85.619	-0.051	0.016
-204.392	-200.000	0.015	0.077
-203.377	-26.997	0.350	-0.205
-202.363	800.000	-0.090	-0.274
-201.348	-119.950	-0.258	0.045
-200.333	800.000	-0.052	-0.151
-199.319	-64.776	0.179	-0.073
-198.304	189.258	0.062	0.094
-197.290	374.544	0.094	-0.193
-196.275	113.682	0.082	0.100
-195.260	-45.985	0.236	-0.117
-194.246	-79.478	0.586	0.198
-193.231	-155.263	-0.249	-0.016
-192.217	-200.000	-0.013	-0.226
-191.202	610.603	-0.170	0.426
-190.187	-0.539	0.114	-0.081
-189.173	800.000	-0.030	-0.115
-188.158	-181.046	-0.105	-0.002
-187.144	-200.000	-0.088	0.648
-186.129	800.000	0.083	0.231
-185.114	468.487	-0.084	-0.189
-184.100	-36.902	-0.058	0.031
-183.085	235.204	0.062	-0.103
-182.071	-41.332	-0.366	-0.189
-181.056	800.000	0.065	-0.215
-180.042	9.973	0.356	0.271
-179.027	800.000	-0.078	-0.237
-178.012	-108.592	0.093	-0.020
-176.998	454.476	-0.160	0.356
-175.983	478.118	-0.163	-0.369
-174.969	264.974	-0.045	0.078
-173.954	-200.000	-0.012	0.269
-172.939	217.561	0.047	0.075
-171.925	112.252	0.124	-0.150
-170.910	-85.064	0.155	-0.049
-169.896	-200.000	-0.027	-0.306
-168.881	-200.000	-0.029	-0.281
-167.866	-200.000	-0.008	0.049
-166.852	-43.072	0.203	-0.103
-165.837	-10.949	0.315	-0.208
-164.823	-19.450	0.192	0.119
-163.808	-200.000	-0.027	0.175
-162.793	-54.212	0.077	0.035
-161.779	-142.345	-0.372	0.037
-160.764	-186.665	0.478	-0.007
-159.750	-72.268	-0.132	-0.049
-158.735	324.496	0.046	-0.089
-157.720	142.479	-0.110	0.147
-156.706	24.777	0.233	0.193
-155.691	-128.020	0.342	0.049
-154.677	103.949	-0.153	-0.179
-153.662	-200.000	0.070	0.418
-152.647	-88.146	-0.479	0.144
-151.633	-41.962	-0.336	-0.172
-150.618	365.270	0.043	-0.086
-149.604	-70.312	-0.174	-0.066
-148.589	141.961	0.083	-0.110
-147.574	-92.340	0.180	-0.051
-146.560	800.000	0.130	-0.567
-145.545	-112.855	0.075	0.015
-144.531	121.776	-0.142	-0.177
-143.516	-13.188	0.117	-0.076
-142.502	800.000	-0.085	-0.248
-141.487	-200.000	-0.022	-0.346
-140.472	-46.016	0.397	-0.196
-139.458	-200.000	0.055	0.248
-138.443	471.885	0.271	0.610
-137.429	54.678	-0.087	0.084
-136.414	-0.793	0.113	-0.080
-135.399	222.014	-0.096	0.155
-134.385	92.222	0.267	-0.301
-133.370	34.687	-0.160	0.140
-132.356	800.000	0.131	-0.394
-131.341	-170.693	0.257	0.009
-130.326	-200.000	-0.007	-0.095
-129.312	-98.630	0.142	-0.036
-128.297	-200.000	0.002	0.012
-127.283	-144.636	0.330	-0.030
-126.268	-177.946	-0.116	-0.003
-125.253	-62.893	-0.201	-0.083
-124.239	-200.000	0.014	-0.252
-123.224	144.987	-0.045	0.060
