DTS Sentinel unit serial number:	SN413079Multiplexer serial number:	ORYXHardware model number:	OX4-SRSoftware version number:	ORYX F/W v4.00 Oryx Data Collector v3.7.2.0data status	okinstallation	princeton_trtdifferential loss correction	single-endedforward channel	channel 3reverse channel	N/Adate	2019/09/12time	19:32:03forward acquisition time	15.00reverse acquisition time	0.00gamma	496.2192k internal	0.2322k external	0.2322temperature offset calibration	1.0104default loss term (dB/km)	0.3790temperature slope calibration	1.0000multiplexer offset coefficient	1.0000multiplexer slope coefficient	1.0000fibre end	0.00T internal ref (°C)	32.25T ext. ref 1 (°C)	3.33T ext. ref 2 (°C)	26.69length (m)	temperature (°C)	Stokes	anti-Stokes-747.200	9.198	-0.575	-0.439
-746.185	25.017	0.518	-0.434
-745.171	754.389	-0.177	-0.484
-744.156	-87.846	0.730	-0.222
-743.142	-119.793	-0.267	-0.047
-742.127	-39.307	-1.023	0.542
-741.112	-111.248	-0.925	0.191
-740.098	-113.937	0.513	0.101
-739.083	-47.018	0.226	-0.111
-738.069	-35.268	-0.038	0.021
-737.054	751.077	-0.113	-0.307
-736.039	108.182	-0.259	-0.312
-735.025	385.129	0.350	-0.728
-734.010	-150.851	0.612	0.047
-732.996	-83.927	0.332	0.107
-731.981	264.560	-0.282	-0.495
-730.966	54.929	-0.338	-0.330
-729.952	-84.822	0.816	-0.259
-728.937	420.242	-0.056	0.122
-727.923	89.889	-0.127	0.143
-726.908	-163.043	-0.206	-0.010
-725.894	-130.135	-0.904	0.125
-724.879	205.298	0.208	0.327
-723.864	-200.000	0.020	0.488
-722.850	-17.605	0.658	-0.418
-721.835	-151.506	0.200	-0.015
-720.821	17.723	0.342	-0.274
-719.806	-5.558	0.737	0.510
-718.791	800.000	-0.090	0.334
-717.777	800.000	-0.114	-0.480
-716.762	-29.528	0.111	0.064
-715.748	-200.000	-0.103	-0.647
-714.733	49.452	0.298	-0.283
-713.718	-96.283	-0.356	-0.095
-712.704	-20.873	-0.071	-0.044
-711.689	-11.406	0.664	-0.441
-710.675	-62.057	0.796	0.335
-709.660	-200.000	0.042	-0.426
-708.645	-69.113	0.495	0.192
-707.631	246.075	0.108	0.183
-706.616	-178.280	-0.338	0.008
-705.602	-37.494	-0.291	-0.157
-704.587	-117.855	-0.431	-0.078
-703.572	-41.231	0.626	-0.326
-702.558	800.000	-0.329	-0.994
-701.543	302.164	-0.409	0.762
-700.529	-63.115	0.609	0.254
-699.514	-77.767	0.438	0.153
-698.499	-123.908	0.303	-0.048
-697.485	-139.751	0.264	0.028
-696.470	151.242	-0.261	0.358
-695.456	59.703	-0.478	-0.476
-694.441	-98.000	-0.819	0.213
-693.426	-97.595	0.533	0.139
-692.412	800.000	-0.157	-0.439
-691.397	270.319	0.376	0.666
-690.383	47.444	-0.379	0.356
-689.368	0.204	0.493	0.355
-688.354	-79.020	-0.608	0.208
-687.339	273.500	0.363	0.646
-686.324	-27.200	-0.490	-0.288
-685.310	243.724	0.150	-0.253
-684.295	318.845	0.549	-1.049
-683.281	55.562	0.657	0.642
-682.266	25.376	-0.785	0.657
-681.251	291.654	0.090	0.165
-680.237	-20.108	0.879	0.546
-679.222	-200.000	0.077	-0.925
-678.208	800.000	-0.082	0.336
-677.193	-187.552	-0.659	-0.009
-676.178	299.034	-0.066	0.123
-675.164	169.545	-0.644	-0.927
-674.149	-61.721	-0.653	-0.276
-673.135	14.638	0.334	0.263
-672.120	-143.808	-0.500	0.048
-671.105	466.895	-0.117	0.265
-670.091	110.273	-0.719	0.870
-669.076	366.673	-0.354	0.719
-668.062	-91.233	0.155	-0.045
-667.047	-100.211	0.747	-0.187
-666.032	-122.982	-0.417	-0.068
-665.018	794.965	-0.109	0.302
-664.003	-161.586	-0.338	0.017
-662.989	-52.745	-0.345	-0.160
-661.974	-20.989	0.424	-0.262
-660.959	507.733	0.460	1.075
-659.945	-161.044	-0.266	-0.014
-658.930	-200.000	0.118	-0.616
-657.916	-200.000	-0.019	0.506
-656.901	-200.000	0.218	1.256
-655.886	-93.422	0.171	-0.048
-654.872	-8.263	-0.311	-0.211
-653.857	-200.000	-0.059	-0.629
-652.843	59.833	0.652	0.648
-651.828	-6.849	0.696	0.476
-650.814	32.577	0.263	0.229
-649.799	-125.911	0.164	-0.025
-648.784	-200.000	-0.088	0.725
-647.770	-200.000	-0.060	0.418
-646.755	-200.000	0.011	0.219
-645.741	475.071	-0.254	0.577
-644.726	38.583	0.724	0.650
-643.711	348.484	0.037	0.074
-642.697	-200.000	-0.054	-0.806
-641.682	130.572	-0.506	-0.652
-640.668	446.106	0.249	-0.551
-639.653	-42.954	-0.130	0.067
-638.638	-200.000	-0.009	0.521
-637.624	-109.971	0.558	-0.117
-636.609	800.000	0.095	0.318
-635.595	17.906	0.101	0.081
-634.580	267.266	-0.467	0.822
-633.565	22.483	0.355	-0.292
-632.551	-42.270	0.553	-0.284
-631.536	-200.000	0.089	0.403
-630.522	185.301	-0.539	-0.804
-629.507	-200.000	-0.117	0.881
-628.492	-24.549	0.505	0.302
-627.478	-82.063	1.195	-0.392
-626.463	1.379	0.235	0.170
-625.449	-123.874	0.514	-0.082
-624.434	-85.330	-0.795	0.250
-623.419	88.762	-0.218	0.243
-622.405	-10.312	-0.399	0.266
-621.390	-136.576	-0.293	0.034
-620.376	-91.285	0.262	0.075
-619.361	365.937	-0.304	-0.616
-618.346	-8.477	0.371	-0.250
-617.332	-79.766	-0.720	0.244
-616.317	-112.908	0.418	0.083
-615.303	-114.089	0.326	-0.063
-614.288	-109.172	-1.222	0.261
-613.273	-200.000	0.034	0.413
-612.259	-153.853	0.296	0.020
-611.244	302.694	0.174	0.323
-610.230	46.084	0.317	0.295
-609.215	-107.381	-0.474	-0.105
-608.201	-90.188	0.421	0.123
-607.186	-200.000	0.113	-0.755
-606.171	2.829	0.095	0.069
-605.157	-182.722	-0.383	0.007
-604.142	-75.712	0.214	-0.076
-603.128	-140.259	0.533	0.056
-602.113	134.388	-0.065	0.085
-601.098	-73.326	0.421	0.155
-600.084	188.321	0.157	-0.236
-599.069	-92.363	-0.750	-0.212
-598.055	-200.000	0.002	0.104
-597.040	-77.565	-0.398	0.139
-596.025	-184.384	-1.154	-0.019
-595.011	165.105	-0.190	-0.269
-593.996	-11.850	0.026	0.017
-592.982	518.052	-0.158	0.372
-591.967	-126.701	0.566	-0.084
-590.952	8.763	-0.281	0.212
-589.938	392.081	0.044	0.091
-588.923	65.924	0.292	-0.297
-587.909	-200.000	-0.080	-0.488
-586.894	173.810	-0.394	-0.571
-585.879	799.782	-0.228	-0.631
-584.865	-6.697	-0.193	0.132
-583.850	135.238	-0.396	-0.517
-582.836	800.000	-0.162	-0.453
-581.821	290.915	0.188	0.342
-580.806	-200.000	0.029	-0.434
-579.792	800.000	0.025	0.107
-578.777	16.292	-0.524	0.415
-577.763	800.000	0.289	-0.992
-576.748	-24.646	-0.279	0.167
-575.733	12.975	0.366	0.284
-574.719	242.969	-0.528	0.887
-573.704	-121.950	0.366	-0.060
-572.690	26.309	-0.450	-0.377
-571.675	-96.876	0.324	0.085
-570.661	601.914	0.181	-0.452
-569.646	562.475	-0.085	-0.206
-568.631	-131.380	-0.830	0.110
-567.617	146.232	-0.402	-0.541
-566.602	280.036	-0.258	0.463
-565.588	-136.047	0.658	0.078
-564.573	800.000	0.016	-0.055
-563.558	325.046	-0.086	0.165
-562.544	142.093	-0.382	0.509
-561.529	216.454	-0.154	0.246
-560.515	-133.170	1.034	-0.131
-559.500	227.408	0.431	0.703
-558.485	1.448	-0.335	0.242
-557.471	51.449	-0.431	-0.410
-556.456	-65.458	0.428	0.173
-555.442	173.555	-0.040	-0.057
-554.427	-200.000	0.077	-0.755
-553.412	-130.131	-0.897	0.123
-552.398	518.724	0.175	0.411
-551.383	-102.998	-0.309	0.074
-550.369	111.648	0.102	0.123
-549.354	46.587	-0.195	0.181
-548.339	800.000	-0.158	0.532
-547.325	-200.000	0.008	-0.557
-546.310	-69.759	0.397	-0.152
-545.296	790.729	0.295	0.813
-544.281	426.920	-0.216	0.468
-543.266	583.090	0.150	0.370
-542.252	118.673	0.300	0.371
-541.237	-155.775	0.417	0.027
-540.223	411.940	-0.168	-0.359
-539.208	69.330	-0.222	-0.229
-538.193	100.162	-0.271	-0.315
-537.179	181.104	0.439	-0.646
-536.164	35.030	-0.178	0.156
-535.150	90.796	-0.268	0.301
-534.135	44.115	-0.324	-0.298
-533.121	-101.335	0.675	-0.165
-532.106	138.263	0.740	-0.972
-531.091	-200.000	0.035	0.548
-530.077	-47.981	0.342	0.166
-529.062	-200.000	-0.035	-0.269
-528.048	-66.897	0.403	0.160
-527.033	-200.000	0.087	-0.509
-526.018	-200.000	-0.027	-0.196
-525.004	-2.427	-0.136	0.096
-523.989	759.549	-0.081	0.220
-522.975	266.883	-0.105	-0.185
-521.960	-81.613	-0.940	-0.309
-520.945	11.278	-0.157	-0.120
-519.931	-200.000	-0.041	0.347
-518.916	-102.272	-1.139	-0.274
-517.902	-26.480	0.701	0.411
-516.887	377.960	0.117	0.240
-515.872	800.000	-0.118	0.474
-514.858	163.837	-0.648	-0.913
-513.843	-200.000	-0.010	-0.641
-512.829	106.954	0.513	-0.610
-511.814	338.521	0.059	0.115
-510.799	800.000	0.231	0.651
-509.785	-200.000	0.006	-0.613
-508.770	-88.416	0.885	-0.265
-507.756	-151.863	0.746	0.055
-506.741	114.468	-0.371	0.452
-505.726	-169.637	0.743	-0.027
-504.712	-156.850	0.317	-0.020
-503.697	-200.000	-0.079	0.383
-502.683	107.020	-0.290	0.345
-501.668	482.779	-0.159	-0.362
-500.653	56.481	0.290	0.282
-499.639	-152.337	0.493	-0.036
-498.624	-135.080	-0.067	0.008
-497.610	-17.815	-0.799	0.502
-496.595	-121.106	1.221	0.205
-495.581	-108.528	0.354	-0.076
-494.566	78.405	-0.184	0.197
-493.551	301.101	-0.087	0.161
-492.537	101.051	-0.284	0.330
-491.522	-39.825	0.612	0.320
-490.508	-200.000	-0.059	0.509
-489.493	67.655	-0.238	-0.243
-488.478	214.893	0.153	0.243
-487.464	145.371	-0.214	-0.287
-486.449	104.781	-0.696	-0.820
-485.435	101.323	-0.422	-0.491
-484.420	-97.558	0.043	0.011
-483.405	-93.616	-0.758	0.209
-482.391	-200.000	0.136	-0.993
-481.376	194.598	-0.228	-0.346
-480.362	-50.914	0.996	-0.468
-479.347	-32.205	-1.085	-0.606
-478.332	8.730	0.204	-0.154
-477.318	193.573	-0.234	-0.354
-476.303	175.152	0.042	0.061
-475.289	270.284	0.076	0.133
-474.274	14.891	-0.586	-0.458
-473.259	15.561	-0.480	-0.377
-472.245	-102.085	0.138	-0.033
-471.230	-24.231	-0.383	0.228
-470.216	-109.523	-0.802	0.169
-469.201	-158.680	0.647	-0.037
-468.186	-164.359	-0.580	-0.027
-467.172	-24.609	0.537	0.319
-466.157	-111.628	0.683	0.139
-465.143	52.449	0.694	-0.662
-464.128	-200.000	-0.126	-0.714
-463.113	800.000	0.156	0.585
-462.099	-91.323	0.257	0.074
-461.084	-134.698	0.696	-0.085
-460.070	-200.000	0.006	-0.482
-459.055	-80.346	1.040	0.347
-458.040	495.158	0.157	0.360
-457.026	264.838	-0.125	0.218
-456.011	-86.549	0.584	-0.179
-454.997	-49.823	0.886	-0.420
-453.982	-42.847	0.836	-0.424
-452.968	-200.000	-0.077	-0.487
-451.953	368.412	0.041	0.082
-450.938	12.739	0.111	0.086
-449.924	57.525	-0.686	0.670
-448.909	-63.456	0.619	-0.254
-447.895	-165.723	-0.884	0.038
-446.880	-200.000	-0.068	0.468
-445.865	489.763	-0.123	0.281
-444.851	-200.000	0.025	-0.303
-443.836	140.053	0.229	0.302
-442.822	-154.916	-0.358	0.024
-441.807	50.952	0.340	0.321
-440.792	-200.000	0.162	1.000
-439.778	-78.193	-0.533	0.183
-438.763	284.819	0.690	-1.241
-437.749	-35.432	0.143	-0.078
-436.734	326.866	-0.159	0.304
-435.719	-81.139	-0.441	0.145
-434.705	-200.000	0.050	-0.477
-433.690	609.428	0.186	-0.462
-432.676	171.793	-0.604	-0.866
-431.661	800.000	-0.376	1.161
-430.646	-23.009	-0.443	-0.266
-429.632	650.797	0.196	-0.501
-428.617	1.426	-0.616	-0.442
-427.603	9.965	-0.914	0.692
-426.588	-57.682	0.135	0.059
-425.573	102.861	0.298	0.348
-424.559	-108.572	-1.101	0.236
-423.544	348.696	0.239	-0.470
-422.530	47.879	-0.683	0.636
-421.515	-75.416	-0.200	0.071
-420.500	800.000	-0.120	0.413
-419.486	-200.000	-0.018	0.785
-418.471	6.088	-0.144	0.106
-417.457	-126.633	0.452	-0.067
-416.442	-70.010	0.051	-0.020
-415.428	-66.675	-0.191	-0.075
-414.413	-45.656	-0.535	-0.264
-413.398	8.822	0.436	-0.328
-412.384	-124.655	0.180	0.028
-411.369	-101.041	-0.691	-0.169
-410.355	-200.000	-0.032	0.150
-409.340	800.000	0.154	0.521
-408.325	-132.239	-0.849	0.110
-407.311	-12.050	0.597	-0.390
-406.296	-111.180	0.765	-0.156
-405.282	466.239	0.305	-0.681
-404.267	800.000	0.048	0.137
-403.252	25.686	0.489	0.406
-402.238	49.015	-0.306	0.287
-401.223	5.324	0.506	0.372
-400.209	40.734	-0.499	-0.449
-399.194	296.001	-0.527	-0.962
-398.179	800.000	0.110	-0.317
-397.165	-75.272	0.437	0.155
-396.150	715.660	0.215	0.568
-395.136	174.497	-0.061	-0.088
-394.121	-200.000	0.117	0.590
-393.106	262.062	0.114	-0.196
-392.092	210.357	-0.497	0.778
-391.077	18.598	-0.585	0.466
-390.063	150.783	0.107	0.145
-389.048	-105.192	0.318	-0.072
-388.033	800.000	-0.192	-0.584
-387.019	-55.901	-0.340	0.151
-386.004	121.402	0.545	0.676
-384.990	349.477	0.213	0.419
-383.975	800.000	0.086	-0.318
-382.960	-35.028	-0.406	0.220
-381.946	22.418	0.096	0.078
-380.931	-42.801	-0.201	-0.102
-379.917	644.185	0.425	-1.080
-378.902	128.309	-0.339	0.430
-377.888	112.216	-0.569	0.685
-376.873	-43.060	0.449	0.227
-375.858	461.188	0.557	-1.237
-374.844	-81.007	0.819	-0.270
-373.829	-78.852	0.857	-0.291
-372.815	-22.778	0.263	-0.158
-371.800	-200.000	0.160	-0.772
-370.785	52.645	-0.972	-0.925
-369.771	800.000	0.193	0.735
-368.756	-169.780	-0.452	0.016
-367.742	49.475	0.227	0.213
-366.727	-24.023	0.506	0.301
-365.712	800.000	0.110	-0.408
-364.698	-74.738	-0.311	0.111
-363.683	800.000	0.028	-0.098
-362.669	-34.075	-0.456	0.250
-361.654	800.000	0.107	-0.401
-360.639	-78.512	-0.814	0.277
-359.625	580.043	0.250	0.609
-358.610	473.738	0.409	-0.918
-357.596	-200.000	-0.039	-0.268
-356.581	-144.940	0.672	0.061
-355.566	154.930	-0.487	-0.666
-354.552	289.374	-0.106	0.192
-353.537	-200.000	0.026	-0.580
-352.523	-200.000	0.012	0.623
-351.508	91.892	-0.361	0.404
-350.493	-4.389	-0.480	-0.330
-349.479	-200.000	-0.059	0.292
-348.464	55.433	0.154	-0.148
-347.450	-52.636	0.067	-0.031
-346.435	-200.000	-0.076	-0.414
-345.420	-14.435	0.252	-0.161
-344.406	-34.306	0.771	-0.421
-343.391	-200.000	0.038	0.489
-342.377	215.161	-0.107	-0.169
-341.362	145.736	-0.249	0.332
-340.348	800.000	-0.189	-0.625
-339.333	800.000	0.107	-0.337
-338.318	-200.000	0.009	0.240
-337.304	-87.494	-0.420	0.126
-336.289	506.640	-0.214	-0.492
-335.275	69.786	0.214	-0.219
-334.260	-70.729	-0.842	-0.316
-333.245	147.735	-0.194	0.260
-332.231	-125.959	0.498	0.074
-331.216	-200.000	0.027	0.783
-330.202	24.990	0.128	0.106
-329.187	-200.000	0.109	-0.789
-328.172	30.825	0.310	-0.264
-327.158	-103.564	0.872	-0.204
-326.143	-200.000	-0.097	-0.570
-325.129	412.269	0.241	0.509
-324.114	-8.664	-0.668	-0.446
-323.099	-37.332	0.380	0.202
-322.085	-200.000	0.063	-0.410
-321.070	-142.976	-0.630	-0.061
-320.056	-12.720	0.509	0.330
-319.041	-200.000	0.059	-0.689
-318.026	-44.713	0.619	-0.307
-317.012	-200.000	-0.051	0.597
-315.997	800.000	0.313	1.034
-314.983	-78.159	-1.141	-0.390
-313.968	257.407	0.364	0.621
-312.953	137.152	0.584	0.758
-311.939	-200.000	-0.039	0.702
-310.924	-156.507	-0.944	-0.058
-309.910	441.715	-0.109	-0.237
-308.895	166.346	-0.471	0.663
-307.880	-200.000	0.223	-1.242
-306.866	-48.555	0.811	-0.387
-305.851	-200.000	-0.038	0.461
-304.837	-88.033	1.071	0.319
-303.822	622.510	0.078	0.195
-302.807	84.245	-0.534	-0.580
-301.793	-200.000	-0.132	0.747
-300.778	276.652	-0.172	0.304
-299.764	-200.000	0.082	-0.401
-298.749	575.458	-0.173	0.420
-297.735	71.341	0.635	0.654
-296.720	104.093	0.403	0.470
-295.705	-23.640	0.241	-0.143
-294.691	-48.234	-0.451	-0.216
-293.676	126.885	-0.212	0.266
-292.662	-193.455	-0.638	-0.005
-291.647	-200.000	-0.043	-0.195
-290.632	131.786	0.427	0.545
-289.618	-200.000	0.024	-0.250
-288.603	-38.631	0.463	-0.242
-287.589	-140.401	-0.236	-0.024
-286.574	32.770	-0.235	0.201
-285.559	186.272	0.595	-0.878
-284.545	303.013	-0.342	-0.628
-283.530	800.000	0.203	-0.803
-282.516	-200.000	-0.014	0.515
-281.501	234.495	-0.046	-0.076
-280.486	-200.000	0.164	-0.725
-279.472	19.759	0.377	0.301
-278.457	3.157	-0.410	0.296
-277.443	27.035	-0.176	-0.147
-276.428	-200.000	0.261	-1.137
-275.413	-9.166	-0.450	-0.299
-274.399	228.093	-0.147	-0.237
-273.384	-1.058	-0.654	-0.459
-272.370	-144.625	0.550	0.050
-271.355	107.695	0.196	-0.232
-270.340	63.277	0.513	-0.510
-269.326	-172.462	0.514	-0.016
-268.311	-18.188	0.086	-0.053
-267.297	-200.000	0.046	0.442
-266.282	-51.732	-0.539	0.249
-265.267	-110.229	-0.681	0.141
-264.253	26.682	0.287	-0.238
-263.238	229.390	0.288	0.467
-262.224	-70.297	-0.297	0.112
-261.209	-160.413	-0.772	-0.041
-260.195	186.583	0.344	-0.508
-259.180	-200.000	0.175	0.815
-258.165	-35.601	0.417	0.224
-257.151	800.000	0.129	0.370
-256.136	9.075	1.161	-0.869
-255.122	-151.690	-0.569	-0.042
-254.107	-200.000	-0.003	-0.086
-253.092	59.961	-0.348	-0.341
-252.078	-12.250	-0.325	0.211
-251.063	-64.644	-0.542	0.218
-250.049	-200.000	0.055	-0.276
-249.034	125.035	0.238	-0.298
-248.019	-73.392	-0.436	0.158
-247.005	-69.755	0.191	-0.072
-245.990	-100.268	-0.653	-0.161
-244.976	21.682	-0.312	-0.252
-243.961	305.878	0.338	0.623
-242.946	800.000	-0.188	0.514
-241.932	0.658	-0.349	0.247
-240.917	-64.532	0.147	0.059
-239.903	158.350	-0.486	0.668
-238.888	17.938	-0.559	-0.441
-237.873	-103.820	0.520	0.120
-236.859	-200.000	0.033	0.240
-235.844	800.000	0.022	-0.061
-234.830	-200.000	-0.073	-0.356
-233.815	-200.000	-0.018	-0.464
-232.800	-200.000	0.035	0.635
-231.786	-52.413	0.072	-0.033
-230.771	69.500	-0.106	0.108
-229.757	18.112	-0.752	-0.594
-228.742	259.603	0.376	-0.643
-227.727	-200.000	-0.016	0.791
-226.713	-128.066	-0.498	-0.071
-225.698	129.311	0.321	0.406
-224.684	139.703	-0.764	0.997
-223.669	-197.275	-0.208	0.001
-222.655	22.379	0.964	0.780
-221.640	-69.824	-0.431	0.163
-220.625	112.083	-0.419	0.501
-219.611	-200.000	0.080	0.416
-218.596	308.353	-0.118	0.218
-217.582	-29.070	0.400	0.227
-216.567	30.174	-1.081	0.913
-215.552	-200.000	-0.012	0.557
-214.538	-127.252	0.399	0.058
-213.523	-65.352	0.463	0.184
-212.509	-89.398	-0.245	-0.071
-211.494	-200.000	-0.069	-0.436
-210.479	-55.493	0.481	-0.213
-209.465	308.997	0.122	-0.226
-208.450	40.997	-0.232	0.207
-207.436	310.243	-0.103	-0.191
-206.421	-43.662	-0.682	0.340
-205.406	800.000	-0.150	0.615
-204.392	659.689	-0.103	-0.261
-203.377	3.846	-0.193	-0.140
-202.363	39.160	0.280	-0.247
-201.348	-125.130	0.759	0.115
-200.333	-1.498	-0.248	0.173
-199.319	118.118	-0.219	-0.267
-198.304	31.212	0.178	0.151
-197.290	-200.000	0.006	0.601
-196.275	640.194	-0.218	0.548
-195.260	800.000	0.096	0.392
-194.246	-26.559	0.314	-0.182
-193.231	-63.461	0.614	0.250
-192.217	-200.000	0.080	-0.475
-191.202	-34.573	0.702	-0.380
-190.187	146.845	0.261	-0.347
-189.173	4.903	-0.418	0.304
-188.158	-82.092	-0.325	-0.105
-187.144	-200.000	0.061	0.586
-186.129	-173.571	0.963	0.029
-185.114	-64.060	0.275	-0.111
-184.100	776.675	-0.129	-0.348
-183.085	800.000	0.414	-1.375
-182.071	-163.757	0.270	0.013
-181.056	-77.188	0.557	-0.192
-180.042	39.831	-0.370	0.328
-179.027	-200.000	-0.036	-0.228
-178.012	800.000	0.104	-0.340
-176.998	-146.991	-0.707	0.060
-175.983	423.823	-0.452	-0.959
-174.969	22.088	-0.216	0.175
-173.954	800.000	0.224	0.748
-172.939	-148.590	0.602	0.048
-171.925	-21.284	-0.492	-0.297
-170.910	53.489	0.768	0.728
-169.896	-89.728	-0.176	-0.051
-168.881	-107.579	-0.921	0.199
-167.866	157.348	-0.359	-0.490
-166.852	-103.476	0.283	0.066
-165.837	-200.000	0.085	0.605
-164.823	-149.472	-0.748	-0.059
-163.808	343.063	0.236	0.457
-162.793	-151.501	-0.365	-0.027
-161.779	800.000	0.076	-0.310
-160.764	-67.547	0.334	-0.129
-159.750	-134.977	0.659	0.079
-158.735	112.943	-0.050	0.060
-157.720	-195.801	-0.215	0.002
-156.706	-21.589	-0.539	0.325
-155.691	74.926	0.203	-0.211
-154.677	-75.396	0.304	-0.107
-153.662	-200.000	0.045	-0.305
-152.647	-200.000	-0.035	-0.318
-151.633	-82.665	0.229	0.073
-150.618	4.746	-0.346	0.251
-149.604	167.615	-0.181	0.253
-148.589	800.000	-0.070	0.263
-147.574	-200.000	-0.091	1.181
-146.560	91.158	0.379	0.420
-145.545	-128.841	-0.729	-0.101
-144.531	676.893	0.108	-0.277
-143.516	76.897	0.352	-0.368
-142.502	-142.428	0.368	-0.036
-141.487	-30.356	0.455	-0.255
-140.472	-144.594	0.600	0.055
-139.458	-200.000	-0.017	0.550
-138.443	621.396	-0.101	-0.252
-137.429	194.435	0.250	0.374
-136.414	258.039	0.213	-0.361
-135.399	223.240	0.026	-0.042
-134.385	-200.000	0.063	0.621
-133.370	800.000	-0.200	0.615
-132.356	-66.772	-0.296	0.116
-131.341	-200.000	-0.024	0.543
-130.326	-200.000	-0.025	0.251
-129.312	800.000	0.130	0.357
-128.297	-47.270	0.859	0.413
-127.283	356.391	0.245	0.480
-126.268	689.049	0.223	0.574
-125.253	23.385	-0.669	-0.542
-124.239	800.000	0.155	0.524
-123.224	-50.798	0.696	-0.323
-122.210	-200.000	-0.160	0.884
-121.195	-84.162	0.716	-0.224
-120.180	1.132	-0.193	0.136
