DTS Sentinel unit serial number:	SN413079Multiplexer serial number:	ORYXHardware model number:	OX4-SRSoftware version number:	ORYX F/W v4.00 Oryx Data Collector v3.7.2.0data status	okinstallation	princeton_trtdifferential loss correction	single-endedforward channel	channel 3reverse channel	N/Adate	2019/09/12time	19:59:04forward acquisition time	15.00reverse acquisition time	0.00gamma	496.2192k internal	0.2324k external	0.2324temperature offset calibration	1.0132default loss term (dB/km)	0.3790temperature slope calibration	1.0000multiplexer offset coefficient	1.0000multiplexer slope coefficient	1.0000fibre end	0.00T internal ref (°C)	31.81T ext. ref 1 (°C)	3.49T ext. ref 2 (°C)	26.34length (m)	temperature (°C)	Stokes	anti-Stokes-747.200	96.783	0.126	-0.146
-746.185	-92.556	-0.829	0.235
-745.171	-200.000	-0.074	0.802
-744.156	800.000	-0.110	-0.349
-743.142	-41.506	-0.588	0.306
-742.127	-127.715	0.487	0.071
-741.112	-24.745	0.905	-0.543
-740.098	-200.000	0.047	0.211
-739.083	-137.663	-0.059	-0.007
-738.069	69.777	-0.196	-0.204
-737.054	-200.000	-0.038	0.515
-736.039	727.513	0.166	-0.446
-735.025	237.918	-0.280	-0.469
-734.010	-200.000	0.000	-0.183
-732.996	276.351	-0.315	-0.565
-731.981	66.715	-0.111	0.114
-730.966	1.233	-0.564	-0.409
-729.952	-123.266	-0.239	-0.038
-728.937	17.557	-0.579	0.464
-727.923	120.117	0.174	-0.218
-726.908	196.258	-0.390	0.600
-725.894	49.361	0.166	-0.157
-724.879	-34.543	0.116	0.064
-723.864	114.652	0.551	-0.677
-722.850	-200.000	-0.083	0.703
-721.835	800.000	0.104	0.388
-720.821	33.549	0.562	0.493
-719.806	34.175	-0.542	0.476
-718.791	-144.618	-0.195	0.018
-717.777	-9.571	0.074	-0.050
-716.762	125.694	0.230	0.292
-715.748	-183.627	0.353	0.006
-714.733	800.000	0.219	-0.645
-713.718	142.949	-0.494	-0.662
-712.704	704.403	-0.160	-0.426
-711.689	39.472	0.191	-0.173
-710.675	750.100	0.216	-0.588
-709.660	800.000	0.096	-0.378
-708.645	-74.143	0.336	0.123
-707.631	-24.426	-0.374	-0.225
-706.616	-118.259	-0.537	0.096
-705.602	-166.075	0.732	0.031
-704.587	-52.282	-0.276	0.129
-703.572	370.555	0.081	-0.165
-702.558	160.632	0.710	0.998
-701.543	101.943	0.373	-0.438
-700.529	541.023	0.076	0.183
-699.514	-200.000	-0.007	0.125
-698.499	239.117	0.249	-0.417
-697.485	-200.000	-0.077	0.363
-696.470	12.476	-0.574	0.446
-695.456	427.184	0.240	0.521
-694.441	-30.948	0.371	0.211
-693.426	-200.000	-0.063	-0.485
-692.412	-27.462	0.639	-0.374
-691.397	362.359	0.082	-0.167
-690.383	519.191	0.135	0.319
-689.368	7.416	0.344	-0.259
-688.354	800.000	0.201	-0.559
-687.339	-200.000	0.037	-0.981
-686.324	-200.000	-0.164	-1.276
-685.310	104.944	-0.103	-0.123
-684.295	171.180	-0.333	-0.481
-683.281	72.189	0.459	-0.482
-682.266	-135.103	1.200	-0.146
-681.251	-88.224	-0.376	0.113
-680.237	800.000	0.198	-0.772
-679.222	21.792	-0.401	0.329
-678.208	-2.327	-0.087	0.061
-677.193	635.303	-0.128	0.326
-676.178	-200.000	-0.211	1.182
-675.164	36.052	-0.390	0.346
-674.149	665.702	0.137	0.355
-673.135	144.780	-0.274	-0.369
-672.120	172.062	-0.057	0.082
-671.105	-20.656	-0.748	-0.462
-670.091	183.755	-0.640	-0.953
-669.076	53.562	0.439	-0.424
-668.062	-200.000	0.112	-0.985
-667.047	-200.000	0.017	0.289
-666.032	64.203	-0.718	0.727
-665.018	-127.742	-0.404	-0.059
-664.003	-37.721	0.496	-0.266
-662.989	192.658	0.324	-0.492
-661.974	-81.486	0.517	0.171
-660.959	290.524	-0.132	0.241
-659.945	-108.635	-0.688	-0.149
-658.930	185.476	0.427	-0.638
-657.916	176.308	-0.249	-0.364
-656.901	170.674	-0.246	0.355
-655.886	-15.935	-0.367	-0.235
-654.872	-129.593	0.358	-0.050
-653.857	228.310	-0.208	0.341
-652.843	220.311	-0.335	0.540
-651.828	800.000	0.041	-0.146
-650.814	-60.090	0.387	-0.166
-649.799	-154.862	-0.159	0.011
-648.784	-131.400	1.197	0.159
-647.770	-14.651	0.145	0.094
-646.755	185.148	-0.166	-0.248
-645.741	192.692	-0.354	0.537
-644.726	-177.052	-0.355	-0.009
-643.711	305.137	0.094	0.176
-642.697	-97.026	-0.310	0.082
-641.682	637.310	-0.098	-0.249
-640.668	310.010	0.161	-0.304
-639.653	231.195	0.192	0.316
-638.638	-121.292	-0.344	-0.058
-637.624	-66.595	-0.727	0.290
-636.609	662.500	0.183	-0.474
-635.595	238.052	-0.442	-0.738
-634.580	445.134	0.260	-0.574
-633.565	61.509	-0.717	0.717
-632.551	329.838	-0.264	-0.510
-631.536	-63.813	0.319	0.131
-630.522	-151.662	-0.625	-0.046
-629.507	334.187	0.232	0.451
-628.492	320.717	-0.270	0.516
-627.478	-200.000	0.016	-0.108
-626.463	-200.000	-0.049	0.639
-625.449	6.132	-0.295	0.220
-624.434	91.032	0.539	-0.608
-623.419	800.000	-0.140	-0.540
-622.405	727.213	0.284	0.761
-621.390	-200.000	-0.051	-0.301
-620.376	-5.883	0.862	0.593
-619.361	-39.804	-0.706	-0.371
-618.346	15.659	-0.231	-0.182
-617.332	172.849	-0.280	-0.405
-616.317	-1.663	-0.770	0.545
-615.303	159.679	-0.208	-0.291
-614.288	-157.606	-0.962	-0.058
-613.273	-165.034	0.608	0.027
-612.259	780.606	-0.371	1.020
-611.244	-48.064	0.180	0.088
-610.230	79.197	0.627	-0.675
-609.215	-200.000	-0.046	0.220
-608.201	-21.158	0.446	0.274
-607.186	-200.000	-0.001	0.101
-606.171	-28.052	-0.940	0.546
-605.157	-42.916	0.095	0.048
-604.142	580.827	-0.165	-0.406
-603.128	800.000	0.066	-0.280
-602.113	-85.314	-0.355	0.111
-601.098	-74.277	0.515	0.187
-600.084	420.837	-0.304	0.654
-599.069	761.602	-0.303	-0.824
-598.055	91.818	0.557	0.630
-597.040	23.046	-0.271	-0.223
-596.025	-200.000	0.007	-0.095
-595.011	-200.000	0.163	-1.031
-593.996	9.270	0.882	0.670
-592.982	342.695	0.353	-0.694
-591.967	272.773	0.179	-0.318
-590.952	-69.302	-0.353	-0.136
-589.938	474.748	0.112	-0.253
-588.923	521.155	-0.295	-0.695
-587.909	64.582	-0.265	0.268
-586.894	217.105	-0.273	-0.437
-585.879	764.949	0.085	-0.232
-584.865	-83.743	0.479	-0.153
-583.850	8.603	-0.581	-0.439
-582.836	-95.881	0.835	-0.223
-581.821	17.035	-0.769	-0.612
-580.806	800.000	0.204	0.641
-579.792	-17.296	-0.376	-0.238
-578.777	-50.534	0.435	0.206
-577.763	-3.615	0.154	-0.107
-576.748	85.838	-0.598	-0.659
-575.733	-200.000	-0.019	0.152
-574.719	-48.231	-1.067	0.516
-573.704	57.012	-0.425	0.415
-572.690	380.547	0.222	-0.456
-571.675	-0.704	-0.432	0.307
-570.661	-36.912	-0.744	-0.400
-569.646	-183.630	-0.209	-0.004
-568.631	397.341	-0.373	0.781
-567.617	-56.153	0.371	0.166
-566.602	-121.966	0.662	0.109
-565.588	800.000	0.099	0.358
-564.573	70.331	0.634	0.656
-563.558	219.878	-0.294	0.472
-562.544	28.941	0.157	0.133
-561.529	499.379	0.170	-0.393
-560.515	-79.093	0.845	-0.288
-559.500	-154.799	0.495	-0.033
-558.485	230.340	-0.019	-0.031
-557.471	135.721	0.513	0.669
-556.456	269.916	-0.384	0.677
-555.442	-57.476	-0.119	-0.052
-554.427	-200.000	-0.056	0.250
-553.412	241.868	0.395	0.662
-552.398	-78.081	0.151	-0.052
-551.383	3.469	-0.176	-0.128
-550.369	-200.000	0.016	-0.588
-549.354	-91.651	-0.449	-0.128
-548.339	-21.521	0.344	0.210
-547.325	151.843	0.200	0.273
-546.310	-121.628	1.022	-0.170
-545.296	205.349	0.393	-0.612
-544.281	-200.000	0.020	-0.271
-543.266	182.912	-0.454	0.671
-542.252	800.000	-0.188	0.776
-541.237	4.777	0.118	0.087
-540.223	-200.000	-0.072	1.171
-539.208	-131.955	0.737	-0.096
-538.193	-200.000	-0.758	0.000
-537.179	-200.000	-0.050	-0.235
-536.164	308.448	-0.163	0.305
-535.150	-57.593	0.151	0.066
-534.135	-86.165	-0.232	0.072
-533.121	-113.621	0.259	0.051
-532.106	800.000	-0.086	0.367
-531.091	-54.549	-0.381	-0.173
-530.077	-200.000	0.001	0.202
-529.062	237.809	-0.175	0.291
-528.048	132.017	-0.047	0.061
-527.033	-95.708	0.538	0.144
-526.018	-115.749	-1.063	0.199
-525.004	47.707	-0.466	0.435
-523.989	-61.268	0.516	-0.218
-522.975	-200.000	-0.130	-1.143
-521.960	-200.000	-0.195	-0.868
-520.945	-13.659	0.823	0.533
-519.931	45.341	0.662	-0.611
-518.916	-7.839	0.899	-0.607
-517.902	249.564	0.067	-0.114
-516.887	492.057	0.385	0.882
-515.872	194.063	0.413	0.627
-514.858	-127.710	0.378	0.055
-513.843	-8.451	-0.653	-0.439
-512.829	97.582	-0.256	-0.294
-511.814	-24.954	1.085	0.644
-510.799	28.361	0.296	0.250
-509.785	800.000	0.083	0.252
-508.770	187.057	-0.498	-0.743
-507.756	282.302	0.364	0.653
-506.741	377.077	-0.452	-0.923
-505.726	-200.000	0.067	-0.444
-504.712	-37.594	-0.830	0.443
-503.697	675.348	-0.055	-0.143
-502.683	-75.369	0.371	0.132
-501.668	-47.983	0.581	-0.281
-500.653	-61.115	0.353	-0.149
-499.639	142.198	-0.525	-0.696
-498.624	-154.301	0.087	-0.006
-497.610	-6.523	0.042	-0.029
-496.595	82.111	0.274	-0.297
-495.581	-95.702	-0.209	-0.056
-494.566	210.340	0.527	-0.827
-493.551	-64.097	-0.682	-0.278
-492.537	124.927	-0.080	0.101
-491.522	-77.164	0.521	-0.182
-490.508	414.700	0.315	-0.670
-489.493	-92.665	0.349	0.098
-488.478	-59.900	-0.934	0.399
-487.464	51.611	-0.394	0.374
-486.449	800.000	-0.052	-0.157
-485.435	-200.000	-0.141	0.625
-484.420	-117.780	0.147	-0.026
-483.405	202.803	-0.103	-0.159
-482.391	67.324	0.459	-0.468
-481.376	-27.682	0.467	-0.271
-480.362	-61.774	-0.298	-0.125
-479.347	800.000	0.083	-0.240
-478.332	800.000	0.237	0.668
-477.318	119.742	-0.386	-0.478
-476.303	249.165	-0.392	0.664
-475.289	-174.200	0.089	-0.003
-474.274	73.505	-0.535	0.560
-473.259	800.000	0.164	0.458
-472.245	-200.000	0.132	-0.637
-471.230	105.288	-0.524	-0.618
-470.216	800.000	-0.048	-0.154
-469.201	800.000	-0.154	0.663
-468.186	-29.120	0.238	0.136
-467.172	-158.941	-1.093	0.062
-466.157	-1.898	-0.621	0.436
-465.143	-87.851	-0.473	0.142
-464.128	-46.680	-0.414	0.202
-463.113	70.572	0.549	-0.567
-462.099	258.718	0.317	-0.546
-461.084	-67.569	1.145	0.448
-460.070	469.725	0.298	-0.668
-459.055	335.124	-0.322	0.623
-458.040	800.000	0.185	-0.666
-457.026	-149.174	-0.289	-0.023
-456.011	612.737	-0.600	-1.498
-454.997	-200.000	0.009	0.098
-453.982	-10.198	0.633	-0.420
-452.968	208.721	0.184	-0.287
-451.953	131.530	0.477	0.612
-450.938	62.073	-0.227	0.226
-449.924	545.287	0.162	0.385
-448.909	-28.742	0.513	-0.295
-447.895	-200.000	0.081	0.453
-446.880	57.885	-0.162	-0.159
-445.865	61.804	-0.559	-0.556
-444.851	-8.902	-0.199	0.133
-443.836	135.151	0.346	-0.449
-442.822	17.956	-0.469	0.373
-441.807	405.035	0.173	-0.364
-440.792	233.257	0.193	0.317
-439.778	800.000	0.243	-0.820
-438.763	-159.058	0.674	-0.038
-437.749	-42.965	0.514	0.260
-436.734	46.664	0.563	-0.521
-435.719	140.961	0.434	-0.573
-434.705	-150.991	-1.125	-0.085
-433.690	-136.270	0.497	0.058
-432.676	84.529	-0.415	0.453
-431.661	-200.000	-0.027	-0.652
-430.646	-107.694	0.603	-0.131
-429.632	109.088	-0.785	0.937
-428.617	17.271	-0.354	0.280
-427.603	-141.817	-0.615	-0.061
-426.588	-41.279	-0.117	-0.060
-425.573	-13.517	-0.373	0.241
-424.559	-79.685	0.764	-0.257
-423.544	128.710	0.286	-0.363
-422.530	-56.976	-0.744	-0.327
-421.515	-59.546	-0.757	-0.324
-420.500	800.000	-0.117	-0.483
-419.486	800.000	-0.195	-0.649
-418.471	764.171	0.050	-0.137
-417.457	166.927	-0.319	-0.451
-416.442	-63.008	0.623	0.257
-415.428	227.141	0.296	0.479
-414.413	-60.589	0.182	-0.077
-413.398	-65.976	-0.556	0.221
-412.384	-13.241	-0.507	0.328
-411.369	-42.649	0.243	0.123
-410.355	-200.000	0.172	-0.797
-409.340	3.067	0.592	-0.429
-408.325	119.407	-0.731	-0.901
-407.311	-76.015	1.254	-0.442
-406.296	38.543	0.657	-0.584
-405.282	89.961	0.217	0.241
-404.267	-200.000	-0.050	-0.277
-403.252	-158.921	0.151	0.009
-402.238	-200.000	0.005	-0.264
-401.223	800.000	0.215	-0.673
-400.209	156.580	-0.337	0.464
-399.194	-15.318	0.381	0.243
-398.179	-78.870	-0.232	-0.079
-397.165	194.521	0.352	-0.532
-396.150	-30.888	0.750	-0.422
-395.136	348.684	0.222	0.436
-394.121	-3.913	0.127	0.088
-393.106	-125.654	-0.522	0.079
-392.092	-139.143	-0.653	-0.070
-391.077	89.596	0.173	0.192
-390.063	-60.859	-0.129	-0.055
-389.048	-13.842	-0.550	0.354
-388.033	-110.208	0.195	-0.040
-387.019	800.000	-0.124	-0.462
-386.004	217.233	0.571	0.905
-384.990	92.404	-0.581	-0.652
-383.975	-200.000	0.014	-0.208
-382.960	-200.000	0.022	-0.374
-381.946	504.769	-0.270	0.622
-380.931	-133.830	-0.601	0.074
-379.917	229.569	-0.578	-0.939
-378.902	371.151	0.152	0.308
-377.888	94.217	-0.097	-0.110
-376.873	-51.183	-0.140	-0.065
-375.858	107.106	-0.074	0.087
-374.844	28.945	-0.410	-0.346
-373.829	15.751	0.211	-0.165
-372.815	-167.177	0.925	0.037
-371.800	101.199	-0.360	0.417
-370.785	86.406	-0.575	0.631
-369.771	84.069	0.483	-0.525
-368.756	-46.803	-0.406	-0.198
-367.742	-30.578	-0.441	0.248
-366.727	282.833	-0.184	0.328
-365.712	-200.000	0.027	0.319
-364.698	-98.097	0.946	0.242
-363.683	-85.176	0.450	0.140
-362.669	-140.397	-0.351	-0.036
-361.654	-115.233	-0.707	0.133
-360.639	72.540	0.459	-0.476
-359.625	-83.964	-0.117	0.037
-358.610	506.965	-0.089	0.205
-357.596	-119.807	0.479	-0.082
-356.581	35.941	0.196	-0.171
-355.566	-67.178	-0.311	0.122
-354.552	-152.824	-0.924	-0.065
-353.537	139.259	0.251	0.329
-352.523	-200.000	0.166	1.451
-351.508	-20.932	0.173	0.105
-350.493	-47.908	-0.105	0.051
-349.479	-33.095	0.788	0.435
-348.464	-26.931	0.630	-0.366
-347.450	200.011	0.106	0.161
-346.435	-200.000	-0.110	-0.746
-345.420	-131.150	0.777	0.103
-344.406	-200.000	0.139	0.798
-343.391	-146.255	-0.452	-0.039
-342.377	-102.622	-0.361	0.086
-341.362	296.215	0.156	-0.284
-340.348	-44.901	-0.502	-0.249
-339.333	-200.000	0.014	0.386
-338.318	375.636	-0.396	0.802
-337.304	800.000	-0.197	0.857
-336.289	-200.000	0.029	-1.004
-335.275	800.000	0.096	0.297
-334.260	409.478	-0.386	0.813
-333.245	479.433	-0.223	-0.502
-332.231	-200.000	0.046	0.347
-331.216	22.652	0.582	0.473
-330.202	100.502	-0.164	-0.189
-329.187	-34.633	-1.082	0.588
-328.172	-132.361	-0.550	0.071
-327.158	-61.979	0.416	0.173
-326.143	21.579	-0.464	-0.375
-325.129	149.401	-0.174	0.234
-324.114	800.000	0.084	0.264
-323.099	-200.000	0.037	-0.257
-322.085	-67.721	0.282	0.109
-321.070	-70.864	0.520	-0.195
-320.056	-144.064	-0.602	0.056
-319.041	-64.827	0.743	-0.299
-318.026	80.217	-0.542	0.579
-317.012	800.000	-0.137	-0.578
-315.997	-125.868	-0.900	0.135
-314.983	183.280	-0.374	0.549
-313.968	-68.286	0.247	-0.095
-312.953	-100.953	-0.298	0.073
-311.939	55.926	0.299	-0.288
-310.924	-200.000	-0.075	-0.618
-309.910	782.799	-0.268	-0.727
-308.895	30.451	-0.496	-0.421
-307.880	-200.000	-0.214	1.002
-306.866	800.000	0.279	1.035
-305.851	-150.717	0.732	0.055
-304.837	-93.808	-0.585	0.160
-303.822	496.147	-0.185	0.421
-302.807	-108.827	0.281	-0.060
-301.793	-138.915	1.318	-0.142
-300.778	-99.315	-0.639	-0.160
-299.764	186.398	-0.171	-0.252
-298.749	-54.948	0.352	0.158
-297.735	324.169	0.489	-0.927
-296.720	156.188	0.201	-0.276
-295.705	106.141	0.616	0.723
-294.691	178.167	-0.550	0.796
-293.676	-200.000	0.002	0.407
-292.662	-2.463	0.337	0.234
-291.647	-78.617	-0.448	0.152
-290.632	-200.000	-0.000	-0.221
-289.618	-101.610	-0.351	-0.084
-288.603	11.780	0.393	0.299
-287.589	-20.152	0.213	-0.130
-286.574	462.469	-0.084	0.186
-285.559	260.871	0.157	-0.269
-284.545	-60.419	0.405	-0.171
-283.530	50.175	0.471	0.441
-282.516	-75.291	0.304	-0.108
-281.501	-73.824	-0.590	0.213
-280.486	-135.479	0.531	-0.063
-279.472	-137.977	-0.037	-0.004
-278.457	79.947	-0.380	-0.405
-277.443	-13.881	0.724	0.464
-276.428	-116.695	0.290	-0.053
-275.413	150.796	-0.398	0.536
-274.399	-35.813	-0.364	0.195
-273.384	-146.622	0.420	-0.036
-272.370	-147.528	-0.794	0.066
-271.355	682.234	-0.051	-0.130
-270.340	-119.075	-0.325	-0.056
-269.326	10.126	0.409	-0.308
-268.311	-76.005	0.277	-0.097
-267.297	-119.276	1.002	0.173
-266.282	-82.381	0.124	0.040
-265.267	-200.000	0.018	0.258
-264.253	704.392	-0.245	-0.639
-263.238	-91.566	-0.441	0.125
-262.224	126.709	-0.144	0.181
-261.209	261.135	0.344	0.590
-260.195	-51.172	0.359	0.167
-259.180	47.780	0.518	-0.479
-258.165	-95.154	0.532	-0.142
-257.151	181.668	-0.243	-0.355
-256.136	-39.544	0.299	0.155
-255.122	264.758	0.347	-0.599
-254.107	-84.285	-0.617	0.194
-253.092	800.000	-0.165	-0.537
-252.078	-57.847	-0.065	-0.028
-251.063	17.689	-0.669	0.527
-250.049	-200.000	-0.066	0.487
-249.034	-31.217	-0.157	0.088
-248.019	-200.000	-0.101	1.361
-247.005	-119.336	-0.263	-0.045
-245.990	653.862	-0.299	-0.759
-244.976	800.000	-0.244	-0.898
-243.961	-78.812	-0.391	-0.132
-242.946	-43.815	0.434	0.216
-241.932	-21.024	0.642	-0.389
-240.917	-200.000	0.828	0.000
-239.903	-107.120	0.634	0.138
-238.888	229.865	-0.183	0.296
-237.873	-82.394	0.519	0.167
-236.859	-18.636	0.787	0.486
-235.844	-200.000	0.006	-0.140
-234.830	800.000	-0.022	0.071
-233.815	-124.054	-0.290	-0.045
-232.800	-200.000	0.014	0.086
-231.786	132.669	0.192	-0.245
-230.771	-82.373	-0.561	0.181
-229.757	68.922	-0.532	-0.540
-228.742	133.250	0.243	-0.311
-227.727	149.688	0.379	0.508
-226.713	512.143	-0.150	-0.345
-225.698	-72.888	0.320	-0.116
-224.684	46.138	0.163	-0.150
-223.669	-200.000	0.006	0.169
-222.655	-38.056	0.743	0.390
-221.640	-200.000	-0.021	-0.540
-220.625	-99.974	0.506	-0.125
-219.611	-21.835	-0.794	-0.478
-218.596	36.074	0.223	-0.194
-217.582	-128.374	-0.676	0.095
-216.567	-31.961	-0.153	0.085
-215.552	286.490	-0.079	0.141
-214.538	-161.648	0.652	0.033
-213.523	800.000	0.112	0.334
-212.509	776.574	-0.110	-0.298
-211.494	-192.183	-0.138	0.001
-210.479	97.426	0.362	-0.411
-209.465	-18.277	0.075	-0.047
-208.450	-53.752	-0.657	-0.296
-207.436	4.573	-0.437	0.317
-206.421	-38.791	-0.731	0.381
-205.406	241.917	0.446	0.738
-204.392	628.670	0.214	0.535
-203.377	-18.992	-0.473	-0.291
-202.363	-62.815	0.177	-0.072
-201.348	-123.900	0.541	-0.084
-200.333	-116.535	-0.350	-0.064
-199.319	800.000	-0.245	-0.850
-198.304	461.954	-0.036	0.080
-197.290	-112.118	0.350	0.070
-196.275	600.526	0.122	-0.299
-195.260	-200.000	-0.002	-0.421
-194.246	34.911	-0.572	-0.494
-193.231	-140.699	0.468	-0.048
-192.217	-48.288	0.460	0.219
-191.202	-59.666	-0.399	0.169
-190.187	139.948	0.326	0.425
-189.173	715.484	0.215	-0.565
-188.158	228.440	-0.233	-0.375
-187.144	486.542	-0.121	0.274
-186.129	-104.516	-0.870	0.199
-185.114	82.676	-1.001	1.074
-184.100	142.463	-0.623	-0.817
-183.085	635.358	0.232	-0.582
-182.071	88.382	0.461	0.506
-181.056	16.289	0.637	0.497
-180.042	205.853	-0.341	0.524
-179.027	-200.000	-0.002	-0.226
-178.012	455.994	0.248	0.544
-176.998	-200.000	0.036	-0.654
-175.983	82.273	0.513	0.549
-174.969	124.116	0.376	0.467
-173.954	553.573	0.021	0.051
-172.939	42.472	0.084	0.076
-171.925	-200.000	-0.013	0.636
-170.910	-123.154	-0.305	0.048
-169.896	-200.000	-0.052	-0.416
-168.881	-133.920	-0.732	-0.090
-167.866	-200.000	-0.131	0.580
-166.852	-191.642	0.848	0.008
-165.837	-96.754	0.490	0.127
-164.823	59.380	0.287	0.279
-163.808	-42.338	-0.377	-0.190
-162.793	-55.958	0.362	0.159
-161.779	12.080	0.216	-0.164
-160.764	0.734	0.542	-0.383
-159.750	-93.641	-0.924	0.252
-158.735	-114.897	-0.178	0.033
-157.720	800.000	-0.175	-0.523
-156.706	-65.533	-0.418	-0.166
-155.691	-8.919	-0.858	-0.567
-154.677	92.644	0.215	-0.240
-153.662	-200.000	-0.160	0.803
-152.647	144.846	0.381	0.503
-151.633	-200.000	-0.077	-0.432
-150.618	-200.000	-0.010	-0.950
-149.604	650.727	-0.136	0.345
-148.589	24.451	-0.250	-0.204
-147.574	431.833	-0.079	-0.168
-146.560	-35.902	-0.370	-0.197
-145.545	-200.000	-0.018	-0.529
-144.531	134.312	-0.292	0.374
-143.516	733.049	-0.265	-0.700
-142.502	-95.173	0.236	-0.063
-141.487	51.378	0.467	0.437
-140.472	-50.636	0.107	-0.050
-139.458	-200.000	0.013	0.271
-138.443	34.773	-0.299	0.258
-137.429	-139.700	-0.912	0.096
-136.414	-72.321	-0.501	0.183
-135.399	-70.668	0.334	0.125
-134.385	415.820	-0.324	-0.682
-133.370	-200.000	-0.119	-0.850
-132.356	-88.901	0.468	-0.137
-131.341	0.932	-0.242	0.171
-130.326	-20.193	0.518	-0.315
-129.312	14.116	-0.464	0.356
-128.297	-75.109	0.416	0.147
-127.283	-120.673	0.228	0.038
-126.268	181.199	0.213	-0.309
-125.253	715.308	-0.166	-0.433
-124.239	-80.855	0.555	-0.182
-123.224	-200.000	0.059	-0.355
-122.210	-200.000	-0.028	0.340
-121.195	800.000	-0.173	0.511
-120.180	750.390	-0.217	-0.578
