DTS Sentinel unit serial number:	SN413079Multiplexer serial number:	ORYXHardware model number:	OX4-SRSoftware version number:	ORYX F/W v4.00 Oryx Data Collector v3.7.2.0data status	okinstallation	princeton_trtdifferential loss correction	single-endedforward channel	channel 3reverse channel	N/Adate	2019/09/16time	03:52:35forward acquisition time	60.00reverse acquisition time	0.00gamma	496.2192k internal	0.2334k external	0.2334temperature offset calibration	0.9957default loss term (dB/km)	0.3790temperature slope calibration	1.0000multiplexer offset coefficient	1.0000multiplexer slope coefficient	1.0000fibre end	0.00T internal ref (°C)	27.52T ext. ref 1 (°C)	10.68T ext. ref 2 (°C)	21.62length (m)	temperature (°C)	Stokes	anti-Stokes-747.200	-37.433	-0.160	-0.086
-746.185	800.000	-0.071	0.200
-745.171	23.944	0.081	0.068
-744.156	84.273	0.241	0.264
-743.142	-88.267	0.218	-0.066
-742.127	53.431	-0.149	0.144
-741.112	-22.112	0.086	-0.052
-740.098	-4.882	-0.226	0.156
-739.083	-200.000	0.083	0.399
-738.069	226.189	-0.188	0.306
-737.054	-8.666	-0.016	0.011
-736.039	-93.914	-0.191	-0.053
-735.025	-54.158	0.410	0.187
-734.010	-38.443	-0.337	-0.179
-732.996	-51.294	-0.254	0.119
-731.981	-187.347	-0.123	0.002
-730.966	-21.349	0.243	0.149
-729.952	800.000	-0.077	0.272
-728.937	800.000	0.024	0.094
-727.923	-32.719	-0.123	-0.069
-726.908	8.000	0.101	0.076
-725.894	-70.423	-0.281	-0.107
-724.879	-200.000	0.007	0.331
-723.864	-46.202	-0.272	0.134
-722.850	-82.767	-0.426	-0.138
-721.835	800.000	-0.083	-0.248
-720.821	561.241	0.059	0.144
-719.806	32.790	-0.028	0.024
-718.791	-17.909	0.038	0.024
-717.777	-133.318	-0.320	-0.040
-716.762	-200.000	0.022	0.179
-715.748	-97.671	-0.132	0.034
-714.733	800.000	0.026	-0.112
-713.718	800.000	0.082	-0.277
-712.704	91.563	0.154	0.174
-711.689	800.000	0.087	-0.325
-710.675	-107.951	-0.084	0.018
-709.660	195.459	0.059	-0.090
-708.645	-200.000	-0.031	0.329
-707.631	800.000	0.081	-0.290
-706.616	383.678	-0.117	0.242
-705.602	-200.000	-0.058	0.358
-704.587	307.070	-0.119	0.223
-703.572	-200.000	0.019	-0.133
-702.558	800.000	0.050	-0.184
-701.543	-200.000	0.214	-0.000
-700.529	-200.000	-0.183	-0.000
-699.514	701.219	-0.069	0.183
-698.499	-145.131	0.177	-0.016
-697.485	-93.480	-0.215	-0.060
-696.470	800.000	-0.046	0.155
-695.456	-172.093	-0.367	0.012
-694.441	24.956	-0.096	0.080
-693.426	124.523	0.029	-0.037
-692.412	83.466	0.177	0.193
-691.397	-13.049	-0.187	0.122
-690.383	34.695	-0.246	-0.216
-689.368	-200.000	-0.013	-0.224
-688.354	-78.880	-0.236	-0.081
-687.339	214.035	-0.062	0.098
-686.324	223.347	0.145	-0.235
-685.310	263.223	-0.082	-0.142
-684.295	-16.656	-0.368	0.233
-683.281	-28.658	-0.111	0.064
-682.266	-200.000	0.030	-0.311
-681.251	-200.000	0.008	-0.127
-680.237	466.722	0.065	0.147
-679.222	-200.000	0.017	0.081
-678.208	-126.663	0.093	0.014
-677.193	520.824	0.108	-0.254
-676.178	315.206	0.031	-0.058
-675.164	-200.000	-0.001	0.018
-674.149	-17.626	0.102	0.064
-673.135	4.674	0.333	0.245
-672.120	393.833	0.065	-0.136
-671.105	-24.178	-0.445	0.266
-670.091	220.823	0.108	0.173
-669.076	-120.959	0.265	0.045
-668.062	-32.632	0.093	0.052
-667.047	180.905	0.108	0.159
-666.032	109.053	0.175	-0.210
-665.018	-200.000	-0.045	-0.360
-664.003	-116.919	0.106	0.019
-662.989	285.178	-0.095	0.172
-661.974	-31.144	-0.232	-0.131
-660.959	-156.357	-0.217	-0.014
-659.945	-200.000	-0.012	0.074
-658.930	118.222	-0.095	0.118
-657.916	-112.106	0.193	-0.039
-656.901	-174.282	-0.106	-0.003
-655.886	23.841	-0.056	0.046
-654.872	-34.381	-0.248	0.136
-653.857	-78.382	-0.399	0.137
-652.843	151.522	-0.144	0.197
-651.828	-100.184	0.287	-0.071
-650.814	108.906	0.093	-0.111
-649.799	-14.245	0.230	0.148
-648.784	568.045	-0.071	-0.172
-647.770	14.046	0.154	-0.120
-646.755	800.000	-0.052	0.145
-645.741	800.000	-0.072	0.274
-644.726	-200.000	-0.003	-0.227
-643.711	-153.270	0.364	-0.025
-642.697	119.324	-0.178	-0.221
-641.682	-200.000	-0.005	-0.111
-640.668	170.600	-0.039	0.056
-639.653	-200.000	0.018	-0.273
-638.638	395.905	-0.180	0.375
-637.624	157.521	0.147	0.203
-636.609	800.000	-0.049	-0.151
-635.595	199.436	0.044	-0.068
-634.580	48.662	0.283	0.265
-633.565	-17.279	0.347	0.219
-632.551	-82.248	0.128	0.042
-631.536	117.181	-0.141	-0.173
-630.522	398.811	-0.051	0.107
-629.507	-200.000	-0.051	0.244
-628.492	143.376	0.137	-0.183
-627.478	128.344	-0.140	-0.179
-626.463	238.598	-0.106	0.175
-625.449	-11.673	-0.142	0.093
-624.434	88.165	-0.281	0.312
-623.419	800.000	0.038	0.142
-622.405	800.000	-0.041	-0.144
-621.390	-13.766	-0.084	0.054
-620.376	-200.000	0.004	-0.111
-619.361	-123.109	0.222	0.036
-618.346	-50.440	-0.166	0.078
-617.332	-181.443	-0.172	-0.003
-616.317	-200.000	-0.072	-0.490
-615.303	-107.142	-0.251	0.055
-614.288	-76.695	-0.329	0.115
-613.273	-200.000	0.042	0.484
-612.259	-71.241	0.170	0.064
-611.244	306.901	0.256	-0.476
-610.230	-11.041	-0.165	-0.109
-609.215	138.734	0.120	-0.157
-608.201	368.045	0.143	-0.290
-607.186	114.682	-0.238	-0.290
-606.171	-13.689	0.313	-0.203
-605.157	97.860	-0.083	-0.096
-604.142	-57.515	-0.361	0.158
-603.128	-94.071	0.132	0.036
-602.113	263.507	0.109	0.189
-601.098	-72.054	-0.175	-0.065
-600.084	-45.732	0.143	-0.071
-599.069	84.969	-0.345	-0.378
-598.055	-40.237	0.216	0.112
-597.040	43.500	-0.218	-0.199
-596.025	41.084	0.242	-0.219
-595.011	-64.174	-0.170	-0.069
-593.996	-47.331	0.226	0.110
-592.982	28.252	-0.091	0.076
-591.967	98.917	-0.276	0.318
-590.952	82.149	0.095	-0.103
-589.938	-35.053	-0.300	0.164
-588.923	-84.561	0.278	0.088
-587.909	44.865	-0.087	-0.080
-586.894	-158.949	0.228	0.013
-585.879	121.771	0.057	-0.071
-584.865	800.000	-0.061	0.251
-583.850	-200.000	-0.273	-0.001
-582.836	800.000	-0.037	-0.115
-581.821	17.276	-0.223	0.177
-580.806	497.695	0.129	-0.297
-579.792	85.169	-0.206	0.225
-578.777	-174.356	-0.230	-0.007
-577.763	-116.622	0.227	-0.042
-576.748	-200.000	-0.049	0.292
-575.733	4.007	-0.185	0.135
-574.719	-200.000	0.010	0.124
-573.704	670.219	0.120	-0.311
-572.690	-200.000	-0.011	-0.419
-571.675	510.620	0.070	-0.162
-570.661	144.544	0.030	-0.039
-569.646	-71.725	-0.255	0.095
-568.631	11.844	0.080	-0.061
-567.617	198.986	-0.155	-0.236
-566.602	108.517	0.034	0.041
-565.588	20.375	0.197	0.159
-564.573	-65.175	0.105	-0.042
-563.558	473.455	-0.043	-0.098
-562.544	294.309	-0.053	-0.098
-561.529	184.609	-0.063	0.094
-560.515	-200.000	0.021	0.093
-559.500	-86.121	0.312	0.096
-558.485	-69.384	-0.321	-0.123
-557.471	134.603	-0.048	0.062
-556.456	-149.490	0.405	-0.032
-555.442	-71.381	-0.105	-0.039
-554.427	-145.081	0.099	-0.009
-553.412	52.848	0.029	0.027
-552.398	800.000	-0.041	0.121
-551.383	800.000	-0.042	-0.136
-550.369	-106.043	-0.509	0.114
-549.354	-21.120	-0.166	0.101
-548.339	-200.000	0.008	0.104
-547.325	-97.563	-0.356	-0.092
-546.310	4.061	-0.192	-0.140
-545.296	800.000	0.082	0.269
-544.281	518.391	-0.060	0.140
-543.266	-87.679	0.296	-0.089
-542.252	21.863	0.233	0.190
-541.237	637.944	-0.129	0.327
-540.223	13.349	-0.223	-0.173
-539.208	286.239	0.137	0.247
-538.193	-152.177	0.017	0.001
-537.179	800.000	-0.091	-0.256
-536.164	193.205	-0.067	-0.101
-535.150	-200.000	-0.017	-0.177
-534.135	504.463	0.117	-0.271
-533.121	343.068	0.019	0.037
-532.106	-200.000	0.007	0.083
-531.091	418.430	0.069	-0.146
-530.077	204.252	0.197	-0.304
-529.062	-200.000	0.066	-0.292
-528.048	344.833	-0.073	-0.143
-527.033	-62.647	0.255	0.105
-526.018	336.645	0.021	0.041
-525.004	45.487	0.128	0.117
-523.989	-163.238	-0.282	-0.013
-522.975	16.383	0.081	-0.064
-521.960	-88.331	0.208	0.062
-520.945	62.388	-0.217	0.216
-519.931	34.187	0.089	0.077
-518.916	-200.000	0.024	0.378
-517.902	-59.291	0.177	0.076
-516.887	136.396	0.080	0.104
-515.872	789.630	-0.135	-0.370
-514.858	364.710	0.111	-0.223
-513.843	22.040	0.088	0.071
-512.829	800.000	0.157	0.451
-511.814	242.444	0.115	0.192
-510.799	330.685	-0.069	-0.132
-509.785	157.460	0.210	-0.289
-508.770	41.907	-0.117	-0.105
-507.756	-200.000	-0.025	-0.128
-506.741	41.551	-0.288	-0.259
-505.726	50.704	0.169	-0.160
-504.712	-39.170	-0.242	-0.126
-503.697	-71.906	0.216	-0.080
-502.683	44.105	-0.025	0.023
-501.668	-101.044	0.370	0.090
-500.653	-91.814	-0.063	0.018
-499.639	-52.673	-0.249	0.114
-498.624	-169.802	-0.152	-0.005
-497.610	-62.041	0.149	-0.062
-496.595	356.797	0.160	-0.317
-495.581	-200.000	0.029	-0.240
-494.566	-45.757	-0.067	-0.033
-493.551	-23.803	-0.174	-0.103
-492.537	-132.434	-0.076	-0.010
-491.522	-39.181	-0.139	-0.072
-490.508	-124.326	0.449	0.070
-489.493	-114.616	0.201	-0.038
-488.478	199.021	-0.092	-0.140
-487.464	-15.649	-0.230	-0.146
-486.449	-3.591	0.164	0.114
-485.435	-200.000	0.006	0.104
-484.420	-134.083	-0.352	0.043
-483.405	-157.591	0.210	0.012
-482.391	-200.000	-0.038	0.206
-481.376	-177.854	-0.405	0.010
-480.362	163.654	0.155	-0.216
-479.347	-4.621	0.120	-0.082
-478.332	-34.065	-0.022	-0.012
-477.318	800.000	-0.040	0.149
-476.303	-152.764	0.271	0.019
-475.289	800.000	0.068	-0.262
-474.274	-57.613	-0.064	0.028
-473.259	-118.459	-0.160	0.028
-472.245	800.000	0.089	0.273
-471.230	534.708	0.014	0.032
-470.216	800.000	-0.026	0.110
-469.201	-103.426	0.252	0.059
-468.186	61.673	0.170	0.168
-467.172	-200.000	-0.002	-0.035
-466.157	-57.394	-0.213	0.093
-465.143	800.000	-0.026	0.094
-464.128	-47.518	-0.132	-0.064
-463.113	106.428	-0.154	0.182
-462.099	131.041	-0.053	-0.067
-461.084	800.000	-0.021	-0.081
-460.070	189.625	0.084	0.125
-459.055	-11.029	-0.028	-0.018
-458.040	360.147	0.061	-0.121
-457.026	88.394	-0.174	0.192
-456.011	-56.024	-0.324	0.144
-454.997	-33.844	0.400	0.219
-453.982	-56.942	0.265	0.116
-452.968	-200.000	0.056	-0.387
-451.953	54.743	-0.120	0.115
-450.938	23.773	-0.088	-0.072
-449.924	57.690	-0.281	-0.273
-448.909	-200.000	-0.023	0.170
-447.895	-60.637	-0.207	-0.087
-446.880	-64.644	0.186	-0.075
-445.865	800.000	-0.060	-0.202
-444.851	-128.335	0.082	0.012
-443.836	-200.000	-0.021	-0.332
-442.822	166.210	0.220	0.310
-441.807	-40.887	0.200	0.103
-440.792	28.601	-0.092	0.078
-439.778	32.823	-0.125	0.108
-438.763	0.785	-0.132	-0.094
-437.749	800.000	-0.069	-0.217
-436.734	77.898	-0.019	0.020
-435.719	-138.511	-0.083	-0.009
-434.705	-174.963	-0.282	-0.008
-433.690	-24.371	-0.065	-0.039
-432.676	-97.391	-0.212	-0.055
-431.661	149.962	-0.034	-0.045
-430.646	-200.000	-0.009	-0.257
-429.632	-124.405	0.047	0.007
-428.617	-200.000	0.088	-0.000
-427.603	-121.764	-0.153	0.025
-426.588	-200.000	0.079	0.409
-425.573	2.718	0.240	0.173
-424.559	-200.000	-0.102	-0.446
-423.544	-140.030	0.031	-0.003
-422.530	147.033	-0.098	0.131
-421.515	-55.964	0.214	0.095
-420.500	133.839	0.288	-0.370
-419.486	-71.192	0.139	-0.052
-418.471	-91.158	0.380	-0.108
-417.457	-108.787	-0.195	0.041
-416.442	291.422	-0.123	0.221
-415.428	28.596	-0.037	0.031
-414.413	-75.288	-0.183	-0.065
-413.398	-34.943	-0.186	-0.101
-412.384	202.259	0.069	0.106
-411.369	-122.164	0.466	0.076
-410.355	-117.198	0.170	0.031
-409.340	-38.007	0.403	-0.212
-408.325	-200.000	-0.006	0.127
-407.311	526.966	0.078	-0.181
-406.296	121.460	-0.045	-0.056
-405.282	-200.000	0.046	-0.261
-404.267	-200.000	-0.004	0.257
-403.252	314.111	-0.164	0.306
-402.238	479.987	-0.105	0.236
-401.223	-103.405	0.183	-0.043
-400.209	95.616	-0.101	-0.114
-399.194	-200.000	0.005	0.026
-398.179	-200.000	-0.056	-0.263
-397.165	-109.760	0.200	-0.042
-396.150	38.909	-0.329	-0.292
-395.136	-26.045	0.064	0.037
-394.121	255.057	0.189	0.320
-393.106	800.000	-0.009	0.025
-392.092	-45.074	0.052	0.025
-391.077	130.739	0.137	0.174
-390.063	-72.236	-0.122	0.045
-389.048	118.707	-0.096	0.118
-388.033	84.012	-0.085	-0.092
-387.019	17.558	0.067	-0.053
-386.004	-200.000	0.042	0.268
-384.990	-181.977	-0.266	-0.005
-383.975	-200.000	-0.009	0.099
-382.960	86.045	-0.352	0.384
-381.946	-129.296	-0.327	-0.045
-380.931	-200.000	-0.027	-0.118
-379.917	800.000	-0.047	0.135
-378.902	-96.162	0.205	-0.054
-377.888	-90.238	0.225	0.065
-376.873	-95.394	-0.163	0.043
-375.858	-100.451	0.309	-0.076
-374.844	800.000	-0.020	0.064
-373.829	132.719	-0.283	0.362
-372.815	238.607	-0.170	-0.280
-371.800	138.110	-0.163	0.212
-370.785	-80.300	-0.159	0.053
-369.771	-49.912	-0.042	0.020
-368.756	-200.000	0.092	-0.555
-367.742	-42.087	-0.287	-0.145
-366.727	-200.000	-0.009	-0.155
-365.712	89.178	0.173	0.190
-364.698	-83.578	0.099	0.031
-363.683	181.159	-0.084	0.122
-362.669	22.054	0.079	0.064
-361.654	481.782	-0.064	-0.143
-360.639	45.320	0.156	-0.143
-359.625	-44.656	0.477	-0.236
-358.610	-15.230	-0.039	0.025
-357.596	60.709	-0.239	0.234
-356.581	-35.299	0.088	-0.047
-355.566	19.789	0.185	0.147
-354.552	-27.322	0.253	0.146
-353.537	-28.187	0.382	0.219
-352.523	-15.132	0.218	-0.138
-351.508	3.733	-0.020	-0.015
-350.493	1.759	-0.182	0.130
-349.479	-200.000	0.035	-0.154
-348.464	62.787	0.261	0.259
-347.450	-116.138	-0.194	0.036
-346.435	-124.769	0.070	0.011
-345.420	38.881	0.208	-0.183
-344.406	800.000	0.051	0.218
-343.391	-20.577	-0.115	0.070
-342.377	27.463	0.037	-0.030
-341.362	63.741	0.166	0.165
-340.348	-57.559	0.169	-0.073
-339.333	6.299	-0.060	0.044
-338.318	314.895	0.115	-0.214
-337.304	88.157	-0.209	0.230
-336.289	-68.320	0.168	-0.064
-335.275	-200.000	-0.017	-0.130
-334.260	63.127	0.271	0.269
-333.245	-157.551	-0.379	0.022
-332.231	-200.000	0.075	0.458
-331.216	-200.000	-0.024	0.144
-330.202	174.653	0.023	0.034
-329.187	-200.000	0.017	-0.121
-328.172	800.000	-0.150	-0.464
-327.158	800.000	-0.041	0.137
-326.143	-138.475	-0.062	0.007
-325.129	-200.000	0.002	0.017
-324.114	-98.400	0.149	0.038
-323.099	-200.000	0.004	0.135
-322.085	800.000	0.111	0.358
-321.070	297.325	0.082	-0.148
-320.056	-135.487	-0.079	-0.009
-319.041	177.023	0.098	-0.141
-318.026	73.856	-0.312	0.323
-317.012	79.672	-0.147	0.156
-315.997	-56.648	-0.047	0.020
-314.983	105.056	0.131	0.153
-313.968	-8.487	-0.351	-0.233
-312.953	-200.000	0.025	0.182
-311.939	242.790	0.263	0.435
-310.924	-200.000	-0.010	0.146
-309.910	-35.997	-0.157	0.084
-308.895	-128.178	-0.307	0.043
-307.880	208.816	-0.207	0.321
-306.866	-128.479	0.375	-0.053
-305.851	41.261	-0.210	0.188
-304.837	-100.390	-0.149	0.036
-303.822	-99.037	0.282	0.071
-302.807	800.000	0.044	-0.159
-301.793	158.746	0.185	0.254
-300.778	800.000	0.046	-0.127
-299.764	757.547	-0.019	0.051
-298.749	-80.444	0.137	0.045
-297.735	-200.000	0.051	0.291
-296.720	-5.275	-0.176	-0.119
-295.705	102.485	-0.098	-0.113
-294.691	-200.000	0.004	0.146
-293.676	435.900	0.061	-0.132
-292.662	269.799	0.090	0.155
-291.647	800.000	0.140	0.409
-290.632	800.000	-0.056	0.210
-289.618	-200.000	-0.097	-0.545
-288.603	-200.000	-0.004	0.105
-287.589	-23.188	-0.150	-0.089
-286.574	-101.659	0.295	0.071
-285.559	160.669	-0.292	0.402
-284.545	-200.000	-0.018	-0.326
-283.530	-98.979	0.164	0.041
-282.516	-6.821	0.337	0.226
-281.501	-113.274	0.391	0.076
-280.486	664.452	0.122	0.312
-279.472	-200.000	0.026	-0.140
-278.457	-13.033	0.035	-0.022
-277.443	193.197	0.312	0.465
-276.428	-200.000	0.099	-0.000
-275.413	304.894	-0.095	-0.175
-274.399	-34.646	-0.279	-0.151
-273.384	784.010	0.085	0.230
-272.370	-111.257	0.150	-0.030
-271.355	-138.092	0.345	0.038
-270.340	-200.000	0.056	-0.268
-269.326	177.418	0.229	-0.329
-268.311	-200.000	-0.021	-0.147
-267.297	-200.000	-0.049	-0.481
-266.282	136.092	-0.193	-0.248
-265.267	242.640	0.194	0.320
-264.253	80.913	-0.251	0.267
-263.238	-200.000	-0.026	0.213
-262.224	65.541	-0.182	-0.181
-261.209	296.547	0.041	-0.074
-260.195	-40.889	0.169	0.086
-259.180	-200.000	-0.004	-0.286
-258.165	-200.000	-0.013	-0.098
-257.151	73.966	-0.138	-0.142
-256.136	-85.034	0.064	0.020
-255.122	-200.000	-0.025	-0.216
-254.107	-16.990	-0.125	-0.078
-253.092	11.403	0.082	-0.062
-252.078	800.000	-0.025	0.097
-251.063	110.795	-0.235	0.278
-250.049	257.423	-0.161	-0.273
-249.034	-159.609	-0.246	-0.013
-248.019	-25.071	-0.260	-0.152
-247.005	7.460	0.307	-0.226
-245.990	-164.011	0.396	0.018
-244.976	-87.685	-0.329	-0.098
-243.961	16.646	-0.204	0.159
-242.946	341.906	0.163	0.314
-241.932	-142.195	0.238	-0.023
-240.917	800.000	0.070	-0.204
-239.903	213.808	-0.123	0.191
-238.888	-74.562	0.269	-0.096
-237.873	-200.000	0.036	0.210
-236.859	-94.696	-0.429	-0.115
-235.844	118.078	-0.057	-0.070
-234.830	16.453	-0.192	-0.150
-233.815	-142.287	-0.175	-0.017
-232.800	21.803	0.125	0.100
-231.786	-130.699	-0.171	-0.023
-230.771	-93.609	0.220	-0.060
-229.757	32.852	-0.182	0.155
-228.742	399.320	-0.074	0.152
-227.727	602.999	-0.016	-0.039
-226.713	-151.265	-0.192	0.014
-225.698	-124.035	0.093	0.014
-224.684	-150.776	-0.279	-0.021
-223.669	734.407	0.080	-0.210
-222.655	100.215	0.270	-0.308
-221.640	-117.492	-0.309	0.055
-220.625	396.572	-0.091	0.187
-219.611	44.026	-0.106	0.095
-218.596	150.008	0.119	-0.159
-217.582	800.000	0.068	0.213
-216.567	-16.181	0.049	0.030
-215.552	333.118	-0.106	-0.202
-214.538	231.134	0.033	-0.053
-213.523	-57.908	0.059	-0.025
-212.509	-200.000	-0.039	-0.175
-211.494	46.032	-0.063	-0.058
-210.479	-200.000	-0.028	-0.224
-209.465	681.914	0.082	-0.211
-208.450	-32.188	0.173	0.095
-207.436	-98.759	0.114	0.029
-206.421	-32.549	-0.041	0.022
-205.406	800.000	0.148	0.415
-204.392	-62.621	0.191	-0.078
-203.377	800.000	0.073	0.212
-202.363	51.100	-0.030	0.028
-201.348	189.542	-0.150	0.221
-200.333	-56.248	-0.246	-0.108
-199.319	170.805	-0.045	0.063
-198.304	109.768	0.086	-0.101
-197.290	-73.414	-0.262	0.094
-196.275	-200.000	0.003	0.124
-195.260	-48.884	0.289	0.136
-194.246	84.691	-0.200	-0.216
-193.231	-146.083	-0.273	-0.024
-192.217	26.820	0.119	0.098
-191.202	800.000	-0.062	-0.262
-190.187	-200.000	0.096	-0.448
-189.173	-156.141	-0.421	0.026
-188.158	-3.979	-0.201	0.137
-187.144	-137.465	0.301	-0.033
-186.129	-131.735	-0.165	0.021
-185.114	-34.903	0.267	0.143
-184.100	-139.291	0.130	-0.014
-183.085	448.565	0.058	0.125
-182.071	-105.110	0.089	0.020
-181.056	-200.000	-0.027	-0.507
-180.042	-87.743	-0.222	-0.066
-179.027	25.702	-0.096	-0.078
-178.012	-163.040	0.246	-0.012
-176.998	-113.008	0.177	0.034
-175.983	-200.000	-0.011	-0.144
-174.969	164.916	0.097	-0.135
-173.954	203.546	0.105	-0.159
-172.939	-97.581	-0.120	-0.031
-171.925	800.000	0.046	-0.193
-170.910	-200.000	0.046	-0.209
-169.896	-63.146	0.127	0.051
-168.881	518.735	-0.117	0.269
-167.866	32.626	-0.078	-0.066
-166.852	-200.000	0.009	0.081
-165.837	-32.347	-0.148	-0.081
-164.823	59.131	0.146	-0.141
-163.808	-200.000	-0.011	-0.111
-162.793	-106.202	0.069	-0.015
-161.779	-10.978	-0.163	0.106
-160.764	-124.528	0.520	-0.079
-159.750	-140.759	-0.205	0.021
-158.735	-69.648	-0.287	0.108
-157.720	-200.000	0.037	0.176
-156.706	135.517	0.059	0.076
-155.691	800.000	0.042	-0.178
-154.677	800.000	-0.056	-0.153
-153.662	-200.000	0.006	0.104
-152.647	-200.000	-0.016	-0.093
-151.633	-157.020	-0.168	-0.010
-150.618	800.000	-0.033	-0.134
-149.604	426.429	-0.056	-0.119
-148.589	-148.078	0.059	0.005
-147.574	-75.299	0.174	0.061
-146.560	-37.949	0.264	-0.138
-145.545	-91.079	0.179	-0.051
-144.531	6.399	-0.060	0.044
-143.516	-31.881	0.073	0.040
-142.502	-43.188	0.097	0.048
-141.487	-131.764	0.184	-0.024
-140.472	-124.537	-0.130	-0.020
-139.458	-73.565	0.171	-0.061
-138.443	24.512	0.190	-0.155
-137.429	155.960	0.066	0.089
-136.414	177.736	0.092	0.132
-135.399	-106.728	-0.329	-0.072
-134.385	-17.364	0.192	-0.119
-133.370	417.298	0.239	0.501
-132.356	-200.000	-0.027	0.130
-131.341	-7.786	0.093	0.061
-130.326	-68.117	-0.343	-0.131
-129.312	79.038	-0.218	0.229
-128.297	368.809	-0.091	-0.181
-127.283	-200.000	0.008	-0.084
-126.268	-94.696	0.074	0.020
-125.253	-84.554	0.217	-0.067
-124.239	392.243	0.165	-0.336
-123.224	-58.112	0.113	-0.048
-122.210	100.637	-0.151	0.172
-121.195	260.827	-0.054	-0.092
