DTS Sentinel unit serial number:	SN413079Multiplexer serial number:	ORYXHardware model number:	OX4-SRSoftware version number:	ORYX F/W v4.00 Oryx Data Collector v3.7.2.0data status	okinstallation	princeton_trtdifferential loss correction	single-endedforward channel	channel 3reverse channel	N/Adate	2019/09/13time	14:24:35forward acquisition time	60.00reverse acquisition time	0.00gamma	496.2192k internal	0.2302k external	0.2302temperature offset calibration	1.0150default loss term (dB/km)	0.3790temperature slope calibration	1.0000multiplexer offset coefficient	1.0000multiplexer slope coefficient	1.0000fibre end	0.00T internal ref (°C)	35.27T ext. ref 1 (°C)	4.61T ext. ref 2 (°C)	30.81length (m)	temperature (°C)	Stokes	anti-Stokes-747.200	54.774	0.173	0.170
-746.185	800.000	0.070	0.236
-745.171	-44.902	-0.158	-0.080
-744.156	93.949	-0.206	-0.238
-743.142	33.761	-0.027	0.024
-742.127	-70.778	0.061	-0.024
-741.112	132.971	-0.124	0.163
-740.098	-119.832	0.097	0.017
-739.083	256.632	0.023	-0.040
-738.069	800.000	-0.033	0.125
-737.054	-167.460	0.056	0.002
-736.039	-52.397	-0.399	-0.188
-735.025	-127.536	0.302	-0.045
-734.010	607.052	0.183	-0.464
-732.996	-14.216	0.175	-0.115
-731.981	21.390	-0.168	-0.139
-730.966	634.681	0.083	0.215
-729.952	-74.435	-0.256	0.094
-728.937	788.404	0.031	-0.087
-727.923	-164.872	-0.183	0.008
-726.908	-200.000	-0.005	-0.048
-725.894	-48.644	-0.181	0.088
-724.879	-31.900	-0.135	-0.077
-723.864	-15.672	0.136	-0.088
-722.850	-131.251	0.245	-0.033
-721.835	121.805	0.028	0.036
-720.821	123.972	-0.141	-0.180
-719.806	-95.050	-0.160	-0.044
-718.791	634.351	0.192	-0.497
-717.777	-200.000	-0.040	0.353
-716.762	-26.373	-0.026	0.015
-715.748	138.193	0.159	0.213
-714.733	-200.000	-0.008	-0.138
-713.718	17.377	0.320	0.259
-712.704	-200.000	-0.120	0.000
-711.689	-16.964	0.227	-0.146
-710.675	136.418	0.094	-0.125
-709.660	-181.331	0.224	0.005
-708.645	99.984	0.191	-0.225
-707.631	-19.964	-0.185	-0.116
-706.616	-27.746	0.205	-0.121
-705.602	-90.595	-0.113	-0.033
-704.587	-146.569	0.309	0.027
-703.572	-122.150	0.147	-0.024
-702.558	441.703	-0.061	-0.135
-701.543	769.509	0.116	0.322
-700.529	195.052	-0.141	0.218
-699.514	409.848	0.053	0.115
-698.499	-15.863	0.127	0.082
-697.485	-200.000	-0.038	0.206
-696.470	-200.000	0.024	-0.379
-695.456	-106.520	0.156	0.035
-694.441	-15.292	0.169	0.110
-693.426	-13.252	-0.446	0.294
-692.412	-200.000	-0.029	-0.279
-691.397	-108.743	-0.409	0.089
-690.383	-39.623	-0.144	0.077
-689.368	-97.493	0.199	0.053
-688.354	-97.720	-0.297	0.078
-687.339	-114.683	0.219	-0.043
-686.324	800.000	-0.123	-0.371
-685.310	800.000	0.038	-0.154
-684.295	252.743	-0.181	0.314
-683.281	-10.254	-0.117	-0.079
-682.266	267.734	0.082	-0.145
-681.251	-131.627	0.051	-0.007
-680.237	754.943	-0.097	-0.267
-679.222	-100.980	-0.314	0.078
-678.208	800.000	0.110	0.395
-677.193	-113.708	-0.062	0.012
-676.178	334.238	-0.083	-0.163
-675.164	800.000	0.024	0.089
-674.149	313.165	0.171	-0.326
-673.135	-200.000	0.242	-0.001
-672.120	763.857	-0.076	0.209
-671.105	-120.918	-0.151	0.026
-670.091	-13.679	0.156	-0.102
-669.076	56.195	-0.224	-0.221
-668.062	494.895	0.095	-0.222
-667.047	112.894	0.161	0.199
-666.032	486.441	0.079	-0.182
-665.018	800.000	0.084	-0.284
-664.003	-95.815	0.147	-0.040
-662.989	800.000	0.016	-0.048
-661.974	-19.444	-0.395	-0.249
-660.959	281.554	-0.189	-0.345
-659.945	60.576	0.160	0.161
-658.930	-129.115	-0.051	0.007
-657.916	-200.000	0.008	-0.106
-656.901	-197.428	0.249	-0.002
-655.886	-200.000	0.029	0.137
-654.872	-200.000	-0.038	-0.183
-653.857	-95.146	0.222	-0.061
-652.843	-200.000	0.013	0.097
-651.828	124.846	0.100	-0.128
-650.814	-129.625	-0.520	-0.073
-649.799	103.454	-0.202	-0.240
-648.784	349.323	-0.055	-0.111
-647.770	-200.000	0.072	-0.428
-646.755	-177.110	0.189	0.005
-645.741	245.145	0.193	0.330
-644.726	-27.511	-0.254	-0.150
-643.711	-200.000	0.031	-0.148
-642.697	45.832	0.175	0.164
-641.682	-66.657	-0.195	-0.079
-640.668	-123.763	-0.413	-0.066
-639.653	-200.000	0.067	-0.368
-638.638	3.374	-0.192	-0.142
-637.624	14.688	0.137	-0.109
-636.609	289.109	-0.016	-0.029
-635.595	-147.480	0.432	0.037
-634.580	55.087	0.229	-0.224
-633.565	-200.000	0.023	0.295
-632.551	800.000	0.070	-0.214
-631.536	-200.000	-0.018	-0.281
-630.522	-62.798	-0.479	-0.201
-629.507	190.548	0.128	0.196
-628.492	129.396	0.142	-0.184
-627.478	-135.542	-0.280	-0.034
-626.463	-136.339	-0.330	0.039
-625.449	70.195	-0.169	-0.177
-624.434	6.153	0.086	-0.065
-623.419	-34.760	-0.486	0.269
-622.405	33.698	-0.076	-0.067
-621.390	-16.628	-0.102	0.065
-620.376	-41.206	0.250	0.131
-619.361	-141.377	-0.230	-0.024
-618.346	800.000	0.031	-0.102
-617.332	800.000	0.115	-0.351
-616.317	-41.100	0.173	0.091
-615.303	-42.567	-0.021	0.011
-614.288	-161.424	-0.183	-0.010
-613.273	170.984	0.088	-0.128
-612.259	-76.241	-0.272	-0.097
-611.244	563.055	0.105	-0.257
-610.230	-108.209	0.228	0.050
-609.215	-200.000	-0.016	0.101
-608.201	-165.417	0.108	0.005
-607.186	218.000	-0.055	0.089
-606.171	-200.000	0.035	-0.412
-605.157	252.072	-0.131	0.226
-604.142	-131.700	0.104	0.014
-603.128	79.390	-0.120	0.130
-602.113	-49.060	0.392	0.190
-601.098	-200.000	-0.004	-0.089
-600.084	-200.000	-0.341	0.001
-599.069	-80.933	0.166	-0.056
-598.055	-153.505	0.274	-0.019
-597.040	67.961	-0.151	0.156
-596.025	94.959	0.113	0.130
-595.011	466.293	-0.045	0.101
-593.996	-90.307	-0.165	0.049
-592.982	243.394	0.157	-0.267
-591.967	117.733	-0.021	-0.026
-590.952	729.795	0.042	-0.113
-589.938	198.751	-0.203	0.314
-588.923	-93.985	0.128	0.036
-587.909	111.518	0.097	0.118
-586.894	-61.906	0.164	0.070
-585.879	-66.507	0.164	0.066
-584.865	-167.295	0.459	-0.019
-583.850	-200.000	-0.007	-0.154
-582.836	175.011	0.202	-0.296
-581.821	532.949	-0.078	-0.186
-580.806	68.470	-0.172	-0.178
-579.792	-121.634	-0.078	-0.013
-578.777	800.000	-0.005	0.018
-577.763	-200.000	-0.021	0.147
-576.748	132.390	-0.217	0.283
-575.733	197.971	-0.037	0.057
-574.719	-93.710	0.425	-0.119
-573.704	-200.000	-0.062	0.358
-572.690	-107.311	0.139	-0.031
-571.675	105.024	-0.172	0.205
-570.661	-6.549	0.328	-0.226
-569.646	-74.638	-0.110	-0.040
-568.631	-132.371	0.280	-0.037
-567.617	-200.000	-0.224	0.000
-566.602	107.150	-0.143	-0.172
-565.588	-86.662	0.117	0.036
-564.573	100.485	-0.161	0.189
-563.558	242.651	0.038	-0.064
-562.544	-31.944	-0.196	-0.111
-561.529	201.619	-0.156	0.243
-560.515	-22.333	-0.153	-0.094
-559.500	-108.614	0.340	-0.074
-558.485	159.433	-0.100	-0.140
-557.471	269.082	-0.075	0.133
-556.456	77.075	0.176	0.189
-555.442	-79.944	0.132	0.045
-554.427	1.900	0.086	-0.063
-553.412	-23.882	0.133	-0.080
-552.398	130.041	0.131	-0.169
-551.383	-200.000	0.017	0.156
-550.369	-12.834	-0.271	0.178
-549.354	-57.112	-0.056	0.025
-548.339	110.062	-0.063	-0.077
-547.325	139.505	-0.124	-0.165
-546.310	14.795	0.174	0.138
-545.296	-55.446	0.075	-0.034
-544.281	211.171	0.151	0.241
-543.266	576.604	0.052	0.128
-542.252	-46.366	-0.053	-0.026
-541.237	159.674	0.120	0.169
-540.223	102.093	-0.074	0.087
-539.208	800.000	-0.091	0.270
-538.193	54.323	-0.139	0.135
-537.179	800.000	0.040	0.164
-536.164	153.110	-0.079	0.109
-535.150	-168.387	0.124	0.005
-534.135	-200.000	-0.056	-0.000
-533.121	-200.000	-0.042	-0.213
-532.106	-172.676	-0.269	0.009
-531.091	24.819	-0.323	-0.271
-530.077	53.572	0.143	0.139
-529.062	76.247	0.011	-0.012
-528.048	-140.962	0.307	-0.032
-527.033	17.097	-0.175	0.141
-526.018	271.128	0.097	-0.173
-525.004	122.625	-0.103	0.130
-523.989	-200.000	-0.034	0.154
-522.975	-64.772	0.026	-0.011
-521.960	115.846	0.167	0.206
-520.945	193.951	-0.057	-0.087
-519.931	100.420	0.210	0.246
-518.916	800.000	-0.062	-0.196
-517.902	800.000	0.050	-0.211
-516.887	-45.452	0.114	0.057
-515.872	-123.373	-0.332	-0.053
-514.858	-200.000	-0.032	-0.180
-513.843	-96.597	-0.150	-0.040
-512.829	-43.130	0.353	0.181
-511.814	-129.696	0.141	0.020
-510.799	-109.512	0.427	0.091
-509.785	-200.000	0.003	-0.272
-508.770	141.450	-0.017	-0.023
-507.756	537.230	-0.105	0.252
-506.741	178.069	0.058	0.086
-505.726	-87.747	0.177	0.054
-504.712	53.298	0.106	0.103
-503.697	-44.678	-0.155	0.078
-502.683	-150.091	-0.322	0.025
-501.668	800.000	-0.037	-0.111
-500.653	616.500	-0.090	-0.227
-499.639	800.000	0.075	0.324
-498.624	-29.286	-0.449	-0.260
-497.610	441.821	-0.067	0.147
-496.595	-200.000	0.005	0.237
-495.581	0.913	-0.398	-0.288
-494.566	-200.000	0.050	-0.300
-493.551	-57.936	0.066	0.029
-492.537	9.373	0.016	-0.012
-491.522	173.842	0.116	0.169
-490.508	-200.000	-0.007	0.440
-489.493	210.167	0.095	0.151
-488.478	-89.539	0.206	-0.061
-487.464	800.000	-0.031	-0.116
-486.449	800.000	0.073	0.265
-485.435	-200.000	0.035	-0.292
-484.420	-60.796	0.190	-0.081
-483.405	-142.453	0.277	-0.028
-482.391	-13.560	-0.139	-0.091
-481.376	345.209	-0.032	-0.064
-480.362	197.517	-0.131	-0.202
-479.347	-62.010	-0.129	-0.054
-478.332	-17.923	-0.013	-0.008
-477.318	800.000	0.055	-0.179
-476.303	-200.000	-0.083	-0.376
-475.289	-177.309	-0.080	0.002
-474.274	623.371	0.094	-0.239
-473.259	356.557	-0.204	-0.409
-472.245	-200.000	-0.023	-0.297
-471.230	-200.000	0.025	-0.244
-470.216	-200.000	-0.003	0.066
-469.201	272.763	0.034	-0.061
-468.186	-200.000	-0.002	-0.205
-467.172	345.947	0.214	0.424
-466.157	183.771	-0.076	-0.113
-465.143	492.281	-0.141	0.326
-464.128	-59.140	0.110	0.048
-463.113	428.965	0.071	-0.156
-462.099	170.441	-0.081	-0.117
-461.084	-167.369	-0.525	-0.021
-460.070	800.000	-0.063	0.190
-459.055	-200.000	0.009	-0.095
-458.040	71.833	-0.105	0.110
-457.026	368.031	0.089	0.182
-456.011	-61.824	-0.143	0.060
-454.997	588.364	0.019	-0.047
-453.982	-137.250	0.455	0.052
-452.968	800.000	-0.081	0.254
-451.953	150.760	0.084	-0.116
-450.938	495.604	-0.165	-0.382
-449.924	-200.000	0.002	-0.278
-448.909	-40.136	-0.346	-0.181
-447.895	-152.878	0.146	0.010
-446.880	104.586	0.109	-0.129
-445.865	642.615	0.084	-0.216
-444.851	-37.369	-0.120	-0.065
-443.836	345.985	0.132	-0.260
-442.822	116.053	0.139	-0.172
-441.807	800.000	-0.180	-0.517
-440.792	-200.000	0.046	-0.350
-439.778	113.275	-0.375	-0.458
-438.763	-99.964	-0.045	0.011
-437.749	50.178	0.291	0.277
-436.734	445.784	-0.080	0.177
-435.719	508.734	-0.052	-0.121
-434.705	-200.000	-0.013	0.126
-433.690	800.000	0.036	0.135
-432.676	-200.000	-0.015	-0.209
-431.661	22.475	0.156	0.129
-430.646	-200.000	0.052	-0.363
-429.632	-89.887	0.291	-0.086
-428.617	72.539	0.121	0.127
-427.603	-29.164	-0.040	0.023
-426.588	437.024	0.083	-0.182
-425.573	800.000	-0.081	0.259
-424.559	95.513	0.249	0.286
-423.544	289.408	-0.131	0.240
-422.530	-129.690	-0.407	-0.056
-421.515	-200.000	-0.021	-0.278
-420.500	57.143	0.147	0.144
-419.486	-28.793	0.125	0.073
-418.471	359.703	-0.033	0.067
-417.457	366.702	-0.087	-0.177
-416.442	800.000	0.045	0.140
-415.428	800.000	-0.138	0.567
-414.413	125.713	0.085	0.109
-413.398	715.030	-0.087	-0.233
-412.384	-200.000	0.014	0.297
-411.369	-30.679	0.128	0.073
-410.355	-101.717	-0.147	0.036
-409.340	-53.009	0.183	-0.085
-408.325	800.000	0.010	-0.038
-407.311	-56.134	-0.195	0.087
-406.296	-2.775	0.119	-0.084
-405.282	-130.551	0.132	-0.018
-404.267	-114.071	0.367	-0.071
-403.252	800.000	-0.036	-0.145
-402.238	-74.201	0.284	-0.103
-401.223	75.504	-0.135	-0.144
-400.209	529.890	0.135	-0.321
-399.194	-200.000	0.051	0.338
-398.179	-44.845	-0.156	-0.078
-397.165	-37.425	0.321	0.172
-396.150	-91.123	-0.123	0.036
-395.136	-200.000	-0.046	0.260
-394.121	6.121	-0.170	0.127
-393.106	39.640	-0.203	0.183
-392.092	-9.838	-0.121	-0.081
-391.077	286.177	0.052	0.095
-390.063	16.787	-0.134	-0.107
-389.048	177.033	0.208	-0.304
-388.033	22.667	-0.240	-0.198
-387.019	-200.000	0.064	0.290
-386.004	628.577	-0.122	0.309
-384.990	-28.331	0.190	0.110
-383.975	800.000	0.059	0.211
-382.960	-200.000	-0.026	0.423
-381.946	800.000	-0.148	0.422
-380.931	-33.551	-0.092	0.051
-379.917	-99.363	0.048	0.012
-378.902	377.605	-0.048	0.099
-377.888	432.457	-0.041	0.088
-376.873	-30.239	0.259	-0.148
-375.858	-18.376	0.246	0.155
-374.844	-52.101	0.217	-0.101
-373.829	-200.000	0.036	0.221
-372.815	-137.893	0.218	-0.024
-371.800	436.720	-0.079	0.173
-370.785	800.000	-0.046	-0.187
-369.771	-200.000	0.047	-0.221
-368.756	-200.000	-0.007	-0.216
-367.742	-12.916	-0.084	0.055
-366.727	-200.000	0.002	0.121
-365.712	-41.478	-0.127	0.066
-364.698	448.137	0.105	0.231
-363.683	-120.551	0.111	-0.019
-362.669	295.506	0.052	-0.095
-361.654	-200.000	-0.049	0.239
-360.639	-200.000	0.038	-0.330
-359.625	-200.000	-0.027	0.139
-358.610	59.195	0.075	-0.074
-357.596	-200.000	0.039	-0.230
-356.581	212.729	0.149	0.236
-355.566	800.000	0.067	0.240
-354.552	-200.000	-0.023	-0.155
-353.537	23.846	-0.141	0.116
-352.523	198.422	-0.086	0.133
-351.508	-65.881	0.180	0.072
-350.493	-35.994	0.419	0.228
-349.479	-113.484	0.105	0.021
-348.464	-64.252	0.390	-0.159
-347.450	6.339	-0.202	-0.151
-346.435	-61.208	0.205	-0.087
-345.420	-104.817	-0.251	-0.058
-344.406	-27.240	0.143	0.084
-343.391	-135.810	-0.171	-0.020
-342.377	-200.000	0.172	0.000
-341.362	-200.000	0.001	0.448
-340.348	-43.244	-0.183	0.093
-339.333	-200.000	-0.031	0.144
-338.318	81.409	-0.050	-0.054
-337.304	201.458	0.130	-0.201
-336.289	-35.303	-0.050	-0.027
-335.275	-62.852	-0.061	0.025
-334.260	13.296	0.142	0.110
-333.245	800.000	-0.048	-0.188
-332.231	312.181	0.076	-0.144
-331.216	-91.591	-0.229	0.065
-330.202	-61.888	-0.218	-0.091
-329.187	-200.000	-0.056	0.455
-328.172	-88.664	-0.248	0.074
-327.158	-172.515	-0.330	0.010
-326.143	136.634	-0.086	0.113
-325.129	542.807	0.098	0.235
-324.114	-56.413	0.171	-0.076
-323.099	-119.174	0.272	-0.048
-322.085	-117.343	-0.078	0.014
-321.070	103.494	-0.186	-0.219
-320.056	-156.711	-0.065	0.004
-319.041	-103.885	-0.363	-0.085
-318.026	-169.028	0.188	0.007
-317.012	85.220	0.180	0.198
-315.997	-200.000	0.015	0.142
-314.983	150.025	-0.124	-0.168
-313.968	800.000	-0.062	-0.230
-312.953	-31.420	-0.269	0.151
-311.939	55.169	0.044	0.042
-310.924	-38.280	-0.285	0.151
-309.910	-200.000	-0.007	0.204
-308.895	325.313	-0.136	0.261
-307.880	-157.919	-0.255	-0.015
-306.866	-103.968	-0.267	-0.062
-305.851	186.046	0.083	-0.124
-304.837	-69.948	-0.111	0.043
-303.822	-96.066	0.038	0.010
-302.807	-127.640	0.018	-0.003
-301.793	-85.807	-0.044	-0.014
-300.778	-14.847	-0.327	-0.210
-299.764	-15.883	-0.125	-0.080
-298.749	-197.268	0.175	0.001
-297.735	-105.604	-0.206	-0.047
-296.720	-62.509	0.282	0.117
-295.705	-200.000	0.044	0.307
-294.691	107.421	-0.224	0.267
-293.676	800.000	-0.053	-0.211
-292.662	360.783	0.079	-0.158
-291.647	-200.000	-0.055	0.257
-290.632	-91.720	0.333	0.095
-289.618	-145.189	-0.354	-0.032
-288.603	-52.445	-0.204	-0.094
-287.589	-165.696	-0.276	-0.012
-286.574	122.384	0.014	0.018
-285.559	-14.546	0.230	-0.148
-284.545	30.929	0.170	0.146
-283.530	-73.487	0.058	0.021
-282.516	682.003	-0.107	0.280
-281.501	104.897	-0.160	0.188
-280.486	-45.940	-0.398	0.196
-279.472	383.085	0.051	0.105
-278.457	-89.369	0.302	-0.089
-277.443	-9.372	-0.304	-0.203
-276.428	-24.154	0.186	-0.111
-275.413	-200.000	0.004	0.021
-274.399	159.661	0.124	-0.172
-273.384	2.217	0.203	-0.147
-272.370	156.482	-0.091	-0.126
-271.355	281.670	-0.099	0.177
-270.340	115.868	0.125	0.153
-269.326	-9.669	-0.357	-0.238
-268.311	208.988	0.038	0.059
-267.297	-65.787	-0.300	-0.120
-266.282	-164.135	0.342	-0.016
-265.267	4.297	0.238	-0.175
-264.253	-95.869	-0.041	-0.011
-263.238	23.605	-0.069	0.057
-262.224	-138.240	0.053	-0.006
-261.209	64.034	-0.198	0.199
-260.195	800.000	-0.041	-0.149
-259.180	-34.327	-0.075	-0.041
-258.165	113.757	-0.253	0.308
-257.151	-179.097	0.077	-0.002
-256.136	-144.519	0.283	-0.026
-255.122	72.739	0.254	0.265
-254.107	-79.429	-0.176	0.060
-253.092	-200.000	-0.002	0.067
-252.078	35.001	-0.099	0.086
-251.063	-129.568	-0.146	-0.020
-250.049	-200.000	0.008	0.199
-249.034	94.220	-0.210	0.239
-248.019	800.000	0.056	-0.226
-247.005	-184.436	-0.076	0.001
-245.990	-90.369	-0.138	0.040
-244.976	800.000	-0.157	0.533
-243.961	-89.696	0.248	0.073
-242.946	267.069	-0.188	0.328
-241.932	-200.000	-0.016	-0.217
-240.917	-60.588	0.215	-0.091
-239.903	265.073	0.061	-0.107
-238.888	800.000	-0.069	-0.196
-237.873	-0.567	0.090	-0.064
-236.859	181.302	0.080	-0.118
-235.844	800.000	0.032	0.094
-234.830	109.132	0.037	0.044
-233.815	-125.155	0.478	-0.073
-232.800	-1.389	0.111	-0.078
-231.786	221.741	-0.125	-0.201
-230.771	-177.861	-0.107	0.003
-229.757	53.343	-0.132	-0.126
-228.742	427.351	-0.123	0.265
-227.727	71.630	-0.044	0.046
-226.713	-63.761	0.112	0.046
-225.698	-200.000	-0.000	0.215
-224.684	170.604	-0.052	-0.075
-223.669	26.853	0.139	-0.116
-222.655	129.110	0.140	-0.178
-221.640	368.690	-0.128	-0.259
-220.625	91.639	0.098	0.110
-219.611	481.887	0.054	0.122
-218.596	209.347	-0.176	-0.276
-217.582	-94.445	0.052	0.014
-216.567	-200.000	-0.020	-0.103
-215.552	-70.910	0.129	0.049
-214.538	160.916	-0.251	0.350
-213.523	-200.000	0.037	0.178
-212.509	-96.903	-0.177	0.046
-211.494	26.071	0.451	-0.375
-210.479	56.837	0.112	-0.109
-209.465	-65.185	0.464	-0.187
-208.450	-200.000	0.012	-0.284
-207.436	-123.127	-0.286	0.046
-206.421	-200.000	-0.022	0.121
-205.406	-146.460	-0.229	0.020
-204.392	233.885	0.236	0.388
-203.377	74.854	0.117	-0.122
-202.363	-200.000	-0.063	0.294
-201.348	21.672	0.192	-0.156
-200.333	-200.000	0.004	0.247
-199.319	-200.000	-0.013	0.087
-198.304	86.560	-0.178	-0.196
-197.290	-200.000	0.007	0.097
-196.275	-47.061	-0.145	0.071
-195.260	30.648	0.209	0.178
-194.246	-31.304	0.141	0.079
-193.231	213.104	-0.019	-0.030
-192.217	-93.502	-0.230	-0.063
-191.202	203.665	-0.084	0.129
-190.187	29.871	0.095	0.081
-189.173	-28.872	-0.302	-0.173
-188.158	-73.777	0.166	0.060
-187.144	-3.324	-0.044	-0.031
-186.129	-200.000	-0.030	-0.156
-185.114	-85.133	0.172	0.054
-184.100	-200.000	-0.004	0.054
-183.085	-108.663	0.138	-0.030
-182.071	-134.957	0.209	0.025
-181.056	800.000	-0.043	-0.174
-180.042	-200.000	-0.011	-0.295
-179.027	-20.561	0.036	-0.022
-178.012	-52.043	0.199	-0.092
-176.998	184.941	-0.044	0.066
-175.983	-8.339	0.227	0.152
-174.969	75.348	-0.093	0.097
-173.954	-155.389	0.208	-0.013
-172.939	150.960	-0.135	0.183
-171.925	800.000	0.037	0.142
-170.910	108.596	0.200	0.238
-169.896	-52.802	0.036	0.017
-168.881	-85.800	-0.441	-0.136
-167.866	-200.000	-0.062	0.281
-166.852	-115.731	0.275	0.051
-165.837	4.231	-0.215	-0.157
-164.823	-200.000	-0.001	-0.225
-163.808	-200.000	0.003	-0.146
-162.793	-69.323	0.141	0.054
-161.779	-200.000	-0.012	-0.474
-160.764	800.000	0.093	-0.325
-159.750	391.494	0.046	-0.096
-158.735	800.000	-0.051	-0.218
-157.720	-51.032	-0.078	-0.036
-156.706	-112.485	0.164	-0.033
-155.691	800.000	0.017	-0.063
-154.677	-66.584	0.077	-0.030
-153.662	16.256	-0.207	-0.163
-152.647	148.435	0.110	0.148
-151.633	191.537	0.035	0.053
-150.618	131.056	0.144	-0.184
-149.604	120.416	0.156	-0.192
-148.589	-82.915	-0.382	-0.123
-147.574	174.351	-0.104	-0.150
-146.560	-101.047	0.287	-0.070
-145.545	264.603	-0.122	0.212
-144.531	-200.000	-0.006	0.031
-143.516	-14.092	0.308	-0.198
-142.502	200.412	0.144	0.221
-141.487	-200.000	0.021	0.326
-140.472	800.000	-0.066	0.247
-139.458	-39.848	-0.172	0.090
-138.443	-94.594	-0.342	0.092
-137.429	0.599	-0.149	-0.106
-136.414	-40.918	-0.119	0.061
-135.399	413.306	-0.079	-0.167
-134.385	-200.000	0.025	0.242
-133.370	-88.521	0.318	-0.094
-132.356	800.000	-0.099	0.347
-131.341	800.000	-0.075	0.302
-130.326	-3.815	0.088	-0.061
-129.312	-65.798	0.226	0.090
-128.297	800.000	-0.035	-0.115
-127.283	-105.388	0.356	-0.081
-126.268	-12.477	-0.058	0.038
-125.253	68.941	0.215	0.220
-124.239	102.888	0.069	0.080
-123.224	323.204	-0.149	0.282
-122.210	293.985	0.065	0.118
