DTS Sentinel unit serial number:	SN413079Multiplexer serial number:	ORYXHardware model number:	OX4-SRSoftware version number:	ORYX F/W v4.00 Oryx Data Collector v3.7.2.0data status	okinstallation	princeton_trtdifferential loss correction	single-endedforward channel	channel 3reverse channel	N/Adate	2019/09/12time	22:32:35forward acquisition time	60.00reverse acquisition time	0.00gamma	496.2192k internal	0.2327k external	0.2327temperature offset calibration	1.0130default loss term (dB/km)	0.3790temperature slope calibration	1.0000multiplexer offset coefficient	1.0000multiplexer slope coefficient	1.0000fibre end	0.00T internal ref (°C)	29.66T ext. ref 1 (°C)	3.73T ext. ref 2 (°C)	24.25length (m)	temperature (°C)	Stokes	anti-Stokes-747.200	-200.000	0.006	0.114
-746.185	-93.557	-0.195	-0.054
-745.171	2.603	0.206	-0.151
-744.156	26.353	-0.150	-0.127
-743.142	753.078	0.067	-0.183
-742.127	146.753	0.121	0.164
-741.112	-200.000	-0.036	0.234
-740.098	-186.264	-0.124	-0.002
-739.083	63.291	0.113	-0.114
-738.069	-151.992	-0.356	-0.026
-737.054	365.749	-0.067	0.137
-736.039	-200.000	-0.028	0.134
-735.025	32.066	-0.190	-0.165
-734.010	-183.042	-0.173	0.003
-732.996	-85.628	-0.266	-0.083
-731.981	246.571	0.100	-0.170
-730.966	-55.335	-0.115	-0.052
-729.952	-200.000	0.066	-0.350
-728.937	-48.438	-0.240	0.117
-727.923	-133.192	0.119	0.015
-726.908	800.000	-0.077	-0.298
-725.894	-44.675	-0.359	-0.181
-724.879	300.277	-0.129	-0.240
-723.864	15.862	0.208	0.165
-722.850	35.277	-0.067	0.060
-721.835	800.000	0.036	-0.110
-720.821	799.772	-0.048	0.134
-719.806	-2.236	-0.221	-0.157
-718.791	-85.988	0.037	0.012
-717.777	800.000	-0.052	-0.209
-716.762	-125.682	-0.208	-0.032
-715.748	800.000	-0.069	-0.267
-714.733	-25.748	0.199	0.118
-713.718	-36.928	0.271	-0.146
-712.704	93.288	0.130	0.148
-711.689	-130.806	-0.441	-0.060
-710.675	48.672	-0.081	-0.077
-709.660	-155.691	-0.322	0.021
-708.645	-45.044	-0.106	-0.053
-707.631	800.000	-0.071	0.250
-706.616	800.000	0.105	0.327
-705.602	731.355	0.100	-0.269
-704.587	-158.467	-0.214	0.012
-703.572	-162.420	-0.108	-0.005
-702.558	287.401	-0.103	-0.188
-701.543	109.691	0.152	-0.183
-700.529	52.767	-0.102	0.098
-699.514	-30.575	-0.051	-0.029
-698.499	-160.020	0.089	0.005
-697.485	-56.784	0.204	-0.091
-696.470	-200.000	-0.039	0.225
-695.456	800.000	-0.030	-0.123
-694.441	-102.466	-0.212	0.051
-693.426	-62.567	0.065	-0.027
-692.412	56.903	-0.066	-0.065
-691.397	163.296	-0.070	0.099
-690.383	-8.266	-0.288	0.195
-689.368	149.110	-0.192	0.261
-688.354	-149.830	-0.298	-0.023
-687.339	-70.329	0.194	0.074
-686.324	-97.297	-0.454	0.119
-685.310	109.995	-0.254	-0.306
-684.295	-200.000	-0.021	0.133
-683.281	255.349	-0.148	-0.254
-682.266	8.396	-0.011	-0.008
-681.251	77.019	-0.203	0.217
-680.237	243.337	0.064	-0.108
-679.222	8.100	-0.148	-0.112
-678.208	225.750	-0.087	-0.142
-677.193	192.491	-0.192	0.292
-676.178	-200.000	0.011	-0.315
-675.164	49.637	-0.099	-0.094
-674.149	-28.060	-0.146	0.085
-673.135	-105.156	0.361	-0.083
-672.120	-138.795	-0.156	0.017
-671.105	-20.952	-0.176	-0.108
-670.091	521.142	0.087	-0.204
-669.076	353.965	0.071	-0.141
-668.062	-200.000	0.049	-0.258
-667.047	63.294	-0.103	0.103
-666.032	431.300	0.083	0.182
-665.018	179.472	-0.210	-0.309
-664.003	-110.414	-0.207	-0.043
-662.989	-49.829	-0.207	-0.099
-661.974	236.864	0.107	-0.177
-660.959	734.310	-0.079	0.213
-659.945	-176.692	-0.369	0.009
-658.930	-111.456	-0.043	0.009
-657.916	-103.370	0.050	-0.012
-656.901	305.406	-0.059	-0.110
-655.886	-95.253	0.234	0.063
-654.872	-134.432	0.278	-0.034
-653.857	55.699	-0.155	-0.151
-652.843	-71.749	-0.141	0.053
-651.828	-163.775	-0.092	-0.004
-650.814	311.718	-0.148	0.278
-649.799	28.684	-0.242	0.206
-648.784	-194.479	-0.244	-0.002
-647.770	-151.915	-0.283	-0.021
-646.755	-181.129	0.258	0.005
-645.741	-28.735	0.075	-0.043
-644.726	31.932	0.138	0.120
-643.711	763.746	-0.053	0.143
-642.697	-34.778	0.186	-0.102
-641.682	17.901	-0.311	0.249
-640.668	-81.316	-0.159	0.053
-639.653	-57.031	-0.087	0.039
-638.638	800.000	0.058	0.175
-637.624	-71.736	0.181	-0.068
-636.609	314.787	0.012	-0.023
-635.595	-117.880	-0.209	-0.038
-634.580	-22.772	-0.288	0.174
-633.565	-114.714	-0.089	-0.017
-632.551	367.407	-0.056	-0.113
-631.536	-67.977	-0.179	0.070
-630.522	-159.380	-0.172	0.010
-629.507	-4.781	0.035	-0.024
-628.492	-200.000	-0.042	0.223
-627.478	-200.000	-0.002	0.175
-626.463	800.000	-0.090	0.328
-625.449	-102.585	0.189	0.045
-624.434	252.812	0.051	0.087
-623.419	349.892	-0.192	-0.381
-622.405	60.001	-0.109	-0.108
-621.390	-170.977	0.478	-0.016
-620.376	800.000	0.034	-0.094
-619.361	-16.718	-0.211	0.134
-618.346	51.383	-0.328	-0.312
-617.332	800.000	0.034	0.132
-616.317	-68.429	-0.328	0.128
-615.303	24.193	-0.280	-0.232
-614.288	142.683	0.157	-0.210
-613.273	800.000	-0.084	0.250
-612.259	91.892	-0.139	-0.157
-611.244	2.833	-0.111	0.081
-610.230	38.251	0.121	-0.108
-609.215	-141.357	-0.049	0.005
-608.201	800.000	-0.100	-0.318
-607.186	-200.000	-0.005	0.286
-606.171	28.285	0.097	-0.082
-605.157	140.381	0.167	0.221
-604.142	591.153	-0.072	0.179
-603.128	423.693	-0.039	-0.083
-602.113	800.000	-0.050	0.140
-601.098	-153.698	-0.260	0.018
-600.084	-1.395	0.110	0.078
-599.069	-200.000	0.007	0.502
-598.055	-79.038	-0.292	-0.100
-597.040	-68.806	0.072	0.028
-596.025	-200.000	-0.059	0.276
-595.011	-156.851	-0.101	0.006
-593.996	-200.000	-0.012	-0.108
-592.982	611.242	-0.071	0.177
-591.967	-177.139	-0.191	-0.005
-590.952	473.765	0.067	-0.152
-589.938	-200.000	0.039	-0.190
-588.923	63.492	0.055	-0.055
-587.909	-64.884	-0.012	0.005
-586.894	-200.000	0.005	0.152
-585.879	-32.825	0.066	-0.037
-584.865	-21.604	0.063	-0.038
-583.850	-87.001	0.214	-0.065
-582.836	-120.896	0.294	-0.050
-581.821	-136.410	0.116	-0.014
-580.806	-88.901	0.287	-0.085
-579.792	800.000	0.012	-0.037
-578.777	800.000	-0.050	0.183
-577.763	800.000	-0.075	-0.270
-576.748	-89.894	0.305	-0.089
-575.733	224.864	0.149	-0.241
-574.719	70.502	-0.218	-0.226
-573.704	-200.000	-0.046	-0.260
-572.690	156.944	-0.058	0.080
-571.675	-77.900	0.426	0.147
-570.661	98.710	0.071	0.081
-569.646	11.924	-0.123	0.095
-568.631	127.273	0.045	-0.057
-567.617	-11.251	-0.272	0.179
-566.602	319.910	-0.149	-0.284
-565.588	107.658	-0.089	-0.106
-564.573	213.441	-0.127	0.201
-563.558	51.239	0.111	-0.105
-562.544	-66.533	-0.133	0.053
-561.529	-75.174	-0.152	0.054
-560.515	-83.144	0.111	0.036
-559.500	-200.000	0.002	-0.128
-558.485	-20.624	0.126	0.077
-557.471	-4.648	-0.083	-0.057
-556.456	95.867	-0.089	-0.101
-555.442	157.472	-0.110	-0.152
-554.427	78.556	0.254	0.271
-553.412	-100.334	-0.408	0.101
-552.398	-200.000	-0.002	-0.201
-551.383	-16.923	-0.255	0.161
-550.369	56.038	0.205	-0.199
-549.354	163.271	-0.129	-0.182
-548.339	519.046	0.034	0.081
-547.325	42.290	0.113	-0.103
-546.310	151.175	0.129	-0.176
-545.296	130.786	-0.140	0.179
-544.281	-134.293	-0.253	0.031
-543.266	111.435	0.156	-0.188
-542.252	13.064	-0.094	-0.073
-541.237	-112.343	-0.277	-0.056
-540.223	-134.055	-0.283	-0.035
-539.208	-200.000	0.074	0.461
-538.193	58.365	-0.091	-0.089
-537.179	800.000	-0.023	0.071
-536.164	427.968	-0.033	0.071
-535.150	-200.000	-0.006	-0.144
-534.135	-64.877	0.068	0.027
-533.121	257.277	0.078	0.134
-532.106	-90.629	-0.360	-0.104
-531.091	352.871	0.087	0.173
-530.077	-96.217	-0.058	-0.015
-529.062	200.901	0.124	0.191
-528.048	800.000	-0.073	-0.266
-527.033	-133.002	-0.393	0.050
-526.018	-81.351	0.264	0.087
-525.004	768.063	-0.071	-0.192
-523.989	-32.600	-0.202	-0.113
-522.975	574.228	-0.060	0.147
-521.960	-128.394	0.122	-0.017
-520.945	800.000	0.032	-0.090
-519.931	-200.000	0.012	0.189
-518.916	19.627	-0.324	-0.260
-517.902	252.542	-0.041	0.069
-516.887	-200.000	0.017	-0.202
-515.872	-200.000	0.015	0.321
-514.858	137.053	0.156	0.203
-513.843	-94.607	-0.557	0.151
-512.829	-31.306	0.133	0.075
-511.814	-80.404	0.060	-0.020
-510.799	-191.091	0.198	0.002
-509.785	260.289	0.164	0.283
-508.770	170.499	0.021	-0.030
-507.756	11.275	-0.058	-0.044
-506.741	-1.059	0.231	-0.163
-505.726	95.745	-0.209	0.238
-504.712	-200.000	0.017	-0.354
-503.697	96.404	-0.102	0.117
-502.683	-200.000	-0.036	0.206
-501.668	60.925	0.256	-0.254
-500.653	-200.000	0.027	0.258
-499.639	-102.332	-0.175	-0.042
-498.624	-53.194	-0.424	0.194
-497.610	23.290	-0.359	-0.295
-496.595	800.000	0.040	-0.154
-495.581	-200.000	0.098	-0.455
-494.566	48.815	-0.125	-0.117
-493.551	129.868	-0.142	0.181
-492.537	-114.636	-0.088	0.017
-491.522	115.689	-0.043	0.053
-490.508	-56.789	0.109	-0.048
-489.493	50.041	0.149	0.140
-488.478	-116.465	-0.278	0.051
-487.464	221.223	-0.239	-0.383
-486.449	110.130	0.234	0.280
-485.435	7.494	0.225	-0.168
-484.420	-26.297	-0.233	-0.137
-483.405	-42.179	-0.131	0.067
-482.391	88.859	-0.128	0.143
-481.376	800.000	0.044	-0.129
-480.362	800.000	0.090	0.299
-479.347	-26.812	-0.074	-0.043
-478.332	-4.820	-0.083	0.057
-477.318	-200.000	-0.069	0.334
-476.303	231.139	0.013	-0.022
-475.289	-95.380	0.111	-0.030
-474.274	44.451	-0.066	-0.061
-473.259	111.904	-0.223	-0.268
-472.245	-88.288	0.166	0.049
-471.230	625.307	0.017	-0.043
-470.216	-48.195	0.323	0.155
-469.201	-33.064	0.184	-0.102
-468.186	188.796	0.017	0.025
-467.172	90.167	0.272	-0.304
-466.157	-200.000	0.028	-0.153
-465.143	-200.000	0.010	0.188
-464.128	800.000	-0.062	-0.210
-463.113	-47.777	0.208	-0.100
-462.099	800.000	-0.066	-0.204
-461.084	800.000	-0.078	-0.294
-460.070	-52.385	0.108	-0.050
-459.055	-106.322	-0.151	0.034
-458.040	-200.000	0.029	-0.213
-457.026	173.485	0.179	0.258
-456.011	800.000	-0.055	0.225
-454.997	75.992	0.199	-0.210
-453.982	-130.817	0.205	0.027
-452.968	-6.656	0.252	-0.171
-451.953	-200.000	-0.008	0.070
-450.938	800.000	-0.123	0.443
-449.924	-200.000	0.038	0.517
-448.909	-200.000	0.012	0.280
-447.895	49.739	-0.048	0.045
-446.880	185.316	0.027	0.040
-445.865	-186.379	-0.250	-0.004
-444.851	800.000	0.116	-0.498
-443.836	-167.116	-0.111	-0.004
-442.822	-200.000	-0.027	-0.464
-441.807	286.128	0.102	-0.183
-440.792	-200.000	0.004	-0.149
-439.778	-200.000	-0.070	-0.334
-438.763	-200.000	-0.000	-0.392
-437.749	-126.110	-0.183	0.027
-436.734	646.865	0.064	-0.162
-435.719	-26.045	0.087	-0.051
-434.705	800.000	0.007	0.023
-433.690	-200.000	-0.046	-0.279
-432.676	351.516	0.143	-0.282
-431.661	-131.363	-0.172	0.023
-430.646	234.409	0.080	0.132
-429.632	-200.000	-0.007	0.143
-428.617	51.631	0.313	-0.296
-427.603	-163.484	-0.251	0.012
-426.588	-200.000	0.019	-0.224
-425.573	0.031	0.229	-0.162
-424.559	-87.679	-0.242	-0.073
-423.544	-200.000	0.010	0.077
-422.530	12.769	0.045	-0.035
-421.515	197.342	0.059	0.090
-420.500	68.713	0.122	0.125
-419.486	294.824	0.118	0.216
-418.471	-200.000	0.017	-0.106
-417.457	-90.261	0.062	-0.018
-416.442	237.845	-0.135	0.224
-415.428	80.445	0.183	0.196
-414.413	-200.000	0.014	-0.352
-413.398	800.000	-0.085	0.253
-412.384	204.118	0.094	-0.145
-411.369	-200.000	0.011	0.150
-410.355	-118.957	-0.214	-0.037
-409.340	16.988	-0.023	0.018
-408.325	800.000	0.064	-0.228
-407.311	-107.677	0.085	0.019
-406.296	-200.000	-0.015	-0.244
-405.282	54.234	-0.034	0.032
-404.267	-106.047	0.118	-0.026
-403.252	58.408	0.069	-0.068
-402.238	176.047	-0.108	-0.156
-401.223	-16.446	-0.083	-0.053
-400.209	-86.748	0.397	-0.121
-399.194	-145.241	0.119	-0.011
-398.179	18.083	0.132	-0.105
-397.165	249.973	-0.185	0.312
-396.150	-56.252	0.132	0.058
-395.136	-56.650	-0.076	0.033
-394.121	-200.000	0.024	-0.238
-393.106	-20.403	-0.237	0.145
-392.092	800.000	-0.068	0.269
-391.077	800.000	0.047	0.173
-390.063	800.000	-0.058	0.238
-389.048	208.885	0.174	0.270
-388.033	190.150	0.167	0.250
-387.019	-140.662	0.169	-0.017
-386.004	397.523	-0.035	-0.072
-384.990	-200.000	0.066	-0.319
-383.975	10.759	-0.213	0.161
-382.960	428.846	-0.044	0.094
-381.946	156.293	0.132	-0.181
-380.931	-200.000	-0.017	0.315
-379.917	628.316	-0.042	0.104
-378.902	-200.000	0.017	0.143
-377.888	49.174	0.094	-0.088
-376.873	-26.311	0.175	-0.102
-375.858	178.057	0.027	-0.039
-374.844	-181.254	-0.187	0.004
-373.829	-52.594	-0.215	0.099
-372.815	800.000	0.048	-0.158
-371.800	137.265	-0.089	0.115
-370.785	-143.437	-0.360	-0.034
-369.771	800.000	0.108	0.415
-368.756	-160.597	-0.120	0.006
-367.742	214.338	-0.037	0.058
-366.727	-200.000	-0.113	-0.507
-365.712	-200.000	-0.008	0.131
-364.698	-51.762	0.235	-0.109
-363.683	-200.000	-0.054	-0.281
-362.669	5.662	0.183	-0.135
-361.654	-134.307	-0.219	-0.027
-360.639	143.881	0.092	-0.121
-359.625	-82.943	-0.241	0.077
-358.610	-13.264	-0.123	0.079
-357.596	683.090	-0.048	0.125
-356.581	-32.598	-0.097	0.054
-355.566	-80.013	0.350	-0.117
-354.552	-200.000	0.018	-0.173
-353.537	-59.014	0.171	0.073
-352.523	-175.135	0.290	0.008
-351.508	-121.080	0.105	0.018
-350.493	307.168	-0.047	0.086
-349.479	-82.255	0.081	0.026
-348.464	-98.831	0.089	0.023
-347.450	-14.151	-0.096	0.061
-346.435	257.176	-0.127	-0.217
-345.420	420.957	-0.126	0.268
-344.406	25.722	0.351	0.290
-343.391	-82.570	0.443	0.143
-342.377	-34.689	0.213	-0.116
-341.362	-121.752	0.147	0.024
-340.348	-200.000	-0.002	0.271
-339.333	-187.880	0.309	0.004
-338.318	-200.000	0.035	0.230
-337.304	84.614	0.133	-0.144
-336.289	53.620	-0.018	0.017
-335.275	7.648	-0.405	-0.301
-334.260	-61.066	0.225	-0.094
-333.245	-93.745	-0.222	-0.061
-332.231	-1.761	0.332	0.232
-331.216	7.643	-0.069	0.051
-330.202	-99.940	-0.376	0.093
-329.187	18.120	-0.347	0.274
-328.172	-200.000	-0.043	0.304
-327.158	-80.529	-0.255	0.084
-326.143	-25.384	0.148	-0.087
-325.129	403.893	0.144	0.302
-324.114	98.172	0.181	0.207
-323.099	800.000	0.042	0.160
-322.085	-200.000	-0.020	0.129
-321.070	-200.000	-0.052	-0.317
-320.056	285.983	0.171	-0.305
-319.041	-200.000	0.008	-0.218
-318.026	102.932	0.014	0.016
-317.012	328.322	0.299	-0.570
-315.997	-200.000	-0.009	-0.140
-314.983	-54.243	0.211	0.095
-313.968	-12.378	-0.141	-0.091
-312.953	-140.664	-0.068	0.007
-311.939	7.776	0.216	-0.160
-310.924	-5.982	-0.130	-0.088
-309.910	60.677	0.432	0.424
-308.895	643.672	-0.061	-0.155
-307.880	-200.000	0.017	-0.102
-306.866	93.205	-0.116	0.130
-305.851	-77.224	0.085	-0.029
-304.837	16.302	-0.118	0.093
-303.822	143.608	-0.092	-0.121
-302.807	-82.415	-0.024	-0.008
-301.793	-146.442	-0.069	-0.006
-300.778	-75.447	-0.195	0.069
-299.764	-2.583	-0.126	-0.087
-298.749	215.888	-0.023	0.037
-297.735	-35.606	0.084	0.045
-296.720	-14.404	0.128	-0.082
-295.705	-200.000	0.003	-0.108
-294.691	-200.000	0.010	-0.072
-293.676	-200.000	0.005	0.108
-292.662	150.063	-0.121	0.163
-291.647	159.534	0.110	0.152
-290.632	-101.393	-0.054	-0.013
-289.618	-66.832	0.020	0.008
-288.603	-122.073	0.287	0.047
-287.589	708.907	0.008	-0.022
-286.574	-200.000	0.089	-0.403
-285.559	62.862	-0.201	-0.199
-284.545	-200.000	-0.012	0.113
-283.530	-55.577	-0.258	-0.114
-282.516	159.084	-0.184	0.254
-281.501	151.467	-0.144	0.194
-280.486	305.856	0.089	0.164
-279.472	-106.417	-0.199	-0.044
-278.457	33.502	0.197	-0.170
-277.443	-19.388	0.179	0.110
-276.428	-90.536	0.044	-0.013
-275.413	-142.854	-0.293	-0.028
-274.399	-3.464	0.128	-0.088
-273.384	-40.260	0.239	0.123
-272.370	-34.899	-0.059	0.032
-271.355	-103.453	-0.275	-0.064
-270.340	-200.000	0.022	0.113
-269.326	246.986	-0.039	0.065
-268.311	-200.000	-0.076	-0.331
-267.297	-200.000	-0.012	0.095
-266.282	-200.000	-0.004	0.116
-265.267	-5.824	-0.089	0.060
-264.253	-200.000	0.019	0.296
-263.238	279.157	-0.149	-0.262
-262.224	51.020	-0.160	-0.150
-261.209	-170.845	-0.206	-0.007
-260.195	-55.416	0.138	0.061
-259.180	800.000	0.054	0.213
-258.165	800.000	-0.020	0.076
-257.151	531.455	-0.014	0.034
-256.136	800.000	-0.064	-0.243
-255.122	-107.055	-0.055	-0.012
-254.107	-93.912	0.445	0.121
-253.092	64.145	0.019	0.019
-252.078	304.077	0.028	0.051
-251.063	-85.857	-0.233	0.071
-250.049	-114.316	0.259	0.049
-249.034	-200.000	-0.021	-0.158
-248.019	-149.743	-0.170	0.013
-247.005	-11.737	0.060	0.039
-245.990	198.428	-0.045	-0.068
-244.976	172.785	0.107	0.152
-243.961	27.623	0.296	0.247
-242.946	-0.871	0.029	0.020
-241.932	174.305	-0.067	-0.096
-240.917	-69.311	-0.064	0.024
-239.903	195.726	-0.076	0.115
-238.888	-82.612	0.296	0.095
-237.873	4.742	-0.167	0.121
-236.859	-200.000	0.044	-0.206
-235.844	-143.176	-0.298	0.028
-234.830	142.498	0.071	-0.093
-233.815	23.780	0.086	-0.070
-232.800	-167.425	0.383	-0.015
-231.786	557.472	0.065	0.156
-230.771	-200.000	-0.039	-0.264
-229.757	-138.073	-0.285	0.031
-228.742	800.000	0.047	-0.182
-227.727	99.927	-0.077	0.088
-226.713	333.492	0.101	0.193
-225.698	99.001	0.186	0.212
-224.684	-35.039	0.389	0.209
-223.669	27.810	-0.334	-0.278
-222.655	-165.632	0.150	-0.006
-221.640	-74.149	0.328	0.117
-220.625	671.209	-0.112	0.287
-219.611	-118.511	0.082	0.014
-218.596	727.184	-0.053	-0.140
-217.582	-200.000	0.035	0.243
-216.567	-14.387	0.116	-0.074
-215.552	-140.842	0.044	-0.004
-214.538	-127.472	0.191	-0.027
-213.523	-126.592	0.112	0.016
-212.509	-70.307	0.429	0.161
-211.494	215.178	-0.194	0.303
-210.479	-46.368	-0.248	0.120
-209.465	145.062	0.171	-0.226
-208.450	-68.890	0.055	-0.021
-207.436	-25.354	0.059	0.034
-206.421	356.429	0.141	-0.278
-205.406	800.000	-0.023	0.094
-204.392	800.000	-0.130	-0.394
-203.377	-32.402	-0.034	-0.019
-202.363	-39.707	0.074	0.038
-201.348	800.000	-0.115	0.313
-200.333	-131.723	0.305	0.039
-199.319	99.786	0.222	0.254
-198.304	-15.474	-0.269	-0.169
-197.290	-187.685	0.227	0.003
-196.275	-47.635	0.147	0.070
-195.260	-135.369	0.163	0.019
-194.246	729.553	-0.108	0.285
-193.231	-200.000	0.090	-0.411
-192.217	-142.528	-0.419	-0.041
-191.202	-200.000	0.011	-0.051
-190.187	-200.000	-0.051	-0.317
-189.173	0.571	0.288	0.203
-188.158	800.000	-0.030	-0.097
-187.144	30.921	0.177	0.149
-186.129	800.000	0.067	-0.265
-185.114	190.173	0.043	-0.064
-184.100	-83.792	0.210	0.066
-183.085	500.672	-0.094	-0.215
-182.071	-160.832	0.362	-0.019
-181.056	282.031	0.131	0.232
-180.042	-11.706	0.055	0.036
-179.027	-127.897	-0.345	-0.049
-178.012	-107.709	-0.351	-0.076
-176.998	122.003	0.058	0.071
-175.983	-123.130	0.155	0.024
-174.969	241.906	-0.103	-0.170
-173.954	-200.000	-0.022	-0.144
-172.939	-200.000	0.051	0.324
-171.925	-53.034	0.378	0.171
-170.910	-62.918	0.113	-0.046
-169.896	-175.298	0.089	-0.002
-168.881	-167.724	0.061	-0.002
-167.866	-200.000	0.007	0.158
-166.852	31.087	0.076	0.064
-165.837	-60.252	-0.348	-0.146
-164.823	-33.973	-0.274	-0.149
-163.808	-46.355	0.180	-0.087
-162.793	-135.080	0.339	-0.040
-161.779	-17.039	-0.231	0.144
-160.764	669.086	-0.030	0.077
-159.750	800.000	0.048	-0.154
-158.735	-200.000	-0.010	0.051
-157.720	-200.000	-0.011	-0.212
-156.706	-140.592	-0.360	-0.037
-155.691	416.142	0.041	0.086
-154.677	75.711	0.087	-0.091
-153.662	800.000	0.078	-0.217
-152.647	-200.000	-0.469	-0.000
-151.633	-88.377	0.189	-0.056
-150.618	-200.000	-0.082	0.457
-149.604	49.294	0.166	0.154
-148.589	121.770	-0.105	0.129
-147.574	-200.000	-0.026	-0.134
-146.560	800.000	-0.092	0.280
-145.545	52.647	-0.227	-0.213
-144.531	-200.000	-0.009	0.086
-143.516	-200.000	0.101	0.466
-142.502	13.702	-0.170	-0.130
-141.487	-132.047	-0.328	0.042
-140.472	314.110	-0.155	-0.288
-139.458	-200.000	-0.011	-0.129
-138.443	-124.078	-0.117	-0.018
-137.429	-200.000	0.021	-0.271
-136.414	63.621	-0.102	0.101
-135.399	-173.504	0.326	-0.010
-134.385	-96.888	-0.119	0.031
-133.370	426.930	-0.117	0.248
-132.356	-87.149	0.157	-0.047
-131.341	38.552	-0.303	-0.266
-130.326	-200.000	0.016	-0.184
-129.312	-200.000	0.009	0.090
-128.297	-200.000	0.026	0.178
-127.283	-200.000	0.001	0.059
-126.268	210.235	0.056	0.086
-125.253	16.645	0.091	0.071
-124.239	-9.814	-0.209	0.137
-123.224	-0.711	-0.226	-0.158
-122.210	-7.590	0.150	-0.100
