DTS Sentinel unit serial number:	SN413079Multiplexer serial number:	ORYXHardware model number:	OX4-SRSoftware version number:	ORYX F/W v4.00 Oryx Data Collector v3.7.2.0data status	okinstallation	princeton_trtdifferential loss correction	single-endedforward channel	channel 3reverse channel	N/Adate	2019/09/14time	05:24:35forward acquisition time	60.00reverse acquisition time	0.00gamma	496.2192k internal	0.2337k external	0.2337temperature offset calibration	1.0055default loss term (dB/km)	0.3790temperature slope calibration	1.0000multiplexer offset coefficient	1.0000multiplexer slope coefficient	1.0000fibre end	0.00T internal ref (°C)	26.94T ext. ref 1 (°C)	3.38T ext. ref 2 (°C)	21.92length (m)	temperature (°C)	Stokes	anti-Stokes-747.200	-33.591	-0.144	-0.080
-746.185	-49.104	-0.203	-0.098
-745.171	-200.000	0.028	0.208
-744.156	-105.747	-0.362	0.082
-743.142	41.212	-0.262	0.238
-742.127	-30.805	-0.270	-0.153
-741.112	327.840	-0.088	0.170
-740.098	-141.283	0.117	0.012
-739.083	-90.920	0.634	-0.183
-738.069	800.000	-0.064	0.270
-737.054	-200.000	0.050	0.284
-736.039	-109.173	0.238	-0.051
-735.025	-126.594	0.308	0.046
-734.010	283.834	0.031	-0.056
-732.996	78.853	-0.015	-0.016
-731.981	-200.000	0.047	0.497
-730.966	300.561	0.080	-0.149
-729.952	-16.073	0.230	-0.147
-728.937	-54.677	-0.267	-0.121
-727.923	-113.222	-0.116	0.023
-726.908	-200.000	0.003	0.364
-725.894	-162.800	-0.092	-0.005
-724.879	477.821	0.044	-0.101
-723.864	404.255	0.042	0.089
-722.850	-39.288	-0.324	-0.171
-721.835	120.344	-0.129	-0.161
-720.821	55.785	0.342	-0.332
-719.806	633.845	-0.119	-0.304
-718.791	-4.702	0.051	0.035
-717.777	800.000	-0.157	-0.485
-716.762	208.493	0.066	-0.104
-715.748	70.746	0.099	0.102
-714.733	800.000	-0.006	0.024
-713.718	-167.442	-0.154	0.006
-712.704	800.000	0.039	-0.114
-711.689	-111.418	0.087	-0.018
-710.675	-153.016	-0.195	-0.014
-709.660	20.240	-0.249	0.201
-708.645	-35.610	0.068	-0.037
-707.631	39.738	0.106	0.095
-706.616	-40.862	-0.116	-0.060
-705.602	1.102	-0.267	-0.192
-704.587	-81.079	-0.239	0.079
-703.572	-134.665	-0.063	0.008
-702.558	65.925	0.219	-0.223
-701.543	800.000	-0.123	-0.484
-700.529	50.054	-0.136	-0.129
-699.514	-60.289	0.326	0.139
-698.499	-39.055	-0.228	0.120
-697.485	-25.807	-0.313	-0.185
-696.470	30.391	-0.306	-0.262
-695.456	462.473	-0.028	0.062
-694.441	-200.000	0.053	0.291
-693.426	284.912	0.123	-0.222
-692.412	-44.620	-0.173	-0.087
-691.397	-45.665	0.160	-0.079
-690.383	442.616	0.146	-0.321
-689.368	-174.261	0.671	-0.020
-688.354	50.998	0.155	0.147
-687.339	-200.000	0.030	-0.369
-686.324	-94.849	0.319	0.087
-685.310	-10.725	0.252	-0.167
-684.295	-49.022	-0.213	-0.102
-683.281	-149.951	-0.218	0.017
-682.266	-69.637	-0.241	-0.092
-681.251	-6.722	-0.267	-0.182
-680.237	146.400	0.095	0.128
-679.222	-170.744	-0.101	0.004
-678.208	800.000	-0.019	0.067
-677.193	800.000	-0.100	0.304
-676.178	274.279	0.142	0.251
-675.164	-70.035	-0.216	0.082
-674.149	57.849	0.033	0.032
-673.135	-35.917	0.238	-0.129
-672.120	-200.000	-0.059	-0.318
-671.105	800.000	0.105	-0.335
-670.091	-200.000	-0.028	0.216
-669.076	210.652	0.064	0.100
-668.062	150.186	-0.243	-0.331
-667.047	-200.000	-0.010	0.061
-666.032	800.000	-0.110	-0.349
-665.018	-45.804	0.082	0.040
-664.003	-181.086	-0.342	0.007
-662.989	-109.041	0.031	-0.007
-661.974	86.245	0.256	0.282
-660.959	-35.193	-0.138	0.075
-659.945	-87.570	0.223	-0.067
-658.930	20.904	-0.100	-0.081
-657.916	-47.000	0.273	-0.133
-656.901	800.000	0.069	0.198
-655.886	800.000	-0.058	0.175
-654.872	56.016	0.105	0.102
-653.857	473.475	0.199	-0.448
-652.843	-17.212	-0.527	-0.332
-651.828	-56.080	-0.208	-0.093
-650.814	361.804	0.091	-0.183
-649.799	-200.000	0.019	0.245
-648.784	-167.289	0.186	0.008
-647.770	-155.122	0.034	-0.002
-646.755	121.831	-0.047	-0.058
-645.741	91.370	0.246	0.277
-644.726	-163.523	-0.274	-0.013
-643.711	-110.357	-0.383	-0.080
-642.697	-18.768	0.062	0.039
-641.682	-125.049	-0.177	-0.027
-640.668	177.859	0.053	0.077
-639.653	63.357	-0.246	-0.246
-638.638	-200.000	-0.014	-0.094
-637.624	2.449	0.181	-0.131
-636.609	78.986	-0.217	-0.232
-635.595	601.401	-0.092	-0.229
-634.580	13.329	0.071	-0.055
-633.565	-89.255	-0.081	0.024
-632.551	-49.439	0.146	0.070
-631.536	758.483	-0.054	-0.146
-630.522	25.945	0.263	-0.219
-629.507	67.262	-0.143	0.146
-628.492	-200.000	0.021	0.135
-627.478	60.914	0.256	-0.254
-626.463	-101.125	-0.266	-0.065
-625.449	199.918	-0.171	0.262
-624.434	-149.169	-0.248	0.020
-623.419	64.508	0.152	-0.153
-622.405	740.237	-0.072	0.194
-621.390	-119.345	-0.162	-0.028
-620.376	-200.000	-0.071	-0.317
-619.361	-91.478	-0.284	0.081
-618.346	-37.816	0.199	-0.106
-617.332	112.551	-0.166	0.201
-616.317	-200.000	0.026	0.291
-615.303	-120.924	0.278	-0.047
-614.288	-200.000	0.059	-0.551
-613.273	-58.311	-0.156	-0.068
-612.259	-0.988	0.287	0.203
-611.244	299.272	-0.060	0.110
-610.230	187.018	0.137	-0.204
-609.215	-42.310	0.143	-0.073
-608.201	-7.727	-0.146	-0.099
-607.186	-132.070	0.208	-0.027
-606.171	-200.000	0.004	-0.140
-605.157	384.081	0.173	-0.356
-604.142	134.541	-0.122	-0.158
-603.128	140.672	-0.131	0.173
-602.113	-90.380	-0.063	0.018
-601.098	-115.319	0.081	-0.015
-600.084	73.783	-0.175	-0.183
-599.069	13.483	-0.132	-0.102
-598.055	-80.125	0.270	0.090
-597.040	507.544	0.088	0.203
-596.025	-44.684	0.331	0.165
-595.011	-121.563	-0.146	-0.024
-593.996	-200.000	-0.012	-0.145
-592.982	-185.907	-0.302	0.004
-591.967	-200.000	-0.029	-0.135
-590.952	-41.296	0.311	-0.160
-589.938	308.121	-0.131	-0.245
-588.923	606.317	0.085	0.211
-587.909	-200.000	-0.015	0.269
-586.894	-200.000	0.031	-0.174
-585.879	800.000	-0.092	0.331
-584.865	-39.512	0.146	0.076
-583.850	38.017	-0.062	-0.055
-582.836	-161.991	-0.298	0.015
-581.821	-200.000	0.006	-0.070
-580.806	420.000	-0.078	-0.168
-579.792	-200.000	-0.021	-0.256
-578.777	-200.000	0.010	0.056
-577.763	-161.371	0.214	-0.011
-576.748	800.000	0.040	-0.144
-575.733	800.000	0.060	0.226
-574.719	-45.897	0.161	-0.079
-573.704	-91.848	-0.122	-0.035
-572.690	-46.917	0.246	-0.120
-571.675	-200.000	-0.016	0.311
-570.661	-108.444	-0.113	0.024
-569.646	112.458	-0.172	0.207
-568.631	-109.277	-0.372	0.079
-567.617	726.105	-0.114	0.304
-566.602	-200.000	-0.014	0.152
-565.588	-200.000	-0.503	0.001
-564.573	270.046	0.125	-0.219
-563.558	121.621	0.185	-0.230
-562.544	-200.000	0.071	-0.316
-561.529	-200.000	0.019	0.135
-560.515	-200.000	-0.005	-0.064
-559.500	250.229	-0.179	-0.303
-558.485	-92.673	-0.265	-0.074
-557.471	800.000	-0.042	0.181
-556.456	-23.516	0.142	0.085
-555.442	800.000	-0.056	-0.208
-554.427	-200.000	-0.031	0.173
-553.412	33.268	-0.217	-0.188
-552.398	-200.000	-0.033	0.182
-551.383	800.000	-0.014	-0.052
-550.369	-120.217	-0.147	-0.025
-549.354	800.000	0.131	0.423
-548.339	591.228	0.120	0.296
-547.325	-34.696	0.137	-0.074
-546.310	38.778	0.323	-0.288
-545.296	-49.032	-0.275	0.131
-544.281	-200.000	0.011	-0.062
-543.266	-69.678	0.150	0.057
-542.252	-52.200	-0.179	-0.083
-541.237	149.060	0.120	-0.161
-540.223	83.818	0.055	-0.060
-539.208	-26.921	0.259	-0.150
-538.193	-50.928	-0.140	-0.065
-537.179	-107.774	-0.075	0.016
-536.164	-51.061	-0.208	0.097
-535.150	-10.097	0.241	0.159
-534.135	81.223	-0.054	-0.058
-533.121	800.000	0.025	-0.087
-532.106	132.816	-0.157	0.202
-531.091	-51.381	0.367	0.171
-530.077	-200.000	0.002	-0.050
-529.062	244.353	-0.092	0.154
-528.048	48.473	-0.155	-0.145
-527.033	11.463	0.113	0.086
-526.018	127.488	0.113	-0.142
-525.004	-101.459	-0.346	0.084
-523.989	82.152	-0.187	0.202
-522.975	-66.996	-0.231	0.091
-521.960	800.000	0.045	-0.143
-520.945	-3.244	-0.249	-0.173
-519.931	-68.529	0.100	0.038
-518.916	800.000	0.033	0.145
-517.902	-48.575	0.257	0.123
-516.887	177.807	0.136	-0.197
-515.872	-69.065	-0.219	-0.084
-514.858	-46.940	0.287	-0.140
-513.843	80.700	-0.218	-0.234
-512.829	125.736	0.183	-0.230
-511.814	-200.000	0.002	0.135
-510.799	14.480	-0.154	0.120
-509.785	105.334	-0.090	0.105
-508.770	-26.209	-0.122	-0.071
-507.756	-32.625	0.220	0.122
-506.741	241.593	-0.063	0.105
-505.726	-200.000	0.018	-0.261
-504.712	800.000	0.006	-0.020
-503.697	-90.691	-0.351	-0.101
-502.683	84.418	0.124	-0.134
-501.668	-200.000	-0.003	-0.046
-500.653	-114.689	-0.381	-0.073
-499.639	178.571	0.071	0.104
-498.624	-200.000	0.032	-0.414
-497.610	758.447	0.042	0.113
-496.595	-200.000	-0.069	0.331
-495.581	-68.322	0.204	-0.079
-494.566	800.000	-0.079	-0.259
-493.551	-200.000	0.062	0.000
-492.537	-110.426	0.123	0.025
-491.522	91.509	0.102	-0.114
-490.508	-58.627	0.185	0.080
-489.493	-200.000	-0.059	0.462
-488.478	439.117	0.212	0.460
-487.464	679.604	0.040	-0.103
-486.449	205.209	-0.017	-0.026
-485.435	185.244	-0.151	-0.222
-484.420	-95.958	-0.285	0.075
-483.405	360.031	-0.022	0.045
-482.391	116.046	-0.196	-0.239
-481.376	-200.000	-0.013	-0.082
-480.362	621.890	-0.124	0.311
-479.347	-16.146	-0.052	-0.033
-478.332	561.871	0.072	-0.174
-477.318	42.614	-0.252	-0.228
-476.303	177.667	0.173	-0.250
-475.289	-200.000	-0.013	-0.061
-474.274	494.121	0.119	-0.272
-473.259	-159.584	0.049	0.003
-472.245	-200.000	0.010	-0.215
-471.230	99.392	-0.124	-0.143
-470.216	122.565	0.172	0.214
-469.201	36.947	-0.138	0.122
-468.186	-200.000	-0.025	0.163
-467.172	-48.982	0.010	0.005
-466.157	54.145	0.060	-0.057
-465.143	-168.688	0.280	-0.011
-464.128	370.642	-0.104	0.209
-463.113	50.072	-0.086	0.080
-462.099	-95.998	-0.129	0.034
-461.084	190.922	0.119	0.178
-460.070	-200.000	-0.013	-0.069
-459.055	-161.291	0.369	-0.019
-458.040	-25.084	-0.057	-0.034
-457.026	15.980	0.133	-0.104
-456.011	-144.742	-0.115	-0.010
-454.997	23.008	0.036	0.029
-453.982	-110.298	0.048	-0.010
-452.968	485.466	-0.082	-0.186
-451.953	303.362	-0.081	0.149
-450.938	-45.293	0.218	0.107
-449.924	180.635	0.288	-0.420
-448.909	228.827	-0.229	0.370
-447.895	0.608	-0.234	-0.166
-446.880	-200.000	-0.048	0.258
-445.865	-83.463	-0.247	-0.079
-444.851	-11.624	0.216	0.141
-443.836	154.288	-0.233	0.318
-442.822	297.135	-0.085	0.155
-441.807	434.572	0.056	0.121
-440.792	82.246	-0.161	0.174
-439.778	165.141	0.145	0.203
-438.763	-200.000	-0.002	-0.247
-437.749	1.723	0.209	-0.149
-436.734	88.679	-0.226	-0.249
-435.719	30.040	-0.161	0.136
-434.705	-103.934	0.257	0.060
-433.690	38.038	-0.213	0.188
-432.676	-85.915	-0.192	0.059
-431.661	146.275	-0.095	0.126
-430.646	-200.000	-0.026	0.206
-429.632	28.851	-0.128	-0.107
-428.617	264.083	-0.047	-0.081
-427.603	-43.381	0.286	0.143
-426.588	252.154	0.060	-0.102
-425.573	4.498	0.018	-0.013
-424.559	-139.009	0.335	-0.036
-423.544	-200.000	0.009	-0.048
-422.530	-132.701	-0.082	0.010
-421.515	-57.556	-0.084	-0.037
-420.500	-200.000	-0.027	-0.139
-419.486	357.707	0.047	0.094
-418.471	-200.000	0.013	0.110
-417.457	339.923	0.156	-0.302
-416.442	-200.000	0.026	0.505
-415.428	-200.000	-0.002	-0.195
-414.413	-77.509	0.099	0.034
-413.398	-59.279	-0.205	-0.088
-412.384	-200.000	-0.075	-0.415
-411.369	-126.814	0.387	-0.057
-410.355	256.532	-0.176	-0.299
-409.340	162.459	0.178	-0.247
-408.325	-36.331	0.166	-0.088
-407.311	80.545	-0.061	-0.065
-406.296	-45.535	-0.185	0.091
-405.282	34.525	0.221	0.191
-404.267	202.966	0.151	-0.231
-403.252	50.510	0.238	-0.223
-402.238	-189.012	-0.223	-0.003
-401.223	435.503	-0.071	0.153
-400.209	-92.101	0.216	-0.061
-399.194	-200.000	0.003	-0.075
-398.179	22.671	-0.089	-0.072
-397.165	-17.545	0.018	-0.011
-396.150	-20.658	0.191	0.116
-395.136	-58.217	0.257	-0.111
-394.121	-117.447	0.337	-0.060
-393.106	94.915	-0.167	0.188
-392.092	800.000	-0.037	-0.107
-391.077	-200.000	0.020	0.125
-390.063	-50.034	0.203	-0.095
-389.048	338.559	-0.188	0.363
-388.033	800.000	0.021	-0.066
-387.019	154.565	-0.141	-0.192
-386.004	-200.000	0.006	-0.307
-384.990	218.657	-0.167	0.264
-383.975	389.520	-0.182	-0.374
-382.960	-200.000	-0.013	-0.080
-381.946	216.738	-0.071	0.112
-380.931	-105.803	-0.466	-0.104
-379.917	8.437	0.257	-0.191
-378.902	-200.000	-0.001	-0.296
-377.888	-29.578	0.144	0.081
-376.873	-21.413	0.244	0.147
-375.858	-54.981	0.413	-0.184
-374.844	-154.739	-0.177	-0.012
-373.829	442.796	0.118	-0.256
-372.815	-200.000	-0.008	0.243
-371.800	-118.465	-0.118	0.021
-370.785	-192.866	-0.043	0.000
-369.771	-100.517	0.105	-0.026
-368.756	-200.000	-0.064	-0.364
-367.742	-200.000	0.021	-0.208
-366.727	67.370	-0.077	0.077
-365.712	800.000	0.084	0.335
-364.698	225.535	0.070	-0.113
-363.683	68.505	0.151	0.154
-362.669	-150.521	0.377	-0.029
-361.654	-130.879	0.342	-0.045
-360.639	297.022	-0.054	0.099
-359.625	214.440	0.071	-0.111
-358.610	-72.796	-0.081	0.029
-357.596	502.985	-0.116	0.266
-356.581	101.803	0.210	0.242
-355.566	800.000	0.092	-0.281
-354.552	72.263	0.100	-0.102
-353.537	-101.177	-0.187	-0.045
-352.523	34.539	0.112	-0.097
-351.508	800.000	0.073	0.231
-350.493	-148.242	-0.163	0.013
-349.479	-8.197	-0.215	-0.143
-348.464	-125.200	0.216	0.033
-347.450	-200.000	0.043	0.193
-346.435	-15.414	-0.255	0.161
-345.420	-200.000	-0.019	0.244
-344.406	201.851	-0.084	-0.128
-343.391	-200.000	-0.027	-0.208
-342.377	-200.000	-0.010	-0.239
-341.362	81.848	0.409	0.438
-340.348	800.000	0.124	0.364
-339.333	-5.410	0.125	0.085
-338.318	575.451	0.094	0.226
-337.304	-77.597	0.210	-0.072
-336.289	10.720	-0.342	0.258
-335.275	-200.000	-0.041	0.249
-334.260	14.864	-0.084	0.065
-333.245	57.537	0.169	0.163
-332.231	-179.071	-0.251	-0.006
-331.216	296.543	-0.089	-0.161
-330.202	800.000	-0.054	0.207
-329.187	-135.795	-0.080	0.009
-328.172	-200.000	0.074	-0.399
-327.158	126.665	0.236	-0.295
-326.143	25.690	-0.207	0.171
-325.129	276.930	0.085	0.148
-324.114	-143.941	-0.162	0.015
-323.099	82.719	-0.054	-0.058
-322.085	605.677	-0.117	-0.288
-321.070	800.000	-0.045	-0.176
-320.056	56.803	0.138	0.133
-319.041	263.007	0.095	-0.164
-318.026	-23.918	0.271	-0.160
-317.012	-4.750	-0.184	0.125
-315.997	58.391	-0.223	-0.216
-314.983	191.049	0.243	-0.361
-313.968	122.293	-0.270	-0.332
-312.953	669.189	-0.048	0.122
-311.939	-200.000	-0.008	0.250
-310.924	-200.000	0.010	-0.410
-309.910	-67.943	-0.312	-0.120
-308.895	-15.419	-0.112	-0.070
-307.880	-200.000	0.069	0.321
-306.866	467.408	0.063	-0.138
-305.851	44.669	0.105	0.096
-304.837	-200.000	-0.015	0.137
-303.822	800.000	-0.063	0.248
-302.807	309.797	0.066	0.121
-301.793	-65.006	0.380	-0.151
-300.778	-64.632	-0.204	-0.081
-299.764	332.160	0.112	0.213
-298.749	800.000	-0.048	0.166
-297.735	-200.000	0.001	0.073
-296.720	-145.906	0.173	0.015
-295.705	-200.000	-0.023	0.224
-294.691	604.281	0.016	0.040
-293.676	487.039	0.122	0.275
-292.662	-95.411	0.099	0.026
-291.647	-200.000	0.019	0.127
-290.632	225.897	-0.158	0.252
-289.618	-182.606	0.341	-0.006
-288.603	800.000	0.059	0.179
-287.589	-102.563	-0.122	-0.029
-286.574	-18.767	-0.118	-0.073
-285.559	-47.223	0.141	0.068
-284.545	800.000	-0.013	-0.037
-283.530	-141.144	-0.073	-0.007
-282.516	193.895	-0.043	0.065
-281.501	-200.000	0.014	0.289
-280.486	159.445	0.154	0.211
-279.472	-180.204	0.205	0.004
-278.457	-75.188	0.109	0.038
-277.443	108.611	0.284	-0.334
-276.428	328.609	0.166	0.315
-275.413	235.517	0.033	0.054
-274.399	-200.000	0.045	0.257
-273.384	172.076	0.055	-0.077
-272.370	-60.708	0.206	0.086
-271.355	-153.890	-0.065	-0.004
-270.340	217.228	0.136	-0.214
-269.326	-167.345	-0.207	-0.008
-268.311	800.000	0.024	0.067
-267.297	-200.000	0.021	0.182
-266.282	-82.282	-0.122	0.039
-265.267	-80.182	-0.087	0.029
-264.253	-185.564	-0.219	0.003
-263.238	76.205	-0.009	-0.010
-262.224	-200.000	0.024	0.128
-261.209	249.532	-0.086	-0.143
-260.195	-200.000	-0.054	-0.271
-259.180	-41.528	0.133	0.067
-258.165	-58.555	0.382	-0.163
-257.151	-200.000	-0.002	-0.143
-256.136	119.097	0.224	0.272
-255.122	-182.310	0.174	-0.003
-254.107	-200.000	0.012	0.272
-253.092	-118.612	0.214	0.037
-252.078	31.254	0.293	-0.247
-251.063	195.746	-0.182	0.272
-250.049	-16.074	-0.368	0.231
-249.034	485.919	-0.156	-0.351
-248.019	800.000	-0.016	0.050
-247.005	152.566	0.310	0.416
-245.990	23.295	-0.112	0.091
-244.976	-80.714	0.079	0.026
-243.961	-99.637	0.408	-0.101
-242.946	127.374	0.091	-0.114
-241.932	800.000	-0.030	0.117
-240.917	232.141	0.083	-0.135
-239.903	325.572	-0.050	0.095
-238.888	-156.103	-0.178	0.011
-237.873	-73.249	-0.228	-0.082
-236.859	-200.000	0.062	0.335
-235.844	-200.000	-0.002	0.410
-234.830	-200.000	-0.018	-0.119
-233.815	-0.911	-0.041	-0.028
-232.800	252.292	0.090	-0.150
-231.786	-133.092	-0.385	0.048
-230.771	-200.000	0.038	-0.190
-229.757	7.253	-0.176	0.129
-228.742	-14.613	-0.298	0.188
-227.727	-30.038	-0.154	-0.086
-226.713	-200.000	-0.022	-0.265
-225.698	-101.729	0.309	0.074
-224.684	800.000	-0.040	0.122
-223.669	-58.107	0.211	-0.090
-222.655	163.230	-0.129	0.178
-221.640	119.576	-0.023	0.028
-220.625	-60.673	0.314	-0.131
-219.611	-28.477	-0.363	0.206
-218.596	-70.726	0.098	0.036
-217.582	-200.000	0.006	-0.296
-216.567	-76.723	-0.379	0.131
-215.552	192.519	0.139	-0.207
-214.538	800.000	-0.063	-0.268
-213.523	800.000	-0.021	0.081
-212.509	-109.500	0.083	0.017
-211.494	186.722	-0.098	0.144
-210.479	384.569	-0.091	-0.185
-209.465	83.004	-0.305	0.326
-208.450	-63.053	0.012	-0.005
-207.436	106.311	0.175	-0.204
-206.421	301.632	0.212	-0.384
-205.406	71.040	-0.059	-0.060
-204.392	800.000	-0.074	-0.276
-203.377	-35.588	-0.059	-0.031
-202.363	-200.000	-0.052	0.378
-201.348	162.932	-0.076	0.104
-200.333	-137.607	0.410	0.045
-199.319	-80.149	-0.311	-0.102
-198.304	66.575	0.219	-0.219
-197.290	-165.785	-0.246	0.010
-196.275	800.000	0.006	0.021
-195.260	292.283	-0.055	-0.099
-194.246	705.414	-0.035	0.090
-193.231	429.215	-0.120	-0.254
-192.217	210.214	0.094	0.145
-191.202	-82.327	-0.136	-0.043
-190.187	274.657	-0.073	0.127
-189.173	-162.103	0.563	0.028
-188.158	380.501	-0.100	-0.202
-187.144	142.967	-0.232	0.303
-186.129	18.264	0.210	0.164
-185.114	-50.720	0.119	0.055
-184.100	536.657	-0.102	-0.239
-183.085	-42.204	0.172	0.087
-182.071	-200.000	-0.001	0.096
-181.056	800.000	0.084	-0.311
-180.042	208.126	-0.137	-0.210
-179.027	-156.751	-0.221	0.013
-178.012	800.000	-0.033	-0.139
-176.998	-200.000	0.006	-0.080
-175.983	-40.351	0.148	0.075
-174.969	49.586	-0.029	-0.026
-173.954	-116.114	-0.265	-0.048
-172.939	-61.163	-0.232	0.096
-171.925	-200.000	-0.009	-0.186
-170.910	309.504	-0.172	0.316
-169.896	-200.000	-0.007	-0.116
-168.881	57.935	-0.187	0.180
-167.866	-192.005	-0.288	-0.003
-166.852	14.259	-0.155	0.119
-165.837	-85.869	0.251	-0.076
-164.823	-79.867	0.089	-0.029
-163.808	-166.610	0.231	0.009
-162.793	58.515	-0.127	-0.122
-161.779	800.000	-0.046	0.194
-160.764	162.032	0.182	0.251
-159.750	800.000	-0.054	0.173
-158.735	37.614	-0.286	-0.249
-157.720	-200.000	0.008	0.072
-156.706	103.616	0.181	0.209
-155.691	244.399	0.129	0.213
-154.677	-200.000	-0.052	-0.295
-153.662	-109.544	-0.287	-0.059
-152.647	282.597	-0.101	0.178
-151.633	131.770	0.286	0.361
-150.618	-200.000	0.103	-0.456
-149.604	-200.000	0.014	-0.290
-148.589	34.805	-0.238	-0.204
-147.574	-12.214	0.110	-0.070
-146.560	79.948	0.191	0.201
-145.545	-1.365	0.234	0.162
-144.531	-200.000	0.002	-0.062
-143.516	71.876	-0.102	-0.104
-142.502	800.000	-0.051	-0.177
-141.487	50.330	-0.268	-0.248
-140.472	67.740	0.244	0.245
-139.458	60.561	0.024	0.024
-138.443	-100.385	0.208	-0.051
-137.429	56.087	-0.274	-0.261
-136.414	800.000	-0.102	-0.292
-135.399	306.543	0.064	0.118
-134.385	-102.780	0.177	0.041
-133.370	766.617	-0.081	-0.215
-132.356	-150.977	-0.034	-0.003
-131.341	577.214	-0.066	-0.159
-130.326	250.631	-0.085	-0.142
-129.312	-200.000	-0.014	0.104
-128.297	79.664	0.167	0.175
-127.283	-200.000	0.060	0.309
-126.268	-200.000	0.009	0.110
-125.253	-200.000	0.030	0.246
-124.239	188.226	-0.061	0.089
-123.224	-145.757	-0.106	0.009
-122.210	22.694	0.129	0.103
