DTS Sentinel unit serial number:	SN413079Multiplexer serial number:	ORYXHardware model number:	OX4-SRSoftware version number:	ORYX F/W v4.00 Oryx Data Collector v3.7.2.0data status	okinstallation	princeton_trtdifferential loss correction	single-endedforward channel	channel 3reverse channel	N/Adate	2019/09/11time	13:10:10forward acquisition time	60.00reverse acquisition time	0.00gamma	496.2192k internal	0.2294k external	0.2294temperature offset calibration	0.9967default loss term (dB/km)	0.3790temperature slope calibration	1.0000multiplexer offset coefficient	1.0000multiplexer slope coefficient	1.0000fibre end	0.00T internal ref (°C)	41.91T ext. ref 1 (°C)	0.76T ext. ref 2 (°C)	39.10length (m)	temperature (°C)	Stokes	anti-Stokes-747.200	-19.908	0.371	0.235
-746.185	-58.691	-0.140	0.062
-745.171	-136.922	0.240	-0.028
-744.156	215.633	-0.112	-0.182
-743.142	301.788	-0.045	-0.086
-742.127	-67.654	0.330	-0.132
-741.112	356.815	0.022	0.044
-740.098	-7.473	0.269	0.186
-739.083	97.341	0.091	-0.107
-738.069	-41.834	-0.354	0.186
-737.054	-171.358	-0.407	-0.014
-736.039	-132.583	0.122	0.016
-735.025	-111.458	0.231	-0.048
-734.010	-137.950	-0.471	0.054
-732.996	-200.000	0.017	-0.108
-731.981	58.785	0.079	0.080
-730.966	-24.969	-0.025	0.015
-729.952	0.369	-0.311	0.227
-728.937	-119.126	-0.384	0.069
-727.923	371.269	0.102	-0.212
-726.908	632.289	0.094	0.242
-725.894	22.823	0.118	0.099
-724.879	51.435	0.138	0.134
-723.864	-200.000	-0.030	0.175
-722.850	-1.165	-0.085	-0.061
-721.835	-200.000	-0.022	0.194
-720.821	-96.485	0.149	0.040
-719.806	-34.634	0.182	0.102
-718.791	327.125	0.120	0.234
-717.777	-1.198	0.040	0.029
-716.762	534.835	0.090	-0.219
-715.748	175.131	0.122	0.181
-714.733	257.326	-0.087	0.152
-713.718	246.672	0.114	-0.196
-712.704	124.836	0.228	-0.293
-711.689	-95.097	0.276	-0.076
-710.675	-23.900	0.241	0.147
-709.660	319.403	0.047	-0.092
-708.645	-102.841	-0.244	-0.059
-707.631	800.000	-0.017	0.062
-706.616	-200.000	0.009	0.327
-705.602	-117.262	0.140	-0.026
-704.587	-87.117	0.242	-0.075
-703.572	800.000	0.062	0.192
-702.558	687.553	0.071	-0.188
-701.543	245.605	-0.020	-0.035
-700.529	-40.475	0.144	0.076
-699.514	-74.323	-0.067	-0.025
-698.499	75.311	0.241	-0.259
-697.485	-138.172	0.161	0.018
-696.470	89.569	0.034	0.039
-695.456	-138.827	0.400	-0.045
-694.441	-200.000	-0.050	-0.409
-693.426	-107.612	0.026	0.006
-692.412	-141.152	0.024	-0.003
-691.397	-125.151	-0.227	-0.035
-690.383	604.658	-0.161	-0.410
-689.368	-145.834	0.208	-0.019
-688.354	1.450	-0.347	0.255
-687.339	-200.000	0.009	0.188
-686.324	-200.000	0.023	-0.355
-685.310	-67.246	0.222	0.089
-684.295	-200.000	0.002	0.178
-683.281	136.678	-0.038	-0.051
-682.266	-75.707	-0.460	0.167
-681.251	38.921	-0.228	-0.208
-680.237	-10.625	0.160	0.108
-679.222	-200.000	-0.005	-0.033
-678.208	800.000	-0.029	-0.127
-677.193	27.687	0.039	0.034
-676.178	800.000	-0.101	-0.450
-675.164	-44.110	0.291	-0.149
-674.149	120.784	0.350	-0.444
-673.135	-24.780	-0.056	-0.034
-672.120	5.533	0.241	0.181
-671.105	382.851	-0.157	-0.329
-670.091	95.090	0.160	0.186
-669.076	-17.588	0.113	-0.072
-668.062	31.584	0.200	-0.175
-667.047	-143.994	0.173	0.017
-666.032	-200.000	-0.009	0.109
-665.018	-66.086	0.021	0.009
-664.003	465.317	-0.035	-0.080
-662.989	-49.496	-0.147	-0.071
-661.974	-200.000	-0.017	-0.099
-660.959	-200.000	-0.002	-0.039
-659.945	-200.000	0.085	0.402
-658.930	-200.000	0.020	0.297
-657.916	-80.615	0.221	0.075
-656.901	-103.285	0.070	-0.017
-655.886	-200.000	-0.005	-0.125
-654.872	-163.759	-0.197	0.009
-653.857	-75.781	0.125	0.045
-652.843	-200.000	-0.042	0.195
-651.828	-55.565	-0.085	-0.039
-650.814	462.882	0.088	-0.201
-649.799	249.484	-0.019	-0.033
-648.784	-9.264	0.133	0.091
-647.770	84.526	0.191	-0.212
-646.755	-200.000	-0.053	-0.404
-645.741	32.343	-0.122	-0.107
-644.726	-200.000	-0.003	0.231
-643.711	-113.093	0.109	0.022
-642.697	-29.297	0.268	0.156
-641.682	800.000	-0.038	0.167
-640.668	-145.075	0.244	0.023
-639.653	-47.920	-0.250	0.123
-638.638	-114.013	-0.257	0.051
-637.624	-200.000	0.043	0.361
-636.609	133.740	0.113	-0.149
-635.595	-95.443	-0.335	-0.092
-634.580	262.065	-0.143	-0.252
-633.565	-80.938	0.209	-0.071
-632.551	260.397	0.181	-0.319
-631.536	-87.649	-0.179	-0.055
-630.522	2.836	0.132	-0.098
-629.507	550.636	0.027	0.066
-628.492	-200.000	-0.062	0.309
-627.478	800.000	0.030	0.120
-626.463	248.560	0.132	-0.227
-625.449	-200.000	-0.020	-0.215
-624.434	-65.120	0.115	-0.047
-623.419	-143.586	0.184	0.018
-622.405	-75.404	0.287	-0.104
-621.390	63.696	-0.108	-0.110
-620.376	97.091	-0.253	-0.295
-619.361	-92.758	0.134	0.038
-618.346	800.000	-0.032	-0.117
-617.332	27.757	-0.153	0.131
-616.317	-13.833	0.257	0.169
-615.303	258.278	-0.117	0.204
-614.288	-105.239	0.383	0.089
-613.273	-200.000	0.044	0.321
-612.259	-83.940	-0.323	-0.105
-611.244	-96.562	0.123	-0.033
-610.230	800.000	-0.044	-0.139
-609.215	39.239	-0.170	-0.155
-608.201	104.994	0.209	-0.251
-607.186	-200.000	0.018	0.168
-606.171	394.226	-0.135	0.285
-605.157	-114.875	-0.052	-0.010
-604.142	277.749	0.078	0.141
-603.128	613.343	-0.069	-0.175
-602.113	145.247	0.041	0.056
-601.098	399.949	-0.024	-0.051
-600.084	-125.139	-0.239	-0.037
-599.069	-18.319	-0.036	0.023
-598.055	-200.000	-0.018	-0.183
-597.040	-200.000	0.006	-0.029
-596.025	-176.779	0.050	0.001
-595.011	453.956	0.154	0.346
-593.996	-92.057	0.220	-0.063
-592.982	-33.612	0.309	-0.174
-591.967	-33.996	-0.157	0.088
-590.952	386.059	-0.074	0.156
-589.938	31.945	0.255	0.223
-588.923	-19.569	0.132	-0.083
-587.909	-69.300	-0.235	-0.092
-586.894	-173.015	-0.534	-0.017
-585.879	-48.676	0.227	0.111
-584.865	800.000	-0.097	-0.407
-583.850	-11.269	-0.303	-0.203
-582.836	300.701	-0.064	0.120
-581.821	-38.335	0.101	0.054
-580.806	187.133	-0.151	0.228
-579.792	-101.861	-0.192	0.047
-578.777	114.671	0.184	-0.228
-577.763	-200.000	0.055	-0.418
-576.748	100.998	-0.117	0.139
-575.733	-200.000	0.436	0.001
-574.719	732.040	-0.104	-0.283
-573.704	800.000	0.063	0.192
-572.690	56.703	-0.238	-0.235
-571.675	800.000	-0.130	0.457
-570.661	-78.624	0.238	-0.083
-569.646	27.058	-0.140	-0.119
-568.631	-75.415	-0.161	-0.058
-567.617	800.000	-0.012	-0.050
-566.602	-200.000	-0.065	-0.306
-565.588	-109.472	-0.099	-0.021
-564.573	-200.000	0.006	0.078
-563.558	52.109	0.039	0.038
-562.544	-164.449	0.093	-0.004
-561.529	-65.865	-0.292	-0.119
-560.515	-174.183	0.115	-0.003
-559.500	-115.644	0.165	-0.031
-558.485	-83.396	-0.364	0.119
-557.471	-110.539	0.167	-0.035
-556.456	-82.509	-0.226	-0.075
-555.442	20.783	-0.089	-0.073
-554.427	310.775	0.034	-0.064
-553.412	61.957	-0.151	0.152
-552.398	-200.000	0.030	0.183
-551.383	59.372	0.152	-0.152
-550.369	800.000	-0.058	-0.254
-549.354	-200.000	-0.031	-0.161
-548.339	644.776	-0.150	-0.388
-547.325	12.049	0.253	-0.197
-546.310	-25.559	-0.141	-0.085
-545.296	4.099	-0.052	0.039
-544.281	-143.992	0.174	0.017
-543.266	-81.841	0.294	-0.098
-542.252	181.735	-0.120	0.179
-541.237	114.547	0.267	0.331
-540.223	-32.606	0.012	0.007
-539.208	-61.630	-0.218	-0.093
-538.193	-78.320	0.299	-0.104
-537.179	-135.544	-0.239	-0.029
-536.164	-86.739	-0.199	0.062
-535.150	-72.640	-0.035	-0.013
-534.135	-95.065	0.221	0.060
-533.121	-44.659	-0.086	0.043
-532.106	-146.741	-0.448	0.039
-531.091	83.473	0.061	0.068
-530.077	-157.902	0.222	-0.013
-529.062	-156.297	-0.335	0.021
-528.048	-127.086	0.391	0.058
-527.033	-81.501	-0.229	-0.076
-526.018	-147.117	0.074	0.006
-525.004	-200.000	0.057	-0.336
-523.989	800.000	-0.069	0.221
-522.975	-183.931	0.344	0.006
-521.960	32.640	-0.140	0.123
-520.945	36.017	-0.118	-0.105
-519.931	-73.175	0.071	-0.026
-518.916	239.934	0.091	0.154
-517.902	735.290	-0.077	-0.210
-516.887	24.690	-0.221	0.185
-515.872	800.000	0.050	0.201
-514.858	2.534	0.337	0.247
-513.843	-20.185	-0.170	0.106
-512.829	82.166	-0.219	0.240
-511.814	100.144	0.085	-0.100
-510.799	-84.992	0.372	-0.118
-509.785	-178.090	0.383	0.009
-508.770	424.835	0.039	-0.085
-507.756	800.000	-0.068	-0.202
-506.741	176.833	-0.269	0.396
-505.726	23.219	-0.125	-0.104
-504.712	707.743	-0.126	-0.337
-503.697	-103.550	-0.120	-0.029
-502.683	186.164	-0.160	0.242
-501.668	-109.216	-0.435	0.094
-500.653	-109.022	-0.267	-0.058
-499.639	-82.403	0.336	-0.111
-498.624	800.000	-0.049	0.198
-497.610	105.646	-0.251	0.301
-496.595	-83.424	-0.625	-0.203
-495.581	-80.271	-0.047	0.016
-494.566	-13.345	0.153	0.101
-493.551	-102.597	-0.099	-0.024
-492.537	82.039	0.112	0.122
-491.522	-129.824	0.293	0.041
-490.508	391.742	-0.093	-0.195
-489.493	-49.794	-0.007	-0.003
-488.478	-19.630	0.070	0.044
-487.464	345.903	0.097	-0.193
-486.449	-114.947	-0.248	0.048
-485.435	64.149	0.125	0.127
-484.420	1.649	0.186	-0.136
-483.405	-200.000	-0.031	0.154
-482.391	-122.506	-0.293	0.048
-481.376	-2.573	-0.103	-0.073
-480.362	800.000	0.043	-0.141
-479.347	-85.167	0.225	-0.071
-478.332	158.742	0.018	0.026
-477.318	800.000	-0.072	0.241
-476.303	421.313	-0.016	0.034
-475.289	-13.088	0.216	0.142
-474.274	341.154	0.031	0.062
-473.259	-200.000	0.002	-0.026
-472.245	15.807	-0.048	-0.038
-471.230	800.000	0.014	-0.055
-470.216	740.187	0.092	-0.251
-469.201	-200.000	0.081	0.386
-468.186	-112.714	-0.042	0.009
-467.172	-47.382	-0.103	0.051
-466.157	325.261	0.098	-0.189
-465.143	49.452	-0.299	-0.284
-464.128	800.000	-0.069	0.198
-463.113	-28.413	0.109	-0.064
-462.099	-200.000	0.005	0.090
-461.084	131.418	-0.082	-0.106
-460.070	-200.000	0.019	-0.354
-459.055	800.000	0.022	-0.063
-458.040	-200.000	-0.000	-0.185
-457.026	-84.758	0.046	0.015
-456.011	-98.607	-0.295	-0.076
-454.997	212.858	0.087	-0.140
-453.982	-24.942	0.267	-0.161
-452.968	-117.270	-0.077	-0.014
-451.953	-61.099	0.245	-0.105
-450.938	18.307	-0.134	0.108
-449.924	800.000	0.112	0.319
-448.909	-125.062	0.449	-0.070
-447.895	-57.410	-0.260	0.116
-446.880	800.000	-0.042	0.129
-445.865	-200.000	-0.006	-0.236
-444.851	237.109	0.110	0.183
-443.836	-200.000	0.008	0.127
-442.822	-200.000	-0.009	0.259
-441.807	-102.210	-0.100	0.024
-440.792	152.363	0.244	0.337
-439.778	-200.000	-0.000	0.341
-438.763	-200.000	-0.050	0.316
-437.749	-38.513	-0.133	0.071
-436.734	-75.403	-0.272	0.098
-435.719	-72.518	0.090	0.034
-434.705	39.602	0.164	0.149
-433.690	-200.000	0.048	0.559
-432.676	201.260	-0.056	0.086
-431.661	800.000	-0.034	0.096
-430.646	800.000	-0.050	0.143
-429.632	-200.000	0.006	-0.115
-428.617	52.746	-0.089	-0.086
-427.603	800.000	-0.114	-0.318
-426.588	425.578	0.027	-0.058
-425.573	800.000	-0.012	0.040
-424.559	800.000	-0.077	-0.278
-423.544	-200.000	0.021	-0.130
-422.530	-200.000	0.015	-0.352
-421.515	-143.198	-0.184	0.018
-420.500	64.526	-0.068	-0.069
-419.486	71.931	-0.079	0.083
-418.471	-1.986	-0.043	0.030
-417.457	121.285	-0.223	-0.280
-416.442	-73.904	0.280	0.103
-415.428	-30.191	-0.275	0.158
-414.413	-38.358	0.055	0.030
-413.398	-65.559	0.195	-0.079
-412.384	-135.127	0.293	-0.036
-411.369	484.529	0.065	-0.150
-410.355	-200.000	-0.077	-0.359
-409.340	-200.000	0.031	-0.267
-408.325	800.000	0.037	0.113
-407.311	139.096	-0.087	0.116
-406.296	233.604	-0.045	-0.075
-405.282	-60.678	-0.258	-0.110
-404.267	-111.556	-0.256	0.052
-403.252	-154.738	0.141	0.009
-402.238	18.871	-0.403	-0.326
-401.223	-135.759	-0.114	0.014
-400.209	-111.619	0.109	-0.022
-399.194	-71.443	-0.304	0.115
-398.179	291.727	0.046	-0.084
-397.165	773.550	-0.010	0.029
-396.150	-175.712	-0.109	-0.003
-395.136	-50.238	0.080	-0.038
-394.121	800.000	0.005	-0.017
-393.106	-17.741	0.305	0.193
-392.092	-24.239	0.196	-0.118
-391.077	-58.255	-0.206	0.090
-390.063	204.834	0.116	0.181
-389.048	-154.890	-0.364	-0.024
-388.033	143.089	0.104	-0.140
-387.019	-200.000	-0.006	0.259
-386.004	-54.251	-0.158	-0.072
-384.990	9.485	-0.182	0.139
-383.975	-200.000	0.037	0.210
-382.960	800.000	-0.061	0.220
-381.946	-200.000	0.012	0.153
-380.931	-55.374	-0.309	-0.140
-379.917	-144.732	0.248	-0.023
-378.902	-65.084	-0.053	-0.021
-377.888	-200.000	-0.031	-0.210
-376.873	236.553	0.172	-0.287
-375.858	-96.111	0.180	-0.048
-374.844	320.387	-0.154	-0.296
-373.829	-94.509	-0.188	-0.052
-372.815	-195.984	-0.153	-0.001
-371.800	-200.000	-0.032	0.506
-370.785	583.301	-0.103	-0.256
-369.771	-129.559	0.074	0.010
-368.756	69.695	0.177	-0.184
-367.742	800.000	0.075	-0.273
-366.727	-102.088	0.051	-0.012
-365.712	36.208	0.007	-0.006
-364.698	399.826	0.098	-0.206
-363.683	573.886	-0.018	-0.043
-362.669	800.000	0.059	0.196
-361.654	292.213	0.073	0.134
-360.639	-65.831	0.133	0.054
-359.625	-200.000	0.011	-0.206
-358.610	-58.671	0.322	0.141
-357.596	-200.000	0.044	0.316
-356.581	70.052	-0.103	-0.107
-355.566	5.733	0.132	-0.099
-354.552	136.371	-0.223	0.293
-353.537	-127.522	-0.211	-0.031
-352.523	800.000	-0.051	0.210
-351.508	476.613	-0.054	-0.122
-350.493	402.538	0.079	0.166
-349.479	-156.645	0.290	0.018
-348.464	800.000	0.025	-0.087
-347.450	-200.000	0.008	-0.219
-346.435	-110.540	0.232	-0.048
-345.420	800.000	0.019	0.056
-344.406	-200.000	-0.008	0.044
-343.391	190.043	-0.050	-0.075
-342.377	49.124	-0.127	-0.120
-341.362	-148.009	-0.322	-0.027
-340.348	17.038	0.225	0.179
-339.333	-86.077	-0.329	-0.102
-338.318	-200.000	0.005	0.068
-337.304	-200.000	0.008	0.055
-336.289	-32.485	0.110	-0.062
-335.275	620.202	0.032	-0.080
-334.260	-200.000	-0.016	-0.276
-333.245	-146.299	-0.304	0.027
-332.231	266.054	-0.060	-0.106
-331.216	-38.432	0.217	0.115
-330.202	158.590	-0.126	-0.175
-329.187	237.443	-0.208	-0.346
-328.172	-82.159	0.021	0.007
-327.158	800.000	0.077	-0.233
-326.143	-93.140	0.563	0.158
-325.129	229.189	0.045	0.074
-324.114	312.582	0.047	-0.089
-323.099	-14.226	0.320	-0.207
-322.085	-200.000	0.003	-0.070
-321.070	322.561	-0.077	-0.148
-320.056	80.820	-0.077	0.083
-319.041	-48.442	0.327	-0.158
-318.026	-200.000	-0.112	-0.493
-317.012	242.229	0.093	-0.157
-315.997	569.232	0.088	0.214
-314.983	-112.283	0.259	-0.052
-313.968	-200.000	-0.051	-0.404
-312.953	18.598	0.342	-0.275
-311.939	-200.000	0.007	0.220
-310.924	-41.276	-0.053	0.028
-309.910	-200.000	0.020	0.255
-308.895	-44.631	0.124	0.062
-307.880	800.000	0.041	0.151
-306.866	-92.964	0.355	0.100
-305.851	30.360	0.123	-0.105
-304.837	145.557	-0.070	-0.094
-303.822	15.772	-0.286	0.226
-302.807	525.326	0.066	-0.157
-301.793	-200.000	-0.086	-0.384
-300.778	-200.000	-0.005	0.069
-299.764	384.807	-0.116	-0.239
-298.749	430.265	0.100	0.217
-297.735	-200.000	0.003	0.310
-296.720	64.492	-0.048	-0.049
-295.705	800.000	-0.021	-0.061
-294.691	-200.000	-0.011	-0.158
-293.676	388.999	0.077	0.160
-292.662	588.443	-0.173	0.429
-291.647	344.692	-0.137	0.269
-290.632	-200.000	0.007	0.133
-289.618	331.565	-0.153	-0.296
-288.603	-59.025	-0.093	0.040
-287.589	-200.000	0.012	0.053
-286.574	-200.000	-0.030	-0.292
-285.559	800.000	0.033	-0.135
-284.545	-53.648	0.027	0.013
-283.530	106.670	-0.085	-0.102
-282.516	-200.000	-0.017	0.378
-281.501	-200.000	-0.010	0.141
-280.486	-25.185	-0.199	0.119
-279.472	-86.481	0.119	0.037
-278.457	-200.000	-0.000	0.044
-277.443	800.000	0.072	-0.251
-276.428	201.761	-0.149	0.230
-275.413	-200.000	-0.001	0.126
-274.399	-117.720	0.335	-0.060
-273.384	6.820	0.205	-0.154
-272.370	-130.898	-0.380	-0.051
-271.355	456.859	-0.165	-0.367
-270.340	-76.190	0.173	-0.061
-269.326	-32.153	0.148	-0.083
-268.311	-62.679	-0.066	-0.028
-267.297	-64.154	0.063	-0.026
-266.282	800.000	0.090	0.380
-265.267	-105.185	-0.138	-0.032
-264.253	673.887	0.074	-0.193
-263.238	-200.000	0.019	-0.334
-262.224	-109.981	0.301	0.063
-261.209	-1.133	-0.088	0.063
-260.195	-172.732	-0.038	-0.001
-259.180	-86.510	0.221	-0.068
-258.165	-70.268	0.100	-0.038
-257.151	-200.000	-0.066	-0.319
-256.136	-116.217	-0.181	-0.034
-255.122	-200.000	0.046	-0.311
-254.107	269.768	0.132	-0.234
-253.092	-200.000	-0.002	0.090
-252.078	-58.987	0.231	0.100
-251.063	32.324	0.179	0.155
-250.049	183.894	0.077	-0.115
-249.034	155.313	0.084	0.116
-248.019	26.205	-0.011	0.009
-247.005	139.737	0.111	0.146
-245.990	-200.000	-0.027	-0.228
-244.976	83.755	-0.158	-0.173
-243.961	-113.896	0.081	-0.016
-242.946	-184.693	0.301	0.005
-241.932	103.870	-0.018	-0.021
-240.917	-0.783	0.040	-0.028
-239.903	311.267	0.128	0.242
-238.888	141.944	0.112	-0.149
-237.873	-142.534	-0.071	-0.007
-236.859	47.764	0.177	0.166
-235.844	-76.253	0.211	0.075
-234.830	388.231	0.053	-0.111
-233.815	238.234	0.189	0.315
-232.800	-13.828	-0.305	0.198
-231.786	-26.778	-0.295	-0.173
-230.771	-7.042	-0.030	-0.021
-229.757	33.343	-0.084	-0.073
-228.742	-200.000	-0.030	-0.147
-227.727	-200.000	0.011	0.051
-226.713	-135.073	-0.409	-0.049
-225.698	168.677	0.156	-0.222
-224.684	171.590	0.045	-0.065
-223.669	-130.332	-0.225	0.031
-222.655	800.000	0.014	0.058
-221.640	440.645	-0.093	0.205
-220.625	82.062	0.127	0.137
-219.611	-137.347	-0.196	-0.022
-218.596	176.050	0.127	-0.185
-217.582	-119.601	0.021	0.004
-216.567	-200.000	-0.002	-0.094
-215.552	-22.350	-0.276	-0.167
-214.538	206.993	0.176	0.275
-213.523	152.980	-0.249	0.341
-212.509	-81.151	0.400	0.132
-211.494	800.000	0.092	0.265
-210.479	-19.257	0.098	0.061
-209.465	-110.709	0.311	0.064
-208.450	-107.551	-0.190	0.042
-207.436	-146.553	0.128	-0.011
-206.421	-61.837	0.252	-0.106
-205.406	309.854	0.072	0.134
-204.392	447.220	0.014	0.031
-203.377	21.594	-0.228	-0.186
-202.363	-200.000	-0.009	0.360
-201.348	800.000	-0.065	0.183
-200.333	-200.000	0.011	0.348
-199.319	-200.000	-0.066	0.466
-198.304	-45.321	-0.189	-0.094
-197.290	800.000	-0.077	0.234
-196.275	-200.000	-0.012	0.289
-195.260	63.646	-0.005	-0.005
-194.246	-200.000	-0.026	0.222
-193.231	-168.906	0.304	-0.011
-192.217	127.787	0.186	-0.237
-191.202	-146.196	-0.421	0.037
-190.187	-200.000	0.047	0.318
-189.173	-24.518	-0.149	-0.089
-188.158	123.041	0.083	-0.103
-187.144	-52.322	-0.123	0.057
-186.129	-200.000	-0.027	-0.155
-185.114	800.000	-0.043	-0.167
-184.100	-200.000	-0.009	0.272
-183.085	-81.448	0.252	-0.083
-182.071	346.217	-0.128	-0.252
-181.056	-105.894	-0.449	-0.101
-180.042	-200.000	-0.004	0.295
-179.027	-200.000	-0.048	0.378
-178.012	-200.000	0.039	0.237
-176.998	-152.480	-0.231	0.017
-175.983	-200.000	-0.017	-0.197
-174.969	468.531	0.131	-0.293
-173.954	-68.910	0.101	-0.039
-172.939	-200.000	-0.016	-0.239
-171.925	10.254	-0.074	0.056
-170.910	104.352	0.226	0.266
-169.896	-55.934	-0.293	-0.131
-168.881	800.000	0.173	-0.511
-167.866	-40.385	0.290	0.151
-166.852	57.546	0.208	0.203
-165.837	800.000	0.055	0.213
-164.823	506.107	-0.108	-0.249
-163.808	800.000	-0.057	0.159
-162.793	800.000	0.076	0.276
-161.779	477.549	-0.079	0.180
-160.764	629.637	0.053	-0.135
-159.750	-76.033	0.177	0.063
-158.735	83.101	-0.105	-0.114
-157.720	-8.546	0.224	0.150
-156.706	14.005	0.220	-0.171
-155.691	132.317	-0.133	0.171
-154.677	36.473	-0.077	-0.068
-153.662	200.631	-0.220	0.338
-152.647	-200.000	-0.050	0.359
-151.633	-200.000	0.037	0.287
-150.618	57.711	-0.180	0.176
-149.604	-61.106	-0.233	-0.098
-148.589	800.000	0.066	-0.239
-147.574	-156.720	0.076	0.005
-146.560	5.747	-0.283	-0.209
-145.545	207.051	0.094	-0.146
-144.531	-78.634	-0.178	0.061
-143.516	-18.887	-0.440	-0.274
-142.502	-174.997	-0.149	-0.004
-141.487	-128.686	0.313	0.044
-140.472	-129.173	-0.208	-0.029
-139.458	-92.683	-0.334	-0.094
-138.443	-94.635	0.288	0.078
-137.429	-160.377	0.068	0.004
-136.414	-123.703	-0.269	-0.043
-135.399	-44.600	-0.083	-0.041
-134.385	-44.460	-0.185	-0.092
-133.370	-102.242	0.180	-0.043
-132.356	-200.000	-0.014	-0.094
-131.341	-101.168	0.211	0.052
-130.326	-57.048	-0.254	0.112
-129.312	-71.186	-0.098	-0.037
-128.297	45.098	-0.109	-0.100
-127.283	19.702	-0.284	0.229
-126.268	-161.847	-0.193	-0.010
-125.253	-102.315	-0.427	-0.102
-124.239	109.010	-0.202	0.241
-123.224	-155.414	0.263	0.017
