DTS Sentinel unit serial number:	SN413079Multiplexer serial number:	ORYXHardware model number:	OX4-SRSoftware version number:	ORYX F/W v4.00 Oryx Data Collector v3.7.2.0data status	okinstallation	princeton_trtdifferential loss correction	single-endedforward channel	channel 3reverse channel	N/Adate	2019/09/13time	10:00:35forward acquisition time	60.00reverse acquisition time	0.00gamma	496.2192k internal	0.2324k external	0.2324temperature offset calibration	1.0130default loss term (dB/km)	0.3790temperature slope calibration	1.0000multiplexer offset coefficient	1.0000multiplexer slope coefficient	1.0000fibre end	0.00T internal ref (°C)	30.25T ext. ref 1 (°C)	4.47T ext. ref 2 (°C)	27.68length (m)	temperature (°C)	Stokes	anti-Stokes-747.200	68.505	0.040	-0.041
-746.185	-4.987	-0.165	0.115
-745.171	166.566	0.109	0.156
-744.156	151.286	-0.085	-0.116
-743.142	-135.075	-0.293	0.036
-742.127	-99.029	-0.493	0.126
-741.112	-150.476	-0.305	0.024
-740.098	-200.000	-0.007	0.261
-739.083	-200.000	0.056	0.331
-738.069	92.464	0.109	0.124
-737.054	86.864	0.137	0.152
-736.039	-45.299	0.093	-0.047
-735.025	26.983	-0.145	0.123
-734.010	359.397	0.118	0.237
-732.996	245.553	-0.122	-0.208
-731.981	-89.749	0.339	0.100
-730.966	153.431	-0.078	0.108
-729.952	-72.470	-0.548	0.204
-728.937	-200.000	0.006	0.066
-727.923	-25.497	-0.316	-0.188
-726.908	-1.659	-0.101	-0.072
-725.894	-19.560	0.183	-0.114
-724.879	-116.557	-0.213	0.040
-723.864	-200.000	-0.045	-0.238
-722.850	76.871	-0.234	-0.250
-721.835	-98.134	0.141	-0.037
-720.821	-200.000	0.017	0.141
-719.806	616.432	0.191	0.484
-718.791	322.683	0.067	-0.129
-717.777	170.026	0.176	-0.253
-716.762	-200.000	-0.035	0.244
-715.748	-147.978	0.283	0.024
-714.733	256.628	-0.112	0.194
-713.718	-157.250	-0.089	-0.005
-712.704	-83.577	-0.291	0.094
-711.689	-200.000	0.029	-0.159
-710.675	93.782	-0.116	-0.133
-709.660	211.300	-0.061	-0.096
-708.645	39.616	-0.180	0.162
-707.631	-133.818	-0.200	0.025
-706.616	-112.596	0.295	-0.059
-705.602	159.051	0.111	0.156
-704.587	-147.863	-0.322	-0.027
-703.572	274.444	-0.050	-0.089
-702.558	6.778	-0.222	-0.166
-701.543	-131.475	-0.190	-0.025
-700.529	47.100	0.213	0.200
-699.514	-100.858	-0.207	-0.051
-698.499	-12.105	-0.313	-0.206
-697.485	-145.758	0.233	-0.021
-696.470	-82.966	0.133	0.043
-695.456	154.355	0.143	0.197
-694.441	177.849	-0.016	-0.024
-693.426	-9.625	0.136	-0.091
-692.412	-200.000	-0.004	0.026
-691.397	130.180	-0.102	-0.131
-690.383	-41.315	-0.241	-0.125
-689.368	-81.227	-0.346	0.115
-688.354	26.656	0.098	-0.083
-687.339	-57.098	-0.208	0.092
-686.324	-82.563	-0.164	0.054
-685.310	189.849	-0.276	-0.418
-684.295	-64.703	-0.245	-0.100
-683.281	105.700	0.070	0.083
-682.266	39.154	-0.298	-0.269
-681.251	-65.617	0.265	0.107
-680.237	72.589	0.054	0.057
-679.222	-28.893	0.092	-0.053
-678.208	-46.652	-0.199	0.098
-677.193	614.028	-0.191	0.482
-676.178	-1.965	-0.254	0.180
-675.164	-103.556	-0.105	-0.025
-674.149	31.061	-0.179	-0.155
-673.135	800.000	-0.083	0.246
-672.120	43.869	-0.088	0.081
-671.105	110.725	0.194	-0.234
-670.091	-4.888	-0.368	0.255
-669.076	61.652	-0.300	0.301
-668.062	-162.538	0.055	-0.003
-667.047	84.662	-0.065	-0.071
-666.032	-70.643	0.181	-0.069
-665.018	-71.565	0.059	0.022
-664.003	-41.641	0.122	0.063
-662.989	-200.000	0.006	-0.353
-661.974	-200.000	-0.033	-0.219
-660.959	-132.936	-0.181	0.023
-659.945	491.190	0.079	-0.183
-658.930	36.909	-0.138	-0.123
-657.916	-145.599	-0.292	-0.026
-656.901	-183.377	0.134	-0.002
-655.886	-200.000	0.020	-0.230
-654.872	-200.000	-0.083	-0.426
-653.857	210.024	-0.100	-0.157
-652.843	-78.968	0.221	0.076
-651.828	-200.000	-0.041	-0.199
-650.814	552.398	-0.095	-0.230
-649.799	-26.539	-0.152	-0.090
-648.784	800.000	0.060	0.197
-647.770	281.906	0.136	0.244
-646.755	-200.000	-0.012	-0.457
-645.741	36.934	0.243	0.216
-644.726	-67.874	0.242	0.095
-643.711	-200.000	0.037	-0.248
-642.697	119.136	-0.102	0.127
-641.682	279.358	0.006	0.011
-640.668	-200.000	0.002	0.432
-639.653	35.016	-0.154	-0.136
-638.638	4.987	-0.208	-0.154
-637.624	280.515	-0.110	-0.198
-636.609	-132.907	0.275	0.035
-635.595	-132.547	0.226	-0.029
-634.580	-73.377	-0.042	0.015
-633.565	-82.222	0.156	0.051
-632.551	532.700	-0.147	-0.350
-631.536	-40.425	0.087	0.045
-630.522	-7.103	0.182	-0.124
-629.507	48.514	-0.224	-0.211
-628.492	-94.128	0.481	-0.133
-627.478	688.019	0.054	0.143
-626.463	-64.291	-0.216	0.088
-625.449	636.717	0.069	0.177
-624.434	-29.988	-0.370	0.212
-623.419	-200.000	-0.015	-0.092
-622.405	-71.766	0.258	-0.097
-621.390	-94.569	0.167	-0.046
-620.376	-4.441	-0.122	-0.085
-619.361	-200.000	-0.002	-0.141
-618.346	800.000	0.037	-0.105
-617.332	-1.813	-0.287	-0.203
-616.317	-22.784	-0.299	0.182
-615.303	-20.106	-0.204	-0.126
-614.288	-114.706	-0.077	0.015
-613.273	-66.704	0.061	0.024
-612.259	-108.358	0.141	0.031
-611.244	695.680	0.112	-0.296
-610.230	-35.426	0.328	-0.179
-609.215	619.008	-0.108	-0.273
-608.201	-200.000	-0.046	0.286
-607.186	-200.000	-0.110	0.526
-606.171	212.915	0.050	0.080
-605.157	800.000	0.080	-0.256
-604.142	644.668	-0.028	-0.072
-603.128	-114.042	0.207	0.040
-602.113	-55.447	-0.295	0.133
-601.098	-132.883	0.108	0.014
-600.084	-140.150	-0.322	0.034
-599.069	77.501	-0.186	-0.198
-598.055	800.000	-0.056	0.242
-597.040	204.963	-0.116	-0.180
-596.025	-200.000	0.024	-0.108
-595.011	-168.033	-0.259	-0.010
-593.996	539.138	0.044	-0.105
-592.982	11.786	0.233	-0.180
-591.967	12.186	-0.198	-0.153
-590.952	-200.000	-0.019	0.130
-589.938	798.310	0.076	-0.211
-588.923	50.714	0.019	0.018
-587.909	208.946	0.150	-0.236
-586.894	-85.585	-0.265	0.083
-585.879	-17.447	0.174	0.110
-584.865	58.651	0.106	-0.105
-583.850	8.704	0.082	-0.062
-582.836	-200.000	-0.038	0.322
-581.821	675.791	-0.180	-0.470
-580.806	-114.196	-0.200	0.039
-579.792	-200.000	0.001	0.113
-578.777	48.086	-0.156	0.146
-577.763	71.537	0.262	-0.272
-576.748	215.786	0.077	0.123
-575.733	-153.693	-0.202	0.014
-574.719	-105.520	-0.163	-0.037
-573.704	-163.405	0.398	0.019
-572.690	391.476	0.040	0.084
-571.675	114.296	-0.208	0.254
-570.661	62.467	0.038	-0.038
-569.646	-74.455	0.366	0.132
-568.631	20.207	0.109	0.088
-567.617	4.909	-0.223	0.165
-566.602	-99.658	0.070	-0.018
-565.588	-86.309	0.409	0.126
-564.573	478.106	-0.124	-0.282
-563.558	450.252	-0.075	-0.165
-562.544	-200.000	0.023	0.137
-561.529	800.000	-0.030	0.113
-560.515	214.773	-0.127	-0.202
-559.500	27.158	0.312	-0.262
-558.485	-79.257	0.204	-0.069
-557.471	-200.000	0.031	0.141
-556.456	228.320	0.056	0.091
-555.442	98.158	-0.020	-0.023
-554.427	-44.421	-0.191	-0.096
-553.412	-98.421	-0.318	-0.082
-552.398	-200.000	-0.045	-0.384
-551.383	-18.264	0.302	0.189
-550.369	-200.000	-0.026	0.393
-549.354	-148.415	-0.540	0.044
-548.339	185.724	-0.194	-0.288
-547.325	-96.054	-0.025	0.007
-546.310	-189.165	0.218	0.003
-545.296	-97.604	0.105	-0.027
-544.281	800.000	0.056	0.196
-543.266	186.290	-0.085	0.127
-542.252	-200.000	0.000	0.213
-541.237	-200.000	-0.032	-0.245
-540.223	800.000	-0.136	-0.460
-539.208	-120.597	-0.069	0.012
-538.193	-200.000	-0.006	-0.228
-537.179	800.000	0.090	0.305
-536.164	-160.005	0.115	0.006
-535.150	-200.000	-0.010	-0.068
-534.135	-15.603	-0.349	-0.223
-533.121	247.667	-0.124	0.209
-532.106	171.392	0.185	0.266
-531.091	-1.839	0.429	-0.302
-530.077	286.698	-0.103	0.186
-529.062	800.000	0.011	0.030
-528.048	800.000	-0.010	0.034
-527.033	-128.763	0.162	0.023
-526.018	188.731	0.142	0.212
-525.004	123.122	-0.123	0.154
-523.989	-200.000	0.050	0.224
-522.975	61.953	0.137	0.137
-521.960	-200.000	0.005	0.176
-520.945	800.000	-0.111	0.328
-519.931	2.884	0.270	-0.196
-518.916	800.000	0.093	-0.284
-517.902	-105.086	0.193	-0.044
-516.887	-154.996	-0.214	-0.014
-515.872	-101.366	-0.031	-0.007
-514.858	800.000	-0.086	-0.302
-513.843	22.228	0.227	-0.185
-512.829	-200.000	-0.062	-0.325
-511.814	-200.000	-0.011	-0.085
-510.799	87.971	-0.107	0.119
-509.785	106.608	0.055	-0.065
-508.770	108.051	0.165	0.196
-507.756	7.435	0.126	0.094
-506.741	-200.000	0.016	-0.310
-505.726	-84.060	-0.065	-0.021
-504.712	-10.478	0.092	0.061
-503.697	141.257	0.218	0.289
-502.683	800.000	0.037	0.156
-501.668	-48.765	0.008	0.004
-500.653	800.000	-0.028	0.080
-499.639	-53.281	0.410	0.188
-498.624	-102.261	0.218	0.052
-497.610	-0.672	-0.204	0.145
-496.595	-200.000	-0.024	0.116
-495.581	226.821	0.042	-0.069
-494.566	-55.855	-0.104	0.046
-493.551	466.948	0.106	-0.237
-492.537	-10.192	0.221	0.147
-491.522	11.247	0.159	-0.122
-490.508	-49.650	0.148	-0.070
-489.493	-34.599	-0.180	0.098
-488.478	312.608	-0.071	0.133
-487.464	194.744	-0.092	0.140
-486.449	-13.187	-0.140	-0.091
-485.435	800.000	0.031	-0.105
-484.420	-200.000	0.013	-0.406
-483.405	-4.802	0.085	-0.058
-482.391	-99.329	0.364	0.092
-481.376	32.254	0.194	-0.168
-480.362	-27.109	-0.344	0.200
-479.347	209.152	-0.133	-0.209
-478.332	64.074	-0.100	-0.101
-477.318	-200.000	0.020	-0.465
-476.303	104.686	-0.053	0.063
-475.289	-86.848	-0.085	-0.026
-474.274	81.547	-0.301	-0.326
-473.259	-43.380	-0.032	0.016
-472.245	-200.000	0.043	0.293
-471.230	321.613	-0.121	-0.229
-470.216	-200.000	0.045	-0.269
-469.201	-105.036	0.183	-0.042
-468.186	-78.935	0.164	-0.056
-467.172	-73.242	-0.258	-0.094
-466.157	-38.400	-0.079	-0.042
-465.143	-4.850	0.348	-0.240
-464.128	66.305	-0.129	-0.131
-463.113	669.160	0.080	-0.207
-462.099	-126.895	0.235	0.035
-461.084	-141.585	0.178	0.018
-460.070	800.000	0.110	-0.321
-459.055	-200.000	0.035	0.197
-458.040	182.599	0.158	-0.233
-457.026	635.355	0.100	0.253
-456.011	-200.000	0.248	-0.001
-454.997	82.836	0.084	-0.092
-453.982	74.278	0.060	0.063
-452.968	-200.000	-0.017	0.123
-451.953	-200.000	-0.048	0.304
-450.938	150.895	0.200	-0.271
-449.924	-200.000	0.080	-0.429
-448.909	185.596	-0.083	0.123
-447.895	-69.494	0.097	0.037
-446.880	-67.660	-0.217	-0.085
-445.865	-130.706	-0.310	0.042
-444.851	-200.000	-0.044	-0.204
-443.836	-200.000	-0.024	-0.198
-442.822	800.000	0.057	0.181
-441.807	-145.879	0.209	-0.019
-440.792	-200.000	-0.021	0.163
-439.778	98.852	-0.155	0.179
-438.763	-146.963	-0.314	-0.027
-437.749	-200.000	-0.009	0.127
-436.734	91.804	-0.053	-0.059
-435.719	-169.494	0.204	0.007
-434.705	1.987	0.134	-0.097
-433.690	-10.923	-0.292	0.192
-432.676	-124.179	0.238	-0.037
-431.661	324.070	-0.076	-0.144
-430.646	800.000	-0.056	0.191
-429.632	800.000	0.010	0.045
-428.617	194.653	0.063	-0.096
-427.603	-182.265	0.310	-0.006
-426.588	9.161	-0.037	0.028
-425.573	233.556	-0.198	0.324
-424.559	-101.791	0.292	0.071
-423.544	-137.510	-0.147	-0.017
-422.530	200.714	0.061	0.093
-421.515	-151.647	0.232	0.017
-420.500	-42.699	0.051	-0.026
-419.486	-155.941	-0.328	-0.021
-418.471	23.122	-0.193	-0.158
-417.457	-116.549	0.257	-0.047
-416.442	-200.000	0.006	0.089
-415.428	-29.010	0.164	-0.094
-414.413	95.398	0.162	0.184
-413.398	9.531	0.072	0.054
-412.384	-135.094	-0.247	0.030
-411.369	-48.248	-0.203	-0.097
-410.355	-200.000	-0.001	0.031
-409.340	83.219	-0.027	-0.029
-408.325	-26.362	-0.140	-0.082
-407.311	-42.844	0.142	0.072
-406.296	-200.000	-0.033	0.229
-405.282	-116.444	0.185	0.034
-404.267	-85.323	-0.054	0.017
-403.252	-15.695	0.327	0.208
-402.238	-200.000	0.024	0.298
-401.223	196.639	0.256	-0.389
-400.209	-64.108	-0.284	-0.116
-399.194	-105.743	-0.054	-0.012
-398.179	-5.310	0.057	0.039
-397.165	800.000	0.062	0.188
-396.150	800.000	-0.103	0.371
-395.136	327.099	0.183	-0.349
-394.121	-129.910	-0.095	0.013
-393.106	800.000	-0.012	-0.048
-392.092	-200.000	-0.007	0.184
-391.077	-7.569	-0.063	-0.042
-390.063	-107.397	-0.190	0.041
-389.048	186.636	0.016	-0.024
-388.033	-1.282	0.085	0.060
-387.019	430.868	-0.070	0.150
-386.004	201.009	0.079	-0.121
-384.990	44.851	-0.067	-0.061
-383.975	7.120	-0.226	0.168
-382.960	611.188	0.057	-0.141
-381.946	-200.000	-0.005	-0.331
-380.931	-134.673	0.205	-0.025
-379.917	-93.259	-0.270	0.075
-378.902	226.992	-0.192	-0.310
-377.888	-43.714	0.045	-0.023
-376.873	213.937	-0.136	0.214
-375.858	-109.409	-0.201	-0.042
-374.844	-200.000	0.001	-0.304
-373.829	12.684	-0.143	0.110
-372.815	74.503	-0.340	-0.355
-371.800	-87.118	0.138	0.042
-370.785	800.000	-0.059	-0.214
-369.771	-87.747	0.085	-0.026
-368.756	-90.613	-0.252	0.072
-367.742	112.055	0.364	-0.437
-366.727	-142.668	-0.175	-0.017
-365.712	749.099	0.031	-0.084
-364.698	-200.000	-0.003	-0.513
-363.683	203.810	-0.189	-0.291
-362.669	-125.853	-0.317	0.048
-361.654	345.051	-0.158	-0.308
-360.639	84.699	-0.205	0.223
-359.625	171.054	0.169	0.241
-358.610	13.336	-0.123	0.095
-357.596	145.997	-0.156	-0.208
-356.581	21.842	0.111	-0.090
-355.566	-73.713	0.215	-0.078
-354.552	89.163	-0.152	-0.169
-353.537	401.632	0.061	0.128
-352.523	-62.809	-0.226	0.093
-351.508	-30.953	-0.102	0.057
-350.493	682.767	-0.111	0.287
-349.479	220.703	-0.131	0.209
-348.464	-132.034	0.337	0.044
-347.450	-200.000	-0.026	0.383
-346.435	50.635	-0.151	0.142
-345.420	-45.546	0.020	-0.010
-344.406	352.396	0.068	0.135
-343.391	404.920	0.063	-0.132
-342.377	-200.000	0.090	-0.000
-341.362	-200.000	-0.003	-0.163
-340.348	800.000	0.083	0.319
-339.333	-188.985	-0.304	0.004
-338.318	800.000	0.011	0.043
-337.304	-137.495	-0.208	-0.023
-336.289	150.682	-0.031	0.042
-335.275	243.158	-0.061	-0.101
-334.260	800.000	0.084	-0.339
-333.245	-96.168	-0.200	-0.053
-332.231	-149.571	0.263	0.021
-331.216	77.652	-0.130	-0.137
-330.202	237.979	0.073	-0.121
-329.187	66.708	0.075	-0.076
-328.172	-134.283	0.159	-0.019
-327.158	800.000	-0.069	-0.202
-326.143	-134.408	0.382	-0.047
-325.129	800.000	-0.040	-0.144
-324.114	-200.000	0.003	-0.159
-323.099	-76.004	-0.213	-0.075
-322.085	-100.195	-0.419	0.104
-321.070	-24.982	0.365	0.215
-320.056	-200.000	-0.064	0.303
-319.041	-200.000	0.048	0.408
-318.026	33.215	-0.096	0.083
-317.012	-55.852	0.069	0.031
-315.997	-28.613	0.208	-0.119
-314.983	-54.384	-0.282	-0.127
-313.968	-13.510	-0.136	-0.088
-312.953	1.832	0.281	0.201
-311.939	-200.000	0.062	0.283
-310.924	-28.028	-0.093	0.053
-309.910	-92.467	-0.212	-0.059
-308.895	-84.184	0.225	-0.071
-307.880	106.771	0.133	0.157
-306.866	-200.000	-0.003	0.213
-305.851	45.690	-0.201	-0.185
-304.837	-200.000	-0.005	0.132
-303.822	-200.000	0.001	0.257
-302.807	-48.304	-0.140	0.067
-301.793	-57.161	0.185	0.081
-300.778	-18.279	-0.224	-0.139
-299.764	137.462	0.219	-0.284
-298.749	218.323	0.020	0.032
-297.735	-62.026	0.113	0.047
-296.720	-136.272	-0.161	0.019
-295.705	22.099	-0.208	-0.168
-294.691	-200.000	0.003	-0.152
-293.676	149.497	-0.032	0.043
-292.662	-200.000	0.009	-0.137
-291.647	800.000	-0.078	-0.259
-290.632	220.492	-0.146	0.232
-289.618	-131.886	-0.170	0.022
-288.603	-17.743	-0.136	0.085
-287.589	-101.007	-0.050	-0.012
-286.574	800.000	-0.091	0.328
-285.559	269.088	-0.094	0.163
-284.545	468.172	0.123	-0.274
-283.530	110.227	-0.040	-0.048
-282.516	163.709	0.144	0.200
-281.501	-47.375	0.209	-0.101
-280.486	-38.620	-0.359	-0.188
-279.472	-200.000	0.019	0.145
-278.457	-122.558	0.301	-0.048
-277.443	210.440	-0.241	-0.376
-276.428	-200.000	-0.014	-0.111
-275.413	-200.000	0.009	0.178
-274.399	-0.307	-0.109	-0.077
-273.384	-13.495	0.267	-0.172
-272.370	-200.000	-0.004	0.050
-271.355	465.913	0.111	0.245
-270.340	-149.035	0.150	-0.012
-269.326	800.000	-0.086	-0.255
-268.311	800.000	0.087	0.310
-267.297	-17.161	0.232	-0.145
-266.282	-200.000	0.034	0.203
-265.267	800.000	0.110	0.302
-264.253	-139.902	-0.128	0.013
-263.238	-66.011	-0.585	0.231
-262.224	-37.821	-0.327	0.173
-261.209	86.933	0.283	0.310
-260.195	462.845	0.068	0.151
-259.180	-200.000	-0.015	0.159
-258.165	800.000	0.051	0.217
-257.151	122.220	0.106	0.131
-256.136	-41.686	-0.139	0.071
-255.122	145.817	0.100	0.133
-254.107	200.244	0.045	0.068
-253.092	-80.120	-0.203	0.067
-252.078	-33.501	0.033	0.018
-251.063	-56.826	0.334	-0.146
-250.049	-200.000	-0.019	0.123
-249.034	-157.977	0.134	-0.008
-248.019	-105.491	0.182	-0.041
-247.005	143.645	-0.280	-0.369
-245.990	-87.350	0.278	-0.084
-244.976	203.578	0.112	-0.172
-243.961	-6.223	-0.105	-0.071
-242.946	187.592	0.204	0.301
-241.932	-57.014	-0.131	0.057
-240.917	147.647	0.066	-0.089
-239.903	111.545	-0.132	-0.158
-238.888	-150.895	-0.237	-0.018
-237.873	16.021	0.132	-0.103
-236.859	30.589	0.078	0.066
-235.844	131.338	-0.199	0.253
-234.830	50.168	-0.010	-0.010
-233.815	-200.000	0.012	0.124
-232.800	-200.000	0.012	-0.369
-231.786	-96.371	0.213	-0.056
-230.771	800.000	-0.025	-0.102
-229.757	68.098	0.309	0.313
-228.742	197.240	-0.124	0.187
-227.727	-200.000	0.027	-0.125
-226.713	-200.000	-0.046	0.327
-225.698	-14.076	-0.118	-0.075
-224.684	95.409	0.042	-0.048
-223.669	-71.838	0.049	0.018
-222.655	-98.274	-0.195	0.049
-221.640	-82.298	-0.123	-0.040
-220.625	-200.000	-0.004	0.240
-219.611	20.630	0.299	0.239
-218.596	163.167	-0.090	0.125
-217.582	601.740	-0.081	0.199
-216.567	98.086	0.123	-0.140
-215.552	-101.263	0.105	0.025
-214.538	-84.444	-0.175	-0.055
-213.523	53.539	-0.197	-0.187
-212.509	-82.981	0.156	0.050
-211.494	161.978	-0.127	0.176
-210.479	-21.998	-0.158	0.095
-209.465	100.287	-0.114	0.130
-208.450	-18.299	0.119	0.073
-207.436	-101.823	-0.151	-0.036
-206.421	-7.506	-0.481	0.322
-205.406	-40.964	-0.169	-0.086
-204.392	181.835	0.130	-0.190
-203.377	-200.000	-0.013	0.194
-202.363	10.227	0.219	0.164
-201.348	24.733	-0.116	0.095
-200.333	-200.000	-0.089	0.443
-199.319	794.075	-0.068	-0.185
-198.304	-117.655	0.066	0.012
-197.290	-66.517	0.277	-0.108
-196.275	118.128	0.275	-0.335
-195.260	-200.000	0.003	-0.269
-194.246	-93.983	-0.248	0.067
-193.231	28.159	0.145	0.121
-192.217	-200.000	-0.011	0.353
-191.202	-38.926	0.266	0.139
-190.187	-110.484	-0.093	0.019
-189.173	-77.423	0.192	0.066
-188.158	-163.237	-0.101	0.005
-187.144	-23.370	0.249	0.148
-186.129	-200.000	-0.039	0.244
-185.114	-120.091	0.138	-0.023
-184.100	-85.291	-0.428	0.132
-183.085	-25.616	0.164	-0.096
-182.071	83.991	0.163	-0.176
-181.056	32.034	0.178	-0.151
-180.042	-128.544	-0.068	0.010
-179.027	-117.204	0.081	0.014
-178.012	-164.699	-0.343	0.015
-176.998	800.000	0.080	-0.246
-175.983	-0.251	-0.270	0.190
-174.969	-69.889	0.070	0.026
-173.954	545.471	0.108	-0.255
-172.939	115.986	0.123	-0.148
-171.925	-168.669	0.436	0.016
-170.910	730.495	0.099	-0.260
-169.896	67.313	0.157	-0.158
-168.881	230.736	-0.152	-0.246
-167.866	-200.000	-0.014	-0.076
-166.852	-65.475	-0.306	0.121
-165.837	-69.039	-0.182	0.069
-164.823	73.270	0.062	-0.064
-163.808	80.405	0.175	0.186
-162.793	-200.000	0.016	0.307
-161.779	-95.312	-0.223	0.059
-160.764	68.196	-0.023	0.023
-159.750	-162.298	0.221	0.011
-158.735	178.804	-0.290	0.418
-157.720	540.052	-0.096	-0.226
-156.706	84.322	0.150	-0.161
-155.691	-117.596	-0.240	-0.043
-154.677	-16.018	-0.190	0.119
-153.662	-200.000	0.007	0.162
-152.647	-103.720	0.116	-0.027
-151.633	800.000	0.023	-0.071
-150.618	-121.875	0.314	0.051
-149.604	-40.953	-0.043	0.022
-148.589	198.795	0.117	0.176
-147.574	698.724	0.069	-0.179
-146.560	-94.361	0.171	0.046
-145.545	-29.095	-0.212	0.120
-144.531	-159.784	0.294	0.016
-143.516	-200.000	-0.013	0.062
-142.502	203.764	0.078	-0.119
-141.487	73.539	-0.149	0.154
-140.472	-53.274	0.208	0.094
-139.458	-176.024	-0.143	0.004
-138.443	-20.285	0.526	-0.319
-137.429	-57.921	0.216	-0.093
-136.414	149.878	-0.169	0.225
-135.399	278.662	-0.032	0.056
-134.385	-146.345	-0.169	0.015
-133.370	82.562	-0.242	0.259
-132.356	-200.000	0.027	0.155
-131.341	-16.152	0.151	0.095
-130.326	800.000	0.073	-0.240
-129.312	800.000	-0.026	-0.098
-128.297	36.150	0.168	0.146
-127.283	-133.728	0.047	0.006
-126.268	-6.709	-0.226	-0.152
-125.253	555.637	0.028	0.065
-124.239	-119.622	-0.250	-0.043
-123.224	-35.184	-0.241	0.129
-122.210	429.726	0.122	0.259
-121.195	137.078	-0.082	0.105
