DTS Sentinel unit serial number:	SN413079Multiplexer serial number:	ORYXHardware model number:	OX4-SRSoftware version number:	ORYX F/W v4.00 Oryx Data Collector v3.7.2.0data status	okinstallation	princeton_trtdifferential loss correction	single-endedforward channel	channel 3reverse channel	N/Adate	2019/09/12time	22:40:34forward acquisition time	60.00reverse acquisition time	0.00gamma	496.2192k internal	0.2327k external	0.2327temperature offset calibration	1.0127default loss term (dB/km)	0.3790temperature slope calibration	1.0000multiplexer offset coefficient	1.0000multiplexer slope coefficient	1.0000fibre end	0.00T internal ref (°C)	29.56T ext. ref 1 (°C)	3.75T ext. ref 2 (°C)	24.18length (m)	temperature (°C)	Stokes	anti-Stokes-747.200	800.000	-0.098	0.287
-746.185	800.000	-0.079	0.289
-745.171	-119.611	-0.161	-0.028
-744.156	59.862	-0.034	-0.034
-743.142	-161.385	0.158	0.008
-742.127	90.756	-0.279	0.316
-741.112	287.688	-0.012	0.022
-740.098	-169.643	0.233	-0.009
-739.083	28.049	0.182	-0.155
-738.069	94.592	0.192	0.220
-737.054	-151.893	-0.345	-0.025
-736.039	78.042	-0.358	-0.385
-735.025	120.710	0.183	-0.229
-734.010	-76.913	0.129	-0.046
-732.996	-77.312	0.202	0.071
-731.981	411.933	0.116	-0.247
-730.966	18.805	-0.256	-0.206
-729.952	13.300	-0.187	0.146
-728.937	100.980	-0.203	-0.238
-727.923	-96.353	-0.149	0.040
-726.908	70.625	-0.189	0.197
-725.894	-200.000	-0.001	-0.041
-724.879	-13.053	0.326	-0.214
-723.864	404.120	0.066	-0.140
-722.850	-200.000	0.024	0.134
-721.835	-98.930	-0.053	0.013
-720.821	-200.000	0.015	-0.216
-719.806	74.164	0.105	-0.111
-718.791	-200.000	-0.032	-0.252
-717.777	27.159	-0.106	-0.089
-716.762	0.850	0.103	0.075
-715.748	-56.960	0.367	0.163
-714.733	15.540	-0.200	-0.158
-713.718	-1.474	-0.145	-0.103
-712.704	800.000	0.130	0.454
-711.689	83.081	-0.120	0.131
-710.675	800.000	-0.113	-0.416
-709.660	-96.074	0.162	0.043
-708.645	31.835	0.145	-0.126
-707.631	-57.727	0.194	0.086
-706.616	39.649	-0.354	0.320
-705.602	14.784	-0.162	-0.127
-704.587	46.229	0.095	-0.088
-703.572	-124.192	0.139	-0.022
-702.558	311.976	-0.086	0.163
-701.543	-63.890	0.411	-0.169
-700.529	248.692	-0.242	0.412
-699.514	242.277	0.121	-0.203
-698.499	-58.607	0.176	-0.077
-697.485	-200.000	-0.065	0.501
-696.470	-90.841	-0.079	-0.023
-695.456	106.765	0.086	0.102
-694.441	800.000	-0.004	0.013
-693.426	-94.083	0.138	-0.038
-692.412	42.542	-0.177	-0.162
-691.397	-200.000	0.004	-0.230
-690.383	800.000	-0.046	0.154
-689.368	-146.489	0.069	0.006
-688.354	60.368	-0.067	-0.067
-687.339	-63.193	-0.158	0.065
-686.324	521.780	-0.068	-0.159
-685.310	-6.227	-0.209	0.144
-684.295	106.502	-0.243	0.290
-683.281	136.786	0.154	0.202
-682.266	800.000	-0.044	0.149
-681.251	800.000	-0.018	-0.067
-680.237	57.625	-0.324	-0.319
-679.222	800.000	-0.123	-0.354
-678.208	-23.699	0.270	-0.162
-677.193	800.000	0.032	-0.114
-676.178	800.000	0.067	-0.293
-675.164	800.000	-0.033	-0.127
-674.149	-102.304	0.104	-0.025
-673.135	-200.000	-0.013	0.339
-672.120	42.564	0.157	0.143
-671.105	155.534	0.134	0.186
-670.091	259.936	0.083	-0.144
-669.076	-200.000	0.016	0.153
-668.062	-22.382	-0.107	-0.065
-667.047	9.784	-0.177	-0.135
-666.032	435.177	0.102	-0.223
-665.018	-108.182	0.112	-0.024
-664.003	-39.269	0.135	-0.071
-662.989	-108.283	0.241	-0.052
-661.974	291.180	-0.128	0.234
-660.959	-200.000	-0.004	0.264
-659.945	800.000	-0.042	0.154
-658.930	-60.749	0.129	-0.055
-657.916	-200.000	0.018	0.095
-656.901	192.654	0.174	0.264
-655.886	800.000	-0.053	-0.199
-654.872	126.758	0.058	0.073
-653.857	626.871	0.114	-0.288
-652.843	-62.319	0.227	0.095
-651.828	50.420	-0.366	0.348
-650.814	-108.485	0.145	-0.031
-649.799	709.142	0.065	0.174
-648.784	662.227	-0.081	-0.210
-647.770	325.755	-0.115	-0.221
-646.755	800.000	-0.050	-0.144
-645.741	-2.400	-0.295	0.207
-644.726	399.835	-0.122	-0.257
-643.711	-200.000	0.018	-0.230
-642.697	-79.558	-0.213	-0.072
-641.682	105.452	0.106	0.126
-640.668	351.858	-0.140	-0.279
-639.653	-200.000	-0.001	-0.167
-638.638	553.043	0.080	0.193
-637.624	2.821	0.117	0.085
-636.609	90.518	0.043	0.048
-635.595	178.406	0.103	0.151
-634.580	-200.000	0.059	-0.339
-633.565	-66.344	-0.264	0.105
-632.551	800.000	0.103	-0.298
-631.536	-157.618	-0.140	-0.008
-630.522	-71.703	0.180	0.068
-629.507	-68.918	-0.011	0.004
-628.492	398.187	0.055	-0.116
-627.478	-75.337	0.097	-0.035
-626.463	-200.000	0.045	-0.325
-625.449	53.321	-0.159	0.153
-624.434	-184.630	-0.113	-0.002
-623.419	-63.039	0.126	0.052
-622.405	131.404	-0.251	-0.324
-621.390	70.886	-0.162	0.169
-620.376	-20.305	0.183	-0.113
-619.361	-58.362	0.191	-0.083
-618.346	800.000	-0.076	-0.237
-617.332	724.122	0.055	0.146
-616.317	236.130	0.331	-0.549
-615.303	3.325	0.169	0.123
-614.288	229.974	-0.092	-0.151
-613.273	-5.388	0.235	0.162
-612.259	110.765	-0.147	-0.177
-611.244	44.927	-0.176	-0.163
-610.230	-127.947	-0.285	0.041
-609.215	-200.000	-0.006	0.134
-608.201	186.778	-0.120	0.180
-607.186	-15.011	-0.106	-0.068
-606.171	-85.756	0.130	-0.040
-605.157	-200.000	-0.041	0.260
-604.142	-200.000	0.026	0.208
-603.128	-90.238	0.153	-0.045
-602.113	800.000	-0.080	-0.287
-601.098	800.000	0.014	-0.058
-600.084	100.498	-0.178	-0.207
-599.069	-165.864	-0.419	-0.018
-598.055	-90.418	-0.050	0.015
-597.040	66.168	0.118	0.120
-596.025	-200.000	0.048	0.287
-595.011	-200.000	-0.042	0.202
-593.996	55.893	-0.222	0.215
-592.982	151.326	0.278	-0.380
-591.967	-7.181	0.139	0.094
-590.952	218.563	-0.008	0.012
-589.938	-77.675	0.163	-0.057
-588.923	369.180	0.013	0.027
-587.909	-200.000	-0.023	0.245
-586.894	-74.063	0.159	-0.058
-585.879	576.762	-0.085	0.208
-584.865	77.383	0.140	-0.149
-583.850	2.977	-0.330	-0.240
-582.836	705.023	0.087	0.231
-581.821	-23.344	0.167	0.101
-580.806	299.724	-0.057	-0.106
-579.792	-184.298	0.147	-0.002
-578.777	800.000	-0.047	-0.141
-577.763	800.000	0.059	-0.185
-576.748	294.895	-0.119	-0.218
-575.733	-157.474	0.257	-0.015
-574.719	-84.555	0.151	0.048
-573.704	-63.266	-0.161	0.067
-572.690	350.514	-0.080	0.158
-571.675	800.000	0.068	0.191
-570.661	37.898	0.194	0.173
-569.646	45.917	0.141	0.131
-568.631	640.516	0.030	-0.076
-567.617	-24.085	-0.042	-0.025
-566.602	-129.948	0.109	0.015
-565.588	-95.343	0.054	-0.014
-564.573	-169.408	0.293	-0.011
-563.558	-116.639	0.045	-0.008
-562.544	-56.643	-0.324	0.144
-561.529	287.002	0.136	0.246
-560.515	-33.490	-0.268	-0.149
-559.500	-200.000	0.019	-0.245
-558.485	-200.000	-0.038	-0.275
-557.471	-34.049	-0.150	-0.083
-556.456	-69.876	-0.124	-0.048
-555.442	-200.000	-0.027	-0.222
-554.427	800.000	0.038	-0.161
-553.412	-139.277	-0.046	0.005
-552.398	-150.446	-0.105	-0.008
-551.383	252.117	-0.181	-0.309
-550.369	-21.447	-0.174	0.106
-549.354	800.000	0.063	-0.194
-548.339	-129.578	-0.243	0.034
-547.325	62.358	0.129	0.128
-546.310	246.499	-0.143	-0.242
-545.296	347.789	-0.083	0.164
-544.281	800.000	-0.056	0.174
-543.266	-78.146	-0.177	0.061
-542.252	-55.089	0.247	0.111
-541.237	-26.216	0.182	0.107
-540.223	-132.718	-0.104	-0.013
-539.208	159.668	-0.067	-0.094
-538.193	-14.114	-0.126	-0.081
-537.179	-70.826	0.224	-0.084
-536.164	307.759	-0.145	0.270
-535.150	126.412	-0.232	0.294
-534.135	69.412	0.132	-0.136
-533.121	9.303	0.112	0.085
-532.106	-74.753	-0.239	-0.086
-531.091	-200.000	0.043	-0.269
-530.077	-12.662	0.177	0.115
-529.062	800.000	-0.033	0.115
-528.048	-88.419	0.085	0.025
-527.033	800.000	-0.028	0.083
-526.018	-77.047	-0.183	-0.064
-525.004	-200.000	0.010	-0.105
-523.989	94.298	-0.044	-0.050
-522.975	-49.476	-0.019	0.009
-521.960	49.445	0.174	-0.164
-520.945	-140.745	0.078	-0.008
-519.931	50.613	0.180	0.170
-518.916	126.593	-0.198	0.250
-517.902	-113.294	-0.243	0.048
-516.887	58.567	-0.164	-0.161
-515.872	-48.383	0.102	0.049
-514.858	87.434	-0.115	-0.127
-513.843	-200.000	-0.025	-0.209
-512.829	-17.269	0.203	0.128
-511.814	-200.000	0.000	-0.217
-510.799	-77.502	0.230	-0.080
-509.785	49.660	0.181	0.170
-508.770	-121.072	0.355	-0.060
-507.756	518.169	0.172	0.403
-506.741	215.691	-0.199	0.316
-505.726	15.439	0.139	-0.109
-504.712	483.515	0.110	-0.251
-503.697	37.933	-0.271	0.241
-502.683	-200.000	-0.031	-0.259
-501.668	71.063	-0.114	0.118
-500.653	800.000	-0.083	-0.309
-499.639	-186.335	0.252	0.004
-498.624	-200.000	0.018	0.103
-497.610	-200.000	-0.008	-0.250
-496.595	-49.334	-0.243	-0.116
-495.581	95.989	0.237	0.271
-494.566	79.745	0.125	0.134
-493.551	-200.000	0.028	0.235
-492.537	-200.000	0.077	-0.370
-491.522	800.000	-0.059	-0.186
-490.508	127.136	-0.020	0.025
-489.493	-26.346	0.161	-0.095
-488.478	-50.299	-0.108	0.051
-487.464	-160.528	-0.121	-0.006
-486.449	173.129	0.095	0.136
-485.435	-53.992	-0.095	-0.043
-484.420	-200.000	0.034	-0.199
-483.405	800.000	0.064	-0.250
-482.391	800.000	0.074	-0.228
-481.376	187.202	-0.194	-0.289
-480.362	231.215	-0.191	-0.313
-479.347	128.963	-0.183	0.232
-478.332	-5.253	0.285	0.196
-477.318	73.027	-0.139	-0.145
-476.303	-66.783	-0.313	-0.123
-475.289	9.928	0.238	0.180
-474.274	156.651	0.161	0.221
-473.259	91.850	-0.206	-0.231
-472.245	141.242	0.133	-0.175
-471.230	130.620	0.105	0.134
-470.216	-67.992	-0.123	-0.048
-469.201	-82.774	-0.083	0.027
-468.186	77.559	-0.291	-0.309
-467.172	8.831	-0.245	0.184
-466.157	-128.249	-0.149	0.021
-465.143	-33.159	0.227	-0.126
-464.128	-200.000	0.004	-0.202
-463.113	-200.000	-0.004	0.017
-462.099	800.000	0.063	0.198
-461.084	-200.000	0.002	-0.058
-460.070	-200.000	-0.020	0.286
-459.055	800.000	-0.085	-0.261
-458.040	194.558	0.098	-0.148
-457.026	-32.914	0.067	-0.037
-456.011	237.838	-0.086	-0.142
-454.997	-47.794	0.164	0.079
-453.982	-82.918	-0.121	0.039
-452.968	144.705	-0.092	-0.123
-451.953	-200.000	-0.002	0.167
-450.938	-79.811	-0.309	0.104
-449.924	-92.501	-0.031	0.009
-448.909	-111.634	0.015	-0.003
-447.895	502.190	0.098	-0.226
-446.880	49.195	-0.304	-0.285
-445.865	-13.804	0.263	0.169
-444.851	-200.000	0.022	-0.112
-443.836	-119.874	-0.170	-0.029
-442.822	-142.681	0.336	-0.033
-441.807	690.974	0.064	-0.166
-440.792	-65.913	-0.393	-0.157
-439.778	-45.628	-0.039	-0.019
-438.763	-200.000	-0.003	-0.236
-437.749	-200.000	-0.071	-0.329
-436.734	21.051	0.108	0.087
-435.719	-200.000	-0.021	-0.103
-434.705	153.255	-0.207	-0.282
-433.690	-49.325	-0.171	-0.081
-432.676	-200.000	0.039	0.276
-431.661	-61.984	0.345	0.144
-430.646	1.031	0.089	0.063
-429.632	767.367	-0.121	0.329
-428.617	-31.432	0.139	-0.078
-427.603	-48.957	0.376	0.179
-426.588	800.000	-0.027	-0.115
-425.573	-200.000	0.000	0.003
-424.559	-200.000	0.000	0.487
-423.544	800.000	0.121	0.448
-422.530	125.652	-0.129	-0.162
-421.515	-200.000	0.006	0.259
-420.500	229.479	-0.123	0.200
-419.486	-200.000	0.008	-0.062
-418.471	-78.786	-0.071	0.024
-417.457	-13.855	0.117	-0.076
-416.442	-24.493	-0.246	0.146
-415.428	800.000	-0.055	0.176
-414.413	-115.244	0.141	-0.027
-413.398	-200.000	-0.000	-0.013
-412.384	162.529	0.166	0.232
-411.369	-90.025	-0.201	0.058
-410.355	-200.000	0.028	0.195
-409.340	-200.000	0.042	-0.348
-408.325	-200.000	0.514	0.002
-407.311	-105.145	0.272	-0.062
-406.296	160.659	0.299	0.416
-405.282	15.891	0.077	-0.060
-404.267	-40.311	0.028	-0.014
-403.252	379.935	0.127	0.259
-402.238	800.000	-0.101	-0.364
-401.223	-88.945	-0.295	-0.087
-400.209	289.937	-0.148	-0.267
-399.194	-133.251	0.342	0.043
-398.179	25.555	-0.268	0.222
-397.165	-200.000	0.022	0.131
-396.150	-32.621	0.210	0.116
-395.136	-126.630	0.093	0.014
-394.121	121.471	-0.081	-0.100
-393.106	198.146	0.231	0.351
-392.092	-81.862	0.197	0.064
-391.077	-60.070	-0.229	0.097
-390.063	-105.533	-0.151	-0.034
-389.048	-1.552	0.210	-0.147
-388.033	316.015	-0.052	-0.098
-387.019	52.989	-0.217	-0.206
-386.004	594.350	0.169	0.415
-384.990	-82.433	-0.111	-0.036
-383.975	800.000	-0.060	0.179
-382.960	401.097	-0.099	0.207
-381.946	-200.000	0.029	0.161
-380.931	109.713	-0.158	-0.188
-379.917	114.223	-0.038	-0.046
-378.902	-200.000	-0.010	-0.092
-377.888	321.840	-0.057	0.107
-376.873	-140.509	-0.295	-0.030
-375.858	-45.353	-0.250	-0.123
-374.844	145.152	0.205	0.273
-373.829	-200.000	-0.045	-0.394
-372.815	-105.752	0.174	0.039
-371.800	-200.000	0.038	-0.318
-370.785	77.058	-0.019	0.020
-369.771	-110.193	0.252	-0.052
-368.756	131.500	-0.200	0.256
-367.742	800.000	0.089	0.322
-366.727	-110.655	0.296	0.061
-365.712	-62.896	0.066	0.027
-364.698	-200.000	0.004	-0.240
-363.683	-200.000	-0.067	-0.432
-362.669	-25.413	0.062	0.036
-361.654	234.669	-0.200	-0.328
-360.639	636.978	-0.076	0.191
-359.625	-126.736	-0.186	0.027
-358.610	800.000	0.068	-0.218
-357.596	544.196	-0.125	0.297
-356.581	128.492	-0.049	0.062
-355.566	417.041	0.087	0.185
-354.552	-45.769	0.206	-0.101
-353.537	-132.884	-0.223	0.028
-352.523	-200.000	-0.001	-0.131
-351.508	-35.679	0.230	-0.124
-350.493	-0.415	0.219	-0.154
-349.479	-93.502	-0.194	0.053
-348.464	179.204	0.075	0.110
-347.450	257.653	0.179	0.306
-346.435	-200.000	0.011	-0.074
-345.420	-156.235	0.272	-0.017
-344.406	58.434	-0.300	-0.292
-343.391	-56.940	0.349	-0.153
-342.377	-200.000	0.022	0.118
-341.362	-79.424	-0.167	0.056
-340.348	5.299	-0.038	-0.028
-339.333	-9.983	-0.032	-0.021
-338.318	-102.342	-0.136	0.032
-337.304	-141.876	0.368	-0.037
-336.289	-75.997	-0.095	-0.033
-335.275	-101.846	0.195	0.047
-334.260	84.365	-0.228	-0.248
-333.245	-152.508	0.124	0.009
-332.231	-200.000	-0.049	0.237
-331.216	682.795	-0.023	-0.059
-330.202	-42.548	0.133	0.067
-329.187	539.027	-0.091	-0.215
-328.172	-147.535	-0.148	-0.012
-327.158	-22.845	0.254	0.152
-326.143	28.353	0.248	-0.208
-325.129	32.801	-0.093	-0.080
-324.114	-112.644	0.108	0.021
-323.099	17.759	-0.037	-0.029
-322.085	47.491	-0.292	0.270
-321.070	-200.000	-0.033	-0.170
-320.056	-150.807	-0.157	0.012
-319.041	800.000	-0.053	-0.220
-318.026	800.000	-0.049	0.159
-317.012	7.924	-0.188	0.140
-315.997	-171.993	0.441	0.014
-314.983	-200.000	-0.001	-0.243
-313.968	-78.063	0.217	0.074
-312.953	-9.777	-0.056	-0.037
-311.939	106.809	-0.195	0.229
-310.924	800.000	-0.103	0.340
-309.910	-88.687	0.103	-0.030
-308.895	-101.539	-0.101	-0.024
-307.880	755.380	-0.028	-0.074
-306.866	800.000	0.067	-0.195
-305.851	-122.515	0.154	0.025
-304.837	114.793	0.140	-0.169
-303.822	-139.089	-0.260	0.028
-302.807	-72.354	0.055	-0.020
-301.793	-200.000	-0.042	-0.234
-300.778	-200.000	0.026	0.219
-299.764	17.209	-0.228	0.179
-298.749	366.913	0.147	0.293
-297.735	75.179	-0.247	0.258
-296.720	-27.197	-0.078	-0.045
-295.705	-54.956	0.414	0.185
-294.691	202.503	-0.242	0.370
-293.676	47.589	0.225	-0.208
-292.662	-200.000	-0.005	0.219
-291.647	461.790	-0.079	0.173
-290.632	-59.629	0.400	0.170
-289.618	131.100	0.093	-0.119
-288.603	800.000	0.076	-0.269
-287.589	-33.841	-0.274	-0.149
-286.574	208.909	-0.159	-0.247
-285.559	79.386	0.138	-0.147
-284.545	-200.000	0.002	0.040
-283.530	-1.734	-0.468	0.326
-282.516	-52.207	0.500	0.230
-281.501	-49.797	0.354	0.166
-280.486	305.922	0.076	-0.140
-279.472	800.000	-0.029	0.094
-278.457	800.000	0.039	-0.131
-277.443	-200.000	0.029	0.220
-276.428	101.042	-0.133	0.153
-275.413	-68.752	0.183	-0.070
-274.399	-134.366	0.280	0.034
-273.384	-12.123	-0.206	0.134
-272.370	67.744	-0.102	0.103
-271.355	-10.852	-0.186	-0.121
-270.340	800.000	-0.024	0.099
-269.326	-77.866	0.180	0.062
-268.311	800.000	-0.053	0.168
-267.297	800.000	0.049	0.184
-266.282	-117.396	-0.376	0.067
-265.267	82.897	0.182	0.196
-264.253	-149.579	0.581	0.045
-263.238	800.000	-0.066	0.226
-262.224	-29.702	-0.146	0.083
-261.209	800.000	0.102	0.363
-260.195	150.672	0.112	-0.150
-259.180	253.251	0.081	-0.137
-258.165	115.504	-0.178	0.215
-257.151	800.000	-0.095	-0.299
-256.136	114.990	-0.299	-0.361
-255.122	-200.000	0.016	0.144
-254.107	-200.000	0.029	0.248
-253.092	-178.573	-0.243	-0.006
-252.078	-109.743	0.152	0.032
-251.063	-200.000	0.151	0.001
-250.049	-81.582	-0.088	-0.029
-249.034	161.243	0.073	0.101
-248.019	-14.511	-0.386	0.246
-247.005	622.043	0.152	0.377
-245.990	184.522	0.064	-0.094
-244.976	94.344	-0.171	-0.193
-243.961	106.498	0.120	0.141
-242.946	281.861	-0.105	-0.187
-241.932	518.469	-0.047	0.110
-240.917	20.808	-0.322	0.258
-239.903	-106.473	-0.122	0.027
-238.888	-116.849	0.215	0.039
-237.873	800.000	-0.043	-0.127
-236.859	-100.349	-0.068	0.017
-235.844	192.201	0.036	-0.053
-234.830	-83.456	0.072	-0.023
-233.815	121.798	0.121	0.149
-232.800	-12.827	-0.215	0.138
-231.786	577.934	0.065	-0.156
-230.771	-164.946	0.207	0.009
-229.757	-200.000	-0.031	-0.164
-228.742	41.635	-0.075	0.067
-227.727	-200.000	0.006	-0.123
-226.713	-37.709	-0.044	-0.023
-225.698	176.710	-0.125	0.179
-224.684	-69.287	-0.233	0.088
-223.669	7.036	0.191	0.141
-222.655	-125.594	0.240	0.036
-221.640	220.869	0.088	-0.140
-220.625	800.000	0.015	0.065
-219.611	800.000	0.048	0.151
-218.596	-142.487	0.170	-0.017
-217.582	565.640	-0.065	0.157
-216.567	186.968	-0.121	0.178
-215.552	-3.525	0.455	-0.312
-214.538	91.558	0.306	0.340
-213.523	-186.596	0.153	0.002
-212.509	800.000	-0.088	-0.314
-211.494	-62.160	-0.154	0.063
-210.479	482.009	-0.085	-0.191
-209.465	-173.717	-0.179	0.005
-208.450	524.042	0.088	0.205
-207.436	43.804	0.069	0.063
-206.421	267.239	0.016	-0.027
-205.406	252.235	-0.054	-0.091
-204.392	-50.156	-0.091	0.043
-203.377	-200.000	-0.009	0.157
-202.363	99.696	0.215	0.246
-201.348	-156.981	-0.183	0.011
-200.333	96.348	0.048	-0.054
-199.319	296.235	-0.095	-0.172
-198.304	-200.000	0.022	-0.205
-197.290	800.000	-0.061	-0.240
-196.275	-119.715	-0.325	0.055
-195.260	800.000	0.047	-0.173
-194.246	248.694	-0.100	0.166
-193.231	-113.589	0.137	0.026
-192.217	64.095	0.086	-0.085
-191.202	-200.000	-0.028	-0.218
-190.187	224.462	-0.079	0.126
-189.173	10.593	0.084	-0.063
-188.158	414.419	-0.071	0.148
-187.144	-200.000	-0.028	0.226
-186.129	-187.395	-0.063	0.001
-185.114	42.915	-0.118	-0.106
-184.100	-200.000	-0.040	0.186
-183.085	-200.000	-0.006	-0.171
-182.071	-20.363	-0.215	0.130
-181.056	-156.159	0.135	0.008
-180.042	-200.000	-0.041	-0.190
-179.027	-88.957	0.121	-0.035
-178.012	516.782	0.133	-0.307
-176.998	800.000	0.040	-0.128
-175.983	711.657	-0.069	0.179
-174.969	-54.045	-0.086	0.039
-173.954	-122.402	-0.298	-0.048
-172.939	-200.000	-0.054	-0.425
-171.925	-128.072	-0.184	0.026
-170.910	91.804	0.194	0.216
-169.896	27.204	0.126	0.104
-168.881	-200.000	-0.019	-0.352
-167.866	-13.077	0.315	0.202
-166.852	-114.295	-0.433	-0.082
-165.837	-75.330	-0.162	-0.057
-164.823	800.000	0.012	0.037
-163.808	-31.708	0.273	-0.151
-162.793	187.630	-0.106	0.157
-161.779	-72.204	-0.040	-0.014
-160.764	65.388	-0.346	-0.345
-159.750	-200.000	0.018	-0.100
-158.735	-31.254	0.169	0.094
-157.720	180.733	0.165	0.239
-156.706	3.610	0.043	0.031
-155.691	133.149	-0.152	-0.193
-154.677	-108.591	0.143	0.030
-153.662	63.097	-0.099	0.097
-152.647	143.272	-0.028	0.037
-151.633	-78.611	0.392	0.132
-150.618	513.067	0.045	-0.103
-149.604	-84.983	0.143	0.044
-148.589	-200.000	0.023	0.383
-147.574	-200.000	-0.025	0.199
-146.560	-147.326	0.054	0.005
-145.545	800.000	-0.086	0.279
-144.531	-171.570	-0.029	0.001
-143.516	80.509	-0.062	0.065
-142.502	-50.861	-0.211	0.098
-141.487	-200.000	-0.030	0.226
-140.472	-150.471	0.231	-0.017
-139.458	-23.763	0.185	-0.109
-138.443	-3.924	-0.110	0.075
-137.429	-34.795	0.265	0.143
-136.414	-200.000	0.034	0.353
-135.399	603.875	-0.067	-0.164
-134.385	-47.946	-0.045	-0.022
-133.370	222.093	0.114	-0.181
-132.356	288.706	-0.255	0.455
-131.341	78.103	0.252	0.264
-130.326	261.934	-0.105	-0.180
-129.312	-23.494	0.023	-0.014
-128.297	-200.000	0.048	0.237
-127.283	-78.054	0.083	0.028
-126.268	52.543	-0.172	-0.162
-125.253	-7.520	0.127	-0.085
-124.239	12.447	-0.133	0.101
-123.224	5.966	0.145	-0.106
-122.210	-65.166	-0.302	0.120
-121.195	-75.825	0.204	0.071
-120.180	800.000	-0.030	-0.114
