DTS Sentinel unit serial number:	SN413079Multiplexer serial number:	ORYXHardware model number:	OX4-SRSoftware version number:	ORYX F/W v4.00 Oryx Data Collector v3.7.2.0data status	okinstallation	princeton_trtdifferential loss correction	single-endedforward channel	channel 3reverse channel	N/Adate	2019/09/14time	15:32:35forward acquisition time	60.00reverse acquisition time	0.00gamma	496.2192k internal	0.2294k external	0.2294temperature offset calibration	1.0058default loss term (dB/km)	0.3790temperature slope calibration	1.0000multiplexer offset coefficient	1.0000multiplexer slope coefficient	1.0000fibre end	0.00T internal ref (°C)	38.87T ext. ref 1 (°C)	5.14T ext. ref 2 (°C)	33.60length (m)	temperature (°C)	Stokes	anti-Stokes-747.200	-149.760	-0.253	-0.020
-746.185	-200.000	-0.024	0.258
-745.171	-77.402	0.384	0.136
-744.156	-200.000	-0.050	0.323
-743.142	-149.678	0.341	0.027
-742.127	-200.000	0.005	0.125
-741.112	70.429	-0.184	-0.195
-740.098	800.000	0.077	0.297
-739.083	-24.984	-0.324	0.197
-738.069	-11.454	0.308	-0.207
-737.054	-17.685	0.280	0.180
-736.039	25.321	-0.169	0.143
-735.025	-13.849	0.217	0.143
-734.010	253.072	0.194	-0.338
-732.996	755.443	0.102	-0.283
-731.981	-64.768	-0.207	0.086
-730.966	-200.000	0.044	-0.226
-729.952	2.998	0.174	-0.129
-728.937	-200.000	0.005	-0.132
-727.923	17.302	-0.224	0.182
-726.908	-200.000	0.050	-0.386
-725.894	164.923	-0.064	0.092
-724.879	-176.492	0.264	0.007
-723.864	-121.583	-0.213	0.036
-722.850	800.000	-0.091	-0.338
-721.835	463.825	-0.079	-0.180
-720.821	-200.000	0.026	0.131
-719.806	277.099	-0.137	-0.248
-718.791	800.000	0.069	-0.269
-717.777	346.398	-0.161	-0.323
-716.762	-84.237	-0.103	0.033
-715.748	314.401	-0.079	-0.152
-714.733	-93.262	-0.097	0.027
-713.718	800.000	0.074	0.222
-712.704	-54.227	-0.324	-0.150
-711.689	633.385	-0.031	0.080
-710.675	-55.997	-0.303	-0.138
-709.660	195.416	-0.132	0.204
-708.645	800.000	0.077	-0.276
-707.631	800.000	0.072	-0.240
-706.616	-147.845	0.108	0.009
-705.602	-200.000	0.011	-0.375
-704.587	-151.990	0.191	0.014
-703.572	-85.780	-0.249	0.079
-702.558	800.000	0.132	0.390
-701.543	52.698	0.186	0.181
-700.529	-124.976	0.288	0.045
-699.514	-200.000	0.002	0.249
-698.499	255.542	0.209	0.366
-697.485	-200.000	-0.080	-0.398
-696.470	-200.000	0.054	0.351
-695.456	-29.761	-0.077	-0.045
-694.441	800.000	-0.091	0.293
-693.426	-144.210	-0.050	0.005
-692.412	-122.490	-0.341	0.057
-691.397	-200.000	-0.008	-0.120
-690.383	447.076	0.048	-0.109
-689.368	-200.000	-0.006	0.238
-688.354	800.000	-0.114	-0.366
-687.339	-52.590	0.123	0.058
-686.324	-46.237	-0.181	-0.091
-685.310	445.404	0.047	-0.106
-684.295	-61.250	-0.140	0.060
-683.281	-189.071	0.122	-0.001
-682.266	-200.000	0.041	0.225
-681.251	-200.000	-0.027	0.174
-680.237	800.000	-0.056	-0.222
-679.222	211.044	-0.096	0.154
-678.208	163.963	-0.193	0.277
-677.193	17.130	-0.205	-0.166
-676.178	-200.000	0.061	0.284
-675.164	-41.672	0.009	-0.005
-674.149	-90.437	0.256	-0.076
-673.135	42.260	0.092	0.085
-672.120	-63.111	0.146	0.062
-671.105	800.000	0.068	-0.281
-670.091	-57.617	-0.050	-0.023
-669.076	-127.925	0.216	-0.032
-668.062	601.649	0.029	0.073
-667.047	245.289	-0.082	-0.141
-666.032	106.738	-0.202	-0.244
-665.018	-54.124	0.329	0.153
-664.003	100.254	-0.024	0.029
-662.989	16.562	0.266	0.214
-661.974	67.024	0.226	-0.234
-660.959	414.084	-0.180	0.391
-659.945	124.113	-0.175	-0.224
-658.930	800.000	0.092	-0.272
-657.916	318.017	-0.069	0.134
-656.901	425.453	0.051	-0.113
-655.886	-43.822	0.266	0.137
-654.872	-33.033	0.234	0.132
-653.857	800.000	-0.083	0.314
-652.843	476.402	-0.020	-0.046
-651.828	92.724	0.126	-0.145
-650.814	-125.673	-0.029	0.004
-649.799	800.000	0.035	-0.141
-648.784	20.897	0.022	-0.018
-647.770	28.276	-0.179	0.154
-646.755	-30.330	-0.186	-0.107
-645.741	-200.000	0.078	0.350
-644.726	673.699	-0.068	0.181
-643.711	-45.384	-0.181	0.092
-642.697	-200.000	0.035	0.246
-641.682	800.000	-0.059	-0.230
-640.668	-136.652	-0.117	-0.014
-639.653	-9.281	-0.123	-0.084
-638.638	-44.492	0.147	-0.075
-637.624	122.830	0.142	0.180
-636.609	-56.041	-0.062	-0.028
-635.595	-200.000	0.033	-0.160
-634.580	-200.000	-0.008	0.083
-633.565	-133.025	-0.150	-0.019
-632.551	-129.231	0.155	-0.022
-631.536	-172.930	-0.094	0.003
-630.522	-65.695	-0.166	-0.068
-629.507	146.684	0.052	-0.072
-628.492	800.000	-0.073	-0.271
-627.478	109.109	0.095	0.116
-626.463	186.606	-0.044	0.067
-625.449	-59.410	0.261	0.114
-624.434	107.414	-0.062	-0.075
-623.419	-90.681	0.220	-0.065
-622.405	75.203	-0.294	0.315
-621.390	344.558	-0.117	0.234
-620.376	-51.222	-0.031	-0.015
-619.361	-200.000	-0.035	0.195
-618.346	39.050	0.023	-0.021
-617.332	-64.925	0.187	0.077
-616.317	-81.355	0.081	0.027
-615.303	-94.554	0.071	-0.020
-614.288	-86.651	0.009	-0.003
-613.273	-148.361	0.231	0.019
-612.259	800.000	-0.075	0.284
-611.244	16.410	0.115	0.092
-610.230	800.000	0.107	-0.444
-609.215	255.158	-0.083	-0.144
-608.201	22.218	0.155	-0.129
-607.186	411.619	0.121	-0.261
-606.171	511.763	0.170	0.403
-605.157	9.771	0.031	0.024
-604.142	-55.647	-0.101	0.046
-603.128	148.684	-0.055	-0.076
-602.113	-67.661	0.235	0.094
-601.098	-176.036	-0.088	0.002
-600.084	800.000	0.067	0.250
-599.069	-44.382	0.160	-0.081
-598.055	-200.000	0.015	-0.068
-597.040	-121.976	-0.127	0.021
-596.025	800.000	0.067	0.246
-595.011	-200.000	-0.020	-0.417
-593.996	-34.184	0.253	0.141
-592.982	-95.930	0.349	0.095
-591.967	800.000	-0.058	0.217
-590.952	800.000	0.065	0.225
-589.938	-200.000	0.015	0.100
-588.923	-88.964	-0.158	0.048
-587.909	-29.588	-0.168	-0.097
-586.894	-112.159	0.139	-0.028
-585.879	-134.599	0.252	0.031
-584.865	-19.857	0.195	-0.123
-583.850	-13.762	-0.188	0.123
-582.836	-130.793	-0.158	0.022
-581.821	-44.542	-0.110	0.056
-580.806	-63.278	-0.213	-0.089
-579.792	-125.538	-0.233	-0.036
-578.777	222.785	-0.166	-0.272
-577.763	52.607	0.214	0.208
-576.748	-190.049	-0.026	-0.000
-575.733	287.328	0.125	-0.230
-574.719	279.265	0.102	0.184
-573.704	-200.000	0.040	-0.233
-572.690	-200.000	0.017	0.106
-571.675	-180.147	0.187	-0.004
-570.661	-80.510	-0.056	0.019
-569.646	-63.440	0.131	0.055
-568.631	-152.968	-0.186	0.013
-567.617	-200.000	0.013	-0.204
-566.602	346.044	0.047	0.095
-565.588	54.675	-0.035	0.034
-564.573	-124.248	-0.178	-0.028
-563.558	-41.080	-0.212	0.111
-562.544	800.000	0.039	0.140
-561.529	283.765	0.130	0.237
-560.515	-18.446	-0.279	0.177
-559.500	800.000	0.095	-0.327
-558.485	-200.000	-0.019	-0.176
-557.471	17.963	-0.234	-0.189
-556.456	135.376	0.177	-0.234
-555.442	255.137	0.096	-0.166
-554.427	-36.517	-0.026	-0.014
-553.412	-12.628	-0.208	0.138
-552.398	-200.000	-0.003	-0.046
-551.383	-200.000	0.000	0.111
-550.369	205.862	0.162	-0.255
-549.354	98.007	-0.121	-0.142
-548.339	645.880	-0.063	0.163
-547.325	-10.500	-0.019	0.013
-546.310	189.014	-0.270	-0.410
-545.296	-85.175	-0.200	-0.064
-544.281	800.000	-0.049	-0.202
-543.266	43.481	-0.049	0.045
-542.252	605.661	0.016	-0.041
-541.237	127.075	-0.146	-0.187
-540.223	11.093	0.420	-0.326
-539.208	-102.095	-0.155	-0.038
-538.193	-79.628	0.072	0.025
-537.179	451.991	-0.025	0.057
-536.164	118.934	-0.095	0.119
-535.150	48.866	0.183	-0.174
-534.135	421.793	0.108	0.236
-533.121	-7.229	-0.316	-0.217
-532.106	-53.742	-0.339	-0.157
-531.091	-35.332	-0.071	-0.039
-530.077	-200.000	-0.002	-0.019
-529.062	-14.456	-0.161	-0.105
-528.048	179.502	-0.162	-0.240
-527.033	-93.368	0.326	0.092
-526.018	216.321	0.070	-0.113
-525.004	-178.629	0.300	-0.007
-523.989	-106.194	-0.059	-0.014
-522.975	-42.635	-0.129	0.066
-521.960	19.244	0.074	-0.060
-520.945	-200.000	-0.016	-0.206
-519.931	-47.416	-0.183	0.090
-518.916	-31.132	0.215	-0.123
-517.902	84.285	-0.346	-0.384
-516.887	22.545	0.269	-0.223
-515.872	-76.650	0.192	0.068
-514.858	379.258	-0.085	-0.177
-513.843	10.277	-0.073	-0.057
-512.829	-200.000	-0.043	0.335
-511.814	188.223	-0.069	-0.105
-510.799	-200.000	-0.027	0.290
-509.785	15.652	0.202	-0.161
-508.770	-14.127	-0.059	-0.038
-507.756	-6.750	0.183	0.126
-506.741	580.780	-0.127	-0.316
-505.726	-72.805	0.306	0.114
-504.712	-75.788	0.391	-0.140
-503.697	-200.000	-0.020	-0.305
-502.683	-37.815	-0.102	-0.055
-501.668	-200.000	0.027	-0.257
-500.653	70.261	-0.103	-0.108
-499.639	117.250	0.157	0.195
-498.624	-99.429	-0.347	0.089
-497.610	-79.387	-0.047	-0.016
-496.595	174.122	0.019	-0.029
-495.581	-98.199	0.326	0.085
-494.566	-51.184	-0.233	0.111
-493.551	91.511	-0.168	0.191
-492.537	-52.787	-0.248	0.116
-491.522	-142.386	0.277	0.028
-490.508	-36.608	-0.132	0.072
-489.493	163.945	-0.156	0.223
-488.478	255.437	-0.189	0.328
-487.464	109.827	0.122	0.148
-486.449	348.698	0.147	-0.294
-485.435	-200.000	0.093	-0.521
-484.420	800.000	0.068	-0.199
-483.405	-45.554	-0.222	0.111
-482.391	-55.577	-0.188	0.085
-481.376	-200.000	-0.013	-0.112
-480.362	-85.500	-0.132	-0.042
-479.347	-100.992	0.207	0.051
-478.332	558.543	-0.014	-0.033
-477.318	521.323	0.138	0.328
-476.303	112.192	0.147	-0.180
-475.289	-13.163	0.027	-0.018
-474.274	-200.000	0.000	-0.300
-473.259	800.000	0.030	0.130
-472.245	-200.000	-0.041	-0.260
-471.230	-133.052	-0.525	0.067
-470.216	-135.225	-0.065	0.008
-469.201	-102.704	-0.055	0.013
-468.186	122.544	-0.029	0.037
-467.172	-105.685	-0.177	-0.041
-466.157	10.107	0.140	-0.108
-465.143	154.736	-0.165	-0.230
-464.128	422.809	0.105	0.228
-463.113	800.000	-0.103	0.331
-462.099	-103.233	-0.253	0.060
-461.084	296.477	-0.085	-0.157
-460.070	-200.000	-0.042	0.201
-459.055	-39.080	-0.355	0.189
-458.040	263.649	-0.102	-0.180
-457.026	-21.931	0.229	-0.141
-456.011	800.000	0.048	0.201
-454.997	367.261	-0.085	-0.174
-453.982	259.173	-0.141	-0.246
-452.968	-71.283	0.109	-0.041
-451.953	800.000	-0.115	-0.351
-450.938	800.000	-0.027	-0.103
-449.924	-79.918	0.169	-0.058
-448.909	60.354	0.008	0.008
-447.895	-129.320	0.282	-0.040
-446.880	-133.108	-0.491	-0.063
-445.865	-7.241	-0.051	0.035
-444.851	-1.758	0.065	-0.046
-443.836	-91.661	0.077	-0.022
-442.822	157.283	-0.195	-0.273
-441.807	-153.323	-0.215	0.015
-440.792	-200.000	-0.047	0.283
-439.778	-200.000	-0.008	0.202
-438.763	-157.915	-0.099	0.006
-437.749	1.900	-0.086	-0.063
-436.734	233.069	-0.240	-0.399
-435.719	-116.372	0.280	0.052
-434.705	-67.449	0.302	-0.120
-433.690	800.000	0.060	0.221
-432.676	-54.086	-0.215	-0.099
-431.661	-200.000	-0.030	-0.457
-430.646	8.690	0.416	-0.316
-429.632	207.216	0.159	-0.251
-428.617	-118.806	0.165	0.029
-427.603	-200.000	-0.012	0.102
-426.588	399.096	0.114	-0.241
-425.573	34.069	-0.153	-0.135
-424.559	-65.938	-0.049	0.020
-423.544	101.478	0.113	-0.133
-422.530	15.430	-0.208	0.165
-421.515	249.269	0.122	0.209
-420.500	-22.862	0.347	0.212
-419.486	-200.000	0.016	0.194
-418.471	-200.000	0.000	-0.252
-417.457	-71.361	-0.085	-0.032
-416.442	-111.781	-0.171	0.035
-415.428	-200.000	0.011	-0.219
-414.413	-73.588	0.198	0.073
-413.398	41.082	0.164	-0.149
-412.384	-14.872	-0.165	0.107
-411.369	169.156	-0.134	-0.193
-410.355	-200.000	-0.006	-0.409
-409.340	-69.037	-0.180	0.070
-408.325	-85.563	-0.230	-0.072
-407.311	265.761	0.056	0.098
-406.296	800.000	0.028	0.112
-405.282	77.795	-0.211	-0.227
-404.267	-55.861	-0.370	0.167
-403.252	205.558	-0.098	0.154
-402.238	-170.781	0.167	0.006
-401.223	338.183	0.224	0.439
-400.209	-147.062	-0.345	0.030
-399.194	800.000	-0.078	-0.242
-398.179	800.000	-0.127	0.383
-397.165	-89.405	0.188	0.056
-396.150	800.000	-0.170	0.699
-395.136	-19.251	-0.335	-0.210
-394.121	800.000	-0.108	-0.323
-393.106	-200.000	0.003	0.266
-392.092	-41.274	-0.237	-0.123
-391.077	-61.599	-0.289	-0.122
-390.063	672.341	-0.061	0.158
-389.048	25.175	-0.337	0.282
-388.033	800.000	0.100	0.305
-387.019	-53.609	0.321	0.148
-386.004	2.307	0.130	-0.095
-384.990	-200.000	0.006	0.110
-383.975	542.695	0.107	-0.258
-382.960	360.355	-0.232	-0.468
-381.946	-200.000	0.001	0.142
-380.931	-190.980	0.269	-0.003
-379.917	-34.384	-0.094	0.052
-378.902	-200.000	-0.006	0.078
-377.888	-79.015	0.187	-0.064
-376.873	-200.000	0.010	-0.155
-375.858	292.454	-0.043	-0.079
-374.844	13.893	-0.057	0.045
-373.829	-200.000	0.014	0.152
-372.815	222.438	-0.027	-0.043
-371.800	-200.000	-0.044	-0.253
-370.785	-95.449	0.107	0.029
-369.771	800.000	0.126	0.460
-368.756	140.132	0.149	0.198
-367.742	-110.088	0.174	0.037
-366.727	60.742	-0.132	0.132
-365.712	-129.673	-0.411	0.057
-364.698	-200.000	-0.040	0.207
-363.683	324.202	-0.129	-0.248
-362.669	112.468	-0.103	-0.126
-361.654	3.192	-0.148	-0.109
-360.639	699.545	0.122	0.323
-359.625	-94.731	0.080	-0.022
-358.610	97.056	0.233	-0.269
-357.596	-165.468	0.179	-0.008
-356.581	-78.116	-0.323	0.112
-355.566	20.402	0.350	0.285
-354.552	-74.485	-0.210	-0.076
-353.537	-67.568	0.129	-0.051
-352.523	-75.596	0.060	-0.022
-351.508	-200.000	-0.051	-0.296
-350.493	-16.259	-0.174	0.112
-349.479	-147.394	-0.242	-0.021
-348.464	-142.309	0.064	-0.006
-347.450	-21.969	-0.097	0.059
-346.435	281.794	0.183	0.329
-345.420	-107.423	-0.142	0.031
-344.406	-141.943	-0.130	0.013
-343.391	-160.991	0.337	0.018
-342.377	-48.309	-0.305	0.148
-341.362	167.823	-0.233	-0.334
-340.348	-135.778	0.233	-0.028
-339.333	-200.000	0.007	0.077
-338.318	-200.000	-0.019	0.202
-337.304	-53.715	-0.208	-0.096
-336.289	-11.265	-0.165	0.109
-335.275	29.656	0.159	0.137
-334.260	157.040	-0.144	-0.201
-333.245	-12.487	-0.230	-0.151
-332.231	-102.332	-0.500	0.121
-331.216	274.324	0.268	0.477
-330.202	-155.874	0.048	0.003
-329.187	-84.090	-0.244	-0.078
-328.172	-16.323	-0.158	-0.101
-327.158	-200.000	-0.067	0.347
-326.143	19.522	0.100	0.081
-325.129	-167.188	0.269	-0.011
-324.114	-139.039	0.195	0.021
-323.099	-106.331	0.245	0.055
-322.085	12.607	0.254	0.197
-321.070	449.003	0.040	-0.088
-320.056	-124.247	0.460	0.072
-319.041	-200.000	-0.033	-0.255
-318.026	-115.819	0.294	-0.055
-317.012	800.000	-0.071	0.217
-315.997	-164.106	-0.039	-0.002
-314.983	-87.860	-0.200	0.061
-313.968	-200.000	-0.378	0.001
-312.953	-87.817	-0.132	-0.040
-311.939	-118.114	0.247	0.044
-310.924	-200.000	-0.001	0.357
-309.910	127.863	-0.116	-0.148
-308.895	-31.407	-0.015	0.008
-307.880	-124.126	-0.167	-0.026
-306.866	-122.931	-0.325	0.053
-305.851	-110.505	-0.136	-0.028
-304.837	-106.716	0.246	-0.055
-303.822	-200.000	0.063	0.322
-302.807	46.960	0.098	0.091
-301.793	-88.637	0.181	-0.054
-300.778	-100.133	-0.155	-0.039
-299.764	-113.205	0.168	0.033
-298.749	-108.061	-0.168	0.037
-297.735	105.985	0.147	0.175
-296.720	456.535	0.202	0.452
-295.705	52.761	-0.094	0.090
-294.691	332.273	-0.099	0.193
-293.676	581.565	-0.091	0.223
-292.662	-11.456	0.382	-0.252
-291.647	364.940	0.048	0.096
-290.632	-134.426	0.245	-0.030
-289.618	54.954	0.016	-0.015
-288.603	-28.411	0.236	0.137
-287.589	71.308	0.153	0.159
-286.574	142.093	0.116	0.155
-285.559	36.949	-0.092	0.081
-284.545	9.743	0.186	-0.141
-283.530	-102.050	0.505	-0.122
-282.516	435.718	0.103	-0.225
-281.501	32.753	-0.315	-0.274
-280.486	-137.674	0.272	0.031
-279.472	-10.083	0.282	-0.188
-278.457	-171.992	0.237	-0.008
-277.443	119.452	0.210	0.261
-276.428	-200.000	-0.013	-0.212
-275.413	-31.257	0.270	-0.153
-274.399	-200.000	0.002	-0.097
-273.384	-200.000	0.003	-0.253
-272.370	172.974	-0.120	0.173
-271.355	56.037	0.205	0.200
-270.340	-200.000	0.000	0.157
-269.326	-32.873	-0.211	0.118
-268.311	800.000	0.141	0.465
-267.297	-28.491	0.042	-0.024
-266.282	-200.000	0.039	0.250
-265.267	-100.725	0.110	0.027
-264.253	-91.528	0.208	0.060
-263.238	-200.000	-0.013	0.161
-262.224	-126.021	0.242	0.037
-261.209	293.269	0.027	-0.049
-260.195	-200.000	-0.011	-0.380
-259.180	705.199	-0.060	-0.160
-258.165	639.084	-0.167	-0.426
-257.151	-51.286	0.172	-0.081
-256.136	-124.944	0.063	-0.010
-255.122	-8.746	-0.079	0.053
-254.107	-59.078	0.176	0.076
-253.092	-115.081	0.167	-0.032
-252.078	-114.987	-0.193	0.037
-251.063	117.405	-0.093	-0.115
-250.049	416.074	-0.111	-0.238
-249.034	257.366	-0.094	-0.161
-248.019	8.290	0.019	-0.015
-247.005	125.940	-0.105	0.133
-245.990	800.000	0.100	-0.387
-244.976	-200.000	-0.031	-0.277
-243.961	164.113	0.051	-0.072
-242.946	-76.849	-0.239	-0.084
-241.932	-26.807	0.069	0.040
-240.917	-9.579	0.078	0.052
-239.903	-135.836	0.200	-0.024
-238.888	-200.000	0.017	0.088
-237.873	800.000	-0.014	-0.045
-236.859	225.251	-0.105	-0.170
-235.844	800.000	0.077	-0.319
-234.830	16.002	-0.103	-0.081
-233.815	-200.000	0.003	0.381
-232.800	-62.258	-0.122	-0.051
-231.786	-200.000	-0.032	-0.143
-230.771	800.000	-0.099	0.334
-229.757	421.288	-0.071	0.153
-228.742	84.759	-0.122	-0.134
-227.727	-17.074	0.141	0.089
-226.713	-110.196	0.165	-0.035
-225.698	800.000	-0.034	-0.103
-224.684	-42.988	0.366	-0.186
-223.669	-200.000	0.041	0.193
-222.655	91.253	-0.124	0.139
-221.640	66.466	-0.159	-0.162
-220.625	-110.193	0.126	-0.026
-219.611	3.764	-0.242	0.177
-218.596	-200.000	0.027	-0.166
-217.582	-24.419	-0.248	0.148
-216.567	800.000	0.148	0.470
-215.552	47.396	0.100	0.094
-214.538	-97.796	0.177	0.046
-213.523	533.740	0.019	-0.044
-212.509	-88.728	-0.047	0.014
-211.494	-187.974	-0.309	-0.004
-210.479	-132.439	0.155	0.020
-209.465	-44.005	0.177	-0.089
-208.450	126.411	-0.204	-0.258
-207.436	-148.300	-0.157	-0.013
-206.421	800.000	0.065	-0.236
-205.406	-51.815	-0.198	-0.092
-204.392	616.140	-0.132	-0.331
-203.377	-72.427	0.099	0.037
-202.363	-131.574	0.529	0.070
-201.348	-200.000	-0.050	0.357
-200.333	532.359	-0.054	0.128
-199.319	-47.271	-0.132	0.064
-198.304	-200.000	0.017	0.249
-197.290	-79.757	-0.012	-0.004
-196.275	800.000	0.090	-0.259
-195.260	-106.616	0.100	-0.022
-194.246	111.047	-0.205	-0.247
-193.231	257.259	0.055	0.094
-192.217	44.941	-0.081	0.075
-191.202	-149.028	0.210	-0.017
-190.187	125.460	0.199	0.251
-189.173	48.161	-0.058	0.054
-188.158	-46.701	0.139	0.068
-187.144	-38.381	-0.155	0.082
-186.129	162.744	0.114	-0.160
-185.114	-200.000	0.015	-0.119
-184.100	392.117	0.124	0.257
-183.085	-200.000	0.033	0.195
-182.071	800.000	-0.031	0.092
-181.056	-77.446	0.234	0.081
-180.042	89.158	-0.099	0.110
-179.027	-22.704	0.128	0.077
-178.012	456.977	-0.006	-0.013
-176.998	-116.265	-0.228	-0.042
-175.983	322.208	-0.044	0.085
-174.969	149.325	0.059	-0.081
-173.954	-144.210	0.080	-0.007
-172.939	37.843	0.208	-0.185
-171.925	800.000	0.061	-0.207
-170.910	-23.540	0.136	0.082
-169.896	202.967	0.107	-0.165
-168.881	113.002	-0.099	-0.120
-167.866	800.000	0.057	-0.210
-166.852	-200.000	-0.011	0.118
-165.837	-116.016	-0.381	0.071
-164.823	180.074	-0.165	0.242
-163.808	132.685	0.329	0.425
-162.793	-121.565	0.265	-0.044
-161.779	-168.232	-0.092	-0.004
-160.764	-118.532	-0.258	-0.046
-159.750	395.906	-0.061	-0.127
-158.735	300.608	-0.004	-0.007
-157.720	-200.000	-0.031	-0.331
-156.706	-103.133	0.198	0.047
-155.691	-200.000	-0.030	0.210
-154.677	-160.250	-0.071	-0.004
-153.662	94.574	0.065	-0.074
-152.647	-200.000	-0.012	0.184
-151.633	-200.000	0.029	0.396
-150.618	-40.980	-0.175	0.090
-149.604	-17.924	0.113	-0.070
-148.589	115.784	0.102	0.125
-147.574	129.887	0.098	-0.125
-146.560	-200.000	0.000	-0.049
-145.545	-200.000	0.002	0.337
-144.531	-48.202	0.204	0.098
-143.516	800.000	0.109	-0.466
-142.502	-137.173	-0.396	-0.045
-141.487	-30.727	0.251	-0.142
-140.472	800.000	0.033	0.138
-139.458	-200.000	-0.021	0.234
-138.443	-116.540	0.170	-0.031
-137.429	105.952	0.035	0.041
-136.414	151.781	-0.244	0.332
-135.399	-200.000	-0.000	-0.023
-134.385	-92.353	-0.157	0.044
-133.370	49.752	-0.143	-0.134
-132.356	-111.536	-0.430	0.087
-131.341	-58.488	0.074	0.032
-130.326	-80.661	-0.223	0.074
-129.312	459.228	-0.135	-0.301
-128.297	-185.720	0.475	0.007
-127.283	800.000	0.076	-0.253
-126.268	274.372	-0.064	0.113
-125.253	-136.537	0.177	-0.020
-124.239	-200.000	0.099	0.555
-123.224	-5.630	0.196	0.134
-122.210	23.160	0.251	0.206
