DTS Sentinel unit serial number:	SN413079Multiplexer serial number:	ORYXHardware model number:	OX4-SRSoftware version number:	ORYX F/W v4.00 Oryx Data Collector v3.7.2.0data status	okinstallation	princeton_trtdifferential loss correction	single-endedforward channel	channel 3reverse channel	N/Adate	2019/09/17time	18:28:35forward acquisition time	60.00reverse acquisition time	0.00gamma	496.2192k internal	0.2288k external	0.2288temperature offset calibration	0.9952default loss term (dB/km)	0.3790temperature slope calibration	1.0000multiplexer offset coefficient	1.0000multiplexer slope coefficient	1.0000fibre end	0.00T internal ref (°C)	43.06T ext. ref 1 (°C)	0.30T ext. ref 2 (°C)	36.15length (m)	temperature (°C)	Stokes	anti-Stokes-747.200	219.604	-0.143	0.234
-746.185	-36.398	0.086	-0.047
-745.171	-155.589	-0.201	-0.013
-744.156	531.322	-0.172	0.417
-743.142	-200.000	-0.028	0.265
-742.127	348.216	-0.102	0.207
-741.112	-100.066	-0.170	-0.043
-740.098	75.023	0.259	0.280
-739.083	109.038	-0.082	-0.100
-738.069	-70.264	-0.317	0.124
-737.054	-20.404	0.053	0.033
-736.039	-200.000	-0.013	-0.275
-735.025	-67.261	-0.089	0.036
-734.010	28.850	-0.108	-0.094
-732.996	-41.797	0.252	-0.132
-731.981	-99.456	0.280	-0.072
-730.966	800.000	0.089	-0.265
-729.952	-131.682	-0.204	-0.027
-728.937	217.224	0.075	-0.122
-727.923	-136.313	-0.206	0.025
-726.908	130.965	-0.129	-0.169
-725.894	-73.187	-0.107	0.040
-724.879	-81.738	0.203	-0.068
-723.864	-28.852	0.164	0.096
-722.850	137.168	-0.078	0.105
-721.835	800.000	0.089	-0.272
-720.821	676.277	-0.125	-0.333
-719.806	4.462	0.206	-0.155
-718.791	122.082	-0.224	0.286
-717.777	286.762	-0.142	-0.262
-716.762	-200.000	-0.019	-0.163
-715.748	-200.000	-0.024	0.311
-714.733	397.374	-0.074	-0.159
-713.718	163.549	-0.070	-0.101
-712.704	139.318	-0.238	-0.321
-711.689	41.650	0.203	-0.189
-710.675	-70.218	-0.245	0.095
-709.660	28.077	-0.101	-0.087
-708.645	-200.000	-0.005	-0.133
-707.631	-200.000	-0.012	0.220
-706.616	249.580	-0.113	0.196
-705.602	91.214	0.196	0.225
-704.587	-200.000	0.012	-0.083
-703.572	-30.015	0.263	0.153
-702.558	-200.000	-0.003	-0.116
-701.543	33.427	-0.115	-0.102
-700.529	27.781	-0.108	0.093
-699.514	-200.000	0.016	0.177
-698.499	-200.000	0.002	-0.241
-697.485	800.000	-0.068	0.192
-696.470	-164.429	0.440	0.021
-695.456	-200.000	-0.003	0.032
-694.441	63.542	0.166	-0.171
-693.426	-123.879	0.193	0.031
-692.412	115.854	0.033	0.042
-691.397	-136.248	0.154	-0.018
-690.383	2.562	-0.050	-0.037
-689.368	-152.832	-0.039	-0.003
-688.354	-19.584	0.214	-0.135
-687.339	-69.628	0.354	0.138
-686.324	-200.000	-0.018	0.316
-685.310	-200.000	0.009	0.091
-684.295	800.000	0.034	-0.124
-683.281	157.217	-0.060	-0.085
-682.266	-117.826	0.235	-0.043
-681.251	800.000	-0.057	0.233
-680.237	800.000	0.081	-0.347
-679.222	-53.666	-0.118	-0.055
-678.208	163.982	-0.039	0.056
-677.193	484.388	-0.097	-0.226
-676.178	268.078	-0.188	-0.337
-675.164	-200.000	0.055	-0.297
-674.149	170.994	-0.096	-0.141
-673.135	-101.392	0.165	0.041
-672.120	800.000	0.163	0.475
-671.105	33.574	-0.094	-0.084
-670.091	-5.951	-0.385	0.269
-669.076	-109.325	0.342	0.074
-668.062	110.012	-0.112	0.138
-667.047	800.000	-0.019	-0.061
-666.032	363.395	0.159	0.326
-665.018	243.867	0.147	0.253
-664.003	-120.680	0.358	0.062
-662.989	-200.000	-0.009	0.304
-661.974	303.896	-0.057	-0.109
-660.959	81.141	-0.109	-0.120
-659.945	-200.000	0.020	0.232
-658.930	-79.443	-0.084	-0.029
-657.916	72.140	0.036	0.039
-656.901	-200.000	-0.075	-0.500
-655.886	-37.084	0.355	0.194
-654.872	-65.074	-0.145	0.060
-653.857	31.389	-0.126	-0.110
-652.843	-114.725	-0.054	-0.011
-651.828	345.668	0.043	-0.087
-650.814	216.956	0.178	-0.289
-649.799	9.323	-0.145	0.112
-648.784	800.000	0.069	0.209
-647.770	-72.235	0.061	-0.023
-646.755	800.000	-0.045	0.162
-645.741	-200.000	-0.244	-0.001
-644.726	-200.000	0.007	0.294
-643.711	-200.000	-0.033	-0.213
-642.697	-199.755	0.205	0.001
-641.682	148.205	-0.169	0.232
-640.668	-161.536	-0.128	0.007
-639.653	800.000	0.057	-0.190
-638.638	800.000	-0.063	0.257
-637.624	800.000	-0.070	0.236
-636.609	145.533	-0.106	0.145
-635.595	-200.000	-0.015	0.326
-634.580	50.644	0.045	-0.044
-633.565	-158.085	-0.285	-0.017
-632.551	210.672	0.175	0.280
-631.536	9.471	-0.291	-0.225
-630.522	-200.000	0.034	-0.230
-629.507	-200.000	-0.033	-0.216
-628.492	330.284	0.128	0.252
-627.478	42.359	0.183	0.170
-626.463	-93.492	-0.203	0.057
-625.449	336.146	-0.179	-0.354
-624.434	-158.252	-0.299	-0.018
-623.419	521.384	0.079	-0.189
-622.405	754.360	0.183	0.505
-621.390	-101.728	-0.164	0.040
-620.376	-101.150	-0.262	0.065
-619.361	-65.565	0.497	-0.204
-618.346	800.000	-0.048	0.192
-617.332	-180.273	-0.245	-0.005
-616.317	15.177	-0.065	-0.052
-615.303	-18.875	-0.151	-0.096
-614.288	-53.086	-0.065	0.031
-613.273	95.735	-0.152	0.176
-612.259	108.245	0.103	-0.125
-611.244	-147.852	-0.074	0.006
-610.230	-40.029	-0.114	-0.061
-609.215	88.221	0.370	0.418
-608.201	94.154	0.306	0.354
-607.186	-200.000	-0.064	-0.396
-606.171	53.074	-0.441	-0.430
-605.157	129.706	0.294	0.384
-604.142	33.357	0.182	0.161
-603.128	30.902	0.131	-0.115
-602.113	383.281	0.115	0.241
-601.098	800.000	-0.062	0.219
-600.084	139.837	-0.160	-0.215
-599.069	800.000	0.100	-0.407
-598.055	-66.886	-0.161	-0.065
-597.040	135.970	-0.140	-0.186
-596.025	-105.850	0.152	-0.035
-595.011	-111.442	-0.278	-0.058
-593.996	1.927	0.061	-0.045
-592.982	-167.697	0.117	0.005
-591.967	312.465	0.120	-0.229
-590.952	-99.523	0.154	-0.039
-589.938	43.258	0.250	0.233
-588.923	265.474	-0.171	-0.305
-587.909	245.567	-0.055	0.095
-586.894	800.000	0.037	-0.115
-585.879	-129.986	-0.229	0.032
-584.865	-200.000	0.035	-0.251
-583.850	800.000	-0.130	0.374
-582.836	112.653	0.108	-0.133
-581.821	-51.234	-0.228	0.109
-580.806	220.838	0.174	-0.284
-579.792	-28.685	-0.168	0.098
-578.777	-85.436	-0.239	-0.076
-577.763	204.000	0.123	-0.195
-576.748	-200.000	-0.001	0.173
-575.733	-200.000	-0.009	0.143
-574.719	96.680	-0.128	0.149
-573.704	-52.573	0.178	0.084
-572.690	-62.417	0.269	0.114
-571.675	800.000	-0.076	0.243
-570.661	-141.564	0.294	0.030
-569.646	225.481	-0.112	0.185
-568.631	-200.000	0.065	0.298
-567.617	-13.110	0.273	0.181
-566.602	-72.894	-0.141	0.053
-565.588	8.913	-0.279	-0.215
-564.573	71.575	-0.213	-0.225
-563.558	-140.991	0.233	-0.024
-562.544	171.866	0.124	0.181
-561.529	-200.000	0.099	-0.550
-560.515	-130.036	-0.187	0.026
-559.500	115.677	-0.124	-0.154
-558.485	271.127	0.031	-0.055
-557.471	-36.168	-0.283	-0.156
-556.456	122.460	0.216	-0.275
-555.442	89.643	0.143	-0.162
-554.427	222.240	-0.061	-0.100
-553.412	44.352	0.256	-0.239
-552.398	-95.281	0.470	0.129
-551.383	-27.492	0.193	-0.114
-550.369	-144.382	-0.126	-0.012
-549.354	181.120	-0.049	0.073
-548.339	65.744	0.035	-0.036
-547.325	800.000	0.074	-0.276
-546.310	-163.688	-0.247	0.012
-545.296	-111.239	-0.146	-0.030
-544.281	-200.000	-0.041	-0.254
-543.266	-35.644	0.269	-0.148
-542.252	-128.253	-0.124	0.018
-541.237	-94.531	0.561	0.155
-540.223	-130.495	0.162	0.022
-539.208	226.262	0.049	0.081
-538.193	-35.325	-0.020	0.011
-537.179	66.842	-0.063	-0.065
-536.164	624.846	-0.034	0.088
-535.150	800.000	-0.041	0.159
-534.135	409.699	-0.157	0.337
-533.121	-51.427	0.317	0.151
-532.106	-200.000	-0.006	-0.075
-531.091	-63.844	-0.113	0.047
-530.077	247.543	0.058	-0.099
-529.062	-200.000	-0.005	-0.027
-528.048	-74.040	0.083	0.031
-527.033	-102.831	-0.106	-0.026
-526.018	800.000	0.085	-0.243
-525.004	228.007	-0.117	0.194
-523.989	461.232	0.089	-0.202
-522.975	-118.264	-0.067	0.012
-521.960	800.000	-0.045	0.135
-520.945	-200.000	-0.025	-0.261
-519.931	800.000	-0.098	0.355
-518.916	91.241	-0.157	0.179
-517.902	-13.169	0.336	0.222
-516.887	182.103	-0.099	0.149
-515.872	-200.000	-0.031	-0.203
-514.858	-200.000	0.038	0.182
-513.843	800.000	-0.083	0.321
-512.829	17.938	-0.301	0.244
-511.814	565.070	0.087	-0.214
-510.799	-115.089	0.318	0.061
-509.785	-93.235	0.113	-0.032
-508.770	119.551	-0.257	-0.323
-507.756	-151.731	-0.139	-0.010
-506.741	-127.086	0.282	0.042
-505.726	335.487	0.060	0.118
-504.712	-35.461	0.075	-0.042
-503.697	741.168	0.076	-0.208
-502.683	135.371	0.115	-0.152
-501.668	168.813	-0.210	0.303
-500.653	800.000	-0.056	-0.160
-499.639	-117.030	0.230	-0.043
-498.624	281.413	0.119	0.217
-497.610	-149.530	-0.178	-0.014
-496.595	-84.701	0.317	-0.101
-495.581	-200.000	-0.009	-0.188
-494.566	88.799	-0.059	-0.066
-493.551	-200.000	-0.033	-0.275
-492.537	251.084	0.162	-0.280
-491.522	93.777	0.179	-0.206
-490.508	-200.000	0.038	-0.184
-489.493	-92.542	-0.115	0.033
-488.478	-200.000	-0.027	0.207
-487.464	-4.826	-0.069	0.048
-486.449	-114.962	0.105	0.020
-485.435	800.000	-0.056	0.240
-484.420	-87.568	-0.185	0.057
-483.405	239.464	0.182	0.307
-482.391	3.935	-0.386	-0.286
-481.376	419.650	0.082	0.179
-480.362	248.377	-0.062	0.106
-479.347	-69.613	-0.071	0.028
-478.332	126.313	-0.178	-0.228
-477.318	-66.714	-0.306	-0.123
-476.303	-200.000	-0.010	0.321
-475.289	-200.000	-0.009	-0.050
-474.274	-107.224	0.282	0.063
-473.259	-110.298	0.337	-0.071
-472.245	-68.551	-0.196	-0.077
-471.230	672.877	-0.035	0.091
-470.216	-98.734	-0.406	-0.105
-469.201	531.896	-0.007	-0.016
-468.186	800.000	-0.076	-0.216
-467.172	-200.000	0.011	-0.064
-466.157	64.041	-0.099	0.101
-465.143	-22.262	0.283	-0.174
-464.128	800.000	0.076	-0.320
-463.113	-200.000	0.070	0.417
-462.099	-140.776	0.167	-0.017
-461.084	-35.218	-0.124	0.068
-460.070	-200.000	0.050	0.338
-459.055	76.329	0.051	-0.054
-458.040	-60.129	-0.114	0.049
-457.026	-37.305	0.019	0.010
-456.011	-119.880	-0.186	0.033
-454.997	588.198	0.060	0.149
-453.982	269.465	-0.181	0.322
-452.968	-152.699	-0.266	-0.019
-451.953	-151.102	0.095	-0.007
-450.938	660.106	0.100	0.262
-449.924	-87.411	0.398	0.122
-448.909	641.709	0.099	0.257
-447.895	-10.899	-0.108	0.072
-446.880	-99.611	0.167	-0.042
-445.865	800.000	-0.127	0.426
-444.851	-200.000	0.029	0.312
-443.836	-138.372	0.326	-0.036
-442.822	94.545	0.275	-0.317
-441.807	-61.412	-0.177	-0.075
-440.792	666.493	0.057	-0.150
-439.778	9.253	0.415	-0.317
-438.763	15.008	-0.123	0.097
-437.749	-200.000	-0.036	-0.268
-436.734	237.604	0.296	-0.497
-435.719	-78.565	0.163	-0.056
-434.705	800.000	-0.071	-0.268
-433.690	-60.242	0.083	0.036
-432.676	-72.510	0.317	-0.119
-431.661	336.705	-0.093	-0.183
-430.646	646.099	-0.092	-0.237
-429.632	-200.000	0.073	-0.376
-428.617	267.194	-0.116	0.206
-427.603	-38.103	0.192	-0.103
-426.588	7.812	-0.314	0.238
-425.573	-129.783	-0.394	0.055
-424.559	11.049	-0.141	-0.109
-423.544	799.684	0.135	0.378
-422.530	368.736	0.125	-0.256
-421.515	414.036	0.075	-0.162
-420.500	124.725	-0.023	0.029
-419.486	12.673	-0.219	-0.171
-418.471	-33.026	0.258	-0.145
-417.457	-129.990	0.232	-0.032
-416.442	-154.977	-0.071	0.005
-415.428	76.086	-0.303	-0.324
-414.413	258.831	-0.040	-0.071
-413.398	-56.613	0.092	0.041
-412.384	51.385	-0.058	0.056
-411.369	-150.736	0.156	-0.012
-410.355	286.196	0.094	-0.173
-409.340	46.443	-0.067	-0.063
-408.325	28.383	0.086	0.074
-407.311	-148.460	-0.420	-0.035
-406.296	-200.000	-0.044	0.240
-405.282	216.792	-0.146	0.235
-404.267	-140.518	0.292	0.031
-403.252	-115.949	0.291	-0.055
-402.238	-200.000	0.004	-0.048
-401.223	-88.324	-0.085	-0.026
-400.209	-172.435	-0.260	-0.008
-399.194	43.877	0.032	0.030
-398.179	323.234	0.146	0.281
-397.165	211.234	-0.216	-0.344
-396.150	-139.593	0.213	-0.023
-395.136	-102.601	0.251	0.061
-394.121	-200.000	-0.023	0.213
-393.106	739.360	0.058	-0.157
-392.092	275.398	-0.232	0.415
-391.077	-71.023	-0.413	0.157
-390.063	696.944	-0.047	-0.126
-389.048	22.500	-0.191	0.158
-388.033	-86.090	-0.194	-0.061
-387.019	-82.494	-0.354	-0.116
-386.004	-200.000	-0.010	-0.084
-384.990	-12.268	-0.153	0.101
-383.975	-29.709	-0.250	0.144
-382.960	154.532	-0.062	0.086
-381.946	-86.729	0.330	0.102
-380.931	16.050	0.103	-0.082
-379.917	547.448	0.055	0.132
-378.902	-79.688	-0.214	0.073
-377.888	-97.801	0.039	0.010
-376.873	-200.000	0.040	0.204
-375.858	582.594	0.089	-0.222
-374.844	-12.048	0.250	0.165
-373.829	800.000	-0.081	-0.266
-372.815	-9.643	-0.014	0.009
-371.800	-161.288	0.347	0.018
-370.785	-104.337	-0.254	-0.059
-369.771	800.000	-0.031	0.091
-368.756	-200.000	-0.015	-0.129
-367.742	578.329	0.101	0.249
-366.727	-5.760	-0.105	-0.073
-365.712	800.000	-0.029	-0.093
-364.698	-160.502	-0.143	0.008
-363.683	-119.343	0.222	-0.039
-362.669	800.000	0.051	-0.214
-361.654	-112.126	0.318	0.064
-360.639	-200.000	0.039	0.329
-359.625	444.935	0.086	0.192
-358.610	321.671	0.093	-0.180
-357.596	125.363	-0.030	-0.038
-356.581	25.827	-0.049	-0.041
-355.566	-171.677	0.208	0.007
-354.552	319.582	-0.155	0.297
-353.537	172.345	-0.206	-0.299
-352.523	800.000	-0.078	-0.274
-351.508	800.000	-0.070	-0.228
-350.493	-16.600	0.089	-0.057
-349.479	-110.778	-0.147	0.031
-348.464	-114.295	-0.153	0.030
-347.450	-200.000	-0.030	-0.222
-346.435	-30.114	0.184	-0.105
-345.420	-93.831	0.227	0.063
-344.406	357.378	0.178	0.357
-343.391	-115.450	0.063	-0.012
-342.377	58.543	0.080	0.079
-341.362	-79.025	-0.546	0.187
-340.348	107.145	-0.182	-0.218
-339.333	-93.164	0.575	-0.161
-338.318	91.613	0.087	-0.098
-337.304	60.982	-0.147	-0.147
-336.289	-124.059	0.143	-0.023
-335.275	169.211	-0.235	0.338
-334.260	44.082	-0.328	-0.304
-333.245	-200.000	-0.004	-0.040
-332.231	-75.858	0.288	-0.103
-331.216	272.671	0.222	-0.396
-330.202	25.659	-0.102	0.086
-329.187	8.690	-0.128	-0.097
-328.172	800.000	0.039	0.111
-327.158	-199.753	-0.427	0.002
-326.143	-61.103	-0.314	-0.134
-325.129	303.943	-0.083	-0.155
-324.114	-200.000	0.072	0.322
-323.099	55.305	0.095	-0.093
-322.085	768.403	0.096	0.263
-321.070	-128.180	-0.307	0.044
-320.056	-200.000	0.018	-0.286
-319.041	-200.000	-0.071	-0.342
-318.026	154.852	0.030	-0.041
-317.012	-114.526	0.124	0.024
-315.997	40.624	-0.253	-0.230
-314.983	-28.510	-0.043	0.025
-313.968	-146.463	0.204	0.018
-312.953	465.847	0.154	0.347
-311.939	-142.518	-0.189	-0.019
-310.924	345.773	0.097	0.192
-309.910	-4.124	0.110	0.077
-308.895	-85.763	0.151	-0.047
-307.880	-90.753	-0.165	-0.048
-306.866	86.980	-0.096	-0.107
-305.851	-200.000	0.058	-0.310
-304.837	-125.244	0.120	-0.018
-303.822	-200.000	0.007	0.347
-302.807	-51.779	0.096	-0.045
-301.793	-200.000	-0.003	0.067
-300.778	-200.000	0.009	0.179
-299.764	5.669	0.198	-0.147
-298.749	-130.364	-0.299	0.041
-297.735	-200.000	-0.031	-0.225
-296.720	-200.000	0.014	0.097
-295.705	163.714	0.077	0.109
-294.691	-200.000	0.017	0.140
-293.676	-200.000	0.024	-0.168
-292.662	18.725	0.180	0.145
-291.647	113.676	0.084	-0.103
-290.632	-137.042	-0.128	0.015
-289.618	113.140	0.130	-0.159
-288.603	-200.000	0.025	-0.188
-287.589	59.393	-0.365	-0.362
-286.574	800.000	0.044	-0.148
-285.559	48.802	-0.117	0.111
-284.545	-144.412	0.067	-0.006
-283.530	55.903	-0.156	0.152
-282.516	202.921	-0.039	0.061
-281.501	50.430	-0.310	0.295
-280.486	28.943	-0.125	0.106
-279.472	176.280	-0.087	0.127
-278.457	-130.061	0.025	-0.003
-277.443	11.320	0.199	-0.153
-276.428	-92.697	-0.144	-0.041
-275.413	-200.000	-0.036	0.322
-274.399	-140.455	-0.116	0.012
-273.384	-200.000	0.051	0.314
-272.370	-13.289	0.340	0.222
-271.355	-100.767	-0.131	-0.032
-270.340	158.828	-0.226	0.317
-269.326	-200.000	0.013	0.072
-268.311	521.607	-0.123	0.291
-267.297	-12.628	0.240	0.157
-266.282	800.000	0.010	-0.029
-265.267	-90.989	0.190	0.055
-264.253	-200.000	0.046	-0.325
-263.238	674.853	-0.095	-0.247
-262.224	84.611	-0.270	-0.297
-261.209	79.527	0.119	0.129
-260.195	675.731	0.157	0.411
-259.180	303.122	-0.193	-0.359
-258.165	800.000	0.098	-0.297
-257.151	412.392	-0.070	-0.149
-256.136	-200.000	0.015	0.316
-255.122	-6.121	-0.233	0.160
-254.107	800.000	-0.005	-0.021
-253.092	-200.000	-0.004	0.113
-252.078	800.000	-0.017	0.050
-251.063	156.813	-0.112	0.156
-250.049	-200.000	0.004	0.234
-249.034	-200.000	-0.036	0.403
-248.019	-39.594	-0.285	0.150
-247.005	731.744	-0.117	0.314
-245.990	64.371	-0.254	0.257
-244.976	-23.664	-0.115	-0.069
-243.961	-200.000	-0.037	0.194
-242.946	-70.116	0.191	-0.073
-241.932	150.379	0.127	0.173
-240.917	244.449	0.196	0.332
-239.903	800.000	-0.116	-0.501
-238.888	199.200	0.195	-0.300
-237.873	-57.958	-0.242	0.106
-236.859	800.000	-0.050	-0.199
-235.844	417.330	-0.096	0.206
-234.830	-116.951	0.110	0.020
-233.815	433.367	-0.089	-0.193
-232.800	800.000	-0.079	-0.331
-231.786	-20.425	0.193	-0.119
-230.771	226.906	-0.032	-0.052
-229.757	7.485	0.113	0.085
-228.742	-58.077	0.183	0.080
-227.727	-182.595	-0.075	-0.001
-226.713	-200.000	-0.013	0.116
-225.698	-200.000	-0.008	-0.300
-224.684	190.752	0.091	0.137
-223.669	39.207	-0.127	-0.114
-222.655	-69.933	0.081	0.031
-221.640	4.138	0.263	0.193
-220.625	68.444	-0.212	0.218
-219.611	-29.342	0.211	0.121
-218.596	63.057	0.278	0.279
-217.582	33.537	-0.145	0.126
-216.567	-62.087	0.232	0.097
-215.552	800.000	0.104	0.338
-214.538	15.554	0.116	-0.092
-213.523	-200.000	-0.007	-0.232
-212.509	-109.543	0.223	0.047
-211.494	735.008	0.046	0.122
-210.479	-141.485	0.246	0.025
-209.465	-137.750	0.045	-0.005
-208.450	268.531	-0.133	-0.235
-207.436	39.664	-0.084	-0.076
-206.421	-171.456	-0.168	-0.006
-205.406	111.227	0.008	0.009
-204.392	800.000	-0.051	0.186
-203.377	277.002	0.084	0.150
-202.363	65.637	0.328	-0.333
-201.348	-29.562	-0.082	-0.047
-200.333	800.000	0.095	0.330
-199.319	264.796	-0.136	0.238
-198.304	-200.000	0.006	-0.165
-197.290	-132.780	0.139	0.018
-196.275	-100.768	-0.550	0.136
-195.260	-200.000	-0.007	0.228
-194.246	-66.808	-0.171	0.068
-193.231	800.000	-0.103	-0.362
-192.217	800.000	0.039	-0.157
-191.202	-100.132	0.152	0.038
-190.187	136.357	0.126	-0.165
-189.173	787.681	-0.049	-0.135
-188.158	595.876	-0.037	-0.091
-187.144	658.837	0.027	-0.069
-186.129	-32.609	0.129	0.072
-185.114	-167.924	0.125	-0.005
-184.100	134.520	0.022	-0.029
-183.085	184.505	-0.050	0.074
-182.071	-104.230	0.164	-0.038
-181.056	0.877	0.090	0.064
-180.042	12.678	0.052	0.040
-179.027	111.641	-0.200	-0.242
-178.012	274.665	0.054	-0.096
-176.998	178.341	-0.218	-0.319
-175.983	38.770	0.120	0.108
-174.969	-136.180	-0.181	-0.021
-173.954	282.669	0.175	-0.314
-172.939	-200.000	0.034	0.213
-171.925	65.216	-0.169	0.171
-170.910	-103.895	0.362	0.085
-169.896	293.305	0.138	-0.252
-168.881	6.299	-0.084	-0.062
-167.866	-200.000	0.054	-0.250
-166.852	88.399	-0.053	-0.059
-165.837	-7.280	-0.180	0.122
-164.823	81.189	-0.265	-0.287
-163.808	-115.547	0.312	0.059
-162.793	71.019	0.122	0.127
-161.779	103.189	0.122	-0.143
-160.764	402.470	-0.069	0.146
-159.750	-183.104	-0.194	0.003
-158.735	-194.612	0.136	-0.001
-157.720	-83.735	0.372	-0.119
-156.706	-200.000	-0.009	0.176
-155.691	113.087	-0.162	-0.196
-154.677	-65.369	-0.289	0.117
-153.662	23.686	0.247	-0.204
-152.647	-200.000	-0.012	-0.446
-151.633	800.000	-0.089	-0.310
-150.618	106.854	-0.251	-0.299
-149.604	143.279	0.225	0.300
-148.589	42.602	0.131	0.120
-147.574	-14.804	-0.162	-0.104
-146.560	55.735	-0.236	-0.229
-145.545	-84.237	-0.047	0.015
-144.531	-178.545	0.287	0.007
-143.516	13.626	0.103	-0.080
-142.502	-89.490	0.083	-0.024
-141.487	800.000	0.092	-0.370
-140.472	-126.404	-0.437	-0.065
-139.458	-80.017	-0.292	-0.098
-138.443	77.662	0.129	0.138
-137.429	265.925	-0.054	0.094
-136.414	37.954	-0.166	-0.147
-135.399	-98.154	-0.243	-0.063
-134.385	-91.854	0.189	0.054
-133.370	-200.000	0.033	0.310
-132.356	267.610	0.086	0.151
-131.341	-109.182	-0.380	-0.081
-130.326	131.215	0.171	-0.220
-129.312	-200.000	0.035	-0.259
-128.297	116.007	-0.056	0.069
-127.283	-61.139	-0.173	0.073
-126.268	-200.000	0.030	-0.156
-125.253	-155.790	-0.448	0.029
-124.239	223.297	0.134	-0.216
-123.224	-11.569	0.149	-0.098
-122.210	800.000	0.077	-0.299
