DTS Sentinel unit serial number:	SN413079Multiplexer serial number:	ORYXHardware model number:	OX4-SRSoftware version number:	ORYX F/W v4.00 Oryx Data Collector v3.7.2.0data status	okinstallation	princeton_trtdifferential loss correction	single-endedforward channel	channel 3reverse channel	N/Adate	2019/09/15time	18:12:35forward acquisition time	60.00reverse acquisition time	0.00gamma	496.2192k internal	0.2286k external	0.2286temperature offset calibration	0.9922default loss term (dB/km)	0.3790temperature slope calibration	1.0000multiplexer offset coefficient	1.0000multiplexer slope coefficient	1.0000fibre end	0.00T internal ref (°C)	44.55T ext. ref 1 (°C)	6.57T ext. ref 2 (°C)	39.01length (m)	temperature (°C)	Stokes	anti-Stokes-747.200	17.659	-0.116	-0.094
-746.185	-110.661	-0.185	-0.039
-745.171	-101.745	-0.098	-0.024
-744.156	-63.226	-0.440	0.186
-743.142	212.301	-0.195	0.315
-742.127	-200.000	-0.022	-0.259
-741.112	-200.000	-0.004	-0.202
-740.098	-114.728	0.152	0.030
-739.083	-0.773	-0.126	0.091
-738.069	164.656	-0.114	0.165
-737.054	-187.994	0.260	-0.003
-736.039	-150.021	-0.315	0.025
-735.025	134.930	-0.090	0.120
-734.010	-93.841	-0.402	0.114
-732.996	117.260	-0.026	-0.032
-731.981	-145.532	-0.531	-0.049
-730.966	151.321	0.142	-0.199
-729.952	800.000	0.046	0.144
-728.937	25.884	-0.315	-0.269
-727.923	-200.000	-0.030	-0.208
-726.908	217.135	-0.112	-0.183
-725.894	800.000	-0.042	-0.169
-724.879	165.194	0.250	-0.362
-723.864	-170.419	-0.346	0.012
-722.850	-200.000	0.028	0.132
-721.835	-57.185	0.213	-0.096
-720.821	-74.507	-0.133	0.049
-719.806	800.000	0.004	0.016
-718.791	-59.216	0.440	0.195
-717.777	-123.970	-0.304	-0.049
-716.762	4.606	-0.297	-0.224
-715.748	212.443	-0.068	-0.111
-714.733	-134.235	-0.111	0.014
-713.718	248.072	0.084	0.146
-712.704	800.000	-0.021	0.087
-711.689	-79.661	0.117	-0.041
-710.675	-200.000	-0.007	0.105
-709.660	-133.638	-0.178	-0.023
-708.645	2.687	-0.209	-0.155
-707.631	-108.285	0.182	0.040
-706.616	1.055	0.124	-0.091
-705.602	-132.305	0.087	-0.011
-704.587	800.000	-0.032	-0.139
-703.572	-184.055	0.274	0.005
-702.558	800.000	-0.117	-0.384
-701.543	-109.788	0.200	0.043
-700.529	-145.068	0.197	0.018
-699.514	-19.589	0.221	0.140
-698.499	-200.000	-0.002	0.047
-697.485	88.258	-0.258	0.293
-696.470	512.770	-0.002	-0.004
-695.456	-200.000	-0.075	-0.362
-694.441	345.585	-0.027	0.055
-693.426	800.000	0.110	0.338
-692.412	508.332	-0.122	-0.290
-691.397	-93.303	0.052	0.015
-690.383	-15.066	0.052	0.034
-689.368	423.399	0.070	-0.153
-688.354	-8.489	0.345	-0.237
-687.339	734.831	0.051	0.139
-686.324	-94.139	-0.232	-0.065
-685.310	-94.961	-0.235	0.065
-684.295	-98.990	-0.229	0.059
-683.281	-200.000	-0.002	0.032
-682.266	800.000	-0.003	0.013
-681.251	-200.000	0.087	-0.415
-680.237	161.544	0.097	-0.138
-679.222	11.727	-0.153	-0.121
-678.208	-61.016	0.242	-0.105
-677.193	-200.000	0.026	-0.296
-676.178	-20.477	-0.272	-0.171
-675.164	662.614	-0.020	0.054
-674.149	800.000	-0.021	0.066
-673.135	-200.000	0.045	0.306
-672.120	800.000	0.068	-0.249
-671.105	88.511	0.141	-0.160
-670.091	-80.303	0.072	-0.025
-669.076	67.819	0.243	0.254
-668.062	71.781	-0.101	0.108
-667.047	36.120	0.253	0.228
-666.032	-78.764	-0.205	-0.072
-665.018	-200.000	0.002	0.161
-664.003	-200.000	0.009	0.231
-662.989	-166.210	-0.118	-0.005
-661.974	800.000	0.098	0.360
-660.959	-189.468	-0.266	-0.003
-659.945	50.212	-0.132	-0.127
-658.930	102.714	0.182	-0.217
-657.916	259.054	0.036	0.064
-656.901	800.000	-0.149	-0.467
-655.886	-134.726	-0.242	0.030
-654.872	132.051	-0.064	0.084
-653.857	800.000	0.037	-0.133
-652.843	-103.408	-0.327	0.079
-651.828	44.469	-0.110	-0.104
-650.814	-38.892	-0.236	0.127
-649.799	770.881	0.075	-0.210
-648.784	725.984	-0.144	-0.391
-647.770	-58.969	0.121	-0.054
-646.755	-40.663	0.323	-0.171
-645.741	-35.814	-0.310	0.172
-644.726	392.319	0.054	0.115
-643.711	-133.235	0.292	-0.038
-642.697	-93.787	-0.184	-0.052
-641.682	-12.481	-0.067	-0.045
-640.668	28.022	-0.148	-0.128
-639.653	32.972	-0.087	-0.077
-638.638	12.072	-0.175	-0.138
-637.624	-79.061	-0.156	-0.054
-636.609	-16.428	0.192	0.124
-635.595	37.860	0.084	0.076
-634.580	482.056	-0.086	-0.199
-633.565	100.752	-0.056	-0.067
-632.551	7.921	0.068	0.052
-631.536	-200.000	-0.016	0.219
-630.522	130.945	-0.229	0.300
-629.507	-157.188	-0.200	0.012
-628.492	12.833	0.167	0.132
-627.478	-47.448	0.253	0.126
-626.463	90.914	0.160	0.183
-625.449	800.000	-0.163	0.465
-624.434	-58.186	-0.074	0.033
-623.419	96.347	-0.177	0.207
-622.405	-120.784	-0.174	-0.030
-621.390	52.145	0.104	-0.101
-620.376	800.000	0.023	-0.080
-619.361	-32.442	-0.128	-0.073
-618.346	53.580	0.071	-0.070
-617.332	-94.011	-0.124	-0.035
-616.317	-200.000	-0.001	0.316
-615.303	-111.551	0.221	0.046
-614.288	-29.384	-0.116	-0.068
-613.273	-139.440	0.072	0.008
-612.259	-91.164	0.230	0.067
-611.244	38.272	0.045	-0.041
-610.230	-200.000	-0.014	-0.150
-609.215	-65.614	0.136	0.056
-608.201	800.000	-0.008	-0.022
-607.186	-23.954	-0.109	-0.067
-606.171	-115.243	-0.130	-0.025
-605.157	453.678	0.119	0.269
-604.142	24.804	-0.160	0.135
-603.128	87.404	-0.306	0.345
-602.113	200.982	-0.108	-0.170
-601.098	98.579	-0.244	0.287
-600.084	-40.001	0.059	-0.031
-599.069	-15.525	0.180	-0.117
-598.055	-52.280	-0.059	0.028
-597.040	35.910	-0.180	0.162
-596.025	182.325	-0.177	-0.266
-595.011	-1.847	-0.231	-0.166
-593.996	800.000	0.025	0.090
-592.982	0.382	-0.112	0.081
-591.967	-148.738	0.058	0.005
-590.952	54.607	-0.229	0.226
-589.938	-65.784	-0.067	-0.027
-588.923	-119.124	-0.105	0.019
-587.909	-200.000	-0.027	-0.362
-586.894	73.481	0.114	-0.122
-585.879	109.699	-0.063	-0.078
-584.865	-24.535	-0.017	-0.011
-583.850	342.607	-0.057	0.113
-582.836	-200.000	-0.032	-0.193
-581.821	-59.583	-0.224	-0.098
-580.806	-169.090	-0.380	-0.014
-579.792	-200.000	0.003	0.028
-578.777	-50.287	0.125	0.060
-577.763	250.502	0.021	0.037
-576.748	-138.010	-0.172	0.020
-575.733	73.790	0.165	0.177
-574.719	-40.404	0.006	-0.003
-573.704	117.784	-0.258	0.324
-572.690	800.000	-0.071	-0.200
-571.675	-200.000	0.031	0.295
-570.661	545.457	0.118	0.287
-569.646	-42.365	-0.359	-0.187
-568.631	760.514	0.014	-0.040
-567.617	-28.669	-0.041	-0.024
-566.602	342.571	-0.190	0.379
-565.588	-200.000	0.036	0.205
-564.573	287.105	-0.082	-0.151
-563.558	-80.240	0.633	0.216
-562.544	-13.931	-0.190	-0.125
-561.529	-52.642	0.245	0.115
-560.515	-55.203	0.064	-0.030
-559.500	392.258	-0.036	-0.075
-558.485	-200.000	0.000	-0.165
-557.471	-37.671	0.107	-0.058
-556.456	408.623	0.080	-0.174
-555.442	-200.000	0.057	0.346
-554.427	-200.000	-0.017	-0.102
-553.412	151.412	-0.063	-0.087
-552.398	76.489	-0.096	0.104
-551.383	-117.423	0.297	-0.055
-550.369	-22.741	0.103	0.063
-549.354	-2.865	-0.102	-0.073
-548.339	-177.076	-0.309	-0.008
-547.325	-21.253	-0.086	-0.053
-546.310	31.310	0.096	-0.084
-545.296	-29.170	0.181	-0.106
-544.281	29.406	0.130	0.113
-543.266	435.641	0.214	0.474
-542.252	-10.364	-0.076	-0.051
-541.237	-80.410	-0.256	-0.087
-540.223	-44.872	-0.143	0.072
-539.208	162.587	0.230	0.328
-538.193	-66.393	0.181	0.073
-537.179	-58.435	-0.173	0.077
-536.164	-200.000	0.002	0.110
-535.150	-76.285	0.393	-0.141
-534.135	-200.000	0.017	0.113
-533.121	-6.046	0.195	0.135
-532.106	62.637	-0.152	-0.155
-531.091	-44.521	0.072	-0.037
-530.077	122.217	-0.167	-0.213
-529.062	-102.099	-0.103	0.025
-528.048	-178.606	0.233	0.005
-527.033	-32.143	-0.276	0.157
-526.018	-73.238	-0.239	-0.089
-525.004	800.000	-0.030	0.112
-523.989	-200.000	-0.029	0.169
-522.975	-3.297	0.252	0.178
-521.960	-116.765	-0.154	-0.029
-520.945	-78.537	0.130	0.045
-519.931	-200.000	-0.015	-0.109
-518.916	-64.956	0.152	0.063
-517.902	389.246	-0.031	0.065
-516.887	664.630	-0.009	-0.023
-515.872	97.501	0.306	0.358
-514.858	-200.000	-0.049	0.333
-513.843	800.000	-0.089	0.375
-512.829	-74.589	0.167	-0.061
-511.814	-200.000	-0.009	-0.253
-510.799	436.860	-0.093	0.205
-509.785	488.364	-0.086	-0.201
-508.770	-100.511	-0.274	-0.069
-507.756	800.000	0.040	-0.121
-506.741	-52.136	-0.271	0.128
-505.726	-156.839	0.119	-0.007
-504.712	68.262	-0.156	0.162
-503.697	-166.607	0.087	0.004
-502.683	73.485	-0.229	-0.243
-501.668	29.073	0.083	-0.071
-500.653	754.066	0.089	-0.245
-499.639	-200.000	-0.004	0.054
-498.624	-69.767	-0.093	0.036
-497.610	637.333	0.054	-0.140
-496.595	-87.431	0.097	0.030
-495.581	64.265	-0.055	0.056
-494.566	56.916	-0.220	0.218
-493.551	137.700	0.070	-0.093
-492.537	-200.000	0.010	-0.146
-491.522	-106.641	-0.311	0.070
-490.508	43.523	0.213	-0.198
-489.493	-200.000	-0.036	-0.189
-488.478	-200.000	0.012	-0.084
-487.464	-200.000	0.157	-0.001
-486.449	800.000	0.056	-0.208
-485.435	74.221	0.129	-0.138
-484.420	4.049	0.116	0.086
-483.405	-200.000	0.032	-0.234
-482.391	-200.000	0.067	0.310
-481.376	25.233	0.109	0.092
-480.362	320.886	0.116	0.224
-479.347	-113.259	0.108	0.022
-478.332	-200.000	0.011	0.395
-477.318	800.000	0.017	-0.067
-476.303	800.000	-0.034	-0.104
-475.289	699.332	-0.080	-0.213
-474.274	-190.908	0.134	0.001
-473.259	-169.813	-0.409	0.015
-472.245	108.833	-0.183	-0.222
-471.230	-200.000	0.063	0.282
-470.216	-76.691	-0.246	-0.087
-469.201	-189.797	-0.087	0.001
-468.186	380.330	0.142	-0.296
-467.172	-40.496	0.158	0.083
-466.157	-62.751	-0.242	-0.102
-465.143	453.756	-0.134	0.302
-464.128	-51.951	0.235	0.111
-463.113	201.517	-0.036	-0.056
-462.099	800.000	-0.137	-0.470
-461.084	218.635	0.170	0.276
-460.070	-79.706	0.125	0.043
-459.055	348.194	0.192	0.385
-458.040	184.714	-0.094	-0.141
-457.026	-42.528	-0.412	-0.213
-456.011	64.625	-0.339	-0.347
-454.997	-200.000	-0.009	0.301
-453.982	572.177	-0.073	-0.180
-452.968	-121.289	0.119	0.020
-451.953	-200.000	0.036	0.226
-450.938	281.520	0.079	0.144
-449.924	-200.000	0.047	0.271
-448.909	-200.000	0.020	0.146
-447.895	-87.184	-0.036	0.011
-446.880	198.269	0.022	0.034
-445.865	-83.896	0.314	-0.101
-444.851	800.000	-0.079	-0.347
-443.836	-200.000	0.023	0.301
-442.822	-119.961	0.126	-0.022
-441.807	-157.235	-0.250	0.015
-440.792	226.489	0.051	0.085
-439.778	-200.000	-0.053	-0.264
-438.763	-39.980	-0.233	-0.123
-437.749	787.963	-0.081	0.224
-436.734	131.745	0.085	-0.111
-435.719	80.137	0.179	-0.195
-434.705	-87.999	0.260	-0.079
-433.690	54.272	0.361	0.352
-432.676	366.575	0.071	-0.145
-431.661	-200.000	-0.023	-0.148
-430.646	800.000	-0.029	-0.126
-429.632	-200.000	0.029	0.286
-428.617	56.156	0.110	-0.108
-427.603	-125.615	-0.289	-0.044
-426.588	-165.991	0.465	0.020
-425.573	-0.035	-0.219	0.158
-424.559	14.509	-0.288	-0.228
-423.544	-200.000	-0.049	-0.362
-422.530	214.787	-0.174	-0.279
-421.515	31.111	0.419	0.364
-420.500	72.364	0.169	0.179
-419.486	-200.000	0.033	0.297
-418.471	-74.012	-0.153	-0.056
-417.457	-200.000	-0.004	0.036
-416.442	-123.890	-0.127	0.020
-415.428	199.713	-0.189	-0.293
-414.413	-200.000	0.001	-0.318
-413.398	-7.422	0.246	0.169
-412.384	-200.000	-0.009	0.068
-411.369	800.000	0.086	0.320
-410.355	-35.211	-0.131	-0.072
-409.340	-200.000	-0.036	0.349
-408.325	-68.180	0.143	-0.057
-407.311	-52.345	0.191	0.090
-406.296	287.271	0.133	0.243
-405.282	800.000	-0.060	0.179
-404.267	99.337	0.204	0.239
-403.252	800.000	-0.063	0.202
-402.238	-200.000	0.040	-0.301
-401.223	-52.351	0.052	0.024
-400.209	-118.339	-0.194	0.035
-399.194	-54.730	0.291	0.133
-398.179	-70.111	-0.049	-0.019
-397.165	-140.292	0.217	0.023
-396.150	-39.005	0.155	-0.082
-395.136	-200.000	-0.004	0.175
-394.121	-150.091	-0.140	-0.011
-393.106	508.208	-0.052	-0.122
-392.092	-200.000	-0.006	-0.150
-391.077	30.516	-0.080	-0.069
-390.063	126.616	0.099	0.128
-389.048	88.743	-0.053	0.059
-388.033	63.325	-0.130	-0.132
-387.019	-111.386	-0.274	-0.057
-386.004	257.696	-0.055	-0.095
-384.990	-114.018	-0.270	-0.053
-383.975	89.885	0.252	0.284
-382.960	-31.941	-0.285	0.161
-381.946	-200.000	0.056	-0.283
-380.931	413.532	-0.089	0.192
-379.917	108.543	0.154	0.186
-378.902	193.299	-0.090	-0.138
-377.888	141.361	0.141	0.189
-376.873	176.800	0.212	0.311
-375.858	189.557	-0.163	0.248
-374.844	-76.438	-0.201	-0.072
-373.829	532.482	0.101	-0.242
-372.815	506.353	0.120	-0.281
-371.800	-69.354	0.145	0.056
-370.785	-200.000	-0.036	-0.196
-369.771	-68.760	0.199	0.078
-368.756	-43.000	-0.214	-0.110
-367.742	-200.000	0.010	-0.060
-366.727	-200.000	0.051	0.371
-365.712	-73.070	-0.126	-0.047
-364.698	-26.728	-0.223	-0.132
-363.683	-81.384	-0.198	-0.066
-362.669	-135.485	0.363	0.044
-361.654	-56.670	-0.211	-0.094
-360.639	-150.268	0.299	-0.023
-359.625	208.174	-0.154	0.243
-358.610	-108.795	0.262	0.057
-357.596	-200.000	-0.011	0.458
-356.581	27.726	-0.046	-0.039
-355.566	-200.000	-0.003	-0.051
-354.552	72.741	0.093	0.099
-353.537	-200.000	0.037	-0.331
-352.523	-200.000	0.032	0.259
-351.508	-200.000	0.062	0.375
-350.493	-130.761	-0.112	0.015
-349.479	-111.316	0.348	0.072
-348.464	-127.837	0.067	-0.010
-347.450	800.000	-0.139	-0.489
-346.435	-200.000	0.024	0.163
-345.420	-75.358	0.179	0.065
-344.406	307.738	0.061	-0.115
-343.391	-200.000	0.016	-0.332
-342.377	-80.304	0.203	-0.069
-341.362	-150.999	0.325	0.025
-340.348	136.361	0.139	0.183
-339.333	-70.054	-0.093	0.036
-338.318	-200.000	0.013	-0.098
-337.304	-200.000	0.043	0.276
-336.289	111.988	-0.170	0.208
-335.275	309.309	-0.078	0.146
-334.260	118.496	0.100	-0.125
-333.245	-124.897	-0.154	-0.024
-332.231	-171.397	0.164	-0.006
-331.216	146.369	0.098	-0.132
-330.202	7.544	0.102	-0.077
-329.187	71.625	-0.202	-0.212
-328.172	115.688	-0.166	0.205
-327.158	-81.179	-0.239	-0.080
-326.143	-167.031	0.124	-0.005
-325.129	-187.013	0.364	-0.005
-324.114	251.923	-0.177	0.305
-323.099	-77.172	-0.257	0.090
-322.085	163.423	0.035	-0.050
-321.070	653.472	-0.118	0.305
-320.056	-200.000	-0.018	0.297
-319.041	-56.666	-0.230	0.103
-318.026	-152.264	-0.223	0.016
-317.012	-62.302	0.189	0.079
-315.997	-97.218	0.056	-0.015
-314.983	-82.411	0.194	-0.064
-313.968	-98.982	0.293	0.075
-312.953	402.146	-0.053	-0.111
-311.939	61.947	0.089	-0.089
-310.924	-36.669	0.192	-0.104
-309.910	-200.000	-0.003	-0.182
-308.895	43.281	0.238	0.219
-307.880	28.466	0.186	0.159
-306.866	-121.482	-0.280	-0.047
-305.851	-112.846	0.128	0.026
-304.837	34.364	0.152	0.134
-303.822	38.753	0.274	-0.247
-302.807	-64.252	0.142	-0.058
-301.793	21.730	-0.152	-0.125
-300.778	72.762	0.059	0.062
-299.764	302.229	0.179	0.334
-298.749	-56.300	-0.233	0.105
-297.735	-7.309	0.485	-0.331
-296.720	226.261	0.170	-0.278
-295.705	249.572	0.108	0.185
-294.691	9.782	-0.110	-0.084
-293.676	393.332	0.079	-0.166
-292.662	-12.653	0.279	0.183
-291.647	128.081	0.064	-0.082
-290.632	-107.455	0.300	0.066
-289.618	-174.222	-0.398	0.012
-288.603	800.000	-0.015	0.045
-287.589	-200.000	0.029	-0.152
-286.574	-28.722	-0.462	-0.268
-285.559	79.625	-0.124	-0.134
-284.545	29.489	0.111	-0.095
-283.530	-83.246	-0.399	-0.129
-282.516	-122.126	0.189	0.031
-281.501	-200.000	-0.011	-0.088
-280.486	-200.000	-0.015	-0.102
-279.472	-48.897	-0.074	0.036
-278.457	-5.249	0.113	0.079
-277.443	110.575	-0.280	0.339
-276.428	-200.000	0.040	-0.283
-275.413	800.000	-0.049	-0.141
-274.399	111.427	-0.195	-0.237
-273.384	-36.713	0.084	-0.045
-272.370	511.279	-0.058	0.135
-271.355	546.503	-0.015	0.035
-270.340	-200.000	-0.011	0.061
-269.326	800.000	-0.032	0.139
-268.311	-187.444	0.141	0.002
-267.297	-105.768	-0.285	-0.065
-266.282	48.918	-0.066	0.063
-265.267	-78.048	-0.193	-0.067
-264.253	279.494	0.156	-0.280
-263.238	105.872	-0.087	-0.104
-262.224	-110.809	-0.202	-0.042
-261.209	-95.581	0.083	0.022
-260.195	148.165	0.148	0.200
-259.180	46.737	-0.295	-0.276
-258.165	249.965	0.134	0.230
-257.151	374.309	0.132	0.271
-256.136	392.081	-0.173	-0.361
-255.122	-112.749	0.290	0.058
-254.107	-11.447	-0.163	0.108
-253.092	-200.000	0.016	-0.280
-252.078	800.000	0.029	-0.113
-251.063	-200.000	0.070	0.364
-250.049	-15.641	-0.208	0.133
-249.034	-200.000	-0.039	-0.302
-248.019	95.056	0.325	-0.373
-247.005	221.734	0.115	-0.186
-245.990	-200.000	0.053	0.299
-244.976	450.301	-0.128	-0.284
-243.961	800.000	0.077	-0.269
-242.946	-20.839	0.159	0.098
-241.932	97.026	0.181	0.209
-240.917	58.948	-0.052	-0.052
-239.903	306.750	0.064	-0.120
-238.888	-184.497	-0.242	0.004
-237.873	-200.000	-0.007	0.204
-236.859	-25.064	0.308	-0.184
-235.844	98.219	-0.115	0.133
-234.830	104.874	0.071	0.084
-233.815	-8.842	-0.084	-0.057
-232.800	232.560	0.240	-0.396
-231.786	96.755	-0.170	0.196
-230.771	-27.006	-0.404	-0.237
-229.757	-200.000	0.078	-0.425
-228.742	-64.023	0.304	-0.125
-227.727	545.002	0.089	0.213
-226.713	-92.986	-0.398	-0.112
-225.698	685.014	-0.079	-0.208
-224.684	-200.000	-0.012	-0.222
-223.669	93.035	0.109	-0.124
-222.655	-75.869	0.123	0.044
-221.640	5.092	0.267	-0.198
-220.625	-88.834	0.248	0.074
-219.611	800.000	-0.019	0.082
-218.596	-59.351	-0.216	0.094
-217.582	-149.880	0.235	0.019
-216.567	20.774	0.236	0.192
-215.552	217.280	0.159	0.254
-214.538	59.838	0.269	-0.267
-213.523	-200.000	-0.003	-0.059
-212.509	357.851	-0.104	-0.209
-211.494	129.831	-0.053	0.068
-210.479	-134.746	0.109	0.013
-209.465	-200.000	-0.006	0.513
-208.450	-200.000	-0.012	0.060
-207.436	-52.103	0.087	0.040
-206.421	157.072	-0.266	0.370
-205.406	-186.844	-0.446	-0.006
-204.392	500.725	-0.127	-0.294
-203.377	-200.000	0.048	-0.284
-202.363	284.662	-0.056	-0.102
-201.348	-113.140	-0.300	-0.059
-200.333	-40.279	-0.162	-0.085
-199.319	800.000	-0.075	-0.227
-198.304	37.410	-0.047	-0.042
-197.290	800.000	-0.148	-0.603
-196.275	527.174	0.068	-0.161
-195.260	285.545	-0.036	0.065
-194.246	89.178	0.164	-0.183
-193.231	-89.490	-0.067	0.020
-192.217	-84.728	-0.235	-0.074
-191.202	-23.141	0.213	0.129
-190.187	-38.290	0.173	-0.092
-189.173	-117.664	-0.170	-0.031
-188.158	-63.619	-0.090	-0.037
-187.144	-84.132	0.190	0.060
-186.129	74.194	0.140	-0.148
-185.114	800.000	0.037	-0.105
-184.100	-200.000	0.002	-0.202
-183.085	204.396	0.059	-0.092
-182.071	-172.521	-0.222	0.007
-181.056	-152.169	0.301	0.022
-180.042	-4.768	-0.244	0.169
-179.027	-46.993	0.239	-0.117
-178.012	-2.867	0.125	-0.088
-176.998	-43.746	0.272	0.138
-175.983	462.164	-0.035	0.078
-174.969	-21.084	0.129	0.079
-173.954	64.697	-0.148	-0.149
-172.939	-72.836	0.064	-0.024
-171.925	466.502	-0.058	-0.129
-170.910	-162.213	-0.038	0.002
-169.896	-127.136	0.224	-0.033
-168.881	-24.712	-0.138	0.082
-167.866	130.197	0.073	-0.094
-166.852	-156.065	-0.316	-0.020
-165.837	-200.000	0.008	0.193
-164.823	-200.000	-0.010	-0.125
-163.808	321.965	-0.178	0.340
-162.793	800.000	0.050	-0.186
-161.779	-200.000	-0.088	-0.581
-160.764	-93.383	0.144	0.040
-159.750	-200.000	-0.013	-0.182
-158.735	-200.000	-0.019	0.173
-157.720	-60.152	-0.167	-0.071
-156.706	-111.190	-0.201	0.041
-155.691	30.019	-0.152	0.130
-154.677	-145.277	-0.148	0.013
-153.662	-200.000	0.002	-0.119
-152.647	-90.669	0.167	0.048
-151.633	361.958	0.147	-0.295
-150.618	-99.682	-0.516	-0.130
-149.604	-133.915	0.104	-0.013
-148.589	530.763	-0.134	-0.317
-147.574	-92.537	0.258	-0.073
-146.560	23.202	0.175	0.144
-145.545	-118.243	-0.289	-0.052
-144.531	-200.000	0.026	-0.257
-143.516	17.946	-0.121	-0.097
-142.502	-73.405	-0.236	0.086
-141.487	174.466	0.152	0.221
-140.472	-200.000	0.024	-0.269
-139.458	-80.552	0.089	-0.030
-138.443	-6.775	-0.076	-0.052
-137.429	-200.000	-0.010	-0.068
-136.414	662.028	-0.095	0.245
-135.399	704.830	-0.141	0.372
-134.385	800.000	0.042	-0.171
-133.370	23.373	-0.121	0.100
-132.356	-69.229	0.198	-0.076
-131.341	-53.213	-0.173	0.080
-130.326	-200.000	0.009	-0.197
-129.312	-127.229	-0.176	-0.026
-128.297	-125.824	0.518	0.078
-127.283	607.870	0.014	-0.034
-126.268	-98.024	-0.276	-0.071
-125.253	517.837	-0.055	-0.130
-124.239	-82.642	-0.172	0.056
-123.224	-200.000	0.043	0.196
-122.210	3.740	0.311	-0.227
