DTS Sentinel unit serial number:	SN413079Multiplexer serial number:	ORYXHardware model number:	OX4-SRSoftware version number:	ORYX F/W v4.00 Oryx Data Collector v3.7.2.0data status	okinstallation	princeton_trtdifferential loss correction	single-endedforward channel	channel 3reverse channel	N/Adate	2019/09/15time	10:28:35forward acquisition time	60.00reverse acquisition time	0.00gamma	496.2192k internal	0.2308k external	0.2308temperature offset calibration	0.9976default loss term (dB/km)	0.3790temperature slope calibration	1.0000multiplexer offset coefficient	1.0000multiplexer slope coefficient	1.0000fibre end	0.00T internal ref (°C)	34.25T ext. ref 1 (°C)	5.04T ext. ref 2 (°C)	29.44length (m)	temperature (°C)	Stokes	anti-Stokes-747.200	-29.917	-0.257	-0.149
-746.185	800.000	-0.095	0.391
-745.171	650.581	-0.092	0.239
-744.156	800.000	-0.030	0.128
-743.142	-170.691	0.325	0.011
-742.127	164.186	-0.095	0.136
-741.112	92.588	-0.049	-0.056
-740.098	-156.449	0.301	0.019
-739.083	-78.003	-0.288	-0.101
-738.069	-14.484	0.109	0.071
-737.054	56.893	0.023	-0.023
-736.039	114.146	-0.112	0.138
-735.025	51.448	0.171	0.165
-734.010	-28.422	-0.151	-0.088
-732.996	135.064	-0.030	0.039
-731.981	86.012	-0.243	-0.272
-730.966	194.833	0.053	-0.082
-729.952	-200.000	-0.079	-0.543
-728.937	-63.862	-0.402	-0.167
-727.923	-134.945	-0.381	0.047
-726.908	800.000	-0.078	-0.338
-725.894	-112.115	0.481	-0.098
-724.879	-200.000	-0.026	-0.197
-723.864	244.352	-0.257	-0.438
-722.850	-67.486	0.214	0.085
-721.835	-69.004	-0.375	-0.147
-720.821	50.516	0.085	-0.082
-719.806	99.076	-0.103	0.121
-718.791	205.694	-0.158	-0.249
-717.777	-28.430	-0.161	-0.094
-716.762	187.554	0.144	-0.219
-715.748	-200.000	-0.025	-0.306
-714.733	54.947	-0.125	-0.122
-713.718	800.000	-0.147	0.425
-712.704	-200.000	0.004	0.046
-711.689	-129.430	0.198	0.028
-710.675	-138.921	-0.218	0.024
-709.660	58.312	0.091	-0.090
-708.645	437.593	0.081	-0.178
-707.631	-16.805	-0.061	0.039
-706.616	-34.863	-0.092	0.051
-705.602	-2.744	0.113	-0.080
-704.587	353.286	0.154	-0.310
-703.572	1.781	-0.296	0.217
-702.558	-200.000	0.007	-0.284
-701.543	-200.000	0.055	-0.361
-700.529	-200.000	0.049	0.299
-699.514	800.000	-0.049	-0.180
-698.499	-14.227	-0.048	0.031
-697.485	800.000	0.009	-0.029
-696.470	-200.000	-0.002	-0.108
-695.456	-52.803	-0.110	-0.051
-694.441	-132.449	0.122	0.016
-693.426	656.285	-0.152	-0.396
-692.412	20.330	-0.305	-0.250
-691.397	-79.283	-0.308	-0.106
-690.383	-105.197	-0.237	0.055
-689.368	-108.287	-0.242	0.053
-688.354	524.518	0.109	0.260
-687.339	-109.653	0.260	-0.055
-686.324	-20.211	0.110	-0.069
-685.310	-200.000	-0.011	0.240
-684.295	800.000	0.072	0.271
-683.281	-200.000	-0.033	0.223
-682.266	-146.662	-0.164	-0.014
-681.251	-200.000	0.005	0.065
-680.237	-200.000	0.008	0.179
-679.222	188.561	0.069	-0.105
-678.208	-200.000	0.059	0.355
-677.193	-54.912	-0.271	-0.124
-676.178	-7.826	0.094	-0.064
-675.164	-200.000	-0.049	0.410
-674.149	405.044	-0.074	-0.158
-673.135	-200.000	-0.039	-0.211
-672.120	800.000	-0.085	0.329
-671.105	-131.014	-0.143	0.019
-670.091	172.962	0.313	-0.456
-669.076	-200.000	-0.047	-0.235
-668.062	-200.000	0.001	0.174
-667.047	-180.379	0.119	0.003
-666.032	-135.532	-0.154	0.019
-665.018	-200.000	-0.090	-0.482
-664.003	26.011	-0.136	-0.115
-662.989	-200.000	-0.004	-0.124
-661.974	18.693	0.271	0.220
-660.959	127.012	-0.136	0.174
-659.945	-133.070	-0.139	-0.018
-658.930	-110.546	-0.070	-0.015
-657.916	800.000	-0.066	-0.214
-656.901	-168.114	0.097	0.004
-655.886	-200.000	0.024	0.164
-654.872	-56.222	0.031	-0.014
-653.857	72.303	0.006	0.007
-652.843	-75.350	0.048	0.017
-651.828	-110.698	0.368	-0.077
-650.814	-200.000	-0.073	0.454
-649.799	-132.639	-0.057	0.007
-648.784	-52.831	0.305	0.142
-647.770	-200.000	-0.005	0.235
-646.755	3.290	-0.247	-0.182
-645.741	800.000	-0.039	0.157
-644.726	-200.000	-0.006	-0.053
-643.711	64.444	-0.289	-0.295
-642.697	-60.372	0.259	-0.112
-641.682	-84.662	-0.052	-0.017
-640.668	134.239	0.254	0.334
-639.653	-200.000	0.013	0.113
-638.638	800.000	-0.054	-0.164
-637.624	-20.985	-0.161	-0.100
-636.609	50.231	-0.234	-0.224
-635.595	-76.387	0.303	0.108
-634.580	-169.840	0.236	0.009
-633.565	-23.129	0.251	-0.153
-632.551	525.760	-0.084	-0.201
-631.536	-53.042	0.078	-0.036
-630.522	800.000	0.076	-0.299
-629.507	726.638	0.096	-0.260
-628.492	-24.456	0.208	0.125
-627.478	86.919	0.114	-0.127
-626.463	126.577	-0.174	0.223
-625.449	-104.459	-0.132	0.031
-624.434	-150.742	0.228	-0.018
-623.419	671.478	0.083	0.218
-622.405	800.000	-0.060	0.176
-621.390	-154.834	0.213	-0.014
-620.376	-90.238	-0.266	-0.078
-619.361	78.221	0.121	0.131
-618.346	1.871	0.038	-0.028
-617.332	-147.669	0.117	0.010
-616.317	-104.440	-0.405	0.095
-615.303	-137.953	-0.204	0.023
-614.288	434.161	0.054	-0.120
-613.273	63.380	-0.108	0.110
-612.259	-200.000	0.011	-0.181
-611.244	-200.000	-0.043	0.225
-610.230	-200.000	0.056	0.449
-609.215	108.310	0.164	-0.198
-608.201	705.142	-0.009	0.025
-607.186	-171.707	0.179	-0.006
-606.171	-103.519	0.064	0.015
-605.157	-198.370	-0.304	0.002
-604.142	18.968	0.154	0.125
-603.128	586.460	-0.051	-0.127
-602.113	441.988	-0.176	-0.390
-601.098	63.313	-0.082	0.083
-600.084	-200.000	0.034	-0.204
-599.069	-145.717	-0.336	-0.030
-598.055	-30.044	-0.157	0.090
-597.040	-60.631	-0.196	0.084
-596.025	115.024	-0.223	-0.275
-595.011	345.739	0.102	0.202
-593.996	-61.722	0.153	-0.065
-592.982	-158.084	-0.105	0.006
-591.967	-136.567	0.203	-0.024
-590.952	106.727	0.164	0.197
-589.938	-64.880	-0.041	0.017
-588.923	-200.000	0.030	0.142
-587.909	-53.384	0.307	0.142
-586.894	-154.760	-0.126	-0.008
-585.879	292.952	-0.012	0.022
-584.865	638.073	0.111	-0.285
-583.850	134.746	0.167	0.219
-582.836	-200.000	0.021	0.323
-581.821	-161.552	-0.135	-0.007
-580.806	-107.008	-0.329	-0.074
-579.792	200.350	-0.081	-0.125
-578.777	-93.307	-0.152	0.043
-577.763	42.821	-0.157	0.144
-576.748	-200.000	0.027	0.153
-575.733	-73.518	0.207	-0.076
-574.719	-21.362	0.082	0.050
-573.704	177.639	0.119	-0.175
-572.690	800.000	0.087	-0.367
-571.675	-200.000	0.020	0.154
-570.661	-48.431	0.236	0.115
-569.646	-93.733	0.468	-0.130
-568.631	417.562	-0.108	-0.233
-567.617	-110.428	-0.152	-0.032
-566.602	-99.519	-0.334	-0.085
-565.588	28.275	0.125	0.106
-564.573	-75.895	-0.312	0.112
-563.558	33.078	0.254	-0.222
-562.544	800.000	-0.086	0.307
-561.529	800.000	0.010	-0.034
-560.515	-200.000	0.032	0.278
-559.500	-143.649	-0.257	-0.025
-558.485	-119.611	0.494	0.086
-557.471	-160.073	0.170	0.009
-556.456	-105.438	0.016	0.004
-555.442	-78.980	0.147	0.051
-554.427	-190.654	-0.262	-0.003
-553.412	-200.000	-0.028	-0.385
-552.398	-79.688	0.201	-0.069
-551.383	800.000	0.133	0.552
-550.369	578.780	-0.077	0.191
-549.354	-13.712	0.363	0.237
-548.339	-48.101	0.073	-0.036
-547.325	-200.000	0.007	0.474
-546.310	-200.000	-0.021	-0.137
-545.296	-13.064	0.322	0.211
-544.281	800.000	0.025	0.086
-543.266	-146.702	-0.054	0.005
-542.252	-84.711	0.367	-0.116
-541.237	-4.965	-0.028	-0.020
-540.223	347.534	-0.066	0.131
-539.208	800.000	-0.018	0.049
-538.193	-106.991	0.084	0.019
-537.179	-157.186	0.288	0.018
-536.164	49.466	-0.127	0.120
-535.150	-139.225	-0.157	0.017
-534.135	674.051	-0.092	0.241
-533.121	384.245	-0.097	0.202
-532.106	-101.161	0.229	-0.057
-531.091	-38.414	0.260	-0.139
-530.077	-176.865	0.325	0.008
-529.062	-43.418	-0.185	0.094
-528.048	78.150	-0.240	-0.258
-527.033	-127.549	0.163	-0.024
-526.018	800.000	0.081	-0.265
-525.004	-26.959	-0.047	0.027
-523.989	-22.565	0.202	0.123
-522.975	-127.507	-0.182	0.027
-521.960	369.391	0.059	-0.120
-520.945	-95.932	-0.195	0.052
-519.931	23.605	0.119	0.099
-518.916	166.094	-0.282	0.403
-517.902	800.000	-0.092	-0.327
-516.887	800.000	0.048	-0.152
-515.872	116.080	-0.128	-0.158
-514.858	-145.534	-0.187	-0.017
-513.843	800.000	-0.108	0.308
-512.829	-123.626	0.271	-0.043
-511.814	286.796	-0.080	-0.145
-510.799	137.574	0.199	0.262
-509.785	-10.047	0.210	-0.141
-508.770	-62.833	0.293	-0.122
-507.756	-200.000	0.005	-0.038
-506.741	-96.353	-0.126	-0.034
-505.726	469.971	0.089	0.201
-504.712	213.603	-0.023	0.036
-503.697	569.683	-0.094	0.230
-502.683	-200.000	-0.001	-0.171
-501.668	-200.000	-0.069	-0.325
-500.653	-200.000	0.026	0.395
-499.639	174.177	0.213	0.310
-498.624	-10.839	-0.273	-0.182
-497.610	-39.640	-0.140	-0.074
-496.595	427.226	-0.090	-0.196
-495.581	-200.000	0.079	-0.551
-494.566	-90.157	-0.184	-0.054
-493.551	-78.921	-0.109	-0.037
-492.537	-120.734	0.370	-0.063
-491.522	132.630	-0.071	-0.093
-490.508	-5.630	-0.307	-0.212
-489.493	-200.000	0.011	0.151
-488.478	-27.222	0.035	-0.020
-487.464	73.914	0.081	0.085
-486.449	-200.000	0.001	0.248
-485.435	140.686	0.200	0.266
-484.420	26.390	-0.142	-0.120
-483.405	-23.253	-0.283	-0.172
-482.391	-65.317	-0.173	-0.070
-481.376	-91.310	0.247	-0.071
-480.362	-29.568	-0.107	0.061
-479.347	-200.000	0.013	0.141
-478.332	800.000	0.038	-0.122
-477.318	48.653	-0.100	0.095
-476.303	800.000	-0.021	0.090
-475.289	-149.326	-0.141	-0.011
-474.274	62.789	-0.181	0.182
-473.259	800.000	-0.041	-0.159
-472.245	650.070	-0.004	-0.011
-471.230	-154.812	-0.359	0.024
-470.216	800.000	-0.009	-0.037
-469.201	-110.208	0.100	-0.021
-468.186	156.870	0.192	0.266
-467.172	-120.434	0.457	0.078
-466.157	288.486	-0.128	-0.233
-465.143	800.000	0.059	-0.171
-464.128	-200.000	0.000	0.155
-463.113	141.361	0.085	-0.113
-462.099	-82.721	0.319	-0.104
-461.084	-200.000	0.014	0.271
-460.070	306.576	0.061	-0.114
-459.055	800.000	-0.157	-0.532
-458.040	-92.517	-0.087	-0.025
-457.026	800.000	-0.135	-0.466
-456.011	100.210	0.181	0.211
-454.997	-2.795	-0.144	0.101
-453.982	530.259	-0.093	-0.221
-452.968	-151.502	-0.330	-0.025
-451.953	-200.000	0.072	0.379
-450.938	2.726	0.027	0.019
-449.924	800.000	-0.040	0.159
-448.909	435.256	-0.124	0.271
-447.895	61.328	-0.160	0.160
-446.880	-45.997	0.106	-0.053
-445.865	-40.087	-0.166	-0.087
-444.851	-200.000	-0.018	-0.405
-443.836	800.000	-0.091	-0.338
-442.822	99.541	-0.181	-0.211
-441.807	-52.094	-0.322	-0.150
-440.792	-71.813	-0.190	-0.071
-439.778	294.936	0.092	-0.169
-438.763	383.206	-0.094	-0.194
-437.749	56.451	0.489	-0.478
-436.734	209.542	0.111	-0.175
-435.719	-59.000	-0.152	-0.066
-434.705	-200.000	-0.131	0.000
-433.690	800.000	-0.084	-0.252
-432.676	-69.485	0.173	0.066
-431.661	-200.000	0.020	0.128
-430.646	-113.067	0.501	0.099
-429.632	475.510	-0.085	0.193
-428.617	61.324	0.204	0.203
-427.603	-200.000	0.012	0.195
-426.588	-200.000	-0.019	-0.110
-425.573	-82.161	-0.129	0.042
-424.559	1.675	-0.135	-0.098
-423.544	-111.520	0.379	0.077
-422.530	-3.403	0.085	0.059
-421.515	-90.532	0.367	-0.107
-420.500	-200.000	0.038	0.313
-419.486	121.060	0.168	-0.210
-418.471	-51.169	-0.242	0.114
-417.457	-86.813	0.184	0.056
-416.442	800.000	0.096	-0.311
-415.428	199.609	-0.161	-0.248
-414.413	-59.110	-0.194	-0.084
-413.398	-79.618	0.212	-0.072
-412.384	-200.000	0.004	-0.031
-411.369	-129.185	0.215	0.030
-410.355	-200.000	0.055	0.246
-409.340	800.000	0.025	0.097
-408.325	-31.812	0.424	-0.238
-407.311	-200.000	0.023	-0.154
-406.296	244.496	0.137	0.232
-405.282	800.000	0.062	0.201
-404.267	313.258	0.184	0.347
-403.252	309.999	-0.149	-0.279
-402.238	369.928	0.036	0.073
-401.223	44.354	-0.030	-0.028
-400.209	507.931	-0.076	-0.177
-399.194	286.999	-0.191	-0.345
-398.179	-127.610	0.147	0.021
-397.165	-30.217	-0.120	0.069
-396.150	-106.916	0.056	-0.012
-395.136	-147.262	-0.215	0.018
-394.121	-58.185	-0.095	-0.042
-393.106	-140.368	-0.016	-0.002
-392.092	-29.168	-0.228	0.131
-391.077	-39.227	-0.107	0.056
-390.063	-200.000	-0.019	0.247
-389.048	42.580	0.161	0.147
-388.033	-123.266	-0.299	-0.048
-387.019	545.164	0.056	0.135
-386.004	-200.000	-0.033	0.313
-384.990	-16.975	-0.103	-0.065
-383.975	-46.317	-0.084	-0.042
-382.960	-42.882	-0.152	0.077
-381.946	195.495	-0.085	-0.130
-380.931	444.559	0.094	0.208
-379.917	265.551	-0.171	-0.298
-378.902	800.000	0.037	-0.128
-377.888	221.891	0.201	0.323
-376.873	30.321	0.102	0.087
-375.858	78.916	-0.293	0.314
-374.844	166.581	0.194	-0.276
-373.829	-200.000	0.017	-0.176
-372.815	-200.000	0.135	0.000
-371.800	-122.196	0.094	-0.015
-370.785	49.489	0.153	-0.144
-369.771	-22.943	-0.089	0.054
-368.756	181.266	-0.021	0.031
-367.742	800.000	-0.061	-0.210
-366.727	208.721	0.117	-0.184
-365.712	-59.139	0.289	-0.125
-364.698	800.000	0.029	0.109
-363.683	-200.000	0.032	-0.203
-362.669	-190.780	0.040	0.000
-361.654	-165.823	0.158	0.007
-360.639	-200.000	-0.011	0.187
-359.625	-52.725	0.035	0.016
-358.610	-200.000	0.022	-0.176
-357.596	310.876	-0.134	-0.251
-356.581	6.247	-0.291	0.216
-355.566	566.031	0.074	-0.180
-354.552	628.613	0.026	0.065
-353.537	-200.000	0.008	0.178
-352.523	-200.000	-0.069	0.384
-351.508	800.000	0.062	-0.183
-350.493	800.000	-0.051	0.192
-349.479	-120.158	0.272	0.047
-348.464	-200.000	0.017	-0.181
-347.450	-182.328	-0.087	0.002
-346.435	-94.349	0.179	-0.049
-345.420	12.301	-0.170	0.131
-344.406	140.517	0.129	-0.171
-343.391	-54.328	0.313	0.142
-342.377	-29.010	0.387	0.222
-341.362	800.000	-0.032	0.108
-340.348	-84.353	-0.185	0.058
-339.333	-176.291	0.215	0.006
-338.318	-200.000	-0.034	-0.176
-337.304	800.000	-0.048	0.185
-336.289	482.461	-0.057	-0.129
-335.275	351.698	0.049	-0.097
-334.260	-170.622	0.162	0.006
-333.245	79.124	0.098	0.105
-332.231	-73.127	-0.182	-0.067
-331.216	234.161	-0.168	-0.276
-330.202	-200.000	0.013	0.115
-329.187	-36.292	-0.328	0.177
-328.172	-122.109	-0.121	0.020
-327.158	-40.188	0.291	-0.151
-326.143	82.116	-0.157	-0.170
-325.129	-200.000	-0.113	-0.526
-324.114	136.076	-0.167	-0.218
-323.099	800.000	-0.073	0.216
-322.085	6.815	0.217	0.162
-321.070	-1.566	-0.202	0.142
-320.056	-91.196	-0.172	0.049
-319.041	286.787	0.172	-0.311
-318.026	703.317	-0.074	0.196
-317.012	800.000	-0.032	0.140
-315.997	-171.535	-0.321	0.011
-314.983	800.000	-0.148	-0.472
-313.968	-200.000	0.002	-0.270
-312.953	-42.569	-0.103	-0.053
-311.939	52.157	-0.179	-0.171
-310.924	-66.434	-0.426	0.169
-309.910	-59.826	0.152	-0.065
-308.895	192.313	0.055	0.083
-307.880	152.103	-0.125	0.170
-306.866	-28.056	-0.286	-0.165
-305.851	-200.000	0.034	-0.206
-304.837	-89.714	0.217	0.063
-303.822	-163.544	-0.260	0.012
-302.807	206.608	-0.151	0.235
-301.793	-200.000	0.013	-0.301
-300.778	800.000	-0.050	-0.198
-299.764	-200.000	-0.027	-0.260
-298.749	-109.530	0.271	-0.057
-297.735	244.762	0.100	0.168
-296.720	298.725	-0.047	-0.087
-295.705	315.543	-0.031	0.059
-294.691	225.862	0.050	0.082
-293.676	-200.000	-0.020	0.307
-292.662	800.000	-0.104	0.421
-291.647	-175.506	-0.354	0.010
-290.632	35.617	0.160	0.141
-289.618	57.630	0.255	-0.249
-288.603	-115.976	0.258	-0.048
-287.589	800.000	0.064	0.178
-286.574	109.183	0.360	0.430
-285.559	-200.000	0.050	-0.307
-284.545	-200.000	-0.033	-0.207
-283.530	158.361	0.068	0.094
-282.516	165.485	0.084	0.118
-281.501	281.329	0.181	-0.323
-280.486	800.000	-0.061	-0.180
-279.472	55.930	0.130	-0.126
-278.457	-5.365	-0.101	0.069
-277.443	91.001	-0.116	0.130
-276.428	800.000	-0.016	-0.046
-275.413	-49.739	-0.177	-0.084
-274.399	800.000	0.076	0.262
-273.384	134.571	-0.269	0.349
-272.370	214.090	0.129	-0.204
-271.355	800.000	0.034	-0.133
-270.340	-200.000	-0.014	0.081
-269.326	598.641	-0.067	-0.165
-268.311	742.948	0.063	0.168
-267.297	-44.385	0.132	-0.066
-266.282	8.707	-0.147	-0.110
-265.267	-94.795	-0.060	-0.016
-264.253	395.888	-0.197	0.409
-263.238	3.041	0.163	0.118
-262.224	203.955	0.078	-0.120
-261.209	264.918	0.107	0.187
-260.195	-200.000	0.008	-0.208
-259.180	-127.322	-0.244	0.035
-258.165	-123.618	-0.223	-0.035
-257.151	-16.078	-0.012	-0.008
-256.136	-8.752	-0.229	0.153
-255.122	-200.000	-0.011	0.057
-254.107	741.759	-0.048	-0.129
-253.092	-78.633	0.360	0.123
-252.078	312.885	0.105	0.197
-251.063	178.156	-0.284	0.414
-250.049	-47.180	0.116	0.056
-249.034	428.554	-0.053	-0.113
-248.019	-200.000	-0.004	0.031
-247.005	450.798	-0.124	-0.274
-245.990	643.036	0.121	-0.307
-244.976	-200.000	0.013	-0.214
-243.961	-200.000	-0.015	-0.399
-242.946	-200.000	-0.016	-0.121
-241.932	-4.964	-0.402	-0.276
-240.917	-11.425	-0.253	-0.166
-239.903	-57.205	-0.288	0.126
-238.888	-75.499	0.030	0.011
-237.873	-60.180	-0.114	-0.048
-236.859	-103.128	-0.228	-0.054
-235.844	289.711	-0.207	0.375
-234.830	-200.000	0.007	0.203
-233.815	132.710	0.031	-0.040
-232.800	-3.246	-0.238	0.166
-231.786	16.472	0.057	-0.045
-230.771	-200.000	0.006	0.027
-229.757	9.628	-0.092	0.069
-228.742	90.263	-0.120	0.134
-227.727	-122.568	-0.105	0.017
-226.713	23.425	-0.266	-0.218
-225.698	800.000	-0.059	-0.229
-224.684	-15.349	-0.146	0.093
-223.669	160.699	0.019	-0.026
-222.655	404.435	0.124	0.260
-221.640	800.000	-0.084	0.289
-220.625	800.000	0.027	0.082
-219.611	36.642	0.387	0.341
-218.596	111.034	0.155	-0.186
-217.582	572.286	-0.040	-0.097
-216.567	69.582	0.121	0.124
-215.552	298.107	-0.160	-0.293
-214.538	-73.415	0.077	-0.028
-213.523	-55.582	-0.106	0.047
-212.509	-19.885	-0.055	0.034
-211.494	178.098	0.080	0.116
-210.479	-2.707	0.116	-0.081
-209.465	-189.551	-0.168	-0.002
-208.450	-197.599	0.167	0.001
-207.436	74.842	-0.051	0.053
-206.421	552.990	-0.037	0.089
-205.406	-28.209	0.206	0.119
-204.392	-21.137	-0.291	0.177
-203.377	-200.000	0.002	-0.094
-202.363	579.906	0.101	-0.246
-201.348	-8.854	0.169	0.113
-200.333	-1.837	-0.101	-0.071
-199.319	114.034	0.124	-0.150
-198.304	54.659	-0.115	0.110
-197.290	417.171	-0.077	0.164
-196.275	-88.992	-0.203	-0.060
-195.260	76.739	-0.042	-0.044
-194.246	800.000	0.078	0.293
-193.231	-11.901	-0.113	-0.074
-192.217	800.000	-0.039	0.157
-191.202	126.026	0.120	0.151
-190.187	39.640	0.149	-0.133
-189.173	-141.294	-0.331	0.034
-188.158	406.829	-0.063	-0.132
-187.144	-200.000	0.014	-0.120
-186.129	320.924	0.040	-0.076
-185.114	-200.000	0.004	-0.230
-184.100	84.639	0.448	-0.487
-183.085	25.628	0.222	0.184
-182.071	-106.522	-0.126	-0.028
-181.056	-71.235	0.077	0.029
-180.042	126.636	0.280	0.353
-179.027	16.718	0.089	-0.070
-178.012	-68.838	-0.154	0.059
-176.998	800.000	0.085	0.273
-175.983	-91.439	0.299	0.085
-174.969	-55.858	-0.263	0.117
-173.954	-200.000	-0.002	0.242
-172.939	-95.850	0.287	0.076
-171.925	96.705	-0.103	0.118
-170.910	-98.988	-0.159	0.040
-169.896	-72.437	0.071	-0.026
-168.881	-29.561	0.301	-0.171
-167.866	109.854	-0.082	-0.097
-166.852	57.816	-0.185	-0.180
-165.837	800.000	-0.021	-0.071
-164.823	-36.345	0.158	0.085
-163.808	-24.389	-0.244	0.144
-162.793	439.556	-0.035	0.076
-161.779	-200.000	0.023	0.131
-160.764	-3.290	0.142	0.098
-159.750	-45.358	-0.353	0.174
-158.735	40.963	0.200	0.179
-157.720	-106.259	0.347	0.077
-156.706	235.573	0.262	-0.430
-155.691	-171.330	-0.280	0.009
-154.677	800.000	-0.040	-0.118
-153.662	74.506	-0.156	-0.163
-152.647	-26.275	0.142	0.083
-151.633	-168.520	-0.176	-0.007
-150.618	116.599	0.206	0.251
-149.604	-163.650	-0.152	-0.007
-148.589	-200.000	-0.027	-0.389
-147.574	-200.000	-0.230	0.001
-146.560	-85.920	0.183	-0.056
-145.545	-200.000	0.016	-0.330
-144.531	-200.000	-0.017	0.197
-143.516	130.761	-0.200	0.254
-142.502	16.248	0.113	0.089
-141.487	-37.171	-0.437	0.232
-140.472	-27.604	-0.341	0.197
-139.458	-200.000	-0.035	0.287
-138.443	-159.357	0.273	-0.015
-137.429	187.453	0.082	0.121
-136.414	235.565	0.080	-0.131
-135.399	-84.230	-0.236	0.074
-134.385	-9.625	-0.175	-0.116
-133.370	31.336	0.154	-0.132
-132.356	-50.297	-0.100	0.047
-131.341	6.454	0.120	0.088
-130.326	-133.605	0.247	-0.031
-129.312	800.000	0.090	-0.279
-128.297	-119.091	-0.458	0.079
-127.283	149.871	-0.117	0.158
-126.268	-116.183	0.243	-0.045
-125.253	-104.621	0.185	-0.042
-124.239	800.000	0.051	0.211
-123.224	-7.147	0.092	0.062
-122.210	-125.071	0.211	0.032
