DTS Sentinel unit serial number:	SN413079Multiplexer serial number:	ORYXHardware model number:	OX4-SRSoftware version number:	ORYX F/W v4.00 Oryx Data Collector v3.7.2.0data status	okinstallation	princeton_trtdifferential loss correction	single-endedforward channel	channel 3reverse channel	N/Adate	2019/09/16time	11:52:35forward acquisition time	60.00reverse acquisition time	0.00gamma	496.2192k internal	0.2296k external	0.2296temperature offset calibration	0.9940default loss term (dB/km)	0.3790temperature slope calibration	1.0000multiplexer offset coefficient	1.0000multiplexer slope coefficient	1.0000fibre end	0.00T internal ref (°C)	38.42T ext. ref 1 (°C)	13.10T ext. ref 2 (°C)	35.73length (m)	temperature (°C)	Stokes	anti-Stokes-747.200	-67.373	0.387	0.155
-746.185	63.293	-0.078	0.080
-745.171	405.276	0.087	-0.188
-744.156	-200.000	0.000	0.412
-743.142	-200.000	0.012	0.087
-742.127	-200.000	-0.016	0.156
-741.112	68.378	-0.136	0.142
-740.098	-200.000	-0.033	0.298
-739.083	47.398	-0.045	-0.043
-738.069	-133.861	0.135	0.017
-737.054	-55.433	0.053	-0.024
-736.039	-116.878	-0.029	-0.005
-735.025	-200.000	-0.033	0.202
-734.010	-113.715	-0.122	0.024
-732.996	64.584	0.191	-0.196
-731.981	-83.452	0.112	-0.037
-730.966	121.855	-0.090	0.115
-729.952	204.169	-0.071	-0.112
-728.937	-25.094	0.113	0.069
-727.923	-97.396	0.117	-0.031
-726.908	-33.750	-0.161	0.091
-725.894	-19.600	-0.148	0.094
-724.879	-69.440	0.125	0.049
-723.864	-20.514	-0.157	0.098
-722.850	-103.735	0.141	-0.034
-721.835	30.095	0.150	0.131
-720.821	280.761	-0.174	-0.317
-719.806	-128.814	-0.216	0.031
-718.791	-87.143	-0.335	0.104
-717.777	43.659	0.235	0.219
-716.762	-81.848	-0.218	0.073
-715.748	63.428	-0.137	0.140
-714.733	800.000	-0.062	-0.201
-713.718	31.069	0.247	-0.216
-712.704	275.499	-0.078	-0.142
-711.689	-103.448	0.253	-0.061
-710.675	-200.000	0.053	0.290
-709.660	227.148	-0.079	-0.131
-708.645	477.684	-0.081	-0.187
-707.631	-66.783	0.218	0.088
-706.616	349.764	0.122	0.246
-705.602	175.542	0.197	-0.291
-704.587	-64.175	-0.028	-0.012
-703.572	-71.873	-0.171	-0.065
-702.558	238.275	0.128	0.216
-701.543	719.559	0.044	-0.120
-700.529	-75.267	-0.400	-0.146
-699.514	-54.511	0.173	-0.080
-698.499	-200.000	-0.045	-0.293
-697.485	177.410	-0.094	0.140
-696.470	5.601	-0.239	-0.180
-695.456	-8.274	0.031	-0.021
-694.441	-177.263	0.193	0.005
-693.426	196.161	0.085	-0.132
-692.412	62.673	-0.229	0.234
-691.397	53.019	-0.100	-0.098
-690.383	800.000	0.025	-0.079
-689.368	-77.604	0.336	0.119
-688.354	-200.000	0.023	-0.105
-687.339	-200.000	0.004	0.099
-686.324	243.728	0.099	0.169
-685.310	46.169	0.044	0.042
-684.295	-40.431	0.243	0.128
-683.281	-70.279	0.073	-0.028
-682.266	-37.061	-0.342	-0.187
-681.251	-200.000	-0.046	0.272
-680.237	-200.000	-0.014	0.170
-679.222	54.158	-0.185	-0.181
-678.208	-138.840	-0.581	0.065
-677.193	-143.756	-0.151	0.015
-676.178	-71.374	-0.301	0.115
-675.164	201.827	0.121	-0.191
-674.149	-79.803	0.095	-0.033
-673.135	-74.634	0.187	-0.069
-672.120	49.424	-0.318	-0.305
-671.105	38.241	-0.119	-0.108
-670.091	190.693	0.229	-0.351
-669.076	-200.000	0.016	-0.385
-668.062	-200.000	0.006	0.167
-667.047	-118.471	0.048	-0.009
-666.032	-65.111	0.164	0.067
-665.018	-104.094	0.110	0.026
-664.003	675.094	-0.103	-0.273
-662.989	-120.404	-0.431	-0.075
-661.974	-147.907	-0.039	-0.003
-660.959	96.000	0.272	0.316
-659.945	434.303	-0.174	0.385
-658.930	800.000	-0.007	0.027
-657.916	16.722	0.247	-0.199
-656.901	574.740	0.129	0.321
-655.886	721.314	-0.029	0.078
-654.872	43.588	0.146	0.136
-653.857	4.396	-0.206	0.154
-652.843	800.000	0.072	-0.277
-651.828	-70.450	-0.303	0.117
-650.814	200.313	-0.224	0.350
-649.799	158.707	0.027	0.038
-648.784	-72.994	-0.305	-0.114
-647.770	-200.000	-0.015	-0.352
-646.755	-200.000	0.035	-0.329
-645.741	-193.284	0.197	0.002
-644.726	-137.700	0.133	-0.015
-643.711	-78.164	-0.309	0.108
-642.697	-200.000	0.031	-0.272
-641.682	-125.581	-0.334	-0.052
-640.668	-61.554	-0.109	-0.046
-639.653	-71.614	-0.176	0.067
-638.638	363.071	-0.144	-0.294
-637.624	-6.453	0.201	0.139
-636.609	-86.269	-0.396	-0.124
-635.595	-104.963	-0.202	-0.047
-634.580	-149.781	0.210	0.017
-633.565	-155.773	-0.197	-0.013
-632.551	-24.496	-0.318	-0.193
-631.536	-200.000	0.030	0.381
-630.522	19.864	0.184	0.151
-629.507	-142.127	0.370	-0.037
-628.492	76.863	-0.067	0.072
-627.478	800.000	0.071	-0.201
-626.463	321.401	0.057	0.110
-625.449	-200.000	0.030	-0.169
-624.434	-65.302	0.194	-0.079
-623.419	-54.670	0.124	0.057
-622.405	-58.824	-0.073	0.032
-621.390	-75.451	0.068	-0.025
-620.376	337.309	-0.091	-0.180
-619.361	-114.134	-0.171	0.034
-618.346	-90.163	-0.193	0.057
-617.332	800.000	-0.034	0.118
-616.317	-45.950	0.025	0.013
-615.303	83.727	0.115	0.128
-614.288	31.271	-0.217	0.189
-613.273	-46.832	-0.172	-0.086
-612.259	158.278	0.130	-0.183
-611.244	656.575	-0.024	-0.062
-610.230	279.616	-0.035	0.063
-609.215	419.356	0.129	-0.280
-608.201	800.000	-0.041	-0.179
-607.186	800.000	0.052	-0.157
-606.171	-200.000	-0.004	0.036
-605.157	154.671	-0.083	-0.116
-604.142	-200.000	-0.041	0.218
-603.128	-200.000	-0.025	-0.239
-602.113	-168.931	0.253	-0.010
-601.098	419.162	-0.057	0.124
-600.084	-161.244	-0.458	-0.024
-599.069	-62.566	-0.231	0.097
-598.055	800.000	0.048	0.206
-597.040	-200.000	0.015	0.284
-596.025	800.000	-0.168	0.605
-595.011	-17.332	-0.061	0.039
-593.996	-28.964	-0.036	-0.021
-592.982	110.406	0.055	-0.067
-591.967	213.091	-0.058	0.093
-590.952	97.317	-0.212	-0.248
-589.938	56.187	0.125	0.123
-588.923	-180.752	-0.066	-0.001
-587.909	800.000	-0.040	-0.113
-586.894	800.000	-0.040	0.148
-585.879	-200.000	-0.002	0.107
-584.865	9.419	0.164	-0.126
-583.850	59.444	0.035	-0.035
-582.836	23.370	0.113	-0.094
-581.821	676.567	-0.134	-0.352
-580.806	-200.000	-0.017	-0.179
-579.792	-77.327	0.072	0.026
-578.777	-200.000	0.070	-0.460
-577.763	-89.677	0.144	0.043
-576.748	98.572	-0.209	0.244
-575.733	326.893	0.174	-0.339
-574.719	-53.483	-0.014	-0.006
-573.704	328.168	0.053	-0.104
-572.690	800.000	0.059	-0.227
-571.675	-200.000	-0.007	0.430
-570.661	169.046	-0.122	0.176
-569.646	-41.119	0.087	-0.046
-568.631	110.645	0.117	-0.143
-567.617	391.285	-0.134	0.283
-566.602	-76.142	0.101	0.036
-565.588	20.037	0.262	0.214
-564.573	-46.915	0.504	0.250
-563.558	397.152	0.102	-0.216
-562.544	29.965	0.151	-0.131
-561.529	67.868	0.105	0.109
-560.515	44.375	0.100	0.093
-559.500	-200.000	-0.001	-0.050
-558.485	-76.632	-0.127	0.045
-557.471	-6.865	-0.094	-0.065
-556.456	-154.000	-0.181	-0.012
-555.442	101.134	0.078	0.092
-554.427	-200.000	-0.003	-0.106
-553.412	-105.945	0.217	-0.050
-552.398	194.379	-0.063	-0.097
-551.383	185.504	-0.075	-0.112
-550.369	-28.318	0.066	-0.039
-549.354	-140.949	-0.338	-0.035
-548.339	24.592	-0.221	0.186
-547.325	-67.628	-0.193	-0.077
-546.310	-127.932	-0.170	0.025
-545.296	176.860	-0.151	0.222
-544.281	800.000	-0.038	0.133
-543.266	133.499	0.127	0.167
-542.252	109.998	-0.217	-0.264
-541.237	-125.191	0.141	0.022
-540.223	10.856	-0.150	0.116
-539.208	151.437	0.102	0.141
-538.193	-18.546	-0.143	0.091
-537.179	-99.531	-0.111	-0.028
-536.164	-89.683	-0.030	0.009
-535.150	-120.041	0.112	0.019
-534.135	-108.346	0.233	0.051
-533.121	420.136	0.028	0.062
-532.106	-176.428	-0.221	-0.006
-531.091	-43.770	-0.458	-0.234
-530.077	2.555	-0.381	0.280
-529.062	-70.525	0.061	0.023
-528.048	-74.029	-0.129	0.047
-527.033	-188.327	-0.152	0.002
-526.018	542.425	0.053	0.129
-525.004	125.529	0.167	-0.213
-523.989	12.388	-0.111	0.087
-522.975	-13.811	0.147	-0.096
-521.960	800.000	-0.042	-0.172
-520.945	279.316	-0.171	0.310
-519.931	-13.183	0.208	-0.137
-518.916	-142.576	0.173	-0.017
-517.902	12.132	-0.105	0.082
-516.887	-200.000	-0.044	-0.332
-515.872	-200.000	-0.028	0.125
-514.858	-200.000	0.011	-0.132
-513.843	12.330	-0.075	0.058
-512.829	717.321	0.073	0.196
-511.814	-123.523	0.131	-0.021
-510.799	-100.523	0.078	-0.020
-509.785	205.032	0.187	-0.294
-508.770	450.655	-0.159	-0.355
-507.756	485.529	-0.039	-0.091
-506.741	53.371	-0.087	-0.084
-505.726	368.307	0.086	0.175
-504.712	-27.439	0.166	-0.098
-503.697	-92.355	0.249	-0.071
-502.683	-72.816	-0.198	-0.074
-501.668	800.000	-0.048	-0.135
-500.653	599.644	0.053	-0.134
-499.639	-75.775	0.243	-0.087
-498.624	590.568	-0.030	-0.074
-497.610	101.508	0.080	0.094
-496.595	423.502	-0.111	-0.241
-495.581	124.455	-0.151	-0.192
-494.566	-78.715	0.221	-0.076
-493.551	-172.662	-0.421	-0.013
-492.537	-15.545	0.229	-0.148
-491.522	351.385	0.110	-0.221
-490.508	-106.088	-0.250	0.057
-489.493	-126.477	-0.146	0.022
-488.478	800.000	-0.022	0.061
-487.464	75.367	-0.053	0.057
-486.449	99.981	-0.113	-0.133
-485.435	-45.896	0.342	-0.170
-484.420	-132.058	-0.172	0.023
-483.405	-200.000	-0.010	0.201
-482.391	-200.000	0.012	-0.102
-481.376	-200.000	-0.015	-0.327
-480.362	-200.000	-0.009	-0.130
-479.347	672.961	0.064	0.167
-478.332	-170.317	-0.233	-0.008
-477.318	293.083	-0.121	-0.222
-476.303	-33.175	0.287	-0.161
-475.289	-102.588	0.103	0.025
-474.274	-31.339	0.158	-0.090
-473.259	-145.104	-0.389	0.036
-472.245	300.233	0.017	-0.032
-471.230	-59.402	0.498	0.217
-470.216	50.898	-0.135	-0.129
-469.201	-176.176	-0.318	0.008
-468.186	256.223	0.166	0.288
-467.172	-169.534	0.206	-0.008
-466.157	78.147	-0.022	0.024
-465.143	378.649	-0.123	-0.254
-464.128	-95.110	-0.434	0.118
-463.113	-181.818	0.229	0.004
-462.099	800.000	-0.032	0.117
-461.084	-200.000	-0.013	-0.060
-460.070	-77.809	-0.129	0.045
-459.055	800.000	0.038	0.123
-458.040	-165.756	-0.252	0.011
-457.026	-200.000	0.034	0.209
-456.011	190.361	-0.104	0.158
-454.997	-44.528	-0.295	-0.149
-453.982	-101.084	-0.071	0.018
-452.968	-61.922	-0.130	-0.055
-451.953	-200.000	0.063	-0.361
-450.938	800.000	-0.061	-0.190
-449.924	-123.541	-0.152	-0.024
-448.909	-200.000	0.002	0.027
-447.895	-200.000	0.008	0.044
-446.880	40.721	0.097	0.088
-445.865	-200.000	-0.030	0.300
-444.851	-66.114	-0.077	-0.031
-443.836	-30.494	0.039	0.023
-442.822	-41.116	0.137	-0.071
-441.807	-200.000	0.061	0.314
-440.792	800.000	-0.096	-0.290
-439.778	470.618	0.206	-0.467
-438.763	283.156	0.079	0.143
-437.749	116.512	-0.217	-0.268
-436.734	-147.282	0.314	0.027
-435.719	800.000	0.076	0.327
-434.705	140.180	-0.153	-0.204
-433.690	174.342	0.101	-0.147
-432.676	372.615	-0.024	-0.050
-431.661	800.000	-0.041	0.166
-430.646	792.744	0.114	-0.317
-429.632	236.623	-0.013	0.022
-428.617	-200.000	-0.011	-0.266
-427.603	212.778	0.136	-0.217
-426.588	-142.948	-0.254	-0.025
-425.573	-26.898	0.228	0.134
-424.559	11.253	-0.106	0.082
-423.544	-200.000	-0.026	0.176
-422.530	92.929	-0.149	0.169
-421.515	6.258	-0.273	0.204
-420.500	-37.947	-0.193	0.104
-419.486	-143.616	0.176	-0.017
-418.471	800.000	0.066	0.215
-417.457	-12.893	-0.153	-0.100
-416.442	742.241	-0.116	0.316
-415.428	-127.158	0.368	0.054
-414.413	-172.740	0.154	0.005
-413.398	-200.000	0.013	0.097
-412.384	800.000	0.028	0.112
-411.369	-149.922	-0.032	0.003
-410.355	-200.000	-0.023	-0.281
-409.340	-60.378	0.202	0.087
-408.325	275.019	0.010	-0.018
-407.311	94.760	-0.250	0.286
-406.296	-50.190	-0.338	0.161
-405.282	155.289	-0.120	0.167
-404.267	-153.942	-0.242	-0.017
-403.252	22.293	-0.146	0.121
-402.238	-200.000	0.007	-0.447
-401.223	-200.000	-0.006	-0.194
-400.209	-29.602	-0.208	-0.120
-399.194	800.000	-0.066	-0.205
-398.179	21.564	-0.107	-0.088
-397.165	-200.000	0.012	0.331
-396.150	-108.943	-0.252	0.054
-395.136	-103.333	0.118	-0.028
-394.121	34.463	0.266	0.234
-393.106	-53.271	0.098	-0.045
-392.092	-91.639	0.272	0.078
-391.077	554.106	0.082	0.198
-390.063	-97.708	0.262	-0.068
-389.048	-162.236	-0.351	0.018
-388.033	-200.000	0.019	0.162
-387.019	113.169	0.300	0.366
-386.004	800.000	-0.040	0.145
-384.990	11.371	-0.147	0.113
-383.975	-69.647	0.212	0.082
-382.960	-120.981	0.142	0.024
-381.946	-200.000	0.041	0.221
-380.931	80.836	0.281	0.305
-379.917	-83.385	0.221	0.071
-378.902	-200.000	-0.002	0.142
-377.888	-200.000	0.047	-0.553
-376.873	-200.000	-0.018	0.185
-375.858	-152.920	-0.271	-0.019
-374.844	738.789	0.048	-0.131
-373.829	-169.187	-0.314	0.012
-372.815	204.239	0.201	0.313
-371.800	800.000	-0.017	-0.052
-370.785	-95.495	0.219	-0.059
-369.771	485.005	0.129	-0.296
-368.756	-165.013	0.024	0.001
-367.742	383.986	-0.137	-0.284
-366.727	-15.398	-0.178	-0.114
-365.712	-164.506	0.242	0.011
-364.698	772.176	-0.079	-0.216
-363.683	179.061	-0.159	0.234
-362.669	-189.408	0.339	-0.004
-361.654	459.054	0.047	0.106
-360.639	-40.684	0.176	0.092
-359.625	-142.084	0.550	0.055
-358.610	-24.914	-0.149	0.089
-357.596	164.424	0.161	-0.228
-356.581	800.000	-0.106	0.385
-355.566	-200.000	-0.051	0.287
-354.552	-165.464	0.213	0.009
-353.537	6.822	0.121	-0.090
-352.523	580.353	0.140	0.346
-351.508	-41.404	-0.273	-0.142
-350.493	29.908	-0.282	-0.242
-349.479	10.755	0.190	-0.146
-348.464	-44.255	0.103	-0.052
-347.450	-127.433	-0.258	0.038
-346.435	800.000	0.087	-0.321
-345.420	739.689	0.021	-0.058
-344.406	50.187	-0.207	0.197
-343.391	-14.384	0.241	0.156
-342.377	26.240	-0.053	0.045
-341.362	-72.543	-0.157	-0.058
-340.348	-61.160	0.048	-0.020
-339.333	800.000	0.068	-0.249
-338.318	-200.000	-0.039	-0.395
-337.304	726.004	-0.137	-0.366
-336.289	175.176	0.017	0.025
-335.275	67.630	0.141	0.145
-334.260	800.000	-0.051	-0.215
-333.245	-14.617	-0.013	-0.008
-332.231	-83.511	0.219	-0.070
-331.216	-126.677	-0.378	-0.056
-330.202	-200.000	-0.013	-0.109
-329.187	-119.769	0.108	0.019
-328.172	333.534	0.115	0.223
-327.158	-64.953	-0.353	-0.143
-326.143	-200.000	0.079	-0.408
-325.129	800.000	-0.069	-0.239
-324.114	-121.520	-0.279	-0.047
-323.099	-47.798	0.360	0.175
-322.085	52.367	-0.236	-0.226
-321.070	72.597	-0.077	0.081
-320.056	101.391	0.040	-0.047
-319.041	199.076	-0.180	-0.277
-318.026	-135.072	-0.053	-0.006
-317.012	-111.729	-0.158	-0.032
-315.997	800.000	-0.095	-0.337
-314.983	613.002	0.041	0.104
-313.968	163.178	0.052	-0.073
-312.953	-80.303	-0.387	-0.130
-311.939	672.729	-0.182	-0.473
-310.924	-37.369	0.256	-0.138
-309.910	165.941	-0.063	0.089
-308.895	-76.368	0.305	0.108
-307.880	800.000	-0.072	-0.284
-306.866	-45.044	-0.348	0.174
-305.851	-81.665	-0.572	-0.189
-304.837	-25.983	0.318	-0.188
-303.822	-200.000	0.000	-0.079
-302.807	175.419	-0.102	0.148
-301.793	81.342	0.134	-0.146
-300.778	-200.000	0.021	0.176
-299.764	59.816	0.031	-0.031
-298.749	800.000	-0.126	0.358
-297.735	-200.000	-0.000	0.093
-296.720	800.000	0.040	-0.117
-295.705	-118.354	0.416	-0.074
-294.691	-4.018	-0.199	0.139
-293.676	-200.000	-0.014	0.104
-292.662	553.884	0.103	0.249
-291.647	66.189	-0.028	-0.029
-290.632	799.804	-0.093	0.258
-289.618	-152.480	-0.194	0.014
-288.603	-200.000	-0.010	0.173
-287.589	-200.000	-0.001	-0.230
-286.574	155.792	0.094	0.130
-285.559	-44.798	0.151	-0.076
-284.545	800.000	0.097	0.392
-283.530	-200.000	0.023	0.206
-282.516	51.879	-0.191	-0.182
-281.501	-126.577	0.206	-0.031
-280.486	-1.948	-0.056	-0.039
-279.472	-153.580	0.295	-0.020
-278.457	-86.018	-0.086	0.027
-277.443	-23.154	-0.150	0.091
-276.428	715.699	-0.093	0.248
-275.413	-86.515	0.142	-0.044
-274.399	800.000	-0.028	0.082
-273.384	-128.733	-0.171	-0.024
-272.370	-114.187	0.312	0.061
-271.355	-102.363	-0.490	0.118
-270.340	-83.486	-0.098	0.032
-269.326	12.226	-0.061	-0.047
-268.311	112.922	-0.090	0.109
-267.297	65.729	-0.147	0.149
-266.282	123.927	0.270	-0.340
-265.267	800.000	-0.047	-0.154
-264.253	109.150	-0.110	0.132
-263.238	-72.183	0.247	0.092
-262.224	-28.691	-0.225	0.130
-261.209	-115.635	-0.303	-0.057
-260.195	521.134	-0.006	-0.014
-259.180	87.235	-0.103	-0.115
-258.165	-65.984	0.301	-0.121
-257.151	235.284	-0.152	-0.251
-256.136	-177.179	-0.136	0.003
-255.122	-164.975	-0.418	-0.019
-254.107	-200.000	0.064	-0.416
-253.092	-200.000	0.025	-0.365
-252.078	380.771	0.024	-0.049
-251.063	352.709	0.065	-0.128
-250.049	800.000	-0.081	0.293
-249.034	-200.000	0.006	0.088
-248.019	-74.615	0.081	0.029
-247.005	-102.405	-0.418	-0.100
-245.990	191.708	-0.128	-0.193
-244.976	740.274	-0.028	0.074
-243.961	564.215	-0.071	0.172
-242.946	519.640	0.142	-0.333
-241.932	35.061	0.057	-0.050
-240.917	292.495	0.239	-0.436
-239.903	-200.000	-0.060	0.312
-238.888	220.862	-0.102	-0.163
-237.873	-200.000	-0.015	0.071
-236.859	-152.799	0.307	-0.022
-235.844	-120.259	-0.258	0.044
-234.830	245.096	0.205	0.346
-233.815	97.706	0.139	0.160
-232.800	167.860	-0.088	0.125
-231.786	92.157	-0.210	0.237
-230.771	800.000	0.033	-0.114
-229.757	487.009	0.023	-0.054
-228.742	167.485	0.074	0.105
-227.727	-87.973	0.240	0.072
-226.713	122.058	0.035	-0.044
-225.698	144.082	0.144	0.192
-224.684	369.012	-0.190	0.385
-223.669	526.256	0.136	-0.322
-222.655	-200.000	0.097	0.473
-221.640	-44.187	0.226	0.114
-220.625	-79.612	0.033	-0.011
-219.611	-200.000	0.029	-0.231
-218.596	-174.578	0.296	-0.008
-217.582	-200.000	-0.044	0.199
-216.567	-97.269	0.198	-0.052
-215.552	656.889	-0.056	0.144
-214.538	-200.000	0.016	0.376
-213.523	55.758	0.054	-0.052
-212.509	-26.497	0.348	0.204
-211.494	-53.567	-0.214	0.098
-210.479	65.332	0.177	0.180
-209.465	-16.583	0.318	-0.202
-208.450	122.246	0.145	0.181
-207.436	132.379	0.062	0.080
-206.421	-75.139	-0.064	-0.023
-205.406	-200.000	0.015	-0.110
-204.392	-22.691	-0.153	0.093
-203.377	11.793	0.129	-0.099
-202.363	80.655	-0.040	0.043
-201.348	252.225	-0.195	-0.332
-200.333	-161.191	0.140	0.007
-199.319	434.774	-0.136	0.297
-198.304	-30.749	0.269	0.152
-197.290	-200.000	0.001	0.194
-196.275	504.469	-0.134	0.311
-195.260	33.540	0.236	-0.205
-194.246	800.000	0.035	0.133
-193.231	-102.608	0.147	-0.035
-192.217	800.000	0.101	-0.381
-191.202	-93.533	-0.066	0.018
-190.187	-43.454	0.111	0.056
-189.173	-121.489	-0.149	-0.025
-188.158	-200.000	-0.014	-0.251
-187.144	136.357	-0.089	-0.116
-186.129	51.236	0.193	0.183
-185.114	-158.117	0.364	0.021
-184.100	-200.000	-0.007	0.119
-183.085	34.816	0.050	0.044
-182.071	800.000	-0.008	-0.023
-181.056	800.000	0.040	0.145
-180.042	-147.451	0.167	-0.014
-179.027	-57.075	0.168	0.074
-178.012	-200.000	0.006	0.215
-176.998	6.329	0.039	-0.029
-175.983	155.905	-0.175	-0.241
-174.969	-143.925	-0.185	-0.017
-173.954	800.000	-0.136	-0.415
-172.939	-176.696	0.536	-0.014
-171.925	9.246	0.242	0.183
-170.910	-200.000	-0.090	0.518
-169.896	800.000	-0.056	0.237
-168.881	-80.874	0.222	-0.074
-167.866	119.833	-0.300	0.371
-166.852	-90.080	0.083	0.024
-165.837	-19.691	0.322	0.199
-164.823	-60.521	0.370	0.157
-163.808	-107.137	0.165	-0.036
-162.793	348.518	-0.103	0.202
-161.779	-106.573	0.217	0.048
-160.764	-29.875	0.520	0.296
-159.750	-200.000	-0.027	0.317
-158.735	119.066	-0.133	0.164
-157.720	800.000	0.131	-0.420
-156.706	100.236	0.190	-0.220
-155.691	-81.778	0.229	0.075
-154.677	-4.442	-0.113	0.078
-153.662	780.709	0.019	0.053
-152.647	712.693	0.093	-0.247
-151.633	403.636	-0.155	0.326
-150.618	-93.098	-0.149	0.042
-149.604	800.000	0.057	0.187
-148.589	30.238	-0.144	-0.123
-147.574	-29.651	0.254	-0.145
-146.560	-140.805	0.227	-0.023
-145.545	61.599	-0.175	0.174
-144.531	800.000	0.099	-0.325
-143.516	-67.734	0.147	-0.057
-142.502	226.186	-0.077	0.125
-141.487	-55.657	0.175	0.078
-140.472	3.945	-0.060	0.044
-139.458	397.382	0.120	0.251
-138.443	11.518	0.217	0.166
-137.429	108.666	0.184	0.220
-136.414	175.952	0.019	0.028
-135.399	-1.602	0.522	0.367
-134.385	46.173	0.227	-0.209
-133.370	219.925	-0.163	0.260
-132.356	102.507	0.115	-0.134
-131.341	-82.367	0.334	-0.108
-130.326	-39.107	0.190	0.100
-129.312	-200.000	0.005	0.402
-128.297	-200.000	0.001	0.123
-127.283	-191.763	-0.315	-0.003
-126.268	354.399	0.060	0.119
-125.253	-200.000	-0.009	0.206
-124.239	-61.341	-0.171	-0.072
-123.224	-26.330	0.063	0.037
-122.210	-63.249	-0.337	-0.138
-121.195	149.115	-0.334	-0.451
