DTS Sentinel unit serial number:	SN413079Multiplexer serial number:	ORYXHardware model number:	OX4-SRSoftware version number:	ORYX F/W v4.00 Oryx Data Collector v3.7.2.0data status	okinstallation	princeton_trtdifferential loss correction	single-endedforward channel	channel 3reverse channel	N/Adate	2019/09/18time	03:40:35forward acquisition time	60.00reverse acquisition time	0.00gamma	496.2192k internal	0.2343k external	0.2343temperature offset calibration	0.9944default loss term (dB/km)	0.3790temperature slope calibration	1.0000multiplexer offset coefficient	1.0000multiplexer slope coefficient	1.0000fibre end	0.00T internal ref (°C)	22.91T ext. ref 1 (°C)	0.17T ext. ref 2 (°C)	18.00length (m)	temperature (°C)	Stokes	anti-Stokes-747.200	-200.000	-0.008	-0.188
-746.185	-115.888	-0.398	-0.074
-745.171	-200.000	-0.031	-0.184
-744.156	141.679	0.059	0.078
-743.142	241.394	-0.157	0.262
-742.127	-17.596	-0.145	0.091
-741.112	-28.134	-0.414	0.239
-740.098	-58.437	-0.319	0.139
-739.083	800.000	0.084	0.258
-738.069	1.771	-0.166	0.120
-737.054	-137.345	-0.430	-0.049
-736.039	-174.293	-0.307	0.009
-735.025	399.256	-0.114	0.239
-734.010	99.158	-0.264	-0.305
-732.996	-200.000	0.035	-0.176
-731.981	77.751	0.122	0.130
-730.966	-68.730	-0.206	-0.080
-729.952	-52.640	-0.057	0.027
-728.937	-130.457	0.100	-0.013
-727.923	-97.352	-0.099	-0.026
-726.908	-129.593	-0.131	-0.018
-725.894	800.000	-0.047	-0.135
-724.879	-0.640	-0.073	-0.051
-723.864	310.350	0.154	-0.289
-722.850	47.266	-0.199	-0.186
-721.835	16.239	0.200	-0.157
-720.821	-200.000	-0.005	0.174
-719.806	138.181	0.104	-0.136
-718.791	-95.158	0.041	0.011
-717.777	-92.680	0.099	-0.028
-716.762	-79.210	-0.152	0.052
-715.748	226.682	-0.142	0.230
-714.733	115.762	-0.272	0.332
-713.718	-14.943	0.251	-0.161
-712.704	445.780	-0.140	0.308
-711.689	57.722	0.133	0.130
-710.675	-200.000	0.014	0.094
-709.660	-38.463	-0.209	-0.111
-708.645	160.475	0.105	-0.146
-707.631	117.793	-0.196	-0.241
-706.616	-22.433	-0.168	-0.102
-705.602	298.384	0.091	0.166
-704.587	-200.000	0.023	-0.261
-703.572	131.102	0.148	-0.190
-702.558	-43.064	0.223	-0.113
-701.543	-72.653	-0.398	-0.147
-700.529	64.560	-0.070	0.071
-699.514	800.000	-0.072	-0.221
-698.499	-80.148	0.033	-0.011
-697.485	800.000	-0.071	-0.272
-696.470	-129.120	-0.294	-0.041
-695.456	489.509	0.185	-0.422
-694.441	-78.615	0.024	-0.008
-693.426	5.000	0.219	0.161
-692.412	-200.000	-0.019	0.184
-691.397	250.229	0.144	-0.244
-690.383	800.000	-0.058	0.219
-689.368	-200.000	0.020	-0.095
-688.354	-13.747	0.041	0.026
-687.339	-0.615	-0.247	-0.175
-686.324	800.000	0.067	-0.209
-685.310	-24.635	-0.164	-0.097
-684.295	-145.551	0.172	-0.015
-683.281	-37.439	-0.190	0.101
-682.266	2.640	0.284	-0.205
-681.251	650.024	0.011	-0.028
-680.237	-135.700	0.215	-0.025
-679.222	-36.531	-0.204	0.110
-678.208	61.910	-0.190	0.189
-677.193	473.132	-0.221	0.496
-676.178	-6.074	-0.158	0.108
-675.164	800.000	-0.044	0.158
-674.149	472.188	0.135	-0.303
-673.135	-104.606	-0.105	0.024
-672.120	-100.094	0.283	-0.070
-671.105	-200.000	-0.026	0.307
-670.091	-200.000	-0.011	-0.302
-669.076	70.964	0.115	-0.119
-668.062	-22.129	0.134	-0.081
-667.047	596.423	0.141	0.349
-666.032	-200.000	0.000	-0.268
-665.018	-50.503	0.186	0.087
-664.003	-200.000	-0.011	0.402
-662.989	618.542	-0.025	-0.062
-661.974	72.406	0.070	0.073
-660.959	85.210	-0.191	-0.209
-659.945	385.120	-0.092	-0.188
-658.930	-200.000	-0.045	0.307
-657.916	-70.756	-0.104	0.039
-656.901	6.520	0.116	0.086
-655.886	-200.000	-0.035	0.274
-654.872	-151.378	0.132	0.010
-653.857	155.143	-0.090	-0.123
-652.843	800.000	-0.053	-0.198
-651.828	64.289	-0.155	0.155
-650.814	77.830	-0.042	0.044
-649.799	800.000	0.140	0.521
-648.784	-93.911	-0.140	-0.038
-647.770	-164.675	-0.225	0.010
-646.755	-92.613	-0.115	0.032
-645.741	26.722	0.203	0.169
-644.726	-9.273	-0.153	0.102
-643.711	800.000	-0.041	0.170
-642.697	-13.989	0.191	0.123
-641.682	-78.742	-0.096	-0.033
-640.668	94.225	-0.177	-0.200
-639.653	-155.500	-0.096	-0.006
-638.638	800.000	-0.055	-0.176
-637.624	-79.389	0.043	0.014
-636.609	800.000	0.023	0.067
-635.595	196.873	0.055	0.084
-634.580	-102.386	0.158	0.038
-633.565	463.773	-0.060	-0.133
-632.551	-6.190	0.208	-0.141
-631.536	-10.784	0.050	0.033
-630.522	-66.711	0.236	0.093
-629.507	800.000	-0.098	-0.350
-628.492	238.326	0.129	-0.214
-627.478	75.813	-0.034	-0.035
-626.463	7.003	-0.073	-0.054
-625.449	707.098	0.019	0.051
-624.434	53.005	0.152	-0.145
-623.419	48.719	-0.362	-0.338
-622.405	-85.423	0.200	0.062
-621.390	800.000	0.016	-0.056
-620.376	-87.489	0.154	0.046
-619.361	2.171	-0.344	0.247
-618.346	-24.838	0.175	0.103
-617.332	-8.436	0.061	-0.041
-616.317	-110.568	-0.533	-0.110
-615.303	319.973	0.162	-0.307
-614.288	-82.311	-0.288	-0.093
-613.273	-155.213	0.139	-0.009
-612.259	224.718	-0.136	-0.219
-611.244	169.102	-0.150	0.213
-610.230	-34.072	0.346	0.190
-609.215	-200.000	0.013	-0.073
-608.201	-43.135	-0.099	-0.050
-607.186	210.369	-0.163	-0.255
-606.171	-16.132	0.292	0.185
-605.157	89.858	0.129	0.143
-604.142	82.849	-0.081	-0.088
-603.128	83.990	-0.213	-0.232
-602.113	-7.643	-0.156	-0.105
-601.098	-22.483	-0.294	-0.177
-600.084	-200.000	-0.012	-0.292
-599.069	-200.000	-0.000	0.036
-598.055	52.691	0.149	0.141
-597.040	-111.925	-0.103	-0.021
-596.025	-200.000	0.030	-0.289
-595.011	403.050	-0.083	-0.174
-593.996	-60.328	0.257	-0.109
-592.982	-89.129	-0.307	-0.090
-591.967	15.229	0.086	-0.067
-590.952	800.000	0.074	-0.230
-589.938	-200.000	0.036	0.239
-588.923	-116.553	0.313	-0.057
-587.909	-200.000	-0.024	0.177
-586.894	800.000	0.040	-0.116
-585.879	-200.000	0.016	-0.189
-584.865	-35.402	-0.155	0.084
-583.850	-200.000	-0.010	0.177
-582.836	800.000	0.070	-0.195
-581.821	-26.237	-0.248	-0.145
-580.806	-200.000	0.002	0.193
-579.792	-116.843	-0.240	0.044
-578.777	-200.000	-0.006	-0.308
-577.763	800.000	0.038	-0.118
-576.748	614.197	0.117	0.290
-575.733	-164.140	0.126	0.006
-574.719	-200.000	0.016	0.104
-573.704	-103.738	0.103	0.024
-572.690	-78.225	0.246	0.084
-571.675	-111.921	-0.047	0.009
-570.661	-79.814	-0.122	0.041
-569.646	800.000	-0.027	-0.102
-568.631	-40.963	0.187	0.096
-567.617	-96.106	0.154	-0.041
-566.602	-39.412	0.241	-0.126
-565.588	600.410	-0.057	0.140
-564.573	-72.192	-0.236	-0.087
-563.558	800.000	0.196	0.571
-562.544	800.000	0.106	0.322
-561.529	800.000	0.084	-0.362
-560.515	-26.471	0.166	-0.096
-559.500	39.971	0.387	-0.346
-558.485	314.938	-0.117	0.219
-557.471	17.539	-0.039	-0.031
-556.456	-52.429	0.184	0.085
-555.442	-200.000	-0.032	0.209
-554.427	-132.753	-0.176	-0.022
-553.412	102.293	0.127	-0.147
-552.398	120.305	0.120	-0.148
-551.383	96.893	-0.172	-0.196
-550.369	-51.350	-0.230	0.107
-549.354	60.977	0.094	0.092
-548.339	501.040	0.099	0.226
-547.325	-54.798	-0.078	-0.035
-546.310	50.032	-0.225	-0.211
-545.296	38.468	0.019	-0.017
-544.281	800.000	0.056	0.199
-543.266	303.190	-0.144	0.265
-542.252	-186.636	-0.283	-0.004
-541.237	351.237	0.072	0.142
-540.223	627.463	0.110	-0.276
-539.208	331.065	0.072	-0.137
-538.193	49.322	0.320	-0.299
-537.179	-109.028	-0.128	0.027
-536.164	-200.000	0.085	0.448
-535.150	81.872	-0.258	-0.278
-534.135	-158.767	-0.431	-0.024
-533.121	-95.379	0.052	-0.014
-532.106	800.000	0.093	-0.308
-531.091	-97.087	0.217	-0.056
-530.077	-53.461	-0.261	-0.119
-529.062	-200.000	0.083	-0.529
-528.048	-158.691	-0.197	-0.011
-527.033	-93.591	-0.101	-0.028
-526.018	-146.439	-0.246	0.021
-525.004	382.302	-0.107	-0.218
-523.989	-55.882	-0.110	-0.049
-522.975	386.075	-0.090	0.184
-521.960	-200.000	-0.006	0.131
-520.945	-46.166	0.314	-0.153
-519.931	-169.789	-0.180	0.006
-518.916	-47.295	0.388	0.188
-517.902	-78.294	-0.119	-0.040
-516.887	800.000	-0.063	0.227
-515.872	134.652	0.093	0.120
-514.858	-5.294	-0.089	0.061
-513.843	238.467	0.157	-0.259
-512.829	223.902	-0.257	0.411
-511.814	-36.724	0.307	0.164
-510.799	34.228	0.030	-0.026
-509.785	-86.006	0.082	0.025
-508.770	598.035	0.089	-0.220
-507.756	541.765	-0.033	-0.077
-506.741	656.161	-0.068	-0.174
-505.726	33.786	-0.240	0.207
-504.712	800.000	0.133	0.373
-503.697	744.006	0.042	-0.112
-502.683	-174.413	-0.109	0.003
-501.668	-200.000	-0.009	0.040
-500.653	12.294	-0.206	0.158
-499.639	-110.206	-0.316	0.065
-498.624	25.723	-0.164	0.135
-497.610	-200.000	-0.030	0.350
-496.595	345.030	-0.085	0.166
-495.581	201.396	-0.012	-0.019
-494.566	118.118	0.023	-0.028
-493.551	-200.000	-0.047	-0.365
-492.537	77.559	0.106	-0.112
-491.522	-63.279	-0.184	-0.075
-490.508	-200.000	-0.010	-0.069
-489.493	51.914	0.245	0.231
-488.478	236.451	0.122	0.199
-487.464	-116.902	0.135	0.025
-486.449	-89.917	-0.252	0.073
-485.435	16.761	-0.119	0.093
-484.420	-85.047	-0.216	0.067
-483.405	760.499	-0.024	-0.064
-482.391	81.200	0.267	-0.286
-481.376	48.843	-0.233	0.217
-480.362	-58.839	-0.322	0.138
-479.347	-200.000	0.009	0.377
-478.332	33.255	-0.202	-0.174
-477.318	-43.601	-0.061	0.030
-476.303	1.303	0.158	0.113
-475.289	-83.650	0.119	0.038
-474.274	-119.411	0.107	0.018
-473.259	-45.926	0.064	0.032
-472.245	-200.000	-0.011	0.337
-471.230	66.881	-0.123	-0.124
-470.216	368.621	0.120	0.241
-469.201	-69.206	0.258	0.098
-468.186	-200.000	-0.004	-0.230
-467.172	248.951	0.105	-0.177
-466.157	-117.364	-0.191	0.034
-465.143	-200.000	0.008	0.295
-464.128	204.736	0.019	0.030
-463.113	94.557	-0.338	0.381
-462.099	167.596	-0.164	0.231
-461.084	311.254	0.040	-0.074
-460.070	82.119	0.075	0.081
-459.055	-122.784	0.110	-0.018
-458.040	715.503	0.088	-0.231
-457.026	20.522	0.242	-0.193
-456.011	-200.000	0.015	0.230
-454.997	267.499	-0.039	0.068
-453.982	-102.438	0.241	0.057
-452.968	-200.000	0.010	0.353
-451.953	370.893	-0.079	-0.159
-450.938	255.503	-0.103	-0.175
-449.924	56.654	-0.102	0.098
-448.909	800.000	-0.036	-0.134
-447.895	-51.932	-0.071	-0.033
-446.880	-60.787	0.336	0.141
-445.865	-154.130	-0.151	-0.010
-444.851	424.037	0.165	-0.352
-443.836	41.123	0.285	-0.255
-442.822	-93.527	-0.203	-0.055
-441.807	-200.000	-0.002	-0.048
-440.792	-52.043	0.174	-0.080
-439.778	-31.637	-0.278	0.154
-438.763	277.257	0.090	0.159
-437.749	-200.000	-0.049	-0.307
-436.734	-72.759	0.246	-0.090
-435.719	-3.686	-0.200	0.137
-434.705	51.720	-0.134	0.126
-433.690	-200.000	0.011	-0.219
-432.676	800.000	-0.113	-0.309
-431.661	174.224	-0.203	-0.290
-430.646	183.942	0.122	0.178
-429.632	577.162	-0.045	-0.108
-428.617	34.364	0.132	-0.114
-427.603	-86.236	0.228	-0.070
-426.588	-41.426	-0.114	-0.058
-425.573	-126.347	0.061	-0.009
-424.559	95.308	-0.074	0.084
-423.544	-72.205	-0.339	-0.124
-422.530	-200.000	0.067	-0.307
-421.515	-39.995	0.152	0.078
-420.500	-162.835	-0.250	0.012
-419.486	-92.649	-0.381	-0.106
-418.471	-21.638	0.060	0.036
-417.457	-103.454	0.265	-0.062
-416.442	21.425	0.229	-0.184
-415.428	800.000	0.023	0.072
-414.413	28.116	0.225	0.187
-413.398	-109.201	-0.268	-0.056
-412.384	-56.455	0.160	0.070
-411.369	-54.366	0.176	0.079
-410.355	-200.000	-0.027	0.121
-409.340	43.140	-0.268	0.242
-408.325	-104.327	-0.189	0.043
-407.311	248.749	-0.106	-0.178
-406.296	-76.144	0.407	0.142
-405.282	450.694	0.055	-0.121
-404.267	50.730	0.123	-0.115
-403.252	-200.000	0.011	-0.198
-402.238	-150.897	0.177	0.013
-401.223	800.000	-0.036	-0.107
-400.209	800.000	-0.129	0.376
-399.194	359.458	0.086	-0.169
-398.179	-200.000	-0.025	-0.182
-397.165	-27.048	-0.117	-0.067
-396.150	245.487	0.013	-0.022
-395.136	800.000	0.086	0.260
-394.121	-200.000	-0.077	-0.398
-393.106	107.371	0.061	0.071
-392.092	-8.802	0.094	0.063
-391.077	800.000	-0.027	0.075
-390.063	-42.884	-0.305	0.153
-389.048	-40.941	-0.029	-0.015
-388.033	65.112	0.219	-0.219
-387.019	800.000	-0.073	0.249
-386.004	-200.000	-0.001	0.178
-384.990	-13.279	-0.252	0.162
-383.975	-200.000	-0.054	0.348
-382.960	162.509	0.083	0.114
-381.946	105.193	-0.207	-0.241
-380.931	-200.000	0.020	0.244
-379.917	-20.031	0.167	-0.102
-378.902	-117.911	0.454	0.080
-377.888	-17.021	0.273	0.170
-376.873	150.608	-0.154	0.207
-375.858	0.836	0.244	-0.172
-374.844	113.281	0.066	0.079
-373.829	-200.000	-0.016	-0.249
-372.815	-176.565	0.229	-0.006
-371.800	85.415	-0.169	-0.183
-370.785	-168.429	-0.342	-0.013
-369.771	-88.838	0.097	0.028
-368.756	-200.000	-0.018	-0.129
-367.742	-9.953	0.482	0.316
-366.727	120.534	0.348	0.426
-365.712	201.306	0.058	-0.088
-364.698	-73.559	0.238	-0.086
-363.683	-42.852	-0.414	-0.207
-362.669	9.571	-0.054	0.040
-361.654	-200.000	-0.030	-0.131
-360.639	616.401	-0.075	-0.187
-359.625	-151.204	0.255	-0.019
-358.610	403.468	0.058	-0.121
-357.596	52.922	0.229	-0.216
-356.581	-61.910	-0.864	-0.356
-355.566	-110.021	0.130	-0.027
-354.552	-115.966	-0.134	0.025
-353.537	183.784	0.154	0.224
-352.523	-82.368	-0.145	0.047
-351.508	-170.591	-0.207	-0.007
-350.493	-86.080	0.330	0.100
-349.479	52.202	-0.271	-0.255
-348.464	-200.000	0.013	-0.221
-347.450	16.637	0.173	-0.134
-346.435	445.062	0.067	0.145
-345.420	-90.953	-0.172	-0.049
-344.406	-200.000	0.008	0.227
-343.391	-93.749	0.328	-0.089
-342.377	153.594	-0.317	-0.427
-341.362	-25.198	-0.046	-0.027
-340.348	800.000	-0.005	0.017
-339.333	800.000	-0.109	0.341
-338.318	-58.876	0.111	0.047
-337.304	-36.549	-0.372	0.197
-336.289	-200.000	0.017	0.179
-335.275	-74.492	0.103	0.037
-334.260	-52.000	0.048	-0.022
-333.245	-51.950	0.392	0.180
-332.231	66.624	-0.146	-0.146
-331.216	-200.000	-0.009	-0.337
-330.202	-73.598	-0.045	0.016
-329.187	-109.506	-0.198	0.041
-328.172	-69.936	0.482	0.181
-327.158	250.332	0.089	0.149
-326.143	800.000	0.056	0.163
-325.129	55.250	0.294	-0.280
-324.114	-63.152	-0.063	-0.026
-323.099	-37.551	-0.085	0.045
-322.085	800.000	0.048	-0.153
-321.070	-145.422	0.165	0.015
-320.056	-60.877	0.133	-0.055
-319.041	1.821	0.198	0.140
-318.026	274.144	-0.053	-0.092
-317.012	-200.000	0.025	0.121
-315.997	96.319	-0.053	0.059
-314.983	-200.000	0.001	0.120
-313.968	-44.446	-0.105	0.052
-312.953	-159.895	0.265	0.014
-311.939	126.234	-0.123	0.154
-310.924	-159.946	0.435	-0.023
-309.910	-60.079	0.123	0.051
-308.895	443.700	-0.118	0.255
-307.880	230.103	-0.094	0.152
-306.866	-12.118	-0.201	0.129
-305.851	-200.000	0.009	0.148
-304.837	163.309	0.079	0.109
-303.822	-200.000	0.022	0.300
-302.807	-162.598	-0.313	0.015
-301.793	71.667	-0.139	-0.142
-300.778	51.742	0.146	0.137
-299.764	800.000	0.051	0.142
-298.749	-181.604	-0.103	0.002
-297.735	37.723	-0.187	-0.163
-296.720	199.121	-0.117	-0.176
-295.705	289.735	-0.149	-0.265
-294.691	-90.966	-0.120	-0.034
-293.676	800.000	-0.052	0.195
-292.662	267.022	-0.107	-0.184
-291.647	16.407	0.108	-0.084
-290.632	105.616	0.082	0.096
-289.618	-1.190	-0.194	0.135
-288.603	-16.740	0.289	0.180
-287.589	800.000	0.065	0.255
-286.574	-78.794	-0.379	-0.127
-285.559	10.868	0.278	0.208
-284.545	-19.595	-0.294	-0.179
-283.530	52.705	-0.183	0.172
-282.516	358.821	-0.047	0.092
-281.501	-137.605	-0.408	-0.045
-280.486	51.108	-0.171	-0.160
-279.472	-4.415	-0.408	-0.277
-278.457	319.481	0.174	0.325
-277.443	-56.413	0.029	0.013
-276.428	-88.929	0.134	0.039
-275.413	-104.171	0.212	0.049
-274.399	61.384	-0.107	0.104
-273.384	-15.036	0.413	-0.260
-272.370	571.712	-0.015	0.035
-271.355	-200.000	0.016	-0.255
-270.340	143.208	0.196	0.257
-269.326	66.055	0.132	-0.132
-268.311	-200.000	0.004	-0.042
-267.297	-88.639	-0.131	0.038
-266.282	-200.000	0.015	-0.118
-265.267	183.693	-0.050	0.073
-264.253	71.917	-0.163	-0.166
-263.238	-77.911	-0.277	0.094
-262.224	-55.145	0.275	-0.121
-261.209	-88.896	0.025	0.007
-260.195	183.002	0.150	0.217
-259.180	-8.414	0.176	-0.116
-258.165	146.140	0.163	-0.215
-257.151	-200.000	-0.044	0.195
-256.136	454.482	0.125	0.273
-255.122	221.207	-0.036	0.056
-254.107	-200.000	0.005	-0.163
-253.092	-84.563	0.217	0.067
-252.078	315.236	-0.181	-0.336
-251.063	-92.748	0.296	0.081
-250.049	338.814	-0.043	-0.083
-249.034	-66.747	-0.471	-0.183
-248.019	309.959	0.105	-0.194
-247.005	-123.720	0.163	-0.025
-245.990	14.709	-0.184	-0.141
-244.976	-83.765	0.394	0.124
-243.961	-100.880	0.366	0.088
-242.946	-13.529	-0.099	-0.063
-241.932	161.177	0.059	-0.081
-240.917	123.982	0.186	-0.230
-239.903	-135.365	-0.193	-0.023
-238.888	-110.055	0.260	0.053
-237.873	41.370	-0.157	0.139
-236.859	205.983	0.200	0.305
-235.844	-10.454	-0.201	0.131
-234.830	99.109	0.083	-0.094
-233.815	-147.691	0.256	0.021
-232.800	216.659	-0.153	0.239
-231.786	-200.000	-0.025	-0.141
-230.771	587.644	-0.080	-0.193
-229.757	-200.000	-0.030	-0.238
-228.742	-130.326	0.168	-0.022
-227.727	-89.231	-0.297	0.086
-226.713	96.730	0.148	-0.166
-225.698	-120.214	-0.326	0.055
-224.684	33.588	0.081	-0.069
-223.669	-200.000	-0.003	-0.041
-222.655	-100.375	-0.440	0.107
-221.640	-165.036	-0.254	-0.011
-220.625	693.861	-0.184	0.473
-219.611	-109.691	0.177	-0.037
-218.596	-102.262	0.091	0.021
-217.582	-59.528	-0.323	0.136
-216.567	330.729	-0.117	0.222
-215.552	-5.418	-0.017	0.012
-214.538	-200.000	0.009	0.340
-213.523	-200.000	-0.005	0.089
-212.509	-200.000	-0.029	0.138
-211.494	-11.874	0.117	0.075
-210.479	-26.528	0.099	-0.057
-209.465	-200.000	0.039	0.294
-208.450	-117.003	0.350	0.063
-207.436	-63.634	-0.191	0.077
-206.421	71.360	0.268	0.272
-205.406	-176.543	-0.063	-0.002
-204.392	800.000	-0.050	-0.172
-203.377	800.000	0.099	-0.346
-202.363	-200.000	-0.012	0.149
-201.348	-200.000	0.020	0.095
-200.333	-200.000	0.001	-0.124
-199.319	607.684	-0.074	-0.180
-198.304	78.454	-0.120	-0.126
-197.290	-189.199	0.239	-0.003
-196.275	-65.851	-0.124	-0.049
-195.260	-154.430	-0.132	0.009
-194.246	512.069	0.126	-0.288
-193.231	800.000	-0.067	-0.198
-192.217	21.125	0.195	-0.155
-191.202	608.486	-0.054	0.132
-190.187	667.780	0.149	-0.377
-189.173	-5.924	0.023	-0.016
-188.158	14.067	0.089	-0.068
-187.144	-200.000	0.016	-0.115
-186.129	187.593	-0.087	0.128
-185.114	-200.000	-0.028	0.287
-184.100	-200.000	0.012	-0.197
-183.085	194.170	0.108	0.160
-182.071	655.271	0.080	-0.200
-181.056	-200.000	0.041	0.239
-180.042	-200.000	-0.044	-0.230
-179.027	-4.830	-0.365	-0.246
-178.012	-58.797	0.094	-0.040
-176.998	44.933	-0.182	-0.164
-175.983	-68.706	0.167	-0.063
-174.969	113.470	0.372	0.443
-173.954	158.679	0.145	0.197
-172.939	-200.000	-0.014	0.124
-171.925	-155.687	0.083	-0.005
-170.910	-200.000	-0.048	0.361
-169.896	-200.000	-0.012	0.159
-168.881	-106.053	0.154	-0.034
-167.866	-67.368	-0.263	-0.101
-166.852	5.007	-0.099	0.071
-165.837	249.316	-0.079	0.131
-164.823	-200.000	-0.004	-0.204
-163.808	241.497	0.060	0.098
-162.793	347.962	0.086	0.166
-161.779	800.000	0.021	0.060
-160.764	142.529	-0.145	-0.189
-159.750	-200.000	-0.008	-0.292
-158.735	236.171	0.092	-0.149
-157.720	107.008	-0.084	0.098
-156.706	258.194	0.249	-0.419
-155.691	705.703	-0.067	0.172
-154.677	29.901	-0.082	-0.068
-153.662	296.959	-0.129	0.231
-152.647	-200.000	0.006	-0.094
-151.633	769.789	-0.148	-0.394
-150.618	-110.315	0.153	0.031
-149.604	196.900	-0.168	0.250
-148.589	-200.000	0.005	-0.250
-147.574	-44.293	0.297	-0.146
-146.560	800.000	-0.104	-0.305
-145.545	739.600	-0.055	0.144
-144.531	800.000	0.110	0.405
-143.516	167.393	0.293	0.407
-142.502	-6.950	-0.358	0.238
-141.487	-200.000	0.013	0.062
-140.472	450.097	-0.191	-0.412
-139.458	392.492	-0.076	-0.154
-138.443	-200.000	0.054	0.243
-137.429	-45.902	0.243	-0.117
-136.414	-40.049	-0.337	0.172
-135.399	-200.000	0.009	0.061
-134.385	800.000	0.044	0.184
-133.370	554.975	-0.138	0.326
-132.356	-15.166	0.470	-0.294
-131.341	-41.570	-0.182	-0.092
-130.326	64.293	0.243	0.239
-129.312	-200.000	0.030	-0.249
-128.297	521.729	0.061	-0.139
-127.283	-200.000	0.018	0.222
-126.268	24.246	-0.319	-0.257
-125.253	371.081	-0.193	0.382
-124.239	36.534	0.235	-0.202
-123.224	-80.464	-0.278	0.091
-122.210	467.493	-0.057	-0.125
-121.195	-200.000	-0.015	0.238
