DTS Sentinel unit serial number:	SN413079Multiplexer serial number:	ORYXHardware model number:	OX4-SRSoftware version number:	ORYX F/W v4.00 Oryx Data Collector v3.7.2.0data status	okinstallation	princeton_trtdifferential loss correction	single-endedforward channel	channel 3reverse channel	N/Adate	2019/09/16time	07:36:35forward acquisition time	60.00reverse acquisition time	0.00gamma	496.2192k internal	0.2333k external	0.2333temperature offset calibration	0.9955default loss term (dB/km)	0.3790temperature slope calibration	1.0000multiplexer offset coefficient	1.0000multiplexer slope coefficient	1.0000fibre end	0.00T internal ref (°C)	27.77T ext. ref 1 (°C)	11.65T ext. ref 2 (°C)	24.39length (m)	temperature (°C)	Stokes	anti-Stokes-747.200	180.446	-0.101	-0.149
-746.185	79.645	0.156	-0.169
-745.171	-200.000	-0.055	-0.335
-744.156	-177.873	-0.253	-0.006
-743.142	-137.585	0.260	-0.029
-742.127	-200.000	0.003	-0.362
-741.112	55.031	0.193	-0.188
-740.098	19.443	0.136	0.110
-739.083	197.025	0.043	-0.066
-738.069	-200.000	-0.041	0.405
-737.054	-105.043	0.128	-0.030
-736.039	-77.132	-0.331	-0.116
-735.025	800.000	0.093	0.391
-734.010	-200.000	-0.027	-0.447
-732.996	377.860	-0.168	-0.346
-731.981	-200.000	-0.033	-0.608
-730.966	-62.252	-0.202	-0.085
-729.952	3.993	-0.089	0.065
-728.937	2.386	-0.265	0.193
-727.923	120.997	0.255	0.319
-726.908	-116.171	-0.368	0.069
-725.894	181.017	-0.150	0.222
-724.879	51.500	-0.239	-0.228
-723.864	165.976	-0.216	-0.308
-722.850	-2.459	0.178	-0.125
-721.835	800.000	0.042	0.152
-720.821	-13.545	-0.170	-0.111
-719.806	458.732	-0.164	-0.367
-718.791	73.196	-0.194	0.204
-717.777	-97.451	-0.040	-0.010
-716.762	800.000	-0.093	-0.328
-715.748	-200.000	0.038	0.236
-714.733	-116.393	-0.130	0.024
-713.718	616.067	0.130	0.328
-712.704	571.019	0.084	0.206
-711.689	800.000	-0.147	0.433
-710.675	-83.181	-0.344	-0.111
-709.660	-121.597	-0.431	-0.072
-708.645	375.765	0.135	0.277
-707.631	800.000	-0.100	0.398
-706.616	91.426	0.124	0.140
-705.602	195.283	-0.053	0.080
-704.587	121.425	-0.315	-0.394
-703.572	-100.062	-0.140	0.035
-702.558	655.094	-0.127	0.328
-701.543	351.109	0.047	0.093
-700.529	45.498	0.292	0.271
-699.514	11.419	-0.068	0.052
-698.499	48.765	-0.274	-0.258
-697.485	109.141	0.117	-0.141
-696.470	-32.514	-0.116	-0.065
-695.456	448.217	-0.031	0.069
-694.441	-48.699	0.310	0.149
-693.426	-27.689	-0.146	-0.085
-692.412	800.000	-0.074	-0.212
-691.397	65.223	-0.182	-0.185
-690.383	83.721	-0.220	-0.241
-689.368	151.054	-0.042	-0.058
-688.354	-158.724	0.042	-0.002
-687.339	-133.150	-0.101	0.013
-686.324	-200.000	-0.008	0.266
-685.310	-104.976	-0.358	-0.082
-684.295	119.542	-0.226	0.281
-683.281	-76.213	0.058	-0.020
-682.266	-200.000	-0.042	-0.216
-681.251	6.916	-0.072	0.054
-680.237	-200.000	-0.034	-0.228
-679.222	172.362	0.119	-0.172
-678.208	130.829	0.159	-0.204
-677.193	-89.162	0.261	0.077
-676.178	103.577	-0.214	0.252
-675.164	-45.704	-0.146	-0.073
-674.149	-68.471	0.176	0.068
-673.135	-88.623	-0.330	-0.099
-672.120	53.944	-0.086	0.083
-671.105	-109.002	-0.392	-0.084
-670.091	-108.571	0.162	-0.035
-669.076	-77.211	0.329	-0.115
-668.062	-200.000	0.015	-0.071
-667.047	-200.000	-0.062	-0.378
-666.032	-131.174	-0.100	0.013
-665.018	78.237	-0.042	0.045
-664.003	757.644	0.056	-0.151
-662.989	378.021	-0.039	0.079
-661.974	292.092	0.035	-0.065
-660.959	-64.289	0.418	0.170
-659.945	47.714	0.067	-0.063
-658.930	377.901	0.083	0.171
-657.916	-2.022	0.035	-0.025
-656.901	-51.783	-0.074	0.034
-655.886	-182.176	-0.231	-0.004
-654.872	-82.867	0.343	0.111
-653.857	-122.922	-0.421	-0.068
-652.843	88.600	0.214	0.238
-651.828	800.000	0.060	0.210
-650.814	-200.000	0.020	-0.105
-649.799	259.722	0.129	-0.223
-648.784	-23.066	0.219	-0.132
-647.770	-200.000	-0.032	-0.193
-646.755	233.394	-0.239	-0.395
-645.741	800.000	0.059	-0.178
-644.726	-200.000	-0.003	0.168
-643.711	20.240	-0.164	-0.133
-642.697	515.624	0.156	-0.366
-641.682	93.634	-0.125	0.142
-640.668	-200.000	-0.085	-0.396
-639.653	-200.000	0.019	0.128
-638.638	-200.000	-0.017	-0.203
-637.624	133.306	0.069	0.089
-636.609	14.296	0.159	-0.124
-635.595	133.201	0.166	-0.215
-634.580	63.823	0.187	-0.188
-633.565	-60.830	0.088	0.037
-632.551	188.109	0.246	0.369
-631.536	350.580	-0.129	-0.255
-630.522	7.737	-0.205	-0.154
-629.507	-200.000	-0.020	-0.161
-628.492	164.443	-0.091	0.128
-627.478	581.896	-0.068	-0.167
-626.463	38.640	-0.054	0.048
-625.449	-103.094	-0.160	-0.038
-624.434	568.372	0.007	0.017
-623.419	-132.492	-0.349	-0.045
-622.405	161.272	0.095	0.133
-621.390	-200.000	0.013	-0.238
-620.376	229.566	0.135	0.221
-619.361	-56.620	0.237	-0.105
-618.346	-200.000	0.033	0.179
-617.332	-87.600	0.270	0.082
-616.317	55.321	0.204	-0.198
-615.303	-40.984	0.056	-0.029
-614.288	247.304	0.183	-0.309
-613.273	-200.000	-0.086	0.403
-612.259	-148.042	0.186	0.015
-611.244	-200.000	0.000	-0.160
-610.230	663.442	-0.120	0.311
-609.215	3.930	0.062	-0.045
-608.201	-72.421	0.258	0.095
-607.186	73.173	-0.315	-0.329
-606.171	58.427	-0.152	0.149
-605.157	-80.970	-0.160	-0.053
-604.142	-140.300	-0.055	-0.006
-603.128	18.549	-0.196	-0.157
-602.113	106.378	-0.229	0.271
-601.098	386.976	-0.067	-0.138
-600.084	-200.000	0.008	-0.060
-599.069	469.029	0.158	-0.354
-598.055	-200.000	0.047	0.266
-597.040	227.471	-0.272	0.443
-596.025	17.027	-0.175	-0.139
-595.011	-99.915	-0.265	0.066
-593.996	-57.781	0.221	0.097
-592.982	135.932	-0.092	-0.119
-591.967	-69.250	-0.053	-0.020
-590.952	-69.209	0.284	-0.109
-589.938	-200.000	-0.009	0.076
-588.923	-33.321	-0.171	0.095
-587.909	-141.455	0.376	0.038
-586.894	-56.924	0.256	-0.113
-585.879	-77.417	-0.364	0.126
-584.865	83.653	-0.123	-0.134
-583.850	603.486	0.051	0.126
-582.836	41.793	-0.317	0.287
-581.821	165.262	-0.033	0.046
-580.806	800.000	0.054	-0.154
-579.792	-200.000	-0.021	-0.342
-578.777	84.656	0.099	-0.109
-577.763	-86.732	0.131	-0.040
-576.748	-183.860	-0.177	-0.003
-575.733	795.820	0.165	-0.454
-574.719	34.039	0.124	0.108
-573.704	-200.000	-0.035	-0.221
-572.690	112.444	-0.248	-0.300
-571.675	23.195	0.149	-0.122
-570.661	-76.363	0.331	0.116
-569.646	800.000	0.130	-0.514
-568.631	-200.000	-0.001	-0.110
-567.617	719.779	0.062	-0.164
-566.602	536.618	-0.091	-0.216
-565.588	-37.320	-0.128	-0.068
-564.573	-78.752	0.305	0.104
-563.558	163.166	0.088	-0.124
-562.544	-148.853	-0.217	0.017
-561.529	-96.030	0.029	-0.008
-560.515	800.000	0.017	-0.063
-559.500	503.868	0.118	-0.273
-558.485	800.000	-0.062	0.223
-557.471	-88.282	0.263	-0.079
-556.456	199.029	0.160	0.245
-555.442	54.364	-0.100	-0.096
-554.427	206.545	-0.100	0.155
-553.412	17.945	0.123	0.098
-552.398	-60.966	-0.319	0.135
-551.383	-147.617	0.421	0.035
-550.369	26.537	-0.220	-0.184
-549.354	-11.965	0.199	0.130
-548.339	703.633	0.013	0.034
-547.325	108.480	-0.115	0.137
-546.310	131.153	0.183	-0.235
-545.296	307.428	-0.149	-0.276
-544.281	800.000	-0.077	-0.270
-543.266	-124.890	-0.125	-0.019
-542.252	-14.220	0.225	0.145
-541.237	640.103	-0.015	0.039
-540.223	36.241	-0.108	0.095
-539.208	-200.000	-0.015	0.109
-538.193	-60.767	-0.520	0.220
-537.179	800.000	0.090	0.297
-536.164	12.999	0.214	0.165
-535.150	43.190	-0.239	0.218
-534.135	-200.000	0.046	-0.429
-533.121	342.383	0.117	-0.229
-532.106	-185.351	-0.408	-0.006
-531.091	-105.308	-0.186	0.042
-530.077	-139.764	-0.127	0.013
-529.062	-126.770	-0.115	-0.017
-528.048	207.071	-0.048	0.075
-527.033	92.188	-0.083	0.093
-526.018	300.469	-0.190	0.350
-525.004	10.248	0.221	0.167
-523.989	420.290	-0.101	0.216
-522.975	-10.245	-0.150	0.099
-521.960	44.291	0.389	-0.356
-520.945	-55.260	0.174	0.078
-519.931	-160.279	-0.136	-0.007
-518.916	-176.427	0.103	0.003
-517.902	-136.841	0.274	-0.031
-516.887	238.143	-0.126	0.209
-515.872	-200.000	-0.010	0.267
-514.858	-168.570	0.055	-0.002
-513.843	800.000	-0.110	-0.336
-512.829	106.193	-0.271	-0.319
-511.814	-200.000	0.034	-0.201
-510.799	325.335	0.181	-0.346
-509.785	-200.000	-0.029	0.166
-508.770	-47.424	-0.314	-0.152
-507.756	25.216	0.284	-0.235
-506.741	-85.979	-0.143	-0.044
-505.726	-157.284	-0.453	0.027
-504.712	594.100	0.139	0.343
-503.697	-136.090	0.310	-0.036
-502.683	-130.350	0.122	0.016
-501.668	353.397	-0.069	0.136
-500.653	-66.543	0.109	0.043
-499.639	-29.510	0.280	-0.159
-498.624	800.000	-0.043	0.127
-497.610	-14.833	-0.113	-0.072
-496.595	-200.000	-0.005	-0.049
-495.581	-25.215	-0.207	0.122
-494.566	-49.581	0.216	0.102
-493.551	-32.999	0.175	-0.097
-492.537	-85.262	0.336	0.105
-491.522	-200.000	0.019	-0.095
-490.508	14.529	0.071	-0.056
-489.493	330.655	-0.044	0.085
-488.478	800.000	-0.117	-0.358
-487.464	-102.343	-0.285	-0.068
-486.449	626.820	0.070	-0.176
-485.435	679.435	0.097	-0.250
-484.420	800.000	0.064	-0.235
-483.405	-71.095	0.421	0.158
-482.391	-5.253	-0.062	-0.042
-481.376	-103.012	-0.140	0.033
-480.362	213.486	0.145	-0.228
-479.347	7.633	0.130	0.097
-478.332	-138.720	-0.452	0.049
-477.318	58.220	0.076	0.074
-476.303	-22.083	-0.167	0.101
-475.289	204.754	0.202	0.312
-474.274	172.189	0.206	0.294
-473.259	-108.829	0.319	0.068
-472.245	5.437	0.179	-0.131
-471.230	275.073	0.065	0.115
-470.216	51.594	0.088	0.083
-469.201	-200.000	0.036	-0.255
-468.186	53.464	0.227	0.217
-467.172	-79.149	-0.368	0.124
-466.157	68.499	-0.148	-0.151
-465.143	-138.055	0.028	-0.003
-464.128	-142.089	0.156	-0.015
-463.113	-200.000	0.032	0.291
-462.099	255.843	0.186	0.318
-461.084	210.986	0.079	-0.124
-460.070	441.197	-0.128	-0.279
-459.055	-36.507	0.272	0.145
-458.040	-25.572	-0.149	0.087
-457.026	-97.496	-0.251	-0.065
-456.011	800.000	0.040	0.157
-454.997	495.617	0.054	0.124
-453.982	-81.884	0.258	0.084
-452.968	43.825	-0.151	0.137
-451.953	800.000	-0.025	0.082
-450.938	-113.574	0.144	0.028
-449.924	-91.285	0.259	0.074
-448.909	715.278	-0.098	0.258
-447.895	-172.436	-0.094	-0.003
-446.880	106.799	-0.110	0.130
-445.865	615.390	-0.117	-0.291
-444.851	111.262	-0.059	-0.071
-443.836	156.750	-0.119	-0.164
-442.822	486.225	0.106	0.241
-441.807	-37.623	-0.270	0.143
-440.792	21.320	0.229	0.185
-439.778	28.465	0.338	0.284
-438.763	-200.000	-0.046	-0.245
-437.749	800.000	0.039	0.130
-436.734	-172.240	-0.085	-0.003
-435.719	5.142	0.213	0.156
-434.705	800.000	-0.123	0.361
-433.690	-63.762	-0.093	-0.038
-432.676	-98.781	-0.201	0.051
-431.661	9.007	0.103	-0.077
-430.646	-61.718	-0.027	0.011
-429.632	-125.251	-0.133	0.020
-428.617	108.641	0.100	0.118
-427.603	189.376	0.080	-0.119
-426.588	151.135	-0.171	0.231
-425.573	-56.541	-0.162	0.071
-424.559	736.666	0.098	-0.260
-423.544	-113.434	-0.073	0.014
-422.530	106.249	-0.251	0.295
-421.515	800.000	-0.107	0.318
-420.500	800.000	-0.018	0.075
-419.486	-145.387	0.310	0.028
-418.471	-21.721	-0.353	-0.214
-417.457	-64.301	-0.179	0.072
-416.442	84.299	-0.170	0.185
-415.428	138.606	-0.100	-0.130
-414.413	431.926	-0.090	0.194
-413.398	542.914	-0.056	-0.132
-412.384	16.278	-0.077	0.061
-411.369	800.000	-0.064	0.193
-410.355	57.965	-0.193	-0.187
-409.340	-200.000	-0.033	-0.403
-408.325	135.462	-0.051	-0.066
-407.311	71.532	-0.174	-0.179
-406.296	800.000	0.098	0.286
-405.282	97.345	-0.194	0.221
-404.267	756.489	0.075	0.201
-403.252	-111.829	-0.185	-0.037
-402.238	-119.396	0.301	0.052
-401.223	81.524	-0.067	0.072
-400.209	-20.375	-0.160	0.098
-399.194	-200.000	-0.010	0.080
-398.179	7.144	-0.198	0.146
-397.165	457.084	-0.104	0.228
-396.150	290.195	-0.126	0.227
-395.136	-171.313	0.268	0.009
-394.121	279.056	-0.027	0.049
-393.106	-41.356	0.181	0.093
-392.092	3.902	-0.158	0.115
-391.077	800.000	-0.108	-0.454
-390.063	168.917	0.174	-0.247
-389.048	-96.706	-0.313	-0.082
-388.033	800.000	0.075	-0.227
-387.019	-29.694	0.286	0.162
-386.004	403.470	0.103	0.214
-384.990	547.807	-0.052	-0.124
-383.975	-115.043	0.162	-0.030
-382.960	-200.000	0.010	-0.071
-381.946	-200.000	0.014	0.109
-380.931	-20.459	-0.325	-0.198
-379.917	13.300	0.146	-0.112
-378.902	138.316	0.118	-0.154
-377.888	-200.000	0.007	0.052
-376.873	-200.000	0.011	0.142
-375.858	587.031	-0.067	0.164
-374.844	11.030	-0.097	-0.073
-373.829	24.737	-0.180	-0.148
-372.815	-200.000	0.059	-0.396
-371.800	800.000	-0.142	0.496
-370.785	-44.500	-0.193	0.096
-369.771	-65.206	-0.070	-0.028
-368.756	-49.446	-0.337	0.159
-367.742	-34.485	0.294	-0.159
-366.727	-126.334	-0.258	0.038
-365.712	128.522	-0.220	-0.278
-364.698	-183.190	-0.255	0.004
-363.683	10.611	-0.216	-0.163
-362.669	-76.725	0.225	0.078
-361.654	800.000	-0.044	0.175
-360.639	453.824	-0.040	-0.088
-359.625	89.030	-0.251	0.277
-358.610	-45.330	-0.097	-0.048
-357.596	87.903	-0.087	-0.095
-356.581	-73.659	-0.177	0.064
-355.566	800.000	-0.051	-0.215
-354.552	800.000	0.054	0.231
-353.537	141.470	0.210	0.275
-352.523	447.393	0.081	-0.176
-351.508	-200.000	0.044	0.322
-350.493	84.085	0.167	-0.180
-349.479	-3.138	0.269	-0.186
-348.464	800.000	0.032	-0.095
-347.450	79.629	0.186	-0.198
-346.435	-42.733	-0.166	-0.084
-345.420	-200.000	0.061	0.432
-344.406	-70.089	-0.116	0.044
-343.391	-118.750	0.149	0.026
-342.377	-156.935	-0.042	0.003
-341.362	-200.000	-0.007	-0.163
-340.348	223.245	-0.194	0.310
-339.333	-134.025	0.254	0.031
-338.318	-61.284	-0.160	-0.067
-337.304	-200.000	-0.012	-0.268
-336.289	-66.184	0.181	0.072
-335.275	339.701	-0.152	0.292
-334.260	633.124	-0.136	-0.342
-333.245	626.046	0.038	-0.094
-332.231	666.318	0.078	-0.199
-331.216	-3.954	0.356	-0.244
-330.202	-53.564	0.180	0.082
-329.187	-32.258	0.174	0.096
-328.172	-200.000	-0.047	0.406
-327.158	-200.000	-0.028	-0.123
-326.143	-63.460	-0.049	-0.020
-325.129	-69.127	0.336	0.128
-324.114	573.512	-0.061	-0.147
-323.099	100.311	0.048	-0.055
-322.085	800.000	0.076	0.321
-321.070	14.285	-0.270	-0.208
-320.056	-148.937	0.445	0.035
-319.041	800.000	0.017	0.072
-318.026	-137.393	0.326	0.037
-317.012	362.357	-0.025	0.049
-315.997	800.000	-0.133	0.368
-314.983	-192.464	-0.431	0.004
-313.968	-24.860	0.157	0.092
-312.953	130.636	0.222	-0.281
-311.939	612.643	-0.072	-0.179
-310.924	-154.054	0.267	0.018
-309.910	679.380	0.108	0.278
-308.895	-60.975	0.104	0.043
-307.880	474.873	0.088	0.196
-306.866	128.418	0.041	-0.052
-305.851	267.733	-0.023	-0.039
-304.837	61.661	0.178	-0.175
-303.822	800.000	0.071	0.273
-302.807	800.000	0.037	-0.130
-301.793	148.397	0.137	-0.184
-300.778	800.000	-0.057	0.165
-299.764	50.411	-0.321	0.300
-298.749	-200.000	-0.002	0.073
-297.735	-142.527	0.276	-0.027
-296.720	-140.539	-0.370	0.038
-295.705	-200.000	0.019	-0.106
-294.691	-200.000	0.019	-0.211
-293.676	800.000	0.040	-0.114
-292.662	211.118	-0.060	-0.093
-291.647	265.952	-0.118	-0.204
-290.632	-74.777	-0.241	-0.086
-289.618	-33.267	-0.205	-0.112
-288.603	421.283	-0.149	-0.315
-287.589	-200.000	-0.078	0.372
-286.574	-200.000	-0.020	0.172
-285.559	800.000	0.060	-0.234
-284.545	800.000	-0.077	-0.228
-283.530	345.756	-0.053	0.103
-282.516	-200.000	0.001	-0.218
-281.501	-99.407	-0.282	-0.070
-280.486	118.031	0.073	0.089
-279.472	-148.195	-0.231	-0.019
-278.457	-31.416	0.123	-0.068
-277.443	-200.000	-0.027	0.120
-276.428	42.140	0.150	0.135
-275.413	-60.204	0.158	0.066
-274.399	583.385	0.130	-0.316
-273.384	800.000	-0.136	0.444
-272.370	43.763	-0.304	0.275
-271.355	66.236	0.285	0.286
-270.340	-200.000	0.014	0.315
-269.326	-95.682	-0.377	-0.100
-268.311	-19.379	-0.321	0.197
-267.297	-31.763	-0.192	0.106
-266.282	-68.064	0.204	0.079
-265.267	-98.665	-0.089	-0.022
-264.253	-31.143	-0.085	0.047
-263.238	2.321	-0.052	0.037
-262.224	201.651	0.059	0.090
-261.209	-22.562	-0.194	0.116
-260.195	352.739	0.133	-0.260
-259.180	800.000	0.042	-0.147
-258.165	229.263	-0.176	-0.283
-257.151	-200.000	-0.026	0.222
-256.136	-105.369	0.186	0.042
-255.122	800.000	0.070	0.204
-254.107	800.000	-0.055	-0.226
-253.092	29.429	0.182	-0.153
-252.078	-35.274	-0.048	0.026
-251.063	194.065	-0.134	0.201
-250.049	-99.504	0.151	-0.037
-249.034	23.387	0.013	-0.011
-248.019	31.527	0.117	-0.100
-247.005	-14.184	-0.121	-0.077
-245.990	-164.763	-0.260	0.012
-244.976	100.629	0.064	-0.073
-243.961	-200.000	-0.003	-0.045
-242.946	-139.007	0.335	-0.036
-241.932	496.175	0.100	0.227
-240.917	96.538	-0.184	-0.208
-239.903	-200.000	0.026	0.133
-238.888	-124.478	-0.442	-0.068
-237.873	-148.830	0.353	0.028
-236.859	-162.942	0.205	-0.010
-235.844	-200.000	-0.021	-0.164
-234.830	5.602	0.165	-0.120
-233.815	-53.960	0.408	-0.183
-232.800	438.515	-0.067	0.144
-231.786	-200.000	0.029	0.194
-230.771	448.987	0.197	0.428
-229.757	800.000	0.050	-0.162
-228.742	751.662	0.085	-0.226
-227.727	42.245	-0.113	-0.101
-226.713	-85.589	-0.138	0.042
-225.698	331.359	-0.102	-0.193
-224.684	-117.292	0.297	0.053
-223.669	-200.000	-0.016	-0.302
-222.655	99.045	-0.092	0.105
-221.640	139.155	0.082	-0.106
-220.625	-200.000	-0.008	0.100
-219.611	553.798	0.075	-0.177
-218.596	-11.077	-0.035	-0.023
-217.582	-200.000	0.056	0.280
-216.567	167.985	0.085	-0.120
-215.552	559.562	0.133	-0.317
-214.538	222.738	-0.017	-0.027
-213.523	259.954	-0.125	0.212
-212.509	-110.013	-0.306	0.063
-211.494	-81.808	0.092	-0.030
-210.479	368.331	0.069	0.138
-209.465	-121.423	0.286	0.047
-208.450	800.000	-0.093	0.276
-207.436	-50.794	0.115	-0.053
-206.421	5.577	0.120	-0.088
-205.406	-93.037	0.319	-0.088
-204.392	-77.935	-0.079	-0.027
-203.377	26.280	0.222	0.183
-202.363	98.511	0.151	0.172
-201.348	236.332	0.112	0.182
-200.333	-200.000	-0.025	-0.221
-199.319	294.442	-0.094	-0.170
-198.304	-122.638	0.371	-0.059
-197.290	250.528	-0.133	0.222
-196.275	290.520	-0.033	0.059
-195.260	800.000	-0.090	0.269
-194.246	-140.020	-0.422	0.044
-193.231	213.428	0.140	0.218
-192.217	800.000	-0.058	0.173
-191.202	48.866	0.155	0.143
-190.187	-136.808	-0.147	-0.017
-189.173	-151.687	0.370	0.027
-188.158	54.013	0.133	0.125
-187.144	-200.000	-0.048	-0.330
-186.129	189.425	-0.062	0.091
-185.114	-149.451	0.253	0.020
-184.100	-90.065	-0.384	-0.110
-183.085	-48.322	0.155	0.074
-182.071	316.691	-0.153	-0.285
-181.056	28.241	0.288	0.240
-180.042	-200.000	-0.003	0.131
-179.027	230.457	0.127	-0.204
-178.012	207.992	0.079	-0.121
-176.998	-38.637	0.371	0.193
-175.983	800.000	-0.061	-0.181
-174.969	262.582	-0.159	-0.272
-173.954	212.403	0.150	-0.232
-172.939	-15.953	-0.183	0.115
-171.925	85.309	-0.151	-0.163
-170.910	-128.323	-0.229	0.032
-169.896	-200.000	0.021	-0.098
-168.881	166.765	0.092	-0.128
-167.866	42.433	0.146	0.131
-166.852	-200.000	0.023	-0.174
-165.837	-78.482	0.395	-0.133
-164.823	-9.808	-0.081	0.053
-163.808	-52.440	0.092	-0.042
-162.793	-147.870	-0.441	0.036
-161.779	65.170	-0.163	-0.162
-160.764	-200.000	0.016	0.137
-159.750	-200.000	0.049	0.284
-158.735	-30.138	-0.170	0.095
-157.720	-107.372	-0.155	-0.034
-156.706	-3.477	-0.233	-0.159
-155.691	800.000	-0.040	0.121
-154.677	-55.342	-0.016	-0.007
-153.662	6.656	-0.060	-0.044
-152.647	358.775	-0.120	0.236
-151.633	602.058	0.074	-0.180
-150.618	525.818	0.040	-0.093
-149.604	-100.447	-0.406	0.099
-148.589	-43.979	-0.086	0.042
-147.574	-137.571	-0.005	0.001
-146.560	-100.225	0.282	0.069
-145.545	295.019	-0.221	0.397
-144.531	46.677	0.151	-0.138
-143.516	-33.758	-0.225	-0.122
-142.502	168.283	0.144	-0.202
-141.487	800.000	0.070	0.249
-140.472	31.916	-0.135	-0.114
-139.458	463.851	0.087	-0.190
-138.443	-200.000	-0.031	0.225
-137.429	-62.212	0.101	-0.041
-136.414	-200.000	0.047	-0.399
-135.399	-200.000	-0.009	0.370
-134.385	-88.813	-0.144	0.042
-133.370	-29.467	-0.242	0.136
-132.356	-75.592	0.123	-0.043
-131.341	-117.220	-0.188	0.034
-130.326	-136.691	-0.160	0.018
-129.312	232.128	0.023	0.036
-128.297	431.551	-0.214	-0.456
-127.283	-165.923	0.085	-0.004
-126.268	-11.726	-0.150	0.097
-125.253	-5.670	-0.264	0.177
-124.239	-17.251	-0.122	-0.076
-123.224	-31.119	-0.125	0.069
-122.210	387.716	0.102	-0.207
-121.195	181.222	0.138	-0.199
