DTS Sentinel unit serial number:	SN413079Multiplexer serial number:	ORYXHardware model number:	OX4-SRSoftware version number:	ORYX F/W v4.00 Oryx Data Collector v3.7.2.0data status	okinstallation	princeton_trtdifferential loss correction	single-endedforward channel	channel 3reverse channel	N/Adate	2019/09/17time	05:40:35forward acquisition time	60.00reverse acquisition time	0.00gamma	496.2192k internal	0.2326k external	0.2326temperature offset calibration	0.9942default loss term (dB/km)	0.3790temperature slope calibration	1.0000multiplexer offset coefficient	1.0000multiplexer slope coefficient	1.0000fibre end	0.00T internal ref (°C)	29.12T ext. ref 1 (°C)	0.13T ext. ref 2 (°C)	22.87length (m)	temperature (°C)	Stokes	anti-Stokes-747.200	-145.145	-0.408	0.037
-746.185	285.081	-0.142	0.258
-745.171	-200.000	-0.015	-0.092
-744.156	-65.909	-0.191	-0.077
-743.142	75.373	0.100	0.107
-742.127	-101.162	-0.372	-0.092
-741.112	331.425	0.120	-0.233
-740.098	-155.550	-0.484	0.031
-739.083	-200.000	0.004	-0.053
-738.069	800.000	-0.066	0.206
-737.054	-151.032	-0.285	-0.022
-736.039	-14.211	-0.201	0.130
-735.025	-71.446	0.275	0.104
-734.010	-200.000	0.029	-0.237
-732.996	-200.000	-0.021	-0.213
-731.981	161.643	-0.164	-0.231
-730.966	309.658	-0.227	0.427
-729.952	16.490	0.048	0.038
-728.937	343.225	-0.151	-0.299
-727.923	-200.000	0.009	0.207
-726.908	-59.828	-0.141	-0.061
-725.894	45.215	0.172	-0.159
-724.879	64.958	-0.239	-0.243
-723.864	-141.162	0.055	0.006
-722.850	365.472	0.044	0.089
-721.835	-164.773	-0.121	-0.005
-720.821	-200.000	0.014	0.134
-719.806	-71.408	0.317	0.120
-718.791	674.865	-0.249	0.651
-717.777	109.461	0.263	-0.318
-716.762	800.000	-0.090	-0.286
-715.748	-105.389	-0.411	0.094
-714.733	137.675	0.109	0.144
-713.718	-158.249	-0.371	0.022
-712.704	68.006	0.052	-0.053
-711.689	-134.663	0.127	-0.016
-710.675	800.000	-0.053	-0.232
-709.660	800.000	-0.086	0.375
-708.645	-187.003	0.073	0.001
-707.631	-1.378	-0.131	-0.093
-706.616	175.181	0.108	0.157
-705.602	-54.918	0.286	-0.130
-704.587	800.000	0.093	0.303
-703.572	-68.026	-0.216	0.085
-702.558	-155.163	-0.270	0.018
-701.543	102.132	-0.162	0.190
-700.529	118.232	-0.169	-0.210
-699.514	-155.750	0.378	0.024
-698.499	-59.822	0.062	-0.027
-697.485	-52.813	0.177	-0.082
-696.470	19.900	0.045	-0.037
-695.456	-94.115	-0.308	0.085
-694.441	383.569	-0.150	0.311
-693.426	294.459	-0.158	0.291
-692.412	-200.000	0.001	0.118
-691.397	70.654	0.112	0.116
-690.383	-3.377	0.095	0.067
-689.368	-189.557	-0.140	0.002
-688.354	-11.323	0.318	0.211
-687.339	-75.514	0.232	-0.083
-686.324	20.193	-0.257	0.209
-685.310	-83.116	-0.354	0.115
-684.295	-94.987	0.245	0.067
-683.281	-0.703	-0.375	0.268
-682.266	-152.599	0.121	0.009
-681.251	173.641	-0.103	-0.149
-680.237	449.285	-0.023	0.051
-679.222	-182.922	-0.190	0.003
-678.208	-82.186	-0.282	0.093
-677.193	-149.856	-0.132	0.010
-676.178	86.464	0.125	-0.138
-675.164	-193.974	0.248	-0.002
-674.149	-114.822	0.264	0.051
-673.135	641.042	0.025	-0.065
-672.120	-25.560	-0.072	-0.043
-671.105	122.040	-0.114	-0.143
-670.091	-200.000	0.010	0.102
-669.076	-8.042	-0.025	0.017
-668.062	-200.000	-0.016	0.225
-667.047	15.467	0.066	-0.052
-666.032	-35.181	-0.060	-0.033
-665.018	-87.135	0.280	0.086
-664.003	-51.015	-0.359	0.169
-662.989	-200.000	-0.017	0.522
-661.974	-165.611	0.139	0.006
-660.959	-86.028	-0.103	-0.032
-659.945	96.364	-0.089	0.103
-658.930	-82.559	0.273	0.089
-657.916	800.000	0.087	0.326
-656.901	-200.000	0.030	-0.201
-655.886	-29.433	-0.209	0.120
-654.872	338.027	0.085	0.166
-653.857	2.758	-0.117	-0.085
-652.843	443.561	-0.021	-0.046
-651.828	-124.712	-0.155	0.024
-650.814	-182.687	-0.333	-0.006
-649.799	-200.000	0.039	0.404
-648.784	190.443	-0.226	0.341
-647.770	232.069	-0.123	0.202
-646.755	-46.456	0.273	-0.135
-645.741	139.401	0.010	-0.013
-644.726	-6.964	-0.161	-0.110
-643.711	-73.748	0.101	-0.037
-642.697	-87.663	-0.227	0.069
-641.682	800.000	-0.039	-0.117
-640.668	-200.000	-0.012	-0.082
-639.653	-113.116	0.180	0.036
-638.638	-61.551	-0.131	-0.055
-637.624	-19.627	0.030	0.019
-636.609	-200.000	0.005	-0.108
-635.595	443.793	0.074	0.163
-634.580	40.701	-0.142	-0.128
-633.565	314.361	-0.040	0.075
-632.551	59.479	-0.134	0.133
-631.536	-100.675	0.159	-0.039
-630.522	-8.808	0.214	0.144
-629.507	-30.042	-0.217	-0.124
-628.492	-71.961	0.152	-0.057
-627.478	-158.894	0.038	0.002
-626.463	-101.661	0.346	0.084
-625.449	-20.503	0.298	-0.184
-624.434	34.469	0.155	0.136
-623.419	107.537	-0.337	-0.402
-622.405	-104.096	0.532	-0.124
-621.390	175.662	-0.044	0.064
-620.376	585.204	0.050	-0.122
-619.361	-66.971	-0.247	0.098
-618.346	215.013	-0.044	-0.070
-617.332	-39.287	0.110	-0.058
-616.317	-48.449	-0.098	0.047
-615.303	42.064	0.108	0.098
-614.288	50.736	0.044	0.042
-613.273	430.437	-0.107	0.232
-612.259	-85.542	0.161	0.050
-611.244	-145.718	0.071	0.006
-610.230	31.188	-0.078	0.067
-609.215	51.953	-0.038	-0.036
-608.201	44.568	-0.101	-0.093
-607.186	61.654	0.161	0.161
-606.171	-200.000	-0.029	-0.143
-605.157	800.000	0.071	-0.218
-604.142	-90.921	0.120	0.035
-603.128	94.712	-0.081	0.093
-602.113	-8.416	0.375	0.253
-601.098	683.396	-0.050	0.130
-600.084	244.123	-0.109	-0.184
-599.069	45.599	0.158	-0.146
-598.055	-133.359	0.184	0.023
-597.040	-113.399	-0.314	-0.062
-596.025	82.784	-0.094	0.102
-595.011	800.000	0.087	0.285
-593.996	360.527	-0.029	-0.059
-592.982	-75.131	-0.179	0.064
-591.967	-200.000	-0.009	0.163
-590.952	-4.789	0.111	0.077
-589.938	56.849	0.062	0.060
-588.923	-3.191	-0.253	-0.177
-587.909	-200.000	-0.015	0.115
-586.894	800.000	0.041	-0.157
-585.879	168.085	-0.129	0.183
-584.865	6.355	-0.226	-0.168
-583.850	129.447	-0.005	-0.006
-582.836	-200.000	0.056	0.277
-581.821	-33.286	0.082	0.045
-580.806	-200.000	0.003	-0.060
-579.792	84.316	0.112	0.123
-578.777	48.433	-0.177	-0.166
-577.763	24.761	-0.153	0.127
-576.748	145.888	0.223	0.300
-575.733	48.500	-0.172	-0.162
-574.719	-15.697	-0.270	0.172
-573.704	517.429	0.142	-0.333
-572.690	-116.308	0.399	-0.074
-571.675	-132.530	-0.423	-0.054
-570.661	4.295	0.157	0.115
-569.646	-198.730	-0.320	0.002
-568.631	-200.000	0.027	-0.392
-567.617	468.162	0.193	-0.433
-566.602	-148.491	-0.176	-0.014
-565.588	-200.000	-0.002	0.131
-564.573	-200.000	0.001	0.671
-563.558	-200.000	-0.070	-0.322
-562.544	800.000	-0.052	0.180
-561.529	-200.000	0.011	0.121
-560.515	-95.343	-0.133	-0.036
-559.500	-179.945	-0.388	-0.008
-558.485	-41.611	-0.095	-0.049
-557.471	249.524	0.118	-0.200
-556.456	-39.479	-0.200	-0.105
-555.442	-200.000	-0.005	0.094
-554.427	800.000	0.062	0.188
-553.412	-140.043	-0.115	-0.012
-552.398	-83.801	-0.233	-0.074
-551.383	138.130	-0.251	-0.330
-550.369	-200.000	0.038	-0.266
-549.354	-71.721	-0.507	-0.189
-548.339	-200.000	0.012	0.142
-547.325	16.871	0.068	-0.054
-546.310	-124.356	-0.237	0.037
-545.296	116.597	0.125	0.154
-544.281	549.101	-0.110	-0.264
-543.266	-113.769	-0.148	-0.029
-542.252	226.852	0.050	-0.081
-541.237	-43.114	-0.145	0.074
-540.223	-200.000	-0.017	-0.110
-539.208	800.000	-0.026	-0.101
-538.193	37.340	-0.114	0.101
-537.179	800.000	-0.077	-0.242
-536.164	-200.000	-0.036	-0.362
-535.150	184.812	0.201	0.299
-534.135	132.523	0.313	-0.404
-533.121	-140.946	0.342	-0.035
-532.106	-73.652	0.322	-0.117
-531.091	-61.131	0.145	0.061
-530.077	51.943	-0.079	-0.075
-529.062	800.000	0.047	-0.143
-528.048	-200.000	0.025	-0.134
-527.033	-120.315	0.159	0.027
-526.018	98.486	0.259	0.299
-525.004	16.362	-0.372	0.293
-523.989	-171.594	-0.247	-0.008
-522.975	-200.000	0.050	-0.224
-521.960	80.899	0.095	0.102
-520.945	-82.107	-0.503	-0.164
-519.931	323.465	-0.142	0.271
-518.916	800.000	0.067	-0.243
-517.902	41.115	0.097	-0.088
-516.887	-200.000	-0.001	0.357
-515.872	-144.035	-0.256	0.024
-514.858	-200.000	0.015	-0.223
-513.843	800.000	0.013	0.055
-512.829	149.220	-0.054	-0.073
-511.814	-200.000	-0.032	-0.141
-510.799	-126.216	0.454	-0.068
-509.785	77.180	-0.225	-0.239
-508.770	316.265	0.070	-0.133
-507.756	174.884	-0.117	-0.169
-506.741	-79.242	0.175	0.059
-505.726	600.458	0.007	-0.018
-504.712	588.517	0.083	-0.204
-503.697	-200.000	-0.001	0.213
-502.683	97.405	-0.076	-0.087
-501.668	228.608	0.145	0.237
-500.653	146.930	0.072	-0.097
-499.639	26.341	0.092	-0.077
-498.624	-200.000	0.035	-0.218
-497.610	434.164	-0.076	0.164
-496.595	-200.000	0.012	0.227
-495.581	-39.267	-0.079	0.041
-494.566	800.000	0.105	0.332
-493.551	800.000	-0.112	0.322
-492.537	-34.241	0.336	-0.184
-491.522	-103.071	-0.169	0.040
-490.508	-153.687	-0.218	0.015
-489.493	171.348	0.113	-0.161
-488.478	-10.562	-0.419	-0.277
-487.464	204.521	0.173	0.267
-486.449	83.603	-0.117	0.127
-485.435	-152.703	-0.179	0.013
-484.420	800.000	-0.040	0.144
-483.405	-37.366	-0.129	-0.069
-482.391	-147.603	0.228	0.019
-481.376	-100.116	0.279	-0.069
-480.362	-82.719	0.181	-0.059
-479.347	-200.000	-0.286	0.001
-478.332	135.111	0.168	-0.218
-477.318	117.706	0.062	0.077
-476.303	144.831	-0.116	-0.154
-475.289	187.655	0.135	0.201
-474.274	212.034	-0.236	-0.372
-473.259	-200.000	-0.028	0.234
-472.245	328.590	0.113	0.217
-471.230	800.000	0.048	0.165
-470.216	-83.078	-0.305	-0.098
-469.201	318.208	0.139	0.263
-468.186	-200.000	-0.015	0.090
-467.172	105.872	0.194	-0.230
-466.157	38.988	0.182	0.162
-465.143	83.894	-0.193	-0.210
-464.128	16.305	0.149	-0.117
-463.113	-145.986	-0.059	0.005
-462.099	800.000	0.069	-0.197
-461.084	-200.000	0.014	0.225
-460.070	-43.403	-0.106	0.053
-459.055	157.384	0.165	0.228
-458.040	-200.000	-0.059	0.308
-457.026	-200.000	0.004	0.031
-456.011	119.221	-0.196	0.242
-454.997	-200.000	0.020	-0.154
-453.982	7.490	0.072	-0.054
-452.968	124.818	0.145	-0.183
-451.953	367.278	0.128	-0.257
-450.938	6.644	-0.327	0.242
-449.924	-135.520	0.252	0.030
-448.909	-38.565	-0.227	0.120
-447.895	268.597	-0.066	-0.115
-446.880	-47.524	-0.298	0.144
-445.865	174.511	-0.137	0.197
-444.851	-164.678	-0.164	0.007
-443.836	-129.315	0.326	0.045
-442.822	-150.197	0.107	0.008
-441.807	-70.518	-0.266	-0.100
-440.792	-109.953	-0.366	-0.076
-439.778	96.471	-0.142	-0.162
-438.763	80.766	0.120	0.129
-437.749	789.492	-0.057	0.156
-436.734	-81.094	0.227	-0.075
-435.719	-167.161	-0.213	-0.009
-434.705	207.213	0.273	0.425
-433.690	-123.639	0.156	0.025
-432.676	653.866	-0.089	-0.228
-431.661	-73.722	0.125	-0.045
-430.646	436.374	0.101	0.219
-429.632	-200.000	-0.040	-0.214
-428.617	260.690	-0.108	0.187
-427.603	229.824	0.182	-0.296
-426.588	800.000	-0.115	-0.444
-425.573	-9.159	0.158	0.106
-424.559	587.984	-0.155	-0.380
-423.544	-12.506	0.095	0.062
-422.530	76.340	0.209	-0.221
-421.515	-200.000	-0.025	-0.379
-420.500	360.540	0.053	0.105
-419.486	57.669	-0.209	0.204
-418.471	-54.969	-0.098	0.044
-417.457	800.000	0.048	-0.145
-416.442	344.747	-0.150	-0.292
-415.428	18.686	-0.083	-0.066
-414.413	-145.505	0.178	-0.016
-413.398	800.000	0.046	-0.158
-412.384	-200.000	-0.037	-0.178
-411.369	14.954	-0.229	0.178
-410.355	517.074	0.161	-0.375
-409.340	-200.000	0.070	0.323
-408.325	160.552	0.206	-0.286
-407.311	-12.666	-0.308	-0.200
-406.296	-22.792	-0.236	0.142
-405.282	-200.000	-0.026	-0.140
-404.267	-200.000	-0.139	0.000
-403.252	-200.000	0.037	-0.337
-402.238	127.170	0.241	0.305
-401.223	800.000	0.144	0.440
-400.209	625.445	0.048	0.120
-399.194	-158.262	0.202	0.012
-398.179	213.528	0.021	-0.034
-397.165	569.598	-0.019	-0.045
-396.150	91.392	-0.206	0.230
-395.136	800.000	-0.122	0.366
-394.121	6.500	0.100	0.074
-393.106	58.045	0.172	-0.168
-392.092	306.751	0.085	0.158
-391.077	-88.522	0.522	-0.155
-390.063	-89.369	0.309	0.091
-389.048	-12.704	-0.151	-0.098
-388.033	-170.189	0.168	0.006
-387.019	-200.000	-0.007	-0.202
-386.004	-41.096	-0.203	0.104
-384.990	-38.233	-0.122	-0.065
-383.975	800.000	0.110	0.310
-382.960	91.253	-0.010	0.011
-381.946	-200.000	-0.034	0.297
-380.931	-62.880	-0.176	0.072
-379.917	12.741	0.202	0.155
-378.902	176.260	-0.091	0.132
-377.888	251.980	0.178	-0.302
-376.873	-190.783	0.099	0.001
-375.858	-87.355	-0.141	0.043
-374.844	800.000	-0.044	-0.140
-373.829	-84.560	-0.290	-0.091
-372.815	387.707	0.294	0.605
-371.800	143.233	-0.171	-0.226
-370.785	31.697	-0.039	-0.034
-369.771	269.339	0.245	-0.428
-368.756	5.663	-0.151	-0.111
-367.742	356.613	-0.078	0.155
-366.727	402.070	-0.058	0.121
-365.712	-133.240	0.147	-0.018
-364.698	155.926	-0.210	0.288
-363.683	87.893	-0.091	-0.101
-362.669	-200.000	0.052	-0.402
-361.654	-88.672	0.046	-0.014
-360.639	-127.421	-0.119	-0.017
-359.625	305.921	0.036	0.067
-358.610	-18.835	-0.396	0.245
-357.596	125.657	0.158	-0.198
-356.581	-200.000	0.057	0.268
-355.566	188.422	0.228	0.338
-354.552	-77.244	0.089	0.031
-353.537	-180.598	0.507	0.010
-352.523	50.032	-0.218	0.204
-351.508	93.184	-0.256	0.287
-350.493	513.099	-0.156	-0.362
-349.479	66.306	-0.213	-0.215
-348.464	-148.167	0.284	-0.023
-347.450	-104.006	0.030	-0.007
-346.435	306.586	0.078	0.144
-345.420	-200.000	-0.010	-0.122
-344.406	-105.208	0.446	0.101
-343.391	-75.888	0.279	0.098
-342.377	59.459	-0.147	-0.144
-341.362	-91.068	-0.329	-0.094
-340.348	727.114	0.081	0.214
-339.333	82.757	-0.128	0.138
-338.318	-36.123	0.107	0.058
-337.304	-122.244	0.116	-0.019
-336.289	-38.879	0.081	0.043
-335.275	-18.744	-0.084	-0.052
-334.260	504.441	0.085	-0.195
-333.245	-25.004	0.298	0.175
-332.231	-200.000	0.000	-0.032
-331.216	-93.356	0.069	0.019
-330.202	322.815	0.039	-0.074
-329.187	629.089	-0.064	-0.160
-328.172	-96.396	-0.219	-0.058
-327.158	60.470	-0.240	-0.236
-326.143	-200.000	0.002	0.145
-325.129	11.321	-0.353	-0.268
-324.114	-141.410	-0.220	0.022
-323.099	-150.010	0.209	-0.016
-322.085	143.698	0.065	0.086
-321.070	-200.000	0.124	0.001
-320.056	299.580	-0.135	-0.248
-319.041	595.483	-0.091	-0.224
-318.026	566.704	-0.125	0.302
-317.012	-26.192	0.224	-0.131
-315.997	-200.000	-0.016	-0.091
-314.983	-71.498	0.239	0.089
-313.968	557.882	-0.143	0.341
-312.953	-50.855	0.247	0.115
-311.939	28.239	0.154	-0.129
-310.924	-137.510	-0.017	-0.002
-309.910	-2.293	-0.041	0.028
-308.895	320.541	0.181	0.341
-307.880	-95.277	0.129	-0.035
-306.866	-36.062	-0.197	-0.105
-305.851	-200.000	-0.026	-0.363
-304.837	180.452	0.070	0.102
-303.822	225.504	0.145	-0.232
-302.807	181.625	0.025	-0.037
-301.793	-14.587	-0.137	0.087
-300.778	11.386	-0.106	0.080
-299.764	98.350	-0.056	-0.064
-298.749	42.367	-0.470	-0.423
-297.735	115.813	-0.298	0.362
-296.720	-200.000	-0.026	0.227
-295.705	21.005	-0.087	-0.070
-294.691	-97.637	0.335	0.086
-293.676	0.822	0.094	-0.067
-292.662	-69.400	-0.331	-0.126
-291.647	2.975	-0.303	-0.218
-290.632	-200.000	0.033	-0.163
-289.618	-182.496	0.432	0.008
-288.603	-87.847	-0.401	0.120
-287.589	800.000	-0.101	0.393
-286.574	-11.705	0.382	-0.249
-285.559	474.940	0.115	0.256
-284.545	98.498	0.166	-0.189
-283.530	145.668	0.255	0.339
-282.516	-39.894	-0.090	-0.046
-281.501	39.167	0.100	0.089
-280.486	18.181	-0.292	0.231
-279.472	-34.971	-0.202	-0.109
-278.457	-33.552	0.316	0.173
-277.443	-200.000	0.001	0.284
-276.428	-47.363	0.172	-0.083
-275.413	24.135	0.166	-0.135
-274.399	-19.606	0.137	0.084
-273.384	59.032	-0.299	0.291
-272.370	-65.949	0.250	-0.099
-271.355	-9.093	-0.254	0.168
-270.340	212.171	-0.099	-0.154
-269.326	800.000	0.047	0.186
-268.311	-200.000	0.005	-0.100
-267.297	38.690	0.118	0.104
-266.282	-76.587	0.256	-0.089
-265.267	-64.138	0.083	0.034
-264.253	-103.270	-0.170	-0.040
-263.238	-200.000	-0.008	-0.171
-262.224	-200.000	0.002	-0.304
-261.209	-74.502	-0.365	-0.130
-260.195	-200.000	-0.040	0.242
-259.180	20.719	0.132	-0.106
-258.165	-116.265	-0.132	-0.024
-257.151	-5.249	0.111	0.076
-256.136	191.048	0.208	0.310
-255.122	6.765	-0.130	0.096
-254.107	-200.000	0.032	0.186
-253.092	-133.170	-0.171	-0.021
-252.078	-200.000	-0.008	-0.172
-251.063	281.217	-0.059	0.105
-250.049	58.082	-0.059	-0.058
-249.034	158.442	0.060	-0.082
-248.019	176.732	-0.102	-0.146
-247.005	-134.732	-0.112	0.014
-245.990	800.000	0.024	-0.084
-244.976	623.063	0.050	0.124
-243.961	156.346	-0.220	-0.300
-242.946	-200.000	0.000	-0.143
-241.932	-67.269	0.182	0.071
-240.917	38.934	-0.058	0.051
-239.903	18.174	0.035	-0.027
-238.888	-134.487	0.172	0.021
-237.873	-120.204	-0.353	0.060
-236.859	-118.452	0.437	-0.077
-235.844	14.656	0.071	-0.055
-234.830	63.296	-0.122	-0.121
-233.815	-88.646	0.245	-0.072
-232.800	122.136	0.074	0.091
-231.786	413.323	-0.023	-0.049
-230.771	-63.456	0.035	0.014
-229.757	-130.448	0.333	0.045
-228.742	800.000	0.071	0.196
-227.727	256.471	0.038	-0.065
-226.713	-200.000	0.005	-0.191
-225.698	-73.325	0.049	-0.018
-224.684	-10.665	-0.153	-0.100
-223.669	-78.528	0.152	0.051
-222.655	429.043	-0.130	-0.278
-221.640	10.082	-0.118	-0.089
-220.625	-38.379	0.107	0.056
-219.611	568.787	-0.061	-0.146
-218.596	-124.941	0.295	-0.045
-217.582	194.094	0.189	-0.283
-216.567	-84.817	-0.111	0.034
-215.552	458.588	0.185	0.406
-214.538	-200.000	-0.001	-0.056
-213.523	258.131	0.062	-0.106
-212.509	24.303	-0.162	-0.133
-211.494	184.032	-0.230	0.336
-210.479	-23.312	-0.184	-0.109
-209.465	-73.202	-0.375	0.136
-208.450	-200.000	0.016	0.174
-207.436	-200.000	-0.103	-0.451
-206.421	164.405	-0.177	-0.247
-205.406	-200.000	0.006	0.176
-204.392	-165.040	-0.226	-0.010
-203.377	224.409	0.145	0.231
-202.363	800.000	0.096	0.328
-201.348	429.176	0.057	0.122
-200.333	-187.290	0.077	-0.001
-199.319	226.389	-0.065	0.105
-198.304	800.000	0.045	0.139
-197.290	241.569	0.057	-0.094
-196.275	-161.090	0.118	0.006
-195.260	-34.801	0.232	-0.125
-194.246	-88.288	0.139	0.041
-193.231	-116.143	-0.516	-0.095
-192.217	614.250	-0.119	-0.294
-191.202	-200.000	0.025	-0.218
-190.187	-200.000	-0.014	-0.404
-189.173	176.620	0.087	0.125
-188.158	10.433	0.199	-0.150
-187.144	205.361	-0.013	-0.019
-186.129	3.672	0.378	0.272
-185.114	800.000	-0.074	-0.214
-184.100	-113.551	-0.148	0.029
-183.085	761.917	0.185	-0.495
-182.071	-200.000	0.031	0.386
-181.056	-6.850	-0.335	0.225
-180.042	-104.762	0.135	0.031
-179.027	98.769	-0.143	0.163
-178.012	40.605	-0.156	0.139
-176.998	800.000	0.058	0.245
-175.983	0.411	0.120	-0.085
-174.969	396.788	0.074	-0.153
-173.954	117.989	-0.198	-0.241
-172.939	128.357	-0.138	0.173
-171.925	-200.000	0.039	0.211
-170.910	-200.000	0.045	0.279
-169.896	-124.826	-0.109	-0.017
-168.881	-73.208	0.259	-0.094
-167.866	178.532	0.115	0.165
-166.852	50.551	-0.197	-0.184
-165.837	13.287	-0.171	-0.131
-164.823	-38.552	-0.115	-0.060
-163.808	655.035	-0.088	0.223
-162.793	25.256	-0.369	-0.302
-161.779	625.283	-0.017	-0.043
-160.764	-36.589	0.133	0.071
-159.750	-200.000	0.041	-0.217
-158.735	76.064	-0.204	0.213
-157.720	30.885	0.135	-0.114
-156.706	-32.312	0.263	0.145
-155.691	239.037	-0.057	0.094
-154.677	-177.580	0.396	-0.010
-153.662	188.359	0.326	0.480
-152.647	504.934	0.046	-0.105
-151.633	-4.151	0.381	0.260
-150.618	-39.009	-0.301	-0.156
-149.604	-55.961	0.244	-0.107
-148.589	-172.606	0.209	0.007
-147.574	-89.851	0.315	-0.091
-146.560	644.541	0.066	0.166
-145.545	-200.000	0.047	0.283
-144.531	-72.918	-0.473	0.171
-143.516	78.095	0.175	-0.184
-142.502	-44.366	0.176	0.087
-141.487	-200.000	-0.040	-0.285
-140.472	-182.110	0.471	0.009
-139.458	-104.907	0.156	-0.035
-138.443	-139.433	0.340	0.036
-137.429	800.000	-0.060	-0.233
-136.414	-41.344	0.253	0.128
-135.399	-32.517	0.091	-0.050
-134.385	800.000	0.110	0.312
-133.370	542.823	-0.043	0.101
-132.356	59.176	0.059	-0.058
-131.341	-200.000	0.020	0.262
-130.326	253.036	0.282	0.474
-129.312	-136.999	0.070	-0.008
-128.297	-200.000	0.026	-0.167
-127.283	-24.990	0.051	-0.030
-126.268	56.684	-0.257	-0.246
-125.253	206.162	-0.064	0.098
-124.239	-199.359	0.205	-0.001
-123.224	-66.262	-0.257	0.101
-122.210	330.834	0.122	-0.230
-121.195	-102.545	0.524	-0.123
-120.180	188.872	-0.199	-0.293
