DTS Sentinel unit serial number:	SN413079Multiplexer serial number:	ORYXHardware model number:	OX4-SRSoftware version number:	ORYX F/W v4.00 Oryx Data Collector v3.7.2.0data status	okinstallation	princeton_trtdifferential loss correction	single-endedforward channel	channel 3reverse channel	N/Adate	2019/09/13time	04:04:35forward acquisition time	60.00reverse acquisition time	0.00gamma	496.2192k internal	0.2337k external	0.2337temperature offset calibration	1.0133default loss term (dB/km)	0.3790temperature slope calibration	1.0000multiplexer offset coefficient	1.0000multiplexer slope coefficient	1.0000fibre end	0.00T internal ref (°C)	26.98T ext. ref 1 (°C)	4.07T ext. ref 2 (°C)	21.27length (m)	temperature (°C)	Stokes	anti-Stokes-747.200	112.515	-0.233	-0.283
-746.185	42.852	-0.178	-0.163
-745.171	98.377	0.124	-0.143
-744.156	50.664	0.279	0.265
-743.142	-151.489	0.184	0.014
-742.127	164.132	-0.234	0.330
-741.112	595.111	-0.020	0.049
-740.098	-200.000	0.006	0.055
-739.083	-200.000	-0.002	0.023
-738.069	-3.812	-0.270	0.188
-737.054	-92.741	-0.187	0.053
-736.039	114.889	-0.192	-0.235
-735.025	-200.000	-0.061	-0.297
-734.010	-200.000	-0.014	-0.093
-732.996	-101.029	-0.159	0.039
-731.981	-142.559	-0.271	0.027
-730.966	201.485	-0.238	-0.368
-729.952	-108.805	0.400	-0.086
-728.937	39.941	-0.165	-0.148
-727.923	-123.146	0.158	-0.025
-726.908	111.756	-0.133	-0.161
-725.894	362.861	-0.020	-0.040
-724.879	-165.877	-0.142	0.006
-723.864	448.860	-0.085	-0.189
-722.850	56.142	-0.252	0.245
-721.835	79.460	-0.137	-0.148
-720.821	-165.955	-0.205	0.009
-719.806	-120.349	0.183	-0.031
-718.791	-200.000	0.001	-0.146
-717.777	800.000	0.073	0.220
-716.762	-200.000	-0.038	-0.238
-715.748	188.422	-0.320	-0.480
-714.733	283.641	0.064	-0.116
-713.718	170.064	0.097	0.140
-712.704	-200.000	0.010	-0.086
-711.689	56.545	-0.280	-0.273
-710.675	-60.078	-0.056	0.024
-709.660	-33.267	0.141	-0.078
-708.645	34.733	0.145	-0.127
-707.631	-200.000	0.030	0.171
-706.616	-14.598	0.224	-0.144
-705.602	216.566	0.126	0.201
-704.587	-120.903	-0.441	-0.074
-703.572	-76.716	-0.257	0.090
-702.558	-67.054	0.317	0.125
-701.543	149.246	0.134	0.182
-700.529	326.474	-0.025	-0.048
-699.514	-135.407	-0.114	0.014
-698.499	-200.000	-0.009	0.194
-697.485	-101.424	0.108	0.026
-696.470	143.082	0.091	0.121
-695.456	134.389	0.142	-0.184
-694.441	-34.357	-0.058	-0.032
-693.426	-165.640	0.328	0.014
-692.412	800.000	-0.120	0.346
-691.397	-113.466	-0.099	0.019
-690.383	6.824	0.180	-0.134
-689.368	-200.000	0.016	-0.299
-688.354	-174.314	-0.491	-0.014
-687.339	-123.167	0.229	-0.037
-686.324	800.000	0.012	0.048
-685.310	800.000	-0.053	0.155
-684.295	7.248	-0.156	-0.116
-683.281	-200.000	0.054	-0.323
-682.266	-200.000	-0.001	0.058
-681.251	-127.981	-0.313	-0.045
-680.237	-28.138	-0.172	-0.100
-679.222	-114.475	-0.349	0.067
-678.208	-77.969	-0.221	0.076
-677.193	800.000	-0.069	0.236
-676.178	162.906	0.195	-0.274
-675.164	-128.296	-0.317	0.045
-674.149	120.829	-0.141	0.175
-673.135	-51.055	0.191	0.089
-672.120	446.593	-0.111	-0.244
-671.105	264.291	0.037	-0.064
-670.091	291.593	0.157	-0.285
-669.076	-8.674	0.074	-0.050
-668.062	132.524	-0.062	-0.080
-667.047	-200.000	-0.047	0.492
-666.032	42.082	0.107	0.097
-665.018	-200.000	-0.008	0.127
-664.003	111.552	0.058	-0.070
-662.989	19.495	0.087	0.070
-661.974	-200.000	0.001	-0.024
-660.959	290.863	-0.169	-0.308
-659.945	800.000	-0.076	0.232
-658.930	-200.000	-0.009	0.133
-657.916	-148.554	-0.177	0.014
-656.901	392.432	0.157	0.326
-655.886	-152.327	-0.165	0.012
-654.872	-200.000	0.021	0.200
-653.857	-146.704	0.408	0.035
-652.843	-109.757	0.328	-0.069
-651.828	-200.000	-0.081	-0.618
-650.814	38.551	0.204	-0.182
-649.799	-200.000	0.029	0.135
-648.784	80.925	-0.099	0.107
-647.770	-65.165	-0.098	0.040
-646.755	-39.128	0.041	-0.022
-645.741	-109.892	0.079	-0.017
-644.726	430.792	-0.092	-0.199
-643.711	-21.427	0.171	-0.104
-642.697	-200.000	-0.007	-0.227
-641.682	46.720	-0.114	-0.106
-640.668	138.198	0.089	-0.117
-639.653	96.529	-0.168	0.192
-638.638	800.000	-0.044	-0.131
-637.624	-200.000	-0.003	-0.194
-636.609	-9.754	0.418	-0.279
-635.595	53.460	-0.195	0.187
-634.580	800.000	-0.014	-0.045
-633.565	-200.000	-0.018	-0.103
-632.551	800.000	0.060	0.250
-631.536	-53.832	-0.249	0.113
-630.522	-60.690	-0.299	-0.127
-629.507	800.000	0.084	0.308
-628.492	-54.883	0.269	-0.121
-627.478	-49.614	0.115	0.055
-626.463	717.360	0.159	-0.422
-625.449	470.280	0.095	-0.213
-624.434	-41.469	0.142	0.073
-623.419	-200.000	0.041	-0.253
-622.405	-200.000	-0.012	-0.126
-621.390	-40.494	-0.054	0.028
-620.376	-200.000	-0.027	-0.234
-619.361	-33.172	-0.269	-0.149
-618.346	-200.000	-0.087	-0.454
-617.332	690.460	0.163	0.426
-616.317	800.000	-0.019	-0.074
-615.303	-200.000	-0.001	-0.013
-614.288	694.701	-0.061	0.160
-613.273	-129.897	0.154	-0.021
-612.259	800.000	0.085	-0.313
-611.244	-115.934	0.373	-0.070
-610.230	-200.000	-0.021	-0.132
-609.215	-130.713	-0.176	-0.024
-608.201	481.383	0.152	-0.345
-607.186	223.109	-0.204	0.329
-606.171	400.966	0.151	0.317
-605.157	-113.149	0.131	-0.026
-604.142	252.270	0.036	-0.061
-603.128	-200.000	0.031	-0.270
-602.113	26.454	0.196	-0.163
-601.098	-200.000	-0.003	0.054
-600.084	-39.200	0.039	0.021
-599.069	-140.499	-0.384	-0.040
-598.055	399.517	0.095	-0.198
-597.040	-118.570	-0.230	-0.041
-596.025	800.000	0.089	0.355
-595.011	-134.992	-0.214	-0.026
-593.996	282.040	-0.093	0.166
-592.982	95.128	-0.133	0.151
-591.967	-200.000	-0.035	-0.229
-590.952	-200.000	-0.082	-0.455
-589.938	-200.000	0.092	0.447
-588.923	800.000	-0.030	0.108
-587.909	-200.000	-0.029	-0.215
-586.894	497.659	0.141	0.324
-585.879	-19.563	-0.243	0.150
-584.865	800.000	0.070	-0.305
-583.850	-107.145	-0.197	0.043
-582.836	-175.857	-0.194	-0.005
-581.821	3.794	0.072	0.053
-580.806	800.000	0.109	-0.328
-579.792	800.000	0.053	-0.196
-578.777	129.334	-0.074	0.094
-577.763	800.000	-0.035	-0.120
-576.748	146.129	0.061	0.082
-575.733	800.000	-0.086	-0.309
-574.719	800.000	0.062	0.177
-573.704	42.464	0.189	-0.172
-572.690	303.495	0.189	-0.349
-571.675	83.655	-0.090	0.098
-570.661	-119.671	-0.306	-0.053
-569.646	800.000	0.003	-0.014
-568.631	468.916	-0.079	-0.178
-567.617	-200.000	0.007	-0.209
-566.602	398.343	0.077	0.161
-565.588	-84.205	0.291	0.092
-564.573	-109.941	-0.246	-0.051
-563.558	-99.624	-0.249	-0.062
-562.544	-200.000	0.065	-0.506
-561.529	-51.202	0.371	-0.173
-560.515	-4.748	0.172	-0.118
-559.500	-161.390	-0.248	0.013
-558.485	30.833	-0.267	-0.228
-557.471	-200.000	0.054	0.325
-556.456	-123.299	-0.284	0.045
-555.442	159.296	0.140	-0.194
-554.427	-158.445	0.368	0.021
-553.412	138.410	-0.026	0.034
-552.398	443.782	0.089	0.194
-551.383	-200.000	0.040	0.531
-550.369	20.832	-0.109	-0.088
-549.354	-200.000	-0.011	0.161
-548.339	-60.864	0.353	0.149
-547.325	147.690	-0.072	-0.096
-546.310	-200.000	0.028	0.157
-545.296	29.790	0.196	-0.167
-544.281	-20.885	0.402	-0.246
-543.266	381.298	-0.200	-0.410
-542.252	286.614	-0.030	-0.054
-541.237	582.190	-0.009	0.021
-540.223	-200.000	0.044	0.213
-539.208	-200.000	0.031	-0.143
-538.193	800.000	-0.053	-0.178
-537.179	-58.715	-0.160	-0.069
-536.164	14.070	0.232	-0.180
-535.150	568.244	0.116	0.280
-534.135	-26.383	-0.221	0.129
-533.121	800.000	-0.085	-0.250
-532.106	-200.000	-0.029	-0.300
-531.091	-200.000	-0.001	-0.044
-530.077	-200.000	-0.001	0.067
-529.062	33.305	0.125	0.108
-528.048	-159.148	-0.325	-0.018
-527.033	41.821	0.064	0.058
-526.018	-66.279	0.240	-0.095
-525.004	-200.000	0.009	-0.170
-523.989	519.293	-0.133	-0.310
-522.975	-31.549	-0.059	0.033
-521.960	-107.521	-0.111	0.024
-520.945	263.452	0.157	-0.272
-519.931	-66.535	-0.089	-0.035
-518.916	800.000	0.012	0.054
-517.902	92.360	0.282	-0.316
-516.887	-200.000	0.024	-0.202
-515.872	-54.359	-0.084	0.038
-514.858	17.923	-0.181	-0.143
-513.843	192.198	0.133	-0.200
-512.829	16.692	0.129	0.102
-511.814	800.000	0.014	-0.056
-510.799	-200.000	0.049	0.412
-509.785	-32.817	-0.175	0.097
-508.770	-60.381	-0.342	0.145
-507.756	800.000	-0.101	-0.355
-506.741	494.656	0.102	0.233
-505.726	-200.000	0.017	-0.315
-504.712	-105.401	-0.344	0.078
-503.697	-45.780	-0.174	0.086
-502.683	-35.052	-0.105	0.057
-501.668	-185.947	0.143	0.002
-500.653	46.533	0.082	-0.076
-499.639	800.000	0.102	0.316
-498.624	-111.521	0.252	-0.051
-497.610	505.192	-0.197	-0.453
-496.595	800.000	0.018	-0.075
-495.581	-200.000	0.033	-0.273
-494.566	181.128	-0.196	-0.286
-493.551	-143.021	0.051	0.005
-492.537	800.000	0.084	-0.333
-491.522	89.001	0.025	-0.027
-490.508	-169.665	-0.255	0.009
-489.493	800.000	-0.082	-0.248
-488.478	-34.781	0.231	0.125
-487.464	120.614	-0.176	0.217
-486.449	-121.786	-0.305	-0.050
-485.435	-200.000	-0.020	0.136
-484.420	43.248	0.073	-0.066
-483.405	800.000	0.068	0.269
-482.391	10.623	-0.195	0.147
-481.376	-22.848	0.362	0.217
-480.362	800.000	-0.026	0.081
-479.347	52.513	0.145	-0.138
-478.332	-142.416	-0.370	0.036
-477.318	78.107	0.101	-0.107
-476.303	-200.000	0.056	-0.319
-475.289	379.207	0.156	0.318
-474.274	-75.931	-0.025	-0.009
-473.259	-173.255	-0.197	0.006
-472.245	-94.754	-0.179	-0.048
-471.230	-142.246	0.419	0.041
-470.216	-53.734	-0.229	0.104
-469.201	-85.608	0.324	0.100
-468.186	115.505	0.118	0.143
-467.172	-165.304	-0.116	0.005
-466.157	-101.489	0.202	-0.049
-465.143	800.000	0.038	-0.153
-464.128	800.000	0.013	0.051
-463.113	800.000	0.073	-0.204
-462.099	-40.218	-0.167	0.086
-461.084	-102.187	-0.369	0.088
-460.070	20.721	0.048	0.038
-459.055	150.325	-0.054	-0.073
-458.040	194.742	0.089	0.134
-457.026	747.618	-0.139	-0.373
-456.011	0.606	0.137	-0.097
-454.997	150.859	-0.091	-0.123
-453.982	32.010	0.024	0.020
-452.968	-200.000	-0.018	0.159
-451.953	7.598	0.391	-0.290
-450.938	-106.435	-0.216	0.048
-449.924	-112.768	-0.398	-0.078
-448.909	337.068	0.056	0.108
-447.895	311.344	0.065	-0.122
-446.880	-200.000	0.012	0.120
-445.865	-24.281	-0.216	-0.128
-444.851	-59.004	0.219	-0.094
-443.836	800.000	0.136	-0.534
-442.822	800.000	-0.034	-0.128
-441.807	252.831	0.110	0.186
-440.792	116.264	0.048	0.058
-439.778	149.300	-0.186	-0.249
-438.763	546.089	0.047	0.111
-437.749	-8.527	-0.194	0.129
-436.734	-200.000	0.012	-0.122
-435.719	329.651	-0.068	0.130
-434.705	800.000	-0.079	0.333
-433.690	-128.181	0.047	0.007
-432.676	800.000	-0.080	0.239
-431.661	5.890	-0.092	-0.068
-430.646	114.139	-0.072	-0.087
-429.632	460.140	-0.031	-0.068
-428.617	800.000	0.072	-0.204
-427.603	73.327	0.155	0.161
-426.588	-59.051	-0.175	0.075
-425.573	28.814	-0.196	0.164
-424.559	13.754	0.145	-0.112
-423.544	-14.606	-0.086	0.055
-422.530	-161.679	0.196	-0.010
-421.515	-121.730	-0.325	-0.053
-420.500	416.170	-0.132	-0.279
-419.486	220.684	0.078	0.124
-418.471	800.000	-0.069	0.241
-417.457	218.685	0.227	0.360
-416.442	133.136	-0.093	0.120
-415.428	478.701	0.110	0.246
-414.413	-37.135	0.397	0.210
-413.398	-200.000	0.040	0.287
-412.384	100.018	0.085	0.098
-411.369	-92.806	0.038	0.011
-410.355	297.159	-0.080	0.146
-409.340	281.070	-0.024	-0.042
-408.325	63.536	-0.015	0.015
-407.311	-200.000	-0.017	-0.105
-406.296	800.000	0.010	0.038
-405.282	-136.354	0.347	-0.040
-404.267	800.000	-0.047	-0.142
-403.252	632.584	-0.159	-0.400
-402.238	122.418	0.352	-0.436
-401.223	336.704	-0.144	0.277
-400.209	-200.000	-0.002	-0.242
-399.194	232.272	-0.065	0.105
-398.179	499.710	0.012	0.027
-397.165	-77.600	-0.215	-0.074
-396.150	-200.000	-0.032	-0.154
-395.136	83.765	0.067	-0.072
-394.121	10.359	-0.192	-0.145
-393.106	-102.915	0.136	-0.032
-392.092	-200.000	-0.149	-0.000
-391.077	800.000	0.100	0.306
-390.063	144.727	-0.253	0.335
-389.048	-117.540	0.230	0.041
-388.033	-200.000	0.039	-0.185
-387.019	800.000	-0.029	-0.095
-386.004	242.140	-0.113	0.186
-384.990	-111.929	-0.060	0.012
-383.975	-82.992	-0.153	-0.049
-382.960	-116.269	-0.328	0.060
-381.946	-40.340	0.261	0.134
-380.931	137.482	0.085	0.110
-379.917	-75.711	-0.367	-0.129
-378.902	332.484	0.135	0.257
-377.888	800.000	0.074	-0.234
-376.873	-200.000	0.020	0.111
-375.858	715.506	0.096	0.252
-374.844	-8.104	0.154	0.102
-373.829	266.806	-0.031	-0.053
-372.815	-24.846	0.158	0.093
-371.800	-115.257	0.265	-0.050
-370.785	-98.950	-0.295	0.074
-369.771	800.000	0.058	-0.224
-368.756	137.191	-0.142	0.183
-367.742	800.000	0.117	0.506
-366.727	-47.236	0.013	0.006
-365.712	-168.465	0.031	-0.001
-364.698	1.191	0.428	0.304
-363.683	-94.296	-0.114	-0.031
-362.669	-6.864	0.184	-0.124
-361.654	-168.286	-0.265	0.010
-360.639	-9.409	-0.121	-0.080
-359.625	800.000	-0.060	0.181
-358.610	-200.000	-0.045	0.269
-357.596	76.967	-0.107	-0.112
-356.581	13.946	0.048	0.037
-355.566	-71.125	0.153	0.057
-354.552	56.074	-0.287	0.275
-353.537	24.343	0.070	-0.057
-352.523	191.283	-0.095	0.142
-351.508	535.945	0.146	-0.342
-350.493	-121.801	-0.466	0.076
-349.479	4.458	-0.207	0.150
-348.464	-149.409	0.100	0.008
-347.450	17.046	0.124	0.097
-346.435	-111.581	-0.249	-0.050
-345.420	-82.964	-0.284	0.091
-344.406	137.572	-0.149	-0.193
-343.391	800.000	-0.107	0.300
-342.377	167.219	0.092	0.129
-341.362	-200.000	-0.051	-0.240
-340.348	800.000	0.035	-0.137
-339.333	-59.247	-0.603	-0.256
-338.318	-200.000	0.008	0.062
-337.304	-192.221	-0.129	0.001
-336.289	60.686	0.106	0.104
-335.275	-164.139	-0.157	0.007
-334.260	1.143	-0.095	-0.067
-333.245	403.232	0.191	0.398
-332.231	198.476	-0.172	-0.260
-331.216	800.000	0.052	0.195
-330.202	29.149	-0.128	0.107
-329.187	55.892	0.084	0.081
-328.172	-162.395	-0.151	0.007
-327.158	-35.922	0.119	0.064
-326.143	100.453	-0.011	-0.013
-325.129	35.908	-0.306	0.266
-324.114	-200.000	-0.022	0.120
-323.099	59.193	0.196	0.191
-322.085	-5.720	-0.283	-0.191
-321.070	-200.000	0.036	-0.273
-320.056	247.638	0.105	0.175
-319.041	-200.000	0.007	0.218
-318.026	-74.265	0.304	-0.108
-317.012	-200.000	0.072	-0.328
-315.997	295.498	-0.156	0.281
-314.983	152.770	-0.116	0.156
-313.968	28.871	0.252	-0.211
-312.953	89.316	-0.164	0.180
-311.939	-91.517	0.230	-0.065
-310.924	253.341	0.047	0.080
-309.910	416.121	0.071	0.149
-308.895	98.317	-0.173	0.197
-307.880	51.340	0.113	0.106
-306.866	369.067	-0.072	-0.144
-305.851	-27.123	0.220	0.126
-304.837	-200.000	-0.015	-0.222
-303.822	-200.000	-0.001	-0.235
-302.807	-140.220	0.286	0.030
-301.793	-46.036	-0.285	-0.139
-300.778	-82.848	0.154	-0.049
-299.764	194.698	0.146	0.218
-298.749	59.555	-0.101	0.098
-297.735	-200.000	-0.077	0.386
-296.720	-200.000	-0.002	0.011
-295.705	-200.000	-0.018	0.077
-294.691	-200.000	0.078	0.375
-293.676	800.000	-0.038	-0.157
-292.662	-123.677	0.147	0.023
-291.647	-0.876	0.066	-0.046
-290.632	-128.761	-0.418	-0.058
-289.618	243.885	0.032	0.053
-288.603	536.368	-0.099	0.231
-287.589	-200.000	-0.055	0.398
-286.574	394.970	0.125	0.257
-285.559	471.139	0.068	-0.150
-284.545	-107.074	-0.219	-0.048
-283.530	228.808	0.188	0.302
-282.516	-74.034	-0.075	-0.027
-281.501	800.000	-0.046	0.179
-280.486	-200.000	-0.081	-0.591
-279.472	-200.000	-0.007	-0.470
-278.457	-110.452	0.208	-0.043
-277.443	-107.045	-0.068	-0.015
-276.428	12.716	0.121	0.092
-275.413	267.692	0.128	-0.221
-274.399	800.000	-0.048	0.178
-273.384	800.000	-0.019	0.078
-272.370	-162.534	0.192	-0.009
-271.355	-146.678	-0.336	-0.029
-270.340	-200.000	-0.031	0.187
-269.326	75.343	0.049	0.051
-268.311	-93.006	-0.074	0.020
-267.297	12.928	-0.102	0.077
-266.282	-200.000	-0.057	0.413
-265.267	-200.000	-0.040	0.179
-264.253	-127.916	-0.220	0.031
-263.238	39.743	0.080	0.071
-262.224	-73.898	0.247	0.088
-261.209	222.225	0.106	0.168
-260.195	-2.198	0.120	-0.083
-259.180	63.567	0.140	-0.138
-258.165	800.000	0.057	0.226
-257.151	-200.000	-0.015	-0.151
-256.136	-50.168	-0.045	0.021
-255.122	-27.694	0.098	-0.056
-254.107	-16.199	-0.061	-0.038
-253.092	25.993	0.134	0.110
-252.078	-200.000	0.021	0.146
-251.063	100.132	-0.117	0.134
-250.049	-171.597	0.509	-0.017
-249.034	62.116	-0.042	0.042
-248.019	-102.730	-0.124	-0.029
-247.005	-200.000	0.041	-0.183
-245.990	-81.281	-0.239	-0.078
-244.976	553.893	-0.098	-0.232
-243.961	800.000	0.024	-0.072
-242.946	-154.448	0.225	0.015
-241.932	67.197	-0.128	-0.129
-240.917	-28.319	-0.416	-0.236
-239.903	-54.770	-0.104	-0.046
-238.888	223.560	-0.132	0.210
-237.873	-40.234	-0.170	-0.087
-236.859	800.000	-0.068	0.212
-235.844	171.405	0.033	-0.047
-234.830	-200.000	0.078	-0.346
-233.815	-149.576	0.171	-0.013
-232.800	-73.161	-0.168	0.061
-231.786	800.000	0.100	0.274
-230.771	-200.000	0.032	0.143
-229.757	-56.613	-0.267	0.117
-228.742	88.666	-0.246	-0.269
-227.727	399.619	0.079	0.163
-226.713	-152.491	-0.187	-0.013
-225.698	-84.129	0.254	-0.079
-224.684	800.000	0.032	0.115
-223.669	-49.336	-0.228	-0.107
-222.655	-24.549	0.371	-0.217
-221.640	-200.000	0.018	0.096
-220.625	-5.240	-0.219	0.148
-219.611	-39.478	-0.043	-0.022
-218.596	-59.769	-0.124	0.052
-217.582	-200.000	0.027	0.234
-216.567	-200.000	0.013	0.099
-215.552	800.000	0.076	0.260
-214.538	-82.508	-0.342	-0.109
-213.523	-111.953	0.478	0.095
-212.509	-200.000	0.016	0.405
-211.494	-28.660	-0.363	-0.206
-210.479	13.674	0.235	0.180
-209.465	-183.765	0.250	0.004
-208.450	-135.664	0.368	0.043
-207.436	-53.864	0.047	-0.021
-206.421	-4.742	-0.092	-0.062
-205.406	-200.000	-0.004	-0.273
-204.392	-149.603	0.367	-0.029
-203.377	-25.902	0.124	0.072
-202.363	203.417	-0.069	0.104
-201.348	-51.472	0.050	0.023
-200.333	130.699	-0.156	0.196
-199.319	-176.646	0.199	-0.005
-198.304	-200.000	-0.002	-0.233
-197.290	12.802	0.091	-0.069
-196.275	-130.604	0.277	0.037
-195.260	-200.000	-0.006	-0.238
-194.246	22.303	0.214	-0.172
-193.231	-200.000	-0.014	0.074
-192.217	-162.640	0.120	0.006
-191.202	-200.000	0.017	0.123
-190.187	800.000	-0.055	-0.211
-189.173	-22.898	-0.206	-0.122
-188.158	800.000	-0.105	-0.395
-187.144	-32.254	0.183	-0.100
-186.129	105.602	-0.061	0.070
-185.114	800.000	0.008	-0.035
-184.100	337.371	-0.043	0.082
-183.085	-108.616	0.323	-0.068
-182.071	-147.036	0.079	0.007
-181.056	2.678	0.181	0.129
-180.042	-200.000	0.056	0.331
-179.027	-200.000	0.009	0.140
-178.012	-37.896	0.092	-0.048
-176.998	86.501	-0.074	-0.080
-175.983	73.425	0.233	-0.239
-174.969	-200.000	-0.043	-0.337
-173.954	-200.000	0.066	0.397
-172.939	-200.000	-0.067	0.348
-171.925	-182.247	0.406	-0.007
-170.910	-45.967	0.172	0.083
-169.896	-200.000	0.006	0.051
-168.881	-78.180	0.320	0.108
-167.866	-187.188	-0.343	0.005
-166.852	57.795	-0.037	-0.035
-165.837	-19.575	-0.336	-0.204
-164.823	-170.197	0.256	-0.009
-163.808	131.965	0.250	0.316
-162.793	-70.628	-0.158	0.058
-161.779	330.712	0.062	-0.117
-160.764	144.657	0.071	-0.094
-159.750	411.682	0.058	0.120
-158.735	800.000	-0.094	0.343
-157.720	421.380	0.055	-0.115
-156.706	275.329	-0.112	0.195
-155.691	800.000	-0.073	0.231
-154.677	158.045	0.147	-0.200
-153.662	219.218	-0.136	0.213
-152.647	361.264	-0.032	0.062
-151.633	-18.873	0.158	-0.096
-150.618	19.217	-0.097	0.077
-149.604	63.585	-0.021	0.020
-148.589	78.021	0.080	-0.083
-147.574	800.000	0.062	-0.205
-146.560	-101.458	-0.301	-0.072
-145.545	8.429	-0.165	0.121
-144.531	-194.258	-0.332	-0.003
-143.516	257.252	-0.129	0.217
-142.502	-88.304	-0.053	0.016
-141.487	-200.000	0.005	-0.122
-140.472	-129.328	0.167	-0.023
-139.458	-149.246	-0.199	0.016
-138.443	-200.000	-0.072	-0.338
-137.429	17.697	-0.220	-0.172
-136.414	126.505	0.078	0.097
-135.399	800.000	0.020	0.065
-134.385	-80.940	0.180	-0.058
-133.370	-133.468	-0.405	0.050
-132.356	-3.700	-0.122	0.083
-131.341	-200.000	0.051	0.283
-130.326	70.211	-0.124	-0.126
-129.312	17.442	0.077	0.060
-128.297	-115.456	-0.309	-0.057
-127.283	-168.582	0.513	0.019
-126.268	-200.000	-0.082	-0.389
-125.253	117.075	0.084	0.101
-124.239	-25.078	-0.328	0.190
-123.224	353.050	0.023	-0.044
-122.210	-86.072	0.322	-0.097
