DTS Sentinel unit serial number:	SN413079Multiplexer serial number:	ORYXHardware model number:	OX4-SRSoftware version number:	ORYX F/W v4.00 Oryx Data Collector v3.7.2.0data status	okinstallation	princeton_trtdifferential loss correction	single-endedforward channel	channel 3reverse channel	N/Adate	2019/09/12time	14:46:11forward acquisition time	60.00reverse acquisition time	0.00gamma	496.2192k internal	0.2293k external	0.2293temperature offset calibration	1.0049default loss term (dB/km)	0.3790temperature slope calibration	1.0000multiplexer offset coefficient	1.0000multiplexer slope coefficient	1.0000fibre end	0.00T internal ref (°C)	40.19T ext. ref 1 (°C)	2.29T ext. ref 2 (°C)	37.05length (m)	temperature (°C)	Stokes	anti-Stokes-747.200	19.407	0.170	-0.140
-746.185	-181.872	0.348	0.007
-745.171	-191.325	-0.128	0.001
-744.156	313.264	-0.075	0.144
-743.142	-200.000	-0.009	0.082
-742.127	380.718	0.172	0.362
-741.112	-200.000	0.027	-0.371
-740.098	-64.807	0.329	0.136
-739.083	63.201	0.169	-0.174
-738.069	225.742	-0.169	0.281
-737.054	-38.852	-0.253	-0.136
-736.039	-5.571	-0.158	-0.111
-735.025	-46.800	-0.366	-0.183
-734.010	-79.280	0.345	-0.120
-732.996	181.470	0.187	-0.282
-731.981	-200.000	0.013	-0.258
-730.966	-101.576	0.176	-0.044
-729.952	2.081	-0.196	-0.145
-728.937	30.365	-0.348	0.304
-727.923	-17.576	-0.307	0.197
-726.908	-106.287	-0.287	-0.066
-725.894	144.599	-0.223	-0.305
-724.879	-20.985	-0.258	0.162
-723.864	-75.052	0.109	-0.040
-722.850	32.598	-0.055	0.048
-721.835	141.787	-0.102	-0.138
-720.821	695.907	-0.039	-0.105
-719.806	33.242	0.035	-0.031
-718.791	-98.770	0.105	-0.027
-717.777	-86.945	0.205	0.064
-716.762	58.697	-0.010	-0.010
-715.748	512.211	-0.143	-0.341
-714.733	-95.752	-0.303	-0.083
-713.718	204.874	0.137	-0.217
-712.704	-155.770	0.266	0.017
-711.689	-131.822	0.265	0.035
-710.675	800.000	-0.038	0.118
-709.660	-55.468	0.088	-0.040
-708.645	-93.463	0.458	-0.130
-707.631	-118.041	0.330	-0.060
-706.616	-200.000	-0.004	0.179
-705.602	66.128	-0.153	-0.158
-704.587	-40.951	-0.077	-0.041
-703.572	86.413	-0.142	-0.160
-702.558	238.379	-0.066	0.112
-701.543	-122.292	0.125	0.021
-700.529	178.194	0.109	-0.163
-699.514	-155.729	0.273	-0.018
-698.499	9.340	0.381	-0.294
-697.485	72.133	0.256	-0.272
-696.470	-8.451	0.267	0.184
-695.456	100.791	0.040	-0.047
-694.441	-140.233	-0.254	0.027
-693.426	45.408	-0.137	0.129
-692.412	-31.684	-0.307	0.176
-691.397	142.501	-0.061	0.083
-690.383	-200.000	-0.072	-0.371
-689.368	-170.088	-0.146	0.005
-688.354	-119.014	-0.109	0.020
-687.339	-47.790	-0.247	0.122
-686.324	188.996	0.057	0.088
-685.310	-146.468	-0.050	-0.004
-684.295	-83.316	-0.205	-0.067
-683.281	40.441	-0.129	0.118
-682.266	689.275	0.083	0.222
-681.251	-40.795	-0.111	0.058
-680.237	-200.000	0.015	0.243
-679.222	-113.918	0.228	0.045
-678.208	669.435	-0.124	-0.328
-677.193	-200.000	-0.016	-0.195
-676.178	89.231	0.144	-0.163
-675.164	-21.894	-0.218	0.135
-674.149	-19.194	0.030	-0.019
-673.135	595.080	0.088	0.222
-672.120	24.322	0.078	-0.066
-671.105	-150.307	-0.194	0.015
-670.091	-126.026	0.106	0.016
-669.076	23.938	0.123	0.103
-668.062	-200.000	-0.057	0.300
-667.047	63.616	-0.341	0.350
-666.032	800.000	-0.080	0.273
-665.018	-36.363	-0.181	-0.099
-664.003	-39.436	-0.210	-0.112
-662.989	189.937	0.077	0.118
-661.974	-200.000	0.030	-0.230
-660.959	800.000	-0.169	-0.611
-659.945	109.024	-0.206	-0.251
-658.930	-200.000	0.018	-0.278
-657.916	-188.465	0.128	-0.002
-656.901	-93.346	-0.126	-0.036
-655.886	100.912	-0.053	-0.063
-654.872	-76.788	0.112	0.040
-653.857	226.903	0.096	0.159
-652.843	-73.893	0.106	0.039
-651.828	-200.000	0.028	-0.458
-650.814	-48.545	0.182	-0.089
-649.799	-200.000	-0.010	-0.074
-648.784	-200.000	0.029	-0.240
-647.770	28.447	0.274	-0.236
-646.755	89.023	0.131	-0.149
-645.741	-6.617	0.120	-0.084
-644.726	-45.104	0.191	0.097
-643.711	-168.663	-0.464	0.018
-642.697	-25.000	-0.257	-0.155
-641.682	559.181	0.032	0.079
-640.668	118.704	-0.207	-0.261
-639.653	40.099	-0.121	-0.111
-638.638	-89.311	-0.226	0.068
-637.624	-41.361	-0.209	0.110
-636.609	-76.217	0.180	0.065
-635.595	286.818	0.128	-0.235
-634.580	6.580	0.147	0.112
-633.565	800.000	-0.075	0.237
-632.551	-133.142	-0.128	-0.016
-631.536	-55.019	0.078	0.036
-630.522	80.424	0.232	-0.254
-629.507	266.571	-0.043	0.076
-628.492	-81.342	-0.168	-0.056
-627.478	-2.830	-0.014	-0.010
-626.463	-59.833	-0.261	-0.114
-625.449	-37.290	0.387	-0.211
-624.434	-200.000	-0.015	-0.205
-623.419	258.089	0.123	-0.216
-622.405	796.530	0.113	0.317
-621.390	-20.177	0.286	-0.179
-620.376	-8.658	-0.298	-0.204
-619.361	-7.119	0.389	-0.269
-618.346	32.023	0.087	0.077
-617.332	800.000	0.023	-0.081
-616.317	45.351	-0.067	0.063
-615.303	62.491	0.050	0.051
-614.288	800.000	-0.008	-0.035
-613.273	800.000	-0.021	-0.070
-612.259	800.000	-0.031	0.099
-611.244	-103.581	-0.317	-0.076
-610.230	-67.040	0.041	-0.016
-609.215	-123.991	-0.199	-0.032
-608.201	254.545	0.071	-0.124
-607.186	-37.846	0.330	0.179
-606.171	800.000	0.085	0.256
-605.157	-200.000	-0.062	-0.351
-604.142	-87.347	0.202	-0.062
-603.128	800.000	-0.041	-0.119
-602.113	229.631	-0.163	-0.270
-601.098	-200.000	0.025	0.138
-600.084	-112.518	-0.360	-0.073
-599.069	58.272	-0.161	-0.161
-598.055	624.982	-0.118	0.302
-597.040	335.606	0.101	-0.199
-596.025	22.745	-0.167	-0.139
-595.011	-139.216	-0.172	0.019
-593.996	-87.489	-0.166	0.051
-592.982	6.952	-0.203	-0.154
-591.967	80.297	-0.122	-0.134
-590.952	-200.000	0.070	-0.486
-589.938	-138.179	0.437	-0.049
-588.923	124.196	-0.087	-0.111
-587.909	-200.000	-0.039	0.209
-586.894	-124.546	-0.139	-0.022
-585.879	-44.081	0.102	0.052
-584.865	-88.305	0.240	-0.073
-583.850	-36.241	-0.308	0.169
-582.836	114.126	-0.187	0.232
-581.821	-155.098	0.352	-0.023
-580.806	-200.000	0.029	0.222
-579.792	-200.000	0.049	0.292
-578.777	-155.465	0.122	0.008
-577.763	75.159	-0.144	0.155
-576.748	800.000	-0.101	0.309
-575.733	354.093	0.139	0.282
-574.719	-1.268	-0.089	-0.064
-573.704	27.221	-0.198	0.169
-572.690	-91.393	-0.393	0.114
-571.675	-14.670	0.092	0.060
-570.661	24.084	-0.143	-0.120
-569.646	-11.813	-0.055	0.037
-568.631	-78.730	-0.055	0.019
-567.617	-115.123	0.236	-0.045
-566.602	-58.222	-0.243	-0.108
-565.588	61.319	-0.116	0.117
-564.573	5.589	-0.150	0.113
-563.558	-155.087	0.375	-0.025
-562.544	219.946	-0.138	0.225
-561.529	-200.000	0.044	-0.197
-560.515	800.000	0.062	0.236
-559.500	-200.000	-0.026	0.233
-558.485	155.386	-0.209	0.293
-557.471	-108.689	-0.451	0.098
-556.456	-200.000	0.013	0.126
-555.442	49.350	0.085	-0.082
-554.427	338.196	-0.148	0.293
-553.412	-132.098	0.169	-0.022
-552.398	106.659	0.166	0.200
-551.383	-58.685	0.156	-0.069
-550.369	11.444	0.230	-0.179
-549.354	-138.667	-0.462	-0.051
-548.339	163.625	-0.193	-0.276
-547.325	-46.060	-0.309	0.154
-546.310	-87.202	-0.060	0.018
-545.296	-76.672	-0.161	-0.057
-544.281	800.000	-0.084	-0.342
-543.266	-196.042	-0.038	0.000
-542.252	103.167	0.211	0.251
-541.237	63.442	-0.049	-0.050
-540.223	364.404	-0.047	-0.097
-539.208	-118.746	-0.208	-0.037
-538.193	-69.846	-0.124	0.048
-537.179	73.746	-0.135	-0.144
-536.164	-111.572	0.153	-0.031
-535.150	173.832	-0.113	0.165
-534.135	-9.095	0.202	-0.137
-533.121	274.354	-0.126	0.226
-532.106	-7.470	0.119	0.081
-531.091	-117.563	0.081	0.015
-530.077	12.400	0.068	0.053
-529.062	-95.924	0.084	0.023
-528.048	-31.776	-0.059	-0.034
-527.033	-101.395	-0.203	0.050
-526.018	-200.000	0.014	-0.335
-525.004	-47.255	-0.465	0.230
-523.989	-90.886	0.127	0.037
-522.975	-200.000	0.038	0.255
-521.960	-200.000	-0.008	0.040
-520.945	-200.000	0.006	-0.207
-519.931	-200.000	0.003	0.250
-518.916	414.301	0.088	-0.190
-517.902	-43.379	-0.328	0.168
-516.887	60.440	-0.225	-0.225
-515.872	-129.796	-0.231	0.032
-514.858	169.210	-0.094	-0.136
-513.843	-43.902	0.409	0.209
-512.829	35.634	0.101	-0.090
-511.814	62.798	0.091	-0.092
-510.799	101.362	-0.248	-0.293
-509.785	-200.000	-0.048	0.246
-508.770	-37.878	0.464	-0.250
-507.756	136.687	0.040	-0.053
-506.741	-200.000	0.026	-0.125
-505.726	-51.803	0.149	0.070
-504.712	-101.011	-0.191	0.048
-503.697	-84.395	0.258	-0.083
-502.683	-34.988	0.181	0.100
-501.668	-22.500	-0.391	-0.240
-500.653	-200.000	0.002	-0.127
-499.639	529.007	0.023	0.055
-498.624	-200.000	0.061	0.426
-497.610	800.000	0.032	0.094
-496.595	-22.131	-0.173	-0.106
-495.581	-200.000	0.024	-0.355
-494.566	53.934	-0.130	-0.127
-493.551	-20.293	-0.137	-0.085
-492.537	382.642	0.058	-0.120
-491.522	734.659	0.156	0.423
-490.508	800.000	-0.073	0.290
-489.493	-200.000	-0.001	0.237
-488.478	-200.000	0.025	-0.146
-487.464	-122.148	-0.349	-0.058
-486.449	-200.000	-0.061	0.354
-485.435	62.552	-0.344	-0.348
-484.420	589.049	-0.037	0.092
-483.405	-200.000	0.045	-0.222
-482.391	63.931	0.024	0.024
-481.376	-150.835	-0.019	-0.001
-480.362	-72.933	-0.396	0.147
-479.347	111.013	-0.092	0.112
-478.332	-151.069	-0.180	-0.014
-477.318	-17.951	-0.118	-0.075
-476.303	110.352	-0.035	0.042
-475.289	375.824	-0.124	0.255
-474.274	291.079	0.188	0.345
-473.259	-153.850	0.201	0.014
-472.245	-63.969	-0.239	0.099
-471.230	800.000	-0.032	0.125
-470.216	800.000	0.058	-0.174
-469.201	90.157	0.208	-0.235
-468.186	-166.363	-0.397	0.017
-467.172	-200.000	0.270	0.001
-466.157	80.481	0.082	0.090
-465.143	-200.000	-0.020	-0.134
-464.128	-99.567	-0.092	-0.023
-463.113	22.165	-0.169	-0.139
-462.099	-200.000	0.000	-0.044
-461.084	219.533	-0.168	0.272
-460.070	131.025	-0.122	-0.159
-459.055	677.904	0.089	-0.235
-458.040	800.000	0.114	0.417
-457.026	202.794	0.307	0.479
-456.011	-67.328	-0.273	0.109
-454.997	-200.000	-0.016	-0.103
-453.982	-1.705	-0.046	0.032
-452.968	800.000	-0.064	0.264
-451.953	715.674	-0.042	0.114
-450.938	-200.000	0.014	-0.364
-449.924	800.000	0.111	-0.314
-448.909	39.454	0.128	0.116
-447.895	-56.805	0.074	-0.033
-446.880	-44.720	0.072	0.036
-445.865	243.780	0.125	-0.211
-444.851	407.444	0.162	0.347
-443.836	-200.000	-0.060	-0.300
-442.822	-119.042	0.091	-0.016
-441.807	136.115	-0.116	-0.153
-440.792	294.684	0.056	0.103
-439.778	-68.938	0.071	-0.028
-438.763	266.230	0.196	0.346
-437.749	-1.709	-0.147	0.105
-436.734	46.824	-0.281	0.264
-435.719	727.705	0.092	-0.248
-434.705	29.692	0.372	-0.320
-433.690	-75.154	-0.207	-0.075
-432.676	22.952	0.224	-0.186
-431.661	-52.458	0.122	-0.057
-430.646	-89.367	0.345	0.103
-429.632	11.836	0.148	-0.115
-428.617	114.645	0.054	0.066
-427.603	-200.000	0.024	0.235
-426.588	30.868	0.097	0.084
-425.573	-9.407	-0.217	0.147
-424.559	-200.000	-0.004	-0.357
-423.544	-183.139	0.306	0.005
-422.530	-81.695	-0.073	-0.024
-421.515	168.851	-0.053	0.077
-420.500	800.000	0.025	-0.105
-419.486	8.939	0.133	-0.101
-418.471	185.911	-0.149	-0.224
-417.457	-74.490	-0.042	-0.015
-416.442	794.612	-0.105	-0.291
-415.428	-57.124	-0.186	-0.083
-414.413	-73.249	-0.185	-0.068
-413.398	325.255	-0.157	0.302
-412.384	800.000	-0.070	-0.266
-411.369	-200.000	0.210	-0.001
-410.355	433.796	0.144	-0.316
-409.340	42.203	0.235	-0.215
-408.325	-60.975	0.107	0.046
-407.311	-200.000	-0.042	0.234
-406.296	735.796	-0.082	-0.223
-405.282	37.195	0.133	0.119
-404.267	-51.757	0.098	0.046
-403.252	-142.542	0.417	-0.041
-402.238	404.825	-0.086	-0.184
-401.223	-200.000	-0.014	-0.354
-400.209	147.608	0.158	0.216
-399.194	-56.573	0.224	-0.100
-398.179	43.727	0.246	-0.227
-397.165	-110.090	0.351	-0.074
-396.150	29.025	-0.220	0.189
-395.136	800.000	0.094	-0.325
-394.121	-19.480	0.063	-0.039
-393.106	23.563	0.232	0.193
-392.092	-120.242	0.040	-0.007
-391.077	-27.200	-0.256	-0.151
-390.063	800.000	0.038	0.109
-389.048	-6.003	-0.191	0.132
-388.033	-200.000	-0.004	-0.033
-387.019	-110.434	0.207	-0.043
-386.004	95.155	-0.094	-0.108
-384.990	-200.000	-0.015	-0.346
-383.975	800.000	-0.050	0.139
-382.960	49.364	-0.234	0.222
-381.946	-167.205	0.287	-0.012
-380.931	2.201	0.325	-0.237
-379.917	527.076	0.032	0.075
-378.902	800.000	0.076	0.251
-377.888	-140.779	0.442	0.046
-376.873	-200.000	0.003	-0.017
-375.858	-117.746	-0.126	0.023
-374.844	665.386	-0.128	-0.334
-373.829	-200.000	-0.003	-0.148
-372.815	25.201	0.301	-0.252
-371.800	-167.207	-0.269	0.011
-370.785	130.114	0.169	0.218
-369.771	-157.163	0.225	0.014
-368.756	-200.000	-0.010	0.123
-367.742	-200.000	-0.001	0.100
-366.727	800.000	-0.008	0.035
-365.712	538.958	0.068	0.164
-364.698	8.183	0.087	0.066
-363.683	206.155	-0.193	-0.303
-362.669	-200.000	-0.040	-0.352
-361.654	246.971	0.108	-0.185
-360.639	235.481	-0.030	-0.049
-359.625	-200.000	0.028	-0.134
-358.610	185.858	0.133	-0.199
-357.596	-191.234	-0.202	-0.002
-356.581	-110.775	0.260	-0.054
-355.566	32.142	0.182	0.158
-354.552	-108.224	0.131	-0.029
-353.537	140.601	-0.275	-0.366
-352.523	-91.928	-0.335	0.096
-351.508	-76.046	0.202	-0.072
-350.493	-3.808	0.073	-0.051
-349.479	800.000	0.071	0.259
-348.464	338.194	0.169	0.332
-347.450	800.000	0.058	0.233
-346.435	-140.561	-0.368	-0.038
-345.420	268.865	-0.021	-0.038
-344.406	800.000	-0.032	-0.104
-343.391	375.387	0.026	0.054
-342.377	-200.000	-0.020	0.145
-341.362	55.553	0.121	-0.118
-340.348	-19.160	-0.062	-0.039
-339.333	800.000	0.089	0.282
-338.318	59.459	0.276	-0.274
-337.304	800.000	0.049	-0.194
-336.289	-200.000	0.041	-0.274
-335.275	-102.893	0.316	0.076
-334.260	-80.108	0.267	0.090
-333.245	56.082	0.166	0.162
-332.231	-16.689	-0.262	-0.167
-331.216	-200.000	0.006	-0.062
-330.202	-200.000	-0.004	0.160
-329.187	450.879	-0.032	0.070
-328.172	186.574	-0.050	0.074
-327.158	800.000	0.096	0.302
-326.143	-30.785	0.240	-0.137
-325.129	-158.255	0.225	-0.013
-324.114	-40.153	0.112	-0.058
-323.099	545.705	-0.055	-0.132
-322.085	-97.499	0.038	-0.010
-321.070	300.093	-0.106	-0.197
-320.056	-200.000	0.008	-0.138
-319.041	800.000	-0.020	0.084
-318.026	-200.000	-0.020	-0.172
-317.012	-7.211	0.122	-0.083
-315.997	-16.542	0.033	-0.021
-314.983	383.162	-0.056	-0.116
-313.968	180.724	-0.157	0.231
-312.953	-82.588	0.044	0.014
-311.939	-36.126	0.243	0.132
-310.924	-200.000	0.004	0.147
-309.910	172.471	0.129	-0.187
-308.895	76.134	-0.342	0.364
-307.880	398.042	0.043	0.090
-306.866	-99.209	0.043	-0.011
-305.851	13.948	-0.447	0.350
-304.837	46.844	0.223	-0.209
-303.822	-200.000	-0.024	-0.309
-302.807	-40.233	-0.276	0.144
-301.793	66.354	0.186	-0.190
-300.778	757.759	0.091	0.249
-299.764	3.590	0.083	0.061
-298.749	30.920	-0.105	0.090
-297.735	-29.259	0.394	-0.227
-296.720	-200.000	-0.033	-0.295
-295.705	-200.000	0.015	0.155
-294.691	-56.170	-0.329	0.147
-293.676	-200.000	0.045	-0.211
-292.662	48.204	0.297	0.279
-291.647	-126.626	0.259	0.039
-290.632	143.667	-0.232	-0.310
-289.618	-171.112	-0.051	0.002
-288.603	-156.859	-0.365	-0.023
-287.589	-140.060	0.341	-0.036
-286.574	-84.920	-0.298	-0.094
-285.559	-140.367	-0.085	0.009
-284.545	17.446	-0.151	0.121
-283.530	-200.000	-0.021	0.197
-282.516	34.412	0.180	0.158
-281.501	800.000	-0.025	0.078
-280.486	322.572	-0.194	-0.372
-279.472	-200.000	0.003	-0.026
-278.457	-153.921	0.182	0.012
-277.443	104.354	-0.028	-0.034
-276.428	51.884	0.232	0.222
-275.413	24.303	-0.106	0.088
-274.399	190.499	-0.224	0.338
-273.384	-188.878	-0.075	-0.001
-272.370	-87.335	0.258	0.078
-271.355	-150.217	-0.061	-0.005
-270.340	32.492	0.092	-0.080
-269.326	-85.009	-0.251	0.079
-268.311	-95.613	-0.049	0.013
-267.297	598.088	-0.043	0.108
-266.282	8.044	-0.219	-0.165
-265.267	-35.214	0.225	-0.123
-264.253	55.110	-0.134	0.130
-263.238	-53.532	0.253	-0.116
-262.224	800.000	-0.042	0.150
-261.209	213.130	-0.227	0.360
-260.195	364.806	0.103	-0.207
-259.180	800.000	-0.076	-0.248
-258.165	267.303	0.015	-0.026
-257.151	148.693	0.025	-0.035
-256.136	358.567	0.154	0.308
-255.122	-10.690	0.365	-0.242
-254.107	-178.332	0.139	-0.003
-253.092	-86.197	0.079	0.025
-252.078	57.628	-0.171	-0.168
-251.063	-123.019	-0.043	0.007
-250.049	-111.852	0.157	-0.032
-249.034	335.861	0.164	-0.319
-248.019	-200.000	-0.068	0.395
-247.005	75.532	-0.246	0.261
-245.990	213.883	0.038	0.060
-244.976	177.863	0.264	0.387
-243.961	-59.718	0.180	-0.077
-242.946	-105.601	0.137	0.031
-241.932	-90.293	0.096	-0.028
-240.917	123.196	0.185	0.232
-239.903	-83.031	-0.165	-0.053
-238.888	-40.103	-0.157	-0.082
-237.873	301.716	0.075	-0.138
-236.859	226.677	0.091	-0.148
-235.844	162.281	0.174	-0.245
-234.830	90.487	-0.065	-0.073
-233.815	42.774	-0.237	-0.216
-232.800	-200.000	-0.004	0.137
-231.786	177.893	-0.165	0.242
-230.771	20.895	-0.397	-0.323
-229.757	-14.385	0.157	-0.101
-228.742	10.122	0.128	-0.097
-227.727	-66.182	0.183	0.073
-226.713	60.119	-0.090	0.089
-225.698	800.000	-0.079	0.256
-224.684	158.800	0.193	0.269
-223.669	-41.617	-0.103	0.053
-222.655	44.664	-0.244	0.225
-221.640	-29.710	-0.204	0.117
-220.625	141.601	-0.194	-0.258
-219.611	-200.000	-0.047	-0.291
-218.596	528.638	-0.069	-0.163
-217.582	-21.225	0.153	-0.094
-216.567	-200.000	0.019	-0.169
-215.552	256.516	-0.109	-0.187
-214.538	304.931	-0.095	-0.177
-213.523	114.531	-0.146	0.178
-212.509	-200.000	0.041	0.239
-211.494	-89.314	-0.108	-0.032
-210.479	-161.086	0.453	-0.024
-209.465	-18.582	-0.250	0.156
-208.450	136.375	0.141	0.184
-207.436	245.319	0.015	-0.026
-206.421	-200.000	-0.010	0.062
-205.406	-127.859	-0.104	0.015
-204.392	-66.776	-0.078	-0.031
-203.377	405.090	0.097	-0.206
-202.363	-192.960	0.079	0.001
-201.348	9.793	-0.239	0.182
-200.333	-200.000	0.026	-0.210
-199.319	-126.710	0.100	-0.015
-198.304	-200.000	0.002	0.338
-197.290	-35.844	-0.152	-0.082
-196.275	177.292	-0.148	-0.216
-195.260	-130.642	-0.024	0.003
-194.246	800.000	0.040	0.155
-193.231	-200.000	0.002	-0.125
-192.217	80.334	0.156	0.168
-191.202	-62.711	-0.058	0.024
-190.187	87.740	-0.014	-0.015
-189.173	410.115	0.054	0.115
-188.158	-127.108	0.611	0.090
-187.144	-84.364	0.043	0.013
-186.129	-200.000	0.001	0.112
-185.114	800.000	-0.081	0.295
-184.100	-20.557	0.278	-0.171
-183.085	22.111	0.271	0.221
-182.071	-135.629	-0.225	-0.027
-181.056	-200.000	0.025	0.447
-180.042	-23.373	-0.350	0.210
-179.027	30.486	0.091	0.078
-178.012	67.864	0.107	0.110
-176.998	-162.701	0.242	-0.012
-175.983	-79.933	-0.264	0.089
-174.969	170.869	0.087	-0.125
-173.954	-151.729	-0.290	0.021
-172.939	-200.000	0.033	0.326
-171.925	800.000	0.018	-0.063
-170.910	800.000	0.061	-0.171
-169.896	800.000	0.084	0.314
-168.881	362.082	-0.135	-0.270
-167.866	99.345	0.111	-0.128
-166.852	48.415	-0.328	0.307
-165.837	-114.286	-0.433	-0.084
-164.823	-200.000	-0.022	-0.121
-163.808	635.826	0.087	-0.222
-162.793	-84.407	-0.268	0.085
-161.779	-8.860	0.317	0.213
-160.764	-110.865	-0.137	-0.028
-159.750	181.350	0.213	0.313
-158.735	-155.147	0.272	-0.018
-157.720	-200.000	-0.001	0.190
-156.706	146.814	-0.104	-0.140
-155.691	684.731	0.070	0.183
-154.677	177.858	0.065	-0.094
-153.662	-129.591	-0.234	-0.032
-152.647	-66.824	-0.174	0.069
-151.633	4.782	-0.129	0.095
-150.618	-37.021	0.243	0.130
-149.604	-200.000	0.022	-0.419
-148.589	-200.000	-0.054	-0.351
-147.574	42.082	0.149	-0.135
-146.560	-200.000	0.016	-0.119
-145.545	-200.000	-0.035	0.164
-144.531	119.269	0.123	0.152
-143.516	-200.000	-0.009	-0.169
-142.502	-77.308	0.382	0.133
-141.487	-42.717	-0.065	-0.033
-140.472	319.633	0.079	-0.150
-139.458	800.000	-0.048	-0.163
-138.443	397.097	-0.068	-0.142
-137.429	-63.891	0.198	0.081
-136.414	800.000	0.033	-0.121
-135.399	-113.076	-0.345	-0.068
-134.385	-57.625	-0.227	0.099
-133.370	2.575	0.118	0.086
-132.356	-9.566	-0.298	0.199
-131.341	42.670	-0.135	0.123
-130.326	-120.222	0.170	-0.029
-129.312	98.901	-0.184	-0.212
-128.297	-65.468	-0.164	0.066
-127.283	-141.870	-0.294	0.029
-126.268	-200.000	-0.067	-0.293
-125.253	-2.361	0.098	-0.069
-124.239	-20.778	0.192	-0.118
-123.224	125.148	-0.065	0.082
-122.210	-200.000	0.041	-0.590
-121.195	30.468	0.140	0.119
