DTS Sentinel unit serial number:	SN413079Multiplexer serial number:	ORYXHardware model number:	OX4-SRSoftware version number:	ORYX F/W v4.00 Oryx Data Collector v3.7.2.0data status	okinstallation	princeton_trtdifferential loss correction	single-endedforward channel	channel 3reverse channel	N/Adate	2019/09/18time	20:04:35forward acquisition time	60.00reverse acquisition time	0.00gamma	496.2192k internal	0.2330k external	0.2330temperature offset calibration	1.0004default loss term (dB/km)	0.3790temperature slope calibration	1.0000multiplexer offset coefficient	1.0000multiplexer slope coefficient	1.0000fibre end	0.00T internal ref (°C)	30.05T ext. ref 1 (°C)	0.97T ext. ref 2 (°C)	20.60length (m)	temperature (°C)	Stokes	anti-Stokes-747.200	3.803	-0.099	-0.072
-746.185	-88.131	-0.292	0.088
-745.171	496.146	-0.051	0.117
-744.156	28.140	-0.372	0.317
-743.142	171.289	0.099	0.143
-742.127	21.621	-0.081	0.066
-741.112	800.000	-0.138	0.449
-740.098	308.168	0.058	0.109
-739.083	442.625	0.091	-0.201
-738.069	-15.563	-0.271	0.174
-737.054	-98.184	-0.288	0.075
-736.039	-168.525	-0.112	-0.004
-735.025	-200.000	0.001	-0.035
-734.010	-132.876	-0.211	-0.027
-732.996	767.949	-0.091	0.249
-731.981	800.000	0.032	-0.121
-730.966	-200.000	-0.001	-0.112
-729.952	-200.000	-0.011	-0.130
-728.937	-200.000	0.049	0.310
-727.923	800.000	0.101	-0.346
-726.908	-200.000	-0.038	0.491
-725.894	22.264	0.137	0.112
-724.879	353.948	-0.111	-0.223
-723.864	498.880	0.205	-0.475
-722.850	22.354	-0.350	-0.288
-721.835	188.972	0.053	-0.080
-720.821	-200.000	0.031	0.179
-719.806	92.073	0.132	0.150
-718.791	349.906	0.060	0.119
-717.777	203.124	0.067	-0.104
-716.762	-34.450	-0.347	0.192
-715.748	-17.524	-0.245	0.155
-714.733	208.455	0.143	-0.226
-713.718	-86.538	0.139	0.043
-712.704	-200.000	0.004	-0.038
-711.689	-77.241	0.324	0.113
-710.675	-200.000	-0.006	0.198
-709.660	-200.000	0.002	0.185
-708.645	126.160	0.067	0.086
-707.631	327.746	-0.121	-0.234
-706.616	-161.752	0.134	-0.007
-705.602	412.354	-0.076	-0.162
-704.587	-12.171	-0.154	-0.102
-703.572	386.984	-0.133	-0.276
-702.558	0.445	0.200	-0.144
-701.543	139.751	-0.225	-0.297
-700.529	338.318	-0.117	-0.229
-699.514	-200.000	-0.004	-0.184
-698.499	-76.459	-0.142	-0.050
-697.485	-57.867	-0.051	-0.022
-696.470	-142.164	-0.301	-0.030
-695.456	-25.140	-0.027	-0.016
-694.441	639.676	-0.012	-0.031
-693.426	-57.288	0.399	0.177
-692.412	-89.413	0.085	0.025
-691.397	800.000	-0.083	-0.324
-690.383	-103.816	-0.305	-0.072
-689.368	-78.271	-0.222	-0.076
-688.354	336.925	0.102	0.199
-687.339	16.458	-0.261	-0.207
-686.324	136.386	-0.146	-0.192
-685.310	-105.895	0.307	0.069
-684.295	-69.787	-0.387	0.149
-683.281	273.292	0.111	0.198
-682.266	-200.000	0.033	-0.229
-681.251	225.129	-0.237	-0.385
-680.237	-43.042	0.141	-0.072
-679.222	-41.066	0.324	-0.168
-678.208	186.605	-0.070	0.105
-677.193	158.625	-0.121	-0.169
-676.178	174.558	0.330	-0.479
-675.164	-81.069	-0.366	-0.122
-674.149	36.822	-0.264	0.234
-673.135	800.000	-0.058	0.168
-672.120	545.689	0.062	-0.148
-671.105	-200.000	-0.044	-0.344
-670.091	220.158	0.021	-0.034
-669.076	76.119	0.091	-0.096
-668.062	-141.989	-0.025	0.003
-667.047	72.513	0.165	0.173
-666.032	-43.354	-0.133	-0.067
-665.018	86.757	0.124	-0.137
-664.003	-0.676	0.240	-0.171
-662.989	-191.451	0.367	0.004
-661.974	72.364	-0.050	-0.052
-660.959	-200.000	0.024	-0.107
-659.945	-51.039	-0.139	-0.065
-658.930	-200.000	0.023	0.167
-657.916	-55.987	-0.187	0.084
-656.901	29.897	0.164	-0.140
-655.886	-200.000	0.032	-0.172
-654.872	62.145	-0.388	-0.389
-653.857	800.000	-0.122	-0.478
-652.843	676.017	-0.169	-0.440
-651.828	-29.921	0.252	-0.144
-650.814	-29.403	-0.066	0.038
-649.799	800.000	-0.067	-0.194
-648.784	423.714	-0.031	0.066
-647.770	-54.026	-0.229	0.105
-646.755	-200.000	-0.014	-0.134
-645.741	613.886	0.035	0.087
-644.726	-24.190	0.112	0.067
-643.711	197.615	-0.073	-0.112
-642.697	-131.969	-0.136	-0.018
-641.682	-200.000	-0.004	-0.297
-640.668	321.048	-0.060	0.114
-639.653	228.170	0.097	0.158
-638.638	73.939	0.189	-0.199
-637.624	-90.095	0.192	0.056
-636.609	800.000	-0.104	0.354
-635.595	194.664	-0.198	-0.301
-634.580	129.568	0.240	-0.307
-633.565	-94.650	-0.329	-0.090
-632.551	-200.000	0.007	0.195
-631.536	-200.000	0.055	0.259
-630.522	454.787	-0.086	0.191
-629.507	187.467	0.097	0.145
-628.492	14.770	0.312	0.245
-627.478	359.210	-0.024	0.048
-626.463	25.959	-0.250	0.209
-625.449	-200.000	-0.473	0.002
-624.434	800.000	-0.093	0.280
-623.419	-167.085	-0.310	-0.013
-622.405	230.607	-0.134	-0.220
-621.390	-108.886	0.028	-0.006
-620.376	-200.000	0.007	0.090
-619.361	-177.582	0.135	-0.003
-618.346	120.540	-0.193	0.241
-617.332	346.039	-0.160	-0.314
-616.317	46.813	-0.218	-0.203
-615.303	-124.348	-0.337	-0.053
-614.288	800.000	0.012	-0.039
-613.273	800.000	0.052	0.194
-612.259	-200.000	-0.052	0.327
-611.244	61.069	-0.129	0.129
-610.230	298.226	-0.093	-0.170
-609.215	57.332	-0.530	0.518
-608.201	-200.000	-0.126	0.662
-607.186	-149.266	0.106	0.008
-606.171	793.992	0.050	0.137
-605.157	38.208	0.058	0.052
-604.142	19.547	0.249	-0.201
-603.128	13.944	-0.205	-0.160
-602.113	-106.262	0.099	0.022
-601.098	68.088	-0.104	-0.107
-600.084	217.915	0.175	0.279
-599.069	-64.533	-0.166	0.068
-598.055	415.290	0.102	0.217
-597.040	325.741	0.008	-0.016
-596.025	-92.966	-0.073	-0.020
-595.011	-141.546	-0.251	0.025
-593.996	-200.000	0.014	0.140
-592.982	357.716	-0.069	-0.139
-591.967	800.000	0.072	0.280
-590.952	-27.490	0.088	0.051
-589.938	800.000	0.067	0.212
-588.923	-172.962	-0.164	-0.005
-587.909	-200.000	-0.003	-0.267
-586.894	-70.104	-0.242	-0.092
-585.879	-51.477	-0.339	-0.159
-584.865	124.862	-0.193	-0.243
-583.850	25.916	-0.240	-0.200
-582.836	-57.615	-0.155	0.068
-581.821	198.857	-0.101	-0.155
-580.806	-81.388	0.245	-0.081
-579.792	5.067	-0.200	0.148
-578.777	-200.000	-0.031	0.198
-577.763	64.262	-0.178	0.179
-576.748	-200.000	0.027	0.312
-575.733	167.154	-0.122	0.173
-574.719	800.000	-0.084	0.249
-573.704	-200.000	0.003	0.082
-572.690	409.279	0.155	-0.328
-571.675	-40.946	0.121	-0.063
-570.661	800.000	-0.134	-0.372
-569.646	-51.174	0.109	-0.051
-568.631	406.300	-0.045	0.095
-567.617	800.000	0.048	-0.195
-566.602	-110.101	0.301	-0.063
-565.588	-87.987	0.075	-0.023
-564.573	-200.000	0.038	-0.377
-563.558	96.627	0.138	0.159
-562.544	-189.501	0.180	-0.002
-561.529	-200.000	0.050	-0.363
-560.515	59.077	0.280	0.275
-559.500	-37.077	-0.106	-0.057
-558.485	-200.000	0.024	0.141
-557.471	83.662	-0.195	0.213
-556.456	-106.738	0.186	-0.041
-555.442	32.071	0.203	0.175
-554.427	800.000	-0.048	0.175
-553.412	-25.129	0.203	-0.120
-552.398	62.794	0.319	-0.319
-551.383	793.216	-0.103	-0.284
-550.369	-82.581	-0.202	0.065
-549.354	352.009	-0.100	0.198
-548.339	-121.568	0.330	0.055
-547.325	-200.000	0.025	0.182
-546.310	-200.000	-0.013	-0.084
-545.296	-59.846	0.368	-0.157
-544.281	181.076	-0.154	-0.226
-543.266	-47.900	-0.147	-0.071
-542.252	514.474	-0.074	0.173
-541.237	1.774	-0.177	-0.128
-540.223	448.458	0.119	-0.261
-539.208	-200.000	0.055	-0.298
-538.193	7.849	-0.172	0.129
-537.179	10.369	0.121	0.092
-536.164	-18.053	0.267	0.167
-535.150	18.465	0.207	-0.165
-534.135	-12.673	0.265	-0.173
-533.121	367.235	-0.059	0.119
-532.106	467.678	0.130	-0.292
-531.091	800.000	-0.025	-0.075
-530.077	45.457	-0.157	0.145
-529.062	52.580	0.063	0.060
-528.048	-200.000	-0.004	-0.143
-527.033	-200.000	-0.031	0.148
-526.018	390.128	0.084	0.175
-525.004	-200.000	0.014	-0.345
-523.989	45.519	-0.077	0.071
-522.975	-139.888	0.079	-0.008
-521.960	-200.000	0.047	0.334
-520.945	-41.273	-0.329	0.169
-519.931	346.220	-0.089	-0.174
-518.916	355.841	0.053	-0.104
-517.902	86.112	0.253	-0.278
-516.887	44.240	-0.180	0.165
-515.872	289.553	-0.108	0.196
-514.858	583.771	-0.118	-0.290
-513.843	31.656	-0.145	0.124
-512.829	800.000	0.092	-0.343
-511.814	501.057	-0.056	-0.129
-510.799	-65.329	-0.119	-0.048
-509.785	186.782	0.255	0.379
-508.770	6.716	0.182	0.135
-507.756	41.332	-0.214	-0.193
-506.741	-200.000	-0.008	-0.254
-505.726	-200.000	0.031	0.202
-504.712	800.000	-0.073	-0.230
-503.697	-139.794	-0.279	-0.030
-502.683	-133.323	-0.220	-0.028
-501.668	68.924	0.111	0.114
-500.653	-200.000	0.000	0.210
-499.639	493.494	0.054	-0.123
-498.624	-200.000	0.104	0.000
-497.610	-5.604	-0.296	0.203
-496.595	330.138	0.145	0.279
-495.581	217.844	0.270	-0.429
-494.566	34.645	0.069	0.060
-493.551	800.000	0.039	-0.117
-492.537	-200.000	-0.040	0.230
-491.522	-13.283	0.366	0.237
-490.508	-200.000	-0.009	-0.052
-489.493	426.286	-0.038	0.081
-488.478	117.465	0.087	0.107
-487.464	-56.070	-0.109	0.048
-486.449	800.000	-0.094	0.292
-485.435	800.000	-0.058	0.191
-484.420	800.000	-0.099	0.316
-483.405	-146.188	0.283	0.025
-482.391	341.690	-0.097	-0.189
-481.376	-200.000	-0.076	-0.403
-480.362	-177.093	0.184	-0.005
-479.347	11.962	0.081	0.062
-478.332	-171.524	-0.216	0.007
-477.318	84.576	0.104	0.113
-476.303	-136.376	-0.445	-0.052
-475.289	-37.038	0.195	-0.104
-474.274	103.469	-0.086	-0.100
-473.259	294.232	0.120	-0.218
-472.245	-33.965	0.056	0.031
-471.230	-179.017	0.087	-0.002
-470.216	-131.852	-0.234	-0.030
-469.201	15.518	-0.252	-0.197
-468.186	145.470	0.175	-0.234
-467.172	558.205	-0.168	-0.403
-466.157	-114.986	0.181	0.034
-465.143	516.112	0.088	0.204
-464.128	581.305	-0.035	0.085
-463.113	107.937	-0.182	-0.215
-462.099	800.000	0.075	0.224
-461.084	-108.464	-0.276	-0.059
-460.070	135.683	0.224	-0.290
-459.055	-158.306	-0.382	-0.022
-458.040	187.463	-0.177	-0.264
-457.026	-200.000	0.004	-0.136
-456.011	54.690	-0.219	-0.210
-454.997	-0.595	-0.171	0.121
-453.982	-193.240	-0.135	-0.001
-452.968	800.000	0.037	0.145
-451.953	174.566	0.046	0.066
-450.938	-96.047	0.201	0.053
-449.924	-165.209	-0.375	-0.016
-448.909	11.801	0.108	0.083
-447.895	800.000	0.074	0.290
-446.880	-27.559	0.332	0.192
-445.865	289.303	0.111	0.200
-444.851	-117.455	0.104	-0.019
-443.836	395.691	-0.119	-0.247
-442.822	-200.000	-0.002	-0.352
-441.807	-200.000	-0.029	-0.317
-440.792	-200.000	0.018	0.285
-439.778	92.433	-0.206	0.232
-438.763	-102.263	-0.176	-0.042
-437.749	-74.798	-0.156	-0.056
-436.734	-200.000	0.011	-0.067
-435.719	165.038	0.228	-0.321
-434.705	-38.843	-0.146	0.077
-433.690	77.266	-0.107	0.113
-432.676	116.554	-0.180	0.219
-431.661	25.861	-0.060	0.050
-430.646	-115.799	0.069	0.013
-429.632	800.000	-0.053	-0.213
-428.617	-107.397	0.354	0.077
-427.603	-36.497	0.315	0.169
-426.588	-49.006	0.182	-0.087
-425.573	-200.000	-0.007	0.232
-424.559	608.720	-0.027	0.066
-423.544	-139.736	0.343	-0.036
-422.530	-200.000	-0.030	-0.230
-421.515	-121.006	-0.141	0.024
-420.500	270.908	0.135	-0.236
-419.486	-200.000	-0.048	-0.380
-418.471	-200.000	-0.029	0.248
-417.457	-200.000	0.013	0.121
-416.442	225.966	0.130	0.209
-415.428	-164.477	0.328	-0.015
-414.413	-200.000	0.024	0.171
-413.398	276.535	0.123	-0.218
-412.384	52.349	0.165	-0.156
-411.369	226.839	0.024	-0.039
-410.355	-200.000	-0.002	-0.059
-409.340	-40.802	0.138	-0.071
-408.325	800.000	0.032	0.098
-407.311	25.516	0.176	0.146
-406.296	410.522	-0.046	-0.096
-405.282	49.463	-0.234	0.219
-404.267	-84.032	-0.045	0.014
-403.252	-29.345	-0.234	0.133
-402.238	800.000	0.088	0.337
-401.223	-200.000	0.027	0.176
-400.209	-105.511	-0.431	-0.097
-399.194	-34.330	0.213	0.116
-398.179	-62.548	-0.123	-0.051
-397.165	-24.369	-0.228	-0.135
-396.150	222.130	-0.305	-0.487
-395.136	-200.000	-0.009	-0.084
-394.121	68.498	-0.189	-0.192
-393.106	685.113	-0.038	-0.098
-392.092	-200.000	-0.014	-0.061
-391.077	-200.000	0.021	-0.151
-390.063	101.110	0.197	-0.228
-389.048	555.743	-0.084	0.200
-388.033	-73.713	-0.086	0.031
-387.019	800.000	-0.033	-0.105
-386.004	278.477	-0.100	0.176
-384.990	131.257	-0.052	-0.066
-383.975	15.994	-0.182	0.143
-382.960	-200.000	-0.055	-0.283
-381.946	-200.000	0.025	0.153
-380.931	-200.000	-0.013	0.128
-379.917	79.321	-0.162	0.173
-378.902	11.338	-0.217	-0.165
-377.888	-200.000	0.037	-0.194
-376.873	-5.686	0.186	-0.127
-375.858	800.000	0.055	-0.155
-374.844	-37.570	0.263	0.139
-373.829	-4.210	-0.117	0.080
-372.815	14.069	-0.045	0.034
-371.800	-200.000	0.015	0.188
-370.785	118.600	-0.185	0.227
-369.771	800.000	-0.033	0.127
-368.756	-110.258	-0.220	-0.045
-367.742	204.159	-0.106	-0.163
-366.727	-125.730	0.288	0.043
-365.712	-10.407	0.139	0.092
-364.698	-82.930	-0.268	-0.086
-363.683	-200.000	-0.026	-0.167
-362.669	-81.213	0.127	0.042
-361.654	471.431	0.057	0.127
-360.639	272.130	0.038	-0.067
-359.625	769.184	0.033	-0.088
-358.610	-145.759	-0.150	0.013
-357.596	30.262	0.163	-0.138
-356.581	164.693	0.167	0.234
-355.566	800.000	-0.124	-0.437
-354.552	-107.485	0.474	0.103
-353.537	431.435	-0.195	-0.420
-352.523	298.892	0.065	-0.119
-351.508	-88.618	-0.351	-0.104
-350.493	-130.775	0.213	0.028
-349.479	-200.000	-0.009	-0.079
-348.464	154.837	-0.206	-0.281
-347.450	-200.000	-0.021	0.130
-346.435	5.860	-0.186	0.137
-345.420	-43.713	-0.266	-0.133
-344.406	-92.365	0.355	-0.099
-343.391	-8.849	0.280	0.186
-342.377	-62.257	-0.115	0.048
-341.362	800.000	-0.110	-0.332
-340.348	800.000	0.008	-0.035
-339.333	10.221	-0.245	0.185
-338.318	519.332	0.102	-0.236
-337.304	800.000	-0.058	0.228
-336.289	184.061	-0.121	-0.178
-335.275	-6.829	-0.189	0.128
-334.260	-98.988	0.012	0.003
-333.245	-85.366	-0.458	-0.142
-332.231	-200.000	-0.015	-0.106
-331.216	800.000	0.055	0.173
-330.202	800.000	-0.051	0.176
-329.187	126.784	0.195	-0.245
-328.172	302.145	0.147	-0.269
-327.158	345.415	0.097	0.188
-326.143	53.692	0.178	0.170
-325.129	281.393	-0.192	0.341
-324.114	-78.042	-0.035	-0.012
-323.099	158.151	0.142	0.196
-322.085	800.000	-0.082	-0.240
-321.070	-200.000	0.051	-0.231
-320.056	-200.000	-0.027	-0.172
-319.041	317.624	0.081	-0.151
-318.026	-43.120	0.086	-0.043
-317.012	436.969	0.057	0.122
-315.997	70.738	0.245	0.251
-314.983	-3.329	0.240	0.165
-313.968	-200.000	0.021	0.250
-312.953	65.916	-0.118	0.118
-311.939	-35.112	-0.137	0.074
-310.924	-200.000	-0.009	-0.151
-309.910	-200.000	0.024	-0.322
-308.895	659.542	0.070	0.179
-307.880	-8.217	-0.212	0.141
-306.866	-95.248	0.096	0.026
-305.851	52.830	-0.256	-0.243
-304.837	-58.926	0.092	-0.039
-303.822	-108.896	0.327	-0.069
-302.807	-89.057	-0.179	0.053
-301.793	-71.442	0.253	-0.094
-300.778	-21.580	0.309	0.187
-299.764	-200.000	0.024	-0.163
-298.749	-200.000	0.049	0.291
-297.735	-43.323	-0.092	-0.046
-296.720	-103.141	-0.141	0.033
-295.705	-84.144	-0.006	-0.002
-294.691	-200.000	-0.004	-0.092
-293.676	-33.971	0.144	0.078
-292.662	-88.471	0.188	-0.056
-291.647	241.069	0.095	-0.157
-290.632	-200.000	0.001	-0.044
-289.618	-150.147	-0.164	-0.013
-288.603	239.204	-0.210	0.346
-287.589	79.351	-0.362	0.384
-286.574	-50.861	0.192	0.089
-285.559	-200.000	-0.039	-0.325
-284.545	-41.305	-0.142	-0.072
-283.530	800.000	0.085	-0.235
-282.516	-200.000	0.000	-0.052
-281.501	-81.441	-0.129	0.042
-280.486	129.406	0.193	0.243
-279.472	181.512	-0.162	-0.236
-278.457	800.000	0.086	-0.282
-277.443	-200.000	-0.050	-0.425
-276.428	64.262	-0.123	0.123
-275.413	-24.317	-0.229	-0.135
-274.399	-200.000	0.045	-0.282
-273.384	-124.523	-0.172	0.026
-272.370	-47.133	0.084	-0.040
-271.355	-200.000	0.004	0.098
-270.340	-34.718	0.139	-0.075
-269.326	398.025	-0.073	0.151
-268.311	-56.133	-0.155	0.068
-267.297	189.578	0.046	0.068
-266.282	-90.245	-0.132	0.038
-265.267	-200.000	0.041	0.183
-264.253	39.740	0.184	0.163
-263.238	343.195	-0.189	0.365
-262.224	-64.788	0.317	0.127
-261.209	-200.000	-0.013	-0.129
-260.195	59.277	0.180	0.175
-259.180	-200.000	-0.027	-0.154
-258.165	-180.776	0.156	-0.003
-257.151	64.857	0.211	-0.210
-256.136	4.182	-0.115	-0.083
-255.122	-27.371	0.302	-0.173
-254.107	-39.444	0.286	-0.148
-253.092	-17.121	0.086	0.053
-252.078	166.379	-0.054	-0.075
-251.063	800.000	-0.033	0.110
-250.049	388.163	-0.088	-0.180
-249.034	67.962	0.217	-0.219
-248.019	-137.502	-0.297	0.033
-247.005	25.268	0.144	0.118
-245.990	-128.030	-0.083	-0.012
-244.976	-200.000	0.024	-0.238
-243.961	-50.491	0.201	-0.094
-242.946	-200.000	0.043	-0.337
-241.932	94.998	-0.067	0.076
-240.917	-91.812	-0.314	0.088
-239.903	-200.000	0.029	0.172
-238.888	185.110	0.140	0.205
-237.873	71.066	0.285	-0.291
-236.859	-200.000	0.018	0.185
-235.844	-143.542	0.190	-0.018
-234.830	612.463	0.078	0.193
-233.815	-200.000	0.029	0.267
-232.800	800.000	-0.136	-0.508
-231.786	52.922	0.317	-0.300
-230.771	-13.740	-0.198	0.127
-229.757	70.109	0.202	-0.206
-228.742	236.720	0.327	0.535
-227.727	315.603	0.080	-0.149
-226.713	-200.000	-0.065	-0.310
-225.698	-161.615	0.123	0.006
-224.684	800.000	0.069	0.258
-223.669	-200.000	0.013	0.278
-222.655	800.000	0.070	-0.280
-221.640	22.222	0.139	-0.112
-220.625	140.442	-0.125	-0.163
-219.611	94.729	-0.234	-0.263
-218.596	93.842	0.061	-0.068
-217.582	494.473	-0.033	-0.075
-216.567	-187.812	0.300	0.004
-215.552	83.924	0.200	0.215
-214.538	-200.000	-0.012	0.120
-213.523	-200.000	-0.016	0.160
-212.509	293.950	-0.188	0.339
-211.494	170.929	-0.137	0.193
-210.479	-46.794	0.208	-0.100
-209.465	59.285	-0.143	0.139
-208.450	-200.000	-0.031	0.155
-207.436	174.161	-0.083	-0.118
-206.421	-35.913	0.089	0.048
-205.406	-200.000	0.038	0.219
-204.392	108.690	0.067	-0.079
-203.377	-110.552	-0.063	-0.013
-202.363	45.897	0.292	-0.266
-201.348	420.665	0.103	-0.218
-200.333	800.000	-0.034	0.112
-199.319	-128.191	-0.397	0.056
-198.304	76.141	0.282	0.294
-197.290	-139.891	0.162	-0.017
-196.275	-30.741	0.219	-0.122
-195.260	609.961	-0.112	-0.275
-194.246	-90.029	0.215	-0.062
-193.231	111.374	0.249	0.296
-192.217	-144.294	-0.275	0.025
-191.202	71.218	0.106	-0.108
-190.187	-23.638	0.235	-0.139
-189.173	-8.106	0.115	0.076
-188.158	-200.000	-0.012	-0.121
-187.144	-200.000	-0.018	0.185
-186.129	32.248	0.368	0.313
-185.114	800.000	-0.134	0.370
-184.100	-21.147	-0.028	0.017
-183.085	461.880	0.051	0.112
-182.071	-200.000	-0.007	0.225
-181.056	121.172	0.176	-0.216
-180.042	120.459	0.151	-0.185
-179.027	46.092	-0.073	-0.067
-178.012	-160.152	-0.197	0.011
-176.998	216.233	-0.120	-0.188
-175.983	265.380	-0.193	0.332
-174.969	-121.748	0.224	0.037
-173.954	114.592	-0.241	0.289
-172.939	-200.000	-0.005	-0.337
-171.925	800.000	-0.043	-0.170
-170.910	-200.000	0.001	0.206
-169.896	51.865	0.165	-0.155
-168.881	-200.000	0.025	0.152
-167.866	160.044	-0.124	0.170
-166.852	-129.374	0.110	-0.015
-165.837	-107.331	0.184	0.040
-164.823	-50.440	0.279	0.130
-163.808	-86.656	-0.266	0.080
-162.793	-200.000	-0.014	0.139
-161.779	-57.669	0.237	-0.102
-160.764	242.766	0.185	0.306
-159.750	140.498	-0.148	0.192
-158.735	132.911	-0.215	-0.273
-157.720	31.853	-0.218	-0.185
-156.706	-101.287	0.295	0.071
-155.691	58.088	-0.141	0.136
-154.677	778.711	0.040	-0.108
-153.662	-98.984	0.093	-0.023
-152.647	2.290	0.165	0.117
-151.633	-55.719	-0.040	0.018
-150.618	103.323	0.109	-0.125
-149.604	-43.716	0.120	-0.060
-148.589	-200.000	0.073	-0.373
-147.574	110.729	0.120	-0.142
-146.560	60.807	-0.192	0.188
-145.545	154.934	0.195	0.264
-144.531	-18.406	-0.191	0.118
-143.516	678.088	-0.102	0.260
-142.502	-108.085	0.117	-0.025
-141.487	10.240	0.163	0.122
-140.472	-74.806	0.295	-0.104
-139.458	346.587	-0.124	0.241
-138.443	67.043	0.261	-0.261
-137.429	216.580	0.227	0.355
-136.414	-130.347	-0.091	0.012
-135.399	-198.489	0.107	0.001
-134.385	247.033	-0.032	0.052
-133.370	-72.131	-0.167	0.061
-132.356	-65.950	-0.351	-0.138
-131.341	-200.000	-0.037	-0.233
-130.326	-154.116	-0.312	0.021
-129.312	-101.496	-0.162	0.039
-128.297	-23.827	-0.145	-0.085
-127.283	30.816	0.089	0.075
-126.268	533.853	0.091	0.211
-125.253	3.914	-0.276	-0.198
-124.239	-45.277	0.153	0.075
-123.224	22.923	0.212	-0.171
-122.210	-102.452	0.199	0.047
-121.195	115.409	-0.131	0.157
