DTS Sentinel unit serial number:	SN413079Multiplexer serial number:	ORYXHardware model number:	OX4-SRSoftware version number:	ORYX F/W v4.00 Oryx Data Collector v3.7.2.0data status	okinstallation	princeton_trtdifferential loss correction	single-endedforward channel	channel 3reverse channel	N/Adate	2019/09/16time	05:24:35forward acquisition time	60.00reverse acquisition time	0.00gamma	496.2192k internal	0.2336k external	0.2336temperature offset calibration	0.9960default loss term (dB/km)	0.3790temperature slope calibration	1.0000multiplexer offset coefficient	1.0000multiplexer slope coefficient	1.0000fibre end	0.00T internal ref (°C)	27.27T ext. ref 1 (°C)	11.10T ext. ref 2 (°C)	22.14length (m)	temperature (°C)	Stokes	anti-Stokes-747.200	-62.791	0.084	0.035
-746.185	-200.000	-0.043	-0.195
-745.171	800.000	-0.113	0.415
-744.156	-200.000	0.009	0.246
-743.142	12.023	0.160	-0.123
-742.127	-114.900	0.190	0.036
-741.112	-92.236	0.226	-0.064
-740.098	6.078	-0.248	0.184
-739.083	-69.940	0.288	-0.110
-738.069	-72.956	0.057	0.021
-737.054	13.983	0.218	0.170
-736.039	-6.999	-0.168	-0.115
-735.025	70.362	0.031	-0.032
-734.010	-200.000	0.197	-0.882
-732.996	141.723	-0.255	-0.339
-731.981	-10.346	0.168	0.112
-730.966	-80.263	-0.361	-0.121
-729.952	800.000	0.062	0.211
-728.937	-105.137	0.299	-0.069
-727.923	24.103	-0.310	-0.257
-726.908	218.254	0.066	0.106
-725.894	29.926	-0.366	0.313
-724.879	117.712	0.074	-0.092
-723.864	-52.071	-0.077	-0.036
-722.850	449.857	0.058	0.128
-721.835	-200.000	0.003	0.321
-720.821	47.423	-0.144	0.134
-719.806	36.463	-0.011	0.010
-718.791	-200.000	0.096	-0.423
-717.777	-200.000	0.002	0.409
-716.762	-37.040	-0.454	-0.244
-715.748	346.607	-0.154	-0.304
-714.733	800.000	0.025	0.102
-713.718	-193.768	0.194	0.002
-712.704	462.106	0.117	-0.262
-711.689	-122.305	-0.273	-0.045
-710.675	-124.356	0.057	0.009
-709.660	-87.254	-0.124	-0.038
-708.645	134.541	0.153	-0.200
-707.631	-200.000	0.007	0.544
-706.616	-171.721	0.272	0.009
-705.602	-200.000	-0.010	-0.438
-704.587	-115.870	0.198	-0.037
-703.572	800.000	0.027	0.088
-702.558	-91.295	0.209	0.060
-701.543	-69.860	0.175	-0.067
-700.529	54.547	-0.110	-0.106
-699.514	-200.000	0.005	-0.150
-698.499	76.476	-0.149	-0.159
-697.485	143.640	-0.084	-0.112
-696.470	288.064	-0.230	-0.417
-695.456	274.480	-0.033	-0.058
-694.441	131.357	-0.203	-0.262
-693.426	-100.905	-0.054	-0.013
-692.412	800.000	0.057	0.198
-691.397	64.415	-0.300	-0.303
-690.383	-127.077	0.421	-0.062
-689.368	69.253	-0.111	0.114
-688.354	-184.212	-0.443	0.007
-687.339	-133.965	0.156	0.019
-686.324	-40.889	0.214	0.111
-685.310	-144.610	-0.329	-0.030
-684.295	-89.543	-0.139	-0.041
-683.281	184.063	0.053	0.079
-682.266	800.000	0.061	0.229
-681.251	-89.290	0.268	0.079
-680.237	-3.869	0.300	-0.209
-679.222	56.004	0.289	-0.281
-678.208	-74.566	0.122	0.044
-677.193	-41.817	0.218	-0.112
-676.178	116.769	0.130	-0.159
-675.164	159.543	-0.123	-0.172
-674.149	-139.958	0.218	-0.023
-673.135	-165.011	-0.193	0.009
-672.120	-24.778	-0.188	0.112
-671.105	-114.442	0.351	0.068
-670.091	99.310	0.184	-0.213
-669.076	800.000	0.132	-0.408
-668.062	51.370	0.255	-0.243
-667.047	53.497	-0.255	0.245
-666.032	-200.000	-0.042	-0.404
-665.018	24.840	0.051	-0.042
-664.003	800.000	0.027	-0.093
-662.989	-80.182	-0.212	0.071
-661.974	-83.331	-0.282	-0.091
-660.959	-25.823	-0.270	0.159
-659.945	800.000	0.129	-0.451
-658.930	-200.000	-0.009	-0.054
-657.916	186.667	-0.146	-0.217
-656.901	49.689	-0.234	0.221
-655.886	-76.303	-0.367	-0.129
-654.872	-5.929	0.197	-0.135
-653.857	800.000	-0.090	-0.251
-652.843	-153.223	-0.278	0.019
-651.828	-71.717	-0.235	0.088
-650.814	115.380	-0.095	0.117
-649.799	-144.270	-0.208	0.019
-648.784	13.410	-0.207	-0.161
-647.770	-200.000	-0.037	-0.192
-646.755	-7.465	0.174	-0.118
-645.741	-72.810	-0.389	0.143
-644.726	114.779	-0.113	0.137
-643.711	-120.384	-0.170	0.029
-642.697	-200.000	0.013	-0.068
-641.682	64.159	0.127	0.128
-640.668	471.593	-0.040	-0.089
-639.653	-89.207	0.108	-0.032
-638.638	-200.000	-0.001	0.057
-637.624	-37.247	0.107	0.057
-636.609	-200.000	-0.028	-0.265
-635.595	-200.000	-0.027	-0.149
-634.580	-38.360	0.080	-0.042
-633.565	311.163	-0.168	-0.315
-632.551	504.859	-0.129	0.299
-631.536	-200.000	-0.027	0.172
-630.522	-112.827	0.173	-0.034
-629.507	-164.736	-0.038	-0.002
-628.492	800.000	0.092	0.384
-627.478	-156.213	-0.185	-0.012
-626.463	800.000	-0.105	-0.428
-625.449	-106.256	-0.076	0.017
-624.434	-22.561	-0.150	-0.091
-623.419	167.494	0.052	-0.075
-622.405	174.765	-0.025	-0.036
-621.390	-24.394	-0.148	-0.088
-620.376	-63.743	-0.441	0.181
-619.361	113.952	-0.167	0.203
-618.346	-61.929	-0.051	-0.021
-617.332	51.550	0.116	-0.111
-616.317	-2.399	-0.482	0.338
-615.303	233.064	0.007	-0.011
-614.288	533.132	-0.236	0.559
-613.273	54.649	-0.093	-0.090
-612.259	-72.580	-0.174	-0.064
-611.244	-200.000	-0.001	0.238
-610.230	29.887	-0.175	-0.149
-609.215	800.000	0.090	-0.351
-608.201	-200.000	-0.020	0.125
-607.186	-134.123	0.439	-0.054
-606.171	-200.000	0.018	0.363
-605.157	7.117	0.108	0.081
-604.142	158.705	0.026	-0.036
-603.128	295.221	-0.050	-0.092
-602.113	290.873	-0.064	0.117
-601.098	800.000	0.074	0.248
-600.084	408.430	-0.044	0.092
-599.069	275.479	-0.119	-0.212
-598.055	-119.585	-0.154	0.027
-597.040	-45.111	-0.052	-0.026
-596.025	-200.000	0.008	-0.067
-595.011	-98.668	0.153	-0.039
-593.996	442.011	0.098	0.214
-592.982	-200.000	0.011	0.133
-591.967	-200.000	-0.040	-0.481
-590.952	428.617	-0.143	-0.309
-589.938	-200.000	-0.045	-0.202
-588.923	233.976	0.053	0.087
-587.909	338.637	0.124	0.242
-586.894	-132.558	-0.468	0.060
-585.879	-200.000	0.014	0.122
-584.865	178.534	0.014	0.021
-583.850	-200.000	-0.020	-0.091
-582.836	-33.464	0.230	-0.127
-581.821	-26.549	-0.244	-0.143
-580.806	411.113	0.203	-0.430
-579.792	45.343	0.064	0.059
-578.777	-59.287	0.223	-0.096
-577.763	-200.000	0.050	-0.329
-576.748	-200.000	-0.005	-0.113
-575.733	-116.135	0.323	0.060
-574.719	66.753	0.294	-0.299
-573.704	59.640	0.104	0.102
-572.690	3.973	0.272	-0.198
-571.675	800.000	0.009	-0.028
-570.661	-200.000	-0.050	0.510
-569.646	-124.858	-0.042	0.006
-568.631	-109.359	-0.332	0.070
-567.617	274.837	0.221	-0.390
-566.602	-156.191	0.263	-0.017
-565.588	26.088	-0.257	-0.214
-564.573	678.332	0.140	0.362
-563.558	800.000	-0.162	-0.471
-562.544	-200.000	0.013	-0.170
-561.529	-110.142	-0.180	-0.038
-560.515	-200.000	0.023	0.181
-559.500	442.946	0.011	-0.024
-558.485	-109.272	-0.124	0.026
-557.471	710.902	-0.114	-0.302
-556.456	29.820	-0.136	0.115
-555.442	-109.468	-0.145	0.031
-554.427	8.051	-0.134	0.100
-553.412	-33.889	0.252	-0.138
-552.398	-5.123	0.185	-0.127
-551.383	257.707	0.175	0.299
-550.369	-200.000	-0.005	0.037
-549.354	-24.060	-0.115	0.068
-548.339	-111.799	-0.286	-0.058
-547.325	129.452	-0.199	-0.253
-546.310	15.550	-0.354	0.278
-545.296	-70.414	0.084	0.032
-544.281	27.048	0.175	-0.146
-543.266	71.496	0.157	-0.162
-542.252	800.000	0.182	-0.622
-541.237	436.373	-0.178	-0.385
-540.223	3.627	-0.243	-0.176
-539.208	-200.000	0.006	0.192
-538.193	800.000	0.183	0.535
-537.179	20.550	-0.064	0.052
-536.164	90.655	0.074	-0.082
-535.150	-148.954	-0.111	-0.009
-534.135	132.373	0.058	0.075
-533.121	-151.644	0.242	-0.018
-532.106	55.978	-0.132	-0.128
-531.091	800.000	0.094	-0.296
-530.077	41.254	0.057	0.051
-529.062	-200.000	-0.042	-0.206
-528.048	-125.112	0.127	-0.019
-527.033	345.441	0.055	0.108
-526.018	99.568	-0.130	0.149
-525.004	207.927	-0.170	0.265
-523.989	9.420	-0.091	-0.068
-522.975	-200.000	-0.034	0.266
-521.960	458.910	0.106	-0.235
-520.945	22.541	0.296	-0.241
-519.931	233.549	-0.055	-0.089
-518.916	283.349	-0.126	0.225
-517.902	-132.700	0.179	0.023
-516.887	68.567	0.021	0.022
-515.872	16.690	-0.358	-0.282
-514.858	-200.000	0.010	0.428
-513.843	-200.000	0.002	-0.017
-512.829	223.716	-0.211	-0.340
-511.814	40.570	0.124	-0.111
-510.799	-67.440	0.261	-0.102
-509.785	-25.578	0.282	0.166
-508.770	460.053	0.113	-0.250
-507.756	800.000	0.150	-0.475
-506.741	72.969	-0.146	0.152
-505.726	-93.505	0.168	-0.046
-504.712	108.821	-0.220	-0.262
-503.697	800.000	-0.052	-0.153
-502.683	304.974	0.085	0.157
-501.668	-200.000	-0.062	0.276
-500.653	250.543	0.038	-0.065
-499.639	-101.641	0.065	-0.016
-498.624	-200.000	-0.015	0.246
-497.610	-36.122	0.419	0.225
-496.595	419.499	-0.191	0.406
-495.581	-32.371	-0.241	0.134
-494.566	-51.843	0.228	0.106
-493.551	-108.169	0.034	-0.007
-492.537	-25.240	-0.062	0.036
-491.522	-22.481	0.245	-0.148
-490.508	196.380	-0.214	-0.325
-489.493	-200.000	-0.001	-0.193
-488.478	800.000	-0.042	-0.160
-487.464	-19.718	-0.068	-0.042
-486.449	-200.000	0.009	0.088
-485.435	-79.811	-0.198	-0.066
-484.420	-105.420	-0.277	-0.063
-483.405	-184.102	-0.362	-0.006
-482.391	-43.509	-0.385	0.193
-481.376	-121.689	0.371	-0.061
-480.362	800.000	-0.016	0.062
-479.347	-133.074	0.063	0.008
-478.332	75.730	-0.089	0.093
-477.318	-56.026	0.293	0.130
-476.303	83.735	-0.255	0.277
-475.289	800.000	0.145	-0.528
-474.274	-200.000	-0.041	-0.226
-473.259	-37.057	-0.141	-0.075
-472.245	154.509	-0.182	0.249
-471.230	-200.000	-0.017	0.273
-470.216	-81.134	0.070	0.023
-469.201	373.368	0.134	-0.271
-468.186	195.035	-0.190	-0.286
-467.172	56.341	0.204	0.197
-466.157	33.134	-0.191	-0.164
-465.143	73.153	0.098	-0.102
-464.128	-30.618	0.148	-0.083
-463.113	-200.000	-0.012	0.239
-462.099	800.000	-0.087	-0.284
-461.084	-178.896	0.537	0.012
-460.070	800.000	-0.075	0.240
-459.055	323.535	-0.106	0.200
-458.040	322.695	-0.081	-0.154
-457.026	-131.435	-0.218	0.029
-456.011	-200.000	0.009	-0.179
-454.997	61.293	-0.078	-0.077
-453.982	-200.000	0.015	-0.298
-452.968	148.718	-0.108	-0.145
-451.953	-42.041	0.188	0.096
-450.938	-82.910	-0.342	-0.110
-449.924	10.265	0.030	-0.023
-448.909	19.264	-0.218	0.174
-447.895	-33.484	0.088	0.049
-446.880	-80.383	-0.249	-0.083
-445.865	674.201	0.050	0.129
-444.851	-83.435	0.416	-0.132
-443.836	-200.000	0.013	-0.102
-442.822	-200.000	0.001	0.125
-441.807	-200.000	0.006	-0.280
-440.792	-27.976	-0.192	0.111
-439.778	-44.907	-0.219	-0.108
-438.763	-89.082	0.075	0.022
-437.749	-88.547	0.236	-0.070
-436.734	3.202	-0.162	-0.117
-435.719	-32.008	-0.118	0.066
-434.705	-89.306	-0.151	0.044
-433.690	-200.000	0.002	-0.040
-432.676	-133.578	0.146	-0.018
-431.661	32.738	-0.221	0.190
-430.646	-32.338	0.236	-0.131
-429.632	10.611	0.123	-0.093
-428.617	371.299	-0.126	0.254
-427.603	-200.000	-0.012	0.137
-426.588	800.000	-0.075	0.219
-425.573	603.385	0.035	0.087
-424.559	-170.968	0.340	-0.011
-423.544	-98.268	0.182	-0.046
-422.530	-200.000	0.031	-0.199
-421.515	14.112	-0.288	0.222
-420.500	-12.430	0.105	-0.068
-419.486	-84.408	0.374	0.117
-418.471	70.414	0.069	-0.071
-417.457	-97.880	-0.390	0.100
-416.442	151.751	0.094	-0.127
-415.428	800.000	-0.134	0.416
-414.413	-74.979	0.210	0.075
-413.398	-122.978	0.325	-0.052
-412.384	399.953	0.095	0.197
-411.369	523.744	-0.115	0.268
-410.355	-21.398	-0.146	-0.088
-409.340	-200.000	-0.092	-0.400
-408.325	-15.652	-0.218	-0.138
-407.311	274.084	0.034	0.059
-406.296	-45.539	-0.223	0.109
-405.282	800.000	0.042	0.153
-404.267	773.430	-0.085	-0.230
-403.252	-34.708	0.219	0.119
-402.238	108.682	0.102	-0.121
-401.223	102.940	0.101	0.117
-400.209	-200.000	0.063	-0.293
-399.194	800.000	0.102	-0.338
-398.179	66.345	-0.158	-0.159
-397.165	-25.929	0.245	0.143
-396.150	-200.000	-0.003	-0.033
-395.136	-161.885	0.237	0.012
-394.121	-142.748	-0.160	-0.015
-393.106	800.000	-0.047	0.142
-392.092	-102.344	-0.133	-0.032
-391.077	-41.880	0.205	-0.104
-390.063	-76.846	-0.214	-0.074
-389.048	-200.000	-0.062	0.285
-388.033	-68.507	0.213	-0.082
-387.019	-147.143	-0.121	0.010
-386.004	-200.000	0.001	0.149
-384.990	87.976	-0.070	0.077
-383.975	-131.327	0.377	-0.049
-382.960	-59.698	0.219	0.093
-381.946	800.000	-0.109	0.396
-380.931	22.789	-0.160	-0.129
-379.917	-200.000	0.001	-0.042
-378.902	-12.811	0.136	-0.088
-377.888	241.726	-0.132	-0.218
-376.873	800.000	0.071	-0.207
-375.858	324.367	0.144	0.272
-374.844	135.590	0.325	-0.419
-373.829	94.282	-0.147	-0.166
-372.815	-65.918	0.142	-0.056
-371.800	360.872	-0.080	-0.159
-370.785	84.760	0.195	-0.212
-369.771	800.000	0.076	0.268
-368.756	800.000	-0.103	0.288
-367.742	-200.000	0.005	0.371
-366.727	-200.000	0.026	0.132
-365.712	800.000	0.040	0.120
-364.698	-38.613	0.156	-0.081
-363.683	-200.000	0.011	0.115
-362.669	-147.690	0.186	-0.015
-361.654	556.971	0.086	0.205
-360.639	-105.839	0.318	-0.071
-359.625	-143.663	0.127	-0.012
-358.610	288.872	-0.071	0.127
-357.596	78.252	0.071	0.075
-356.581	16.498	0.227	0.177
-355.566	-200.000	0.018	-0.161
-354.552	233.392	-0.041	-0.067
-353.537	-104.564	0.276	-0.063
-352.523	48.043	-0.090	0.083
-351.508	171.730	0.057	0.081
-350.493	800.000	-0.040	-0.110
-349.479	12.871	0.173	0.133
-348.464	-133.658	-0.307	-0.038
-347.450	-200.000	-0.069	-0.591
-346.435	800.000	0.037	-0.146
-345.420	-200.000	0.064	0.283
-344.406	-73.033	-0.137	0.050
-343.391	-200.000	-0.039	0.352
-342.377	800.000	-0.078	-0.300
-341.362	-22.962	-0.132	0.079
-340.348	-131.475	0.179	-0.023
-339.333	-200.000	-0.213	-0.001
-338.318	331.783	-0.070	-0.134
-337.304	-105.673	-0.106	0.024
-336.289	10.293	0.225	-0.169
-335.275	800.000	0.124	-0.364
-334.260	160.630	-0.219	-0.303
-333.245	72.479	-0.088	-0.091
-332.231	555.077	0.109	0.260
-331.216	-200.000	0.003	0.278
-330.202	-127.892	0.253	-0.036
-329.187	81.787	0.222	-0.238
-328.172	18.746	0.122	-0.097
-327.158	315.691	0.066	-0.122
-326.143	-37.561	0.167	-0.088
-325.129	298.879	-0.209	-0.381
-324.114	800.000	-0.086	-0.291
-323.099	-52.689	-0.142	-0.065
-322.085	-60.509	-0.034	-0.014
-321.070	376.178	-0.074	0.148
-320.056	310.992	-0.047	0.086
-319.041	-125.208	-0.151	-0.023
-318.026	-200.000	0.003	0.025
-317.012	485.031	-0.032	0.072
-315.997	23.027	-0.105	0.085
-314.983	317.332	0.120	-0.224
-313.968	290.252	-0.060	0.108
-312.953	11.410	0.237	-0.179
-311.939	-200.000	0.010	0.160
-310.924	-58.308	0.235	-0.101
-309.910	-200.000	0.023	0.128
-308.895	800.000	0.058	0.194
-307.880	636.511	0.062	-0.156
-306.866	800.000	0.049	-0.193
-305.851	-0.276	0.090	-0.063
-304.837	-200.000	-0.020	0.099
-303.822	287.492	0.168	0.300
-302.807	-31.840	-0.358	0.198
-301.793	68.771	-0.166	-0.168
-300.778	521.452	-0.072	0.166
-299.764	800.000	0.029	0.082
-298.749	74.812	0.109	-0.113
-297.735	29.318	0.192	0.161
-296.720	347.485	0.016	-0.031
-295.705	-61.023	-0.403	0.168
-294.691	-200.000	0.019	-0.244
-293.676	800.000	0.084	0.282
-292.662	14.766	-0.115	-0.089
-291.647	235.871	0.101	-0.165
-290.632	-81.933	-0.224	-0.072
-289.618	800.000	-0.031	0.084
-288.603	34.284	0.116	0.100
-287.589	-57.234	0.128	-0.055
-286.574	272.749	0.137	0.238
-285.559	-200.000	0.066	-0.377
-284.545	-155.109	-0.408	0.026
-283.530	-41.097	-0.223	0.114
-282.516	155.867	-0.021	-0.029
-281.501	423.437	-0.047	0.100
-280.486	-40.535	-0.166	0.085
-279.472	-28.461	-0.192	0.109
-278.457	39.883	0.113	0.100
-277.443	-200.000	-0.032	-0.269
-276.428	263.159	-0.174	-0.299
-275.413	31.769	-0.041	-0.035
-274.399	179.814	-0.002	0.003
-273.384	332.155	0.137	0.261
-272.370	-153.145	-0.259	0.018
-271.355	-66.874	0.321	0.125
-270.340	101.048	-0.143	-0.164
-269.326	180.163	0.061	-0.088
-268.311	110.974	-0.218	-0.259
-267.297	-36.227	0.253	0.135
-266.282	800.000	0.018	-0.060
-265.267	-155.266	-0.097	0.006
-264.253	1.369	-0.075	-0.053
-263.238	-25.164	0.144	-0.084
-262.224	-101.599	0.265	0.063
-261.209	-116.382	-0.158	0.029
-260.195	800.000	-0.081	0.275
-259.180	-129.101	-0.043	0.006
-258.165	57.395	-0.066	0.064
-257.151	28.169	-0.179	-0.149
-256.136	-200.000	0.027	0.329
-255.122	800.000	-0.039	0.146
-254.107	221.339	0.071	-0.113
-253.092	572.218	-0.146	0.350
-252.078	364.354	0.066	0.131
-251.063	-200.000	-0.011	0.310
-250.049	-144.285	-0.237	0.022
-249.034	-200.000	-0.034	0.152
-248.019	53.232	-0.326	0.308
-247.005	500.003	0.155	0.352
-245.990	66.197	-0.308	0.308
-244.976	-200.000	-0.009	-0.109
-243.961	-151.508	-0.434	-0.032
-242.946	363.675	-0.064	0.128
-241.932	-68.602	0.388	-0.148
-240.917	-133.614	0.029	-0.004
-239.903	800.000	-0.089	0.307
-238.888	175.434	-0.093	-0.133
-237.873	800.000	-0.054	0.220
-236.859	-103.709	0.278	0.064
-235.844	-83.374	0.298	0.094
-234.830	-49.956	0.354	-0.165
-233.815	-147.453	0.197	-0.016
-232.800	-64.049	0.152	-0.061
-231.786	47.356	-0.028	-0.026
-230.771	-200.000	-0.012	-0.192
-229.757	-200.000	0.013	0.151
-228.742	3.604	0.330	-0.237
-227.727	-63.674	-0.341	0.138
-226.713	-21.497	0.179	-0.108
-225.698	-71.022	-0.183	-0.068
-224.684	-92.330	-0.454	-0.126
-223.669	-74.921	-0.135	0.048
-222.655	95.252	0.219	0.245
-221.640	800.000	-0.060	0.199
-220.625	-200.000	-0.019	0.203
-219.611	-122.558	0.389	-0.062
-218.596	-200.000	-0.054	0.312
-217.582	-144.891	0.302	-0.027
-216.567	800.000	-0.115	0.354
-215.552	-111.209	-0.262	0.053
-214.538	133.317	0.109	0.139
-213.523	-176.245	-0.060	-0.002
-212.509	-125.534	-0.199	-0.030
-211.494	79.893	-0.214	0.226
-210.479	285.019	0.163	-0.289
-209.465	354.057	0.045	0.087
-208.450	-43.590	0.223	-0.110
-207.436	-200.000	-0.015	-0.077
-206.421	112.277	0.045	-0.053
-205.406	250.292	0.102	-0.170
-204.392	-123.818	-0.337	-0.052
-203.377	48.672	-0.233	0.215
-202.363	-200.000	-0.018	-0.085
-201.348	195.508	0.233	0.348
-200.333	-29.235	0.131	0.074
-199.319	-169.285	0.427	-0.015
-198.304	-69.047	-0.339	0.129
-197.290	-0.393	-0.085	-0.059
-196.275	-133.035	0.401	0.050
-195.260	-200.000	0.005	-0.165
-194.246	77.079	0.280	0.292
-193.231	-200.000	-0.004	0.213
-192.217	-17.884	0.090	-0.056
-191.202	-130.670	0.486	-0.064
-190.187	611.250	-0.104	-0.256
-189.173	154.213	-0.157	0.212
-188.158	12.309	-0.145	-0.110
-187.144	50.021	-0.075	-0.070
-186.129	-200.000	-0.097	-0.422
-185.114	115.337	0.095	0.114
-184.100	104.896	0.054	-0.063
-183.085	-96.890	0.045	0.011
-182.071	19.892	0.108	0.086
-181.056	509.307	-0.100	0.229
-180.042	79.673	-0.078	-0.083
-179.027	-200.000	0.036	-0.307
-178.012	-85.372	0.365	0.112
-176.998	82.979	0.060	-0.064
-175.983	177.697	-0.060	0.087
-174.969	-14.391	-0.150	0.095
-173.954	-200.000	-0.013	-0.346
-172.939	88.795	0.397	-0.434
-171.925	163.852	0.103	-0.142
-170.910	-85.507	0.040	-0.012
-169.896	-200.000	0.016	0.280
-168.881	185.051	0.166	0.242
-167.866	73.557	0.145	-0.149
-166.852	800.000	0.041	0.123
-165.837	62.519	-0.250	0.245
-164.823	-175.590	0.053	-0.001
-163.808	-167.618	0.293	0.011
-162.793	8.250	-0.303	0.223
-161.779	800.000	-0.080	0.255
-160.764	-55.149	0.232	0.103
-159.750	800.000	-0.067	0.246
-158.735	593.420	-0.044	-0.106
-157.720	116.114	-0.095	-0.114
-156.706	-0.523	-0.188	-0.131
-155.691	-28.878	0.081	-0.046
-154.677	237.041	-0.172	0.279
-153.662	49.030	-0.142	0.131
-152.647	-83.685	0.283	0.089
-151.633	185.124	0.050	-0.073
-150.618	800.000	-0.092	0.340
-149.604	21.968	0.228	0.182
-148.589	800.000	0.057	-0.170
-147.574	-147.010	-0.262	-0.022
-146.560	-71.731	0.206	0.075
-145.545	130.556	0.217	-0.273
-144.531	-9.427	-0.056	-0.037
-143.516	225.253	-0.156	-0.248
-142.502	-200.000	-0.031	-0.318
-141.487	-200.000	0.013	-0.162
-140.472	-200.000	-0.022	-0.207
-139.458	371.595	-0.159	0.316
-138.443	800.000	0.129	0.457
-137.429	-200.000	-0.035	-0.232
-136.414	-200.000	-0.004	0.291
-135.399	798.815	-0.051	-0.137
-134.385	-15.939	0.268	-0.167
-133.370	296.062	-0.123	0.222
-132.356	51.702	0.109	-0.101
-131.341	312.336	-0.075	-0.137
-130.326	614.879	-0.101	0.249
-129.312	-200.000	-0.043	-0.288
-128.297	82.868	-0.214	-0.228
-127.283	-24.436	0.269	0.157
-126.268	-200.000	0.043	-0.372
-125.253	-66.931	-0.152	0.059
-124.239	128.754	0.059	0.074
-123.224	-152.196	0.236	-0.017
-122.210	-5.516	-0.048	-0.032
