DTS Sentinel unit serial number:	SN413079Multiplexer serial number:	ORYXHardware model number:	OX4-SRSoftware version number:	ORYX F/W v4.00 Oryx Data Collector v3.7.2.0data status	okinstallation	princeton_trtdifferential loss correction	single-endedforward channel	channel 3reverse channel	N/Adate	2019/09/18time	01:24:35forward acquisition time	60.00reverse acquisition time	0.00gamma	496.2192k internal	0.2344k external	0.2344temperature offset calibration	0.9950default loss term (dB/km)	0.3790temperature slope calibration	1.0000multiplexer offset coefficient	1.0000multiplexer slope coefficient	1.0000fibre end	0.00T internal ref (°C)	23.12T ext. ref 1 (°C)	0.16T ext. ref 2 (°C)	16.90length (m)	temperature (°C)	Stokes	anti-Stokes-747.200	800.000	-0.080	-0.267
-746.185	44.164	-0.097	0.089
-745.171	800.000	0.059	0.174
-744.156	638.709	-0.199	0.506
-743.142	20.095	-0.023	0.019
-742.127	318.468	-0.151	-0.286
-741.112	777.511	0.087	-0.237
-740.098	102.728	-0.034	-0.040
-739.083	800.000	0.112	-0.420
-738.069	85.263	0.078	-0.086
-737.054	800.000	0.008	0.026
-736.039	-67.136	-0.162	0.064
-735.025	-200.000	0.148	0.001
-734.010	3.881	0.249	-0.182
-732.996	-28.994	-0.239	0.137
-731.981	-200.000	0.050	-0.257
-730.966	673.890	-0.052	0.136
-729.952	-46.924	-0.343	-0.168
-728.937	-200.000	-0.032	0.247
-727.923	-76.726	0.183	-0.064
-726.908	-200.000	0.024	-0.155
-725.894	753.315	-0.032	-0.086
-724.879	-140.490	0.262	-0.027
-723.864	91.198	-0.088	-0.098
-722.850	800.000	-0.042	-0.144
-721.835	79.857	0.271	-0.291
-720.821	501.696	0.075	0.172
-719.806	-35.459	-0.125	0.068
-718.791	128.836	0.173	0.221
-717.777	514.525	0.047	0.110
-716.762	-200.000	-0.006	-0.129
-715.748	21.175	-0.153	-0.124
-714.733	231.253	-0.023	0.037
-713.718	58.196	-0.231	-0.226
-712.704	48.724	-0.209	-0.196
-711.689	209.477	0.229	-0.359
-710.675	-200.000	-0.023	-0.339
-709.660	-122.853	0.272	0.044
-708.645	-200.000	0.011	-0.174
-707.631	-89.667	0.124	0.036
-706.616	160.398	-0.296	-0.412
-705.602	-110.309	0.510	-0.106
-704.587	-25.495	-0.355	0.209
-703.572	-66.065	0.067	0.027
-702.558	800.000	-0.044	-0.139
-701.543	319.792	0.122	0.231
-700.529	-200.000	-0.005	0.144
-699.514	303.789	0.118	-0.219
-698.499	502.027	-0.114	-0.264
-697.485	62.133	-0.301	0.300
-696.470	-200.000	-0.041	-0.241
-695.456	-130.037	-0.204	0.028
-694.441	-200.000	0.033	0.367
-693.426	51.868	0.070	0.067
-692.412	-132.828	0.108	-0.014
-691.397	84.271	-0.126	0.137
-690.383	383.023	0.113	0.232
-689.368	88.467	0.100	0.111
-688.354	-59.525	0.281	-0.120
-687.339	800.000	0.015	0.062
-686.324	-200.000	-0.003	0.242
-685.310	-117.004	0.071	-0.013
-684.295	-110.487	-0.342	0.071
-683.281	127.305	-0.297	0.376
-682.266	686.387	0.131	0.343
-681.251	800.000	0.141	0.477
-680.237	49.140	-0.109	-0.102
-679.222	28.059	-0.178	-0.149
-678.208	210.683	-0.072	0.112
-677.193	-151.597	0.233	-0.017
-676.178	84.514	0.150	-0.164
-675.164	322.255	0.038	0.073
-674.149	18.759	-0.008	0.006
-673.135	800.000	0.171	-0.571
-672.120	22.103	-0.219	-0.178
-671.105	78.423	-0.066	-0.070
-670.091	-89.808	0.187	0.055
-669.076	-64.360	-0.486	-0.197
-668.062	-83.959	0.102	-0.032
-667.047	14.349	-0.303	-0.236
-666.032	-62.479	0.226	0.094
-665.018	-86.662	0.217	0.066
-664.003	-5.506	-0.114	0.078
-662.989	81.280	-0.245	-0.264
-661.974	-34.757	0.261	0.142
-660.959	800.000	0.110	-0.315
-659.945	-118.908	0.095	0.017
-658.930	157.968	0.210	-0.290
-657.916	594.138	0.051	-0.125
-656.901	-161.320	0.104	0.005
-655.886	-41.490	0.208	-0.107
-654.872	-49.935	0.108	0.051
-653.857	24.029	-0.246	-0.202
-652.843	-200.000	0.035	-0.284
-651.828	-77.913	-0.399	0.137
-650.814	32.307	-0.146	0.126
-649.799	54.316	-0.094	-0.090
-648.784	-200.000	-0.004	-0.030
-647.770	65.385	-0.131	-0.132
-646.755	45.686	0.118	-0.109
-645.741	-19.375	0.099	-0.061
-644.726	74.569	-0.231	-0.242
-643.711	384.605	0.058	0.120
-642.697	-74.838	-0.059	0.021
-641.682	-76.482	-0.260	0.091
-640.668	427.318	-0.053	-0.114
-639.653	-127.904	-0.046	-0.007
-638.638	60.804	0.167	0.165
-637.624	151.941	-0.092	0.125
-636.609	-75.083	0.372	0.132
-635.595	710.148	-0.089	-0.234
-634.580	-90.253	0.421	-0.122
-633.565	-149.859	0.086	-0.007
-632.551	-46.915	-0.261	-0.127
-631.536	-200.000	0.026	-0.403
-630.522	800.000	0.063	-0.190
-629.507	-10.620	0.157	-0.103
-628.492	357.991	0.142	-0.282
-627.478	-200.000	0.009	-0.124
-626.463	163.567	0.154	0.216
-625.449	-200.000	0.003	0.205
-624.434	111.942	-0.132	-0.159
-623.419	-91.027	-0.352	-0.101
-622.405	143.994	0.116	-0.154
-621.390	570.782	-0.110	0.267
-620.376	-177.439	0.244	0.006
-619.361	83.077	-0.179	0.194
-618.346	-200.000	-0.013	-0.202
-617.332	55.476	-0.228	-0.219
-616.317	-15.865	-0.500	0.317
-615.303	-64.364	-0.078	-0.032
-614.288	254.880	-0.184	-0.313
-613.273	34.566	-0.251	-0.218
-612.259	225.364	0.137	-0.220
-611.244	462.834	0.010	0.023
-610.230	-200.000	0.042	0.235
-609.215	41.722	0.060	-0.054
-608.201	-37.492	-0.116	0.062
-607.186	-96.274	0.270	0.071
-606.171	-122.241	-0.220	0.036
-605.157	800.000	-0.095	-0.398
-604.142	-13.382	0.377	0.243
-603.128	-124.688	-0.175	-0.027
-602.113	800.000	0.068	-0.209
-601.098	37.714	-0.062	-0.055
-600.084	-123.951	-0.083	-0.013
-599.069	-200.000	0.003	-0.288
-598.055	-155.531	-0.380	0.024
-597.040	-71.859	-0.124	0.046
-596.025	-200.000	-0.044	0.213
-595.011	800.000	0.058	-0.235
-593.996	12.470	-0.121	0.093
-592.982	-33.454	0.376	-0.207
-591.967	-200.000	0.055	0.320
-590.952	-200.000	0.017	0.144
-589.938	-114.511	0.459	-0.088
-588.923	-80.660	-0.373	0.123
-587.909	26.972	0.275	0.229
-586.894	647.738	0.014	-0.035
-585.879	56.571	-0.135	0.130
-584.865	212.668	-0.081	-0.127
-583.850	243.263	-0.112	-0.188
-582.836	-8.040	0.192	0.129
-581.821	-104.459	0.017	-0.004
-580.806	-42.489	0.180	-0.091
-579.792	19.624	-0.154	-0.123
-578.777	-97.687	-0.620	-0.160
-577.763	-129.305	-0.275	0.038
-576.748	200.007	-0.081	0.124
-575.733	390.652	-0.083	0.171
-574.719	800.000	-0.059	0.169
-573.704	-148.804	0.281	0.023
-572.690	-49.701	0.212	0.100
-571.675	-95.919	0.055	-0.015
-570.661	800.000	0.020	0.085
-569.646	21.114	-0.138	0.111
-568.631	-58.143	0.058	0.025
-567.617	-90.914	-0.123	-0.035
-566.602	190.107	-0.042	-0.062
-565.588	36.465	-0.128	0.112
-564.573	-76.311	0.247	-0.086
-563.558	288.321	0.046	-0.082
-562.544	-168.232	-0.326	-0.013
-561.529	144.282	0.172	-0.228
-560.515	37.574	-0.230	-0.203
-559.500	4.136	0.284	-0.206
-558.485	800.000	0.040	0.133
-557.471	168.533	0.269	0.381
-556.456	800.000	-0.019	0.058
-555.442	-200.000	0.006	-0.084
-554.427	-88.696	-0.124	0.037
-553.412	679.124	-0.097	0.250
-552.398	-118.969	-0.191	0.033
-551.383	-127.998	0.245	-0.035
-550.369	-72.543	-0.087	0.032
-549.354	-31.741	-0.121	0.067
-548.339	800.000	0.050	0.167
-547.325	-7.341	0.184	0.124
-546.310	24.335	0.206	-0.169
-545.296	-92.622	-0.306	0.085
-544.281	720.469	0.053	-0.141
-543.266	-146.781	0.097	-0.008
-542.252	-200.000	-0.019	-0.177
-541.237	-107.028	0.334	-0.073
-540.223	400.233	0.033	0.069
-539.208	-200.000	0.011	0.077
-538.193	224.248	0.094	-0.152
-537.179	126.962	-0.162	0.204
-536.164	51.612	0.331	0.313
-535.150	-142.708	-0.282	0.027
-534.135	24.035	0.129	-0.106
-533.121	-95.804	0.224	0.059
-532.106	-55.932	-0.300	-0.133
-531.091	1.730	-0.086	0.062
-530.077	800.000	-0.062	-0.218
-529.062	-64.658	0.253	-0.102
-528.048	-200.000	0.067	0.392
-527.033	-200.000	-0.019	0.214
-526.018	278.772	0.091	-0.162
-525.004	-65.331	0.159	0.064
-523.989	148.775	0.067	-0.090
-522.975	42.192	0.222	-0.200
-521.960	-68.254	-0.248	-0.096
-520.945	-31.508	0.248	-0.138
-519.931	591.053	0.101	-0.248
-518.916	133.702	-0.236	-0.303
-517.902	-53.582	-0.047	0.021
-516.887	265.097	-0.043	0.074
-515.872	31.249	0.135	0.115
-514.858	800.000	0.115	0.364
-513.843	15.835	-0.083	-0.065
-512.829	542.279	0.182	0.431
-511.814	643.491	0.080	-0.202
-510.799	-50.222	0.390	0.183
-509.785	-200.000	0.005	0.041
-508.770	115.199	-0.264	-0.319
-507.756	-88.105	0.145	-0.043
-506.741	-73.042	0.630	-0.229
-505.726	-155.951	-0.171	0.011
-504.712	-200.000	-0.013	0.215
-503.697	431.257	0.093	0.199
-502.683	-43.897	0.095	-0.047
-501.668	71.503	0.088	0.091
-500.653	102.030	0.167	0.193
-499.639	-12.547	0.134	0.087
-498.624	171.406	0.151	-0.214
-497.610	-200.000	-0.007	0.099
-496.595	50.965	0.097	-0.091
-495.581	52.717	0.159	0.150
-494.566	84.984	-0.231	0.251
-493.551	153.742	-0.177	-0.241
-492.537	-136.814	-0.153	-0.017
-491.522	800.000	-0.055	-0.157
-490.508	57.534	-0.207	0.201
-489.493	-173.951	-0.129	-0.004
-488.478	-101.436	-0.209	0.051
-487.464	205.346	-0.070	0.108
-486.449	-200.000	-0.001	-0.041
-485.435	217.593	0.154	0.244
-484.420	-118.928	0.109	0.019
-483.405	460.283	0.092	-0.203
-482.391	387.316	0.088	-0.180
-481.376	800.000	-0.100	0.334
-480.362	-200.000	0.074	0.393
-479.347	38.191	0.068	0.060
-478.332	-109.872	-0.253	0.053
-477.318	-96.212	-0.102	-0.027
-476.303	-140.586	0.049	0.005
-475.289	-121.001	-0.244	-0.041
-474.274	-64.403	0.329	0.132
-473.259	281.706	0.060	0.107
-472.245	-200.000	-0.083	-0.367
-471.230	88.679	0.252	0.278
-470.216	-200.000	-0.047	0.274
-469.201	9.753	-0.250	-0.188
-468.186	155.813	0.090	0.122
-467.172	-200.000	-0.006	0.125
-466.157	-26.999	0.049	0.028
-465.143	1.659	0.252	0.180
-464.128	194.207	-0.120	-0.180
-463.113	-200.000	-0.021	-0.120
-462.099	636.814	-0.061	0.153
-461.084	154.962	-0.048	0.065
-460.070	-200.000	0.063	0.315
-459.055	-200.000	-0.023	-0.116
-458.040	488.615	-0.076	0.171
-457.026	-25.507	-0.093	-0.054
-456.011	60.315	-0.039	0.038
-454.997	800.000	-0.025	0.077
-453.982	82.224	-0.190	0.204
-452.968	800.000	-0.063	-0.201
-451.953	-99.906	-0.109	-0.027
-450.938	800.000	-0.053	-0.189
-449.924	-200.000	-0.063	-0.314
-448.909	140.239	0.149	0.194
-447.895	-200.000	-0.002	-0.080
-446.880	-190.458	0.243	0.003
-445.865	800.000	-0.051	0.172
-444.851	-200.000	-0.040	0.374
-443.836	800.000	-0.068	0.266
-442.822	23.759	-0.135	0.110
-441.807	-15.308	-0.146	0.092
-440.792	75.384	-0.190	-0.198
-439.778	157.748	0.045	-0.061
-438.763	12.023	0.095	0.072
-437.749	-200.000	0.002	0.163
-436.734	-200.000	0.018	0.111
-435.719	250.204	-0.165	-0.277
-434.705	-200.000	-0.042	-0.462
-433.690	238.897	-0.074	0.122
-432.676	211.637	0.137	-0.214
-431.661	-29.068	0.308	-0.174
-430.646	125.894	-0.062	0.078
-429.632	-200.000	-0.045	0.208
-428.617	493.703	0.143	0.324
-427.603	10.331	-0.229	0.172
-426.588	-200.000	0.007	-0.294
-425.573	418.910	-0.065	0.137
-424.559	108.258	0.127	0.150
-423.544	273.145	-0.050	0.088
-422.530	800.000	0.050	-0.155
-421.515	556.865	0.065	-0.154
-420.500	37.824	0.255	-0.224
-419.486	-200.000	0.006	0.119
-418.471	-72.726	-0.169	0.062
-417.457	136.839	-0.091	-0.118
-416.442	316.138	0.134	0.250
-415.428	-81.737	-0.175	-0.057
-414.413	754.718	-0.060	0.161
-413.398	165.953	0.229	-0.320
-412.384	152.738	0.133	-0.179
-411.369	-46.230	0.397	0.193
-410.355	800.000	-0.026	0.074
-409.340	-61.097	-0.123	0.051
-408.325	102.738	0.209	-0.241
-407.311	131.076	-0.318	-0.403
-406.296	-85.320	0.125	0.039
-405.282	-200.000	-0.059	-0.395
-404.267	-200.000	0.133	-0.664
-403.252	99.458	0.084	0.096
-402.238	46.687	-0.145	0.133
-401.223	-17.200	-0.053	-0.033
-400.209	346.601	-0.199	0.387
-399.194	-48.638	0.213	0.101
-398.179	-69.519	0.251	-0.095
-397.165	-64.613	-0.199	0.080
-396.150	224.814	-0.221	0.352
-395.136	-200.000	0.019	0.357
-394.121	800.000	-0.106	0.312
-393.106	-61.294	0.135	-0.056
-392.092	260.285	0.029	-0.050
-391.077	800.000	0.059	0.236
-390.063	194.548	-0.265	-0.397
-389.048	235.105	-0.255	-0.415
-388.033	271.555	0.142	-0.247
-387.019	-12.455	0.092	-0.059
-386.004	146.235	0.187	0.248
-384.990	414.916	-0.080	0.168
-383.975	800.000	-0.087	0.272
-382.960	-77.105	0.218	0.075
-381.946	-200.000	-0.032	0.199
-380.931	-80.037	0.082	-0.027
-379.917	68.725	0.038	-0.039
-378.902	-200.000	0.002	0.031
-377.888	34.589	0.048	-0.041
-376.873	-5.717	0.304	0.205
-375.858	148.180	0.132	0.176
-374.844	200.814	-0.139	-0.211
-373.829	772.527	0.077	-0.208
-372.815	183.145	0.034	0.050
-371.800	-99.612	0.149	-0.037
-370.785	181.886	-0.083	0.120
-369.771	103.477	-0.078	0.091
-368.756	-37.677	-0.183	-0.096
-367.742	-137.002	-0.097	0.011
-366.727	800.000	0.104	0.433
-365.712	573.440	-0.082	-0.198
-364.698	-73.152	0.097	-0.035
-363.683	545.195	-0.037	-0.086
-362.669	-106.863	0.318	0.070
-361.654	-98.473	0.144	-0.036
-360.639	-11.820	0.437	-0.283
-359.625	800.000	-0.034	-0.103
-358.610	204.695	-0.205	-0.313
-357.596	9.540	-0.161	0.120
-356.581	99.380	-0.251	-0.286
-355.566	-86.636	-0.080	0.024
-354.552	-147.836	0.413	-0.034
-353.537	800.000	-0.009	-0.039
-352.523	-7.278	-0.092	-0.061
-351.508	-79.880	0.182	0.060
-350.493	800.000	0.112	-0.443
-349.479	-6.876	-0.148	0.099
-348.464	197.343	-0.128	0.193
-347.450	244.495	-0.108	-0.179
-346.435	69.474	0.121	0.123
-345.420	466.419	0.223	0.493
-344.406	646.443	-0.069	0.173
-343.391	99.478	-0.294	-0.335
-342.377	-131.858	0.273	0.035
-341.362	800.000	-0.073	-0.202
-340.348	415.393	-0.103	-0.215
-339.333	-58.530	0.369	0.158
-338.318	-61.688	0.234	-0.097
-337.304	-200.000	0.042	-0.256
-336.289	-200.000	0.001	0.157
-335.275	114.775	-0.048	-0.057
-334.260	-53.748	-0.234	0.105
-333.245	-93.710	0.308	-0.084
-332.231	-200.000	0.032	0.181
-331.216	-18.681	0.347	-0.213
-330.202	-108.483	0.109	-0.023
-329.187	-29.105	0.294	0.166
-328.172	-39.052	-0.521	-0.270
-327.158	-48.284	0.138	0.066
-326.143	13.909	0.123	-0.094
-325.129	-80.968	0.131	-0.043
-324.114	86.993	-0.180	-0.196
-323.099	-0.105	-0.314	-0.220
-322.085	-65.446	0.285	-0.113
-321.070	-102.157	-0.220	-0.052
-320.056	-56.630	-0.237	0.103
-319.041	-200.000	0.024	0.144
-318.026	-136.526	-0.192	-0.022
-317.012	46.704	-0.223	0.204
-315.997	-10.643	-0.339	0.221
-314.983	-149.445	-0.202	-0.016
-313.968	-143.897	-0.191	0.018
-312.953	-78.355	-0.135	-0.046
-311.939	-200.000	0.011	-0.226
-310.924	-200.000	-0.022	0.096
-309.910	274.528	-0.027	-0.047
-308.895	-200.000	-0.050	0.447
-307.880	-200.000	-0.046	-0.301
-306.866	-131.282	0.281	0.037
-305.851	130.196	-0.161	-0.203
-304.837	800.000	-0.092	0.263
-303.822	-100.505	0.211	0.051
-302.807	-7.588	-0.178	-0.119
-301.793	67.593	0.210	-0.211
-300.778	-200.000	-0.013	0.140
-299.764	244.362	-0.162	-0.267
-298.749	-129.500	-0.184	0.025
-297.735	433.547	0.087	0.186
-296.720	72.167	-0.196	-0.201
-295.705	-80.670	-0.120	-0.039
-294.691	41.221	0.052	0.046
-293.676	17.315	-0.101	-0.079
-292.662	-130.841	0.273	-0.036
-291.647	-143.541	-0.412	-0.039
-290.632	-200.000	-0.044	0.333
-289.618	-21.156	-0.442	0.266
-288.603	156.755	0.328	0.446
-287.589	800.000	0.099	-0.288
-286.574	-146.089	-0.272	0.024
-285.559	-18.477	-0.403	0.248
-284.545	256.005	-0.174	-0.294
-283.530	150.438	-0.156	0.208
-282.516	-36.965	0.313	0.165
-281.501	800.000	0.111	-0.359
-280.486	744.819	0.151	-0.400
-279.472	35.320	0.274	-0.236
-278.457	800.000	0.074	-0.253
-277.443	50.150	0.120	0.111
-276.428	-121.575	-0.226	0.037
-275.413	-48.058	-0.038	-0.018
-274.399	169.141	-0.177	0.248
-273.384	162.938	-0.082	0.114
-272.370	-200.000	-0.005	0.166
-271.355	-51.433	-0.102	0.047
-270.340	-59.302	0.308	-0.130
-269.326	-104.189	0.300	0.068
-268.311	-162.348	-0.169	0.008
-267.297	-142.319	-0.304	-0.030
-266.282	181.041	0.068	-0.098
-265.267	-27.790	0.236	0.134
-264.253	-77.061	0.174	0.060
-263.238	-109.942	0.286	0.059
-262.224	-16.069	-0.075	0.047
-261.209	-200.000	-0.001	0.123
-260.195	151.683	0.180	0.241
-259.180	-73.294	0.250	-0.090
-258.165	-200.000	-0.000	-0.156
-257.151	284.298	0.029	0.051
-256.136	324.185	-0.127	-0.238
-255.122	57.560	0.177	-0.170
-254.107	-21.450	-0.245	-0.147
-253.092	-78.889	0.243	-0.081
-252.078	-135.622	0.092	-0.011
-251.063	-109.200	0.310	-0.065
-250.049	-42.368	-0.280	0.140
-249.034	101.905	0.101	0.116
-248.019	-62.054	0.345	0.141
-247.005	-75.248	-0.435	0.152
-245.990	800.000	0.101	-0.436
-244.976	800.000	0.142	-0.586
-243.961	-112.179	0.248	0.049
-242.946	-121.551	-0.344	-0.056
-241.932	294.779	0.102	-0.183
-240.917	60.440	0.131	0.127
-239.903	-52.315	-0.115	0.052
-238.888	-200.000	-0.072	-0.329
-237.873	81.242	0.234	-0.248
-236.859	-65.351	-0.081	0.032
-235.844	-56.830	-0.332	-0.144
-234.830	50.726	-0.068	-0.063
-233.815	-171.148	-0.227	0.008
-232.800	-147.866	0.332	-0.027
-231.786	-81.511	0.113	0.036
-230.771	83.615	0.093	-0.099
-229.757	-88.721	0.374	0.109
-228.742	-138.034	-0.287	0.031
-227.727	16.043	-0.056	0.043
-226.713	152.725	0.028	0.038
-225.698	-61.554	-0.402	-0.166
-224.684	617.551	-0.168	0.414
-223.669	-200.000	0.034	0.275
-222.655	-77.433	-0.154	-0.052
-221.640	800.000	-0.011	0.030
-220.625	155.808	0.193	0.260
-219.611	-200.000	0.001	0.090
-218.596	-156.742	-0.172	0.010
-217.582	-136.340	-0.214	0.024
-216.567	800.000	-0.072	-0.230
-215.552	721.721	0.034	-0.089
-214.538	-85.001	-0.126	0.039
-213.523	800.000	-0.162	0.638
-212.509	163.618	0.197	-0.272
-211.494	609.148	-0.103	-0.251
-210.479	88.604	-0.100	-0.109
-209.465	800.000	-0.072	0.307
-208.450	-119.398	0.222	0.038
-207.436	-160.084	0.172	0.009
-206.421	-200.000	0.014	0.253
-205.406	80.717	0.162	0.171
-204.392	384.015	-0.107	-0.215
-203.377	513.947	0.070	0.160
-202.363	-138.148	0.175	0.019
-201.348	-106.676	0.332	-0.072
-200.333	-200.000	0.052	0.374
-199.319	-200.000	-0.026	0.416
-198.304	-74.387	-0.276	0.098
-197.290	-9.032	0.231	-0.152
-196.275	-200.000	-0.018	-0.286
-195.260	281.352	-0.037	0.065
-194.246	800.000	0.062	-0.229
-193.231	-22.134	0.208	-0.124
-192.217	-67.357	-0.077	-0.030
-191.202	-64.870	-0.136	0.054
-190.187	-200.000	-0.004	-0.137
-189.173	-74.214	-0.347	0.123
-188.158	-197.477	-0.167	-0.001
-187.144	-119.495	-0.147	0.025
-186.129	-200.000	-0.035	0.169
-185.114	-75.884	0.030	-0.010
-184.100	137.762	-0.101	-0.129
-183.085	-200.000	-0.050	0.217
-182.071	405.644	-0.187	0.387
-181.056	-200.000	-0.041	0.222
-180.042	78.066	0.086	-0.089
-179.027	-200.000	0.188	-0.001
-178.012	800.000	-0.083	0.245
-176.998	249.940	0.091	-0.151
-175.983	-119.397	-0.069	-0.012
-174.969	193.302	0.150	0.222
-173.954	-47.832	0.282	-0.134
-172.939	193.609	-0.032	0.047
-171.925	-99.303	-0.073	0.018
-170.910	270.902	0.167	0.288
-169.896	800.000	0.071	-0.294
-168.881	-78.949	-0.165	0.055
-167.866	137.874	-0.315	0.404
-166.852	-57.765	0.264	0.113
-165.837	337.376	0.114	0.217
-164.823	45.563	-0.117	0.106
-163.808	-200.000	-0.006	-0.497
-162.793	-67.814	0.085	0.033
-161.779	-96.462	-0.295	0.076
-160.764	800.000	-0.086	-0.334
-159.750	800.000	-0.050	-0.211
-158.735	800.000	-0.060	-0.210
-157.720	800.000	0.067	-0.230
-156.706	266.542	0.115	-0.196
-155.691	-114.540	-0.075	-0.014
-154.677	-200.000	0.036	-0.313
-153.662	800.000	-0.056	0.153
-152.647	294.264	0.054	-0.096
-151.633	-57.371	-0.216	0.093
-150.618	-151.250	0.269	-0.020
-149.604	0.645	0.161	-0.113
-148.589	164.549	0.123	0.170
-147.574	-200.000	0.054	0.385
-146.560	-22.817	-0.175	-0.103
-145.545	-200.000	-0.015	-0.127
-144.531	-142.938	0.196	-0.019
-143.516	217.582	0.131	-0.204
-142.502	-200.000	0.016	0.079
-141.487	-50.974	-0.233	-0.107
-140.472	170.519	-0.133	-0.187
-139.458	267.206	-0.175	-0.300
-138.443	-143.659	0.068	-0.006
-137.429	196.362	-0.132	-0.196
-136.414	16.631	0.179	-0.139
-135.399	54.841	-0.036	-0.034
-134.385	1.823	0.162	0.114
-133.370	-36.210	-0.024	0.012
-132.356	241.617	0.125	-0.204
-131.341	120.249	-0.071	0.086
-130.326	800.000	0.046	0.189
-129.312	-200.000	0.005	0.318
-128.297	-102.948	0.342	0.079
-127.283	126.737	0.040	0.049
-126.268	-200.000	0.018	-0.148
-125.253	-67.917	0.153	-0.058
-124.239	-200.000	-0.034	0.327
-123.224	-149.715	-0.306	0.023
-122.210	-81.104	0.307	-0.099
-121.195	800.000	0.046	0.171
-120.180	204.540	0.232	0.351
