DTS Sentinel unit serial number:	SN413079Multiplexer serial number:	ORYXHardware model number:	OX4-SRSoftware version number:	ORYX F/W v4.00 Oryx Data Collector v3.7.2.0data status	okinstallation	princeton_trtdifferential loss correction	single-endedforward channel	channel 3reverse channel	N/Adate	2019/09/19time	08:04:35forward acquisition time	60.00reverse acquisition time	0.00gamma	496.2192k internal	0.2347k external	0.2347temperature offset calibration	0.9982default loss term (dB/km)	0.3790temperature slope calibration	1.0000multiplexer offset coefficient	1.0000multiplexer slope coefficient	1.0000fibre end	0.00T internal ref (°C)	19.94T ext. ref 1 (°C)	0.56T ext. ref 2 (°C)	15.60length (m)	temperature (°C)	Stokes	anti-Stokes-747.200	-200.000	0.001	0.242
-746.185	781.931	-0.066	0.182
-745.171	-65.130	-0.278	-0.112
-744.156	150.235	0.089	0.121
-743.142	105.276	0.164	-0.194
-742.127	-29.670	-0.296	0.169
-741.112	-200.000	0.006	-0.241
-740.098	-7.110	-0.308	-0.209
-739.083	-103.414	0.349	0.082
-738.069	-119.274	-0.316	-0.055
-737.054	-78.615	-0.202	0.069
-736.039	-149.657	-0.434	-0.034
-735.025	92.791	0.267	0.302
-734.010	-79.357	-0.205	-0.069
-732.996	-15.282	0.113	-0.072
-731.981	-200.000	0.046	0.248
-730.966	-163.194	0.214	0.010
-729.952	-200.000	-0.010	0.060
-728.937	-54.708	-0.375	0.170
-727.923	800.000	0.014	0.045
-726.908	-200.000	-0.022	-0.205
-725.894	37.844	-0.215	-0.191
-724.879	180.125	-0.053	0.078
-723.864	-200.000	0.090	-0.452
-722.850	-17.941	-0.023	0.015
-721.835	-200.000	-0.009	-0.194
-720.821	-101.976	-0.534	0.129
-719.806	86.052	-0.393	-0.432
-718.791	75.202	0.284	-0.299
-717.777	645.751	0.093	-0.237
-716.762	-200.000	-0.050	-0.243
-715.748	38.519	0.217	0.193
-714.733	-82.937	-0.393	-0.127
-713.718	-78.603	-0.236	-0.081
-712.704	-91.511	-0.109	0.031
-711.689	104.690	0.066	0.078
-710.675	800.000	0.052	-0.175
-709.660	-121.548	0.225	0.037
-708.645	-184.009	-0.384	0.006
-707.631	-76.377	0.083	-0.029
-706.616	553.100	-0.105	-0.252
-705.602	285.016	-0.028	0.050
-704.587	-106.093	0.325	-0.073
-703.572	-200.000	-0.014	-0.272
-702.558	16.854	-0.176	0.139
-701.543	-200.000	-0.000	-0.070
-700.529	-116.566	-0.116	0.021
-699.514	64.357	-0.030	0.030
-698.499	315.511	0.116	-0.219
-697.485	-183.548	0.402	-0.007
-696.470	-200.000	0.042	0.197
-695.456	130.543	-0.239	0.306
-694.441	135.582	-0.149	-0.193
-693.426	800.000	-0.065	0.182
-692.412	-200.000	0.017	-0.107
-691.397	-34.366	-0.112	0.061
-690.383	800.000	-0.016	-0.064
-689.368	275.359	-0.160	-0.283
-688.354	-76.838	0.237	-0.083
-687.339	-124.447	-0.107	0.017
-686.324	293.222	0.152	-0.276
-685.310	-49.412	-0.262	-0.125
-684.295	249.134	-0.142	-0.240
-683.281	-61.704	-0.359	0.150
-682.266	-53.898	0.154	0.070
-681.251	444.448	0.078	-0.171
-680.237	282.191	-0.046	0.082
-679.222	329.432	-0.148	-0.283
-678.208	-200.000	-0.027	0.139
-677.193	-39.381	0.255	0.133
-676.178	-104.489	0.166	-0.038
-675.164	-69.237	-0.074	0.028
-674.149	418.786	-0.176	-0.376
-673.135	149.276	0.081	0.109
-672.120	465.165	-0.066	0.148
-671.105	-113.966	-0.441	-0.085
-670.091	-79.432	-0.247	0.083
-669.076	360.695	0.154	-0.308
-668.062	-200.000	-0.005	-0.349
-667.047	14.925	-0.199	-0.156
-666.032	-28.768	0.086	0.049
-665.018	-134.832	-0.187	-0.023
-664.003	-79.485	-0.213	-0.072
-662.989	-200.000	0.035	0.177
-661.974	-153.462	0.287	-0.020
-660.959	-133.336	-0.234	0.029
-659.945	-19.935	0.210	0.129
-658.930	20.536	0.443	0.357
-657.916	4.195	0.193	0.141
-656.901	177.711	-0.060	-0.087
-655.886	800.000	-0.161	-0.561
-654.872	246.641	-0.164	0.276
-653.857	107.369	-0.372	-0.441
-652.843	-200.000	-0.035	-0.174
-651.828	-48.601	-0.233	0.112
-650.814	-104.599	0.579	-0.133
-649.799	800.000	0.079	0.239
-648.784	57.428	0.316	-0.307
-647.770	-32.363	-0.075	0.042
-646.755	-200.000	0.007	-0.152
-645.741	13.391	0.083	-0.064
-644.726	-29.600	-0.128	0.073
-643.711	-108.516	0.437	-0.094
-642.697	-200.000	-0.026	-0.369
-641.682	-200.000	-0.018	-0.262
-640.668	-86.554	0.042	-0.013
-639.653	-131.082	0.336	-0.045
-638.638	231.183	-0.151	-0.247
-637.624	74.185	0.100	-0.105
-636.609	8.473	0.130	0.097
-635.595	-200.000	0.023	0.145
-634.580	-40.208	-0.099	0.052
-633.565	-111.537	0.158	0.032
-632.551	205.601	0.100	-0.154
-631.536	134.474	-0.133	0.172
-630.522	7.861	0.133	0.099
-629.507	-200.000	-0.014	-0.174
-628.492	-104.535	0.041	0.009
-627.478	181.817	0.122	-0.179
-626.463	186.804	-0.142	-0.211
-625.449	-82.930	-0.378	0.122
-624.434	-200.000	-0.007	-0.090
-623.419	-200.000	0.029	-0.140
-622.405	320.730	-0.045	-0.084
-621.390	21.344	-0.167	0.135
-620.376	46.158	0.066	-0.061
-619.361	-200.000	0.027	0.289
-618.346	-15.398	-0.377	0.239
-617.332	-171.516	0.230	0.008
-616.317	-75.781	0.151	-0.053
-615.303	667.241	0.088	0.227
-614.288	746.955	0.022	0.058
-613.273	89.812	-0.296	-0.329
-612.259	103.157	-0.130	0.151
-611.244	-75.800	0.177	0.062
-610.230	608.258	-0.090	-0.224
-609.215	278.010	0.050	0.089
-608.201	61.278	-0.121	-0.119
-607.186	-33.690	-0.196	-0.107
-606.171	154.329	0.082	-0.112
-605.157	123.125	-0.167	-0.208
-604.142	-99.993	0.157	-0.039
-603.128	-176.546	0.102	-0.003
-602.113	-161.925	0.173	-0.009
-601.098	-200.000	-0.017	-0.154
-600.084	38.835	0.048	0.043
-599.069	-34.450	0.131	-0.072
-598.055	-43.276	-0.160	0.081
-597.040	-66.707	-0.410	-0.162
-596.025	-188.378	0.245	-0.003
-595.011	-39.686	-0.260	0.135
-593.996	151.197	-0.165	-0.223
-592.982	104.489	-0.054	-0.063
-591.967	262.749	0.109	-0.188
-590.952	800.000	0.030	-0.101
-589.938	124.817	-0.133	0.167
-588.923	-36.350	0.067	-0.036
-587.909	800.000	-0.019	-0.062
-586.894	800.000	-0.114	-0.342
-585.879	140.974	-0.110	0.145
-584.865	800.000	0.046	-0.152
-583.850	262.954	0.179	0.309
-582.836	-153.013	-0.287	0.020
-581.821	248.920	-0.138	-0.232
-580.806	-85.952	-0.157	0.048
-579.792	-89.003	0.267	-0.078
-578.777	735.363	0.135	-0.359
-577.763	800.000	0.006	0.020
-576.748	-200.000	0.032	0.182
-575.733	-19.153	0.279	-0.172
-574.719	-109.427	0.089	-0.019
-573.704	84.423	-0.217	-0.236
-572.690	-200.000	-0.028	-0.174
-571.675	9.859	0.172	-0.130
-570.661	800.000	0.023	0.088
-569.646	-195.513	0.252	0.002
-568.631	-200.000	0.017	-0.217
-567.617	283.120	0.128	0.229
-566.602	-200.000	0.001	0.299
-565.588	-200.000	0.046	-0.201
-564.573	24.593	0.116	-0.095
-563.558	-200.000	0.031	-0.151
-562.544	-200.000	-0.030	0.144
-561.529	-200.000	-0.032	0.200
-560.515	-58.826	0.117	-0.050
-559.500	-29.447	-0.162	-0.092
-558.485	-73.714	0.211	-0.076
-557.471	-88.133	-0.304	0.091
-556.456	-200.000	-0.026	-0.274
-555.442	-200.000	0.053	0.259
-554.427	-46.743	-0.466	0.227
-553.412	800.000	-0.040	-0.153
-552.398	-36.768	0.285	-0.152
-551.383	-165.872	0.222	-0.009
-550.369	58.523	0.098	-0.095
-549.354	54.731	0.288	0.275
-548.339	-105.423	0.117	-0.026
-547.325	-85.062	-0.310	-0.096
-546.310	-173.080	0.308	0.009
-545.296	157.970	0.086	-0.118
-544.281	49.124	0.237	0.221
-543.266	800.000	0.015	-0.061
-542.252	-164.212	-0.187	-0.009
-541.237	-128.203	0.216	0.031
-540.223	800.000	0.069	0.243
-539.208	159.394	0.079	0.109
-538.193	-200.000	0.043	-0.263
-537.179	57.513	0.097	0.094
-536.164	-200.000	-0.008	0.090
-535.150	482.133	-0.121	-0.273
-534.135	-146.089	0.105	-0.009
-533.121	27.703	0.141	0.118
-532.106	-31.155	-0.091	0.051
-531.091	28.424	-0.179	0.150
-530.077	245.858	-0.173	0.289
-529.062	-31.568	0.249	0.139
-528.048	-99.927	-0.150	0.037
-527.033	800.000	0.114	-0.319
-526.018	-200.000	-0.020	-0.209
-525.004	-200.000	-0.011	-0.150
-523.989	-41.407	-0.299	0.153
-522.975	215.939	-0.140	0.221
-521.960	456.706	-0.123	-0.271
-520.945	800.000	-0.052	0.149
-519.931	157.961	-0.106	0.145
-518.916	110.425	0.160	0.190
-517.902	-200.000	-0.003	0.450
-516.887	92.960	0.112	-0.125
-515.872	-160.794	-0.338	0.018
-514.858	-200.000	-0.018	-0.299
-513.843	27.157	-0.204	-0.170
-512.829	800.000	0.083	-0.311
-511.814	-200.000	-0.067	0.381
-510.799	-121.234	-0.385	0.064
-509.785	-129.058	0.244	-0.034
-508.770	227.613	-0.198	0.320
-507.756	-102.920	-0.097	0.023
-506.741	-200.000	-0.010	0.309
-505.726	610.162	-0.057	0.140
-504.712	-200.000	0.034	-0.245
-503.697	-129.892	0.262	-0.036
-502.683	174.785	-0.253	-0.362
-501.668	102.592	0.125	0.145
-500.653	-100.150	-0.278	0.069
-499.639	-82.305	0.293	0.095
-498.624	-112.215	0.206	0.041
-497.610	800.000	-0.018	-0.064
-496.595	-55.177	-0.632	0.282
-495.581	-61.314	0.219	-0.091
-494.566	-151.699	-0.323	-0.024
-493.551	-200.000	-0.005	-0.051
-492.537	37.561	-0.038	0.033
-491.522	163.192	0.268	0.373
-490.508	6.406	0.297	-0.218
-489.493	-84.298	-0.322	0.101
-488.478	800.000	-0.086	0.356
-487.464	116.539	-0.057	0.069
-486.449	-21.820	0.043	-0.026
-485.435	-200.000	-0.004	-0.173
-484.420	20.653	-0.185	-0.148
-483.405	498.330	0.020	0.045
-482.391	-86.021	0.186	0.057
-481.376	800.000	-0.057	-0.215
-480.362	800.000	0.103	-0.282
-479.347	31.519	-0.116	-0.099
-478.332	-186.824	-0.372	-0.005
-477.318	-158.401	0.192	0.011
-476.303	-67.982	-0.162	-0.063
-475.289	18.710	0.072	0.057
-474.274	-33.164	-0.256	0.140
-473.259	8.135	0.167	-0.124
-472.245	-125.676	0.534	-0.080
-471.230	-38.327	-0.703	-0.368
-470.216	-127.482	-0.104	-0.015
-469.201	-50.669	0.238	-0.111
-468.186	300.065	-0.098	-0.179
-467.172	-200.000	0.005	-0.065
-466.157	800.000	0.063	-0.182
-465.143	90.154	0.098	-0.108
-464.128	-134.027	0.048	0.006
-463.113	800.000	-0.075	-0.259
-462.099	161.531	0.080	0.111
-461.084	-8.052	-0.265	0.177
-460.070	-200.000	0.016	-0.177
-459.055	186.761	0.163	0.240
-458.040	-175.080	0.230	-0.006
-457.026	-200.000	0.029	-0.240
-456.011	100.438	0.167	-0.191
-454.997	550.010	0.110	0.260
-453.982	-90.678	-0.174	0.050
-452.968	800.000	0.094	0.286
-451.953	391.039	0.155	0.318
-450.938	800.000	0.076	-0.246
-449.924	800.000	-0.026	-0.079
-448.909	-136.487	0.215	-0.025
-447.895	-164.333	-0.104	-0.005
-446.880	127.332	0.123	-0.154
-445.865	70.043	0.367	-0.374
-444.851	39.977	0.208	0.185
-443.836	-200.000	0.001	-0.113
-442.822	800.000	-0.042	-0.119
-441.807	-47.890	0.268	-0.128
-440.792	-101.242	-0.200	-0.048
-439.778	85.708	0.148	0.161
-438.763	800.000	0.015	0.058
-437.749	557.539	-0.089	0.212
-436.734	139.647	0.148	0.192
-435.719	-166.508	0.142	-0.006
-434.705	619.573	-0.048	0.119
-433.690	-49.353	-0.133	0.063
-432.676	800.000	0.050	0.199
-431.661	-200.000	0.004	0.086
-430.646	800.000	-0.055	-0.153
-429.632	114.641	-0.118	0.142
-428.617	-200.000	0.026	0.154
-427.603	-107.973	0.130	-0.028
-426.588	-43.712	0.537	-0.267
-425.573	-200.000	-0.037	0.309
-424.559	-44.046	0.226	0.112
-423.544	156.819	-0.090	0.122
-422.530	90.139	0.304	0.335
-421.515	800.000	0.025	-0.104
-420.500	-85.195	-0.500	0.154
-419.486	800.000	-0.022	-0.088
-418.471	-102.634	0.345	-0.081
-417.457	-119.384	-0.325	-0.056
-416.442	2.475	0.158	0.113
-415.428	-200.000	0.047	0.310
-414.413	-7.240	-0.102	-0.068
-413.398	-113.689	0.635	-0.122
-412.384	-119.043	-0.219	-0.038
-411.369	-104.459	0.160	-0.037
-410.355	284.785	-0.034	0.060
-409.340	-29.531	-0.033	0.019
-408.325	-151.880	-0.254	-0.018
-407.311	-110.483	0.137	-0.028
-406.296	-200.000	-0.021	0.143
-405.282	-26.106	0.264	0.153
-404.267	800.000	0.110	-0.311
-403.252	223.368	0.158	0.252
-402.238	216.619	-0.175	0.275
-401.223	-200.000	0.024	0.123
-400.209	-200.000	-0.077	0.404
-399.194	-54.195	-0.125	0.056
-398.179	144.995	0.114	-0.150
-397.165	-51.133	-0.216	0.100
-396.150	414.511	0.176	0.369
-395.136	93.949	-0.098	-0.110
-394.121	281.742	0.094	-0.167
-393.106	45.819	-0.303	0.276
-392.092	94.492	-0.271	-0.303
-391.077	800.000	0.035	-0.095
-390.063	-2.968	-0.479	0.330
-389.048	-40.224	0.071	-0.036
-388.033	46.259	0.080	0.073
-387.019	-150.011	-0.321	0.025
-386.004	-9.270	-0.233	0.153
-384.990	-143.298	-0.208	-0.020
-383.975	-86.935	-0.224	0.067
-382.960	-200.000	0.044	0.251
-381.946	9.950	-0.056	-0.042
-380.931	18.414	-0.209	0.164
-379.917	-160.384	-0.335	-0.018
-378.902	41.735	-0.148	-0.132
-377.888	-115.414	0.473	0.088
-376.873	107.741	-0.094	0.110
-375.858	397.362	-0.066	-0.136
-374.844	41.597	0.227	-0.203
-373.829	-22.920	-0.336	-0.200
-372.815	116.774	0.284	0.343
-371.800	-119.689	-0.127	0.022
-370.785	-200.000	-0.030	0.170
-369.771	116.817	0.235	0.285
-368.756	251.325	0.100	0.168
-367.742	-84.584	0.187	0.058
-366.727	-144.275	-0.129	-0.012
-365.712	-18.862	-0.180	-0.111
-364.698	-200.000	-0.001	-0.227
-363.683	85.043	-0.148	-0.160
-362.669	-108.674	-0.324	-0.068
-361.654	299.282	0.141	0.256
-360.639	732.834	0.155	0.409
-359.625	-200.000	0.008	-0.067
-358.610	-173.064	-0.111	-0.003
-357.596	485.663	-0.084	-0.189
-356.581	-9.630	0.122	-0.080
-355.566	226.996	0.223	-0.357
-354.552	74.443	-0.129	-0.133
-353.537	-51.541	0.124	0.057
-352.523	85.504	-0.197	0.213
-351.508	38.072	0.209	0.183
-350.493	73.029	-0.222	0.229
-349.479	-200.000	0.009	0.218
-348.464	-7.621	-0.291	0.194
-347.450	420.151	0.157	-0.331
-346.435	390.452	0.079	-0.161
-345.420	255.390	0.107	-0.181
-344.406	-93.804	-0.370	-0.100
-343.391	18.065	-0.260	0.204
-342.377	336.756	-0.056	0.106
-341.362	-132.817	-0.285	-0.036
-340.348	177.724	0.176	0.252
-339.333	-200.000	-0.010	0.070
-338.318	177.499	-0.108	0.155
-337.304	-200.000	-0.008	0.155
-336.289	15.761	-0.204	-0.158
-335.275	-200.000	0.001	0.074
-334.260	-60.839	-0.190	0.079
-333.245	128.939	-0.094	0.119
-332.231	142.065	-0.126	0.165
-331.216	-28.152	0.110	-0.063
-330.202	-143.593	-0.527	-0.049
-329.187	-200.000	-0.007	0.071
-328.172	55.347	0.086	-0.082
-327.158	-153.009	0.185	0.013
-326.143	-200.000	-0.012	-0.176
-325.129	150.841	0.151	0.202
-324.114	-200.000	0.028	0.189
-323.099	-12.525	-0.234	0.150
-322.085	-66.106	0.320	0.126
-321.070	-38.367	-0.125	0.065
-320.056	-94.430	0.350	0.094
-319.041	-101.935	-0.126	0.030
-318.026	89.880	0.104	-0.114
-317.012	26.865	0.098	-0.081
-315.997	-200.000	-0.020	0.483
-314.983	0.881	-0.337	0.237
-313.968	-112.179	-0.210	-0.041
-312.953	533.857	-0.157	0.367
-311.939	-91.006	0.170	0.048
-310.924	-31.624	0.314	0.173
-309.910	-104.093	0.229	0.052
-308.895	230.632	0.038	-0.061
-307.880	130.433	-0.072	-0.090
-306.866	-200.000	0.024	-0.209
-305.851	-200.000	-0.072	-0.341
-304.837	-200.000	-0.050	-0.363
-303.822	-200.000	0.009	-0.059
-302.807	428.452	-0.099	-0.210
-301.793	-6.327	0.259	-0.173
-300.778	36.711	0.103	0.089
-299.764	90.993	-0.071	0.079
-298.749	-200.000	-0.032	-0.245
-297.735	199.079	-0.127	0.191
-296.720	38.767	-0.152	0.133
-295.705	117.665	0.116	0.140
-294.691	-200.000	-0.042	0.401
-293.676	120.267	0.117	0.142
-292.662	-88.357	-0.229	0.067
-291.647	-5.580	0.396	0.267
-290.632	-56.956	0.178	0.077
-289.618	155.517	0.040	-0.053
-288.603	-145.959	0.183	0.016
-287.589	256.753	-0.215	0.362
-286.574	197.897	-0.086	0.129
-285.559	-84.575	0.281	0.087
-284.545	358.023	0.072	-0.140
-283.530	197.460	0.118	-0.177
-282.516	-200.000	0.036	0.368
-281.501	-51.790	-0.078	-0.036
-280.486	129.003	0.057	-0.072
-279.472	-47.478	0.378	-0.180
-278.457	360.474	0.066	-0.129
-277.443	154.004	0.229	-0.309
-276.428	-200.000	0.009	0.231
-275.413	2.308	0.154	0.109
-274.399	234.403	-0.105	0.171
-273.384	-139.768	-0.230	-0.024
-272.370	79.406	0.170	0.179
-271.355	480.021	-0.105	-0.233
-270.340	195.008	0.282	-0.420
-269.326	-13.345	0.118	0.075
-268.311	264.348	-0.076	-0.130
-267.297	577.760	-0.168	0.402
-266.282	-99.890	0.300	0.074
-265.267	-31.132	-0.152	0.084
-264.253	55.952	-0.379	-0.361
-263.238	77.385	0.186	0.194
-262.224	256.884	0.199	0.336
-261.209	-200.000	0.038	-0.300
-260.195	-10.526	-0.137	0.089
-259.180	-200.000	-0.003	-0.095
-258.165	-40.852	0.110	-0.056
-257.151	-156.539	0.223	-0.014
-256.136	-121.514	0.199	0.032
-255.122	-1.036	-0.023	0.016
-254.107	-8.984	0.189	0.124
-253.092	559.452	-0.025	-0.060
-252.078	-24.703	0.099	-0.058
-251.063	-200.000	0.007	-0.269
-250.049	782.176	-0.174	-0.467
-249.034	-128.210	0.295	-0.041
-248.019	43.504	-0.185	-0.166
-247.005	800.000	0.055	0.222
-245.990	32.354	0.169	0.143
-244.976	-178.295	-0.112	0.003
-243.961	-36.721	0.275	0.145
-242.946	57.302	-0.298	-0.285
-241.932	32.670	0.178	-0.151
-240.917	43.693	-0.177	-0.158
-239.903	357.802	0.066	0.130
-238.888	37.919	-0.085	0.074
-237.873	-127.706	0.514	-0.073
-236.859	386.691	0.109	0.221
-235.844	6.244	-0.301	0.219
-234.830	-200.000	0.048	0.344
-233.815	58.795	-0.206	-0.198
-232.800	-80.846	0.322	-0.105
-231.786	-200.000	-0.006	-0.039
-230.771	800.000	0.032	-0.113
-229.757	125.323	-0.254	-0.314
-228.742	250.722	0.037	0.062
-227.727	40.063	0.224	-0.197
-226.713	-98.785	-0.102	0.025
-225.698	189.323	-0.175	-0.258
-224.684	-66.614	-0.356	-0.138
-223.669	-115.048	0.040	-0.007
-222.655	-200.000	0.028	-0.220
-221.640	262.370	0.086	0.145
-220.625	-24.781	-0.194	-0.113
-219.611	343.338	0.164	0.314
-218.596	-98.942	-0.049	0.012
-217.582	-24.647	-0.232	0.135
-216.567	-73.504	0.301	-0.107
-215.552	800.000	-0.021	-0.082
-214.538	800.000	-0.069	0.295
-213.523	-144.566	0.102	0.009
-212.509	399.192	-0.084	-0.173
-211.494	-112.651	0.060	0.012
-210.479	-42.153	0.187	-0.093
-209.465	788.857	0.025	-0.068
-208.450	-132.994	-0.284	-0.035
-207.436	-118.164	0.248	-0.043
-206.421	-58.427	-0.292	-0.124
-205.406	-200.000	-0.011	-0.050
-204.392	-91.472	0.083	-0.023
-203.377	-91.590	-0.192	-0.054
-202.363	577.843	0.029	-0.069
-201.348	-9.242	-0.266	-0.174
-200.333	-200.000	-0.073	-0.334
-199.319	30.090	0.103	0.086
-198.304	800.000	0.033	-0.100
-197.290	146.627	-0.250	0.329
-196.275	-85.257	-0.119	-0.036
-195.260	-32.557	-0.236	0.129
-194.246	-145.013	0.139	0.012
-193.231	422.607	0.082	-0.172
-192.217	-50.604	-0.391	-0.180
-191.202	458.302	0.079	-0.173
-190.187	138.986	-0.206	0.266
-189.173	320.106	-0.187	-0.348
-188.158	361.285	0.075	0.148
-187.144	78.296	-0.243	-0.254
-186.129	-168.365	0.401	-0.015
-185.114	411.779	-0.076	0.158
-184.100	-151.282	-0.160	-0.012
-183.085	-33.797	-0.043	0.023
-182.071	-149.000	0.073	-0.006
-181.056	-22.564	0.211	-0.125
-180.042	-98.061	0.241	-0.061
-179.027	522.392	0.100	0.229
-178.012	235.629	-0.104	-0.168
-176.998	-89.545	0.258	-0.074
-175.983	175.131	-0.154	-0.218
-174.969	-200.000	0.011	-0.516
-173.954	539.592	0.090	0.208
-172.939	273.732	-0.124	0.214
-171.925	800.000	-0.077	-0.216
-170.910	249.654	-0.136	0.226
-169.896	-34.667	0.050	-0.027
-168.881	-54.110	-0.240	0.107
-167.866	12.386	0.294	0.222
-166.852	-200.000	-0.075	-0.348
-165.837	366.667	-0.222	0.438
-164.823	169.190	-0.089	-0.123
-163.808	476.725	0.046	-0.102
-162.793	-200.000	-0.047	-0.426
-161.779	27.681	-0.131	0.108
-160.764	-25.824	0.367	0.211
-159.750	800.000	0.061	-0.188
-158.735	-82.171	-0.354	0.113
-157.720	-200.000	0.014	-0.188
-156.706	-103.780	0.126	0.029
-155.691	78.369	-0.080	-0.083
-154.677	800.000	-0.087	-0.328
-153.662	374.499	0.042	0.084
-152.647	-5.060	-0.112	0.075
-151.633	64.912	0.197	0.194
-150.618	800.000	-0.031	-0.118
-149.604	800.000	-0.107	-0.294
-148.589	222.950	-0.086	-0.136
-147.574	-116.442	0.153	-0.028
-146.560	100.394	-0.206	-0.234
-145.545	196.270	-0.018	0.027
-144.531	-177.900	-0.131	-0.003
-143.516	-188.776	-0.079	0.001
-142.502	-200.000	0.027	-0.145
-141.487	417.982	0.115	-0.240
-140.472	-78.228	0.300	0.101
-139.458	-77.893	0.143	0.048
-138.443	-121.350	0.190	0.031
-137.429	-71.718	-0.256	-0.093
-136.414	800.000	0.042	-0.170
-135.399	13.149	-0.124	-0.094
-134.385	-176.199	0.102	-0.003
-133.370	248.674	-0.114	-0.189
-132.356	-147.456	0.138	-0.011
-131.341	419.591	-0.149	0.311
-130.326	-111.784	0.043	-0.009
-129.312	-196.415	0.059	-0.000
-128.297	800.000	-0.087	0.273
-127.283	628.219	-0.066	-0.162
-126.268	-3.353	-0.157	-0.106
-125.253	-28.151	0.402	-0.227
-124.239	5.908	-0.254	0.183
-123.224	-136.617	0.169	-0.019
-122.210	-200.000	0.016	-0.146
