DTS Sentinel unit serial number:	SN413079Multiplexer serial number:	ORYXHardware model number:	OX4-SRSoftware version number:	ORYX F/W v4.00 Oryx Data Collector v3.7.2.0data status	okinstallation	princeton_trtdifferential loss correction	single-endedforward channel	channel 3reverse channel	N/Adate	2019/09/17time	19:52:35forward acquisition time	60.00reverse acquisition time	0.00gamma	496.2192k internal	0.2320k external	0.2320temperature offset calibration	0.9954default loss term (dB/km)	0.3790temperature slope calibration	1.0000multiplexer offset coefficient	1.0000multiplexer slope coefficient	1.0000fibre end	0.00T internal ref (°C)	34.06T ext. ref 1 (°C)	0.23T ext. ref 2 (°C)	23.40length (m)	temperature (°C)	Stokes	anti-Stokes-747.200	118.402	0.329	-0.410
-746.185	-94.159	-0.312	-0.086
-745.171	79.291	-0.124	0.135
-744.156	274.975	0.104	-0.186
-743.142	556.541	0.078	0.191
-742.127	-86.227	-0.166	-0.052
-741.112	-200.000	0.015	0.323
-740.098	-23.794	0.218	0.132
-739.083	718.490	0.137	-0.369
-738.069	800.000	-0.103	0.385
-737.054	126.144	-0.122	-0.156
-736.039	165.252	-0.202	-0.289
-735.025	-134.241	0.319	0.040
-734.010	-112.254	-0.147	-0.030
-732.996	167.967	-0.267	-0.384
-731.981	-111.850	-0.170	0.035
-730.966	484.796	0.071	0.163
-729.952	-93.847	-0.164	0.045
-728.937	-38.796	0.273	-0.146
-727.923	41.729	-0.157	0.143
-726.908	-200.000	0.032	0.195
-725.894	-200.000	-0.007	-0.167
-724.879	467.802	0.060	-0.137
-723.864	-25.360	0.213	-0.127
-722.850	463.080	-0.140	-0.317
-721.835	87.330	0.118	-0.131
-720.821	-200.000	0.008	0.060
-719.806	-102.550	-0.108	0.026
-718.791	45.238	-0.113	-0.105
-717.777	-37.738	-0.186	0.100
-716.762	-123.556	-0.320	0.051
-715.748	-24.801	0.217	-0.130
-714.733	34.383	0.162	-0.142
-713.718	800.000	-0.059	0.206
-712.704	800.000	-0.054	-0.188
-711.689	-0.616	-0.081	-0.058
-710.675	-200.000	-0.042	-0.380
-709.660	778.545	-0.087	-0.239
-708.645	678.685	0.018	-0.046
-707.631	-200.000	-0.021	-0.111
-706.616	-107.881	0.229	0.050
-705.602	-43.745	0.136	-0.069
-704.587	-200.000	-0.006	0.325
-703.572	-159.378	0.507	-0.029
-702.558	-200.000	0.044	0.229
-701.543	43.722	0.234	-0.216
-700.529	800.000	-0.123	-0.369
-699.514	-200.000	0.027	-0.316
-698.499	-162.973	0.483	0.024
-697.485	-200.000	-0.011	-0.211
-696.470	-120.918	-0.082	-0.014
-695.456	800.000	0.022	-0.077
-694.441	-179.656	0.325	-0.007
-693.426	309.365	-0.058	-0.110
-692.412	-200.000	-0.023	0.228
-691.397	-53.903	-0.321	0.148
-690.383	87.596	-0.151	-0.168
-689.368	800.000	-0.019	-0.084
-688.354	-108.659	0.270	-0.059
-687.339	106.684	0.157	0.188
-686.324	127.528	0.117	-0.150
-685.310	-92.610	-0.266	0.075
-684.295	668.484	0.079	-0.205
-683.281	0.478	0.145	0.104
-682.266	50.626	-0.166	0.158
-681.251	800.000	0.054	0.231
-680.237	6.974	-0.494	-0.371
-679.222	-120.250	0.383	-0.066
-678.208	22.110	0.272	0.224
-677.193	12.084	-0.559	-0.434
-676.178	799.363	-0.037	-0.102
-675.164	-52.445	-0.139	0.065
-674.149	-200.000	-0.080	-0.423
-673.135	-37.051	0.194	-0.105
-672.120	-86.820	0.359	-0.110
-671.105	73.448	0.075	-0.079
-670.091	36.620	-0.041	-0.036
-669.076	800.000	0.117	-0.330
-668.062	33.135	-0.207	0.181
-667.047	-146.275	-0.105	-0.009
-666.032	-140.667	-0.254	0.026
-665.018	-79.114	-0.042	0.014
-664.003	201.639	-0.038	-0.058
-662.989	14.902	0.302	-0.238
-661.974	-51.913	0.156	0.073
-660.959	-200.000	-0.040	-0.242
-659.945	45.209	0.094	0.087
-658.930	159.549	0.155	-0.217
-657.916	-200.000	-0.025	-0.241
-656.901	60.188	-0.266	-0.265
-655.886	-36.882	-0.136	0.074
-654.872	800.000	-0.049	0.182
-653.857	-200.000	0.039	0.214
-652.843	-107.422	-0.012	0.003
-651.828	186.550	0.067	-0.100
-650.814	-19.482	0.242	0.151
-649.799	-129.748	-0.374	-0.052
-648.784	331.083	0.111	-0.216
-647.770	17.488	-0.207	0.166
-646.755	-90.465	0.071	0.021
-645.741	-9.062	-0.042	0.028
-644.726	16.726	0.086	0.068
-643.711	110.002	0.170	0.205
-642.697	21.023	-0.261	-0.214
-641.682	-76.065	-0.240	-0.085
-640.668	484.101	-0.134	0.306
-639.653	-52.639	0.080	0.037
-638.638	-180.926	0.203	-0.004
-637.624	-131.168	-0.099	-0.013
-636.609	-94.876	-0.192	-0.052
-635.595	97.998	-0.118	-0.137
-634.580	281.530	-0.061	0.110
-633.565	-32.187	-0.185	0.104
-632.551	-200.000	0.017	-0.220
-631.536	-120.769	-0.156	-0.026
-630.522	201.883	0.134	0.208
-629.507	-200.000	-0.008	-0.142
-628.492	341.772	-0.015	0.029
-627.478	-150.283	0.281	0.022
-626.463	-156.079	0.099	0.006
-625.449	800.000	-0.125	-0.390
-624.434	-43.347	-0.220	-0.112
-623.419	362.089	-0.046	-0.094
-622.405	53.531	-0.019	-0.019
-621.390	115.744	-0.302	-0.371
-620.376	51.741	0.063	-0.060
-619.361	-39.308	-0.333	-0.176
-618.346	160.832	0.230	0.323
-617.332	96.031	-0.093	-0.107
-616.317	114.098	-0.110	-0.134
-615.303	-56.675	0.420	0.187
-614.288	159.905	-0.146	0.205
-613.273	523.626	-0.051	-0.119
-612.259	-190.629	0.197	0.002
-611.244	29.245	0.197	-0.168
-610.230	800.000	0.038	0.108
-609.215	-85.133	0.128	-0.040
-608.201	97.609	-0.225	0.260
-607.186	20.506	-0.158	-0.129
-606.171	800.000	-0.033	-0.112
-605.157	19.558	0.121	-0.098
-604.142	8.189	0.057	0.043
-603.128	-200.000	0.048	0.284
-602.113	800.000	-0.039	-0.144
-601.098	629.710	0.061	-0.154
-600.084	23.613	-0.322	-0.267
-599.069	-115.140	0.210	0.040
-598.055	126.454	-0.273	-0.347
-597.040	539.269	-0.026	-0.063
-596.025	-120.389	-0.355	-0.061
-595.011	-91.444	-0.172	-0.049
-593.996	14.355	-0.056	0.044
-592.982	169.921	-0.049	-0.070
-591.967	170.707	0.105	-0.151
-590.952	74.380	0.071	-0.075
-589.938	-69.625	-0.163	0.063
-588.923	375.837	-0.084	0.172
-587.909	-98.700	-0.205	-0.052
-586.894	800.000	0.021	-0.072
-585.879	-34.269	0.023	-0.012
-584.865	800.000	0.060	-0.236
-583.850	-200.000	-0.080	0.376
-582.836	-84.301	-0.289	-0.092
-581.821	-90.180	-0.169	-0.049
-580.806	136.353	0.094	0.123
-579.792	-200.000	-0.050	0.351
-578.777	44.378	0.224	-0.207
-577.763	-92.267	0.228	0.065
-576.748	-200.000	-0.006	-0.205
-575.733	-23.290	0.105	-0.064
-574.719	210.304	-0.136	-0.215
-573.704	134.871	-0.022	-0.028
-572.690	-100.894	-0.298	-0.074
-571.675	800.000	-0.072	0.258
-570.661	58.236	-0.104	0.102
-569.646	-47.119	-0.260	-0.128
-568.631	800.000	-0.133	-0.435
-567.617	-200.000	0.042	0.264
-566.602	19.727	-0.070	-0.056
-565.588	335.713	0.077	0.149
-564.573	612.262	0.053	0.132
-563.558	-70.213	0.165	0.063
-562.544	-34.706	-0.174	-0.096
-561.529	-126.642	0.124	0.018
-560.515	-22.132	-0.086	-0.052
-559.500	-42.583	0.052	0.026
-558.485	-200.000	-0.032	0.264
-557.471	-124.033	0.356	0.056
-556.456	-200.000	-0.059	0.000
-555.442	106.171	-0.176	0.209
-554.427	-200.000	0.028	-0.311
-553.412	-129.905	-0.041	0.006
-552.398	-200.000	0.027	0.296
-551.383	-200.000	0.058	0.396
-550.369	-200.000	-0.018	0.209
-549.354	36.693	-0.167	-0.148
-548.339	102.286	-0.140	-0.165
-547.325	698.200	-0.099	0.260
-546.310	170.555	0.285	-0.409
-545.296	354.310	-0.026	0.051
-544.281	587.094	0.150	-0.371
-543.266	30.979	0.027	-0.023
-542.252	800.000	-0.096	0.281
-541.237	588.857	0.055	0.137
-540.223	-152.056	-0.038	-0.003
-539.208	800.000	-0.042	-0.151
-538.193	-99.152	-0.116	-0.029
-537.179	178.308	0.119	-0.175
-536.164	-200.000	-0.026	0.310
-535.150	29.068	0.127	-0.108
-534.135	-200.000	0.128	-0.000
-533.121	565.038	-0.075	0.183
-532.106	86.856	0.119	0.132
-531.091	-35.797	-0.113	0.061
-530.077	173.954	0.121	0.175
-529.062	-176.342	0.138	0.004
-528.048	800.000	-0.113	0.371
-527.033	800.000	0.125	-0.402
-526.018	-152.684	0.177	-0.013
-525.004	-134.399	-0.224	-0.028
-523.989	-200.000	-0.000	-0.105
-522.975	-172.429	-0.048	0.002
-521.960	455.920	0.132	-0.294
-520.945	-138.243	0.270	-0.030
-519.931	-200.000	0.025	0.146
-518.916	-1.819	-0.274	0.193
-517.902	800.000	0.095	-0.267
-516.887	-200.000	0.162	-0.001
-515.872	725.015	-0.020	-0.053
-514.858	-154.760	0.044	-0.003
-513.843	92.305	-0.187	-0.211
-512.829	-200.000	0.022	0.134
-511.814	543.755	-0.109	0.261
-510.799	-200.000	-0.041	0.261
-509.785	545.782	-0.021	-0.049
-508.770	-200.000	0.026	0.120
-507.756	-69.206	0.226	-0.087
-506.741	11.089	0.114	0.087
-505.726	-200.000	0.040	-0.194
-504.712	156.621	0.163	-0.225
-503.697	-106.978	-0.268	0.059
-502.683	-18.472	0.081	0.051
-501.668	68.401	-0.158	0.162
-500.653	800.000	-0.029	-0.109
-499.639	800.000	-0.039	0.118
-498.624	-133.988	-0.249	-0.031
-497.610	-200.000	-0.014	0.177
-496.595	582.938	-0.097	0.238
-495.581	-25.243	-0.199	0.118
-494.566	344.782	0.132	-0.259
-493.551	-95.104	-0.109	0.029
-492.537	258.917	0.088	-0.152
-491.522	-113.893	-0.235	0.046
-490.508	143.065	-0.158	0.210
-489.493	-200.000	0.003	-0.087
-488.478	-200.000	-0.011	0.182
-487.464	800.000	0.048	-0.170
-486.449	152.380	0.080	0.110
-485.435	91.996	-0.109	-0.123
-484.420	2.241	-0.241	-0.174
-483.405	800.000	0.102	0.294
-482.391	-23.036	0.238	0.143
-481.376	-200.000	0.033	0.446
-480.362	104.082	0.080	0.095
-479.347	-87.514	0.133	-0.040
-478.332	31.481	0.209	0.180
-477.318	-11.109	0.169	-0.112
-476.303	289.119	0.144	0.261
-475.289	-200.000	0.047	-0.495
-474.274	800.000	-0.052	0.160
-473.259	4.592	0.257	0.189
-472.245	185.556	-0.142	0.211
-471.230	-6.838	0.156	0.106
-470.216	285.202	-0.105	-0.189
-469.201	-200.000	0.002	0.182
-468.186	256.007	-0.249	-0.427
-467.172	800.000	-0.036	0.151
-466.157	107.268	-0.086	-0.102
-465.143	326.157	-0.085	-0.164
-464.128	426.301	0.039	-0.085
-463.113	-2.447	0.171	-0.120
-462.099	361.268	-0.009	-0.018
-461.084	-102.944	-0.220	0.052
-460.070	-107.811	-0.212	-0.046
-459.055	-45.348	-0.079	-0.039
-458.040	-120.414	0.380	0.065
-457.026	185.460	-0.054	-0.080
-456.011	126.559	0.144	-0.182
-454.997	49.565	0.096	0.090
-453.982	-138.459	-0.115	0.013
-452.968	161.615	-0.225	0.315
-451.953	94.705	0.105	-0.120
-450.938	57.555	-0.205	-0.200
-449.924	-70.271	0.068	-0.026
-448.909	-110.931	-0.389	-0.080
-447.895	568.182	0.032	0.078
-446.880	-13.678	0.174	0.113
-445.865	12.512	-0.088	-0.068
-444.851	255.188	-0.086	0.147
-443.836	-75.837	-0.389	-0.138
-442.822	213.494	0.072	-0.114
-441.807	166.317	0.046	0.066
-440.792	-200.000	0.016	-0.297
-439.778	48.741	0.078	-0.073
-438.763	69.451	0.073	-0.075
-437.749	-200.000	-0.023	-0.105
-436.734	11.406	-0.188	-0.144
-435.719	-139.444	-0.401	-0.043
-434.705	103.696	-0.084	-0.099
-433.690	80.469	-0.115	-0.123
-432.676	-27.196	-0.314	-0.183
-431.661	-61.779	0.380	0.159
-430.646	-51.123	-0.187	0.087
-429.632	97.076	0.089	-0.102
-428.617	-200.000	0.005	-0.029
-427.603	135.916	0.093	0.121
-426.588	235.137	-0.146	-0.241
-425.573	-113.832	-0.137	-0.027
-424.559	95.724	-0.141	-0.161
-423.544	-110.531	0.106	0.022
-422.530	-77.337	0.180	-0.062
-421.515	-174.385	-0.151	0.004
-420.500	-9.116	-0.173	0.115
-419.486	3.726	-0.290	0.211
-418.471	-200.000	0.020	-0.217
-417.457	-60.426	-0.125	0.053
-416.442	-34.395	0.274	0.150
-415.428	282.010	-0.089	-0.158
-414.413	113.481	0.265	0.321
-413.398	4.700	0.214	-0.157
-412.384	84.887	0.081	0.089
-411.369	-109.439	-0.100	0.021
-410.355	-200.000	-0.011	0.169
-409.340	-66.126	0.155	0.062
-408.325	-200.000	-0.016	-0.095
-407.311	-200.000	-0.035	0.217
-406.296	-124.761	0.157	0.024
-405.282	800.000	0.058	0.196
-404.267	312.578	0.209	-0.392
-403.252	296.648	-0.169	-0.309
-402.238	-200.000	0.010	-0.056
-401.223	-87.380	-0.197	0.060
-400.209	48.842	-0.195	-0.183
-399.194	-54.801	0.300	0.135
-398.179	-134.349	0.497	-0.061
-397.165	-133.131	-0.173	0.022
-396.150	-12.613	-0.294	-0.191
-395.136	-105.397	0.166	0.038
-394.121	-133.829	0.351	-0.044
-393.106	-200.000	-0.007	0.275
-392.092	-200.000	0.025	-0.124
-391.077	73.316	-0.218	-0.227
-390.063	174.146	0.108	0.155
-389.048	31.661	0.085	0.073
-388.033	-200.000	0.059	0.373
-387.019	664.147	0.107	0.275
-386.004	-194.646	-0.055	-0.000
-384.990	100.480	0.274	0.317
-383.975	-200.000	0.032	0.280
-382.960	-141.166	0.363	-0.037
-381.946	328.547	0.054	-0.104
-380.931	800.000	-0.042	0.147
-379.917	-200.000	-0.008	-0.054
-378.902	-200.000	-0.005	-0.207
-377.888	-169.299	0.332	0.012
-376.873	-200.000	-0.036	-0.283
-375.858	49.866	-0.086	-0.081
-374.844	276.390	0.110	-0.195
-373.829	-104.975	0.453	-0.103
-372.815	-200.000	0.033	0.290
-371.800	13.000	0.035	-0.027
-370.785	-124.485	-0.560	-0.087
-369.771	538.956	0.114	0.270
-368.756	-200.000	-0.040	-0.330
-367.742	15.167	0.061	-0.048
-366.727	-74.162	0.301	-0.108
-365.712	47.226	-0.254	0.235
-364.698	81.921	0.162	-0.174
-363.683	215.135	-0.174	-0.275
-362.669	-79.155	0.170	-0.057
-361.654	-127.883	0.245	0.035
-360.639	-121.925	0.250	0.041
-359.625	-179.186	-0.295	0.007
-358.610	-200.000	-0.001	0.017
-357.596	-68.294	0.333	0.129
-356.581	-170.324	0.247	0.009
-355.566	48.393	-0.149	0.139
-354.552	-85.133	-0.178	0.056
-353.537	-200.000	-0.003	0.295
-352.523	337.295	-0.133	0.258
-351.508	183.754	0.106	-0.156
-350.493	-137.421	0.102	0.011
-349.479	-55.348	-0.131	0.059
-348.464	-200.000	-0.016	0.168
-347.450	101.936	0.198	0.231
-346.435	-14.482	0.260	-0.166
-345.420	591.329	-0.069	-0.169
-344.406	-200.000	0.040	-0.177
-343.391	95.508	-0.080	0.091
-342.377	-154.076	0.227	0.015
-341.362	-125.637	0.219	0.033
-340.348	121.418	-0.224	-0.278
-339.333	-95.143	0.452	-0.121
-338.318	145.800	0.072	0.096
-337.304	-32.939	-0.023	0.013
-336.289	48.940	-0.081	0.076
-335.275	-96.860	-0.088	-0.023
-334.260	464.188	0.068	-0.151
-333.245	80.150	-0.330	0.354
-332.231	178.183	0.240	0.349
-331.216	-97.802	0.213	-0.055
-330.202	-113.715	-0.043	-0.008
-329.187	-156.679	0.205	-0.013
-328.172	115.654	-0.047	0.058
-327.158	22.879	0.051	0.042
-326.143	-200.000	-0.072	-0.372
-325.129	-102.598	-0.300	0.071
-324.114	85.551	0.255	-0.278
-323.099	-98.985	0.043	-0.011
-322.085	362.371	-0.063	-0.125
-321.070	800.000	-0.053	0.153
-320.056	161.833	0.254	0.353
-319.041	-167.246	-0.156	0.006
-318.026	-87.227	0.232	-0.070
-317.012	-33.994	0.228	0.124
-315.997	48.785	0.314	0.293
-314.983	-107.651	0.445	0.097
-313.968	-200.000	0.068	0.341
-312.953	-159.065	-0.195	-0.011
-311.939	13.787	0.129	0.100
-310.924	-74.862	0.115	0.041
-309.910	-189.636	0.445	0.005
-308.895	297.758	0.063	-0.116
-307.880	-135.184	0.153	-0.018
-306.866	800.000	0.051	0.191
-305.851	-46.672	-0.214	-0.104
-304.837	-112.828	-0.336	0.066
-303.822	168.804	0.149	-0.211
-302.807	800.000	-0.113	0.350
-301.793	-200.000	-0.074	0.420
-300.778	-74.874	-0.294	0.105
-299.764	-200.000	-0.021	-0.405
-298.749	-200.000	0.020	0.100
-297.735	-118.044	0.052	0.009
-296.720	-83.290	-0.464	0.148
-295.705	-148.934	0.032	0.003
-294.691	800.000	0.048	0.188
-293.676	-200.000	0.001	-0.131
-292.662	-103.256	0.150	-0.035
-291.647	-45.750	0.216	-0.106
-290.632	-200.000	-0.016	-0.212
-289.618	800.000	-0.071	0.267
-288.603	-65.813	0.237	-0.094
-287.589	208.861	0.112	0.175
-286.574	16.093	-0.122	-0.096
-285.559	-35.769	-0.223	-0.120
-284.545	302.290	-0.058	0.107
-283.530	-94.694	-0.304	-0.082
-282.516	-72.904	-0.228	0.083
-281.501	-200.000	0.007	-0.241
-280.486	-200.000	-0.016	-0.125
-279.472	499.008	-0.066	0.151
-278.457	800.000	0.074	0.307
-277.443	-69.142	-0.142	-0.054
-276.428	-200.000	-0.006	0.156
-275.413	-193.314	-0.268	-0.002
-274.399	173.440	0.005	0.007
-273.384	-79.020	0.288	-0.097
-272.370	395.473	-0.103	0.214
-271.355	175.579	0.133	0.191
-270.340	-200.000	-0.044	0.192
-269.326	-200.000	-0.055	0.245
-268.311	232.228	0.090	0.147
-267.297	-67.348	-0.081	0.032
-266.282	-59.926	0.139	-0.059
-265.267	-200.000	-0.027	-0.360
-264.253	-69.058	-0.227	-0.087
-263.238	298.077	0.083	-0.152
-262.224	76.698	-0.190	0.200
-261.209	13.762	0.215	0.166
-260.195	104.301	-0.011	-0.013
-259.180	292.731	-0.064	-0.116
-258.165	141.642	0.419	0.551
-257.151	228.159	0.039	0.064
-256.136	-105.314	-0.047	0.011
-255.122	352.436	0.030	-0.059
-254.107	124.788	-0.056	0.070
-253.092	433.641	-0.156	-0.336
-252.078	-84.817	-0.185	0.058
-251.063	73.485	0.182	-0.189
-250.049	-72.277	0.157	0.058
-249.034	70.601	-0.319	-0.327
-248.019	800.000	-0.147	-0.547
-247.005	210.565	0.141	0.220
-245.990	-102.721	0.329	0.078
-244.976	-25.394	0.034	-0.020
-243.961	800.000	-0.048	-0.139
-242.946	-53.170	0.137	-0.062
-241.932	267.010	0.080	0.138
-240.917	-200.000	0.008	-0.081
-239.903	201.552	0.164	-0.251
-238.888	110.119	0.104	-0.124
-237.873	-34.892	0.274	-0.148
-236.859	127.007	0.218	0.274
-235.844	164.369	0.214	-0.298
-234.830	202.133	-0.160	-0.244
-233.815	-71.984	0.111	-0.041
-232.800	-115.068	-0.215	-0.040
-231.786	800.000	-0.171	-0.549
-230.771	53.616	-0.330	0.314
-229.757	-200.000	0.036	0.218
-228.742	-200.000	-0.029	0.163
-227.727	233.163	-0.061	-0.100
-226.713	-73.579	0.211	0.076
-225.698	136.804	0.247	0.320
-224.684	170.225	0.111	-0.157
-223.669	-103.473	-0.288	-0.067
-222.655	-200.000	-0.021	-0.193
-221.640	98.415	0.179	0.205
-220.625	800.000	-0.017	-0.066
-219.611	14.018	0.284	0.219
-218.596	-21.940	-0.219	-0.132
-217.582	-59.132	0.189	0.081
-216.567	57.105	-0.389	-0.376
-215.552	-7.225	-0.110	-0.074
-214.538	-66.684	-0.347	0.136
-213.523	-200.000	0.037	0.300
-212.509	-29.947	0.211	-0.119
-211.494	1.473	0.068	-0.049
-210.479	-75.284	0.320	-0.113
-209.465	599.929	0.081	-0.198
-208.450	-200.000	-0.006	-0.124
-207.436	1.076	-0.114	-0.081
-206.421	-91.322	-0.038	-0.011
-205.406	-200.000	0.025	-0.335
-204.392	-94.811	-0.413	0.111
-203.377	-185.705	-0.041	0.001
-202.363	800.000	0.031	-0.102
-201.348	-117.947	-0.080	-0.014
-200.333	-46.795	0.252	-0.122
-199.319	693.069	-0.061	0.159
-198.304	800.000	0.048	-0.203
-197.290	347.481	0.170	-0.332
-196.275	572.585	-0.095	0.230
-195.260	-51.009	-0.470	0.218
-194.246	186.622	-0.062	0.091
-193.231	-200.000	0.032	-0.478
-192.217	597.677	0.086	-0.211
-191.202	-124.818	-0.146	-0.022
-190.187	-2.645	0.128	-0.089
-189.173	-41.201	-0.195	0.100
-188.158	592.076	0.104	-0.255
-187.144	-200.000	0.050	0.424
-186.129	-176.495	-0.188	0.005
-185.114	-124.026	-0.283	0.044
-184.100	800.000	0.017	-0.055
-183.085	-111.303	0.053	-0.011
-182.071	-200.000	-0.051	0.253
-181.056	-39.648	0.319	0.165
-180.042	732.414	-0.096	0.253
-179.027	-200.000	-0.012	-0.166
-178.012	-87.961	-0.222	-0.066
-176.998	419.436	0.110	-0.232
-175.983	-32.609	-0.259	-0.142
-174.969	379.840	-0.095	-0.193
-173.954	592.858	0.052	-0.128
-172.939	24.175	0.095	0.078
-171.925	800.000	0.015	0.045
-170.910	-14.273	-0.128	-0.081
-169.896	-143.817	-0.206	0.019
-168.881	-25.459	0.285	0.167
-167.866	14.202	-0.149	0.115
-166.852	7.814	-0.196	0.145
-165.837	435.289	-0.092	-0.197
-164.823	115.848	0.199	-0.240
-163.808	-65.224	-0.131	0.052
-162.793	800.000	0.024	0.100
-161.779	5.070	0.110	0.080
-160.764	-30.028	0.072	0.040
-159.750	-200.000	0.077	0.361
-158.735	-200.000	0.057	0.508
-157.720	5.847	0.336	-0.246
-156.706	-55.487	0.085	-0.038
-155.691	-200.000	0.010	0.180
-154.677	58.645	0.089	0.087
-153.662	638.481	-0.059	-0.147
-152.647	-71.260	0.083	-0.031
-151.633	-196.226	-0.115	0.001
-150.618	-17.070	0.187	0.117
-149.604	-76.563	0.373	-0.129
-148.589	-200.000	0.001	-0.066
-147.574	-41.722	0.219	0.111
-146.560	-200.000	-0.001	-0.525
-145.545	-183.125	0.300	0.005
-144.531	96.757	0.279	-0.316
-143.516	228.126	-0.047	-0.076
-142.502	-200.000	0.052	-0.245
-141.487	174.449	0.178	-0.254
-140.472	244.147	-0.322	-0.534
-139.458	-200.000	-0.035	0.410
-138.443	800.000	-0.086	0.289
-137.429	800.000	-0.054	-0.155
-136.414	-200.000	-0.043	0.200
-135.399	101.543	0.099	-0.113
-134.385	-200.000	0.008	0.063
-133.370	-86.774	0.391	0.118
-132.356	800.000	0.092	0.360
-131.341	48.107	-0.043	-0.040
-130.326	-200.000	0.029	-0.215
-129.312	800.000	0.123	-0.421
-128.297	-130.983	-0.323	-0.043
-127.283	457.004	0.075	-0.163
-126.268	55.415	-0.086	0.082
-125.253	-162.905	-0.148	-0.007
-124.239	437.779	-0.119	-0.255
-123.224	-75.235	-0.138	-0.049
-122.210	-200.000	0.019	-0.409
