DTS Sentinel unit serial number:	SN413079Multiplexer serial number:	ORYXHardware model number:	OX4-SRSoftware version number:	ORYX F/W v4.00 Oryx Data Collector v3.7.2.0data status	okinstallation	princeton_trtdifferential loss correction	single-endedforward channel	channel 3reverse channel	N/Adate	2019/09/17time	11:08:35forward acquisition time	60.00reverse acquisition time	0.00gamma	496.2192k internal	0.2322k external	0.2322temperature offset calibration	0.9949default loss term (dB/km)	0.3790temperature slope calibration	1.0000multiplexer offset coefficient	1.0000multiplexer slope coefficient	1.0000fibre end	0.00T internal ref (°C)	30.37T ext. ref 1 (°C)	0.22T ext. ref 2 (°C)	26.05length (m)	temperature (°C)	Stokes	anti-Stokes-747.200	-111.717	-0.306	-0.063
-746.185	26.869	0.212	0.179
-745.171	37.169	0.314	-0.281
-744.156	800.000	-0.079	0.245
-743.142	1.703	0.059	-0.043
-742.127	34.538	-0.100	0.089
-741.112	800.000	-0.083	0.260
-740.098	181.285	-0.217	0.322
-739.083	-133.757	0.299	-0.038
-738.069	-69.894	-0.372	-0.143
-737.054	-85.050	0.392	-0.124
-736.039	293.689	-0.053	0.097
-735.025	-200.000	-0.009	0.137
-734.010	-138.050	-0.124	-0.014
-732.996	386.068	-0.120	0.251
-731.981	12.169	-0.186	0.144
-730.966	-49.607	-0.270	0.130
-729.952	119.941	-0.136	-0.170
-728.937	800.000	0.052	-0.197
-727.923	-200.000	0.084	-0.381
-726.908	800.000	-0.065	-0.193
-725.894	146.132	-0.082	0.111
-724.879	96.487	-0.026	-0.030
-723.864	800.000	-0.047	-0.138
-722.850	184.661	-0.168	-0.252
-721.835	50.538	0.134	0.128
-720.821	800.000	-0.151	-0.446
-719.806	-200.000	-0.049	-0.360
-718.791	10.746	-0.181	-0.140
-717.777	55.984	0.067	-0.066
-716.762	217.524	0.082	-0.131
-715.748	277.302	-0.094	-0.169
-714.733	412.633	0.109	-0.234
-713.718	492.284	-0.075	-0.173
-712.704	-200.000	0.009	-0.335
-711.689	800.000	0.011	0.033
-710.675	124.305	-0.049	0.062
-709.660	478.647	-0.102	0.234
-708.645	-50.605	0.252	0.120
-707.631	86.354	-0.164	-0.183
-706.616	396.423	-0.088	0.186
-705.602	92.075	-0.324	0.368
-704.587	-108.532	-0.141	0.030
-703.572	800.000	-0.094	0.266
-702.558	-39.898	0.387	0.204
-701.543	16.114	-0.072	0.057
-700.529	800.000	0.061	0.191
-699.514	371.256	-0.097	-0.197
-698.499	-99.480	-0.065	0.017
-697.485	716.918	0.082	0.220
-696.470	160.629	-0.106	0.150
-695.456	800.000	-0.077	-0.306
-694.441	656.591	0.154	-0.398
-693.426	800.000	0.049	0.153
-692.412	32.312	-0.175	-0.152
-691.397	439.948	-0.204	0.450
-690.383	8.909	0.419	-0.319
-689.368	166.008	-0.108	-0.154
-688.354	-101.610	0.219	-0.054
-687.339	14.721	-0.146	0.115
-686.324	-200.000	-0.075	0.388
-685.310	74.790	-0.274	-0.291
-684.295	30.523	-0.044	0.038
-683.281	-181.433	-0.223	-0.004
-682.266	69.275	-0.266	-0.276
-681.251	-139.322	0.275	-0.030
-680.237	800.000	0.066	-0.206
-679.222	-71.418	0.475	-0.179
-678.208	-66.242	-0.442	0.177
-677.193	105.304	-0.071	0.084
-676.178	-95.799	0.205	-0.055
-675.164	147.738	-0.015	-0.021
-674.149	88.578	0.326	-0.365
-673.135	36.805	-0.335	-0.298
-672.120	-75.415	-0.108	-0.039
-671.105	174.678	0.230	0.335
-670.091	327.849	0.258	0.499
-669.076	157.556	-0.064	-0.090
-668.062	78.825	-0.111	-0.119
-667.047	-14.077	-0.136	-0.088
-666.032	-31.279	-0.123	0.070
-665.018	106.070	0.261	-0.311
-664.003	766.175	-0.047	-0.128
-662.989	315.394	0.037	0.070
-661.974	-82.852	-0.281	0.091
-660.959	176.146	0.263	0.384
-659.945	76.677	0.353	-0.377
-658.930	-152.165	-0.223	-0.016
-657.916	-134.160	-0.145	0.018
-656.901	-149.038	0.137	-0.011
-655.886	19.184	-0.053	-0.043
-654.872	-200.000	0.055	0.347
-653.857	-200.000	0.008	0.124
-652.843	-121.553	-0.214	0.036
-651.828	-75.126	0.080	-0.029
-650.814	-90.785	0.106	0.031
-649.799	598.345	-0.026	0.064
-648.784	44.024	0.113	0.104
-647.770	-115.085	0.267	0.051
-646.755	-86.810	0.317	0.097
-645.741	-120.652	-0.355	-0.060
-644.726	99.552	0.040	-0.047
-643.711	33.490	0.071	0.062
-642.697	-84.845	-0.258	-0.082
-641.682	407.688	-0.088	0.187
-640.668	635.096	-0.091	-0.232
-639.653	-51.286	0.147	-0.069
-638.638	394.638	0.055	0.116
-637.624	800.000	-0.102	-0.300
-636.609	-58.703	0.209	0.091
-635.595	42.013	-0.060	-0.054
-634.580	300.022	0.141	-0.262
-633.565	151.209	-0.209	-0.286
-632.551	471.954	0.100	0.227
-631.536	156.616	-0.171	0.237
-630.522	8.004	-0.398	-0.300
-629.507	-200.000	0.008	0.075
-628.492	-98.464	-0.118	0.030
-627.478	15.939	-0.232	-0.183
-626.463	-200.000	-0.016	-0.364
-625.449	-167.156	0.060	-0.002
-624.434	362.685	-0.133	-0.268
-623.419	547.353	-0.097	-0.234
-622.405	10.457	-0.218	-0.167
-621.390	178.748	-0.228	-0.336
-620.376	-86.902	0.500	0.154
-619.361	-88.753	-0.183	-0.055
-618.346	-107.632	0.145	-0.032
-617.332	-200.000	-0.044	-0.232
-616.317	100.472	0.103	0.120
-615.303	-200.000	-0.014	-0.118
-614.288	-200.000	0.022	-0.105
-613.273	-200.000	-0.033	0.262
-612.259	800.000	0.031	-0.125
-611.244	800.000	-0.032	0.101
-610.230	-200.000	0.005	-0.094
-609.215	-200.000	-0.001	-0.505
-608.201	113.588	-0.099	-0.121
-607.186	-200.000	-0.017	0.237
-606.171	5.124	-0.291	0.216
-605.157	-200.000	0.041	0.397
-604.142	-106.058	0.193	-0.044
-603.128	540.822	-0.138	-0.329
-602.113	452.776	-0.107	0.238
-601.098	-130.581	-0.367	0.050
-600.084	800.000	0.021	0.077
-599.069	290.441	-0.134	-0.245
-598.055	721.167	0.053	0.143
-597.040	-66.663	0.186	0.074
-596.025	85.265	0.126	0.139
-595.011	-200.000	0.066	-0.308
-593.996	292.083	0.069	0.127
-592.982	9.323	-0.052	0.040
-591.967	-11.715	-0.185	0.122
-590.952	-200.000	0.013	-0.088
-589.938	164.559	-0.063	-0.089
-588.923	800.000	0.065	-0.278
-587.909	-14.447	-0.246	-0.159
-586.894	-91.895	-0.255	-0.073
-585.879	629.129	0.112	-0.284
-584.865	79.281	-0.261	0.281
-583.850	800.000	0.041	0.177
-582.836	-158.820	-0.278	0.016
-581.821	113.832	-0.126	-0.154
-580.806	800.000	-0.066	-0.205
-579.792	245.002	0.163	0.274
-578.777	185.871	-0.220	-0.329
-577.763	-200.000	-0.031	-0.188
-576.748	-200.000	-0.000	0.062
-575.733	-24.481	0.175	-0.104
-574.719	800.000	-0.078	0.308
-573.704	800.000	0.032	0.130
-572.690	72.473	-0.221	0.231
-571.675	-37.894	0.229	0.122
-570.661	-87.276	0.148	0.045
-569.646	-14.057	0.273	-0.177
-568.631	46.712	0.244	-0.227
-567.617	-200.000	0.018	0.154
-566.602	18.702	-0.208	-0.167
-565.588	800.000	-0.065	0.233
-564.573	800.000	-0.079	0.237
-563.558	-10.739	0.031	-0.020
-562.544	35.649	0.275	-0.242
-561.529	-200.000	0.043	-0.264
-560.515	26.591	0.018	-0.015
-559.500	-4.346	-0.257	0.178
-558.485	-123.351	0.020	0.003
-557.471	-200.000	-0.003	-0.035
-556.456	26.326	-0.321	0.269
-555.442	-200.000	0.001	-0.128
-554.427	7.566	-0.078	-0.058
-553.412	57.668	0.154	-0.151
-552.398	-127.418	-0.224	0.033
-551.383	16.535	0.166	0.131
-550.369	227.698	0.075	-0.123
-549.354	84.339	0.223	-0.244
-548.339	20.845	0.164	-0.134
-547.325	-64.087	-0.129	-0.053
-546.310	-142.992	0.175	-0.017
-545.296	-110.920	0.140	0.029
-544.281	-71.200	0.199	-0.075
-543.266	-159.248	0.117	0.007
-542.252	82.157	-0.217	0.236
-541.237	-200.000	-0.051	0.333
-540.223	800.000	-0.061	0.241
-539.208	-126.150	0.225	0.034
-538.193	101.097	0.061	0.071
-537.179	440.484	-0.090	-0.197
-536.164	-40.923	0.128	0.066
-535.150	-200.000	-0.007	-0.331
-534.135	80.822	-0.149	-0.161
-533.121	-194.560	-0.070	-0.001
-532.106	-83.366	0.144	0.046
-531.091	-200.000	0.022	0.124
-530.077	-63.317	0.294	0.121
-529.062	65.639	0.214	0.217
-528.048	-200.000	0.016	-0.193
-527.033	290.990	0.119	-0.217
-526.018	-59.776	-0.186	0.080
-525.004	91.303	-0.205	0.230
-523.989	800.000	0.068	0.193
-522.975	-38.806	-0.104	-0.055
-521.960	86.824	-0.025	0.028
-520.945	148.641	-0.285	-0.386
-519.931	-126.934	0.366	-0.054
-518.916	-200.000	-0.004	0.118
-517.902	92.422	0.226	-0.255
-516.887	-32.211	-0.088	0.049
-515.872	-200.000	-0.002	-0.300
-514.858	-200.000	-0.012	-0.154
-513.843	-126.518	-0.287	-0.043
-512.829	-108.448	-0.225	-0.049
-511.814	-88.610	-0.366	0.109
-510.799	210.157	-0.145	-0.227
-509.785	-200.000	-0.057	-0.385
-508.770	-18.633	-0.358	0.223
-507.756	800.000	-0.059	-0.231
-506.741	-78.481	0.215	-0.074
-505.726	-13.258	0.331	0.215
-504.712	-200.000	0.029	0.224
-503.697	-14.819	-0.127	-0.082
-502.683	-37.693	-0.031	0.016
-501.668	800.000	0.035	0.125
-500.653	183.128	-0.145	-0.214
-499.639	198.351	0.137	0.210
-498.624	-200.000	0.053	0.347
-497.610	-44.466	0.052	-0.026
-496.595	-44.354	0.285	0.143
-495.581	800.000	-0.053	0.209
-494.566	58.003	0.159	0.156
-493.551	21.617	0.049	0.040
-492.537	-47.967	0.289	0.140
-491.522	344.552	0.102	0.200
-490.508	24.696	-0.011	-0.009
-489.493	19.932	0.097	-0.078
-488.478	-68.666	0.264	0.102
-487.464	-44.269	0.407	0.204
-486.449	-200.000	0.018	-0.226
-485.435	478.605	0.076	-0.173
-484.420	-76.295	-0.206	0.072
-483.405	19.657	0.267	0.215
-482.391	759.425	-0.023	-0.062
-481.376	169.646	-0.152	0.217
-480.362	800.000	-0.068	0.291
-479.347	-200.000	-0.002	-0.092
-478.332	-2.176	0.137	-0.097
-477.318	-112.087	-0.227	-0.046
-476.303	-14.382	-0.366	-0.236
-475.289	-33.421	-0.103	-0.057
-474.274	38.662	0.327	-0.292
-473.259	-200.000	0.003	-0.215
-472.245	-76.119	-0.109	-0.039
-471.230	800.000	-0.056	0.194
-470.216	-66.912	-0.067	0.026
-469.201	-28.157	-0.268	0.155
-468.186	151.613	-0.140	0.191
-467.172	227.003	0.108	-0.176
-466.157	-0.085	0.185	0.132
-465.143	244.243	-0.117	0.196
-464.128	-110.293	0.110	-0.023
-463.113	641.443	0.101	-0.258
-462.099	540.567	-0.087	0.206
-461.084	-183.877	0.092	-0.002
-460.070	-200.000	0.023	-0.303
-459.055	-5.032	-0.352	-0.242
-458.040	-71.680	0.135	-0.050
-457.026	-95.279	0.311	0.084
-456.011	476.285	-0.109	0.245
-454.997	-73.107	0.144	0.053
-453.982	-118.918	0.300	-0.053
-452.968	202.525	-0.163	0.252
-451.953	-200.000	-0.000	0.057
-450.938	-72.567	-0.063	0.023
-449.924	253.951	0.205	0.350
-448.909	-200.000	0.027	-0.149
-447.895	-50.517	-0.441	0.208
-446.880	93.560	-0.128	0.145
-445.865	79.509	0.231	0.248
-444.851	800.000	0.032	0.139
-443.836	182.235	0.098	-0.145
-442.822	-200.000	0.162	0.001
-441.807	-69.775	-0.188	-0.072
-440.792	287.349	-0.129	0.232
-439.778	279.123	-0.075	-0.133
-438.763	-200.000	-0.006	-0.143
-437.749	-200.000	0.004	-0.233
-436.734	-38.401	0.303	0.160
-435.719	-200.000	0.007	0.127
-434.705	-132.341	0.169	0.022
-433.690	-110.736	-0.273	0.056
-432.676	-200.000	0.057	0.383
-431.661	800.000	-0.016	0.063
-430.646	60.056	0.087	-0.085
-429.632	800.000	-0.105	-0.415
-428.617	-97.318	-0.340	-0.088
-427.603	-200.000	0.022	-0.146
-426.588	-194.596	0.217	0.002
-425.573	-58.904	-0.080	-0.035
-424.559	800.000	-0.077	-0.313
-423.544	74.055	-0.058	0.061
-422.530	83.871	0.073	-0.080
-421.515	-145.223	-0.421	0.038
-420.500	110.990	0.341	0.410
-419.486	-95.278	0.432	-0.116
-418.471	-155.503	-0.049	-0.003
-417.457	95.973	-0.064	0.073
-416.442	142.306	-0.141	0.187
-415.428	139.461	-0.201	-0.264
-414.413	-200.000	-0.047	0.265
-413.398	-84.622	0.284	0.089
-412.384	-1.852	0.186	-0.130
-411.369	64.369	0.172	0.173
-410.355	-8.301	0.096	-0.064
-409.340	30.057	0.097	-0.082
-408.325	-200.000	0.028	-0.298
-407.311	800.000	0.143	-0.441
-406.296	-200.000	0.035	-0.269
-405.282	-57.190	0.207	-0.091
-404.267	25.335	-0.157	0.130
-403.252	49.337	0.054	0.051
-402.238	800.000	-0.152	0.421
-401.223	-200.000	0.020	-0.141
-400.209	233.504	0.015	-0.025
-399.194	800.000	0.007	0.022
-398.179	-200.000	-0.007	0.309
-397.165	18.698	-0.036	-0.029
-396.150	757.828	0.158	-0.428
-395.136	-200.000	-0.055	-0.341
-394.121	-11.263	0.344	-0.226
-393.106	-29.536	-0.237	-0.135
-392.092	-200.000	0.019	-0.271
-391.077	-61.297	-0.108	0.045
-390.063	-75.906	-0.102	0.036
-389.048	8.420	-0.373	0.279
-388.033	114.489	-0.069	0.083
-387.019	2.814	0.239	-0.173
-386.004	688.431	-0.118	-0.309
-384.990	-200.000	0.030	-0.416
-383.975	-69.146	0.201	-0.077
-382.960	278.556	-0.213	0.378
-381.946	-200.000	-0.006	0.050
-380.931	-99.508	0.145	0.036
-379.917	14.986	0.089	-0.069
-378.902	53.072	0.159	0.151
-377.888	-120.421	0.098	0.017
-376.873	72.927	-0.281	0.293
-375.858	800.000	0.118	-0.355
-374.844	-200.000	-0.011	-0.313
-373.829	265.282	-0.152	0.264
-372.815	-124.489	-0.334	-0.052
-371.800	-127.888	0.338	-0.048
-370.785	-200.000	0.005	-0.121
-369.771	-119.316	-0.181	0.031
-368.756	-45.560	-0.426	-0.210
-367.742	419.108	0.068	-0.145
-366.727	159.955	-0.096	0.133
-365.712	-64.920	0.262	0.105
-364.698	-150.202	0.115	-0.009
-363.683	-200.000	0.056	-0.366
-362.669	800.000	0.131	0.361
-361.654	522.160	0.114	-0.267
-360.639	-200.000	0.000	-0.290
-359.625	437.676	0.159	0.344
-358.610	27.261	0.170	-0.142
-357.596	-200.000	-0.042	0.192
-356.581	164.844	-0.103	0.145
-355.566	82.180	0.194	0.209
-354.552	383.514	-0.185	0.378
-353.537	-74.688	0.456	0.163
-352.523	800.000	-0.082	-0.272
-351.508	115.932	0.247	-0.301
-350.493	294.501	-0.171	0.310
-349.479	-200.000	-0.011	0.235
-348.464	-200.000	-0.049	0.323
-347.450	-66.010	-0.080	-0.032
-346.435	565.513	-0.103	0.250
-345.420	-200.000	-0.013	0.260
-344.406	338.258	-0.069	-0.134
-343.391	-200.000	0.005	0.035
-342.377	-86.702	0.110	0.033
-341.362	800.000	0.031	0.131
-340.348	-87.329	0.199	-0.060
-339.333	800.000	0.049	0.189
-338.318	108.088	-0.092	0.109
-337.304	583.172	-0.093	0.227
-336.289	800.000	0.007	-0.024
-335.275	-81.672	0.163	-0.053
-334.260	730.648	0.072	-0.190
-333.245	243.830	0.068	0.113
-332.231	10.461	-0.043	0.033
-331.216	-200.000	-0.019	0.095
-330.202	800.000	-0.061	0.218
-329.187	-200.000	-0.006	-0.216
-328.172	-200.000	0.042	0.318
-327.158	193.458	0.113	0.170
-326.143	-85.554	-0.084	0.026
-325.129	9.658	-0.141	-0.106
-324.114	797.936	-0.084	0.230
-323.099	-105.341	0.285	0.065
-322.085	-200.000	-0.008	-0.127
-321.070	800.000	-0.124	0.386
-320.056	800.000	0.049	0.189
-319.041	-137.021	-0.243	0.028
-318.026	40.209	0.122	0.109
-317.012	800.000	0.079	0.228
-315.997	527.655	0.088	-0.205
-314.983	-200.000	0.019	-0.255
-313.968	106.457	-0.069	-0.081
-312.953	-200.000	0.015	-0.208
-311.939	20.130	-0.116	-0.093
-310.924	-200.000	-0.015	-0.232
-309.910	533.071	-0.071	0.167
-308.895	-200.000	0.000	-0.045
-307.880	221.941	-0.119	0.190
-306.866	-119.257	0.470	-0.081
-305.851	149.934	-0.071	0.096
-304.837	-75.315	0.168	-0.059
-303.822	-90.377	-0.155	-0.045
-302.807	-35.519	0.382	0.206
-301.793	-198.987	0.404	-0.002
-300.778	-111.028	0.107	-0.022
-299.764	-200.000	-0.068	-0.306
-298.749	10.083	-0.169	-0.128
-297.735	-183.132	0.251	-0.004
-296.720	-200.000	0.019	0.117
-295.705	-91.381	-0.115	0.033
-294.691	-200.000	0.008	-0.061
-293.676	602.333	-0.117	0.288
-292.662	133.610	-0.170	0.219
-291.647	-44.613	-0.152	0.075
-290.632	-154.832	0.051	-0.003
-289.618	-98.552	-0.159	0.040
-288.603	12.486	0.139	0.106
-287.589	-200.000	0.018	0.091
-286.574	-200.000	-0.019	0.166
-285.559	-86.773	-0.199	-0.060
-284.545	-98.502	0.196	0.050
-283.530	-31.087	0.312	0.175
-282.516	13.494	0.163	-0.126
-281.501	-42.857	0.081	-0.041
-280.486	-101.967	0.376	-0.090
-279.472	103.448	-0.091	-0.106
-278.457	800.000	0.060	0.256
-277.443	239.582	0.290	0.479
-276.428	-12.992	-0.409	-0.264
-275.413	-200.000	-0.052	-0.257
-274.399	-34.030	0.297	0.162
-273.384	481.041	-0.128	-0.289
-272.370	-159.586	-0.150	0.008
-271.355	800.000	0.112	0.388
-270.340	-72.333	0.352	0.129
-269.326	321.781	-0.158	0.299
-268.311	127.191	-0.284	0.357
-267.297	-46.382	0.298	-0.145
-266.282	-43.160	0.373	-0.187
-265.267	-200.000	0.014	-0.219
-264.253	-200.000	-0.003	-0.278
-263.238	-159.476	-0.241	-0.013
-262.224	-81.806	-0.220	0.071
-261.209	762.234	-0.023	0.061
-260.195	478.596	-0.039	0.088
-259.180	-72.606	-0.102	-0.037
-258.165	-25.296	-0.192	0.113
-257.151	800.000	0.091	-0.279
-256.136	-97.001	-0.099	0.026
-255.122	-124.608	-0.095	-0.015
-254.107	-4.825	0.123	-0.084
-253.092	411.416	0.156	0.329
-252.078	288.074	-0.167	0.300
-251.063	-200.000	-0.032	0.432
-250.049	800.000	-0.107	0.297
-249.034	-149.594	-0.039	-0.003
-248.019	-71.395	0.332	-0.123
-247.005	-200.000	-0.008	0.121
-245.990	344.621	0.183	-0.355
-244.976	8.213	-0.163	0.121
-243.961	-25.482	0.245	0.144
-242.946	-173.682	-0.217	0.006
-241.932	-180.306	0.268	-0.006
-240.917	351.063	-0.052	-0.103
-239.903	-200.000	0.052	-0.235
-238.888	-87.841	0.051	-0.015
-237.873	654.588	-0.101	0.258
-236.859	99.411	-0.084	0.096
-235.844	-179.670	-0.204	0.004
-234.830	-102.705	-0.418	-0.099
-233.815	111.754	0.172	-0.206
-232.800	128.377	-0.254	0.320
-231.786	-200.000	0.006	-0.097
-230.771	-200.000	0.000	-0.091
-229.757	-200.000	-0.342	0.000
-228.742	-141.389	0.059	0.006
-227.727	-162.714	-0.115	0.006
-226.713	21.683	-0.054	-0.044
-225.698	-200.000	-0.030	0.353
-224.684	-125.889	-0.050	0.007
-223.669	5.499	-0.257	0.188
-222.655	-200.000	-0.026	0.133
-221.640	-64.038	0.171	-0.069
-220.625	585.780	0.082	-0.199
-219.611	38.154	-0.400	-0.352
-218.596	50.369	-0.267	-0.250
-217.582	800.000	-0.065	0.213
-216.567	800.000	0.099	-0.280
-215.552	322.423	-0.021	-0.040
-214.538	139.635	0.150	0.196
-213.523	-142.012	-0.308	-0.030
-212.509	-50.791	0.420	0.195
-211.494	-40.579	-0.419	-0.215
-210.479	800.000	0.196	-0.538
-209.465	23.584	-0.178	-0.145
-208.450	-168.183	0.461	0.018
-207.436	5.384	0.004	0.003
-206.421	483.627	0.112	-0.252
-205.406	-139.888	0.310	-0.032
-204.392	165.898	0.163	-0.229
-203.377	407.238	-0.053	-0.112
-202.363	349.475	-0.079	-0.155
-201.348	115.558	-0.231	0.280
-200.333	309.838	-0.052	-0.097
-199.319	-5.412	-0.034	0.023
-198.304	336.544	-0.059	0.112
-197.290	-188.986	-0.342	0.004
-196.275	337.785	0.073	0.141
-195.260	800.000	-0.065	-0.196
-194.246	25.118	0.120	-0.099
-193.231	-58.392	0.102	-0.044
-192.217	800.000	0.043	-0.127
-191.202	-159.461	-0.305	-0.017
-190.187	290.087	-0.098	0.176
-189.173	800.000	-0.035	0.129
-188.158	-85.325	-0.112	0.034
-187.144	36.409	0.028	-0.024
-186.129	241.512	0.076	-0.125
-185.114	-200.000	-0.052	0.263
-184.100	-54.769	-0.175	0.078
-183.085	16.139	0.299	0.233
-182.071	-69.207	-0.230	0.087
-181.056	800.000	-0.024	0.096
-180.042	513.123	0.103	0.237
-179.027	282.995	0.127	0.225
-178.012	132.426	-0.031	0.039
-176.998	-33.402	-0.050	0.028
-175.983	47.781	0.171	-0.158
-174.969	-121.658	0.250	-0.041
-173.954	-100.530	0.235	0.057
-172.939	-80.755	-0.156	0.051
-171.925	12.001	-0.260	0.197
-170.910	-200.000	0.019	-0.294
-169.896	275.418	-0.059	0.104
-168.881	-3.609	0.095	-0.065
-167.866	800.000	0.035	-0.106
-166.852	-46.791	-0.095	0.046
-165.837	-9.503	-0.147	0.097
-164.823	-81.764	-0.320	-0.104
-163.808	800.000	0.083	-0.329
-162.793	-101.043	-0.328	-0.079
-161.779	114.476	0.215	-0.259
-160.764	400.359	-0.160	0.331
-159.750	493.258	0.034	0.076
-158.735	-149.067	-0.227	-0.018
-157.720	-1.242	0.295	-0.206
-156.706	-1.863	0.109	-0.076
-155.691	-148.741	0.083	-0.007
-154.677	800.000	0.135	-0.382
-153.662	-56.266	-0.144	-0.063
-152.647	-200.000	-0.061	-0.299
-151.633	55.577	0.151	0.144
-150.618	-41.184	0.155	-0.079
-149.604	-70.272	-0.138	-0.052
-148.589	457.172	-0.057	0.124
-147.574	-53.225	0.047	0.021
-146.560	-165.491	0.370	0.016
-145.545	-200.000	0.043	-0.267
-144.531	800.000	0.051	0.202
-143.516	-80.834	0.148	0.049
-142.502	91.830	0.140	-0.155
-141.487	-102.846	0.517	-0.121
-140.472	800.000	-0.056	0.166
-139.458	89.048	-0.225	0.247
-138.443	-102.161	0.280	0.067
-137.429	36.501	0.080	-0.069
-136.414	47.812	-0.265	0.244
-135.399	351.520	0.114	0.222
-134.385	53.284	0.198	0.187
-133.370	-145.742	-0.369	-0.032
-132.356	124.072	-0.195	-0.242
-131.341	309.689	0.178	0.327
-130.326	526.007	0.153	-0.356
-129.312	800.000	0.038	-0.131
-128.297	-64.230	-0.467	0.188
-127.283	-200.000	0.058	0.336
-126.268	224.110	-0.073	0.116
-125.253	282.436	0.186	-0.328
-124.239	-74.015	-0.208	-0.074
-123.224	-32.582	0.168	-0.092
-122.210	-94.761	-0.238	0.064
-121.195	510.932	-0.076	-0.175
