DTS Sentinel unit serial number:	SN413079Multiplexer serial number:	ORYXHardware model number:	OX4-SRSoftware version number:	ORYX F/W v4.00 Oryx Data Collector v3.7.2.0data status	okinstallation	princeton_trtdifferential loss correction	single-endedforward channel	channel 3reverse channel	N/Adate	2019/09/10time	16:50:10forward acquisition time	60.00reverse acquisition time	0.00gamma	496.2192k internal	0.2299k external	0.2299temperature offset calibration	0.9910default loss term (dB/km)	0.3790temperature slope calibration	1.0000multiplexer offset coefficient	1.0000multiplexer slope coefficient	1.0000fibre end	0.00T internal ref (°C)	37.62T ext. ref 1 (°C)	-0.31T ext. ref 2 (°C)	32.23length (m)	temperature (°C)	Stokes	anti-Stokes-747.200	-14.654	0.039	-0.026
-746.185	34.597	-0.167	0.148
-745.171	-200.000	-0.030	0.149
-744.156	800.000	0.072	-0.218
-743.142	20.938	0.065	-0.054
-742.127	-121.861	-0.291	0.049
-741.112	-83.067	0.170	-0.056
-740.098	-200.000	-0.023	0.188
-739.083	-50.942	0.146	0.070
-738.069	-74.468	-0.414	0.152
-737.054	-200.000	-0.024	0.186
-736.039	569.822	-0.093	0.230
-735.025	-93.870	0.259	0.073
-734.010	-84.037	-0.111	-0.036
-732.996	-193.039	-0.072	0.001
-731.981	-139.140	-0.307	0.034
-730.966	800.000	-0.029	-0.089
-729.952	46.415	-0.147	0.139
-728.937	42.659	-0.160	-0.149
-727.923	280.824	-0.068	-0.124
-726.908	-200.000	-0.049	-0.482
-725.894	-200.000	0.089	0.409
-724.879	-161.883	-0.401	-0.021
-723.864	-200.000	-0.003	0.373
-722.850	297.024	-0.148	-0.277
-721.835	800.000	-0.042	-0.120
-720.821	0.728	-0.144	-0.105
-719.806	-200.000	0.026	0.257
-718.791	-200.000	0.000	-0.292
-717.777	-20.092	-0.222	0.140
-716.762	36.385	-0.052	0.047
-715.748	800.000	-0.020	-0.074
-714.733	-85.776	0.253	-0.080
-713.718	89.210	-0.165	-0.187
-712.704	357.422	-0.076	0.155
-711.689	-143.277	0.097	-0.009
-710.675	-200.000	0.017	-0.419
-709.660	-31.163	-0.298	-0.171
-708.645	-200.000	0.026	0.431
-707.631	31.404	-0.095	0.083
-706.616	-4.094	-0.315	-0.222
-705.602	-51.633	-0.399	-0.190
-704.587	-88.426	0.270	-0.082
-703.572	-200.000	-0.082	-0.411
-702.558	167.703	0.103	-0.150
-701.543	686.925	0.152	0.404
-700.529	147.135	0.064	0.087
-699.514	800.000	-0.055	0.200
-698.499	336.898	0.109	0.215
-697.485	117.629	0.112	-0.140
-696.470	-87.893	-0.379	0.116
-695.456	-4.184	-0.184	-0.130
-694.441	-200.000	-0.027	-0.303
-693.426	734.442	-0.038	0.104
-692.412	800.000	0.035	-0.121
-691.397	182.378	-0.114	-0.172
-690.383	101.170	0.295	-0.349
-689.368	-200.000	-0.038	-0.173
-688.354	-131.566	0.256	-0.034
-687.339	108.538	-0.080	-0.097
-686.324	-36.488	-0.159	0.087
-685.310	19.677	-0.340	-0.279
-684.295	333.919	-0.171	0.337
-683.281	-24.203	0.196	0.119
-682.266	-200.000	-0.037	-0.252
-681.251	76.319	-0.171	-0.185
-680.237	180.264	-0.088	0.131
-679.222	-14.751	0.114	-0.074
-678.208	102.632	0.030	0.036
-677.193	15.724	-0.091	-0.073
-676.178	54.737	-0.027	-0.026
-675.164	34.285	0.228	-0.203
-674.149	31.245	-0.187	-0.163
-673.135	-78.753	-0.247	0.086
-672.120	-200.000	-0.007	-0.205
-671.105	658.028	0.117	0.306
-670.091	-64.059	-0.111	0.046
-669.076	-200.000	0.015	0.131
-668.062	68.078	0.127	0.133
-667.047	-40.394	0.455	-0.241
-666.032	430.110	-0.207	0.456
-665.018	800.000	-0.101	-0.303
-664.003	571.787	0.102	-0.253
-662.989	414.735	0.005	-0.011
-661.974	42.920	-0.178	-0.165
-660.959	-200.000	0.010	-0.171
-659.945	373.933	0.088	0.182
-658.930	-115.569	0.362	-0.069
-657.916	-108.761	-0.208	0.045
-656.901	304.992	0.229	0.433
-655.886	-200.000	0.008	-0.150
-654.872	261.156	-0.168	0.296
-653.857	-200.000	0.052	0.357
-652.843	-18.359	-0.126	0.080
-651.828	-82.493	0.172	0.057
-650.814	-200.000	-0.012	0.228
-649.799	458.865	-0.027	0.060
-648.784	-15.208	-0.164	0.107
-647.770	25.123	0.472	-0.398
-646.755	-131.263	-0.264	0.036
-645.741	-27.935	-0.284	-0.167
-644.726	91.639	-0.055	0.063
-643.711	-66.949	0.111	0.044
-642.697	18.596	0.108	-0.088
-641.682	66.611	0.187	0.193
-640.668	800.000	0.046	0.144
-639.653	-160.073	0.275	-0.015
-638.638	-27.119	0.217	-0.129
-637.624	122.667	0.027	0.034
-636.609	578.723	0.015	-0.038
-635.595	800.000	0.002	-0.005
-634.580	-90.202	0.271	0.080
-633.565	800.000	0.090	0.306
-632.551	3.681	0.057	-0.043
-631.536	8.763	0.073	-0.056
-630.522	-200.000	-0.043	-0.284
-629.507	75.244	0.351	-0.376
-628.492	115.646	-0.102	0.126
-627.478	69.953	0.237	0.248
-626.463	-21.897	-0.109	-0.067
-625.449	30.522	0.154	-0.134
-624.434	-200.000	0.025	0.145
-623.419	9.746	-0.047	-0.036
-622.405	62.635	0.067	-0.068
-621.390	-95.251	0.198	-0.054
-620.376	5.073	0.101	-0.075
-619.361	-200.000	0.012	0.257
-618.346	98.365	0.114	-0.134
-617.332	-200.000	0.060	-0.346
-616.317	-149.367	-0.028	0.002
-615.303	573.840	0.048	0.120
-614.288	550.435	0.092	0.224
-613.273	-110.203	-0.267	-0.057
-612.259	-110.652	0.159	-0.033
-611.244	-139.237	0.319	-0.035
-610.230	-113.421	-0.535	0.106
-609.215	-24.026	-0.168	-0.102
-608.201	-21.836	-0.410	0.253
-607.186	-200.000	0.010	-0.133
-606.171	-127.831	-0.309	0.045
-605.157	-109.375	0.076	0.016
-604.142	105.061	-0.181	0.216
-603.128	47.198	0.098	-0.092
-602.113	-91.489	-0.097	-0.028
-601.098	-200.000	-0.023	-0.586
-600.084	27.923	0.113	0.097
-599.069	130.822	-0.231	-0.300
-598.055	-60.526	-0.153	-0.066
-597.040	800.000	0.035	-0.110
-596.025	394.740	-0.108	-0.229
-595.011	800.000	-0.049	-0.165
-593.996	221.666	0.205	-0.334
-592.982	-44.158	-0.283	-0.144
-591.967	777.024	0.067	0.187
-590.952	-200.000	0.040	-0.200
-589.938	-175.727	0.141	-0.004
-588.923	-200.000	-0.005	0.107
-587.909	-143.681	0.425	0.041
-586.894	-4.706	-0.157	-0.110
-585.879	-28.639	-0.373	-0.218
-584.865	14.438	-0.179	0.142
-583.850	-200.000	-0.066	-0.324
-582.836	800.000	0.026	-0.096
-581.821	-200.000	-0.014	-0.100
-580.806	-88.708	-0.293	-0.088
-579.792	-72.269	-0.282	0.106
-578.777	-10.329	-0.102	0.069
-577.763	800.000	-0.079	0.301
-576.748	800.000	-0.096	0.306
-575.733	114.266	0.041	0.050
-574.719	-135.502	-0.136	0.016
-573.704	-162.317	-0.147	0.007
-572.690	238.875	0.093	-0.156
-571.675	800.000	0.031	-0.130
-570.661	-115.462	0.250	0.048
-569.646	-63.845	0.183	0.076
-568.631	710.943	-0.069	-0.185
-567.617	179.442	-0.130	-0.193
-566.602	-200.000	-0.015	-0.111
-565.588	76.687	-0.062	-0.066
-564.573	800.000	0.111	-0.311
-563.558	-102.406	-0.356	0.086
-562.544	287.721	-0.147	-0.270
-561.529	-67.439	-0.302	0.120
-560.515	-45.804	-0.040	-0.020
-559.500	-43.828	-0.114	-0.058
-558.485	-108.393	-0.213	-0.046
-557.471	-129.450	0.247	-0.035
-556.456	-42.105	0.073	0.038
-555.442	223.514	-0.073	0.119
-554.427	-87.819	-0.257	-0.078
-553.412	-25.349	0.073	0.044
-552.398	-77.872	0.117	-0.041
-551.383	-200.000	-0.009	-0.343
-550.369	583.473	0.083	0.206
-549.354	240.966	0.049	0.083
-548.339	-87.380	0.091	-0.028
-547.325	-46.949	-0.482	-0.238
-546.310	354.632	0.219	-0.441
-545.296	-71.347	0.451	-0.171
-544.281	-46.195	-0.115	-0.057
-543.266	321.075	0.067	0.129
-542.252	-200.000	-0.002	0.122
-541.237	-48.704	-0.229	-0.111
-540.223	109.653	-0.153	0.186
-539.208	18.752	0.217	0.175
-538.193	34.607	-0.223	-0.198
-537.179	-200.000	-0.013	-0.123
-536.164	-118.655	-0.218	-0.039
-535.150	-170.883	0.103	0.004
-534.135	18.894	0.073	-0.059
-533.121	-86.186	-0.423	-0.132
-532.106	-37.896	-0.220	-0.118
-531.091	-34.008	-0.180	-0.100
-530.077	364.750	0.046	-0.093
-529.062	-200.000	-0.041	0.202
-528.048	-68.418	-0.142	-0.056
-527.033	-200.000	-0.036	-0.286
-526.018	253.538	-0.049	0.084
-525.004	-44.362	0.099	0.050
-523.989	-134.212	-0.195	0.024
-522.975	11.790	0.317	0.246
-521.960	22.991	-0.304	-0.252
-520.945	160.691	0.238	-0.336
-519.931	-130.950	-0.081	-0.011
-518.916	800.000	0.118	0.496
-517.902	800.000	-0.045	0.171
-516.887	201.996	0.012	-0.019
-515.872	-175.336	0.243	-0.007
-514.858	-200.000	-0.050	0.237
-513.843	-86.468	-0.141	-0.044
-512.829	-61.777	-0.111	-0.047
-511.814	201.588	0.145	-0.226
-510.799	273.126	-0.143	0.256
-509.785	40.573	-0.227	-0.207
-508.770	-121.191	-0.032	0.005
-507.756	-200.000	-0.039	0.299
-506.741	-80.499	-0.095	-0.032
-505.726	-105.270	-0.288	-0.066
-504.712	-200.000	0.026	-0.200
-503.697	-92.525	0.238	-0.068
-502.683	-91.869	0.100	0.029
-501.668	-200.000	-0.043	0.274
-500.653	8.355	-0.177	0.135
-499.639	-107.291	-0.054	-0.012
-498.624	-83.963	-0.132	0.042
-497.610	651.575	-0.104	0.269
-496.595	-127.807	0.193	-0.028
-495.581	-200.000	0.035	-0.358
-494.566	21.342	0.163	0.134
-493.551	67.579	-0.078	-0.080
-492.537	800.000	-0.139	-0.575
-491.522	800.000	0.031	0.130
-490.508	-107.802	0.334	0.074
-489.493	-94.456	0.033	0.009
-488.478	4.943	-0.332	0.247
-487.464	-79.299	0.152	0.052
-486.449	-172.049	0.218	-0.007
-485.435	66.162	-0.180	-0.185
-484.420	448.557	0.130	0.288
-483.405	-200.000	-0.071	-0.318
-482.391	566.595	0.018	0.043
-481.376	-133.553	-0.330	0.042
-480.362	138.414	-0.128	0.169
-479.347	-143.382	0.237	-0.023
-478.332	-200.000	-0.026	0.170
-477.318	77.355	0.083	-0.089
-476.303	-200.000	0.027	-0.160
-475.289	254.775	0.171	0.296
-474.274	492.725	0.129	-0.298
-473.259	247.905	-0.095	0.162
-472.245	-159.687	0.077	0.004
-471.230	-7.289	0.375	-0.257
-470.216	-200.000	0.026	-0.231
-469.201	-200.000	0.066	0.314
-468.186	35.384	0.238	-0.211
-467.172	-71.305	0.135	-0.051
-466.157	403.151	-0.228	0.484
-465.143	-92.188	0.214	0.061
-464.128	800.000	-0.155	-0.504
-463.113	185.396	-0.117	0.175
-462.099	84.586	-0.112	-0.124
-461.084	49.907	0.195	-0.185
-460.070	329.533	-0.097	-0.188
-459.055	-53.178	-0.286	0.133
-458.040	-200.000	-0.040	0.374
-457.026	709.039	0.119	0.317
-456.011	52.241	0.079	-0.076
-454.997	551.656	0.061	0.147
-453.982	-137.198	0.213	-0.024
-452.968	-131.525	0.306	0.041
-451.953	-89.472	-0.274	-0.081
-450.938	-123.777	-0.379	-0.060
-449.924	-60.252	0.290	0.125
-448.909	800.000	-0.078	-0.237
-447.895	40.845	-0.215	-0.196
-446.880	-155.837	-0.269	0.017
-445.865	-172.731	-0.263	-0.008
-444.851	-58.848	-0.060	0.026
-443.836	22.614	0.082	-0.068
-442.822	-200.000	0.025	0.239
-441.807	-200.000	-0.076	0.368
-440.792	-27.418	0.135	-0.079
-439.778	-22.546	-0.089	-0.054
-438.763	687.775	-0.079	0.208
-437.749	-69.344	-0.194	0.075
-436.734	5.383	-0.111	0.082
-435.719	-117.642	0.021	0.004
-434.705	267.360	0.110	-0.194
-433.690	800.000	-0.075	-0.241
-432.676	-90.123	-0.219	0.064
-431.661	-97.586	-0.248	-0.065
-430.646	491.133	0.035	0.080
-429.632	-136.753	-0.226	-0.026
-428.617	218.522	0.090	-0.145
-427.603	-200.000	0.007	0.082
-426.588	-200.000	-0.009	0.071
-425.573	-200.000	-0.097	-0.476
-424.559	784.541	0.120	-0.331
-423.544	237.699	0.153	-0.255
-422.530	-200.000	0.014	-0.111
-421.515	-200.000	-0.001	0.092
-420.500	17.234	-0.160	-0.128
-419.486	-58.098	0.530	-0.233
-418.471	800.000	-0.032	0.102
-417.457	800.000	-0.091	0.285
-416.442	-36.389	0.277	0.151
-415.428	800.000	-0.044	-0.142
-414.413	9.647	0.149	0.114
-413.398	-125.731	0.347	0.053
-412.384	131.876	-0.260	0.337
-411.369	800.000	0.135	0.490
-410.355	19.474	0.252	0.204
-409.340	-93.229	-0.236	-0.066
-408.325	2.784	0.112	0.081
-407.311	-117.373	0.139	0.025
-406.296	-200.000	0.041	-0.239
-405.282	200.319	0.226	-0.349
-404.267	800.000	-0.117	0.357
-403.252	153.580	0.068	0.093
-402.238	72.138	0.192	-0.202
-401.223	85.824	0.122	-0.135
-400.209	-200.000	-0.018	0.107
-399.194	758.946	-0.055	0.150
-398.179	9.619	0.285	0.217
-397.165	289.893	-0.123	-0.225
-396.150	-200.000	-0.001	0.034
-395.136	136.925	0.208	0.274
-394.121	189.414	0.121	-0.183
-393.106	-3.389	0.130	-0.091
-392.092	-114.351	-0.167	-0.032
-391.077	613.045	-0.063	-0.158
-390.063	412.455	0.108	0.230
-389.048	-114.624	-0.202	0.039
-388.033	34.383	0.170	-0.149
-387.019	-155.343	-0.109	-0.007
-386.004	309.591	-0.173	-0.325
-384.990	-73.197	0.133	-0.049
-383.975	-136.794	-0.298	-0.034
-382.960	594.379	0.053	-0.132
-381.946	-200.000	0.009	-0.060
-380.931	157.786	0.018	0.026
-379.917	10.445	-0.199	0.153
-378.902	462.442	-0.075	-0.169
-377.888	248.286	-0.186	0.316
-376.873	613.885	-0.043	-0.108
-375.858	47.083	-0.151	0.141
-374.844	-110.156	-0.121	-0.025
-373.829	-93.692	0.287	0.080
-372.815	370.583	0.134	0.274
-371.800	145.914	0.285	0.384
-370.785	-200.000	0.024	-0.306
-369.771	-187.692	-0.128	0.002
-368.756	-191.182	0.186	0.002
-367.742	383.521	0.136	-0.281
-366.727	-200.000	0.022	-0.201
-365.712	-200.000	-0.004	-0.195
-364.698	50.254	-0.164	-0.156
-363.683	591.521	-0.088	0.219
-362.669	-107.968	0.237	0.052
-361.654	-84.051	0.108	-0.034
-360.639	-135.868	-0.058	-0.007
-359.625	55.306	-0.161	-0.157
-358.610	109.493	0.145	0.174
-357.596	83.768	0.091	0.100
-356.581	-113.972	0.118	0.023
-355.566	24.728	-0.168	-0.140
-354.552	-128.536	0.192	0.027
-353.537	262.072	-0.165	0.287
-352.523	-94.967	-0.179	0.049
-351.508	225.071	-0.225	0.366
-350.493	121.518	-0.123	-0.154
-349.479	439.270	0.118	-0.259
-348.464	6.619	0.118	-0.088
-347.450	-71.640	0.159	-0.060
-346.435	588.539	-0.021	-0.052
-345.420	-200.000	0.014	0.247
-344.406	-36.663	0.055	-0.030
-343.391	151.397	0.192	0.263
-342.377	-67.183	-0.072	-0.028
-341.362	800.000	0.073	-0.288
-340.348	141.213	-0.119	0.158
-339.333	-200.000	-0.032	-0.139
-338.318	176.062	0.068	0.099
-337.304	76.195	-0.079	0.084
-336.289	69.729	-0.145	0.150
-335.275	11.730	0.138	0.107
-334.260	-116.316	-0.195	-0.036
-333.245	-84.569	0.031	-0.010
-332.231	80.729	0.138	0.150
-331.216	-200.000	0.045	-0.442
-330.202	-48.939	-0.183	-0.088
-329.187	13.649	0.134	-0.104
-328.172	-154.139	-0.255	0.017
-327.158	-200.000	0.019	0.132
-326.143	-140.802	-0.179	0.019
-325.129	343.488	0.026	-0.050
-324.114	308.457	-0.074	0.138
-323.099	92.792	0.009	-0.011
-322.085	-65.528	0.109	-0.044
-321.070	410.908	-0.139	0.296
-320.056	-54.138	0.286	-0.131
-319.041	294.399	-0.093	-0.171
-318.026	-73.792	-0.039	-0.014
-317.012	-96.413	-0.270	-0.072
-315.997	59.649	-0.272	0.269
-314.983	15.493	-0.090	-0.071
-313.968	280.880	0.109	0.195
-312.953	-200.000	0.006	0.132
-311.939	-200.000	-0.005	0.203
-310.924	-200.000	0.029	0.195
-309.910	-68.265	0.380	0.148
-308.895	148.954	-0.122	0.165
-307.880	670.032	0.029	-0.076
-306.866	133.246	0.081	-0.105
-305.851	-18.263	0.078	0.049
-304.837	76.271	0.070	-0.075
-303.822	-71.021	0.391	0.148
-302.807	-95.718	-0.144	-0.039
-301.793	-108.986	0.132	-0.028
-300.778	229.596	0.060	0.098
-299.764	-200.000	-0.042	-0.213
-298.749	-35.761	0.041	-0.022
-297.735	-200.000	-0.107	0.472
-296.720	-41.098	0.453	-0.235
-295.705	-200.000	-0.008	-0.060
-294.691	90.105	-0.072	0.081
-293.676	108.189	-0.313	-0.375
-292.662	17.410	-0.274	-0.219
-291.647	800.000	0.081	-0.270
-290.632	-142.257	-0.399	0.040
-289.618	115.627	-0.003	-0.004
-288.603	72.858	0.179	0.188
-287.589	-19.017	0.069	-0.043
-286.574	140.859	-0.133	-0.176
-285.559	-131.211	0.248	0.033
-284.545	424.600	0.080	0.172
-283.530	71.122	-0.199	-0.207
-282.516	-176.436	0.169	-0.004
-281.501	-200.000	0.014	-0.083
-280.486	-200.000	0.067	-0.336
-279.472	78.930	0.084	0.090
-278.457	-133.997	0.152	0.019
-277.443	368.583	0.113	-0.229
-276.428	-183.937	0.382	0.006
-275.413	-64.716	-0.076	-0.031
-274.399	-92.155	-0.317	0.090
-273.384	-79.828	0.201	-0.068
-272.370	-200.000	-0.064	-0.322
-271.355	-57.069	0.425	-0.188
-270.340	-200.000	0.071	0.456
-269.326	-117.901	0.249	0.045
-268.311	109.624	0.134	-0.160
-267.297	-200.000	0.017	0.212
-266.282	-30.088	-0.204	0.116
-265.267	-169.773	-0.304	0.011
-264.253	119.719	-0.088	-0.109
-263.238	122.711	-0.116	0.145
-262.224	-55.773	-0.323	-0.145
-261.209	25.734	-0.305	0.254
-260.195	89.067	0.168	0.188
-259.180	400.082	0.088	0.185
-258.165	49.697	0.252	0.238
-257.151	-200.000	0.032	-0.231
-256.136	31.216	0.128	0.110
-255.122	490.510	0.130	-0.298
-254.107	-142.029	-0.179	0.018
-253.092	-200.000	0.036	0.213
-252.078	229.194	-0.114	0.187
-251.063	483.287	0.152	0.346
-250.049	-83.052	0.322	0.104
-249.034	52.567	-0.137	0.131
-248.019	372.709	0.249	0.506
-247.005	250.232	-0.140	0.237
-245.990	-110.544	0.051	-0.011
-244.976	447.512	0.075	-0.166
-243.961	-200.000	0.015	0.116
-242.946	-69.746	0.052	-0.020
-241.932	-101.853	0.057	0.014
-240.917	-136.039	0.440	-0.052
-239.903	104.083	0.116	0.136
-238.888	-41.989	-0.388	0.199
-237.873	216.952	-0.113	-0.180
-236.859	-18.667	-0.106	0.066
-235.844	-93.533	0.154	0.043
-234.830	-29.368	-0.171	0.098
-233.815	11.359	0.127	-0.097
-232.800	-144.653	-0.163	-0.015
-231.786	-199.543	0.417	-0.002
-230.771	-200.000	0.031	0.282
-229.757	367.272	0.065	-0.131
-228.742	68.911	-0.188	-0.193
-227.727	-114.818	-0.199	-0.038
-226.713	-11.322	-0.094	-0.062
-225.698	-104.202	0.035	-0.008
-224.684	-200.000	0.010	0.370
-223.669	-200.000	-0.006	-0.030
-222.655	-200.000	0.041	0.271
-221.640	-130.682	-0.318	-0.043
-220.625	73.131	0.197	-0.206
-219.611	800.000	0.033	-0.137
-218.596	617.680	0.043	-0.107
-217.582	-30.683	0.203	-0.115
-216.567	-47.450	0.237	0.115
-215.552	-200.000	-0.038	-0.350
-214.538	800.000	-0.102	-0.300
-213.523	358.133	0.112	-0.223
-212.509	-158.197	-0.327	-0.019
-211.494	-168.572	0.205	-0.008
-210.479	309.378	-0.110	0.205
-209.465	800.000	0.046	-0.172
-208.450	-74.868	0.159	-0.057
-207.436	-39.244	-0.114	0.060
-206.421	-60.702	-0.139	-0.059
-205.406	32.460	-0.183	0.158
-204.392	331.291	0.093	0.179
-203.377	800.000	0.073	0.205
-202.363	-200.000	0.015	0.096
-201.348	617.102	0.028	-0.070
-200.333	-200.000	0.038	-0.189
-199.319	-30.208	0.101	0.057
-198.304	337.532	-0.058	0.112
-197.290	126.857	0.061	-0.077
-196.275	539.244	0.135	0.320
-195.260	-126.306	-0.381	-0.057
-194.246	9.397	0.150	0.113
-193.231	295.604	0.074	0.136
-192.217	312.627	0.223	0.418
-191.202	-27.738	-0.505	0.292
-190.187	800.000	0.023	0.079
-189.173	-83.749	0.065	-0.021
-188.158	-14.493	0.043	0.028
-187.144	-200.000	-0.035	-0.157
-186.129	-19.981	0.274	-0.169
-185.114	-67.397	-0.281	0.110
-184.100	-165.752	0.272	0.012
-183.085	-77.823	-0.133	-0.046
-182.071	284.599	0.062	-0.112
-181.056	-128.888	0.354	-0.050
-180.042	781.268	-0.078	-0.213
-179.027	777.023	0.055	0.150
-178.012	342.460	0.039	-0.076
-176.998	-65.150	-0.270	0.108
-175.983	-52.516	0.153	0.071
-174.969	-129.038	0.236	0.033
-173.954	12.681	-0.177	0.137
-172.939	-200.000	0.006	-0.244
-171.925	-102.638	0.159	-0.038
-170.910	393.410	-0.124	0.257
-169.896	-72.403	-0.281	0.104
-168.881	-85.225	0.384	-0.120
-167.866	529.515	-0.293	-0.691
-166.852	-106.860	0.094	-0.021
-165.837	-155.934	-0.285	0.018
-164.823	-128.705	0.398	0.056
-163.808	121.623	0.043	0.054
-162.793	-200.000	-0.136	0.656
-161.779	-128.892	0.267	-0.037
-160.764	-49.555	-0.222	0.105
-159.750	-200.000	0.049	0.336
-158.735	-200.000	-0.092	0.420
-157.720	-200.000	0.010	-0.167
-156.706	-121.286	-0.190	-0.032
-155.691	-88.243	0.063	-0.019
-154.677	21.506	-0.272	0.221
-153.662	800.000	0.023	-0.091
-152.647	-27.815	-0.123	0.071
-151.633	-136.440	0.264	0.031
-150.618	-200.000	-0.005	-0.264
-149.604	-71.298	0.340	-0.127
-148.589	-129.765	-0.238	-0.033
-147.574	70.970	0.272	0.281
-146.560	439.369	-0.094	-0.205
-145.545	-20.000	0.096	0.059
-144.531	-135.471	0.215	-0.026
-143.516	46.293	0.059	-0.054
-142.502	-122.117	0.101	0.017
-141.487	714.064	-0.068	-0.179
-140.472	-19.425	-0.097	0.060
-139.458	-103.914	-0.322	0.075
-138.443	-25.006	0.164	-0.097
-137.429	110.120	0.105	0.126
-136.414	195.962	0.233	0.353
-135.399	430.533	0.183	-0.394
-134.385	-34.130	0.234	-0.128
-133.370	-200.000	-0.028	0.129
-132.356	-113.806	0.386	0.075
-131.341	-200.000	0.002	-0.286
-130.326	-7.313	-0.088	0.059
-129.312	-200.000	-0.024	0.166
-128.297	30.770	-0.172	0.146
-127.283	-20.501	0.211	0.129
-126.268	57.383	0.100	0.098
-125.253	101.408	-0.067	-0.078
-124.239	-121.340	-0.407	0.068
-123.224	-74.676	0.147	-0.053
-122.210	-134.239	0.118	0.014
