DTS Sentinel unit serial number:	SN413079Multiplexer serial number:	ORYXHardware model number:	OX4-SRSoftware version number:	ORYX F/W v4.00 Oryx Data Collector v3.7.2.0data status	okinstallation	princeton_trtdifferential loss correction	single-endedforward channel	channel 3reverse channel	N/Adate	2019/09/15time	06:12:35forward acquisition time	60.00reverse acquisition time	0.00gamma	496.2192k internal	0.2324k external	0.2324temperature offset calibration	0.9980default loss term (dB/km)	0.3790temperature slope calibration	1.0000multiplexer offset coefficient	1.0000multiplexer slope coefficient	1.0000fibre end	0.00T internal ref (°C)	30.56T ext. ref 1 (°C)	4.84T ext. ref 2 (°C)	25.03length (m)	temperature (°C)	Stokes	anti-Stokes-747.200	19.634	-0.336	-0.273
-746.185	96.551	-0.298	0.344
-745.171	8.054	0.452	0.343
-744.156	-200.000	-0.027	0.435
-743.142	431.023	0.074	0.162
-742.127	-16.266	-0.321	-0.206
-741.112	219.282	0.094	-0.152
-740.098	-200.000	-0.324	0.000
-739.083	328.187	0.106	0.205
-738.069	66.202	0.191	-0.195
-737.054	-53.328	0.350	0.162
-736.039	43.643	-0.242	-0.223
-735.025	-200.000	-0.025	0.208
-734.010	-168.790	0.284	-0.011
-732.996	-81.434	-0.364	0.121
-731.981	800.000	-0.025	-0.108
-730.966	-200.000	-0.014	0.107
-729.952	-196.470	0.212	-0.001
-728.937	-200.000	-0.189	0.001
-727.923	-200.000	-0.011	-0.159
-726.908	50.076	0.253	-0.241
-725.894	800.000	-0.103	0.396
-724.879	-44.881	-0.163	-0.082
-723.864	277.337	-0.156	0.281
-722.850	-79.616	0.219	0.075
-721.835	72.570	-0.121	0.127
-720.821	86.593	0.102	0.113
-719.806	250.676	-0.059	0.102
-718.791	-101.475	0.220	-0.054
-717.777	194.464	0.100	0.152
-716.762	-114.874	0.340	-0.065
-715.748	-9.641	0.028	-0.019
-714.733	-57.919	-0.136	0.060
-713.718	728.055	-0.150	0.403
-712.704	800.000	0.088	0.329
-711.689	151.253	-0.018	0.025
-710.675	-71.631	-0.140	-0.053
-709.660	346.489	-0.088	-0.174
-708.645	248.105	-0.079	0.136
-707.631	446.730	-0.029	0.064
-706.616	-56.301	0.221	0.099
-705.602	324.822	-0.092	-0.178
-704.587	-39.741	0.206	-0.109
-703.572	800.000	0.060	0.238
-702.558	8.853	0.172	0.131
-701.543	180.777	-0.037	-0.055
-700.529	-188.913	0.270	-0.003
-699.514	-200.000	-0.019	-0.509
-698.499	121.751	-0.117	0.147
-697.485	-200.000	0.029	-0.162
-696.470	29.744	0.078	-0.067
-695.456	170.746	0.122	0.176
-694.441	-9.368	0.244	-0.164
-693.426	-10.391	-0.278	0.186
-692.412	122.313	-0.065	0.082
-691.397	-148.791	-0.061	-0.005
-690.383	-98.778	-0.443	-0.113
-689.368	-106.759	-0.355	-0.079
-688.354	314.663	-0.195	-0.370
-687.339	-122.455	-0.128	-0.021
-686.324	212.054	-0.111	-0.176
-685.310	367.426	-0.084	-0.170
-684.295	-200.000	-0.014	-0.213
-683.281	800.000	-0.087	-0.279
-682.266	-50.581	-0.200	-0.095
-681.251	-15.023	0.273	0.176
-680.237	40.992	-0.192	0.175
-679.222	-41.674	-0.068	-0.035
-678.208	-158.106	-0.277	-0.016
-677.193	-200.000	-0.030	-0.182
-676.178	-131.018	-0.145	0.019
-675.164	38.605	0.046	0.042
-674.149	-200.000	-0.039	0.388
-673.135	182.001	-0.137	-0.203
-672.120	-200.000	-0.012	-0.327
-671.105	-51.860	0.152	-0.071
-670.091	-172.109	0.118	0.004
-669.076	139.985	-0.108	-0.143
-668.062	-123.932	0.511	-0.081
-667.047	-79.125	-0.057	0.020
-666.032	-102.166	0.079	-0.019
-665.018	-200.000	0.004	-0.044
-664.003	174.905	-0.070	-0.102
-662.989	-48.179	0.082	0.040
-661.974	-200.000	0.013	-0.268
-660.959	-127.656	-0.416	0.061
-659.945	0.198	0.129	-0.092
-658.930	0.477	-0.092	0.066
-657.916	43.844	-0.129	-0.119
-656.901	-47.828	-0.178	0.087
-655.886	-200.000	-0.029	-0.206
-654.872	-132.245	-0.157	-0.020
-653.857	-11.026	-0.024	0.016
-652.843	247.196	0.119	0.202
-651.828	354.898	0.197	-0.394
-650.814	53.596	-0.284	0.274
-649.799	-200.000	0.013	0.103
-648.784	-7.490	-0.077	-0.052
-647.770	800.000	-0.091	0.341
-646.755	125.064	0.089	-0.112
-645.741	-200.000	-0.015	-0.142
-644.726	11.942	0.048	0.037
-643.711	-78.937	-0.094	0.032
-642.697	-200.000	-0.064	-0.309
-641.682	800.000	-0.077	-0.283
-640.668	-129.348	0.305	-0.043
-639.653	-94.724	-0.189	0.051
-638.638	-87.374	-0.170	-0.052
-637.624	275.145	0.148	0.264
-636.609	800.000	-0.014	0.050
-635.595	-200.000	-0.022	-0.255
-634.580	-200.000	0.033	0.262
-633.565	118.847	0.192	0.238
-632.551	-200.000	-0.003	0.126
-631.536	111.025	0.263	0.318
-630.522	-110.693	-0.332	-0.069
-629.507	-133.671	0.174	0.022
-628.492	-131.770	-0.391	-0.051
-627.478	-117.156	0.095	0.017
-626.463	-29.705	-0.335	-0.192
-625.449	-200.000	0.006	-0.231
-624.434	561.370	0.142	0.345
-623.419	-4.671	-0.101	-0.070
-622.405	-136.126	0.112	-0.013
-621.390	800.000	-0.044	0.136
-620.376	-84.198	-0.309	-0.098
-619.361	-134.345	0.100	-0.012
-618.346	800.000	-0.052	0.153
-617.332	-6.484	-0.212	-0.145
-616.317	-130.121	0.403	0.055
-615.303	53.156	0.021	-0.020
-614.288	368.000	0.045	0.091
-613.273	-73.822	-0.031	0.011
-612.259	540.275	-0.079	-0.190
-611.244	713.151	-0.088	0.234
-610.230	-24.524	0.399	0.238
-609.215	-38.934	0.224	0.118
-608.201	57.342	0.070	-0.069
-607.186	800.000	0.097	-0.353
-606.171	18.239	-0.170	0.136
-605.157	468.345	-0.124	0.279
-604.142	22.216	-0.134	0.110
-603.128	269.078	-0.138	-0.243
-602.113	-200.000	-0.015	-0.129
-601.098	-200.000	-0.002	-0.140
-600.084	152.029	0.076	-0.104
-599.069	318.181	-0.055	-0.104
-598.055	-148.193	0.313	-0.026
-597.040	-200.000	0.007	0.160
-596.025	-150.813	0.123	0.009
-595.011	68.493	-0.038	0.039
-593.996	-81.346	0.149	0.049
-592.982	-19.198	0.142	0.088
-591.967	357.373	0.050	-0.100
-590.952	39.931	-0.265	0.239
-589.938	21.417	0.236	0.192
-588.923	174.921	-0.084	-0.122
-587.909	423.333	0.007	-0.015
-586.894	-200.000	-0.062	0.308
-585.879	-22.747	0.023	-0.014
-584.865	800.000	-0.062	0.240
-583.850	-200.000	0.007	0.143
-582.836	-0.766	-0.168	-0.119
-581.821	558.582	-0.165	0.399
-580.806	105.927	-0.344	0.408
-579.792	800.000	0.030	0.086
-578.777	-200.000	-0.025	-0.364
-577.763	190.959	-0.129	0.194
-576.748	-8.858	-0.213	-0.143
-575.733	370.383	-0.078	-0.159
-574.719	-30.500	0.085	0.048
-573.704	88.998	-0.175	-0.195
-572.690	-33.928	-0.268	-0.148
-571.675	-46.497	0.314	0.154
-570.661	448.553	0.095	0.210
-569.646	307.100	0.084	-0.156
-568.631	144.468	0.092	-0.124
-567.617	-127.403	0.252	-0.037
-566.602	-200.000	0.005	0.288
-565.588	131.261	0.120	0.155
-564.573	126.522	-0.075	-0.096
-563.558	-200.000	0.215	0.000
-562.544	468.361	-0.082	-0.185
-561.529	800.000	0.062	-0.201
-560.515	400.243	0.096	-0.202
-559.500	-54.495	0.157	-0.071
-558.485	-179.950	0.200	0.004
-557.471	456.765	0.173	-0.386
-556.456	-105.839	-0.284	0.064
-555.442	-40.979	0.270	-0.140
-554.427	100.431	-0.097	-0.113
-553.412	188.205	0.211	0.316
-552.398	-200.000	-0.011	0.316
-551.383	-123.925	-0.491	0.078
-550.369	80.291	-0.122	0.132
-549.354	205.724	0.107	0.167
-548.339	-50.757	-0.099	-0.047
-547.325	-139.554	0.168	-0.018
-546.310	-17.479	0.177	-0.112
-545.296	-200.000	-0.022	-0.348
-544.281	12.804	-0.159	-0.123
-543.266	65.148	-0.077	0.078
-542.252	57.319	-0.117	0.114
-541.237	34.481	-0.280	-0.245
-540.223	40.350	-0.333	-0.300
-539.208	-29.719	-0.150	-0.086
-538.193	800.000	-0.088	-0.295
-537.179	-30.960	-0.106	-0.060
-536.164	23.554	0.243	-0.200
-535.150	92.365	0.162	0.182
-534.135	45.910	-0.132	0.122
-533.121	493.964	0.083	0.190
-532.106	-58.104	-0.214	-0.093
-531.091	23.283	0.316	-0.260
-530.077	-45.250	0.259	0.129
-529.062	-200.000	0.047	-0.240
-528.048	-47.716	-0.071	-0.035
-527.033	58.074	-0.129	-0.127
-526.018	396.073	0.115	-0.240
-525.004	261.149	-0.203	-0.352
-523.989	-67.041	-0.326	-0.129
-522.975	-28.763	-0.262	0.151
-521.960	-3.820	0.234	-0.162
-520.945	-47.021	-0.158	-0.077
-519.931	-148.963	0.147	0.012
-518.916	800.000	-0.036	-0.115
-517.902	71.124	-0.107	-0.110
-516.887	-128.201	0.110	0.016
-515.872	-108.333	0.444	-0.096
-514.858	66.247	-0.139	-0.141
-513.843	-200.000	0.026	-0.132
-512.829	2.627	-0.058	0.042
-511.814	-200.000	0.045	0.339
-510.799	-200.000	-0.008	0.059
-509.785	800.000	0.106	-0.324
-508.770	800.000	0.047	0.185
-507.756	800.000	-0.107	0.434
-506.741	-200.000	0.061	-0.289
-505.726	-148.476	-0.086	-0.007
-504.712	-27.119	0.178	-0.104
-503.697	381.011	-0.118	-0.242
-502.683	-122.220	0.205	-0.034
-501.668	-117.424	0.293	0.053
-500.653	667.035	-0.133	-0.343
-499.639	167.816	0.106	0.150
-498.624	-14.435	0.090	-0.058
-497.610	-85.903	-0.178	0.055
-496.595	-26.178	-0.181	-0.106
-495.581	800.000	-0.101	0.304
-494.566	185.345	-0.183	0.271
-493.551	307.784	-0.131	-0.244
-492.537	30.456	-0.142	0.122
-491.522	-92.347	0.237	-0.067
-490.508	-200.000	-0.061	-0.280
-489.493	-102.878	0.311	0.074
-488.478	-146.702	-0.170	-0.015
-487.464	800.000	0.018	-0.062
-486.449	-24.882	-0.114	0.068
-485.435	800.000	-0.026	-0.079
-484.420	-200.000	-0.003	-0.187
-483.405	52.261	-0.134	0.128
-482.391	-66.331	-0.277	-0.110
-481.376	99.924	0.162	0.188
-480.362	-43.076	-0.269	0.136
-479.347	-60.205	0.210	-0.090
-478.332	800.000	-0.046	0.191
-477.318	-119.620	-0.128	-0.022
-476.303	-200.000	0.041	0.354
-475.289	30.696	-0.035	0.030
-474.274	-200.000	-0.016	-0.080
-473.259	31.537	0.218	-0.187
-472.245	415.047	0.089	0.190
-471.230	-142.532	0.346	-0.034
-470.216	800.000	-0.012	0.034
-469.201	800.000	-0.053	0.147
-468.186	-23.745	0.334	0.200
-467.172	-200.000	0.004	-0.160
-466.157	-200.000	0.003	-0.189
-465.143	146.339	-0.083	-0.111
-464.128	-200.000	0.004	-0.033
-463.113	-106.043	-0.180	0.040
-462.099	151.269	0.138	0.187
-461.084	143.934	0.177	-0.236
-460.070	-4.401	0.157	-0.109
-459.055	-100.020	-0.185	0.046
-458.040	-126.594	0.267	0.040
-457.026	-22.856	-0.149	-0.090
-456.011	-200.000	0.026	-0.180
-454.997	124.765	-0.355	0.447
-453.982	317.031	-0.065	-0.123
-452.968	800.000	-0.060	0.237
-451.953	540.697	-0.077	-0.183
-450.938	-51.402	0.116	-0.054
-449.924	-61.265	0.189	-0.079
-448.909	-200.000	0.021	0.107
-447.895	-46.399	0.312	-0.153
-446.880	-98.974	-0.039	-0.010
-445.865	-15.509	-0.519	0.331
-444.851	534.684	0.089	-0.211
-443.836	80.263	0.087	0.093
-442.822	-68.332	-0.221	0.085
-441.807	-22.796	-0.072	0.043
-440.792	80.293	0.072	-0.077
-439.778	38.371	0.229	-0.203
-438.763	800.000	0.039	-0.117
-437.749	-200.000	-0.000	-0.130
-436.734	27.964	0.250	0.210
-435.719	800.000	-0.099	0.355
-434.705	170.309	0.224	-0.320
-433.690	-65.522	0.055	0.022
-432.676	800.000	-0.036	0.150
-431.661	-47.784	0.167	0.081
-430.646	-129.172	-0.052	-0.007
-429.632	-108.650	0.047	0.010
-428.617	-36.347	-0.069	-0.037
-427.603	92.344	-0.119	0.134
-426.588	-200.000	-0.015	-0.142
-425.573	-46.338	0.315	-0.154
-424.559	584.489	0.074	0.180
-423.544	-110.683	0.183	0.038
-422.530	-30.757	0.298	-0.168
-421.515	-118.222	0.225	-0.040
-420.500	-115.059	0.217	0.041
-419.486	102.937	-0.230	0.269
-418.471	-140.567	0.379	-0.039
-417.457	102.179	-0.056	0.066
-416.442	13.913	0.182	0.141
-415.428	-200.000	0.011	-0.055
-414.413	32.530	0.114	0.098
-413.398	-200.000	-0.003	0.086
-412.384	-38.353	0.234	-0.123
-411.369	-54.230	-0.371	-0.168
-410.355	-200.000	-0.007	0.099
-409.340	-177.299	-0.306	-0.008
-408.325	-200.000	0.044	-0.246
-407.311	-50.647	-0.194	-0.091
-406.296	-120.957	-0.413	-0.069
-405.282	63.168	-0.167	-0.166
-404.267	108.472	0.119	0.142
-403.252	-124.167	-0.265	-0.041
-402.238	-200.000	-0.007	0.080
-401.223	-17.955	-0.375	-0.234
-400.209	-200.000	-0.002	0.080
-399.194	-85.324	-0.374	0.116
-398.179	-76.349	0.206	-0.072
-397.165	800.000	-0.096	0.284
-396.150	800.000	0.024	-0.099
-395.136	-92.659	-0.278	0.078
-394.121	800.000	-0.102	0.361
-393.106	800.000	-0.053	-0.209
-392.092	800.000	-0.074	0.222
-391.077	800.000	0.126	0.350
-390.063	-13.816	0.095	0.061
-389.048	-200.000	0.000	0.035
-388.033	85.096	0.204	0.223
-387.019	76.609	-0.169	0.179
-386.004	209.591	0.213	0.332
-384.990	124.046	0.181	0.227
-383.975	-114.575	-0.221	-0.042
-382.960	-59.461	0.207	0.089
-381.946	8.112	0.134	0.100
-380.931	-46.591	-0.186	-0.091
-379.917	-108.298	-0.119	0.026
-378.902	-200.000	0.010	-0.131
-377.888	15.563	-0.341	0.267
-376.873	-200.000	0.021	0.127
-375.858	337.539	0.087	0.168
-374.844	-99.431	-0.065	0.016
-373.829	-165.797	0.145	0.006
-372.815	-60.932	-0.177	0.075
-371.800	10.104	0.115	-0.087
-370.785	-72.510	-0.238	0.088
-369.771	-170.942	-0.115	-0.004
-368.756	82.157	0.129	0.139
-367.742	800.000	-0.017	-0.069
-366.727	176.054	-0.125	0.180
-365.712	800.000	0.044	0.190
-364.698	26.899	0.224	-0.186
-363.683	20.597	-0.307	-0.247
-362.669	-47.967	-0.120	0.057
-361.654	-155.232	0.226	0.015
-360.639	66.172	0.360	0.364
-359.625	196.312	0.131	0.198
-358.610	-200.000	0.015	-0.266
-357.596	-95.917	-0.234	-0.062
-356.581	110.904	-0.250	0.299
-355.566	300.016	0.208	0.382
-354.552	-200.000	-0.049	-0.351
-353.537	294.930	-0.160	-0.291
-352.523	479.660	0.155	0.350
-351.508	-91.683	-0.162	0.046
-350.493	7.043	-0.212	-0.157
-349.479	26.263	-0.226	0.188
-348.464	-113.697	-0.082	-0.016
-347.450	-12.012	-0.120	0.078
-346.435	-74.261	-0.192	0.069
-345.420	75.624	-0.017	-0.018
-344.406	-115.181	-0.047	0.009
-343.391	-4.014	0.047	0.032
-342.377	330.170	0.072	-0.139
-341.362	584.496	-0.045	0.109
-340.348	74.727	-0.055	-0.058
-339.333	-18.491	-0.156	0.097
-338.318	416.644	0.136	0.287
-337.304	-200.000	0.098	0.461
-336.289	273.905	-0.157	-0.275
-335.275	-96.871	-0.120	0.031
-334.260	243.080	0.120	0.200
-333.245	-60.793	-0.109	-0.046
-332.231	-186.939	-0.099	0.001
-331.216	6.807	0.237	-0.175
-330.202	-200.000	-0.003	0.194
-329.187	-109.929	-0.276	0.057
-328.172	-119.066	-0.199	0.035
-327.158	-200.000	0.015	-0.333
-326.143	-25.902	0.331	-0.194
-325.129	-34.857	0.447	-0.242
-324.114	45.439	0.107	0.098
-323.099	-200.000	0.017	0.115
-322.085	-200.000	0.101	0.512
-321.070	-192.041	-0.291	0.003
-320.056	91.285	0.413	0.460
-319.041	-55.934	0.091	0.040
-318.026	-35.733	0.376	0.202
-317.012	78.458	-0.340	-0.361
-315.997	-114.186	0.318	0.061
-314.983	39.341	0.183	-0.163
-313.968	-200.000	0.033	0.191
-312.953	-72.641	-0.127	0.046
-311.939	82.866	-0.093	0.100
-310.924	-15.299	0.241	-0.153
-309.910	71.240	0.167	0.172
-308.895	-149.348	0.314	0.025
-307.880	800.000	0.007	-0.026
-306.866	298.281	-0.038	-0.069
-305.851	800.000	-0.093	0.314
-304.837	-164.103	0.365	0.017
-303.822	334.221	0.109	0.208
-302.807	171.015	-0.074	0.106
-301.793	-93.481	0.430	0.118
-300.778	267.668	-0.173	-0.300
-299.764	800.000	0.052	-0.157
-298.749	-200.000	-0.055	0.440
-297.735	800.000	0.012	0.035
-296.720	-66.778	0.144	0.056
-295.705	-200.000	-0.093	-0.464
-294.691	67.278	0.185	-0.187
-293.676	-125.320	0.280	0.042
-292.662	-22.013	-0.536	-0.323
-291.647	188.484	-0.222	-0.329
-290.632	94.585	0.147	-0.165
-289.618	-52.378	-0.064	-0.029
-288.603	800.000	0.014	-0.045
-287.589	-200.000	-0.062	0.335
-286.574	-200.000	-0.028	-0.240
-285.559	50.403	-0.299	-0.280
-284.545	-89.479	-0.173	0.050
-283.530	-127.604	0.038	-0.005
-282.516	-108.858	-0.034	-0.007
-281.501	-126.704	-0.266	-0.039
-280.486	-19.069	0.315	-0.194
-279.472	207.292	0.153	0.236
-278.457	372.255	-0.105	-0.211
-277.443	800.000	0.041	-0.118
-276.428	-200.000	0.065	0.405
-275.413	-200.000	0.018	-0.112
-274.399	186.611	0.172	0.254
-273.384	755.547	-0.083	-0.223
-272.370	-200.000	0.040	-0.220
-271.355	-3.306	0.192	-0.133
-270.340	-200.000	-0.006	-0.091
-269.326	-108.268	0.088	0.019
-268.311	89.788	0.216	-0.239
-267.297	92.290	-0.243	-0.271
-266.282	225.365	0.143	-0.229
-265.267	-102.880	0.407	0.096
-264.253	-22.463	-0.210	-0.126
-263.238	400.624	-0.180	-0.375
-262.224	-185.346	0.281	0.004
-261.209	-200.000	0.020	-0.235
-260.195	-107.830	0.152	-0.033
-259.180	10.259	0.047	0.035
-258.165	-89.434	0.118	0.034
-257.151	-5.664	0.058	0.040
-256.136	-31.720	-0.096	-0.053
-255.122	-200.000	0.058	-0.360
-254.107	800.000	-0.011	-0.036
-253.092	139.050	0.097	0.127
-252.078	324.727	0.062	-0.117
-251.063	71.492	0.074	0.076
-250.049	160.884	0.142	0.196
-249.034	186.472	0.184	-0.271
-248.019	77.398	-0.241	0.254
-247.005	39.002	0.162	-0.143
-245.990	428.661	0.122	-0.261
-244.976	78.444	0.162	-0.171
-243.961	362.354	-0.040	-0.080
-242.946	154.029	0.143	-0.194
-241.932	-49.131	-0.126	-0.059
-240.917	-200.000	-0.025	0.118
-239.903	695.386	0.137	-0.357
-238.888	-12.538	0.091	-0.059
-237.873	-133.761	-0.232	0.029
-236.859	189.020	0.041	0.061
-235.844	73.778	-0.190	-0.197
-234.830	-200.000	-0.024	-0.315
-233.815	-200.000	0.029	0.263
-232.800	-200.000	0.004	-0.026
-231.786	11.356	0.202	0.153
-230.771	-191.809	0.232	0.002
-229.757	-96.436	0.110	-0.029
-228.742	175.601	0.102	-0.146
-227.727	176.960	-0.023	0.033
-226.713	33.366	0.062	0.053
-225.698	-200.000	0.005	-0.293
-224.684	800.000	0.049	-0.150
-223.669	100.400	-0.041	-0.047
-222.655	800.000	0.107	0.356
-221.640	-132.791	-0.494	-0.062
-220.625	-38.559	0.156	-0.081
-219.611	164.667	-0.089	0.124
-218.596	-85.189	-0.420	-0.130
-217.582	-78.745	0.189	0.064
-216.567	84.724	-0.103	0.111
-215.552	-200.000	0.021	0.242
-214.538	-67.402	-0.336	-0.130
-213.523	194.496	-0.191	-0.287
-212.509	195.373	-0.129	0.194
-211.494	73.670	-0.430	-0.445
-210.479	555.501	0.119	-0.283
-209.465	7.102	-0.132	0.097
-208.450	101.222	-0.176	-0.203
-207.436	347.664	-0.079	0.154
-206.421	-142.825	0.148	-0.014
-205.406	-113.802	0.080	-0.015
-204.392	-200.000	-0.007	-0.153
-203.377	-70.017	0.291	-0.109
-202.363	110.887	0.263	0.312
-201.348	-14.257	-0.214	0.136
-200.333	-39.656	0.032	-0.017
-199.319	89.086	-0.213	-0.234
-198.304	53.585	-0.221	-0.209
-197.290	-48.701	-0.134	-0.064
-196.275	299.894	-0.038	-0.069
-195.260	178.532	-0.096	0.139
-194.246	70.589	-0.151	0.154
-193.231	310.196	0.081	0.150
-192.217	15.183	0.039	0.030
-191.202	-50.942	-0.276	-0.128
-190.187	-131.729	-0.174	0.023
-189.173	152.710	-0.024	0.032
-188.158	111.971	-0.045	-0.053
-187.144	11.519	0.046	-0.035
-186.129	32.021	0.186	0.158
-185.114	32.902	0.210	0.180
-184.100	-200.000	-0.106	0.501
-183.085	-89.204	0.204	0.059
-182.071	760.010	-0.068	0.182
-181.056	-87.778	0.343	-0.102
-180.042	-160.503	-0.328	-0.017
-179.027	-200.000	0.029	0.218
-178.012	-200.000	-0.010	-0.056
-176.998	-58.928	0.451	0.192
-175.983	-64.501	-0.090	-0.036
-174.969	23.078	0.102	0.082
-173.954	150.549	-0.190	0.254
-172.939	43.962	-0.131	-0.119
-171.925	-110.613	-0.135	0.028
-170.910	-200.000	0.001	-0.073
-169.896	-200.000	-0.004	0.120
-168.881	405.498	0.103	0.214
-167.866	-41.243	-0.304	0.155
-166.852	291.095	-0.132	0.236
-165.837	-4.454	-0.210	-0.143
-164.823	-68.385	-0.329	-0.126
-163.808	244.243	-0.217	-0.359
-162.793	268.802	0.115	0.199
-161.779	-142.806	0.256	-0.025
-160.764	-200.000	-0.050	-0.230
-159.750	-200.000	0.016	-0.196
-158.735	-200.000	-0.051	0.345
-157.720	-200.000	-0.000	-0.141
-156.706	-65.346	-0.258	-0.102
-155.691	46.305	0.179	-0.164
-154.677	95.747	0.119	-0.134
-153.662	-124.450	0.026	0.004
-152.647	-109.636	0.054	-0.011
-151.633	83.772	0.256	0.275
-150.618	-84.123	0.395	-0.124
-149.604	-98.451	0.125	-0.032
-148.589	-122.409	-0.080	-0.013
-147.574	800.000	0.038	-0.151
-146.560	-40.598	-0.418	-0.214
-145.545	-200.000	-0.022	0.104
-144.531	-114.475	-0.228	0.043
-143.516	366.556	0.082	0.163
-142.502	800.000	-0.138	0.416
-141.487	-63.533	0.280	-0.113
-140.472	-56.480	0.078	-0.034
-139.458	128.866	0.080	-0.101
-138.443	-162.810	-0.192	-0.009
-137.429	115.102	-0.281	-0.338
-136.414	97.335	-0.334	-0.377
-135.399	252.902	-0.136	-0.229
-134.385	47.691	-0.147	-0.135
-133.370	357.350	-0.269	-0.529
-132.356	-49.964	0.245	-0.114
-131.341	800.000	0.097	-0.308
-130.326	-200.000	0.004	0.039
-129.312	36.496	0.177	-0.154
-128.297	-200.000	0.018	-0.289
-127.283	-195.327	-0.258	-0.002
-126.268	-200.000	0.024	0.174
-125.253	800.000	-0.057	-0.203
-124.239	336.591	0.012	-0.023
-123.224	-32.369	-0.064	0.035
-122.210	5.914	0.258	0.188
