DTS Sentinel unit serial number:	SN413079Multiplexer serial number:	ORYXHardware model number:	OX4-SRSoftware version number:	ORYX F/W v4.00 Oryx Data Collector v3.7.2.0data status	okinstallation	princeton_trtdifferential loss correction	single-endedforward channel	channel 3reverse channel	N/Adate	2019/09/19time	09:20:35forward acquisition time	60.00reverse acquisition time	0.00gamma	496.2192k internal	0.2346k external	0.2346temperature offset calibration	0.9969default loss term (dB/km)	0.3790temperature slope calibration	1.0000multiplexer offset coefficient	1.0000multiplexer slope coefficient	1.0000fibre end	0.00T internal ref (°C)	22.39T ext. ref 1 (°C)	0.61T ext. ref 2 (°C)	19.49length (m)	temperature (°C)	Stokes	anti-Stokes-747.200	70.801	0.083	-0.086
-746.185	-60.516	0.393	0.167
-745.171	-86.609	-0.248	-0.076
-744.156	224.969	0.135	0.219
-743.142	647.624	-0.028	-0.071
-742.127	635.668	0.033	0.083
-741.112	423.249	-0.121	-0.259
-740.098	280.018	0.036	-0.065
-739.083	-31.883	0.168	0.094
-738.069	272.701	-0.205	0.361
-737.054	800.000	-0.062	0.202
-736.039	196.658	-0.289	-0.440
-735.025	-112.014	-0.093	0.019
-734.010	346.718	-0.152	-0.299
-732.996	800.000	-0.034	-0.111
-731.981	132.556	-0.047	0.061
-730.966	85.194	0.009	-0.010
-729.952	800.000	-0.082	-0.314
-728.937	-89.620	-0.512	-0.150
-727.923	-200.000	-0.002	-0.033
-726.908	800.000	0.023	0.092
-725.894	-133.872	-0.334	0.041
-724.879	20.969	-0.093	-0.075
-723.864	7.771	-0.373	0.280
-722.850	-200.000	0.006	-0.321
-721.835	800.000	0.095	0.325
-720.821	132.564	0.205	-0.264
-719.806	302.515	-0.088	-0.163
-718.791	141.785	0.156	-0.206
-717.777	90.224	0.033	-0.037
-716.762	-11.370	-0.168	-0.110
-715.748	-85.200	-0.267	0.083
-714.733	-7.881	0.101	0.068
-713.718	-144.929	0.387	-0.035
-712.704	72.634	-0.166	0.173
-711.689	-200.000	-0.045	0.299
-710.675	-29.885	-0.127	-0.072
-709.660	188.357	0.190	-0.284
-708.645	-57.477	0.121	-0.053
-707.631	160.445	0.134	-0.187
-706.616	-82.660	0.164	-0.053
-705.602	-186.490	0.507	0.007
-704.587	-154.718	-0.089	-0.006
-703.572	-140.174	0.314	0.033
-702.558	-119.263	0.179	0.031
-701.543	-133.415	-0.134	-0.017
-700.529	135.232	0.194	0.252
-699.514	-6.273	-0.319	0.218
-698.499	593.825	0.079	0.196
-697.485	-145.814	0.192	-0.017
-696.470	-117.042	-0.182	0.033
-695.456	-72.070	0.137	0.051
-694.441	469.565	-0.041	-0.092
-693.426	-75.487	-0.305	0.108
-692.412	90.511	-0.061	-0.068
-691.397	-91.847	-0.380	-0.108
-690.383	-200.000	-0.013	0.226
-689.368	-129.248	0.071	-0.010
-688.354	-200.000	0.002	-0.199
-687.339	800.000	0.097	-0.286
-686.324	-200.000	-0.025	-0.410
-685.310	37.029	-0.138	0.122
-684.295	643.924	0.179	0.455
-683.281	800.000	-0.112	0.360
-682.266	-44.297	-0.279	-0.140
-681.251	115.045	0.034	-0.042
-680.237	-77.341	0.317	0.110
-679.222	-200.000	-0.008	-0.062
-678.208	-200.000	0.006	-0.289
-677.193	-31.059	0.010	0.006
-676.178	173.120	-0.140	0.202
-675.164	209.638	-0.118	-0.185
-674.149	-56.939	0.369	0.163
-673.135	243.857	-0.178	-0.299
-672.120	55.753	0.165	-0.160
-671.105	-130.032	0.087	0.012
-670.091	-14.350	-0.115	-0.074
-669.076	-47.188	-0.397	-0.193
-668.062	-200.000	0.015	-0.108
-667.047	-114.680	-0.247	-0.047
-666.032	57.843	0.100	0.098
-665.018	141.992	-0.074	-0.098
-664.003	-200.000	0.065	-0.299
-662.989	-48.957	0.075	0.036
-661.974	800.000	-0.147	-0.421
-660.959	-123.293	-0.351	-0.056
-659.945	-200.000	-0.048	-0.318
-658.930	193.551	0.055	0.083
-657.916	-179.164	-0.062	0.001
-656.901	800.000	0.094	-0.391
-655.886	510.268	0.050	0.115
-654.872	-139.949	-0.341	-0.036
-653.857	800.000	0.039	0.120
-652.843	8.749	-0.284	-0.213
-651.828	-132.797	-0.197	-0.025
-650.814	259.136	-0.046	0.080
-649.799	-200.000	0.009	0.048
-648.784	800.000	-0.019	0.066
-647.770	-145.636	-0.215	0.019
-646.755	-55.043	0.202	0.091
-645.741	-46.749	-0.036	-0.017
-644.726	800.000	0.145	-0.417
-643.711	-200.000	-0.034	-0.212
-642.697	76.641	-0.119	-0.126
-641.682	607.915	-0.103	0.256
-640.668	-200.000	0.023	0.213
-639.653	-97.982	-0.170	-0.044
-638.638	-197.311	0.335	-0.002
-637.624	7.557	-0.346	0.258
-636.609	800.000	-0.015	0.053
-635.595	37.640	0.150	-0.132
-634.580	-63.243	-0.204	-0.084
-633.565	90.127	0.140	0.155
-632.551	548.477	-0.059	-0.140
-631.536	16.846	-0.173	-0.137
-630.522	-39.661	-0.257	0.134
-629.507	-2.302	0.330	0.230
-628.492	109.958	-0.083	-0.100
-627.478	221.789	0.171	-0.273
-626.463	18.543	-0.092	0.074
-625.449	120.541	0.051	-0.063
-624.434	211.669	0.240	0.376
-623.419	-48.786	-0.151	0.072
-622.405	-200.000	0.015	-0.079
-621.390	113.889	0.094	0.114
-620.376	-200.000	0.133	0.000
-619.361	-170.355	-0.184	0.006
-618.346	41.852	-0.151	0.136
-617.332	800.000	0.013	-0.053
-616.317	-30.916	-0.220	-0.124
-615.303	772.038	-0.072	-0.194
-614.288	-55.255	0.227	0.101
-613.273	205.460	0.119	-0.184
-612.259	164.601	0.036	-0.051
-611.244	7.248	0.277	-0.206
-610.230	-26.702	-0.195	0.113
-609.215	-50.658	0.161	0.075
-608.201	-200.000	0.010	-0.136
-607.186	170.584	-0.256	0.365
-606.171	-47.212	-0.050	0.024
-605.157	92.602	0.015	0.017
-604.142	800.000	-0.083	-0.319
-603.128	-200.000	-0.026	-0.345
-602.113	31.504	-0.291	0.249
-601.098	-179.017	-0.349	-0.008
-600.084	-45.405	0.030	-0.015
-599.069	-129.949	0.235	-0.032
-598.055	-21.525	-0.159	0.096
-597.040	58.679	0.052	-0.051
-596.025	255.414	-0.153	-0.260
-595.011	800.000	-0.012	-0.038
-593.996	314.235	0.175	0.328
-592.982	139.714	-0.090	0.117
-591.967	114.069	-0.248	0.300
-590.952	-22.066	0.008	-0.005
-589.938	126.387	0.203	-0.255
-588.923	366.661	0.029	-0.059
-587.909	121.443	0.453	-0.561
-586.894	25.478	-0.099	-0.082
-585.879	31.656	-0.129	0.110
-584.865	-159.397	0.142	0.008
-583.850	-200.000	-0.052	0.275
-582.836	10.380	-0.088	0.066
-581.821	-87.822	-0.487	0.146
-580.806	-200.000	0.080	0.464
-579.792	33.040	0.261	0.225
-578.777	-24.744	0.212	0.125
-577.763	-40.354	-0.199	-0.103
-576.748	-37.312	0.233	-0.124
-575.733	-54.677	0.207	0.093
-574.719	-200.000	-0.049	-0.230
-573.704	-34.068	-0.147	-0.080
-572.690	-20.470	-0.036	0.022
-571.675	800.000	-0.101	-0.323
-570.661	27.428	-0.092	0.077
-569.646	89.576	0.353	0.391
-568.631	102.937	0.114	0.133
-567.617	16.240	0.139	0.109
-566.602	11.133	-0.149	-0.113
-565.588	10.536	-0.381	0.289
-564.573	-96.345	-0.044	0.011
-563.558	-88.537	-0.061	-0.018
-562.544	-32.850	-0.115	0.064
-561.529	-128.980	0.157	-0.022
-560.515	800.000	0.068	-0.197
-559.500	549.480	0.082	0.195
-558.485	53.288	-0.045	-0.042
-557.471	-66.740	0.082	-0.032
-556.456	-107.760	-0.053	0.011
-555.442	-48.676	0.182	0.087
-554.427	-200.000	0.012	0.076
-553.412	-200.000	0.022	-0.242
-552.398	160.063	-0.113	0.157
-551.383	-80.421	0.142	0.047
-550.369	-56.518	-0.327	0.144
-549.354	-1.917	-0.381	0.266
-548.339	800.000	0.081	-0.299
-547.325	-54.286	0.128	-0.058
-546.310	-157.565	0.136	0.008
-545.296	377.925	0.086	-0.174
-544.281	113.866	0.203	-0.245
-543.266	800.000	-0.038	0.159
-542.252	88.826	0.248	-0.274
-541.237	-72.292	-0.174	-0.064
-540.223	-55.362	0.348	-0.155
-539.208	-49.820	-0.187	0.088
-538.193	-74.119	-0.306	-0.110
-537.179	105.761	-0.304	0.356
-536.164	-102.866	0.030	0.007
-535.150	14.957	-0.065	0.051
-534.135	-122.164	-0.475	-0.077
-533.121	-78.210	-0.134	0.046
-532.106	-30.072	0.331	0.187
-531.091	-128.562	0.139	0.020
-530.077	-200.000	-0.029	-0.146
-529.062	114.119	0.184	-0.222
-528.048	59.555	-0.098	-0.096
-527.033	312.463	0.062	0.115
-526.018	-36.231	-0.231	-0.123
-525.004	95.255	0.139	-0.158
-523.989	-200.000	-0.029	-0.372
-522.975	318.272	0.093	0.174
-521.960	165.945	-0.092	0.129
-520.945	-200.000	0.066	0.374
-519.931	276.501	-0.200	0.352
-518.916	36.058	-0.338	0.295
-517.902	426.477	-0.067	0.143
-516.887	-75.278	0.050	-0.018
-515.872	-100.473	0.155	0.038
-514.858	-15.901	-0.303	-0.191
-513.843	-133.407	-0.276	0.034
-512.829	-61.572	0.255	0.106
-511.814	171.590	-0.079	0.112
-510.799	-178.625	-0.285	0.006
-509.785	-200.000	-0.035	-0.204
-508.770	800.000	0.039	0.123
-507.756	-76.465	0.172	-0.060
-506.741	-148.171	-0.411	-0.034
-505.726	-0.172	-0.239	-0.169
-504.712	519.845	0.054	-0.126
-503.697	35.327	0.218	0.189
-502.683	-126.360	-0.237	-0.035
-501.668	-69.875	0.091	0.034
-500.653	510.543	0.025	0.058
-499.639	3.011	0.227	-0.163
-498.624	-81.111	-0.157	-0.051
-497.610	-200.000	0.027	0.318
-496.595	-143.096	-0.192	0.018
-495.581	6.202	-0.390	-0.286
-494.566	-200.000	0.005	-0.116
-493.551	336.452	-0.094	-0.180
-492.537	253.955	-0.181	-0.306
-491.522	-164.840	-0.215	0.010
-490.508	-57.425	0.323	-0.141
-489.493	-122.837	0.122	0.019
-488.478	-200.000	-0.019	-0.230
-487.464	457.685	-0.085	-0.186
-486.449	11.061	0.084	0.063
-485.435	800.000	-0.088	0.340
-484.420	232.521	0.139	0.226
-483.405	213.758	0.120	-0.188
-482.391	-28.767	0.063	0.036
-481.376	-120.039	0.108	0.018
-480.362	-110.910	-0.268	0.055
-479.347	-116.206	-0.284	0.052
-478.332	174.464	-0.091	-0.130
-477.318	-85.139	-0.088	-0.027
-476.303	-107.015	0.164	-0.036
-475.289	-120.596	-0.191	0.032
-474.274	800.000	0.074	0.237
-473.259	-200.000	-0.036	-0.271
-472.245	119.613	0.222	0.273
-471.230	653.143	-0.169	0.428
-470.216	90.480	0.232	-0.256
-469.201	2.604	-0.166	-0.119
-468.186	-101.945	0.286	-0.068
-467.172	75.929	0.258	0.270
-466.157	-138.626	-0.327	-0.035
-465.143	-102.237	0.154	-0.037
-464.128	-100.922	-0.096	-0.023
-463.113	-132.997	-0.188	-0.024
-462.099	141.847	-0.184	0.242
-461.084	223.178	0.156	0.249
-460.070	241.926	0.116	-0.191
-459.055	81.522	0.123	-0.132
-458.040	114.452	0.162	-0.195
-457.026	-200.000	0.005	-0.238
-456.011	-200.000	0.001	-0.043
-454.997	800.000	0.032	0.102
-453.982	-123.874	0.117	0.018
-452.968	142.553	-0.190	-0.249
-451.953	440.432	0.109	0.235
-450.938	37.005	0.051	0.045
-449.924	-34.890	0.098	0.053
-448.909	446.570	0.024	0.052
-447.895	-7.942	-0.165	-0.110
-446.880	-83.736	-0.155	-0.049
-445.865	-108.089	0.346	0.074
-444.851	-95.825	0.079	0.021
-443.836	-118.536	0.054	-0.010
-442.822	337.296	-0.043	-0.082
-441.807	274.986	0.022	-0.038
-440.792	787.922	-0.148	-0.402
-439.778	-73.958	0.296	0.106
-438.763	-200.000	-0.033	-0.450
-437.749	-67.422	0.198	-0.077
-436.734	51.489	-0.170	0.159
-435.719	396.251	-0.017	0.034
-434.705	800.000	0.107	0.299
-433.690	-9.516	-0.167	0.110
-432.676	659.783	-0.044	0.111
-431.661	59.320	0.174	0.169
-430.646	23.713	0.059	-0.048
-429.632	-57.692	0.151	-0.065
-428.617	358.291	0.103	-0.202
-427.603	-68.979	-0.069	-0.026
-426.588	-174.750	-0.060	0.002
-425.573	19.897	0.204	0.162
-424.559	-44.539	0.327	0.162
-423.544	132.990	-0.239	-0.304
-422.530	-200.000	0.002	-0.225
-421.515	-155.989	0.287	-0.018
-420.500	-37.851	-0.288	-0.152
-419.486	382.629	-0.027	-0.054
-418.471	-95.476	0.311	-0.082
-417.457	75.582	-0.247	-0.258
-416.442	-35.842	0.300	0.160
-415.428	794.176	-0.080	0.217
-414.413	800.000	-0.038	0.118
-413.398	800.000	0.071	-0.219
-412.384	309.783	-0.094	-0.173
-411.369	-92.241	-0.098	-0.027
-410.355	108.371	0.159	-0.187
-409.340	-200.000	-0.055	-0.263
-408.325	38.928	-0.169	-0.149
-407.311	121.371	-0.343	-0.422
-406.296	-11.946	-0.165	0.107
-405.282	-34.549	-0.096	-0.052
-404.267	-56.850	0.228	0.099
-403.252	217.911	0.038	0.060
-402.238	-77.400	-0.613	0.210
-401.223	45.082	-0.137	-0.124
-400.209	-153.234	-0.139	-0.010
-399.194	22.358	-0.053	-0.043
-398.179	-72.479	-0.206	0.075
-397.165	177.270	0.167	-0.241
-396.150	800.000	-0.057	-0.196
-395.136	20.185	0.119	0.095
-394.121	42.458	0.046	-0.042
-393.106	271.379	0.251	-0.436
-392.092	20.094	-0.290	-0.231
-391.077	457.975	-0.118	0.258
-390.063	137.501	0.148	0.191
-389.048	415.687	0.015	0.032
-388.033	-106.698	-0.120	-0.026
-387.019	-30.514	-0.144	-0.080
-386.004	39.974	-0.132	-0.117
-384.990	-19.179	0.156	-0.096
-383.975	-106.873	-0.106	-0.023
-382.960	-200.000	0.084	0.525
-381.946	-181.063	0.356	0.007
-380.931	-67.119	-0.211	-0.082
-379.917	86.676	-0.244	-0.265
-378.902	-32.362	-0.301	0.166
-377.888	-88.693	0.085	0.025
-376.873	205.396	-0.138	-0.212
-375.858	-200.000	-0.007	-0.098
-374.844	260.497	-0.099	0.169
-373.829	712.257	-0.105	-0.275
-372.815	89.973	0.040	-0.044
-371.800	-154.226	0.200	-0.013
-370.785	216.396	0.093	-0.145
-369.771	-13.400	-0.122	0.078
-368.756	-200.000	-0.004	0.326
-367.742	-30.257	-0.250	0.140
-366.727	334.880	0.061	0.117
-365.712	-83.306	0.281	-0.089
-364.698	41.700	-0.318	-0.284
-363.683	23.609	0.164	-0.133
-362.669	-171.780	-0.251	0.008
-361.654	-150.255	0.106	0.008
-360.639	681.917	-0.121	-0.310
-359.625	159.171	0.097	0.133
-358.610	131.642	-0.255	0.323
-357.596	-59.262	0.184	0.078
-356.581	-124.789	-0.164	-0.025
-355.566	15.013	-0.196	0.151
-354.552	-200.000	0.014	-0.076
-353.537	782.861	0.087	-0.235
-352.523	45.529	0.221	-0.201
-351.508	-200.000	0.019	-0.100
-350.493	-120.175	-0.202	0.034
-349.479	115.935	0.191	-0.230
-348.464	-100.918	-0.220	0.053
-347.450	185.836	0.069	0.100
-346.435	504.527	-0.028	0.064
-345.420	-153.881	-0.278	0.019
-344.406	3.126	-0.232	-0.166
-343.391	77.440	-0.218	0.229
-342.377	417.693	0.077	0.161
-341.362	800.000	-0.122	0.342
-340.348	-55.333	0.195	0.086
-339.333	-58.677	0.202	-0.086
-338.318	-90.986	0.037	0.010
-337.304	569.984	0.053	-0.127
-336.289	-56.053	0.635	-0.279
-335.275	800.000	-0.038	-0.114
-334.260	291.628	0.086	0.155
-333.245	800.000	-0.041	0.161
-332.231	-102.948	0.242	0.057
-331.216	800.000	-0.020	0.062
-330.202	138.578	0.031	0.040
-329.187	-200.000	-0.054	-0.514
-328.172	343.684	-0.202	0.389
-327.158	-200.000	0.022	0.165
-326.143	-200.000	-0.007	-0.257
-325.129	48.992	0.289	-0.267
-324.114	-28.208	0.380	-0.216
-323.099	-148.102	-0.088	0.007
-322.085	-200.000	-0.007	-0.316
-321.070	800.000	-0.081	-0.301
-320.056	112.392	0.168	-0.200
-319.041	-5.571	0.126	-0.085
-318.026	50.868	0.074	-0.069
-317.012	-90.867	-0.147	0.042
-315.997	211.626	-0.159	0.247
-314.983	124.889	-0.115	0.142
-313.968	-34.963	0.086	-0.046
-312.953	-200.000	-0.010	-0.061
-311.939	-131.315	-0.328	-0.043
-310.924	-9.703	0.191	0.125
-309.910	-200.000	-0.077	-0.348
-308.895	800.000	0.088	0.255
-307.880	-142.747	-0.154	0.015
-306.866	-200.000	0.049	0.437
-305.851	-53.893	0.287	0.128
-304.837	-129.452	-0.051	-0.007
-303.822	54.452	0.197	0.187
-302.807	800.000	0.018	0.072
-301.793	-41.697	0.178	0.090
-300.778	-67.902	-0.057	-0.022
-299.764	800.000	-0.052	-0.212
-298.749	-121.166	0.272	0.045
-297.735	35.558	-0.112	-0.097
-296.720	-200.000	-0.153	-0.001
-295.705	245.506	-0.126	0.209
-294.691	33.307	0.373	-0.318
-293.676	-174.573	0.297	-0.008
-292.662	-79.727	-0.197	0.065
-291.647	-200.000	-0.023	0.269
-290.632	-98.055	0.168	-0.043
-289.618	800.000	0.036	-0.118
-288.603	-64.933	0.181	-0.072
-287.589	-99.995	0.152	0.037
-286.574	-200.000	-0.080	0.489
-285.559	800.000	-0.052	0.153
-284.545	800.000	-0.081	0.237
-283.530	-200.000	0.030	0.374
-282.516	-200.000	0.079	0.443
-281.501	166.462	-0.063	0.088
-280.486	-122.625	0.284	-0.045
-279.472	-88.394	0.173	0.051
-278.457	461.025	-0.097	0.213
-277.443	800.000	-0.034	0.131
-276.428	771.651	0.057	-0.152
-275.413	-156.060	-0.372	0.023
-274.399	-112.025	-0.195	0.039
-273.384	-200.000	-0.015	0.117
-272.370	279.961	0.118	-0.206
-271.355	22.609	-0.071	-0.057
-270.340	-200.000	-0.005	0.064
-269.326	134.375	-0.064	-0.081
-268.311	75.018	0.193	0.199
-267.297	6.876	0.113	0.082
-266.282	-200.000	-0.012	0.093
-265.267	280.785	0.161	0.283
-264.253	-1.698	0.194	0.134
-263.238	80.854	-0.206	-0.218
-262.224	-26.844	-0.385	0.221
-261.209	-128.918	-0.082	0.011
-260.195	-142.843	0.030	0.003
-259.180	80.651	0.146	0.154
-258.165	-56.970	-0.370	-0.160
-257.151	724.512	-0.052	0.136
-256.136	800.000	-0.077	0.292
-255.122	-105.275	0.165	0.037
-254.107	721.816	0.108	0.283
-253.092	548.619	-0.098	-0.230
-252.078	-111.748	0.179	0.036
-251.063	-73.966	-0.181	-0.064
-250.049	-16.693	0.413	0.256
-249.034	800.000	0.033	-0.134
-248.019	-200.000	-0.053	-0.408
-247.005	-124.517	0.117	-0.018
-245.990	-76.425	-0.178	0.061
-244.976	800.000	-0.068	-0.202
-243.961	1.132	0.176	-0.124
-242.946	-130.067	-0.099	-0.013
-241.932	-46.338	0.004	0.002
-240.917	-10.744	0.328	-0.213
-239.903	-200.000	-0.065	-0.347
-238.888	-180.883	0.230	0.005
-237.873	800.000	0.066	-0.224
-236.859	147.320	0.189	0.249
-235.844	-60.686	0.333	0.139
-234.830	-7.432	-0.212	0.141
-233.815	-200.000	0.020	-0.124
-232.800	-41.236	-0.114	-0.058
-231.786	149.619	0.115	0.153
-230.771	-10.103	-0.347	0.226
-229.757	800.000	0.072	0.268
-228.742	-200.000	0.018	0.125
-227.727	800.000	-0.018	-0.059
-226.713	-200.000	-0.037	-0.317
-225.698	-150.019	-0.380	-0.029
-224.684	62.419	0.146	-0.143
-223.669	-200.000	-0.003	0.230
-222.655	1.054	-0.394	-0.277
-221.640	29.703	0.091	-0.076
-220.625	800.000	0.087	-0.332
-219.611	-35.540	0.264	-0.140
-218.596	800.000	0.071	0.212
-217.582	-115.448	-0.193	-0.036
-216.567	34.574	-0.131	0.112
-215.552	-164.715	-0.506	-0.022
-214.538	337.261	0.277	0.528
-213.523	6.999	0.266	0.194
-212.509	-142.976	-0.179	0.017
-211.494	176.435	0.209	0.297
-210.479	800.000	0.022	0.067
-209.465	20.483	-0.183	-0.145
-208.450	175.258	-0.368	-0.523
-207.436	85.273	0.234	-0.251
-206.421	-129.835	0.188	-0.025
-205.406	-200.000	-0.009	0.187
-204.392	-200.000	-0.004	0.158
-203.377	-55.399	-0.054	0.024
-202.363	-59.953	0.346	0.145
-201.348	41.672	-0.090	-0.080
-200.333	280.773	0.119	-0.208
-199.319	-108.476	0.190	0.040
-198.304	166.002	0.098	-0.136
-197.290	-123.866	-0.371	0.057
-196.275	-200.000	0.031	0.178
-195.260	220.144	0.113	0.177
-194.246	-200.000	-0.003	-0.044
-193.231	-118.255	0.313	0.054
-192.217	-200.000	0.082	-0.506
-191.202	-121.168	-0.072	-0.012
-190.187	-140.186	0.083	-0.008
-189.173	3.762	0.125	0.090
-188.158	-11.993	0.111	0.071
-187.144	800.000	0.041	-0.157
-186.129	-49.308	0.379	-0.177
-185.114	87.044	-0.126	0.136
-184.100	194.759	-0.179	-0.266
-183.085	-87.286	0.160	-0.048
-182.071	5.625	0.239	0.173
-181.056	282.079	-0.084	0.147
-180.042	24.235	-0.123	0.099
-179.027	60.561	0.091	-0.089
-178.012	-20.044	0.245	0.148
-176.998	-71.677	0.318	0.116
-175.983	148.561	-0.115	-0.152
-174.969	-52.232	-0.186	-0.084
-173.954	-89.264	0.017	0.005
-172.939	-72.877	0.216	-0.078
-171.925	101.332	0.254	0.289
-170.910	800.000	-0.015	0.061
-169.896	-64.295	-0.360	0.143
-168.881	14.803	-0.270	0.207
-167.866	471.429	-0.149	-0.328
-166.852	265.537	-0.053	-0.091
-165.837	219.997	0.129	0.202
-164.823	-200.000	-0.042	0.284
-163.808	37.994	0.069	0.060
-162.793	-40.082	0.209	0.107
-161.779	-141.271	-0.498	-0.050
-160.764	33.681	0.176	0.150
-159.750	95.055	0.171	-0.190
-158.735	355.394	-0.086	-0.166
-157.720	-159.458	0.283	0.015
-156.706	-36.292	-0.075	0.040
-155.691	92.743	-0.257	-0.284
-154.677	-97.501	0.342	0.087
-153.662	-47.772	0.266	0.126
-152.647	178.903	0.173	-0.247
-151.633	-80.633	0.097	0.031
-150.618	-200.000	0.026	-0.182
-149.604	294.671	0.005	-0.009
-148.589	-1.647	-0.113	-0.078
-147.574	-115.803	-0.388	0.071
-146.560	-103.333	-0.136	-0.031
-145.545	-67.361	-0.138	-0.053
-144.531	302.868	-0.110	0.199
-143.516	396.541	-0.250	0.510
-142.502	165.860	0.256	-0.354
-141.487	-151.014	0.338	0.025
-140.472	331.178	-0.077	0.146
-139.458	-7.280	0.527	-0.349
-138.443	503.326	-0.095	-0.215
-137.429	198.469	0.026	-0.039
-136.414	800.000	0.092	0.306
-135.399	-200.000	-0.023	0.160
-134.385	800.000	0.064	-0.195
-133.370	79.955	-0.157	-0.164
-132.356	81.257	0.126	-0.133
-131.341	-99.379	-0.131	0.032
-130.326	-13.488	0.480	-0.304
-129.312	-200.000	-0.184	-0.000
-128.297	-83.254	-0.264	0.083
-127.283	800.000	0.084	-0.231
-126.268	-84.285	-0.052	-0.016
-125.253	291.045	-0.122	-0.217
-124.239	-89.089	0.073	-0.021
-123.224	758.075	0.066	0.173
-122.210	439.949	0.023	0.050
-121.195	-123.191	-0.028	-0.004
