DTS Sentinel unit serial number:	SN413079Multiplexer serial number:	ORYXHardware model number:	OX4-SRSoftware version number:	ORYX F/W v4.00 Oryx Data Collector v3.7.2.0data status	okinstallation	princeton_trtdifferential loss correction	single-endedforward channel	channel 3reverse channel	N/Adate	2019/09/12time	18:21:04forward acquisition time	15.00reverse acquisition time	0.00gamma	496.2192k internal	0.2316k external	0.2316temperature offset calibration	1.0111default loss term (dB/km)	0.3790temperature slope calibration	1.0000multiplexer offset coefficient	1.0000multiplexer slope coefficient	1.0000fibre end	0.00T internal ref (°C)	33.37T ext. ref 1 (°C)	3.05T ext. ref 2 (°C)	28.11length (m)	temperature (°C)	Stokes	anti-Stokes-747.200	29.442	-0.305	-0.263
-746.185	-200.000	-0.046	0.237
-745.171	159.917	-0.145	-0.204
-744.156	-171.255	0.614	-0.021
-743.142	258.862	0.172	0.300
-742.127	800.000	-0.102	0.321
-741.112	-110.922	-0.404	0.084
-740.098	-15.711	-0.805	-0.520
-739.083	-71.116	0.032	0.012
-738.069	-139.104	0.120	0.013
-737.054	-26.374	-0.298	0.177
-736.039	390.847	0.165	0.346
-735.025	401.788	0.176	0.375
-734.010	13.805	-0.631	0.497
-732.996	-200.000	-0.023	-0.399
-731.981	151.936	-0.204	0.281
-730.966	-200.000	0.016	0.464
-729.952	29.213	0.397	0.341
-728.937	-200.000	0.300	0.000
-727.923	800.000	-0.243	-0.887
-726.908	800.000	-0.347	-1.002
-725.894	-5.107	0.569	0.396
-724.879	-58.522	0.507	-0.223
-723.864	-124.366	-0.290	-0.046
-722.850	-36.386	0.074	0.040
-721.835	-58.166	0.455	-0.201
-720.821	-61.799	0.257	0.109
-719.806	203.931	0.215	-0.336
-718.791	253.156	0.077	-0.134
-717.777	-30.895	-0.483	0.276
-716.762	-162.737	-0.882	-0.044
-715.748	1.502	0.319	0.232
-714.733	10.412	-0.826	-0.636
-713.718	-33.650	-0.175	-0.098
-712.704	-111.298	-1.127	0.233
-711.689	-97.018	0.714	0.189
-710.675	-136.294	-0.340	-0.040
-709.660	269.310	0.519	0.922
-708.645	-200.000	-0.004	0.314
-707.631	784.758	-0.230	0.637
-706.616	800.000	-0.058	0.218
-705.602	42.311	0.415	-0.381
-704.587	-84.301	0.475	0.152
-703.572	512.680	-0.389	-0.915
-702.558	-84.145	-0.330	-0.106
-701.543	800.000	0.092	-0.373
-700.529	-42.501	0.171	-0.088
-699.514	-74.291	0.106	0.039
-698.499	259.392	-0.327	-0.571
-697.485	134.704	-0.485	-0.636
-696.470	-57.270	-0.187	-0.083
-695.456	163.432	0.127	0.180
-694.441	-200.000	-0.054	-0.561
-693.426	-200.000	-0.005	-0.397
-692.412	32.760	-0.208	-0.182
-691.397	-36.273	0.239	0.131
-690.383	-74.323	0.720	-0.263
-689.368	-83.340	-0.199	0.065
-688.354	-43.620	-0.331	-0.169
-687.339	-140.369	-0.744	-0.078
-686.324	-17.275	-0.545	-0.347
-685.310	21.273	-0.117	0.096
-684.295	800.000	0.040	0.161
-683.281	-178.969	0.561	0.013
-682.266	-80.202	1.340	0.453
-681.251	-200.000	0.046	-0.397
-680.237	-47.328	0.146	-0.072
-679.222	114.439	-0.202	0.249
-678.208	-200.000	-0.103	-0.683
-677.193	-45.111	0.316	-0.159
-676.178	234.449	0.361	-0.601
-675.164	-31.391	1.098	-0.624
-674.149	86.185	0.499	0.556
-673.135	-200.000	0.058	0.300
-672.120	617.222	-0.231	0.586
-671.105	-78.067	-1.030	0.358
-670.091	0.678	-0.572	0.414
-669.076	51.955	0.771	0.741
-668.062	-200.000	0.010	0.692
-667.047	157.814	-0.534	-0.747
-666.032	58.392	-0.576	-0.571
-665.018	346.649	-0.410	-0.814
-664.003	140.094	0.460	-0.613
-662.989	-36.740	-0.644	-0.349
-661.974	-155.119	0.743	-0.049
-660.959	-89.119	-0.519	-0.155
-659.945	95.720	-0.169	-0.195
-658.930	26.920	0.262	-0.222
-657.916	-73.964	1.121	-0.410
-656.901	-40.251	-0.088	-0.046
-655.886	-99.501	-0.468	-0.119
-654.872	408.902	0.245	-0.524
-653.857	59.242	0.597	0.593
-652.843	-49.201	0.255	0.123
-651.828	-29.684	0.745	0.429
-650.814	378.621	0.153	-0.316
-649.799	307.313	0.142	0.267
-648.784	-102.715	-0.430	0.103
-647.770	282.565	0.187	0.339
-646.755	-127.423	0.477	-0.070
-645.741	14.796	0.197	0.155
-644.726	-135.793	-0.475	-0.057
-643.711	-172.620	-0.701	-0.022
-642.697	-69.385	0.565	-0.219
-641.682	800.000	-0.249	0.879
-640.668	422.085	-0.110	0.237
-639.653	153.926	0.426	-0.589
-638.638	92.855	0.617	-0.703
-637.624	-34.589	-0.997	-0.550
-636.609	-53.005	0.553	-0.257
-635.595	-200.000	0.149	0.822
-634.580	-90.984	0.337	0.098
-633.565	-66.800	-0.458	-0.183
-632.551	-93.352	-0.162	0.045
-631.536	-56.196	-0.562	0.252
-630.522	776.090	0.152	0.419
-629.507	-87.114	0.283	-0.087
-628.492	242.477	0.274	0.462
-627.478	-183.567	-0.703	0.012
-626.463	-5.124	-0.627	0.435
-625.449	800.000	-0.218	0.803
-624.434	245.343	-0.547	-0.928
-623.419	800.000	0.173	0.524
-622.405	-80.222	0.180	-0.061
-621.390	396.343	-0.663	1.395
-620.376	13.109	-0.551	0.430
-619.361	188.745	0.325	-0.490
-618.346	-54.565	0.654	-0.298
-617.332	-54.725	-0.621	-0.283
-616.317	800.000	-0.191	0.561
-615.303	147.707	-0.256	0.348
-614.288	-19.140	-1.213	0.759
-613.273	800.000	-0.083	-0.256
-612.259	-200.000	-0.008	-0.590
-611.244	-200.000	0.011	-0.813
-610.230	-89.570	-0.824	0.244
-609.215	-152.406	0.819	0.059
-608.201	-191.963	0.423	0.004
-607.186	161.821	-0.330	-0.466
-606.171	-90.059	-0.808	-0.237
-605.157	33.215	-0.487	0.425
-604.142	56.392	0.516	-0.506
-603.128	29.604	0.277	-0.237
-602.113	-200.000	-0.145	0.648
-601.098	-11.097	0.339	0.225
-600.084	-177.098	-0.406	-0.010
-599.069	-118.520	-0.388	-0.069
-598.055	-200.000	0.040	0.381
-597.040	75.128	0.486	0.516
-596.025	-200.000	-0.005	0.608
-595.011	-57.054	0.505	0.224
-593.996	-88.058	-0.812	-0.245
-592.982	316.131	-0.152	-0.288
-591.967	115.474	-0.348	-0.428
-590.952	-200.000	0.002	0.165
-589.938	-47.327	0.535	-0.262
-588.923	-200.000	-0.104	-0.470
-587.909	-108.110	-0.249	-0.054
-586.894	313.538	-0.266	0.504
-585.879	-174.918	-0.549	-0.016
-584.865	218.645	0.198	-0.318
-583.850	7.849	-0.171	-0.129
-582.836	-105.774	-0.569	0.129
-581.821	178.906	0.272	-0.400
-580.806	-200.000	0.028	-0.448
-579.792	-73.463	-0.385	0.141
-578.777	-96.350	-0.453	0.121
-577.763	-75.228	0.219	0.079
-576.748	-92.048	0.311	-0.088
-575.733	369.822	-0.275	-0.561
-574.719	800.000	-0.135	-0.556
-573.704	-85.887	0.844	-0.263
-572.690	-200.000	0.037	-0.365
-571.675	36.299	-0.781	-0.693
-570.661	-200.000	-0.110	-0.593
-569.646	-142.698	0.668	0.066
-568.631	-1.798	0.889	-0.630
-567.617	468.082	0.091	0.206
-566.602	622.811	-0.168	0.425
-565.588	637.767	0.207	-0.529
-564.573	31.098	0.444	0.383
-563.558	-200.000	-0.033	-0.220
-562.544	21.666	0.451	-0.369
-561.529	-200.000	0.010	-0.793
-560.515	-200.000	-0.034	-0.313
-559.500	800.000	0.138	0.425
-558.485	-29.222	0.384	0.221
-557.471	800.000	0.292	-0.943
-556.456	-15.621	0.839	0.538
-555.442	-28.889	0.378	-0.218
-554.427	157.076	0.426	-0.593
-553.412	-50.496	0.438	-0.208
-552.398	-89.874	-1.026	0.302
-551.383	164.860	-0.314	-0.446
-550.369	-200.000	0.019	0.459
-549.354	-200.000	0.056	0.499
-548.339	-57.518	0.721	0.318
-547.325	253.005	0.464	-0.795
-546.310	-200.000	0.038	-0.508
-545.296	58.683	-0.511	-0.504
-544.281	-134.185	0.660	0.082
-543.266	-2.163	0.303	0.214
-542.252	188.092	-0.682	-1.025
-541.237	314.477	-0.523	0.990
-540.223	76.050	-0.064	-0.068
-539.208	-131.168	0.850	-0.114
-538.193	-200.000	-0.005	0.074
-537.179	-17.098	0.475	-0.301
-536.164	417.017	-0.199	0.426
-535.150	-37.981	-0.322	0.172
-534.135	35.934	0.560	-0.495
-533.121	-126.133	0.788	-0.119
-532.106	5.447	-0.747	-0.553
-531.091	43.755	-0.747	0.687
-530.077	93.734	-0.431	0.490
-529.062	-192.973	-0.636	-0.006
-528.048	278.561	0.187	-0.335
-527.033	145.639	-0.175	-0.235
-526.018	-200.000	-0.002	-1.057
-525.004	-123.375	0.269	-0.043
-523.989	-113.341	-0.164	0.032
-522.975	-53.505	-0.848	0.390
-521.960	-86.531	-0.155	-0.048
-520.945	-8.933	0.704	-0.473
-519.931	-141.755	-0.680	-0.069
-518.916	-20.996	0.161	-0.099
-517.902	164.737	-0.289	-0.409
-516.887	-89.365	0.547	0.162
-515.872	151.898	0.235	-0.322
-514.858	800.000	-0.157	-0.541
-513.843	-64.870	-0.267	-0.108
-512.829	-30.534	-0.305	-0.174
-511.814	260.044	-0.181	0.314
-510.799	-110.613	-0.259	0.054
-509.785	67.040	-0.388	-0.396
-508.770	800.000	0.139	0.567
-507.756	-200.000	0.032	0.191
-506.741	107.832	0.470	-0.562
-505.726	-200.000	-0.021	-0.342
-504.712	45.330	0.278	0.258
-503.697	150.393	-0.059	0.080
-502.683	-200.000	0.036	-0.490
-501.668	-4.390	-0.282	0.195
-500.653	87.754	-0.251	0.279
-499.639	303.261	0.191	-0.356
-498.624	-113.194	-0.463	-0.091
-497.610	-200.000	-0.172	1.111
-496.595	-57.570	0.270	-0.119
-495.581	-108.394	0.631	0.136
-494.566	-0.871	0.281	0.200
-493.551	231.936	0.378	0.622
-492.537	25.549	-0.820	-0.684
-491.522	-123.234	0.571	-0.092
-490.508	800.000	-0.162	-0.506
-489.493	-43.992	0.249	0.126
-488.478	140.574	0.257	0.340
-487.464	-146.655	1.118	0.097
-486.449	800.000	-0.270	0.930
-485.435	-200.000	0.447	0.000
-484.420	239.809	0.183	0.306
-483.405	342.471	0.592	1.162
-482.391	196.554	0.323	-0.493
-481.376	-84.998	-0.571	-0.179
-480.362	-200.000	-0.127	-0.633
-479.347	-152.720	0.106	-0.008
-478.332	62.916	0.627	-0.629
-477.318	800.000	-0.199	-0.713
-476.303	-200.000	0.154	-0.899
-475.289	-96.710	0.294	-0.078
-474.274	-159.727	0.439	-0.024
-473.259	447.219	-0.080	-0.177
-472.245	-17.713	0.623	-0.392
-471.230	-28.891	0.292	0.168
-470.216	21.053	-0.477	-0.388
-469.201	-98.813	0.821	-0.209
-468.186	228.498	-0.207	0.337
-467.172	649.627	-0.112	0.286
-466.157	-187.385	0.507	0.007
-465.143	-17.791	-0.148	-0.093
-464.128	-200.000	-0.020	0.232
-463.113	-134.869	0.492	-0.060
-462.099	-200.000	0.076	0.721
-461.084	-200.000	-0.035	-0.360
-460.070	221.856	0.144	0.232
-459.055	169.635	0.341	-0.488
-458.040	-200.000	0.038	-0.678
-457.026	42.194	-0.661	-0.602
-456.011	117.047	0.248	-0.305
-454.997	-200.000	-0.008	-0.630
-453.982	-155.864	-0.236	-0.015
-452.968	800.000	-0.169	-0.568
-451.953	-96.760	-0.554	-0.146
-450.938	800.000	-0.218	-0.775
-449.924	-16.249	-0.243	0.154
-448.909	-148.916	-0.323	0.026
-447.895	-141.272	-0.149	-0.015
-446.880	302.369	0.492	0.911
-445.865	59.247	0.593	0.585
-444.851	187.574	-0.335	-0.500
-443.836	252.144	-0.073	0.124
-442.822	-200.000	-0.088	0.443
-441.807	-55.057	0.686	0.309
-440.792	-200.000	-0.094	-0.461
-439.778	-107.031	0.198	-0.044
-438.763	241.949	-0.457	-0.765
-437.749	214.418	0.043	0.067
-436.734	-200.000	-0.085	-0.522
-435.719	800.000	-0.158	0.517
-434.705	-200.000	0.055	0.254
-433.690	-200.000	0.479	-0.001
-432.676	-200.000	0.013	0.386
-431.661	-200.000	0.055	0.415
-430.646	-113.641	0.198	0.039
-429.632	-147.006	-0.127	0.011
-428.617	-138.757	-0.298	0.033
-427.603	-15.543	0.418	-0.267
-426.588	800.000	-0.125	-0.359
-425.573	-146.488	-0.115	-0.010
-424.559	72.046	-0.240	0.250
-423.544	-45.177	0.047	0.023
-422.530	-44.449	-0.480	0.240
-421.515	-65.422	-0.493	0.198
-420.500	-200.000	0.085	0.513
-419.486	593.051	0.305	0.754
-418.471	-200.000	0.007	0.129
-417.457	25.089	0.260	0.216
-416.442	800.000	-0.133	0.486
-415.428	-69.951	-0.309	0.118
-414.413	96.144	0.095	-0.108
-413.398	-169.115	0.253	0.009
-412.384	-169.511	0.419	-0.015
-411.369	72.376	0.343	-0.358
-410.355	-139.332	-1.178	-0.127
-409.340	-129.150	-0.371	0.052
-408.325	264.037	-0.116	0.201
-407.311	73.927	-0.751	0.787
-406.296	694.835	-0.122	-0.321
-405.282	-124.939	0.495	-0.076
-404.267	366.769	0.230	0.465
-403.252	241.243	-0.103	-0.172
-402.238	-160.386	1.562	0.084
-401.223	160.271	-0.055	0.077
-400.209	-136.934	0.916	-0.105
-399.194	224.938	-0.405	0.654
-398.179	-199.733	-0.005	0.000
-397.165	-50.518	-0.513	-0.242
-396.150	60.743	0.235	0.233
-395.136	-200.000	-0.065	0.610
-394.121	554.779	0.401	0.965
-393.106	-38.238	-0.646	0.342
-392.092	-133.666	-0.609	0.076
-391.077	-200.000	0.079	-0.706
-390.063	158.584	0.243	-0.337
-389.048	312.017	-0.421	0.789
-388.033	76.279	-0.525	-0.555
-387.019	-80.093	-0.614	-0.206
-386.004	800.000	0.158	-0.611
-384.990	-200.000	0.020	0.755
-383.975	34.246	-0.426	0.371
-382.960	-11.663	-0.658	-0.432
-381.946	40.407	-0.360	0.324
-380.931	-28.538	-0.764	-0.440
-379.917	-81.373	-0.296	0.097
-378.902	-200.000	0.041	0.279
-377.888	-200.000	0.021	0.389
-376.873	-200.000	0.033	-0.427
-375.858	42.907	-0.373	-0.340
-374.844	-54.007	-0.672	-0.306
-373.829	-142.223	-0.257	-0.025
-372.815	-200.000	-0.144	-0.984
-371.800	37.960	-0.374	0.331
-370.785	175.689	-0.645	-0.933
-369.771	-59.723	-0.205	-0.087
-368.756	-200.000	0.013	0.524
-367.742	-164.701	-0.279	0.013
-366.727	800.000	0.302	0.870
-365.712	-200.000	-0.046	-0.368
-364.698	-93.608	0.832	-0.229
-363.683	68.328	-0.070	-0.072
-362.669	-75.570	0.172	-0.061
-361.654	-80.407	1.467	-0.489
-360.639	800.000	0.085	-0.357
-359.625	675.715	-0.208	-0.539
-358.610	-174.257	0.672	-0.019
-357.596	-79.451	-0.193	-0.065
-356.581	-94.893	0.186	-0.050
-355.566	110.121	0.014	-0.017
-354.552	-136.322	0.540	0.063
-353.537	-200.000	0.008	0.178
-352.523	-200.000	-0.218	1.289
-351.508	111.175	-0.509	0.611
-350.493	92.478	0.340	-0.382
-349.479	212.557	0.462	-0.727
-348.464	-70.856	-0.763	0.287
-347.450	-64.178	0.203	-0.082
-346.435	89.422	-0.331	0.368
-345.420	-200.000	-0.079	0.441
-344.406	362.911	-0.019	-0.039
-343.391	79.571	-0.650	-0.695
-342.377	800.000	0.149	0.625
-341.362	-140.656	-1.127	0.116
-340.348	63.872	0.263	0.264
-339.333	76.286	0.559	0.591
-338.318	-200.000	0.054	0.546
-337.304	-83.695	-0.574	-0.183
-336.289	-112.928	0.555	0.110
-335.275	67.193	-0.702	-0.714
-334.260	-128.824	0.643	-0.090
-333.245	-200.000	-0.010	-0.344
-332.231	-116.509	0.644	0.118
-331.216	136.846	0.454	-0.592
-330.202	-151.077	0.438	-0.033
-329.187	-200.000	0.007	0.037
-328.172	-156.624	-0.845	0.052
-327.158	-50.242	0.699	0.329
-326.143	800.000	-0.133	0.392
-325.129	-93.007	-0.786	0.218
-324.114	-44.290	0.709	0.354
-323.099	-200.000	0.019	0.413
-322.085	-38.649	-0.524	0.275
-321.070	-178.277	0.088	-0.002
-320.056	469.382	-0.274	-0.612
-319.041	800.000	-0.076	0.331
-318.026	39.837	0.735	0.657
-317.012	-67.841	0.553	-0.215
-315.997	298.290	0.541	0.992
-314.983	-59.471	-0.516	-0.221
-313.968	-200.000	-0.044	-0.793
-312.953	311.718	0.503	0.940
-311.939	-78.810	0.615	0.209
-310.924	385.712	0.185	0.381
-309.910	-26.282	0.628	-0.367
-308.895	117.057	-0.060	0.073
-307.880	289.693	0.345	0.622
-306.866	-200.000	-0.034	0.412
-305.851	354.078	-0.280	0.554
-304.837	-66.784	0.669	0.264
-303.822	-103.860	0.394	-0.092
-302.807	-200.000	-0.096	0.716
-301.793	200.599	0.143	-0.218
-300.778	-38.605	-0.368	-0.194
-299.764	-185.361	-0.476	0.007
-298.749	491.562	0.261	-0.594
-297.735	-200.000	-0.038	-1.080
-296.720	800.000	0.072	-0.264
-295.705	-22.740	0.849	-0.510
-294.691	-165.640	-0.538	0.023
-293.676	-200.000	-0.071	0.359
-292.662	661.258	0.053	-0.137
-291.647	-11.117	0.451	-0.296
-290.632	800.000	-0.284	-1.058
-289.618	-200.000	0.018	0.911
-288.603	-126.687	0.353	0.052
-287.589	-200.000	0.064	-0.378
-286.574	77.360	-0.425	0.450
-285.559	97.335	-0.471	-0.538
-284.545	490.265	0.237	-0.538
-283.530	-200.000	-0.035	0.320
-282.516	-200.000	0.017	0.916
-281.501	-15.826	0.326	0.206
-280.486	-108.803	0.124	0.026
-279.472	-60.035	0.670	0.284
-278.457	323.833	0.146	0.277
-277.443	-200.000	-0.114	0.742
-276.428	319.275	-0.389	0.734
-275.413	246.941	-0.091	0.153
-274.399	13.129	-0.149	0.115
-273.384	800.000	-0.031	-0.095
-272.370	120.085	0.589	-0.726
-271.355	353.579	0.134	0.265
-270.340	-102.498	-0.691	-0.164
-269.326	217.393	-0.102	-0.161
-268.311	336.547	-0.307	0.593
-267.297	710.671	-0.246	0.647
-266.282	194.364	0.285	0.429
-265.267	-32.543	0.437	0.242
-264.253	800.000	-0.259	1.004
-263.238	-83.766	0.011	-0.003
-262.224	-134.465	0.925	0.113
-261.209	-75.900	-0.092	-0.032
-260.195	17.461	0.597	0.471
-259.180	209.087	-0.162	0.252
-258.165	655.626	-0.239	0.610
-257.151	197.289	0.315	-0.478
-256.136	360.025	0.267	-0.531
-255.122	465.274	0.135	-0.299
-254.107	-112.915	-0.314	0.062
-253.092	-87.511	0.515	-0.155
-252.078	-31.803	-0.597	0.332
-251.063	-127.061	0.109	0.016
-250.049	-200.000	0.000	-0.306
-249.034	509.551	-0.212	-0.489
-248.019	144.581	-0.161	0.213
-247.005	-200.000	-0.008	-0.061
-245.990	800.000	0.134	-0.499
-244.976	-3.148	-0.546	-0.378
-243.961	800.000	0.091	0.336
-242.946	192.234	-0.525	-0.786
-241.932	-109.623	0.701	-0.147
-240.917	-131.848	-0.434	-0.056
-239.903	155.689	-0.098	-0.134
-238.888	800.000	0.247	0.728
-237.873	-121.044	0.201	-0.033
-236.859	-70.010	0.509	-0.193
-235.844	-87.658	-0.302	-0.091
-234.830	-151.690	0.273	0.020
-233.815	800.000	0.176	-0.731
-232.800	800.000	-0.158	0.548
-231.786	269.171	0.160	-0.279
-230.771	-148.508	-0.016	0.001
-229.757	7.569	0.606	0.450
-228.742	-171.810	-0.335	0.011
-227.727	800.000	-0.181	-0.571
-226.713	-150.671	0.362	-0.027
-225.698	-200.000	-0.033	0.511
-224.684	152.667	-0.093	0.126
-223.669	479.230	-0.205	0.460
-222.655	20.930	-0.180	0.145
-221.640	545.816	-0.149	0.354
-220.625	-36.960	0.402	0.214
-219.611	800.000	0.213	0.619
-218.596	-65.441	-1.010	-0.403
-217.582	-42.814	0.490	0.247
-216.567	155.573	0.090	0.123
-215.552	39.480	0.368	-0.327
-214.538	-79.359	1.009	0.339
-213.523	-200.000	-0.130	-0.614
-212.509	-90.360	-0.460	0.132
-211.494	33.787	0.665	0.574
-210.479	-200.000	-0.023	-0.543
-209.465	333.341	0.340	-0.651
-208.450	-200.000	-0.041	0.366
-207.436	-169.871	-0.270	0.010
-206.421	10.852	0.359	-0.272
-205.406	-96.192	0.744	-0.196
-204.392	712.643	0.236	-0.619
-203.377	-48.165	-0.197	-0.095
-202.363	207.247	-0.547	0.847
-201.348	-200.000	0.121	0.707
-200.333	-200.000	0.011	0.252
-199.319	73.149	0.394	-0.409
-198.304	182.812	-0.415	-0.607
-197.290	136.324	0.303	-0.391
-196.275	-94.143	-0.249	-0.068
-195.260	-129.356	0.753	-0.104
-194.246	91.874	0.122	-0.136
-193.231	182.319	0.073	0.107
-192.217	-200.000	0.004	0.254
-191.202	396.979	-0.212	0.440
-190.187	-95.052	-0.738	0.198
-189.173	-88.449	-0.824	-0.244
-188.158	32.882	0.276	-0.237
-187.144	12.630	-0.234	-0.179
-186.129	-200.000	-0.172	-0.780
-185.114	-200.000	-0.025	-0.323
-184.100	-200.000	0.046	-0.459
-183.085	-200.000	-0.128	0.866
-182.071	-200.000	0.013	0.805
-181.056	-200.000	-0.020	-0.410
-180.042	-93.155	-0.241	-0.066
-179.027	-32.994	0.419	-0.230
-178.012	-175.452	-0.494	0.013
-176.998	-200.000	-0.022	0.226
-175.983	127.773	-0.356	0.448
-174.969	-124.252	-0.745	0.115
-173.954	316.278	0.087	0.162
-172.939	58.544	-0.620	0.602
-171.925	-95.612	-1.014	-0.269
-170.910	-200.000	0.015	-0.345
-169.896	630.801	0.233	-0.585
-168.881	-112.279	-0.308	0.061
-167.866	-69.030	0.179	0.068
-166.852	38.432	-0.136	-0.120
-165.837	12.254	0.207	-0.158
-164.823	-81.344	-0.238	0.078
-163.808	-91.724	-0.971	-0.273
-162.793	-200.000	0.011	0.532
-161.779	-96.776	-0.160	0.042
-160.764	-57.262	0.569	-0.248
-159.750	319.235	0.433	0.812
-158.735	-200.000	0.067	-0.883
-157.720	652.276	-0.268	-0.680
-156.706	-142.955	0.260	-0.025
-155.691	-144.440	-0.614	0.056
-154.677	734.083	-0.115	-0.303
-153.662	-191.179	0.781	0.008
-152.647	-200.000	0.027	0.429
-151.633	-21.149	-0.224	-0.135
-150.618	800.000	-0.056	0.168
-149.604	800.000	0.167	-0.576
-148.589	167.325	-0.498	0.700
-147.574	-111.366	0.849	0.171
-146.560	-30.801	0.286	0.160
-145.545	-157.675	0.670	-0.040
-144.531	57.156	0.520	0.502
-143.516	-200.000	-0.110	-0.652
-142.502	-196.003	0.173	0.001
-141.487	250.543	0.149	-0.250
-140.472	-200.000	0.057	0.288
-139.458	800.000	0.072	0.280
-138.443	17.185	0.192	0.151
-137.429	-200.000	-0.023	-0.363
-136.414	-200.000	0.015	-0.227
-135.399	-114.247	0.875	0.167
-134.385	-71.005	-0.756	-0.281
-133.370	-0.737	-0.109	0.076
-132.356	-200.000	0.088	1.045
-131.341	193.663	0.415	-0.620
-130.326	157.795	0.252	-0.345
-129.312	83.022	0.334	-0.359
-128.297	-4.359	0.453	0.310
-127.283	-63.983	-0.457	0.185
-126.268	800.000	-0.120	0.403
-125.253	-69.833	0.771	0.291
-124.239	119.912	0.154	-0.189
-123.224	800.000	0.240	0.677
-122.210	-200.000	-0.059	0.734
