DTS Sentinel unit serial number:	SN413079Multiplexer serial number:	ORYXHardware model number:	OX4-SRSoftware version number:	ORYX F/W v4.00 Oryx Data Collector v3.7.2.0data status	okinstallation	princeton_trtdifferential loss correction	single-endedforward channel	channel 3reverse channel	N/Adate	2019/09/14time	20:56:35forward acquisition time	60.00reverse acquisition time	0.00gamma	496.2192k internal	0.2317k external	0.2317temperature offset calibration	0.9998default loss term (dB/km)	0.3790temperature slope calibration	1.0000multiplexer offset coefficient	1.0000multiplexer slope coefficient	1.0000fibre end	0.00T internal ref (°C)	33.19T ext. ref 1 (°C)	4.78T ext. ref 2 (°C)	27.94length (m)	temperature (°C)	Stokes	anti-Stokes-747.200	800.000	-0.043	0.176
-746.185	-9.954	0.131	-0.088
-745.171	100.964	0.186	-0.219
-744.156	-139.306	-0.287	0.031
-743.142	-2.501	0.113	-0.080
-742.127	504.744	-0.066	0.155
-741.112	-63.649	0.287	0.119
-740.098	81.020	0.053	0.058
-739.083	-30.728	0.239	-0.137
-738.069	194.903	0.186	0.286
-737.054	-90.117	0.256	0.076
-736.039	97.391	-0.101	0.117
-735.025	-200.000	-0.012	0.474
-734.010	800.000	0.086	-0.286
-732.996	95.601	-0.398	-0.460
-731.981	-28.029	-0.331	0.194
-730.966	40.361	0.156	-0.142
-729.952	149.153	-0.166	-0.228
-728.937	-62.415	0.220	0.093
-727.923	800.000	0.106	-0.341
-726.908	123.130	-0.115	-0.146
-725.894	332.832	-0.008	-0.016
-724.879	-47.591	0.115	-0.057
-723.864	-108.595	-0.284	0.062
-722.850	92.827	0.139	0.159
-721.835	-60.105	0.122	-0.053
-720.821	306.480	0.112	-0.211
-719.806	74.125	0.024	-0.025
-718.791	-200.000	-0.002	0.401
-717.777	-79.155	0.071	0.024
-716.762	73.715	-0.194	0.206
-715.748	-22.219	0.062	-0.038
-714.733	-200.000	-0.021	0.178
-713.718	-109.295	-0.110	-0.023
-712.704	7.687	0.085	-0.065
-711.689	-40.053	0.099	-0.052
-710.675	532.923	-0.123	-0.295
-709.660	-89.552	-0.150	-0.045
-708.645	800.000	0.038	-0.167
-707.631	48.246	0.331	-0.313
-706.616	32.188	0.120	-0.105
-705.602	800.000	0.035	-0.112
-704.587	-60.646	-0.118	-0.051
-703.572	-200.000	-0.013	-0.242
-702.558	-128.354	-0.132	-0.019
-701.543	-200.000	-0.036	-0.218
-700.529	-193.579	0.274	0.002
-699.514	-200.000	-0.021	-0.107
-698.499	-20.649	0.070	0.043
-697.485	-97.834	0.277	0.072
-696.470	-121.745	-0.089	-0.015
-695.456	800.000	0.101	0.318
-694.441	-200.000	0.002	-0.073
-693.426	-102.341	0.176	0.043
-692.412	-127.585	0.515	0.075
-691.397	2.555	-0.119	0.087
-690.383	-121.686	0.066	0.011
-689.368	800.000	0.047	-0.189
-688.354	100.491	-0.066	-0.078
-687.339	94.508	-0.069	-0.079
-686.324	-20.965	-0.151	0.093
-685.310	32.364	-0.199	-0.173
-684.295	-130.150	-0.200	0.028
-683.281	285.784	0.133	0.242
-682.266	-43.561	-0.019	-0.010
-681.251	-200.000	0.009	-0.270
-680.237	490.602	0.026	0.059
-679.222	127.433	0.147	-0.188
-678.208	121.471	0.015	0.019
-677.193	800.000	0.057	0.183
-676.178	81.284	-0.185	-0.201
-675.164	800.000	-0.070	-0.276
-674.149	-88.172	0.277	0.084
-673.135	-39.512	-0.208	-0.110
-672.120	329.630	0.003	0.005
-671.105	800.000	-0.066	0.225
-670.091	-13.484	-0.276	-0.181
-669.076	800.000	-0.108	-0.380
-668.062	800.000	0.129	0.378
-667.047	295.389	-0.146	-0.270
-666.032	-200.000	0.029	-0.394
-665.018	36.535	0.170	0.151
-664.003	-44.350	-0.204	-0.103
-662.989	43.721	-0.255	-0.236
-661.974	-55.925	-0.497	-0.224
-660.959	371.747	-0.182	0.372
-659.945	131.563	0.042	0.054
-658.930	-12.503	-0.248	-0.163
-657.916	800.000	0.083	0.286
-656.901	-171.582	0.175	-0.006
-655.886	800.000	-0.050	0.172
-654.872	125.604	-0.114	0.145
-653.857	-200.000	-0.032	-0.198
-652.843	-27.619	-0.319	-0.187
-651.828	-47.531	-0.192	0.094
-650.814	170.472	0.093	-0.135
-649.799	-102.100	0.288	0.070
-648.784	358.577	0.022	-0.045
-647.770	-28.929	-0.177	0.103
-646.755	531.224	-0.088	0.211
-645.741	775.069	0.053	0.146
-644.726	-200.000	-0.006	-0.177
-643.711	-200.000	0.122	-0.000
-642.697	11.704	-0.189	-0.146
-641.682	-102.966	0.322	-0.077
-640.668	297.708	0.084	-0.156
-639.653	-200.000	0.016	0.084
-638.638	143.407	-0.054	0.072
-637.624	-114.755	-0.095	-0.018
-636.609	-115.813	-0.082	0.015
-635.595	-111.659	0.317	-0.065
-634.580	800.000	-0.036	0.100
-633.565	-200.000	-0.017	-0.077
-632.551	-200.000	-0.010	-0.231
-631.536	2.683	0.151	0.110
-630.522	-4.194	-0.167	0.117
-629.507	-110.593	-0.221	-0.046
-628.492	-200.000	0.021	-0.166
-627.478	800.000	-0.072	0.241
-626.463	25.892	0.336	-0.282
-625.449	-125.909	-0.270	0.041
-624.434	6.263	-0.148	-0.111
-623.419	-73.144	0.355	-0.131
-622.405	800.000	-0.115	0.419
-621.390	363.720	0.126	-0.255
-620.376	-176.971	0.238	0.006
-619.361	-28.645	-0.080	0.046
-618.346	-95.990	0.211	-0.057
-617.332	-68.432	0.275	-0.108
-616.317	-140.086	-0.262	-0.028
-615.303	800.000	0.042	-0.178
-614.288	-67.576	-0.201	-0.079
-613.273	-89.042	-0.327	-0.098
-612.259	-200.000	-0.049	0.291
-611.244	40.933	0.163	0.148
-610.230	446.818	-0.239	0.529
-609.215	39.024	-0.184	-0.166
-608.201	-101.485	-0.373	0.091
-607.186	7.372	-0.183	-0.137
-606.171	201.236	-0.120	-0.185
-605.157	-19.576	0.120	-0.075
-604.142	-200.000	-0.008	0.113
-603.128	43.196	-0.233	-0.214
-602.113	800.000	0.044	0.178
-601.098	160.009	-0.069	0.097
-600.084	13.793	-0.087	-0.068
-599.069	-105.212	0.306	-0.070
-598.055	-158.283	0.254	-0.015
-597.040	-65.718	0.196	0.079
-596.025	-125.990	-0.144	0.022
-595.011	-89.556	-0.205	-0.061
-593.996	649.298	0.066	0.170
-592.982	-62.605	0.367	-0.153
-591.967	680.099	0.120	-0.314
-590.952	-200.000	-0.041	-0.423
-589.938	-109.241	-0.091	0.019
-588.923	-148.882	-0.084	-0.007
-587.909	-22.769	0.150	-0.091
-586.894	-144.372	-0.322	0.030
-585.879	-200.000	0.034	0.157
-584.865	-56.330	-0.239	0.107
-583.850	5.461	-0.051	-0.038
-582.836	-36.072	-0.334	-0.181
-581.821	-200.000	0.029	0.185
-580.806	-78.828	0.064	0.022
-579.792	-17.136	0.052	-0.033
-578.777	800.000	0.068	-0.236
-577.763	638.998	0.065	-0.165
-576.748	-200.000	0.058	-0.257
-575.733	-47.358	-0.331	-0.162
-574.719	95.752	0.296	-0.340
-573.704	131.109	-0.053	-0.068
-572.690	-146.203	0.225	0.020
-571.675	325.042	0.095	-0.183
-570.661	-86.437	-0.320	0.099
-569.646	-179.795	0.270	-0.006
-568.631	800.000	0.134	-0.385
-567.617	-18.418	0.159	-0.100
-566.602	161.129	-0.170	-0.239
-565.588	-50.546	0.255	-0.121
-564.573	-174.406	0.179	0.005
-563.558	22.119	0.230	0.189
-562.544	-163.920	-0.199	-0.009
-561.529	-2.377	0.066	0.046
-560.515	-200.000	0.036	0.200
-559.500	-42.644	-0.087	0.045
-558.485	-200.000	0.029	-0.392
-557.471	-133.192	0.244	0.031
-556.456	4.005	-0.123	0.090
-555.442	391.494	0.091	0.189
-554.427	-71.887	-0.239	0.089
-553.412	224.094	-0.156	0.253
-552.398	-120.647	0.213	0.036
-551.383	-162.336	-0.097	0.005
-550.369	221.365	-0.161	-0.260
-549.354	66.919	-0.126	-0.129
-548.339	-200.000	-0.034	-0.163
-547.325	-89.621	0.143	0.042
-546.310	800.000	-0.016	0.057
-545.296	-41.686	0.045	0.023
-544.281	-145.008	-0.225	0.021
-543.266	32.369	0.194	-0.168
-542.252	-113.267	-0.080	-0.016
-541.237	-200.000	-0.044	0.257
-540.223	12.246	-0.131	0.102
-539.208	-100.085	0.440	0.110
-538.193	200.957	0.133	-0.206
-537.179	-85.774	-0.112	0.035
-536.164	6.231	-0.131	0.097
-535.150	-106.900	0.016	-0.004
-534.135	473.964	-0.029	-0.065
-533.121	-84.905	-0.146	-0.046
-532.106	108.372	-0.038	-0.046
-531.091	27.460	-0.079	0.067
-530.077	-4.804	-0.171	-0.118
-529.062	-90.532	-0.486	-0.141
-528.048	137.305	0.047	-0.062
-527.033	115.113	-0.238	0.292
-526.018	19.456	-0.191	0.154
-525.004	-25.376	0.188	-0.112
-523.989	348.988	-0.016	-0.031
-522.975	-200.000	-0.019	0.109
-521.960	-145.085	0.180	-0.016
-520.945	55.283	0.091	0.088
-519.931	-200.000	0.024	0.229
-518.916	218.676	0.140	0.225
-517.902	-16.070	0.193	-0.123
-516.887	9.827	-0.075	-0.057
-515.872	-102.473	0.335	-0.080
-514.858	319.946	-0.085	-0.162
-513.843	44.970	-0.163	0.151
-512.829	-43.900	-0.353	0.178
-511.814	-107.240	-0.387	0.085
-510.799	-79.453	0.203	0.069
-509.785	-42.373	0.293	-0.150
-508.770	134.990	0.058	0.076
-507.756	800.000	-0.126	0.516
-506.741	8.350	-0.195	-0.147
-505.726	-14.668	0.292	-0.188
-504.712	-200.000	-0.001	-0.179
-503.697	-200.000	-0.042	0.323
-502.683	25.294	-0.098	0.082
-501.668	-54.773	-0.252	-0.114
-500.653	-200.000	0.001	-0.150
-499.639	38.531	0.088	0.078
-498.624	-17.356	0.230	-0.145
-497.610	109.643	0.088	0.105
-496.595	56.999	-0.230	0.225
-495.581	-200.000	0.001	-0.215
-494.566	10.288	-0.049	-0.037
-493.551	123.882	-0.343	0.432
-492.537	-121.676	-0.266	-0.044
-491.522	176.664	-0.226	0.329
-490.508	800.000	-0.071	-0.240
-489.493	191.400	0.151	-0.227
-488.478	-16.188	0.156	-0.099
-487.464	285.548	-0.035	-0.064
-486.449	103.694	0.394	-0.464
-485.435	289.101	0.044	-0.080
-484.420	-200.000	-0.003	0.196
-483.405	254.062	-0.054	-0.093
-482.391	226.628	0.067	-0.109
-481.376	-54.518	-0.203	0.092
-480.362	106.617	-0.098	0.116
-479.347	-200.000	0.073	-0.407
-478.332	22.914	0.264	0.217
-477.318	-153.081	-0.206	-0.015
-476.303	152.038	0.038	0.052
-475.289	265.459	-0.093	0.162
-474.274	-200.000	0.013	-0.267
-473.259	-99.637	0.596	-0.150
-472.245	800.000	-0.048	0.145
-471.230	-46.382	0.223	-0.110
-470.216	800.000	-0.113	-0.495
-469.201	-200.000	0.030	-0.202
-468.186	44.896	-0.132	-0.121
-467.172	-28.984	-0.258	-0.148
-466.157	495.296	0.159	0.366
-465.143	800.000	0.064	0.214
-464.128	3.623	-0.086	0.063
-463.113	-156.829	0.181	0.011
-462.099	-108.337	-0.183	-0.040
-461.084	238.602	-0.027	0.045
-460.070	173.570	0.116	-0.167
-459.055	-200.000	-0.030	0.246
-458.040	-148.124	-0.110	0.009
-457.026	7.500	-0.132	-0.099
-456.011	662.914	-0.093	-0.239
-454.997	-68.511	0.176	0.068
-453.982	285.772	0.089	0.160
-452.968	-20.647	0.132	0.081
-451.953	-66.338	-0.344	-0.137
-450.938	407.222	0.026	0.054
-449.924	-167.005	0.201	-0.008
-448.909	279.182	0.107	0.192
-447.895	75.257	-0.099	0.105
-446.880	136.499	-0.121	-0.159
-445.865	160.708	0.107	0.150
-444.851	-26.081	0.130	0.077
-443.836	-200.000	-0.022	0.219
-442.822	-200.000	-0.032	0.448
-441.807	168.540	-0.083	0.118
-440.792	-131.444	-0.239	-0.032
-439.778	384.131	0.082	0.169
-438.763	-200.000	-0.025	-0.163
-437.749	524.128	-0.043	-0.101
-436.734	79.958	-0.174	-0.187
-435.719	0.503	0.137	-0.098
-434.705	-20.584	-0.221	-0.136
-433.690	61.010	-0.231	-0.229
-432.676	-132.503	-0.158	-0.020
-431.661	406.502	-0.181	-0.382
-430.646	-122.909	0.147	-0.024
-429.632	155.079	-0.094	0.129
-428.617	207.455	0.106	0.165
-427.603	-200.000	0.026	-0.428
-426.588	-200.000	0.016	0.200
-425.573	450.592	0.015	-0.034
-424.559	800.000	0.038	-0.137
-423.544	26.391	-0.155	0.130
-422.530	400.209	0.055	0.116
-421.515	-147.179	-0.102	-0.009
-420.500	-200.000	-0.017	-0.265
-419.486	431.106	0.050	0.108
-418.471	85.248	-0.115	-0.127
-417.457	-30.955	0.160	-0.090
-416.442	-200.000	0.048	-0.244
-415.428	-13.684	0.217	-0.140
-414.413	54.042	-0.010	-0.009
-413.398	800.000	-0.020	-0.079
-412.384	221.958	-0.129	0.208
-411.369	-104.550	-0.209	-0.048
-410.355	-92.495	-0.057	-0.016
-409.340	426.616	-0.098	-0.211
-408.325	-119.331	0.189	0.033
-407.311	800.000	-0.044	-0.161
-406.296	741.110	0.080	0.215
-405.282	213.569	0.123	-0.194
-404.267	42.439	-0.157	-0.143
-403.252	-65.309	0.438	0.176
-402.238	0.851	-0.110	0.079
-401.223	76.715	0.173	-0.183
-400.209	-150.032	0.299	-0.023
-399.194	17.500	-0.170	-0.135
-398.179	-200.000	-0.021	0.337
-397.165	228.405	-0.270	-0.440
-396.150	-144.265	0.137	0.013
-395.136	-200.000	-0.049	0.281
-394.121	3.788	0.145	-0.106
-393.106	-142.729	0.366	0.036
-392.092	-200.000	-0.011	0.088
-391.077	-57.586	-0.114	-0.050
-390.063	3.156	-0.361	-0.262
-389.048	-200.000	0.016	0.197
-388.033	-35.473	-0.260	0.141
-387.019	-79.080	-0.296	-0.100
-386.004	-65.905	0.318	-0.127
-384.990	429.102	0.057	0.122
-383.975	800.000	0.052	-0.168
-382.960	501.923	-0.074	0.170
-381.946	-60.576	-0.303	-0.128
-380.931	26.706	-0.198	0.166
-379.917	-200.000	-0.034	0.190
-378.902	-200.000	0.044	0.256
-377.888	-59.365	-0.179	0.077
-376.873	800.000	-0.096	-0.266
-375.858	218.765	-0.104	-0.166
-374.844	699.602	0.080	0.211
-373.829	-23.027	0.196	0.118
-372.815	65.513	-0.114	-0.116
-371.800	643.553	-0.069	-0.175
-370.785	-200.000	0.003	0.025
-369.771	-100.522	0.295	0.073
-368.756	-1.865	-0.170	-0.119
-367.742	-117.376	0.203	-0.037
-366.727	-7.914	-0.152	-0.102
-365.712	-64.994	0.508	0.205
-364.698	-200.000	0.021	0.161
-363.683	4.608	0.060	-0.044
-362.669	124.647	0.111	-0.139
-361.654	631.506	-0.016	0.041
-360.639	800.000	-0.026	-0.082
-359.625	-163.815	-0.044	-0.002
-358.610	-200.000	0.022	0.215
-357.596	-200.000	0.022	0.127
-356.581	-112.192	0.259	-0.052
-355.566	-67.320	0.326	0.128
-354.552	445.426	0.126	-0.277
-353.537	-200.000	-0.048	-0.300
-352.523	-200.000	0.075	-0.391
-351.508	-72.504	0.222	-0.082
-350.493	98.848	-0.031	0.035
-349.479	265.373	0.086	0.150
-348.464	800.000	-0.062	0.235
-347.450	188.747	0.089	-0.132
-346.435	474.901	0.077	-0.172
-345.420	0.126	-0.277	0.197
-344.406	-78.623	-0.397	-0.135
-343.391	-200.000	0.005	0.080
-342.377	56.184	0.284	-0.275
-341.362	704.129	0.100	0.263
-340.348	-200.000	0.008	-0.125
-339.333	-200.000	0.001	0.090
-338.318	26.006	-0.352	0.292
-337.304	-200.000	-0.019	0.123
-336.289	69.009	0.112	0.114
-335.275	35.135	0.026	-0.023
-334.260	296.492	0.025	0.046
-333.245	-131.597	-0.465	-0.061
-332.231	-150.510	0.372	0.028
-331.216	1.922	-0.068	0.049
-330.202	-31.381	-0.199	0.112
-329.187	-100.025	0.180	-0.045
-328.172	-55.971	-0.026	0.011
-327.158	-29.360	0.173	-0.099
-326.143	27.657	0.260	-0.218
-325.129	-99.317	0.209	-0.053
-324.114	56.760	-0.370	-0.359
-323.099	-24.309	0.130	-0.077
-322.085	800.000	-0.091	0.260
-321.070	-90.609	0.133	0.038
-320.056	45.260	0.142	0.130
-319.041	-67.124	0.218	0.085
-318.026	-200.000	-0.011	-0.224
-317.012	800.000	0.118	0.342
-315.997	-200.000	-0.031	0.154
-314.983	-6.153	-0.325	0.221
-313.968	-200.000	0.042	-0.191
-312.953	423.469	-0.082	0.175
-311.939	-149.512	0.020	-0.002
-310.924	-92.357	-0.087	-0.024
-309.910	118.762	-0.108	-0.133
-308.895	-88.935	-0.260	-0.077
-307.880	84.767	-0.103	-0.113
-306.866	-116.042	-0.311	-0.058
-305.851	119.856	0.169	0.208
-304.837	266.711	0.030	0.053
-303.822	30.607	-0.178	-0.151
-302.807	-200.000	0.030	0.357
-301.793	5.851	0.135	-0.099
-300.778	-67.479	0.218	-0.085
-299.764	-200.000	0.033	0.209
-298.749	-42.642	-0.517	-0.262
-297.735	-200.000	-0.001	-0.065
-296.720	-155.861	0.220	-0.014
-295.705	-31.097	0.182	-0.102
-294.691	-145.295	0.008	-0.001
-293.676	-5.912	0.053	-0.036
-292.662	-66.025	-0.198	-0.079
-291.647	743.846	0.119	0.319
-290.632	62.008	-0.205	0.204
-289.618	-131.236	-0.293	0.039
-288.603	81.620	-0.110	-0.118
-287.589	-200.000	-0.017	-0.080
-286.574	-200.000	0.048	-0.343
-285.559	-112.163	-0.101	-0.020
-284.545	-126.458	-0.222	-0.033
-283.530	190.213	0.127	0.190
-282.516	-200.000	-0.021	0.290
-281.501	60.793	0.161	-0.159
-280.486	-160.373	0.103	-0.005
-279.472	632.745	0.107	-0.270
-278.457	571.096	-0.083	-0.200
-277.443	-87.555	-0.170	0.051
-276.428	83.976	-0.146	-0.159
-275.413	73.337	0.242	-0.252
-274.399	-86.043	-0.144	-0.044
-273.384	-51.913	0.273	0.126
-272.370	-66.221	0.219	-0.087
-271.355	-200.000	-0.052	-0.331
-270.340	272.063	-0.071	0.124
-269.326	800.000	-0.120	0.432
-268.311	-65.884	-0.240	0.096
-267.297	-32.938	-0.161	-0.089
-266.282	-123.599	0.173	0.027
-265.267	-200.000	-0.048	0.329
-264.253	-156.790	0.429	0.026
-263.238	345.897	-0.107	-0.208
-262.224	800.000	0.112	0.330
-261.209	-200.000	-0.022	0.360
-260.195	-200.000	-0.065	-0.397
-259.180	-200.000	-0.050	-0.243
-258.165	43.463	0.237	-0.215
-257.151	319.147	-0.114	-0.215
-256.136	-81.668	-0.078	0.026
-255.122	-160.636	0.072	0.004
-254.107	800.000	0.079	0.280
-253.092	-14.945	-0.043	-0.027
-252.078	-19.899	0.083	-0.051
-251.063	800.000	0.037	-0.135
-250.049	43.889	0.151	-0.137
-249.034	67.696	-0.099	-0.100
-248.019	118.337	-0.020	-0.025
-247.005	-78.728	0.171	-0.058
-245.990	-144.392	0.016	0.001
-244.976	-86.053	0.242	-0.074
-243.961	800.000	0.037	0.149
-242.946	576.934	0.098	-0.239
-241.932	3.664	-0.300	-0.217
-240.917	-200.000	-0.062	0.288
-239.903	22.881	0.234	0.190
-238.888	-140.152	-0.272	-0.028
-237.873	-112.109	0.212	0.042
-236.859	-200.000	0.032	-0.234
-235.844	-196.338	-0.131	-0.001
-234.830	-22.111	-0.170	-0.103
-233.815	800.000	0.034	-0.099
-232.800	20.382	-0.105	0.084
-231.786	-200.000	0.026	0.210
-230.771	14.428	0.261	0.202
-229.757	-200.000	0.012	-0.125
-228.742	277.152	0.074	0.131
-227.727	-53.001	0.052	-0.024
-226.713	130.966	-0.144	-0.183
-225.698	-96.673	-0.127	0.033
-224.684	63.349	-0.262	0.260
-223.669	-179.322	0.446	-0.010
-222.655	0.735	-0.144	0.102
-221.640	26.413	0.189	0.157
-220.625	278.992	-0.099	-0.175
-219.611	-37.455	-0.082	-0.043
-218.596	215.860	0.199	0.313
-217.582	800.000	-0.082	0.263
-216.567	552.075	-0.144	0.342
-215.552	-200.000	-0.004	0.072
-214.538	14.691	0.472	0.366
-213.523	800.000	-0.031	-0.107
-212.509	-200.000	0.028	0.455
-211.494	-34.165	0.133	0.073
-210.479	-22.807	0.143	0.085
-209.465	179.299	-0.131	0.190
-208.450	-61.998	0.140	-0.058
-207.436	7.100	0.116	-0.086
-206.421	32.480	-0.157	0.135
-205.406	153.274	0.170	-0.230
-204.392	-29.307	0.094	-0.054
-203.377	800.000	0.077	0.260
-202.363	-200.000	0.002	0.050
-201.348	123.324	0.087	-0.108
-200.333	-200.000	0.024	0.258
-199.319	-159.617	0.324	0.018
-198.304	-120.313	0.158	-0.027
-197.290	-105.899	-0.272	0.061
-196.275	-109.162	0.145	-0.031
-195.260	789.445	0.138	0.375
-194.246	150.142	0.142	0.192
-193.231	-156.053	-0.028	0.002
-192.217	800.000	0.058	-0.228
-191.202	-155.559	-0.569	0.036
-190.187	30.331	0.120	0.101
-189.173	91.872	-0.193	0.215
-188.158	19.978	0.150	0.120
-187.144	190.154	0.087	-0.129
-186.129	74.183	-0.099	-0.103
-185.114	-12.288	-0.328	0.212
-184.100	-99.234	0.123	-0.031
-183.085	75.555	0.411	0.430
-182.071	214.289	-0.071	0.111
-181.056	-27.431	-0.251	-0.145
-180.042	143.011	0.178	-0.235
-179.027	-57.872	0.449	-0.194
-178.012	12.424	0.151	0.115
-176.998	667.159	-0.090	0.229
-175.983	-200.000	-0.060	0.283
-174.969	303.140	-0.177	-0.325
-173.954	-121.710	0.327	0.054
-172.939	-112.869	-0.155	-0.030
-171.925	21.209	-0.120	-0.096
-170.910	800.000	-0.086	0.244
-169.896	800.000	-0.018	-0.061
-168.881	712.547	0.072	-0.190
-167.866	74.475	-0.134	-0.140
-166.852	-120.243	-0.196	-0.033
-165.837	36.572	-0.119	0.104
-164.823	241.749	-0.129	-0.214
-163.808	-164.101	0.312	-0.014
-162.793	800.000	-0.086	0.268
-161.779	-8.342	0.059	-0.039
-160.764	264.150	-0.083	-0.143
-159.750	800.000	-0.045	0.158
-158.735	-154.365	0.087	0.006
-157.720	274.180	-0.116	-0.203
-156.706	800.000	0.012	0.051
-155.691	-200.000	0.022	0.323
-154.677	-200.000	-0.007	-0.133
-153.662	-200.000	0.027	0.206
-152.647	-200.000	-0.044	0.416
-151.633	141.769	-0.164	0.215
-150.618	-20.425	-0.145	-0.088
-149.604	-10.681	0.187	-0.122
-148.589	-32.284	-0.196	-0.108
-147.574	-94.744	-0.470	-0.126
-146.560	-108.672	-0.199	-0.042
-145.545	-131.197	-0.585	0.077
-144.531	192.167	0.162	-0.241
-143.516	-200.000	-0.020	0.115
-142.502	4.788	0.350	-0.254
-141.487	1.592	0.146	-0.104
-140.472	800.000	0.101	-0.393
-139.458	-97.492	-0.101	0.026
-138.443	-77.045	-0.218	-0.075
-137.429	-129.363	0.237	-0.033
-136.414	-200.000	0.005	0.269
-135.399	421.858	-0.075	-0.159
-134.385	-58.976	0.403	0.172
-133.370	-200.000	0.034	-0.225
-132.356	159.224	0.095	-0.131
-131.341	-200.000	0.028	0.381
-130.326	-135.802	0.251	-0.029
-129.312	23.388	0.189	-0.154
-128.297	-111.180	0.208	-0.042
-127.283	746.142	0.053	-0.142
-126.268	187.419	0.051	0.075
-125.253	-200.000	-0.011	0.099
-124.239	214.912	-0.047	-0.074
-123.224	-148.418	0.310	-0.025
-122.210	92.049	0.069	0.077
-121.195	-200.000	-0.020	-0.332
