DTS Sentinel unit serial number:	SN413079Multiplexer serial number:	ORYXHardware model number:	OX4-SRSoftware version number:	ORYX F/W v4.00 Oryx Data Collector v3.7.2.0data status	okinstallation	princeton_trtdifferential loss correction	single-endedforward channel	channel 3reverse channel	N/Adate	2019/09/19time	11:56:35forward acquisition time	60.00reverse acquisition time	0.00gamma	496.2192k internal	0.2341k external	0.2341temperature offset calibration	0.9985default loss term (dB/km)	0.3790temperature slope calibration	1.0000multiplexer offset coefficient	1.0000multiplexer slope coefficient	1.0000fibre end	0.00T internal ref (°C)	25.94T ext. ref 1 (°C)	0.83T ext. ref 2 (°C)	22.06length (m)	temperature (°C)	Stokes	anti-Stokes-747.200	384.345	0.182	0.376
-746.185	-11.494	0.076	-0.050
-745.171	800.000	-0.073	0.216
-744.156	-200.000	-0.003	-0.147
-743.142	-49.680	-0.088	-0.042
-742.127	800.000	0.021	-0.066
-741.112	-200.000	-0.008	0.275
-740.098	795.510	-0.152	0.420
-739.083	-200.000	0.018	0.104
-738.069	-200.000	0.016	-0.260
-737.054	125.102	0.247	-0.312
-736.039	-121.396	-0.437	-0.073
-735.025	192.387	0.165	0.250
-734.010	38.962	-0.278	-0.249
-732.996	-61.353	-0.218	0.092
-731.981	-30.283	0.084	0.048
-730.966	-159.112	0.319	0.018
-729.952	-5.352	-0.110	-0.076
-728.937	-105.395	-0.191	-0.043
-727.923	80.502	-0.215	0.232
-726.908	125.886	-0.024	0.031
-725.894	138.486	-0.189	-0.249
-724.879	32.595	0.163	0.141
-723.864	-21.019	-0.254	-0.156
-722.850	-200.000	0.020	-0.146
-721.835	-1.448	-0.084	0.059
-720.821	223.489	0.072	0.116
-719.806	44.590	0.047	0.043
-718.791	-42.369	0.282	-0.144
-717.777	-144.188	0.062	0.006
-716.762	57.249	0.245	-0.239
-715.748	199.655	0.138	-0.211
-714.733	800.000	0.104	0.352
-713.718	112.827	0.028	-0.033
-712.704	606.308	-0.140	-0.350
-711.689	-9.120	0.082	0.055
-710.675	-162.032	0.252	0.013
-709.660	29.413	-0.125	-0.107
-708.645	102.626	0.098	-0.115
-707.631	208.790	-0.144	0.225
-706.616	800.000	0.072	0.276
-705.602	-10.760	-0.111	-0.073
-704.587	-51.722	0.091	-0.042
-703.572	-172.432	0.139	-0.004
-702.558	171.262	-0.203	-0.291
-701.543	-109.216	-0.170	0.036
-700.529	-198.647	0.302	0.002
-699.514	-9.059	-0.334	0.223
-698.499	-200.000	0.062	0.386
-697.485	242.758	0.158	0.264
-696.470	-99.326	-0.173	0.044
-695.456	-154.416	0.137	-0.009
-694.441	-200.000	0.003	0.054
-693.426	-41.409	0.213	0.110
-692.412	-198.953	0.229	0.001
-691.397	800.000	0.036	-0.128
-690.383	-79.168	0.275	0.093
-689.368	-180.742	-0.380	0.008
-688.354	800.000	0.052	0.161
-687.339	25.619	-0.029	0.024
-686.324	169.477	0.248	-0.354
-685.310	-9.296	-0.273	0.182
-684.295	800.000	0.062	-0.172
-683.281	-200.000	-0.013	0.565
-682.266	208.934	-0.104	0.164
-681.251	352.953	0.057	0.113
-680.237	12.333	-0.257	-0.198
-679.222	-18.326	-0.126	-0.079
-678.208	15.406	-0.172	-0.135
-677.193	-27.201	-0.187	-0.109
-676.178	-200.000	-0.021	-0.201
-675.164	21.345	-0.109	-0.089
-674.149	800.000	-0.127	0.471
-673.135	-7.440	0.301	0.204
-672.120	19.896	-0.193	0.156
-671.105	425.041	0.119	0.256
-670.091	-100.106	0.136	-0.034
-669.076	140.529	-0.196	-0.258
-668.062	-89.552	-0.354	-0.104
-667.047	224.718	0.204	-0.330
-666.032	241.746	-0.044	-0.074
-665.018	63.498	-0.060	-0.060
-664.003	-61.431	0.391	-0.164
-662.989	546.674	0.120	-0.286
-661.974	-15.216	0.292	-0.187
-660.959	337.954	0.227	0.442
-659.945	207.933	-0.104	0.162
-658.930	-200.000	0.004	-0.048
-657.916	-6.652	-0.486	-0.330
-656.901	-200.000	-0.013	-0.214
-655.886	-103.087	0.098	0.023
-654.872	-200.000	0.013	-0.114
-653.857	625.045	0.152	0.382
-652.843	526.110	0.161	0.379
-651.828	131.621	-0.035	-0.046
-650.814	-200.000	0.019	0.130
-649.799	-133.276	0.060	-0.008
-648.784	-67.742	-0.154	0.060
-647.770	-75.777	-0.247	0.087
-646.755	-200.000	0.032	0.440
-645.741	800.000	-0.078	0.309
-644.726	240.703	0.089	0.149
-643.711	-200.000	0.038	0.327
-642.697	800.000	-0.151	0.490
-641.682	-83.192	0.218	-0.070
-640.668	-200.000	-0.044	-0.293
-639.653	-200.000	-0.016	-0.653
-638.638	-68.754	0.134	0.052
-637.624	415.417	0.055	0.116
-636.609	357.644	0.112	0.224
-635.595	-53.606	-0.155	-0.071
-634.580	-11.328	-0.134	0.088
-633.565	259.157	-0.220	-0.379
-632.551	-80.034	0.198	-0.066
-631.536	158.040	-0.055	0.076
-630.522	-137.448	-0.180	0.020
-629.507	-175.671	0.311	0.008
-628.492	250.606	0.136	-0.231
-627.478	-125.942	0.201	0.030
-626.463	-200.000	-0.013	0.057
-625.449	-107.267	0.224	-0.049
-624.434	-200.000	-0.017	-0.178
-623.419	115.300	-0.179	-0.218
-622.405	-57.315	-0.235	0.103
-621.390	66.677	-0.198	-0.201
-620.376	22.987	-0.275	-0.225
-619.361	800.000	-0.026	-0.079
-618.346	85.878	0.146	-0.160
-617.332	-200.000	-0.035	0.270
-616.317	95.379	0.196	-0.223
-615.303	-200.000	0.011	0.058
-614.288	-20.370	0.037	-0.023
-613.273	387.731	0.119	-0.246
-612.259	16.758	0.280	0.221
-611.244	-200.000	-0.015	0.312
-610.230	121.751	-0.123	-0.152
-609.215	51.346	-0.101	-0.095
-608.201	800.000	0.054	0.191
-607.186	800.000	-0.030	-0.122
-606.171	-200.000	0.000	-0.188
-605.157	800.000	-0.065	-0.240
-604.142	-21.227	-0.223	-0.136
-603.128	-150.427	-0.495	0.038
-602.113	-75.733	0.071	0.025
-601.098	753.676	0.030	-0.080
-600.084	-80.772	0.417	0.138
-599.069	-109.063	-0.100	-0.021
-598.055	32.791	-0.486	-0.419
-597.040	800.000	0.109	0.333
-596.025	273.127	-0.174	0.306
-595.011	-12.909	0.196	0.127
-593.996	232.736	0.073	-0.119
-592.982	-200.000	-0.067	0.351
-591.967	44.333	-0.224	0.204
-590.952	48.058	0.218	-0.203
-589.938	-200.000	0.021	-0.277
-588.923	55.483	-0.334	-0.322
-587.909	800.000	-0.092	0.291
-586.894	34.154	-0.292	-0.254
-585.879	-53.005	0.218	-0.100
-584.865	373.274	-0.035	0.071
-583.850	-58.882	0.379	0.163
-582.836	-59.565	-0.159	-0.068
-581.821	233.236	0.136	0.223
-580.806	-200.000	-0.001	-0.241
-579.792	-105.588	0.172	0.039
-578.777	800.000	0.117	0.401
-577.763	-28.044	-0.166	-0.096
-576.748	150.881	0.107	-0.145
-575.733	64.238	-0.034	0.034
-574.719	42.134	-0.315	-0.285
-573.704	-200.000	-0.015	0.115
-572.690	-200.000	-0.051	-0.263
-571.675	-200.000	-0.008	-0.195
-570.661	800.000	0.105	-0.362
-569.646	-200.000	0.098	-0.000
-568.631	-200.000	0.060	0.273
-567.617	339.233	-0.063	-0.122
-566.602	483.192	-0.103	0.234
-565.588	114.732	0.189	-0.230
-564.573	-77.989	-0.489	-0.168
-563.558	21.878	0.196	0.159
-562.544	-95.740	-0.088	0.024
-561.529	483.022	0.069	0.157
-560.515	416.299	0.158	-0.335
-559.500	800.000	0.116	-0.368
-558.485	112.082	-0.138	-0.167
-557.471	-105.563	0.144	0.033
-556.456	67.876	0.096	-0.097
-555.442	662.461	0.120	-0.307
-554.427	-9.028	0.023	0.015
-553.412	85.337	0.120	-0.131
-552.398	-46.362	-0.137	-0.067
-551.383	-23.044	-0.162	-0.097
-550.369	32.078	0.133	0.114
-549.354	-200.000	0.033	-0.215
-548.339	234.299	-0.067	0.110
-547.325	-200.000	-0.028	-0.190
-546.310	337.118	-0.176	0.341
-545.296	-150.326	-0.083	-0.006
-544.281	177.789	-0.165	-0.239
-543.266	800.000	0.078	0.226
-542.252	34.967	-0.164	0.143
-541.237	-70.220	0.253	0.096
-540.223	135.129	-0.093	0.121
-539.208	631.712	-0.239	-0.602
-538.193	-200.000	0.072	0.423
-537.179	15.275	0.064	-0.050
-536.164	-63.626	0.319	-0.130
-535.150	474.660	-0.086	-0.192
-534.135	-182.666	0.243	-0.004
-533.121	106.740	0.122	-0.144
-532.106	3.733	0.096	0.070
-531.091	573.721	0.082	-0.200
-530.077	-61.573	-0.055	0.023
-529.062	-14.307	-0.215	-0.137
-528.048	167.686	0.223	0.315
-527.033	58.352	-0.079	0.077
-526.018	-113.985	0.197	0.038
-525.004	-34.631	-0.220	0.120
-523.989	-58.872	0.369	-0.158
-522.975	-200.000	0.004	0.103
-521.960	-200.000	0.067	-0.406
-520.945	-75.916	-0.270	-0.095
-519.931	322.742	-0.235	0.445
-518.916	-200.000	-0.014	0.090
-517.902	167.710	0.040	-0.056
-516.887	-85.413	-0.107	0.033
-515.872	-148.234	0.153	0.013
-514.858	2.672	0.183	-0.132
-513.843	-106.018	-0.352	-0.079
-512.829	800.000	-0.062	0.221
-511.814	-200.000	0.071	0.323
-510.799	91.898	-0.102	-0.114
-509.785	-200.000	0.004	-0.098
-508.770	-200.000	0.008	-0.065
-507.756	-122.108	-0.085	0.014
-506.741	-111.112	0.368	0.075
-505.726	800.000	-0.024	0.100
-504.712	-200.000	0.031	0.395
-503.697	142.889	-0.134	-0.177
-502.683	-49.824	0.237	0.112
-501.668	305.445	-0.231	0.427
-500.653	140.438	0.074	-0.097
-499.639	143.186	-0.208	-0.274
-498.624	-31.065	-0.231	0.129
-497.610	-84.066	0.180	-0.057
-496.595	-121.898	-0.121	0.020
-495.581	800.000	-0.015	-0.055
-494.566	-93.331	0.290	-0.080
-493.551	-200.000	-0.021	-0.256
-492.537	-200.000	0.013	-0.204
-491.522	-200.000	0.041	-0.334
-490.508	-44.758	-0.096	0.047
-489.493	108.971	0.216	0.257
-488.478	-200.000	-0.014	-0.068
-487.464	-61.387	0.105	0.044
-486.449	356.225	0.100	-0.197
-485.435	409.860	0.174	-0.365
-484.420	-37.745	-0.184	0.097
-483.405	-200.000	-0.050	0.230
-482.391	767.536	0.161	-0.435
-481.376	-88.184	-0.099	-0.029
-480.362	-33.356	0.184	-0.101
-479.347	-169.355	0.059	-0.002
-478.332	183.091	-0.056	0.082
-477.318	105.268	0.034	-0.040
-476.303	-100.336	0.108	0.026
-475.289	-200.000	0.023	-0.216
-474.274	-114.046	-0.070	0.013
-473.259	119.424	-0.244	0.300
-472.245	147.538	-0.148	-0.197
-471.230	-200.000	0.071	-0.392
-470.216	38.077	0.149	0.131
-469.201	-96.017	0.115	-0.030
-468.186	-191.386	0.122	0.001
-467.172	70.757	-0.094	0.097
-466.157	195.420	-0.072	0.108
-465.143	435.428	-0.050	0.108
-464.128	215.423	0.139	0.219
-463.113	-200.000	0.011	-0.266
-462.099	528.624	-0.072	-0.167
-461.084	23.986	-0.113	0.093
-460.070	-14.547	-0.209	-0.133
-459.055	-48.412	-0.285	0.136
-458.040	-200.000	-0.045	0.195
-457.026	336.849	0.103	-0.199
-456.011	-175.486	-0.095	0.003
-454.997	207.175	-0.073	-0.114
-453.982	90.583	-0.083	0.092
-452.968	-200.000	0.030	0.156
-451.953	127.384	-0.271	-0.341
-450.938	351.008	-0.018	-0.036
-449.924	-91.098	0.222	0.063
-448.909	800.000	0.047	0.131
-447.895	-200.000	-0.023	-0.323
-446.880	-200.000	0.028	-0.173
-445.865	511.407	-0.026	0.059
-444.851	-157.394	-0.262	0.016
-443.836	-73.834	-0.281	-0.101
-442.822	-99.168	-0.212	0.053
-441.807	-177.195	0.122	0.003
-440.792	-200.000	0.002	0.024
-439.778	587.335	0.041	0.100
-438.763	-200.000	-0.024	0.422
-437.749	-168.640	-0.092	0.003
-436.734	474.794	-0.143	0.320
-435.719	-192.020	-0.391	0.004
-434.705	47.693	0.189	-0.175
-433.690	-43.873	-0.093	0.047
-432.676	-200.000	-0.030	-0.213
-431.661	800.000	-0.050	0.149
-430.646	45.588	-0.311	0.285
-429.632	645.444	0.080	0.203
-428.617	-40.569	0.319	-0.164
-427.603	-185.195	0.012	0.000
-426.588	-167.655	-0.228	0.009
-425.573	-106.025	0.183	0.041
-424.559	-178.473	0.216	0.005
-423.544	-51.006	-0.208	0.097
-422.530	-200.000	0.005	0.044
-421.515	-200.000	0.025	0.117
-420.500	-194.030	0.189	0.002
-419.486	203.077	-0.126	0.193
-418.471	800.000	0.097	0.266
-417.457	-161.582	-0.393	0.020
-416.442	-77.036	-0.194	-0.067
-415.428	146.964	-0.104	-0.139
-414.413	52.301	-0.201	0.190
-413.398	196.784	0.323	0.487
-412.384	151.120	-0.143	-0.193
-411.369	-64.063	-0.162	-0.066
-410.355	113.902	-0.250	-0.301
-409.340	-86.631	0.177	-0.054
-408.325	-200.000	-0.081	0.373
-407.311	-200.000	-0.004	-0.373
-406.296	-132.511	0.077	-0.010
-405.282	-13.419	-0.322	-0.207
-404.267	106.113	0.056	0.066
-403.252	-58.199	-0.148	0.064
-402.238	4.987	0.107	0.078
-401.223	-68.062	0.452	-0.174
-400.209	-85.994	0.093	-0.028
-399.194	-0.080	-0.171	0.121
-398.179	-150.745	-0.238	0.018
-397.165	800.000	-0.075	0.313
-396.150	323.216	0.083	-0.156
-395.136	30.607	-0.133	0.113
-394.121	800.000	-0.119	-0.342
-393.106	-200.000	0.027	0.214
-392.092	0.651	0.138	-0.097
-391.077	-200.000	-0.004	-0.217
-390.063	-43.070	-0.027	-0.014
-389.048	75.402	0.182	0.190
-388.033	-33.177	0.184	0.101
-387.019	800.000	-0.110	0.315
-386.004	105.712	-0.078	0.091
-384.990	-120.253	0.261	-0.044
-383.975	327.925	-0.034	-0.065
-382.960	25.970	0.093	-0.076
-381.946	-200.000	0.022	0.258
-380.931	-99.818	-0.146	0.036
-379.917	-142.029	0.127	0.013
-378.902	204.682	0.099	-0.152
-377.888	-66.871	0.156	0.061
-376.873	-200.000	0.001	0.043
-375.858	-200.000	-0.081	-0.411
-374.844	83.813	0.287	0.309
-373.829	800.000	0.049	0.162
-372.815	-84.188	-0.262	-0.082
-371.800	-27.090	0.307	-0.177
-370.785	207.672	0.096	-0.148
-369.771	-44.474	0.069	0.034
-368.756	-200.000	0.005	0.083
-367.742	280.336	0.262	-0.462
-366.727	-200.000	-0.006	-0.162
-365.712	-40.336	0.191	-0.098
-364.698	-83.582	-0.358	0.113
-363.683	-111.777	0.245	0.049
-362.669	-102.762	0.158	-0.037
-361.654	341.745	0.122	-0.235
-360.639	-84.614	-0.240	0.075
-359.625	340.653	0.101	0.194
-358.610	785.850	0.015	-0.042
-357.596	-200.000	0.077	0.357
-356.581	-123.517	0.337	0.053
-355.566	-155.215	-0.061	0.004
-354.552	-43.519	-0.098	-0.049
-353.537	-137.502	0.529	-0.059
-352.523	111.751	-0.095	-0.114
-351.508	-99.293	-0.105	-0.026
-350.493	66.793	0.220	0.221
-349.479	344.015	0.062	0.121
-348.464	219.015	-0.096	-0.151
-347.450	800.000	-0.055	0.166
-346.435	261.648	0.104	0.177
-345.420	-140.546	-0.308	0.032
-344.406	117.885	0.109	-0.133
-343.391	-23.984	0.039	-0.023
-342.377	107.697	0.228	0.268
-341.362	-69.721	-0.101	0.038
-340.348	204.481	-0.151	-0.232
-339.333	-63.520	-0.185	0.075
-338.318	-115.172	0.173	0.032
-337.304	12.225	-0.202	-0.153
-336.289	56.380	-0.267	-0.256
-335.275	10.203	-0.159	0.120
-334.260	-92.855	-0.209	0.057
-333.245	-200.000	-0.027	0.339
-332.231	225.962	0.079	0.126
-331.216	-24.383	0.170	-0.100
-330.202	800.000	-0.049	0.139
-329.187	80.808	-0.046	0.049
-328.172	-200.000	-0.015	-0.086
-327.158	-200.000	-0.019	-0.207
-326.143	99.986	0.093	0.107
-325.129	54.881	0.123	-0.117
-324.114	361.471	0.114	-0.225
-323.099	243.031	0.050	-0.082
-322.085	-109.604	-0.080	-0.017
-321.070	-150.558	-0.107	0.008
-320.056	-200.000	0.016	-0.126
-319.041	-79.049	-0.254	-0.085
-318.026	-51.694	-0.224	0.103
-317.012	-200.000	0.025	0.384
-315.997	441.652	0.096	0.207
-314.983	-122.334	0.131	0.021
-313.968	-90.608	0.146	-0.042
-312.953	-2.641	0.075	0.051
-311.939	800.000	-0.080	-0.270
-310.924	-149.874	-0.120	0.009
-309.910	175.545	-0.070	0.101
-308.895	118.216	0.299	-0.363
-307.880	642.782	-0.090	0.226
-306.866	192.551	0.130	-0.193
-305.851	236.096	-0.069	-0.113
-304.837	195.247	-0.151	-0.225
-303.822	8.338	0.138	-0.102
-302.807	-107.505	0.291	-0.063
-301.793	-200.000	-0.023	-0.115
-300.778	-90.841	0.073	0.021
-299.764	-200.000	0.055	-0.498
-298.749	800.000	0.088	-0.285
-297.735	-52.505	-0.132	-0.060
-296.720	176.039	0.085	0.121
-295.705	-200.000	0.003	-0.045
-294.691	-174.623	0.103	0.003
-293.676	385.374	-0.131	-0.265
-292.662	262.282	0.040	-0.068
-291.647	142.804	-0.110	-0.144
-290.632	13.859	0.182	-0.140
-289.618	75.250	-0.058	-0.061
-288.603	800.000	0.055	0.184
-287.589	387.452	-0.167	0.340
-286.574	57.721	0.127	0.123
-285.559	-126.373	-0.286	-0.042
-284.545	7.818	0.014	-0.010
-283.530	437.709	-0.072	-0.153
-282.516	59.580	-0.026	-0.025
-281.501	799.188	-0.137	0.371
-280.486	561.711	-0.105	-0.250
-279.472	-147.053	0.138	0.012
-278.457	-97.497	0.311	0.080
-277.443	341.422	-0.082	0.157
-276.428	-69.550	0.064	-0.024
-275.413	-43.081	0.250	-0.125
-274.399	13.300	0.256	-0.195
-273.384	90.215	0.103	-0.113
-272.370	-0.238	-0.102	-0.071
-271.355	125.994	-0.137	-0.170
-270.340	-39.323	-0.106	-0.055
-269.326	-38.360	0.083	-0.043
-268.311	161.744	0.114	0.157
-267.297	31.064	-0.065	0.055
-266.282	-81.595	0.049	0.016
-265.267	290.533	-0.136	0.242
-264.253	124.865	0.075	-0.093
-263.238	-21.651	0.264	0.158
-262.224	-27.618	-0.289	0.165
-261.209	-39.308	-0.109	-0.056
-260.195	9.032	0.409	0.304
-259.180	305.832	-0.163	0.299
-258.165	750.235	-0.098	0.261
-257.151	175.495	0.080	-0.115
-256.136	-1.044	0.178	-0.124
-255.122	-130.612	-0.372	-0.049
-254.107	-200.000	0.018	-0.157
-253.092	-200.000	-0.040	0.322
-252.078	-200.000	0.013	0.142
-251.063	40.384	-0.056	0.050
-250.049	-55.841	-0.129	0.057
-249.034	-126.082	0.463	-0.068
-248.019	294.740	-0.095	0.170
-247.005	-48.624	-0.160	-0.075
-245.990	227.800	-0.049	-0.078
-244.976	-200.000	0.054	0.262
-243.961	-40.753	-0.231	-0.118
-242.946	-51.795	-0.207	0.095
-241.932	-26.946	0.285	-0.164
-240.917	-200.000	0.007	-0.074
-239.903	-200.000	-0.029	0.251
-238.888	614.727	-0.077	0.189
-237.873	707.217	-0.239	0.620
-236.859	-64.172	0.067	0.027
-235.844	159.349	0.114	-0.156
-234.830	-200.000	0.008	-0.412
-233.815	-78.682	0.096	-0.032
-232.800	107.661	0.185	0.216
-231.786	-200.000	0.044	-0.510
-230.771	-200.000	0.008	-0.092
-229.757	165.816	-0.140	0.194
-228.742	-200.000	-0.021	0.114
-227.727	800.000	0.084	-0.323
-226.713	800.000	-0.064	-0.202
-225.698	-140.381	-0.309	-0.032
-224.684	-200.000	-0.004	-0.128
-223.669	-200.000	-0.032	-0.241
-222.655	-73.236	-0.014	-0.005
-221.640	-29.908	0.098	-0.055
-220.625	-144.613	0.300	0.027
-219.611	169.772	0.119	-0.167
-218.596	469.868	-0.123	-0.270
-217.582	-100.634	-0.397	-0.096
-216.567	210.814	-0.156	-0.240
-215.552	-176.540	0.103	-0.003
-214.538	-50.073	0.351	0.163
-213.523	-103.095	0.086	0.020
-212.509	-200.000	0.053	0.324
-211.494	367.887	-0.062	0.124
-210.479	372.058	-0.025	0.050
-209.465	-9.722	0.075	0.049
-208.450	-200.000	-0.006	-0.234
-207.436	12.515	-0.148	-0.112
-206.421	-61.852	0.249	-0.102
-205.406	-65.452	-0.202	0.079
-204.392	-66.072	-0.065	-0.026
-203.377	75.758	0.245	0.254
-202.363	13.172	0.112	0.085
-201.348	-200.000	0.026	0.421
-200.333	137.140	-0.100	-0.129
-199.319	-61.296	0.197	0.081
-198.304	96.991	0.091	0.103
-197.290	42.319	-0.066	0.059
-196.275	134.695	-0.243	-0.309
-195.260	-15.814	0.157	0.098
-194.246	640.920	0.134	0.336
-193.231	-8.486	0.179	-0.118
-192.217	-182.832	-0.162	0.003
-191.202	97.211	0.215	0.242
-190.187	800.000	0.074	0.234
-189.173	800.000	0.040	0.161
-188.158	37.445	-0.048	0.042
-187.144	132.227	0.169	0.213
-186.129	-75.980	0.150	-0.052
-185.114	183.087	0.032	0.046
-184.100	57.029	0.206	0.197
-183.085	102.516	-0.090	-0.103
-182.071	-4.457	0.233	0.158
-181.056	-104.469	-0.108	0.025
-180.042	166.316	-0.107	-0.149
-179.027	35.402	0.215	0.185
-178.012	41.884	0.110	0.098
-176.998	401.582	-0.179	0.369
-175.983	-135.107	0.263	-0.031
-174.969	800.000	-0.096	0.322
-173.954	-200.000	0.017	0.215
-172.939	-22.788	0.234	0.139
-171.925	-200.000	-0.006	-0.174
-170.910	-24.863	-0.129	0.075
-169.896	-20.049	-0.233	-0.141
-168.881	72.328	-0.146	-0.150
-167.866	757.695	-0.038	-0.100
-166.852	-176.207	-0.084	-0.002
-165.837	-56.943	-0.157	0.068
-164.823	127.014	-0.285	-0.354
-163.808	-120.961	0.062	0.010
-162.793	-43.744	0.083	-0.041
-161.779	359.485	-0.048	0.094
-160.764	-66.142	0.127	0.050
-159.750	117.385	-0.194	0.234
-158.735	-156.135	-0.076	0.005
-157.720	-40.204	0.254	0.129
-156.706	89.637	-0.129	0.141
-155.691	-79.632	0.128	0.042
-154.677	-137.203	-0.130	-0.014
-153.662	-74.805	-0.081	0.029
-152.647	-168.883	-0.220	0.008
-151.633	0.986	0.346	0.243
-150.618	-12.677	-0.137	-0.087
-149.604	800.000	-0.034	-0.121
-148.589	-127.930	0.155	0.022
-147.574	9.942	-0.392	-0.291
-146.560	-92.550	0.326	-0.090
-145.545	171.757	0.166	-0.233
-144.531	-100.623	0.171	-0.041
-143.516	6.319	-0.189	0.138
-142.502	560.993	0.105	0.249
-141.487	155.124	0.131	-0.177
-140.472	-44.660	0.135	-0.066
-139.458	-122.334	-0.237	0.038
-138.443	800.000	-0.013	0.049
-137.429	-75.372	0.262	0.091
-136.414	615.719	-0.074	0.181
-135.399	-59.829	-0.245	0.103
-134.385	142.014	-0.112	0.145
-133.370	-23.370	0.246	-0.145
-132.356	800.000	0.053	-0.145
-131.341	-47.247	-0.042	0.020
-130.326	101.438	-0.130	0.148
-129.312	-106.254	-0.392	-0.086
-128.297	-114.208	0.046	0.009
-127.283	-69.648	-0.227	-0.085
-126.268	-130.417	0.393	0.052
-125.253	-148.302	0.138	-0.011
-124.239	9.207	0.300	-0.222
-123.224	210.763	-0.074	0.115
-122.210	-164.548	0.295	0.013
-121.195	60.886	0.243	-0.236
