DTS Sentinel unit serial number:	SN413079Multiplexer serial number:	ORYXHardware model number:	OX4-SRSoftware version number:	ORYX F/W v4.00 Oryx Data Collector v3.7.2.0data status	okinstallation	princeton_trtdifferential loss correction	single-endedforward channel	channel 3reverse channel	N/Adate	2019/09/12time	22:04:35forward acquisition time	60.00reverse acquisition time	0.00gamma	496.2192k internal	0.2326k external	0.2326temperature offset calibration	1.0135default loss term (dB/km)	0.3790temperature slope calibration	1.0000multiplexer offset coefficient	1.0000multiplexer slope coefficient	1.0000fibre end	0.00T internal ref (°C)	30.02T ext. ref 1 (°C)	3.74T ext. ref 2 (°C)	24.58length (m)	temperature (°C)	Stokes	anti-Stokes-747.200	151.480	0.079	-0.109
-746.185	-84.697	0.353	-0.112
-745.171	9.230	0.166	-0.127
-744.156	252.737	-0.161	-0.277
-743.142	177.409	-0.103	0.151
-742.127	-38.146	-0.181	0.097
-741.112	800.000	-0.122	-0.475
-740.098	-200.000	0.009	0.245
-739.083	-71.892	0.092	-0.035
-738.069	-134.781	-0.110	-0.013
-737.054	125.674	0.052	-0.066
-736.039	94.345	-0.075	-0.086
-735.025	571.188	0.105	0.258
-734.010	800.000	-0.029	0.090
-732.996	-200.000	0.038	-0.242
-731.981	-47.384	-0.140	-0.069
-730.966	-200.000	-0.040	-0.183
-729.952	-32.842	0.338	0.189
-728.937	-0.159	0.035	0.025
-727.923	9.412	-0.228	0.174
-726.908	-200.000	0.026	-0.120
-725.894	616.172	-0.119	-0.302
-724.879	529.824	0.083	-0.198
-723.864	-39.156	0.095	0.050
-722.850	-14.349	0.169	0.109
-721.835	-91.320	-0.385	0.111
-720.821	248.467	-0.082	-0.139
-719.806	38.104	0.209	-0.188
-718.791	143.544	0.056	0.075
-717.777	82.336	0.121	0.132
-716.762	-98.709	0.131	-0.034
-715.748	-92.530	0.296	0.084
-714.733	800.000	0.037	0.129
-713.718	-8.756	0.148	0.100
-712.704	108.953	-0.278	-0.334
-711.689	800.000	-0.064	-0.277
-710.675	-200.000	-0.014	-0.408
-709.660	-100.333	0.050	-0.013
-708.645	-119.102	-0.237	-0.042
-707.631	-43.226	-0.218	-0.111
-706.616	108.763	-0.206	0.248
-705.602	-78.205	0.095	0.033
-704.587	-98.586	-0.244	-0.063
-703.572	51.035	-0.226	0.216
-702.558	37.634	0.077	0.068
-701.543	-200.000	-0.028	-0.189
-700.529	-56.267	-0.068	-0.030
-699.514	-46.639	-0.270	-0.133
-698.499	800.000	0.062	-0.190
-697.485	-127.768	0.094	-0.014
-696.470	70.421	-0.297	0.309
-695.456	17.427	-0.183	0.146
-694.441	-107.877	0.297	0.065
-693.426	12.365	-0.188	-0.146
-692.412	1.935	-0.121	-0.088
-691.397	-4.618	0.161	0.112
-690.383	-112.520	-0.108	0.022
-689.368	590.795	-0.042	-0.104
-688.354	-54.386	0.170	0.078
-687.339	-200.000	0.014	0.121
-686.324	-14.404	0.158	0.102
-685.310	-97.370	0.212	0.056
-684.295	-37.183	-0.317	0.171
-683.281	-137.705	-0.275	0.031
-682.266	500.780	-0.142	-0.329
-681.251	18.185	-0.106	-0.085
-680.237	800.000	-0.053	0.186
-679.222	460.066	0.089	-0.200
-678.208	14.900	0.309	0.243
-677.193	-200.000	-0.019	-0.361
-676.178	406.133	-0.050	0.107
-675.164	-200.000	0.005	0.108
-674.149	36.569	-0.162	0.144
-673.135	179.675	-0.111	0.163
-672.120	-200.000	0.040	-0.191
-671.105	348.563	0.071	0.142
-670.091	-200.000	0.031	-0.429
-669.076	210.409	-0.169	0.266
-668.062	-111.850	0.156	-0.032
-667.047	-45.395	-0.256	0.128
-666.032	-74.163	-0.284	-0.103
-665.018	-200.000	0.017	-0.148
-664.003	-200.000	-0.035	0.169
-662.989	0.213	-0.221	0.158
-661.974	105.956	-0.128	-0.152
-660.959	113.303	-0.130	-0.159
-659.945	214.715	0.236	-0.376
-658.930	-106.202	-0.193	0.044
-657.916	208.678	0.187	-0.294
-656.901	388.572	-0.289	-0.601
-655.886	-17.440	0.278	0.176
-654.872	-200.000	-0.003	0.032
-653.857	400.274	-0.141	-0.298
-652.843	800.000	-0.061	0.225
-651.828	-106.521	-0.062	-0.014
-650.814	800.000	0.034	0.110
-649.799	-34.461	0.073	0.040
-648.784	-118.071	0.134	0.024
-647.770	52.898	-0.092	-0.088
-646.755	63.303	0.218	0.220
-645.741	128.068	-0.175	-0.224
-644.726	-53.311	0.187	-0.086
-643.711	-50.311	0.304	0.144
-642.697	49.984	-0.232	-0.220
-641.682	-200.000	0.013	-0.107
-640.668	95.435	0.145	-0.166
-639.653	-200.000	0.027	-0.166
-638.638	-117.375	-0.307	0.056
-637.624	-56.678	-0.039	0.017
-636.609	593.448	-0.048	-0.120
-635.595	59.232	-0.267	-0.264
-634.580	213.369	-0.130	-0.206
-633.565	2.519	-0.212	-0.154
-632.551	30.967	0.091	0.078
-631.536	-200.000	-0.013	-0.092
-630.522	151.593	0.188	-0.258
-629.507	15.378	-0.221	0.174
-628.492	-17.489	0.396	0.250
-627.478	-47.914	0.085	0.041
-626.463	201.538	-0.105	0.162
-625.449	-200.000	-0.015	-0.119
-624.434	43.060	-0.197	-0.180
-623.419	-48.881	0.087	-0.042
-622.405	-58.454	-0.228	-0.100
-621.390	160.976	0.085	-0.119
-620.376	-110.964	-0.111	0.023
-619.361	-36.412	-0.227	-0.123
-618.346	395.404	-0.074	0.155
-617.332	800.000	-0.060	0.203
-616.317	35.884	-0.100	0.088
-615.303	-36.608	0.316	0.170
-614.288	256.330	0.106	0.182
-613.273	20.484	-0.044	0.036
-612.259	-200.000	-0.013	-0.132
-611.244	-200.000	-0.004	-0.270
-610.230	800.000	0.050	-0.156
-609.215	51.870	0.092	0.088
-608.201	57.299	0.094	0.092
-607.186	79.835	-0.182	0.196
-606.171	-89.041	0.278	0.083
-605.157	-153.662	0.091	-0.006
-604.142	-61.229	-0.202	-0.085
-603.128	85.543	-0.064	0.071
-602.113	-200.000	-0.027	0.261
-601.098	-43.657	-0.065	0.033
-600.084	162.140	0.244	0.343
-599.069	768.371	-0.045	0.123
-598.055	54.344	0.113	0.109
-597.040	-4.460	-0.186	-0.129
-596.025	357.448	0.097	0.193
-595.011	800.000	0.112	0.476
-593.996	800.000	0.069	0.195
-592.982	-17.666	-0.283	0.178
-591.967	101.718	0.279	0.326
-590.952	-200.000	0.009	0.199
-589.938	-162.563	-0.389	-0.019
-588.923	-200.000	-0.007	-0.450
-587.909	-80.934	0.368	-0.122
-586.894	105.098	-0.283	0.335
-585.879	192.420	-0.080	0.120
-584.865	420.660	0.162	-0.347
-583.850	-53.024	0.173	-0.080
-582.836	-54.860	-0.299	-0.135
-581.821	254.468	-0.149	0.256
-580.806	62.598	0.102	0.102
-579.792	-80.364	-0.240	0.080
-578.777	800.000	-0.102	-0.360
-577.763	-109.139	0.160	-0.034
-576.748	-200.000	0.034	-0.197
-575.733	299.683	0.059	-0.110
-574.719	87.983	0.116	-0.129
-573.704	221.321	0.045	0.072
-572.690	188.628	-0.115	0.173
-571.675	800.000	-0.015	0.060
-570.661	-98.446	0.086	-0.022
-569.646	374.985	0.091	-0.187
-568.631	283.392	0.243	0.437
-567.617	800.000	-0.033	0.115
-566.602	-6.367	-0.204	-0.139
-565.588	-183.263	-0.275	-0.005
-564.573	24.480	-0.115	-0.095
-563.558	-200.000	0.002	0.152
-562.544	-200.000	0.011	-0.099
-561.529	584.723	-0.010	0.023
-560.515	628.481	-0.096	0.242
-559.500	-150.919	0.193	0.015
-558.485	699.430	0.149	-0.392
-557.471	62.447	-0.092	0.092
-556.456	-200.000	-0.061	0.359
-555.442	-72.477	-0.268	0.099
-554.427	-41.950	0.214	-0.110
-553.412	-200.000	-0.001	0.512
-552.398	-88.788	0.038	0.011
-551.383	44.585	0.010	0.009
-550.369	-139.538	-0.337	-0.036
-549.354	-200.000	-0.044	0.264
-548.339	-109.667	-0.336	0.071
-547.325	-200.000	-0.003	-0.109
-546.310	-200.000	-0.008	0.038
-545.296	-2.073	-0.176	-0.123
-544.281	800.000	0.025	-0.100
-543.266	145.499	-0.075	-0.101
-542.252	-200.000	-0.049	-0.237
-541.237	-94.565	0.152	-0.041
-540.223	12.748	-0.057	-0.044
-539.208	-200.000	-0.012	-0.129
-538.193	-51.102	0.097	0.045
-537.179	-96.650	-0.327	0.086
-536.164	161.731	-0.182	0.255
-535.150	-200.000	-0.006	-0.296
-534.135	27.017	-0.171	0.144
-533.121	239.781	-0.052	-0.087
-532.106	-200.000	-0.025	-0.216
-531.091	800.000	0.028	-0.091
-530.077	422.714	0.111	0.238
-529.062	591.110	0.019	0.048
-528.048	-72.334	-0.246	-0.091
-527.033	94.733	-0.096	-0.110
-526.018	269.915	0.226	-0.397
-525.004	-200.000	-0.080	0.466
-523.989	-92.574	0.219	0.061
-522.975	-89.909	0.290	-0.085
-521.960	-123.396	-0.216	0.034
-520.945	-99.423	0.285	-0.072
-519.931	-52.758	-0.120	0.055
-518.916	-21.544	-0.305	-0.186
-517.902	311.911	-0.097	-0.182
-516.887	2.473	-0.194	0.141
-515.872	388.872	-0.188	-0.389
-514.858	-90.982	0.095	0.027
-513.843	-158.259	0.101	0.006
-512.829	449.864	-0.031	0.068
-511.814	36.739	0.201	-0.177
-510.799	168.857	-0.154	0.219
-509.785	-94.826	-0.342	-0.093
-508.770	-86.038	-0.268	-0.083
-507.756	-188.590	-0.284	0.004
-506.741	-37.151	0.228	-0.122
-505.726	-200.000	-0.002	-0.101
-504.712	-200.000	-0.031	-0.140
-503.697	800.000	-0.075	-0.237
-502.683	-200.000	0.017	0.372
-501.668	800.000	-0.018	0.071
-500.653	-76.239	-0.111	-0.039
-499.639	-200.000	0.013	-0.316
-498.624	-175.997	-0.473	0.013
-497.610	-50.761	0.284	-0.134
-496.595	1.386	0.272	-0.195
-495.581	-79.868	-0.247	-0.083
-494.566	-40.472	0.294	0.153
-493.551	-200.000	-0.033	0.194
-492.537	18.731	0.160	0.128
-491.522	193.637	-0.094	-0.142
-490.508	276.673	-0.092	0.164
-489.493	306.669	-0.013	0.024
-488.478	-200.000	-0.001	0.028
-487.464	-200.000	-0.004	-0.036
-486.449	58.790	0.032	-0.031
-485.435	800.000	0.093	-0.297
-484.420	33.614	0.063	-0.055
-483.405	206.949	0.091	-0.142
-482.391	-200.000	0.026	-0.188
-481.376	-200.000	-0.070	-0.408
-480.362	-36.773	-0.154	-0.083
-479.347	445.858	0.057	-0.125
-478.332	-200.000	-0.026	-0.213
-477.318	-26.093	-0.054	0.032
-476.303	-48.605	-0.211	0.101
-475.289	-200.000	-0.025	-0.336
-474.274	-86.225	-0.334	-0.103
-473.259	800.000	0.023	0.086
-472.245	43.128	-0.169	-0.154
-471.230	-145.541	0.127	0.011
-470.216	213.224	0.188	0.296
-469.201	-200.000	0.058	-0.258
-468.186	108.792	-0.238	0.284
-467.172	-200.000	-0.006	0.195
-466.157	-85.091	0.143	0.045
-465.143	33.083	0.197	0.170
-464.128	58.691	0.397	-0.389
-463.113	-134.589	0.134	-0.016
-462.099	-200.000	0.063	0.312
-461.084	27.475	0.046	0.039
-460.070	-95.823	-0.037	0.010
-459.055	33.146	0.266	-0.230
-458.040	-82.373	-0.361	-0.117
-457.026	-40.770	-0.208	-0.107
-456.011	-200.000	-0.018	-0.262
-454.997	-87.888	0.194	-0.058
-453.982	-66.371	0.263	0.104
-452.968	286.499	-0.137	-0.247
-451.953	-55.126	-0.461	-0.207
-450.938	-83.324	0.172	-0.055
-449.924	259.434	-0.087	0.150
-448.909	-55.340	0.248	-0.111
-447.895	-132.161	-0.160	-0.021
-446.880	-88.309	-0.271	0.081
-445.865	-35.518	-0.360	0.195
-444.851	-4.834	0.151	-0.104
-443.836	33.484	0.132	0.114
-442.822	-41.431	0.072	0.037
-441.807	-200.000	0.015	-0.309
-440.792	-49.553	0.488	-0.232
-439.778	641.498	0.067	0.170
-438.763	345.943	0.027	0.053
-437.749	-200.000	0.024	-0.169
-436.734	32.792	-0.230	0.199
-435.719	-200.000	-0.019	-0.158
-434.705	76.320	0.137	0.144
-433.690	-6.077	0.082	0.056
-432.676	9.351	0.196	-0.148
-431.661	192.697	0.095	0.143
-430.646	-67.385	0.339	0.133
-429.632	60.282	0.320	0.315
-428.617	384.528	-0.067	0.138
-427.603	800.000	-0.148	-0.495
-426.588	800.000	0.160	0.465
-425.573	183.846	-0.156	-0.230
-424.559	-118.904	-0.185	0.032
-423.544	102.130	0.145	-0.169
-422.530	-59.998	-0.206	0.088
-421.515	14.620	-0.148	0.115
-420.500	-96.365	0.199	-0.053
-419.486	-70.174	0.200	-0.076
-418.471	-128.417	0.053	-0.007
-417.457	-200.000	0.010	-0.120
-416.442	-20.751	-0.175	0.107
-415.428	494.146	-0.066	0.151
-414.413	-11.631	-0.268	0.175
-413.398	1.576	0.115	0.082
-412.384	-10.754	0.142	0.093
-411.369	-141.800	0.177	0.018
-410.355	91.604	-0.169	0.189
-409.340	-200.000	-0.038	-0.325
-408.325	274.795	0.112	-0.198
-407.311	-2.650	0.475	-0.331
-406.296	800.000	0.040	0.141
-405.282	180.048	-0.296	-0.432
-404.267	78.867	0.237	-0.252
-403.252	138.233	0.073	0.095
-402.238	283.835	-0.103	-0.184
-401.223	-200.000	-0.011	0.087
-400.209	-2.024	-0.055	-0.038
-399.194	-185.354	-0.297	-0.005
-398.179	190.394	0.117	0.174
-397.165	164.381	-0.088	0.124
-396.150	499.427	0.024	0.054
-395.136	-23.308	0.193	-0.115
-394.121	22.565	0.286	0.233
-393.106	-21.838	-0.172	0.104
-392.092	800.000	0.064	0.183
-391.077	-114.718	-0.182	0.035
-390.063	-131.545	0.030	0.004
-389.048	-97.936	0.155	-0.040
-388.033	-47.456	0.123	0.059
-387.019	800.000	0.029	0.106
-386.004	258.260	0.075	0.129
-384.990	-98.952	0.137	0.035
-383.975	-111.361	-0.168	-0.034
-382.960	245.579	0.106	-0.178
-381.946	-16.455	-0.247	0.156
-380.931	128.304	-0.079	0.100
-379.917	-114.388	0.212	0.041
-378.902	73.609	-0.211	0.220
-377.888	-166.286	0.208	0.009
-376.873	-44.506	0.184	0.091
-375.858	99.058	0.254	0.292
-374.844	-182.207	0.218	0.004
-373.829	332.232	-0.041	0.078
-372.815	-114.926	-0.026	-0.005
-371.800	636.804	-0.019	0.048
-370.785	716.943	0.128	-0.337
-369.771	-12.827	-0.058	0.038
-368.756	-142.408	0.145	0.014
-367.742	85.394	0.090	0.098
-366.727	450.788	0.064	0.141
-365.712	50.725	-0.080	-0.076
-364.698	-63.527	-0.034	-0.014
-363.683	-85.628	0.273	-0.084
-362.669	-138.951	0.062	0.007
-361.654	-182.004	0.129	-0.002
-360.639	21.148	0.238	0.192
-359.625	800.000	-0.035	0.119
-358.610	-53.936	0.346	-0.157
-357.596	-136.098	-0.322	-0.038
-356.581	-86.621	0.235	-0.072
-355.566	-200.000	-0.002	0.205
-354.552	800.000	0.016	-0.061
-353.537	30.138	-0.159	-0.134
-352.523	511.636	0.108	-0.250
-351.508	800.000	-0.034	0.136
-350.493	96.560	-0.152	0.172
-349.479	-200.000	-0.035	-0.187
-348.464	383.034	0.026	-0.052
-347.450	293.650	-0.174	-0.315
-346.435	61.034	0.247	-0.244
-345.420	-133.169	0.147	0.018
-344.406	-87.720	0.058	0.017
-343.391	-83.254	-0.111	0.035
-342.377	4.139	0.112	-0.081
-341.362	129.372	0.086	0.110
-340.348	440.709	0.091	-0.197
-339.333	-200.000	0.040	0.610
-338.318	-125.328	-0.198	0.030
-337.304	-33.731	0.284	0.156
-336.289	-200.000	0.010	-0.065
-335.275	-15.073	-0.291	0.185
-334.260	332.458	0.092	0.177
-333.245	-84.742	-0.360	-0.112
-332.231	-51.826	0.263	0.122
-331.216	-16.615	-0.354	-0.222
-330.202	37.243	0.191	-0.168
-329.187	25.730	0.249	0.205
-328.172	514.745	0.049	0.114
-327.158	325.172	-0.169	0.320
-326.143	-200.000	0.019	0.126
-325.129	-80.432	0.147	-0.049
-324.114	39.880	-0.122	-0.108
-323.099	220.658	0.045	-0.071
-322.085	35.374	-0.112	0.097
-321.070	341.278	0.090	0.174
-320.056	800.000	-0.033	0.139
-319.041	800.000	-0.066	-0.223
-318.026	482.044	-0.028	-0.063
-317.012	-150.164	-0.319	-0.025
-315.997	561.000	-0.057	-0.136
-314.983	87.798	0.138	0.152
-313.968	296.376	-0.078	0.141
-312.953	-139.204	-0.132	-0.014
-311.939	-111.490	0.219	0.044
-310.924	-21.928	0.332	-0.200
-309.910	182.743	0.062	0.091
-308.895	-91.364	-0.112	0.032
-307.880	800.000	0.068	0.238
-306.866	-200.000	0.042	0.297
-305.851	73.535	0.117	-0.121
-304.837	-31.464	-0.095	-0.053
-303.822	-200.000	-0.011	-0.063
-302.807	-93.640	0.443	-0.121
-301.793	134.355	0.254	0.327
-300.778	-108.133	0.322	0.069
-299.764	70.526	0.083	-0.085
-298.749	800.000	0.040	0.170
-297.735	-200.000	0.016	-0.460
-296.720	-63.903	0.096	0.039
-295.705	-163.203	-0.154	0.007
-294.691	-15.692	0.098	0.062
-293.676	-200.000	0.226	-0.001
-292.662	5.780	0.050	0.037
-291.647	31.671	-0.224	-0.191
-290.632	800.000	-0.102	-0.341
-289.618	-200.000	-0.065	0.389
-288.603	49.234	0.095	0.088
-287.589	67.627	-0.102	-0.103
-286.574	800.000	0.076	-0.214
-285.559	-169.393	0.064	-0.002
-284.545	132.899	-0.283	0.362
-283.530	-168.068	-0.144	-0.006
-282.516	-35.274	-0.248	-0.134
-281.501	800.000	0.097	-0.319
-280.486	-9.303	0.252	-0.167
-279.472	-172.904	-0.186	-0.006
-278.457	-19.686	-0.334	0.205
-277.443	800.000	-0.092	0.281
-276.428	-3.755	0.288	0.198
-275.413	-14.412	-0.240	0.153
-274.399	-1.977	0.320	0.222
-273.384	-173.589	0.336	0.010
-272.370	-200.000	-0.010	-0.333
-271.355	-155.553	-0.452	0.029
-270.340	760.470	-0.027	0.074
-269.326	42.125	0.075	-0.067
-268.311	340.854	-0.056	0.108
-267.297	75.797	0.167	-0.174
-266.282	-136.144	-0.360	0.042
-265.267	-69.996	-0.235	0.089
-264.253	20.248	0.064	-0.052
-263.238	-38.114	-0.237	0.125
-262.224	184.147	0.141	0.207
-261.209	-200.000	0.006	-0.148
-260.195	-50.527	0.498	0.232
-259.180	800.000	0.082	-0.238
-258.165	-123.302	-0.229	-0.036
-257.151	-80.905	0.150	-0.049
-256.136	628.485	-0.037	0.093
-255.122	-74.760	-0.187	-0.066
-254.107	588.954	0.109	-0.266
-253.092	228.813	-0.124	0.201
-252.078	220.993	0.077	0.123
-251.063	-128.624	-0.273	-0.038
-250.049	-200.000	0.036	0.371
-249.034	-200.000	0.001	0.053
-248.019	-70.744	-0.231	0.086
-247.005	-200.000	0.063	0.301
-245.990	224.749	-0.197	0.315
-244.976	-148.273	0.156	-0.013
-243.961	380.873	0.062	-0.125
-242.946	-200.000	-0.050	-0.401
-241.932	-151.699	0.494	0.036
-240.917	-139.062	-0.138	0.015
-239.903	64.088	0.121	-0.121
-238.888	-200.000	0.012	0.180
-237.873	84.136	0.134	-0.145
-236.859	800.000	0.042	0.131
-235.844	130.462	0.232	0.294
-234.830	-156.879	0.241	-0.015
-233.815	800.000	-0.079	-0.281
-232.800	-112.610	-0.167	0.033
-231.786	55.457	-0.109	0.104
-230.771	781.898	0.126	-0.342
-229.757	-200.000	-0.009	0.099
-228.742	21.195	-0.212	-0.170
-227.727	23.972	0.258	0.211
-226.713	-37.817	-0.162	0.085
-225.698	-49.471	-0.213	0.100
-224.684	170.220	0.057	-0.080
-223.669	10.867	-0.157	0.118
-222.655	46.687	-0.158	0.145
-221.640	-118.998	0.351	-0.061
-220.625	-22.240	-0.112	0.067
-219.611	-148.510	0.207	0.017
-218.596	-88.674	0.306	0.090
-217.582	380.750	0.106	-0.215
-216.567	-95.102	0.142	0.038
-215.552	-200.000	-0.013	0.061
-214.538	-124.743	0.138	0.021
-213.523	119.385	0.132	-0.162
-212.509	-200.000	-0.040	-0.578
-211.494	29.486	-0.129	0.109
-210.479	-11.875	0.147	0.095
-209.465	699.595	-0.108	-0.281
-208.450	14.184	-0.216	0.166
-207.436	23.429	0.232	0.188
-206.421	800.000	0.028	0.096
-205.406	-28.210	0.265	-0.151
-204.392	606.846	-0.073	-0.180
-203.377	-23.420	-0.430	0.255
-202.363	11.404	0.090	-0.068
-201.348	-200.000	0.062	-0.288
-200.333	152.964	-0.259	-0.349
-199.319	-106.944	-0.181	-0.040
-198.304	-74.531	0.233	-0.083
-197.290	-56.059	-0.143	0.063
-196.275	-200.000	0.000	-0.238
-195.260	-200.000	-0.011	-0.169
-194.246	-2.246	0.089	0.062
-193.231	73.310	-0.068	-0.070
-192.217	491.973	-0.143	-0.322
-191.202	-148.197	-0.235	-0.019
-190.187	-129.727	-0.137	0.019
-189.173	-200.000	0.021	0.145
-188.158	-67.777	0.142	0.055
-187.144	800.000	0.099	-0.281
-186.129	438.684	-0.132	0.285
-185.114	101.672	0.098	0.112
-184.100	-47.019	0.422	0.203
-183.085	-194.056	-0.504	0.004
-182.071	141.298	-0.115	0.150
-181.056	124.952	-0.263	0.327
-180.042	-200.000	-0.017	0.385
-179.027	222.672	-0.099	0.157
-178.012	-60.681	-0.075	-0.032
-176.998	-200.000	0.039	0.395
-175.983	-113.917	-0.195	0.037
-174.969	-200.000	0.031	-0.368
-173.954	-200.000	0.029	-0.308
-172.939	-123.347	-0.102	0.016
-171.925	-200.000	-0.008	-0.135
-170.910	-46.249	0.104	-0.050
-169.896	19.543	0.232	0.184
-168.881	-200.000	0.100	0.474
-167.866	70.214	-0.355	0.362
-166.852	197.851	0.124	-0.187
-165.837	147.532	0.148	-0.196
-164.823	-200.000	-0.053	-0.246
-163.808	-200.000	-0.003	0.251
-162.793	547.886	0.088	-0.207
-161.779	800.000	0.055	-0.221
-160.764	-39.162	-0.241	0.125
-159.750	104.387	-0.031	-0.036
-158.735	394.635	0.030	-0.063
-157.720	-120.307	-0.205	-0.034
-156.706	800.000	-0.054	-0.215
-155.691	67.367	-0.190	-0.191
-154.677	-200.000	-0.021	-0.263
-153.662	525.620	-0.087	0.203
-152.647	-15.436	-0.091	-0.057
-151.633	196.325	0.054	-0.081
-150.618	44.737	0.096	0.087
-149.604	256.481	-0.182	0.308
-148.589	369.480	0.051	-0.101
-147.574	573.354	0.061	-0.146
-146.560	117.912	0.126	0.153
-145.545	-0.493	-0.152	-0.107
-144.531	-92.681	0.209	0.058
-143.516	84.996	0.171	-0.184
-142.502	-105.012	-0.107	-0.024
-141.487	10.506	0.345	0.259
-140.472	-150.414	-0.148	0.011
-139.458	76.708	-0.060	-0.063
-138.443	28.314	-0.205	-0.171
-137.429	-41.801	0.305	-0.154
-136.414	-180.149	-0.195	-0.004
-135.399	88.741	0.071	0.078
-134.385	259.698	-0.188	-0.319
-133.370	-200.000	-0.019	0.151
-132.356	-1.547	-0.018	0.013
-131.341	-112.558	-0.188	-0.037
-130.326	-181.500	-0.226	-0.004
-129.312	-7.142	-0.159	-0.106
-128.297	607.405	0.119	0.292
-127.283	-19.774	0.139	-0.085
-126.268	-200.000	0.054	0.324
-125.253	-21.724	-0.184	-0.110
-124.239	126.304	-0.291	0.363
-123.224	-123.437	0.103	0.016
-122.210	35.515	-0.286	0.247
-121.195	-200.000	0.020	-0.184
-120.180	8.262	0.106	0.078
