DTS Sentinel unit serial number:	SN413079Multiplexer serial number:	ORYXHardware model number:	OX4-SRSoftware version number:	ORYX F/W v4.00 Oryx Data Collector v3.7.2.0data status	okinstallation	princeton_trtdifferential loss correction	single-endedforward channel	channel 3reverse channel	N/Adate	2019/09/13time	00:48:35forward acquisition time	60.00reverse acquisition time	0.00gamma	496.2192k internal	0.2331k external	0.2331temperature offset calibration	1.0118default loss term (dB/km)	0.3790temperature slope calibration	1.0000multiplexer offset coefficient	1.0000multiplexer slope coefficient	1.0000fibre end	0.00T internal ref (°C)	28.19T ext. ref 1 (°C)	3.65T ext. ref 2 (°C)	22.69length (m)	temperature (°C)	Stokes	anti-Stokes-747.200	-80.296	-0.174	0.059
-746.185	129.461	0.147	-0.189
-745.171	277.002	-0.171	0.307
-744.156	-200.000	-0.052	0.268
-743.142	-151.723	0.128	0.009
-742.127	302.388	0.035	0.066
-741.112	-21.120	0.055	-0.034
-740.098	-98.095	0.107	0.028
-739.083	-39.033	0.160	0.085
-738.069	800.000	-0.037	-0.104
-737.054	-200.000	-0.023	0.446
-736.039	800.000	0.062	0.229
-735.025	633.034	0.025	0.064
-734.010	-171.634	-0.429	-0.014
-732.996	800.000	0.030	-0.122
-731.981	79.618	-0.100	-0.108
-730.966	800.000	-0.061	0.204
-729.952	-200.000	0.006	0.049
-728.937	54.254	-0.164	0.158
-727.923	19.745	-0.129	0.104
-726.908	561.509	-0.050	-0.122
-725.894	-129.609	-0.517	0.072
-724.879	648.512	-0.038	0.097
-723.864	800.000	-0.037	-0.121
-722.850	38.419	0.073	0.066
-721.835	-200.000	0.065	-0.342
-720.821	-17.825	-0.186	-0.118
-719.806	-200.000	0.003	0.103
-718.791	-200.000	-0.003	-0.142
-717.777	-3.047	-0.179	-0.125
-716.762	-200.000	0.021	-0.174
-715.748	174.621	-0.203	-0.295
-714.733	-160.745	0.191	0.010
-713.718	479.705	-0.064	0.146
-712.704	-76.217	-0.188	0.067
-711.689	137.080	-0.115	-0.151
-710.675	-51.328	-0.018	-0.009
-709.660	-27.582	0.299	0.174
-708.645	-56.336	-0.321	0.143
-707.631	800.000	0.047	-0.151
-706.616	-26.715	-0.259	0.152
-705.602	24.917	-0.153	-0.128
-704.587	800.000	-0.114	-0.318
-703.572	-73.348	-0.386	0.142
-702.558	-159.311	0.228	-0.013
-701.543	281.662	-0.026	0.048
-700.529	-180.385	-0.045	-0.001
-699.514	800.000	-0.028	-0.083
-698.499	476.457	-0.121	-0.275
-697.485	1.228	0.180	-0.130
-696.470	-110.221	-0.256	0.054
-695.456	256.345	0.092	-0.158
-694.441	-200.000	0.054	-0.277
-693.426	-90.605	0.143	-0.041
-692.412	800.000	0.123	-0.359
-691.397	13.774	0.294	0.230
-690.383	-200.000	0.014	0.235
-689.368	800.000	0.085	-0.283
-688.354	-142.830	0.469	-0.046
-687.339	-200.000	-0.024	0.234
-686.324	197.929	0.075	-0.116
-685.310	174.771	0.214	-0.311
-684.295	192.916	-0.249	0.377
-683.281	18.073	0.170	0.136
-682.266	-166.506	0.201	0.008
-681.251	87.454	-0.124	-0.138
-680.237	1.813	0.059	0.043
-679.222	-26.939	0.167	-0.098
-678.208	215.207	0.145	0.231
-677.193	138.459	0.073	0.097
-676.178	80.014	0.068	-0.074
-675.164	296.008	0.047	0.086
-674.149	-99.152	-0.214	-0.054
-673.135	337.647	-0.076	-0.148
-672.120	-90.661	-0.359	-0.104
-671.105	-110.250	0.198	0.041
-670.091	180.514	-0.045	0.066
-669.076	-142.485	-0.088	0.009
-668.062	-200.000	-0.013	0.144
-667.047	168.475	-0.066	0.094
-666.032	209.919	-0.096	-0.152
-665.018	-166.392	0.448	0.019
-664.003	800.000	0.048	0.192
-662.989	23.766	0.195	-0.162
-661.974	800.000	0.019	0.066
-660.959	800.000	-0.073	-0.213
-659.945	-200.000	-0.021	0.181
-658.930	640.894	0.024	-0.060
-657.916	31.175	0.109	0.094
-656.901	-159.795	0.315	0.017
-655.886	-200.000	-0.001	-0.148
-654.872	-130.381	0.111	-0.015
-653.857	195.563	0.146	0.223
-652.843	264.842	0.183	-0.320
-651.828	63.714	0.262	-0.264
-650.814	-89.297	0.351	-0.104
-649.799	-14.341	-0.314	0.203
-648.784	74.490	-0.142	0.150
-647.770	-200.000	0.022	0.159
-646.755	-55.114	-0.394	0.178
-645.741	109.947	0.032	-0.038
-644.726	800.000	0.077	-0.236
-643.711	775.904	-0.049	0.133
-642.697	800.000	-0.091	0.291
-641.682	68.347	-0.024	-0.024
-640.668	30.764	-0.120	-0.103
-639.653	88.654	0.073	-0.082
-638.638	113.389	-0.007	-0.009
-637.624	-144.458	-0.194	0.018
-636.609	-29.425	-0.104	-0.060
-635.595	56.699	0.290	0.283
-634.580	-15.263	-0.118	0.076
-633.565	-16.192	0.093	-0.059
-632.551	-119.561	-0.116	0.020
-631.536	-150.062	0.034	0.003
-630.522	263.124	-0.124	-0.216
-629.507	800.000	-0.051	0.160
-628.492	71.814	-0.173	-0.181
-627.478	-88.922	-0.333	-0.099
-626.463	-35.660	0.085	-0.046
-625.449	-200.000	-0.004	0.431
-624.434	-27.788	-0.214	0.124
-623.419	-200.000	0.011	-0.221
-622.405	-166.412	-0.169	-0.007
-621.390	9.027	0.151	-0.114
-620.376	-175.614	-0.126	-0.003
-619.361	-15.411	-0.098	0.063
-618.346	-54.979	-0.382	-0.172
-617.332	-144.726	-0.216	0.020
-616.317	324.939	-0.058	0.111
-615.303	-87.119	0.231	-0.070
-614.288	800.000	0.058	0.219
-613.273	-71.786	0.105	0.039
-612.259	-142.789	-0.127	0.012
-611.244	426.252	0.087	0.189
-610.230	800.000	0.079	0.339
-609.215	-133.113	-0.210	0.027
-608.201	-200.000	-0.000	-0.267
-607.186	-126.843	-0.055	-0.008
-606.171	158.726	0.155	0.215
-605.157	-157.384	0.331	-0.020
-604.142	49.859	-0.032	0.031
-603.128	-200.000	-0.022	0.185
-602.113	-200.000	0.013	-0.403
-601.098	152.659	0.106	-0.144
-600.084	-69.036	-0.239	-0.092
-599.069	588.069	-0.098	-0.241
-598.055	703.209	0.058	-0.154
-597.040	38.091	-0.164	0.146
-596.025	8.260	-0.048	0.036
-595.011	207.258	-0.200	0.312
-593.996	-114.101	0.236	0.046
-592.982	-200.000	-0.004	0.067
-591.967	-163.407	-0.389	-0.019
-590.952	-200.000	-0.017	0.304
-589.938	-77.958	-0.098	0.034
-588.923	339.723	0.145	-0.282
-587.909	-42.431	0.152	0.078
-586.894	65.859	0.147	0.149
-585.879	-21.432	0.231	-0.141
-584.865	800.000	0.056	-0.167
-583.850	6.017	0.052	-0.039
-582.836	200.668	-0.281	0.432
-581.821	-200.000	-0.093	-0.497
-580.806	352.718	-0.066	-0.131
-579.792	70.437	0.188	0.195
-578.777	64.657	0.193	0.194
-577.763	-170.269	-0.143	-0.005
-576.748	-200.000	0.001	-0.289
-575.733	-200.000	-0.018	0.217
-574.719	-58.320	-0.219	0.095
-573.704	-200.000	-0.003	0.207
-572.690	800.000	-0.020	0.063
-571.675	268.508	-0.102	-0.179
-570.661	-200.000	0.001	0.084
-569.646	-172.868	-0.200	-0.006
-568.631	391.687	-0.032	-0.066
-567.617	231.748	0.079	0.129
-566.602	208.728	-0.196	-0.306
-565.588	-76.581	0.133	0.047
-564.573	14.394	-0.249	0.194
-563.558	-17.829	-0.084	0.053
-562.544	712.612	-0.078	-0.207
-561.529	91.837	0.143	0.161
-560.515	-200.000	0.036	-0.255
-559.500	-28.766	0.274	-0.157
-558.485	-62.501	-0.275	-0.114
-557.471	116.961	0.087	0.106
-556.456	37.710	-0.282	-0.250
-555.442	-7.871	0.080	0.054
-554.427	-38.120	-0.056	-0.030
-553.412	800.000	-0.051	-0.189
-552.398	-39.593	-0.034	-0.018
-551.383	-41.760	0.156	-0.080
-550.369	96.407	-0.092	-0.105
-549.354	671.130	0.018	0.047
-548.339	-200.000	0.037	0.173
-547.325	7.505	0.192	0.144
-546.310	118.824	-0.073	0.091
-545.296	-103.541	-0.263	-0.062
-544.281	-200.000	-0.041	-0.286
-543.266	-200.000	-0.021	0.102
-542.252	441.089	0.085	-0.186
-541.237	-200.000	-0.065	0.302
-540.223	-200.000	-0.023	-0.313
-539.208	-51.866	0.075	-0.035
-538.193	-62.134	-0.135	-0.056
-537.179	800.000	0.122	0.434
-536.164	48.546	0.098	-0.091
-535.150	-153.864	-0.187	0.013
-534.135	-139.526	0.096	0.010
-533.121	-8.121	0.157	0.106
-532.106	140.442	-0.038	-0.049
-531.091	-36.832	-0.036	-0.019
-530.077	-28.600	0.192	0.110
-529.062	-79.794	0.232	0.078
-528.048	31.019	0.108	0.092
-527.033	-200.000	-0.058	-0.361
-526.018	101.941	-0.098	0.114
-525.004	800.000	0.082	0.332
-523.989	8.028	0.205	-0.154
-522.975	-200.000	0.036	-0.393
-521.960	435.817	0.071	-0.154
-520.945	800.000	-0.063	-0.214
-519.931	-74.374	-0.183	-0.066
-518.916	83.292	-0.118	-0.128
-517.902	73.593	-0.067	-0.070
-516.887	-24.341	0.075	-0.044
-515.872	232.934	0.293	-0.481
-514.858	-29.703	-0.028	0.016
-513.843	311.515	0.165	0.308
-512.829	-16.497	0.199	-0.126
-511.814	-108.168	-0.192	-0.041
-510.799	-30.109	-0.331	-0.188
-509.785	-200.000	-0.044	-0.355
-508.770	-200.000	-0.031	-0.427
-507.756	-124.308	0.361	-0.056
-506.741	-144.922	0.080	-0.007
-505.726	362.028	0.261	0.523
-504.712	800.000	0.070	-0.251
-503.697	-15.670	0.153	-0.098
-502.683	-200.000	-0.012	-0.382
-501.668	596.539	-0.056	0.138
-500.653	800.000	0.037	0.116
-499.639	-0.862	0.064	-0.045
-498.624	-165.114	0.090	-0.004
-497.610	186.949	0.112	0.167
-496.595	-168.346	0.178	-0.007
-495.581	113.738	-0.053	0.064
-494.566	10.491	0.219	-0.166
-493.551	-60.994	0.306	0.129
-492.537	-200.000	0.009	-0.157
-491.522	-200.000	0.016	-0.151
-490.508	-200.000	0.026	0.284
-489.493	-80.401	0.270	0.090
-488.478	202.275	-0.257	-0.395
-487.464	-34.633	0.531	-0.290
-486.449	286.148	-0.106	-0.191
-485.435	-200.000	-0.040	0.178
-484.420	-116.759	-0.071	-0.013
-483.405	-119.221	-0.224	0.039
-482.391	9.906	0.092	-0.069
-481.376	-35.270	0.256	-0.139
-480.362	-47.076	0.200	-0.097
-479.347	-70.839	0.134	-0.050
-478.332	625.048	0.046	-0.115
-477.318	-155.453	-0.216	0.014
-476.303	202.047	-0.095	-0.146
-475.289	11.038	0.160	0.122
-474.274	-200.000	0.048	-0.399
-473.259	-200.000	-0.019	-0.098
-472.245	800.000	-0.074	0.270
-471.230	800.000	-0.083	0.245
-470.216	-200.000	0.032	0.232
-469.201	235.687	0.070	0.115
-468.186	-102.988	0.303	0.072
-467.172	-70.008	-0.430	0.163
-466.157	11.001	0.184	-0.140
-465.143	-95.318	-0.064	0.017
-464.128	667.560	-0.167	-0.429
-463.113	159.233	0.121	-0.168
-462.099	-200.000	-0.000	-0.229
-461.084	-200.000	-0.028	0.144
-460.070	800.000	-0.015	-0.043
-459.055	800.000	0.059	-0.165
-458.040	-98.048	-0.325	-0.083
-457.026	97.807	-0.101	0.115
-456.011	772.249	0.108	-0.293
-454.997	6.538	0.294	-0.217
-453.982	-107.146	-0.202	-0.044
-452.968	-13.300	-0.156	-0.101
-451.953	375.756	-0.052	-0.105
-450.938	-81.955	0.159	-0.052
-449.924	-29.165	-0.161	0.092
-448.909	-132.024	-0.394	-0.051
-447.895	-200.000	0.194	0.001
-446.880	-10.855	0.275	0.181
-445.865	-143.099	0.102	-0.010
-444.851	800.000	0.050	0.192
-443.836	13.561	0.206	-0.159
-442.822	356.739	0.018	0.036
-441.807	800.000	0.043	0.157
-440.792	104.848	-0.343	0.403
-439.778	720.231	-0.068	-0.181
-438.763	-32.918	-0.421	-0.232
-437.749	6.668	0.040	0.030
-436.734	800.000	-0.041	-0.157
-435.719	12.913	-0.267	0.205
-434.705	38.181	0.064	0.056
-433.690	-200.000	-0.029	0.409
-432.676	-134.423	0.493	-0.060
-431.661	-127.989	-0.097	0.014
-430.646	800.000	-0.040	0.148
-429.632	800.000	-0.039	0.168
-428.617	800.000	0.048	0.166
-427.603	-5.183	0.418	0.286
-426.588	800.000	-0.044	-0.142
-425.573	-176.826	0.201	0.005
-424.559	123.502	-0.176	-0.219
-423.544	396.599	-0.155	-0.323
-422.530	-140.161	-0.167	0.017
-421.515	76.905	-0.193	-0.204
-420.500	-5.955	-0.061	0.041
-419.486	-60.997	-0.357	-0.150
-418.471	20.215	0.170	-0.136
-417.457	-58.177	-0.072	0.031
-416.442	68.115	0.144	-0.146
-415.428	207.016	-0.163	0.253
-414.413	-180.567	-0.184	-0.004
-413.398	362.536	0.152	-0.303
-412.384	-71.780	0.099	-0.037
-411.369	74.086	0.275	0.286
-410.355	23.981	0.066	0.054
-409.340	597.687	-0.127	-0.314
-408.325	-10.710	-0.086	0.056
-407.311	5.107	-0.201	0.147
-406.296	-43.323	-0.252	-0.127
-405.282	20.903	-0.116	0.093
-404.267	-157.052	-0.406	0.025
-403.252	148.926	0.199	-0.267
-402.238	-101.795	-0.128	0.031
-401.223	-111.124	0.103	0.021
-400.209	-200.000	0.040	0.192
-399.194	15.433	-0.086	0.067
-398.179	-31.435	0.228	0.127
-397.165	-29.821	0.054	-0.031
-396.150	-99.675	-0.171	-0.043
-395.136	-67.256	-0.212	0.083
-394.121	-69.512	-0.346	-0.131
-393.106	-75.224	0.399	-0.141
-392.092	70.389	-0.169	-0.173
-391.077	390.173	-0.088	0.180
-390.063	-37.864	-0.060	0.032
-389.048	39.058	0.066	0.059
-388.033	-37.666	-0.221	0.117
-387.019	9.598	0.225	0.169
-386.004	-2.273	-0.099	-0.069
-384.990	-71.410	-0.316	-0.118
-383.975	-200.000	0.000	-0.214
-382.960	71.025	-0.141	0.145
-381.946	544.060	0.079	0.188
-380.931	-200.000	0.029	-0.134
-379.917	-200.000	0.036	-0.202
-378.902	382.282	0.108	0.219
-377.888	674.118	-0.042	0.109
-376.873	-82.680	0.133	-0.043
-375.858	-95.202	0.305	-0.082
-374.844	-200.000	-0.011	0.261
-373.829	-58.896	-0.134	-0.057
-372.815	-65.226	-0.216	0.086
-371.800	-49.536	0.398	-0.188
-370.785	23.418	-0.234	0.191
-369.771	25.919	-0.057	0.047
-368.756	-90.834	-0.233	0.067
-367.742	-200.000	-0.034	0.261
-366.727	-35.723	-0.109	0.059
-365.712	192.449	0.067	-0.100
-364.698	458.665	0.085	-0.186
-363.683	315.559	-0.097	0.182
-362.669	-200.000	0.063	0.331
-361.654	46.426	-0.072	0.067
-360.639	-200.000	0.009	-0.373
-359.625	145.471	-0.084	0.112
-358.610	-200.000	-0.036	0.161
-357.596	-111.172	0.394	-0.080
-356.581	800.000	-0.083	0.304
-355.566	800.000	-0.042	0.166
-354.552	800.000	-0.011	-0.037
-353.537	108.607	0.156	0.184
-352.523	-200.000	-0.050	-0.390
-351.508	-200.000	-0.038	-0.198
-350.493	-200.000	-0.028	-0.240
-349.479	-200.000	0.025	0.330
-348.464	800.000	-0.132	-0.398
-347.450	22.485	0.065	0.053
-346.435	2.947	-0.338	-0.243
-345.420	337.662	0.191	-0.367
-344.406	-200.000	-0.003	0.054
-343.391	800.000	0.035	-0.105
-342.377	-122.808	0.286	-0.046
-341.362	-200.000	-0.021	-0.122
-340.348	-35.431	0.297	0.160
-339.333	58.782	0.406	0.395
-338.318	-72.217	-0.285	0.105
-337.304	8.405	0.213	0.159
-336.289	800.000	0.091	-0.256
-335.275	-90.502	-0.241	0.069
-334.260	-120.314	0.176	0.030
-333.245	-200.000	0.043	-0.253
-332.231	154.395	0.169	-0.230
-331.216	-65.379	0.288	0.115
-330.202	-200.000	-0.021	0.127
-329.187	70.544	0.011	0.011
-328.172	56.547	-0.190	0.183
-327.158	-200.000	0.014	0.265
-326.143	301.582	0.178	0.326
-325.129	343.237	-0.024	-0.046
-324.114	272.929	-0.122	-0.213
-323.099	-200.000	0.015	-0.322
-322.085	94.977	0.240	-0.270
-321.070	10.503	-0.410	0.309
-320.056	-140.165	0.219	0.023
-319.041	800.000	-0.083	0.241
-318.026	112.720	0.240	-0.287
-317.012	-200.000	0.052	-0.287
-315.997	-200.000	0.016	0.145
-314.983	69.445	0.075	-0.076
-313.968	90.360	-0.087	-0.096
-312.953	-200.000	0.014	-0.231
-311.939	-200.000	0.042	0.322
-310.924	-115.275	0.219	-0.041
-309.910	-200.000	0.036	0.186
-308.895	74.509	0.168	-0.175
-307.880	800.000	0.036	0.111
-306.866	800.000	0.053	0.226
-305.851	108.784	0.025	-0.029
-304.837	53.008	-0.263	-0.249
-303.822	402.540	0.204	0.424
-302.807	48.688	-0.311	0.289
-301.793	-24.237	0.259	-0.153
-300.778	-186.179	-0.141	0.002
-299.764	-200.000	0.003	0.475
-298.749	-161.370	0.121	0.006
-297.735	353.748	0.041	0.080
-296.720	351.005	0.127	0.248
-295.705	-81.131	-0.228	-0.075
-294.691	140.701	0.107	-0.140
-293.676	-87.407	0.183	-0.055
-292.662	800.000	0.102	0.323
-291.647	-152.348	0.164	-0.012
-290.632	-163.931	-0.162	-0.007
-289.618	-54.162	-0.377	-0.169
-288.603	-53.033	-0.260	-0.118
-287.589	-91.648	0.334	-0.094
-286.574	173.635	0.064	0.091
-285.559	-200.000	-0.041	-0.320
-284.545	-64.272	0.229	0.092
-283.530	-200.000	0.015	0.068
-282.516	800.000	0.013	-0.043
-281.501	387.714	-0.076	0.155
-280.486	-177.292	-0.180	0.004
-279.472	371.271	0.129	0.258
-278.457	38.576	-0.194	0.171
-277.443	-200.000	0.042	0.187
-276.428	-200.000	0.049	-0.343
-275.413	228.549	-0.167	-0.269
-274.399	-200.000	-0.003	0.304
-273.384	83.955	-0.126	0.136
-272.370	800.000	0.023	0.084
-271.355	-22.222	0.289	-0.173
-270.340	412.146	-0.170	-0.357
-269.326	-200.000	0.054	0.278
-268.311	-25.208	-0.180	-0.105
-267.297	-15.816	0.166	-0.104
-266.282	-50.637	0.234	-0.109
-265.267	-200.000	-0.018	0.209
-264.253	292.120	0.133	0.239
-263.238	-200.000	0.051	-0.345
-262.224	318.671	0.090	-0.169
-261.209	-75.275	0.251	0.088
-260.195	562.056	0.023	-0.054
-259.180	-144.737	-0.288	0.026
-258.165	-200.000	0.039	0.301
-257.151	-137.032	-0.095	0.011
-256.136	-71.062	-0.274	0.102
-255.122	-88.969	-0.160	-0.047
-254.107	800.000	-0.081	0.293
-253.092	800.000	0.040	0.125
-252.078	629.805	-0.011	-0.028
-251.063	800.000	-0.018	0.067
-250.049	64.938	0.186	0.185
-249.034	671.551	-0.020	-0.052
-248.019	125.159	0.170	0.212
-247.005	95.219	-0.294	0.330
-245.990	-200.000	-0.005	-0.231
-244.976	111.082	0.126	0.149
-243.961	203.935	0.047	-0.072
-242.946	800.000	0.080	-0.229
-241.932	161.145	0.105	-0.145
-240.917	778.274	0.081	0.217
-239.903	-200.000	-0.011	-0.281
-238.888	-47.784	-0.119	0.057
-237.873	-21.308	0.054	-0.033
-236.859	310.178	-0.065	0.121
-235.844	800.000	-0.046	0.192
-234.830	170.250	0.035	-0.050
-233.815	134.080	-0.173	0.221
-232.800	220.637	-0.271	0.428
-231.786	-119.055	-0.290	-0.050
-230.771	70.662	0.178	0.182
-229.757	51.239	0.200	0.187
-228.742	-68.326	-0.093	-0.035
-227.727	268.595	-0.092	0.159
-226.713	145.764	-0.031	0.041
-225.698	-134.706	-0.090	-0.011
-224.684	60.279	-0.189	0.184
-223.669	25.210	-0.067	-0.055
-222.655	-54.975	0.178	-0.079
-221.640	-156.764	-0.261	0.016
-220.625	52.787	0.122	0.115
-219.611	800.000	-0.078	-0.285
-218.596	-89.812	0.121	-0.035
-217.582	-63.903	-0.118	-0.047
-216.567	800.000	0.017	0.072
-215.552	198.658	0.193	0.291
-214.538	-8.499	-0.186	0.123
-213.523	-25.536	-0.422	-0.246
-212.509	-200.000	0.016	-0.320
-211.494	-48.850	0.321	-0.151
-210.479	-200.000	0.009	-0.153
-209.465	-154.114	-0.295	0.020
-208.450	800.000	-0.026	0.106
-207.436	800.000	-0.045	-0.130
-206.421	734.343	-0.012	-0.031
-205.406	28.844	0.228	0.190
-204.392	426.229	-0.136	-0.289
-203.377	-36.028	-0.344	-0.183
-202.363	610.881	0.098	0.241
-201.348	279.992	0.110	-0.193
-200.333	-200.000	-0.005	0.216
-199.319	800.000	-0.114	-0.428
-198.304	-156.288	0.108	-0.007
-197.290	-190.083	-0.428	0.005
-196.275	-198.376	0.029	0.000
-195.260	-94.095	-0.189	-0.051
-194.246	-51.053	0.231	0.107
-193.231	-101.848	0.206	-0.049
-192.217	490.016	0.115	0.260
-191.202	800.000	0.049	-0.182
-190.187	-19.886	-0.238	-0.145
-189.173	223.403	-0.092	-0.146
-188.158	-105.722	0.060	0.013
-187.144	99.617	0.336	0.383
-186.129	167.132	0.031	0.043
-185.114	-200.000	0.003	-0.180
-184.100	321.652	0.084	0.158
-183.085	-76.992	0.512	0.176
-182.071	-122.026	0.325	0.053
-181.056	-200.000	0.005	-0.301
-180.042	800.000	0.043	-0.151
-179.027	0.596	0.151	0.106
-178.012	800.000	-0.045	0.131
-176.998	-99.362	0.368	-0.091
-175.983	256.237	-0.090	0.151
-174.969	108.374	0.178	0.209
-173.954	-67.341	-0.129	0.050
-172.939	-110.653	0.238	0.048
-171.925	181.045	0.053	-0.077
-170.910	-200.000	0.008	0.262
-169.896	193.080	-0.101	-0.150
-168.881	-200.000	-0.038	-0.554
-167.866	800.000	-0.060	-0.216
-166.852	37.645	-0.164	0.144
-165.837	-69.733	-0.195	0.073
-164.823	-68.243	0.187	-0.071
-163.808	-79.141	0.060	0.020
-162.793	234.905	0.112	-0.181
-161.779	152.026	0.098	0.131
-160.764	-67.383	0.145	-0.056
-159.750	-200.000	0.038	-0.234
-158.735	286.365	0.081	0.144
-157.720	-154.515	0.203	0.013
-156.706	-92.709	-0.211	0.058
-155.691	-98.629	0.167	-0.042
-154.677	-101.345	0.120	-0.029
-153.662	209.218	0.209	0.321
-152.647	-81.658	-0.211	0.068
-151.633	-200.000	-0.017	0.083
-150.618	-112.475	-0.143	0.028
-149.604	311.884	0.010	0.018
-148.589	279.867	-0.186	-0.327
-147.574	130.779	0.074	-0.094
-146.560	41.610	-0.083	0.074
-145.545	-66.682	0.248	-0.097
-144.531	405.451	-0.152	0.315
-143.516	-200.000	0.039	0.204
-142.502	-125.971	0.065	-0.010
-141.487	170.035	0.176	-0.247
-140.472	371.113	-0.017	-0.033
-139.458	105.966	0.065	0.076
-138.443	-113.782	0.375	0.072
-137.429	323.634	-0.028	0.053
-136.414	-77.451	0.334	-0.114
-135.399	57.281	0.187	-0.179
-134.385	-89.415	0.239	-0.069
-133.370	270.317	0.062	-0.107
-132.356	107.973	0.079	-0.092
-131.341	89.332	-0.040	0.044
-130.326	-111.799	0.103	-0.020
-129.312	-31.189	-0.148	0.082
-128.297	-97.303	0.296	-0.076
-127.283	-32.402	-0.246	0.135
-126.268	-200.000	0.035	-0.170
-125.253	-119.559	0.345	-0.059
-124.239	-17.137	0.146	0.090
-123.224	85.098	-0.186	-0.200
-122.210	-18.238	0.130	0.080
-121.195	-128.607	-0.415	0.058
