DTS Sentinel unit serial number:	SN413079Multiplexer serial number:	ORYXHardware model number:	OX4-SRSoftware version number:	ORYX F/W v4.00 Oryx Data Collector v3.7.2.0data status	okinstallation	princeton_trtdifferential loss correction	single-endedforward channel	channel 3reverse channel	N/Adate	2019/09/16time	17:36:35forward acquisition time	60.00reverse acquisition time	0.00gamma	496.2192k internal	0.2298k external	0.2298temperature offset calibration	0.9944default loss term (dB/km)	0.3790temperature slope calibration	1.0000multiplexer offset coefficient	1.0000multiplexer slope coefficient	1.0000fibre end	0.00T internal ref (°C)	38.31T ext. ref 1 (°C)	15.52T ext. ref 2 (°C)	32.28length (m)	temperature (°C)	Stokes	anti-Stokes-747.200	800.000	0.026	0.098
-746.185	800.000	0.035	0.132
-745.171	-16.215	-0.085	-0.055
-744.156	-200.000	0.041	0.574
-743.142	-153.998	0.084	0.006
-742.127	-200.000	0.019	0.448
-741.112	265.657	0.141	-0.251
-740.098	-131.189	-0.361	-0.049
-739.083	124.077	0.200	0.256
-738.069	259.730	-0.187	0.329
-737.054	722.245	-0.117	0.317
-736.039	102.327	-0.096	0.114
-735.025	-83.049	0.185	-0.061
-734.010	-200.000	0.002	-0.060
-732.996	189.597	-0.209	-0.320
-731.981	192.593	0.047	-0.073
-730.966	-78.681	0.266	0.093
-729.952	62.697	0.098	0.100
-728.937	-55.145	-0.449	0.206
-727.923	174.840	0.053	0.078
-726.908	92.211	-0.116	-0.133
-725.894	27.601	0.326	-0.280
-724.879	800.000	-0.060	-0.234
-723.864	-94.843	0.434	-0.120
-722.850	-200.000	0.023	-0.431
-721.835	-94.941	0.428	0.118
-720.821	-200.000	-0.019	0.092
-719.806	-200.000	0.023	-0.292
-718.791	-140.585	-0.312	0.033
-717.777	250.841	-0.129	-0.223
-716.762	-56.403	0.106	0.048
-715.748	-21.402	0.186	0.116
-714.733	-11.463	0.244	-0.164
-713.718	-134.523	-0.112	0.014
-712.704	-11.737	-0.158	0.106
-711.689	800.000	0.077	0.331
-710.675	456.636	0.079	0.179
-709.660	290.135	-0.064	0.119
-708.645	-130.208	0.103	0.014
-707.631	-200.000	0.033	-0.163
-706.616	-36.042	-0.104	0.058
-705.602	-34.801	0.171	0.095
-704.587	-16.835	-0.183	-0.118
-703.572	153.880	-0.053	0.074
-702.558	-94.932	-0.303	-0.084
-701.543	63.484	-0.237	0.242
-700.529	-92.488	0.263	0.075
-699.514	-92.505	0.247	-0.071
-698.499	800.000	0.048	-0.164
-697.485	489.485	-0.102	0.238
-696.470	68.710	0.076	-0.080
-695.456	-91.554	0.146	-0.042
-694.441	-119.848	0.119	0.021
-693.426	-200.000	0.007	0.184
-692.412	-31.347	-0.166	0.095
-691.397	800.000	-0.117	-0.408
-690.383	-200.000	0.008	-0.109
-689.368	80.979	0.020	-0.022
-688.354	112.517	-0.182	0.224
-687.339	-78.697	-0.111	-0.039
-686.324	-86.570	-0.321	0.100
-685.310	-43.046	-0.307	-0.159
-684.295	213.422	0.132	0.213
-683.281	-85.222	-0.122	0.039
-682.266	670.309	-0.039	0.102
-681.251	-2.595	-0.039	-0.027
-680.237	-50.850	0.199	-0.095
-679.222	-79.741	0.150	0.051
-678.208	-40.578	-0.253	0.134
-677.193	64.487	0.275	-0.282
-676.178	11.728	0.196	-0.153
-675.164	-128.331	-0.276	-0.040
-674.149	-116.555	-0.266	-0.050
-673.135	-192.056	0.137	-0.001
-672.120	800.000	0.098	-0.315
-671.105	53.302	0.161	-0.157
-670.091	46.601	0.033	-0.032
-669.076	-200.000	-0.002	0.195
-668.062	-133.349	-0.283	0.036
-667.047	-200.000	-0.047	-0.342
-666.032	-147.928	0.153	0.013
-665.018	45.804	-0.103	0.097
-664.003	283.676	-0.098	-0.179
-662.989	96.557	-0.078	0.090
-661.974	-67.767	-0.302	0.120
-660.959	47.090	-0.287	-0.272
-659.945	800.000	0.074	-0.228
-658.930	800.000	0.038	-0.150
-657.916	-200.000	0.017	-0.085
-656.901	-200.000	-0.016	-0.074
-655.886	800.000	-0.141	-0.554
-654.872	252.590	-0.046	-0.080
-653.857	-146.672	0.038	-0.003
-652.843	-100.743	-0.146	-0.037
-651.828	-99.420	-0.069	-0.018
-650.814	208.016	0.091	0.145
-649.799	-151.835	-0.056	0.004
-648.784	-93.464	-0.384	-0.108
-647.770	-184.701	-0.249	0.004
-646.755	-80.529	-0.171	-0.058
-645.741	-154.388	0.169	-0.012
-644.726	91.066	0.159	-0.181
-643.711	-200.000	0.030	-0.161
-642.697	533.544	0.116	-0.279
-641.682	-183.930	0.194	0.003
-640.668	-51.635	-0.296	-0.140
-639.653	81.329	-0.152	0.167
-638.638	246.834	0.055	-0.094
-637.624	800.000	0.037	0.125
-636.609	631.992	-0.067	-0.172
-635.595	159.311	-0.260	-0.368
-634.580	800.000	0.104	0.412
-633.565	305.579	-0.217	0.409
-632.551	-200.000	0.007	-0.154
-631.536	-73.362	-0.322	-0.120
-630.522	-200.000	0.012	-0.134
-629.507	-13.174	-0.267	0.176
-628.492	-76.553	0.139	0.050
-627.478	800.000	-0.065	0.237
-626.463	-12.715	-0.172	0.114
-625.449	-27.453	0.209	-0.124
-624.434	2.686	0.230	0.169
-623.419	27.269	-0.003	0.002
-622.405	656.176	0.114	-0.297
-621.390	-94.497	-0.213	0.059
-620.376	379.738	-0.027	-0.056
-619.361	-74.567	-0.044	-0.016
-618.346	-200.000	0.051	-0.342
-617.332	800.000	0.035	-0.146
-616.317	-200.000	-0.029	0.347
-615.303	-200.000	0.007	-0.121
-614.288	94.907	-0.145	-0.168
-613.273	-6.733	-0.186	0.129
-612.259	169.195	0.062	-0.090
-611.244	470.017	0.105	0.239
-610.230	102.047	0.113	0.134
-609.215	-15.559	0.049	-0.032
-608.201	-29.431	0.243	-0.141
-607.186	-200.000	-0.071	0.378
-606.171	-200.000	-0.038	0.255
-605.157	-200.000	0.036	0.202
-604.142	129.356	0.135	-0.175
-603.128	-5.537	0.096	0.067
-602.113	-45.601	0.359	0.180
-601.098	210.013	0.098	-0.155
-600.084	-144.292	0.270	-0.026
-599.069	800.000	-0.069	-0.257
-598.055	-51.420	-0.238	0.113
-597.040	-87.074	0.198	-0.061
-596.025	-200.000	0.089	0.461
-595.011	74.070	0.229	-0.244
-593.996	800.000	-0.060	-0.212
-592.982	38.984	-0.151	-0.137
-591.967	-74.298	-0.217	0.079
-590.952	-80.255	0.152	-0.051
-589.938	-137.260	-0.336	-0.039
-588.923	112.027	0.074	0.091
-587.909	-35.311	0.075	-0.042
-586.894	-97.364	-0.256	0.068
-585.879	-94.191	-0.421	-0.117
-584.865	-49.331	0.131	-0.064
-583.850	235.205	-0.123	0.205
-582.836	-122.271	-0.260	-0.043
-581.821	-87.970	0.188	0.057
-580.806	800.000	0.096	-0.331
-579.792	772.785	0.111	-0.307
-578.777	283.578	-0.093	-0.169
-577.763	249.748	-0.162	0.278
-576.748	47.601	-0.109	0.103
-575.733	494.535	0.127	0.297
-574.719	327.806	0.165	0.321
-573.704	-71.790	-0.242	0.091
-572.690	50.262	-0.132	-0.127
-571.675	-71.130	-0.155	0.059
-570.661	-120.083	-0.127	0.022
-569.646	532.388	0.079	0.189
-568.631	-119.151	0.250	-0.044
-567.617	-200.000	0.047	-0.354
-566.602	56.313	0.165	-0.163
-565.588	-134.571	-0.271	0.034
-564.573	-142.231	-0.521	0.052
-563.558	-200.000	-0.029	0.190
-562.544	-116.375	-0.367	-0.069
-561.529	785.061	0.033	0.092
-560.515	187.810	-0.094	-0.143
-559.500	-65.153	-0.137	0.056
-558.485	-200.000	-0.057	0.398
-557.471	-37.113	0.140	0.076
-556.456	-200.000	0.045	-0.332
-555.442	-25.726	0.189	0.113
-554.427	-165.225	0.268	-0.012
-553.412	-198.666	0.264	-0.001
-552.398	-200.000	0.020	0.447
-551.383	-14.920	0.095	0.062
-550.369	64.990	0.207	-0.212
-549.354	386.764	0.039	-0.081
-548.339	17.961	0.077	-0.062
-547.325	133.157	-0.113	0.148
-546.310	-200.000	0.019	-0.118
-545.296	17.100	0.241	0.194
-544.281	-11.668	-0.284	-0.189
-543.266	800.000	0.053	0.160
-542.252	-200.000	-0.058	0.292
-541.237	-56.297	-0.273	0.123
-540.223	-49.354	-0.331	0.160
-539.208	61.562	0.087	0.087
-538.193	75.690	-0.122	0.130
-537.179	-137.127	0.173	0.020
-536.164	-121.877	0.087	-0.015
-535.150	800.000	0.011	-0.041
-534.135	800.000	0.016	0.051
-533.121	800.000	0.042	-0.150
-532.106	-58.673	0.375	0.165
-531.091	-72.045	0.323	-0.122
-530.077	-116.827	-0.302	-0.056
-529.062	269.558	0.085	-0.152
-528.048	76.805	0.187	-0.201
-527.033	439.135	0.122	-0.269
-526.018	-138.698	-0.201	-0.022
-525.004	150.413	0.052	0.071
-523.989	272.821	0.032	0.057
-522.975	800.000	-0.180	0.569
-521.960	519.957	-0.069	0.163
-520.945	33.454	0.057	0.050
-519.931	10.320	0.237	0.183
-518.916	-89.894	-0.287	-0.085
-517.902	613.813	0.107	0.271
-516.887	6.969	-0.226	-0.171
-515.872	-200.000	-0.033	0.172
-514.858	-105.012	0.294	-0.068
-513.843	-176.879	0.066	0.002
-512.829	180.679	0.120	0.179
-511.814	70.835	-0.217	-0.227
-510.799	800.000	0.054	-0.239
-509.785	-75.020	-0.322	0.117
-508.770	759.119	-0.071	-0.194
-507.756	-105.433	0.172	-0.039
-506.741	-93.806	0.141	-0.039
-505.726	-7.140	0.149	0.102
-504.712	-175.504	-0.296	0.008
-503.697	462.274	-0.238	-0.538
-502.683	-200.000	-0.016	-0.281
-501.668	277.074	0.029	0.053
-500.653	-56.190	0.114	0.051
-499.639	800.000	0.088	-0.257
-498.624	-200.000	-0.004	-0.273
-497.610	-63.335	0.132	-0.055
-496.595	33.611	0.089	-0.078
-495.581	-115.184	0.419	-0.080
-494.566	-23.908	-0.034	0.021
-493.551	178.342	0.150	0.222
-492.537	8.665	-0.297	-0.227
-491.522	-200.000	-0.020	-0.125
-490.508	24.843	0.313	-0.262
-489.493	-80.094	-0.214	0.073
-488.478	-87.913	-0.236	-0.072
-487.464	-143.591	-0.279	-0.027
-486.449	48.783	-0.125	-0.118
-485.435	-200.000	0.037	0.230
-484.420	40.879	-0.180	0.164
-483.405	-50.164	0.388	-0.185
-482.391	14.116	0.217	-0.171
-481.376	181.065	0.158	-0.235
-480.362	5.004	0.267	-0.198
-479.347	-71.363	0.016	-0.006
-478.332	-102.869	-0.077	-0.018
-477.318	-200.000	0.072	0.331
-476.303	-10.914	-0.196	0.131
-475.289	-200.000	0.008	0.211
-474.274	660.152	-0.113	0.293
-473.259	-133.017	-0.075	-0.010
-472.245	104.472	0.026	-0.030
-471.230	-91.978	0.242	-0.069
-470.216	438.731	-0.120	-0.264
-469.201	-3.921	-0.093	0.065
-468.186	422.072	0.094	0.204
-467.172	-105.613	0.047	0.011
-466.157	800.000	-0.122	-0.363
-465.143	263.707	-0.061	-0.107
-464.128	47.395	0.072	0.068
-463.113	-200.000	0.001	0.153
-462.099	-122.398	-0.284	-0.047
-461.084	-23.143	0.189	0.115
-460.070	-200.000	-0.022	0.156
-459.055	-200.000	-0.013	0.290
-458.040	-70.257	-0.300	-0.115
-457.026	-37.755	-0.207	-0.111
-456.011	800.000	-0.122	0.359
-454.997	612.804	0.125	0.315
-453.982	-200.000	0.063	0.335
-452.968	499.120	-0.077	0.178
-451.953	-117.532	-0.126	0.023
-450.938	-42.774	-0.448	-0.230
-449.924	-200.000	0.014	0.368
-448.909	-49.151	-0.173	-0.084
-447.895	-10.272	0.189	-0.127
-446.880	-200.000	-0.017	-0.474
-445.865	-69.100	-0.381	0.148
-444.851	62.152	-0.038	-0.038
-443.836	89.336	0.104	0.117
-442.822	-200.000	-0.013	0.288
-441.807	800.000	0.047	0.190
-440.792	-200.000	0.018	-0.345
-439.778	-108.109	0.335	0.073
-438.763	74.538	-0.109	-0.116
-437.749	354.244	-0.065	-0.129
-436.734	109.454	0.069	0.084
-435.719	-56.773	0.328	0.146
-434.705	-14.019	0.119	-0.078
-433.690	32.287	0.100	0.087
-432.676	3.019	-0.153	0.112
-431.661	27.455	-0.043	0.036
-430.646	-95.875	0.159	0.043
-429.632	25.395	0.161	0.135
-428.617	324.508	-0.235	-0.452
-427.603	-200.000	0.058	-0.341
-426.588	-108.929	0.141	-0.030
-425.573	227.327	-0.170	-0.278
-424.559	-77.115	-0.237	0.083
-423.544	-200.000	-0.003	-0.140
-422.530	99.583	-0.115	-0.134
-421.515	800.000	0.028	0.094
-420.500	-97.199	-0.052	-0.014
-419.486	88.595	0.160	0.179
-418.471	-54.399	0.260	0.119
-417.457	-97.887	0.054	-0.014
-416.442	211.802	0.025	0.040
-415.428	79.971	-0.149	-0.161
-414.413	434.669	-0.095	-0.209
-413.398	-74.343	-0.068	0.025
-412.384	45.954	0.184	-0.171
-411.369	-51.081	-0.095	0.045
-410.355	-175.228	-0.089	-0.002
-409.340	53.361	0.212	0.205
-408.325	-74.688	0.307	-0.111
-407.311	0.561	-0.029	0.021
-406.296	-22.130	-0.158	-0.097
-405.282	-160.159	0.182	-0.010
-404.267	-50.715	-0.172	-0.082
-403.252	162.245	0.246	0.347
-402.238	-17.796	0.207	0.131
-401.223	-200.000	-0.015	0.441
-400.209	19.264	0.103	0.083
-399.194	-112.898	-0.333	-0.066
-398.179	71.405	0.141	0.148
-397.165	65.648	-0.061	0.062
-396.150	696.455	-0.098	-0.259
-395.136	800.000	-0.060	0.171
-394.121	410.405	-0.104	-0.222
-393.106	27.593	-0.158	-0.134
-392.092	800.000	0.123	-0.440
-391.077	192.986	0.163	-0.249
-390.063	-123.919	-0.143	-0.023
-389.048	143.317	0.069	-0.092
-388.033	86.163	-0.020	-0.022
-387.019	79.961	-0.051	0.055
-386.004	-105.780	0.097	0.022
-384.990	-67.057	-0.058	0.023
-383.975	53.641	-0.094	-0.091
-382.960	309.070	0.037	0.070
-381.946	-124.749	0.124	0.019
-380.931	59.471	0.063	-0.063
-379.917	-36.297	0.194	0.105
-378.902	264.483	0.105	0.184
-377.888	800.000	-0.019	0.079
-376.873	-112.214	-0.353	-0.071
-375.858	-103.295	0.272	0.065
-374.844	155.006	0.129	-0.179
-373.829	-124.430	-0.180	0.028
-372.815	-94.867	-0.107	0.029
-371.800	-67.374	0.250	0.099
-370.785	371.115	-0.035	0.072
-369.771	800.000	-0.095	0.268
-368.756	-122.196	0.087	-0.014
-367.742	128.777	0.280	-0.360
-366.727	800.000	0.135	0.412
-365.712	50.155	-0.099	-0.094
-364.698	-109.066	-0.380	-0.081
-363.683	-100.969	-0.141	0.035
-362.669	-200.000	0.001	-0.191
-361.654	-106.527	-0.153	0.034
-360.639	-50.725	-0.289	-0.137
-359.625	-20.737	0.141	-0.087
-358.610	362.952	0.062	-0.124
-357.596	529.863	-0.035	-0.084
-356.581	-200.000	-0.071	0.378
-355.566	-132.708	0.232	-0.030
-354.552	13.913	0.229	-0.179
-353.537	312.828	0.091	0.171
-352.523	43.898	0.091	-0.084
-351.508	-34.885	0.300	0.165
-350.493	95.928	-0.167	0.192
-349.479	113.586	-0.121	0.148
-348.464	-64.513	0.063	-0.026
-347.450	-67.152	0.211	-0.083
-346.435	-81.644	-0.134	0.044
-345.420	-70.548	-0.131	0.050
-344.406	-142.935	-0.079	0.008
-343.391	-140.870	0.226	0.023
-342.377	-135.683	-0.219	-0.026
-341.362	-66.909	0.358	-0.142
-340.348	402.900	-0.139	0.295
-339.333	-200.000	-0.003	0.578
-338.318	422.568	0.061	-0.133
-337.304	82.056	-0.203	-0.221
-336.289	-0.711	-0.164	0.117
-335.275	-51.123	0.165	0.078
-334.260	800.000	0.056	0.194
-333.245	-88.810	-0.133	-0.040
-332.231	-200.000	-0.068	-0.334
-331.216	-200.000	0.033	0.164
-330.202	-30.760	-0.174	-0.099
-329.187	-127.168	-0.155	0.023
-328.172	9.355	-0.205	0.156
-327.158	7.556	-0.172	0.129
-326.143	-96.781	0.215	0.057
-325.129	-200.000	0.035	0.380
-324.114	176.506	0.095	0.138
-323.099	-94.109	-0.067	0.018
-322.085	379.676	0.023	0.048
-321.070	-6.711	0.092	0.063
-320.056	523.075	-0.154	-0.363
-319.041	509.479	-0.091	-0.212
-318.026	-0.382	0.146	0.104
-317.012	-17.939	0.215	-0.135
-315.997	-200.000	-0.041	0.390
-314.983	-53.872	0.154	-0.071
-313.968	-200.000	0.027	-0.209
-312.953	-62.852	-0.170	0.071
-311.939	87.268	0.207	-0.230
-310.924	-174.222	0.440	0.013
-309.910	-27.384	-0.142	-0.083
-308.895	800.000	0.123	-0.458
-307.880	-200.000	0.011	0.321
-306.866	86.713	-0.241	-0.267
-305.851	-16.040	-0.197	-0.126
-304.837	-200.000	0.054	0.442
-303.822	800.000	0.025	-0.096
-302.807	800.000	-0.012	0.047
-301.793	-35.910	-0.177	0.096
-300.778	-96.141	-0.053	-0.014
-299.764	-44.792	0.111	-0.056
-298.749	143.685	0.218	-0.292
-297.735	-28.127	0.259	0.150
-296.720	-200.000	0.013	0.219
-295.705	800.000	0.054	0.152
-294.691	448.408	-0.081	0.179
-293.676	-84.955	0.276	0.087
-292.662	-166.588	-0.165	0.007
-291.647	645.582	0.158	0.404
-290.632	-21.978	-0.218	0.133
-289.618	224.035	-0.086	0.139
-288.603	800.000	0.021	0.087
-287.589	1.620	0.071	0.052
-286.574	-134.028	0.208	-0.026
-285.559	-200.000	0.036	0.180
-284.545	-200.000	0.027	-0.281
-283.530	4.530	-0.200	-0.147
-282.516	-20.874	0.228	-0.140
-281.501	152.428	0.125	-0.172
-280.486	-60.097	-0.339	0.145
-279.472	-120.538	-0.195	0.033
-278.457	304.545	-0.095	0.176
-277.443	-41.405	-0.136	-0.070
-276.428	36.743	0.017	-0.015
-275.413	-125.046	-0.043	0.007
-274.399	90.570	0.112	-0.126
-273.384	-76.264	0.288	-0.102
-272.370	-200.000	0.002	-0.167
-271.355	-56.534	0.146	0.065
-270.340	-167.265	0.296	-0.012
-269.326	-200.000	-0.048	-0.273
-268.311	-200.000	-0.045	-0.479
-267.297	613.343	0.110	-0.276
-266.282	-200.000	-0.016	0.206
-265.267	149.023	-0.130	-0.176
-264.253	-122.223	-0.154	-0.025
-263.238	-200.000	-0.025	-0.153
-262.224	-102.827	-0.340	0.081
-261.209	257.556	-0.015	0.025
-260.195	-97.549	-0.175	-0.045
-259.180	42.387	-0.061	-0.055
-258.165	438.335	0.015	0.034
-257.151	-14.484	0.150	0.097
-256.136	111.085	0.193	-0.233
-255.122	800.000	-0.112	-0.382
-254.107	-200.000	0.034	-0.213
-253.092	-76.925	0.274	0.096
-252.078	128.657	0.109	0.139
-251.063	-22.073	-0.252	0.153
-250.049	-200.000	-0.024	-0.199
-249.034	131.730	0.142	-0.183
-248.019	85.568	0.263	0.289
-247.005	86.804	-0.154	-0.171
-245.990	128.616	0.095	0.121
-244.976	-120.841	0.048	-0.008
-243.961	-135.828	0.087	-0.010
-242.946	-65.265	0.127	-0.051
-241.932	-109.036	-0.066	0.014
-240.917	-22.491	0.230	0.139
-239.903	359.202	-0.046	0.091
-238.888	-55.749	0.135	-0.060
-237.873	-200.000	0.035	-0.314
-236.859	-148.940	-0.226	-0.018
-235.844	-139.174	0.081	-0.009
-234.830	16.917	0.295	-0.234
-233.815	77.135	-0.270	-0.287
-232.800	79.587	0.232	-0.249
-231.786	467.836	0.034	0.075
-230.771	-200.000	-0.010	-0.070
-229.757	-73.090	-0.134	0.049
-228.742	74.801	0.149	-0.157
-227.727	-200.000	0.015	-0.309
-226.713	64.203	0.077	-0.077
-225.698	246.363	-0.143	0.242
-224.684	-32.759	0.154	-0.086
-223.669	-110.303	-0.317	-0.066
-222.655	26.161	-0.201	-0.168
-221.640	208.925	-0.115	-0.181
-220.625	154.423	0.205	-0.282
-219.611	-167.748	0.046	0.002
-218.596	-167.013	-0.450	0.018
-217.582	503.408	-0.059	-0.136
-216.567	-200.000	-0.004	0.047
-215.552	-7.444	0.366	0.248
-214.538	-200.000	0.004	0.247
-213.523	14.173	0.035	0.027
-212.509	-200.000	-0.035	0.270
-211.494	-138.227	0.139	0.015
-210.479	-67.820	0.494	-0.193
-209.465	342.900	0.019	-0.037
-208.450	800.000	-0.053	0.206
-207.436	-200.000	-0.059	-0.324
-206.421	-19.004	-0.353	0.219
-205.406	106.952	-0.267	0.317
-204.392	189.441	-0.236	0.354
-203.377	-53.130	-0.525	-0.241
-202.363	35.278	0.171	-0.150
-201.348	800.000	-0.061	-0.189
-200.333	58.322	0.062	-0.061
-199.319	378.872	0.130	0.266
-198.304	55.598	-0.211	-0.204
-197.290	-0.637	0.141	0.100
-196.275	-88.328	-0.117	0.035
-195.260	91.742	0.153	0.171
-194.246	-71.428	0.179	-0.067
-193.231	13.238	0.337	0.261
-192.217	-161.102	0.119	0.006
-191.202	-46.121	-0.138	-0.068
-190.187	-98.500	0.230	-0.059
-189.173	-183.580	0.187	-0.003
-188.158	14.020	-0.048	-0.037
-187.144	136.081	0.182	-0.237
-186.129	-68.641	0.375	-0.145
-185.114	660.761	-0.027	0.070
-184.100	-131.268	0.158	0.021
-183.085	539.085	0.209	-0.497
-182.071	367.906	0.033	0.068
-181.056	501.844	-0.118	0.272
-180.042	90.959	-0.259	-0.290
-179.027	-200.000	-0.053	0.246
-178.012	-27.550	0.166	-0.097
-176.998	111.756	0.202	-0.244
-175.983	61.243	-0.107	0.106
-174.969	-0.304	-0.289	0.205
-173.954	-200.000	-0.004	0.172
-172.939	168.922	-0.197	0.281
-171.925	76.305	0.050	0.053
-170.910	800.000	-0.127	0.480
-169.896	-145.480	-0.191	-0.017
-168.881	14.722	0.153	0.120
-167.866	540.893	-0.029	0.068
-166.852	800.000	-0.056	0.157
-165.837	-200.000	-0.026	0.186
-164.823	709.164	0.072	-0.191
-163.808	98.494	-0.312	0.359
-162.793	378.990	-0.039	0.080
-161.779	159.742	0.243	-0.338
-160.764	19.987	-0.089	0.071
-159.750	326.799	-0.007	0.014
-158.735	79.011	0.077	-0.083
-157.720	-126.274	-0.442	-0.066
-156.706	-113.821	-0.321	0.062
-155.691	35.755	0.210	0.184
-154.677	-200.000	-0.013	0.170
-153.662	559.124	0.109	-0.263
-152.647	-150.121	0.387	-0.030
-151.633	34.779	-0.173	-0.151
-150.618	800.000	-0.011	-0.040
-149.604	187.802	-0.220	0.327
-148.589	-177.434	0.208	0.005
-147.574	800.000	-0.029	-0.110
-146.560	299.451	-0.129	-0.237
-145.545	90.805	0.157	0.175
-144.531	-200.000	-0.003	-0.330
-143.516	140.839	0.029	0.038
-142.502	-38.557	-0.076	0.040
-141.487	-69.391	0.134	0.051
-140.472	59.587	0.165	-0.162
-139.458	-200.000	0.021	-0.493
-138.443	-26.051	-0.183	0.107
-137.429	800.000	0.101	0.319
-136.414	-171.135	0.228	-0.008
-135.399	97.538	-0.049	-0.056
-134.385	-200.000	-0.049	0.261
-133.370	800.000	-0.078	0.262
-132.356	-200.000	-0.030	-0.158
-131.341	-66.858	0.248	0.098
-130.326	723.793	-0.072	0.190
-129.312	22.673	0.275	0.224
-128.297	-101.847	0.373	-0.090
-127.283	151.162	0.200	0.271
-126.268	-11.472	0.241	0.158
-125.253	-200.000	-0.008	0.135
-124.239	60.142	-0.107	0.106
-123.224	-200.000	0.010	-0.264
-122.210	-200.000	-0.010	-0.079
-121.195	-200.000	-0.002	0.161
-120.180	-172.713	-0.270	-0.008
