DTS Sentinel unit serial number:	SN413079Multiplexer serial number:	ORYXHardware model number:	OX4-SRSoftware version number:	ORYX F/W v4.00 Oryx Data Collector v3.7.2.0data status	okinstallation	princeton_trtdifferential loss correction	single-endedforward channel	channel 3reverse channel	N/Adate	2019/09/19time	01:20:35forward acquisition time	60.00reverse acquisition time	0.00gamma	496.2192k internal	0.2348k external	0.2348temperature offset calibration	0.9990default loss term (dB/km)	0.3790temperature slope calibration	1.0000multiplexer offset coefficient	1.0000multiplexer slope coefficient	1.0000fibre end	0.00T internal ref (°C)	21.69T ext. ref 1 (°C)	0.70T ext. ref 2 (°C)	15.09length (m)	temperature (°C)	Stokes	anti-Stokes-747.200	40.071	-0.169	-0.152
-746.185	108.112	0.106	0.126
-745.171	-200.000	-0.012	-0.052
-744.156	-76.208	-0.141	0.050
-743.142	-64.306	0.217	0.088
-742.127	39.671	-0.241	0.216
-741.112	-200.000	0.030	-0.174
-740.098	-200.000	0.028	0.259
-739.083	198.981	0.021	-0.033
-738.069	296.671	-0.172	0.315
-737.054	-69.320	-0.333	-0.128
-736.039	-66.716	-0.334	0.132
-735.025	-8.192	0.138	0.093
-734.010	-132.727	-0.356	-0.046
-732.996	-135.677	-0.244	0.029
-731.981	295.736	0.135	0.247
-730.966	760.247	-0.118	0.319
-729.952	564.723	-0.191	-0.463
-728.937	27.833	-0.280	-0.236
-727.923	-200.000	-0.019	0.202
-726.908	756.718	-0.178	-0.482
-725.894	600.863	0.079	-0.196
-724.879	-100.489	-0.140	-0.035
-723.864	-131.439	0.093	-0.012
-722.850	-53.541	0.271	0.124
-721.835	285.697	-0.178	-0.320
-720.821	49.827	-0.205	-0.193
-719.806	-200.000	0.009	-0.129
-718.791	191.643	-0.127	-0.191
-717.777	-200.000	0.018	0.220
-716.762	63.923	-0.081	0.081
-715.748	172.957	-0.110	-0.158
-714.733	-19.370	0.287	0.178
-713.718	-35.749	0.217	-0.117
-712.704	-125.438	-0.117	0.018
-711.689	-124.877	-0.283	0.044
-710.675	-200.000	-0.038	-0.313
-709.660	245.315	-0.040	-0.068
-708.645	-51.174	-0.215	-0.100
-707.631	5.011	-0.165	0.121
-706.616	284.809	0.165	-0.297
-705.602	-200.000	0.028	-0.156
-704.587	800.000	0.122	-0.527
-703.572	136.003	0.040	0.052
-702.558	-200.000	0.037	0.233
-701.543	-158.418	-0.233	0.013
-700.529	-45.449	-0.290	0.144
-699.514	481.365	-0.097	-0.220
-698.499	-120.123	0.062	-0.011
-697.485	-200.000	-0.014	0.111
-696.470	-35.921	-0.040	-0.021
-695.456	800.000	0.055	0.161
-694.441	-130.467	-0.272	-0.037
-693.426	16.786	0.135	0.106
-692.412	30.722	0.299	0.255
-691.397	91.633	-0.073	-0.082
-690.383	305.201	-0.025	-0.046
-689.368	-22.865	-0.181	-0.109
-688.354	48.932	0.081	0.076
-687.339	-10.365	-0.191	0.126
-686.324	-200.000	0.009	-0.148
-685.310	239.834	0.098	-0.162
-684.295	-200.000	0.005	-0.025
-683.281	15.813	-0.278	0.218
-682.266	12.552	-0.224	0.172
-681.251	-200.000	-0.028	-0.323
-680.237	800.000	0.101	-0.282
-679.222	23.922	-0.299	0.246
-678.208	-200.000	0.030	0.268
-677.193	-20.804	-0.143	0.087
-676.178	-48.768	-0.178	-0.085
-675.164	800.000	-0.030	0.091
-674.149	-26.489	0.123	-0.072
-673.135	-118.264	-0.151	0.027
-672.120	-31.145	-0.114	-0.064
-671.105	-200.000	0.026	-0.211
-670.091	-200.000	0.050	-0.259
-669.076	20.679	-0.184	-0.149
-668.062	-148.390	-0.349	-0.029
-667.047	-200.000	-0.024	-0.202
-666.032	-200.000	0.027	-0.172
-665.018	-200.000	-0.030	-0.271
-664.003	441.346	-0.148	-0.323
-662.989	155.551	0.112	-0.154
-661.974	800.000	0.032	-0.105
-660.959	-200.000	-0.038	-0.305
-659.945	11.289	-0.171	-0.130
-658.930	73.752	0.262	-0.273
-657.916	369.833	0.145	-0.292
-656.901	194.508	0.156	0.236
-655.886	-172.053	0.020	-0.001
-654.872	-85.533	0.229	0.071
-653.857	-92.437	-0.351	-0.098
-652.843	-49.331	-0.110	-0.052
-651.828	-166.810	-0.038	0.002
-650.814	-83.657	-0.083	0.026
-649.799	-48.365	0.259	-0.124
-648.784	-8.776	0.098	0.065
-647.770	-94.036	-0.126	-0.034
-646.755	-131.134	-0.174	0.023
-645.741	-79.057	0.102	0.035
-644.726	-175.470	0.295	0.008
-643.711	-156.351	-0.168	0.010
-642.697	-200.000	0.010	-0.283
-641.682	417.801	0.118	0.251
-640.668	278.246	0.161	-0.286
-639.653	112.705	-0.048	-0.057
-638.638	-200.000	-0.031	0.177
-637.624	-57.901	0.161	-0.070
-636.609	-200.000	0.003	-0.118
-635.595	-46.694	-0.128	-0.062
-634.580	88.446	-0.234	-0.259
-633.565	28.737	0.079	0.067
-632.551	-164.028	-0.385	-0.018
-631.536	-61.126	0.184	-0.077
-630.522	781.698	-0.017	-0.046
-629.507	-200.000	-0.092	-0.597
-628.492	704.336	-0.160	-0.419
-627.478	-20.112	-0.058	-0.036
-626.463	-62.845	0.231	-0.095
-625.449	167.737	0.175	0.247
-624.434	-143.309	0.117	-0.011
-623.419	-200.000	0.016	-0.358
-622.405	198.560	0.110	0.167
-621.390	-56.082	-0.439	-0.194
-620.376	-179.237	-0.208	-0.005
-619.361	-57.944	0.084	0.036
-618.346	44.023	-0.028	0.025
-617.332	247.678	-0.108	-0.182
-616.317	800.000	-0.053	0.172
-615.303	229.070	-0.054	0.087
-614.288	198.780	0.172	0.261
-613.273	330.970	-0.051	0.097
-612.259	-75.437	0.120	0.043
-611.244	-61.779	-0.117	0.049
-610.230	558.446	-0.116	0.278
-609.215	126.648	0.135	-0.170
-608.201	-200.000	-0.009	0.135
-607.186	800.000	0.096	0.269
-606.171	-148.705	-0.035	-0.003
-605.157	-88.907	-0.132	-0.039
-604.142	88.558	-0.037	0.041
-603.128	74.682	0.160	0.167
-602.113	-200.000	0.184	0.000
-601.098	115.805	0.221	0.268
-600.084	98.179	-0.134	0.153
-599.069	66.441	0.061	-0.061
-598.055	800.000	-0.153	-0.431
-597.040	-66.352	0.462	-0.182
-596.025	-200.000	0.028	0.135
-595.011	-147.481	0.399	0.033
-593.996	-139.354	-0.370	-0.039
-592.982	-40.876	-0.070	-0.036
-591.967	-200.000	0.007	0.086
-590.952	-43.642	0.201	-0.101
-589.938	-75.318	0.164	0.058
-588.923	-118.873	0.199	0.035
-587.909	164.106	0.222	-0.311
-586.894	158.742	0.126	-0.174
-585.879	11.989	-0.071	0.054
-584.865	113.294	0.099	0.119
-583.850	159.874	-0.086	-0.119
-582.836	-200.000	0.024	0.159
-581.821	-200.000	-0.032	0.287
-580.806	450.717	0.080	0.176
-579.792	458.182	-0.186	0.410
-578.777	-200.000	-0.056	-0.423
-577.763	36.059	-0.089	0.078
-576.748	800.000	0.086	-0.373
-575.733	65.863	-0.193	-0.194
-574.719	-200.000	0.029	-0.248
-573.704	-59.838	0.146	-0.062
-572.690	583.280	-0.102	0.249
-571.675	351.229	0.109	0.213
-570.661	-96.263	-0.199	-0.052
-569.646	-88.845	0.227	-0.067
-568.631	-53.209	-0.149	0.068
-567.617	-66.672	-0.115	0.045
-566.602	198.278	0.028	-0.043
-565.588	-200.000	-0.019	-0.093
-564.573	800.000	0.087	0.242
-563.558	61.043	-0.193	-0.190
-562.544	400.812	-0.113	0.234
-561.529	32.583	0.155	-0.133
-560.515	56.194	-0.135	-0.130
-559.500	28.940	-0.271	0.228
-558.485	88.615	-0.092	-0.102
-557.471	-10.372	0.133	0.088
-556.456	242.602	0.035	0.058
-555.442	-108.569	-0.299	-0.064
-554.427	170.490	-0.187	0.265
-553.412	751.899	0.049	-0.131
-552.398	-67.870	-0.395	0.153
-551.383	-189.594	0.285	0.003
-550.369	231.592	0.091	-0.147
-549.354	-200.000	0.029	0.136
-548.339	800.000	-0.107	0.412
-547.325	21.122	-0.098	-0.079
-546.310	73.851	-0.182	-0.189
-545.296	-36.903	-0.257	-0.137
-544.281	-200.000	0.046	0.343
-543.266	441.009	-0.061	-0.131
-542.252	-200.000	-0.017	-0.079
-541.237	-116.918	-0.243	0.044
-540.223	54.359	-0.122	-0.116
-539.208	-35.782	0.191	0.103
-538.193	-200.000	-0.041	0.245
-537.179	189.334	0.241	-0.358
-536.164	-83.594	-0.141	0.045
-535.150	-76.436	-0.167	-0.058
-534.135	287.564	-0.164	0.294
-533.121	-86.218	-0.216	0.066
-532.106	-2.227	0.381	-0.265
-531.091	111.441	-0.092	-0.109
-530.077	-120.416	-0.458	-0.077
-529.062	262.664	0.169	0.290
-528.048	-84.138	-0.181	-0.057
-527.033	49.843	-0.040	0.037
-526.018	11.856	0.265	0.202
-525.004	49.037	-0.091	0.085
-523.989	800.000	0.075	-0.255
-522.975	288.198	-0.104	-0.187
-521.960	213.073	0.113	-0.176
-520.945	-34.213	-0.115	-0.063
-519.931	312.083	0.109	0.202
-518.916	-200.000	0.048	0.293
-517.902	16.196	0.230	0.180
-516.887	267.558	0.155	-0.269
-515.872	-200.000	0.062	-0.342
-514.858	-107.845	0.149	0.032
-513.843	800.000	0.034	0.112
-512.829	554.280	0.023	-0.056
-511.814	9.348	0.187	-0.140
-510.799	-5.435	0.079	0.054
-509.785	-40.824	-0.184	-0.094
-508.770	-200.000	-0.006	-0.149
-507.756	66.412	0.196	0.198
-506.741	207.264	0.048	-0.074
-505.726	98.028	0.044	0.050
-504.712	-132.124	-0.369	0.047
-503.697	163.606	-0.039	0.054
-502.683	800.000	-0.076	0.221
-501.668	-159.048	-0.062	0.003
-500.653	-152.401	0.456	0.032
-499.639	160.239	-0.030	-0.042
-498.624	282.959	0.077	0.137
-497.610	800.000	-0.034	-0.094
-496.595	800.000	-0.076	0.248
-495.581	-31.611	0.067	-0.037
-494.566	-22.323	0.317	-0.190
-493.551	267.847	-0.241	-0.417
-492.537	180.096	-0.110	0.159
-491.522	-153.095	0.415	-0.029
-490.508	-186.563	0.390	0.005
-489.493	-56.207	-0.080	-0.035
-488.478	26.457	0.129	-0.107
-487.464	92.330	0.021	-0.023
-486.449	225.468	-0.094	-0.150
-485.435	800.000	-0.002	0.005
-484.420	-107.441	0.153	-0.033
-483.405	-95.774	0.017	-0.004
-482.391	-144.790	0.185	0.017
-481.376	-200.000	-0.037	-0.222
-480.362	-200.000	-0.043	-0.197
-479.347	70.107	-0.133	-0.136
-478.332	167.259	-0.079	0.111
-477.318	-200.000	0.007	0.156
-476.303	800.000	0.071	-0.266
-475.289	-105.907	-0.088	0.020
-474.274	-84.890	0.105	-0.032
-473.259	-114.443	-0.241	0.046
-472.245	-200.000	-0.047	0.443
-471.230	-37.472	-0.130	0.069
-470.216	312.230	0.031	0.057
-469.201	800.000	-0.125	0.385
-468.186	-82.890	0.033	-0.010
-467.172	-100.445	0.151	0.037
-466.157	13.728	0.261	0.201
-465.143	-46.610	-0.229	-0.111
-464.128	-78.077	0.452	-0.154
-463.113	-79.547	-0.123	0.041
-462.099	800.000	0.053	-0.150
-461.084	-105.090	-0.294	-0.067
-460.070	-200.000	0.001	0.209
-459.055	102.074	0.138	0.159
-458.040	300.452	0.132	0.240
-457.026	411.045	0.118	-0.247
-456.011	-200.000	-0.055	0.411
-454.997	20.744	0.283	0.226
-453.982	-200.000	0.060	-0.314
-452.968	-113.753	0.195	-0.037
-451.953	-60.974	-0.209	0.087
-450.938	-164.396	0.087	0.004
-449.924	81.769	-0.086	-0.092
-448.909	-10.717	-0.188	0.123
-447.895	-165.874	-0.276	-0.012
-446.880	117.613	0.098	-0.120
-445.865	35.241	0.121	0.105
-444.851	42.336	-0.296	0.266
-443.836	116.386	0.174	-0.211
-442.822	800.000	-0.169	0.528
-441.807	-158.941	0.423	0.024
-440.792	-108.516	-0.187	0.040
-439.778	16.221	0.377	-0.293
-438.763	65.797	-0.323	-0.323
-437.749	-20.846	-0.302	-0.183
-436.734	-85.561	0.302	-0.093
-435.719	90.504	-0.203	0.225
-434.705	-176.716	0.238	-0.006
-433.690	315.180	-0.105	-0.195
-432.676	110.972	-0.171	-0.203
-431.661	528.157	-0.147	-0.342
-430.646	-13.416	0.296	-0.190
-429.632	29.797	-0.031	-0.026
-428.617	255.898	-0.046	0.078
-427.603	-42.413	-0.263	0.132
-426.588	800.000	-0.056	-0.180
-425.573	-129.253	0.137	0.019
-424.559	85.584	0.155	-0.168
-423.544	-79.077	0.037	0.012
-422.530	-128.716	-0.139	0.019
-421.515	134.571	0.116	-0.149
-420.500	-107.656	-0.242	0.052
-419.486	-31.415	-0.104	0.058
-418.471	226.232	0.096	0.153
-417.457	-145.298	-0.193	0.017
-416.442	486.068	0.060	0.135
-415.428	36.736	-0.103	-0.090
-414.413	-117.897	-0.375	-0.066
-413.398	113.782	-0.041	0.050
-412.384	-200.000	0.011	-0.186
-411.369	250.010	-0.107	0.180
-410.355	103.498	0.084	0.097
-409.340	-86.285	-0.299	0.091
-408.325	40.833	0.198	-0.176
-407.311	-200.000	-0.028	0.261
-406.296	33.173	0.081	0.069
-405.282	420.426	-0.059	-0.125
-404.267	-200.000	0.004	0.060
-403.252	-36.571	0.267	0.142
-402.238	-76.144	-0.251	-0.087
-401.223	-76.701	-0.143	0.049
-400.209	-37.340	-0.342	0.180
-399.194	800.000	-0.022	0.085
-398.179	154.591	0.165	0.223
-397.165	800.000	-0.107	0.305
-396.150	-200.000	0.011	-0.124
-395.136	-200.000	-0.008	0.050
-394.121	-140.726	0.098	0.010
-393.106	-37.576	0.095	-0.050
-392.092	-200.000	-0.027	-0.161
-391.077	-28.905	-0.232	0.131
-390.063	431.762	0.146	0.312
-389.048	-90.299	0.174	-0.050
-388.033	-124.864	-0.132	0.020
-387.019	3.431	0.113	0.081
-386.004	42.884	-0.007	0.007
-384.990	-146.504	-0.204	0.018
-383.975	174.945	0.126	-0.179
-382.960	311.611	0.279	-0.515
-381.946	69.901	-0.163	-0.165
-380.931	-125.767	0.392	0.058
-379.917	202.708	-0.076	-0.115
-378.902	148.091	-0.165	-0.220
-377.888	800.000	-0.087	-0.275
-376.873	-73.033	0.158	0.057
-375.858	332.221	-0.075	0.142
-374.844	-102.262	0.107	0.025
-373.829	-89.288	0.133	0.039
-372.815	210.868	-0.201	-0.311
-371.800	38.785	-0.141	0.124
-370.785	800.000	-0.045	0.128
-369.771	225.009	-0.192	0.306
-368.756	274.042	-0.092	-0.160
-367.742	19.640	-0.048	-0.038
-366.727	-164.484	0.145	0.007
-365.712	-200.000	0.070	0.553
-364.698	-27.639	-0.192	-0.110
-363.683	-0.496	0.241	0.169
-362.669	-85.905	0.101	0.031
-361.654	800.000	-0.118	-0.343
-360.639	-137.467	-0.223	-0.025
-359.625	4.610	0.167	0.121
-358.610	57.581	0.209	-0.201
-357.596	-90.671	-0.488	0.139
-356.581	-66.508	0.141	0.055
-355.566	-200.000	0.005	0.070
-354.552	-28.171	0.215	-0.122
-353.537	-200.000	0.004	0.127
-352.523	42.763	-0.176	-0.157
-351.508	22.535	0.167	-0.134
-350.493	144.016	-0.173	-0.227
-349.479	77.470	0.048	0.050
-348.464	-57.878	-0.142	0.061
-347.450	-200.000	-0.018	0.103
-346.435	123.840	0.219	0.271
-345.420	120.209	0.122	0.149
-344.406	-36.716	0.305	0.161
-343.391	-79.749	0.188	0.062
-342.377	13.146	-0.166	-0.126
-341.362	68.163	-0.164	0.165
-340.348	-48.652	0.278	0.131
-339.333	376.358	0.094	0.189
-338.318	-200.000	0.179	0.000
-337.304	784.053	0.037	-0.099
-336.289	344.105	0.087	0.168
-335.275	-83.407	-0.107	-0.034
-334.260	-43.017	0.150	-0.075
-333.245	-38.895	-0.107	-0.056
-332.231	-200.000	-0.056	0.360
-331.216	-200.000	-0.010	0.109
-330.202	446.605	0.159	-0.344
-329.187	30.765	0.224	-0.189
-328.172	-200.000	-0.016	0.092
-327.158	288.656	0.130	-0.232
-326.143	106.636	-0.148	0.173
-325.129	-141.961	-0.264	-0.026
-324.114	800.000	-0.079	-0.215
-323.099	-138.284	0.361	-0.039
-322.085	145.142	0.078	-0.103
-321.070	-138.556	0.090	-0.010
-320.056	173.528	-0.051	-0.073
-319.041	-89.233	0.314	-0.091
-318.026	131.353	0.219	0.276
-317.012	-200.000	-0.029	0.343
-315.997	146.713	-0.228	-0.301
-314.983	207.953	-0.207	-0.318
-313.968	800.000	0.074	0.207
-312.953	34.223	-0.055	0.047
-311.939	127.966	0.100	0.124
-310.924	-131.719	-0.223	-0.029
-309.910	800.000	-0.125	-0.399
-308.895	-78.783	-0.307	0.103
-307.880	461.391	0.053	0.116
-306.866	-98.668	-0.080	-0.020
-305.851	543.325	-0.111	0.260
-304.837	-200.000	-0.020	0.222
-303.822	9.594	0.041	0.030
-302.807	37.021	-0.063	-0.054
-301.793	85.510	-0.148	-0.159
-300.778	89.985	0.139	0.152
-299.764	-127.821	0.167	-0.024
-298.749	25.456	0.112	0.092
-297.735	695.519	0.084	-0.218
-296.720	-2.660	-0.306	0.210
-295.705	2.824	-0.101	0.072
-294.691	257.297	0.056	-0.094
-293.676	-174.991	-0.244	-0.007
-292.662	5.707	0.152	0.110
-291.647	88.154	0.306	0.333
-290.632	395.417	0.123	0.253
-289.618	78.915	-0.355	0.373
-288.603	204.780	0.113	0.172
-287.589	43.736	-0.138	-0.124
-286.574	154.687	-0.100	-0.135
-285.559	-65.268	0.218	-0.086
-284.545	531.172	0.153	-0.356
-283.530	-15.782	-0.143	-0.089
-282.516	-117.036	0.144	-0.026
-281.501	800.000	0.035	0.101
-280.486	111.918	0.210	-0.249
-279.472	800.000	0.042	0.145
-278.457	-200.000	0.013	-0.277
-277.443	-200.000	0.031	0.230
-276.428	117.894	0.149	0.181
-275.413	-116.065	0.032	0.006
-274.399	-126.455	0.269	0.039
-273.384	-167.577	-0.106	0.004
-272.370	-107.364	-0.168	-0.036
-271.355	-200.000	-0.001	0.305
-270.340	107.358	0.098	-0.114
-269.326	800.000	-0.006	0.025
-268.311	-200.000	-0.015	0.313
-267.297	-151.497	-0.033	0.002
-266.282	-66.986	0.171	0.066
-265.267	171.517	-0.057	-0.080
-264.253	89.151	-0.239	-0.261
-263.238	-148.025	0.295	-0.024
-262.224	-35.723	-0.019	-0.010
-261.209	-38.539	-0.286	-0.148
-260.195	-40.207	-0.306	-0.156
-259.180	-27.996	-0.189	-0.107
-258.165	-89.295	-0.388	-0.112
-257.151	800.000	0.089	-0.247
-256.136	-96.947	0.107	-0.028
-255.122	60.495	-0.084	-0.082
-254.107	-81.035	0.603	-0.196
-253.092	800.000	-0.049	0.186
-252.078	83.866	-0.125	-0.133
-251.063	-200.000	0.001	0.120
-250.049	-200.000	0.013	0.218
-249.034	-171.734	-0.263	-0.008
-248.019	-122.792	0.214	0.034
-247.005	47.849	0.269	-0.246
-245.990	141.229	0.116	0.150
-244.976	-200.000	-0.000	-0.093
-243.961	-7.329	0.092	0.061
-242.946	-21.310	-0.225	0.135
-241.932	7.479	0.052	-0.038
-240.917	-101.867	-0.086	-0.020
-239.903	198.260	0.201	-0.302
-238.888	34.095	-0.048	0.041
-237.873	-200.000	-0.029	0.193
-236.859	-8.519	0.040	-0.026
-235.844	-200.000	-0.029	0.215
-234.830	153.844	-0.240	0.322
-233.815	800.000	-0.099	-0.280
-232.800	-200.000	-0.019	0.131
-231.786	-119.345	0.325	-0.055
-230.771	-104.999	-0.210	0.047
-229.757	800.000	0.096	-0.301
-228.742	167.981	0.134	-0.186
-227.727	-32.785	0.207	-0.113
-226.713	-200.000	0.017	-0.216
-225.698	800.000	-0.122	-0.404
-224.684	224.789	-0.159	-0.252
-223.669	205.207	-0.097	-0.148
-222.655	800.000	-0.145	0.402
-221.640	-200.000	-0.039	0.207
-220.625	90.592	-0.124	0.136
-219.611	-11.509	-0.134	-0.086
-218.596	-107.740	-0.243	0.052
-217.582	74.631	-0.099	0.102
-216.567	93.286	-0.089	-0.099
-215.552	-94.284	-0.133	-0.036
-214.538	-80.666	0.157	-0.051
-213.523	-145.032	0.122	-0.011
-212.509	294.013	-0.130	-0.233
-211.494	230.753	-0.203	0.325
-210.479	-200.000	-0.019	0.208
-209.465	800.000	0.070	-0.219
-208.450	-117.456	0.366	-0.065
-207.436	-133.958	-0.091	0.011
-206.421	-200.000	-0.019	0.218
-205.406	48.960	-0.080	0.074
-204.392	-54.350	0.237	-0.105
-203.377	189.575	0.091	-0.133
-202.363	445.952	-0.072	-0.155
-201.348	-200.000	0.004	-0.241
-200.333	-200.000	0.034	0.264
-199.319	5.948	0.165	0.119
-198.304	112.470	-0.264	-0.312
-197.290	-158.927	0.098	0.005
-196.275	90.127	0.018	0.020
-195.260	115.020	-0.230	0.274
-194.246	-26.545	0.159	-0.091
-193.231	-93.522	0.084	-0.023
-192.217	547.482	0.073	-0.171
-191.202	-200.000	-0.027	0.172
-190.187	-80.517	0.259	0.085
-189.173	-200.000	-0.011	0.114
-188.158	-200.000	0.024	0.425
-187.144	-194.186	-0.398	-0.003
-186.129	79.009	-0.030	-0.031
-185.114	-200.000	-0.006	-0.029
-184.100	-21.891	0.190	0.113
-183.085	800.000	-0.021	0.087
-182.071	800.000	-0.044	0.155
-181.056	-97.415	0.138	-0.035
-180.042	166.286	0.121	0.167
-179.027	471.032	-0.046	0.101
-178.012	458.390	0.015	0.034
-176.998	-200.000	-0.034	-0.166
-175.983	117.070	0.066	-0.080
-174.969	90.464	-0.120	-0.131
-173.954	-50.706	0.047	0.022
-172.939	548.845	-0.082	0.192
-171.925	-182.224	0.138	0.003
-170.910	-81.126	0.187	0.060
-169.896	-200.000	0.006	-0.123
-168.881	64.178	0.098	-0.096
-167.866	175.198	-0.116	-0.163
-166.852	800.000	-0.057	-0.157
-165.837	251.789	0.107	-0.177
-164.823	-200.000	0.021	-0.262
-163.808	-39.308	-0.177	-0.091
-162.793	27.404	-0.191	0.157
-161.779	76.547	0.065	0.067
-160.764	-28.727	0.242	-0.136
-159.750	547.126	0.090	-0.210
-158.735	-200.000	-0.030	0.151
-157.720	40.195	-0.251	-0.220
-156.706	-200.000	0.012	-0.080
-155.691	800.000	-0.062	0.215
-154.677	174.527	0.068	0.096
-153.662	-166.270	0.083	0.003
-152.647	30.410	-0.354	0.295
-151.633	12.766	-0.029	-0.022
-150.618	-21.603	0.420	0.250
-149.604	55.706	-0.194	0.184
-148.589	800.000	-0.111	-0.464
-147.574	123.423	-0.194	0.238
-146.560	-5.037	-0.142	0.095
-145.545	91.904	0.139	0.153
-144.531	-200.000	-0.040	-0.194
-143.516	-20.389	-0.118	0.071
-142.502	156.326	0.132	0.178
-141.487	16.641	-0.100	-0.077
-140.472	163.593	0.078	0.107
-139.458	-99.606	0.185	0.045
-138.443	800.000	0.053	0.184
-137.429	-200.000	-0.054	0.313
-136.414	-81.929	-0.286	0.091
-135.399	263.823	-0.046	-0.078
-134.385	-170.920	-0.153	-0.005
-133.370	-200.000	-0.002	-0.209
-132.356	-120.393	0.114	0.019
-131.341	-200.000	0.013	-0.080
-130.326	-130.961	0.217	0.028
-129.312	158.118	-0.096	0.130
-128.297	329.193	-0.080	-0.149
-127.283	759.307	-0.035	-0.092
-126.268	114.628	-0.087	0.104
-125.253	800.000	-0.106	0.294
-124.239	-200.000	0.009	-0.370
-123.224	18.069	-0.181	0.141
-122.210	185.828	0.065	0.094
-121.195	800.000	0.049	-0.152
