DTS Sentinel unit serial number:	SN413079Multiplexer serial number:	ORYXHardware model number:	OX4-SRSoftware version number:	ORYX F/W v4.00 Oryx Data Collector v3.7.2.0data status	okinstallation	princeton_trtdifferential loss correction	single-endedforward channel	channel 3reverse channel	N/Adate	2019/09/15time	17:52:35forward acquisition time	60.00reverse acquisition time	0.00gamma	496.2192k internal	0.2286k external	0.2286temperature offset calibration	0.9930default loss term (dB/km)	0.3790temperature slope calibration	1.0000multiplexer offset coefficient	1.0000multiplexer slope coefficient	1.0000fibre end	0.00T internal ref (°C)	44.84T ext. ref 1 (°C)	6.37T ext. ref 2 (°C)	39.14length (m)	temperature (°C)	Stokes	anti-Stokes-747.200	800.000	0.031	-0.102
-746.185	-160.607	0.248	-0.014
-745.171	-9.115	0.125	-0.086
-744.156	-187.535	0.173	-0.002
-743.142	-75.230	-0.514	0.188
-742.127	91.047	-0.108	0.124
-741.112	10.033	0.075	0.059
-740.098	6.038	0.172	0.131
-739.083	82.731	0.138	0.153
-738.069	-200.000	0.076	0.533
-737.054	-200.000	-0.014	0.354
-736.039	-33.390	-0.216	0.122
-735.025	-183.156	0.191	0.003
-734.010	-200.000	0.039	0.213
-732.996	-110.876	0.085	-0.018
-731.981	43.625	-0.085	-0.080
-730.966	-1.132	-0.168	0.121
-729.952	67.578	-0.121	-0.126
-728.937	-25.842	-0.190	-0.115
-727.923	800.000	-0.158	-0.480
-726.908	224.997	0.165	-0.273
-725.894	-65.791	-0.203	-0.083
-724.879	-31.254	0.209	-0.121
-723.864	-39.868	-0.184	0.098
-722.850	72.911	0.128	0.137
-721.835	-129.218	-0.271	0.039
-720.821	267.423	0.140	0.251
-719.806	-35.293	0.243	0.135
-718.791	307.420	-0.010	0.019
-717.777	-95.601	-0.292	-0.080
-716.762	-122.002	0.396	0.067
-715.748	800.000	0.008	-0.024
-714.733	-200.000	0.000	0.112
-713.718	77.049	0.159	-0.173
-712.704	-200.000	0.007	0.177
-711.689	800.000	0.024	0.084
-710.675	-104.626	0.140	0.033
-709.660	-151.330	0.481	-0.037
-708.645	-103.011	-0.092	-0.022
-707.631	134.970	-0.072	0.095
-706.616	-48.430	0.073	-0.036
-705.602	-64.683	-0.160	0.066
-704.587	20.026	0.297	-0.246
-703.572	-109.383	0.404	-0.088
-702.558	-19.069	-0.117	0.075
-701.543	-200.000	0.013	0.297
-700.529	800.000	0.068	0.284
-699.514	-39.207	0.199	-0.107
-698.499	-88.750	-0.308	0.094
-697.485	-73.112	0.090	-0.034
-696.470	800.000	0.074	0.309
-695.456	800.000	0.104	-0.333
-694.441	-88.191	-0.144	0.044
-693.426	-49.768	-0.235	0.114
-692.412	245.753	0.112	0.194
-691.397	-200.000	-0.048	-0.458
-690.383	800.000	-0.061	-0.206
-689.368	800.000	-0.119	-0.340
-688.354	800.000	-0.051	0.217
-687.339	-200.000	-0.043	0.233
-686.324	-162.018	0.360	0.019
-685.310	126.300	0.260	-0.336
-684.295	81.142	-0.162	0.179
-683.281	800.000	0.034	-0.108
-682.266	24.903	0.248	0.211
-681.251	-200.000	0.019	-0.200
-680.237	800.000	-0.052	0.181
-679.222	20.554	0.271	-0.225
-678.208	36.226	0.131	-0.118
-677.193	-200.000	0.040	-0.333
-676.178	-68.147	-0.189	0.075
-675.164	51.045	0.205	-0.199
-674.149	148.249	-0.153	-0.212
-673.135	-46.515	0.270	-0.136
-672.120	800.000	-0.034	0.099
-671.105	800.000	0.099	-0.286
-670.091	559.168	0.049	-0.121
-669.076	-200.000	0.027	-0.285
-668.062	-21.166	-0.349	-0.218
-667.047	-200.000	-0.031	-0.411
-666.032	105.100	-0.125	0.151
-665.018	37.751	0.110	0.100
-664.003	216.413	0.167	0.272
-662.989	-55.046	-0.372	-0.171
-661.974	-200.000	-0.053	0.236
-660.959	-200.000	0.291	0.000
-659.945	-152.102	-0.061	0.004
-658.930	-81.613	-0.304	-0.102
-657.916	23.182	-0.182	0.152
-656.901	-168.608	-0.246	-0.010
-655.886	466.856	0.248	-0.569
-654.872	-200.000	0.066	-0.579
-653.857	-200.000	-0.004	0.033
-652.843	29.365	-0.084	0.073
-651.828	-81.386	0.332	0.112
-650.814	-29.629	0.105	0.061
-649.799	-178.742	-0.141	-0.003
-648.784	15.271	0.020	0.016
-647.770	103.235	-0.071	-0.085
-646.755	109.140	-0.138	-0.169
-645.741	222.735	0.128	0.211
-644.726	-35.260	0.282	-0.157
-643.711	-58.681	-0.177	0.078
-642.697	-200.000	0.079	0.403
-641.682	-69.494	0.069	-0.027
-640.668	10.592	-0.096	0.075
-639.653	800.000	0.076	-0.328
-638.638	800.000	0.097	0.278
-637.624	180.724	-0.237	-0.356
-636.609	76.598	-0.174	-0.189
-635.595	-20.325	0.091	-0.057
-634.580	-158.627	0.131	-0.008
-633.565	33.713	0.433	0.385
-632.551	-65.888	0.141	0.058
-631.536	447.083	-0.160	-0.360
-630.522	-144.002	-0.298	0.029
-629.507	12.430	-0.237	0.187
-628.492	29.203	-0.272	0.235
-627.478	603.829	-0.034	-0.085
-626.463	-200.000	-0.014	0.132
-625.449	-200.000	-0.006	-0.129
-624.434	-76.483	-0.197	0.071
-623.419	7.982	-0.281	0.216
-622.405	800.000	0.018	-0.076
-621.390	-77.172	0.110	-0.039
-620.376	425.846	0.064	0.141
-619.361	191.852	-0.107	0.165
-618.346	278.744	0.048	0.087
-617.332	62.054	-0.237	0.241
-616.317	314.801	0.088	0.170
-615.303	697.647	0.095	0.255
-614.288	456.229	-0.246	-0.557
-613.273	101.560	-0.081	-0.096
-612.259	-30.387	-0.123	-0.071
-611.244	-157.575	-0.123	0.008
-610.230	-93.559	-0.105	0.030
-609.215	-42.119	0.019	0.010
-608.201	-200.000	0.007	0.112
-607.186	-86.013	0.317	0.100
-606.171	219.505	-0.118	-0.192
-605.157	-119.249	0.205	0.036
-604.142	791.560	0.045	0.128
-603.128	-200.000	0.018	0.249
-602.113	-140.705	0.312	-0.033
-601.098	121.043	-0.098	0.124
-600.084	509.879	0.111	-0.263
-599.069	-200.000	0.056	-0.314
-598.055	-17.341	-0.149	0.096
-597.040	800.000	0.024	-0.102
-596.025	-200.000	-0.024	-0.148
-595.011	2.554	-0.197	-0.145
-593.996	92.758	0.191	0.220
-592.982	-200.000	0.010	0.066
-591.967	-73.161	0.478	0.179
-590.952	-200.000	0.019	0.216
-589.938	-87.943	0.028	-0.009
-588.923	-191.690	-0.113	-0.001
-587.909	187.457	0.188	0.286
-586.894	800.000	0.038	0.138
-585.879	361.248	-0.131	-0.267
-584.865	99.862	-0.086	0.102
-583.850	33.997	-0.117	0.104
-582.836	28.384	-0.220	-0.189
-581.821	-94.008	-0.214	0.060
-580.806	800.000	0.069	-0.196
-579.792	-200.000	0.053	-0.299
-578.777	800.000	0.121	0.438
-577.763	692.905	0.071	0.190
-576.748	-78.551	0.052	0.018
-575.733	-134.494	-0.107	-0.013
-574.719	170.605	0.245	0.358
-573.704	-72.445	-0.113	0.042
-572.690	182.248	0.026	-0.039
-571.675	-200.000	0.026	0.185
-570.661	800.000	0.071	0.211
-569.646	800.000	0.095	-0.296
-568.631	-137.967	0.120	-0.014
-567.617	-3.141	-0.100	-0.071
-566.602	577.929	0.111	0.276
-565.588	-90.050	0.092	-0.027
-564.573	-53.993	-0.184	-0.086
-563.558	-106.411	-0.076	-0.017
-562.544	-114.171	0.392	-0.077
-561.529	-35.294	-0.220	0.122
-560.515	38.561	0.099	-0.090
-559.500	86.417	0.143	-0.160
-558.485	-43.956	-0.260	0.133
-557.471	-38.984	0.216	0.116
-556.456	-167.905	0.043	-0.002
-555.442	-200.000	-0.014	-0.239
-554.427	-132.672	-0.137	-0.018
-553.412	-134.307	0.129	0.016
-552.398	-135.689	0.300	0.036
-551.383	721.554	0.053	0.143
-550.369	-14.442	-0.108	-0.071
-549.354	432.564	-0.201	0.445
-548.339	-26.471	-0.301	0.180
-547.325	63.731	0.071	-0.073
-546.310	576.393	-0.067	-0.166
-545.296	28.567	-0.121	0.104
-544.281	-157.036	-0.392	0.024
-543.266	739.097	-0.082	0.223
-542.252	6.741	0.064	-0.049
-541.237	-75.003	0.341	-0.124
-540.223	800.000	-0.011	0.034
-539.208	23.064	-0.149	0.124
-538.193	-121.442	-0.164	0.028
-537.179	2.337	0.238	0.175
-536.164	56.849	-0.048	0.047
-535.150	46.275	-0.264	0.249
-534.135	124.028	-0.107	0.137
-533.121	329.013	-0.149	-0.292
-532.106	20.706	-0.100	-0.082
-531.091	376.251	-0.114	-0.236
-530.077	66.126	0.183	0.189
-529.062	-52.771	0.191	-0.090
-528.048	-15.828	0.078	-0.050
-527.033	90.934	0.051	-0.058
-526.018	783.416	0.077	-0.215
-525.004	800.000	0.065	0.227
-523.989	218.360	0.062	-0.101
-522.975	172.256	0.265	-0.388
-521.960	-79.602	-0.184	0.063
-520.945	76.289	0.095	-0.102
-519.931	100.651	0.035	-0.041
-518.916	-41.952	-0.128	-0.067
-517.902	508.524	0.043	-0.102
-516.887	287.516	-0.078	-0.144
-515.872	87.190	-0.110	0.124
-514.858	-168.649	-0.067	-0.003
-513.843	421.329	-0.150	-0.327
-512.829	36.807	0.226	0.203
-511.814	-95.549	0.254	0.069
-510.799	726.575	0.139	0.377
-509.785	191.991	-0.101	-0.156
-508.770	-86.729	-0.121	-0.038
-507.756	614.329	-0.025	-0.064
-506.741	39.533	0.171	0.156
-505.726	-200.000	0.008	0.064
-504.712	87.309	-0.191	-0.215
-503.697	189.989	-0.180	-0.275
-502.683	800.000	0.083	-0.304
-501.668	800.000	0.110	0.360
-500.653	-110.040	0.435	0.092
-499.639	-93.781	0.220	-0.061
-498.624	-146.845	-0.171	-0.015
-497.610	-200.000	0.051	-0.247
-496.595	37.101	0.130	-0.117
-495.581	219.276	0.123	0.200
-494.566	-115.273	0.369	0.071
-493.551	61.753	-0.222	-0.225
-492.537	-84.378	-0.161	0.052
-491.522	11.568	0.077	0.060
-490.508	236.753	0.016	-0.027
-489.493	46.333	-0.110	0.104
-488.478	23.332	-0.206	0.172
-487.464	46.347	0.115	-0.108
-486.449	77.529	0.165	-0.179
-485.435	-200.000	-0.021	-0.158
-484.420	161.762	0.128	0.182
-483.405	456.901	0.189	0.426
-482.391	331.648	-0.097	0.190
-481.376	-128.919	0.228	0.033
-480.362	130.978	-0.155	0.202
-479.347	-59.041	0.149	0.065
-478.332	308.809	0.215	-0.409
-477.318	179.424	0.135	0.200
-476.303	-38.149	-0.446	0.240
-475.289	-200.000	-0.050	0.243
-474.274	293.437	-0.056	-0.105
-473.259	800.000	0.067	0.291
-472.245	48.689	-0.148	-0.141
-471.230	-200.000	0.004	-0.027
-470.216	800.000	-0.019	-0.063
-469.201	-18.572	-0.234	0.148
-468.186	109.943	-0.162	-0.197
-467.172	-200.000	0.001	0.018
-466.157	800.000	0.081	0.275
-465.143	-129.748	0.271	-0.038
-464.128	800.000	0.132	0.388
-463.113	800.000	0.095	0.274
-462.099	-65.416	0.197	0.080
-461.084	207.418	-0.031	-0.049
-460.070	225.727	0.008	-0.013
-459.055	548.506	-0.119	-0.288
-458.040	-69.971	0.158	0.061
-457.026	-35.033	0.279	-0.155
-456.011	800.000	0.063	-0.194
-454.997	-200.000	0.015	-0.178
-453.982	-68.717	0.249	-0.098
-452.968	-200.000	0.034	0.351
-451.953	532.403	0.075	-0.179
-450.938	-77.585	-0.101	-0.035
-449.924	-106.001	0.030	-0.007
-448.909	-116.628	0.166	-0.031
-447.895	255.995	0.162	0.282
-446.880	-105.994	0.150	0.034
-445.865	800.000	-0.078	0.336
-444.851	419.033	-0.063	0.137
-443.836	135.711	-0.215	-0.284
-442.822	-200.000	-0.006	0.056
-441.807	-90.321	-0.123	0.036
-440.792	-200.000	0.004	-0.089
-439.778	638.146	0.093	-0.240
-438.763	241.821	0.044	-0.075
-437.749	-69.633	0.298	0.116
-436.734	-200.000	-0.043	-0.269
-435.719	302.839	0.189	0.355
-434.705	24.654	0.015	0.012
-433.690	-106.268	-0.021	0.005
-432.676	10.463	0.245	-0.189
-431.661	-160.059	0.407	-0.022
-430.646	98.975	-0.197	-0.231
-429.632	-81.817	-0.265	0.088
-428.617	-85.245	-0.370	-0.117
-427.603	-81.145	-0.172	0.058
-426.588	134.591	-0.128	-0.168
-425.573	800.000	-0.044	0.146
-424.559	800.000	-0.132	-0.393
-423.544	800.000	0.027	0.078
-422.530	-200.000	0.007	0.238
-421.515	-200.000	0.023	0.116
-420.500	-24.204	0.167	-0.101
-419.486	-200.000	-0.007	0.239
-418.471	-200.000	-0.015	-0.139
-417.457	-200.000	0.002	0.123
-416.442	-200.000	0.044	0.226
-415.428	74.798	0.397	-0.423
-414.413	-45.846	-0.106	-0.053
-413.398	23.497	-0.333	0.277
-412.384	11.779	-0.185	-0.144
-411.369	-86.127	0.238	-0.074
-410.355	-200.000	-0.008	0.049
-409.340	119.061	0.217	0.271
-408.325	-173.337	0.288	-0.009
-407.311	800.000	-0.060	-0.215
-406.296	-107.501	-0.101	-0.022
-405.282	-200.000	-0.091	0.000
-404.267	-21.141	-0.155	0.096
-403.252	-60.156	-0.182	-0.079
-402.238	-200.000	0.001	0.022
-401.223	800.000	-0.062	0.208
-400.209	62.383	-0.044	0.044
-399.194	-45.768	-0.223	0.112
-398.179	-200.000	-0.015	0.158
-397.165	128.868	0.218	0.281
-396.150	-200.000	0.077	0.496
-395.136	464.896	0.079	-0.178
-394.121	800.000	-0.051	-0.174
-393.106	800.000	-0.046	-0.137
-392.092	133.182	0.054	-0.070
-391.077	-33.098	-0.324	-0.182
-390.063	-175.159	-0.160	0.004
-389.048	172.023	0.092	0.134
-388.033	782.164	0.113	-0.312
-387.019	84.909	-0.083	-0.092
-386.004	-47.843	-0.108	0.053
-384.990	-142.389	0.106	-0.011
-383.975	800.000	0.086	0.275
-382.960	-93.079	-0.139	0.039
-381.946	-11.065	0.256	0.171
-380.931	89.909	-0.070	-0.079
-379.917	19.152	-0.080	-0.065
-378.902	64.004	-0.259	-0.263
-377.888	214.533	0.073	0.116
-376.873	79.139	-0.101	-0.110
-375.858	-162.810	-0.054	0.003
-374.844	84.627	-0.253	0.280
-373.829	8.964	-0.017	0.013
-372.815	-80.052	0.111	0.038
-371.800	16.816	0.056	0.045
-370.785	31.058	-0.123	-0.106
-369.771	-101.158	-0.401	0.099
-368.756	-136.291	-0.266	0.031
-367.742	460.385	0.188	0.422
-366.727	218.269	0.144	0.232
-365.712	-200.000	0.004	0.119
-364.698	8.754	0.229	0.175
-363.683	-200.000	0.009	0.053
-362.669	-16.518	-0.135	0.086
-361.654	240.121	0.076	0.127
-360.639	223.166	0.139	0.226
-359.625	-22.049	-0.192	-0.118
-358.610	26.776	-0.241	-0.204
-357.596	-149.860	-0.162	0.013
-356.581	668.795	0.029	0.077
-355.566	45.848	0.184	-0.172
-354.552	-200.000	-0.003	0.320
-353.537	331.162	-0.066	-0.128
-352.523	168.877	-0.072	-0.104
-351.508	46.021	-0.304	-0.285
-350.493	-2.728	-0.350	0.248
-349.479	60.093	-0.248	0.248
-348.464	53.552	-0.321	-0.311
-347.450	800.000	0.080	-0.263
-346.435	-80.940	0.285	-0.095
-345.420	-200.000	0.022	0.302
-344.406	800.000	-0.079	-0.259
-343.391	53.678	-0.041	-0.040
-342.377	347.111	0.087	-0.172
-341.362	-200.000	0.072	0.351
-340.348	-58.427	0.210	0.092
-339.333	356.160	0.202	-0.407
-338.318	-87.664	0.158	-0.048
-337.304	6.858	-0.223	-0.168
-336.289	-138.139	0.345	0.039
-335.275	-4.776	0.183	-0.127
-334.260	400.017	-0.048	0.101
-333.245	223.614	0.103	-0.168
-332.231	-133.942	-0.238	-0.030
-331.216	21.935	-0.190	-0.157
-330.202	-66.413	-0.230	-0.092
-329.187	11.279	0.141	-0.109
-328.172	-200.000	-0.043	0.251
-327.158	668.671	-0.044	0.115
-326.143	-54.200	-0.504	-0.231
-325.129	-40.384	-0.366	0.192
-324.114	-64.238	-0.320	0.132
-323.099	-67.693	0.280	-0.111
-322.085	-200.000	-0.002	-0.033
-321.070	107.646	0.335	-0.403
-320.056	276.542	-0.095	-0.170
-319.041	-48.642	-0.253	0.123
-318.026	-18.011	-0.151	-0.095
-317.012	-84.812	0.107	0.034
-315.997	-88.405	0.322	-0.097
-314.983	-15.610	-0.194	0.125
-313.968	-200.000	0.028	-0.126
-312.953	119.266	0.023	0.029
-311.939	112.657	0.070	-0.086
-310.924	36.712	0.196	-0.175
-309.910	-18.951	-0.286	-0.180
-308.895	-90.548	-0.057	0.017
-307.880	800.000	-0.104	-0.335
-306.866	-200.000	-0.012	0.119
-305.851	800.000	0.028	0.111
-304.837	137.697	-0.096	-0.126
-303.822	507.719	-0.126	-0.296
-302.807	305.338	-0.137	-0.257
-301.793	20.303	-0.261	-0.213
-300.778	268.108	-0.200	-0.353
-299.764	330.218	0.091	0.177
-298.749	-197.920	0.164	-0.001
-297.735	284.073	-0.142	-0.258
-296.720	-43.560	0.209	0.106
-295.705	652.076	0.038	0.099
-294.691	-200.000	0.004	0.132
-293.676	334.757	-0.080	-0.156
-292.662	-200.000	0.013	0.144
-291.647	800.000	-0.047	-0.138
-290.632	86.628	-0.213	-0.237
-289.618	-181.281	0.115	-0.002
-288.603	797.301	-0.062	0.173
-287.589	-200.000	-0.030	0.369
-286.574	800.000	0.057	-0.238
-285.559	800.000	-0.116	-0.441
-284.545	-200.000	-0.039	-0.470
-283.530	-134.069	-0.039	0.005
-282.516	216.828	0.209	-0.336
-281.501	280.078	0.046	0.082
-280.486	-7.874	0.219	-0.149
-279.472	49.941	0.235	-0.223
-278.457	-23.107	-0.080	0.049
-277.443	-176.292	-0.358	0.009
-276.428	201.680	0.144	0.224
-275.413	643.548	-0.096	0.246
-274.399	635.539	0.019	0.048
-273.384	-21.558	-0.134	0.082
-272.370	267.761	-0.137	-0.242
-271.355	-71.799	-0.307	0.115
-270.340	-200.000	0.035	-0.155
-269.326	153.565	0.090	0.123
-268.311	82.349	0.173	-0.189
-267.297	109.095	-0.121	-0.146
-266.282	-50.631	-0.077	0.036
-265.267	497.471	0.123	-0.286
-264.253	800.000	-0.038	0.116
-263.238	32.278	0.092	-0.080
-262.224	-76.630	0.308	-0.109
-261.209	-89.684	-0.045	-0.013
-260.195	549.463	0.194	0.468
-259.180	171.859	0.144	-0.208
-258.165	603.079	0.077	-0.193
-257.151	524.988	-0.103	0.244
-256.136	-122.652	-0.218	-0.036
-255.122	0.078	0.401	0.287
-254.107	654.953	0.082	-0.212
-253.092	3.849	-0.211	-0.155
-252.078	259.702	-0.196	0.341
-251.063	137.133	0.150	-0.197
-250.049	-74.663	-0.182	-0.066
-249.034	-175.770	-0.116	0.003
-248.019	351.021	0.094	-0.187
-247.005	800.000	-0.050	-0.152
-245.990	114.148	-0.095	-0.117
-244.976	-200.000	-0.034	-0.403
-243.961	-43.140	0.186	-0.095
-242.946	-150.891	0.442	-0.034
-241.932	-13.064	-0.238	0.156
-240.917	163.210	0.105	0.149
-239.903	773.057	-0.097	0.266
-238.888	-200.000	0.007	0.234
-237.873	-200.000	0.035	0.327
-236.859	-66.596	-0.033	-0.013
-235.844	-9.585	0.269	-0.180
-234.830	206.925	0.149	-0.234
-233.815	-200.000	0.030	0.190
-232.800	-200.000	-0.046	-0.272
-231.786	-200.000	0.016	-0.169
-230.771	41.433	-0.158	-0.144
-229.757	-61.536	0.371	0.157
-228.742	-6.912	0.148	-0.101
-227.727	60.920	0.225	-0.224
-226.713	36.744	-0.178	-0.158
-225.698	-86.575	0.201	-0.062
-224.684	-40.356	0.064	0.033
-223.669	800.000	0.017	0.050
-222.655	35.869	-0.313	0.277
-221.640	-200.000	0.033	0.363
-220.625	75.380	-0.189	0.200
-219.611	-17.606	-0.070	-0.045
-218.596	-168.578	0.283	0.011
-217.582	-103.381	0.300	0.071
-216.567	-200.000	0.020	0.305
-215.552	800.000	0.108	0.347
-214.538	-78.117	0.185	0.064
-213.523	-123.041	-0.249	0.040
-212.509	-200.000	0.027	0.279
-211.494	800.000	-0.061	-0.184
-210.479	-112.073	0.061	-0.012
-209.465	-86.256	0.200	0.062
-208.450	800.000	-0.136	0.406
-207.436	-200.000	0.037	0.238
-206.421	-200.000	0.001	0.029
-205.406	-82.688	-0.226	0.073
-204.392	94.312	0.135	-0.154
-203.377	83.113	-0.267	0.292
-202.363	-33.324	0.213	-0.118
-201.348	-126.570	-0.557	0.083
-200.333	-63.165	0.168	-0.069
-199.319	239.818	0.066	-0.110
-198.304	-95.617	0.184	-0.050
-197.290	-197.112	-0.077	0.000
-196.275	-200.000	0.020	-0.180
-195.260	421.450	0.095	-0.205
-194.246	-200.000	-0.198	0.001
-193.231	800.000	0.018	0.063
-192.217	679.602	-0.095	-0.249
-191.202	348.326	-0.117	0.232
-190.187	-22.560	0.123	0.075
-189.173	-39.558	0.217	-0.114
-188.158	800.000	-0.026	-0.088
-187.144	-200.000	-0.030	0.363
-186.129	-11.462	-0.123	-0.081
-185.114	103.767	-0.124	-0.146
-184.100	-200.000	0.005	0.091
-183.085	-11.491	0.181	0.119
-182.071	-200.000	0.030	0.210
-181.056	32.409	0.107	-0.092
-180.042	-200.000	-0.032	0.248
-179.027	-26.948	0.252	-0.148
-178.012	54.225	0.161	-0.156
-176.998	-19.082	-0.292	-0.182
-175.983	800.000	0.076	-0.230
-174.969	-200.000	0.007	0.244
-173.954	734.784	-0.057	0.153
-172.939	251.896	-0.094	-0.161
-171.925	110.832	-0.060	-0.073
-170.910	43.789	0.192	0.177
-169.896	-7.235	-0.192	0.130
-168.881	609.674	0.069	0.173
-167.866	800.000	-0.064	-0.191
-166.852	-200.000	-0.020	-0.268
-165.837	105.103	0.177	-0.209
-164.823	178.043	-0.129	-0.189
-163.808	55.862	0.342	-0.332
-162.793	-74.459	-0.208	-0.075
-161.779	9.295	0.344	-0.261
-160.764	144.086	0.100	-0.134
-159.750	-200.000	0.040	0.227
-158.735	-3.943	-0.164	-0.114
-157.720	-145.638	0.014	0.001
-156.706	32.179	0.201	-0.174
-155.691	-20.139	-0.125	0.077
-154.677	-67.928	0.090	-0.035
-153.662	-31.311	0.373	0.211
-152.647	56.398	-0.291	-0.284
-151.633	-79.179	-0.211	0.072
-150.618	64.757	-0.149	-0.151
-149.604	303.358	-0.216	0.401
-148.589	-48.590	-0.121	0.058
-147.574	7.496	-0.120	-0.090
-146.560	34.984	-0.203	-0.178
-145.545	536.113	-0.092	-0.218
-144.531	-200.000	-0.052	-0.353
-143.516	800.000	0.057	0.214
-142.502	31.282	0.220	0.189
-141.487	-17.216	0.131	-0.083
-140.472	-24.518	-0.111	0.066
-139.458	-85.572	-0.260	-0.081
-138.443	306.989	0.122	-0.228
-137.429	-103.622	0.051	0.012
-136.414	-200.000	0.005	-0.284
-135.399	150.460	-0.160	0.217
-134.385	-200.000	-0.094	-0.542
-133.370	-172.073	0.181	-0.006
-132.356	-138.170	-0.301	0.033
-131.341	-111.988	-0.222	0.045
-130.326	375.364	-0.134	0.274
-129.312	-165.302	0.209	0.009
-128.297	-9.396	-0.148	0.099
-127.283	8.008	0.337	-0.253
-126.268	-97.877	0.245	0.063
-125.253	-113.675	-0.096	-0.019
-124.239	-200.000	0.013	-0.062
-123.224	285.389	-0.075	0.135
-122.210	-200.000	-0.006	0.052
-121.195	50.509	0.167	0.158
-120.180	-200.000	-0.016	-0.160
-119.166	-200.000	-0.020	0.324
