DTS Sentinel unit serial number:	SN413079Multiplexer serial number:	ORYXHardware model number:	OX4-SRSoftware version number:	ORYX F/W v4.00 Oryx Data Collector v3.7.2.0data status	okinstallation	princeton_trtdifferential loss correction	single-endedforward channel	channel 3reverse channel	N/Adate	2019/09/17time	02:16:35forward acquisition time	60.00reverse acquisition time	0.00gamma	496.2192k internal	0.2323k external	0.2323temperature offset calibration	0.9945default loss term (dB/km)	0.3790temperature slope calibration	1.0000multiplexer offset coefficient	1.0000multiplexer slope coefficient	1.0000fibre end	0.00T internal ref (°C)	29.75T ext. ref 1 (°C)	0.11T ext. ref 2 (°C)	24.67length (m)	temperature (°C)	Stokes	anti-Stokes-747.200	389.725	-0.208	0.435
-746.185	-20.142	-0.343	0.213
-745.171	-151.045	-0.467	-0.035
-744.156	102.917	0.125	-0.147
-743.142	-200.000	0.000	0.114
-742.127	-200.000	0.054	0.398
-741.112	431.824	-0.098	0.214
-740.098	-22.428	-0.196	0.120
-739.083	-33.841	-0.090	0.050
-738.069	276.090	0.266	0.476
-737.054	-83.464	-0.296	-0.096
-736.039	13.189	-0.263	0.205
-735.025	-73.648	0.508	0.187
-734.010	77.740	0.024	-0.026
-732.996	80.393	-0.099	-0.108
-731.981	144.979	0.211	-0.284
-730.966	-143.053	-0.321	0.031
-729.952	519.384	-0.043	-0.102
-728.937	20.044	0.102	-0.083
-727.923	-26.868	0.160	0.094
-726.908	-200.000	0.005	0.137
-725.894	47.938	-0.275	-0.259
-724.879	87.180	0.159	-0.177
-723.864	800.000	-0.116	-0.368
-722.850	-200.000	0.048	0.228
-721.835	-76.053	-0.199	0.071
-720.821	142.397	0.054	-0.072
-719.806	-122.297	-0.113	0.019
-718.791	-76.796	-0.136	0.048
-717.777	63.993	-0.017	0.017
-716.762	-72.160	0.307	-0.115
-715.748	323.996	-0.123	-0.236
-714.733	109.881	-0.072	0.087
-713.718	-49.945	-0.294	-0.141
-712.704	800.000	0.032	-0.122
-711.689	-35.351	0.186	0.102
-710.675	-157.118	-0.358	-0.022
-709.660	-200.000	0.012	-0.085
-708.645	576.035	-0.113	-0.277
-707.631	-200.000	-0.018	-0.248
-706.616	-75.161	-0.474	-0.171
-705.602	-183.350	0.334	-0.006
-704.587	6.456	-0.287	-0.215
-703.572	-77.280	-0.252	-0.088
-702.558	-114.932	-0.171	-0.033
-701.543	31.852	0.197	0.171
-700.529	225.013	-0.046	-0.075
-699.514	-200.000	0.025	0.271
-698.499	203.393	-0.124	0.194
-697.485	116.760	0.199	-0.246
-696.470	-200.000	-0.027	0.156
-695.456	413.668	-0.030	0.064
-694.441	-92.993	0.217	-0.061
-693.426	290.429	-0.173	-0.317
-692.412	112.503	-0.102	0.124
-691.397	-5.268	-0.207	-0.143
-690.383	66.306	-0.258	-0.264
-689.368	-65.179	0.191	-0.078
-688.354	-200.000	-0.024	-0.267
-687.339	-20.466	-0.078	-0.048
-686.324	492.794	-0.086	-0.199
-685.310	-156.330	-0.132	0.008
-684.295	-3.915	0.163	0.114
-683.281	-146.880	0.214	0.019
-682.266	217.891	0.118	0.189
-681.251	137.922	0.269	0.355
-680.237	-200.000	-0.054	-0.302
-679.222	-200.000	0.019	0.440
-678.208	800.000	-0.023	0.093
-677.193	284.900	0.134	-0.244
-676.178	41.003	0.184	-0.168
-675.164	-17.516	-0.091	0.058
-674.149	-122.747	0.393	0.064
-673.135	4.826	-0.296	0.219
-672.120	279.714	0.133	0.240
-671.105	-113.463	0.043	-0.009
-670.091	15.308	-0.135	-0.107
-669.076	103.769	0.207	-0.244
-668.062	-200.000	-0.038	-0.350
-667.047	-200.000	-0.017	-0.317
-666.032	76.696	0.101	0.108
-665.018	15.917	-0.127	0.101
-664.003	-68.637	0.038	0.015
-662.989	-200.000	-0.219	-0.000
-661.974	800.000	0.096	0.317
-660.959	-200.000	0.000	-0.051
-659.945	-200.000	-0.021	-0.113
-658.930	-86.751	0.252	0.078
-657.916	-26.245	-0.254	-0.150
-656.901	-157.361	-0.315	-0.019
-655.886	-8.765	-0.325	0.219
-654.872	-200.000	-0.017	-0.484
-653.857	-200.000	0.002	-0.210
-652.843	-19.163	0.157	0.098
-651.828	-200.000	-0.012	0.211
-650.814	-160.792	0.247	-0.013
-649.799	141.460	-0.164	-0.218
-648.784	-164.027	0.196	-0.009
-647.770	13.821	-0.050	-0.039
-646.755	7.392	-0.117	0.088
-645.741	-200.000	-0.002	-0.098
-644.726	249.676	0.199	0.340
-643.711	-154.127	0.159	-0.011
-642.697	-200.000	-0.229	-0.001
-641.682	-68.618	-0.116	0.045
-640.668	75.432	0.134	-0.142
-639.653	2.335	0.110	-0.080
-638.638	-33.511	-0.153	0.085
-637.624	800.000	0.089	0.337
-636.609	800.000	0.049	-0.168
-635.595	800.000	-0.058	-0.242
-634.580	-135.527	-0.189	0.023
-633.565	-200.000	0.003	-0.110
-632.551	-200.000	0.030	0.249
-631.536	-190.339	0.325	-0.004
-630.522	-61.632	0.210	-0.088
-629.507	337.658	-0.068	0.132
-628.492	-167.487	0.036	-0.001
-627.478	-200.000	0.046	-0.283
-626.463	800.000	-0.084	0.237
-625.449	-73.066	-0.292	-0.108
-624.434	-200.000	0.011	-0.146
-623.419	-59.668	0.173	-0.075
-622.405	800.000	-0.027	-0.077
-621.390	-76.828	-0.187	-0.066
-620.376	481.946	-0.064	-0.146
-619.361	4.956	-0.025	0.019
-618.346	-50.745	-0.294	-0.139
-617.332	257.475	-0.202	-0.349
-616.317	-200.000	-0.017	-0.254
-615.303	-37.543	-0.108	-0.058
-614.288	148.621	0.080	-0.108
-613.273	-91.640	-0.101	-0.029
-612.259	-80.944	-0.095	-0.032
-611.244	365.850	-0.111	0.224
-610.230	436.953	0.053	-0.116
-609.215	-200.000	0.045	0.271
-608.201	176.824	0.145	0.211
-607.186	800.000	0.071	-0.219
-606.171	647.142	-0.064	-0.166
-605.157	28.642	0.255	0.217
-604.142	-63.961	-0.069	0.028
-603.128	322.206	0.135	-0.259
-602.113	680.237	-0.088	-0.230
-601.098	87.552	-0.137	-0.152
-600.084	-200.000	-0.003	-0.198
-599.069	616.323	-0.121	-0.305
-598.055	800.000	-0.040	0.142
-597.040	184.117	-0.116	-0.172
-596.025	-49.761	-0.241	-0.115
-595.011	-200.000	-0.057	-0.339
-593.996	800.000	-0.050	-0.145
-592.982	-142.398	0.408	0.040
-591.967	50.057	0.120	-0.114
-590.952	-5.066	-0.350	0.242
-589.938	207.078	0.157	-0.246
-588.923	112.742	0.071	-0.087
-587.909	-200.000	0.077	0.357
-586.894	-199.897	0.446	-0.002
-585.879	70.193	0.180	0.186
-584.865	-168.673	0.237	0.009
-583.850	-200.000	0.014	0.081
-582.836	-102.028	0.204	-0.049
-581.821	429.478	-0.141	-0.306
-580.806	294.691	-0.123	-0.226
-579.792	-12.259	-0.181	-0.119
-578.777	-200.000	-0.018	-0.153
-577.763	-147.233	0.242	0.021
-576.748	-200.000	0.027	-0.234
-575.733	-91.439	-0.066	-0.019
-574.719	0.824	0.371	0.266
-573.704	143.660	-0.101	0.135
-572.690	-32.852	-0.200	0.111
-571.675	71.505	-0.021	-0.022
-570.661	31.922	-0.067	0.058
-569.646	25.119	-0.332	-0.277
-568.631	-4.943	0.139	-0.096
-567.617	402.305	0.080	0.168
-566.602	-76.231	-0.263	0.093
-565.588	255.856	0.091	-0.156
-564.573	-105.481	-0.203	0.046
-563.558	89.396	0.148	-0.165
-562.544	800.000	0.048	0.180
-561.529	629.584	0.045	0.113
-560.515	-12.794	0.179	-0.117
-559.500	26.103	-0.150	-0.125
-558.485	-103.196	-0.261	-0.062
-557.471	-107.970	-0.172	0.037
-556.456	292.519	0.009	-0.016
-555.442	354.244	-0.099	-0.197
-554.427	800.000	0.083	0.260
-553.412	-166.997	-0.274	-0.011
-552.398	-200.000	0.005	-0.245
-551.383	246.371	-0.200	-0.338
-550.369	61.008	-0.333	-0.331
-549.354	30.520	0.266	0.228
-548.339	-132.906	-0.375	-0.048
-547.325	163.295	-0.147	0.207
-546.310	800.000	-0.058	-0.221
-545.296	-81.859	0.161	0.053
-544.281	-39.109	0.187	-0.098
-543.266	-164.796	-0.261	0.012
-542.252	-101.910	-0.050	0.012
-541.237	-73.342	0.180	0.066
-540.223	155.482	0.165	-0.227
-539.208	54.550	-0.118	0.114
-538.193	-200.000	-0.037	0.215
-537.179	208.384	0.108	-0.170
-536.164	-200.000	0.071	-0.339
-535.150	-59.979	0.273	0.117
-534.135	283.876	0.056	-0.101
-533.121	439.688	0.039	0.086
-532.106	-200.000	-0.011	-0.148
-531.091	-16.797	-0.131	0.083
-530.077	69.916	-0.166	-0.172
-529.062	-94.718	0.202	0.055
-528.048	-200.000	0.023	0.118
-527.033	-112.942	0.315	0.063
-526.018	-38.882	-0.315	-0.166
-525.004	72.545	0.179	0.186
-523.989	221.052	0.112	-0.179
-522.975	32.130	-0.142	-0.123
-521.960	110.159	-0.092	0.111
-520.945	228.170	-0.119	-0.195
-519.931	-126.606	0.111	-0.016
-518.916	800.000	-0.028	0.115
-517.902	-74.452	-0.106	0.038
-516.887	-191.098	0.110	-0.001
-515.872	134.919	0.085	-0.110
-514.858	-200.000	0.026	-0.310
-513.843	188.314	-0.131	0.196
-512.829	72.260	-0.066	-0.069
-511.814	80.605	0.194	0.209
-510.799	-200.000	0.020	0.208
-509.785	800.000	0.077	0.300
-508.770	-106.952	0.232	0.051
-507.756	-111.737	-0.341	-0.069
-506.741	156.636	0.138	0.191
-505.726	118.759	0.055	0.068
-504.712	125.101	-0.106	0.133
-503.697	639.839	0.044	0.113
-502.683	-74.662	0.027	-0.010
-501.668	2.347	0.213	0.154
-500.653	-200.000	0.038	0.253
-499.639	-122.971	-0.217	0.035
-498.624	-28.241	0.188	0.109
-497.610	-101.232	-0.191	-0.047
-496.595	-122.063	-0.313	0.051
-495.581	-150.742	0.172	-0.013
-494.566	115.669	0.105	-0.128
-493.551	-200.000	-0.027	0.130
-492.537	-187.249	-0.135	0.002
-491.522	-200.000	0.040	-0.208
-490.508	-143.344	-0.223	-0.021
-489.493	800.000	-0.017	0.064
-488.478	-200.000	0.080	0.457
-487.464	-200.000	-0.029	-0.269
-486.449	-51.597	-0.038	-0.018
-485.435	231.753	0.119	-0.196
-484.420	-59.769	0.370	-0.158
-483.405	410.248	-0.129	0.274
-482.391	-27.365	0.379	0.220
-481.376	-200.000	0.052	0.232
-480.362	33.524	0.334	0.290
-479.347	307.226	0.094	0.176
-478.332	800.000	-0.106	0.301
-477.318	-200.000	-0.025	-0.121
-476.303	181.323	-0.047	0.069
-475.289	-134.509	0.154	-0.019
-474.274	95.902	0.121	0.138
-473.259	-37.427	0.131	0.070
-472.245	130.521	0.163	0.209
-471.230	-200.000	-0.021	-0.111
-470.216	800.000	-0.046	-0.152
-469.201	-114.720	0.424	-0.081
-468.186	-62.005	-0.326	-0.136
-467.172	-21.626	0.183	0.111
-466.157	800.000	-0.133	-0.435
-465.143	437.378	-0.094	-0.204
-464.128	41.728	-0.105	0.095
-463.113	-200.000	0.002	-0.288
-462.099	-162.287	-0.196	-0.010
-461.084	-103.004	0.322	-0.076
-460.070	-20.354	0.183	-0.112
-459.055	800.000	-0.031	-0.098
-458.040	-138.556	-0.085	-0.009
-457.026	-133.094	0.219	0.028
-456.011	-200.000	0.030	-0.133
-454.997	226.278	0.146	-0.236
-453.982	23.114	-0.036	0.030
-452.968	-49.364	-0.245	-0.116
-451.953	-170.040	0.345	-0.012
-450.938	-200.000	-0.007	-0.342
-449.924	60.307	-0.148	0.146
-448.909	-200.000	0.008	0.074
-447.895	-64.612	-0.343	0.139
-446.880	120.963	0.063	-0.078
-445.865	6.802	-0.301	0.224
-444.851	139.947	0.207	-0.272
-443.836	-106.547	0.176	-0.039
-442.822	335.103	0.010	-0.019
-441.807	-163.693	-0.247	0.012
-440.792	88.621	-0.092	0.102
-439.778	-184.830	0.106	0.002
-438.763	67.059	-0.191	0.195
-437.749	800.000	0.050	0.192
-436.734	800.000	-0.041	0.132
-435.719	800.000	0.035	0.124
-434.705	-119.390	-0.116	-0.020
-433.690	-200.000	-0.018	0.141
-432.676	491.500	0.116	0.265
-431.661	61.410	-0.132	0.131
-430.646	-107.370	-0.353	0.077
-429.632	-52.767	-0.245	-0.113
-428.617	-77.130	0.135	0.047
-427.603	800.000	-0.110	-0.342
-426.588	-69.351	0.220	0.084
-425.573	74.778	-0.106	0.112
-424.559	113.976	-0.192	0.232
-423.544	-66.816	0.143	0.056
-422.530	28.906	-0.017	0.014
-421.515	220.588	0.025	0.039
-420.500	-102.702	0.106	0.025
-419.486	25.982	-0.190	0.158
-418.471	38.137	-0.117	-0.104
-417.457	-86.892	-0.219	0.067
-416.442	195.949	0.159	0.240
-415.428	-200.000	0.033	-0.171
-414.413	655.790	0.011	0.029
-413.398	-129.161	-0.301	0.042
-412.384	165.857	0.156	-0.221
-411.369	-107.726	0.170	-0.037
-410.355	-200.000	-0.033	0.269
-409.340	5.197	-0.049	0.036
-408.325	164.154	0.064	-0.090
-407.311	340.836	0.187	0.365
-406.296	-20.549	-0.188	-0.115
-405.282	-90.916	-0.187	-0.054
-404.267	-37.454	0.123	-0.065
-403.252	-200.000	-0.026	-0.224
-402.238	-49.410	-0.251	-0.119
-401.223	-66.782	-0.150	-0.059
-400.209	190.281	-0.187	-0.279
-399.194	125.746	-0.196	-0.247
-398.179	800.000	-0.037	-0.110
-397.165	-114.676	-0.143	-0.027
-396.150	-200.000	-0.064	0.292
-395.136	-200.000	-0.007	-0.208
-394.121	191.602	0.106	0.159
-393.106	-38.081	-0.264	-0.139
-392.092	387.124	0.144	0.296
-391.077	87.005	0.211	-0.232
-390.063	-200.000	0.005	-0.246
-389.048	-43.907	0.252	-0.126
-388.033	117.854	-0.141	-0.173
-387.019	-95.511	-0.227	0.061
-386.004	269.524	0.085	0.149
-384.990	-136.096	0.258	0.030
-383.975	-173.463	0.138	0.004
-382.960	-161.221	-0.142	-0.007
-381.946	-185.449	0.489	-0.007
-380.931	-141.720	-0.373	-0.037
-379.917	121.448	0.108	0.133
-378.902	-200.000	-0.084	0.406
-377.888	129.487	0.089	0.113
-376.873	-5.719	-0.315	0.215
-375.858	285.382	-0.079	-0.142
-374.844	-200.000	0.018	-0.194
-373.829	122.114	-0.150	-0.187
-372.815	293.379	0.061	0.110
-371.800	192.752	-0.132	-0.199
-370.785	-200.000	0.002	0.129
-369.771	-200.000	-0.059	0.322
-368.756	-94.929	0.200	-0.054
-367.742	-73.640	0.166	0.060
-366.727	-200.000	0.018	-0.189
-365.712	750.441	0.027	0.072
-364.698	3.790	-0.077	-0.056
-363.683	-119.685	-0.222	-0.038
-362.669	-178.921	-0.029	0.001
-361.654	-60.752	0.309	0.130
-360.639	-200.000	0.013	-0.339
-359.625	800.000	-0.141	-0.506
-358.610	435.023	-0.112	0.242
-357.596	-200.000	-0.302	0.001
-356.581	249.013	-0.053	-0.089
-355.566	305.716	-0.027	0.050
-354.552	-200.000	-0.021	0.112
-353.537	171.147	0.119	-0.169
-352.523	-119.774	-0.157	0.027
-351.508	-122.001	-0.369	0.060
-350.493	-83.720	-0.225	-0.071
-349.479	357.301	0.136	0.269
-348.464	146.996	-0.066	-0.088
-347.450	-183.942	-0.205	-0.003
-346.435	800.000	0.013	-0.045
-345.420	-149.499	-0.277	0.022
-344.406	-200.000	-0.008	0.270
-343.391	-10.903	0.211	-0.139
-342.377	245.621	-0.135	-0.226
-341.362	-200.000	-0.004	0.335
-340.348	-24.158	-0.316	0.188
-339.333	120.983	-0.112	-0.139
-338.318	257.830	0.087	-0.148
-337.304	-60.942	-0.193	0.081
-336.289	-199.238	0.411	-0.002
-335.275	450.658	0.091	-0.199
-334.260	363.324	0.173	-0.345
-333.245	-88.194	0.110	0.033
-332.231	17.378	0.169	0.133
-331.216	753.489	0.065	0.174
-330.202	-55.840	-0.227	0.101
-329.187	51.574	0.194	0.184
-328.172	-11.287	0.505	-0.330
-327.158	221.124	-0.063	-0.100
-326.143	233.671	-0.200	0.326
-325.129	-45.614	-0.305	0.150
-324.114	396.143	-0.111	-0.231
-323.099	-200.000	-0.051	0.241
-322.085	241.130	0.132	-0.218
-321.070	429.023	0.052	0.112
-320.056	-53.657	-0.224	-0.101
-319.041	6.349	0.193	-0.143
-318.026	-128.998	-0.180	-0.025
-317.012	-200.000	0.002	0.015
-315.997	-162.313	0.445	0.022
-314.983	-111.197	-0.309	0.063
-313.968	-200.000	0.026	-0.154
-312.953	137.699	0.033	0.043
-311.939	800.000	0.183	-0.542
-310.924	376.510	0.054	-0.109
-309.910	-200.000	0.007	0.337
-308.895	-0.161	-0.196	0.138
-307.880	-175.086	-0.133	-0.004
-306.866	229.456	-0.026	0.043
-305.851	-119.181	0.141	-0.024
-304.837	256.732	0.102	0.174
-303.822	-73.217	-0.268	0.097
-302.807	-132.042	0.131	0.017
-301.793	-200.000	-0.007	0.094
-300.778	72.073	-0.242	0.250
-299.764	673.917	0.075	0.192
-298.749	47.996	0.101	-0.094
-297.735	123.820	-0.035	0.044
-296.720	-200.000	0.020	0.304
-295.705	-200.000	0.024	0.126
-294.691	800.000	0.054	-0.156
-293.676	-200.000	0.049	-0.244
-292.662	26.095	0.129	-0.107
-291.647	389.776	0.013	0.026
-290.632	-200.000	-0.057	-0.379
-289.618	800.000	-0.133	0.376
-288.603	431.930	-0.117	0.251
-287.589	105.991	0.164	0.192
-286.574	-160.907	-0.031	0.002
-285.559	99.205	0.063	-0.073
-284.545	-144.631	-0.321	-0.029
-283.530	79.202	0.318	-0.338
-282.516	800.000	0.117	-0.395
-281.501	-56.291	-0.419	-0.185
-280.486	77.033	-0.138	0.145
-279.472	800.000	0.020	0.067
-278.457	62.248	0.111	0.109
-277.443	239.924	0.047	0.078
-276.428	-168.492	0.133	0.005
-275.413	123.824	0.233	0.290
-274.399	2.802	-0.050	0.036
-273.384	-200.000	-0.042	-0.281
-272.370	46.473	0.206	0.190
-271.355	432.326	0.159	0.341
-270.340	-114.225	-0.318	0.061
-269.326	-200.000	-0.042	-0.223
-268.311	800.000	-0.064	0.210
-267.297	-6.410	0.148	0.100
-266.282	-163.851	-0.265	0.012
-265.267	60.286	0.111	-0.109
-264.253	24.383	0.107	0.088
-263.238	-109.395	0.096	0.020
-262.224	-104.270	-0.166	0.038
-261.209	800.000	0.055	0.163
-260.195	7.242	-0.120	-0.089
-259.180	46.817	0.118	0.108
-258.165	800.000	0.062	-0.213
-257.151	38.211	-0.205	0.181
-256.136	800.000	-0.055	0.206
-255.122	800.000	-0.026	-0.071
-254.107	-152.874	0.220	0.015
-253.092	-121.255	0.214	-0.035
-252.078	-40.415	-0.068	0.035
-251.063	-17.207	-0.151	0.095
-250.049	-84.101	-0.225	-0.071
-249.034	-63.373	-0.021	0.009
-248.019	-36.317	-0.305	0.163
-247.005	223.064	-0.079	0.126
-245.990	0.700	0.051	0.036
-244.976	-49.188	-0.239	0.113
-243.961	-37.071	0.196	0.104
-242.946	280.512	-0.064	0.113
-241.932	116.150	0.199	0.241
-240.917	-134.746	-0.112	-0.013
-239.903	-141.532	0.477	-0.048
-238.888	-108.296	0.234	-0.050
-237.873	292.078	0.071	-0.128
-236.859	-200.000	-0.014	0.188
-235.844	107.963	0.070	-0.082
-234.830	580.672	-0.018	0.043
-233.815	111.617	0.138	-0.165
-232.800	-200.000	0.048	0.300
-231.786	51.374	-0.043	0.040
-230.771	719.975	0.080	-0.210
-229.757	269.848	-0.199	0.345
-228.742	-138.591	-0.228	-0.025
-227.727	18.955	-0.230	0.182
-226.713	165.188	0.023	-0.032
-225.698	-200.000	0.002	-0.119
-224.684	800.000	0.107	-0.405
-223.669	-200.000	-0.094	-0.507
-222.655	-153.701	-0.339	0.023
-221.640	-200.000	0.023	0.142
-220.625	590.442	0.116	0.284
-219.611	245.314	-0.061	0.101
-218.596	31.039	-0.033	0.028
-217.582	800.000	-0.091	0.335
-216.567	800.000	0.129	-0.389
-215.552	6.027	0.240	0.176
-214.538	-200.000	-0.031	-0.146
-213.523	112.130	-0.103	0.123
-212.509	35.402	0.208	-0.181
-211.494	84.902	0.162	0.175
-210.479	-200.000	-0.048	-0.245
-209.465	-200.000	-0.049	0.316
-208.450	16.434	0.221	0.172
-207.436	-131.156	-0.070	-0.009
-206.421	800.000	0.049	-0.188
-205.406	181.366	0.056	-0.082
-204.392	-146.628	0.221	-0.019
-203.377	-200.000	-0.000	0.134
-202.363	-86.834	0.223	-0.067
-201.348	-142.911	-0.206	0.020
-200.333	-5.940	-0.034	0.023
-199.319	-65.450	0.139	0.055
-198.304	150.443	0.038	-0.051
-197.290	-200.000	-0.008	0.125
-196.275	-85.416	0.208	-0.064
-195.260	-200.000	-0.022	-0.288
-194.246	-200.000	0.048	0.356
-193.231	-200.000	0.031	0.453
-192.217	5.830	0.127	0.093
-191.202	61.129	-0.082	0.081
-190.187	-27.003	0.215	0.124
-189.173	245.444	-0.079	-0.131
-188.158	-103.528	0.271	0.063
-187.144	-93.671	0.153	0.042
-186.129	-99.615	-0.171	-0.042
-185.114	248.100	-0.040	0.067
-184.100	-30.317	0.156	0.088
-183.085	800.000	0.016	-0.046
-182.071	800.000	-0.125	-0.373
-181.056	-200.000	0.032	0.265
-180.042	-8.324	0.175	-0.116
-179.027	12.717	0.449	0.342
-178.012	-54.498	-0.104	0.047
-176.998	154.083	-0.190	-0.257
-175.983	-120.039	0.193	-0.033
-174.969	268.760	0.093	-0.161
-173.954	-148.763	0.177	-0.014
-172.939	-89.599	0.150	0.043
-171.925	-139.664	-0.109	0.011
-170.910	-200.000	-0.021	-0.092
-169.896	-200.000	0.008	-0.074
-168.881	489.098	0.201	-0.453
-167.866	-84.580	-0.080	0.025
-166.852	-37.099	-0.165	0.087
-165.837	137.446	-0.153	-0.198
-164.823	-200.000	-0.038	0.362
-163.808	478.115	-0.101	0.226
-162.793	518.629	-0.085	-0.197
-161.779	800.000	-0.058	-0.158
-160.764	-23.489	0.246	-0.146
-159.750	-83.757	0.193	-0.061
-158.735	199.701	0.053	-0.080
-157.720	-200.000	0.009	0.099
-156.706	-70.652	-0.052	0.019
-155.691	-79.630	0.335	0.112
-154.677	179.049	0.029	0.042
-153.662	-27.034	-0.231	0.133
-152.647	-200.000	-0.003	0.168
-151.633	-49.524	0.113	0.053
-150.618	-149.650	0.214	-0.017
-149.604	-200.000	0.028	0.241
-148.589	-90.409	-0.208	-0.060
-147.574	-200.000	-0.014	0.181
-146.560	-28.814	-0.113	0.064
-145.545	-33.812	0.137	0.074
-144.531	340.047	0.247	0.476
-143.516	562.350	0.030	0.071
-142.502	-48.595	-0.248	0.118
-141.487	300.120	-0.140	-0.255
-140.472	568.956	0.105	0.252
-139.458	800.000	-0.061	-0.185
-138.443	-54.109	0.256	0.115
-137.429	-162.058	-0.184	-0.009
-136.414	-47.594	-0.248	-0.119
-135.399	443.282	-0.060	-0.130
-134.385	224.339	-0.190	0.303
-133.370	-97.907	0.066	0.017
-132.356	238.600	-0.035	-0.057
-131.341	-39.604	0.353	0.182
-130.326	22.018	-0.098	-0.079
-129.312	-150.376	0.345	-0.026
-128.297	292.979	-0.169	0.304
-127.283	-40.474	0.027	0.014
-126.268	-81.723	0.035	0.011
-125.253	-107.139	0.372	-0.081
-124.239	-200.000	0.030	0.298
-123.224	55.757	0.066	0.063
-122.210	41.045	0.078	-0.069
