DTS Sentinel unit serial number:	SN413079Multiplexer serial number:	ORYXHardware model number:	OX4-SRSoftware version number:	ORYX F/W v4.00 Oryx Data Collector v3.7.2.0data status	okinstallation	princeton_trtdifferential loss correction	single-endedforward channel	channel 3reverse channel	N/Adate	2019/09/16time	10:28:35forward acquisition time	60.00reverse acquisition time	0.00gamma	496.2192k internal	0.2306k external	0.2306temperature offset calibration	0.9947default loss term (dB/km)	0.3790temperature slope calibration	1.0000multiplexer offset coefficient	1.0000multiplexer slope coefficient	1.0000fibre end	0.00T internal ref (°C)	35.17T ext. ref 1 (°C)	12.56T ext. ref 2 (°C)	33.59length (m)	temperature (°C)	Stokes	anti-Stokes-747.200	-200.000	-0.001	0.039
-746.185	103.934	0.129	-0.155
-745.171	800.000	0.053	0.154
-744.156	-82.573	-0.077	0.025
-743.142	-187.835	-0.184	-0.002
-742.127	-200.000	0.119	0.544
-741.112	-10.017	0.111	0.075
-740.098	450.557	-0.154	0.345
-739.083	109.826	0.227	0.277
-738.069	-106.486	0.344	0.078
-737.054	800.000	-0.065	-0.191
-736.039	-147.921	-0.408	0.035
-735.025	-40.295	0.303	0.161
-734.010	-200.000	0.002	-0.141
-732.996	-23.128	-0.206	-0.126
-731.981	-74.404	0.216	0.079
-730.966	393.317	0.070	-0.147
-729.952	-200.000	-0.024	0.114
-728.937	-34.534	0.107	-0.060
-727.923	-187.237	-0.524	0.007
-726.908	411.207	-0.089	-0.192
-725.894	-103.718	-0.425	-0.101
-724.879	-25.926	0.162	0.097
-723.864	-200.000	-0.038	-0.221
-722.850	-200.000	0.038	0.189
-721.835	-77.164	-0.341	-0.121
-720.821	-100.337	-0.283	0.071
-719.806	-55.016	-0.311	0.142
-718.791	-155.097	-0.146	-0.010
-717.777	107.555	-0.138	-0.167
-716.762	-58.055	-0.126	-0.056
-715.748	-200.000	0.008	-0.087
-714.733	800.000	-0.066	-0.189
-713.718	-38.875	-0.298	0.160
-712.704	111.992	0.101	0.124
-711.689	182.486	-0.088	0.132
-710.675	312.828	0.069	0.132
-709.660	21.116	0.160	0.132
-708.645	-200.000	-0.031	0.186
-707.631	110.591	-0.141	-0.172
-706.616	394.936	-0.103	-0.219
-705.602	-40.516	0.077	0.040
-704.587	756.085	-0.055	-0.151
-703.572	326.629	0.159	0.310
-702.558	-5.929	0.228	0.158
-701.543	-165.193	0.232	-0.010
-700.529	-200.000	-0.035	0.238
-699.514	-25.719	-0.104	0.062
-698.499	-125.131	-0.363	-0.057
-697.485	-116.012	-0.299	0.057
-696.470	14.213	0.410	0.324
-695.456	146.290	-0.130	-0.177
-694.441	-200.000	-0.028	-0.187
-693.426	-17.137	0.203	0.130
-692.412	-23.281	-0.216	0.132
-691.397	173.414	-0.126	-0.184
-690.383	-9.698	0.234	-0.158
-689.368	248.412	-0.199	-0.342
-688.354	-200.000	0.042	-0.207
-687.339	-200.000	0.054	-0.349
-686.324	32.074	0.201	0.176
-685.310	800.000	-0.093	-0.268
-684.295	-78.294	-0.187	0.065
-683.281	29.699	0.219	-0.189
-682.266	-4.054	0.077	-0.054
-681.251	-4.472	0.169	-0.119
-680.237	-135.462	-0.361	-0.044
-679.222	-105.442	-0.219	-0.051
-678.208	800.000	-0.031	-0.101
-677.193	543.083	-0.115	-0.280
-676.178	-200.000	0.034	-0.352
-675.164	-42.793	-0.054	-0.028
-674.149	-24.437	-0.091	-0.055
-673.135	137.030	-0.067	0.089
-672.120	800.000	0.076	-0.237
-671.105	-191.879	-0.207	0.002
-670.091	635.834	0.050	0.130
-669.076	490.134	0.139	-0.323
-668.062	324.079	-0.123	0.239
-667.047	-170.793	0.161	0.006
-666.032	-200.000	-0.002	-0.073
-665.018	800.000	-0.090	0.280
-664.003	510.850	0.039	-0.091
-662.989	128.562	0.166	-0.214
-661.974	-14.443	-0.388	0.254
-660.959	92.876	-0.145	0.166
-659.945	-5.136	0.219	-0.153
-658.930	-95.310	-0.164	-0.045
-657.916	480.601	-0.154	-0.354
-656.901	-78.456	0.082	-0.029
-655.886	256.488	0.122	-0.213
-654.872	800.000	-0.039	-0.153
-653.857	-41.512	-0.161	-0.084
-652.843	-126.533	-0.225	0.034
-651.828	-200.000	0.013	0.441
-650.814	307.802	-0.100	0.190
-649.799	-112.403	-0.112	0.023
-648.784	34.644	0.301	-0.266
-647.770	-200.000	0.002	0.082
-646.755	-21.500	0.082	-0.050
-645.741	800.000	-0.012	0.040
-644.726	253.395	-0.173	-0.299
-643.711	32.143	-0.280	-0.245
-642.697	-200.000	-0.061	0.318
-641.682	515.549	-0.107	0.253
-640.668	-200.000	0.056	-0.477
-639.653	-200.000	-0.029	-0.205
-638.638	5.888	-0.293	-0.220
-637.624	-86.556	-0.267	0.083
-636.609	-81.777	-0.048	-0.016
-635.595	-23.524	0.148	-0.090
-634.580	800.000	-0.088	0.268
-633.565	-200.000	-0.069	0.448
-632.551	43.651	0.239	0.221
-631.536	297.542	-0.148	0.275
-630.522	18.670	-0.163	0.132
-629.507	800.000	0.143	0.462
-628.492	164.647	0.154	-0.220
-627.478	800.000	-0.114	0.415
-626.463	-98.685	-0.368	0.095
-625.449	280.982	-0.123	-0.223
-624.434	397.631	-0.020	-0.042
-623.419	-200.000	-0.017	0.228
-622.405	-200.000	0.073	-0.379
-621.390	175.800	0.115	-0.169
-620.376	-134.762	0.200	0.025
-619.361	145.951	0.152	0.207
-618.346	235.924	0.044	-0.073
-617.332	-22.343	-0.282	0.173
-616.317	202.830	-0.085	-0.132
-615.303	-94.250	-0.304	0.084
-614.288	98.986	-0.257	0.301
-613.273	-85.502	-0.149	0.047
-612.259	104.760	-0.216	-0.258
-611.244	264.313	0.036	0.063
-610.230	60.841	-0.154	0.155
-609.215	13.534	0.192	0.151
-608.201	-24.184	-0.073	0.044
-607.186	-200.000	0.003	-0.037
-606.171	-89.478	-0.158	0.047
-605.157	28.555	-0.128	0.109
-604.142	63.799	0.243	0.247
-603.128	4.115	0.168	-0.124
-602.113	800.000	-0.043	0.177
-601.098	109.263	-0.182	0.221
-600.084	-102.525	-0.118	0.028
-599.069	-73.230	0.155	-0.058
-598.055	229.038	0.081	-0.133
-597.040	800.000	-0.038	0.123
-596.025	-134.154	0.068	-0.008
-595.011	172.873	-0.090	0.132
-593.996	28.592	0.196	-0.168
-592.982	-20.489	-0.055	-0.034
-591.967	-200.000	-0.048	-0.229
-590.952	-83.579	0.322	0.104
-589.938	-78.339	-0.119	-0.041
-588.923	800.000	-0.054	-0.209
-587.909	-97.633	0.159	-0.042
-586.894	-39.772	0.166	-0.088
-585.879	800.000	0.020	-0.068
-584.865	-68.512	0.215	-0.084
-583.850	800.000	-0.045	0.139
-582.836	-124.543	-0.504	-0.079
-581.821	800.000	-0.139	-0.401
-580.806	-200.000	-0.033	-0.358
-579.792	-81.805	0.134	-0.044
-578.777	800.000	0.061	-0.227
-577.763	-31.662	-0.278	0.158
-576.748	208.403	-0.218	-0.344
-575.733	-54.117	0.060	-0.028
-574.719	800.000	-0.081	0.249
-573.704	800.000	0.021	-0.062
-572.690	-200.000	-0.020	-0.232
-571.675	-122.609	0.357	-0.059
-570.661	232.763	0.116	-0.193
-569.646	183.149	-0.210	-0.314
-568.631	-200.000	0.003	0.021
-567.617	153.929	-0.166	0.230
-566.602	603.291	-0.015	-0.037
-565.588	-32.109	0.072	-0.041
-564.573	-164.936	-0.228	0.010
-563.558	-61.943	-0.179	0.076
-562.544	-37.037	0.049	0.026
-561.529	166.395	-0.220	0.315
-560.515	-2.599	-0.065	-0.046
-559.500	-200.000	-0.063	0.000
-558.485	800.000	-0.038	0.157
-557.471	-133.955	0.234	0.029
-556.456	353.223	-0.117	-0.234
-555.442	-3.566	-0.188	0.132
-554.427	-89.360	-0.089	0.026
-553.412	-49.707	-0.208	-0.100
-552.398	-112.106	0.281	-0.057
-551.383	410.741	-0.100	-0.214
-550.369	-109.646	-0.099	0.021
-549.354	-36.156	0.235	-0.128
-548.339	-84.091	-0.189	0.061
-547.325	245.534	-0.112	-0.190
-546.310	-200.000	0.087	-0.387
-545.296	-200.000	-0.040	-0.248
-544.281	740.862	0.145	-0.394
-543.266	90.283	0.002	0.002
-542.252	800.000	0.119	-0.494
-541.237	-77.143	0.084	-0.030
-540.223	-200.000	0.069	0.351
-539.208	-200.000	-0.093	0.511
-538.193	47.375	0.230	-0.217
-537.179	-200.000	-0.039	0.195
-536.164	359.849	0.112	-0.227
-535.150	-19.050	-0.074	0.047
-534.135	800.000	-0.028	-0.105
-533.121	162.552	-0.097	-0.137
-532.106	479.655	-0.124	-0.283
-531.091	800.000	-0.090	-0.266
-530.077	-72.322	0.066	-0.025
-529.062	-133.524	0.151	0.019
-528.048	175.745	0.120	0.176
-527.033	-63.941	0.080	-0.033
-526.018	-59.085	0.252	-0.110
-525.004	123.820	0.085	-0.107
-523.989	800.000	-0.057	0.210
-522.975	406.747	0.070	0.149
-521.960	-200.000	0.090	0.000
-520.945	-61.103	-0.145	0.062
-519.931	204.716	0.090	-0.140
-518.916	107.159	0.149	-0.178
-517.902	-9.981	-0.130	0.087
-516.887	-162.586	0.126	-0.006
-515.872	-118.747	-0.126	0.022
-514.858	148.073	-0.114	0.155
-513.843	-13.496	0.039	-0.026
-512.829	800.000	-0.112	0.337
-511.814	293.808	0.153	-0.281
-510.799	800.000	0.035	-0.103
-509.785	505.714	-0.101	-0.235
-508.770	196.454	-0.171	-0.262
-507.756	-200.000	0.016	-0.312
-506.741	-42.474	0.103	0.053
-505.726	-78.599	0.146	-0.050
-504.712	-200.000	-0.025	0.173
-503.697	800.000	0.096	0.299
-502.683	-138.300	0.108	0.012
-501.668	-146.320	-0.085	-0.007
-500.653	89.646	0.041	0.046
-499.639	-67.825	-0.397	-0.156
-498.624	-200.000	0.003	-0.344
-497.610	383.531	-0.105	0.217
-496.595	-32.507	0.109	0.061
-495.581	15.226	0.198	0.157
-494.566	50.637	-0.048	0.046
-493.551	256.840	0.101	0.175
-492.537	-200.000	0.022	0.148
-491.522	-104.223	-0.033	0.008
-490.508	22.501	0.032	-0.026
-489.493	800.000	-0.040	0.129
-488.478	229.824	0.071	0.116
-487.464	-200.000	0.009	-0.059
-486.449	181.454	-0.069	-0.102
-485.435	-38.727	0.163	0.086
-484.420	-33.676	-0.036	0.020
-483.405	-71.066	0.253	-0.096
-482.391	178.850	-0.165	-0.244
-481.376	-39.488	-0.272	0.144
-480.362	-58.115	0.174	0.076
-479.347	-169.276	-0.242	0.009
-478.332	-200.000	0.024	-0.192
-477.318	-89.883	0.272	-0.080
-476.303	182.158	0.186	0.277
-475.289	178.752	0.044	-0.064
-474.274	420.751	-0.174	0.376
-473.259	-160.204	-0.135	-0.007
-472.245	-51.472	0.247	-0.116
-471.230	-136.975	0.232	-0.027
-470.216	-200.000	0.031	0.165
-469.201	122.548	0.096	0.120
-468.186	-70.502	0.211	0.081
-467.172	-95.120	-0.122	0.033
-466.157	800.000	0.046	0.163
-465.143	187.333	-0.045	0.067
-464.128	-200.000	-0.041	0.234
-463.113	376.263	-0.108	0.223
-462.099	-56.449	-0.241	-0.108
-461.084	-200.000	-0.047	0.230
-460.070	-200.000	-0.079	0.392
-459.055	-9.963	0.251	-0.168
-458.040	-133.458	-0.145	0.018
-457.026	242.514	-0.105	-0.176
-456.011	-62.921	0.395	-0.164
-454.997	-2.774	0.106	-0.074
-453.982	-110.146	0.166	0.035
-452.968	-108.670	-0.196	-0.042
-451.953	582.810	-0.070	-0.172
-450.938	-145.759	-0.155	-0.014
-449.924	-6.599	0.081	0.055
-448.909	-124.714	-0.549	0.086
-447.895	273.816	0.148	0.264
-446.880	800.000	0.024	-0.073
-445.865	800.000	0.041	0.133
-444.851	418.303	-0.037	-0.079
-443.836	-200.000	0.005	0.061
-442.822	800.000	0.103	-0.338
-441.807	-82.970	-0.148	-0.048
-440.792	290.148	-0.095	-0.174
-439.778	-120.540	-0.140	0.024
-438.763	370.126	0.055	0.111
-437.749	268.850	0.124	-0.218
-436.734	52.713	-0.218	-0.209
-435.719	181.810	-0.197	-0.292
-434.705	-200.000	-0.001	-0.298
-433.690	6.236	-0.152	-0.113
-432.676	14.083	0.109	0.085
-431.661	18.844	0.129	0.104
-430.646	-94.042	0.190	-0.052
-429.632	-60.081	0.159	0.068
-428.617	-102.488	-0.258	0.062
-427.603	775.636	0.031	0.086
-426.588	-175.958	0.331	-0.009
-425.573	216.045	0.073	0.116
-424.559	-73.981	0.234	0.085
-423.544	230.182	-0.073	-0.120
-422.530	-138.982	0.137	-0.015
-421.515	800.000	0.050	-0.150
-420.500	-89.856	-0.109	-0.032
-419.486	-200.000	-0.022	0.226
-418.471	-185.652	0.142	0.002
-417.457	79.738	-0.016	-0.017
-416.442	-75.437	-0.298	0.107
-415.428	-200.000	-0.032	-0.255
-414.413	-153.370	0.199	-0.014
-413.398	32.644	-0.146	0.127
-412.384	-2.828	0.158	0.111
-411.369	-65.871	0.404	0.162
-410.355	800.000	-0.158	0.450
-409.340	-121.434	0.260	-0.044
-408.325	59.769	-0.162	-0.160
-407.311	-183.325	-0.125	0.002
-406.296	800.000	-0.160	-0.503
-405.282	3.002	0.185	-0.135
-404.267	-0.409	-0.129	0.092
-403.252	120.725	-0.153	0.191
-402.238	-200.000	0.023	0.499
-401.223	-74.339	0.393	-0.143
-400.209	-200.000	-0.005	0.081
-399.194	0.183	-0.068	-0.049
-398.179	-126.505	0.337	-0.050
-397.165	-200.000	0.035	0.372
-396.150	134.865	-0.086	-0.112
-395.136	-168.998	0.361	-0.014
-394.121	-200.000	-0.003	0.199
-393.106	-139.037	-0.090	-0.010
-392.092	1.546	-0.240	-0.173
-391.077	-64.108	0.310	-0.127
-390.063	-1.328	0.274	-0.194
-389.048	16.147	0.087	-0.069
-388.033	88.644	-0.103	-0.115
-387.019	-6.618	0.328	-0.224
-386.004	-53.991	-0.065	-0.030
-384.990	-110.229	0.394	-0.082
-383.975	-97.740	-0.195	-0.051
-382.960	543.040	-0.138	-0.329
-381.946	121.545	-0.067	-0.083
-380.931	-142.713	-0.226	0.022
-379.917	474.849	-0.085	-0.193
-378.902	-8.611	-0.071	0.048
-377.888	-109.894	-0.199	-0.042
-376.873	-200.000	0.034	0.280
-375.858	-14.943	-0.218	0.140
-374.844	-200.000	0.086	-0.421
-373.829	800.000	0.044	-0.180
-372.815	-188.234	0.165	-0.002
-371.800	360.975	0.171	0.344
-370.785	-29.534	-0.107	0.062
-369.771	8.327	-0.167	-0.126
-368.756	339.415	-0.165	0.323
-367.742	444.195	0.121	0.266
-366.727	363.870	-0.155	-0.312
-365.712	-200.000	0.023	0.301
-364.698	31.228	0.282	0.243
-363.683	175.247	0.144	0.208
-362.669	-18.230	0.091	0.057
-361.654	225.693	-0.179	-0.291
-360.639	648.475	-0.170	-0.435
-359.625	800.000	0.062	-0.265
-358.610	166.491	0.140	-0.200
-357.596	-62.993	0.108	0.045
-356.581	800.000	-0.065	-0.270
-355.566	178.966	0.053	0.078
-354.552	3.388	0.173	0.126
-353.537	-36.123	0.124	0.067
-352.523	-106.087	-0.186	0.042
-351.508	-48.865	-0.072	-0.035
-350.493	-49.380	-0.217	-0.104
-349.479	-68.785	-0.323	-0.125
-348.464	-99.616	0.061	-0.015
-347.450	-102.798	-0.382	-0.091
-346.435	11.161	0.216	0.166
-345.420	-200.000	-0.003	0.208
-344.406	-119.059	0.145	0.025
-343.391	42.472	-0.188	-0.171
-342.377	18.757	-0.142	0.114
-341.362	29.275	0.197	0.168
-340.348	-44.815	0.270	-0.135
-339.333	-64.020	0.181	0.074
-338.318	-64.725	-0.150	-0.061
-337.304	319.844	-0.047	0.090
-336.289	-7.274	0.189	-0.128
-335.275	-131.930	-0.219	-0.029
-334.260	-59.009	-0.245	-0.106
-333.245	278.214	-0.175	-0.312
-332.231	-143.181	-0.234	-0.023
-331.216	43.624	0.089	-0.082
-330.202	-48.531	-0.304	0.146
-329.187	800.000	-0.029	0.101
-328.172	91.992	0.141	-0.159
-327.158	-195.883	0.135	-0.001
-326.143	-126.361	0.080	-0.012
-325.129	800.000	-0.057	-0.200
-324.114	143.822	0.092	-0.123
-323.099	167.862	0.170	0.242
-322.085	466.327	-0.110	-0.246
-321.070	138.573	0.203	0.266
-320.056	235.062	-0.111	-0.183
-319.041	-200.000	-0.003	0.167
-318.026	-167.180	-0.230	0.009
-317.012	-101.649	0.291	-0.071
-315.997	-52.315	-0.381	-0.177
-314.983	225.805	0.221	0.358
-313.968	-165.586	0.096	-0.004
-312.953	116.388	-0.133	-0.163
-311.939	143.253	-0.095	0.126
-310.924	-85.845	0.162	-0.050
-309.910	519.441	-0.091	-0.212
-308.895	88.958	0.187	-0.208
-307.880	-110.983	-0.619	0.127
-306.866	-200.000	-0.404	-0.002
-305.851	-200.000	0.011	0.110
-304.837	800.000	-0.117	0.363
-303.822	144.516	0.030	0.040
-302.807	-86.154	0.184	-0.057
-301.793	-165.066	0.170	0.008
-300.778	123.826	0.023	-0.029
-299.764	214.585	0.065	0.103
-298.749	800.000	0.118	-0.339
-297.735	-23.265	0.110	0.066
-296.720	800.000	-0.076	0.273
-295.705	6.440	0.098	0.073
-294.691	-11.937	0.046	0.030
-293.676	-99.561	0.151	0.038
-292.662	344.811	0.037	-0.073
-291.647	170.588	-0.065	-0.093
-290.632	-200.000	0.079	-0.371
-289.618	-134.909	0.190	-0.023
-288.603	-13.938	-0.338	-0.218
-287.589	-82.298	-0.199	0.065
-286.574	-49.119	0.308	-0.147
-285.559	800.000	0.062	-0.206
-284.545	75.330	0.362	0.382
-283.530	-200.000	-0.027	-0.177
-282.516	-98.693	0.307	-0.078
-281.501	-200.000	0.018	0.212
-280.486	-200.000	0.000	-0.098
-279.472	-103.828	-0.601	-0.140
-278.457	132.232	-0.051	0.066
-277.443	-200.000	0.015	-0.167
-276.428	-200.000	0.006	0.127
-275.413	-46.481	0.304	0.149
-274.399	800.000	0.042	-0.143
-273.384	-9.323	-0.135	0.090
-272.370	-101.206	0.264	-0.064
-271.355	-128.796	0.107	-0.015
-270.340	-200.000	-0.013	-0.352
-269.326	-55.879	0.121	-0.054
-268.311	1.680	0.190	-0.137
-267.297	-200.000	-0.004	0.517
-266.282	301.050	-0.130	0.240
-265.267	-136.898	-0.214	-0.025
-264.253	317.577	0.109	-0.205
-263.238	38.475	0.224	0.199
-262.224	146.631	0.094	-0.126
-261.209	50.878	0.318	0.300
-260.195	52.939	0.217	0.207
-259.180	-145.966	0.504	-0.045
-258.165	-25.006	-0.140	0.083
-257.151	-200.000	0.030	-0.591
-256.136	-200.000	-0.014	-0.280
-255.122	37.577	0.166	-0.147
-254.107	165.140	-0.171	0.242
-253.092	432.410	-0.201	0.435
-252.078	-37.854	0.342	-0.182
-251.063	1.787	-0.146	-0.105
-250.049	-200.000	0.051	0.274
-249.034	-50.040	0.334	0.158
-248.019	544.041	-0.043	-0.103
-247.005	-168.254	-0.269	0.010
-245.990	201.995	-0.070	0.108
-244.976	62.476	0.160	0.159
-243.961	-38.481	-0.483	0.255
-242.946	104.096	-0.161	0.189
-241.932	645.382	-0.062	-0.159
-240.917	539.181	-0.146	0.347
-239.903	-96.612	0.338	0.089
-238.888	800.000	0.079	-0.312
-237.873	-50.491	0.296	-0.139
-236.859	18.469	0.299	0.238
-235.844	248.890	0.197	0.333
-234.830	-200.000	0.050	0.232
-233.815	-129.335	0.267	0.037
-232.800	-200.000	-0.007	-0.034
-231.786	35.650	-0.098	0.086
-230.771	137.854	-0.099	0.130
-229.757	-41.284	0.206	0.106
-228.742	800.000	-0.102	0.405
-227.727	-123.485	0.179	-0.028
-226.713	-23.162	-0.192	0.115
-225.698	-126.321	0.226	0.034
-224.684	-91.800	-0.309	-0.087
-223.669	296.992	-0.126	-0.231
-222.655	103.136	0.140	0.163
-221.640	-112.726	-0.072	-0.014
-220.625	79.709	-0.182	-0.195
-219.611	127.120	-0.069	-0.087
-218.596	800.000	-0.059	0.197
-217.582	17.741	0.142	0.112
-216.567	332.228	-0.083	-0.160
-215.552	-144.135	0.327	-0.031
-214.538	-200.000	0.013	-0.115
-213.523	-82.698	0.145	0.047
-212.509	41.336	0.195	0.176
-211.494	52.677	-0.123	-0.117
-210.479	56.109	0.178	-0.172
-209.465	95.113	-0.129	0.147
-208.450	22.194	-0.198	0.161
-207.436	84.878	-0.096	0.105
-206.421	150.285	0.164	0.222
-205.406	-151.065	0.142	-0.011
-204.392	190.657	0.275	0.413
-203.377	-90.276	-0.405	-0.117
-202.363	-62.660	-0.338	-0.140
-201.348	36.488	-0.332	0.292
-200.333	180.657	-0.112	-0.164
-199.319	-143.642	-0.165	0.016
-198.304	-200.000	-0.002	-0.100
-197.290	-11.178	-0.136	0.089
-196.275	16.463	0.231	-0.182
-195.260	800.000	-0.111	-0.415
-194.246	-88.591	-0.351	0.104
-193.231	92.316	0.199	0.224
-192.217	40.014	-0.198	-0.177
-191.202	-86.271	0.271	-0.083
-190.187	-88.493	0.107	-0.032
-189.173	-173.313	-0.066	-0.002
-188.158	392.406	-0.097	-0.201
-187.144	-152.121	-0.403	-0.029
-186.129	26.102	-0.142	-0.118
-185.114	198.953	0.177	0.270
-184.100	191.324	-0.151	0.226
-183.085	-107.815	-0.363	-0.079
-182.071	59.759	0.147	0.145
-181.056	-125.756	0.165	0.025
-180.042	-77.989	0.159	0.054
-179.027	502.940	-0.064	0.148
-178.012	328.107	-0.109	0.208
-176.998	800.000	-0.065	-0.207
-175.983	-200.000	-0.020	-0.331
-174.969	-200.000	-0.020	-0.123
-173.954	84.360	-0.017	0.018
-172.939	800.000	-0.049	-0.147
-171.925	135.069	0.108	0.140
-170.910	-200.000	0.043	0.293
-169.896	-164.131	-0.181	-0.008
-168.881	31.251	0.183	0.157
-167.866	-200.000	-0.012	-0.074
-166.852	135.249	-0.097	-0.126
-165.837	-47.764	0.352	0.170
-164.823	411.669	0.082	0.173
-163.808	425.692	0.109	0.233
-162.793	227.051	-0.235	0.380
-161.779	15.440	-0.178	0.139
-160.764	-200.000	0.001	-0.016
-159.750	-8.287	-0.358	-0.239
-158.735	45.742	0.244	-0.224
-157.720	-14.454	-0.150	-0.096
-156.706	-200.000	-0.042	0.591
-155.691	-155.765	0.109	0.007
-154.677	37.267	0.149	-0.131
-153.662	4.130	0.071	-0.052
-152.647	-83.027	0.063	0.020
-151.633	-69.132	0.239	-0.091
-150.618	-6.332	-0.133	0.090
-149.604	-115.079	0.134	0.025
-148.589	57.733	0.024	0.023
-147.574	-50.017	-0.354	0.167
-146.560	-35.601	0.444	-0.239
-145.545	800.000	-0.098	-0.280
-144.531	-200.000	0.020	0.089
-143.516	-119.424	-0.134	-0.023
-142.502	-29.162	0.055	0.032
-141.487	-31.149	-0.150	0.084
-140.472	197.848	-0.172	-0.262
-139.458	-72.790	0.061	-0.022
-138.443	-77.528	0.166	-0.057
-137.429	-109.923	0.064	0.013
-136.414	199.515	0.200	0.305
-135.399	114.387	-0.150	-0.182
-134.385	102.322	-0.096	0.112
-133.370	-151.674	0.374	0.027
-132.356	31.217	0.094	-0.080
-131.341	4.142	-0.117	0.085
-130.326	96.016	-0.141	0.160
-129.312	-45.898	0.075	-0.037
-128.297	800.000	0.056	0.179
-127.283	-131.180	-0.036	-0.005
-126.268	352.307	0.096	-0.189
-125.253	-75.210	0.105	-0.037
-124.239	-39.729	0.296	0.154
-123.224	407.507	0.111	0.234
-122.210	42.177	-0.122	0.110
-121.195	-19.281	0.037	0.023
