DTS Sentinel unit serial number:	SN413079Multiplexer serial number:	ORYXHardware model number:	OX4-SRSoftware version number:	ORYX F/W v4.00 Oryx Data Collector v3.7.2.0data status	okinstallation	princeton_trtdifferential loss correction	single-endedforward channel	channel 3reverse channel	N/Adate	2019/09/18time	09:40:34forward acquisition time	60.00reverse acquisition time	0.00gamma	496.2192k internal	0.2336k external	0.2336temperature offset calibration	0.9947default loss term (dB/km)	0.3790temperature slope calibration	1.0000multiplexer offset coefficient	1.0000multiplexer slope coefficient	1.0000fibre end	0.00T internal ref (°C)	26.75T ext. ref 1 (°C)	0.28T ext. ref 2 (°C)	23.37length (m)	temperature (°C)	Stokes	anti-Stokes-747.200	168.513	0.093	-0.133
-746.185	-114.626	-0.517	0.099
-745.171	-52.862	-0.210	-0.097
-744.156	122.715	-0.077	-0.097
-743.142	-200.000	-0.012	0.144
-742.127	-98.512	-0.569	-0.146
-741.112	242.685	0.106	-0.179
-740.098	12.733	-0.250	0.194
-739.083	-92.032	-0.197	0.056
-738.069	28.609	0.158	0.134
-737.054	285.677	-0.045	0.082
-736.039	800.000	-0.021	-0.081
-735.025	-99.637	0.446	0.112
-734.010	-152.000	-0.279	-0.020
-732.996	800.000	-0.124	-0.476
-731.981	-80.317	-0.272	-0.091
-730.966	800.000	0.061	0.223
-729.952	164.236	0.199	-0.281
-728.937	-37.667	-0.219	0.117
-727.923	77.818	-0.082	0.088
-726.908	800.000	-0.132	0.445
-725.894	1.023	0.118	0.085
-724.879	7.905	-0.172	0.129
-723.864	-64.790	0.273	-0.111
-722.850	63.732	-0.135	-0.136
-721.835	528.344	-0.026	0.060
-720.821	69.497	-0.207	0.214
-719.806	-200.000	0.032	-0.158
-718.791	-64.303	-0.289	0.118
-717.777	-126.738	-0.198	0.029
-716.762	57.252	-0.294	-0.287
-715.748	-200.000	0.039	0.238
-714.733	323.932	-0.200	-0.383
-713.718	-91.768	-0.031	-0.009
-712.704	10.504	0.045	0.034
-711.689	-82.459	-0.301	0.098
-710.675	800.000	-0.108	-0.393
-709.660	-146.654	0.259	-0.022
-708.645	-167.019	0.214	-0.009
-707.631	281.516	-0.101	-0.181
-706.616	-61.248	0.066	0.028
-705.602	-14.404	0.134	0.087
-704.587	-69.153	0.206	0.080
-703.572	-145.671	0.297	-0.027
-702.558	-120.652	0.108	0.018
-701.543	-116.989	0.093	0.017
-700.529	349.663	-0.089	0.175
-699.514	-147.102	0.252	0.022
-698.499	-77.852	-0.256	-0.089
-697.485	-200.000	0.056	-0.267
-696.470	2.815	0.005	-0.004
-695.456	800.000	-0.042	-0.160
-694.441	-22.940	0.021	-0.012
-693.426	202.338	-0.046	-0.071
-692.412	-83.580	0.249	0.080
-691.397	35.033	-0.249	0.219
-690.383	-200.000	-0.040	-0.370
-689.368	800.000	0.032	-0.111
-688.354	33.830	0.189	-0.164
-687.339	13.620	-0.224	-0.174
-686.324	129.065	-0.034	0.044
-685.310	134.306	0.206	-0.268
-684.295	277.248	0.116	-0.206
-683.281	-200.000	-0.038	0.259
-682.266	-32.040	0.033	0.019
-681.251	-200.000	-0.005	0.129
-680.237	-15.777	0.141	0.090
-679.222	-11.726	0.155	0.102
-678.208	597.877	-0.181	0.449
-677.193	-142.963	-0.241	-0.023
-676.178	351.657	-0.105	0.208
-675.164	9.725	0.183	-0.139
-674.149	-66.734	-0.225	-0.089
-673.135	84.041	-0.143	0.156
-672.120	86.530	0.182	-0.201
-671.105	200.493	-0.094	0.145
-670.091	-200.000	-0.012	0.056
-669.076	155.303	0.092	-0.126
-668.062	281.436	0.062	0.112
-667.047	-200.000	-0.007	-0.250
-666.032	129.800	0.092	0.118
-665.018	-9.587	0.199	-0.133
-664.003	-21.196	0.109	-0.067
-662.989	-31.753	-0.221	-0.124
-661.974	-8.429	0.255	0.171
-660.959	-200.000	0.053	-0.488
-659.945	248.699	-0.227	-0.384
-658.930	70.912	0.185	0.191
-657.916	-20.511	0.293	-0.180
-656.901	-101.293	-0.474	-0.116
-655.886	-14.322	0.085	-0.055
-654.872	-111.210	-0.207	0.042
-653.857	-200.000	0.033	-0.456
-652.843	800.000	0.113	0.392
-651.828	12.166	-0.279	0.215
-650.814	-200.000	-0.010	-0.109
-649.799	-105.923	-0.127	-0.029
-648.784	553.876	0.009	-0.021
-647.770	-3.955	-0.150	-0.104
-646.755	-109.073	0.316	-0.067
-645.741	-59.328	-0.104	0.045
-644.726	135.468	-0.015	-0.020
-643.711	-105.906	-0.201	0.045
-642.697	800.000	0.035	-0.131
-641.682	800.000	0.036	-0.112
-640.668	-39.197	-0.096	-0.051
-639.653	800.000	0.056	-0.199
-638.638	-200.000	0.028	-0.129
-637.624	-33.210	0.239	-0.133
-636.609	-200.000	-0.026	0.229
-635.595	223.406	0.083	0.135
-634.580	-200.000	-0.070	0.318
-633.565	55.839	-0.339	0.328
-632.551	-200.000	0.010	0.144
-631.536	392.838	0.110	0.229
-630.522	-100.385	-0.025	0.006
-629.507	-82.920	0.188	0.061
-628.492	-169.297	0.223	0.008
-627.478	-18.705	0.173	-0.108
-626.463	173.363	0.067	0.096
-625.449	-17.974	-0.250	0.157
-624.434	-81.651	0.129	0.042
-623.419	70.720	-0.056	0.058
-622.405	-77.519	-0.199	0.069
-621.390	-200.000	-0.013	0.367
-620.376	1.648	0.255	0.183
-619.361	490.914	-0.173	-0.396
-618.346	29.829	0.277	-0.236
-617.332	-200.000	0.091	-0.426
-616.317	-187.365	-0.161	-0.002
-615.303	-22.046	-0.340	0.206
-614.288	-96.617	0.057	-0.015
-613.273	-161.217	0.123	0.006
-612.259	583.719	-0.064	0.158
-611.244	-2.311	0.254	0.178
-610.230	228.692	-0.096	0.156
-609.215	252.434	0.040	0.068
-608.201	-24.732	0.291	-0.173
-607.186	76.772	0.256	-0.271
-606.171	-200.000	-0.007	0.241
-605.157	-200.000	-0.055	-0.292
-604.142	-100.473	0.295	-0.073
-603.128	94.181	-0.144	0.163
-602.113	1.894	-0.154	0.111
-601.098	-17.907	-0.150	-0.094
-600.084	286.047	0.075	-0.136
-599.069	109.421	0.112	0.134
-598.055	200.491	0.003	0.004
-597.040	-56.364	0.034	0.015
-596.025	471.685	0.024	0.055
-595.011	0.437	0.241	0.172
-593.996	-156.413	0.139	0.009
-592.982	-158.353	0.424	0.025
-591.967	-200.000	-0.036	0.241
-590.952	124.414	-0.295	0.370
-589.938	-15.747	0.222	-0.141
-588.923	147.651	0.043	0.058
-587.909	528.073	-0.106	0.251
-586.894	-200.000	-0.013	-0.158
-585.879	13.736	-0.190	0.147
-584.865	800.000	0.068	0.245
-583.850	-7.254	0.260	-0.176
-582.836	-40.198	-0.232	-0.121
-581.821	-54.760	0.211	-0.095
-580.806	-60.736	0.240	-0.101
-579.792	-15.442	0.116	-0.074
-578.777	-19.801	-0.136	0.084
-577.763	-200.000	-0.004	0.401
-576.748	6.982	0.154	0.114
-575.733	-6.720	-0.306	-0.208
-574.719	-71.179	0.254	0.095
-573.704	511.874	0.015	-0.035
-572.690	246.590	0.032	0.053
-571.675	110.444	-0.208	-0.249
-570.661	-185.457	0.039	-0.001
-569.646	-85.671	0.341	-0.106
-568.631	-200.000	-0.020	0.314
-567.617	-200.000	-0.002	-0.059
-566.602	278.185	-0.107	-0.191
-565.588	112.257	-0.075	-0.090
-564.573	25.353	0.102	0.085
-563.558	282.031	-0.158	-0.282
-562.544	-200.000	0.033	0.284
-561.529	-126.487	0.195	-0.029
-560.515	57.589	0.110	-0.107
-559.500	31.036	-0.017	0.015
-558.485	-200.000	-0.006	-0.054
-557.471	778.407	0.057	0.154
-556.456	143.010	-0.139	0.184
-555.442	491.987	0.093	0.211
-554.427	179.296	-0.191	-0.278
-553.412	5.827	-0.050	-0.037
-552.398	800.000	0.025	-0.081
-551.383	-24.111	-0.176	-0.105
-550.369	149.812	0.076	0.103
-549.354	-34.628	-0.090	0.049
-548.339	667.659	-0.073	0.188
-547.325	-146.737	-0.166	-0.014
-546.310	162.830	0.073	-0.102
-545.296	-42.725	-0.100	-0.051
-544.281	-185.108	-0.019	-0.000
-543.266	-200.000	0.011	-0.161
-542.252	-86.251	0.325	0.100
-541.237	-72.099	0.108	-0.040
-540.223	800.000	-0.058	-0.217
-539.208	37.020	0.250	0.221
-538.193	632.373	0.048	-0.122
-537.179	183.335	0.088	0.130
-536.164	-88.829	0.030	-0.009
-535.150	-60.245	0.253	-0.107
-534.135	372.399	-0.077	-0.157
-533.121	-92.080	0.055	-0.015
-532.106	-66.056	0.384	0.152
-531.091	-57.480	0.163	0.071
-530.077	-200.000	0.019	0.294
-529.062	-200.000	-0.023	0.194
-528.048	72.855	-0.217	0.225
-527.033	-77.510	-0.182	0.063
-526.018	211.658	0.133	0.209
-525.004	-67.318	0.326	-0.127
-523.989	-200.000	-0.019	-0.109
-522.975	8.632	0.231	-0.173
-521.960	191.242	0.085	0.128
-520.945	800.000	0.039	-0.109
-519.931	-107.203	-0.250	-0.055
-518.916	-200.000	0.099	0.499
-517.902	-44.033	-0.536	-0.268
-516.887	-142.751	0.149	-0.014
-515.872	179.509	-0.096	0.140
-514.858	-200.000	0.048	0.262
-513.843	548.542	-0.048	-0.115
-512.829	13.267	-0.060	-0.046
-511.814	-69.656	0.313	-0.119
-510.799	226.892	0.201	-0.325
-509.785	800.000	-0.053	-0.180
-508.770	-16.076	0.094	-0.060
-507.756	365.515	-0.070	-0.141
-506.741	-84.007	-0.159	0.050
-505.726	72.423	0.088	-0.092
-504.712	-200.000	0.014	-0.061
-503.697	-34.593	0.135	0.074
-502.683	298.482	-0.062	-0.114
-501.668	21.961	-0.086	-0.070
-500.653	-200.000	0.068	-0.312
-499.639	-200.000	-0.035	0.178
-498.624	-200.000	0.029	-0.181
-497.610	800.000	0.129	-0.509
-496.595	-174.855	-0.177	0.005
-495.581	-105.586	0.178	-0.040
-494.566	1.569	-0.329	-0.236
-493.551	291.969	-0.153	-0.276
-492.537	-200.000	0.080	0.414
-491.522	113.225	-0.257	-0.310
-490.508	-165.344	0.124	0.005
-489.493	182.032	-0.075	0.109
-488.478	65.482	-0.156	-0.157
-487.464	-57.031	0.069	0.030
-486.449	796.545	-0.044	-0.119
-485.435	-200.000	-0.006	0.048
-484.420	-46.061	0.204	0.100
-483.405	116.652	-0.289	-0.352
-482.391	208.901	-0.128	-0.199
-481.376	-200.000	-0.014	0.334
-480.362	150.927	-0.138	-0.187
-479.347	-200.000	0.010	-0.200
-478.332	-124.189	0.306	0.048
-477.318	-67.626	0.058	-0.023
-476.303	-32.089	-0.149	-0.083
-475.289	-83.015	0.162	-0.052
-474.274	-116.279	-0.049	-0.009
-473.259	800.000	-0.007	-0.028
-472.245	-47.061	0.116	-0.056
-471.230	1.590	0.176	0.126
-470.216	800.000	-0.032	0.130
-469.201	9.091	-0.175	0.131
-468.186	38.237	0.009	-0.008
-467.172	800.000	-0.107	0.305
-466.157	-10.620	-0.470	-0.309
-465.143	-78.994	-0.132	-0.045
-464.128	8.886	-0.282	0.212
-463.113	-134.304	-0.188	0.023
-462.099	175.146	0.085	-0.122
-461.084	-115.822	-0.184	-0.034
-460.070	-106.293	-0.052	0.011
-459.055	-97.086	-0.224	0.058
-458.040	72.524	0.041	-0.042
-457.026	-127.421	-0.200	-0.029
-456.011	800.000	-0.104	0.336
-454.997	205.518	-0.120	-0.185
-453.982	-200.000	0.025	-0.201
-452.968	-71.911	0.111	0.041
-451.953	211.541	0.060	-0.094
-450.938	-200.000	0.009	-0.199
-449.924	-200.000	-0.066	-0.310
-448.909	-28.829	0.128	-0.073
-447.895	194.322	0.372	0.560
-446.880	106.500	0.216	-0.255
-445.865	272.833	-0.115	-0.202
-444.851	-2.498	-0.141	0.098
-443.836	231.676	0.093	-0.152
-442.822	-152.775	-0.200	0.014
-441.807	-147.641	0.164	0.014
-440.792	-200.000	0.032	0.158
-439.778	252.599	-0.087	-0.147
-438.763	-200.000	0.001	-0.352
-437.749	-134.883	0.188	0.023
-436.734	-200.000	0.077	0.398
-435.719	310.744	0.097	0.179
-434.705	-200.000	0.073	-0.326
-433.690	-200.000	-0.016	-0.232
-432.676	-9.211	-0.028	0.019
-431.661	800.000	-0.128	0.502
-430.646	740.078	0.113	0.300
-429.632	800.000	0.069	-0.204
-428.617	34.706	-0.209	-0.181
-427.603	234.940	0.105	-0.172
-426.588	75.993	-0.073	0.076
-425.573	-189.654	0.304	0.003
-424.559	66.062	0.072	0.072
-423.544	133.949	0.021	-0.027
-422.530	173.493	0.166	-0.238
-421.515	800.000	0.109	0.346
-420.500	244.475	0.048	-0.081
-419.486	5.328	0.099	-0.072
-418.471	151.169	0.105	-0.141
-417.457	-200.000	0.024	0.172
-416.442	-54.921	0.218	-0.098
-415.428	-129.123	-0.313	-0.043
-414.413	99.615	0.086	-0.098
-413.398	-45.443	0.151	-0.074
-412.384	800.000	-0.065	-0.200
-411.369	21.937	0.102	0.082
-410.355	-200.000	0.035	-0.352
-409.340	800.000	-0.043	-0.127
-408.325	268.312	0.105	0.183
-407.311	142.431	-0.200	-0.263
-406.296	21.047	0.343	0.276
-405.282	-182.904	-0.481	-0.009
-404.267	800.000	-0.053	0.159
-403.252	800.000	0.061	0.169
-402.238	-46.296	0.397	0.193
-401.223	-200.000	0.035	-0.213
-400.209	190.285	0.256	0.380
-399.194	621.667	0.075	-0.186
-398.179	44.330	-0.214	0.195
-397.165	-182.084	0.172	-0.003
-396.150	-76.390	-0.540	0.188
-395.136	-90.392	-0.103	0.030
-394.121	800.000	0.085	-0.232
-393.106	28.371	0.069	0.057
-392.092	58.256	0.239	-0.232
-391.077	800.000	-0.050	0.143
-390.063	-106.453	0.192	0.043
-389.048	56.029	-0.211	-0.203
-388.033	-172.141	-0.307	-0.010
-387.019	157.343	-0.192	0.263
-386.004	800.000	0.005	-0.019
-384.990	9.209	-0.387	0.290
-383.975	-32.860	0.142	0.078
-382.960	24.957	-0.205	-0.168
-381.946	-12.752	0.191	-0.123
-380.931	-200.000	0.043	-0.260
-379.917	69.174	0.033	0.034
-378.902	800.000	0.052	-0.185
-377.888	466.546	-0.104	-0.231
-376.873	-200.000	0.005	-0.231
-375.858	-10.132	-0.116	-0.077
-374.844	-53.561	-0.218	0.099
-373.829	-83.088	0.141	0.045
-372.815	189.252	0.091	-0.136
-371.800	-162.812	-0.178	-0.009
-370.785	721.109	0.056	-0.147
-369.771	-76.339	-0.049	-0.017
-368.756	-192.338	0.261	0.002
-367.742	337.712	-0.119	-0.229
-366.727	740.865	0.041	0.110
-365.712	-93.590	0.320	0.087
-364.698	19.742	-0.047	-0.037
-363.683	-119.708	-0.413	0.071
-362.669	230.133	0.127	-0.205
-361.654	12.126	0.315	-0.240
-360.639	-182.368	0.280	-0.005
-359.625	329.918	0.161	0.307
-358.610	-20.332	-0.256	0.156
-357.596	-7.716	0.248	0.165
-356.581	-200.000	-0.037	0.162
-355.566	410.169	0.128	-0.268
-354.552	127.261	0.072	0.090
-353.537	-49.756	-0.217	0.102
-352.523	241.963	0.133	-0.219
-351.508	53.341	0.213	-0.202
-350.493	-59.722	0.063	0.027
-349.479	6.239	0.107	-0.079
-348.464	455.371	0.172	-0.377
-347.450	128.212	0.191	0.240
-346.435	-200.000	0.011	0.086
-345.420	22.008	-0.122	0.099
-344.406	-176.886	0.336	-0.008
-343.391	247.769	-0.026	-0.043
-342.377	395.108	-0.226	0.466
-341.362	127.958	-0.281	0.353
-340.348	592.375	-0.049	0.119
-339.333	-43.574	0.225	0.112
-338.318	-200.000	-0.014	-0.118
-337.304	-135.656	-0.400	0.047
-336.289	18.746	0.259	0.205
-335.275	-200.000	-0.032	0.275
-334.260	-123.494	0.126	-0.020
-333.245	52.361	-0.207	0.195
-332.231	-17.726	0.227	0.141
-331.216	-66.057	0.140	0.055
-330.202	-128.482	0.421	0.059
-329.187	15.596	-0.194	-0.150
-328.172	-70.059	-0.042	-0.016
-327.158	-123.929	0.332	-0.052
-326.143	-111.871	-0.079	-0.016
-325.129	-200.000	-0.007	-0.201
-324.114	190.000	0.075	0.111
-323.099	371.044	-0.048	0.095
-322.085	800.000	-0.096	0.371
-321.070	-15.896	0.048	0.030
-320.056	-140.029	-0.072	-0.008
-319.041	190.815	-0.029	0.044
-318.026	-140.436	-0.092	-0.009
-317.012	-200.000	-0.036	-0.247
-315.997	43.555	-0.189	0.171
-314.983	-148.876	0.084	-0.007
-313.968	235.871	-0.115	0.187
-312.953	12.503	0.048	-0.037
-311.939	113.724	-0.191	-0.229
-310.924	800.000	-0.045	-0.154
-309.910	-109.223	-0.469	0.098
-308.895	23.156	0.239	-0.194
-307.880	-169.509	0.059	0.002
-306.866	170.702	0.161	-0.228
-305.851	-109.595	-0.208	0.043
-304.837	-200.000	0.008	0.181
-303.822	-174.121	-0.136	0.004
-302.807	-113.141	-0.257	0.050
-301.793	140.028	0.039	0.050
-300.778	596.990	0.095	-0.232
-299.764	-200.000	0.014	-0.116
-298.749	-13.189	-0.289	0.185
-297.735	-27.416	0.201	0.115
-296.720	800.000	0.058	0.173
-295.705	90.737	-0.234	0.258
-294.691	800.000	0.048	-0.171
-293.676	800.000	-0.052	-0.216
-292.662	-109.731	-0.535	-0.111
-291.647	217.389	0.140	0.220
-290.632	-1.172	-0.136	0.095
-289.618	-138.650	0.267	-0.029
-288.603	55.349	0.304	-0.290
-287.589	75.884	0.123	0.128
-286.574	800.000	0.065	0.282
-285.559	-43.638	-0.137	-0.068
-284.545	-75.632	-0.105	-0.037
-283.530	-1.770	0.189	-0.131
-282.516	-106.828	-0.300	0.066
-281.501	-200.000	-0.024	-0.422
-280.486	19.388	-0.278	-0.221
-279.472	-50.863	-0.139	0.064
-278.457	416.506	-0.047	0.099
-277.443	-101.500	-0.222	0.053
-276.428	623.491	0.147	0.364
-275.413	282.830	-0.202	0.357
-274.399	800.000	-0.021	-0.079
-273.384	-137.261	0.150	0.017
-272.370	378.464	-0.053	0.107
-271.355	-200.000	-0.015	0.081
-270.340	-176.073	-0.359	-0.009
-269.326	23.842	-0.189	-0.154
-268.311	-200.000	0.014	0.159
-267.297	164.781	-0.167	0.232
-266.282	-200.000	-0.007	-0.039
-265.267	-200.000	-0.004	-0.199
-264.253	800.000	0.071	-0.218
-263.238	-200.000	0.025	0.123
-262.224	-26.467	0.296	0.171
-261.209	-76.625	-0.085	0.029
-260.195	111.775	0.176	0.210
-259.180	776.655	0.141	-0.379
-258.165	800.000	0.029	0.096
-257.151	-64.196	0.229	-0.092
-256.136	-153.804	-0.351	-0.024
-255.122	800.000	-0.062	0.169
-254.107	-154.746	0.182	-0.012
-253.092	-200.000	0.063	0.329
-252.078	-200.000	0.040	0.229
-251.063	-200.000	-0.003	-0.014
-250.049	-120.704	0.139	0.023
-249.034	800.000	-0.073	0.224
-248.019	93.439	0.085	-0.095
-247.005	19.564	-0.058	0.046
-245.990	18.056	-0.127	0.100
-244.976	-96.786	0.284	-0.073
-243.961	301.969	0.085	0.155
-242.946	-44.074	-0.147	-0.072
-241.932	288.584	-0.034	-0.060
-240.917	98.603	-0.259	-0.294
-239.903	69.091	0.137	-0.138
-238.888	800.000	-0.150	-0.434
-237.873	110.929	-0.061	-0.072
-236.859	0.254	0.119	-0.084
-235.844	-125.286	-0.104	0.016
-234.830	-30.949	-0.419	0.233
-233.815	-81.654	-0.300	-0.097
-232.800	800.000	-0.106	0.351
-231.786	-200.000	-0.015	-0.071
-230.771	-200.000	0.013	0.279
-229.757	86.761	-0.079	0.086
-228.742	-120.598	-0.206	-0.034
-227.727	-164.590	-0.256	-0.011
-226.713	-24.533	0.072	0.042
-225.698	800.000	0.018	-0.060
-224.684	-29.498	-0.233	0.131
-223.669	338.824	0.046	-0.088
-222.655	-200.000	-0.018	0.431
-221.640	144.282	-0.153	0.201
-220.625	800.000	0.064	-0.177
-219.611	39.964	-0.037	0.033
-218.596	348.137	-0.172	-0.334
-217.582	-200.000	0.006	-0.322
-216.567	-104.759	0.185	-0.042
-215.552	-50.775	0.280	-0.130
-214.538	51.593	0.165	0.154
-213.523	-21.175	0.220	-0.132
-212.509	-13.808	0.167	-0.106
-211.494	800.000	-0.066	-0.274
-210.479	-200.000	0.019	0.323
-209.465	507.492	-0.089	0.203
-208.450	-113.029	-0.177	0.034
-207.436	291.237	-0.091	-0.163
-206.421	-86.826	0.255	-0.077
-205.406	-200.000	0.013	-0.269
-204.392	305.206	0.039	-0.072
-203.377	-200.000	0.039	-0.206
-202.363	-148.933	-0.089	-0.007
-201.348	-200.000	0.017	0.000
-200.333	183.594	0.280	-0.406
-199.319	308.231	-0.131	0.240
-198.304	800.000	0.023	-0.085
-197.290	-153.960	-0.095	-0.006
-196.275	-42.049	0.033	-0.016
-195.260	-200.000	0.003	-0.015
-194.246	-48.169	-0.322	-0.153
-193.231	-76.119	-0.087	-0.030
-192.217	317.776	0.027	0.050
-191.202	-200.000	-0.050	0.220
-190.187	-105.278	-0.189	0.042
-189.173	-128.588	0.235	-0.033
-188.158	5.580	-0.094	0.069
-187.144	95.369	0.090	0.101
-186.129	-200.000	0.016	-0.212
-185.114	-74.347	-0.132	0.047
-184.100	736.174	-0.019	-0.051
-183.085	8.444	0.246	-0.182
-182.071	-112.084	-0.228	-0.045
-181.056	101.738	-0.034	-0.039
-180.042	-200.000	-0.044	-0.333
-179.027	-155.225	-0.292	0.019
-178.012	-126.504	0.212	0.031
-176.998	-23.774	-0.167	0.098
-175.983	-17.969	-0.058	-0.036
-174.969	402.617	0.092	0.190
-173.954	-124.218	-0.049	-0.008
-172.939	-200.000	-0.033	0.425
-171.925	-1.884	-0.148	0.103
-170.910	-33.543	0.082	0.045
-169.896	-200.000	-0.036	0.321
-168.881	276.562	-0.128	0.222
-167.866	44.788	-0.101	0.091
-166.852	-138.306	0.120	0.013
-165.837	548.960	0.024	0.057
-164.823	-200.000	-0.050	-0.320
-163.808	-200.000	-0.053	-0.286
-162.793	-200.000	0.024	0.121
-161.779	-91.378	0.153	-0.043
-160.764	-122.370	0.343	-0.055
-159.750	-200.000	0.023	0.191
-158.735	-167.726	0.313	0.012
-157.720	78.440	-0.195	-0.204
-156.706	206.723	0.111	0.169
-155.691	-200.000	-0.075	-0.461
-154.677	36.020	-0.104	-0.090
-153.662	514.095	-0.144	0.330
-152.647	-200.000	0.003	-0.300
-151.633	-50.548	-0.270	0.125
-150.618	595.961	-0.122	-0.297
-149.604	746.177	0.042	-0.110
-148.589	-169.299	-0.070	0.003
-147.574	-36.004	-0.095	0.050
-146.560	574.220	-0.050	0.119
-145.545	800.000	0.063	0.205
-144.531	800.000	-0.038	-0.112
-143.516	800.000	0.054	0.200
-142.502	-84.173	-0.472	-0.147
-141.487	-87.904	0.236	-0.070
-140.472	-54.311	-0.085	0.038
-139.458	-200.000	0.010	-0.139
-138.443	-146.333	0.171	0.015
-137.429	-200.000	0.008	-0.069
-136.414	35.944	-0.065	0.056
-135.399	-141.051	0.200	0.020
-134.385	-67.784	-0.410	0.157
-133.370	-200.000	-0.014	-0.456
-132.356	164.491	0.212	-0.293
-131.341	234.053	-0.135	0.217
-130.326	-0.260	0.151	0.105
-129.312	193.374	0.112	-0.167
-128.297	6.859	-0.320	0.234
-127.283	365.545	0.101	-0.199
-126.268	-200.000	-0.001	0.017
-125.253	80.635	-0.265	0.279
-124.239	-200.000	-0.065	0.332
-123.224	-200.000	-0.047	0.274
-122.210	102.350	-0.105	-0.120
-121.195	-200.000	0.048	0.227
