DTS Sentinel unit serial number:	SN413079Multiplexer serial number:	ORYXHardware model number:	OX4-SRSoftware version number:	ORYX F/W v4.00 Oryx Data Collector v3.7.2.0data status	okinstallation	princeton_trtdifferential loss correction	single-endedforward channel	channel 3reverse channel	N/Adate	2019/09/14time	14:44:35forward acquisition time	60.00reverse acquisition time	0.00gamma	496.2192k internal	0.2293k external	0.2293temperature offset calibration	1.0050default loss term (dB/km)	0.3790temperature slope calibration	1.0000multiplexer offset coefficient	1.0000multiplexer slope coefficient	1.0000fibre end	0.00T internal ref (°C)	39.25T ext. ref 1 (°C)	4.95T ext. ref 2 (°C)	34.06length (m)	temperature (°C)	Stokes	anti-Stokes-747.200	383.507	-0.072	0.153
-746.185	-200.000	-0.050	0.235
-745.171	370.159	-0.117	-0.242
-744.156	-42.582	0.108	0.056
-743.142	146.136	-0.252	-0.346
-742.127	-136.260	-0.569	-0.068
-741.112	-52.934	-0.181	0.085
-740.098	312.048	0.028	-0.054
-739.083	-64.869	0.133	0.055
-738.069	170.394	-0.057	0.083
-737.054	-200.000	0.015	-0.116
-736.039	92.629	-0.193	-0.222
-735.025	-108.424	-0.255	0.056
-734.010	601.349	-0.002	-0.005
-732.996	-76.208	-0.110	-0.040
-731.981	-38.153	-0.196	-0.106
-730.966	751.156	-0.091	-0.252
-729.952	-200.000	0.042	-0.371
-728.937	529.070	-0.114	-0.275
-727.923	203.974	-0.160	-0.253
-726.908	-136.204	0.223	0.027
-725.894	517.856	-0.087	-0.207
-724.879	64.332	0.061	-0.063
-723.864	800.000	-0.054	-0.183
-722.850	800.000	0.046	0.165
-721.835	46.486	-0.142	0.135
-720.821	-200.000	-0.008	-0.097
-719.806	-110.447	-0.186	0.040
-718.791	-200.000	-0.036	-0.229
-717.777	800.000	0.002	-0.007
-716.762	-200.000	-0.012	-0.280
-715.748	483.203	-0.113	-0.262
-714.733	398.175	-0.125	-0.267
-713.718	-200.000	0.011	-0.117
-712.704	800.000	0.099	0.381
-711.689	320.893	0.017	0.034
-710.675	-12.308	0.160	-0.107
-709.660	20.867	0.107	-0.088
-708.645	84.690	0.067	0.075
-707.631	11.399	0.187	0.146
-706.616	-200.000	-0.032	0.208
-705.602	14.072	-0.129	0.102
-704.587	-124.251	-0.571	-0.091
-703.572	800.000	0.108	-0.369
-702.558	-200.000	0.008	0.127
-701.543	-60.960	-0.112	-0.048
-700.529	-76.367	-0.068	-0.025
-699.514	37.898	0.232	-0.210
-698.499	-123.421	-0.102	0.017
-697.485	22.465	0.131	-0.110
-696.470	-200.000	0.008	-0.280
-695.456	-12.353	-0.140	0.093
-694.441	800.000	0.081	-0.254
-693.426	-63.708	-0.190	-0.079
-692.412	-91.388	-0.089	-0.026
-691.397	-86.655	-0.087	0.027
-690.383	225.868	-0.068	0.112
-689.368	800.000	0.083	-0.346
-688.354	-162.012	0.246	-0.013
-687.339	26.055	0.183	0.156
-686.324	310.228	-0.151	-0.288
-685.310	138.389	-0.262	0.351
-684.295	92.140	-0.217	0.249
-683.281	-90.834	0.172	0.051
-682.266	-77.351	0.307	-0.109
-681.251	90.349	0.121	-0.138
-680.237	422.408	-0.118	-0.259
-679.222	-168.601	-0.026	-0.001
-678.208	85.798	-0.109	-0.122
-677.193	-125.938	0.155	-0.024
-676.178	-88.626	0.285	0.087
-675.164	-66.431	0.158	-0.064
-674.149	-29.791	-0.171	0.099
-673.135	74.257	0.063	-0.067
-672.120	455.379	-0.086	-0.195
-671.105	-200.000	-0.095	-0.444
-670.091	-31.593	0.140	-0.080
-669.076	461.668	-0.080	0.182
-668.062	160.569	0.211	-0.301
-667.047	800.000	0.033	0.146
-666.032	92.093	0.093	0.107
-665.018	-152.344	-0.238	-0.017
-664.003	800.000	-0.026	-0.113
-662.989	-144.315	-0.201	-0.019
-661.974	13.029	0.225	-0.178
-660.959	173.350	0.084	-0.123
-659.945	-200.000	-0.018	0.154
-658.930	9.873	-0.352	0.273
-657.916	-200.000	-0.017	-0.177
-656.901	356.871	-0.168	0.341
-655.886	242.948	0.175	0.299
-654.872	-89.158	-0.242	-0.073
-653.857	-29.846	0.102	0.059
-652.843	-200.000	0.030	-0.317
-651.828	-126.414	0.272	-0.041
-650.814	-38.714	-0.190	-0.102
-649.799	-80.439	-0.274	-0.093
-648.784	-150.321	0.100	0.008
-647.770	-148.209	0.142	0.012
-646.755	-200.000	0.066	0.313
-645.741	800.000	0.155	0.478
-644.726	-49.024	0.236	0.115
-643.711	-174.252	0.320	0.009
-642.697	-61.689	-0.155	-0.066
-641.682	800.000	-0.086	0.282
-640.668	100.922	0.325	0.385
-639.653	-200.000	0.045	0.367
-638.638	51.517	-0.210	-0.204
-637.624	800.000	-0.092	-0.291
-636.609	800.000	-0.045	0.135
-635.595	-158.425	0.313	0.019
-634.580	177.194	-0.197	0.293
-633.565	669.189	0.061	0.161
-632.551	-200.000	0.005	-0.154
-631.536	-200.000	-0.010	0.195
-630.522	14.291	0.119	-0.094
-629.507	559.970	0.125	0.307
-628.492	-77.516	0.266	-0.094
-627.478	-154.819	0.120	0.008
-626.463	90.364	-0.153	-0.175
-625.449	800.000	-0.047	-0.162
-624.434	50.244	0.022	-0.021
-623.419	-200.000	0.018	0.080
-622.405	-58.232	-0.456	0.202
-621.390	124.258	0.098	0.126
-620.376	493.877	-0.135	0.316
-619.361	-200.000	-0.022	-0.209
-618.346	544.498	0.125	-0.304
-617.332	306.322	-0.040	0.075
-616.317	38.845	0.199	-0.181
-615.303	-140.475	0.280	0.030
-614.288	-191.494	0.191	0.002
-613.273	-1.590	0.274	0.197
-612.259	176.298	0.067	0.099
-611.244	-36.778	-0.103	0.056
-610.230	-89.347	0.152	0.046
-609.215	8.957	-0.237	0.182
-608.201	374.405	-0.102	-0.211
-607.186	-200.000	-0.001	0.057
-606.171	-135.600	0.064	0.008
-605.157	-50.266	0.186	0.089
-604.142	-71.357	0.223	-0.085
-603.128	-200.000	0.015	-0.092
-602.113	-34.719	0.156	-0.087
-601.098	-35.368	-0.182	0.101
-600.084	-101.651	0.362	0.089
-599.069	-164.509	-0.098	0.005
-598.055	-58.543	0.134	-0.059
-597.040	106.961	0.139	-0.168
-596.025	131.020	-0.147	0.192
-595.011	29.558	-0.331	-0.287
-593.996	-17.330	-0.257	0.165
-592.982	-83.123	0.066	-0.022
-591.967	-200.000	0.008	0.149
-590.952	29.546	-0.392	0.339
-589.938	166.413	-0.090	0.130
-588.923	-59.214	-0.224	0.098
-587.909	-63.853	0.017	-0.007
-586.894	20.968	0.211	-0.174
-585.879	85.582	-0.187	0.209
-584.865	109.374	-0.139	-0.170
-583.850	-123.987	-0.210	0.034
-582.836	88.376	-0.284	-0.321
-581.821	-34.143	0.082	-0.046
-580.806	13.865	-0.180	0.143
-579.792	-102.155	-0.179	0.044
-578.777	-72.480	-0.182	0.068
-577.763	-154.967	-0.532	-0.036
-576.748	-200.000	0.007	0.099
-575.733	-1.190	0.120	-0.086
-574.719	-58.753	-0.243	-0.107
-573.704	-200.000	-0.035	-0.230
-572.690	800.000	-0.131	-0.380
-571.675	482.532	-0.052	0.121
-570.661	-142.165	-0.294	-0.030
-569.646	93.528	0.111	-0.127
-568.631	800.000	-0.014	-0.045
-567.617	227.342	-0.305	-0.504
-566.602	-134.634	0.162	-0.020
-565.588	312.706	0.107	0.205
-564.573	-200.000	-0.010	0.110
-563.558	-83.078	-0.393	0.129
-562.544	-29.522	-0.161	0.094
-561.529	-69.851	-0.457	0.177
-560.515	800.000	0.039	-0.119
-559.500	-104.858	-0.130	-0.030
-558.485	43.560	-0.335	0.312
-557.471	800.000	0.055	0.168
-556.456	-79.841	-0.191	-0.065
-555.442	572.211	0.056	0.138
-554.427	79.341	-0.151	-0.164
-553.412	-43.059	-0.301	0.155
-552.398	7.884	0.132	0.101
-551.383	-50.958	0.154	-0.073
-550.369	-71.990	-0.080	-0.030
-549.354	-40.591	0.254	0.134
-548.339	-39.290	-0.147	0.078
-547.325	-28.471	-0.251	-0.147
-546.310	-148.570	0.375	-0.031
-545.296	22.572	0.213	0.177
-544.281	800.000	-0.078	0.225
-543.266	-74.922	0.161	-0.059
-542.252	11.107	-0.132	-0.102
-541.237	-56.418	0.144	-0.065
-540.223	275.015	0.148	0.267
-539.208	618.797	-0.077	-0.197
-538.193	-63.584	-0.168	0.070
-537.179	186.650	0.191	0.289
-536.164	133.107	-0.151	-0.197
-535.150	91.102	0.153	-0.175
-534.135	35.686	-0.110	0.098
-533.121	32.878	-0.104	-0.091
-532.106	-79.530	-0.231	-0.079
-531.091	-4.138	0.235	-0.165
-530.077	-89.431	-0.165	0.049
-529.062	-137.302	0.276	0.032
-528.048	451.299	0.087	0.195
-527.033	800.000	-0.065	-0.266
-526.018	-42.554	0.280	-0.145
-525.004	-25.639	-0.269	-0.161
-523.989	-200.000	0.046	-0.244
-522.975	-146.676	-0.396	0.035
-521.960	-110.682	0.203	-0.043
-520.945	0.926	0.163	0.118
-519.931	-124.447	0.169	0.027
-518.916	25.136	-0.143	0.121
-517.902	-200.000	-0.006	-0.059
-516.887	-200.000	0.001	0.116
-515.872	-39.831	0.088	0.046
-514.858	38.739	-0.167	-0.151
-513.843	19.564	-0.198	-0.161
-512.829	37.694	-0.084	0.076
-511.814	-200.000	0.014	0.397
-510.799	800.000	-0.007	-0.032
-509.785	712.003	0.077	0.206
-508.770	6.490	0.192	0.144
-507.756	47.086	0.086	-0.081
-506.741	74.835	-0.276	-0.295
-505.726	-46.268	-0.189	0.094
-504.712	800.000	-0.048	0.137
-503.697	-200.000	-0.002	-0.214
-502.683	-98.964	0.291	-0.075
-501.668	106.152	0.068	-0.081
-500.653	-97.399	0.166	-0.044
-499.639	-200.000	-0.016	0.143
-498.624	-92.618	-0.219	0.062
-497.610	-56.902	-0.040	-0.018
-496.595	-156.821	-0.039	0.002
-495.581	-183.892	-0.203	-0.003
-494.566	643.798	0.076	0.195
-493.551	-37.035	-0.183	0.099
-492.537	-184.694	0.300	-0.005
-491.522	-200.000	0.007	-0.031
-490.508	33.322	0.155	-0.136
-489.493	-200.000	0.055	-0.354
-488.478	-200.000	0.003	-0.404
-487.464	-200.000	0.090	-0.406
-486.449	29.193	0.175	0.151
-485.435	204.842	-0.211	-0.332
-484.420	81.392	-0.263	-0.288
-483.405	31.529	-0.211	0.183
-482.391	-135.959	0.106	0.013
-481.376	-200.000	-0.041	0.326
-480.362	70.234	-0.052	-0.055
-479.347	-64.808	-0.089	-0.037
-478.332	-200.000	0.037	-0.278
-477.318	17.521	-0.253	-0.204
-476.303	253.751	0.129	-0.224
-475.289	-200.000	0.002	-0.105
-474.274	-200.000	-0.034	-0.167
-473.259	198.654	0.190	-0.294
-472.245	57.902	-0.137	0.136
-471.230	80.624	-0.195	-0.213
-470.216	-200.000	-0.036	0.162
-469.201	447.486	-0.043	-0.097
-468.186	253.783	-0.100	-0.172
-467.172	330.346	-0.123	0.240
-466.157	100.829	0.157	0.185
-465.143	-200.000	0.040	0.191
-464.128	377.287	-0.043	-0.089
-463.113	-200.000	-0.011	0.187
-462.099	-116.566	0.155	0.029
-461.084	-94.248	0.238	0.066
-460.070	-31.317	-0.144	-0.082
-459.055	-125.836	-0.236	-0.036
-458.040	-200.000	-0.090	0.412
-457.026	-96.958	-0.099	-0.026
-456.011	-200.000	-0.010	-0.295
-454.997	-61.060	0.245	0.104
-453.982	800.000	0.018	-0.049
-452.968	148.557	0.099	-0.135
-451.953	-200.000	-0.002	0.196
-450.938	227.054	-0.103	0.169
-449.924	18.407	0.150	-0.121
-448.909	-142.090	-0.215	-0.022
-447.895	-200.000	0.041	-0.188
-446.880	-34.014	-0.089	-0.050
-445.865	-27.783	-0.276	-0.162
-444.851	-138.697	0.156	-0.017
-443.836	52.201	-0.318	-0.307
-442.822	-134.681	0.379	-0.047
-441.807	4.446	0.072	-0.053
-440.792	10.014	-0.254	0.195
-439.778	226.974	-0.238	0.391
-438.763	355.232	0.067	-0.134
-437.749	193.656	-0.052	-0.079
-436.734	-200.000	-0.012	-0.065
-435.719	2.782	0.150	0.110
-434.705	24.544	0.205	0.171
-433.690	-36.254	0.103	0.056
-432.676	174.785	0.122	-0.178
-431.661	203.473	-0.134	-0.209
-430.646	800.000	0.138	-0.399
-429.632	800.000	0.014	0.053
-428.617	216.080	-0.039	0.062
-427.603	243.582	0.115	0.195
-426.588	-92.507	-0.234	0.066
-425.573	38.928	0.084	-0.076
-424.559	76.509	0.144	-0.155
-423.544	-143.755	0.274	-0.026
-422.530	199.517	0.109	0.169
-421.515	-67.134	0.114	-0.045
-420.500	-62.800	-0.315	0.132
-419.486	729.063	-0.047	0.128
-418.471	-200.000	-0.032	-0.310
-417.457	-200.000	-0.004	-0.422
-416.442	-200.000	0.034	-0.309
-415.428	-46.848	-0.323	-0.160
-414.413	800.000	0.051	-0.201
-413.398	-149.419	0.228	0.018
-412.384	-195.096	0.225	0.002
-411.369	800.000	0.122	0.406
-410.355	223.697	0.052	-0.085
-409.340	14.399	-0.367	-0.290
-408.325	800.000	-0.029	0.089
-407.311	111.702	-0.236	0.288
-406.296	-39.242	-0.099	0.052
-405.282	305.542	-0.156	0.292
-404.267	800.000	0.002	0.009
-403.252	800.000	0.006	0.017
-402.238	365.397	-0.173	-0.352
-401.223	662.284	-0.055	0.142
-400.209	-18.660	-0.114	0.072
-399.194	112.213	0.099	-0.120
-398.179	-189.020	0.090	-0.001
-397.165	-10.724	0.131	0.087
-396.150	-146.829	-0.230	0.020
-395.136	237.674	-0.154	-0.258
-394.121	-103.206	-0.031	-0.007
-393.106	-200.000	0.011	-0.225
-392.092	-200.000	0.019	-0.084
-391.077	-51.004	0.450	0.213
-390.063	-46.002	0.322	-0.160
-389.048	23.872	0.107	0.089
-388.033	67.768	-0.060	0.062
-387.019	-114.031	-0.190	0.037
-386.004	472.281	-0.101	-0.229
-384.990	800.000	-0.080	0.248
-383.975	-200.000	0.037	0.355
-382.960	-142.727	0.259	-0.026
-381.946	-5.764	0.178	-0.123
-380.931	51.488	0.304	-0.291
-379.917	-114.396	0.030	0.006
-378.902	-40.642	0.479	0.251
-377.888	-200.000	0.048	0.386
-376.873	-200.000	0.010	0.501
-375.858	800.000	-0.068	0.269
-374.844	-111.929	-0.063	-0.013
-373.829	800.000	0.060	-0.202
-372.815	-82.217	-0.053	-0.017
-371.800	-88.155	-0.241	0.073
-370.785	-155.735	-0.188	-0.012
-369.771	-200.000	-0.044	-0.228
-368.756	-103.916	-0.120	-0.028
-367.742	209.186	-0.145	-0.229
-366.727	-200.000	0.104	0.568
-365.712	195.033	0.287	0.439
-364.698	800.000	-0.041	-0.163
-363.683	-79.856	0.233	-0.079
-362.669	-96.332	-0.189	0.051
-361.654	-72.939	0.141	-0.052
-360.639	-112.503	-0.112	-0.023
-359.625	-32.008	0.199	0.112
-358.610	-13.249	0.213	0.140
-357.596	-200.000	0.053	0.298
-356.581	800.000	-0.041	-0.118
-355.566	86.141	-0.244	-0.271
-354.552	-91.135	-0.118	-0.034
-353.537	800.000	0.103	0.308
-352.523	800.000	0.084	0.250
-351.508	700.248	-0.112	-0.297
-350.493	172.349	0.093	0.134
-349.479	23.207	-0.091	0.076
-348.464	-35.038	0.149	0.082
-347.450	-67.701	0.284	-0.112
-346.435	-200.000	-0.019	-0.114
-345.420	399.391	0.082	-0.173
-344.406	57.452	-0.189	0.186
-343.391	-91.251	0.296	0.085
-342.377	-200.000	-0.004	0.354
-341.362	120.879	-0.226	-0.284
-340.348	488.923	-0.072	0.165
-339.333	76.343	0.162	-0.173
-338.318	-101.252	0.106	-0.026
-337.304	-20.285	0.132	-0.082
-336.289	34.048	-0.185	-0.162
-335.275	484.971	0.102	-0.234
-334.260	136.858	0.253	-0.333
-333.245	64.032	-0.101	0.103
-332.231	185.018	-0.154	-0.230
-331.216	192.620	0.100	-0.152
-330.202	372.033	0.234	0.479
-329.187	-60.662	0.381	0.163
-328.172	-134.344	0.238	-0.029
-327.158	-93.864	-0.245	0.068
-326.143	55.706	0.022	-0.022
-325.129	-149.761	-0.195	0.015
-324.114	86.723	0.184	-0.204
-323.099	-200.000	0.004	0.407
-322.085	-12.540	-0.110	-0.072
-321.070	-57.338	-0.232	0.103
-320.056	800.000	-0.049	-0.214
-319.041	-200.000	-0.009	-0.483
-318.026	-133.684	-0.142	-0.018
-317.012	-46.774	0.103	-0.051
-315.997	800.000	0.034	-0.132
-314.983	-79.900	-0.022	-0.007
-313.968	800.000	-0.018	0.079
-312.953	-200.000	-0.049	0.266
-311.939	0.520	-0.064	0.046
-310.924	650.894	0.143	0.369
-309.910	132.628	-0.140	-0.181
-308.895	43.742	-0.136	0.125
-307.880	-200.000	0.003	0.085
-306.866	-200.000	-0.019	-0.194
-305.851	24.977	-0.107	-0.090
-304.837	-90.047	-0.143	-0.042
-303.822	-113.780	0.097	0.019
-302.807	92.573	-0.017	0.020
-301.793	-200.000	0.005	0.064
-300.778	402.479	-0.152	-0.321
-299.764	231.542	-0.057	0.095
-298.749	411.557	-0.203	0.433
-297.735	800.000	0.058	0.209
-296.720	-200.000	-0.012	-0.070
-295.705	-200.000	0.005	-0.223
-294.691	-57.423	0.077	-0.034
-293.676	252.801	-0.099	0.170
-292.662	-142.646	-0.190	0.019
-291.647	800.000	-0.059	-0.167
-290.632	-43.113	0.107	-0.054
-289.618	353.485	-0.059	0.118
-288.603	-12.223	0.270	0.178
-287.589	-30.520	0.179	-0.102
-286.574	482.407	0.183	0.419
-285.559	31.719	0.136	-0.118
-284.545	330.947	0.066	-0.127
-283.530	14.851	0.261	0.205
-282.516	-60.468	0.271	0.116
-281.501	-87.800	-0.267	-0.081
-280.486	139.570	-0.197	-0.261
-279.472	35.834	0.125	-0.110
-278.457	-58.487	0.189	-0.083
-277.443	800.000	0.076	-0.293
-276.428	33.102	-0.172	0.150
-275.413	387.265	0.190	0.395
-274.399	-12.763	0.348	0.228
-273.384	-172.945	-0.118	-0.004
-272.370	218.943	-0.164	0.263
-271.355	334.790	0.083	-0.161
-270.340	2.081	0.183	-0.133
-269.326	800.000	0.029	-0.094
-268.311	-200.000	-0.041	0.235
-267.297	469.888	-0.009	-0.019
-266.282	-200.000	-0.004	-0.033
-265.267	800.000	0.021	0.086
-264.253	-69.275	0.056	-0.021
-263.238	136.117	-0.129	-0.169
-262.224	47.799	0.313	0.293
-261.209	-200.000	0.023	0.346
-260.195	-31.771	-0.097	-0.055
-259.180	-34.898	-0.075	0.041
-258.165	-143.995	0.046	-0.004
-257.151	-136.147	0.133	0.016
-256.136	448.829	-0.060	-0.132
-255.122	163.570	0.087	0.123
-254.107	118.471	-0.120	0.148
-253.092	-200.000	0.008	-0.271
-252.078	176.556	-0.277	-0.405
-251.063	-28.563	-0.264	-0.152
-250.049	-176.438	-0.215	0.006
-249.034	55.729	-0.096	-0.094
-248.019	19.273	-0.113	-0.091
-247.005	-200.000	-0.066	-0.290
-245.990	-200.000	-0.090	-0.399
-244.976	294.727	0.134	0.246
-243.961	51.363	0.200	0.191
-242.946	347.399	0.118	0.232
-241.932	-200.000	-0.043	-0.386
-240.917	199.919	0.068	0.105
-239.903	-77.183	-0.295	-0.103
-238.888	-200.000	-0.044	0.232
-237.873	800.000	0.081	0.244
-236.859	-110.723	-0.047	0.010
-235.844	721.924	-0.134	0.358
-234.830	40.077	-0.050	0.045
-233.815	259.645	0.105	-0.181
-232.800	643.261	-0.015	0.039
-231.786	265.559	0.144	0.251
-230.771	-54.849	0.381	-0.172
-229.757	522.473	0.048	-0.113
-228.742	-99.662	0.262	0.066
-227.727	-78.184	0.034	0.012
-226.713	90.371	0.254	0.285
-225.698	120.295	0.142	0.177
-224.684	4.406	0.168	-0.124
-223.669	-173.134	-0.100	0.003
-222.655	-200.000	-0.018	-0.177
-221.640	-126.339	0.371	-0.055
-220.625	800.000	0.060	0.226
-219.611	-8.083	0.126	-0.085
-218.596	327.820	0.076	-0.146
-217.582	-26.595	0.316	-0.186
-216.567	174.913	0.185	-0.269
-215.552	294.170	-0.062	-0.114
-214.538	800.000	-0.098	-0.388
-213.523	-86.401	0.251	-0.077
-212.509	-200.000	-0.014	-0.185
-211.494	-200.000	0.000	-0.100
-210.479	800.000	-0.012	0.036
-209.465	-200.000	-0.028	0.194
-208.450	-94.842	0.161	-0.044
-207.436	-41.409	-0.174	0.090
-206.421	-119.734	-0.260	0.045
-205.406	-200.000	-0.005	-0.225
-204.392	-164.389	-0.158	-0.007
-203.377	50.870	-0.165	-0.157
-202.363	-34.627	0.334	-0.183
-201.348	-200.000	0.023	-0.220
-200.333	147.914	-0.098	0.132
-199.319	-4.613	0.194	0.134
-198.304	67.582	-0.092	-0.094
-197.290	-56.303	0.142	0.063
-196.275	800.000	-0.065	0.198
-195.260	15.409	0.234	-0.184
-194.246	800.000	0.062	-0.228
-193.231	-53.682	-0.253	-0.116
-192.217	-67.030	-0.103	-0.041
-191.202	800.000	0.045	0.139
-190.187	-123.844	0.048	-0.008
-189.173	49.191	0.131	-0.123
-188.158	-174.833	0.273	-0.008
-187.144	-72.636	0.390	0.144
-186.129	800.000	0.070	0.281
-185.114	-56.720	0.130	-0.057
-184.100	-64.220	-0.263	0.107
-183.085	64.825	-0.035	-0.036
-182.071	761.022	-0.052	-0.141
-181.056	-143.986	0.304	0.029
-180.042	-40.995	0.107	0.055
-179.027	58.226	0.271	0.265
-178.012	-3.487	0.048	0.033
-176.998	-173.400	-0.307	0.009
-175.983	-97.609	-0.379	0.098
-174.969	137.163	0.029	-0.037
-173.954	-138.486	-0.380	-0.042
-172.939	-200.000	0.033	-0.389
-171.925	-67.666	-0.325	-0.128
-170.910	563.714	0.076	-0.185
-169.896	-88.614	-0.137	-0.041
-168.881	-64.409	-0.250	-0.102
-167.866	132.285	-0.111	-0.143
-166.852	-200.000	-0.011	0.114
-165.837	394.488	0.112	-0.234
-164.823	-15.482	0.182	-0.116
-163.808	-31.550	-0.167	0.094
-162.793	-60.254	-0.225	0.096
-161.779	93.675	0.095	0.107
-160.764	-200.000	0.016	0.341
-159.750	-78.879	-0.415	0.141
-158.735	-40.391	-0.238	0.124
-157.720	53.473	0.326	-0.313
-156.706	-200.000	-0.008	0.071
-155.691	-200.000	-0.025	0.167
-154.677	-34.046	-0.149	0.082
-153.662	92.550	0.106	-0.120
-152.647	-50.324	0.205	0.097
-151.633	8.772	-0.048	-0.036
-150.618	800.000	0.022	-0.089
-149.604	-114.844	-0.258	-0.049
-148.589	-95.437	-0.132	-0.035
-147.574	-200.000	-0.053	-0.330
-146.560	-19.432	-0.143	-0.088
-145.545	141.125	0.046	-0.061
-144.531	-108.967	0.155	0.033
-143.516	138.962	0.201	0.263
-142.502	1.919	0.125	-0.090
-141.487	-200.000	0.069	-0.313
-140.472	-200.000	-0.061	-0.276
-139.458	-200.000	-0.014	0.186
-138.443	800.000	-0.054	-0.188
-137.429	-72.623	0.193	-0.071
-136.414	32.869	-0.487	-0.422
-135.399	9.458	0.135	0.102
-134.385	800.000	0.078	0.226
-133.370	-42.144	0.203	0.104
-132.356	-170.938	-0.415	-0.014
-131.341	-62.476	-0.189	-0.079
-130.326	-200.000	0.020	0.188
-129.312	-200.000	-0.019	0.125
-128.297	-200.000	-0.014	-0.102
-127.283	-54.671	0.325	-0.147
-126.268	-200.000	0.019	-0.094
-125.253	511.321	0.153	-0.356
-124.239	-163.663	0.320	-0.015
-123.224	344.173	0.122	0.239
-122.210	-101.732	0.240	0.058
