DTS Sentinel unit serial number:	SN413079Multiplexer serial number:	ORYXHardware model number:	OX4-SRSoftware version number:	ORYX F/W v4.00 Oryx Data Collector v3.7.2.0data status	okinstallation	princeton_trtdifferential loss correction	single-endedforward channel	channel 3reverse channel	N/Adate	2019/09/14time	21:08:35forward acquisition time	60.00reverse acquisition time	0.00gamma	496.2192k internal	0.2317k external	0.2317temperature offset calibration	0.9999default loss term (dB/km)	0.3790temperature slope calibration	1.0000multiplexer offset coefficient	1.0000multiplexer slope coefficient	1.0000fibre end	0.00T internal ref (°C)	33.06T ext. ref 1 (°C)	4.74T ext. ref 2 (°C)	27.79length (m)	temperature (°C)	Stokes	anti-Stokes-747.200	-177.750	0.276	-0.007
-746.185	-147.754	-0.319	0.027
-745.171	-200.000	-0.002	-0.381
-744.156	800.000	0.118	0.479
-743.142	66.383	-0.101	0.104
-742.127	800.000	-0.035	0.107
-741.112	536.218	-0.090	-0.216
-740.098	5.992	-0.225	0.169
-739.083	-35.526	0.082	0.045
-738.069	-200.000	-0.011	0.145
-737.054	594.493	0.036	-0.091
-736.039	-51.659	-0.219	0.103
-735.025	-200.000	-0.010	0.373
-734.010	407.301	-0.019	0.042
-732.996	800.000	-0.080	-0.355
-731.981	-133.513	-0.128	0.016
-730.966	-126.061	-0.190	-0.029
-729.952	694.016	-0.148	-0.394
-728.937	34.747	-0.271	-0.240
-727.923	-92.149	0.155	0.044
-726.908	448.886	-0.044	0.097
-725.894	-200.000	-0.015	-0.074
-724.879	-31.379	-0.420	-0.239
-723.864	-96.575	-0.209	-0.056
-722.850	-200.000	0.011	-0.064
-721.835	152.675	-0.127	0.176
-720.821	-154.059	0.416	-0.029
-719.806	-142.325	0.081	-0.008
-718.791	800.000	-0.011	-0.047
-717.777	-200.000	-0.081	-0.467
-716.762	102.916	0.279	0.331
-715.748	-74.749	-0.395	-0.144
-714.733	220.822	-0.216	-0.351
-713.718	-43.322	0.138	-0.071
-712.704	-118.210	-0.277	0.050
-711.689	-65.272	0.311	-0.127
-710.675	-10.365	-0.097	-0.065
-709.660	130.205	-0.158	0.205
-708.645	525.345	-0.081	-0.194
-707.631	800.000	0.089	-0.329
-706.616	85.752	0.121	-0.135
-705.602	-155.995	-0.285	0.018
-704.587	251.417	-0.073	0.125
-703.572	136.186	-0.142	0.188
-702.558	-103.254	0.319	0.076
-701.543	-66.061	0.394	-0.159
-700.529	320.714	0.031	-0.060
-699.514	-42.815	0.161	0.083
-698.499	62.239	-0.129	-0.131
-697.485	173.970	-0.145	-0.212
-696.470	61.020	0.165	0.165
-695.456	255.003	-0.159	0.275
-694.441	-200.000	0.023	0.319
-693.426	-52.552	-0.309	-0.144
-692.412	72.120	-0.147	-0.155
-691.397	-63.561	0.210	-0.087
-690.383	-139.681	-0.108	-0.012
-689.368	-200.000	-0.005	0.084
-688.354	-146.938	-0.269	-0.023
-687.339	-134.743	0.080	0.010
-686.324	140.998	-0.034	-0.045
-685.310	-52.017	-0.130	-0.061
-684.295	110.040	0.134	-0.163
-683.281	-122.593	-0.246	0.040
-682.266	-200.000	0.073	-0.420
-681.251	36.610	-0.158	-0.141
-680.237	29.764	-0.099	-0.085
-679.222	265.849	-0.132	-0.233
-678.208	-113.527	-0.230	0.045
-677.193	390.233	-0.095	-0.199
-676.178	61.974	0.100	-0.101
-675.164	45.489	-0.157	0.147
-674.149	-200.000	-0.019	-0.427
-673.135	123.192	-0.238	-0.301
-672.120	-200.000	-0.022	-0.198
-671.105	-80.081	-0.134	-0.045
-670.091	56.091	-0.204	0.200
-669.076	-45.902	-0.112	-0.056
-668.062	-92.400	0.284	0.081
-667.047	-67.911	-0.279	-0.110
-666.032	-200.000	-0.046	-0.495
-665.018	15.477	0.085	-0.068
-664.003	-175.089	-0.024	-0.001
-662.989	108.966	-0.149	0.180
-661.974	74.899	0.279	0.297
-660.959	-24.025	-0.090	0.054
-659.945	-109.637	-0.473	-0.100
-658.930	384.476	-0.044	-0.092
-657.916	244.649	-0.091	0.154
-656.901	-156.147	-0.257	0.016
-655.886	68.722	-0.240	-0.248
-654.872	-42.685	-0.262	-0.135
-653.857	-50.301	0.306	0.146
-652.843	329.369	0.091	0.176
-651.828	521.231	0.100	-0.237
-650.814	800.000	0.041	0.174
-649.799	-69.393	-0.355	-0.137
-648.784	53.628	-0.148	0.143
-647.770	-41.013	-0.045	-0.024
-646.755	42.295	-0.334	0.307
-645.741	132.209	0.138	0.179
-644.726	197.656	0.027	0.042
-643.711	-200.000	0.039	-0.338
-642.697	53.274	-0.076	-0.074
-641.682	27.707	-0.094	0.080
-640.668	-32.257	-0.264	-0.149
-639.653	311.271	0.100	-0.188
-638.638	-45.758	-0.112	0.056
-637.624	800.000	0.126	0.372
-636.609	135.160	-0.173	-0.227
-635.595	-113.079	-0.138	-0.027
-634.580	191.160	0.098	0.148
-633.565	296.545	-0.036	-0.066
-632.551	-149.567	-0.185	0.015
-631.536	-8.137	0.370	-0.251
-630.522	220.815	-0.031	0.049
-629.507	800.000	0.064	-0.200
-628.492	148.197	-0.119	0.161
-627.478	-178.487	-0.486	-0.011
-626.463	128.194	-0.202	0.259
-625.449	3.155	-0.298	0.218
-624.434	-74.736	-0.148	-0.054
-623.419	265.238	-0.100	0.175
-622.405	-33.127	0.063	0.035
-621.390	-144.120	0.240	-0.023
-620.376	-93.961	-0.259	-0.072
-619.361	21.747	-0.066	0.054
-618.346	6.157	0.277	-0.207
-617.332	800.000	-0.043	-0.187
-616.317	-137.251	0.288	0.033
-615.303	-50.931	-0.377	-0.178
-614.288	-105.909	0.069	0.016
-613.273	155.321	-0.224	-0.311
-612.259	800.000	-0.045	-0.151
-611.244	-200.000	-0.042	0.321
-610.230	-15.822	0.130	-0.083
-609.215	-200.000	-0.027	0.118
-608.201	-76.914	0.055	0.019
-607.186	-107.954	0.313	-0.069
-606.171	140.549	0.112	0.149
-605.157	-182.062	-0.004	0.000
-604.142	530.929	0.119	0.282
-603.128	583.776	-0.092	0.227
-602.113	-45.514	0.095	-0.047
-601.098	800.000	-0.068	-0.230
-600.084	555.802	0.028	-0.068
-599.069	-200.000	-0.043	-0.242
-598.055	156.801	-0.129	0.180
-597.040	-72.745	-0.138	0.051
-596.025	-157.346	-0.157	0.010
-595.011	-39.388	-0.241	-0.127
-593.996	373.476	-0.085	0.174
-592.982	-148.194	-0.119	0.010
-591.967	201.296	0.183	-0.283
-590.952	-62.719	-0.256	-0.107
-589.938	11.198	0.101	-0.078
-588.923	-13.166	-0.187	-0.123
-587.909	-84.725	0.364	0.115
-586.894	42.719	0.093	0.086
-585.879	55.405	0.092	-0.089
-584.865	-47.216	0.108	0.053
-583.850	800.000	-0.096	0.397
-582.836	187.557	0.134	-0.200
-581.821	-26.631	0.176	0.104
-580.806	89.509	0.094	-0.106
-579.792	-147.971	-0.357	0.030
-578.777	-76.730	-0.245	0.086
-577.763	-14.612	0.163	-0.105
-576.748	116.731	-0.028	-0.035
-575.733	-17.943	-0.050	0.031
-574.719	-63.680	-0.328	-0.135
-573.704	800.000	0.056	0.242
-572.690	-133.213	0.124	0.016
-571.675	-200.000	-0.018	0.092
-570.661	666.633	-0.137	0.357
-569.646	-200.000	0.089	0.430
-568.631	759.893	0.171	-0.467
-567.617	607.290	0.044	-0.111
-566.602	-25.983	0.189	0.112
-565.588	-41.302	-0.356	-0.184
-564.573	-50.142	-0.372	-0.177
-563.558	19.498	-0.094	-0.076
-562.544	419.598	0.151	0.326
-561.529	187.269	-0.061	0.092
-560.515	-200.000	-0.013	-0.474
-559.500	-200.000	-0.005	-0.189
-558.485	-200.000	0.034	0.185
-557.471	-51.425	0.193	0.091
-556.456	-200.000	-0.006	-0.079
-555.442	358.622	-0.041	0.083
-554.427	-95.158	-0.239	-0.065
-553.412	-62.439	-0.153	0.064
-552.398	-196.499	0.054	-0.000
-551.383	-200.000	0.048	-0.312
-550.369	-44.546	0.121	-0.061
-549.354	86.483	-0.306	-0.339
-548.339	566.610	0.073	-0.177
-547.325	-200.000	0.033	0.319
-546.310	-151.698	-0.151	-0.011
-545.296	129.575	-0.350	-0.449
-544.281	-63.233	-0.056	-0.023
-543.266	-141.886	-0.038	-0.004
-542.252	-138.844	0.142	-0.015
-541.237	151.389	-0.008	0.011
-540.223	68.674	0.311	0.321
-539.208	800.000	-0.067	-0.281
-538.193	-28.244	0.397	-0.231
-537.179	800.000	0.026	-0.102
-536.164	800.000	0.023	-0.093
-535.150	-119.028	-0.243	0.043
-534.135	-114.394	0.453	-0.087
-533.121	-200.000	0.030	-0.139
-532.106	216.465	0.138	-0.220
-531.091	-132.401	0.213	-0.028
-530.077	382.990	-0.038	-0.078
-529.062	-103.564	0.021	-0.005
-528.048	-200.000	0.002	0.122
-527.033	800.000	-0.075	-0.279
-526.018	-155.347	-0.135	-0.009
-525.004	11.091	0.282	-0.216
-523.989	-180.541	0.168	0.003
-522.975	58.263	0.025	0.025
-521.960	-10.834	-0.200	-0.133
-520.945	-200.000	-0.033	-0.352
-519.931	-15.515	-0.200	0.128
-518.916	-182.269	0.291	-0.005
-517.902	605.558	-0.140	0.351
-516.887	-45.773	0.228	-0.113
-515.872	112.292	-0.021	-0.026
-514.858	-51.320	-0.038	0.018
-513.843	4.651	0.026	0.019
-512.829	-200.000	-0.011	0.125
-511.814	98.201	0.047	0.055
-510.799	-76.308	0.193	-0.068
-509.785	-200.000	-0.063	-0.350
-508.770	800.000	-0.035	-0.113
-507.756	50.405	0.217	-0.206
-506.741	-169.521	-0.396	-0.014
-505.726	-200.000	0.011	-0.104
-504.712	10.035	-0.108	0.082
-503.697	-115.882	0.339	-0.064
-502.683	90.011	0.271	-0.304
-501.668	-78.874	-0.239	-0.082
-500.653	800.000	-0.070	-0.227
-499.639	-113.355	-0.292	0.057
-498.624	250.948	0.118	-0.202
-497.610	93.501	-0.026	-0.029
-496.595	141.208	-0.148	-0.197
-495.581	-200.000	-0.011	0.337
-494.566	108.044	-0.168	-0.201
-493.551	800.000	-0.022	0.077
-492.537	43.005	-0.159	0.145
-491.522	330.362	0.046	-0.089
-490.508	296.529	-0.148	-0.272
-489.493	-200.000	-0.000	0.178
-488.478	-200.000	-0.031	-0.268
-487.464	800.000	-0.010	0.032
-486.449	-58.066	0.259	-0.113
-485.435	-67.494	0.140	0.055
-484.420	-142.212	-0.286	0.028
-483.405	-50.501	-0.243	-0.115
-482.391	69.696	-0.109	0.113
-481.376	5.526	-0.388	-0.287
-480.362	-200.000	-0.020	0.133
-479.347	65.274	-0.139	0.141
-478.332	-200.000	-0.051	-0.270
-477.318	-126.345	0.328	-0.049
-476.303	-162.681	0.306	0.015
-475.289	-189.643	0.019	-0.000
-474.274	800.000	0.028	0.116
-473.259	61.817	-0.174	0.173
-472.245	-4.176	-0.087	0.060
-471.230	-120.580	0.040	0.007
-470.216	15.374	-0.392	0.308
-469.201	-104.244	0.261	0.061
-468.186	252.378	0.131	-0.223
-467.172	800.000	-0.029	0.110
-466.157	-200.000	-0.004	-0.183
-465.143	-40.783	-0.056	0.029
-464.128	-49.947	-0.302	0.144
-463.113	24.827	0.134	-0.111
-462.099	-161.922	0.185	0.009
-461.084	-200.000	0.012	-0.198
-460.070	-154.836	-0.036	0.002
-459.055	-90.743	0.241	-0.070
-458.040	323.496	0.153	-0.293
-457.026	159.830	-0.133	0.185
-456.011	-200.000	0.096	0.442
-454.997	-122.137	-0.221	-0.036
-453.982	800.000	-0.064	0.232
-452.968	-200.000	0.058	0.364
-451.953	-200.000	0.016	0.134
-450.938	57.058	0.158	0.154
-449.924	92.977	0.105	0.118
-448.909	4.811	0.143	0.106
-447.895	372.668	-0.186	-0.379
-446.880	-22.985	0.084	0.051
-445.865	152.808	0.314	-0.429
-444.851	800.000	0.131	-0.426
-443.836	152.900	0.267	-0.366
-442.822	103.889	-0.186	0.219
-441.807	-58.775	0.144	-0.062
-440.792	201.073	-0.078	-0.121
-439.778	-200.000	0.037	-0.337
-438.763	-17.866	0.155	0.097
-437.749	-200.000	0.070	-0.369
-436.734	-72.847	-0.385	0.142
-435.719	-200.000	-0.026	0.318
-434.705	-56.911	-0.083	-0.037
-433.690	800.000	-0.037	0.137
-432.676	800.000	-0.062	-0.196
-431.661	94.253	-0.096	-0.109
-430.646	-141.389	0.165	-0.017
-429.632	68.824	-0.360	0.369
-428.617	-134.234	-0.296	0.036
-427.603	-27.556	-0.245	-0.142
-426.588	-83.302	-0.154	0.049
-425.573	-24.691	-0.188	0.112
-424.559	23.047	0.096	0.079
-423.544	-71.837	-0.210	-0.078
-422.530	-200.000	-0.016	-0.122
-421.515	-65.709	-0.067	0.027
-420.500	800.000	0.044	0.141
-419.486	800.000	-0.094	-0.267
-418.471	70.357	-0.155	0.160
-417.457	-41.184	-0.082	0.042
-416.442	36.038	0.143	-0.126
-415.428	-166.888	-0.162	-0.007
-414.413	-195.676	0.072	0.001
-413.398	-108.993	0.429	-0.091
-412.384	68.680	-0.171	-0.176
-411.369	733.478	-0.140	0.375
-410.355	-82.503	0.141	-0.046
-409.340	-151.815	0.442	0.032
-408.325	-113.817	0.244	-0.047
-407.311	800.000	0.078	0.321
-406.296	372.650	-0.105	0.213
-405.282	-200.000	-0.013	0.146
-404.267	-62.001	-0.184	0.077
-403.252	-99.222	-0.162	-0.041
-402.238	800.000	-0.064	-0.207
-401.223	-200.000	-0.001	0.225
-400.209	-88.972	0.336	-0.099
-399.194	-200.000	-0.024	-0.121
-398.179	78.964	-0.108	-0.115
-397.165	-35.448	-0.114	-0.062
-396.150	800.000	-0.130	0.384
-395.136	267.404	0.166	0.290
-394.121	40.969	0.093	-0.084
-393.106	-76.338	0.108	0.038
-392.092	800.000	0.110	-0.309
-391.077	182.405	0.030	0.045
-390.063	-129.802	0.116	0.016
-389.048	-12.526	-0.200	-0.130
-388.033	-128.295	-0.101	-0.014
-387.019	-23.591	-0.266	0.159
-386.004	124.081	0.115	0.144
-384.990	-122.654	-0.299	-0.048
-383.975	39.983	-0.111	-0.100
-382.960	59.607	-0.143	0.141
-381.946	5.836	-0.143	0.106
-380.931	-200.000	-0.017	0.383
-379.917	101.344	-0.112	0.130
-378.902	-115.913	-0.060	0.011
-377.888	88.044	0.143	0.159
-376.873	-103.082	0.166	0.039
-375.858	-122.725	-0.268	-0.043
-374.844	-61.839	-0.294	0.123
-373.829	-200.000	0.012	0.055
-372.815	-200.000	0.017	-0.084
-371.800	14.353	0.316	0.246
-370.785	671.351	0.061	0.159
-369.771	-188.030	-0.064	0.001
-368.756	126.322	0.099	-0.125
-367.742	800.000	-0.065	-0.202
-366.727	-101.524	-0.329	-0.080
-365.712	-21.012	0.297	0.181
-364.698	-169.652	-0.323	-0.012
-363.683	119.460	0.159	0.197
-362.669	-43.637	0.234	0.118
-361.654	-73.852	-0.152	-0.055
-360.639	-85.703	0.198	0.061
-359.625	800.000	0.013	-0.042
-358.610	800.000	-0.048	-0.178
-357.596	-157.306	0.097	-0.006
-356.581	-200.000	0.001	-0.145
-355.566	-200.000	0.016	-0.196
-354.552	-16.552	-0.205	0.129
-353.537	-18.049	0.218	0.136
-352.523	-64.919	-0.127	-0.051
-351.508	46.821	0.286	0.265
-350.493	-163.929	-0.192	0.009
-349.479	327.993	0.085	0.163
-348.464	-99.664	0.311	-0.078
-347.450	-8.945	-0.068	-0.045
-346.435	605.035	0.069	0.171
-345.420	-22.070	-0.177	-0.107
-344.406	463.150	0.176	-0.392
-343.391	-45.006	-0.155	-0.077
-342.377	-55.912	-0.388	0.173
-341.362	89.134	0.131	-0.146
-340.348	-17.974	0.030	0.018
-339.333	800.000	0.092	0.300
-338.318	800.000	0.083	-0.232
-337.304	-29.750	-0.163	-0.093
-336.289	-200.000	0.027	-0.121
-335.275	-57.637	-0.143	-0.062
-334.260	-63.531	-0.123	-0.050
-333.245	89.304	0.128	-0.142
-332.231	-14.402	-0.218	0.140
-331.216	-92.463	-0.229	-0.064
-330.202	56.693	-0.190	0.184
-329.187	-104.305	-0.481	0.111
-328.172	-61.164	-0.118	0.050
-327.158	-99.827	-0.140	0.035
-326.143	-200.000	0.044	-0.217
-325.129	200.949	-0.105	-0.162
-324.114	351.892	0.045	-0.089
-323.099	800.000	0.088	0.295
-322.085	169.192	-0.039	-0.056
-321.070	-136.741	0.237	-0.027
-320.056	800.000	0.124	0.342
-319.041	800.000	0.035	0.150
-318.026	-172.517	0.317	0.010
-317.012	-200.000	-0.021	0.111
-315.997	13.729	-0.052	0.040
-314.983	-47.414	0.340	0.164
-313.968	48.088	0.265	0.247
-312.953	74.159	0.178	0.187
-311.939	164.118	0.160	-0.224
-310.924	-166.874	-0.150	-0.006
-309.910	-96.994	0.282	0.074
-308.895	8.725	-0.067	0.051
-307.880	-54.201	-0.072	-0.033
-306.866	-81.031	-0.201	0.066
-305.851	218.918	0.082	-0.130
-304.837	-51.770	0.236	0.110
-303.822	-200.000	0.025	-0.125
-302.807	-25.595	-0.101	-0.059
-301.793	-68.448	0.078	-0.030
-300.778	-161.957	0.111	0.006
-299.764	68.407	-0.102	-0.104
-298.749	-21.404	0.070	-0.042
-297.735	-89.053	-0.184	-0.054
-296.720	-35.257	0.202	-0.109
-295.705	-22.201	0.370	0.223
-294.691	-158.142	-0.477	0.028
-293.676	-114.404	0.049	-0.009
-292.662	271.410	0.193	0.339
-291.647	-200.000	0.026	-0.124
-290.632	31.859	0.071	0.061
-289.618	-90.694	0.242	-0.070
-288.603	-200.000	0.007	0.125
-287.589	-29.878	-0.198	0.112
-286.574	-40.540	0.082	0.043
-285.559	-70.376	-0.115	0.043
-284.545	639.308	0.119	0.302
-283.530	65.327	0.185	0.187
-282.516	105.235	-0.247	0.290
-281.501	-10.180	0.315	0.208
-280.486	-200.000	-0.032	0.178
-279.472	-200.000	0.035	0.184
-278.457	-161.908	0.093	0.005
-277.443	800.000	-0.059	0.204
-276.428	-200.000	-0.031	-0.142
-275.413	-200.000	-0.022	0.204
-274.399	51.797	0.361	0.342
-273.384	19.757	-0.018	0.014
-272.370	128.409	-0.427	-0.541
-271.355	-110.168	-0.123	-0.025
-270.340	150.276	-0.312	-0.421
-269.326	-200.000	-0.007	-0.291
-268.311	-159.956	-0.465	0.025
-267.297	541.332	0.051	-0.120
-266.282	450.251	0.131	-0.287
-265.267	-200.000	0.015	-0.095
-264.253	800.000	0.065	0.233
-263.238	15.415	0.249	0.194
-262.224	63.632	0.286	-0.285
-261.209	363.426	0.144	-0.287
-260.195	-118.010	0.235	0.042
-259.180	-93.597	0.189	0.052
-258.165	17.577	0.186	-0.147
-257.151	-50.078	-0.062	0.029
-256.136	793.386	0.066	-0.180
-255.122	-33.485	-0.125	-0.068
-254.107	36.125	0.131	0.115
-253.092	-200.000	-0.022	-0.187
-252.078	-130.127	0.076	0.010
-251.063	-132.996	0.253	0.032
-250.049	-76.445	0.198	0.069
-249.034	-16.916	0.131	0.082
-248.019	417.368	-0.093	0.197
-247.005	800.000	0.050	-0.153
-245.990	35.032	0.097	-0.085
-244.976	83.276	-0.123	0.133
-243.961	-200.000	0.007	0.219
-242.946	-200.000	-0.008	0.416
-241.932	-120.267	0.370	-0.063
-240.917	800.000	-0.009	-0.035
-239.903	-91.791	-0.122	-0.034
-238.888	-200.000	0.121	-0.553
-237.873	31.644	0.194	-0.166
-236.859	-71.105	0.361	-0.135
-235.844	-75.749	0.125	0.044
-234.830	-7.720	-0.084	0.056
-233.815	-15.364	0.174	0.111
-232.800	800.000	0.009	-0.034
-231.786	-85.120	-0.116	0.036
-230.771	92.206	-0.170	0.190
-229.757	48.484	0.224	-0.209
-228.742	-136.281	0.089	-0.010
-227.727	-200.000	0.001	0.027
-226.713	-105.702	-0.045	-0.010
-225.698	-25.618	0.105	-0.061
-224.684	-64.794	0.202	-0.081
-223.669	56.576	0.024	0.023
-222.655	215.536	-0.144	0.227
-221.640	11.656	-0.123	-0.093
-220.625	-83.288	-0.096	-0.031
-219.611	424.760	-0.005	-0.011
-218.596	428.825	0.116	0.249
-217.582	-79.863	0.096	-0.032
-216.567	-200.000	0.009	0.091
-215.552	-54.401	-0.147	0.066
-214.538	800.000	-0.011	0.044
-213.523	138.245	-0.105	-0.137
-212.509	-56.252	0.145	0.064
-211.494	800.000	-0.015	0.058
-210.479	-186.030	0.216	0.003
-209.465	630.248	0.041	-0.103
-208.450	-31.703	-0.141	0.079
-207.436	-66.668	-0.226	-0.089
-206.421	-30.303	0.276	-0.155
-205.406	-106.043	-0.118	-0.026
-204.392	-10.514	0.384	-0.252
-203.377	66.139	-0.275	0.276
-202.363	-186.258	-0.251	0.004
-201.348	228.965	0.015	0.024
-200.333	-200.000	-0.005	0.182
-199.319	83.959	-0.189	-0.204
-198.304	-120.525	-0.125	0.021
-197.290	-128.805	-0.369	0.052
-196.275	493.617	-0.072	0.164
-195.260	-200.000	-0.036	-0.262
-194.246	11.990	-0.223	-0.170
-193.231	209.829	-0.023	-0.036
-192.217	565.375	0.081	0.194
-191.202	111.318	0.151	-0.181
-190.187	-106.704	0.370	-0.082
-189.173	145.962	0.114	0.151
-188.158	-5.161	0.171	-0.117
-187.144	477.633	0.081	0.181
-186.129	-108.075	0.201	0.043
-185.114	305.378	-0.089	0.164
-184.100	-186.440	0.358	0.005
-183.085	-200.000	0.026	-0.242
-182.071	-62.022	-0.444	-0.184
-181.056	-59.276	0.446	-0.190
-180.042	-100.280	-0.200	0.049
-179.027	-80.005	0.085	-0.028
-178.012	24.953	0.152	0.125
-176.998	12.291	0.046	0.035
-175.983	-109.243	0.395	-0.083
-174.969	12.580	0.034	-0.026
-173.954	-150.987	-0.188	-0.014
-172.939	-110.319	0.309	0.064
-171.925	-64.180	-0.179	0.072
-170.910	-35.647	-0.098	0.053
-169.896	-51.915	-0.106	-0.049
-168.881	800.000	-0.015	0.052
-167.866	-200.000	-0.027	-0.322
-166.852	-39.770	-0.294	-0.152
-165.837	-200.000	0.071	0.448
-164.823	-200.000	0.004	0.040
-163.808	85.134	-0.236	0.256
-162.793	-91.644	-0.195	-0.055
-161.779	-87.213	0.133	-0.040
-160.764	-98.732	0.264	0.067
-159.750	-112.021	0.205	-0.041
-158.735	-115.175	0.326	0.061
-157.720	394.235	0.129	0.265
-156.706	-200.000	-0.074	0.330
-155.691	-143.114	-0.229	0.022
-154.677	152.040	-0.234	0.315
-153.662	800.000	-0.055	0.204
-152.647	-157.434	0.393	-0.023
-151.633	14.361	0.243	0.188
-150.618	59.415	-0.221	-0.216
-149.604	15.408	-0.199	-0.154
-148.589	-98.582	0.213	-0.054
-147.574	800.000	-0.104	-0.303
-146.560	-13.714	-0.330	0.211
-145.545	132.293	0.033	-0.043
-144.531	88.296	-0.158	0.174
-143.516	156.145	-0.069	0.093
-142.502	-200.000	0.023	0.252
-141.487	800.000	0.071	-0.237
-140.472	-200.000	0.038	0.179
-139.458	-139.743	-0.235	-0.025
-138.443	-80.989	-0.295	-0.097
-137.429	103.049	-0.148	-0.172
-136.414	-200.000	0.019	0.153
-135.399	-200.000	-0.047	-0.332
-134.385	-22.265	-0.015	0.009
-133.370	-61.072	0.138	-0.058
-132.356	800.000	-0.130	-0.395
-131.341	-98.766	-0.445	0.112
-130.326	-57.354	0.220	-0.095
-129.312	140.539	-0.139	-0.181
-128.297	800.000	-0.066	0.271
-127.283	169.024	-0.039	0.055
-126.268	301.653	-0.115	0.210
-125.253	-65.030	0.011	-0.004
-124.239	739.791	0.069	0.183
-123.224	181.209	-0.073	0.106
-122.210	255.644	0.134	-0.226
