DTS Sentinel unit serial number:	SN413079Multiplexer serial number:	ORYXHardware model number:	OX4-SRSoftware version number:	ORYX F/W v4.00 Oryx Data Collector v3.7.2.0data status	okinstallation	princeton_trtdifferential loss correction	single-endedforward channel	channel 3reverse channel	N/Adate	2019/09/18time	14:08:34forward acquisition time	60.00reverse acquisition time	0.00gamma	496.2192k internal	0.2311k external	0.2311temperature offset calibration	0.9972default loss term (dB/km)	0.3790temperature slope calibration	1.0000multiplexer offset coefficient	1.0000multiplexer slope coefficient	1.0000fibre end	0.00T internal ref (°C)	34.42T ext. ref 1 (°C)	0.67T ext. ref 2 (°C)	28.77length (m)	temperature (°C)	Stokes	anti-Stokes-747.200	-200.000	-0.010	-0.079
-746.185	-64.493	-0.034	0.014
-745.171	234.170	0.088	0.147
-744.156	700.769	0.183	0.490
-743.142	-200.000	-0.031	0.190
-742.127	-0.672	-0.412	0.296
-741.112	-86.151	0.198	0.062
-740.098	-200.000	-0.042	0.241
-739.083	-125.012	0.230	-0.036
-738.069	-200.000	-0.045	0.565
-737.054	-42.086	-0.143	0.074
-736.039	-129.338	0.147	0.021
-735.025	728.671	0.065	0.177
-734.010	205.025	0.091	-0.143
-732.996	153.386	-0.069	0.096
-731.981	384.942	-0.128	0.267
-730.966	698.271	-0.070	-0.187
-729.952	-86.203	-0.176	0.055
-728.937	-200.000	-0.006	-0.107
-727.923	-81.913	-0.019	0.006
-726.908	-116.165	-0.270	0.051
-725.894	97.158	-0.292	-0.340
-724.879	-200.000	-0.041	-0.302
-723.864	332.604	-0.077	0.150
-722.850	249.800	0.102	0.176
-721.835	-200.000	-0.006	-0.323
-720.821	-200.000	-0.048	-0.308
-719.806	-127.339	-0.170	0.025
-718.791	800.000	0.050	-0.203
-717.777	-18.990	0.047	-0.029
-716.762	78.369	0.271	-0.293
-715.748	-95.473	-0.217	-0.059
-714.733	-200.000	0.018	0.105
-713.718	-200.000	-0.025	0.220
-712.704	-200.000	-0.040	0.209
-711.689	352.804	0.145	-0.291
-710.675	-17.468	0.356	-0.227
-709.660	-200.000	-0.044	-0.259
-708.645	800.000	-0.150	-0.451
-707.631	800.000	0.040	-0.122
-706.616	305.951	-0.072	-0.136
-705.602	-81.081	-0.160	0.054
-704.587	-23.544	0.036	-0.022
-703.572	25.049	0.288	-0.242
-702.558	800.000	-0.084	-0.318
-701.543	788.958	-0.100	0.279
-700.529	-200.000	-0.036	-0.207
-699.514	-158.960	-0.221	0.013
-698.499	222.407	0.083	-0.136
-697.485	-175.810	-0.053	0.001
-696.470	-200.000	-0.004	-0.243
-695.456	-40.561	0.146	0.077
-694.441	192.262	0.102	-0.156
-693.426	-200.000	0.034	-0.197
-692.412	22.544	-0.195	0.162
-691.397	-67.775	0.383	0.152
-690.383	-54.641	-0.083	0.038
-689.368	34.417	-0.148	0.131
-688.354	455.049	-0.101	0.226
-687.339	800.000	-0.170	-0.487
-686.324	-106.967	0.216	-0.048
-685.310	-48.842	0.191	-0.093
-684.295	-72.053	-0.180	0.068
-683.281	38.585	-0.086	0.077
-682.266	-89.886	0.249	-0.074
-681.251	-115.268	-0.297	-0.057
-680.237	-54.510	0.034	-0.016
-679.222	71.393	-0.330	-0.346
-678.208	0.538	-0.124	-0.089
-677.193	-200.000	0.005	-0.296
-676.178	5.535	0.164	-0.123
-675.164	-200.000	0.004	0.304
-674.149	175.135	0.172	0.252
-673.135	-200.000	-0.001	0.129
-672.120	-48.350	-0.057	-0.028
-671.105	308.472	0.109	-0.205
-670.091	136.869	-0.069	-0.091
-669.076	-156.692	-0.459	0.029
-668.062	-10.571	-0.199	-0.133
-667.047	-118.053	0.125	-0.023
-666.032	8.669	0.107	-0.082
-665.018	-44.688	-0.153	0.077
-664.003	-93.392	0.163	-0.046
-662.989	-200.000	-0.015	-0.144
-661.974	133.360	-0.140	-0.183
-660.959	368.887	0.048	-0.099
-659.945	181.201	0.034	-0.050
-658.930	-103.697	0.190	0.045
-657.916	93.690	-0.229	-0.262
-656.901	800.000	-0.043	0.133
-655.886	503.933	-0.095	0.221
-654.872	113.224	-0.296	-0.363
-653.857	83.902	0.123	-0.136
-652.843	800.000	-0.064	0.260
-651.828	7.799	0.176	-0.133
-650.814	74.951	-0.185	0.197
-649.799	-126.125	0.264	-0.040
-648.784	800.000	0.058	-0.223
-647.770	-44.701	0.052	0.026
-646.755	-40.369	0.053	-0.028
-645.741	259.257	0.136	0.237
-644.726	-15.811	0.081	-0.052
-643.711	50.009	-0.503	-0.480
-642.697	800.000	-0.043	-0.148
-641.682	28.104	0.185	-0.158
-640.668	800.000	-0.042	0.162
-639.653	-60.463	-0.408	-0.175
-638.638	-164.222	-0.259	-0.012
-637.624	139.782	0.018	-0.023
-636.609	304.999	0.087	0.163
-635.595	800.000	0.063	0.242
-634.580	-200.000	0.002	0.355
-633.565	-110.850	-0.208	0.043
-632.551	220.973	-0.087	-0.140
-631.536	352.768	0.106	-0.213
-630.522	469.949	0.068	-0.155
-629.507	456.245	-0.119	-0.267
-628.492	-7.007	-0.176	-0.121
-627.478	525.160	-0.037	0.089
-626.463	-104.917	0.002	0.001
-625.449	6.647	-0.066	0.050
-624.434	-12.448	-0.160	0.106
-623.419	167.100	-0.185	-0.266
-622.405	598.647	0.032	0.080
-621.390	-200.000	0.005	0.098
-620.376	-147.032	0.176	0.015
-619.361	-7.812	-0.192	0.131
-618.346	93.183	-0.133	-0.151
-617.332	800.000	0.012	-0.033
-616.317	-200.000	0.026	0.128
-615.303	106.534	-0.176	-0.211
-614.288	800.000	0.012	0.037
-613.273	229.925	0.030	-0.049
-612.259	123.657	-0.118	0.150
-611.244	800.000	0.008	0.023
-610.230	-57.218	0.258	0.115
-609.215	61.218	-0.097	-0.097
-608.201	-21.254	0.122	-0.076
-607.186	58.657	-0.211	-0.209
-606.171	-156.990	-0.306	-0.019
-605.157	40.534	0.147	-0.134
-604.142	-185.912	-0.360	-0.005
-603.128	41.534	-0.128	0.117
-602.113	-200.000	-0.009	0.200
-601.098	-154.261	-0.278	-0.019
-600.084	-140.564	-0.299	-0.031
-599.069	74.441	-0.107	-0.114
-598.055	-62.744	-0.082	0.034
-597.040	87.421	-0.161	0.180
-596.025	144.195	0.043	0.058
-595.011	-112.799	-0.022	0.005
-593.996	-200.000	-0.026	-0.142
-592.982	68.314	-0.183	0.189
-591.967	-63.621	-0.111	0.046
-590.952	800.000	0.050	-0.212
-589.938	-200.000	0.027	-0.140
-588.923	-169.902	-0.154	-0.006
-587.909	-33.390	0.287	-0.160
-586.894	29.970	-0.109	0.094
-585.879	-200.000	0.040	-0.369
-584.865	-104.655	-0.074	-0.017
-583.850	356.777	-0.051	-0.102
-582.836	-27.457	0.161	0.094
-581.821	-200.000	-0.010	0.081
-580.806	795.716	-0.132	-0.366
-579.792	-74.997	-0.141	-0.051
-578.777	-84.186	0.060	-0.019
-577.763	-200.000	0.003	0.048
-576.748	23.531	0.383	-0.318
-575.733	-200.000	-0.008	-0.037
-574.719	-150.526	-0.227	0.018
-573.704	248.468	-0.028	-0.047
-572.690	800.000	0.028	-0.090
-571.675	53.227	0.044	-0.043
-570.661	-152.761	0.148	0.011
-569.646	573.526	-0.105	-0.259
-568.631	168.060	0.128	0.184
-567.617	-69.487	0.237	-0.092
-566.602	-124.673	0.258	0.040
-565.588	800.000	-0.034	-0.146
-564.573	319.838	-0.114	0.218
-563.558	14.778	-0.154	-0.121
-562.544	-43.538	-0.031	-0.016
-561.529	800.000	0.120	0.375
-560.515	413.381	-0.119	0.255
-559.500	-0.628	-0.255	-0.182
-558.485	-200.000	0.017	0.105
-557.471	-200.000	0.000	-0.122
-556.456	-24.441	-0.240	-0.144
-555.442	62.121	0.114	-0.115
-554.427	800.000	0.126	-0.458
-553.412	196.542	-0.120	-0.185
-552.398	-61.763	0.077	-0.033
-551.383	-128.619	0.224	-0.032
-550.369	-110.084	0.135	-0.028
-549.354	-200.000	0.002	-0.147
-548.339	-1.282	-0.195	0.139
-547.325	99.031	0.250	0.290
-546.310	800.000	-0.076	-0.284
-545.296	800.000	0.023	-0.068
-544.281	800.000	0.058	0.193
-543.266	509.962	0.087	0.205
-542.252	-1.558	-0.270	0.191
-541.237	-32.148	0.318	0.179
-540.223	119.573	-0.165	0.206
-539.208	-81.686	0.200	0.066
-538.193	-54.336	-0.349	0.159
-537.179	-59.826	0.226	-0.098
-536.164	-26.962	0.194	-0.114
-535.150	28.409	0.100	-0.085
-534.135	-58.963	0.336	0.146
-533.121	-102.673	0.060	-0.014
-532.106	511.266	-0.029	0.067
-531.091	-78.339	-0.447	-0.154
-530.077	-90.605	-0.141	0.041
-529.062	185.889	-0.040	0.059
-528.048	674.262	-0.054	-0.140
-527.033	101.082	-0.083	0.098
-526.018	246.928	-0.147	-0.250
-525.004	111.702	0.019	0.024
-523.989	19.825	0.229	-0.185
-522.975	265.800	0.165	-0.290
-521.960	52.827	-0.004	-0.004
-520.945	61.213	-0.008	-0.008
-519.931	-61.567	-0.178	0.075
-518.916	98.070	0.011	-0.013
-517.902	95.133	0.162	0.185
-516.887	308.633	-0.065	0.122
-515.872	130.726	0.147	-0.190
-514.858	-200.000	-0.052	0.244
-513.843	-140.375	0.190	-0.020
-512.829	800.000	0.056	0.169
-511.814	248.523	0.134	-0.228
-510.799	-139.924	-0.206	-0.022
-509.785	-151.857	-0.090	-0.007
-508.770	800.000	-0.052	0.206
-507.756	-200.000	0.042	0.324
-506.741	56.731	0.333	0.326
-505.726	-26.556	0.271	-0.159
-504.712	77.331	-0.030	0.032
-503.697	120.095	-0.156	0.194
-502.683	800.000	0.012	0.050
-501.668	696.743	-0.078	-0.207
-500.653	-15.099	0.307	-0.198
-499.639	106.647	0.095	0.114
-498.624	74.939	0.158	-0.168
-497.610	51.564	0.030	0.029
-496.595	400.354	0.070	-0.148
-495.581	-200.000	-0.015	-0.272
-494.566	-44.811	-0.250	-0.125
-493.551	800.000	0.045	-0.165
-492.537	800.000	0.096	-0.303
-491.522	-46.060	-0.210	-0.104
-490.508	-200.000	0.029	-0.263
-489.493	-200.000	0.109	0.480
-488.478	-200.000	0.058	-0.405
-487.464	8.459	0.090	-0.068
-486.449	-200.000	-0.029	0.267
-485.435	174.650	0.078	-0.114
-484.420	-200.000	-0.036	0.259
-483.405	325.641	-0.091	0.176
-482.391	-200.000	0.042	0.377
-481.376	45.804	-0.284	-0.264
-480.362	-36.174	0.160	-0.087
-479.347	-200.000	0.010	-0.644
-478.332	-89.404	-0.192	-0.057
-477.318	-200.000	-0.030	0.153
-476.303	219.286	-0.017	0.027
-475.289	-167.327	0.094	-0.004
-474.274	34.698	0.160	-0.140
-473.259	-121.571	0.160	0.027
-472.245	-90.106	-0.161	-0.047
-471.230	-102.799	-0.308	-0.074
-470.216	-191.572	0.319	0.003
-469.201	-138.498	0.180	-0.020
-468.186	800.000	-0.069	0.230
-467.172	-200.000	-0.010	0.070
-466.157	-96.867	0.125	0.033
-465.143	66.691	0.076	0.078
-464.128	800.000	0.125	0.458
-463.113	-16.978	0.060	0.038
-462.099	-160.795	-0.164	0.009
-461.084	-200.000	0.052	-0.341
-460.070	-28.288	-0.086	0.050
-459.055	-167.423	-0.312	-0.013
-458.040	-2.664	0.370	-0.260
-457.026	183.560	0.118	-0.176
-456.011	106.713	0.058	0.068
-454.997	-197.169	-0.194	0.001
-453.982	38.960	-0.054	0.049
-452.968	-118.540	0.132	0.023
-451.953	310.869	0.123	-0.232
-450.938	125.856	-0.255	-0.324
-449.924	-140.409	-0.111	0.012
-448.909	38.500	-0.172	0.154
-447.895	-70.981	-0.364	0.137
-446.880	537.821	-0.077	0.182
-445.865	-163.480	-0.191	-0.009
-444.851	614.505	-0.034	-0.085
-443.836	-57.867	-0.145	0.064
-442.822	314.440	-0.048	0.091
-441.807	-108.263	0.289	0.063
-440.792	-200.000	0.007	-0.049
-439.778	239.631	-0.104	0.174
-438.763	-22.421	-0.228	-0.138
-437.749	800.000	0.095	-0.295
-436.734	-1.320	0.208	-0.147
-435.719	-96.774	-0.136	0.036
-434.705	800.000	0.049	0.137
-433.690	-23.466	-0.146	0.088
-432.676	119.494	0.142	0.177
-431.661	141.488	0.100	0.132
-430.646	800.000	0.016	0.062
-429.632	566.689	-0.098	0.237
-428.617	800.000	-0.074	0.286
-427.603	-118.685	0.162	-0.029
-426.588	-200.000	-0.019	-0.108
-425.573	800.000	-0.022	-0.070
-424.559	478.918	-0.019	-0.044
-423.544	-159.153	0.183	0.010
-422.530	148.406	0.107	-0.144
-421.515	-108.637	0.211	-0.045
-420.500	-133.667	0.150	0.019
-419.486	-19.407	-0.090	-0.056
-418.471	-155.710	0.080	-0.005
-417.457	164.241	0.137	-0.193
-416.442	-167.849	0.081	-0.003
-415.428	311.093	-0.165	-0.309
-414.413	-116.549	0.082	0.015
-413.398	129.496	-0.069	-0.089
-412.384	234.807	0.153	-0.254
-411.369	-200.000	-0.028	0.196
-410.355	-200.000	-0.004	-0.073
-409.340	-200.000	0.019	-0.339
-408.325	-105.751	-0.155	0.035
-407.311	132.554	0.164	-0.211
-406.296	10.982	-0.294	0.225
-405.282	-200.000	0.015	-0.122
-404.267	221.760	0.093	-0.150
-403.252	191.387	-0.235	-0.355
-402.238	-111.204	-0.178	-0.036
-401.223	159.396	0.127	-0.176
-400.209	264.174	-0.161	-0.281
-399.194	-85.638	-0.047	-0.015
-398.179	-125.927	0.094	0.014
-397.165	61.160	-0.189	-0.188
-396.150	21.367	0.143	0.117
-395.136	-56.792	0.153	-0.068
-394.121	-68.004	0.075	0.029
-393.106	37.039	0.169	0.150
-392.092	-63.789	-0.133	-0.055
-391.077	-200.000	0.027	0.464
-390.063	74.459	0.128	0.134
-389.048	-107.338	0.248	-0.055
-388.033	-115.574	-0.314	-0.059
-387.019	-70.005	0.359	0.137
-386.004	71.964	-0.078	0.081
-384.990	-60.706	-0.027	-0.011
-383.975	78.106	-0.227	0.242
-382.960	-115.716	0.235	-0.044
-381.946	-91.141	0.203	-0.058
-380.931	-104.742	-0.199	0.046
-379.917	-200.000	0.027	-0.240
-378.902	-1.652	0.183	0.129
-377.888	-41.856	-0.222	0.114
-376.873	56.701	0.109	-0.107
-375.858	-7.981	0.123	-0.083
-374.844	-97.212	-0.150	-0.039
-373.829	197.342	-0.099	0.151
-372.815	-46.177	-0.188	0.093
-371.800	681.278	0.044	0.115
-370.785	-127.306	0.205	0.030
-369.771	-74.016	0.181	-0.066
-368.756	37.750	0.128	-0.114
-367.742	-141.064	0.037	-0.004
-366.727	-44.756	-0.560	0.279
-365.712	28.833	0.021	-0.018
-364.698	632.125	0.102	0.258
-363.683	271.806	0.104	0.183
-362.669	-127.494	0.019	-0.003
-361.654	-200.000	-0.001	-0.017
-360.639	272.324	-0.104	0.183
-359.625	178.658	-0.139	0.203
-358.610	-200.000	-0.109	0.526
-357.596	-103.672	-0.357	0.084
-356.581	137.310	0.041	-0.053
-355.566	-24.973	-0.291	0.172
-354.552	-89.795	0.188	-0.055
-353.537	-139.645	-0.427	-0.045
-352.523	232.080	0.191	-0.313
-351.508	-68.828	0.137	0.053
-350.493	436.168	-0.226	0.492
-349.479	-74.221	0.084	0.030
-348.464	60.216	-0.270	-0.267
-347.450	133.424	0.102	-0.131
-346.435	211.039	-0.106	0.167
-345.420	217.117	0.110	-0.175
-344.406	800.000	0.035	0.137
-343.391	-4.129	0.183	0.126
-342.377	300.715	-0.128	0.235
-341.362	-200.000	0.008	-0.048
-340.348	51.819	0.142	0.135
-339.333	56.577	-0.351	0.341
-338.318	61.856	-0.126	-0.126
-337.304	-179.673	0.148	-0.003
-336.289	183.949	-0.082	0.121
-335.275	-64.893	-0.125	-0.051
-334.260	-200.000	-0.072	-0.472
-333.245	-111.772	0.333	0.067
-332.231	24.770	-0.033	-0.027
-331.216	422.561	0.124	0.265
-330.202	-200.000	0.047	0.215
-329.187	-200.000	-0.062	0.420
-328.172	-32.461	0.275	0.153
-327.158	-200.000	-0.019	0.371
-326.143	800.000	-0.088	0.268
-325.129	800.000	0.134	-0.390
-324.114	800.000	0.059	0.177
-323.099	800.000	-0.032	-0.101
-322.085	0.665	0.280	-0.200
-321.070	746.020	-0.162	-0.434
-320.056	517.400	-0.089	-0.207
-319.041	-107.965	0.243	0.053
-318.026	-23.123	0.031	-0.019
-317.012	-95.263	-0.239	0.064
-315.997	28.656	0.022	-0.019
-314.983	-200.000	0.031	0.182
-313.968	-200.000	-0.056	0.304
-312.953	-47.699	0.213	0.103
-311.939	378.318	-0.145	0.297
-310.924	-7.021	-0.144	0.097
-309.910	-127.143	-0.222	-0.032
-308.895	800.000	0.056	-0.171
-307.880	-35.023	-0.187	-0.102
-306.866	-160.740	0.156	-0.008
-305.851	25.188	-0.152	0.126
-304.837	496.712	-0.034	0.078
-303.822	-44.402	0.270	-0.135
-302.807	-97.227	0.279	-0.073
-301.793	796.991	0.109	-0.298
-300.778	800.000	-0.173	0.513
-299.764	-200.000	0.007	-0.329
-298.749	-200.000	-0.004	0.059
-297.735	129.541	-0.079	0.101
-296.720	92.027	0.217	0.244
-295.705	800.000	-0.060	-0.199
-294.691	17.349	0.100	0.080
-293.676	14.632	-0.079	-0.062
-292.662	-85.222	0.234	-0.073
-291.647	-89.380	-0.207	-0.061
-290.632	-74.388	-0.330	0.119
-289.618	395.107	-0.058	0.120
-288.603	800.000	0.080	-0.236
-287.589	301.841	-0.065	-0.119
-286.574	-200.000	0.049	0.267
-285.559	83.300	0.125	0.135
-284.545	312.266	0.040	0.074
-283.530	3.897	-0.093	0.068
-282.516	-200.000	0.033	-0.196
-281.501	-82.682	0.295	-0.095
-280.486	111.516	0.169	-0.203
-279.472	-23.935	-0.188	0.112
-278.457	-58.937	0.222	-0.095
-277.443	165.722	-0.037	0.052
-276.428	-200.000	0.008	-0.077
-275.413	542.547	0.076	0.181
-274.399	107.244	-0.096	-0.114
-273.384	5.623	-0.192	-0.141
-272.370	-100.825	0.076	0.019
-271.355	-200.000	0.027	-0.297
-270.340	-128.199	0.360	0.051
-269.326	479.217	0.026	0.058
-268.311	800.000	-0.168	0.475
-267.297	-149.098	0.394	-0.032
-266.282	-4.820	0.204	0.140
-265.267	427.814	-0.009	0.019
-264.253	-200.000	-0.007	0.045
-263.238	475.682	-0.095	0.215
-262.224	-99.339	-0.086	0.022
-261.209	-135.802	-0.190	-0.022
-260.195	-198.461	-0.304	-0.002
-259.180	-30.934	0.348	-0.196
-258.165	102.240	0.188	-0.219
-257.151	-60.936	-0.100	-0.042
-256.136	-82.304	0.204	0.066
-255.122	-13.749	0.212	0.137
-254.107	-75.467	-0.082	-0.029
-253.092	-200.000	-0.040	-0.221
-252.078	-200.000	0.057	0.319
-251.063	-2.119	0.095	0.067
-250.049	-52.142	-0.255	0.118
-249.034	-200.000	0.028	-0.242
-248.019	12.425	0.147	0.113
-247.005	303.386	0.106	-0.195
-245.990	589.657	0.134	0.329
-244.976	-39.220	-0.294	0.154
-243.961	175.187	-0.099	0.142
-242.946	-192.029	0.272	0.003
-241.932	-4.956	-0.096	0.066
-240.917	263.035	0.077	0.133
-239.903	-25.797	0.234	-0.137
-238.888	82.218	0.078	-0.084
-237.873	-200.000	-0.004	0.199
-236.859	800.000	0.047	0.148
-235.844	71.212	0.074	0.077
-234.830	-159.037	-0.088	-0.005
-233.815	-1.030	0.095	-0.067
-232.800	-23.618	0.372	0.222
-231.786	-200.000	-0.007	0.236
-230.771	30.397	-0.189	0.160
-229.757	117.036	-0.197	0.241
-228.742	-200.000	0.044	-0.236
-227.727	-103.628	0.178	-0.042
-226.713	800.000	-0.074	0.257
-225.698	-78.790	-0.203	-0.069
-224.684	-130.761	0.149	0.020
-223.669	26.379	0.159	0.132
-222.655	31.940	0.057	-0.049
-221.640	-137.610	-0.195	0.022
-220.625	-200.000	-0.070	0.375
-219.611	-200.000	0.025	0.132
-218.596	-111.381	0.294	0.060
-217.582	-66.288	0.310	-0.122
-216.567	-200.000	0.027	-0.430
-215.552	-70.778	-0.113	-0.042
-214.538	62.545	-0.274	-0.272
-213.523	-200.000	0.005	-0.218
-212.509	-57.325	-0.061	-0.027
-211.494	-200.000	-0.000	-0.480
-210.479	800.000	-0.258	-0.735
-209.465	-48.416	0.246	0.118
-208.450	-163.242	0.073	-0.003
-207.436	-200.000	-0.001	-0.117
-206.421	-60.263	0.077	-0.033
-205.406	800.000	-0.061	-0.201
-204.392	-21.684	0.182	0.110
-203.377	91.144	-0.081	-0.090
-202.363	292.219	0.170	-0.307
-201.348	78.533	0.235	-0.250
-200.333	-200.000	-0.018	-0.216
-199.319	-4.444	-0.210	-0.144
-198.304	167.403	0.023	0.033
-197.290	221.658	0.145	-0.231
-196.275	84.971	-0.277	0.302
-195.260	800.000	0.032	0.090
-194.246	795.205	0.015	-0.042
-193.231	288.981	0.036	0.065
-192.217	-200.000	-0.005	0.358
-191.202	800.000	-0.139	-0.439
-190.187	-200.000	0.007	0.126
-189.173	800.000	-0.052	-0.153
-188.158	-200.000	0.005	0.174
-187.144	-31.149	0.033	-0.019
-186.129	-200.000	0.008	0.057
-185.114	-117.652	0.360	0.064
-184.100	76.909	-0.128	-0.135
-183.085	-36.987	-0.238	0.126
-182.071	-89.082	-0.430	0.126
-181.056	147.838	0.203	0.272
-180.042	800.000	-0.101	0.297
-179.027	800.000	0.052	0.184
-178.012	237.632	-0.099	0.163
-176.998	527.687	0.120	-0.280
-175.983	-200.000	0.009	0.317
-174.969	-30.275	0.117	0.066
-173.954	-157.522	-0.151	0.009
-172.939	-43.289	0.301	-0.151
-171.925	-200.000	-0.001	-0.250
-170.910	168.705	0.084	-0.119
-169.896	800.000	0.058	-0.199
-168.881	-157.840	0.036	0.002
-167.866	-78.913	0.178	-0.060
-166.852	800.000	-0.082	0.313
-165.837	30.578	0.158	-0.134
-164.823	800.000	0.055	0.214
-163.808	24.029	-0.075	-0.062
-162.793	800.000	0.023	0.099
-161.779	-36.694	-0.295	0.157
-160.764	-200.000	-0.042	0.353
-159.750	596.002	-0.137	0.335
-158.735	800.000	-0.032	0.115
-157.720	54.020	-0.093	-0.089
-156.706	32.985	0.135	-0.116
-155.691	38.064	-0.075	0.067
-154.677	-200.000	-0.004	-0.122
-153.662	87.215	-0.161	0.177
-152.647	800.000	0.013	-0.053
-151.633	-200.000	0.034	-0.200
-150.618	-85.781	-0.358	-0.110
-149.604	-146.300	0.052	-0.005
-148.589	122.003	-0.078	0.096
-147.574	-200.000	-0.031	0.393
-146.560	-146.040	-0.170	-0.015
-145.545	7.554	-0.257	-0.191
-144.531	-196.059	-0.434	0.003
-143.516	-26.667	-0.050	0.029
-142.502	-26.589	-0.269	0.156
-141.487	-167.659	0.398	0.016
-140.472	256.929	-0.144	0.245
-139.458	101.946	-0.135	0.157
-138.443	-2.426	-0.181	0.126
-137.429	-200.000	0.007	0.103
-136.414	-32.605	0.106	-0.058
-135.399	-200.000	0.014	-0.204
-134.385	-108.208	0.209	0.045
-133.370	-4.239	0.124	0.085
-132.356	-200.000	0.017	-0.140
-131.341	82.859	-0.103	-0.111
-130.326	-45.735	0.176	-0.086
-129.312	-142.635	-0.022	-0.002
-128.297	-122.945	-0.212	-0.034
-127.283	-72.488	0.165	-0.060
-126.268	800.000	0.089	0.337
-125.253	-41.450	-0.025	-0.013
-124.239	-200.000	-0.022	0.219
-123.224	37.386	-0.243	0.214
-122.210	-30.621	-0.161	-0.090
-121.195	13.575	-0.104	-0.080
