DTS Sentinel unit serial number:	SN413079Multiplexer serial number:	ORYXHardware model number:	OX4-SRSoftware version number:	ORYX F/W v4.00 Oryx Data Collector v3.7.2.0data status	okinstallation	princeton_trtdifferential loss correction	single-endedforward channel	channel 3reverse channel	N/Adate	2019/09/14time	22:16:35forward acquisition time	60.00reverse acquisition time	0.00gamma	496.2192k internal	0.2319k external	0.2319temperature offset calibration	0.9993default loss term (dB/km)	0.3790temperature slope calibration	1.0000multiplexer offset coefficient	1.0000multiplexer slope coefficient	1.0000fibre end	0.00T internal ref (°C)	32.62T ext. ref 1 (°C)	4.71T ext. ref 2 (°C)	27.58length (m)	temperature (°C)	Stokes	anti-Stokes-747.200	-141.382	0.143	0.015
-746.185	476.530	-0.166	0.379
-745.171	385.527	-0.060	0.125
-744.156	800.000	-0.054	0.240
-743.142	123.326	0.195	-0.247
-742.127	-102.097	-0.078	-0.019
-741.112	-171.639	0.274	0.009
-740.098	30.054	-0.284	0.245
-739.083	-124.727	-0.126	0.020
-738.069	152.244	0.053	0.074
-737.054	-62.019	0.332	0.140
-736.039	-93.134	-0.267	-0.075
-735.025	-200.000	0.013	0.141
-734.010	800.000	-0.111	-0.358
-732.996	-27.293	-0.407	-0.240
-731.981	800.000	-0.037	-0.123
-730.966	37.657	0.091	0.082
-729.952	70.590	-0.146	-0.153
-728.937	-200.000	0.001	-0.033
-727.923	348.914	-0.064	0.128
-726.908	-133.315	-0.128	0.016
-725.894	-137.967	-0.177	0.020
-724.879	-51.502	-0.048	-0.022
-723.864	53.124	-0.160	0.155
-722.850	-23.708	-0.549	0.333
-721.835	68.229	0.184	0.190
-720.821	714.853	-0.084	-0.226
-719.806	-200.000	0.031	-0.270
-718.791	-134.765	0.270	-0.033
-717.777	35.809	0.082	-0.073
-716.762	94.998	-0.305	-0.351
-715.748	282.321	0.093	-0.169
-714.733	800.000	0.123	-0.376
-713.718	331.531	-0.056	-0.110
-712.704	-108.505	-0.327	0.071
-711.689	-68.153	0.077	0.030
-710.675	-68.374	0.327	-0.128
-709.660	-57.856	-0.243	-0.107
-708.645	-200.000	-0.034	-0.192
-707.631	-151.229	0.261	0.020
-706.616	214.666	-0.044	0.071
-705.602	-200.000	0.032	-0.335
-704.587	-65.971	0.296	0.120
-703.572	656.439	-0.031	0.082
-702.558	215.068	0.128	-0.204
-701.543	-200.000	-0.002	-0.113
-700.529	-30.221	0.225	-0.129
-699.514	34.768	0.138	0.122
-698.499	120.347	0.087	-0.109
-697.485	-97.422	-0.269	-0.071
-696.470	-160.973	-0.234	0.012
-695.456	-107.292	-0.253	0.056
-694.441	127.833	-0.292	-0.375
-693.426	-200.000	-0.004	-0.213
-692.412	191.276	0.142	0.216
-691.397	69.671	-0.251	-0.261
-690.383	208.724	0.127	-0.200
-689.368	-68.736	0.155	0.061
-688.354	-55.487	0.293	-0.133
-687.339	-100.751	-0.085	0.021
-686.324	-32.139	-0.111	-0.063
-685.310	61.983	0.105	-0.106
-684.295	366.863	-0.137	0.279
-683.281	-200.000	-0.017	0.310
-682.266	34.235	-0.116	-0.102
-681.251	110.127	-0.227	-0.276
-680.237	37.467	0.018	0.016
-679.222	42.479	-0.197	-0.181
-678.208	-200.000	-0.020	-0.190
-677.193	571.846	-0.090	-0.222
-676.178	-67.559	0.364	0.144
-675.164	-150.222	0.144	-0.011
-674.149	-151.289	0.174	0.013
-673.135	82.213	-0.033	-0.037
-672.120	-100.386	-0.016	-0.004
-671.105	-162.501	0.217	-0.011
-670.091	331.880	0.153	0.298
-669.076	292.551	-0.044	0.081
-668.062	735.927	-0.108	-0.292
-667.047	131.462	-0.093	-0.120
-666.032	-21.953	-0.166	-0.102
-665.018	800.000	0.015	-0.060
-664.003	127.951	-0.213	-0.273
-662.989	-92.438	-0.094	0.027
-661.974	556.377	0.116	0.283
-660.959	-143.060	0.105	-0.010
-659.945	-27.665	0.132	0.077
-658.930	-134.195	0.122	-0.015
-657.916	9.400	-0.036	-0.027
-656.901	-200.000	0.032	0.207
-655.886	-151.176	-0.085	-0.006
-654.872	-117.761	-0.158	0.029
-653.857	-200.000	0.007	0.042
-652.843	-200.000	-0.012	0.180
-651.828	253.245	-0.177	-0.304
-650.814	-97.696	-0.252	-0.066
-649.799	1.315	0.315	0.228
-648.784	-200.000	0.014	0.099
-647.770	-152.478	0.198	0.014
-646.755	-104.504	-0.319	0.074
-645.741	-63.998	0.386	0.159
-644.726	-150.657	-0.273	0.021
-643.711	-136.984	0.258	-0.030
-642.697	-11.723	-0.127	0.084
-641.682	-27.942	0.141	-0.082
-640.668	470.142	-0.118	0.268
-639.653	214.256	0.139	0.222
-638.638	259.777	0.088	-0.153
-637.624	-31.297	-0.344	-0.195
-636.609	-23.331	-0.117	-0.071
-635.595	152.834	0.147	0.203
-634.580	180.763	0.038	-0.057
-633.565	285.474	-0.118	-0.214
-632.551	-167.344	0.147	0.006
-631.536	-119.036	-0.183	-0.032
-630.522	-98.809	0.284	-0.073
-629.507	-150.758	0.113	-0.009
-628.492	-200.000	-0.026	-0.210
-627.478	-24.788	0.118	0.071
-626.463	444.333	-0.118	0.261
-625.449	25.485	-0.391	0.327
-624.434	-20.820	-0.211	-0.130
-623.419	800.000	0.031	0.109
-622.405	588.854	0.164	-0.406
-621.390	800.000	-0.022	-0.089
-620.376	48.676	-0.150	0.141
-619.361	-200.000	-0.114	0.666
-618.346	-193.344	0.256	0.002
-617.332	800.000	-0.104	-0.368
-616.317	-61.548	-0.267	-0.113
-615.303	180.338	0.054	0.079
-614.288	-150.745	0.099	0.008
-613.273	-42.544	0.246	-0.126
-612.259	-200.000	0.002	-0.214
-611.244	-107.972	-0.243	0.053
-610.230	-200.000	0.027	0.154
-609.215	-62.759	0.123	0.051
-608.201	-3.052	-0.023	0.016
-607.186	69.286	-0.087	-0.090
-606.171	306.921	0.053	-0.100
-605.157	45.003	-0.144	0.134
-604.142	568.720	-0.040	-0.098
-603.128	-36.329	-0.341	-0.185
-602.113	142.542	-0.154	0.206
-601.098	-118.232	-0.043	-0.008
-600.084	-17.970	0.153	0.096
-599.069	227.726	-0.161	-0.264
-598.055	-64.114	-0.130	-0.053
-597.040	577.088	-0.088	-0.217
-596.025	-200.000	0.015	0.184
-595.011	-77.966	-0.150	0.052
-593.996	-18.365	-0.070	0.044
-592.982	-93.270	-0.124	-0.035
-591.967	482.214	0.019	-0.043
-590.952	-200.000	-0.001	-0.072
-589.938	-6.128	-0.235	-0.162
-588.923	-70.081	-0.148	-0.057
-587.909	18.993	0.085	-0.068
-586.894	-41.957	-0.144	0.074
-585.879	-54.112	-0.026	-0.012
-584.865	-61.771	0.325	-0.137
-583.850	323.765	-0.139	-0.267
-582.836	-200.000	-0.032	0.170
-581.821	4.117	-0.193	0.142
-580.806	-150.352	0.459	0.036
-579.792	82.824	-0.006	0.006
-578.777	-58.617	0.087	-0.038
-577.763	-142.592	-0.115	0.011
-576.748	60.247	0.125	-0.125
-575.733	4.525	-0.140	0.103
-574.719	120.803	-0.195	0.244
-573.704	54.578	0.330	0.320
-572.690	-135.859	-0.155	-0.018
-571.675	89.309	-0.250	-0.280
-570.661	479.916	-0.130	-0.297
-569.646	195.419	-0.089	0.137
-568.631	-164.476	-0.423	0.019
-567.617	99.143	0.049	0.056
-566.602	-134.299	0.207	0.026
-565.588	-134.960	-0.439	0.053
-564.573	-158.450	0.121	-0.007
-563.558	-119.216	0.054	0.009
-562.544	323.531	-0.202	-0.388
-561.529	800.000	0.030	0.096
-560.515	454.876	-0.027	0.060
-559.500	84.472	0.047	-0.052
-558.485	-140.892	0.269	-0.028
-557.471	-200.000	-0.025	0.127
-556.456	-168.086	-0.294	-0.011
-555.442	-48.818	-0.132	0.063
-554.427	399.293	-0.063	0.133
-553.412	-49.169	-0.272	-0.131
-552.398	-74.142	0.059	-0.021
-551.383	-200.000	-0.059	0.342
-550.369	-10.530	-0.246	-0.164
-549.354	-26.474	0.398	0.234
-548.339	800.000	0.045	0.133
-547.325	-17.603	-0.219	-0.138
-546.310	50.530	-0.154	-0.146
-545.296	800.000	0.143	-0.510
-544.281	-104.797	-0.305	0.070
-543.266	800.000	-0.092	0.291
-542.252	247.910	-0.133	-0.225
-541.237	-54.286	0.034	0.015
-540.223	103.514	-0.067	0.078
-539.208	800.000	-0.137	-0.450
-538.193	9.533	-0.184	0.140
-537.179	-8.656	0.076	0.051
-536.164	-22.469	0.204	-0.124
-535.150	330.897	-0.031	0.061
-534.135	719.047	-0.031	0.084
-533.121	-32.399	0.279	0.156
-532.106	-200.000	0.002	0.108
-531.091	-199.544	0.110	-0.001
-530.077	-44.744	0.379	-0.190
-529.062	-103.012	0.268	-0.064
-528.048	-53.190	0.403	0.186
-527.033	800.000	0.022	-0.076
-526.018	194.295	0.130	-0.198
-525.004	720.046	0.024	0.064
-523.989	115.093	0.160	0.195
-522.975	-73.946	-0.095	-0.035
-521.960	185.023	-0.107	-0.159
-520.945	80.873	-0.167	-0.181
-519.931	-79.046	0.280	-0.096
-518.916	-13.757	-0.179	0.116
-517.902	299.354	0.079	-0.145
-516.887	-145.455	-0.199	-0.018
-515.872	-76.739	-0.223	0.078
-514.858	800.000	-0.061	-0.234
-513.843	-200.000	-0.008	0.157
-512.829	152.113	0.143	-0.196
-511.814	107.085	0.121	-0.144
-510.799	-200.000	0.025	0.370
-509.785	28.797	-0.353	0.300
-508.770	-96.659	0.201	-0.053
-507.756	-200.000	-0.146	0.001
-506.741	-200.000	0.024	-0.295
-505.726	119.299	0.126	-0.156
-504.712	-200.000	0.078	0.437
-503.697	2.367	-0.154	0.112
-502.683	800.000	-0.086	0.290
-501.668	-200.000	0.021	0.252
-500.653	500.873	0.118	0.272
-499.639	-107.127	0.138	-0.030
-498.624	201.353	0.150	0.231
-497.610	-200.000	0.047	0.306
-496.595	-107.470	-0.076	0.017
-495.581	-25.533	-0.283	-0.168
-494.566	-137.561	-0.461	-0.052
-493.551	28.704	-0.228	0.194
-492.537	-169.019	-0.134	-0.005
-491.522	-200.000	0.356	-0.001
-490.508	385.859	0.010	0.020
-489.493	-109.227	-0.172	-0.037
-488.478	372.280	0.087	0.177
-487.464	-200.000	0.018	0.124
-486.449	-200.000	-0.084	-0.412
-485.435	-200.000	0.040	-0.315
-484.420	665.337	0.033	-0.086
-483.405	-111.682	-0.285	-0.058
-482.391	308.308	0.054	0.101
-481.376	-128.616	0.127	-0.018
-480.362	68.665	-0.257	0.264
-479.347	194.101	0.074	-0.112
-478.332	800.000	-0.094	0.404
-477.318	-50.051	-0.194	0.092
-476.303	800.000	-0.026	0.100
-475.289	-200.000	0.019	-0.322
-474.274	-142.392	-0.086	0.008
-473.259	-35.739	0.368	0.200
-472.245	284.346	-0.090	0.163
-471.230	-108.687	0.315	0.068
-470.216	-114.762	0.196	-0.038
-469.201	91.140	0.109	0.122
-468.186	-200.000	0.001	-0.253
-467.172	-133.721	-0.280	-0.035
-466.157	780.723	0.094	0.257
-465.143	143.334	-0.148	-0.197
-464.128	-137.605	-0.040	0.004
-463.113	106.297	0.041	-0.048
-462.099	800.000	0.066	-0.187
-461.084	-52.750	-0.144	0.066
-460.070	-195.822	0.107	0.001
-459.055	128.365	-0.096	-0.123
-458.040	-62.389	0.123	-0.051
-457.026	28.331	0.091	-0.077
-456.011	800.000	-0.039	-0.149
-454.997	76.875	-0.160	0.170
-453.982	698.354	-0.098	0.257
-452.968	-103.447	-0.212	-0.050
-451.953	800.000	-0.059	0.173
-450.938	29.513	0.391	0.333
-449.924	343.984	0.133	0.260
-448.909	354.944	0.147	0.292
-447.895	96.486	0.069	0.078
-446.880	34.263	0.174	0.152
-445.865	800.000	0.030	-0.105
-444.851	59.252	0.164	-0.161
-443.836	449.830	-0.045	-0.100
-442.822	-200.000	-0.036	-0.356
-441.807	766.815	0.104	-0.282
-440.792	-113.317	-0.058	0.011
-439.778	800.000	-0.019	0.063
-438.763	548.780	-0.111	0.266
-437.749	466.131	-0.259	-0.580
-436.734	800.000	-0.088	-0.244
-435.719	-81.307	-0.166	0.055
-434.705	103.238	-0.199	-0.233
-433.690	800.000	-0.055	-0.193
-432.676	-200.000	-0.010	0.086
-431.661	-77.790	0.366	-0.126
-430.646	800.000	-0.072	-0.251
-429.632	-200.000	-0.021	-0.376
-428.617	-107.462	0.158	-0.035
-427.603	115.356	-0.035	0.042
-426.588	83.142	-0.212	0.230
-425.573	-32.832	0.047	0.026
-424.559	-112.912	0.147	0.029
-423.544	53.938	0.137	-0.132
-422.530	86.746	0.122	0.134
-421.515	4.196	-0.141	-0.103
-420.500	-200.000	-0.006	-0.076
-419.486	44.460	-0.164	-0.150
-418.471	81.668	0.048	0.052
-417.457	-25.939	0.073	0.043
-416.442	26.501	-0.265	0.221
-415.428	-45.960	0.143	0.071
-414.413	-200.000	-0.001	-0.220
-413.398	-40.362	-0.336	-0.175
-412.384	65.537	0.137	0.139
-411.369	-55.501	0.221	0.099
-410.355	165.134	-0.070	0.099
-409.340	-116.786	0.283	0.052
-408.325	-83.553	-0.133	-0.043
-407.311	-99.099	0.213	0.054
-406.296	13.902	0.269	0.209
-405.282	180.930	0.147	0.216
-404.267	-200.000	0.005	-0.117
-403.252	-17.474	0.098	-0.062
-402.238	-12.233	0.280	0.183
-401.223	-23.810	0.298	0.178
-400.209	-200.000	0.001	0.195
-399.194	298.618	0.223	0.409
-398.179	11.915	0.269	0.207
-397.165	800.000	0.076	0.223
-396.150	800.000	-0.126	-0.393
-395.136	360.754	-0.169	0.338
-394.121	-179.101	0.322	0.007
-393.106	24.578	-0.150	-0.124
-392.092	782.702	0.110	-0.302
-391.077	-200.000	-0.058	0.409
-390.063	-130.741	0.206	-0.028
-389.048	-46.508	0.169	-0.083
-388.033	-200.000	-0.011	0.056
-387.019	-23.849	0.184	0.110
-386.004	5.533	-0.476	-0.351
-384.990	76.683	0.094	0.099
-383.975	18.396	-0.078	0.062
-382.960	-8.809	0.217	0.145
-381.946	-132.398	0.299	-0.039
-380.931	-131.156	0.207	0.027
-379.917	1.402	0.071	-0.051
-378.902	183.086	-0.092	0.135
-377.888	800.000	-0.105	-0.343
-376.873	132.350	-0.140	0.180
-375.858	507.840	0.127	0.295
-374.844	48.931	-0.099	0.092
-373.829	127.245	-0.248	0.314
-372.815	800.000	-0.115	-0.345
-371.800	233.602	-0.058	0.095
-370.785	11.576	-0.116	0.089
-369.771	208.666	0.068	0.107
-368.756	215.888	-0.058	-0.091
-367.742	328.826	0.046	-0.088
-366.727	672.212	-0.045	-0.115
-365.712	75.060	0.198	0.208
-364.698	800.000	0.052	0.170
-363.683	-200.000	-0.009	-0.271
-362.669	-200.000	-0.014	-0.158
-361.654	-120.690	-0.074	0.013
-360.639	32.780	-0.304	0.262
-359.625	53.535	-0.187	0.179
-358.610	-46.926	-0.017	-0.008
-357.596	-200.000	-0.037	0.166
-356.581	-200.000	0.002	-0.189
-355.566	-10.739	0.128	0.085
-354.552	-75.511	0.119	0.042
-353.537	-49.928	0.322	0.152
-352.523	314.601	-0.181	0.339
-351.508	6.826	0.021	0.016
-350.493	397.590	0.109	0.228
-349.479	610.539	-0.025	0.062
-348.464	542.431	0.055	-0.130
-347.450	-28.143	-0.062	-0.036
-346.435	164.878	0.118	0.166
-345.420	-74.814	0.414	-0.148
-344.406	449.962	-0.053	0.117
-343.391	-200.000	-0.021	-0.144
-342.377	-200.000	0.026	0.275
-341.362	27.281	0.207	-0.173
-340.348	195.875	-0.193	-0.293
-339.333	395.073	0.104	-0.217
-338.318	-6.274	0.207	0.141
-337.304	5.355	-0.184	-0.135
-336.289	-200.000	0.005	0.144
-335.275	67.114	-0.007	-0.007
-334.260	-177.285	0.180	-0.004
-333.245	-23.155	-0.193	-0.116
-332.231	-200.000	-0.004	-0.031
-331.216	62.303	-0.292	-0.291
-330.202	-188.721	-0.241	-0.003
-329.187	178.586	0.171	0.249
-328.172	-28.876	-0.300	0.171
-327.158	-73.222	0.373	-0.136
-326.143	-200.000	-0.064	0.516
-325.129	-51.323	-0.222	0.103
-324.114	-26.524	0.129	-0.075
-323.099	21.986	-0.151	-0.122
-322.085	-200.000	0.046	-0.234
-321.070	-200.000	0.036	-0.252
-320.056	-200.000	-0.077	-0.460
-319.041	-154.183	-0.107	-0.007
-318.026	-200.000	0.041	-0.191
-317.012	156.814	0.088	-0.122
-315.997	-107.784	0.351	-0.076
-314.983	323.793	0.063	-0.120
-313.968	-96.977	-0.096	-0.025
-312.953	-140.825	0.083	-0.009
-311.939	97.130	-0.139	0.159
-310.924	-166.565	-0.116	-0.005
-309.910	-68.504	0.510	0.197
-308.895	488.550	0.083	-0.188
-307.880	-200.000	0.013	0.109
-306.866	-9.661	0.219	0.145
-305.851	-38.156	0.100	0.053
-304.837	-136.974	0.213	-0.024
-303.822	256.470	0.062	-0.107
-302.807	-50.631	0.393	-0.184
-301.793	-200.000	0.009	0.065
-300.778	-200.000	-0.014	0.068
-299.764	-90.886	0.234	0.067
-298.749	691.612	-0.125	0.326
-297.735	-149.771	0.184	-0.014
-296.720	-106.806	-0.116	-0.026
-295.705	-69.374	0.179	0.068
-294.691	-78.656	0.128	0.043
-293.676	-200.000	-0.010	0.177
-292.662	338.578	0.057	0.111
-291.647	-200.000	0.015	0.119
-290.632	-13.591	0.495	0.319
-289.618	-102.669	0.222	-0.053
-288.603	-200.000	-0.052	-0.235
-287.589	-123.641	-0.051	-0.008
-286.574	-200.000	-0.023	0.133
-285.559	740.848	0.094	-0.252
-284.545	415.283	-0.051	0.107
-283.530	15.654	-0.196	0.153
-282.516	-118.973	-0.213	-0.037
-281.501	102.553	0.131	-0.153
-280.486	-127.184	-0.569	0.083
-279.472	-200.000	-0.015	-0.348
-278.457	-153.487	-0.245	-0.017
-277.443	-200.000	-0.002	-0.046
-276.428	439.711	-0.052	0.112
-275.413	127.500	0.108	-0.136
-274.399	-200.000	0.001	0.150
-273.384	-16.634	0.204	0.128
-272.370	298.611	-0.055	0.100
-271.355	9.474	0.174	-0.131
-270.340	-132.958	-0.110	-0.014
-269.326	36.304	0.162	0.142
-268.311	-200.000	-0.021	0.262
-267.297	-200.000	-0.023	-0.162
-266.282	800.000	-0.005	0.021
-265.267	800.000	-0.031	0.106
-264.253	263.604	-0.065	0.112
-263.238	193.474	0.151	-0.226
-262.224	-65.760	-0.088	-0.035
-261.209	573.244	0.064	-0.155
-260.195	67.156	0.236	0.239
-259.180	-18.646	0.370	0.229
-258.165	43.095	0.123	-0.111
-257.151	-106.601	-0.521	0.115
-256.136	199.671	0.088	-0.134
-255.122	-200.000	0.103	-0.486
-254.107	-128.472	-0.232	-0.033
-253.092	-62.073	-0.076	0.031
-252.078	78.082	-0.055	-0.058
-251.063	5.945	0.078	-0.057
-250.049	800.000	0.011	0.033
-249.034	-89.334	0.161	0.047
-248.019	-89.844	-0.175	-0.051
-247.005	-200.000	-0.074	-0.451
-245.990	800.000	-0.018	-0.055
-244.976	-59.790	-0.231	-0.098
-243.961	21.099	0.339	-0.273
-242.946	-57.242	-0.275	-0.120
-241.932	-200.000	0.025	0.278
-240.917	800.000	0.047	0.147
-239.903	-200.000	0.031	-0.198
-238.888	-200.000	-0.023	-0.343
-237.873	800.000	0.052	-0.160
-236.859	-131.199	-0.024	0.003
-235.844	-133.423	0.158	0.020
-234.830	-51.045	0.216	-0.100
-233.815	-200.000	-0.028	-0.293
-232.800	165.502	0.117	0.163
-231.786	800.000	-0.037	0.138
-230.771	-61.347	0.173	0.072
-229.757	151.723	-0.142	0.192
-228.742	-21.804	-0.190	-0.114
-227.727	-119.167	-0.270	0.047
-226.713	357.688	0.053	0.104
-225.698	238.374	-0.199	-0.328
-224.684	72.372	-0.149	-0.153
-223.669	800.000	0.029	-0.105
-222.655	-164.985	-0.120	-0.005
-221.640	225.907	-0.017	0.028
-220.625	-66.467	0.052	0.020
-219.611	30.743	-0.136	0.116
-218.596	800.000	0.041	-0.151
-217.582	-35.220	-0.453	0.244
-216.567	53.041	-0.381	-0.361
-215.552	101.181	-0.262	0.302
-214.538	156.995	-0.271	-0.372
-213.523	-200.000	-0.009	-0.199
-212.509	-73.724	-0.145	-0.052
-211.494	467.748	0.024	-0.053
-210.479	252.477	-0.089	0.151
-209.465	-86.187	-0.171	-0.052
-208.450	45.069	-0.298	-0.272
-207.436	90.865	0.228	-0.253
-206.421	-109.686	-0.140	0.029
-205.406	-200.000	0.023	-0.240
-204.392	-126.367	0.282	-0.042
-203.377	800.000	0.066	0.245
-202.363	-27.640	0.146	-0.084
-201.348	149.179	0.141	-0.189
-200.333	208.613	0.194	0.301
-199.319	-16.182	-0.048	-0.030
-198.304	107.189	-0.075	0.088
-197.290	800.000	-0.053	0.212
-196.275	156.758	0.155	-0.212
-195.260	785.836	0.131	-0.355
-194.246	270.233	0.050	0.087
-193.231	-128.977	-0.068	0.009
-192.217	-200.000	0.015	-0.169
-191.202	-146.873	0.218	-0.019
-190.187	-200.000	-0.044	0.288
-189.173	372.179	0.097	0.194
-188.158	-44.066	0.163	0.081
-187.144	49.457	0.151	0.141
-186.129	-79.069	-0.240	-0.081
-185.114	264.957	-0.057	0.099
-184.100	800.000	-0.015	-0.062
-183.085	-41.491	-0.226	-0.115
-182.071	19.987	0.072	0.058
-181.056	-117.997	0.307	-0.054
-180.042	-70.933	-0.059	-0.022
-179.027	-120.899	-0.123	0.020
-178.012	-116.274	-0.066	0.012
-176.998	800.000	0.080	-0.302
-175.983	26.887	0.175	-0.145
-174.969	-200.000	-0.034	-0.159
-173.954	-200.000	0.049	-0.233
-172.939	-122.383	-0.366	0.059
-171.925	-158.433	-0.169	0.010
-170.910	-200.000	0.002	0.157
-169.896	-200.000	-0.000	-0.058
-168.881	-10.759	0.056	-0.037
-167.866	32.508	0.233	0.200
-166.852	-25.908	-0.428	0.249
-165.837	-52.753	-0.185	0.084
-164.823	355.650	0.119	-0.234
-163.808	190.605	-0.138	-0.206
-162.793	79.660	0.188	0.200
-161.779	-95.835	-0.197	-0.052
-160.764	-32.497	-0.180	0.099
-159.750	800.000	0.043	0.173
-158.735	131.751	-0.115	0.146
-157.720	800.000	0.077	-0.233
-156.706	800.000	0.030	-0.088
-155.691	-156.500	0.254	0.016
-154.677	-16.170	0.093	0.058
-153.662	124.297	-0.173	-0.215
-152.647	-129.979	0.515	0.070
-151.633	-200.000	0.004	0.145
-150.618	51.442	-0.220	0.206
-149.604	227.808	0.124	-0.200
-148.589	53.531	0.114	-0.108
-147.574	575.282	-0.060	0.146
-146.560	227.500	-0.173	0.278
-145.545	-84.864	-0.165	0.051
-144.531	-20.253	0.130	0.079
-143.516	-4.513	-0.151	-0.103
-142.502	-20.330	-0.157	0.095
-141.487	-3.844	0.128	0.088
-140.472	-200.000	-0.053	-0.328
-139.458	264.254	0.139	0.238
-138.443	800.000	0.014	0.049
-137.429	212.255	-0.076	0.118
-136.414	-105.167	0.254	-0.057
-135.399	-26.049	0.049	0.029
-134.385	-44.520	0.168	-0.083
-133.370	25.339	-0.099	-0.081
-132.356	87.198	-0.082	0.089
-131.341	-1.246	-0.186	0.130
-130.326	783.229	-0.034	-0.091
-129.312	57.532	0.032	-0.031
-128.297	5.670	-0.166	-0.121
-127.283	79.145	0.139	-0.147
-126.268	85.271	0.190	0.206
-125.253	-166.898	-0.252	-0.010
-124.239	-81.030	0.348	-0.114
-123.224	56.912	0.171	-0.165
-122.210	76.093	-0.082	0.086
-121.195	111.439	-0.205	-0.244
