DTS Sentinel unit serial number:	SN413079Multiplexer serial number:	ORYXHardware model number:	OX4-SRSoftware version number:	ORYX F/W v4.00 Oryx Data Collector v3.7.2.0data status	okinstallation	princeton_trtdifferential loss correction	single-endedforward channel	channel 3reverse channel	N/Adate	2019/09/18time	07:40:35forward acquisition time	60.00reverse acquisition time	0.00gamma	496.2192k internal	0.2343k external	0.2343temperature offset calibration	0.9946default loss term (dB/km)	0.3790temperature slope calibration	1.0000multiplexer offset coefficient	1.0000multiplexer slope coefficient	1.0000fibre end	0.00T internal ref (°C)	23.25T ext. ref 1 (°C)	0.20T ext. ref 2 (°C)	17.94length (m)	temperature (°C)	Stokes	anti-Stokes-747.200	-131.493	0.172	0.023
-746.185	-139.167	-0.336	-0.036
-745.171	-200.000	-0.008	0.115
-744.156	-9.548	0.072	0.048
-743.142	-24.515	-0.186	0.111
-742.127	-150.897	-0.294	0.022
-741.112	214.186	0.143	0.227
-740.098	-200.000	-0.002	0.212
-739.083	69.489	0.145	0.149
-738.069	13.583	-0.320	0.249
-737.054	-75.043	0.086	-0.031
-736.039	52.849	-0.419	-0.401
-735.025	44.244	0.219	-0.201
-734.010	-87.592	0.029	0.009
-732.996	-109.162	-0.123	-0.026
-731.981	36.659	0.179	-0.158
-730.966	-92.298	-0.292	0.082
-729.952	-59.553	-0.073	-0.031
-728.937	-61.053	0.210	-0.089
-727.923	-22.223	-0.370	-0.225
-726.908	-121.236	-0.238	0.040
-725.894	-44.756	-0.323	-0.161
-724.879	-200.000	-0.257	0.000
-723.864	42.870	-0.012	-0.011
-722.850	-200.000	-0.010	-0.245
-721.835	-102.153	-0.030	0.007
-720.821	-19.209	0.254	-0.158
-719.806	378.177	-0.152	-0.312
-718.791	132.501	-0.260	-0.336
-717.777	14.461	-0.167	0.131
-716.762	500.631	0.052	-0.119
-715.748	-123.515	0.518	-0.082
-714.733	123.469	-0.039	-0.048
-713.718	-12.898	-0.040	0.026
-712.704	-200.000	-0.019	0.169
-711.689	186.206	0.107	0.158
-710.675	800.000	0.079	-0.227
-709.660	-87.996	-0.174	-0.052
-708.645	-26.523	0.197	0.115
-707.631	-44.447	0.266	-0.133
-706.616	800.000	-0.035	-0.111
-705.602	-61.881	-0.202	0.084
-704.587	-34.442	0.257	-0.141
-703.572	-134.707	-0.298	0.036
-702.558	112.701	0.031	-0.037
-701.543	-88.491	0.215	0.064
-700.529	660.046	-0.019	-0.048
-699.514	-65.402	-0.098	0.039
-698.499	-71.364	0.298	-0.111
-697.485	83.673	0.096	0.104
-696.470	-91.495	-0.094	-0.027
-695.456	-173.385	-0.180	-0.005
-694.441	255.618	0.140	-0.239
-693.426	98.092	-0.094	0.108
-692.412	56.196	-0.149	0.144
-691.397	-105.375	-0.381	-0.087
-690.383	-37.014	-0.253	-0.135
-689.368	800.000	0.156	-0.436
-688.354	-110.826	0.249	0.051
-687.339	590.421	-0.080	-0.196
-686.324	481.993	0.113	-0.257
-685.310	6.067	0.069	0.051
-684.295	-200.000	-0.014	-0.282
-683.281	505.629	-0.110	-0.255
-682.266	-200.000	0.002	-0.162
-681.251	179.714	-0.196	-0.287
-680.237	-118.798	0.386	-0.068
-679.222	-200.000	0.004	0.106
-678.208	463.719	0.167	0.374
-677.193	136.961	-0.168	-0.220
-676.178	-118.515	-0.192	0.034
-675.164	-200.000	-0.045	-0.294
-674.149	365.602	0.078	0.156
-673.135	-36.964	0.129	0.069
-672.120	-103.087	0.047	-0.011
-671.105	-200.000	-0.013	-0.110
-670.091	-120.881	-0.361	-0.061
-669.076	-6.280	0.333	-0.227
-668.062	-200.000	0.130	-0.001
-667.047	725.668	0.061	0.161
-666.032	-32.702	-0.061	-0.034
-665.018	35.245	-0.111	0.097
-664.003	56.194	-0.106	-0.102
-662.989	606.995	-0.023	-0.058
-661.974	14.855	0.120	0.094
-660.959	-43.476	-0.183	0.092
-659.945	-36.237	0.226	-0.122
-658.930	-104.812	-0.297	-0.068
-657.916	-200.000	0.001	0.168
-656.901	-200.000	-0.036	-0.340
-655.886	-119.357	0.075	-0.013
-654.872	29.236	-0.041	0.035
-653.857	185.430	-0.072	-0.107
-652.843	-200.000	0.029	-0.246
-651.828	695.375	0.211	0.553
-650.814	800.000	0.034	0.107
-649.799	-71.181	-0.351	0.131
-648.784	84.183	-0.329	-0.359
-647.770	41.751	0.170	-0.154
-646.755	-77.885	0.140	0.048
-645.741	-173.399	0.101	0.003
-644.726	-86.446	-0.117	0.036
-643.711	800.000	-0.017	0.047
-642.697	800.000	-0.027	0.097
-641.682	-146.619	0.309	0.027
-640.668	59.135	0.238	0.234
-639.653	-200.000	-0.058	-0.282
-638.638	11.235	-0.176	0.134
-637.624	-168.414	0.312	-0.012
-636.609	-200.000	-0.034	0.152
-635.595	71.187	-0.079	-0.082
-634.580	-200.000	-0.001	0.026
-633.565	-125.819	-0.093	-0.014
-632.551	-200.000	-0.028	-0.138
-631.536	23.214	-0.121	0.099
-630.522	465.542	0.030	0.067
-629.507	800.000	-0.077	-0.304
-628.492	-93.119	-0.186	-0.052
-627.478	-78.380	0.176	0.060
-626.463	-152.186	-0.229	0.017
-625.449	-200.000	0.005	-0.098
-624.434	154.036	0.128	-0.175
-623.419	-67.294	-0.109	0.043
-622.405	162.770	0.129	0.181
-621.390	491.221	-0.120	0.274
-620.376	251.211	0.150	-0.255
-619.361	-200.000	-0.013	0.232
-618.346	-124.590	0.268	-0.041
-617.332	-200.000	-0.031	0.407
-616.317	-200.000	-0.069	0.507
-615.303	-49.988	0.119	0.056
-614.288	105.331	0.210	-0.247
-613.273	365.605	-0.102	-0.205
-612.259	84.208	0.088	-0.096
-611.244	332.264	-0.236	0.454
-610.230	-59.814	-0.299	0.127
-609.215	781.710	-0.070	0.191
-608.201	218.104	-0.078	0.125
-607.186	-76.555	0.211	-0.074
-606.171	-187.273	0.447	-0.006
-605.157	56.612	-0.185	0.179
-604.142	-19.726	-0.354	-0.218
-603.128	-200.000	-0.003	-0.078
-602.113	-62.606	-0.215	-0.089
-601.098	-200.000	0.007	-0.222
-600.084	-200.000	-0.050	0.245
-599.069	-140.578	0.248	0.026
-598.055	322.803	0.187	-0.354
-597.040	32.279	0.261	0.224
-596.025	800.000	0.054	-0.192
-595.011	-66.151	-0.189	0.075
-593.996	800.000	0.042	0.132
-592.982	-107.592	-0.158	0.034
-591.967	191.881	0.021	0.032
-590.952	-24.855	-0.066	-0.039
-589.938	800.000	-0.013	0.051
-588.923	270.083	-0.097	-0.170
-587.909	-66.897	-0.198	-0.078
-586.894	287.083	0.131	0.236
-585.879	-200.000	-0.002	0.038
-584.865	-196.293	-0.139	-0.001
-583.850	-200.000	0.054	0.315
-582.836	265.281	0.142	0.247
-581.821	-91.792	0.529	-0.149
-580.806	-88.726	0.262	-0.077
-579.792	245.807	0.160	0.268
-578.777	-119.790	-0.224	0.038
-577.763	-47.563	0.135	-0.065
-576.748	-49.477	-0.200	0.095
-575.733	800.000	0.094	0.325
-574.719	-200.000	0.010	-0.283
-573.704	-127.557	-0.106	-0.015
-572.690	99.796	-0.124	0.143
-571.675	90.057	0.198	0.221
-570.661	116.544	-0.145	-0.176
-569.646	6.067	0.245	-0.180
-568.631	-51.210	0.166	0.077
-567.617	800.000	0.042	-0.120
-566.602	-200.000	-0.040	-0.468
-565.588	-64.880	-0.273	-0.110
-564.573	-200.000	0.061	-0.265
-563.558	-125.017	0.101	-0.015
-562.544	800.000	0.033	-0.102
-561.529	37.606	-0.146	-0.129
-560.515	54.879	0.074	-0.071
-559.500	-200.000	0.007	0.278
-558.485	662.092	-0.132	0.339
-557.471	-200.000	-0.029	0.214
-556.456	-111.904	0.283	-0.057
-555.442	-171.657	0.377	0.012
-554.427	-200.000	-0.434	0.002
-553.412	800.000	-0.009	-0.040
-552.398	-93.893	0.142	0.039
-551.383	-41.641	0.208	0.106
-550.369	-200.000	0.041	0.379
-549.354	-33.202	-0.116	0.064
-548.339	-24.526	-0.261	-0.154
-547.325	115.181	-0.026	-0.032
-546.310	68.719	0.195	-0.198
-545.296	511.294	-0.112	-0.259
-544.281	-124.673	-0.242	-0.037
-543.266	47.206	-0.381	0.353
-542.252	51.755	0.211	0.199
-541.237	131.626	-0.116	0.148
-540.223	31.140	0.210	-0.179
-539.208	75.850	0.283	-0.297
-538.193	45.201	-0.251	-0.230
-537.179	-200.000	0.049	-0.290
-536.164	301.138	-0.156	0.286
-535.150	-86.304	0.259	0.079
-534.135	-85.815	0.256	-0.079
-533.121	437.484	-0.159	0.343
-532.106	58.198	-0.065	0.063
-531.091	216.515	0.044	0.070
-530.077	-19.710	-0.060	-0.037
-529.062	-29.390	-0.231	-0.131
-528.048	-108.117	0.124	-0.027
-527.033	-72.956	-0.238	0.087
-526.018	-5.902	0.066	-0.045
-525.004	-125.234	-0.225	-0.034
-523.989	-200.000	-0.004	-0.085
-522.975	266.262	0.220	-0.380
-521.960	532.209	-0.064	0.151
-520.945	259.098	-0.034	-0.058
-519.931	560.505	0.107	-0.257
-518.916	410.091	0.040	0.084
-517.902	123.875	-0.084	0.105
-516.887	651.623	-0.048	0.123
-515.872	800.000	-0.067	-0.266
-514.858	-107.233	0.248	-0.054
-513.843	302.315	0.168	-0.308
-512.829	-200.000	0.019	-0.309
-511.814	-114.990	0.271	0.051
-510.799	-200.000	0.010	0.140
-509.785	-183.286	0.132	-0.002
-508.770	800.000	-0.015	0.046
-507.756	87.106	-0.050	0.055
-506.741	8.337	0.181	0.135
-505.726	236.169	0.084	-0.137
-504.712	37.810	0.244	0.215
-503.697	437.315	0.031	0.068
-502.683	-200.000	0.005	-0.083
-501.668	-200.000	-0.052	0.306
-500.653	-123.472	0.197	0.031
-499.639	47.158	-0.144	-0.133
-498.624	139.375	-0.160	0.209
-497.610	36.164	-0.130	-0.114
-496.595	76.136	0.075	0.079
-495.581	-98.164	-0.177	-0.045
-494.566	-200.000	0.063	0.284
-493.551	-129.762	-0.186	-0.025
-492.537	-80.942	-0.092	-0.030
-491.522	315.269	-0.099	0.184
-490.508	40.894	0.186	-0.167
-489.493	-104.175	-0.066	0.015
-488.478	-96.789	0.067	0.018
-487.464	198.232	-0.104	-0.157
-486.449	180.221	-0.182	0.264
-485.435	-200.000	-0.025	0.133
-484.420	-159.361	-0.202	-0.011
-483.405	-151.889	-0.091	-0.007
-482.391	-200.000	-0.075	0.339
-481.376	-200.000	-0.004	0.380
-480.362	418.240	-0.074	0.156
-479.347	-21.574	0.088	-0.053
-478.332	-200.000	0.076	0.477
-477.318	-102.706	-0.047	-0.011
-476.303	159.823	0.143	0.198
-475.289	276.495	0.083	0.147
-474.274	-200.000	0.034	-0.316
-473.259	-200.000	-0.002	0.026
-472.245	-151.606	0.271	-0.020
-471.230	-200.000	0.005	0.054
-470.216	-97.964	-0.195	-0.050
-469.201	110.997	0.121	-0.144
-468.186	69.132	0.082	0.084
-467.172	-127.032	-0.362	-0.053
-466.157	96.394	-0.312	-0.353
-465.143	-105.192	0.154	-0.035
-464.128	713.970	0.100	0.262
-463.113	7.897	0.171	-0.127
-462.099	-200.000	0.003	0.161
-461.084	-106.613	0.196	0.043
-460.070	556.397	0.057	-0.135
-459.055	135.761	-0.234	0.302
-458.040	-104.671	-0.224	0.051
-457.026	5.789	0.085	0.063
-456.011	-200.000	-0.046	0.236
-454.997	106.868	-0.133	0.156
-453.982	22.844	0.150	0.122
-452.968	-200.000	-0.014	0.324
-451.953	-47.062	0.249	-0.120
-450.938	22.117	-0.129	-0.104
-449.924	-200.000	-0.037	0.179
-448.909	72.011	0.198	0.204
-447.895	120.474	-0.210	0.258
-446.880	128.051	-0.012	0.015
-445.865	-54.437	-0.150	0.067
-444.851	-46.838	0.174	0.084
-443.836	208.785	-0.019	0.029
-442.822	800.000	0.044	-0.131
-441.807	800.000	0.062	0.208
-440.792	39.154	0.359	0.317
-439.778	20.563	0.083	0.066
-438.763	800.000	-0.079	0.262
-437.749	-174.902	0.055	0.002
-436.734	33.304	-0.333	0.286
-435.719	800.000	0.081	0.235
-434.705	-47.919	-0.133	0.064
-433.690	800.000	-0.085	0.252
-432.676	35.004	0.164	-0.142
-431.661	800.000	0.051	-0.145
-430.646	102.285	0.146	-0.169
-429.632	-200.000	0.017	-0.276
-428.617	-3.021	0.144	-0.100
-427.603	-46.540	0.317	-0.154
-426.588	-88.398	-0.098	-0.029
-425.573	-200.000	-0.318	-0.001
-424.559	301.886	0.056	0.102
-423.544	-86.246	0.263	-0.080
-422.530	20.017	-0.271	-0.216
-421.515	658.990	0.107	-0.273
-420.500	-73.346	0.214	-0.077
-419.486	-32.091	-0.087	0.048
-418.471	165.003	0.183	-0.255
-417.457	147.215	-0.116	-0.155
-416.442	-200.000	0.039	0.170
-415.428	357.093	0.021	0.041
-414.413	-26.494	0.351	0.204
-413.398	381.542	-0.051	-0.103
-412.384	-115.970	-0.247	-0.046
-411.369	-18.505	-0.017	-0.011
-410.355	220.783	-0.003	0.005
-409.340	61.129	-0.120	-0.117
-408.325	-200.000	0.076	-0.457
-407.311	-16.690	0.245	0.153
-406.296	-200.000	0.006	-0.332
-405.282	-189.399	-0.239	-0.003
-404.267	26.560	-0.163	-0.135
-403.252	546.508	-0.054	0.128
-402.238	-200.000	0.028	-0.132
-401.223	-155.255	0.229	0.015
-400.209	-55.572	0.184	0.081
-399.194	800.000	-0.095	-0.301
-398.179	-200.000	0.023	0.182
-397.165	-52.062	0.175	0.080
-396.150	132.214	-0.165	-0.209
-395.136	-12.284	-0.148	0.096
-394.121	19.347	-0.323	0.257
-393.106	-42.148	0.047	-0.024
-392.092	-115.724	0.550	0.102
-391.077	131.371	-0.301	0.383
-390.063	-200.000	-0.013	-0.233
-389.048	173.330	-0.232	-0.330
-388.033	-150.743	-0.258	0.019
-387.019	6.269	-0.108	-0.079
-386.004	0.772	0.130	-0.092
-384.990	-129.274	-0.501	0.069
-383.975	200.251	0.202	-0.307
-382.960	154.828	0.161	0.219
-381.946	-166.474	0.351	0.014
-380.931	-12.452	-0.489	0.315
-379.917	153.778	-0.140	0.189
-378.902	609.049	-0.088	-0.217
-377.888	-82.143	-0.328	-0.106
-376.873	4.998	0.339	0.246
-375.858	-200.000	-0.029	0.180
-374.844	-136.599	-0.230	0.026
-373.829	46.185	0.033	-0.030
-372.815	70.350	0.056	-0.057
-371.800	-87.690	0.281	-0.084
-370.785	225.162	0.031	0.049
-369.771	-41.444	-0.132	0.067
-368.756	-121.546	-0.075	0.012
-367.742	-124.029	-0.217	-0.034
-366.727	-91.841	0.280	-0.078
-365.712	-149.364	-0.044	-0.003
-364.698	487.597	0.044	0.100
-363.683	434.939	0.031	0.066
-362.669	118.336	-0.122	0.149
-361.654	175.002	-0.147	0.210
-360.639	68.025	0.088	-0.089
-359.625	-104.544	0.176	0.040
-358.610	-105.220	0.491	-0.111
-357.596	-200.000	0.040	-0.308
-356.581	23.193	-0.353	-0.286
-355.566	245.122	-0.261	0.433
-354.552	800.000	0.087	-0.240
-353.537	103.191	-0.083	0.096
-352.523	800.000	-0.099	-0.311
-351.508	800.000	0.088	0.368
-350.493	149.307	0.127	0.170
-349.479	387.969	-0.105	-0.214
-348.464	326.740	0.104	0.197
-347.450	-200.000	0.014	0.370
-346.435	234.081	-0.184	-0.300
-345.420	-109.962	0.370	-0.076
-344.406	-82.854	-0.164	0.052
-343.391	0.448	-0.434	0.306
-342.377	92.130	0.208	-0.231
-341.362	11.771	0.091	-0.069
-340.348	-200.000	0.006	0.367
-339.333	-200.000	-0.038	0.244
-338.318	97.673	-0.143	-0.162
-337.304	800.000	0.144	-0.394
-336.289	-10.249	0.121	-0.079
-335.275	-200.000	-0.000	-0.234
-334.260	-200.000	-0.020	-0.181
-333.245	73.002	0.246	0.254
-332.231	-155.735	0.324	-0.020
-331.216	-200.000	-0.010	0.053
-330.202	-99.592	-0.404	-0.100
-329.187	55.591	0.139	0.133
-328.172	-200.000	0.086	-0.460
-327.158	-200.000	0.000	0.109
-326.143	41.516	0.135	-0.120
-325.129	449.335	-0.179	-0.388
-324.114	-45.583	-0.080	-0.039
-323.099	-144.863	0.414	0.037
-322.085	-22.706	-0.193	0.115
-321.070	604.339	-0.037	-0.092
-320.056	-90.202	-0.216	-0.062
-319.041	-132.122	0.318	-0.041
-318.026	110.914	-0.342	-0.405
-317.012	-200.000	-0.028	-0.210
-315.997	406.849	0.094	-0.195
-314.983	-24.603	-0.092	-0.054
-313.968	191.704	-0.103	-0.152
-312.953	-104.070	0.175	-0.040
-311.939	-134.550	-0.122	-0.015
-310.924	-95.295	0.056	0.015
-309.910	-102.314	-0.386	0.091
-308.895	398.134	0.180	0.372
-307.880	235.343	0.067	0.109
-306.866	-85.003	0.154	-0.048
-305.851	-34.413	-0.235	-0.127
-304.837	800.000	0.043	0.156
-303.822	-7.419	-0.366	-0.244
-302.807	-55.999	0.274	0.120
-301.793	107.429	-0.176	-0.205
-300.778	24.485	-0.091	0.074
-299.764	-67.992	0.205	0.079
-298.749	-200.000	0.039	0.175
-297.735	-79.592	-0.068	-0.023
-296.720	74.138	-0.187	0.193
-295.705	800.000	0.014	-0.052
-294.691	64.628	-0.146	-0.145
-293.676	-96.991	-0.216	-0.056
-292.662	-200.000	0.015	0.088
-291.647	6.603	0.215	0.157
-290.632	-128.807	-0.307	0.043
-289.618	4.547	-0.214	0.154
-288.603	-102.049	0.265	0.063
-287.589	-93.671	0.201	-0.055
-286.574	165.262	-0.187	-0.260
-285.559	213.505	-0.158	-0.246
-284.545	-84.808	-0.348	0.108
-283.530	129.417	-0.140	-0.175
-282.516	-177.933	0.225	0.005
-281.501	197.237	0.021	0.032
-280.486	-62.683	0.060	0.024
-279.472	-200.000	-0.059	-0.261
-278.457	177.144	-0.137	-0.196
-277.443	108.688	0.062	0.073
-276.428	-7.430	0.319	-0.212
-275.413	800.000	0.076	0.273
-274.399	343.171	0.121	0.233
-273.384	212.157	0.085	0.131
-272.370	800.000	0.030	0.122
-271.355	-59.724	-0.263	-0.111
-270.340	17.186	-0.071	-0.056
-269.326	-13.038	0.340	0.217
-268.311	-4.124	-0.198	-0.135
-267.297	-200.000	-0.019	-0.153
-266.282	222.813	0.208	-0.330
-265.267	-61.134	0.099	0.041
-264.253	-163.639	-0.139	0.006
-263.238	-115.714	0.314	-0.058
-262.224	579.407	-0.074	-0.178
-261.209	-200.000	-0.002	-0.166
-260.195	-200.000	0.022	0.172
-259.180	202.053	-0.168	-0.254
-258.165	36.795	-0.302	-0.263
-257.151	136.371	-0.214	0.274
-256.136	-200.000	-0.008	0.154
-255.122	-82.077	-0.100	-0.032
-254.107	800.000	0.076	-0.266
-253.092	-121.866	0.147	0.024
-252.078	61.655	0.140	-0.137
-251.063	170.788	-0.167	0.235
-250.049	-68.759	0.444	-0.168
-249.034	-200.000	0.033	0.320
-248.019	36.578	-0.142	-0.123
-247.005	-25.171	-0.349	-0.203
-245.990	91.974	0.108	-0.119
-244.976	345.631	-0.189	-0.364
-243.961	-106.160	-0.202	-0.045
-242.946	4.074	-0.259	0.186
-241.932	-100.326	-0.329	0.080
-240.917	474.554	-0.085	0.188
-239.903	800.000	0.018	-0.055
-238.888	-82.544	0.255	-0.081
-237.873	-200.000	-0.037	-0.163
-236.859	800.000	-0.102	-0.338
-235.844	244.862	0.097	0.161
-234.830	-31.133	0.192	-0.106
-233.815	-200.000	0.004	-0.336
-232.800	-200.000	0.040	-0.267
-231.786	-200.000	0.008	-0.097
-230.771	-79.428	0.211	-0.070
-229.757	1.278	0.269	0.190
-228.742	343.011	-0.091	0.175
-227.727	-140.562	-0.077	0.008
-226.713	161.186	0.047	-0.064
-225.698	-99.577	-0.080	-0.020
-224.684	-200.000	0.027	0.193
-223.669	-200.000	-0.007	-0.201
-222.655	-127.718	0.148	0.021
-221.640	399.233	-0.121	-0.249
-220.625	-17.947	0.344	0.212
-219.611	162.380	-0.023	0.032
-218.596	800.000	-0.020	0.069
-217.582	233.704	0.161	0.259
-216.567	114.030	-0.083	0.100
-215.552	-64.174	-0.372	-0.149
-214.538	-60.557	-0.116	-0.048
-213.523	-98.019	0.164	-0.041
-212.509	-200.000	-0.006	-0.547
-211.494	-200.000	-0.015	0.315
-210.479	-37.193	-0.062	-0.033
-209.465	76.047	-0.124	-0.128
-208.450	800.000	0.003	0.010
-207.436	-57.258	0.273	-0.118
-206.421	48.714	0.172	-0.158
-205.406	-200.000	0.033	-0.178
-204.392	-135.857	0.075	0.009
-203.377	80.898	0.064	-0.067
-202.363	340.174	0.074	-0.142
-201.348	576.403	0.053	-0.128
-200.333	129.623	0.063	-0.079
-199.319	179.766	-0.086	0.124
-198.304	2.077	0.334	-0.236
-197.290	-200.000	0.065	-0.292
-196.275	103.841	-0.101	-0.116
-195.260	-95.585	-0.276	-0.073
-194.246	-146.278	0.293	-0.025
-193.231	-65.090	0.342	-0.135
-192.217	-153.258	0.267	0.018
-191.202	-200.000	-0.009	0.073
-190.187	-54.402	-0.331	0.147
-189.173	81.282	-0.145	-0.153
-188.158	-106.234	0.140	0.031
-187.144	-200.000	0.021	-0.148
-186.129	-148.084	-0.242	0.020
-185.114	721.308	0.171	0.447
-184.100	-46.241	0.116	0.056
-183.085	90.580	0.153	0.168
-182.071	599.448	0.084	-0.203
-181.056	101.251	-0.268	-0.305
-180.042	550.976	-0.069	0.163
-179.027	-119.985	-0.351	-0.059
-178.012	51.469	0.103	-0.096
-176.998	541.262	-0.100	-0.233
-175.983	-200.000	0.051	-0.338
-174.969	800.000	0.071	-0.253
-173.954	162.066	-0.070	0.097
-172.939	-200.000	-0.026	0.307
-171.925	-7.610	0.237	-0.157
-170.910	800.000	-0.043	0.118
-169.896	14.590	0.201	-0.153
-168.881	-124.622	-0.277	-0.042
-167.866	40.676	0.166	0.147
-166.852	-46.051	0.107	0.052
-165.837	16.701	0.056	0.044
-164.823	141.700	-0.169	0.219
-163.808	741.379	0.059	0.156
-162.793	3.338	-0.141	0.101
-161.779	438.395	-0.144	0.307
-160.764	182.555	0.047	-0.068
-159.750	511.421	0.081	-0.184
-158.735	-200.000	-0.007	0.400
-157.720	-200.000	0.011	0.318
-156.706	76.210	-0.183	0.190
-155.691	119.744	-0.018	-0.022
-154.677	800.000	0.049	-0.169
-153.662	412.139	0.125	0.260
-152.647	800.000	-0.033	0.105
-151.633	30.152	-0.192	0.161
-150.618	-200.000	0.035	0.353
-149.604	-18.255	-0.142	0.087
-148.589	-26.462	0.330	0.189
-147.574	290.728	0.199	-0.354
-146.560	800.000	0.040	0.144
-145.545	-200.000	-0.023	0.138
-144.531	-4.300	-0.238	0.161
-143.516	-200.000	-0.064	0.340
-142.502	-46.267	0.309	0.149
-141.487	-24.499	0.202	0.118
-140.472	654.788	0.085	-0.212
-139.458	-114.461	0.283	-0.053
-138.443	631.872	0.094	0.232
-137.429	30.578	0.147	0.123
-136.414	329.655	0.104	0.196
-135.399	22.060	0.215	0.171
-134.385	-200.000	-0.009	0.042
-133.370	29.734	-0.278	0.231
-132.356	-198.445	0.595	-0.003
-131.341	558.317	0.081	0.191
-130.326	800.000	-0.042	-0.170
-129.312	-162.565	-0.140	0.007
-128.297	169.055	0.165	-0.230
-127.283	-8.270	-0.242	-0.159
-126.268	35.028	-0.197	0.169
-125.253	340.602	0.154	-0.293
-124.239	-91.186	0.265	0.074
-123.224	-14.879	0.239	-0.150
-122.210	131.719	-0.300	0.378
-121.195	133.024	-0.120	0.152
