DTS Sentinel unit serial number:	SN413079Multiplexer serial number:	ORYXHardware model number:	OX4-SRSoftware version number:	ORYX F/W v4.00 Oryx Data Collector v3.7.2.0data status	okinstallation	princeton_trtdifferential loss correction	single-endedforward channel	channel 3reverse channel	N/Adate	2019/09/12time	18:09:04forward acquisition time	15.00reverse acquisition time	0.00gamma	496.2192k internal	0.2317k external	0.2317temperature offset calibration	1.0093default loss term (dB/km)	0.3790temperature slope calibration	1.0000multiplexer offset coefficient	1.0000multiplexer slope coefficient	1.0000fibre end	0.00T internal ref (°C)	33.62T ext. ref 1 (°C)	3.04T ext. ref 2 (°C)	28.18length (m)	temperature (°C)	Stokes	anti-Stokes-747.200	-165.065	0.338	-0.015
-746.185	-200.000	0.065	0.328
-745.171	-200.000	-0.007	-0.267
-744.156	155.797	0.345	-0.482
-743.142	-200.000	-0.055	-0.265
-742.127	21.748	-0.411	0.339
-741.112	10.705	0.299	0.231
-740.098	-128.177	0.923	0.134
-739.083	266.742	0.302	-0.535
-738.069	-25.482	0.702	-0.420
-737.054	-83.284	-0.405	-0.132
-736.039	12.433	0.668	-0.521
-735.025	36.003	-0.267	0.238
-734.010	387.987	0.141	-0.296
-732.996	-200.000	0.013	-0.085
-731.981	18.053	0.162	0.131
-730.966	-63.333	0.516	-0.215
-729.952	-176.461	0.520	-0.014
-728.937	-200.000	-0.122	-0.737
-727.923	188.168	0.413	-0.625
-726.908	-51.216	-0.317	-0.150
-725.894	800.000	0.160	-0.501
-724.879	18.332	0.664	0.536
-723.864	-158.153	-0.654	0.039
-722.850	90.941	-0.386	0.437
-721.835	-116.972	-0.536	0.099
-720.821	-102.070	0.539	0.131
-719.806	292.648	-0.307	-0.567
-718.791	-200.000	0.038	0.244
-717.777	-107.483	-0.596	0.132
-716.762	-200.000	0.020	0.117
-715.748	800.000	-0.215	-0.629
-714.733	-114.627	-0.101	0.020
-713.718	-43.921	-0.519	-0.264
-712.704	-99.338	-0.146	-0.037
-711.689	800.000	0.057	-0.168
-710.675	-64.167	-0.478	0.197
-709.660	-20.091	-0.367	0.229
-708.645	-120.062	-0.237	0.041
-707.631	-61.285	-0.462	-0.197
-706.616	6.042	-0.659	0.493
-705.602	-200.000	0.070	0.327
-704.587	-56.559	0.655	0.294
-703.572	-81.307	0.565	0.189
-702.558	-47.697	-0.388	0.190
-701.543	99.486	-0.306	0.358
-700.529	-181.320	-0.537	-0.011
-699.514	342.454	0.282	-0.558
-698.499	-82.644	-0.309	0.101
-697.485	-200.000	-0.043	-0.356
-696.470	-111.117	0.864	-0.179
-695.456	63.621	-0.665	-0.674
-694.441	99.756	-0.610	0.714
-693.426	-41.885	0.773	0.401
-692.412	63.362	-0.356	0.361
-691.397	37.220	0.230	0.206
-690.383	268.193	-0.279	0.495
-689.368	800.000	0.058	-0.226
-688.354	-35.781	-0.462	-0.253
-687.339	278.905	-0.474	0.854
-686.324	45.559	0.461	0.430
-685.310	115.348	0.240	0.296
-684.295	131.618	0.713	-0.926
-683.281	-52.297	0.691	-0.323
-682.266	144.642	-0.399	-0.538
-681.251	-16.860	-0.210	0.134
-680.237	-150.699	0.412	0.032
-679.222	-200.000	0.018	0.095
-678.208	533.154	0.256	-0.612
-677.193	-200.000	-0.068	-0.474
-676.178	-200.000	0.035	0.181
-675.164	800.000	-0.177	0.777
-674.149	109.069	0.436	0.526
-673.135	437.337	-0.100	0.221
-672.120	517.136	0.207	-0.488
-671.105	-200.000	0.021	-0.281
-670.091	-200.000	-0.004	0.240
-669.076	-83.334	-0.518	0.168
-668.062	-200.000	-0.033	0.246
-667.047	800.000	0.216	-0.769
-666.032	158.382	-0.583	0.817
-665.018	223.004	-0.167	-0.272
-664.003	168.016	0.366	-0.526
-662.989	327.032	0.239	-0.463
-661.974	97.931	-0.441	-0.512
-660.959	63.773	-0.598	0.607
-659.945	152.229	0.103	-0.142
-658.930	-152.068	-0.202	-0.015
-657.916	26.871	0.803	0.680
-656.901	800.000	0.157	0.448
-655.886	-13.069	0.821	0.539
-654.872	-154.109	-0.577	-0.039
-653.857	800.000	-0.175	-0.584
-652.843	200.585	-0.170	-0.263
-651.828	124.278	-0.069	0.088
-650.814	-32.293	-0.602	0.339
-649.799	-97.667	0.475	0.124
-648.784	-200.000	0.078	-0.821
-647.770	-200.000	-0.115	-0.808
-646.755	-200.000	0.038	-0.368
-645.741	74.746	-0.587	-0.624
-644.726	800.000	0.228	-0.666
-643.711	26.159	-0.703	-0.592
-642.697	108.125	0.261	-0.314
-641.682	343.705	0.133	0.263
-640.668	-200.000	-0.032	-0.750
-639.653	-131.105	-0.639	-0.086
-638.638	-173.274	0.427	0.013
-637.624	800.000	0.079	-0.237
-636.609	198.348	-0.081	-0.125
-635.595	-113.502	-0.366	0.072
-634.580	-129.131	0.465	-0.066
-633.565	-81.726	-0.237	-0.078
-632.551	-69.622	-0.213	-0.082
-631.536	-125.601	0.143	0.022
-630.522	-149.338	-0.508	-0.041
-629.507	-200.000	-0.087	-0.411
-628.492	-144.243	0.817	0.077
-627.478	469.778	-0.240	0.544
-626.463	269.267	0.128	0.226
-625.449	-69.760	-0.669	-0.258
-624.434	-12.537	-1.037	-0.682
-623.419	-149.629	0.424	0.034
-622.405	-200.000	-0.104	-0.588
-621.390	107.210	0.038	0.045
-620.376	-162.384	-0.256	-0.013
-619.361	513.054	-0.077	0.181
-618.346	-77.815	0.416	0.145
-617.332	800.000	-0.103	-0.364
-616.317	-139.059	0.651	-0.071
-615.303	-37.547	1.128	-0.606
-614.288	-122.826	0.665	-0.108
-613.273	-134.213	0.698	0.087
-612.259	-168.870	-0.541	-0.020
-611.244	213.850	0.224	0.357
-610.230	800.000	0.182	-0.765
-609.215	104.469	0.362	-0.430
-608.201	4.891	-0.574	0.425
-607.186	-200.000	-0.111	-0.000
-606.171	-82.971	-0.218	-0.071
-605.157	-166.363	-0.661	0.028
-604.142	-34.497	0.725	-0.400
-603.128	-7.599	-0.358	0.244
-602.113	-43.262	0.690	-0.352
-601.098	70.991	0.288	0.301
-600.084	-200.000	-0.109	-0.732
-599.069	-97.699	0.366	0.095
-598.055	-96.938	0.555	0.147
-597.040	-58.399	0.908	-0.397
-596.025	514.520	0.171	-0.402
-595.011	-200.000	0.144	-0.813
-593.996	-109.671	-0.786	0.167
-592.982	223.193	0.178	-0.289
-591.967	-1.592	0.602	-0.427
-590.952	800.000	-0.135	-0.479
-589.938	-200.000	-0.008	-0.504
-588.923	-200.000	-0.112	-0.892
-587.909	-200.000	-0.099	0.718
-586.894	-92.694	1.025	0.289
-585.879	-200.000	0.080	-0.364
-584.865	25.833	-0.431	0.362
-583.850	42.961	-0.649	-0.595
-582.836	145.786	-0.892	1.202
-581.821	-107.256	-0.743	0.165
-580.806	-200.000	0.015	-0.459
-579.792	482.390	-0.195	0.446
-578.777	-37.912	-0.222	-0.118
-577.763	-200.000	0.055	0.328
-576.748	224.548	-0.362	-0.589
-575.733	7.018	-0.450	-0.338
-574.719	603.291	0.176	0.441
-573.704	-145.846	0.214	-0.019
-572.690	184.724	-0.200	-0.297
-571.675	-31.032	-0.507	-0.288
-570.661	-60.486	0.517	0.221
-569.646	-82.521	-0.260	0.085
-568.631	2.739	0.315	-0.230
-567.617	-134.763	-1.016	0.124
-566.602	-200.000	-0.139	-1.011
-565.588	800.000	-0.128	-0.541
-564.573	-167.738	0.743	0.030
-563.558	-200.000	-0.147	0.647
-562.544	-2.489	0.099	0.070
-561.529	-158.557	-0.328	-0.019
-560.515	326.224	-0.510	0.982
-559.500	800.000	0.119	-0.373
-558.485	329.301	0.223	-0.430
-557.471	-118.316	0.604	0.108
-556.456	-200.000	-0.029	-0.437
-555.442	-118.109	0.802	0.144
-554.427	-200.000	-0.003	0.947
-553.412	-179.248	-1.159	-0.026
-552.398	-200.000	-0.088	0.989
-551.383	-8.319	0.376	0.254
-550.369	-200.000	-0.027	1.032
-549.354	13.063	-0.310	-0.241
-548.339	76.168	0.580	-0.617
-547.325	376.846	0.259	0.531
-546.310	-41.397	0.403	-0.209
-545.296	-200.000	-0.124	0.729
-544.281	-164.028	-0.669	0.031
-543.266	-198.397	-1.049	0.006
-542.252	-65.247	1.039	-0.420
-541.237	108.932	0.365	0.438
-540.223	397.656	0.171	-0.359
-539.208	-200.000	-0.066	-0.569
-538.193	27.630	-0.359	0.303
-537.179	103.154	-0.397	-0.468
-536.164	-163.189	0.452	-0.022
-535.150	-78.134	0.354	0.122
-534.135	-172.165	0.713	-0.023
-533.121	-111.906	-0.324	0.066
-532.106	-89.097	-0.378	0.112
-531.091	-200.000	-0.019	-0.226
-530.077	56.165	-0.304	0.297
-529.062	-46.966	0.409	-0.201
-528.048	296.518	0.687	1.266
-527.033	77.422	-0.714	0.763
-526.018	54.011	0.417	0.402
-525.004	330.923	-0.376	0.728
-523.989	-200.000	-0.146	0.935
-522.975	-200.000	0.039	-0.677
-521.960	-44.314	0.581	-0.292
-520.945	800.000	-0.114	0.460
-519.931	-26.297	-0.225	-0.133
-518.916	-146.468	-0.447	-0.039
-517.902	800.000	-0.180	0.539
-516.887	-46.036	-0.462	0.228
-515.872	-200.000	0.091	-0.511
-514.858	-140.673	0.419	0.043
-513.843	-200.000	-0.080	-0.540
-512.829	-200.000	0.061	-0.359
-511.814	-140.621	0.457	0.048
-510.799	-60.741	-1.326	-0.564
-509.785	-200.000	-0.030	-0.283
-508.770	-128.003	0.463	-0.067
-507.756	-134.557	-0.693	0.085
-506.741	-67.528	0.649	0.255
-505.726	-200.000	0.011	0.443
-504.712	800.000	0.127	-0.359
-503.697	69.623	-0.427	-0.441
-502.683	52.945	-0.760	-0.730
-501.668	-38.437	0.532	0.282
-500.653	-99.574	-0.608	0.153
-499.639	0.996	0.534	0.384
-498.624	800.000	-0.303	-0.878
-497.610	631.021	-0.096	-0.244
-496.595	144.424	-0.430	0.576
-495.581	-96.146	0.426	0.113
-494.566	306.822	-0.183	0.342
-493.551	-67.219	-0.680	-0.268
-492.537	-10.828	-0.410	0.272
-491.522	-200.000	0.013	0.463
-490.508	-101.180	-0.509	0.125
-489.493	-61.538	0.521	-0.219
-488.478	555.905	0.009	-0.022
-487.464	-41.753	0.384	0.197
-486.449	-104.471	0.166	-0.039
-485.435	-200.000	0.019	-0.143
-484.420	307.837	-0.078	-0.146
-483.405	-72.104	0.135	-0.050
-482.391	265.392	0.707	1.236
-481.376	800.000	-0.428	1.371
-480.362	-200.000	-0.046	1.065
-479.347	-21.256	-0.655	0.401
-478.332	-79.929	-0.314	0.106
-477.318	800.000	-0.123	0.361
-476.303	800.000	0.160	0.623
-475.289	87.360	0.386	0.427
-474.274	-200.000	-0.096	0.510
-473.259	35.976	0.581	0.512
-472.245	-8.847	-0.735	-0.493
-471.230	-98.191	0.834	-0.215
-470.216	-131.665	-0.428	-0.056
-469.201	800.000	0.223	0.913
-468.186	-46.999	-0.420	-0.206
-467.172	-126.959	-0.508	-0.075
-466.157	-60.437	0.442	0.188
-465.143	-200.000	0.155	0.744
-464.128	-56.609	0.165	-0.073
-463.113	-76.892	0.272	0.095
-462.099	6.970	0.409	-0.305
-461.084	-200.000	-0.040	0.766
-460.070	-60.234	0.785	-0.335
-459.055	-150.552	-0.437	0.033
-458.040	-200.000	-0.102	-0.732
-457.026	298.022	0.160	-0.294
-456.011	355.352	0.295	-0.587
-454.997	-16.899	-0.585	0.370
-453.982	117.878	0.558	0.688
-452.968	-119.363	-0.282	-0.049
-451.953	-60.100	-0.236	-0.101
-450.938	-200.000	0.158	1.206
-449.924	18.496	-0.544	-0.436
-448.909	177.087	0.447	-0.651
-447.895	800.000	0.060	0.214
-446.880	-14.861	0.670	0.430
-445.865	-124.217	-1.272	0.199
-444.851	-129.701	0.498	0.069
-443.836	359.703	0.097	0.195
-442.822	212.346	0.223	0.352
-441.807	-92.228	-0.231	-0.065
-440.792	96.161	0.272	-0.311
-439.778	-140.504	-0.599	0.062
-438.763	800.000	0.364	-1.012
-437.749	-169.517	1.235	-0.045
-436.734	186.083	0.238	0.354
-435.719	800.000	-0.033	0.114
-434.705	-132.987	0.762	0.097
-433.690	11.222	-0.079	-0.060
-432.676	571.272	-0.125	0.306
-431.661	-103.169	-0.781	-0.185
-430.646	422.340	-0.185	-0.397
-429.632	800.000	0.191	-0.617
-428.617	184.084	-0.251	0.372
-427.603	77.679	0.414	0.441
-426.588	-35.076	0.355	-0.193
-425.573	218.866	0.256	0.409
-424.559	63.874	0.535	0.538
-423.544	-45.354	0.447	0.222
-422.530	-200.000	0.091	-0.482
-421.515	466.959	-0.238	-0.534
-420.500	690.446	-0.242	-0.634
-419.486	65.979	-0.189	-0.192
-418.471	-200.000	-0.158	-0.850
-417.457	-26.135	0.837	0.492
-416.442	154.581	0.099	0.136
-415.428	-123.316	-0.394	0.063
-414.413	-0.716	0.214	0.152
-413.398	800.000	-0.279	-0.798
-412.384	-200.000	0.109	-0.564
-411.369	-200.000	0.189	-0.841
-410.355	-26.154	-0.562	-0.330
-409.340	-200.000	0.003	-0.578
-408.325	-3.246	-0.613	-0.427
-407.311	44.551	-0.338	0.310
-406.296	-50.858	0.162	-0.076
-405.282	186.318	0.460	-0.685
-404.267	22.145	-0.271	-0.221
-403.252	5.403	-0.725	0.534
-402.238	800.000	0.254	0.805
-401.223	-52.167	1.054	-0.489
-400.209	-46.515	-0.736	-0.361
-399.194	-102.297	1.204	-0.289
-398.179	-200.000	-0.026	0.202
-397.165	64.000	-0.183	0.184
-396.150	-14.162	0.330	-0.213
-395.136	-200.000	-0.132	-0.906
-394.121	-30.109	0.876	-0.498
-393.106	-103.135	-0.028	-0.007
-392.092	-114.088	0.858	-0.166
-391.077	167.819	0.374	0.531
-390.063	168.001	-0.246	-0.350
-389.048	-46.518	0.373	0.183
-388.033	211.313	-0.359	-0.565
-387.019	-81.625	0.862	0.283
-386.004	-144.419	-0.738	-0.068
-384.990	-200.000	-0.050	-0.803
-383.975	-101.513	-0.217	0.053
-382.960	174.615	-0.158	-0.228
-381.946	-27.380	0.659	0.383
-380.931	-56.980	-0.300	0.132
-379.917	142.314	0.044	-0.058
-378.902	800.000	-0.013	-0.055
-377.888	374.207	0.412	0.837
-376.873	-200.000	-0.029	-0.151
-375.858	-200.000	-0.030	-0.642
-374.844	90.058	0.237	-0.264
-373.829	-32.214	0.556	0.310
-372.815	493.968	0.229	-0.524
-371.800	-72.512	-0.748	-0.276
-370.785	-200.000	-0.062	0.369
-369.771	-200.000	-0.235	-1.126
-368.756	-79.184	-1.183	-0.400
-367.742	67.925	0.127	0.130
-366.727	-110.099	0.588	-0.123
-365.712	-200.000	0.134	0.962
-364.698	125.512	-0.289	0.364
-363.683	335.334	0.065	-0.125
-362.669	800.000	-0.154	-0.456
-361.654	251.633	-0.202	-0.343
-360.639	-200.000	0.057	0.569
-359.625	116.296	-0.024	0.029
-358.610	-76.040	0.058	0.021
-357.596	-200.000	-0.001	0.531
-356.581	206.000	0.465	-0.722
-355.566	800.000	0.053	0.223
-354.552	-72.804	0.852	0.313
-353.537	96.385	0.343	-0.392
-352.523	-72.682	-0.839	-0.309
-351.508	-200.000	0.085	0.606
-350.493	-48.559	0.733	0.352
-349.479	-44.661	0.199	-0.099
-348.464	-57.454	-0.450	-0.197
-347.450	-70.469	1.232	-0.465
-346.435	-200.000	0.091	-0.421
-345.420	83.368	0.210	-0.228
-344.406	97.726	0.198	-0.227
-343.391	-168.077	0.886	-0.034
-342.377	0.006	0.041	-0.029
-341.362	-125.001	-0.163	0.025
-340.348	800.000	0.252	0.777
-339.333	-200.000	-0.013	-0.216
-338.318	-151.347	0.363	0.027
-337.304	-15.471	0.278	-0.177
-336.289	-200.000	0.025	0.898
-335.275	-13.743	0.375	-0.242
-334.260	-51.121	-0.690	0.322
-333.245	-200.000	0.066	0.726
-332.231	199.585	0.316	0.483
-331.216	-116.105	0.307	0.057
-330.202	-75.311	-0.653	-0.232
-329.187	-54.523	-0.089	0.040
-328.172	-200.000	0.039	0.424
-327.158	270.089	0.071	-0.124
-326.143	-100.700	0.328	-0.080
-325.129	3.108	-0.752	0.545
-324.114	-54.022	-0.193	0.087
-323.099	-200.000	0.007	0.403
-322.085	280.422	0.191	-0.340
-321.070	58.443	-0.183	-0.179
-320.056	6.195	-0.491	-0.362
-319.041	-126.239	0.574	-0.086
-318.026	694.752	0.067	0.175
-317.012	471.001	0.019	-0.042
-315.997	-103.128	0.537	0.127
-314.983	120.512	-0.212	0.262
-313.968	289.150	-0.597	1.078
-312.953	-101.317	-1.716	0.417
-311.939	66.317	-0.729	0.737
-310.924	-40.678	1.113	-0.574
-309.910	-32.186	0.690	-0.384
-308.895	-200.000	-0.071	-0.877
-307.880	-85.948	0.558	-0.172
-306.866	800.000	-0.079	0.278
-305.851	-200.000	-0.070	-0.641
-304.837	0.235	-0.560	0.398
-303.822	800.000	0.046	0.192
-302.807	212.114	-0.371	-0.582
-301.793	-3.289	0.289	-0.201
-300.778	226.357	-0.517	-0.835
-299.764	188.858	0.137	-0.204
-298.749	-190.164	0.674	-0.007
-297.735	-200.000	0.014	-0.735
-296.720	-31.139	-0.227	-0.128
-295.705	87.528	0.233	-0.257
-294.691	-200.000	-0.044	0.353
-293.676	-124.842	0.271	0.042
-292.662	-131.018	-0.296	0.039
-291.647	-155.794	-0.539	0.034
-290.632	-113.196	0.466	-0.091
-289.618	241.816	0.262	0.436
-288.603	196.824	0.296	0.449
-287.589	-200.000	-0.031	0.340
-286.574	578.628	0.101	-0.245
-285.559	-148.338	-0.646	-0.053
-284.545	-200.000	-0.076	-0.343
-283.530	-132.702	0.073	0.009
-282.516	-58.355	0.359	-0.155
-281.501	-30.874	-0.291	0.164
-280.486	-51.197	0.269	-0.125
-279.472	17.826	-0.754	0.597
-278.457	381.850	0.139	0.285
-277.443	800.000	-0.064	0.272
-276.428	-200.000	-0.044	-0.230
-275.413	-200.000	-0.048	-0.321
-274.399	160.274	0.363	-0.503
-273.384	-107.339	0.669	0.146
-272.370	-200.000	-0.213	-0.930
-271.355	45.536	-0.746	0.684
-270.340	800.000	-0.177	0.500
-269.326	-200.000	0.100	-0.925
-268.311	-163.747	0.484	-0.023
-267.297	570.828	-0.110	0.265
-266.282	132.816	-0.506	-0.649
-265.267	12.771	0.412	-0.316
-264.253	-87.177	-0.498	0.151
-263.238	92.966	0.430	0.482
-262.224	650.154	-0.147	0.375
-261.209	-200.000	0.080	0.437
-260.195	-165.881	0.715	-0.030
-259.180	800.000	0.169	0.524
-258.165	-101.247	-0.332	-0.081
-257.151	54.620	0.437	0.418
-256.136	-34.257	0.452	-0.246
-255.122	800.000	-0.160	0.483
-254.107	-80.571	-1.013	-0.335
-253.092	48.506	0.496	-0.461
-252.078	-200.000	0.050	0.442
-251.063	800.000	0.290	1.203
-250.049	255.781	0.626	1.066
-249.034	-200.000	0.194	1.083
-248.019	-71.659	-1.133	0.420
-247.005	38.498	0.934	-0.827
-245.990	-45.811	-0.342	0.168
-244.976	126.676	-0.304	-0.383
-243.961	-50.612	-1.157	0.542
-242.946	800.000	0.202	0.725
-241.932	302.598	-0.636	1.169
-240.917	131.405	-0.178	0.227
-239.903	800.000	-0.097	-0.398
-238.888	-49.690	-0.313	-0.148
-237.873	344.198	0.404	-0.786
-236.859	323.292	-0.412	0.781
-235.844	-64.400	0.568	0.229
-234.830	-10.638	0.637	-0.419
-233.815	-81.370	-0.396	0.130
-232.800	-85.195	0.386	-0.120
-231.786	152.688	-0.408	-0.554
-230.771	208.532	-0.351	-0.545
-229.757	-2.194	-0.546	-0.380
-228.742	289.247	0.503	0.905
-227.727	800.000	-0.136	-0.497
-226.713	-78.174	-0.554	-0.189
-225.698	-123.986	-0.218	-0.034
-224.684	-11.343	-0.356	-0.233
-223.669	200.139	-0.220	0.335
-222.655	755.124	-0.065	-0.174
-221.640	44.733	0.329	0.300
-220.625	-200.000	-0.244	1.142
-219.611	-200.000	0.151	0.885
-218.596	11.979	-0.810	-0.618
-217.582	800.000	-0.125	-0.418
-216.567	536.905	-0.224	-0.527
-215.552	-125.984	-0.239	0.036
-214.538	-200.000	-0.004	0.284
-213.523	-200.000	-0.022	-0.352
-212.509	-68.404	-0.393	-0.151
-211.494	-7.182	-0.220	0.148
-210.479	-200.000	-0.162	-0.974
-209.465	609.010	-0.544	-1.346
-208.450	-138.168	0.722	-0.079
-207.436	134.232	-0.115	-0.148
-206.421	-59.523	-1.245	-0.530
-205.406	497.245	-0.072	-0.164
-204.392	800.000	-0.228	0.690
-203.377	-200.000	0.031	1.003
-202.363	-200.000	0.021	0.496
-201.348	-200.000	0.006	-0.698
-200.333	126.738	-0.493	0.619
-199.319	-46.228	-0.892	0.435
-198.304	509.457	-0.046	0.106
-197.290	195.140	-0.417	-0.628
-196.275	-115.866	1.282	0.237
-195.260	-42.391	-0.520	0.263
-194.246	225.395	-0.497	0.798
-193.231	-165.550	0.544	0.023
-192.217	-67.226	0.230	-0.090
-191.202	800.000	0.056	0.206
-190.187	-48.647	0.966	-0.460
-189.173	-200.000	-0.030	-0.808
-188.158	453.223	0.148	-0.325
-187.144	427.717	-0.518	1.107
-186.129	-79.291	0.557	-0.187
-185.114	800.000	-0.101	0.395
-184.100	-71.245	-0.752	0.279
-183.085	222.711	-0.143	0.228
-182.071	-161.649	1.013	0.051
-181.056	34.068	-0.765	0.660
-180.042	800.000	0.129	0.532
-179.027	-151.300	-0.897	0.066
-178.012	8.242	0.547	-0.407
-176.998	-200.000	0.039	-1.140
-175.983	-87.598	0.659	-0.197
-174.969	471.021	-0.232	0.516
-173.954	160.869	0.766	1.060
-172.939	278.877	-0.170	0.301
-171.925	-200.000	0.009	0.408
-170.910	14.037	-0.482	0.371
-169.896	457.505	-0.177	-0.390
-168.881	800.000	-0.172	-0.498
-167.866	131.621	0.098	-0.125
-166.852	122.264	0.191	0.236
-165.837	173.980	0.373	0.533
-164.823	-113.814	-0.665	-0.128
-163.808	-200.000	0.067	0.459
-162.793	269.708	-0.262	-0.455
-161.779	-86.736	-0.312	0.095
-160.764	-56.426	0.266	0.117
-159.750	800.000	-0.216	0.789
-158.735	95.393	0.583	-0.657
-157.720	374.685	-0.164	0.330
-156.706	800.000	-0.143	-0.524
-155.691	59.417	0.305	-0.297
-154.677	800.000	0.039	-0.155
-153.662	447.989	0.128	-0.280
-152.647	78.336	-0.273	0.289
-151.633	-200.000	-0.027	-0.131
-150.618	214.373	0.123	-0.193
-149.604	-33.321	0.491	0.269
-148.589	80.895	0.129	0.138
-147.574	-90.300	0.238	0.068
-146.560	-19.670	-0.802	0.491
-145.545	-200.000	-0.042	0.201
-144.531	800.000	0.077	0.293
-143.516	-7.971	1.196	-0.798
-142.502	-3.238	0.482	-0.332
-141.487	-200.000	0.092	-0.521
-140.472	-200.000	-0.038	-0.187
-139.458	800.000	-0.299	0.894
-138.443	800.000	-0.222	0.955
-137.429	-41.567	0.327	-0.166
-136.414	372.038	0.475	-0.953
-135.399	-71.066	-0.397	0.148
-134.385	-200.000	-0.084	-0.856
-133.370	326.813	0.284	-0.539
-132.356	-21.589	0.477	0.287
-131.341	800.000	-0.152	-0.596
-130.326	-174.533	-0.418	-0.012
-129.312	232.053	0.136	0.221
-128.297	195.627	0.134	-0.201
-127.283	-109.336	-0.581	0.122
-126.268	59.503	-0.413	-0.403
-125.253	-200.000	-0.102	0.619
-124.239	36.846	-0.433	0.378
-123.224	247.539	-0.406	-0.678
