DTS Sentinel unit serial number:	SN413079Multiplexer serial number:	ORYXHardware model number:	OX4-SRSoftware version number:	ORYX F/W v4.00 Oryx Data Collector v3.7.2.0data status	okinstallation	princeton_trtdifferential loss correction	single-endedforward channel	channel 3reverse channel	N/Adate	2019/09/13time	09:20:34forward acquisition time	60.00reverse acquisition time	0.00gamma	496.2192k internal	0.2325k external	0.2325temperature offset calibration	1.0135default loss term (dB/km)	0.3790temperature slope calibration	1.0000multiplexer offset coefficient	1.0000multiplexer slope coefficient	1.0000fibre end	0.00T internal ref (°C)	29.17T ext. ref 1 (°C)	4.39T ext. ref 2 (°C)	26.28length (m)	temperature (°C)	Stokes	anti-Stokes-747.200	-71.321	-0.125	0.047
-746.185	-37.827	-0.184	0.099
-745.171	103.890	-0.227	-0.269
-744.156	17.762	0.102	-0.082
-743.142	199.462	0.148	0.229
-742.127	800.000	0.114	0.319
-741.112	800.000	0.010	-0.028
-740.098	263.809	0.095	0.167
-739.083	-20.559	0.426	0.264
-738.069	-20.982	-0.219	0.135
-737.054	103.050	0.148	-0.174
-736.039	-128.087	-0.080	-0.012
-735.025	-170.450	0.241	0.008
-734.010	76.521	-0.292	-0.313
-732.996	-200.000	-0.016	-0.139
-731.981	-175.689	-0.167	0.005
-730.966	-200.000	0.011	-0.105
-729.952	800.000	-0.017	0.066
-728.937	150.279	0.050	-0.068
-727.923	130.305	0.062	-0.080
-726.908	-35.469	0.287	0.157
-725.894	-200.000	-0.014	-0.204
-724.879	207.191	0.137	-0.216
-723.864	574.164	-0.021	0.051
-722.850	70.902	-0.148	0.155
-721.835	-115.114	-0.140	-0.027
-720.821	115.358	-0.252	-0.311
-719.806	69.828	-0.170	-0.177
-718.791	-105.493	0.285	-0.065
-717.777	-24.090	0.197	0.119
-716.762	92.412	0.062	0.071
-715.748	-71.756	0.142	-0.053
-714.733	-69.888	0.280	0.108
-713.718	-200.000	0.045	0.300
-712.704	-119.411	-0.331	0.058
-711.689	45.965	0.254	-0.236
-710.675	-37.967	-0.133	0.071
-709.660	-113.451	0.447	0.088
-708.645	76.722	0.211	-0.225
-707.631	537.807	0.092	-0.220
-706.616	115.389	-0.125	-0.154
-705.602	-200.000	0.003	-0.284
-704.587	-56.004	-0.134	-0.060
-703.572	-200.000	0.001	0.046
-702.558	-51.165	-0.262	-0.123
-701.543	746.219	0.134	-0.364
-700.529	-163.650	-0.349	-0.017
-699.514	-15.203	0.234	0.151
-698.499	800.000	0.091	0.271
-697.485	-163.725	-0.074	0.004
-696.470	142.425	-0.051	-0.069
-695.456	261.311	0.218	-0.380
-694.441	-172.430	0.303	0.010
-693.426	800.000	0.066	-0.233
-692.412	800.000	0.119	-0.355
-691.397	42.585	-0.089	0.082
-690.383	14.697	-0.230	-0.181
-689.368	-119.314	-0.172	0.030
-688.354	800.000	0.071	-0.261
-687.339	-200.000	-0.021	0.133
-686.324	-200.000	0.008	-0.446
-685.310	-70.087	0.402	0.154
-684.295	22.799	0.298	-0.246
-683.281	227.923	0.178	-0.291
-682.266	-134.087	-0.383	0.048
-681.251	-22.729	-0.423	0.257
-680.237	-123.600	-0.290	0.046
-679.222	127.599	-0.185	0.236
-678.208	112.005	-0.322	-0.392
-677.193	-174.262	-0.154	-0.004
-676.178	-200.000	0.025	0.235
-675.164	-200.000	-0.057	-0.342
-674.149	-56.206	0.360	0.161
-673.135	93.745	-0.041	0.047
-672.120	-119.153	0.081	0.014
-671.105	800.000	-0.039	-0.144
-670.091	-51.990	-0.093	-0.043
-669.076	56.723	-0.400	-0.392
-668.062	800.000	-0.097	-0.288
-667.047	-200.000	-0.003	-0.357
-666.032	0.246	0.255	-0.183
-665.018	324.816	-0.143	-0.274
-664.003	-200.000	0.030	0.314
-662.989	139.941	0.073	0.096
-661.974	11.600	-0.176	-0.136
-660.959	-136.507	0.214	0.025
-659.945	-21.321	-0.201	0.123
-658.930	275.954	-0.124	-0.221
-657.916	-200.000	-0.052	-0.394
-656.901	-28.272	-0.175	-0.102
-655.886	-200.000	0.051	-0.318
-654.872	-133.298	-0.160	0.020
-653.857	-33.059	0.079	0.044
-652.843	-200.000	-0.033	-0.155
-651.828	-43.458	0.178	0.090
-650.814	116.740	0.294	-0.362
-649.799	64.193	-0.154	0.156
-648.784	238.290	0.034	-0.057
-647.770	98.575	-0.109	-0.126
-646.755	227.634	0.111	0.181
-645.741	536.677	0.057	0.135
-644.726	-178.215	-0.362	0.009
-643.711	85.579	-0.120	0.132
-642.697	-200.000	-0.011	0.165
-641.682	-50.449	0.191	0.091
-640.668	212.041	0.135	-0.214
-639.653	-107.627	-0.307	-0.067
-638.638	-15.067	-0.091	0.059
-637.624	800.000	0.066	0.210
-636.609	483.403	-0.023	-0.054
-635.595	-200.000	0.019	-0.385
-634.580	312.979	-0.131	-0.247
-633.565	-164.109	0.210	-0.010
-632.551	-200.000	-0.016	0.459
-631.536	218.144	-0.115	0.185
-630.522	86.314	0.144	0.160
-629.507	-125.578	-0.141	-0.021
-628.492	244.888	-0.143	0.241
-627.478	-55.592	0.144	0.065
-626.463	-200.000	-0.004	0.034
-625.449	-67.383	0.205	0.081
-624.434	2.162	-0.150	0.109
-623.419	-125.077	-0.389	0.060
-622.405	316.839	0.064	0.121
-621.390	-55.044	0.193	-0.087
-620.376	259.450	0.325	-0.564
-619.361	517.822	0.115	-0.270
-618.346	158.469	-0.087	-0.121
-617.332	-105.970	-0.428	0.097
-616.317	800.000	0.118	-0.511
-615.303	109.379	-0.112	0.134
-614.288	182.884	-0.237	-0.350
-613.273	-200.000	0.010	-0.285
-612.259	35.751	0.211	0.186
-611.244	219.224	-0.218	-0.351
-610.230	54.790	0.264	0.255
-609.215	28.849	-0.164	0.140
-608.201	113.875	-0.087	-0.106
-607.186	-200.000	-0.003	0.156
-606.171	800.000	-0.046	0.189
-605.157	59.029	-0.085	-0.084
-604.142	50.903	-0.035	0.033
-603.128	-74.969	-0.206	-0.074
-602.113	118.641	-0.093	0.116
-601.098	3.903	0.207	-0.152
-600.084	-8.715	-0.144	0.097
-599.069	-28.074	-0.237	0.137
-598.055	-200.000	0.019	0.141
-597.040	73.280	0.108	-0.113
-596.025	-123.051	0.236	0.038
-595.011	47.088	-0.096	-0.090
-593.996	183.351	0.078	-0.116
-592.982	-81.363	0.103	-0.034
-591.967	-3.523	-0.247	0.172
-590.952	-1.175	0.322	0.228
-589.938	241.458	0.039	-0.065
-588.923	436.563	0.128	-0.280
-587.909	347.651	-0.170	-0.336
-586.894	34.637	0.116	0.101
-585.879	326.512	-0.193	0.371
-584.865	-32.661	0.145	-0.081
-583.850	-2.287	-0.086	-0.060
-582.836	-200.000	-0.015	0.129
-581.821	-151.427	0.430	-0.032
-580.806	73.306	0.025	0.027
-579.792	-200.000	-0.002	0.180
-578.777	-200.000	-0.005	-0.129
-577.763	-57.295	-0.016	0.007
-576.748	-111.113	0.423	0.087
-575.733	-200.000	0.051	0.000
-574.719	-31.596	-0.168	0.095
-573.704	-111.251	-0.190	0.039
-572.690	-7.554	0.057	0.039
-571.675	0.713	0.163	0.117
-570.661	55.460	-0.381	-0.370
-569.646	-200.000	-0.007	-0.066
-568.631	-12.369	-0.163	-0.107
-567.617	-200.000	0.004	-0.108
-566.602	-111.136	-0.205	0.042
-565.588	-200.000	-0.009	-0.357
-564.573	-200.000	0.049	0.255
-563.558	800.000	0.024	0.088
-562.544	-152.750	-0.378	-0.027
-561.529	-93.904	-0.103	0.028
-560.515	-200.000	-0.000	-0.111
-559.500	-179.580	-0.152	-0.003
-558.485	-97.328	0.458	-0.120
-557.471	-200.000	0.065	-0.312
-556.456	392.725	0.048	-0.100
-555.442	411.321	0.060	-0.127
-554.427	10.384	-0.073	-0.056
-553.412	800.000	-0.102	0.301
-552.398	-160.821	0.144	0.008
-551.383	-124.672	-0.224	-0.035
-550.369	-79.711	0.231	0.078
-549.354	362.498	-0.188	0.377
-548.339	4.534	-0.267	-0.196
-547.325	-200.000	-0.060	-0.273
-546.310	115.011	0.036	0.044
-545.296	171.102	0.124	-0.178
-544.281	12.796	-0.069	0.054
-543.266	-63.411	0.208	-0.085
-542.252	-200.000	-0.002	0.023
-541.237	140.324	-0.267	0.352
-540.223	363.225	0.089	0.178
-539.208	140.828	0.034	-0.045
-538.193	-113.511	-0.273	0.053
-537.179	-100.130	0.175	0.044
-536.164	-151.388	-0.242	-0.018
-535.150	-136.693	0.296	-0.034
-534.135	92.306	-0.005	-0.006
-533.121	-4.299	-0.217	-0.150
-532.106	-168.696	-0.079	0.003
-531.091	9.608	-0.114	-0.086
-530.077	10.976	0.177	-0.135
-529.062	-200.000	0.054	0.404
-528.048	-200.000	0.036	0.185
-527.033	346.787	-0.033	-0.065
-526.018	-95.896	0.136	-0.036
-525.004	-200.000	-0.030	0.145
-523.989	71.646	0.051	0.053
-522.975	-200.000	0.067	0.421
-521.960	800.000	0.108	0.391
-520.945	-84.878	-0.188	0.059
-519.931	-40.652	0.095	0.049
-518.916	-149.280	0.315	0.025
-517.902	800.000	0.058	0.244
-516.887	-169.169	0.117	-0.004
-515.872	27.288	-0.080	-0.067
-514.858	229.175	0.090	0.147
-513.843	88.062	0.206	-0.229
-512.829	-200.000	0.023	0.127
-511.814	-32.932	-0.293	-0.163
-510.799	13.388	-0.169	-0.131
-509.785	-38.398	-0.218	0.115
-508.770	218.560	-0.094	-0.151
-507.756	-97.199	-0.080	-0.021
-506.741	253.803	0.057	-0.097
-505.726	284.185	-0.047	-0.085
-504.712	174.388	-0.237	-0.343
-503.697	-27.064	-0.005	-0.003
-502.683	35.413	-0.387	-0.339
-501.668	-57.547	-0.162	0.071
-500.653	-153.514	0.436	-0.030
-499.639	-124.917	-0.114	0.018
-498.624	-1.448	0.181	-0.128
-497.610	800.000	-0.110	-0.340
-496.595	-200.000	0.016	-0.146
-495.581	-91.276	-0.291	0.083
-494.566	-200.000	0.068	0.324
-493.551	-116.376	-0.067	-0.012
-492.537	179.722	-0.070	-0.103
-491.522	-181.372	0.255	-0.005
-490.508	-200.000	0.006	-0.233
-489.493	-167.313	0.093	0.004
-488.478	-88.742	-0.298	0.088
-487.464	-21.916	-0.322	-0.195
-486.449	-118.017	-0.304	0.054
-485.435	39.430	0.256	0.229
-484.420	-109.161	0.409	0.087
-483.405	527.770	-0.095	-0.223
-482.391	-49.591	0.219	0.104
-481.376	-200.000	0.001	0.362
-480.362	-39.166	-0.105	0.055
-479.347	-93.470	-0.158	-0.044
-478.332	170.039	-0.112	-0.160
-477.318	-200.000	0.027	-0.440
-476.303	173.569	0.097	-0.140
-475.289	-15.307	0.211	-0.135
-474.274	78.902	0.155	-0.165
-473.259	104.352	-0.024	0.028
-472.245	-200.000	0.023	0.670
-471.230	115.327	-0.128	-0.156
-470.216	-200.000	-0.002	-0.194
-469.201	-200.000	-0.007	0.094
-468.186	-99.091	-0.285	-0.072
-467.172	66.241	0.053	-0.054
-466.157	51.342	0.242	-0.229
-465.143	105.391	-0.256	0.302
-464.128	-200.000	-0.000	-0.194
-463.113	-95.042	0.198	-0.053
-462.099	137.925	0.278	-0.364
-461.084	-56.574	-0.169	-0.075
-460.070	243.971	-0.057	-0.095
-459.055	-132.107	0.138	0.018
-458.040	-66.614	0.049	0.019
-457.026	-200.000	-0.010	0.178
-456.011	-62.820	0.120	-0.050
-454.997	-91.559	-0.125	-0.036
-453.982	-107.899	0.059	0.013
-452.968	-200.000	-0.043	-0.266
-451.953	-26.841	0.113	-0.066
-450.938	319.714	-0.093	-0.176
-449.924	32.698	0.298	0.257
-448.909	-87.753	-0.147	0.044
-447.895	-25.888	-0.225	-0.132
-446.880	-200.000	-0.046	0.272
-445.865	178.003	-0.244	0.354
-444.851	270.038	0.082	-0.144
-443.836	104.526	-0.071	-0.083
-442.822	-200.000	-0.001	-0.067
-441.807	-200.000	-0.011	-0.080
-440.792	42.035	0.113	-0.102
-439.778	-27.144	0.558	0.324
-438.763	159.921	0.090	-0.125
-437.749	-200.000	-0.007	0.207
-436.734	165.247	-0.099	0.140
-435.719	15.071	0.153	-0.119
-434.705	-42.043	-0.308	-0.157
-433.690	-200.000	-0.023	-0.276
-432.676	121.814	0.365	0.454
-431.661	121.911	0.191	-0.237
-430.646	-34.228	0.382	-0.209
-429.632	65.017	-0.272	-0.274
-428.617	223.723	0.121	-0.194
-427.603	72.797	0.165	0.172
-426.588	-63.549	-0.127	-0.052
-425.573	-200.000	0.020	-0.474
-424.559	243.372	-0.087	-0.145
-423.544	-14.539	0.315	0.202
-422.530	-69.002	0.056	0.022
-421.515	-161.808	0.090	0.005
-420.500	-78.047	-0.242	0.083
-419.486	58.573	0.326	-0.319
-418.471	52.440	-0.203	-0.193
-417.457	-71.874	-0.266	-0.099
-416.442	-68.120	0.270	0.105
-415.428	93.169	-0.159	0.179
-414.413	64.429	-0.283	-0.284
-413.398	75.634	-0.317	-0.334
-412.384	-139.918	-0.123	0.013
-411.369	-200.000	-0.031	-0.218
-410.355	800.000	-0.043	-0.173
-409.340	-108.137	0.334	0.072
-408.325	402.362	-0.017	-0.035
-407.311	-200.000	-0.001	-0.157
-406.296	396.874	0.064	0.133
-405.282	-35.375	0.178	-0.096
-404.267	64.622	0.242	0.243
-403.252	-87.552	-0.080	0.024
-402.238	-200.000	-0.010	0.435
-401.223	-200.000	-0.022	-0.098
-400.209	0.873	0.238	0.170
-399.194	-45.083	-0.281	-0.139
-398.179	20.932	-0.220	0.178
-397.165	-95.189	-0.052	0.014
-396.150	800.000	0.073	-0.262
-395.136	-76.883	-0.287	-0.100
-394.121	-122.416	-0.100	0.016
-393.106	800.000	0.020	0.060
-392.092	-200.000	-0.012	0.235
-391.077	210.442	-0.170	-0.265
-390.063	-200.000	-0.080	0.384
-389.048	-21.062	-0.269	-0.164
-388.033	-73.339	-0.105	-0.038
-387.019	30.099	-0.134	0.114
-386.004	47.385	0.191	-0.177
-384.990	90.231	-0.063	0.070
-383.975	380.852	0.126	-0.258
-382.960	-29.606	0.102	0.058
-381.946	605.873	0.062	-0.154
-380.931	-112.612	0.054	0.011
-379.917	-200.000	0.013	-0.086
-378.902	-200.000	-0.024	0.277
-377.888	-83.412	0.234	0.075
-376.873	-81.636	-0.323	-0.105
-375.858	223.114	-0.043	0.069
-374.844	800.000	0.103	-0.441
-373.829	-5.230	0.126	-0.086
-372.815	-4.938	-0.255	0.175
-371.800	-117.264	0.294	0.053
-370.785	-1.379	0.305	0.214
-369.771	140.139	-0.064	0.084
-368.756	25.489	-0.049	0.041
-367.742	38.154	-0.125	-0.111
-366.727	399.639	0.062	0.130
-365.712	-113.404	-0.412	0.080
-364.698	-78.452	0.042	-0.014
-363.683	-200.000	0.012	-0.109
-362.669	215.989	0.101	-0.160
-361.654	49.340	0.080	-0.075
-360.639	-93.073	0.317	0.088
-359.625	248.836	-0.046	0.078
-358.610	800.000	-0.029	0.093
-357.596	18.211	-0.257	-0.204
-356.581	428.871	0.069	0.149
-355.566	-177.828	0.153	-0.004
-354.552	-170.208	-0.263	-0.009
-353.537	84.814	0.187	0.203
-352.523	62.573	0.074	-0.073
-351.508	-107.587	0.174	-0.038
-350.493	-114.127	0.265	-0.051
-349.479	-78.424	-0.317	0.108
-348.464	-75.602	0.221	-0.078
-347.450	47.282	-0.084	-0.078
-346.435	302.651	-0.039	-0.073
-345.420	-161.126	0.148	-0.008
-344.406	-5.447	-0.282	-0.193
-343.391	454.567	0.027	0.059
-342.377	800.000	0.086	-0.265
-341.362	-9.973	0.099	-0.066
-340.348	267.284	0.169	0.294
-339.333	313.687	-0.210	0.392
-338.318	-61.614	-0.025	-0.011
-337.304	486.261	0.147	-0.332
-336.289	-43.247	-0.064	0.032
-335.275	198.262	0.124	0.189
-334.260	-92.040	-0.120	-0.034
-333.245	-19.233	-0.024	0.015
-332.231	-50.355	-0.246	0.115
-331.216	132.516	0.012	-0.015
-330.202	800.000	-0.084	-0.279
-329.187	-200.000	-0.018	-0.155
-328.172	286.576	-0.053	-0.095
-327.158	691.555	0.093	0.241
-326.143	-200.000	0.039	0.291
-325.129	-34.022	0.338	-0.185
-324.114	-109.697	-0.221	0.046
-323.099	86.589	-0.064	-0.070
-322.085	116.069	-0.060	0.072
-321.070	444.766	0.055	0.120
-320.056	-200.000	0.008	0.099
-319.041	-10.967	0.020	-0.013
-318.026	27.839	-0.198	-0.166
-317.012	-61.742	0.620	0.258
-315.997	-200.000	0.026	0.152
-314.983	59.671	0.134	-0.131
-313.968	732.872	0.096	-0.254
-312.953	0.116	-0.240	-0.170
-311.939	19.676	0.126	0.100
-310.924	-37.817	-0.247	-0.130
-309.910	-113.796	0.494	-0.095
-308.895	-133.941	0.190	-0.023
-307.880	-48.381	0.042	0.020
-306.866	104.936	-0.202	-0.236
-305.851	-45.239	0.145	0.071
-304.837	245.733	0.096	0.161
-303.822	-200.000	-0.033	-0.377
-302.807	800.000	0.069	0.227
-301.793	96.473	-0.232	-0.264
-300.778	715.984	0.051	-0.134
-299.764	-5.114	-0.129	0.088
-298.749	800.000	0.018	-0.053
-297.735	-158.964	-0.252	0.014
-296.720	-123.354	-0.326	0.052
-295.705	60.301	0.102	0.100
-294.691	113.784	-0.019	-0.022
-293.676	147.826	-0.155	0.207
-292.662	111.858	-0.021	0.025
-291.647	36.163	-0.303	0.265
-290.632	55.090	-0.061	-0.058
-289.618	83.851	0.174	0.188
-288.603	-95.009	0.199	-0.053
-287.589	-200.000	0.011	-0.201
-286.574	-28.722	-0.147	-0.084
-285.559	187.525	0.143	-0.211
-284.545	551.728	0.086	0.204
-283.530	148.402	-0.356	-0.477
-282.516	-98.331	0.204	0.052
-281.501	107.670	0.100	0.118
-280.486	-92.198	-0.397	0.111
-279.472	-40.829	-0.151	0.078
-278.457	-200.000	0.011	-0.164
-277.443	-110.989	0.156	0.032
-276.428	-200.000	-0.004	0.072
-275.413	114.998	0.087	0.105
-274.399	-200.000	0.004	-0.092
-273.384	74.416	-0.024	0.025
-272.370	-200.000	0.022	-0.099
-271.355	-51.343	-0.297	0.137
-270.340	800.000	0.044	0.125
-269.326	164.006	-0.112	-0.157
-268.311	-44.669	-0.211	0.104
-267.297	124.484	-0.229	-0.285
-266.282	-200.000	0.037	-0.483
-265.267	717.116	-0.052	0.137
-264.253	-200.000	0.063	0.295
-263.238	24.129	0.142	0.116
-262.224	73.545	0.134	0.139
-261.209	156.030	0.160	0.218
-260.195	-200.000	-0.033	-0.277
-259.180	95.848	0.055	-0.062
-258.165	-67.609	-0.176	0.068
-257.151	-36.744	0.144	0.077
-256.136	289.735	0.073	-0.131
-255.122	-107.542	0.358	-0.078
-254.107	-200.000	0.030	0.195
-253.092	-81.660	-0.200	-0.065
-252.078	239.475	-0.034	-0.056
-251.063	675.564	0.138	0.354
-250.049	242.934	0.186	0.309
-249.034	-200.000	-0.022	0.105
-248.019	800.000	-0.119	0.502
-247.005	-58.272	0.196	0.084
-245.990	-117.867	-0.344	0.061
-244.976	744.751	0.068	0.181
-243.961	90.596	-0.108	-0.120
-242.946	-200.000	-0.127	0.000
-241.932	-200.000	0.460	-0.000
-240.917	31.584	0.095	0.081
-239.903	84.074	-0.056	-0.061
-238.888	260.972	0.261	-0.447
-237.873	-200.000	0.009	-0.247
-236.859	412.443	-0.074	0.155
-235.844	-200.000	-0.024	-0.156
-234.830	-54.610	-0.224	0.100
-233.815	-8.595	0.285	0.190
-232.800	-200.000	-0.007	0.366
-231.786	-26.598	-0.219	-0.127
-230.771	-96.424	-0.088	-0.023
-229.757	800.000	0.018	-0.063
-228.742	95.768	0.275	0.311
-227.727	161.971	-0.184	-0.254
-226.713	-123.680	0.108	-0.017
-225.698	-200.000	-0.035	0.273
-224.684	251.394	0.080	-0.134
-223.669	308.884	0.098	0.181
-222.655	189.303	0.154	-0.228
-221.640	99.320	-0.048	-0.055
-220.625	-68.629	0.211	-0.081
-219.611	306.680	0.157	0.290
-218.596	-116.112	-0.189	-0.035
-217.582	-57.300	0.168	-0.073
-216.567	-42.800	-0.144	-0.073
-215.552	800.000	0.077	-0.251
-214.538	800.000	-0.101	0.275
-213.523	427.632	-0.111	0.236
-212.509	-200.000	0.041	0.269
-211.494	-120.521	0.264	0.044
-210.479	-200.000	0.014	-0.127
-209.465	-10.280	0.208	0.136
-208.450	61.436	-0.066	-0.065
-207.436	-161.152	-0.126	-0.006
-206.421	800.000	0.055	0.157
-205.406	-103.846	-0.192	0.044
-204.392	-96.560	0.306	-0.080
-203.377	379.405	-0.118	-0.239
-202.363	660.671	0.090	0.228
-201.348	-81.100	0.298	0.097
-200.333	-24.779	0.072	-0.042
-199.319	572.131	0.084	-0.203
-198.304	34.583	0.203	-0.175
-197.290	25.875	0.175	0.144
-196.275	-140.344	0.117	0.012
-195.260	517.820	0.109	0.252
-194.246	-200.000	0.005	-0.243
-193.231	800.000	-0.067	-0.278
-192.217	-15.549	-0.119	0.075
-191.202	73.717	0.036	0.037
-190.187	181.844	0.054	-0.079
-189.173	3.021	0.094	0.067
-188.158	21.403	0.174	-0.139
-187.144	302.920	-0.096	0.175
-186.129	-200.000	-0.004	0.158
-185.114	-41.600	0.117	-0.059
-184.100	-130.248	-0.189	-0.025
-183.085	-30.464	0.108	0.060
-182.071	-10.464	0.181	0.119
-181.056	-10.112	-0.174	-0.114
-180.042	-170.627	0.281	0.010
-179.027	1.465	0.172	0.122
-178.012	58.560	-0.132	-0.128
-176.998	-74.297	0.271	-0.097
-175.983	-96.031	-0.138	0.036
-174.969	-200.000	0.022	-0.173
-173.954	18.570	-0.126	-0.100
-172.939	90.791	-0.023	0.025
-171.925	361.172	0.045	0.090
-170.910	-87.139	-0.186	0.056
-169.896	105.087	0.196	0.228
-168.881	-144.582	-0.287	0.026
-167.866	-20.365	-0.429	0.261
-166.852	800.000	0.032	0.100
-165.837	-114.464	-0.420	0.080
-164.823	-200.000	-0.062	-0.407
-163.808	-146.601	0.221	0.019
-162.793	-125.495	0.060	0.009
-161.779	-200.000	0.044	-0.210
-160.764	253.952	-0.166	0.280
-159.750	-98.976	0.177	0.044
-158.735	308.129	-0.117	-0.216
-157.720	360.482	-0.194	0.383
-156.706	654.584	0.102	0.259
-155.691	-20.710	-0.170	0.103
-154.677	-157.834	0.201	0.012
-153.662	-26.500	-0.357	0.206
-152.647	52.716	0.301	0.284
-151.633	800.000	-0.152	0.492
-150.618	600.632	0.044	0.107
-149.604	-60.163	0.267	-0.112
-148.589	-135.547	0.039	-0.005
-147.574	-56.253	-0.149	0.065
-146.560	-145.909	-0.140	-0.012
-145.545	93.672	-0.144	-0.161
-144.531	-27.423	0.175	-0.100
-143.516	27.503	0.079	-0.066
-142.502	800.000	-0.100	-0.313
-141.487	-70.322	0.352	0.132
-140.472	-200.000	-0.059	-0.267
-139.458	-112.082	-0.197	-0.039
-138.443	467.996	0.148	-0.327
-137.429	-3.593	0.136	0.093
-136.414	-105.797	-0.067	0.015
-135.399	-150.334	0.331	-0.025
-134.385	281.088	0.199	0.352
-133.370	436.748	0.028	-0.060
-132.356	33.952	0.164	0.141
-131.341	87.309	0.053	0.057
-130.326	627.914	0.044	0.108
-129.312	-13.458	0.084	0.053
-128.297	800.000	0.088	-0.290
-127.283	-75.174	-0.047	-0.017
-126.268	-91.786	-0.217	-0.061
-125.253	-128.239	0.120	0.017
-124.239	-0.258	-0.345	-0.241
-123.224	-170.751	0.041	-0.001
-122.210	567.000	-0.110	0.263
-121.195	29.830	0.031	0.026
