DTS Sentinel unit serial number:	SN413079Multiplexer serial number:	ORYXHardware model number:	OX4-SRSoftware version number:	ORYX F/W v4.00 Oryx Data Collector v3.7.2.0data status	okinstallation	princeton_trtdifferential loss correction	single-endedforward channel	channel 3reverse channel	N/Adate	2019/09/17time	06:00:35forward acquisition time	60.00reverse acquisition time	0.00gamma	496.2192k internal	0.2327k external	0.2327temperature offset calibration	0.9946default loss term (dB/km)	0.3790temperature slope calibration	1.0000multiplexer offset coefficient	1.0000multiplexer slope coefficient	1.0000fibre end	0.00T internal ref (°C)	28.75T ext. ref 1 (°C)	0.14T ext. ref 2 (°C)	22.38length (m)	temperature (°C)	Stokes	anti-Stokes-747.200	-125.682	0.229	0.035
-746.185	-40.995	-0.323	0.168
-745.171	521.323	0.137	0.323
-744.156	11.945	-0.434	0.336
-743.142	-139.773	0.407	0.044
-742.127	580.785	0.061	0.151
-741.112	24.619	-0.190	0.159
-740.098	601.157	0.094	-0.234
-739.083	25.301	0.047	-0.039
-738.069	226.716	0.022	0.037
-737.054	-38.374	-0.336	0.179
-736.039	184.529	-0.186	-0.278
-735.025	800.000	-0.109	0.333
-734.010	-51.091	-0.214	-0.101
-732.996	389.805	0.165	-0.345
-731.981	-200.000	0.009	-0.220
-730.966	-112.070	-0.194	0.039
-729.952	-200.000	0.004	-0.153
-728.937	800.000	-0.076	-0.241
-727.923	-17.572	-0.126	0.080
-726.908	-143.083	0.201	0.020
-725.894	-200.000	-0.017	-0.319
-724.879	-113.656	-0.173	0.034
-723.864	398.040	0.039	0.081
-722.850	485.987	0.164	-0.377
-721.835	5.605	0.028	-0.021
-720.821	-138.202	0.401	-0.045
-719.806	-36.627	-0.189	-0.102
-718.791	57.398	0.229	-0.225
-717.777	-200.000	-0.017	0.198
-716.762	14.306	0.227	0.178
-715.748	0.412	-0.167	0.120
-714.733	86.234	0.055	-0.061
-713.718	-0.723	0.165	-0.118
-712.704	-83.583	-0.236	0.076
-711.689	800.000	0.033	-0.136
-710.675	-200.000	-0.030	0.150
-709.660	-200.000	0.015	0.453
-708.645	-50.173	-0.332	0.158
-707.631	-200.000	-0.045	0.290
-706.616	52.076	0.217	0.208
-705.602	395.815	-0.043	0.090
-704.587	738.625	-0.056	-0.150
-703.572	800.000	-0.068	-0.225
-702.558	162.334	0.226	0.318
-701.543	-83.988	-0.164	-0.053
-700.529	231.127	0.226	-0.373
-699.514	381.165	0.073	-0.150
-698.499	-200.000	-0.364	0.001
-697.485	36.420	-0.117	0.104
-696.470	55.220	0.147	0.143
-695.456	800.000	0.045	-0.192
-694.441	170.571	-0.075	-0.109
-693.426	-41.322	0.212	-0.110
-692.412	-12.994	-0.156	0.102
-691.397	-200.000	-0.012	0.128
-690.383	74.184	-0.263	0.278
-689.368	800.000	0.053	-0.206
-688.354	509.445	0.033	0.077
-687.339	102.886	0.197	0.232
-686.324	800.000	0.035	-0.138
-685.310	-200.000	-0.005	0.116
-684.295	23.578	-0.140	0.116
-683.281	113.939	0.157	0.192
-682.266	-124.574	0.234	0.037
-681.251	-200.000	-0.026	0.272
-680.237	-91.445	-0.009	-0.003
-679.222	360.340	0.138	-0.278
-678.208	-200.000	-0.042	-0.407
-677.193	-88.498	0.449	-0.135
-676.178	417.733	-0.136	0.292
-675.164	202.254	0.088	-0.136
-674.149	-200.000	-0.021	-0.242
-673.135	-41.420	-0.125	0.065
-672.120	-95.301	0.318	0.086
-671.105	-156.075	0.159	-0.010
-670.091	-67.034	-0.229	-0.091
-669.076	-55.822	-0.239	-0.107
-668.062	-126.248	-0.037	-0.006
-667.047	-200.000	-0.020	-0.246
-666.032	302.390	-0.191	-0.355
-665.018	363.409	0.069	-0.139
-664.003	-200.000	0.003	-0.359
-662.989	262.452	0.047	-0.083
-661.974	-25.303	-0.197	0.117
-660.959	800.000	-0.061	0.234
-659.945	-83.379	-0.260	-0.084
-658.930	-30.964	0.333	-0.189
-657.916	46.145	-0.094	-0.087
-656.901	-200.000	0.004	0.081
-655.886	180.723	-0.119	-0.176
-654.872	800.000	-0.097	-0.311
-653.857	65.766	0.185	-0.189
-652.843	-39.307	0.135	0.071
-651.828	-0.685	-0.029	-0.021
-650.814	-58.955	0.191	0.083
-649.799	4.050	-0.186	0.136
-648.784	-200.000	0.067	-0.355
-647.770	-164.695	0.268	0.012
-646.755	800.000	-0.050	-0.201
-645.741	-154.853	0.284	-0.019
-644.726	3.082	-0.099	0.072
-643.711	239.727	-0.054	0.090
-642.697	238.073	-0.096	-0.161
-641.682	86.197	0.149	-0.165
-640.668	-200.000	0.013	0.081
-639.653	-6.819	-0.302	0.206
-638.638	111.188	0.244	0.295
-637.624	-142.551	-0.337	0.033
-636.609	-27.316	0.186	-0.109
-635.595	-97.378	-0.217	0.057
-634.580	273.071	-0.089	-0.157
-633.565	-109.807	-0.132	0.028
-632.551	-200.000	0.007	0.203
-631.536	800.000	0.054	0.203
-630.522	49.107	0.069	-0.065
-629.507	-200.000	-0.007	0.126
-628.492	678.687	0.088	-0.230
-627.478	7.262	-0.134	-0.100
-626.463	-200.000	0.011	-0.147
-625.449	-80.191	0.336	-0.113
-624.434	56.610	0.084	-0.082
-623.419	-6.580	0.068	-0.046
-622.405	1.475	-0.179	-0.129
-621.390	-200.000	0.011	0.103
-620.376	-99.233	-0.094	-0.024
-619.361	33.175	0.220	0.191
-618.346	650.207	-0.123	-0.317
-617.332	-200.000	0.025	-0.167
-616.317	139.244	-0.056	-0.073
-615.303	-81.437	-0.089	0.029
-614.288	-200.000	0.049	-0.386
-613.273	-117.518	-0.085	0.015
-612.259	44.937	-0.291	0.269
-611.244	317.758	0.049	0.093
-610.230	-75.228	-0.139	0.050
-609.215	22.084	0.214	0.175
-608.201	328.099	0.044	0.084
-607.186	143.202	0.154	-0.205
-606.171	-0.340	0.035	0.025
-605.157	-200.000	-0.004	0.218
-604.142	-100.392	0.210	0.052
-603.128	-200.000	0.039	0.268
-602.113	210.120	-0.151	0.237
-601.098	306.999	0.091	-0.170
-600.084	-29.116	-0.068	0.039
-599.069	-39.099	0.305	-0.161
-598.055	17.810	-0.262	-0.209
-597.040	276.730	-0.074	0.132
-596.025	119.360	0.094	-0.117
-595.011	478.672	-0.135	0.307
-593.996	800.000	-0.068	0.235
-592.982	96.699	0.067	0.077
-591.967	-16.827	0.194	0.123
-590.952	-200.000	-0.044	-0.415
-589.938	800.000	-0.108	0.373
-588.923	-200.000	-0.000	-0.025
-587.909	-200.000	-0.009	0.289
-586.894	-30.100	0.349	0.199
-585.879	517.610	0.084	-0.196
-584.865	663.434	0.019	0.049
-583.850	-185.677	-0.314	0.005
-582.836	135.452	0.104	-0.135
-581.821	298.273	-0.165	-0.303
-580.806	5.463	-0.063	0.046
-579.792	111.973	-0.070	0.084
-578.777	-20.779	-0.085	0.052
-577.763	396.151	0.093	0.195
-576.748	-200.000	0.002	-0.044
-575.733	180.791	0.087	0.129
-574.719	-106.563	-0.133	0.030
-573.704	-11.804	0.212	0.139
-572.690	21.230	-0.150	-0.122
-571.675	800.000	-0.058	0.184
-570.661	-200.000	-0.063	0.301
-569.646	-155.932	0.354	-0.023
-568.631	166.829	-0.183	0.261
-567.617	-200.000	-0.004	0.077
-566.602	-200.000	-0.068	0.409
-565.588	-29.506	0.208	0.119
-564.573	800.000	-0.059	0.232
-563.558	232.651	-0.148	0.244
-562.544	95.081	-0.371	-0.422
-561.529	800.000	-0.078	0.250
-560.515	181.726	0.061	-0.090
-559.500	175.834	-0.004	0.005
-558.485	2.896	-0.415	-0.302
-557.471	-200.000	-0.002	-0.200
-556.456	-68.454	0.282	-0.110
-555.442	2.661	0.157	0.114
-554.427	-68.843	-0.173	0.067
-553.412	-46.409	0.124	-0.061
-552.398	709.591	-0.078	-0.206
-551.383	800.000	0.102	-0.309
-550.369	154.007	0.121	-0.166
-549.354	293.531	-0.123	-0.225
-548.339	800.000	0.053	0.164
-547.325	-200.000	-0.021	-0.256
-546.310	596.100	0.073	0.181
-545.296	-149.097	-0.209	0.017
-544.281	-200.000	-0.010	-0.061
-543.266	-35.886	0.098	0.053
-542.252	142.002	-0.062	0.082
-541.237	111.476	-0.046	-0.056
-540.223	-200.000	-0.027	-0.146
-539.208	79.715	-0.035	-0.038
-538.193	-135.729	0.145	-0.017
-537.179	-77.979	-0.290	0.100
-536.164	-47.750	-0.174	-0.084
-535.150	239.017	0.177	0.295
-534.135	800.000	-0.016	-0.062
-533.121	-43.190	0.149	-0.075
-532.106	-126.196	0.370	-0.055
-531.091	-200.000	0.040	0.195
-530.077	80.358	-0.090	-0.096
-529.062	23.102	0.071	-0.059
-528.048	-125.993	0.143	0.021
-527.033	800.000	-0.079	-0.227
-526.018	800.000	0.031	-0.099
-525.004	-200.000	0.011	-0.051
-523.989	-200.000	-0.020	-0.133
-522.975	-123.051	0.055	0.009
-521.960	-200.000	0.005	-0.105
-520.945	-11.697	0.157	0.103
-519.931	78.204	-0.272	-0.290
-518.916	-95.313	-0.183	-0.049
-517.902	-77.040	-0.169	-0.059
-516.887	-27.538	0.133	-0.077
-515.872	-200.000	-0.030	-0.201
-514.858	5.990	0.120	0.089
-513.843	-200.000	-0.021	0.192
-512.829	-200.000	0.045	0.233
-511.814	609.535	-0.063	-0.158
-510.799	4.702	-0.094	-0.069
-509.785	-85.021	-0.206	0.064
-508.770	-92.281	-0.198	-0.056
-507.756	-200.000	0.032	-0.452
-506.741	-108.773	-0.042	-0.009
-505.726	-86.003	-0.162	-0.050
-504.712	800.000	-0.051	-0.154
-503.697	-19.160	-0.096	-0.059
-502.683	-60.763	-0.273	-0.115
-501.668	38.078	0.228	0.203
-500.653	-200.000	0.049	0.215
-499.639	-73.271	-0.252	-0.092
-498.624	-200.000	-0.041	0.183
-497.610	800.000	-0.055	-0.211
-496.595	77.539	-0.269	-0.286
-495.581	97.945	0.222	-0.255
-494.566	-40.088	0.160	-0.083
-493.551	-29.146	-0.293	-0.168
-492.537	109.203	-0.005	0.006
-491.522	-200.000	-0.026	0.238
-490.508	62.507	0.129	-0.128
-489.493	-75.400	-0.131	-0.047
-488.478	-2.354	0.079	-0.055
-487.464	-200.000	0.040	0.345
-486.449	113.623	-0.365	-0.442
-485.435	563.519	-0.085	-0.206
-484.420	-200.000	-0.056	-0.254
-483.405	800.000	-0.047	-0.144
-482.391	113.763	-0.265	0.321
-481.376	-16.926	0.056	-0.035
-480.362	-121.728	0.180	-0.030
-479.347	73.755	-0.074	0.077
-478.332	125.191	-0.110	-0.139
-477.318	66.357	-0.261	0.265
-476.303	127.968	0.133	0.168
-475.289	50.240	0.110	0.104
-474.274	35.530	0.183	0.160
-473.259	800.000	0.018	-0.059
-472.245	-140.483	-0.169	-0.018
-471.230	-48.686	0.168	-0.081
-470.216	488.817	0.070	-0.159
-469.201	-148.130	-0.117	-0.010
-468.186	-96.650	-0.224	0.059
-467.172	-200.000	-0.019	-0.097
-466.157	32.207	-0.239	0.206
-465.143	800.000	0.037	0.153
-464.128	800.000	-0.032	0.138
-463.113	-200.000	-0.012	-0.067
-462.099	32.508	-0.154	-0.132
-461.084	42.789	-0.019	-0.018
-460.070	800.000	0.006	-0.023
-459.055	111.264	0.111	-0.134
-458.040	-157.059	-0.212	0.013
-457.026	-112.169	0.066	0.013
-456.011	-138.566	0.221	-0.024
-454.997	-145.851	-0.154	0.014
-453.982	-41.945	0.087	0.044
-452.968	-72.408	-0.191	-0.070
-451.953	-55.629	0.118	0.052
-450.938	-76.542	0.481	-0.168
-449.924	800.000	-0.073	-0.249
-448.909	800.000	-0.134	-0.447
-447.895	800.000	-0.100	-0.372
-446.880	294.928	0.117	-0.214
-445.865	-200.000	0.074	0.535
-444.851	-99.029	0.286	0.072
-443.836	-93.116	-0.404	0.112
-442.822	800.000	-0.054	-0.224
-441.807	238.812	-0.069	-0.115
-440.792	-147.169	0.169	0.014
-439.778	51.372	-0.155	0.147
-438.763	800.000	-0.039	-0.108
-437.749	-131.798	-0.528	-0.069
-436.734	16.887	0.222	-0.175
-435.719	299.829	-0.186	0.341
-434.705	800.000	-0.095	0.378
-433.690	32.203	-0.032	0.028
-432.676	211.230	0.084	-0.131
-431.661	147.917	0.215	0.289
-430.646	-63.621	-0.119	-0.049
-429.632	-29.469	-0.464	-0.264
-428.617	260.076	0.101	-0.174
-427.603	-75.331	0.465	-0.165
-426.588	-200.000	-0.003	0.068
-425.573	-119.432	0.281	-0.049
-424.559	781.904	0.073	0.198
-423.544	193.837	-0.099	0.149
-422.530	-19.041	-0.289	-0.179
-421.515	-200.000	0.020	0.153
-420.500	-200.000	-0.046	-0.344
-419.486	73.907	-0.137	0.143
-418.471	0.789	-0.089	-0.064
-417.457	-200.000	-0.013	-0.189
-416.442	-200.000	0.019	0.086
-415.428	145.713	-0.302	-0.402
-414.413	-200.000	-0.024	-0.168
-413.398	-32.052	0.152	-0.085
-412.384	800.000	0.056	0.224
-411.369	60.825	0.239	-0.236
-410.355	-127.694	0.091	-0.013
-409.340	-65.221	0.074	-0.030
-408.325	70.943	-0.207	0.213
-407.311	-28.907	0.260	-0.148
-406.296	112.351	0.013	0.016
-405.282	-29.829	-0.154	-0.088
-404.267	395.683	0.067	0.140
-403.252	-61.199	-0.287	0.120
-402.238	167.070	-0.140	-0.198
-401.223	-117.638	0.493	0.088
-400.209	-99.999	-0.365	-0.090
-399.194	212.705	0.223	-0.351
-398.179	440.840	-0.071	0.154
-397.165	-64.150	0.261	-0.106
-396.150	-135.474	-0.110	0.013
-395.136	-52.662	-0.304	0.140
-394.121	112.451	0.103	0.124
-393.106	800.000	0.085	0.333
-392.092	-200.000	-0.020	0.123
-391.077	-200.000	0.003	0.041
-390.063	12.371	0.233	-0.178
-389.048	-200.000	-0.073	0.404
-388.033	-125.722	0.231	0.035
-387.019	58.698	-0.109	-0.107
-386.004	-200.000	-0.005	0.073
-384.990	218.501	-0.158	-0.250
-383.975	75.501	-0.178	-0.186
-382.960	43.716	-0.194	0.177
-381.946	-35.987	-0.124	0.067
-380.931	-115.172	0.241	-0.045
-379.917	-200.000	-0.019	0.448
-378.902	800.000	0.026	0.106
-377.888	-200.000	0.003	-0.327
-376.873	-112.093	-0.163	0.033
-375.858	-53.944	0.052	-0.024
-374.844	-94.664	0.160	0.043
-373.829	19.359	-0.109	-0.087
-372.815	26.553	-0.201	-0.167
-371.800	-68.788	-0.142	0.055
-370.785	-200.000	0.019	0.114
-369.771	-115.042	0.244	-0.046
-368.756	144.714	-0.047	-0.063
-367.742	546.768	-0.059	0.141
-366.727	29.441	0.504	0.426
-365.712	75.398	0.087	-0.092
-364.698	70.097	0.244	-0.250
-363.683	-11.969	0.138	0.090
-362.669	-200.000	0.019	0.264
-361.654	105.719	-0.097	0.114
-360.639	-18.483	0.218	-0.135
-359.625	-199.108	0.246	0.001
-358.610	-39.057	-0.085	0.044
-357.596	-165.880	0.261	0.011
-356.581	-57.687	-0.110	0.048
-355.566	-24.970	-0.160	0.094
-354.552	-89.266	0.187	-0.055
-353.537	102.259	0.163	-0.189
-352.523	-52.397	-0.200	0.092
-351.508	-19.129	-0.302	0.186
-350.493	-45.825	-0.262	0.128
-349.479	229.074	-0.147	0.238
-348.464	-200.000	-0.011	-0.104
-347.450	100.704	0.224	-0.258
-346.435	-30.796	0.145	-0.081
-345.420	800.000	-0.057	0.211
-344.406	259.047	0.241	-0.413
-343.391	-200.000	-0.059	-0.345
-342.377	-123.508	-0.359	0.057
-341.362	-70.928	0.239	-0.089
-340.348	-200.000	0.031	-0.245
-339.333	119.764	0.348	-0.428
-338.318	587.994	0.093	-0.228
-337.304	-200.000	0.049	0.298
-336.289	359.256	-0.204	0.405
-335.275	-102.111	0.318	0.076
-334.260	-115.332	0.216	-0.040
-333.245	55.308	-0.038	0.036
-332.231	-66.512	-0.397	0.156
-331.216	800.000	0.038	-0.106
-330.202	-127.748	0.204	0.029
-329.187	65.761	-0.058	-0.058
-328.172	142.477	0.123	0.162
-327.158	-139.085	-0.282	0.030
-326.143	629.679	0.126	0.316
-325.129	412.070	0.188	0.395
-324.114	29.074	0.304	-0.256
-323.099	42.237	0.183	-0.165
-322.085	-24.101	-0.142	0.084
-321.070	-180.590	0.217	0.004
-320.056	197.711	0.117	-0.177
-319.041	800.000	-0.111	-0.329
-318.026	213.952	-0.056	0.088
-317.012	271.763	0.084	0.146
-315.997	-200.000	-0.009	-0.109
-314.983	72.497	0.261	0.270
-313.968	-166.055	0.232	0.010
-312.953	-91.550	-0.122	-0.035
-311.939	-3.042	0.077	0.053
-310.924	349.171	0.171	-0.335
-309.910	-71.379	-0.131	0.049
-308.895	-30.052	0.178	-0.100
-307.880	800.000	0.098	-0.302
-306.866	128.906	0.120	0.151
-305.851	-200.000	0.008	-0.253
-304.837	92.983	-0.154	-0.172
-303.822	59.454	0.212	-0.207
-302.807	461.295	0.036	-0.079
-301.793	536.452	-0.086	-0.201
-300.778	-1.204	-0.205	-0.143
-299.764	-200.000	0.033	0.141
-298.749	-24.626	-0.416	0.245
-297.735	-138.721	-0.190	-0.021
-296.720	-45.672	0.180	-0.088
-295.705	622.377	0.216	-0.538
-294.691	-118.919	-0.275	0.048
-293.676	-99.864	-0.322	0.080
-292.662	-125.936	0.031	-0.005
-291.647	-200.000	0.022	-0.181
-290.632	800.000	-0.038	-0.123
-289.618	9.665	-0.544	-0.408
-288.603	644.627	0.083	0.209
-287.589	-200.000	0.046	0.245
-286.574	-139.462	-0.203	-0.022
-285.559	145.740	0.108	-0.143
-284.545	-47.860	-0.313	-0.150
-283.530	1.973	0.155	0.111
-282.516	186.470	-0.050	0.074
-281.501	-67.505	-0.269	0.104
-280.486	477.446	-0.052	0.117
-279.472	-5.621	0.160	0.109
-278.457	441.994	0.144	-0.313
-277.443	577.896	0.052	0.126
-276.428	13.321	0.065	0.050
-275.413	-58.992	-0.282	0.121
-274.399	800.000	0.104	0.360
-273.384	-79.071	-0.196	-0.066
-272.370	124.446	0.102	0.127
-271.355	-69.246	-0.080	-0.030
-270.340	201.974	-0.171	0.261
-269.326	-200.000	-0.035	-0.185
-268.311	-200.000	-0.018	0.193
-267.297	93.188	0.149	-0.167
-266.282	-200.000	0.012	0.455
-265.267	389.243	0.075	0.153
-264.253	-115.923	0.115	0.021
-263.238	397.107	0.198	0.410
-262.224	800.000	-0.049	-0.210
-261.209	-46.902	0.263	0.127
-260.195	-200.000	0.384	-0.002
-259.180	173.023	-0.182	0.259
-258.165	-51.056	-0.199	-0.093
-257.151	-31.890	-0.195	0.108
-256.136	-200.000	-0.032	0.298
-255.122	-200.000	-0.032	-0.185
-254.107	-200.000	0.004	0.065
-253.092	-200.000	0.023	0.478
-252.078	-91.991	0.128	-0.036
-251.063	-77.761	-0.021	-0.007
-250.049	25.776	-0.372	-0.306
-249.034	-200.000	0.071	-0.316
-248.019	7.161	-0.039	-0.029
-247.005	800.000	-0.057	-0.235
-245.990	-47.474	-0.158	0.076
-244.976	-190.220	0.164	-0.002
-243.961	-158.081	0.181	0.011
-242.946	122.763	0.077	0.096
-241.932	-57.644	0.388	-0.168
-240.917	-200.000	-0.003	0.138
-239.903	-191.943	0.403	-0.004
-238.888	-180.916	-0.052	-0.001
-237.873	43.896	-0.127	-0.115
-236.859	-90.877	0.459	0.130
-235.844	71.572	-0.156	0.160
-234.830	-147.760	0.020	0.002
-233.815	800.000	-0.056	0.200
-232.800	-72.931	-0.110	0.040
-231.786	-168.357	0.245	0.009
-230.771	800.000	0.041	-0.136
-229.757	-70.422	-0.233	0.087
-228.742	-143.142	-0.170	0.016
-227.727	72.328	0.174	-0.179
-226.713	800.000	-0.158	0.462
-225.698	731.121	-0.049	0.129
-224.684	-71.219	0.250	0.093
-223.669	268.313	-0.092	0.160
-222.655	-94.835	0.326	-0.087
-221.640	-4.732	0.030	0.021
-220.625	-4.315	-0.221	0.151
-219.611	638.888	-0.104	0.262
-218.596	197.924	0.078	-0.118
-217.582	-200.000	0.049	0.329
-216.567	-200.000	0.075	-0.392
-215.552	474.154	0.160	-0.356
-214.538	67.406	-0.205	0.207
-213.523	-9.767	0.193	0.127
-212.509	-101.068	-0.531	-0.128
-211.494	242.809	0.028	-0.047
-210.479	264.259	0.283	0.487
-209.465	400.376	-0.109	0.225
-208.450	-60.908	0.045	0.019
-207.436	800.000	0.093	0.284
-206.421	-198.616	0.159	0.001
-205.406	500.114	-0.122	-0.278
-204.392	-29.986	0.350	0.197
-203.377	30.795	-0.074	-0.062
-202.363	-28.654	0.183	0.104
-201.348	687.986	0.061	-0.158
-200.333	82.560	-0.163	-0.175
-199.319	-64.188	0.393	-0.158
-198.304	800.000	0.104	0.293
-197.290	564.538	-0.170	0.406
-196.275	800.000	0.081	0.315
-195.260	69.416	-0.227	0.230
-194.246	-200.000	-0.054	-0.430
-193.231	31.929	-0.157	-0.133
-192.217	112.563	-0.034	0.041
-191.202	199.300	-0.215	-0.324
-190.187	-32.507	0.190	-0.105
-189.173	-42.029	0.134	0.068
-188.158	150.380	-0.122	-0.164
-187.144	-200.000	-0.003	-0.133
-186.129	347.857	0.029	-0.056
-185.114	-40.451	-0.128	-0.065
-184.100	800.000	0.126	0.346
-183.085	70.259	-0.095	-0.097
-182.071	-78.949	0.095	0.032
-181.056	800.000	0.025	0.107
-180.042	785.072	-0.058	-0.156
-179.027	-200.000	-0.026	-0.167
-178.012	0.471	-0.180	0.127
-176.998	226.792	0.111	0.178
-175.983	800.000	0.061	-0.226
-174.969	107.516	0.020	-0.023
-173.954	107.412	-0.167	0.196
-172.939	224.677	-0.249	0.396
-171.925	800.000	0.080	-0.330
-170.910	227.047	0.044	-0.071
-169.896	214.257	-0.077	-0.120
-168.881	2.663	0.382	0.273
-167.866	65.020	0.213	-0.212
-166.852	360.791	0.162	-0.320
-165.837	-200.000	-0.007	-0.202
-164.823	242.145	0.149	0.246
-163.808	-200.000	0.023	0.282
-162.793	137.529	-0.078	0.101
-161.779	800.000	0.029	0.104
-160.764	532.704	-0.036	-0.083
-159.750	44.374	0.170	0.154
-158.735	36.157	0.207	0.180
-157.720	800.000	0.099	0.388
-156.706	-96.697	-0.328	0.085
-155.691	384.185	0.046	-0.093
-154.677	-70.528	0.138	-0.052
-153.662	77.186	0.109	0.114
-152.647	42.649	-0.254	-0.228
-151.633	-200.000	0.014	-0.276
-150.618	-200.000	-0.001	-0.023
-149.604	62.486	-0.169	-0.166
-148.589	-72.869	-0.134	-0.049
-147.574	-120.002	0.068	0.011
-146.560	-52.056	0.168	-0.077
-145.545	800.000	-0.035	0.099
-144.531	-200.000	-0.078	0.432
-143.516	658.267	-0.121	-0.307
-142.502	-137.164	-0.148	-0.017
-141.487	800.000	-0.074	0.228
-140.472	-200.000	-0.004	0.188
-139.458	202.042	-0.081	-0.122
-138.443	103.263	0.222	-0.256
-137.429	104.568	0.169	-0.196
-136.414	800.000	0.032	0.088
-135.399	-42.459	-0.185	-0.093
-134.385	166.257	-0.148	-0.206
-133.370	-200.000	0.003	-0.025
-132.356	702.178	0.017	0.045
-131.341	48.481	0.098	0.090
-130.326	-44.207	0.099	-0.049
-129.312	183.599	-0.176	-0.256
-128.297	172.660	-0.126	-0.179
-127.283	65.915	0.235	0.235
-126.268	107.635	0.198	0.231
-125.253	-100.570	-0.110	-0.027
-124.239	-200.000	0.011	-0.058
-123.224	-84.708	-0.243	-0.075
-122.210	144.196	0.214	0.281
-121.195	252.919	0.134	-0.225
-120.180	800.000	0.081	0.265
