DTS Sentinel unit serial number:	SN413079Multiplexer serial number:	ORYXHardware model number:	OX4-SRSoftware version number:	ORYX F/W v4.00 Oryx Data Collector v3.7.2.0data status	okinstallation	princeton_trtdifferential loss correction	single-endedforward channel	channel 3reverse channel	N/Adate	2019/09/17time	13:24:35forward acquisition time	60.00reverse acquisition time	0.00gamma	496.2192k internal	0.2308k external	0.2308temperature offset calibration	0.9956default loss term (dB/km)	0.3790temperature slope calibration	1.0000multiplexer offset coefficient	1.0000multiplexer slope coefficient	1.0000fibre end	0.00T internal ref (°C)	34.37T ext. ref 1 (°C)	0.41T ext. ref 2 (°C)	31.38length (m)	temperature (°C)	Stokes	anti-Stokes-747.200	-167.183	-0.271	0.011
-746.185	149.805	0.061	0.084
-745.171	-166.703	0.018	0.001
-744.156	-86.728	-0.410	0.127
-743.142	91.813	0.203	-0.232
-742.127	-200.000	-0.028	0.231
-741.112	-200.000	0.053	0.313
-740.098	57.434	-0.152	0.151
-739.083	800.000	-0.017	0.060
-738.069	14.950	0.337	0.268
-737.054	-44.759	0.319	0.162
-736.039	-61.586	-0.237	-0.101
-735.025	800.000	0.076	0.310
-734.010	-99.341	-0.352	-0.090
-732.996	-42.149	0.221	-0.115
-731.981	-157.688	-0.317	0.019
-730.966	-20.099	-0.153	0.096
-729.952	47.432	-0.264	0.250
-728.937	-200.000	-0.036	-0.325
-727.923	-5.565	-0.282	-0.197
-726.908	-200.000	0.025	0.280
-725.894	220.251	-0.087	0.142
-724.879	800.000	-0.068	-0.278
-723.864	158.143	0.259	0.365
-722.850	155.213	-0.107	-0.150
-721.835	-200.000	-0.030	-0.192
-720.821	116.604	-0.136	-0.169
-719.806	-200.000	-0.024	-0.150
-718.791	-41.747	-0.253	0.132
-717.777	-123.497	-0.091	-0.015
-716.762	-15.449	-0.132	0.086
-715.748	53.125	0.094	-0.091
-714.733	383.913	-0.124	-0.260
-713.718	800.000	0.042	0.122
-712.704	399.262	-0.094	0.200
-711.689	-91.430	0.024	0.007
-710.675	-200.000	-0.008	-0.068
-709.660	-200.000	-0.021	-0.287
-708.645	22.828	-0.049	-0.040
-707.631	-82.533	0.388	0.128
-706.616	129.856	-0.221	-0.287
-705.602	0.235	-0.059	-0.042
-704.587	-5.694	-0.116	-0.080
-703.572	-200.000	0.023	-0.235
-702.558	-98.979	0.128	0.033
-701.543	63.325	-0.080	0.082
-700.529	720.491	0.047	-0.128
-699.514	621.828	-0.068	-0.173
-698.499	-96.757	0.302	-0.081
-697.485	800.000	-0.043	-0.191
-696.470	-51.057	-0.264	-0.126
-695.456	800.000	-0.034	0.132
-694.441	219.441	-0.255	0.413
-693.426	-200.000	0.012	0.447
-692.412	-78.831	-0.110	0.038
-691.397	-91.892	0.147	0.042
-690.383	-200.000	0.014	-0.290
-689.368	-40.378	-0.334	0.176
-688.354	800.000	-0.041	0.180
-687.339	-68.185	0.169	0.067
-686.324	800.000	-0.047	-0.202
-685.310	800.000	0.070	-0.235
-684.295	5.518	-0.158	0.118
-683.281	-112.694	-0.148	-0.030
-682.266	-32.307	-0.249	-0.141
-681.251	-95.356	-0.157	0.043
-680.237	-144.711	0.202	-0.019
-679.222	181.115	-0.133	-0.198
-678.208	265.197	0.112	0.197
-677.193	5.841	-0.217	-0.163
-676.178	268.707	-0.118	-0.210
-675.164	-200.000	-0.000	0.146
-674.149	46.029	-0.142	-0.134
-673.135	-123.293	-0.098	0.016
-672.120	800.000	0.047	-0.173
-671.105	-200.000	-0.121	-0.000
-670.091	-200.000	-0.021	0.173
-669.076	800.000	0.016	0.061
-668.062	-132.200	-0.254	-0.033
-667.047	-62.941	-0.314	-0.132
-666.032	-57.873	-0.019	-0.008
-665.018	599.975	0.120	0.302
-664.003	-72.092	0.277	0.104
-662.989	44.939	0.339	0.316
-661.974	-200.000	-0.104	-0.485
-660.959	800.000	-0.012	0.054
-659.945	-200.000	0.090	-0.516
-658.930	-134.057	-0.174	-0.022
-657.916	110.899	0.047	0.057
-656.901	-103.307	0.333	0.080
-655.886	-91.705	0.439	0.126
-654.872	800.000	0.077	-0.221
-653.857	-101.658	0.044	-0.011
-652.843	-134.138	0.382	0.048
-651.828	166.777	0.034	0.048
-650.814	-200.000	0.014	-0.142
-649.799	258.227	0.037	0.064
-648.784	800.000	0.102	-0.300
-647.770	-200.000	0.001	0.227
-646.755	-88.658	-0.217	-0.065
-645.741	800.000	0.025	0.102
-644.726	-56.438	-0.025	-0.011
-643.711	-47.800	0.092	0.045
-642.697	202.462	-0.211	-0.329
-641.682	-66.241	0.138	-0.056
-640.668	37.611	-0.241	-0.217
-639.653	-200.000	-0.017	-0.362
-638.638	-196.104	0.067	0.000
-637.624	-124.894	-0.174	0.027
-636.609	-72.818	-0.103	0.038
-635.595	0.894	-0.040	0.029
-634.580	-161.967	-0.182	-0.009
-633.565	104.108	-0.038	0.045
-632.551	781.269	0.036	0.100
-631.536	-42.724	-0.305	-0.157
-630.522	56.608	0.334	-0.329
-629.507	-200.000	-0.051	-0.325
-628.492	-78.613	-0.341	0.118
-627.478	-57.941	0.296	0.131
-626.463	800.000	-0.044	-0.175
-625.449	110.785	0.164	-0.200
-624.434	-147.050	-0.239	-0.021
-623.419	724.247	-0.086	-0.231
-622.405	-57.573	-0.043	0.019
-621.390	-19.424	0.241	-0.151
-620.376	-45.878	-0.008	-0.004
-619.361	-90.106	-0.301	0.089
-618.346	-200.000	0.014	0.150
-617.332	-110.013	0.242	-0.051
-616.317	121.977	-0.205	0.259
-615.303	-200.000	-0.014	-0.067
-614.288	348.279	-0.031	0.061
-613.273	609.432	0.067	-0.169
-612.259	275.175	-0.073	-0.132
-611.244	501.328	-0.101	-0.236
-610.230	55.376	0.285	-0.279
-609.215	-144.059	-0.194	-0.018
-608.201	156.819	0.075	0.104
-607.186	-200.000	0.049	0.256
-606.171	-48.453	-0.236	-0.115
-605.157	117.157	-0.125	0.155
-604.142	-124.643	0.312	0.049
-603.128	-45.083	0.401	-0.202
-602.113	88.101	-0.199	-0.223
-601.098	-83.689	-0.109	0.035
-600.084	62.728	0.135	0.136
-599.069	-94.302	-0.303	0.084
-598.055	24.435	-0.178	0.148
-597.040	35.221	-0.080	0.071
-596.025	55.884	0.083	0.081
-595.011	-67.141	0.151	0.060
-593.996	-119.073	0.226	-0.040
-592.982	-125.356	-0.374	0.058
-591.967	729.830	0.104	0.280
-590.952	-200.000	-0.032	0.264
-589.938	-97.435	0.221	0.058
-588.923	-148.313	0.374	-0.031
-587.909	383.579	0.094	0.196
-586.894	-100.100	-0.297	0.075
-585.879	100.308	0.177	0.208
-584.865	302.325	-0.099	0.185
-583.850	-12.104	-0.047	-0.031
-582.836	97.610	-0.050	-0.058
-581.821	117.274	-0.245	0.304
-580.806	256.916	0.121	-0.211
-579.792	-61.242	-0.180	-0.077
-578.777	128.741	-0.201	-0.258
-577.763	-84.874	-0.304	-0.096
-576.748	-0.979	0.212	-0.152
-575.733	-64.404	-0.421	0.173
-574.719	-57.370	-0.379	0.168
-573.704	140.366	0.055	-0.073
-572.690	-100.106	-0.126	0.032
-571.675	800.000	-0.028	-0.078
-570.661	278.637	-0.133	-0.239
-569.646	263.896	0.228	0.400
-568.631	-19.086	-0.233	0.146
-567.617	-136.173	0.327	-0.039
-566.602	800.000	-0.007	0.028
-565.588	-63.420	0.212	0.088
-564.573	-200.000	0.062	0.465
-563.558	-196.607	-0.347	-0.002
-562.544	116.580	0.057	-0.070
-561.529	79.313	0.281	-0.304
-560.515	77.902	-0.128	0.137
-559.500	-81.926	-0.050	-0.016
-558.485	95.732	0.167	0.193
-557.471	-116.027	-0.209	0.039
-556.456	-72.421	-0.307	-0.114
-555.442	-200.000	-0.002	-0.196
-554.427	2.461	-0.222	0.162
-553.412	-71.656	-0.279	0.105
-552.398	-63.574	-0.220	0.091
-551.383	68.184	0.121	0.125
-550.369	800.000	-0.027	0.081
-549.354	-64.955	0.183	-0.075
-548.339	-183.598	-0.567	0.010
-547.325	328.217	0.151	0.292
-546.310	-200.000	0.033	-0.248
-545.296	14.661	-0.252	0.199
-544.281	-68.443	0.238	0.093
-543.266	479.249	-0.154	0.353
-542.252	-43.775	0.228	0.116
-541.237	-45.579	-0.133	0.067
-540.223	-200.000	0.016	0.165
-539.208	88.558	0.219	-0.246
-538.193	202.509	0.131	-0.204
-537.179	215.906	0.062	-0.100
-536.164	94.943	-0.205	0.236
-535.150	800.000	0.083	-0.259
-534.135	-0.714	-0.217	-0.155
-533.121	-100.947	-0.099	-0.024
-532.106	446.173	-0.193	-0.428
-531.091	364.065	0.055	-0.112
-530.077	77.690	0.032	0.035
-529.062	93.303	0.225	0.257
-528.048	-200.000	0.034	0.282
-527.033	668.646	-0.027	0.070
-526.018	66.608	0.223	-0.228
-525.004	-200.000	-0.023	0.114
-523.989	293.042	0.095	-0.174
-522.975	-52.185	0.288	-0.135
-521.960	-65.103	-0.223	0.091
-520.945	-200.000	0.014	0.064
-519.931	-87.668	0.120	-0.036
-518.916	-161.051	-0.149	0.008
-517.902	-46.244	0.094	-0.047
-516.887	-104.775	0.435	-0.101
-515.872	-145.442	0.139	0.013
-514.858	-200.000	-0.054	0.290
-513.843	-21.736	-0.391	0.240
-512.829	-15.822	-0.176	0.113
-511.814	-6.493	-0.374	0.257
-510.799	416.902	-0.108	0.233
-509.785	-21.446	0.142	0.087
-508.770	53.786	-0.052	0.051
-507.756	115.476	-0.166	-0.204
-506.741	365.425	-0.018	-0.036
-505.726	-59.705	-0.090	0.039
-504.712	86.031	-0.032	0.036
-503.697	190.967	-0.090	-0.136
-502.683	-200.000	0.063	-0.290
-501.668	-108.501	-0.355	-0.077
-500.653	800.000	0.089	0.355
-499.639	-200.000	0.078	0.390
-498.624	-200.000	-0.005	0.085
-497.610	-77.998	-0.061	0.021
-496.595	36.841	0.051	0.046
-495.581	304.970	-0.260	-0.485
-494.566	-200.000	0.012	-0.323
-493.551	23.001	-0.249	-0.205
-492.537	425.687	-0.076	-0.165
-491.522	-18.402	-0.069	0.044
-490.508	-200.000	0.013	0.188
-489.493	-72.590	0.212	0.079
-488.478	-34.378	0.226	-0.125
-487.464	261.774	0.223	-0.388
-486.449	-200.000	0.097	-0.452
-485.435	199.628	-0.124	-0.191
-484.420	-160.424	-0.172	-0.009
-483.405	-163.503	-0.372	-0.018
-482.391	-200.000	-0.030	0.289
-481.376	708.084	-0.035	0.093
-480.362	30.111	0.105	-0.090
-479.347	-66.248	-0.119	0.048
-478.332	47.596	0.239	-0.225
-477.318	111.712	0.120	-0.146
-476.303	650.865	0.052	0.135
-475.289	800.000	0.060	0.182
-474.274	800.000	0.057	0.219
-473.259	61.715	-0.141	0.141
-472.245	2.878	0.158	-0.115
-471.230	-200.000	-0.020	-0.140
-470.216	37.728	-0.105	-0.094
-469.201	800.000	0.027	0.088
-468.186	-98.248	0.281	-0.073
-467.172	394.594	-0.124	-0.260
-466.157	-200.000	-0.535	0.000
-465.143	-20.258	0.120	-0.074
-464.128	212.500	0.102	0.161
-463.113	800.000	0.025	-0.083
-462.099	-21.505	0.072	0.044
-461.084	-181.947	-0.289	0.006
-460.070	97.793	0.314	0.363
-459.055	-62.912	0.135	0.056
-458.040	47.319	-0.051	-0.048
-457.026	-200.000	0.008	-0.206
-456.011	800.000	0.027	-0.081
-454.997	-106.050	-0.183	0.041
-453.982	-172.372	-0.098	0.003
-452.968	-117.714	-0.301	-0.054
-451.953	-69.846	-0.288	-0.111
-450.938	141.052	0.196	0.261
-449.924	73.705	-0.048	-0.050
-448.909	-200.000	0.037	-0.198
-447.895	800.000	0.118	-0.515
-446.880	-200.000	0.241	-0.001
-445.865	183.647	-0.164	0.243
-444.851	21.811	0.135	-0.111
-443.836	-139.216	-0.193	0.021
-442.822	-63.252	0.095	-0.039
-441.807	241.811	-0.039	0.066
-440.792	432.688	0.084	0.182
-439.778	-71.735	-0.408	0.153
-438.763	-138.447	0.130	-0.014
-437.749	-200.000	0.003	-0.157
-436.734	-73.073	0.523	0.193
-435.719	72.460	-0.254	0.266
-434.705	-4.131	0.206	-0.144
-433.690	-115.142	0.220	0.042
-432.676	800.000	0.073	0.252
-431.661	215.038	-0.155	0.247
-430.646	-200.000	0.017	0.352
-429.632	-20.716	0.174	-0.108
-428.617	-51.089	0.159	-0.075
-427.603	-143.981	-0.028	-0.003
-426.588	33.714	-0.111	-0.097
-425.573	-200.000	0.038	-0.197
-424.559	104.633	-0.219	0.259
-423.544	-63.882	0.204	-0.084
-422.530	800.000	0.121	-0.502
-421.515	374.544	-0.229	-0.468
-420.500	23.226	-0.066	-0.054
-419.486	245.142	0.165	-0.278
-418.471	-200.000	-0.026	-0.182
-417.457	-143.761	0.185	0.018
-416.442	26.955	0.184	-0.155
-415.428	-73.373	0.139	-0.051
-414.413	55.337	0.227	0.221
-413.398	-200.000	-0.045	0.321
-412.384	-73.608	-0.287	0.105
-411.369	-200.000	0.001	0.232
-410.355	-58.960	0.209	-0.091
-409.340	-52.588	0.118	0.054
-408.325	-143.213	-0.339	-0.033
-407.311	-143.855	0.210	-0.020
-406.296	-84.349	-0.154	-0.049
-405.282	-12.045	-0.228	-0.150
-404.267	-54.579	0.247	-0.112
-403.252	319.373	-0.025	0.047
-402.238	-64.113	0.050	-0.021
-401.223	10.057	0.386	-0.294
-400.209	105.573	-0.370	-0.439
-399.194	269.059	-0.105	-0.184
-398.179	467.951	0.067	0.151
-397.165	800.000	-0.056	0.160
-396.150	800.000	0.070	-0.251
-395.136	19.515	0.108	-0.087
-394.121	43.036	-0.074	0.068
-393.106	-173.511	-0.451	-0.014
-392.092	-126.011	0.066	-0.010
-391.077	11.733	-0.207	0.159
-390.063	-200.000	0.000	0.060
-389.048	-68.708	-0.040	-0.015
-388.033	-168.790	-0.381	0.014
-387.019	-200.000	-0.012	-0.137
-386.004	-129.937	-0.129	0.018
-384.990	-80.288	-0.159	0.053
-383.975	-59.724	0.397	-0.170
-382.960	146.644	0.094	-0.126
-381.946	-33.772	-0.262	0.145
-380.931	-111.735	0.234	0.047
-379.917	-46.086	0.219	-0.108
-378.902	780.842	0.085	-0.234
-377.888	357.611	-0.127	0.253
-376.873	-126.732	0.170	-0.025
-375.858	66.591	0.271	-0.276
-374.844	235.853	-0.159	0.264
-373.829	-129.357	-0.278	-0.039
-372.815	-200.000	0.033	0.172
-371.800	42.865	-0.032	0.029
-370.785	134.929	0.092	0.119
-369.771	388.512	-0.117	-0.243
-368.756	217.194	-0.108	0.173
-367.742	61.338	0.163	0.163
-366.727	-46.078	0.045	0.022
-365.712	402.456	0.072	0.151
-364.698	13.629	-0.133	0.104
-363.683	-200.000	-0.008	0.072
-362.669	-46.297	0.162	-0.080
-361.654	558.130	0.046	-0.110
-360.639	42.081	0.089	-0.081
-359.625	-58.644	-0.422	-0.183
-358.610	570.238	0.063	0.153
-357.596	800.000	-0.028	-0.086
-356.581	-1.733	-0.280	0.198
-355.566	94.379	-0.113	0.128
-354.552	800.000	0.046	-0.155
-353.537	-200.000	-0.009	-0.252
-352.523	-2.881	-0.100	0.070
-351.508	-72.223	-0.214	-0.079
-350.493	-62.986	0.092	0.038
-349.479	243.557	-0.082	0.138
-348.464	-200.000	-0.014	-0.137
-347.450	-26.613	-0.141	0.083
-346.435	-105.056	0.183	0.042
-345.420	296.026	-0.030	-0.056
-344.406	-133.849	0.059	0.007
-343.391	-100.048	0.134	-0.033
-342.377	289.456	0.184	0.334
-341.362	-20.869	0.108	-0.066
-340.348	-200.000	0.020	-0.241
-339.333	-13.059	-0.084	0.054
-338.318	-110.668	0.204	-0.042
-337.304	-56.983	0.135	0.060
-336.289	-159.742	-0.334	0.018
-335.275	-200.000	0.034	0.178
-334.260	211.227	-0.090	-0.142
-333.245	-103.896	0.063	-0.015
-332.231	89.822	0.233	0.261
-331.216	-44.453	0.194	0.097
-330.202	-129.477	-0.166	0.023
-329.187	-200.000	-0.006	0.314
-328.172	-83.626	0.114	0.037
-327.158	-47.778	0.254	-0.123
-326.143	627.026	-0.113	-0.286
-325.129	45.349	-0.285	0.263
-324.114	695.783	0.084	0.220
-323.099	-24.306	0.279	-0.167
-322.085	-200.000	0.036	-0.218
-321.070	-200.000	0.005	-0.114
-320.056	800.000	0.064	-0.196
-319.041	800.000	-0.186	-0.529
-318.026	-200.000	-0.010	-0.096
-317.012	-200.000	0.053	0.273
-315.997	-90.664	0.195	-0.056
-314.983	51.127	0.107	-0.101
-313.968	76.773	-0.182	0.193
-312.953	-37.353	-0.412	0.220
-311.939	-200.000	-0.069	0.446
-310.924	140.159	-0.131	0.172
-309.910	293.499	-0.223	-0.407
-308.895	-102.960	-0.182	-0.043
-307.880	121.044	-0.107	0.133
-306.866	31.799	-0.075	0.065
-305.851	19.962	-0.259	-0.209
-304.837	16.868	-0.105	0.083
-303.822	1.426	0.419	0.301
-302.807	-132.383	0.145	0.019
-301.793	57.509	-0.179	-0.175
-300.778	-56.178	-0.228	-0.101
-299.764	-42.473	0.194	-0.099
-298.749	201.722	0.104	0.160
-297.735	569.465	0.007	0.018
-296.720	-151.191	0.465	-0.035
-295.705	-200.000	0.011	0.135
-294.691	-90.813	0.229	0.066
-293.676	216.122	0.210	0.334
-292.662	-19.913	-0.082	0.051
-291.647	-200.000	-0.012	0.070
-290.632	800.000	0.069	-0.192
-289.618	177.041	0.196	-0.284
-288.603	180.666	0.128	-0.188
-287.589	-54.229	0.232	-0.105
-286.574	203.108	0.046	0.072
-285.559	-200.000	-0.056	-0.276
-284.545	-39.581	0.220	0.115
-283.530	88.711	-0.160	0.177
-282.516	-73.902	0.261	-0.095
-281.501	69.411	-0.195	-0.200
-280.486	800.000	-0.015	-0.061
-279.472	-37.595	0.200	-0.106
-278.457	-153.291	0.260	0.018
-277.443	800.000	0.060	-0.167
-276.428	-0.132	-0.193	0.137
-275.413	31.786	-0.160	0.137
-274.399	800.000	0.085	0.275
-273.384	-17.311	-0.061	-0.038
-272.370	205.304	0.036	0.056
-271.355	-1.177	0.401	-0.283
-270.340	-130.705	-0.121	-0.016
-269.326	7.861	0.130	-0.097
-268.311	108.993	-0.195	0.233
-267.297	-200.000	0.228	0.000
-266.282	-100.272	-0.184	0.046
-265.267	234.981	-0.094	0.155
-264.253	-111.125	0.215	0.044
-263.238	9.341	0.067	-0.051
-262.224	140.127	-0.200	0.264
-261.209	-200.000	0.223	-0.000
-260.195	71.466	-0.093	0.096
-259.180	-3.275	-0.184	0.128
-258.165	-162.869	0.205	0.010
-257.151	18.455	0.072	0.057
-256.136	-108.047	0.192	-0.042
-255.122	-131.188	0.290	0.038
-254.107	41.714	-0.194	-0.175
-253.092	18.396	0.124	0.099
-252.078	408.342	0.176	-0.371
-251.063	-143.289	0.211	-0.020
-250.049	-43.732	0.295	0.148
-249.034	-164.408	-0.229	0.010
-248.019	37.346	-0.191	-0.169
-247.005	800.000	0.063	-0.271
-245.990	-113.517	0.212	0.041
-244.976	-166.906	-0.240	0.010
-243.961	-200.000	0.001	-0.229
-242.946	-164.849	-0.240	0.011
-241.932	99.281	0.154	0.177
-240.917	-200.000	0.011	-0.303
-239.903	244.099	0.024	0.041
-238.888	-200.000	0.025	-0.268
-237.873	-200.000	0.032	-0.197
-236.859	-200.000	-0.012	-0.201
-235.844	-200.000	0.002	-0.400
-234.830	87.896	0.143	0.158
-233.815	-200.000	0.038	-0.441
-232.800	-26.158	0.088	-0.051
-231.786	28.427	-0.336	0.283
-230.771	-75.236	-0.191	-0.068
-229.757	-200.000	-0.011	0.234
-228.742	800.000	0.028	-0.082
-227.727	-32.318	0.265	0.147
-226.713	800.000	-0.064	-0.183
-225.698	85.174	-0.173	-0.189
-224.684	-154.707	0.122	0.008
-223.669	75.941	-0.164	-0.172
-222.655	72.749	0.093	0.097
-221.640	-181.627	0.186	0.004
-220.625	-200.000	-0.030	0.140
-219.611	-200.000	-0.008	0.301
-218.596	-200.000	0.049	-0.273
-217.582	-200.000	0.000	0.351
-216.567	-164.912	0.203	-0.009
-215.552	-183.481	0.054	0.001
-214.538	-77.498	0.116	0.040
-213.523	59.018	-0.106	0.104
-212.509	99.801	-0.082	0.094
-211.494	251.639	-0.085	0.145
-210.479	511.796	0.090	0.208
-209.465	89.404	-0.041	0.045
-208.450	-200.000	0.029	0.143
-207.436	150.273	0.050	-0.068
-206.421	-109.007	-0.361	-0.077
-205.406	208.046	-0.095	-0.148
-204.392	-171.528	-0.198	0.007
-203.377	-37.285	0.307	0.163
-202.363	214.043	-0.077	-0.121
-201.348	-35.121	-0.310	-0.168
-200.333	-3.386	0.139	-0.097
-199.319	-41.886	0.275	0.140
-198.304	-30.827	-0.191	-0.107
-197.290	-78.369	-0.115	-0.039
-196.275	-200.000	0.039	0.324
-195.260	142.081	-0.213	-0.281
-194.246	800.000	-0.070	-0.237
-193.231	-200.000	-0.031	0.360
-192.217	-15.647	-0.037	-0.023
-191.202	800.000	0.020	0.063
-190.187	800.000	-0.090	-0.312
-189.173	-2.969	0.226	0.157
-188.158	-200.000	0.045	0.317
-187.144	-60.884	0.251	0.106
-186.129	40.500	-0.214	0.192
-185.114	-200.000	0.019	-0.129
-184.100	800.000	0.072	-0.286
-183.085	-44.131	0.230	0.115
-182.071	17.351	0.295	0.233
-181.056	-0.975	0.154	0.108
-180.042	-45.269	0.117	0.058
-179.027	-90.139	0.306	-0.089
-178.012	-200.000	-0.002	0.123
-176.998	-78.282	0.213	0.073
-175.983	544.216	-0.073	-0.173
-174.969	95.629	0.289	0.327
-173.954	-20.107	-0.094	0.057
-172.939	-6.602	0.174	-0.118
-171.925	-63.325	-0.333	-0.136
-170.910	-107.210	0.161	0.035
-169.896	293.679	0.089	0.162
-168.881	49.564	-0.079	-0.074
-167.866	-56.292	-0.176	-0.078
-166.852	63.655	0.204	0.204
-165.837	2.738	-0.248	0.179
-164.823	-77.732	0.246	-0.084
-163.808	11.898	-0.204	0.155
-162.793	-44.603	-0.224	0.111
-161.779	-81.688	0.270	0.088
-160.764	-33.411	0.155	0.085
-159.750	-36.529	-0.088	-0.047
-158.735	355.014	0.064	-0.126
-157.720	-200.000	0.036	0.194
-156.706	45.150	0.207	0.190
-155.691	-95.774	0.208	-0.055
-154.677	-200.000	-0.008	0.061
-153.662	443.760	-0.168	0.366
-152.647	-100.482	0.408	-0.100
-151.633	14.217	-0.130	-0.101
-150.618	-97.522	0.338	0.087
-149.604	-59.127	0.189	0.081
-148.589	35.505	0.098	0.086
-147.574	194.989	0.152	0.229
-146.560	800.000	0.061	0.202
-145.545	-200.000	0.008	-0.038
-144.531	-130.449	0.247	-0.033
-143.516	691.589	-0.051	-0.134
-142.502	-5.665	0.066	0.045
-141.487	-200.000	0.044	0.200
-140.472	103.840	0.092	-0.107
-139.458	-105.348	-0.185	-0.042
-138.443	-54.098	-0.164	0.074
-137.429	5.621	-0.140	0.103
-136.414	800.000	0.016	-0.060
-135.399	161.962	-0.034	0.047
-134.385	199.996	-0.143	0.217
-133.370	-59.729	-0.011	0.005
-132.356	-179.781	-0.397	0.008
-131.341	276.000	0.056	0.099
-130.326	71.643	0.180	-0.185
-129.312	-200.000	0.015	-0.236
-128.297	-200.000	-0.067	-0.308
-127.283	-98.642	0.260	-0.066
-126.268	-139.347	-0.268	-0.029
-125.253	476.454	-0.040	-0.090
-124.239	674.801	0.251	-0.647
-123.224	-123.970	-0.216	0.034
-122.210	261.619	0.055	0.095
-121.195	-26.008	-0.153	0.089
-120.180	153.957	-0.020	0.028
