DTS Sentinel unit serial number:	SN413079Multiplexer serial number:	ORYXHardware model number:	OX4-SRSoftware version number:	ORYX F/W v4.00 Oryx Data Collector v3.7.2.0data status	okinstallation	princeton_trtdifferential loss correction	single-endedforward channel	channel 3reverse channel	N/Adate	2019/09/18time	16:52:35forward acquisition time	60.00reverse acquisition time	0.00gamma	496.2192k internal	0.2293k external	0.2293temperature offset calibration	0.9990default loss term (dB/km)	0.3790temperature slope calibration	1.0000multiplexer offset coefficient	1.0000multiplexer slope coefficient	1.0000fibre end	0.00T internal ref (°C)	40.00T ext. ref 1 (°C)	0.86T ext. ref 2 (°C)	34.07length (m)	temperature (°C)	Stokes	anti-Stokes-747.200	111.137	-0.111	-0.137
-746.185	-43.410	-0.290	0.150
-745.171	-10.308	0.303	0.206
-744.156	35.782	-0.248	0.223
-743.142	265.541	0.162	0.289
-742.127	31.831	-0.194	0.171
-741.112	-15.759	-0.033	0.021
-740.098	305.342	-0.062	-0.118
-739.083	-15.518	-0.234	0.153
-738.069	-193.670	-0.088	-0.001
-737.054	-150.559	-0.191	0.015
-736.039	-72.420	0.214	-0.081
-735.025	260.808	-0.102	0.180
-734.010	-200.000	-0.117	-0.526
-732.996	238.549	0.146	-0.247
-731.981	800.000	0.085	-0.290
-730.966	8.334	0.325	0.250
-729.952	800.000	-0.050	-0.184
-728.937	-200.000	-0.098	-0.482
-727.923	-15.353	0.092	0.060
-726.908	-200.000	0.016	-0.332
-725.894	-200.000	0.002	-0.372
-724.879	-200.000	0.029	-0.163
-723.864	800.000	-0.068	-0.197
-722.850	-4.433	-0.149	-0.105
-721.835	-200.000	-0.006	0.046
-720.821	-40.726	-0.147	-0.078
-719.806	630.954	-0.094	0.242
-718.791	-44.833	0.061	0.031
-717.777	-71.491	-0.250	0.096
-716.762	-200.000	-0.005	0.059
-715.748	-200.000	0.007	-0.318
-714.733	63.830	-0.202	-0.207
-713.718	-52.199	-0.314	0.149
-712.704	41.729	0.222	-0.205
-711.689	-160.886	-0.133	-0.007
-710.675	-2.961	0.331	-0.236
-709.660	-138.187	-0.292	0.033
-708.645	-26.136	0.165	0.099
-707.631	73.245	0.090	-0.097
-706.616	-79.109	0.126	0.044
-705.602	-89.321	0.233	0.070
-704.587	-200.000	0.220	0.000
-703.572	800.000	0.041	0.136
-702.558	800.000	0.031	0.122
-701.543	-200.000	0.012	-0.241
-700.529	-200.000	-0.075	0.356
-699.514	-89.088	0.306	-0.093
-698.499	-140.296	-0.330	0.035
-697.485	-48.653	-0.261	-0.128
-696.470	-85.916	-0.302	0.095
-695.456	-200.000	0.008	-0.107
-694.441	-58.648	-0.187	-0.083
-693.426	-122.517	-0.286	-0.048
-692.412	-200.000	0.045	-0.202
-691.397	399.232	-0.136	-0.292
-690.383	-25.605	0.125	-0.075
-689.368	244.979	0.132	-0.226
-688.354	-101.327	0.236	0.059
-687.339	-200.000	-0.039	0.277
-686.324	156.365	0.111	-0.156
-685.310	212.641	-0.184	-0.296
-684.295	800.000	-0.093	-0.334
-683.281	-153.260	-0.070	0.005
-682.266	-72.820	-0.101	0.038
-681.251	-60.092	-0.205	0.089
-680.237	230.366	0.227	-0.378
-679.222	-20.626	-0.017	-0.011
-678.208	32.133	0.166	0.146
-677.193	800.000	-0.098	-0.395
-676.178	-160.112	0.290	-0.016
-675.164	800.000	-0.099	0.429
-674.149	-152.085	-0.132	0.010
-673.135	-130.952	-0.283	0.039
-672.120	-68.374	0.326	-0.129
-671.105	-25.928	-0.149	-0.090
-670.091	358.762	-0.038	0.077
-669.076	307.961	0.078	0.148
-668.062	90.115	-0.128	0.146
-667.047	105.640	-0.112	0.135
-666.032	-200.000	-0.023	0.134
-665.018	102.467	-0.039	-0.046
-664.003	224.511	-0.093	0.153
-662.989	117.493	-0.138	0.173
-661.974	366.369	0.041	0.084
-660.959	-97.680	0.193	-0.051
-659.945	107.161	0.221	-0.268
-658.930	-111.053	-0.234	-0.049
-657.916	-200.000	0.053	0.255
-656.901	-200.000	-0.006	0.063
-655.886	54.391	-0.093	-0.092
-654.872	570.419	-0.066	0.164
-653.857	800.000	0.042	-0.126
-652.843	800.000	-0.098	0.349
-651.828	-141.473	-0.212	-0.022
-650.814	139.105	0.207	-0.278
-649.799	-200.000	-0.011	-0.066
-648.784	-85.796	-0.238	-0.075
-647.770	90.153	0.114	0.130
-646.755	800.000	0.110	-0.388
-645.741	217.117	0.094	-0.153
-644.726	310.311	-0.163	-0.312
-643.711	800.000	0.060	-0.239
-642.697	-200.000	-0.003	-0.215
-641.682	800.000	-0.118	0.385
-640.668	-49.636	-0.263	-0.128
-639.653	-95.945	-0.265	-0.072
-638.638	681.460	0.076	-0.202
-637.624	800.000	0.057	-0.242
-636.609	114.605	0.036	0.045
-635.595	-103.726	-0.143	-0.034
-634.580	-200.000	0.015	0.148
-633.565	800.000	-0.030	-0.103
-632.551	274.809	-0.057	-0.103
-631.536	-200.000	-0.001	0.145
-630.522	800.000	0.076	-0.256
-629.507	800.000	0.053	-0.209
-628.492	26.402	0.029	-0.025
-627.478	-0.900	-0.206	-0.148
-626.463	-138.700	-0.252	0.028
-625.449	-200.000	0.017	0.158
-624.434	-115.550	0.208	-0.040
-623.419	-63.743	0.070	0.029
-622.405	460.663	-0.060	0.136
-621.390	-154.691	-0.362	0.024
-620.376	579.526	-0.077	0.191
-619.361	109.008	-0.155	0.189
-618.346	800.000	-0.054	0.210
-617.332	48.579	0.186	-0.177
-616.317	-47.206	-0.039	0.020
-615.303	-71.285	0.113	0.043
-614.288	-200.000	-0.057	0.257
-613.273	-107.221	-0.294	-0.066
-612.259	-159.939	0.267	-0.015
-611.244	800.000	-0.025	0.081
-610.230	54.193	-0.202	0.198
-609.215	800.000	0.033	-0.141
-608.201	-19.905	-0.179	0.112
-607.186	800.000	0.140	-0.419
-606.171	800.000	0.086	-0.265
-605.157	-106.032	0.228	0.052
-604.142	558.757	-0.133	-0.327
-603.128	-29.259	-0.064	0.037
-602.113	-25.295	0.380	-0.229
-601.098	-77.596	-0.258	0.091
-600.084	-74.550	-0.254	0.093
-599.069	33.584	0.189	0.168
-598.055	11.025	0.212	-0.165
-597.040	-164.041	-0.164	-0.008
-596.025	-73.877	0.063	-0.023
-595.011	800.000	0.058	0.167
-593.996	262.825	-0.203	0.358
-592.982	-45.066	0.037	0.019
-591.967	-57.726	0.081	-0.036
-590.952	412.479	-0.054	-0.116
-589.938	-50.736	0.152	0.073
-588.923	-78.341	-0.320	0.112
-587.909	-44.754	-0.218	0.111
-586.894	38.695	-0.100	-0.091
-585.879	-200.000	-0.049	0.277
-584.865	-200.000	-0.017	0.381
-583.850	-200.000	0.013	-0.078
-582.836	140.104	0.054	0.072
-581.821	-41.023	0.247	0.130
-580.806	-5.536	0.300	0.209
-579.792	-200.000	0.061	0.282
-578.777	-63.920	-0.008	-0.003
-577.763	-148.833	0.157	-0.013
-576.748	800.000	0.046	-0.193
-575.733	-200.000	0.008	0.181
-574.719	-187.151	-0.297	0.004
-573.704	-50.862	-0.018	-0.009
-572.690	-200.000	0.024	-0.148
-571.675	8.979	0.439	-0.336
-570.661	569.793	0.114	-0.281
-569.646	800.000	-0.044	0.132
-568.631	-142.519	0.012	-0.001
-567.617	305.919	-0.066	0.124
-566.602	330.275	-0.062	0.121
-565.588	267.861	-0.021	-0.037
-564.573	-165.075	-0.178	-0.008
-563.558	635.046	0.029	-0.076
-562.544	676.674	0.074	-0.195
-561.529	446.342	0.007	0.016
-560.515	598.507	-0.039	-0.098
-559.500	-173.756	0.119	-0.004
-558.485	95.105	-0.142	0.165
-557.471	-7.586	-0.224	-0.154
-556.456	800.000	-0.062	-0.256
-555.442	-69.140	-0.142	-0.056
-554.427	-123.907	-0.128	0.020
-553.412	-200.000	0.074	-0.374
-552.398	-160.220	-0.440	0.024
-551.383	361.057	-0.053	0.107
-550.369	-200.000	0.029	-0.135
-549.354	328.310	0.073	0.143
-548.339	-70.306	-0.146	0.056
-547.325	800.000	0.055	0.231
-546.310	-101.519	0.067	0.016
-545.296	174.908	-0.118	-0.173
-544.281	84.822	0.112	-0.125
-543.266	800.000	-0.046	-0.175
-542.252	-74.624	0.317	-0.116
-541.237	71.296	0.097	-0.102
-540.223	63.441	0.362	-0.368
-539.208	-200.000	0.010	-0.211
-538.193	-67.243	0.128	0.051
-537.179	-200.000	0.019	0.353
-536.164	41.910	0.145	-0.133
-535.150	-75.484	-0.279	-0.101
-534.135	-89.633	0.325	0.097
-533.121	201.169	0.188	0.293
-532.106	-30.969	0.337	0.193
-531.091	-127.210	0.203	-0.030
-530.077	-56.455	-0.328	0.148
-529.062	329.042	-0.031	-0.060
-528.048	-74.288	-0.074	0.027
-527.033	-100.701	0.068	-0.017
-526.018	192.857	-0.202	0.310
-525.004	-200.000	-0.015	0.230
-523.989	161.356	-0.076	-0.108
-522.975	-200.000	-0.014	0.237
-521.960	28.981	-0.411	-0.353
-520.945	-64.142	0.388	0.160
-519.931	-36.809	0.227	-0.124
-518.916	6.517	0.155	0.117
-517.902	-31.090	-0.108	0.062
-516.887	800.000	-0.043	0.132
-515.872	-200.000	-0.023	-0.207
-514.858	436.484	0.087	0.193
-513.843	800.000	0.081	-0.290
-512.829	800.000	0.072	-0.242
-511.814	-200.000	-0.029	0.206
-510.799	44.443	-0.347	-0.323
-509.785	-48.081	0.133	-0.065
-508.770	748.759	-0.107	-0.292
-507.756	-116.059	0.258	-0.049
-506.741	-147.436	-0.266	0.023
-505.726	-200.000	-0.015	-0.152
-504.712	622.414	-0.143	-0.365
-503.697	-119.252	0.136	0.024
-502.683	638.057	-0.043	0.110
-501.668	-200.000	-0.003	0.080
-500.653	-61.391	-0.099	0.042
-499.639	-67.898	0.158	0.063
-498.624	800.000	0.128	-0.492
-497.610	800.000	0.112	-0.410
-496.595	-124.404	-0.253	-0.040
-495.581	26.874	-0.102	-0.086
-494.566	88.430	0.040	0.045
-493.551	-119.688	0.183	-0.032
-492.537	800.000	-0.070	0.268
-491.522	-33.802	0.338	0.189
-490.508	-200.000	-0.003	-0.124
-489.493	27.326	0.245	-0.208
-488.478	-169.591	0.342	0.013
-487.464	276.828	0.122	-0.220
-486.449	320.880	-0.068	-0.131
-485.435	202.489	-0.084	0.131
-484.420	800.000	0.053	0.170
-483.405	-122.062	0.250	0.042
-482.391	-30.470	0.329	0.189
-481.376	-166.164	0.248	0.011
-480.362	185.157	0.281	0.423
-479.347	-49.648	-0.441	0.213
-478.332	228.810	-0.169	0.279
-477.318	-82.793	0.130	-0.043
-476.303	-200.000	0.003	0.193
-475.289	-40.134	-0.186	-0.098
-474.274	800.000	-0.077	-0.263
-473.259	-13.407	-0.110	-0.072
-472.245	-200.000	-0.015	-0.159
-471.230	-49.740	0.352	0.169
-470.216	800.000	-0.041	-0.114
-469.201	800.000	0.077	0.271
-468.186	-105.825	0.211	-0.048
-467.172	800.000	-0.040	0.152
-466.157	273.187	0.138	0.247
-465.143	-74.098	0.322	0.118
-464.128	800.000	0.098	0.403
-463.113	-200.000	0.027	-0.132
-462.099	-200.000	-0.046	-0.217
-461.084	20.544	0.261	-0.214
-460.070	-200.000	-0.033	-0.229
-459.055	3.845	-0.139	0.103
-458.040	800.000	0.050	-0.205
-457.026	-31.462	-0.199	-0.113
-456.011	-100.518	0.164	0.041
-454.997	368.294	0.070	-0.142
-453.982	16.422	-0.147	0.117
-452.968	-71.766	-0.108	0.041
-451.953	103.196	-0.074	0.087
-450.938	-164.965	0.053	-0.002
-449.924	72.743	0.218	-0.230
-448.909	-26.191	0.024	0.015
-447.895	594.304	-0.128	0.321
-446.880	544.820	0.040	0.096
-445.865	-200.000	0.056	0.292
-444.851	-93.009	0.321	-0.090
-443.836	-42.569	-0.358	0.185
-442.822	131.312	0.153	0.199
-441.807	137.062	-0.155	-0.205
-440.792	52.734	-0.187	-0.181
-439.778	769.402	-0.025	-0.069
-438.763	32.059	-0.211	0.184
-437.749	-200.000	-0.021	-0.183
-436.734	-0.856	-0.253	-0.181
-435.719	-200.000	-0.027	0.168
-434.705	-33.642	0.142	-0.079
-433.690	-56.618	0.144	-0.064
-432.676	35.869	0.243	-0.216
-431.661	86.553	-0.159	0.178
-430.646	-171.800	0.210	0.007
-429.632	344.938	-0.164	-0.325
-428.617	800.000	-0.066	-0.240
-427.603	-57.386	0.151	0.067
-426.588	-25.492	0.353	-0.211
-425.573	-124.063	-0.302	0.048
-424.559	800.000	0.078	0.292
-423.544	38.460	0.313	-0.282
-422.530	-200.000	0.011	0.096
-421.515	687.481	0.105	-0.276
-420.500	800.000	-0.070	0.199
-419.486	387.013	0.080	0.167
-418.471	-200.000	0.016	-0.213
-417.457	800.000	-0.063	-0.243
-416.442	382.161	0.075	-0.155
-415.428	284.579	-0.085	0.154
-414.413	800.000	0.079	-0.260
-413.398	-6.636	0.066	-0.045
-412.384	-151.855	-0.139	-0.010
-411.369	-38.144	-0.226	-0.121
-410.355	800.000	-0.037	0.123
-409.340	-200.000	-0.005	-0.227
-408.325	-105.911	0.348	-0.079
-407.311	182.312	0.117	0.174
-406.296	72.696	-0.230	0.242
-405.282	201.731	0.045	0.070
-404.267	-200.000	0.027	-0.394
-403.252	67.857	-0.309	-0.319
-402.238	-200.000	-0.067	-0.311
-401.223	97.432	-0.224	-0.260
-400.209	-200.000	0.016	0.393
-399.194	-42.354	-0.300	-0.155
-398.179	-200.000	0.045	0.218
-397.165	-200.000	0.040	0.318
-396.150	170.813	0.136	-0.197
-395.136	-200.000	0.108	-0.532
-394.121	-109.255	-0.018	-0.004
-393.106	57.346	0.062	-0.061
-392.092	43.939	0.202	-0.186
-391.077	65.090	-0.144	0.147
-390.063	800.000	-0.036	0.124
-389.048	68.787	0.101	0.105
-388.033	475.508	0.065	0.148
-387.019	-200.000	-0.035	-0.322
-386.004	148.656	-0.204	-0.278
-384.990	-9.888	0.063	-0.042
-383.975	-200.000	0.000	-0.296
-382.960	-200.000	0.001	-0.186
-381.946	-103.133	-0.252	0.060
-380.931	17.194	0.088	-0.070
-379.917	-117.358	-0.289	0.053
-378.902	800.000	0.019	0.055
-377.888	14.174	0.328	0.258
-376.873	-70.863	-0.183	0.070
-375.858	171.549	0.176	-0.254
-374.844	800.000	0.061	0.202
-373.829	-130.680	0.361	0.049
-372.815	300.509	0.219	0.407
-371.800	72.709	-0.118	-0.124
-370.785	59.775	-0.145	-0.144
-369.771	800.000	0.041	-0.147
-368.756	-149.365	0.179	0.014
-367.742	-80.958	0.134	-0.045
-366.727	-200.000	0.005	0.116
-365.712	228.541	-0.026	-0.044
-364.698	114.610	0.164	-0.202
-363.683	351.719	-0.179	0.356
-362.669	-104.908	0.293	-0.068
-361.654	86.439	0.102	-0.114
-360.639	-120.048	-0.260	-0.045
-359.625	-80.411	-0.264	0.089
-358.610	800.000	0.096	0.288
-357.596	326.930	-0.083	0.160
-356.581	19.168	0.077	-0.062
-355.566	800.000	-0.122	-0.386
-354.552	-34.308	0.261	0.144
-353.537	-4.310	0.059	0.041
-352.523	-7.417	-0.026	0.017
-351.508	-187.024	0.141	-0.002
-350.493	-200.000	0.081	0.369
-349.479	-171.500	-0.147	-0.005
-348.464	771.464	-0.034	-0.093
-347.450	124.997	0.249	0.316
-346.435	137.451	-0.057	0.075
-345.420	730.954	-0.007	0.018
-344.406	-200.000	0.041	-0.189
-343.391	-33.513	-0.274	-0.153
-342.377	-140.524	0.185	-0.019
-341.362	-200.000	0.009	0.084
-340.348	-87.602	0.364	0.111
-339.333	68.501	-0.292	0.302
-338.318	-91.375	0.383	-0.110
-337.304	-105.135	-0.332	-0.076
-336.289	28.009	-0.121	-0.103
-335.275	248.009	-0.172	-0.292
-334.260	-156.398	0.114	-0.007
-333.245	9.755	-0.396	-0.303
-332.231	-106.570	0.311	0.070
-331.216	-59.540	0.191	-0.082
-330.202	-200.000	-0.037	0.195
-329.187	52.851	0.198	0.191
-328.172	-137.937	-0.488	0.055
-327.158	365.194	-0.115	-0.234
-326.143	-200.000	-0.007	0.038
-325.129	622.329	-0.085	-0.215
-324.114	-102.544	-0.341	0.082
-323.099	-89.458	0.197	-0.058
-322.085	642.465	0.082	-0.211
-321.070	-200.000	0.048	0.374
-320.056	197.099	-0.120	0.184
-319.041	-200.000	-0.020	0.374
-318.026	22.811	0.267	-0.220
-317.012	-200.000	0.038	0.372
-315.997	134.079	0.139	0.181
-314.983	432.983	-0.085	0.185
-313.968	-27.785	0.092	-0.053
-312.953	-137.737	-0.159	-0.018
-311.939	11.481	0.180	0.139
-310.924	44.464	0.145	-0.134
-309.910	-149.600	-0.220	0.017
-308.895	-93.838	-0.081	-0.022
-307.880	-85.752	0.081	-0.025
-306.866	298.727	-0.066	0.122
-305.851	-42.401	-0.378	0.194
-304.837	21.480	-0.043	0.035
-303.822	-101.161	0.206	-0.051
-302.807	20.155	-0.115	-0.094
-301.793	-120.161	-0.248	-0.043
-300.778	800.000	0.068	0.283
-299.764	423.409	-0.055	0.118
-298.749	59.947	-0.050	-0.049
-297.735	-200.000	0.018	-0.100
-296.720	61.737	0.160	0.160
-295.705	48.898	-0.081	-0.076
-294.691	-200.000	0.003	0.087
-293.676	-137.834	-0.113	0.013
-292.662	-81.377	0.102	0.034
-291.647	35.400	0.262	-0.231
-290.632	367.512	-0.161	0.328
-289.618	-135.476	0.411	0.049
-288.603	-200.000	0.007	-0.272
-287.589	-200.000	0.009	0.084
-286.574	497.148	-0.085	0.198
-285.559	-59.574	-0.146	-0.063
-284.545	169.768	0.077	0.111
-283.530	528.535	0.048	0.113
-282.516	254.722	0.086	0.148
-281.501	33.768	-0.220	-0.192
-280.486	16.028	-0.240	-0.190
-279.472	-94.982	0.227	0.062
-278.457	-142.508	-0.101	-0.010
-277.443	299.077	0.166	0.306
-276.428	-123.690	-0.529	0.084
-275.413	-43.954	-0.372	-0.188
-274.399	314.453	0.095	0.180
-273.384	-103.630	-0.190	-0.045
-272.370	-110.901	0.108	0.022
-271.355	-120.538	0.158	0.027
-270.340	-124.675	0.032	-0.005
-269.326	8.551	0.422	0.319
-268.311	668.665	-0.115	-0.300
-267.297	-200.000	-0.004	0.120
-266.282	-81.273	0.185	0.061
-265.267	302.786	-0.161	-0.300
-264.253	800.000	-0.135	-0.378
-263.238	-101.028	0.096	-0.024
-262.224	203.405	-0.143	0.221
-261.209	2.513	-0.149	-0.108
-260.195	-6.812	0.118	0.080
-259.180	-200.000	-0.007	0.165
-258.165	-159.250	0.431	0.024
-257.151	-5.474	-0.040	0.028
-256.136	-200.000	0.019	-0.279
-255.122	-53.624	-0.064	-0.029
-254.107	-148.884	-0.171	-0.014
-253.092	-200.000	0.022	0.101
-252.078	800.000	-0.033	-0.144
-251.063	-160.303	-0.338	-0.018
-250.049	189.939	-0.134	-0.202
-249.034	-85.034	-0.302	0.095
-248.019	-4.813	-0.201	-0.139
-247.005	-5.859	0.224	-0.154
-245.990	247.813	-0.129	-0.219
-244.976	658.790	-0.029	0.075
-243.961	800.000	0.063	0.222
-242.946	-200.000	0.008	0.117
-241.932	-200.000	0.035	0.288
-240.917	-73.558	-0.342	-0.125
-239.903	800.000	-0.061	0.250
-238.888	-126.093	0.317	0.048
-237.873	400.640	-0.166	0.349
-236.859	138.629	0.128	-0.168
-235.844	-85.520	0.099	0.031
-234.830	-3.139	0.155	0.108
-233.815	-200.000	-0.003	0.275
-232.800	800.000	-0.150	0.463
-231.786	109.978	-0.138	0.166
-230.771	-200.000	0.031	-0.251
-229.757	-75.810	-0.353	-0.126
-228.742	123.979	-0.183	0.230
-227.727	106.715	-0.079	-0.094
-226.713	-191.054	-0.173	-0.002
-225.698	411.050	0.111	-0.236
-224.684	800.000	0.240	-0.778
-223.669	-45.937	0.278	0.137
-222.655	500.483	-0.077	-0.178
-221.640	9.595	0.246	-0.187
-220.625	-153.072	-0.231	0.016
-219.611	-180.080	0.215	0.005
-218.596	-20.705	0.204	0.125
-217.582	-65.528	0.362	0.146
-216.567	-86.707	-0.131	-0.040
-215.552	340.877	-0.055	-0.107
-214.538	9.060	0.106	0.081
-213.523	-200.000	-0.077	-0.470
-212.509	-200.000	-0.031	0.377
-211.494	-100.027	0.161	0.040
-210.479	17.498	-0.492	-0.392
-209.465	43.350	-0.142	0.130
-208.450	37.568	-0.139	-0.123
-207.436	-19.757	-0.216	0.134
-206.421	425.595	-0.081	0.175
-205.406	-172.522	0.257	0.008
-204.392	-200.000	-0.019	-0.206
-203.377	800.000	-0.014	-0.040
-202.363	148.796	0.115	-0.155
-201.348	-200.000	0.092	0.455
-200.333	82.481	0.227	-0.247
-199.319	-45.505	-0.099	-0.049
-198.304	800.000	0.104	-0.370
-197.290	-44.921	0.071	0.036
-196.275	-155.669	-0.041	0.003
-195.260	29.501	0.221	0.188
-194.246	279.928	-0.063	0.113
-193.231	-116.306	0.213	-0.040
-192.217	-96.259	0.047	-0.012
-191.202	-149.573	-0.267	-0.021
-190.187	-173.248	-0.025	-0.001
-189.173	-85.101	-0.279	0.088
-188.158	-200.000	0.017	-0.477
-187.144	126.008	0.104	-0.131
-186.129	266.109	0.114	0.199
-185.114	-45.042	-0.121	-0.060
-184.100	-21.406	-0.235	0.143
-183.085	-200.000	-0.044	0.330
-182.071	-50.009	0.093	-0.044
-181.056	64.316	0.191	0.192
-180.042	155.491	-0.066	0.091
-179.027	19.783	-0.061	-0.049
-178.012	258.363	-0.097	0.167
-176.998	-33.646	-0.316	-0.175
-175.983	32.274	-0.173	0.149
-174.969	-200.000	-0.044	0.212
-173.954	48.813	-0.104	0.098
-172.939	-163.209	-0.137	-0.007
-171.925	177.494	-0.236	0.344
-170.910	-200.000	0.006	0.073
-169.896	93.470	0.280	0.317
-168.881	-89.172	-0.130	0.038
-167.866	-84.289	-0.213	0.067
-166.852	121.459	-0.151	0.188
-165.837	-200.000	0.007	0.035
-164.823	-200.000	0.013	0.105
-163.808	798.019	0.167	0.460
-162.793	139.626	0.119	0.157
-161.779	-200.000	0.002	-0.373
-160.764	464.930	0.096	-0.214
-159.750	38.827	-0.171	0.152
-158.735	800.000	0.062	0.268
-157.720	-33.635	0.113	0.063
-156.706	-9.434	0.098	-0.066
-155.691	-200.000	-0.019	-0.217
-154.677	-181.897	-0.329	-0.006
-153.662	373.387	0.178	0.362
-152.647	55.019	0.229	0.221
-151.633	-105.719	0.205	0.046
-150.618	182.882	-0.161	0.237
-149.604	666.123	0.114	0.295
-148.589	-200.000	-0.015	-0.128
-147.574	-200.000	0.072	-0.370
-146.560	-200.000	0.060	0.375
-145.545	203.888	0.116	0.180
-144.531	-90.602	0.301	-0.087
-143.516	-200.000	0.020	-0.104
-142.502	34.644	0.176	-0.154
-141.487	-21.875	-0.079	-0.048
-140.472	38.718	-0.210	0.187
-139.458	-14.468	-0.021	0.013
-138.443	-121.275	-0.394	0.066
-137.429	-70.519	-0.169	0.064
-136.414	40.738	-0.319	0.287
-135.399	-200.000	-0.044	-0.263
-134.385	195.964	-0.251	-0.382
-133.370	373.472	-0.108	0.220
-132.356	-200.000	0.013	0.110
-131.341	-200.000	-0.027	0.122
-130.326	-80.968	-0.131	0.043
-129.312	-200.000	0.032	-0.215
-128.297	21.600	0.175	0.142
-127.283	273.970	-0.210	-0.372
-126.268	-57.197	0.469	-0.206
-125.253	52.057	0.204	0.194
-124.239	-149.845	0.382	-0.030
-123.224	800.000	0.081	-0.251
-122.210	617.812	-0.032	-0.081
