DTS Sentinel unit serial number:	SN413079Multiplexer serial number:	ORYXHardware model number:	OX4-SRSoftware version number:	ORYX F/W v4.00 Oryx Data Collector v3.7.2.0data status	okinstallation	princeton_trtdifferential loss correction	single-endedforward channel	channel 3reverse channel	N/Adate	2019/09/12time	18:39:04forward acquisition time	15.00reverse acquisition time	0.00gamma	496.2192k internal	0.2318k external	0.2318temperature offset calibration	1.0100default loss term (dB/km)	0.3790temperature slope calibration	1.0000multiplexer offset coefficient	1.0000multiplexer slope coefficient	1.0000fibre end	0.00T internal ref (°C)	33.12T ext. ref 1 (°C)	2.97T ext. ref 2 (°C)	27.62length (m)	temperature (°C)	Stokes	anti-Stokes-747.200	67.046	0.290	0.299
-746.185	-129.331	-0.894	0.126
-745.171	-200.000	0.100	-0.602
-744.156	-66.629	-0.552	-0.221
-743.142	-88.908	0.260	-0.078
-742.127	-14.922	0.324	0.211
-741.112	-116.069	0.364	-0.068
-740.098	-124.532	1.079	-0.170
-739.083	-47.317	0.845	-0.416
-738.069	800.000	0.133	-0.433
-737.054	-200.000	0.046	0.336
-736.039	62.509	0.264	-0.267
-735.025	165.253	0.336	0.480
-734.010	-55.506	-0.791	0.359
-732.996	-91.130	0.860	-0.250
-731.981	-200.000	0.000	0.255
-730.966	-154.633	-0.425	-0.029
-729.952	5.822	-0.733	0.549
-728.937	-77.391	-0.282	-0.099
-727.923	-162.107	0.081	0.004
-726.908	497.728	0.019	0.044
-725.894	-54.372	-0.600	-0.275
-724.879	344.587	0.452	0.897
-723.864	-138.283	-1.158	-0.130
-722.850	-86.181	-1.324	0.413
-721.835	-79.075	0.383	-0.132
-720.821	-11.975	0.232	-0.154
-719.806	-98.658	-0.550	-0.142
-718.791	-200.000	0.027	0.184
-717.777	64.607	-0.551	-0.562
-716.762	33.105	-0.224	0.196
-715.748	548.864	-0.445	1.078
-714.733	177.225	0.147	-0.216
-713.718	-99.249	0.298	-0.076
-712.704	27.332	-0.414	0.352
-711.689	37.673	-0.257	-0.231
-710.675	-200.000	0.136	-0.855
-709.660	800.000	-0.161	0.539
-708.645	-59.633	0.633	0.274
-707.631	-56.747	-0.101	-0.045
-706.616	105.743	-0.186	-0.223
-705.602	99.319	0.267	-0.312
-704.587	469.339	0.287	0.650
-703.572	-116.851	0.842	0.156
-702.558	-136.861	0.189	0.022
-701.543	-17.631	-0.347	0.220
-700.529	-18.018	0.849	-0.538
-699.514	124.950	-0.254	0.323
-698.499	-200.000	-0.069	0.627
-697.485	800.000	0.141	-0.554
-696.470	-22.892	0.515	-0.314
-695.456	-128.595	-0.395	-0.057
-694.441	245.284	0.149	0.253
-693.426	95.587	0.184	0.212
-692.412	-5.696	0.258	0.178
-691.397	-154.537	-1.444	0.097
-690.383	-84.181	-0.275	0.088
-689.368	232.781	-0.171	-0.283
-688.354	-76.458	-0.168	0.060
-687.339	-109.882	0.510	0.108
-686.324	-134.612	-0.541	-0.067
-685.310	800.000	-0.101	-0.347
-684.295	800.000	-0.215	0.920
-683.281	24.949	0.268	0.225
-682.266	-139.795	0.941	-0.101
-681.251	205.033	-0.155	-0.242
-680.237	-100.782	-0.352	-0.088
-679.222	800.000	-0.149	-0.425
-678.208	-128.398	0.894	0.128
-677.193	-144.045	0.312	-0.030
-676.178	44.965	0.421	-0.391
-675.164	800.000	0.020	0.085
-674.149	531.156	-0.433	-1.033
-673.135	561.898	0.131	-0.319
-672.120	-117.982	-0.238	0.043
-671.105	-138.023	-0.690	-0.078
-670.091	62.215	0.907	-0.914
-669.076	-95.691	-0.206	-0.056
-668.062	-93.115	0.174	-0.049
-667.047	800.000	0.065	0.183
-666.032	800.000	-0.142	-0.565
-665.018	800.000	-0.224	-0.962
-664.003	105.242	-0.337	0.402
-662.989	191.683	0.443	-0.674
-661.974	-101.397	-0.487	0.120
-660.959	-70.121	1.034	0.397
-659.945	800.000	0.327	-1.006
-658.930	-147.286	-0.350	0.030
-657.916	-7.518	0.290	-0.198
-656.901	800.000	0.212	0.841
-655.886	800.000	0.231	0.883
-654.872	252.992	0.056	-0.096
-653.857	-200.000	-0.034	-0.638
-652.843	-140.989	-0.402	0.042
-651.828	-15.993	-0.980	0.629
-650.814	800.000	0.127	-0.500
-649.799	-200.000	0.022	0.399
-648.784	-95.333	-0.569	0.154
-647.770	-13.670	-0.428	0.279
-646.755	800.000	-0.196	-0.548
-645.741	-37.555	-0.378	0.203
-644.726	-55.462	0.192	-0.087
-643.711	-200.000	-0.054	-0.242
-642.697	-109.489	0.278	0.059
-641.682	733.094	-0.166	0.448
-640.668	800.000	0.097	0.350
-639.653	-90.108	0.266	-0.078
-638.638	-20.968	-0.751	0.464
-637.624	-200.000	0.115	1.017
-636.609	-69.529	-0.122	-0.047
-635.595	-38.835	0.527	0.280
-634.580	23.073	-0.529	0.437
-633.565	85.034	0.303	-0.335
-632.551	-82.713	0.152	0.050
-631.536	-144.871	0.868	-0.080
-630.522	-112.743	-0.532	-0.107
-629.507	742.168	-0.087	-0.236
-628.492	-105.122	-0.403	-0.093
-627.478	233.162	0.567	-0.939
-626.463	800.000	-0.137	-0.553
-625.449	-116.310	0.027	-0.005
-624.434	343.593	0.103	-0.204
-623.419	138.233	-0.347	-0.458
-622.405	-184.152	-1.174	-0.020
-621.390	-200.000	-0.003	0.960
-620.376	-33.105	-1.402	0.783
-619.361	-41.318	0.609	0.316
-618.346	-137.752	0.628	-0.071
-617.332	0.192	-0.451	-0.324
-616.317	481.947	-0.066	0.150
-615.303	-200.000	0.134	-0.594
-614.288	186.276	0.581	0.870
-613.273	-28.561	-0.616	-0.357
-612.259	192.331	0.298	-0.453
-611.244	-200.000	0.069	-0.658
-610.230	-200.000	-0.110	-0.544
-609.215	-15.972	-0.789	-0.506
-608.201	800.000	-0.279	-0.921
-607.186	-73.210	1.211	-0.446
-606.171	94.432	0.553	0.632
-605.157	25.529	-0.133	0.111
-604.142	376.655	0.156	-0.321
-603.128	-50.412	-0.974	-0.463
-602.113	-180.832	-0.464	-0.009
-601.098	800.000	0.135	-0.574
-600.084	207.318	-0.155	0.244
-599.069	-126.266	-0.260	0.039
-598.055	364.150	0.256	-0.519
-597.040	-115.113	-0.199	0.038
-596.025	-112.719	0.167	0.033
-595.011	-200.000	0.026	-0.365
-593.996	-105.049	-0.442	-0.102
-592.982	131.290	0.029	0.038
-591.967	-200.000	-0.022	-0.474
-590.952	-42.553	-0.240	0.123
-589.938	-17.789	0.350	-0.221
-588.923	219.802	-0.251	0.404
-587.909	-200.000	0.049	0.494
-586.894	-3.667	-0.769	0.537
-585.879	111.570	-0.319	-0.387
-584.865	-200.000	0.033	0.239
-583.850	119.725	0.642	0.800
-582.836	140.433	-0.290	0.385
-581.821	5.698	0.773	-0.575
-580.806	145.603	0.372	-0.502
-579.792	714.102	0.131	0.350
-578.777	-151.167	0.690	0.052
-577.763	48.597	0.378	-0.356
-576.748	1.554	0.486	0.351
-575.733	132.176	0.702	0.910
-574.719	-138.758	-0.427	-0.047
-573.704	800.000	-0.111	0.357
-572.690	195.172	-0.135	0.206
-571.675	-93.662	0.560	0.155
-570.661	-126.449	-0.467	0.070
-569.646	-200.000	0.067	1.063
-568.631	-19.830	0.059	0.037
-567.617	-138.033	-0.193	-0.022
-566.602	-81.265	1.009	-0.335
-565.588	-154.073	0.374	-0.026
-564.573	390.862	-0.374	-0.781
-563.558	-200.000	-0.058	-1.016
-562.544	-77.230	0.773	-0.270
-561.529	-186.459	-0.597	-0.009
-560.515	-1.951	-0.123	-0.087
-559.500	-73.285	0.391	0.144
-558.485	363.899	-0.317	0.640
-557.471	800.000	-0.330	0.949
-556.456	-91.029	0.440	-0.127
-555.442	175.205	-0.155	-0.225
-554.427	356.361	-0.234	0.468
-553.412	800.000	0.199	-0.807
-552.398	-200.000	0.046	-1.268
-551.383	-102.096	0.566	0.137
-550.369	85.438	0.688	-0.759
-549.354	0.453	-0.764	-0.548
-548.339	112.852	-0.161	0.195
-547.325	-8.586	-0.448	0.302
-546.310	625.326	-0.264	0.668
-545.296	-137.019	0.284	-0.033
-544.281	33.482	-0.254	-0.222
-543.266	-95.499	-0.796	-0.214
-542.252	156.323	0.293	0.406
-541.237	-200.000	0.091	0.661
-540.223	-48.737	0.625	0.301
-539.208	-82.863	-0.527	0.171
-538.193	-16.615	0.446	-0.284
-537.179	-119.124	-0.429	0.075
-536.164	391.297	-0.208	0.433
-535.150	16.758	0.840	-0.667
-534.135	469.789	-0.114	-0.256
-533.121	-67.982	-0.133	0.052
-532.106	477.662	0.336	0.762
-531.091	-47.879	0.361	-0.176
-530.077	-68.398	-0.266	-0.103
-529.062	-41.250	-0.238	0.123
-528.048	-30.546	0.151	0.086
-527.033	34.511	-0.083	-0.073
-526.018	587.755	0.165	0.408
-525.004	-129.228	-1.135	0.159
-523.989	-61.548	-0.113	-0.048
-522.975	87.953	0.290	0.322
-521.960	62.031	0.851	0.851
-520.945	-46.144	-0.482	-0.238
-519.931	1.586	-0.343	-0.247
-518.916	-62.535	-0.091	0.038
-517.902	-200.000	-0.019	-0.460
-516.887	-99.171	-0.319	-0.081
-515.872	-200.000	-0.055	0.451
-514.858	104.866	-0.295	-0.349
-513.843	231.183	0.444	0.730
-512.829	-200.000	0.020	0.485
-511.814	111.034	-0.284	-0.343
-510.799	800.000	-0.020	0.086
-509.785	-200.000	-0.052	-0.429
-508.770	-36.885	0.979	0.526
-507.756	-115.180	-0.628	0.119
-506.741	-200.000	-0.049	0.459
-505.726	120.768	0.408	0.508
-504.712	800.000	0.089	0.374
-503.697	-152.852	0.333	0.024
-502.683	-200.000	-0.054	-0.370
-501.668	800.000	-0.104	-0.317
-500.653	800.000	0.033	-0.100
-499.639	-112.490	0.359	-0.072
-498.624	118.989	0.060	-0.074
-497.610	18.659	-0.310	-0.249
-496.595	41.164	-0.267	-0.242
-495.581	5.321	-0.794	0.587
-494.566	-200.000	-0.080	0.705
-493.551	-94.796	-0.773	-0.210
-492.537	20.032	-0.260	-0.210
-491.522	134.490	-0.275	0.357
-490.508	74.003	-0.510	-0.536
-489.493	-74.688	0.448	-0.161
-488.478	87.772	0.504	0.560
-487.464	58.817	-0.092	0.091
-486.449	87.654	-0.514	0.571
-485.435	-70.973	-0.281	-0.106
-484.420	-200.000	0.073	-0.549
-483.405	-108.269	-0.567	0.123
-482.391	706.122	-0.179	-0.473
-481.376	-200.000	-0.068	-0.423
-480.362	121.917	-0.651	0.813
-479.347	11.699	0.609	-0.468
-478.332	-98.915	-0.507	0.129
-477.318	-128.621	-0.397	-0.056
-476.303	800.000	0.101	0.284
-475.289	800.000	0.213	-0.617
-474.274	-200.000	-0.075	-0.349
-473.259	-200.000	-0.029	0.241
-472.245	-200.000	-0.112	-0.687
-471.230	23.206	0.408	-0.336
-470.216	-200.000	0.060	-0.532
-469.201	94.184	0.125	0.142
-468.186	38.173	0.752	0.670
-467.172	34.036	-0.573	-0.500
-466.157	-23.566	0.391	-0.235
-465.143	-200.000	0.104	1.052
-464.128	-2.027	0.476	0.335
-463.113	-182.908	-0.642	0.012
-462.099	505.455	-0.074	0.171
-461.084	240.676	-0.489	0.817
-460.070	-200.000	0.084	-0.484
-459.055	-125.593	-0.148	-0.022
-458.040	-105.296	0.934	0.213
-457.026	-156.429	-1.052	0.066
-456.011	1.294	0.133	-0.096
-454.997	580.319	-0.220	-0.540
-453.982	-200.000	0.602	-0.001
-452.968	52.545	-0.199	0.190
-451.953	-54.603	-0.949	-0.430
-450.938	-49.732	-1.040	-0.494
-449.924	-42.935	0.564	0.287
-448.909	600.814	0.190	-0.472
-447.895	-200.000	0.037	0.247
-446.880	99.165	-0.493	-0.570
-445.865	-131.650	-0.445	0.059
-444.851	-30.197	-0.116	-0.066
-443.836	62.437	0.388	0.387
-442.822	-196.254	1.282	0.009
-441.807	288.533	-0.182	0.331
-440.792	-83.053	-0.165	0.053
-439.778	499.253	0.169	-0.390
-438.763	503.570	0.141	-0.327
-437.749	103.258	-0.649	-0.761
-436.734	-11.304	0.358	0.235
-435.719	-200.000	0.160	0.757
-434.705	-13.234	0.169	-0.110
-433.690	-145.833	-0.525	0.047
-432.676	-200.000	0.001	-0.532
-431.661	800.000	-0.083	0.309
-430.646	254.330	-0.448	-0.767
-429.632	-36.840	0.110	-0.059
-428.617	27.994	0.684	0.577
-427.603	-200.000	0.052	0.480
-426.588	208.561	-0.136	0.213
-425.573	-200.000	0.045	-0.347
-424.559	35.150	0.480	-0.420
-423.544	235.301	0.166	-0.273
-422.530	55.655	0.446	0.431
-421.515	21.673	0.414	0.337
-420.500	-26.540	-0.071	-0.042
-419.486	379.723	-0.256	0.525
-418.471	325.336	0.134	0.256
-417.457	66.908	0.301	0.307
-416.442	144.189	-0.377	0.503
-415.428	124.557	-0.167	-0.210
-414.413	47.075	0.683	-0.635
-413.398	-69.850	0.504	0.192
-412.384	221.929	0.129	-0.208
-411.369	-21.408	-0.348	0.212
-410.355	386.771	0.128	0.264
-409.340	-33.789	0.514	-0.283
-408.325	-72.852	-0.319	-0.117
-407.311	-31.543	0.561	0.315
-406.296	12.845	-0.121	0.094
-405.282	257.132	0.101	-0.174
-404.267	731.686	0.024	0.063
-403.252	-181.089	-0.759	0.015
-402.238	-200.000	0.003	0.375
-401.223	800.000	-0.115	-0.449
-400.209	-69.359	-0.371	0.142
-399.194	800.000	0.108	-0.376
-398.179	-200.000	-0.004	0.482
-397.165	-89.882	-0.340	-0.099
-396.150	381.913	0.147	-0.301
-395.136	427.769	0.314	0.677
-394.121	-50.207	0.600	0.283
-393.106	221.789	0.385	0.618
-392.092	-78.924	0.573	0.195
-391.077	800.000	-0.170	0.608
-390.063	211.046	-0.325	0.510
-389.048	-22.931	0.847	-0.510
-388.033	31.474	0.142	-0.122
-387.019	78.581	0.168	0.179
-386.004	54.656	-0.280	0.269
-384.990	83.693	0.429	-0.467
-383.975	-131.781	-0.250	0.033
-382.960	-54.919	0.689	-0.310
-381.946	-200.000	-0.015	-0.353
-380.931	-8.171	-0.276	-0.186
-379.917	800.000	-0.307	-1.009
-378.902	-4.776	-0.516	-0.355
-377.888	-200.000	0.004	-0.204
-376.873	-34.304	0.353	0.193
-375.858	253.995	0.127	0.216
-374.844	60.002	0.720	-0.710
-373.829	27.922	-0.374	0.315
-372.815	356.240	0.683	1.356
-371.800	-18.489	0.474	0.295
-370.785	-61.697	-0.300	-0.125
-369.771	231.952	0.310	-0.508
-368.756	137.383	-0.203	-0.264
-367.742	-96.286	-0.184	0.049
-366.727	120.787	0.206	0.255
-365.712	569.839	-0.187	0.455
-364.698	7.991	0.360	-0.269
-363.683	-200.000	-0.025	1.074
-362.669	22.821	0.362	0.295
-361.654	800.000	-0.137	0.379
-360.639	800.000	-0.115	-0.445
-359.625	800.000	-0.110	0.352
-358.610	30.302	0.763	-0.650
-357.596	-118.319	-0.323	0.057
-356.581	193.892	0.423	-0.639
-355.566	-200.000	0.555	0.002
-354.552	485.650	-0.221	-0.503
-353.537	800.000	0.128	-0.447
-352.523	118.734	-0.416	-0.512
-351.508	74.533	-0.275	0.289
-350.493	-200.000	-0.018	-0.496
-349.479	36.671	-0.745	0.656
-348.464	-41.482	0.488	0.250
-347.450	-100.369	-0.510	-0.126
-346.435	-98.275	0.483	-0.124
-345.420	472.021	-0.140	-0.314
-344.406	84.394	0.418	0.456
-343.391	-200.000	0.026	-0.333
-342.377	-188.862	0.560	0.007
-341.362	-23.263	0.487	-0.292
-340.348	22.902	0.523	-0.427
-339.333	-200.000	-0.054	-0.355
-338.318	-200.000	0.011	0.490
-337.304	-150.356	0.955	0.073
-336.289	-200.000	0.031	-1.370
-335.275	31.546	-0.242	-0.207
-334.260	-71.747	-0.472	-0.175
-333.245	800.000	-0.146	-0.425
-332.231	148.592	0.339	0.456
-331.216	-200.000	-0.029	0.563
-330.202	800.000	0.176	-0.726
-329.187	189.005	-0.286	0.426
-328.172	-39.413	-0.595	-0.311
-327.158	174.885	0.508	-0.732
-326.143	-137.790	0.557	0.062
-325.129	-200.000	-0.108	-0.667
-324.114	552.564	-0.043	0.104
-323.099	-149.201	-0.734	0.058
-322.085	32.685	0.464	-0.399
-321.070	23.159	0.419	-0.342
-320.056	800.000	-0.240	-0.686
-319.041	163.573	0.194	0.272
-318.026	-107.172	1.068	0.234
-317.012	126.882	0.385	-0.486
-315.997	-200.000	-0.055	0.519
-314.983	223.203	-0.669	-1.073
-313.968	60.992	-0.148	0.146
-312.953	-72.438	0.723	0.266
-311.939	-200.000	0.010	0.441
-310.924	-66.238	0.505	-0.200
-309.910	122.208	-0.552	-0.686
-308.895	68.424	-0.538	-0.549
-307.880	217.490	-0.232	-0.368
-306.866	156.559	-0.581	-0.798
-305.851	-67.506	-0.746	-0.291
-304.837	76.735	0.307	-0.324
-303.822	-86.502	-0.317	-0.097
-302.807	110.068	0.387	-0.462
-301.793	-73.856	-0.817	-0.295
-300.778	800.000	0.279	0.840
-299.764	754.960	0.104	-0.280
-298.749	-200.000	0.009	0.453
-297.735	149.451	-0.352	0.475
-296.720	-27.016	0.629	-0.365
-295.705	-100.507	0.906	-0.223
-294.691	800.000	0.148	0.582
-293.676	-100.851	0.217	-0.053
-292.662	356.088	0.124	0.246
-291.647	-200.000	0.063	0.467
-290.632	150.621	0.182	-0.246
-289.618	-5.619	0.661	0.451
-288.603	317.909	-0.230	-0.432
-287.589	-13.620	0.354	-0.228
-286.574	800.000	-0.108	0.407
-285.559	-56.216	-0.974	0.431
-284.545	29.712	-0.120	-0.101
-283.530	-68.427	0.364	0.141
-282.516	-181.450	-1.269	0.025
-281.501	150.466	-0.114	0.154
-280.486	127.544	0.233	0.294
-279.472	119.255	-0.296	0.363
-278.457	61.863	0.428	0.423
-277.443	800.000	-0.099	0.285
-276.428	-200.000	0.044	-0.369
-275.413	-80.644	0.282	-0.093
-274.399	800.000	0.239	0.875
-273.384	-164.378	-1.010	0.046
-272.370	-35.718	0.367	0.197
-271.355	-160.645	-0.249	-0.013
-270.340	143.714	-0.055	0.073
-269.326	-200.000	-0.046	-1.160
-268.311	-93.042	0.590	-0.163
-267.297	58.131	-0.130	-0.127
-266.282	-7.377	0.976	-0.657
-265.267	-84.238	-0.720	-0.227
-264.253	228.392	-0.507	0.820
-263.238	197.271	0.362	0.548
-262.224	57.525	-0.111	0.108
-261.209	-195.216	0.088	0.001
-260.195	-100.918	0.239	-0.058
-259.180	800.000	-0.126	0.376
-258.165	-181.367	-0.014	0.000
-257.151	-66.842	-0.158	-0.062
-256.136	-65.346	0.993	0.397
-255.122	639.808	-0.111	-0.281
-254.107	800.000	0.177	0.542
-253.092	-200.000	0.029	-0.314
-252.078	-200.000	0.008	0.442
-251.063	-130.937	-0.804	0.107
-250.049	82.629	0.072	0.078
-249.034	-200.000	-0.881	0.002
-248.019	-63.708	-0.314	-0.128
-247.005	800.000	-0.220	-0.717
-245.990	800.000	0.317	-0.931
-244.976	-200.000	0.025	0.535
-243.961	-64.033	0.487	0.197
-242.946	66.652	-0.489	0.493
-241.932	-106.980	0.188	0.041
-240.917	245.347	0.425	-0.710
-239.903	29.571	-0.314	-0.265
-238.888	800.000	0.189	0.708
-237.873	127.395	-0.161	-0.203
-236.859	81.683	0.614	-0.659
-235.844	22.652	-0.617	-0.501
-234.830	-9.503	-0.140	0.092
-233.815	419.440	-0.302	-0.642
-232.800	84.738	-0.335	0.364
-231.786	-16.310	0.263	0.165
-230.771	230.133	-0.596	-0.966
-229.757	-72.545	-0.702	0.257
-228.742	75.032	0.117	0.122
-227.727	800.000	0.282	0.897
-226.713	-48.674	-0.141	0.067
-225.698	-200.000	-0.022	-1.118
-224.684	-104.914	0.165	-0.038
-223.669	800.000	0.203	0.711
-222.655	800.000	0.264	0.901
-221.640	-200.000	-0.099	0.768
-220.625	-88.656	-0.137	-0.040
-219.611	-132.021	-0.700	0.090
-218.596	-46.865	-0.704	0.341
-217.582	353.865	-0.141	-0.278
-216.567	-53.582	0.308	-0.140
-215.552	-75.220	-0.626	-0.222
-214.538	128.203	-0.281	-0.354
-213.523	-90.846	0.270	-0.077
-212.509	168.059	-0.283	0.399
-211.494	418.109	0.504	1.068
-210.479	6.776	-0.858	-0.633
-209.465	274.017	-0.437	0.767
-208.450	141.143	-0.197	-0.258
-207.436	190.902	0.258	-0.384
-206.421	-24.172	0.806	0.477
-205.406	-200.000	-0.146	1.268
-204.392	-102.635	0.575	0.136
-203.377	-36.370	-0.300	0.160
-202.363	92.899	0.319	-0.357
-201.348	-30.528	-0.548	0.308
-200.333	45.520	0.398	0.364
-199.319	-109.110	1.012	0.213
-198.304	-93.544	-0.264	0.072
-197.290	194.491	-0.771	1.158
-196.275	167.461	0.432	0.609
-195.260	477.307	-0.149	0.334
-194.246	-122.659	-0.487	-0.078
-193.231	-52.502	0.471	0.216
-192.217	139.797	0.239	-0.312
-191.202	800.000	0.068	-0.238
-190.187	268.714	0.113	0.196
-189.173	-71.166	-0.614	0.228
-188.158	43.312	0.275	-0.248
-187.144	-8.450	-0.852	0.567
-186.129	-96.624	-0.294	0.077
-185.114	452.435	-0.468	-1.025
-184.100	69.636	0.397	0.405
-183.085	-200.000	-0.060	-0.666
-182.071	800.000	0.066	-0.230
-181.056	-69.291	-0.398	-0.151
-180.042	-200.000	-0.151	0.814
-179.027	-200.000	-0.014	-1.070
-178.012	17.799	0.283	0.223
-176.998	-0.670	-0.538	-0.378
-175.983	-6.934	-0.219	0.147
-174.969	-65.870	0.931	-0.368
-173.954	-78.207	-0.469	-0.160
-172.939	-200.000	0.060	0.338
-171.925	5.583	-0.350	0.256
-170.910	-119.119	0.476	-0.082
-169.896	-42.765	-0.080	0.040
-168.881	800.000	0.045	-0.172
-167.866	-158.153	-1.217	0.071
-166.852	75.858	0.557	-0.582
-165.837	800.000	0.093	-0.281
-164.823	-103.813	0.659	0.152
-163.808	200.077	-0.187	0.283
-162.793	-49.184	0.488	0.231
-161.779	-147.789	0.465	-0.038
-160.764	-97.726	-0.270	-0.069
-159.750	-46.325	0.638	-0.310
-158.735	84.868	0.431	0.467
-157.720	800.000	-0.131	0.382
-156.706	-74.642	-0.373	-0.133
-155.691	-96.084	0.964	-0.253
-154.677	14.709	-0.989	-0.765
-153.662	-200.000	0.025	-0.326
-152.647	-124.072	0.530	0.082
-151.633	-176.482	0.327	0.008
-150.618	318.575	0.285	0.533
-149.604	-124.173	0.733	-0.114
-148.589	-200.000	-0.045	-0.645
-147.574	291.908	-0.255	0.460
-146.560	158.238	0.659	-0.903
-145.545	-26.335	0.296	0.172
-144.531	800.000	-0.263	-0.923
-143.516	332.948	0.174	-0.332
-142.502	23.612	0.235	-0.191
-141.487	800.000	0.190	0.646
-140.472	0.243	0.276	0.195
-139.458	-200.000	-0.054	-0.661
-138.443	271.915	0.444	0.774
-137.429	136.174	-0.068	-0.087
-136.414	-106.536	-0.756	-0.166
-135.399	-90.785	0.365	0.104
-134.385	-91.415	-0.121	-0.034
-133.370	-50.205	-0.706	-0.330
-132.356	-119.316	-0.586	-0.101
-131.341	800.000	-0.313	-0.985
-130.326	-200.000	0.095	-0.739
-129.312	90.238	0.124	-0.137
-128.297	419.946	0.391	0.828
-127.283	1.578	-0.500	0.356
-126.268	323.362	0.464	0.873
-125.253	9.964	-0.158	0.119
-124.239	-121.057	-0.521	-0.086
-123.224	-200.000	-0.116	-0.689
-122.210	-46.311	-0.886	0.430
-121.195	30.215	0.545	-0.459
-120.180	123.704	-0.525	-0.650
