DTS Sentinel unit serial number:	SN413079Multiplexer serial number:	ORYXHardware model number:	OX4-SRSoftware version number:	ORYX F/W v4.00 Oryx Data Collector v3.7.2.0data status	okinstallation	princeton_trtdifferential loss correction	single-endedforward channel	channel 3reverse channel	N/Adate	2019/09/14time	03:00:35forward acquisition time	60.00reverse acquisition time	0.00gamma	496.2192k internal	0.2339k external	0.2339temperature offset calibration	1.0053default loss term (dB/km)	0.3790temperature slope calibration	1.0000multiplexer offset coefficient	1.0000multiplexer slope coefficient	1.0000fibre end	0.00T internal ref (°C)	26.56T ext. ref 1 (°C)	3.23T ext. ref 2 (°C)	21.60length (m)	temperature (°C)	Stokes	anti-Stokes-747.200	-165.286	-0.236	0.010
-746.185	1.749	-0.239	0.172
-745.171	-41.517	-0.258	-0.133
-744.156	200.488	-0.149	0.229
-743.142	12.941	-0.227	0.176
-742.127	-200.000	-0.017	0.298
-741.112	-98.336	-0.189	0.049
-740.098	62.394	-0.114	-0.114
-739.083	-200.000	-0.011	-0.122
-738.069	30.053	0.102	0.087
-737.054	60.080	0.313	0.311
-736.039	34.941	0.047	0.042
-735.025	277.608	0.140	0.250
-734.010	-200.000	0.006	-0.151
-732.996	-200.000	-0.240	0.000
-731.981	-200.000	-0.021	-0.107
-730.966	44.038	0.110	-0.101
-729.952	-155.268	-0.391	-0.026
-728.937	-168.375	0.293	0.011
-727.923	-108.355	0.136	-0.030
-726.908	-78.937	0.235	0.080
-725.894	237.217	0.222	-0.370
-724.879	-10.107	-0.283	-0.189
-723.864	59.988	0.033	0.032
-722.850	2.724	-0.147	0.107
-721.835	-90.609	0.283	0.082
-720.821	275.046	-0.109	0.193
-719.806	-129.045	0.218	-0.031
-718.791	268.304	-0.057	-0.101
-717.777	-200.000	0.006	0.077
-716.762	-200.000	-0.006	-0.132
-715.748	2.714	-0.094	0.069
-714.733	527.275	-0.068	0.162
-713.718	32.062	0.148	-0.128
-712.704	-164.754	-0.105	-0.005
-711.689	-35.576	0.380	-0.207
-710.675	-176.619	0.634	-0.016
-709.660	-94.446	-0.251	0.069
-708.645	326.007	-0.099	0.190
-707.631	800.000	-0.030	0.094
-706.616	2.462	-0.151	-0.109
-705.602	-48.996	-0.163	-0.078
-704.587	286.695	0.130	0.235
-703.572	114.101	0.076	0.093
-702.558	60.536	0.109	-0.108
-701.543	-27.246	-0.198	-0.115
-700.529	-44.802	-0.375	0.187
-699.514	71.380	-0.061	0.063
-698.499	-200.000	-0.011	0.078
-697.485	429.878	-0.034	-0.074
-696.470	13.729	0.070	-0.055
-695.456	480.769	0.020	-0.046
-694.441	-90.275	0.461	-0.134
-693.426	800.000	0.062	-0.193
-692.412	-200.000	0.026	-0.190
-691.397	-200.000	-0.011	0.075
-690.383	-111.881	0.378	0.076
-689.368	-200.000	0.013	0.243
-688.354	383.938	0.108	0.223
-687.339	24.340	-0.189	0.157
-686.324	292.778	0.142	0.259
-685.310	70.044	0.252	0.260
-684.295	82.589	-0.137	0.148
-683.281	-123.820	-0.278	0.044
-682.266	800.000	0.145	0.403
-681.251	-101.558	-0.387	-0.094
-680.237	112.683	-0.111	-0.135
-679.222	-100.203	-0.176	-0.044
-678.208	-200.000	0.016	0.085
-677.193	-200.000	-0.009	0.088
-676.178	308.055	-0.029	-0.055
-675.164	-26.014	-0.255	0.150
-674.149	32.124	-0.330	-0.284
-673.135	14.887	0.195	-0.152
-672.120	57.972	-0.100	0.098
-671.105	800.000	0.048	0.172
-670.091	-41.917	0.259	-0.133
-669.076	-11.275	0.223	-0.147
-668.062	-200.000	0.052	0.264
-667.047	178.837	0.063	0.092
-666.032	-85.054	0.191	0.060
-665.018	-49.137	-0.044	-0.021
-664.003	-7.124	-0.181	-0.123
-662.989	-117.360	0.200	-0.036
-661.974	-59.123	-0.142	-0.061
-660.959	-66.267	0.123	0.049
-659.945	64.291	-0.104	-0.105
-658.930	372.591	0.098	0.199
-657.916	-61.451	-0.310	-0.130
-656.901	23.607	0.049	0.040
-655.886	-200.000	0.011	0.200
-654.872	-200.000	-0.005	0.270
-653.857	-54.614	0.072	0.033
-652.843	110.387	-0.210	0.253
-651.828	207.611	0.180	0.281
-650.814	106.115	0.088	0.104
-649.799	-154.650	-0.226	0.015
-648.784	30.242	-0.107	0.091
-647.770	259.850	-0.150	0.259
-646.755	-75.961	-0.250	0.088
-645.741	-173.997	0.193	0.006
-644.726	310.864	-0.046	-0.086
-643.711	622.207	0.066	-0.165
-642.697	800.000	-0.076	-0.305
-641.682	-200.000	-0.020	0.152
-640.668	-114.830	0.318	0.061
-639.653	-121.525	0.056	-0.009
-638.638	169.633	0.038	0.054
-637.624	-109.698	-0.158	0.033
-636.609	10.359	0.152	-0.116
-635.595	800.000	0.125	0.360
-634.580	78.112	0.135	-0.144
-633.565	115.400	-0.105	0.128
-632.551	-54.679	-0.244	-0.110
-631.536	120.268	-0.205	-0.254
-630.522	-40.795	-0.092	-0.047
-629.507	7.232	-0.041	-0.031
-628.492	11.660	0.058	0.045
-627.478	-72.023	-0.187	0.070
-626.463	-200.000	-0.021	0.181
-625.449	5.855	0.206	0.152
-624.434	-200.000	-0.053	-0.309
-623.419	346.337	0.108	0.212
-622.405	187.961	0.038	0.056
-621.390	-168.149	-0.413	-0.016
-620.376	-200.000	0.017	-0.334
-619.361	-134.852	0.163	0.020
-618.346	-167.756	-0.301	0.012
-617.332	-122.828	0.177	-0.029
-616.317	58.626	0.128	0.125
-615.303	-192.773	-0.274	-0.002
-614.288	256.249	-0.071	0.121
-613.273	800.000	-0.138	0.537
-612.259	640.502	-0.068	0.172
-611.244	34.047	0.128	-0.111
-610.230	800.000	-0.037	-0.102
-609.215	-35.170	-0.233	-0.127
-608.201	-200.000	-0.023	-0.234
-607.186	-113.417	-0.081	-0.016
-606.171	56.852	0.138	0.134
-605.157	-200.000	-0.085	-0.401
-604.142	800.000	-0.083	-0.308
-603.128	270.485	-0.077	0.136
-602.113	-85.880	0.138	-0.043
-601.098	-76.200	0.216	-0.076
-600.084	-99.511	-0.355	0.089
-599.069	-136.780	-0.257	-0.029
-598.055	800.000	0.021	-0.087
-597.040	-50.166	0.437	0.206
-596.025	-94.197	0.159	-0.043
-595.011	-190.099	0.015	0.000
-593.996	-121.620	-0.373	-0.062
-592.982	-79.496	-0.347	-0.117
-591.967	-164.307	-0.363	-0.017
-590.952	-200.000	-0.026	0.179
-589.938	651.456	-0.032	0.083
-588.923	-200.000	0.002	-0.226
-587.909	478.769	-0.053	-0.120
-586.894	-200.000	-0.080	-0.426
-585.879	112.201	0.144	0.174
-584.865	233.274	-0.130	0.213
-583.850	800.000	-0.048	-0.133
-582.836	537.311	0.130	-0.309
-581.821	336.263	0.066	-0.129
-580.806	-2.003	-0.364	0.255
-579.792	-87.210	0.072	0.022
-578.777	79.546	-0.279	-0.299
-577.763	712.674	-0.080	-0.211
-576.748	-139.582	-0.279	0.030
-575.733	-200.000	0.032	0.187
-574.719	380.861	0.161	-0.328
-573.704	-22.111	0.120	-0.073
-572.690	-176.825	0.152	-0.004
-571.675	8.124	-0.244	0.183
-570.661	-200.000	0.001	0.360
-569.646	-20.372	0.337	-0.206
-568.631	30.569	-0.276	0.235
-567.617	800.000	-0.070	0.199
-566.602	129.527	-0.264	0.336
-565.588	-67.742	-0.268	-0.105
-564.573	83.623	0.270	-0.294
-563.558	345.538	-0.147	-0.288
-562.544	74.480	0.177	0.186
-561.529	-37.583	0.108	0.057
-560.515	800.000	0.061	0.181
-559.500	800.000	0.038	-0.106
-558.485	-131.692	0.325	0.042
-557.471	800.000	-0.129	0.385
-556.456	12.301	-0.166	0.127
-555.442	139.993	-0.080	-0.105
-554.427	253.922	0.071	0.121
-553.412	800.000	-0.017	0.052
-552.398	6.774	-0.307	-0.227
-551.383	91.134	0.249	-0.278
-550.369	-200.000	-0.031	0.304
-549.354	-82.037	0.061	-0.020
-548.339	800.000	-0.140	-0.584
-547.325	32.463	-0.097	-0.084
-546.310	271.497	0.046	-0.081
-545.296	-200.000	-0.020	0.111
-544.281	-122.158	0.066	-0.011
-543.266	-200.000	-0.021	-0.239
-542.252	-200.000	-0.011	-0.183
-541.237	-13.168	0.202	-0.131
-540.223	2.938	-0.266	0.192
-539.208	-101.490	0.341	-0.082
-538.193	681.652	-0.036	-0.093
-537.179	158.892	-0.223	0.308
-536.164	14.338	-0.079	0.061
-535.150	-200.000	0.029	-0.148
-534.135	58.636	0.039	-0.038
-533.121	-147.996	0.369	0.031
-532.106	800.000	-0.020	-0.059
-531.091	-200.000	0.002	-0.178
-530.077	-200.000	0.019	-0.149
-529.062	-20.464	0.160	0.098
-528.048	-200.000	-0.038	-0.224
-527.033	-200.000	0.041	-0.271
-526.018	24.343	0.318	-0.262
-525.004	800.000	-0.033	-0.098
-523.989	54.394	0.038	0.036
-522.975	-69.358	0.302	-0.115
-521.960	714.130	0.028	-0.073
-520.945	156.436	0.148	0.203
-519.931	192.927	-0.087	0.131
-518.916	116.995	-0.021	-0.026
-517.902	-19.363	0.150	-0.093
-516.887	-8.180	-0.142	0.095
-515.872	-14.148	-0.249	-0.159
-514.858	800.000	0.078	0.219
-513.843	-109.519	-0.195	-0.041
-512.829	-19.791	-0.137	-0.084
-511.814	141.534	0.069	-0.091
-510.799	451.602	0.143	0.315
-509.785	-145.886	-0.336	-0.030
-508.770	47.912	-0.155	-0.144
-507.756	-160.054	0.135	0.007
-506.741	163.113	0.072	-0.100
-505.726	-148.665	0.336	0.027
-504.712	-200.000	0.057	-0.315
-503.697	-110.319	-0.062	-0.013
-502.683	-80.744	-0.220	0.073
-501.668	-89.022	0.285	-0.084
-500.653	-66.254	-0.038	-0.015
-499.639	-200.000	0.025	0.179
-498.624	-54.390	-0.084	0.038
-497.610	582.290	0.034	0.083
-496.595	-137.361	0.224	-0.025
-495.581	-83.658	0.205	0.065
-494.566	10.645	0.166	-0.126
-493.551	-200.000	0.008	0.078
-492.537	-88.836	-0.296	0.087
-491.522	-91.737	-0.259	0.073
-490.508	800.000	-0.053	0.212
-489.493	414.222	0.037	-0.077
-488.478	-193.527	-0.191	-0.002
-487.464	-200.000	0.044	-0.417
-486.449	800.000	-0.057	-0.182
-485.435	-32.686	-0.134	0.074
-484.420	-47.158	0.192	-0.093
-483.405	228.752	-0.127	-0.206
-482.391	266.386	0.113	-0.196
-481.376	48.658	0.246	-0.229
-480.362	-173.025	-0.097	-0.003
-479.347	-84.922	0.135	-0.042
-478.332	-73.810	-0.271	-0.098
-477.318	-200.000	0.003	-0.166
-476.303	181.687	0.052	-0.076
-475.289	228.417	-0.063	0.102
-474.274	569.221	0.069	0.166
-473.259	800.000	-0.058	-0.187
-472.245	16.048	0.257	0.201
-471.230	800.000	-0.069	0.253
-470.216	-20.013	-0.167	-0.102
-469.201	-200.000	0.044	-0.202
-468.186	647.795	0.035	-0.088
-467.172	-96.138	0.032	0.008
-466.157	770.564	0.063	-0.170
-465.143	-131.597	-0.097	0.013
-464.128	-68.230	-0.241	-0.093
-463.113	-25.993	-0.324	-0.189
-462.099	-200.000	0.014	-0.102
-461.084	57.121	0.040	0.038
-460.070	-200.000	-0.044	0.425
-459.055	25.869	0.138	0.115
-458.040	800.000	0.072	0.283
-457.026	10.823	0.273	-0.207
-456.011	-61.993	0.038	-0.016
-454.997	-8.478	0.047	-0.031
-453.982	-200.000	-0.006	-0.052
-452.968	-200.000	-0.012	0.166
-451.953	-200.000	-0.038	0.186
-450.938	-80.131	-0.080	0.027
-449.924	-107.643	0.094	-0.020
-448.909	-105.001	-0.051	-0.012
-447.895	311.182	0.085	-0.158
-446.880	268.968	-0.062	-0.107
-445.865	187.963	-0.170	0.251
-444.851	88.062	0.132	-0.146
-443.836	800.000	0.176	0.505
-442.822	325.525	0.053	-0.100
-441.807	-25.684	0.085	-0.050
-440.792	205.768	0.111	0.172
-439.778	-67.375	0.278	-0.108
-438.763	212.200	-0.027	0.042
-437.749	-81.576	-0.155	0.050
-436.734	177.805	-0.372	0.538
-435.719	-200.000	-0.013	0.060
-434.705	20.760	0.276	-0.222
-433.690	-104.645	0.208	-0.048
-432.676	207.017	0.100	-0.154
-431.661	800.000	-0.103	-0.299
-430.646	12.144	0.071	0.054
-429.632	-187.303	-0.177	0.002
-428.617	79.858	-0.128	-0.136
-427.603	44.937	-0.106	-0.097
-426.588	242.004	0.128	0.212
-425.573	-53.860	0.327	-0.148
-424.559	28.682	-0.100	-0.084
-423.544	120.707	0.101	0.124
-422.530	-200.000	-0.044	0.253
-421.515	800.000	0.027	0.114
-420.500	6.985	0.110	-0.082
-419.486	192.576	-0.040	0.060
-418.471	-100.854	0.442	-0.108
-417.457	257.110	0.164	-0.280
-416.442	-200.000	0.030	0.178
-415.428	-200.000	0.006	0.057
-414.413	-200.000	0.005	-0.093
-413.398	-89.653	0.300	-0.087
-412.384	285.452	-0.046	-0.083
-411.369	327.645	-0.051	0.097
-410.355	271.747	0.145	0.252
-409.340	-157.721	-0.269	-0.016
-408.325	71.674	0.047	-0.048
-407.311	800.000	0.060	0.177
-406.296	800.000	-0.074	0.261
-405.282	145.365	-0.185	-0.245
-404.267	800.000	0.070	0.199
-403.252	110.496	0.153	-0.182
-402.238	-174.969	0.299	-0.008
-401.223	-78.326	-0.276	-0.094
-400.209	0.514	0.172	-0.122
-399.194	704.359	0.127	-0.331
-398.179	-93.186	-0.270	-0.074
-397.165	800.000	0.013	0.039
-396.150	-73.124	0.175	0.064
-395.136	-157.005	-0.255	0.015
-394.121	-122.946	0.218	-0.035
-393.106	194.822	-0.076	-0.115
-392.092	521.585	-0.140	0.325
-391.077	549.770	-0.054	0.128
-390.063	-54.562	-0.144	-0.064
-389.048	-23.264	-0.092	0.055
-388.033	6.881	0.093	-0.068
-387.019	127.744	-0.157	-0.197
-386.004	-200.000	-0.052	0.356
-384.990	-200.000	-0.077	0.434
-383.975	-144.350	-0.232	0.021
-382.960	-200.000	0.055	0.276
-381.946	146.263	-0.050	-0.067
-380.931	-46.749	0.341	0.165
-379.917	400.720	0.054	0.113
-378.902	126.992	0.022	-0.028
-377.888	36.385	-0.070	-0.061
-376.873	115.453	0.204	-0.247
-375.858	800.000	0.050	0.168
-374.844	159.431	-0.103	0.142
-373.829	-200.000	0.001	-0.026
-372.815	-38.757	0.279	0.145
-371.800	-107.893	-0.357	0.077
-370.785	-65.362	0.205	-0.082
-369.771	800.000	-0.115	0.324
-368.756	800.000	0.030	0.124
-367.742	474.374	0.163	-0.363
-366.727	733.128	0.012	-0.031
-365.712	250.438	-0.098	-0.165
-364.698	51.935	0.086	0.081
-363.683	-200.000	-0.022	0.132
-362.669	-200.000	0.011	0.154
-361.654	220.025	-0.030	-0.047
-360.639	800.000	-0.107	-0.357
-359.625	465.592	-0.040	-0.088
-358.610	800.000	-0.039	0.125
-357.596	90.289	0.209	-0.231
-356.581	114.816	-0.148	-0.178
-355.566	-35.969	-0.144	-0.077
-354.552	-54.263	-0.079	0.035
-353.537	-168.983	0.225	0.008
-352.523	800.000	-0.099	-0.400
-351.508	16.456	0.243	-0.190
-350.493	-85.377	-0.154	-0.047
-349.479	202.855	-0.101	-0.154
-348.464	-200.000	-0.012	0.265
-347.450	-200.000	0.051	-0.545
-346.435	800.000	-0.010	0.029
-345.420	-38.982	0.167	-0.087
-344.406	227.853	-0.198	0.319
-343.391	-200.000	0.016	0.285
-342.377	800.000	0.024	0.086
-341.362	-188.703	-0.316	-0.004
-340.348	-200.000	-0.081	-0.359
-339.333	167.407	-0.094	-0.132
-338.318	581.839	-0.084	-0.203
-337.304	46.649	-0.283	-0.260
-336.289	800.000	0.014	-0.051
-335.275	-200.000	-0.028	-0.272
-334.260	-200.000	-0.052	-0.291
-333.245	102.514	-0.284	-0.328
-332.231	-8.347	0.243	0.161
-331.216	119.251	0.009	-0.011
-330.202	-94.722	-0.130	-0.035
-329.187	-200.000	-0.034	-0.290
-328.172	-148.187	-0.164	0.013
-327.158	-136.894	-0.042	-0.005
-326.143	-152.832	-0.269	0.019
-325.129	19.696	0.070	0.056
-324.114	-96.000	0.329	-0.086
-323.099	651.840	-0.042	-0.105
-322.085	800.000	0.027	-0.089
-321.070	796.356	-0.016	0.045
-320.056	800.000	0.052	-0.198
-319.041	-200.000	0.008	0.367
-318.026	-71.471	-0.068	0.025
-317.012	-125.069	-0.240	0.036
-315.997	800.000	0.090	0.290
-314.983	-1.024	-0.249	-0.174
-313.968	-82.967	0.182	-0.058
-312.953	283.876	0.068	-0.120
-311.939	-94.845	0.242	0.065
-310.924	36.377	0.391	0.340
-309.910	-43.653	-0.130	0.065
-308.895	8.660	-0.272	0.202
-307.880	-100.913	0.294	-0.071
-306.866	-200.000	0.027	-0.450
-305.851	-130.612	-0.330	0.044
-304.837	342.380	0.063	-0.121
-303.822	-200.000	-0.174	0.000
-302.807	15.482	0.126	0.097
-301.793	670.511	0.081	-0.207
-300.778	-200.000	-0.044	0.207
-299.764	800.000	-0.036	0.104
-298.749	800.000	0.038	0.148
-297.735	46.275	-0.202	-0.185
-296.720	177.616	0.045	0.064
-295.705	234.688	-0.036	0.059
-294.691	-24.315	0.119	0.070
-293.676	11.866	0.194	0.147
-292.662	80.002	0.020	-0.021
-291.647	-97.788	-0.183	-0.047
-290.632	-64.872	-0.358	0.143
-289.618	-29.739	0.073	0.041
-288.603	-18.092	-0.108	0.067
-287.589	800.000	0.034	0.130
-286.574	105.893	0.217	0.253
-285.559	-139.082	0.256	0.027
-284.545	-200.000	-0.012	-0.076
-283.530	-140.060	0.266	0.028
-282.516	-9.305	0.211	0.139
-281.501	-99.322	0.129	-0.032
-280.486	655.387	0.086	0.218
-279.472	-200.000	0.059	0.278
-278.457	-200.000	0.055	-0.343
-277.443	378.852	-0.058	0.117
-276.428	-200.000	0.019	0.154
-275.413	264.886	-0.081	-0.139
-274.399	-30.352	0.236	0.132
-273.384	-100.764	-0.064	-0.016
-272.370	37.586	0.048	-0.042
-271.355	800.000	0.014	-0.055
-270.340	190.177	-0.147	-0.217
-269.326	-133.015	0.368	0.046
-268.311	-2.212	0.296	0.205
-267.297	-86.187	0.128	-0.039
-266.282	46.638	0.110	0.100
-265.267	130.586	-0.117	-0.147
-264.253	188.471	0.136	-0.200
-263.238	800.000	-0.054	0.167
-262.224	-21.583	-0.209	-0.125
-261.209	-150.619	0.312	-0.023
-260.195	8.905	0.129	-0.096
-259.180	-38.446	-0.310	0.161
-258.165	110.766	0.254	0.301
-257.151	-128.999	0.190	0.026
-256.136	-159.198	0.118	0.007
-255.122	-51.751	0.305	0.140
-254.107	-161.266	-0.107	-0.005
-253.092	110.387	-0.025	-0.030
-252.078	-94.935	-0.235	-0.063
-251.063	-199.001	0.083	-0.000
-250.049	-1.575	0.083	-0.057
-249.034	-134.974	-0.150	-0.018
-248.019	148.134	0.208	0.276
-247.005	-102.868	-0.468	0.109
-245.990	358.625	-0.113	-0.221
-244.976	80.367	0.352	0.372
-243.961	-200.000	-0.085	0.575
-242.946	125.545	-0.240	-0.297
-241.932	-200.000	-0.021	-0.282
-240.917	-109.722	0.219	0.045
-239.903	38.473	0.230	-0.201
-238.888	-200.000	-0.005	-0.022
-237.873	8.093	0.184	-0.136
-236.859	-62.797	0.158	0.065
-235.844	-200.000	-0.045	0.250
-234.830	-138.393	-0.213	-0.023
-233.815	-102.791	-0.141	0.033
-232.800	-69.416	-0.246	-0.093
-231.786	800.000	-0.074	-0.275
-230.771	-17.348	-0.095	0.059
-229.757	800.000	0.084	-0.245
-228.742	-125.809	0.208	0.031
-227.727	140.152	-0.176	-0.228
-226.713	-173.402	-0.214	0.006
-225.698	-12.862	0.240	0.154
-224.684	19.570	-0.161	-0.128
-223.669	-68.377	-0.112	-0.043
-222.655	12.852	0.241	-0.183
-221.640	-92.260	0.197	-0.055
-220.625	800.000	-0.032	0.121
-219.611	17.090	-0.201	0.156
-218.596	-160.699	-0.244	0.013
-217.582	-23.761	0.211	-0.124
-216.567	271.307	0.151	-0.261
-215.552	190.271	-0.213	0.314
-214.538	-87.869	-0.143	0.042
-213.523	800.000	-0.117	0.443
-212.509	167.732	0.214	0.299
-211.494	-73.217	-0.210	-0.076
-210.479	800.000	-0.081	-0.244
-209.465	174.371	0.122	0.173
-208.450	678.054	-0.118	0.301
-207.436	-152.689	0.258	-0.018
-206.421	-20.798	0.259	0.156
-205.406	-200.000	0.001	-0.121
-204.392	178.572	-0.157	0.225
-203.377	767.510	0.130	-0.348
-202.363	-200.000	-0.010	0.044
-201.348	-200.000	-0.014	0.276
-200.333	-200.000	0.053	0.290
-199.319	-120.702	-0.304	0.050
-198.304	457.890	-0.086	0.187
-197.290	788.113	-0.028	0.075
-196.275	-26.995	0.257	0.147
-195.260	-200.000	-0.011	0.183
-194.246	-116.481	-0.181	-0.033
-193.231	367.253	0.103	0.205
-192.217	-200.000	-0.045	0.299
-191.202	-200.000	-0.014	-0.212
-190.187	33.889	-0.141	-0.121
-189.173	-200.000	0.027	0.123
-188.158	-4.751	-0.269	-0.182
-187.144	800.000	-0.032	-0.128
-186.129	103.275	0.219	0.252
-185.114	35.295	-0.198	0.170
-184.100	-200.000	-0.003	-0.034
-183.085	800.000	-0.090	0.290
-182.071	-140.322	-0.325	0.033
-181.056	596.729	-0.114	-0.277
-180.042	-167.905	-0.300	0.012
-179.027	-83.324	0.204	-0.064
-178.012	-63.947	0.158	0.063
-176.998	-86.246	-0.087	0.026
-175.983	63.222	-0.113	-0.112
-174.969	-200.000	0.005	0.110
-173.954	800.000	0.070	-0.290
-172.939	125.688	0.097	0.120
-171.925	-200.000	0.024	0.339
-170.910	-109.725	0.187	0.039
-169.896	7.797	0.203	0.149
-168.881	-146.365	0.027	-0.002
-167.866	-82.426	0.162	0.051
-166.852	-200.000	-0.020	-0.214
-165.837	14.456	0.217	0.166
-164.823	-33.542	0.293	0.159
-163.808	-200.000	-0.004	0.253
-162.793	800.000	0.047	-0.166
-161.779	253.800	-0.124	-0.207
-160.764	467.823	-0.086	0.188
-159.750	494.288	0.093	0.209
-158.735	606.324	-0.122	0.299
-157.720	-95.058	-0.156	0.041
-156.706	-108.329	0.327	0.069
-155.691	-146.419	0.125	0.011
-154.677	136.275	0.120	-0.153
-153.662	-200.000	0.016	0.187
-152.647	-96.772	0.239	-0.062
-151.633	-200.000	-0.079	-0.437
-150.618	348.009	0.138	0.267
-149.604	97.751	0.048	-0.054
-148.589	220.695	0.057	-0.089
-147.574	151.266	0.304	0.405
-146.560	-200.000	-0.048	0.372
-145.545	-73.055	0.198	0.071
-144.531	7.350	-0.251	0.183
-143.516	-200.000	-0.013	0.134
-142.502	-200.000	0.023	0.155
-141.487	160.934	0.195	0.268
-140.472	-56.052	-0.317	0.138
-139.458	800.000	0.051	0.179
-138.443	508.096	0.102	-0.233
-137.429	800.000	-0.124	0.497
-136.414	-101.921	-0.110	0.026
-135.399	213.697	0.150	-0.232
-134.385	15.425	0.280	-0.215
-133.370	89.994	0.130	-0.143
-132.356	27.218	0.244	0.200
-131.341	-60.614	-0.077	0.032
-130.326	522.128	0.118	0.271
-129.312	-200.000	-0.008	0.068
-128.297	-200.000	-0.024	-0.349
-127.283	-200.000	-0.019	-0.252
-126.268	18.004	0.149	0.116
-125.253	-25.255	0.066	0.038
-124.239	-26.296	0.238	-0.137
-123.224	-104.408	-0.260	-0.059
-122.210	-129.633	0.351	0.047
-121.195	399.916	-0.046	-0.095
