DTS Sentinel unit serial number:	SN413079Multiplexer serial number:	ORYXHardware model number:	OX4-SRSoftware version number:	ORYX F/W v4.00 Oryx Data Collector v3.7.2.0data status	okinstallation	princeton_trtdifferential loss correction	single-endedforward channel	channel 3reverse channel	N/Adate	2019/09/14time	03:40:34forward acquisition time	60.00reverse acquisition time	0.00gamma	496.2192k internal	0.2338k external	0.2338temperature offset calibration	1.0054default loss term (dB/km)	0.3790temperature slope calibration	1.0000multiplexer offset coefficient	1.0000multiplexer slope coefficient	1.0000fibre end	0.00T internal ref (°C)	26.62T ext. ref 1 (°C)	3.30T ext. ref 2 (°C)	21.65length (m)	temperature (°C)	Stokes	anti-Stokes-747.200	-200.000	-0.050	-0.229
-746.185	24.664	0.393	0.326
-745.171	92.517	0.034	-0.038
-744.156	800.000	-0.114	0.331
-743.142	800.000	0.053	0.173
-742.127	-1.596	-0.191	0.135
-741.112	-72.020	-0.158	0.059
-740.098	-4.676	-0.209	0.144
-739.083	-41.225	-0.250	-0.129
-738.069	-148.955	0.175	0.014
-737.054	0.846	-0.031	0.022
-736.039	150.325	-0.204	0.278
-735.025	405.254	0.195	0.412
-734.010	-64.080	0.134	-0.055
-732.996	-90.457	0.085	-0.025
-731.981	-71.921	-0.449	0.167
-730.966	-114.601	0.347	-0.067
-729.952	512.071	-0.136	0.317
-728.937	140.423	-0.302	-0.399
-727.923	-62.169	0.175	0.073
-726.908	-5.269	-0.086	-0.059
-725.894	-25.478	-0.087	-0.052
-724.879	-200.000	0.004	0.072
-723.864	53.378	0.076	-0.073
-722.850	-200.000	-0.017	0.191
-721.835	244.305	0.114	0.191
-720.821	82.466	-0.121	0.132
-719.806	-200.000	-0.076	0.463
-718.791	-8.994	-0.378	-0.254
-717.777	-40.585	0.127	0.066
-716.762	-130.073	0.282	-0.039
-715.748	424.816	-0.024	-0.052
-714.733	-139.389	0.110	-0.012
-713.718	-157.541	-0.157	0.009
-712.704	-200.000	0.035	-0.429
-711.689	-29.737	-0.290	-0.166
-710.675	-117.417	0.082	-0.015
-709.660	-104.342	0.094	-0.022
-708.645	-157.097	-0.246	0.015
-707.631	127.540	-0.093	0.118
-706.616	800.000	0.053	0.179
-705.602	527.041	0.130	-0.306
-704.587	211.250	-0.124	0.196
-703.572	-88.547	-0.077	0.023
-702.558	683.622	-0.078	0.204
-701.543	-200.000	-0.010	-0.139
-700.529	-79.090	-0.304	0.104
-699.514	-200.000	-0.057	0.250
-698.499	-157.693	-0.403	0.024
-697.485	189.895	0.148	0.223
-696.470	-178.447	-0.196	-0.005
-695.456	-43.203	-0.050	-0.025
-694.441	101.974	-0.139	0.162
-693.426	229.077	-0.204	-0.334
-692.412	800.000	0.067	0.253
-691.397	-200.000	0.051	-0.223
-690.383	-49.046	0.422	-0.202
-689.368	-200.000	-0.033	-0.298
-688.354	-169.320	0.353	-0.013
-687.339	717.825	-0.156	-0.414
-686.324	-72.784	-0.433	0.160
-685.310	7.257	-0.415	0.310
-684.295	800.000	-0.076	0.229
-683.281	-144.325	0.472	-0.044
-682.266	2.161	0.158	0.115
-681.251	-83.600	-0.106	-0.034
-680.237	173.654	0.213	-0.308
-679.222	-200.000	-0.022	-0.220
-678.208	-200.000	0.050	-0.368
-677.193	800.000	-0.055	0.152
-676.178	18.942	0.107	0.086
-675.164	-151.403	-0.108	0.008
-674.149	152.415	0.107	-0.146
-673.135	-40.881	0.285	-0.148
-672.120	-34.963	-0.072	0.039
-671.105	-168.935	-0.298	0.011
-670.091	-54.597	0.223	0.101
-669.076	-14.941	0.100	0.064
-668.062	94.436	-0.108	-0.123
-667.047	105.606	0.061	0.072
-666.032	-147.267	-0.419	0.036
-665.018	800.000	0.052	0.225
-664.003	201.544	0.106	-0.163
-662.989	113.000	0.213	0.258
-661.974	-200.000	-0.051	-0.407
-660.959	138.671	0.069	-0.091
-659.945	-200.000	0.025	-0.154
-658.930	-112.425	-0.341	-0.068
-657.916	51.647	-0.159	0.151
-656.901	245.183	-0.064	0.107
-655.886	47.771	-0.225	-0.210
-654.872	-155.634	0.384	0.025
-653.857	800.000	-0.102	-0.334
-652.843	-131.813	0.192	0.025
-651.828	-114.332	-0.087	0.017
-650.814	136.560	0.208	0.271
-649.799	27.046	0.183	0.153
-648.784	0.737	0.338	-0.242
-647.770	-200.000	0.011	-0.097
-646.755	800.000	-0.157	0.597
-645.741	195.352	0.032	0.048
-644.726	-90.190	-0.226	-0.066
-643.711	172.407	-0.101	0.145
-642.697	537.203	0.130	0.309
-641.682	-26.739	-0.104	-0.061
-640.668	131.759	-0.093	-0.120
-639.653	-79.543	-0.171	-0.058
-638.638	-120.264	-0.290	0.049
-637.624	44.990	0.126	0.116
-636.609	-145.813	-0.089	0.008
-635.595	-200.000	-0.015	0.091
-634.580	532.288	0.054	0.128
-633.565	-78.140	0.168	0.058
-632.551	-117.047	-0.226	-0.041
-631.536	-14.334	0.052	-0.033
-630.522	-200.000	0.015	-0.107
-629.507	-77.434	0.057	-0.020
-628.492	-15.907	-0.114	-0.072
-627.478	800.000	0.036	-0.157
-626.463	-31.667	0.079	-0.044
-625.449	-53.770	0.091	-0.041
-624.434	-43.440	0.219	0.110
-623.419	83.983	-0.189	0.206
-622.405	-114.105	-0.299	0.058
-621.390	-200.000	-0.024	0.112
-620.376	-66.483	0.174	-0.069
-619.361	-78.017	-0.254	0.087
-618.346	114.080	0.134	-0.162
-617.332	-10.774	0.063	-0.041
-616.317	33.042	-0.063	-0.054
-615.303	-71.036	0.198	0.074
-614.288	-38.532	-0.260	-0.137
-613.273	800.000	-0.023	0.072
-612.259	-27.175	0.127	0.074
-611.244	-200.000	-0.016	0.190
-610.230	-90.214	0.200	0.058
-609.215	-23.408	-0.080	0.048
-608.201	-100.188	-0.143	-0.035
-607.186	113.012	0.163	0.197
-606.171	35.829	0.049	0.043
-605.157	-200.000	0.035	0.206
-604.142	791.508	-0.032	0.089
-603.128	-126.893	-0.161	-0.024
-602.113	-200.000	-0.068	-0.478
-601.098	-1.371	0.303	0.213
-600.084	-75.825	-0.270	0.096
-599.069	0.579	-0.309	0.220
-598.055	142.327	0.270	-0.357
-597.040	-17.327	-0.161	-0.101
-596.025	16.796	-0.290	0.229
-595.011	800.000	0.064	-0.203
-593.996	132.657	0.091	-0.117
-592.982	-123.919	-0.043	-0.007
-591.967	723.225	-0.090	-0.240
-590.952	-176.169	0.392	0.010
-589.938	-51.412	-0.237	-0.111
-588.923	-35.485	0.165	0.089
-587.909	-200.000	-0.032	0.221
-586.894	75.528	-0.086	-0.091
-585.879	208.045	0.086	-0.133
-584.865	64.082	0.043	-0.043
-583.850	-101.814	-0.349	-0.084
-582.836	-132.551	-0.214	0.027
-581.821	142.796	0.105	0.139
-580.806	792.582	-0.089	0.244
-579.792	126.200	-0.253	-0.318
-578.777	1.077	-0.208	0.148
-577.763	-5.617	-0.177	-0.121
-576.748	-168.688	-0.345	-0.013
-575.733	-189.818	-0.254	0.003
-574.719	323.904	0.113	0.215
-573.704	-80.147	0.223	-0.074
-572.690	789.438	-0.200	-0.546
-571.675	158.734	-0.195	-0.270
-570.661	-200.000	-0.017	-0.168
-569.646	-117.787	-0.254	-0.045
-568.631	18.780	-0.114	-0.091
-567.617	13.628	0.275	-0.213
-566.602	461.371	0.126	-0.280
-565.588	57.186	0.227	-0.220
-564.573	141.648	-0.149	-0.196
-563.558	75.887	-0.162	-0.170
-562.544	-103.618	0.324	-0.076
-561.529	121.578	0.058	0.072
-560.515	-144.270	-0.362	-0.034
-559.500	800.000	-0.041	-0.177
-558.485	-200.000	-0.007	-0.115
-557.471	-45.744	-0.089	-0.044
-556.456	63.244	-0.281	-0.280
-555.442	-200.000	0.025	0.156
-554.427	40.628	-0.301	-0.270
-553.412	-120.512	-0.207	0.035
-552.398	800.000	-0.050	-0.218
-551.383	800.000	0.049	-0.169
-550.369	-42.949	0.216	0.109
-549.354	1.335	-0.141	0.101
-548.339	-92.435	-0.237	0.066
-547.325	17.668	-0.117	-0.092
-546.310	-200.000	-0.006	-0.040
-545.296	292.065	-0.091	-0.164
-544.281	-129.119	-0.306	-0.043
-543.266	-65.797	0.244	0.097
-542.252	-48.647	-0.398	0.191
-541.237	297.599	-0.042	-0.076
-540.223	-60.767	0.215	0.091
-539.208	249.237	0.162	0.274
-538.193	-95.104	-0.282	0.076
-537.179	-200.000	0.062	-0.274
-536.164	-74.367	0.338	-0.122
-535.150	-200.000	-0.052	0.397
-534.135	-200.000	0.026	0.174
-533.121	-149.628	0.048	-0.004
-532.106	-200.000	-0.032	0.343
-531.091	-200.000	-0.009	-0.145
-530.077	-38.152	-0.151	-0.080
-529.062	800.000	0.090	0.283
-528.048	-84.995	-0.256	-0.080
-527.033	132.380	-0.124	0.160
-526.018	-116.257	0.280	-0.052
-525.004	-115.614	0.098	0.018
-523.989	368.025	0.029	-0.059
-522.975	179.868	0.051	-0.074
-521.960	7.017	0.189	-0.140
-520.945	-200.000	0.003	0.146
-519.931	692.511	0.078	-0.203
-518.916	-45.772	0.196	0.096
-517.902	-146.152	-0.088	-0.008
-516.887	306.189	-0.009	-0.017
-515.872	-200.000	-0.007	0.078
-514.858	-200.000	-0.020	-0.106
-513.843	12.599	0.129	-0.099
-512.829	-23.319	0.163	-0.097
-511.814	49.435	0.229	0.214
-510.799	72.790	-0.152	0.158
-509.785	-21.090	0.029	-0.018
-508.770	-200.000	0.051	0.273
-507.756	800.000	0.025	-0.080
-506.741	-200.000	0.023	-0.153
-505.726	-112.055	-0.198	-0.040
-504.712	427.979	-0.187	-0.400
-503.697	-200.000	-0.027	0.126
-502.683	55.245	0.069	0.066
-501.668	566.674	-0.123	-0.296
-500.653	223.881	0.205	0.329
-499.639	-139.167	-0.154	0.016
-498.624	-15.313	-0.165	-0.105
-497.610	-99.437	0.215	-0.054
-496.595	-200.000	0.075	0.408
-495.581	128.668	-0.166	-0.210
-494.566	52.046	-0.257	-0.244
-493.551	56.418	-0.121	0.117
-492.537	87.406	-0.076	-0.084
-491.522	-136.661	0.375	0.043
-490.508	581.266	-0.097	-0.237
-489.493	32.650	-0.291	-0.250
-488.478	85.823	0.249	-0.272
-487.464	73.347	0.117	-0.121
-486.449	14.516	0.165	-0.128
-485.435	-87.697	-0.411	-0.123
-484.420	-74.732	0.427	-0.152
-483.405	-200.000	0.009	-0.186
-482.391	9.481	0.328	0.247
-481.376	-200.000	0.077	0.405
-480.362	65.100	-0.095	-0.095
-479.347	-200.000	0.002	-0.020
-478.332	13.710	-0.042	0.032
-477.318	-49.023	0.175	0.083
-476.303	-138.854	-0.452	-0.049
-475.289	10.808	-0.360	-0.273
-474.274	574.253	0.130	-0.316
-473.259	444.356	-0.176	-0.383
-472.245	147.107	0.164	0.219
-471.230	71.487	0.084	0.087
-470.216	650.452	-0.062	-0.158
-469.201	800.000	0.056	0.160
-468.186	-133.559	0.284	0.035
-467.172	126.065	-0.035	0.044
-466.157	800.000	-0.055	-0.205
-465.143	-200.000	-0.020	0.118
-464.128	3.201	-0.223	-0.161
-463.113	-200.000	-0.015	0.142
-462.099	-31.425	-0.308	0.172
-461.084	170.094	-0.280	-0.397
-460.070	800.000	0.088	-0.286
-459.055	44.575	-0.093	-0.085
-458.040	-200.000	0.039	-0.314
-457.026	242.668	-0.205	-0.340
-456.011	-14.332	-0.079	-0.050
-454.997	800.000	0.031	0.122
-453.982	27.588	-0.059	-0.049
-452.968	-93.565	-0.118	-0.032
-451.953	72.407	0.158	-0.164
-450.938	-128.886	-0.127	-0.018
-449.924	-163.082	-0.311	0.015
-448.909	22.877	-0.081	-0.066
-447.895	135.155	0.019	-0.025
-446.880	-14.806	0.255	-0.162
-445.865	59.579	0.249	0.244
-444.851	-71.663	0.481	-0.178
-443.836	-144.275	0.057	-0.005
-442.822	7.418	-0.105	0.078
-441.807	-200.000	-0.016	0.270
-440.792	-9.284	0.124	-0.082
-439.778	800.000	-0.073	0.212
-438.763	100.865	-0.148	0.170
-437.749	-76.862	-0.013	0.005
-436.734	338.637	-0.124	-0.239
-435.719	-200.000	0.051	-0.333
-434.705	95.845	0.394	0.446
-433.690	303.876	0.012	-0.022
-432.676	-54.090	0.206	-0.093
-431.661	42.765	-0.058	-0.052
-430.646	-109.058	0.089	0.019
-429.632	800.000	0.061	-0.237
-428.617	345.691	0.125	0.244
-427.603	-200.000	-0.045	0.305
-426.588	-120.539	-0.391	-0.066
-425.573	800.000	0.065	0.235
-424.559	178.719	0.222	0.321
-423.544	732.217	-0.204	0.541
-422.530	-114.062	-0.287	0.055
-421.515	256.423	0.153	0.261
-420.500	-75.450	-0.290	-0.102
-419.486	-200.000	0.001	-0.215
-418.471	-29.169	-0.052	0.029
-417.457	-200.000	-0.004	-0.077
-416.442	-200.000	-0.003	-0.044
-415.428	-22.827	0.126	-0.076
-414.413	334.958	0.086	-0.165
-413.398	-200.000	0.013	-0.201
-412.384	297.990	0.086	0.157
-411.369	660.172	-0.130	0.332
-410.355	30.440	-0.070	0.060
-409.340	162.834	-0.204	0.283
-408.325	-37.741	0.125	-0.066
-407.311	7.320	0.081	0.060
-406.296	6.868	-0.254	-0.187
-405.282	16.979	0.136	-0.107
-404.267	-29.153	-0.162	-0.092
-403.252	-74.144	-0.326	-0.117
-402.238	-30.952	0.271	-0.151
-401.223	-166.145	0.158	-0.007
-400.209	800.000	0.136	-0.406
-399.194	-72.309	-0.197	0.072
-398.179	55.415	-0.075	-0.072
-397.165	-33.447	-0.304	0.166
-396.150	348.091	0.094	-0.183
-395.136	-200.000	-0.030	-0.186
-394.121	170.485	-0.125	-0.177
-393.106	398.933	-0.046	-0.096
-392.092	225.044	0.175	0.281
-391.077	800.000	-0.025	-0.093
-390.063	194.281	0.241	-0.362
-389.048	-44.130	-0.236	0.117
-388.033	467.715	0.170	0.377
-387.019	-122.416	-0.232	-0.037
-386.004	227.017	-0.221	0.354
-384.990	-200.000	-0.029	0.202
-383.975	800.000	-0.039	0.108
-382.960	119.716	0.082	-0.101
-381.946	-92.672	0.245	-0.068
-380.931	-106.564	-0.284	-0.063
-379.917	-200.000	0.007	0.135
-378.902	-200.000	0.018	-0.102
-377.888	-200.000	0.024	-0.173
-376.873	35.368	0.170	0.148
-375.858	-61.582	0.316	-0.131
-374.844	76.063	-0.397	0.415
-373.829	310.309	0.073	-0.134
-372.815	-12.684	-0.128	-0.083
-371.800	-71.659	0.270	-0.100
-370.785	311.054	-0.092	-0.170
-369.771	256.028	0.141	-0.239
-368.756	-140.313	0.151	0.016
-367.742	331.653	-0.061	0.115
-366.727	-200.000	-0.019	-0.222
-365.712	-200.000	0.009	-0.152
-364.698	-103.651	-0.047	0.011
-363.683	-200.000	0.140	0.765
-362.669	66.161	0.262	0.263
-361.654	21.704	-0.083	-0.067
-360.639	158.411	0.143	-0.196
-359.625	15.503	-0.303	0.235
-358.610	-149.274	0.339	0.027
-357.596	-134.546	0.184	-0.022
-356.581	-200.000	0.015	0.167
-355.566	800.000	-0.101	0.303
-354.552	800.000	-0.015	-0.060
-353.537	-200.000	-0.025	-0.246
-352.523	3.301	0.177	0.127
-351.508	-7.974	0.219	-0.146
-350.493	495.252	-0.197	-0.448
-349.479	-200.000	0.048	0.325
-348.464	-171.161	-0.194	-0.006
-347.450	151.004	-0.209	-0.281
-346.435	696.958	0.086	-0.224
-345.420	-76.538	0.202	-0.070
-344.406	36.596	0.108	-0.094
-343.391	340.013	-0.122	-0.235
-342.377	370.626	0.246	0.493
-341.362	-117.304	0.125	0.022
-340.348	800.000	-0.098	0.401
-339.333	-200.000	0.047	-0.382
-338.318	-179.593	0.402	0.009
-337.304	64.712	0.118	-0.117
-336.289	-14.284	0.182	-0.116
-335.275	420.558	-0.040	0.084
-334.260	102.835	-0.077	-0.089
-333.245	82.930	-0.288	0.310
-332.231	635.754	0.022	-0.056
-331.216	16.337	0.220	-0.171
-330.202	41.909	0.116	-0.104
-329.187	800.000	-0.066	0.232
-328.172	-200.000	0.024	0.151
-327.158	84.563	0.200	0.216
-326.143	800.000	0.061	0.169
-325.129	-200.000	0.006	0.264
-324.114	-38.163	0.139	-0.073
-323.099	302.109	0.090	-0.164
-322.085	-79.379	-0.339	-0.113
-321.070	800.000	-0.023	-0.079
-320.056	8.976	0.168	0.125
-319.041	-200.000	-0.003	0.039
-318.026	11.419	0.255	-0.192
-317.012	-71.368	-0.119	-0.044
-315.997	-3.447	-0.102	0.070
-314.983	235.215	0.043	-0.070
-313.968	-200.000	-0.041	-0.366
-312.953	-115.356	-0.280	-0.052
-311.939	345.754	-0.118	0.228
-310.924	-63.384	0.204	-0.083
-309.910	1.217	-0.056	0.040
-308.895	800.000	0.119	-0.456
-307.880	-200.000	0.009	0.220
-306.866	-200.000	-0.021	-0.191
-305.851	-32.008	0.169	-0.094
-304.837	158.506	0.187	-0.255
-303.822	-200.000	-0.280	0.001
-302.807	800.000	0.065	-0.185
-301.793	55.011	0.169	0.161
-300.778	780.238	0.085	0.229
-299.764	-59.092	-0.104	0.044
-298.749	59.432	0.354	0.344
-297.735	-72.740	0.065	-0.024
-296.720	-46.179	0.168	-0.081
-295.705	-49.535	0.150	0.071
-294.691	-59.349	-0.229	0.097
-293.676	-146.501	0.298	-0.026
-292.662	-89.948	-0.221	0.064
-291.647	213.837	-0.105	-0.164
-290.632	-39.215	0.048	0.025
-289.618	128.055	-0.081	0.102
-288.603	-136.888	-0.325	-0.037
-287.589	-127.499	0.500	0.072
-286.574	-200.000	-0.027	-0.141
-285.559	97.047	-0.227	-0.257
-284.545	-22.468	0.173	-0.103
-283.530	-2.928	-0.128	-0.088
-282.516	257.639	-0.105	0.177
-281.501	173.660	-0.090	0.128
-280.486	49.792	0.152	-0.141
-279.472	475.820	0.085	-0.188
-278.457	-106.548	0.153	0.034
-277.443	800.000	-0.034	0.144
-276.428	-76.361	-0.233	-0.081
-275.413	46.968	-0.140	0.128
-274.399	-125.589	-0.094	0.014
-273.384	-102.238	-0.081	-0.019
-272.370	800.000	-0.008	0.033
-271.355	173.685	0.096	0.136
-270.340	-200.000	0.008	-0.130
-269.326	47.803	0.138	-0.127
-268.311	800.000	-0.150	0.414
-267.297	37.498	-0.145	0.127
-266.282	800.000	-0.125	0.371
-265.267	-116.860	0.064	-0.012
-264.253	-41.335	0.251	-0.127
-263.238	-154.154	-0.102	-0.007
-262.224	5.259	0.165	0.120
-261.209	-200.000	0.023	-0.146
-260.195	35.937	0.302	0.262
-259.180	800.000	-0.111	0.311
-258.165	-55.298	-0.126	-0.056
-257.151	-49.339	0.411	0.193
-256.136	-78.003	-0.140	0.048
-255.122	0.087	0.096	-0.068
-254.107	332.596	-0.037	0.071
-253.092	-72.579	-0.080	-0.029
-252.078	675.625	0.116	-0.295
-251.063	-5.226	0.149	-0.101
-250.049	596.612	-0.091	0.222
-249.034	-93.023	0.211	0.058
-248.019	419.620	0.030	0.063
-247.005	-107.671	-0.261	0.056
-245.990	251.491	0.169	-0.283
-244.976	473.623	-0.038	0.085
-243.961	-200.000	0.005	-0.081
-242.946	-200.000	-0.071	0.330
-241.932	632.305	0.071	0.178
-240.917	-47.273	-0.283	0.135
-239.903	164.115	0.039	0.054
-238.888	800.000	0.045	0.178
-237.873	110.462	-0.178	0.211
-236.859	-200.000	-0.023	0.151
-235.844	-200.000	-0.010	-0.157
-234.830	341.151	-0.108	0.208
-233.815	-61.472	-0.125	0.051
-232.800	-160.553	-0.489	0.026
-231.786	-200.000	-0.020	-0.118
-230.771	-52.962	0.108	-0.049
-229.757	42.820	0.056	-0.050
-228.742	-86.496	-0.233	0.070
-227.727	-40.373	-0.177	0.090
-226.713	-52.356	0.114	0.052
-225.698	-63.715	0.236	0.095
-224.684	86.659	-0.135	-0.147
-223.669	800.000	-0.060	0.201
-222.655	-130.230	0.319	0.043
-221.640	-145.498	-0.209	0.018
-220.625	-22.896	0.049	0.029
-219.611	220.059	0.144	0.226
-218.596	-124.164	0.049	0.008
-217.582	-200.000	0.046	-0.208
-216.567	197.134	0.065	0.097
-215.552	645.291	0.027	0.067
-214.538	-132.748	0.332	-0.042
-213.523	15.215	-0.353	0.272
-212.509	56.099	0.119	0.114
-211.494	-32.782	0.112	-0.061
-210.479	-108.482	0.131	-0.028
-209.465	-149.294	0.096	-0.008
-208.450	369.900	-0.180	-0.359
-207.436	-168.001	0.159	0.006
-206.421	17.483	0.125	-0.098
-205.406	50.129	-0.172	-0.160
-204.392	383.640	0.106	-0.214
-203.377	-43.460	0.200	-0.099
-202.363	244.003	-0.098	-0.161
-201.348	-102.583	0.383	-0.090
-200.333	-40.877	0.102	0.052
-199.319	-87.485	0.326	0.097
-198.304	33.416	-0.022	-0.019
-197.290	344.632	-0.051	0.098
-196.275	7.520	-0.107	0.078
-195.260	129.481	0.161	-0.202
-194.246	56.990	0.114	-0.109
-193.231	450.120	-0.151	-0.327
-192.217	-127.914	0.155	-0.022
-191.202	139.102	-0.198	0.255
-190.187	-63.496	0.226	0.091
-189.173	451.438	0.097	0.211
-188.158	98.280	0.106	0.120
-187.144	132.513	-0.133	0.168
-186.129	-200.000	-0.035	0.301
-185.114	30.402	-0.156	0.131
-184.100	-27.582	0.054	0.031
-183.085	361.748	0.203	0.400
-182.071	666.343	0.057	-0.146
-181.056	-118.150	0.167	0.029
-180.042	-200.000	0.015	0.090
-179.027	144.916	0.037	0.048
-178.012	-89.672	0.312	0.090
-176.998	-200.000	-0.078	-0.369
-175.983	288.897	-0.206	0.366
-174.969	-121.749	0.359	-0.058
-173.954	800.000	-0.028	-0.100
-172.939	591.289	-0.085	0.205
-171.925	-162.236	-0.098	0.005
-170.910	9.079	0.043	-0.032
-169.896	77.772	-0.280	-0.292
-168.881	114.811	-0.115	-0.138
-167.866	800.000	0.110	-0.327
-166.852	-46.017	-0.305	0.147
-165.837	691.075	0.106	0.272
-164.823	-86.990	-0.370	-0.111
-163.808	42.406	0.319	-0.285
-162.793	-94.410	0.236	0.063
-161.779	-34.828	-0.096	0.052
-160.764	92.700	0.245	0.271
-159.750	-200.000	-0.005	-0.048
-158.735	108.602	0.114	0.133
-157.720	-200.000	0.021	0.188
-156.706	800.000	-0.111	0.345
-155.691	-56.587	0.202	-0.088
-154.677	-200.000	0.006	0.067
-153.662	555.736	0.097	0.229
-152.647	340.329	-0.096	-0.184
-151.633	-200.000	0.022	0.202
-150.618	-84.320	0.187	0.058
-149.604	-80.676	-0.228	-0.074
-148.589	-147.883	-0.104	0.008
-147.574	-170.765	-0.257	0.009
-146.560	-153.598	-0.296	0.020
-145.545	35.432	-0.123	0.106
-144.531	196.625	-0.086	0.128
-143.516	327.434	-0.057	0.108
-142.502	-200.000	-0.051	0.262
-141.487	-44.720	0.117	-0.057
-140.472	67.511	-0.045	0.045
-139.458	-31.847	-0.103	0.057
-138.443	-69.810	-0.281	0.105
-137.429	-164.393	-0.216	0.010
-136.414	472.432	-0.170	-0.375
-135.399	36.851	-0.199	-0.172
-134.385	-200.000	0.016	0.266
-133.370	66.888	0.301	0.300
-132.356	364.636	0.088	-0.173
-131.341	103.339	-0.089	0.102
-130.326	-29.649	0.150	-0.084
-129.312	25.420	0.178	-0.145
-128.297	133.561	-0.175	0.222
-127.283	770.422	-0.194	0.518
-126.268	177.646	0.040	-0.057
-125.253	-23.938	0.152	0.089
-124.239	617.020	0.093	-0.229
-123.224	309.548	0.153	0.280
-122.210	-11.259	0.185	0.120
-121.195	444.946	0.076	0.163
-120.180	36.125	-0.058	0.050
