DTS Sentinel unit serial number:	SN413079Multiplexer serial number:	ORYXHardware model number:	OX4-SRSoftware version number:	ORYX F/W v4.00 Oryx Data Collector v3.7.2.0data status	okinstallation	princeton_trtdifferential loss correction	single-endedforward channel	channel 3reverse channel	N/Adate	2019/09/15time	15:48:34forward acquisition time	60.00reverse acquisition time	0.00gamma	496.2192k internal	0.2289k external	0.2289temperature offset calibration	0.9938default loss term (dB/km)	0.3790temperature slope calibration	1.0000multiplexer offset coefficient	1.0000multiplexer slope coefficient	1.0000fibre end	0.00T internal ref (°C)	42.08T ext. ref 1 (°C)	5.24T ext. ref 2 (°C)	40.45length (m)	temperature (°C)	Stokes	anti-Stokes-747.200	18.228	-0.109	0.089
-746.185	300.284	-0.201	0.381
-745.171	78.955	0.020	0.021
-744.156	39.642	-0.243	0.223
-743.142	-158.514	-0.158	-0.009
-742.127	-200.000	0.024	0.274
-741.112	-200.000	-0.045	-0.314
-740.098	264.356	0.061	0.109
-739.083	-14.002	0.089	-0.059
-738.069	268.209	0.072	0.130
-737.054	156.192	-0.054	-0.076
-736.039	402.784	-0.126	0.271
-735.025	201.453	0.179	0.282
-734.010	87.795	0.108	0.123
-732.996	-115.303	-0.259	0.050
-731.981	-16.342	0.160	0.104
-730.966	162.009	0.131	0.187
-729.952	-109.458	0.271	0.059
-728.937	-8.458	-0.268	0.184
-727.923	-71.783	-0.248	-0.095
-726.908	-200.000	0.029	0.195
-725.894	-12.903	-0.204	0.136
-724.879	47.301	-0.099	-0.094
-723.864	-60.023	-0.201	-0.088
-722.850	44.650	-0.147	-0.138
-721.835	-177.647	0.233	0.006
-720.821	-200.000	-0.008	0.047
-719.806	-140.784	-0.190	0.020
-718.791	-196.186	-0.064	-0.000
-717.777	-50.072	0.324	0.157
-716.762	-141.320	0.334	0.035
-715.748	-11.822	-0.168	0.113
-714.733	3.412	0.174	-0.130
-713.718	-28.841	0.224	-0.132
-712.704	-26.293	0.135	-0.081
-711.689	-71.873	0.055	-0.021
-710.675	-113.247	-0.223	-0.045
-709.660	-200.000	0.021	-0.122
-708.645	38.071	0.353	0.321
-707.631	-29.215	0.211	-0.124
-706.616	-10.206	-0.188	0.128
-705.602	399.248	0.058	-0.124
-704.587	-200.000	0.017	-0.259
-703.572	33.838	-0.125	-0.112
-702.558	-31.165	0.067	-0.038
-701.543	-200.000	0.083	-0.397
-700.529	-73.308	0.354	-0.132
-699.514	-95.166	-0.156	-0.043
-698.499	-200.000	-0.011	-0.098
-697.485	-54.191	0.049	0.023
-696.470	800.000	-0.050	-0.181
-695.456	580.770	-0.080	0.202
-694.441	-200.000	0.002	0.072
-693.426	340.240	0.032	-0.065
-692.412	-123.715	0.236	0.038
-691.397	-13.436	-0.268	0.178
-690.383	-63.157	-0.149	-0.063
-689.368	408.045	-0.178	0.384
-688.354	-90.659	0.142	-0.042
-687.339	-52.436	0.194	0.092
-686.324	58.430	-0.147	-0.147
-685.310	-200.000	-0.035	-0.264
-684.295	-52.287	0.240	-0.114
-683.281	194.831	-0.035	-0.054
-682.266	-68.603	-0.118	0.047
-681.251	202.519	-0.146	0.231
-680.237	-200.000	-0.016	0.090
-679.222	13.961	-0.036	-0.029
-678.208	120.668	0.090	-0.114
-677.193	-200.000	-0.022	0.123
-676.178	-177.206	-0.128	0.003
-675.164	800.000	0.043	0.137
-674.149	413.622	0.053	0.114
-673.135	-55.898	0.061	0.028
-672.120	-110.600	-0.220	-0.047
-671.105	13.254	0.069	-0.054
-670.091	362.995	-0.032	-0.065
-669.076	-36.875	0.064	0.035
-668.062	-131.857	0.134	-0.018
-667.047	398.694	0.117	-0.251
-666.032	33.855	0.072	-0.064
-665.018	-200.000	0.013	-0.199
-664.003	-19.431	0.074	0.047
-662.989	282.969	0.171	-0.313
-661.974	-104.037	-0.259	-0.062
-660.959	800.000	-0.016	-0.053
-659.945	-200.000	0.004	-0.174
-658.930	95.958	0.049	0.058
-657.916	-2.671	-0.074	0.053
-656.901	144.613	-0.082	0.112
-655.886	-104.864	0.130	0.031
-654.872	3.998	-0.098	0.073
-653.857	800.000	-0.039	0.138
-652.843	115.994	-0.104	0.130
-651.828	-11.059	0.280	-0.188
-650.814	-76.633	-0.261	-0.094
-649.799	332.028	-0.110	-0.216
-648.784	-143.442	-0.242	0.024
-647.770	-136.394	0.080	-0.009
-646.755	-200.000	0.011	-0.152
-645.741	-200.000	0.049	0.312
-644.726	-200.000	-0.002	-0.409
-643.711	296.834	-0.121	-0.227
-642.697	-200.000	-0.003	-0.152
-641.682	-136.754	0.137	0.016
-640.668	-200.000	-0.038	0.280
-639.653	-200.000	-0.002	-0.250
-638.638	-200.000	0.016	0.240
-637.624	230.758	-0.229	0.383
-636.609	-122.458	0.267	0.044
-635.595	-200.000	0.014	0.195
-634.580	53.251	0.348	0.340
-633.565	98.051	0.042	-0.050
-632.551	-200.000	0.014	-0.167
-631.536	24.778	0.125	-0.105
-630.522	544.529	0.063	-0.152
-629.507	-64.793	0.108	0.044
-628.492	-83.606	-0.224	-0.073
-627.478	-71.843	0.156	0.059
-626.463	-200.000	-0.026	0.175
-625.449	-127.955	0.385	0.057
-624.434	-50.501	0.338	-0.163
-623.419	-146.517	-0.054	-0.005
-622.405	-200.000	-0.019	-0.108
-621.390	-16.883	0.213	-0.137
-620.376	152.745	0.140	-0.195
-619.361	-110.370	-0.327	0.069
-618.346	800.000	0.065	0.225
-617.332	12.101	-0.020	-0.016
-616.317	30.560	0.194	0.169
-615.303	-43.832	0.207	-0.106
-614.288	-200.000	-0.001	-0.119
-613.273	739.116	0.019	-0.053
-612.259	-42.273	0.417	0.217
-611.244	-65.586	-0.182	-0.074
-610.230	800.000	-0.099	-0.373
-609.215	-118.964	-0.050	-0.009
-608.201	-127.320	0.168	0.025
-607.186	800.000	-0.099	0.383
-606.171	-71.692	0.382	0.145
-605.157	-114.010	-0.155	-0.031
-604.142	-19.735	-0.129	-0.082
-603.128	-6.122	-0.102	0.071
-602.113	-22.843	0.081	-0.050
-601.098	-174.316	-0.202	-0.006
-600.084	-200.000	-0.053	0.365
-599.069	178.737	-0.113	-0.168
-598.055	-79.355	-0.226	-0.078
-597.040	291.395	0.089	0.164
-596.025	-54.569	-0.203	0.094
-595.011	154.279	-0.125	0.175
-593.996	237.476	0.150	-0.253
-592.982	22.255	0.239	-0.199
-591.967	-95.018	-0.133	0.036
-590.952	-172.124	-0.393	0.013
-589.938	-135.888	0.141	0.017
-588.923	-200.000	0.022	0.172
-587.909	-100.048	-0.063	0.016
-586.894	55.207	0.031	0.030
-585.879	215.169	-0.149	0.241
-584.865	-28.604	-0.081	-0.047
-583.850	-200.000	-0.024	0.113
-582.836	-3.250	-0.074	0.052
-581.821	-139.526	0.079	0.009
-580.806	-200.000	-0.015	0.357
-579.792	-134.872	-0.331	-0.041
-578.777	106.227	-0.215	0.259
-577.763	-150.888	-0.431	0.033
-576.748	191.258	-0.135	-0.207
-575.733	-44.886	-0.066	0.033
-574.719	-77.317	-0.295	0.104
-573.704	800.000	-0.036	0.120
-572.690	34.818	-0.233	0.207
-571.675	-81.155	0.329	0.111
-570.661	-200.000	-0.004	0.385
-569.646	143.388	0.155	-0.210
-568.631	-141.682	-0.187	0.019
-567.617	39.753	-0.163	0.149
-566.602	-151.457	0.261	0.020
-565.588	-57.963	0.126	0.056
-564.573	51.967	0.135	-0.131
-563.558	77.737	0.110	-0.120
-562.544	-21.006	0.230	-0.143
-561.529	320.263	0.196	0.379
-560.515	-138.398	-0.179	-0.020
-559.500	-200.000	-0.051	-0.361
-558.485	-175.547	0.086	-0.002
-557.471	-84.239	0.150	0.048
-556.456	-200.000	-0.009	-0.047
-555.442	-88.321	-0.553	0.168
-554.427	456.385	-0.120	-0.272
-553.412	-141.165	-0.287	-0.030
-552.398	800.000	0.023	-0.081
-551.383	-200.000	-0.008	-0.186
-550.369	-149.743	-0.299	-0.024
-549.354	129.667	-0.190	-0.247
-548.339	-64.580	-0.159	-0.066
-547.325	-200.000	-0.024	-0.194
-546.310	684.933	-0.057	-0.152
-545.296	800.000	-0.020	0.072
-544.281	293.322	-0.145	0.268
-543.266	-15.629	0.129	0.083
-542.252	-0.910	0.076	0.055
-541.237	8.461	-0.227	-0.174
-540.223	-40.732	0.213	0.112
-539.208	154.115	0.138	-0.193
-538.193	782.530	-0.054	-0.150
-537.179	225.510	0.181	0.298
-536.164	7.844	0.157	-0.120
-535.150	-200.000	0.028	-0.135
-534.135	-48.491	0.549	-0.269
-533.121	468.839	0.079	0.179
-532.106	-45.214	-0.120	0.061
-531.091	-72.708	0.204	-0.077
-530.077	800.000	-0.096	-0.331
-529.062	-86.923	0.182	-0.056
-528.048	206.883	-0.044	0.070
-527.033	800.000	0.052	-0.171
-526.018	-11.271	-0.297	-0.199
-525.004	397.861	-0.058	0.123
-523.989	-86.773	-0.305	-0.095
-522.975	-157.836	-0.034	-0.002
-521.960	-124.867	0.206	-0.032
-520.945	593.064	-0.103	0.259
-519.931	72.228	-0.176	0.187
-518.916	-200.000	-0.040	-0.405
-517.902	100.424	0.082	-0.097
-516.887	-72.314	0.035	-0.013
-515.872	290.636	0.070	0.130
-514.858	-92.740	-0.228	-0.065
-513.843	81.663	-0.189	0.207
-512.829	800.000	0.088	0.256
-511.814	782.730	-0.177	-0.492
-510.799	800.000	0.085	0.243
-509.785	800.000	0.031	0.106
-508.770	201.145	-0.181	-0.282
-507.756	-118.159	0.104	0.019
-506.741	15.156	0.227	0.181
-505.726	-60.322	0.082	-0.035
-504.712	527.091	0.015	-0.035
-503.697	-200.000	-0.045	-0.294
-502.683	-4.677	0.059	0.041
-501.668	-127.810	-0.396	-0.058
-500.653	11.098	0.104	-0.081
-499.639	-200.000	0.025	-0.475
-498.624	-200.000	-0.024	-0.261
-497.610	-105.528	0.168	-0.039
-496.595	198.745	0.202	-0.314
-495.581	697.823	-0.038	0.101
-494.566	126.919	-0.218	-0.280
-493.551	-138.607	-0.187	-0.021
-492.537	-121.508	-0.086	0.015
-491.522	-136.932	-0.270	0.031
-490.508	-145.362	-0.083	-0.008
-489.493	-73.877	-0.150	0.055
-488.478	167.586	-0.174	0.250
-487.464	-74.459	0.158	0.058
-486.449	-200.000	0.015	-0.212
-485.435	130.822	-0.109	-0.142
-484.420	-0.162	-0.147	0.106
-483.405	-172.469	0.189	0.006
-482.391	266.246	0.030	0.053
-481.376	-200.000	-0.039	0.248
-480.362	-99.579	-0.251	0.064
-479.347	-80.896	0.097	-0.033
-478.332	-60.795	0.076	-0.033
-477.318	800.000	0.054	0.153
-476.303	-125.236	0.064	-0.010
-475.289	800.000	0.099	-0.311
-474.274	-200.000	0.001	-0.057
-473.259	191.334	0.091	-0.139
-472.245	-200.000	0.014	-0.100
-471.230	383.070	-0.141	-0.293
-470.216	-80.251	-0.247	-0.084
-469.201	800.000	-0.130	-0.371
-468.186	46.467	-0.101	-0.095
-467.172	-60.778	-0.123	-0.053
-466.157	28.740	-0.035	-0.030
-465.143	-200.000	-0.016	0.108
-464.128	322.577	0.124	0.240
-463.113	-1.692	0.243	-0.173
-462.099	-89.401	0.114	-0.034
-461.084	23.143	-0.072	0.060
-460.070	562.454	-0.023	-0.057
-459.055	-49.501	0.156	-0.075
-458.040	58.326	-0.228	0.226
-457.026	-104.890	-0.198	-0.046
-456.011	-49.740	0.139	0.067
-454.997	-55.983	0.133	0.060
-453.982	-14.044	0.046	0.030
-452.968	-57.791	-0.056	0.025
-451.953	19.610	0.072	0.058
-450.938	-102.287	-0.308	0.075
-449.924	800.000	-0.013	-0.036
-448.909	-200.000	-0.052	-0.296
-447.895	-87.723	0.322	0.098
-446.880	106.455	-0.191	0.230
-445.865	261.616	-0.215	0.378
-444.851	27.223	-0.179	0.152
-443.836	-200.000	0.002	-0.129
-442.822	-82.240	-0.111	-0.036
-441.807	-200.000	-0.013	0.349
-440.792	-45.877	0.309	0.154
-439.778	-34.102	0.178	-0.099
-438.763	-93.834	-0.215	0.060
-437.749	-84.154	-0.220	-0.071
-436.734	175.213	0.156	-0.228
-435.719	21.965	-0.206	0.170
-434.705	-200.000	-0.027	-0.218
-433.690	-68.482	0.230	0.090
-432.676	-200.000	-0.036	0.249
-431.661	-105.478	0.177	-0.041
-430.646	-170.311	-0.159	-0.006
-429.632	104.925	-0.114	-0.136
-428.617	-80.907	0.163	0.055
-427.603	-60.625	0.174	0.075
-426.588	387.637	0.121	0.253
-425.573	-39.623	0.243	-0.129
-424.559	-135.950	0.167	0.020
-423.544	-200.000	-0.056	0.399
-422.530	-64.264	0.375	0.154
-421.515	193.369	-0.178	0.272
-420.500	-200.000	0.049	0.270
-419.486	-17.737	-0.214	-0.136
-418.471	204.348	-0.037	-0.059
-417.457	156.792	-0.040	0.055
-416.442	-104.197	-0.106	-0.025
-415.428	800.000	-0.081	0.235
-414.413	-9.863	-0.040	-0.027
-413.398	222.743	-0.068	-0.111
-412.384	-58.050	0.202	-0.089
-411.369	800.000	0.073	0.229
-410.355	76.281	-0.131	0.141
-409.340	-66.509	-0.256	0.103
-408.325	77.229	0.220	0.237
-407.311	61.963	0.268	0.271
-406.296	800.000	0.038	0.113
-405.282	-200.000	0.045	-0.290
-404.267	99.513	0.209	-0.245
-403.252	50.368	-0.267	-0.256
-402.238	234.443	0.093	-0.155
-401.223	556.892	0.112	-0.273
-400.209	580.683	0.148	-0.368
-399.194	-130.095	0.078	-0.011
-398.179	55.504	0.204	-0.199
-397.165	-187.971	-0.135	-0.002
-396.150	500.404	0.100	0.233
-395.136	-17.648	-0.147	-0.093
-394.121	36.222	0.206	-0.184
-393.106	-131.052	0.129	-0.017
-392.092	133.205	-0.070	0.092
-391.077	213.050	0.153	0.245
-390.063	229.168	-0.117	0.194
-389.048	800.000	-0.120	-0.347
-388.033	-146.754	-0.138	-0.012
-387.019	-124.766	0.136	0.021
-386.004	-115.482	0.122	-0.023
-384.990	390.719	-0.055	-0.115
-383.975	78.617	0.179	-0.193
-382.960	-200.000	-0.015	0.148
-381.946	346.421	-0.046	0.090
-380.931	-11.011	-0.189	-0.126
-379.917	45.383	-0.256	-0.239
-378.902	800.000	-0.110	0.392
-377.888	227.563	-0.066	0.109
-376.873	-200.000	0.013	0.125
-375.858	-58.088	0.139	0.061
-374.844	-8.138	0.151	0.103
-373.829	212.882	-0.042	-0.067
-372.815	96.175	-0.088	-0.101
-371.800	-200.000	-0.022	0.112
-370.785	75.097	-0.201	-0.214
-369.771	149.468	0.153	0.209
-368.756	424.191	-0.158	0.344
-367.742	121.834	0.171	0.216
-366.727	-9.952	-0.021	0.014
-365.712	64.617	0.089	-0.091
-364.698	148.107	-0.021	-0.029
-363.683	-88.654	-0.197	0.059
-362.669	140.188	0.116	0.154
-361.654	-103.289	0.093	0.022
-360.639	-31.862	0.218	0.124
-359.625	107.094	0.092	-0.111
-358.610	-0.121	-0.163	0.117
-357.596	-61.838	0.094	0.040
-356.581	322.012	-0.085	0.163
-355.566	-6.632	-0.138	-0.095
-354.552	271.378	0.054	-0.096
-353.537	-110.536	0.433	-0.090
-352.523	125.995	-0.100	0.128
-351.508	66.885	0.343	-0.352
-350.493	-200.000	-0.003	-0.280
-349.479	-200.000	-0.080	-0.375
-348.464	162.344	-0.062	0.088
-347.450	-121.040	-0.215	-0.036
-346.435	-158.262	-0.146	-0.009
-345.420	800.000	-0.077	0.221
-344.406	20.459	-0.322	-0.263
-343.391	-200.000	-0.017	0.113
-342.377	-171.465	-0.212	-0.007
-341.362	423.581	0.081	-0.175
-340.348	80.011	0.115	-0.125
-339.333	479.198	-0.080	-0.182
-338.318	34.089	-0.133	-0.117
-337.304	7.093	-0.169	-0.127
-336.289	671.949	0.096	-0.251
-335.275	84.882	0.141	0.156
-334.260	-29.946	0.219	-0.126
-333.245	-29.562	-0.106	0.061
-332.231	195.381	0.078	0.119
-331.216	222.123	0.149	0.242
-330.202	800.000	0.051	0.190
-329.187	560.972	0.066	0.160
-328.172	163.137	-0.214	-0.304
-327.158	143.800	0.105	0.141
-326.143	-99.456	0.193	0.049
-325.129	-133.568	0.196	-0.025
-324.114	93.240	0.247	0.282
-323.099	-200.000	0.010	-0.045
-322.085	480.976	-0.054	-0.124
-321.070	800.000	0.060	0.225
-320.056	-116.608	-0.089	0.016
-319.041	-138.756	-0.191	-0.021
-318.026	-186.387	0.400	0.006
-317.012	-200.000	0.055	-0.543
-315.997	-200.000	-0.023	-0.154
-314.983	13.141	0.089	-0.070
-313.968	-5.600	-0.263	-0.182
-312.953	-67.204	-0.070	-0.028
-311.939	-143.963	0.257	-0.024
-310.924	-87.805	0.294	0.089
-309.910	-47.005	0.281	0.138
-308.895	-60.317	-0.329	0.141
-307.880	81.213	-0.310	-0.337
-306.866	-158.097	0.193	-0.011
-305.851	-69.149	-0.155	-0.060
-304.837	-200.000	0.009	0.216
-303.822	800.000	-0.023	0.093
-302.807	2.432	0.179	0.130
-301.793	279.797	0.069	-0.125
-300.778	-200.000	-0.012	-0.098
-299.764	95.988	0.101	-0.116
-298.749	800.000	0.007	0.023
-297.735	26.061	-0.266	-0.224
-296.720	-60.608	-0.243	-0.104
-295.705	800.000	-0.069	0.209
-294.691	-200.000	0.010	-0.280
-293.676	114.458	0.127	-0.155
-292.662	376.912	0.131	0.269
-291.647	363.950	0.127	-0.257
-290.632	172.288	0.105	0.152
-289.618	-143.102	0.125	-0.012
-288.603	-83.803	0.312	0.100
-287.589	800.000	-0.043	-0.189
-286.574	800.000	-0.093	0.411
-285.559	-200.000	-0.001	0.496
-284.545	-36.044	0.205	0.112
-283.530	-122.405	-0.058	0.010
-282.516	367.341	-0.075	-0.152
-281.501	-29.754	0.084	-0.048
-280.486	-43.502	-0.211	-0.107
-279.472	-200.000	0.003	0.186
-278.457	-200.000	-0.006	-0.066
-277.443	-75.552	0.242	-0.087
-276.428	800.000	0.087	-0.260
-275.413	-200.000	0.011	-0.119
-274.399	35.694	0.284	0.252
-273.384	790.133	0.074	-0.204
-272.370	-77.116	-0.122	0.043
-271.355	800.000	0.041	-0.121
-270.340	-38.082	-0.122	0.065
-269.326	-15.752	0.157	-0.101
-268.311	-200.000	0.030	-0.142
-267.297	-144.852	0.217	-0.020
-266.282	-161.527	-0.327	0.017
-265.267	141.555	-0.189	0.252
-264.253	-200.000	-0.006	-0.048
-263.238	-200.000	-0.013	0.085
-262.224	-35.588	-0.274	0.150
-261.209	-67.464	-0.122	-0.048
-260.195	16.528	-0.092	0.073
-259.180	-56.662	0.181	0.080
-258.165	800.000	-0.091	-0.297
-257.151	50.149	0.078	-0.074
-256.136	2.004	-0.202	0.146
-255.122	6.463	0.192	0.144
-254.107	-133.002	0.226	-0.029
-253.092	800.000	-0.029	-0.120
-252.078	-126.710	-0.180	0.027
-251.063	-54.474	-0.240	0.109
-250.049	-200.000	0.022	-0.113
-249.034	-91.049	0.232	-0.067
-248.019	-61.120	-0.163	-0.069
-247.005	800.000	0.093	-0.279
-245.990	626.618	-0.007	0.018
-244.976	137.292	-0.020	-0.026
-243.961	800.000	0.096	0.336
-242.946	-190.632	0.083	0.001
-241.932	-55.147	-0.202	-0.092
-240.917	-144.988	-0.248	0.023
-239.903	-16.112	0.163	0.104
-238.888	-31.063	-0.239	0.135
-237.873	89.049	0.110	0.123
-236.859	-200.000	-0.007	0.075
-235.844	-2.753	0.186	0.130
-234.830	-121.766	0.211	-0.035
-233.815	800.000	0.126	-0.358
-232.800	355.375	0.102	-0.204
-231.786	-180.557	0.538	-0.011
-230.771	-166.925	-0.159	0.007
-229.757	800.000	0.067	0.251
-228.742	-200.000	0.003	-0.023
-227.727	800.000	-0.006	-0.017
-226.713	-99.583	-0.182	-0.046
-225.698	-200.000	0.020	0.213
-224.684	-149.110	0.070	0.006
-223.669	638.293	0.030	0.077
-222.655	800.000	0.038	-0.120
-221.640	-54.550	-0.121	0.055
-220.625	548.303	0.026	0.062
-219.611	-154.327	0.112	0.008
-218.596	203.646	0.097	-0.151
-217.582	-119.214	-0.207	0.036
-216.567	119.823	-0.164	-0.204
-215.552	-83.355	0.170	-0.055
-214.538	29.463	-0.289	0.247
-213.523	-27.373	-0.075	-0.044
-212.509	39.314	0.036	0.032
-211.494	800.000	0.051	0.211
-210.479	-72.080	-0.151	-0.056
-209.465	48.333	0.216	-0.203
-208.450	732.326	0.251	0.674
-207.436	-62.195	-0.347	-0.145
-206.421	90.049	-0.057	0.064
-205.406	658.365	-0.065	0.169
-204.392	-23.934	0.297	-0.179
-203.377	215.782	-0.129	0.205
-202.363	-55.539	0.352	0.158
-201.348	800.000	-0.177	-0.495
-200.333	-200.000	0.041	-0.387
-199.319	204.874	-0.016	0.025
-198.304	-72.875	-0.074	0.027
-197.290	421.051	0.035	0.076
-196.275	350.774	-0.077	-0.153
-195.260	-156.375	0.243	0.015
-194.246	731.041	0.006	0.015
-193.231	-15.850	0.251	0.160
-192.217	11.652	-0.379	-0.292
-191.202	800.000	0.046	-0.153
-190.187	601.879	-0.026	0.065
-189.173	143.296	0.097	-0.130
-188.158	800.000	-0.036	0.109
-187.144	-26.900	-0.183	0.107
-186.129	108.696	0.100	-0.120
-185.114	98.792	0.017	-0.020
-184.100	424.961	-0.082	0.176
-183.085	-53.391	0.124	-0.057
-182.071	-38.024	0.157	0.084
-181.056	-13.004	0.333	-0.217
-180.042	-200.000	-0.009	0.111
-179.027	-106.043	-0.258	0.058
-178.012	225.387	0.101	-0.164
-176.998	-54.389	-0.373	0.170
-175.983	-64.936	-0.124	-0.050
-174.969	127.493	0.138	0.175
-173.954	552.863	0.037	-0.090
-172.939	-87.083	0.273	0.083
-171.925	-142.153	0.276	0.027
-170.910	160.377	-0.075	0.105
-169.896	-21.622	-0.214	0.131
-168.881	-200.000	-0.010	0.080
-167.866	763.236	0.005	-0.013
-166.852	92.387	-0.215	0.243
-165.837	257.183	0.122	0.210
-164.823	-156.199	0.242	-0.015
-163.808	-78.864	-0.207	0.071
-162.793	-196.604	-0.112	-0.001
-161.779	-58.244	0.169	-0.074
-160.764	-200.000	0.015	-0.372
-159.750	-101.705	-0.457	-0.111
-158.735	-89.304	-0.125	0.037
-157.720	-2.197	0.242	0.170
-156.706	140.001	-0.254	-0.335
-155.691	800.000	0.070	0.234
-154.677	411.488	-0.188	0.399
-153.662	-193.057	0.016	-0.000
-152.647	-110.498	0.255	0.053
-151.633	84.748	-0.246	0.270
-150.618	-50.789	0.244	0.115
-149.604	198.164	0.107	0.164
-148.589	-87.615	0.183	0.055
-147.574	-200.000	0.012	-0.323
-146.560	-81.644	0.236	-0.077
-145.545	-114.498	0.155	-0.030
-144.531	-91.182	0.076	0.022
-143.516	-200.000	-0.006	-0.063
-142.502	-200.000	0.011	0.143
-141.487	229.399	-0.148	0.241
-140.472	-39.539	-0.254	0.133
-139.458	153.179	-0.278	-0.380
-138.443	-200.000	-0.011	0.138
-137.429	264.121	0.057	-0.099
-136.414	-200.000	-0.042	-0.288
-135.399	-200.000	0.034	-0.267
-134.385	-17.673	-0.052	0.033
-133.370	20.085	0.094	-0.076
-132.356	-22.238	0.368	-0.223
-131.341	-11.122	0.172	0.113
-130.326	-200.000	0.063	-0.277
-129.312	800.000	0.068	-0.198
-128.297	-21.919	0.286	-0.174
-127.283	35.085	0.148	-0.130
-126.268	-200.000	0.022	-0.217
-125.253	-200.000	-0.060	-0.294
-124.239	133.856	0.080	-0.104
-123.224	-200.000	0.003	-0.157
-122.210	-200.000	-0.049	-0.621
