DTS Sentinel unit serial number:	SN413079Multiplexer serial number:	ORYXHardware model number:	OX4-SRSoftware version number:	ORYX F/W v4.00 Oryx Data Collector v3.7.2.0data status	okinstallation	princeton_trtdifferential loss correction	single-endedforward channel	channel 3reverse channel	N/Adate	2019/09/17time	19:08:35forward acquisition time	60.00reverse acquisition time	0.00gamma	496.2192k internal	0.2296k external	0.2296temperature offset calibration	0.9952default loss term (dB/km)	0.3790temperature slope calibration	1.0000multiplexer offset coefficient	1.0000multiplexer slope coefficient	1.0000fibre end	0.00T internal ref (°C)	39.58T ext. ref 1 (°C)	0.27T ext. ref 2 (°C)	27.75length (m)	temperature (°C)	Stokes	anti-Stokes-747.200	-161.385	0.225	-0.012
-746.185	156.077	-0.085	-0.120
-745.171	-41.066	0.197	0.104
-744.156	800.000	-0.047	-0.167
-743.142	25.531	-0.142	0.121
-742.127	-200.000	-0.049	0.297
-741.112	-180.543	-0.354	-0.007
-740.098	800.000	0.075	0.226
-739.083	-200.000	0.024	0.257
-738.069	67.622	0.232	0.242
-737.054	-200.000	-0.020	-0.095
-736.039	141.868	-0.208	0.282
-735.025	-86.953	0.089	0.028
-734.010	800.000	-0.112	0.385
-732.996	800.000	0.019	0.076
-731.981	448.064	-0.070	0.157
-730.966	9.566	0.171	-0.132
-729.952	-35.777	-0.401	0.222
-728.937	-9.243	-0.120	-0.082
-727.923	-177.620	-0.305	-0.008
-726.908	83.042	-0.109	0.121
-725.894	-200.000	0.008	0.070
-724.879	-4.175	-0.220	-0.155
-723.864	147.519	-0.107	-0.148
-722.850	60.216	0.145	-0.146
-721.835	92.989	0.045	0.052
-720.821	-70.918	0.036	0.014
-719.806	163.620	0.078	0.112
-718.791	-174.942	-0.526	-0.015
-717.777	248.197	0.155	0.267
-716.762	800.000	-0.055	-0.224
-715.748	-36.595	-0.151	-0.083
-714.733	800.000	-0.064	0.242
-713.718	-39.487	-0.252	-0.135
-712.704	42.568	0.100	0.093
-711.689	800.000	0.015	-0.051
-710.675	-200.000	0.019	-0.162
-709.660	165.829	0.044	-0.063
-708.645	-200.000	-0.024	-0.214
-707.631	12.682	-0.230	0.181
-706.616	-94.294	-0.245	0.068
-705.602	-56.240	0.183	-0.083
-704.587	60.252	0.146	0.147
-703.572	211.739	0.102	0.163
-702.558	445.749	0.156	0.349
-701.543	706.719	-0.111	-0.298
-700.529	-27.391	0.213	-0.126
-699.514	-174.529	-0.458	0.013
-698.499	-108.617	0.238	0.052
-697.485	177.653	0.123	0.182
-696.470	8.999	0.239	0.184
-695.456	67.739	-0.183	0.191
-694.441	-48.892	0.255	0.125
-693.426	-48.830	0.055	-0.027
-692.412	800.000	-0.047	-0.161
-691.397	-128.580	-0.181	0.026
-690.383	-36.807	-0.135	-0.074
-689.368	7.703	0.280	-0.214
-688.354	-47.691	-0.347	0.171
-687.339	35.794	-0.030	-0.027
-686.324	-135.825	-0.239	0.029
-685.310	800.000	0.098	-0.399
-684.295	-83.530	-0.469	0.153
-683.281	51.937	0.273	-0.265
-682.266	-200.000	-0.002	0.034
-681.251	-20.895	0.322	-0.201
-680.237	435.244	0.130	0.289
-679.222	-40.287	0.044	-0.023
-678.208	191.771	-0.064	-0.099
-677.193	97.437	-0.185	0.216
-676.178	-108.722	-0.129	-0.028
-675.164	156.769	-0.042	-0.060
-674.149	-10.107	0.049	-0.033
-673.135	-111.083	0.037	-0.008
-672.120	-13.907	0.068	0.045
-671.105	182.546	0.016	0.024
-670.091	-200.000	0.003	0.307
-669.076	-26.031	0.149	0.090
-668.062	646.730	0.094	-0.243
-667.047	497.967	-0.062	-0.145
-666.032	-200.000	-0.004	0.377
-665.018	-83.533	0.413	-0.135
-664.003	800.000	0.028	0.120
-662.989	222.267	-0.087	0.143
-661.974	5.535	0.164	-0.124
-660.959	176.154	0.209	0.308
-659.945	144.789	-0.081	0.111
-658.930	94.411	-0.081	0.093
-657.916	59.605	-0.021	0.021
-656.901	-58.789	0.353	0.156
-655.886	64.393	-0.197	-0.202
-654.872	177.380	-0.102	-0.152
-653.857	-111.513	-0.326	-0.068
-652.843	19.843	-0.099	0.081
-651.828	-19.530	0.084	0.053
-650.814	411.122	-0.115	-0.249
-649.799	800.000	-0.014	-0.063
-648.784	16.198	-0.166	0.133
-647.770	169.875	-0.139	0.202
-646.755	47.497	0.090	-0.086
-645.741	-200.000	0.013	-0.177
-644.726	61.874	0.201	-0.204
-643.711	-26.518	-0.228	-0.136
-642.697	-200.000	-0.021	-0.182
-641.682	-110.249	-0.223	-0.047
-640.668	-189.166	-0.220	0.003
-639.653	-200.000	-0.030	0.262
-638.638	-79.568	0.378	0.130
-637.624	-62.546	-0.120	-0.051
-636.609	-28.029	-0.078	-0.046
-635.595	3.568	-0.322	0.239
-634.580	49.240	-0.044	0.042
-633.565	74.517	-0.170	0.182
-632.551	-35.763	0.194	-0.107
-631.536	42.454	-0.195	0.181
-630.522	-162.007	0.246	0.013
-629.507	-14.230	0.254	0.167
-628.492	-7.742	-0.219	-0.150
-627.478	-60.064	0.419	-0.182
-626.463	-23.897	0.253	-0.154
-625.449	-200.000	-0.016	-0.364
-624.434	-40.928	0.268	0.141
-623.419	170.644	0.108	-0.157
-622.405	-1.841	0.283	-0.202
-621.390	-85.198	0.190	-0.060
-620.376	-200.000	-0.041	0.233
-619.361	-200.000	0.017	0.099
-618.346	13.115	0.170	0.133
-617.332	481.753	-0.117	-0.270
-616.317	-77.260	-0.151	-0.053
-615.303	-110.636	0.374	0.079
-614.288	52.053	0.109	0.106
-613.273	117.431	-0.020	-0.025
-612.259	91.781	0.027	0.031
-611.244	26.703	-0.144	0.123
-610.230	-200.000	0.012	-0.092
-609.215	148.089	-0.115	-0.158
-608.201	-30.143	0.171	-0.099
-607.186	800.000	-0.068	0.207
-606.171	120.363	-0.155	0.196
-605.157	-79.304	0.278	0.096
-604.142	800.000	0.025	0.097
-603.128	-41.232	0.187	-0.098
-602.113	132.202	0.151	0.198
-601.098	532.095	0.112	0.269
-600.084	4.532	-0.135	-0.101
-599.069	100.999	0.265	-0.313
-598.055	46.818	-0.167	0.158
-597.040	-200.000	-0.007	-0.276
-596.025	16.708	-0.190	0.152
-595.011	-138.867	-0.329	-0.036
-593.996	-29.814	0.434	0.251
-592.982	31.860	-0.119	0.104
-591.967	-132.617	-0.213	0.028
-590.952	-22.922	-0.331	-0.203
-589.938	-119.349	-0.142	-0.025
-588.923	-200.000	0.022	-0.148
-587.909	-10.498	0.171	-0.115
-586.894	281.205	-0.025	-0.045
-585.879	-133.403	0.237	0.030
-584.865	622.812	-0.091	0.232
-583.850	-177.987	-0.092	0.002
-582.836	36.366	-0.092	-0.082
-581.821	-6.162	-0.214	0.148
-580.806	-90.071	-0.101	-0.030
-579.792	363.386	-0.071	0.145
-578.777	-92.376	-0.089	-0.025
-577.763	800.000	0.126	0.397
-576.748	417.920	-0.095	0.206
-575.733	-38.177	-0.235	0.126
-574.719	-3.834	-0.414	0.292
-573.704	-34.150	0.154	-0.086
-572.690	-129.116	0.306	0.043
-571.675	-55.933	-0.140	-0.063
-570.661	154.162	0.179	0.249
-569.646	455.352	-0.209	-0.469
-568.631	800.000	-0.066	-0.221
-567.617	-24.473	0.033	-0.020
-566.602	-17.461	0.082	-0.053
-565.588	205.428	0.158	0.249
-564.573	72.805	0.225	0.239
-563.558	7.154	0.087	0.066
-562.544	800.000	0.031	0.129
-561.529	740.640	0.106	0.288
-560.515	-3.173	0.029	-0.021
-559.500	-200.000	-0.011	0.146
-558.485	49.735	0.074	0.071
-557.471	-200.000	-0.007	-0.133
-556.456	146.979	0.119	0.162
-555.442	-34.768	0.171	-0.095
-554.427	711.352	-0.017	0.045
-553.412	-133.469	0.282	-0.036
-552.398	-8.633	0.167	0.114
-551.383	-155.976	-0.122	0.008
-550.369	-97.860	-0.241	-0.063
-549.354	-200.000	-0.026	0.117
-548.339	-88.816	-0.178	-0.054
-547.325	538.103	0.090	-0.217
-546.310	-200.000	0.016	-0.079
-545.296	389.606	-0.058	-0.121
-544.281	26.855	0.126	0.107
-543.266	-28.434	-0.168	-0.098
-542.252	-57.655	-0.239	0.106
-541.237	179.523	0.052	-0.078
-540.223	413.786	0.046	0.098
-539.208	509.713	0.059	-0.139
-538.193	258.960	-0.101	-0.177
-537.179	228.890	-0.179	0.297
-536.164	-101.540	-0.219	-0.054
-535.150	-88.336	-0.029	0.009
-534.135	-185.645	0.182	0.003
-533.121	-82.457	0.107	0.035
-532.106	209.581	-0.065	0.103
-531.091	162.870	0.174	0.248
-530.077	-84.494	-0.066	0.021
-529.062	800.000	0.012	-0.037
-528.048	785.587	0.039	0.109
-527.033	800.000	-0.031	-0.103
-526.018	22.299	0.034	-0.028
-525.004	-200.000	-0.031	-0.247
-523.989	-200.000	-0.013	0.211
-522.975	800.000	0.109	0.316
-521.960	-200.000	0.042	-0.232
-520.945	-54.850	-0.252	-0.115
-519.931	373.631	-0.092	0.189
-518.916	-37.365	0.163	0.088
-517.902	-200.000	-0.011	-0.252
-516.887	325.237	-0.109	0.211
-515.872	-138.573	-0.258	-0.029
-514.858	198.792	-0.086	-0.133
-513.843	167.285	0.079	-0.114
-512.829	240.954	-0.048	0.081
-511.814	324.757	0.070	0.136
-510.799	-200.000	-0.022	-0.162
-509.785	-200.000	0.019	0.127
-508.770	-49.046	-0.191	-0.093
-507.756	47.104	-0.135	-0.128
-506.741	-87.464	0.175	0.054
-505.726	18.093	-0.105	-0.085
-504.712	-114.694	0.080	0.016
-503.697	96.490	0.142	0.165
-502.683	30.248	-0.134	-0.116
-501.668	-22.608	-0.166	-0.102
-500.653	-70.819	0.264	0.101
-499.639	-38.465	-0.131	0.070
-498.624	40.821	0.196	0.179
-497.610	160.971	-0.120	0.170
-496.595	800.000	0.058	-0.252
-495.581	11.892	0.049	-0.038
-494.566	-200.000	-0.013	-0.086
-493.551	5.828	-0.141	0.105
-492.537	-36.781	0.321	0.174
-491.522	-158.196	0.056	-0.003
-490.508	-200.000	-0.043	0.207
-489.493	339.868	0.131	0.258
-488.478	53.486	0.086	0.083
-487.464	-200.000	-0.032	-0.168
-486.449	191.583	-0.159	-0.242
-485.435	48.813	0.182	-0.173
-484.420	-19.468	0.132	0.083
-483.405	-200.000	0.020	-0.136
-482.391	-21.148	0.221	-0.137
-481.376	-131.482	-0.103	0.014
-480.362	0.353	-0.142	-0.103
-479.347	-47.760	-0.201	0.098
-478.332	647.883	-0.072	-0.186
-477.318	74.496	-0.188	0.199
-476.303	-118.914	-0.447	-0.079
-475.289	-57.314	-0.192	-0.086
-474.274	160.151	0.055	-0.078
-473.259	-200.000	0.021	-0.137
-472.245	449.315	0.109	0.243
-471.230	-95.440	-0.259	-0.070
-470.216	113.913	-0.009	-0.011
-469.201	-66.639	0.209	-0.084
-468.186	358.564	0.130	0.263
-467.172	800.000	-0.094	0.337
-466.157	260.450	-0.076	0.132
-465.143	-16.690	0.106	-0.068
-464.128	-186.362	-0.225	-0.003
-463.113	93.919	-0.052	0.059
-462.099	-200.000	0.006	0.268
-461.084	-129.560	0.167	0.023
-460.070	-200.000	0.007	0.075
-459.055	-102.990	0.186	0.045
-458.040	-108.142	0.193	-0.042
-457.026	800.000	-0.048	0.158
-456.011	-163.086	0.283	0.014
-454.997	-144.070	0.546	-0.052
-453.982	170.387	0.180	-0.261
-452.968	-144.155	0.395	-0.037
-451.953	800.000	0.059	-0.166
-450.938	162.209	-0.202	-0.286
-449.924	-152.870	-0.137	-0.010
-448.909	-59.058	0.197	0.086
-447.895	-200.000	-0.007	-0.057
-446.880	772.757	-0.079	0.217
-445.865	-103.790	-0.162	-0.038
-444.851	-200.000	0.234	0.001
-443.836	-34.554	-0.180	0.099
-442.822	334.404	0.056	0.109
-441.807	800.000	-0.016	-0.061
-440.792	2.797	-0.319	-0.233
-439.778	-92.522	0.207	0.059
-438.763	800.000	-0.033	0.102
-437.749	-45.694	-0.174	-0.087
-436.734	651.764	0.094	-0.242
-435.719	-200.000	0.018	0.086
-434.705	800.000	0.012	0.041
-433.690	217.165	-0.163	0.262
-432.676	-95.844	0.166	0.045
-431.661	800.000	-0.051	0.172
-430.646	-91.999	-0.131	-0.037
-429.632	109.356	0.288	0.348
-428.617	377.319	0.189	0.390
-427.603	-111.902	-0.422	-0.086
-426.588	-143.234	0.154	0.015
-425.573	551.445	-0.089	-0.216
-424.559	800.000	0.072	-0.271
-423.544	800.000	-0.042	0.185
-422.530	-157.664	0.432	-0.026
-421.515	47.427	-0.221	0.208
-420.500	-24.618	0.133	0.080
-419.486	559.222	-0.108	-0.264
-418.471	448.079	-0.067	-0.149
-417.457	-13.992	0.190	0.124
-416.442	84.419	0.131	0.144
-415.428	-200.000	-0.005	-0.243
-414.413	150.327	0.065	0.089
-413.398	32.106	0.086	-0.074
-412.384	41.815	-0.113	-0.103
-411.369	94.737	-0.265	0.304
-410.355	63.283	0.121	0.122
-409.340	-108.212	-0.214	0.047
-408.325	116.216	0.039	-0.048
-407.311	377.334	0.127	0.262
-406.296	800.000	0.030	0.125
-405.282	566.078	0.023	0.056
-404.267	115.669	0.207	-0.256
-403.252	-134.268	-0.196	-0.024
-402.238	-200.000	0.005	-0.173
-401.223	-47.495	-0.131	-0.064
-400.209	-93.600	0.065	-0.018
-399.194	-101.722	-0.168	-0.041
-398.179	-170.843	-0.257	0.009
-397.165	281.608	0.161	-0.291
-396.150	330.094	-0.208	-0.404
-395.136	-200.000	0.010	-0.104
-394.121	303.187	-0.122	-0.227
-393.106	87.047	-0.328	-0.366
-392.092	702.771	-0.022	0.059
-391.077	10.742	0.097	0.075
-390.063	800.000	0.037	0.114
-389.048	-8.757	-0.141	0.095
-388.033	137.133	0.089	0.118
-387.019	-145.364	0.221	-0.020
-386.004	-97.986	-0.201	0.052
-384.990	-48.446	-0.233	-0.113
-383.975	509.580	-0.240	-0.563
-382.960	-32.304	0.200	0.112
-381.946	800.000	-0.042	-0.173
-380.931	-200.000	0.035	-0.362
-379.917	223.270	-0.219	-0.355
-378.902	800.000	-0.107	-0.343
-377.888	-41.807	0.208	0.107
-376.873	484.440	0.012	0.028
-375.858	-79.285	-0.176	0.060
-374.844	0.497	0.061	-0.044
-373.829	-133.524	0.197	0.025
-372.815	-171.035	-0.161	-0.006
-371.800	-200.000	0.076	-0.626
-370.785	-200.000	0.035	0.411
-369.771	-100.675	-0.301	0.075
-368.756	-86.052	0.182	0.057
-367.742	800.000	-0.055	0.175
-366.727	45.121	0.119	-0.111
-365.712	-44.729	0.234	0.117
-364.698	-126.830	-0.047	-0.007
-363.683	-101.464	-0.099	-0.024
-362.669	-5.535	-0.215	0.149
-361.654	-24.013	-0.104	0.062
-360.639	-200.000	-0.014	0.153
-359.625	285.166	-0.157	-0.284
-358.610	-142.151	-0.233	0.023
-357.596	624.200	0.096	0.244
-356.581	-194.606	-0.092	0.001
-355.566	-23.689	0.241	0.146
-354.552	-154.220	-0.037	-0.003
-353.537	-90.469	-0.307	0.090
-352.523	-200.000	0.037	0.281
-351.508	-60.545	-0.329	-0.141
-350.493	-200.000	0.039	-0.314
-349.479	-38.257	0.136	-0.072
-348.464	-200.000	-0.031	-0.216
-347.450	800.000	0.014	-0.045
-346.435	-118.528	-0.392	0.070
-345.420	-200.000	0.024	-0.123
-344.406	-200.000	0.008	0.171
-343.391	-44.440	-0.182	-0.092
-342.377	800.000	-0.081	0.275
-341.362	522.901	0.228	0.539
-340.348	-196.784	0.290	0.002
-339.333	-200.000	0.162	-0.000
-338.318	800.000	-0.004	0.015
-337.304	-114.158	-0.295	-0.057
-336.289	-200.000	-0.020	-0.177
-335.275	521.408	0.087	-0.205
-334.260	-121.968	-0.043	0.007
-333.245	-117.119	-0.274	0.050
-332.231	18.014	-0.345	-0.277
-331.216	800.000	-0.067	-0.277
-330.202	-120.217	-0.130	-0.022
-329.187	-96.961	-0.222	-0.059
-328.172	-200.000	-0.007	-0.055
-327.158	13.502	0.388	0.303
-326.143	691.495	0.103	-0.271
-325.129	-200.000	0.004	0.232
-324.114	-88.010	0.492	-0.149
-323.099	10.885	0.170	-0.131
-322.085	61.615	-0.082	0.082
-321.070	-55.820	-0.284	-0.128
-320.056	-167.542	0.130	-0.005
-319.041	800.000	0.039	-0.127
-318.026	275.843	-0.127	0.227
-317.012	-200.000	-0.048	-0.356
-315.997	-151.408	-0.231	-0.017
-314.983	800.000	0.024	-0.075
-313.968	63.259	0.101	0.102
-312.953	244.185	-0.169	-0.285
-311.939	-63.222	0.156	-0.065
-310.924	187.792	0.129	-0.194
-309.910	-200.000	-0.012	0.277
-308.895	30.947	0.229	-0.197
-307.880	92.704	-0.188	-0.213
-306.866	261.992	0.188	0.327
-305.851	-162.122	-0.235	0.012
-304.837	18.029	-0.168	0.134
-303.822	-81.796	-0.082	0.027
-302.807	237.937	0.196	-0.327
-301.793	-73.140	-0.286	0.105
-300.778	88.747	0.125	0.139
-299.764	470.304	-0.116	-0.262
-298.749	800.000	0.070	0.220
-297.735	254.174	0.196	-0.337
-296.720	-37.767	0.047	0.025
-295.705	267.660	-0.010	-0.018
-294.691	-200.000	-0.012	-0.120
-293.676	82.675	0.129	-0.141
-292.662	442.996	-0.121	0.267
-291.647	440.248	-0.058	0.126
-290.632	90.450	-0.019	-0.022
-289.618	-148.461	0.316	0.026
-288.603	-92.127	0.173	-0.049
-287.589	174.981	0.191	-0.277
-286.574	-40.513	0.582	0.303
-285.559	-200.000	0.058	0.265
-284.545	163.751	-0.155	0.218
-283.530	-69.206	0.459	-0.177
-282.516	57.132	-0.086	0.084
-281.501	-200.000	0.018	0.180
-280.486	-78.893	0.108	0.037
-279.472	-105.616	-0.358	0.081
-278.457	-83.727	0.092	0.030
-277.443	94.179	-0.162	-0.184
-276.428	72.483	-0.121	0.127
-275.413	-200.000	-0.009	0.123
-274.399	-200.000	-0.030	0.288
-273.384	380.707	-0.132	0.271
-272.370	-91.099	-0.079	0.023
-271.355	-94.952	0.220	0.060
-270.340	584.784	0.146	0.359
-269.326	-74.737	0.161	-0.058
-268.311	-182.342	-0.042	-0.001
-267.297	207.719	0.193	-0.302
-266.282	-109.358	0.030	-0.006
-265.267	-61.951	0.445	-0.186
-264.253	217.069	-0.045	-0.072
-263.238	-31.211	0.214	0.121
-262.224	-167.310	0.041	-0.002
-261.209	339.610	-0.127	-0.248
-260.195	92.101	0.056	-0.063
-259.180	-127.504	-0.269	-0.039
-258.165	800.000	0.055	0.204
-257.151	-143.505	0.251	0.024
-256.136	-42.640	0.186	-0.095
-255.122	-71.633	-0.276	0.103
-254.107	322.236	-0.220	0.420
-253.092	-116.111	0.141	-0.026
-252.078	800.000	0.057	0.171
-251.063	97.420	0.373	0.429
-250.049	417.950	0.092	0.198
-249.034	-200.000	-0.031	0.205
-248.019	159.591	-0.105	-0.146
-247.005	73.653	-0.116	0.122
-245.990	-200.000	0.007	-0.383
-244.976	-200.000	-0.016	-0.094
-243.961	359.294	0.050	0.101
-242.946	-52.809	-0.296	-0.137
-241.932	11.581	-0.074	0.057
-240.917	-44.635	0.166	-0.083
-239.903	44.331	-0.343	-0.316
-238.888	800.000	-0.034	0.144
-237.873	-150.837	0.195	0.015
-236.859	151.202	-0.154	0.210
-235.844	-45.013	-0.185	0.092
-234.830	-55.304	0.153	0.069
-233.815	-200.000	0.052	-0.244
-232.800	-116.751	0.388	0.071
-231.786	800.000	-0.071	-0.272
-230.771	66.495	-0.175	-0.178
-229.757	-200.000	-0.014	-0.097
-228.742	-55.984	0.095	0.042
-227.727	702.071	-0.073	-0.192
-226.713	-101.724	0.116	-0.028
-225.698	-108.149	0.121	-0.026
-224.684	78.616	-0.043	-0.046
-223.669	57.563	0.230	-0.225
-222.655	-23.716	0.118	-0.071
-221.640	-53.768	-0.121	0.055
-220.625	648.352	-0.032	0.081
-219.611	27.300	0.215	0.181
-218.596	33.032	-0.154	0.134
-217.582	-106.804	0.426	0.095
-216.567	-178.550	0.135	0.003
-215.552	-153.102	-0.078	0.005
-214.538	643.663	0.041	-0.103
-213.523	-50.799	-0.214	0.101
-212.509	-55.503	0.085	-0.038
-211.494	-83.662	-0.113	-0.036
-210.479	15.466	-0.257	-0.202
-209.465	199.139	0.051	-0.079
-208.450	-150.777	0.092	-0.007
-207.436	800.000	-0.005	-0.020
-206.421	-115.405	0.052	-0.010
-205.406	800.000	0.091	0.268
-204.392	-82.800	-0.399	-0.129
-203.377	15.381	0.351	-0.276
-202.363	-200.000	0.024	0.121
-201.348	-200.000	0.015	0.274
-200.333	-97.638	0.179	-0.046
-199.319	133.869	0.115	0.149
-198.304	-200.000	-0.055	-0.257
-197.290	57.993	-0.224	0.220
-196.275	800.000	-0.047	0.199
-195.260	-93.427	-0.315	0.087
-194.246	-103.467	0.317	-0.075
-193.231	-16.992	-0.157	0.099
-192.217	-10.337	-0.097	0.064
-191.202	48.345	-0.043	0.040
-190.187	99.891	-0.100	0.116
-189.173	89.191	0.061	-0.067
-188.158	81.860	0.129	0.140
-187.144	64.881	-0.123	0.124
-186.129	-85.365	0.142	-0.044
-185.114	-93.925	-0.297	-0.082
-184.100	10.433	-0.137	-0.105
-183.085	-115.263	-0.158	0.030
-182.071	-200.000	0.005	-0.101
-181.056	-9.768	-0.250	-0.166
-180.042	-200.000	-0.005	-0.052
-179.027	-150.977	-0.296	-0.022
-178.012	-104.609	-0.178	-0.041
-176.998	-37.490	-0.043	0.023
-175.983	-51.659	-0.228	-0.106
-174.969	205.278	0.061	-0.095
-173.954	-143.781	-0.163	0.015
-172.939	-106.071	0.160	0.036
-171.925	168.749	-0.020	0.029
-170.910	48.311	0.188	0.175
-169.896	-84.097	0.047	0.015
-168.881	25.668	0.204	-0.169
-167.866	-200.000	0.032	-0.284
-166.852	-49.450	-0.114	-0.055
-165.837	-200.000	0.013	0.076
-164.823	-80.865	0.262	-0.087
-163.808	560.975	-0.086	-0.207
-162.793	140.875	-0.126	-0.167
-161.779	-20.760	-0.198	-0.122
-160.764	-85.294	0.166	-0.052
-159.750	-200.000	-0.017	-0.114
-158.735	-70.680	0.076	-0.029
-157.720	-43.966	-0.187	0.094
-156.706	-200.000	-0.020	0.140
-155.691	-47.039	-0.147	0.072
-154.677	412.708	0.108	-0.229
-153.662	-200.000	-0.011	-0.217
-152.647	-85.553	0.153	0.048
-151.633	-86.463	0.165	0.051
-150.618	171.228	0.094	0.134
-149.604	-200.000	0.048	-0.285
-148.589	-200.000	-0.000	-0.427
-147.574	-68.263	-0.342	-0.133
-146.560	119.313	-0.020	-0.024
-145.545	-116.995	-0.166	0.030
-144.531	-8.264	-0.111	-0.074
-143.516	-102.985	-0.098	0.023
-142.502	707.637	0.018	-0.048
-141.487	-14.342	-0.235	-0.151
-140.472	-48.743	-0.176	-0.084
-139.458	31.604	0.121	-0.104
-138.443	-42.302	-0.252	-0.129
-137.429	107.405	0.174	-0.207
-136.414	138.988	0.206	0.270
-135.399	-50.833	0.229	0.107
-134.385	-70.883	0.177	-0.067
-133.370	-175.975	0.382	-0.010
-132.356	-128.228	0.163	0.023
-131.341	-200.000	0.003	-0.048
-130.326	-200.000	0.005	0.194
-129.312	84.218	0.072	0.079
-128.297	8.182	0.098	-0.073
-127.283	-200.000	0.034	0.299
-126.268	-174.113	0.075	0.002
-125.253	-9.784	-0.279	0.185
-124.239	-200.000	-0.003	-0.014
-123.224	-126.550	0.215	0.032
-122.210	147.954	-0.272	0.365
-121.195	800.000	-0.055	-0.156
