DTS Sentinel unit serial number:	SN413079Multiplexer serial number:	ORYXHardware model number:	OX4-SRSoftware version number:	ORYX F/W v4.00 Oryx Data Collector v3.7.2.0data status	okinstallation	princeton_trtdifferential loss correction	single-endedforward channel	channel 3reverse channel	N/Adate	2019/09/13time	08:20:35forward acquisition time	60.00reverse acquisition time	0.00gamma	496.2192k internal	0.2333k external	0.2333temperature offset calibration	1.0141default loss term (dB/km)	0.3790temperature slope calibration	1.0000multiplexer offset coefficient	1.0000multiplexer slope coefficient	1.0000fibre end	0.00T internal ref (°C)	27.25T ext. ref 1 (°C)	4.29T ext. ref 2 (°C)	23.27length (m)	temperature (°C)	Stokes	anti-Stokes-747.200	-200.000	-0.001	0.365
-746.185	581.659	-0.082	0.203
-745.171	-151.574	0.401	0.030
-744.156	107.278	-0.183	-0.219
-743.142	230.060	-0.088	0.145
-742.127	-145.020	-0.233	0.021
-741.112	29.182	-0.101	-0.086
-740.098	152.100	-0.149	-0.205
-739.083	800.000	0.056	0.199
-738.069	55.964	-0.103	0.100
-737.054	477.493	0.095	-0.216
-736.039	-200.000	0.002	-0.145
-735.025	27.022	-0.129	-0.109
-734.010	-110.450	0.263	-0.055
-732.996	-17.181	-0.141	0.090
-731.981	-33.654	0.143	0.079
-730.966	-37.440	0.444	-0.238
-729.952	-200.000	0.044	-0.584
-728.937	-179.376	-0.221	-0.005
-727.923	-22.340	-0.197	-0.120
-726.908	64.597	0.172	0.175
-725.894	-79.725	-0.027	-0.009
-724.879	-129.135	-0.470	-0.066
-723.864	-123.395	0.124	-0.020
-722.850	800.000	-0.088	0.371
-721.835	277.715	-0.118	-0.211
-720.821	-200.000	0.002	0.084
-719.806	114.678	0.134	-0.164
-718.791	-200.000	0.012	0.217
-717.777	-48.135	-0.434	0.211
-716.762	301.749	0.033	-0.061
-715.748	-68.725	0.211	0.082
-714.733	23.993	0.177	-0.147
-713.718	-200.000	-0.003	0.145
-712.704	-129.779	0.268	0.037
-711.689	800.000	0.103	-0.313
-710.675	-118.807	-0.054	-0.009
-709.660	-200.000	0.055	0.469
-708.645	-200.000	-0.006	0.192
-707.631	800.000	-0.076	0.232
-706.616	74.421	-0.072	-0.076
-705.602	-136.149	-0.117	0.014
-704.587	800.000	-0.087	0.270
-703.572	-200.000	0.008	0.048
-702.558	-181.331	0.173	0.003
-701.543	369.276	0.158	0.321
-700.529	-79.603	0.177	0.060
-699.514	-200.000	-0.040	0.214
-698.499	-89.936	-0.218	-0.064
-697.485	-200.000	0.145	-0.001
-696.470	-200.000	0.036	0.410
-695.456	-73.136	0.102	-0.038
-694.441	-200.000	-0.027	0.403
-693.426	-200.000	-0.039	0.412
-692.412	139.706	-0.058	0.076
-691.397	800.000	0.080	-0.334
-690.383	-143.625	-0.149	0.014
-689.368	414.325	-0.087	-0.185
-688.354	-52.708	-0.250	-0.116
-687.339	-200.000	-0.034	-0.276
-686.324	238.247	0.069	-0.115
-685.310	-87.023	-0.015	0.005
-684.295	-162.651	0.220	-0.011
-683.281	597.334	0.035	0.086
-682.266	36.736	0.245	0.217
-681.251	-200.000	-0.006	0.312
-680.237	120.328	-0.059	0.073
-679.222	-132.443	0.167	0.022
-678.208	800.000	-0.061	-0.174
-677.193	236.667	0.198	0.328
-676.178	682.954	0.182	-0.476
-675.164	26.494	-0.095	-0.080
-674.149	6.825	0.135	0.101
-673.135	-200.000	0.026	0.187
-672.120	-129.278	-0.346	-0.048
-671.105	92.591	0.191	0.216
-670.091	-115.990	-0.316	0.059
-669.076	115.385	-0.186	-0.228
-668.062	-200.000	0.000	0.092
-667.047	-40.663	0.035	-0.018
-666.032	200.095	-0.098	0.150
-665.018	-19.255	0.123	0.076
-664.003	26.563	-0.098	-0.082
-662.989	52.406	0.158	0.151
-661.974	-200.000	-0.054	-0.337
-660.959	-105.144	-0.231	-0.053
-659.945	-55.952	-0.229	-0.102
-658.930	631.264	0.008	-0.021
-657.916	49.775	0.082	0.078
-656.901	96.815	-0.119	0.137
-655.886	-169.960	-0.174	-0.006
-654.872	-80.244	-0.231	-0.077
-653.857	800.000	0.055	-0.167
-652.843	-147.420	-0.271	0.023
-651.828	520.341	-0.064	0.151
-650.814	244.620	0.156	0.263
-649.799	104.127	0.249	0.293
-648.784	-84.054	-0.174	-0.055
-647.770	-65.329	-0.112	-0.045
-646.755	-28.305	-0.283	-0.163
-645.741	-53.870	-0.069	0.031
-644.726	-200.000	-0.016	-0.174
-643.711	266.624	0.022	-0.039
-642.697	800.000	-0.024	-0.091
-641.682	-55.096	-0.363	-0.164
-640.668	21.761	0.033	0.027
-639.653	800.000	-0.026	-0.077
-638.638	-84.926	-0.252	-0.079
-637.624	800.000	-0.025	-0.084
-636.609	800.000	0.026	-0.108
-635.595	108.963	-0.043	-0.051
-634.580	-200.000	0.005	-0.200
-633.565	-200.000	0.078	-0.458
-632.551	800.000	0.048	0.173
-631.536	-200.000	0.055	0.265
-630.522	361.025	-0.156	0.313
-629.507	155.868	-0.137	0.190
-628.492	510.122	0.143	-0.333
-627.478	-119.439	-0.392	-0.068
-626.463	-46.462	0.235	-0.115
-625.449	-80.336	0.322	-0.108
-624.434	75.495	-0.159	-0.167
-623.419	208.387	-0.236	-0.369
-622.405	-200.000	-0.036	-0.361
-621.390	-200.000	-0.007	0.064
-620.376	-200.000	0.032	-0.171
-619.361	34.685	0.233	-0.204
-618.346	191.881	-0.062	0.093
-617.332	-23.783	0.191	-0.115
-616.317	31.776	-0.106	-0.092
-615.303	-129.825	0.348	0.048
-614.288	-118.405	-0.029	-0.005
-613.273	123.184	-0.267	-0.335
-612.259	800.000	-0.057	0.244
-611.244	-200.000	-0.032	-0.248
-610.230	317.526	-0.119	0.226
-609.215	84.638	0.149	0.163
-608.201	-88.126	0.195	0.058
-607.186	14.470	-0.326	-0.254
-606.171	-6.966	0.075	0.051
-605.157	189.479	-0.038	-0.057
-604.142	-96.407	0.044	0.012
-603.128	205.267	-0.124	0.193
-602.113	303.691	0.111	-0.206
-601.098	800.000	0.059	-0.231
-600.084	54.791	-0.045	-0.043
-599.069	-52.922	-0.084	0.039
-598.055	-44.453	0.418	0.209
-597.040	800.000	0.013	0.050
-596.025	-6.007	-0.125	-0.086
-595.011	155.042	-0.082	-0.113
-593.996	63.425	-0.073	-0.073
-592.982	-63.156	-0.108	0.045
-591.967	50.103	-0.115	-0.108
-590.952	0.994	-0.076	0.054
-589.938	-121.021	-0.165	-0.028
-588.923	-200.000	-0.000	-0.115
-587.909	-44.704	0.167	0.083
-586.894	-89.886	-0.279	0.081
-585.879	-200.000	-0.026	0.128
-584.865	72.094	0.315	-0.327
-583.850	22.327	0.263	-0.215
-582.836	800.000	-0.068	0.195
-581.821	212.778	-0.042	-0.067
-580.806	-129.757	0.106	0.015
-579.792	-136.072	0.129	-0.015
-578.777	800.000	0.093	-0.261
-577.763	800.000	-0.086	-0.240
-576.748	-128.028	0.205	-0.029
-575.733	-142.862	0.069	-0.007
-574.719	10.071	-0.209	-0.159
-573.704	-200.000	0.026	-0.134
-572.690	-10.774	-0.141	0.093
-571.675	81.121	-0.129	-0.139
-570.661	800.000	-0.041	-0.150
-569.646	800.000	-0.050	0.160
-568.631	-197.809	-0.221	-0.001
-567.617	-157.393	-0.361	-0.022
-566.602	-56.363	0.114	-0.051
-565.588	93.133	-0.072	-0.081
-564.573	344.857	0.054	0.106
-563.558	-200.000	-0.041	-0.182
-562.544	472.785	0.028	-0.062
-561.529	-94.134	-0.304	-0.083
-560.515	-16.342	0.257	0.163
-559.500	-100.701	-0.230	-0.057
-558.485	87.153	0.088	0.097
-557.471	19.244	-0.256	0.205
-556.456	-200.000	-0.095	-0.560
-555.442	-200.000	0.086	0.439
-554.427	160.440	-0.128	0.178
-553.412	223.558	-0.123	0.198
-552.398	-200.000	0.028	0.346
-551.383	-109.374	0.250	-0.053
-550.369	-16.870	0.153	0.097
-549.354	-45.552	0.297	-0.147
-548.339	615.574	-0.122	0.305
-547.325	27.360	-0.147	0.123
-546.310	6.565	0.060	0.044
-545.296	-116.828	0.222	-0.041
-544.281	800.000	0.028	-0.109
-543.266	-70.307	0.174	-0.066
-542.252	-200.000	-0.013	-0.071
-541.237	72.079	-0.168	-0.174
-540.223	-15.136	0.153	0.098
-539.208	-200.000	0.036	-0.261
-538.193	103.060	0.324	0.378
-537.179	50.064	-0.181	-0.170
-536.164	119.753	0.045	-0.056
-535.150	-200.000	0.007	-0.104
-534.135	-107.523	0.128	0.028
-533.121	-52.899	0.184	0.085
-532.106	-86.159	0.494	-0.152
-531.091	-200.000	-0.006	-0.210
-530.077	126.555	-0.127	0.160
-529.062	-200.000	-0.029	0.204
-528.048	34.046	0.169	0.147
-527.033	-84.311	-0.212	-0.067
-526.018	-64.730	0.494	-0.199
-525.004	-69.525	-0.248	-0.095
-523.989	800.000	-0.079	0.271
-522.975	38.757	0.441	0.392
-521.960	-47.038	0.093	0.045
-520.945	-21.066	-0.170	0.103
-519.931	-92.696	-0.262	-0.073
-518.916	800.000	0.030	-0.101
-517.902	800.000	-0.094	-0.319
-516.887	-39.494	-0.065	-0.034
-515.872	-73.247	0.470	0.171
-514.858	-127.151	-0.382	-0.056
-513.843	289.249	-0.122	0.221
-512.829	-15.843	-0.326	-0.207
-511.814	-129.109	0.083	-0.012
-510.799	-115.379	0.071	-0.013
-509.785	-200.000	-0.007	0.039
-508.770	-67.795	-0.287	0.112
-507.756	-200.000	0.030	-0.137
-506.741	-83.088	0.046	0.015
-505.726	52.697	-0.170	-0.162
-504.712	-25.751	-0.283	-0.166
-503.697	-71.180	0.202	-0.075
-502.683	-35.595	0.392	0.212
-501.668	-103.302	-0.233	-0.055
-500.653	703.278	0.058	-0.153
-499.639	-48.806	-0.345	-0.165
-498.624	800.000	0.019	0.057
-497.610	-63.290	-0.219	-0.090
-496.595	-66.599	0.340	-0.134
-495.581	800.000	0.118	-0.391
-494.566	121.727	0.081	0.101
-493.551	-46.443	-0.333	-0.163
-492.537	-64.813	-0.102	-0.041
-491.522	-149.623	0.281	-0.022
-490.508	-86.835	0.208	0.063
-489.493	-28.988	-0.052	-0.030
-488.478	-124.281	0.231	0.036
-487.464	32.698	-0.278	-0.239
-486.449	-111.444	0.121	-0.025
-485.435	-200.000	-0.027	-0.172
-484.420	61.560	-0.192	-0.190
-483.405	-111.480	-0.205	-0.042
-482.391	30.679	-0.166	0.141
-481.376	105.062	-0.009	-0.011
-480.362	98.325	0.167	0.191
-479.347	-18.604	-0.232	-0.144
-478.332	761.646	0.108	-0.293
-477.318	-130.356	-0.379	0.051
-476.303	-200.000	-0.001	-0.048
-475.289	735.986	-0.025	-0.066
-474.274	-17.721	0.098	0.061
-473.259	97.314	-0.085	-0.098
-472.245	14.152	0.289	0.224
-471.230	-134.486	0.262	-0.032
-470.216	-200.000	-0.020	0.181
-469.201	73.501	-0.286	-0.297
-468.186	800.000	0.081	0.284
-467.172	-80.916	0.305	-0.101
-466.157	-200.000	0.020	-0.166
-465.143	-122.289	0.210	0.034
-464.128	-20.692	0.143	-0.087
-463.113	-17.833	-0.152	0.095
-462.099	192.415	-0.068	-0.102
-461.084	800.000	0.041	0.114
-460.070	109.091	-0.135	0.161
-459.055	-200.000	0.010	-0.121
-458.040	-200.000	-0.014	0.120
-457.026	179.877	0.259	-0.377
-456.011	-200.000	-0.017	0.148
-454.997	463.732	0.081	-0.180
-453.982	-32.451	-0.188	-0.104
-452.968	-200.000	-0.009	0.256
-451.953	119.207	0.192	0.236
-450.938	-200.000	-0.015	0.167
-449.924	85.353	0.032	0.035
-448.909	192.103	-0.103	-0.154
-447.895	-200.000	0.037	-0.166
-446.880	-200.000	0.016	-0.079
-445.865	203.657	0.108	0.166
-444.851	-113.460	-0.460	0.090
-443.836	-120.972	-0.331	0.055
-442.822	-40.309	-0.185	0.096
-441.807	-80.722	0.111	0.037
-440.792	-122.407	-0.276	-0.045
-439.778	-144.409	-0.004	0.000
-438.763	800.000	-0.043	-0.129
-437.749	800.000	-0.118	-0.407
-436.734	-200.000	-0.026	-0.114
-435.719	109.768	-0.216	0.258
-434.705	156.706	-0.115	-0.158
-433.690	800.000	-0.038	0.107
-432.676	217.637	0.086	-0.136
-431.661	440.650	0.099	0.215
-430.646	-200.000	0.025	-0.238
-429.632	19.625	-0.028	0.023
-428.617	-106.884	0.342	0.075
-427.603	-200.000	-0.053	-0.278
-426.588	-146.013	-0.328	-0.029
-425.573	246.021	-0.076	0.127
-424.559	-34.498	-0.042	0.023
-423.544	-46.589	-0.160	-0.078
-422.530	24.104	0.182	0.149
-421.515	24.288	0.049	0.040
-420.500	-140.935	0.286	0.029
-419.486	-93.068	-0.369	0.102
-418.471	480.133	-0.096	-0.215
-417.457	800.000	-0.014	-0.045
-416.442	53.823	0.274	0.261
-415.428	-200.000	-0.008	-0.210
-414.413	-59.964	-0.170	-0.072
-413.398	-162.958	0.065	-0.003
-412.384	-50.491	-0.269	0.126
-411.369	-85.019	0.213	0.066
-410.355	458.860	-0.048	-0.105
-409.340	162.816	-0.063	0.088
-408.325	-27.212	-0.212	-0.123
-407.311	-47.302	-0.358	0.173
-406.296	-136.449	-0.058	-0.007
-405.282	-200.000	-0.022	0.099
-404.267	547.626	-0.043	-0.101
-403.252	-58.667	-0.342	0.147
-402.238	37.475	0.116	0.102
-401.223	764.829	-0.124	0.334
-400.209	63.930	0.157	-0.156
-399.194	197.490	0.079	0.119
-398.179	-130.878	0.227	-0.030
-397.165	288.982	-0.073	0.131
-396.150	-133.945	0.427	0.053
-395.136	360.307	0.162	-0.322
-394.121	151.112	-0.225	0.304
-393.106	800.000	-0.027	0.094
-392.092	-129.297	0.066	-0.009
-391.077	800.000	0.067	0.222
-390.063	129.630	0.078	0.099
-389.048	536.831	-0.045	-0.106
-388.033	59.647	0.148	0.145
-387.019	-200.000	-0.002	-0.033
-386.004	800.000	-0.146	0.404
-384.990	-63.475	0.174	0.071
-383.975	597.914	-0.106	0.260
-382.960	364.559	0.098	0.196
-381.946	99.695	0.215	0.247
-380.931	-102.137	0.309	0.074
-379.917	-200.000	0.001	0.040
-378.902	-107.557	0.220	0.048
-377.888	-106.362	-0.043	-0.010
-376.873	-169.380	0.268	0.010
-375.858	-200.000	-0.029	0.272
-374.844	95.371	0.178	0.201
-373.829	152.946	-0.136	0.184
-372.815	-24.287	0.347	-0.205
-371.800	4.114	0.081	-0.059
-370.785	-157.854	-0.123	0.007
-369.771	-200.000	-0.015	0.264
-368.756	800.000	0.021	0.072
-367.742	71.805	-0.147	-0.152
-366.727	151.068	-0.147	0.198
-365.712	-200.000	-0.003	-0.134
-364.698	-64.322	0.110	-0.044
-363.683	-200.000	-0.013	0.402
-362.669	499.417	-0.054	-0.124
-361.654	171.034	-0.106	0.151
-360.639	-200.000	0.026	-0.212
-359.625	53.255	-0.064	0.061
-358.610	-71.950	-0.171	0.063
-357.596	-50.410	-0.206	0.097
-356.581	-60.136	-0.083	-0.035
-355.566	-139.767	0.128	0.013
-354.552	-10.602	-0.285	0.187
-353.537	1.352	0.082	0.058
-352.523	331.468	-0.149	0.285
-351.508	581.928	0.079	0.191
-350.493	-158.845	0.205	-0.012
-349.479	6.300	-0.239	-0.175
-348.464	263.648	-0.076	-0.131
-347.450	69.743	0.125	0.128
-346.435	56.699	-0.162	-0.156
-345.420	-28.526	0.239	-0.136
-344.406	-200.000	-0.015	0.082
-343.391	800.000	-0.078	-0.318
-342.377	-200.000	0.033	-0.409
-341.362	-39.956	-0.117	0.060
-340.348	137.571	0.041	-0.053
-339.333	37.384	0.269	-0.236
-338.318	125.756	0.099	-0.124
-337.304	800.000	-0.033	0.131
-336.289	-15.445	0.287	-0.181
-335.275	353.459	0.114	0.223
-334.260	131.813	-0.118	0.150
-333.245	110.456	0.289	0.343
-332.231	-27.734	-0.017	-0.010
-331.216	453.229	0.196	0.429
-330.202	800.000	0.023	0.087
-329.187	642.054	-0.041	0.103
-328.172	-200.000	-0.006	0.204
-327.158	-29.935	0.157	0.088
-326.143	-127.401	-0.223	-0.032
-325.129	-32.493	-0.383	-0.211
-324.114	517.846	0.134	-0.310
-323.099	526.377	0.052	0.122
-322.085	-113.710	-0.121	0.023
-321.070	-200.000	-0.115	-0.524
-320.056	199.101	-0.106	-0.161
-319.041	-46.113	0.142	0.069
-318.026	-36.777	-0.136	0.072
-317.012	800.000	-0.102	0.336
-315.997	283.568	-0.124	0.221
-314.983	-77.454	0.061	-0.021
-313.968	-140.358	-0.112	-0.012
-312.953	450.372	-0.160	0.350
-311.939	800.000	0.111	0.361
-310.924	-2.233	-0.085	-0.059
-309.910	-58.750	0.288	-0.123
-308.895	-200.000	0.009	0.098
-307.880	-22.733	0.230	-0.137
-306.866	-200.000	0.010	-0.124
-305.851	65.053	-0.262	-0.262
-304.837	131.796	0.178	-0.226
-303.822	-134.299	-0.487	0.059
-302.807	-157.552	0.108	0.006
-301.793	-95.613	0.611	-0.162
-300.778	-5.556	-0.264	-0.179
-299.764	-200.000	0.065	0.306
-298.749	39.548	-0.274	-0.242
-297.735	-122.462	-0.174	0.028
-296.720	14.592	0.251	0.193
-295.705	381.047	0.079	0.160
-294.691	782.243	-0.093	0.251
-293.676	-57.912	-0.052	0.023
-292.662	474.993	0.051	0.113
-291.647	546.990	-0.042	0.100
-290.632	800.000	-0.121	0.393
-289.618	176.322	-0.088	0.126
-288.603	364.426	0.077	0.154
-287.589	449.810	0.032	-0.071
-286.574	-193.505	0.383	0.003
-285.559	66.658	-0.251	0.252
-284.545	-39.323	0.070	-0.036
-283.530	-200.000	0.028	-0.185
-282.516	-11.866	-0.123	0.080
-281.501	800.000	0.056	0.202
-280.486	800.000	0.118	0.333
-279.472	-119.776	0.143	0.024
-278.457	-200.000	0.021	-0.206
-277.443	481.626	0.051	0.114
-276.428	-122.147	0.185	0.030
-275.413	-13.770	-0.068	0.043
-274.399	549.112	-0.100	-0.236
-273.384	57.715	0.089	-0.086
-272.370	449.268	0.132	-0.287
-271.355	-200.000	0.001	-0.164
-270.340	-135.194	0.278	-0.033
-269.326	87.955	0.050	0.055
-268.311	800.000	0.066	0.245
-267.297	724.791	0.066	0.174
-266.282	170.788	0.125	-0.177
-265.267	-200.000	-0.009	0.118
-264.253	-200.000	0.038	0.589
-263.238	-86.721	-0.334	-0.101
-262.224	176.792	0.198	0.284
-261.209	-21.853	0.192	0.115
-260.195	45.313	-0.144	-0.131
-259.180	401.339	0.146	-0.302
-258.165	-69.409	-0.176	0.067
-257.151	-91.095	-0.100	-0.028
-256.136	87.568	0.097	-0.106
-255.122	-28.924	-0.081	0.046
-254.107	-145.805	0.226	0.020
-253.092	387.799	0.201	-0.411
-252.078	100.284	-0.116	0.133
-251.063	175.601	-0.127	-0.181
-250.049	-200.000	0.029	-0.185
-249.034	-200.000	-0.010	-0.054
-248.019	-200.000	0.059	0.000
-247.005	430.031	0.008	0.018
-245.990	-72.247	0.136	-0.050
-244.976	147.022	0.171	-0.226
-243.961	122.952	0.091	-0.112
-242.946	201.652	0.032	0.049
-241.932	800.000	0.072	-0.247
-240.917	-50.547	0.181	-0.084
-239.903	-14.726	0.122	-0.077
-238.888	-98.635	0.024	0.006
-237.873	-147.992	0.219	0.018
-236.859	-54.509	-0.122	-0.055
-235.844	588.212	0.132	-0.321
-234.830	-50.737	0.155	-0.072
-233.815	129.295	0.202	0.254
-232.800	800.000	0.084	0.234
-231.786	120.226	-0.041	-0.050
-230.771	-88.187	0.464	0.137
-229.757	-62.572	-0.236	-0.097
-228.742	318.968	0.060	-0.113
-227.727	-55.445	-0.184	0.081
-226.713	-200.000	0.032	-0.233
-225.698	800.000	-0.042	-0.143
-224.684	192.599	-0.162	0.241
-223.669	89.682	0.282	-0.310
-222.655	529.542	-0.019	-0.045
-221.640	-43.540	-0.216	0.107
-220.625	319.800	-0.089	-0.167
-219.611	-200.000	-0.022	-0.162
-218.596	-26.623	0.163	0.094
-217.582	-121.870	-0.438	-0.071
-216.567	-13.790	0.041	0.026
-215.552	-84.140	-0.297	0.093
-214.538	-147.841	0.060	-0.005
-213.523	116.767	0.142	0.171
-212.509	-200.000	0.008	-0.040
-211.494	-51.021	0.168	-0.078
-210.479	-17.529	-0.034	0.021
-209.465	-97.757	-0.152	-0.039
-208.450	-115.288	0.399	-0.074
-207.436	155.210	-0.251	0.340
-206.421	-101.148	0.103	-0.025
-205.406	-112.117	-0.117	0.023
-204.392	-110.469	0.127	-0.026
-203.377	800.000	0.088	0.275
-202.363	-72.544	-0.037	0.013
-201.348	186.290	0.246	0.360
-200.333	344.032	-0.096	0.185
-199.319	-127.240	0.292	-0.042
-198.304	-61.147	0.319	0.132
-197.290	-102.653	-0.252	-0.059
-196.275	38.638	-0.164	-0.144
-195.260	479.424	-0.147	-0.329
-194.246	-50.033	0.233	0.109
-193.231	628.538	0.024	-0.059
-192.217	800.000	0.082	0.234
-191.202	603.248	-0.053	-0.130
-190.187	-45.535	0.196	0.095
-189.173	-26.085	0.115	-0.067
-188.158	24.073	0.190	-0.154
-187.144	141.486	-0.078	0.101
-186.129	-37.650	-0.337	0.177
-185.114	-200.000	0.011	0.209
-184.100	-200.000	-0.014	-0.242
-183.085	-123.199	-0.181	0.028
-182.071	-102.307	-0.255	-0.060
-181.056	-36.628	-0.275	-0.145
-180.042	-163.711	0.135	-0.006
-179.027	800.000	0.100	0.334
-178.012	101.831	-0.144	0.165
-176.998	48.390	-0.049	-0.045
-175.983	-121.745	0.165	0.027
-174.969	139.630	0.130	0.169
-173.954	-200.000	0.045	-0.218
-172.939	-28.767	-0.178	0.100
-171.925	236.817	0.132	0.215
-170.910	121.879	0.127	0.156
-169.896	747.586	-0.064	-0.170
-168.881	28.993	-0.191	-0.159
-167.866	92.865	-0.132	-0.147
-166.852	164.098	-0.131	0.181
-165.837	41.224	-0.153	0.136
-164.823	173.934	0.154	0.219
-163.808	-108.684	0.366	0.077
-162.793	-120.125	0.280	0.047
-161.779	800.000	-0.030	0.087
-160.764	-98.363	0.166	0.042
-159.750	-93.466	-0.240	0.065
-158.735	8.748	-0.148	-0.109
-157.720	-63.061	-0.203	-0.082
-156.706	40.048	-0.065	-0.057
-155.691	276.970	0.053	-0.093
-154.677	104.362	-0.249	-0.288
-153.662	-143.458	-0.193	-0.018
-152.647	1.144	-0.095	-0.067
-151.633	800.000	-0.078	0.224
-150.618	31.877	-0.150	0.127
-149.604	54.435	-0.118	-0.112
-148.589	79.701	0.060	-0.063
-147.574	71.098	0.213	-0.217
-146.560	800.000	0.072	0.216
-145.545	-2.782	0.139	0.095
-144.531	-41.175	-0.228	-0.116
-143.516	-200.000	0.011	0.106
-142.502	-113.818	-0.127	0.024
-141.487	-69.778	-0.051	-0.019
-140.472	124.761	-0.135	-0.167
-139.458	82.982	0.073	0.078
-138.443	-101.071	-0.186	0.045
-137.429	-17.813	-0.267	-0.165
-136.414	-107.030	0.100	-0.022
-135.399	3.044	-0.061	0.043
-134.385	-47.193	-0.338	0.162
-133.370	148.892	-0.161	0.213
-132.356	652.720	-0.058	-0.147
-131.341	800.000	0.011	0.031
-130.326	19.178	-0.091	-0.072
-129.312	-200.000	0.013	-0.119
-128.297	-113.661	-0.201	0.038
-127.283	44.272	-0.043	-0.039
-126.268	-200.000	0.033	-0.269
-125.253	2.177	-0.055	0.039
-124.239	221.098	-0.057	-0.090
-123.224	144.638	0.119	-0.156
-122.210	800.000	0.067	0.219
