DTS Sentinel unit serial number:	SN413079Multiplexer serial number:	ORYXHardware model number:	OX4-SRSoftware version number:	ORYX F/W v4.00 Oryx Data Collector v3.7.2.0data status	okinstallation	princeton_trtdifferential loss correction	single-endedforward channel	channel 3reverse channel	N/Adate	2019/09/16time	01:36:35forward acquisition time	60.00reverse acquisition time	0.00gamma	496.2192k internal	0.2337k external	0.2337temperature offset calibration	0.9954default loss term (dB/km)	0.3790temperature slope calibration	1.0000multiplexer offset coefficient	1.0000multiplexer slope coefficient	1.0000fibre end	0.00T internal ref (°C)	27.31T ext. ref 1 (°C)	9.96T ext. ref 2 (°C)	22.18length (m)	temperature (°C)	Stokes	anti-Stokes-747.200	35.918	-0.213	0.188
-746.185	-200.000	-0.019	0.317
-745.171	-33.494	0.219	0.121
-744.156	208.527	0.115	0.180
-743.142	46.365	-0.081	0.076
-742.127	216.317	-0.162	0.259
-741.112	59.078	0.133	0.131
-740.098	-38.412	0.222	0.118
-739.083	164.893	0.114	-0.161
-738.069	233.968	-0.250	0.413
-737.054	292.208	0.051	0.094
-736.039	-1.424	0.167	0.119
-735.025	-62.128	0.174	-0.073
-734.010	-60.801	-0.665	-0.283
-732.996	-82.809	0.314	-0.102
-731.981	70.809	-0.183	-0.190
-730.966	-68.261	-0.124	-0.048
-729.952	-109.278	-0.309	-0.066
-728.937	92.782	0.148	0.167
-727.923	22.308	-0.194	0.159
-726.908	-28.890	-0.096	-0.056
-725.894	-47.517	0.143	-0.070
-724.879	-53.153	0.268	-0.123
-723.864	-87.720	-0.234	0.071
-722.850	-3.452	-0.361	0.252
-721.835	181.239	0.051	0.075
-720.821	-78.667	-0.158	-0.054
-719.806	-200.000	0.080	0.477
-718.791	-158.788	-0.325	0.019
-717.777	128.801	0.166	-0.213
-716.762	41.236	0.148	0.134
-715.748	-80.570	0.247	0.083
-714.733	-148.662	0.232	-0.019
-713.718	-92.690	-0.102	0.029
-712.704	-130.545	0.184	0.025
-711.689	-18.037	-0.068	0.043
-710.675	81.819	-0.076	0.083
-709.660	211.478	-0.037	0.058
-708.645	-42.444	-0.294	0.150
-707.631	-117.223	-0.427	-0.078
-706.616	475.472	-0.085	0.192
-705.602	320.762	-0.056	0.107
-704.587	-45.318	0.378	-0.188
-703.572	627.109	-0.084	-0.212
-702.558	-200.000	0.032	-0.238
-701.543	-200.000	-0.037	-0.367
-700.529	419.784	-0.099	-0.213
-699.514	-123.536	0.239	0.038
-698.499	800.000	0.066	0.231
-697.485	40.474	-0.254	-0.229
-696.470	18.466	0.140	-0.112
-695.456	-81.409	0.277	0.092
-694.441	-200.000	-0.024	-0.251
-693.426	291.444	-0.112	-0.205
-692.412	174.676	0.153	0.221
-691.397	75.406	0.098	0.104
-690.383	-200.000	0.037	0.191
-689.368	-200.000	0.010	-0.048
-688.354	-4.331	-0.209	-0.145
-687.339	-33.390	-0.122	0.068
-686.324	188.524	0.018	0.027
-685.310	-200.000	-0.017	-0.126
-684.295	-200.000	-0.023	-0.428
-683.281	-143.705	0.132	-0.013
-682.266	-200.000	0.057	-0.493
-681.251	-200.000	0.019	-0.300
-680.237	-200.000	-0.021	0.169
-679.222	-200.000	0.015	-0.127
-678.208	-82.169	-0.073	-0.024
-677.193	-200.000	0.090	0.601
-676.178	-10.420	-0.154	0.103
-675.164	418.941	0.169	0.362
-674.149	800.000	-0.098	0.306
-673.135	266.788	-0.060	-0.106
-672.120	-40.810	-0.136	0.071
-671.105	-193.690	0.186	-0.002
-670.091	-106.410	0.313	-0.070
-669.076	-200.000	-0.001	0.124
-668.062	240.512	0.134	0.223
-667.047	-34.049	0.072	-0.040
-666.032	515.453	-0.160	-0.375
-665.018	17.624	-0.076	-0.061
-664.003	-200.000	0.021	0.110
-662.989	-200.000	-0.015	-0.070
-661.974	-200.000	-0.040	-0.479
-660.959	-200.000	-0.024	-0.340
-659.945	-6.253	0.232	-0.159
-658.930	97.062	-0.333	0.382
-657.916	-81.753	-0.073	0.024
-656.901	318.651	-0.091	-0.172
-655.886	122.586	0.055	0.069
-654.872	-154.708	-0.131	-0.009
-653.857	149.963	-0.040	0.054
-652.843	-32.850	0.089	-0.049
-651.828	-71.451	0.130	-0.049
-650.814	29.649	0.249	0.212
-649.799	619.632	0.087	0.219
-648.784	-150.433	-0.292	0.022
-647.770	10.544	-0.189	-0.144
-646.755	-36.847	0.190	-0.102
-645.741	201.950	0.086	0.132
-644.726	-9.488	0.244	-0.163
-643.711	286.449	0.158	-0.286
-642.697	-137.898	-0.422	0.047
-641.682	800.000	0.085	0.249
-640.668	-35.745	-0.182	-0.099
-639.653	-8.764	0.403	-0.270
-638.638	-200.000	0.005	0.356
-637.624	-121.906	-0.265	0.044
-636.609	-13.508	-0.046	-0.030
-635.595	631.458	-0.061	-0.154
-634.580	222.913	-0.113	0.182
-633.565	550.101	-0.122	0.292
-632.551	-200.000	-0.040	-0.233
-631.536	-87.920	0.435	0.131
-630.522	246.785	-0.087	-0.147
-629.507	464.556	-0.093	0.207
-628.492	-200.000	-0.069	-0.383
-627.478	109.007	-0.226	-0.270
-626.463	-200.000	0.030	-0.207
-625.449	-139.492	-0.273	-0.029
-624.434	80.513	0.171	0.184
-623.419	800.000	-0.048	-0.179
-622.405	-200.000	0.013	-0.198
-621.390	-64.229	-0.154	-0.063
-620.376	800.000	-0.026	-0.083
-619.361	625.710	0.077	-0.194
-618.346	-81.595	-0.290	-0.095
-617.332	-132.625	0.421	0.054
-616.317	-200.000	-0.005	0.054
-615.303	-19.719	0.144	0.089
-614.288	800.000	-0.062	0.246
-613.273	-79.078	-0.284	-0.096
-612.259	-48.368	0.189	0.091
-611.244	800.000	0.073	-0.267
-610.230	-57.682	-0.123	0.054
-609.215	-63.282	0.220	-0.090
-608.201	-48.357	0.094	0.045
-607.186	-56.697	0.096	-0.042
-606.171	86.834	-0.185	-0.204
-605.157	-0.995	-0.106	-0.075
-604.142	-11.084	-0.379	0.249
-603.128	97.278	-0.213	0.244
-602.113	74.183	-0.082	0.086
-601.098	300.693	-0.103	0.190
-600.084	127.977	0.083	-0.105
-599.069	-200.000	0.008	-0.052
-598.055	-68.677	0.212	-0.082
-597.040	-102.266	-0.113	0.027
-596.025	-137.792	0.149	0.017
-595.011	32.422	-0.351	-0.303
-593.996	-127.172	0.015	0.002
-592.982	-130.053	-0.231	-0.032
-591.967	-186.179	0.313	-0.005
-590.952	-147.460	-0.247	-0.021
-589.938	-130.184	0.147	-0.020
-588.923	52.378	-0.068	0.065
-587.909	-121.454	0.189	0.031
-586.894	-118.402	-0.272	-0.048
-585.879	-132.515	0.378	-0.048
-584.865	-64.092	0.040	0.016
-583.850	-200.000	-0.005	0.157
-582.836	-200.000	-0.025	-0.409
-581.821	-111.041	-0.259	-0.053
-580.806	-200.000	-0.013	0.388
-579.792	-72.528	0.261	-0.096
-578.777	55.983	-0.157	0.152
-577.763	8.536	-0.129	-0.097
-576.748	-155.890	-0.174	0.011
-575.733	-200.000	-0.005	0.091
-574.719	-75.527	-0.258	-0.091
-573.704	-200.000	-0.021	-0.308
-572.690	-135.363	-0.229	0.027
-571.675	800.000	-0.038	0.106
-570.661	-52.229	-0.186	-0.086
-569.646	-60.668	0.083	0.035
-568.631	800.000	0.041	0.145
-567.617	-200.000	-0.002	-0.024
-566.602	193.006	0.113	-0.170
-565.588	-176.424	-0.228	-0.006
-564.573	312.300	-0.065	-0.122
-563.558	-0.790	0.232	0.164
-562.544	109.053	0.115	0.137
-561.529	-200.000	0.032	-0.174
-560.515	163.876	0.184	0.259
-559.500	800.000	-0.072	0.281
-558.485	42.311	0.114	0.103
-557.471	800.000	0.040	0.153
-556.456	-200.000	0.065	-0.327
-555.442	76.342	0.208	0.220
-554.427	125.502	-0.115	0.145
-553.412	-200.000	0.007	0.384
-552.398	-133.406	-0.123	0.015
-551.383	22.200	0.173	-0.141
-550.369	-200.000	-0.001	-0.183
-549.354	-200.000	0.007	0.345
-548.339	-14.916	0.242	0.155
-547.325	370.319	-0.165	0.334
-546.310	205.536	0.161	-0.249
-545.296	-45.701	-0.090	0.044
-544.281	435.918	0.071	0.154
-543.266	127.109	0.046	-0.059
-542.252	800.000	0.071	0.259
-541.237	421.307	0.071	0.151
-540.223	132.850	-0.071	-0.092
-539.208	-171.421	0.386	0.013
-538.193	-39.705	0.031	0.016
-537.179	800.000	-0.016	0.062
-536.164	-200.000	-0.013	0.115
-535.150	-122.770	0.289	-0.047
-534.135	103.915	-0.202	-0.237
-533.121	800.000	0.135	0.371
-532.106	-85.536	0.286	0.089
-531.091	-124.653	-0.236	0.036
-530.077	-200.000	-0.035	-0.366
-529.062	678.491	0.086	-0.222
-528.048	800.000	-0.052	-0.153
-527.033	-2.836	-0.080	0.055
-526.018	-179.277	-0.158	-0.003
-525.004	50.321	-0.173	-0.162
-523.989	-58.021	-0.181	-0.078
-522.975	-174.449	0.195	-0.006
-521.960	-8.314	0.152	-0.102
-520.945	-83.166	-0.305	-0.098
-519.931	-200.000	-0.034	0.161
-518.916	9.798	-0.050	-0.038
-517.902	-130.360	-0.387	0.052
-516.887	-62.878	0.249	-0.103
-515.872	443.171	0.048	0.105
-514.858	215.313	-0.118	-0.187
-513.843	235.035	-0.043	-0.070
-512.829	800.000	-0.092	-0.372
-511.814	45.100	-0.284	-0.260
-510.799	582.032	0.164	-0.401
-509.785	800.000	0.059	-0.235
-508.770	-84.505	0.037	0.011
-507.756	-200.000	0.004	-0.336
-506.741	187.207	0.201	0.298
-505.726	246.883	0.319	0.535
-504.712	-162.670	0.391	-0.019
-503.697	515.799	0.075	0.173
-502.683	7.033	-0.356	-0.264
-501.668	5.468	0.171	0.126
-500.653	800.000	-0.041	0.126
-499.639	-134.844	0.364	0.044
-498.624	242.845	-0.058	-0.097
-497.610	95.653	0.299	0.339
-496.595	-200.000	-0.007	0.362
-495.581	-124.079	-0.138	-0.022
-494.566	253.999	-0.138	-0.235
-493.551	-121.314	0.350	0.058
-492.537	-200.000	0.020	-0.131
-491.522	182.545	-0.111	-0.163
-490.508	-180.624	-0.148	0.003
-489.493	-118.579	0.107	-0.019
-488.478	-80.975	-0.343	-0.113
-487.464	318.700	-0.084	0.159
-486.449	-200.000	-0.025	-0.178
-485.435	-27.635	-0.155	0.089
-484.420	99.237	0.209	-0.240
-483.405	-37.113	0.110	0.059
-482.391	25.377	-0.172	-0.142
-481.376	82.412	0.289	-0.312
-480.362	-6.501	-0.036	-0.024
-479.347	-20.569	-0.365	-0.223
-478.332	114.179	-0.255	-0.308
-477.318	-108.321	-0.305	-0.065
-476.303	-200.000	0.080	0.409
-475.289	282.985	-0.103	0.183
-474.274	-42.647	0.202	0.102
-473.259	-50.222	-0.204	-0.096
-472.245	-81.401	-0.256	0.084
-471.230	355.915	0.149	0.296
-470.216	-92.881	0.156	-0.043
-469.201	-136.181	0.201	-0.023
-468.186	-80.793	0.118	0.039
-467.172	-108.131	-0.119	-0.026
-466.157	-11.955	-0.017	-0.011
-465.143	104.527	0.102	-0.120
-464.128	136.640	0.045	0.058
-463.113	479.994	0.133	-0.300
-462.099	800.000	-0.055	0.223
-461.084	-200.000	-0.018	0.250
-460.070	141.804	0.021	0.027
-459.055	-21.108	-0.335	-0.203
-458.040	7.107	0.124	0.092
-457.026	-200.000	-0.012	-0.073
-456.011	136.838	0.159	-0.206
-454.997	-50.551	0.138	0.065
-453.982	-55.915	-0.313	0.138
-452.968	-57.759	0.209	0.091
-451.953	658.976	0.056	-0.142
-450.938	800.000	-0.133	-0.543
-449.924	-50.598	0.286	-0.134
-448.909	-55.445	0.097	-0.043
-447.895	648.109	0.094	-0.238
-446.880	-200.000	0.075	-0.346
-445.865	800.000	-0.015	0.065
-444.851	-56.419	-0.175	0.077
-443.836	-92.329	0.259	-0.072
-442.822	636.561	-0.066	0.167
-441.807	66.912	0.043	0.043
-440.792	-200.000	0.011	0.082
-439.778	800.000	0.203	0.597
-438.763	107.456	-0.044	0.052
-437.749	235.561	-0.029	-0.048
-436.734	-80.781	0.076	0.025
-435.719	-62.872	-0.183	0.075
-434.705	108.476	0.147	0.174
-433.690	-130.061	0.225	-0.031
-432.676	264.825	0.037	0.065
-431.661	-193.235	0.266	-0.002
-430.646	-66.732	0.438	0.172
-429.632	-200.000	0.017	0.135
-428.617	148.461	-0.106	0.142
-427.603	-128.378	0.187	0.026
-426.588	-20.774	0.199	0.121
-425.573	-6.629	0.172	0.116
-424.559	-200.000	0.025	-0.221
-423.544	-145.995	0.234	0.021
-422.530	-81.015	-0.362	0.119
-421.515	-151.652	0.129	0.009
-420.500	-200.000	-0.008	-0.117
-419.486	-26.390	0.165	0.096
-418.471	-38.495	-0.355	-0.186
-417.457	800.000	0.051	-0.160
-416.442	75.255	0.131	-0.137
-415.428	450.061	-0.045	-0.098
-414.413	48.299	0.137	0.127
-413.398	733.166	-0.051	0.137
-412.384	800.000	0.061	0.223
-411.369	800.000	0.031	0.127
-410.355	125.721	-0.289	-0.361
-409.340	494.698	0.136	-0.309
-408.325	-98.985	-0.075	0.019
-407.311	323.306	-0.121	0.228
-406.296	-200.000	0.033	0.290
-405.282	128.377	0.099	-0.125
-404.267	108.361	-0.195	0.230
-403.252	218.147	0.221	0.349
-402.238	224.724	0.010	0.016
-401.223	316.019	0.064	0.120
-400.209	59.146	-0.290	0.283
-399.194	117.486	0.168	0.205
-398.179	173.400	0.148	0.211
-397.165	50.906	0.132	-0.124
-396.150	-186.991	0.102	-0.001
-395.136	800.000	-0.070	-0.195
-394.121	752.031	-0.031	0.083
-393.106	-200.000	-0.019	0.287
-392.092	297.627	-0.059	0.107
-391.077	2.982	-0.043	-0.031
-390.063	41.726	-0.067	-0.060
-389.048	-31.202	-0.078	-0.043
-388.033	-106.505	0.109	0.024
-387.019	349.493	-0.022	-0.043
-386.004	800.000	0.032	-0.136
-384.990	453.380	0.039	-0.085
-383.975	800.000	0.067	0.205
-382.960	-80.234	-0.179	0.059
-381.946	-73.446	0.181	0.066
-380.931	800.000	0.075	-0.286
-379.917	10.613	0.042	-0.032
-378.902	-24.755	0.060	-0.036
-377.888	243.570	0.153	0.254
-376.873	-37.031	-0.122	-0.065
-375.858	-72.681	0.331	-0.121
-374.844	5.098	0.155	0.113
-373.829	153.745	0.185	0.251
-372.815	-37.719	0.147	0.078
-371.800	-91.009	-0.187	-0.053
-370.785	260.473	0.171	-0.292
-369.771	-200.000	0.001	-0.165
-368.756	152.134	-0.140	0.189
-367.742	401.955	0.109	0.226
-366.727	553.364	0.032	0.075
-365.712	14.272	0.319	-0.246
-364.698	-183.094	-0.149	-0.003
-363.683	-200.000	-0.010	-0.073
-362.669	-116.569	0.386	-0.070
-361.654	49.857	0.196	0.183
-360.639	-92.301	0.150	0.042
-359.625	-75.031	-0.167	-0.059
-358.610	-200.000	0.046	-0.246
-357.596	-15.504	-0.097	0.062
-356.581	86.961	-0.117	-0.128
-355.566	87.455	-0.142	-0.155
-354.552	10.429	-0.057	-0.043
-353.537	-99.404	0.323	-0.081
-352.523	478.246	-0.052	0.116
-351.508	800.000	0.098	0.376
-350.493	-105.449	-0.132	0.030
-349.479	-200.000	-0.035	-0.326
-348.464	73.389	0.254	-0.263
-347.450	-146.831	-0.452	0.039
-346.435	-123.507	-0.193	-0.030
-345.420	-116.364	0.029	0.005
-344.406	4.894	0.078	-0.057
-343.391	-200.000	0.036	-0.282
-342.377	22.738	-0.320	0.259
-341.362	-34.907	-0.217	-0.117
-340.348	-93.870	-0.117	0.032
-339.333	242.881	0.247	0.410
-338.318	251.065	0.143	0.241
-337.304	-51.107	0.084	0.039
-336.289	221.002	-0.264	0.418
-335.275	800.000	0.011	-0.034
-334.260	-170.245	-0.376	0.013
-333.245	182.619	0.027	-0.040
-332.231	-21.116	-0.393	0.237
-331.216	27.622	0.469	0.390
-330.202	-200.000	-0.044	0.264
-329.187	-200.000	-0.009	-0.229
-328.172	-200.000	0.007	-0.447
-327.158	442.090	0.111	-0.240
-326.143	168.927	0.206	-0.290
-325.129	754.177	0.066	-0.177
-324.114	-18.128	-0.150	-0.093
-323.099	9.631	0.122	0.091
-322.085	140.456	-0.203	-0.265
-321.070	83.580	-0.060	0.065
-320.056	192.501	-0.108	-0.161
-319.041	800.000	-0.031	0.117
-318.026	-85.066	-0.182	0.056
-317.012	-144.174	0.229	0.021
-315.997	800.000	-0.016	0.047
-314.983	68.350	-0.141	0.143
-313.968	719.991	0.071	-0.185
-312.953	-200.000	0.033	-0.167
-311.939	178.261	0.071	0.102
-310.924	-200.000	-0.046	0.390
-309.910	-26.440	0.288	0.167
-308.895	19.024	0.176	0.140
-307.880	13.491	-0.205	-0.157
-306.866	120.700	-0.093	0.114
-305.851	800.000	-0.033	-0.092
-304.837	-200.000	-0.010	-0.115
-303.822	601.347	-0.072	-0.177
-302.807	-200.000	-0.082	-0.370
-301.793	-200.000	0.005	0.042
-300.778	800.000	-0.011	-0.045
-299.764	-79.886	-0.440	0.146
-298.749	-16.762	-0.270	0.169
-297.735	-10.226	-0.248	0.162
-296.720	-137.709	0.428	0.047
-295.705	30.450	-0.055	0.047
-294.691	-95.097	-0.265	-0.070
-293.676	127.795	-0.149	0.187
-292.662	-200.000	-0.016	0.175
-291.647	-20.423	0.236	-0.143
-290.632	800.000	-0.117	-0.392
-289.618	136.411	0.098	0.126
-288.603	33.399	-0.048	-0.041
-287.589	28.561	-0.385	-0.322
-286.574	-46.859	-0.061	-0.029
-285.559	-200.000	-0.007	0.340
-284.545	46.055	0.196	-0.179
-283.530	-79.843	0.192	-0.064
-282.516	800.000	-0.039	0.129
-281.501	368.246	-0.035	-0.071
-280.486	30.781	0.347	-0.293
-279.472	-200.000	0.015	-0.433
-278.457	-15.719	-0.237	-0.149
-277.443	-46.830	-0.141	0.068
-276.428	-100.248	0.075	0.018
-275.413	24.371	-0.209	-0.171
-274.399	-85.614	-0.101	0.031
-273.384	-79.458	0.135	0.045
-272.370	340.000	-0.082	-0.157
-271.355	154.120	-0.107	-0.145
-270.340	-57.382	-0.059	0.026
-269.326	150.206	0.033	0.044
-268.311	236.539	0.244	0.399
-267.297	66.494	-0.060	0.060
-266.282	-60.325	-0.136	0.057
-265.267	-200.000	0.003	0.221
-264.253	-140.154	0.364	0.038
-263.238	-146.981	0.345	0.029
-262.224	800.000	-0.122	0.362
-261.209	168.284	0.247	-0.347
-260.195	-137.869	0.150	0.017
-259.180	800.000	-0.030	0.091
-258.165	-78.747	-0.021	0.007
-257.151	-8.453	0.194	-0.129
-256.136	715.184	-0.035	0.091
-255.122	-40.939	-0.144	0.073
-254.107	-173.590	-0.123	0.004
-253.092	465.977	-0.164	-0.361
-252.078	-200.000	-0.098	-0.449
-251.063	800.000	-0.035	0.137
-250.049	-200.000	-0.011	0.138
-249.034	-200.000	0.003	-0.233
-248.019	-125.038	0.144	0.022
-247.005	-193.427	0.150	-0.001
-245.990	-118.445	-0.267	0.047
-244.976	-200.000	0.005	-0.244
-243.961	83.262	-0.146	-0.157
-242.946	122.966	-0.181	0.222
-241.932	-153.810	-0.250	0.017
-240.917	-110.594	-0.139	-0.028
-239.903	-135.885	-0.115	0.013
-238.888	279.805	0.187	0.328
-237.873	194.954	0.145	0.216
-236.859	-119.803	-0.323	-0.055
-235.844	-87.156	-0.160	0.048
-234.830	-200.000	-0.010	0.127
-233.815	153.169	0.172	0.231
-232.800	54.176	-0.359	0.340
-231.786	-50.293	0.240	0.112
-230.771	800.000	0.051	-0.213
-229.757	-153.770	0.058	-0.004
-228.742	111.972	-0.124	-0.148
-227.727	800.000	0.046	-0.170
-226.713	21.018	0.243	0.194
-225.698	114.943	0.133	-0.159
-224.684	-106.975	-0.351	0.076
-223.669	-164.837	0.315	0.014
-222.655	22.345	0.362	-0.291
-221.640	18.661	0.035	0.027
-220.625	271.997	-0.246	-0.426
-219.611	2.694	0.108	0.077
-218.596	361.132	0.043	0.084
-217.582	397.937	0.037	-0.077
-216.567	-116.885	-0.204	-0.037
-215.552	123.029	-0.234	-0.288
-214.538	-44.140	-0.431	-0.213
-213.523	232.764	-0.040	-0.065
-212.509	-32.061	0.332	0.183
-211.494	-74.755	-0.247	0.087
-210.479	753.165	0.117	0.310
-209.465	17.189	-0.021	0.016
-208.450	192.513	-0.062	0.092
-207.436	-196.628	-0.145	-0.001
-206.421	117.671	-0.053	0.064
-205.406	136.504	-0.061	0.078
-204.392	-38.608	-0.228	0.118
-203.377	800.000	0.030	-0.084
-202.363	316.745	0.123	-0.228
-201.348	-162.262	-0.234	-0.011
-200.333	492.308	0.058	-0.131
-199.319	-145.736	-0.150	0.013
-198.304	434.360	-0.113	0.241
-197.290	35.780	-0.277	-0.240
-196.275	266.466	0.161	0.276
-195.260	-72.303	0.293	0.107
-194.246	445.733	-0.246	0.530
-193.231	-113.261	-0.094	-0.018
-192.217	-78.805	-0.180	-0.060
-191.202	-158.227	0.255	-0.015
-190.187	-146.990	-0.181	-0.015
-189.173	-117.908	0.284	-0.050
-188.158	-143.068	0.378	-0.036
-187.144	112.680	-0.036	-0.043
-186.129	169.684	-0.069	0.096
-185.114	180.143	0.269	-0.388
-184.100	800.000	0.038	0.156
-183.085	-9.332	0.205	-0.134
-182.071	-46.640	-0.065	-0.031
-181.056	-47.822	0.152	-0.072
-180.042	239.065	-0.177	-0.289
-179.027	800.000	-0.003	0.011
-178.012	178.095	0.131	-0.188
-176.998	458.036	-0.016	-0.035
-175.983	462.383	-0.164	0.359
-174.969	-131.625	-0.276	0.036
-173.954	800.000	0.037	0.112
-172.939	197.941	0.062	-0.093
-171.925	70.524	-0.301	-0.306
-170.910	330.651	0.196	0.370
-169.896	518.428	0.159	0.366
-168.881	601.038	0.062	-0.152
-167.866	-89.938	0.089	0.026
-166.852	-59.363	-0.372	0.157
-165.837	-82.137	0.414	-0.133
-164.823	-200.000	-0.030	0.186
-163.808	91.796	-0.234	-0.258
-162.793	-127.146	0.236	0.034
-161.779	-84.941	-0.081	-0.025
-160.764	-200.000	-0.024	-0.104
-159.750	71.410	-0.118	0.120
-158.735	524.910	-0.242	0.558
-157.720	38.216	0.308	-0.269
-156.706	-105.783	-0.381	-0.085
-155.691	83.197	0.220	0.235
-154.677	404.216	-0.050	-0.104
-153.662	57.225	0.284	-0.272
-152.647	800.000	0.023	-0.074
-151.633	-200.000	-0.001	0.098
-150.618	76.613	0.129	-0.134
-149.604	506.011	0.078	-0.178
-148.589	800.000	0.158	0.453
-147.574	23.711	-0.138	0.112
-146.560	96.352	-0.153	-0.172
-145.545	-61.530	0.226	0.093
-144.531	-92.281	-0.297	0.082
-143.516	-27.957	-0.202	0.115
-142.502	800.000	-0.073	-0.212
-141.487	-183.733	0.094	-0.002
-140.472	-59.118	-0.188	-0.080
-139.458	-53.167	-0.026	-0.012
-138.443	-146.786	0.283	0.024
-137.429	106.557	-0.111	0.129
-136.414	-200.000	-0.018	0.188
-135.399	-185.104	-0.033	0.000
-134.385	32.983	-0.089	-0.075
-133.370	25.523	-0.035	0.028
-132.356	332.150	0.078	-0.147
-131.341	-116.885	0.217	0.039
-130.326	125.825	-0.193	0.239
-129.312	22.425	-0.050	0.040
-128.297	-129.585	-0.156	-0.021
-127.283	389.125	0.104	-0.210
-126.268	-200.000	0.049	0.288
-125.253	800.000	0.115	-0.358
-124.239	-9.242	0.197	0.129
-123.224	356.974	-0.057	0.112
-122.210	276.188	0.070	0.123
-121.195	-63.583	-0.066	-0.026
