DTS Sentinel unit serial number:	SN413079Multiplexer serial number:	ORYXHardware model number:	OX4-SRSoftware version number:	ORYX F/W v4.00 Oryx Data Collector v3.7.2.0data status	okinstallation	princeton_trtdifferential loss correction	single-endedforward channel	channel 3reverse channel	N/Adate	2019/09/17time	06:52:35forward acquisition time	60.00reverse acquisition time	0.00gamma	496.2192k internal	0.2333k external	0.2333temperature offset calibration	0.9945default loss term (dB/km)	0.3790temperature slope calibration	1.0000multiplexer offset coefficient	1.0000multiplexer slope coefficient	1.0000fibre end	0.00T internal ref (°C)	27.69T ext. ref 1 (°C)	0.12T ext. ref 2 (°C)	21.02length (m)	temperature (°C)	Stokes	anti-Stokes-747.200	-200.000	0.035	0.219
-746.185	-200.000	-0.042	-0.386
-745.171	-200.000	0.030	0.149
-744.156	601.607	-0.073	0.182
-743.142	800.000	0.085	0.280
-742.127	37.239	0.171	-0.153
-741.112	210.275	0.097	-0.153
-740.098	-200.000	0.010	-0.154
-739.083	73.708	0.197	-0.208
-738.069	111.309	-0.063	-0.076
-737.054	-160.775	-0.039	0.002
-736.039	547.237	0.183	-0.441
-735.025	-7.654	0.221	-0.150
-734.010	11.610	-0.308	-0.237
-732.996	-81.864	-0.218	-0.072
-731.981	-17.941	0.146	-0.092
-730.966	-200.000	0.021	0.149
-729.952	67.487	-0.106	0.109
-728.937	50.030	-0.351	-0.333
-727.923	-86.040	-0.281	-0.087
-726.908	67.661	-0.163	0.168
-725.894	58.986	-0.182	0.180
-724.879	62.611	0.089	0.089
-723.864	-123.793	0.284	0.045
-722.850	-166.844	0.248	-0.010
-721.835	153.646	-0.075	-0.104
-720.821	160.012	0.058	-0.082
-719.806	69.474	-0.125	-0.129
-718.791	51.037	-0.171	0.163
-717.777	62.331	0.085	-0.085
-716.762	-18.002	0.158	0.099
-715.748	-82.295	-0.402	0.131
-714.733	110.068	-0.071	-0.086
-713.718	800.000	0.055	-0.156
-712.704	-156.803	0.278	0.017
-711.689	800.000	-0.040	0.145
-710.675	-200.000	0.002	0.117
-709.660	-99.181	0.127	-0.032
-708.645	672.531	0.131	-0.341
-707.631	-122.799	0.130	-0.021
-706.616	567.916	-0.077	-0.188
-705.602	75.325	-0.250	0.265
-704.587	-43.428	-0.051	0.026
-703.572	55.060	-0.188	-0.183
-702.558	-68.795	0.404	-0.157
-701.543	-17.044	0.149	0.095
-700.529	-200.000	0.020	-0.271
-699.514	-108.381	-0.212	-0.046
-698.499	22.653	0.142	-0.117
-697.485	25.018	-0.071	0.059
-696.470	800.000	-0.134	-0.392
-695.456	445.462	-0.104	-0.229
-694.441	-200.000	-0.051	0.280
-693.426	432.685	0.019	-0.041
-692.412	-15.272	-0.107	-0.069
-691.397	300.308	-0.123	-0.228
-690.383	525.481	0.182	0.429
-689.368	-103.150	0.362	-0.086
-688.354	-32.350	0.084	-0.047
-687.339	218.257	-0.155	0.248
-686.324	800.000	-0.034	0.098
-685.310	-200.000	-0.032	0.189
-684.295	12.456	0.245	0.189
-683.281	-85.463	0.097	0.030
-682.266	-26.104	-0.223	0.132
-681.251	662.224	0.079	0.203
-680.237	568.872	-0.156	-0.379
-679.222	671.155	0.078	-0.202
-678.208	615.260	0.130	-0.327
-677.193	45.012	-0.087	0.080
-676.178	-133.107	-0.162	0.021
-675.164	85.179	-0.170	0.187
-674.149	-71.146	0.141	0.053
-673.135	591.958	-0.078	0.194
-672.120	-53.960	0.190	-0.087
-671.105	140.487	-0.225	0.297
-670.091	-140.187	0.189	0.020
-669.076	104.409	-0.207	-0.244
-668.062	595.629	0.095	-0.235
-667.047	246.975	0.196	-0.332
-666.032	-70.043	0.204	0.078
-665.018	-56.440	0.229	0.102
-664.003	800.000	-0.024	0.088
-662.989	163.907	-0.102	0.143
-661.974	-42.887	0.318	0.162
-660.959	46.840	-0.150	0.140
-659.945	-113.304	-0.132	0.026
-658.930	-182.268	-0.323	-0.006
-657.916	-200.000	-0.033	-0.345
-656.901	-88.962	0.159	-0.047
-655.886	-15.322	-0.432	0.276
-654.872	-78.118	-0.249	0.086
-653.857	9.156	0.295	0.223
-652.843	-105.141	-0.284	0.065
-651.828	-84.259	-0.424	0.135
-650.814	19.706	0.219	-0.176
-649.799	-134.897	0.230	0.028
-648.784	360.170	0.106	-0.213
-647.770	429.461	-0.075	-0.163
-646.755	184.647	0.148	-0.220
-645.741	166.467	-0.045	-0.064
-644.726	-200.000	0.017	-0.094
-643.711	-125.047	-0.399	-0.061
-642.697	46.095	-0.290	-0.269
-641.682	67.045	0.152	-0.155
-640.668	124.431	-0.113	-0.142
-639.653	-114.343	0.143	-0.027
-638.638	-106.675	0.412	-0.092
-637.624	-200.000	-0.015	-0.370
-636.609	429.008	-0.031	-0.066
-635.595	37.769	-0.102	0.090
-634.580	-200.000	-0.018	-0.419
-633.565	152.539	0.067	-0.092
-632.551	81.820	-0.122	-0.132
-631.536	450.072	0.124	-0.274
-630.522	132.585	-0.052	-0.068
-629.507	-200.000	-0.058	-0.288
-628.492	-94.262	0.084	0.023
-627.478	107.655	-0.062	0.074
-626.463	-200.000	0.011	0.373
-625.449	318.171	0.070	-0.132
-624.434	800.000	-0.053	0.184
-623.419	639.454	-0.038	0.097
-622.405	-8.448	0.255	-0.172
-621.390	-21.840	-0.059	0.036
-620.376	-128.349	0.160	0.023
-619.361	800.000	-0.014	0.059
-618.346	-7.047	-0.344	-0.234
-617.332	-200.000	-0.047	-0.218
-616.317	-3.818	-0.044	-0.031
-615.303	30.210	0.209	0.178
-614.288	800.000	0.122	0.347
-613.273	-19.221	0.226	-0.141
-612.259	232.172	-0.150	-0.246
-611.244	-200.000	-0.004	-0.111
-610.230	6.592	-0.105	0.078
-609.215	800.000	0.011	0.040
-608.201	399.170	0.063	-0.133
-607.186	751.631	0.025	-0.068
-606.171	238.428	0.049	-0.081
-605.157	-155.557	-0.225	0.015
-604.142	-5.906	-0.169	-0.116
-603.128	-200.000	-0.052	0.240
-602.113	294.464	0.036	-0.065
-601.098	-187.678	-0.317	-0.004
-600.084	-27.424	-0.070	0.041
-599.069	-200.000	-0.072	-0.406
-598.055	14.260	0.192	0.150
-597.040	103.588	0.076	0.089
-596.025	404.290	-0.119	0.251
-595.011	67.689	0.129	0.131
-593.996	-113.520	-0.223	-0.044
-592.982	-200.000	0.119	0.531
-591.967	159.760	0.049	0.068
-590.952	276.745	-0.169	-0.300
-589.938	713.241	-0.057	-0.150
-588.923	-200.000	-0.021	-0.150
-587.909	-32.360	0.404	0.225
-586.894	-200.000	-0.155	0.001
-585.879	37.743	-0.193	0.171
-584.865	-64.417	0.247	-0.100
-583.850	800.000	0.024	0.090
-582.836	-41.050	-0.041	0.021
-581.821	-200.000	0.015	0.260
-580.806	363.851	0.037	0.075
-579.792	-167.206	-0.065	-0.003
-578.777	-120.691	-0.014	0.002
-577.763	276.348	-0.045	0.080
-576.748	488.025	-0.219	0.499
-575.733	-12.473	0.137	0.089
-574.719	-200.000	0.005	0.045
-573.704	-75.331	0.188	-0.067
-572.690	86.034	-0.151	0.166
-571.675	-200.000	0.017	0.105
-570.661	-67.089	-0.206	-0.081
-569.646	13.762	0.161	0.125
-568.631	309.682	-0.021	0.039
-567.617	-200.000	0.001	-0.105
-566.602	385.162	-0.123	-0.254
-565.588	100.357	-0.328	-0.380
-564.573	-80.722	-0.351	0.116
-563.558	-51.105	-0.234	-0.110
-562.544	84.666	0.196	-0.214
-561.529	800.000	-0.084	-0.277
-560.515	514.582	0.037	0.087
-559.500	120.901	0.051	0.064
-558.485	-54.528	-0.255	-0.115
-557.471	-54.789	-0.049	-0.022
-556.456	228.286	0.168	0.272
-555.442	298.941	-0.172	-0.316
-554.427	-200.000	0.099	0.568
-553.412	403.110	0.147	-0.309
-552.398	-107.031	0.166	0.037
-551.383	800.000	-0.053	0.148
-550.369	-14.081	0.214	0.138
-549.354	73.531	-0.058	0.060
-548.339	51.550	-0.106	0.100
-547.325	-82.716	0.223	-0.072
-546.310	19.627	0.109	0.087
-545.296	-200.000	-0.012	0.133
-544.281	157.930	-0.152	0.210
-543.266	800.000	0.100	0.332
-542.252	560.390	-0.045	0.109
-541.237	345.964	0.010	-0.019
-540.223	-116.236	-0.092	-0.017
-539.208	60.451	-0.077	0.076
-538.193	-155.925	0.091	0.006
-537.179	-156.472	-0.090	-0.006
-536.164	-106.832	-0.089	-0.020
-535.150	-165.028	-0.169	-0.008
-534.135	-88.446	0.048	0.014
-533.121	18.691	0.260	0.207
-532.106	-179.157	-0.275	-0.006
-531.091	800.000	0.063	-0.257
-530.077	-200.000	0.041	0.283
-529.062	113.870	-0.120	-0.146
-528.048	-110.256	0.251	0.052
-527.033	-10.033	-0.214	0.142
-526.018	-0.395	0.214	-0.152
-525.004	548.214	0.016	-0.038
-523.989	491.798	0.145	0.332
-522.975	-200.000	0.034	0.180
-521.960	-144.865	-0.052	0.005
-520.945	-200.000	0.005	-0.145
-519.931	88.584	-0.053	-0.059
-518.916	231.847	0.118	-0.193
-517.902	77.164	0.112	0.118
-516.887	-183.845	-0.065	0.001
-515.872	-25.384	-0.089	-0.052
-514.858	-200.000	0.004	0.162
-513.843	232.559	-0.095	0.155
-512.829	-200.000	0.037	0.315
-511.814	-46.061	0.088	0.043
-510.799	158.013	0.098	0.135
-509.785	-179.792	-0.172	0.004
-508.770	-59.000	-0.058	-0.025
-507.756	-151.373	0.270	-0.020
-506.741	113.842	-0.070	0.085
-505.726	81.247	0.148	-0.159
-504.712	-92.324	-0.415	-0.116
-503.697	-200.000	0.017	-0.185
-502.683	-185.788	0.225	-0.003
-501.668	114.777	-0.114	-0.138
-500.653	800.000	0.055	0.174
-499.639	-200.000	0.010	0.168
-498.624	-34.992	0.170	0.092
-497.610	800.000	-0.013	-0.055
-496.595	800.000	-0.051	-0.161
-495.581	-123.047	-0.029	0.005
-494.566	-200.000	-0.003	-0.085
-493.551	-200.000	0.055	-0.323
-492.537	379.304	-0.243	-0.496
-491.522	-200.000	0.013	-0.369
-490.508	10.255	-0.203	0.154
-489.493	-109.529	0.232	-0.049
-488.478	-8.607	0.416	0.278
-487.464	-60.117	-0.055	0.023
-486.449	120.177	-0.221	0.273
-485.435	28.668	0.131	-0.110
-484.420	51.035	-0.267	0.252
-483.405	-42.409	0.177	0.090
-482.391	-17.459	-0.089	0.056
-481.376	66.207	-0.217	0.220
-480.362	30.410	-0.086	0.073
-479.347	23.108	-0.296	0.242
-478.332	800.000	0.081	0.263
-477.318	-200.000	0.010	0.319
-476.303	335.434	-0.163	-0.315
-475.289	-122.174	-0.243	0.040
-474.274	-17.761	-0.154	-0.096
-473.259	260.467	0.069	-0.118
-472.245	-200.000	-0.019	-0.229
-471.230	-32.307	0.088	0.049
-470.216	680.742	-0.082	0.213
-469.201	22.559	0.046	-0.038
-468.186	371.342	-0.106	-0.213
-467.172	-57.313	-0.292	0.128
-466.157	-200.000	-0.005	-0.134
-465.143	378.475	0.088	-0.178
-464.128	-150.186	-0.207	-0.016
-463.113	-200.000	-0.018	0.254
-462.099	-200.000	0.060	-0.286
-461.084	-200.000	-0.018	-0.151
-460.070	800.000	-0.046	-0.186
-459.055	800.000	0.020	0.075
-458.040	-43.009	-0.091	-0.046
-457.026	484.845	0.090	-0.203
-456.011	-54.746	0.205	-0.092
-454.997	-96.982	-0.163	-0.042
-453.982	355.999	0.147	-0.291
-452.968	-200.000	-0.024	0.337
-451.953	-200.000	0.024	-0.216
-450.938	-106.091	0.160	-0.036
-449.924	-200.000	-0.008	0.040
-448.909	474.229	0.188	-0.422
-447.895	123.356	-0.203	-0.253
-446.880	-76.824	0.361	0.126
-445.865	99.172	0.035	0.041
-444.851	-117.899	-0.255	-0.045
-443.836	-125.594	0.186	0.028
-442.822	-200.000	-0.022	-0.249
-441.807	591.267	-0.186	-0.457
-440.792	296.691	0.047	0.085
-439.778	422.184	0.036	-0.078
-438.763	-21.571	0.203	0.123
-437.749	1.105	0.090	-0.064
-436.734	197.399	0.099	0.150
-435.719	63.060	0.215	-0.214
-434.705	395.411	-0.130	-0.269
-433.690	-128.020	-0.332	-0.047
-432.676	120.421	-0.259	-0.320
-431.661	-106.376	0.350	0.078
-430.646	-158.553	0.145	0.008
-429.632	-89.682	-0.387	0.113
-428.617	-200.000	-0.009	0.159
-427.603	-200.000	0.018	-0.098
-426.588	87.690	-0.146	0.160
-425.573	318.061	-0.067	0.126
-424.559	-200.000	-0.078	0.375
-423.544	-35.170	0.133	-0.072
-422.530	301.393	0.246	-0.450
-421.515	369.392	0.066	0.133
-420.500	-143.237	-0.174	-0.017
-419.486	204.287	0.084	0.129
-418.471	-90.390	0.116	0.034
-417.457	75.767	0.253	-0.265
-416.442	-200.000	0.022	0.140
-415.428	-43.342	-0.034	0.017
-414.413	145.925	-0.104	0.139
-413.398	134.188	-0.040	-0.051
-412.384	28.132	-0.056	-0.047
-411.369	800.000	0.018	-0.073
-410.355	-145.717	0.253	-0.022
-409.340	107.680	-0.287	0.339
-408.325	-122.024	-0.196	0.032
-407.311	21.122	0.282	0.227
-406.296	112.784	0.114	-0.137
-405.282	-13.155	-0.154	0.100
-404.267	-157.743	-0.068	-0.004
-403.252	59.345	0.194	0.190
-402.238	10.551	0.164	-0.124
-401.223	-4.525	0.073	-0.050
-400.209	-200.000	0.006	-0.036
-399.194	8.592	-0.258	0.192
-398.179	83.391	0.086	-0.093
-397.165	79.287	-0.093	-0.099
-396.150	387.416	-0.122	0.251
-395.136	800.000	0.097	0.269
-394.121	-36.474	-0.107	-0.057
-393.106	44.957	-0.183	-0.168
-392.092	-80.917	-0.198	-0.065
-391.077	27.794	0.015	-0.012
-390.063	147.930	-0.077	-0.103
-389.048	-161.350	0.218	0.011
-388.033	32.549	0.087	-0.075
-387.019	8.531	0.434	-0.324
-386.004	-75.204	-0.363	-0.129
-384.990	222.902	0.100	-0.161
-383.975	16.146	-0.088	0.068
-382.960	356.358	0.244	-0.481
-381.946	800.000	-0.088	0.308
-380.931	130.004	0.136	0.172
-379.917	-82.343	0.040	0.013
-378.902	-37.518	-0.120	-0.063
-377.888	-138.684	0.163	-0.018
-376.873	195.798	-0.195	0.294
-375.858	209.199	0.150	-0.233
-374.844	-71.253	0.330	0.123
-373.829	-40.105	-0.189	-0.098
-372.815	-59.626	0.085	0.036
-371.800	237.006	-0.051	-0.083
-370.785	-200.000	-0.003	-0.174
-369.771	-200.000	-0.009	-0.098
-368.756	-200.000	0.021	-0.116
-367.742	-29.334	-0.155	-0.088
-366.727	24.830	-0.379	0.311
-365.712	-122.212	-0.155	0.025
-364.698	182.333	-0.011	0.016
-363.683	-103.273	0.079	-0.019
-362.669	207.255	-0.102	-0.157
-361.654	304.170	-0.146	0.267
-360.639	255.667	0.149	-0.253
-359.625	-17.619	0.101	0.063
-358.610	9.241	0.291	0.218
-357.596	800.000	0.080	-0.227
-356.581	-119.034	-0.119	0.021
-355.566	-200.000	0.010	0.209
-354.552	-200.000	0.001	0.149
-353.537	800.000	-0.068	0.255
-352.523	-100.496	-0.135	0.033
-351.508	800.000	-0.039	-0.125
-350.493	20.252	0.222	-0.178
-349.479	-32.964	-0.187	-0.103
-348.464	-129.605	0.274	-0.037
-347.450	-200.000	-0.019	-0.274
-346.435	238.139	0.276	0.453
-345.420	-200.000	0.045	-0.281
-344.406	-146.802	0.131	-0.011
-343.391	-113.969	-0.058	0.011
-342.377	82.754	-0.190	0.204
-341.362	800.000	-0.208	0.586
-340.348	-71.140	0.139	0.052
-339.333	10.900	-0.111	0.084
-338.318	69.497	0.097	0.099
-337.304	67.322	0.368	0.371
-336.289	800.000	0.064	0.181
-335.275	55.181	0.196	0.187
-334.260	-51.028	-0.098	0.045
-333.245	79.830	0.094	-0.100
-332.231	-200.000	0.078	-0.451
-331.216	-200.000	0.012	-0.229
-330.202	133.066	-0.045	-0.058
-329.187	-170.153	-0.194	0.007
-328.172	800.000	0.088	-0.377
-327.158	-34.018	-0.353	-0.192
-326.143	-200.000	0.006	0.278
-325.129	-174.327	0.129	0.004
-324.114	328.885	0.072	-0.138
-323.099	-117.079	-0.048	-0.009
-322.085	-78.288	-0.055	-0.019
-321.070	285.161	-0.061	-0.109
-320.056	-149.316	0.404	0.032
-319.041	49.459	0.258	0.240
-318.026	-5.859	-0.265	0.179
-317.012	-193.549	-0.364	0.003
-315.997	441.919	0.120	-0.259
-314.983	-116.513	-0.045	0.008
-313.968	73.396	0.092	-0.095
-312.953	800.000	0.095	-0.321
-311.939	-137.462	0.301	-0.034
-310.924	97.815	-0.161	-0.183
-309.910	84.035	-0.027	0.029
-308.895	-145.241	0.193	-0.017
-307.880	588.537	0.067	0.162
-306.866	-96.368	-0.451	-0.118
-305.851	-84.005	-0.222	-0.070
-304.837	-7.436	0.328	-0.219
-303.822	-52.283	0.106	-0.048
-302.807	45.756	0.158	-0.144
-301.793	-121.514	-0.102	-0.017
-300.778	221.605	0.083	0.132
-299.764	62.910	0.060	-0.059
-298.749	31.865	-0.341	-0.290
-297.735	376.672	-0.143	0.288
-296.720	-111.883	0.225	-0.045
-295.705	407.164	-0.066	-0.138
-294.691	108.522	-0.232	0.273
-293.676	465.782	0.014	0.030
-292.662	225.434	0.111	-0.178
-291.647	148.500	-0.098	0.131
-290.632	-131.770	-0.176	-0.023
-289.618	-200.000	0.017	0.112
-288.603	-73.638	-0.323	-0.116
-287.589	-135.537	-0.470	-0.055
-286.574	-168.311	0.215	-0.008
-285.559	-8.809	0.080	-0.053
-284.545	800.000	-0.024	-0.091
-283.530	-200.000	-0.000	0.078
-282.516	-59.644	0.204	-0.087
-281.501	-200.000	0.047	-0.310
-280.486	50.100	-0.111	0.103
-279.472	631.553	0.105	0.263
-278.457	-200.000	-0.002	-0.099
-277.443	169.852	0.081	-0.114
-276.428	-200.000	-0.008	0.109
-275.413	90.585	-0.043	-0.048
-274.399	-200.000	-0.071	0.316
-273.384	-200.000	-0.026	0.262
-272.370	477.360	-0.105	-0.235
-271.355	800.000	-0.078	0.243
-270.340	-176.895	0.221	-0.006
-269.326	-132.435	0.095	0.012
-268.311	-179.002	-0.275	-0.006
-267.297	570.687	0.082	0.196
-266.282	-162.053	0.150	-0.007
-265.267	-200.000	-0.016	0.079
-264.253	-95.693	0.053	0.014
-263.238	-69.136	-0.074	-0.028
-262.224	-200.000	0.097	-0.556
-261.209	412.312	-0.092	-0.194
-260.195	-200.000	0.012	0.142
-259.180	-72.086	0.125	0.046
-258.165	240.207	0.237	0.389
-257.151	79.280	0.203	0.214
-256.136	-80.062	0.055	-0.018
-255.122	-93.555	-0.323	-0.088
-254.107	74.586	-0.028	0.030
-253.092	-153.722	-0.133	-0.009
-252.078	27.413	-0.095	-0.079
-251.063	-121.698	-0.329	-0.054
-250.049	-200.000	0.046	-0.252
-249.034	520.992	0.077	-0.179
-248.019	-35.109	0.124	0.067
-247.005	259.119	0.190	0.323
-245.990	-61.224	-0.135	-0.056
-244.976	-167.040	-0.367	0.015
-243.961	-169.328	0.275	-0.010
-242.946	-77.682	-0.075	-0.026
-241.932	65.921	0.239	0.239
-240.917	64.938	0.151	0.150
-239.903	-200.000	0.053	0.373
-238.888	-116.655	0.140	0.025
-237.873	-1.360	0.233	-0.162
-236.859	800.000	0.050	-0.161
-235.844	596.816	0.071	-0.174
-234.830	251.915	-0.115	-0.193
-233.815	25.322	-0.321	-0.263
-232.800	800.000	0.090	0.284
-231.786	-67.771	0.193	0.074
-230.771	-200.000	0.011	-0.129
-229.757	-49.317	0.063	-0.029
-228.742	-200.000	-0.011	-0.092
-227.727	254.252	-0.198	0.334
-226.713	-33.292	-0.253	0.138
-225.698	50.998	0.107	0.100
-224.684	372.610	0.268	0.536
-223.669	-103.388	0.135	0.031
-222.655	-14.596	-0.211	0.134
-221.640	188.874	0.223	0.328
-220.625	271.802	0.121	0.211
-219.611	-165.169	0.113	-0.005
-218.596	286.734	0.225	-0.401
-217.582	-200.000	-0.035	0.206
-216.567	-23.167	-0.314	-0.186
-215.552	699.154	0.126	-0.327
-214.538	-102.553	-0.148	0.035
-213.523	51.527	0.145	0.135
-212.509	-35.880	-0.303	-0.161
-211.494	-200.000	0.039	0.309
-210.479	100.587	0.258	0.295
-209.465	-63.937	-0.056	0.022
-208.450	-63.537	0.224	-0.091
-207.436	-67.483	0.056	-0.022
-206.421	-200.000	-0.083	0.399
-205.406	359.845	0.071	-0.139
-204.392	-161.908	-0.359	-0.018
-203.377	800.000	0.039	-0.158
-202.363	330.652	-0.232	0.440
-201.348	88.499	-0.272	-0.297
-200.333	28.832	-0.184	-0.154
-199.319	111.375	-0.303	0.360
-198.304	-162.457	-0.105	-0.005
-197.290	800.000	-0.039	-0.137
-196.275	119.145	-0.258	0.314
-195.260	-125.368	0.342	-0.051
-194.246	-30.125	-0.130	-0.073
-193.231	146.081	0.207	0.273
-192.217	-71.957	-0.425	0.155
-191.202	83.920	-0.173	-0.186
-190.187	-42.554	0.046	0.023
-189.173	800.000	0.071	0.275
-188.158	-81.382	-0.074	0.024
-187.144	800.000	0.054	-0.207
-186.129	-200.000	0.005	0.059
-185.114	131.468	0.300	0.379
-184.100	-51.946	0.166	0.076
-183.085	-200.000	-0.014	-0.249
-182.071	39.785	0.168	0.148
-181.056	-200.000	-0.064	-0.359
-180.042	59.171	0.142	-0.137
-179.027	117.227	0.147	0.177
-178.012	-27.350	0.190	0.109
-176.998	-192.337	-0.227	-0.002
-175.983	-143.472	0.126	-0.012
-174.969	-46.585	-0.167	-0.080
-173.954	-144.061	0.374	-0.035
-172.939	800.000	-0.069	0.251
-171.925	269.110	0.069	-0.119
-170.910	-139.054	0.137	-0.015
-169.896	-56.756	-0.066	-0.029
-168.881	399.710	0.121	0.250
-167.866	-75.186	0.119	0.042
-166.852	29.398	-0.007	0.006
-165.837	18.807	0.028	-0.022
-164.823	-113.808	0.123	0.024
-163.808	-25.291	-0.321	-0.187
-162.793	9.678	-0.186	-0.139
-161.779	-200.000	0.004	0.340
-160.764	82.541	0.037	-0.040
-159.750	-106.820	0.301	0.066
-158.735	206.339	-0.072	0.110
-157.720	186.267	0.055	0.081
-156.706	-110.073	0.143	0.029
-155.691	296.029	0.222	-0.399
-154.677	271.881	0.045	-0.077
-153.662	-37.489	-0.127	-0.066
-152.647	-133.376	-0.096	0.012
-151.633	-131.315	0.301	-0.039
-150.618	-152.462	0.541	0.038
-149.604	800.000	0.049	0.143
-148.589	77.045	0.276	-0.288
-147.574	-114.174	0.079	-0.015
-146.560	-164.023	0.297	-0.014
-145.545	-200.000	0.045	0.363
-144.531	317.386	-0.023	0.043
-143.516	576.763	-0.103	-0.246
-142.502	-200.000	0.007	0.217
-141.487	-35.415	-0.088	0.047
-140.472	6.576	-0.149	-0.109
-139.458	-200.000	-0.020	-0.116
-138.443	800.000	0.055	-0.228
-137.429	800.000	0.054	-0.204
-136.414	-67.124	0.127	-0.049
-135.399	-184.751	0.221	0.003
-134.385	94.335	0.182	0.203
-133.370	-42.443	-0.159	-0.079
-132.356	9.642	0.141	-0.105
-131.341	-163.546	0.123	0.006
-130.326	38.785	-0.122	0.107
-129.312	-67.344	0.145	-0.056
-128.297	-93.516	-0.079	-0.022
-127.283	800.000	-0.072	-0.222
-126.268	-86.477	-0.167	-0.050
-125.253	-0.638	0.081	0.056
-124.239	-94.014	-0.191	-0.052
-123.224	-156.506	-0.543	-0.033
-122.210	-138.219	-0.146	0.016
-121.195	244.584	0.042	0.069
