DTS Sentinel unit serial number:	SN413079Multiplexer serial number:	ORYXHardware model number:	OX4-SRSoftware version number:	ORYX F/W v4.00 Oryx Data Collector v3.7.2.0data status	okinstallation	princeton_trtdifferential loss correction	single-endedforward channel	channel 3reverse channel	N/Adate	2019/09/12time	18:49:04forward acquisition time	15.00reverse acquisition time	0.00gamma	496.2192k internal	0.2319k external	0.2319temperature offset calibration	1.0102default loss term (dB/km)	0.3790temperature slope calibration	1.0000multiplexer offset coefficient	1.0000multiplexer slope coefficient	1.0000fibre end	0.00T internal ref (°C)	32.94T ext. ref 1 (°C)	2.99T ext. ref 2 (°C)	27.43length (m)	temperature (°C)	Stokes	anti-Stokes-747.200	-97.574	0.376	0.099
-746.185	-157.123	0.749	0.046
-745.171	152.787	0.175	-0.242
-744.156	-113.759	0.899	-0.177
-743.142	124.398	0.343	-0.437
-742.127	60.596	-0.341	0.342
-741.112	800.000	-0.354	-1.036
-740.098	800.000	0.126	0.461
-739.083	2.652	0.372	0.273
-738.069	-15.409	0.487	0.315
-737.054	-200.000	0.030	0.344
-736.039	-200.000	-0.108	-0.521
-735.025	-200.000	-0.135	0.599
-734.010	43.487	-0.306	0.283
-732.996	-154.303	0.671	-0.046
-731.981	-200.000	-0.061	-0.283
-730.966	66.894	-0.978	-1.007
-729.952	-1.515	0.553	-0.394
-728.937	-187.849	-0.528	0.007
-727.923	371.553	-0.351	0.721
-726.908	-6.009	-0.244	-0.169
-725.894	-200.000	-0.095	-0.583
-724.879	278.076	-0.148	-0.266
-723.864	2.552	0.291	0.213
-722.850	-84.357	0.471	-0.151
-721.835	73.270	0.282	-0.298
-720.821	35.485	-0.197	0.175
-719.806	-165.229	-0.381	0.017
-718.791	68.851	-0.276	-0.287
-717.777	102.029	0.646	0.762
-716.762	611.588	-0.364	-0.921
-715.748	188.975	-0.332	0.503
-714.733	499.010	-0.198	-0.462
-713.718	-168.566	0.184	0.007
-712.704	-57.154	-0.472	-0.210
-711.689	-50.910	1.275	0.605
-710.675	348.507	0.271	0.539
-709.660	652.559	0.298	0.772
-708.645	-72.417	-0.350	0.131
-707.631	67.777	0.546	-0.564
-706.616	-162.002	0.423	0.022
-705.602	800.000	-0.334	1.066
-704.587	48.508	0.346	-0.328
-703.572	800.000	0.215	-0.824
-702.558	95.691	-0.136	-0.157
-701.543	64.925	-0.122	0.124
-700.529	-92.122	-0.408	0.116
-699.514	-179.836	0.336	-0.007
-698.499	-59.306	-0.819	-0.356
-697.485	97.689	-0.066	0.077
-696.470	-163.432	-0.242	0.012
-695.456	-200.000	0.040	-0.209
-694.441	-200.000	0.001	0.070
-693.426	72.306	0.540	-0.568
-692.412	-190.712	-0.822	-0.009
-691.397	-57.611	-0.713	-0.315
-690.383	-200.000	0.922	0.003
-689.368	-136.286	0.978	0.115
-688.354	61.926	0.389	-0.391
-687.339	-64.588	-0.556	-0.228
-686.324	109.799	-0.272	-0.330
-685.310	-0.642	-0.393	-0.281
-684.295	800.000	0.040	0.154
-683.281	-89.430	0.297	0.088
-682.266	-200.000	-0.003	-0.051
-681.251	-59.727	1.217	-0.526
-680.237	38.981	0.561	0.506
-679.222	-159.084	-0.305	0.017
-678.208	200.999	0.288	0.448
-677.193	437.915	-0.260	-0.573
-676.178	-163.476	-0.856	0.041
-675.164	73.208	-0.832	-0.878
-674.149	213.546	-0.115	-0.183
-673.135	-200.000	0.019	0.303
-672.120	-127.115	-0.343	0.051
-671.105	-200.000	-0.002	-0.721
-670.091	257.485	0.354	0.615
-669.076	314.263	0.474	-0.901
-668.062	-103.787	-0.348	-0.082
-667.047	227.622	0.348	0.571
-666.032	-27.625	0.200	0.117
-665.018	-200.000	0.097	-0.669
-664.003	25.657	-0.195	0.164
-662.989	267.051	0.041	-0.072
-661.974	-74.677	-0.542	-0.196
-660.959	61.553	0.492	0.494
-659.945	800.000	-0.248	0.704
-658.930	-200.000	0.077	-0.860
-657.916	-121.573	0.258	0.043
-656.901	800.000	0.187	-0.540
-655.886	-15.346	0.301	0.194
-654.872	-19.290	1.215	0.760
-653.857	-109.129	0.057	0.012
-652.843	592.480	0.191	0.476
-651.828	84.579	-0.131	-0.145
-650.814	-200.000	0.217	-0.969
-649.799	320.706	-0.237	-0.454
-648.784	-51.587	-0.152	0.071
-647.770	-200.000	-0.008	-0.633
-646.755	800.000	-0.261	-1.110
-645.741	-200.000	0.003	-0.517
-644.726	-200.000	-0.022	-0.735
-643.711	-37.866	0.308	0.165
-642.697	800.000	0.190	0.661
-641.682	8.523	0.559	0.424
-640.668	-200.000	-0.044	0.484
-639.653	482.661	-0.098	0.224
-638.638	-200.000	-0.093	-0.877
-637.624	747.524	0.100	-0.272
-636.609	501.496	0.139	0.324
-635.595	800.000	0.143	-0.484
-634.580	17.671	-0.205	0.164
-633.565	-38.080	-0.674	0.361
-632.551	287.488	-0.118	-0.215
-631.536	-12.637	0.419	0.275
-630.522	800.000	0.073	0.289
-629.507	43.902	0.296	0.273
-628.492	769.440	-0.219	-0.599
-627.478	172.458	-0.137	0.199
-626.463	-179.465	0.738	-0.016
-625.449	-14.170	-0.184	-0.120
-624.434	-200.000	-0.084	0.843
-623.419	-20.986	0.798	0.492
-622.405	800.000	0.133	-0.427
-621.390	-200.000	-0.004	0.233
-620.376	-200.000	-0.018	-0.412
-619.361	47.428	0.070	0.066
-618.346	-200.000	0.038	-0.254
-617.332	-189.435	0.431	0.005
-616.317	-200.000	0.174	0.773
-615.303	-63.742	-0.329	-0.136
-614.288	-200.000	0.044	-0.211
-613.273	500.444	-0.063	-0.147
-612.259	-200.000	-0.019	-0.484
-611.244	-19.194	-0.217	-0.135
-610.230	37.426	-0.140	-0.125
-609.215	-55.213	-0.142	0.064
-608.201	677.484	0.196	-0.512
-607.186	622.063	-0.136	-0.344
-606.171	800.000	-0.187	-0.633
-605.157	-29.878	-0.086	0.049
-604.142	-12.167	-0.535	-0.352
-603.128	242.972	-0.192	0.324
-602.113	120.597	-0.157	0.196
-601.098	-108.836	0.121	0.026
-600.084	172.586	-0.588	-0.852
-599.069	138.510	0.367	0.485
-598.055	46.918	-0.494	0.462
-597.040	-94.484	-0.329	-0.090
-596.025	27.741	-0.773	-0.655
-595.011	285.772	-0.221	0.402
-593.996	131.018	-0.159	0.205
-592.982	-130.809	0.297	0.040
-591.967	800.000	-0.042	0.152
-590.952	-4.541	0.249	-0.173
-589.938	-193.948	0.272	-0.002
-588.923	-42.868	-0.250	-0.128
-587.909	-200.000	0.080	0.438
-586.894	800.000	-0.169	0.543
-585.879	-170.245	0.664	0.024
-584.865	372.180	0.166	0.339
-583.850	266.296	-0.238	-0.418
-582.836	-184.984	-0.207	-0.003
-581.821	-99.996	-0.511	-0.128
-580.806	-44.288	0.093	-0.047
-579.792	-64.081	0.459	0.188
-578.777	-200.000	0.032	0.437
-577.763	16.786	-0.356	0.284
-576.748	-195.947	0.492	-0.004
-575.733	123.498	0.356	0.449
-574.719	173.227	-0.180	0.261
-573.704	-42.179	0.258	-0.133
-572.690	-62.688	-0.676	-0.282
-571.675	-200.000	-0.018	-0.902
-570.661	800.000	-0.020	-0.061
-569.646	170.998	0.186	0.267
-568.631	778.787	0.195	0.535
-567.617	263.814	-0.100	0.175
-566.602	125.432	0.544	-0.690
-565.588	800.000	-0.133	-0.550
-564.573	608.861	-0.081	-0.203
-563.558	81.426	-0.196	-0.213
-562.544	-178.711	0.612	0.014
-561.529	-94.622	0.340	0.093
-560.515	-68.534	0.208	0.081
-559.500	-7.766	0.383	0.260
-558.485	800.000	-0.171	-0.532
-557.471	-200.000	-0.080	-0.995
-556.456	32.892	-0.329	-0.286
-555.442	-85.997	0.479	0.149
-554.427	-44.937	-0.669	0.334
-553.412	66.247	0.808	-0.824
-552.398	80.722	-0.152	0.165
-551.383	-63.728	0.492	0.203
-550.369	22.458	-0.903	-0.741
-549.354	800.000	-0.075	-0.282
-548.339	13.156	0.190	-0.148
-547.325	35.184	-0.381	0.335
-546.310	-53.651	-0.476	0.218
-545.296	242.889	-0.105	-0.176
-544.281	-84.566	-0.160	-0.051
-543.266	664.271	0.202	0.525
-542.252	-153.334	-0.174	0.012
-541.237	146.771	-0.516	0.696
-540.223	91.007	0.576	0.649
-539.208	767.607	0.376	-1.027
-538.193	-110.751	-0.552	0.114
-537.179	-199.153	1.064	-0.006
-536.164	-92.821	-0.810	0.227
-535.150	18.498	-0.222	-0.178
-534.135	265.088	-0.266	-0.465
-533.121	-30.256	0.828	0.472
-532.106	-52.399	-1.055	0.490
-531.091	0.200	-0.340	-0.243
-530.077	-200.000	-0.035	-0.204
-529.062	-62.784	-1.164	-0.484
-528.048	131.487	0.113	0.146
-527.033	-8.387	0.239	-0.161
-526.018	306.450	0.357	0.667
-525.004	759.894	-0.171	0.465
-523.989	107.510	-0.293	-0.349
-522.975	-200.000	0.002	-0.157
-521.960	-32.637	0.759	-0.424
-520.945	-200.000	-0.008	0.588
-519.931	-90.815	0.376	0.109
-518.916	-108.517	-0.161	-0.035
-517.902	-57.834	0.125	0.055
-516.887	-200.000	-0.074	-0.365
-515.872	-58.733	0.296	-0.128
-514.858	-65.983	0.562	0.225
-513.843	-18.130	-1.094	0.686
-512.829	-200.000	0.027	-0.187
-511.814	-153.273	0.624	0.044
-510.799	-200.000	0.003	0.680
-509.785	109.016	0.384	-0.460
-508.770	658.097	-0.134	0.345
-507.756	-10.969	-0.518	0.343
-506.741	-22.306	-0.820	0.498
-505.726	18.997	0.155	-0.124
-504.712	105.618	0.298	-0.353
-503.697	17.741	-0.797	0.636
-502.683	800.000	0.232	-0.992
-501.668	260.672	-0.386	-0.669
-500.653	3.696	0.394	0.288
-499.639	800.000	0.205	0.844
-498.624	-68.870	0.513	0.199
-497.610	-175.558	-0.784	0.021
-496.595	20.909	-0.433	-0.351
-495.581	-200.000	0.102	0.566
-494.566	79.545	0.361	0.388
-493.551	-200.000	0.166	-0.739
-492.537	-69.788	0.238	-0.091
-491.522	-22.047	-0.232	0.141
-490.508	62.778	-0.374	0.374
-489.493	94.665	0.308	-0.351
-488.478	800.000	-0.077	0.317
-487.464	800.000	0.214	-0.647
-486.449	-102.334	-0.208	0.050
-485.435	-200.000	-0.011	0.162
-484.420	-57.636	-0.514	-0.226
-483.405	-23.977	-0.962	0.576
-482.391	-127.783	-0.913	-0.132
-481.376	-91.190	0.777	0.223
-480.362	-200.000	-0.043	0.260
-479.347	15.190	0.386	0.303
-478.332	-200.000	-0.027	0.539
-477.318	21.999	0.805	0.657
-476.303	-200.000	-0.030	0.199
-475.289	196.021	0.185	-0.281
-474.274	29.817	-0.273	0.233
-473.259	57.146	0.033	0.032
-472.245	682.064	-0.240	0.626
-471.230	-7.318	-0.130	0.088
-470.216	-47.669	-0.486	0.236
-469.201	-137.389	0.165	-0.019
-468.186	3.764	0.850	0.621
-467.172	-200.000	0.059	0.445
-466.157	-200.000	-0.078	-0.620
-465.143	-182.348	1.244	-0.023
-464.128	-105.345	0.694	0.158
-463.113	-118.811	-0.949	0.167
-462.099	-104.710	0.914	0.211
-461.084	66.340	0.318	0.323
-460.070	60.454	0.078	0.077
-459.055	800.000	0.173	-0.589
-458.040	86.032	0.244	-0.268
-457.026	-45.942	-0.513	-0.253
-456.011	-34.883	-0.450	0.246
-454.997	-200.000	0.698	0.001
-453.982	-58.789	1.033	-0.447
-452.968	-37.968	-0.340	0.180
-451.953	418.001	0.296	0.633
-450.938	-61.775	-0.732	-0.307
-449.924	800.000	-0.216	-0.686
-448.909	-74.517	-0.309	0.111
-447.895	800.000	-0.050	-0.165
-446.880	-37.126	-0.493	0.264
-445.865	119.665	0.240	0.298
-444.851	-200.000	-0.222	1.074
-443.836	-200.000	0.026	0.279
-442.822	-138.735	-0.662	-0.072
-441.807	185.074	0.484	-0.718
-440.792	-153.279	-0.096	-0.007
-439.778	-17.147	0.250	0.158
-438.763	-177.302	-0.623	-0.015
-437.749	-200.000	-0.013	-0.432
-436.734	-161.623	0.595	-0.030
-435.719	-84.707	-0.273	-0.086
-434.705	51.994	-0.492	-0.468
-433.690	-200.000	-0.117	0.624
-432.676	-88.435	0.281	-0.084
-431.661	-116.541	0.151	0.028
-430.646	-122.144	-0.816	0.134
-429.632	-200.000	0.014	-0.482
-428.617	659.223	0.189	0.487
-427.603	-0.841	-0.085	0.060
-426.588	31.910	0.596	-0.513
-425.573	46.425	0.383	0.355
-424.559	-93.983	-0.398	0.109
-423.544	132.581	-0.432	-0.556
-422.530	-200.000	0.006	1.053
-421.515	-57.195	-0.968	0.426
-420.500	135.707	-0.168	-0.218
-419.486	575.046	-0.159	-0.389
-418.471	-200.000	-0.052	0.956
-417.457	-10.042	0.127	0.084
-416.442	-200.000	0.034	-0.385
-415.428	800.000	-0.154	0.478
-414.413	26.233	0.453	0.378
-413.398	20.038	0.897	0.722
-412.384	-93.478	-0.406	0.112
-411.369	509.053	-0.180	-0.418
-410.355	134.178	-0.411	-0.532
-409.340	551.819	-0.118	0.282
-408.325	-15.164	-0.168	0.107
-407.311	-16.943	0.367	0.231
-406.296	-57.091	0.686	-0.302
-405.282	-41.227	0.880	-0.453
-404.267	-200.000	-0.052	-0.445
-403.252	-102.778	-0.648	-0.154
-402.238	-29.267	0.522	-0.298
-401.223	-6.124	-1.052	0.718
-400.209	-121.363	0.140	0.023
-399.194	-59.512	-0.817	-0.350
-398.179	-200.000	-0.002	-0.164
-397.165	800.000	-0.134	-0.369
-396.150	450.611	0.348	-0.767
-395.136	-117.034	0.570	-0.104
-394.121	42.327	0.150	-0.136
-393.106	-24.204	0.492	-0.293
-392.092	800.000	0.108	0.345
-391.077	403.501	-0.329	0.692
-390.063	284.118	-0.222	-0.398
-389.048	35.812	0.283	-0.248
-388.033	51.112	-0.178	0.169
-387.019	-61.608	-0.690	0.289
-386.004	413.044	-0.571	1.210
-384.990	-123.570	-0.183	-0.029
-383.975	10.842	0.363	-0.276
-382.960	-200.000	0.150	1.164
-381.946	97.600	0.336	-0.385
-380.931	-100.275	-0.517	0.128
-379.917	-130.599	-0.439	0.059
-378.902	-38.932	-0.588	-0.309
-377.888	613.032	-0.067	-0.168
-376.873	-93.093	0.300	-0.083
-375.858	547.237	-0.244	-0.582
-374.844	31.713	-0.045	0.039
-373.829	34.332	0.384	0.334
-372.815	-65.241	-0.108	0.043
-371.800	-66.981	-0.661	0.260
-370.785	-200.000	-0.086	0.435
-369.771	210.697	-0.295	-0.462
-368.756	-200.000	0.037	0.511
-367.742	-26.330	-0.385	-0.225
-366.727	-40.889	-0.421	-0.217
-365.712	-106.043	-0.470	-0.105
-364.698	-160.977	0.566	-0.030
-363.683	383.863	-0.042	0.086
-362.669	-46.150	0.482	-0.237
-361.654	-200.000	-0.009	0.212
-360.639	-50.187	0.126	-0.059
-359.625	-133.245	0.722	-0.091
-358.610	-14.158	-0.424	0.272
-357.596	90.659	-0.310	-0.346
-356.581	780.318	-0.078	-0.212
-355.566	-126.521	0.491	-0.073
-354.552	-47.663	0.276	0.133
-353.537	-159.199	0.376	0.021
-352.523	-140.574	-0.054	0.006
-351.508	-48.070	0.743	0.358
-350.493	800.000	-0.112	-0.482
-349.479	34.338	0.402	-0.349
-348.464	97.531	0.542	-0.620
-347.450	-115.610	-0.558	-0.104
-346.435	-109.752	-0.213	-0.045
-345.420	659.466	-0.100	-0.257
-344.406	-83.259	0.480	-0.154
-343.391	800.000	-0.248	0.845
-342.377	-64.184	-0.407	-0.165
-341.362	-127.669	-0.502	-0.072
-340.348	56.057	-0.097	0.094
-339.333	-145.090	0.427	-0.039
-338.318	-200.000	-0.014	-0.295
-337.304	-105.352	0.758	0.172
-336.289	-7.133	-0.568	-0.383
-335.275	14.346	-1.027	-0.797
-334.260	-200.000	-0.002	0.441
-333.245	800.000	0.144	-0.493
-332.231	-142.630	0.992	-0.097
-331.216	-170.178	0.523	-0.018
-330.202	-127.362	0.542	-0.079
-329.187	-200.000	-0.076	-1.031
-328.172	99.547	-0.359	0.413
-327.158	-200.000	0.014	0.369
-326.143	207.901	-0.283	0.440
-325.129	436.871	0.065	0.142
-324.114	-196.561	-0.124	-0.001
-323.099	-47.768	0.323	0.156
-322.085	136.033	-0.231	0.299
-321.070	28.137	0.469	0.394
-320.056	-138.346	0.306	-0.034
-319.041	800.000	-0.027	-0.073
-318.026	-200.000	-0.019	-0.388
-317.012	215.217	-0.260	0.410
-315.997	-200.000	-0.106	0.464
-314.983	-147.778	-0.146	0.012
-313.968	-47.542	0.579	-0.280
-312.953	-95.857	0.046	-0.012
-311.939	34.692	-0.546	0.475
-310.924	-200.000	0.029	0.825
-309.910	-200.000	0.020	0.190
-308.895	-99.537	0.515	0.129
-307.880	-200.000	0.136	0.626
-306.866	81.946	-0.243	-0.262
-305.851	-161.720	0.458	0.023
-304.837	116.304	0.390	0.475
-303.822	265.120	-0.167	0.289
-302.807	132.048	0.478	0.611
-301.793	-105.291	-0.281	-0.064
-300.778	-113.743	0.542	-0.105
-299.764	-200.000	-0.097	0.438
-298.749	390.450	-0.283	-0.583
-297.735	-200.000	-0.010	0.165
-296.720	-47.678	0.472	0.228
-295.705	177.075	-0.129	-0.187
-294.691	800.000	0.098	-0.277
-293.676	-200.000	0.497	0.000
-292.662	-200.000	0.037	0.325
-291.647	591.254	-0.171	-0.419
-290.632	-31.793	-0.516	0.288
-289.618	41.234	0.688	-0.618
-288.603	-122.783	0.195	-0.031
-287.589	-70.973	-0.305	0.114
-286.574	-112.943	0.410	-0.081
-285.559	640.367	0.274	-0.694
-284.545	800.000	0.047	-0.198
-283.530	93.084	0.139	-0.156
-282.516	-200.000	-0.015	-0.727
-281.501	299.092	0.564	1.032
-280.486	36.904	-1.394	1.224
-279.472	346.202	-0.130	0.254
-278.457	6.787	0.774	-0.572
-277.443	205.068	0.430	0.663
-276.428	190.491	0.462	-0.689
-275.413	95.203	-0.523	-0.592
-274.399	266.867	0.215	0.373
-273.384	-53.657	0.132	-0.060
-272.370	311.586	0.201	0.373
-271.355	-200.000	0.074	-0.365
-270.340	-32.046	-0.729	-0.405
-269.326	61.908	-0.196	-0.194
-268.311	82.781	0.365	-0.394
-267.297	-145.789	0.074	-0.007
-266.282	-200.000	0.045	0.712
-265.267	800.000	0.053	0.166
-264.253	566.746	-0.146	-0.353
-263.238	-91.590	-0.804	0.227
-262.224	-200.000	0.030	-0.163
-261.209	-84.417	-0.481	-0.151
-260.195	-125.614	0.548	0.083
-259.180	-85.141	0.608	0.189
-258.165	800.000	-0.161	-0.632
-257.151	175.938	0.231	-0.333
-256.136	323.585	0.224	0.424
-255.122	-50.785	-0.511	-0.239
-254.107	-13.557	0.496	-0.319
-253.092	-71.533	-1.164	0.432
-252.078	504.975	-0.216	0.496
-251.063	800.000	0.207	-0.702
-250.049	518.822	-0.250	0.582
-249.034	-200.000	-0.014	0.114
-248.019	193.839	0.125	-0.188
-247.005	-30.953	-0.766	-0.429
-245.990	182.746	0.523	-0.765
-244.976	-200.000	-0.148	-0.671
-243.961	176.641	-0.308	-0.445
-242.946	-155.531	-0.834	0.053
-241.932	164.688	0.251	-0.351
-240.917	-81.835	0.699	0.227
-239.903	800.000	0.238	-0.727
-238.888	16.264	0.087	-0.068
-237.873	-65.413	0.279	-0.111
-236.859	-109.094	-0.385	0.081
-235.844	201.228	-0.280	-0.427
-234.830	-20.498	0.594	-0.362
-233.815	115.369	0.510	-0.618
-232.800	-68.853	0.858	-0.329
-231.786	-149.707	-0.332	0.026
-230.771	93.150	0.159	0.179
-229.757	-180.100	-0.315	-0.007
-228.742	-29.651	-0.062	0.035
-227.727	-60.899	0.031	0.013
-226.713	15.191	-0.706	-0.549
-225.698	48.506	0.667	-0.620
-224.684	255.203	0.392	0.666
-223.669	77.723	0.618	-0.653
-222.655	-64.801	-0.440	0.177
-221.640	2.006	0.345	0.247
-220.625	-32.956	0.011	-0.006
-219.611	-8.956	0.523	-0.347
-218.596	-200.000	0.157	0.834
-217.582	384.307	-0.248	0.506
-216.567	-117.437	0.195	-0.035
-215.552	-146.303	-0.303	0.026
-214.538	46.976	0.829	0.764
-213.523	204.546	-0.106	0.163
-212.509	56.951	-0.186	0.179
-211.494	62.434	-0.311	-0.308
-210.479	-200.000	0.072	0.568
-209.465	-189.054	-0.435	-0.005
-208.450	-73.631	-0.998	-0.360
-207.436	377.615	-0.167	0.339
-206.421	87.564	0.493	0.540
-205.406	-129.426	-0.857	-0.118
-204.392	-200.000	0.129	-0.641
-203.377	800.000	0.195	0.839
-202.363	0.572	0.632	0.448
-201.348	-87.698	0.046	-0.014
-200.333	58.925	-0.283	-0.275
-199.319	427.288	-0.339	-0.724
-198.304	-200.000	-0.045	0.511
-197.290	-118.522	0.199	-0.035
-196.275	73.829	-0.328	-0.340
-195.260	20.293	0.166	-0.133
-194.246	226.881	0.223	-0.359
-193.231	-200.000	0.064	0.614
-192.217	-87.146	-0.333	-0.100
-191.202	53.838	0.332	0.316
-190.187	-99.101	-0.123	-0.031
-189.173	800.000	0.112	0.476
-188.158	-45.932	0.947	0.463
-187.144	-96.513	-0.734	0.192
-186.129	-88.257	0.512	-0.152
-185.114	416.718	0.053	0.112
-184.100	-59.760	0.176	0.074
-183.085	3.707	0.411	-0.297
-182.071	1.491	-0.388	0.276
-181.056	-48.379	0.585	-0.279
-180.042	120.102	0.433	0.531
-179.027	-200.000	-0.030	-0.808
-178.012	13.016	-0.166	-0.127
-176.998	136.066	-0.259	-0.334
-175.983	205.185	0.137	-0.210
-174.969	20.559	0.352	0.282
-173.954	59.125	0.227	0.221
-172.939	800.000	-0.093	0.355
-171.925	133.583	-0.186	-0.238
-170.910	29.396	-0.356	0.300
-169.896	-200.000	0.026	-0.490
-168.881	-200.000	-0.026	0.447
-167.866	44.824	0.032	-0.029
-166.852	17.745	-0.236	0.186
-165.837	113.406	-0.506	0.608
-164.823	21.963	0.285	-0.230
-163.808	-200.000	0.157	-0.945
-162.793	-36.751	-0.589	-0.313
-161.779	-133.580	0.623	-0.077
-160.764	246.125	-0.367	-0.612
-159.750	-200.000	-0.052	0.487
-158.735	460.058	-0.200	0.440
-157.720	304.251	-0.273	0.501
-156.706	235.137	0.110	0.180
-155.691	-200.000	0.009	-0.132
-154.677	-200.000	0.129	-0.576
-153.662	-69.148	-0.800	-0.304
-152.647	-71.310	0.473	-0.175
-151.633	26.909	-0.612	-0.507
-150.618	608.791	-0.143	-0.353
-149.604	163.769	0.171	-0.238
-148.589	353.584	0.233	0.458
-147.574	-7.100	-0.054	0.036
-146.560	-200.000	-0.014	0.314
-145.545	-200.000	-0.001	-0.675
-144.531	-200.000	0.004	-0.255
-143.516	243.621	-0.045	-0.074
-142.502	663.423	0.079	0.201
-141.487	175.653	-0.292	0.419
-140.472	-200.000	0.070	-0.481
-139.458	800.000	0.145	-0.544
-138.443	-117.214	-1.224	0.220
-137.429	716.393	-0.351	-0.921
-136.414	-46.835	0.323	0.156
-135.399	-147.591	0.378	0.031
-134.385	66.426	0.086	0.086
-133.370	140.343	0.546	-0.712
-132.356	125.636	-0.749	-0.934
-131.341	212.080	-0.221	-0.344
-130.326	-37.931	-0.234	0.123
-129.312	-88.902	-0.922	0.270
-128.297	-94.097	-0.138	-0.037
-127.283	-3.532	0.945	-0.649
-126.268	126.235	-0.425	-0.531
-125.253	-200.000	0.058	-0.743
-124.239	626.400	0.154	0.384
-123.224	192.523	-0.494	0.736
-122.210	2.806	0.310	0.222
-121.195	-200.000	0.139	-0.644
