DTS Sentinel unit serial number:	SN413079Multiplexer serial number:	ORYXHardware model number:	OX4-SRSoftware version number:	ORYX F/W v4.00 Oryx Data Collector v3.7.2.0data status	okinstallation	princeton_trtdifferential loss correction	single-endedforward channel	channel 3reverse channel	N/Adate	2019/09/19time	05:52:34forward acquisition time	60.00reverse acquisition time	0.00gamma	496.2192k internal	0.2348k external	0.2348temperature offset calibration	0.9989default loss term (dB/km)	0.3790temperature slope calibration	1.0000multiplexer offset coefficient	1.0000multiplexer slope coefficient	1.0000fibre end	0.00T internal ref (°C)	19.22T ext. ref 1 (°C)	0.58T ext. ref 2 (°C)	12.74length (m)	temperature (°C)	Stokes	anti-Stokes-747.200	-58.682	0.191	-0.083
-746.185	-200.000	0.047	0.322
-745.171	50.933	0.214	-0.203
-744.156	-99.900	0.147	0.037
-743.142	-97.427	-0.118	-0.031
-742.127	-200.000	0.002	0.322
-741.112	334.470	0.206	0.398
-740.098	800.000	0.049	-0.183
-739.083	266.109	0.194	-0.338
-738.069	110.036	0.098	-0.117
-737.054	-200.000	-0.020	0.196
-736.039	-151.625	-0.141	-0.010
-735.025	-113.491	-0.057	-0.011
-734.010	-27.849	-0.206	-0.119
-732.996	-60.097	-0.096	-0.041
-731.981	201.714	-0.082	-0.126
-730.966	-117.271	-0.196	-0.036
-729.952	-52.360	0.077	-0.036
-728.937	-200.000	-0.020	0.146
-727.923	800.000	-0.086	-0.240
-726.908	-41.889	-0.061	-0.031
-725.894	65.594	-0.303	-0.306
-724.879	-200.000	-0.010	-0.517
-723.864	-200.000	-0.017	-0.095
-722.850	124.023	-0.406	-0.509
-721.835	-24.612	0.110	-0.066
-720.821	-91.626	-0.236	-0.067
-719.806	-113.679	0.343	-0.067
-718.791	-104.687	-0.448	0.103
-717.777	-1.432	-0.299	-0.211
-716.762	303.046	-0.087	0.162
-715.748	141.136	0.096	0.127
-714.733	48.831	0.288	-0.270
-713.718	-200.000	-0.001	0.117
-712.704	311.760	-0.109	-0.205
-711.689	-161.805	0.503	0.026
-710.675	-200.000	-0.024	-0.431
-709.660	-90.614	-0.469	-0.135
-708.645	-23.106	-0.324	-0.195
-707.631	-146.615	0.236	0.020
-706.616	86.526	-0.167	-0.184
-705.602	-200.000	0.051	-0.376
-704.587	-95.477	0.130	-0.035
-703.572	-107.148	0.100	0.022
-702.558	130.352	0.156	-0.199
-701.543	58.568	0.130	0.127
-700.529	131.336	-0.166	-0.213
-699.514	-103.883	-0.215	-0.050
-698.499	-125.493	0.131	0.020
-697.485	74.441	-0.099	0.104
-696.470	-200.000	0.004	-0.224
-695.456	153.390	0.226	-0.309
-694.441	-46.419	-0.080	0.039
-693.426	212.404	-0.063	0.100
-692.412	800.000	0.020	-0.074
-691.397	-200.000	0.007	0.131
-690.383	-200.000	0.041	-0.320
-689.368	292.529	-0.157	-0.286
-688.354	-40.044	-0.251	-0.130
-687.339	800.000	-0.067	-0.192
-686.324	-80.069	-0.243	-0.081
-685.310	-110.953	0.109	-0.022
-684.295	-43.676	-0.239	0.120
-683.281	58.421	0.115	0.113
-682.266	497.300	-0.122	-0.280
-681.251	16.641	-0.145	-0.114
-680.237	77.136	-0.228	0.242
-679.222	-200.000	-0.042	0.248
-678.208	698.878	0.112	0.294
-677.193	426.231	0.167	0.359
-676.178	-24.267	-0.230	0.137
-675.164	23.727	0.174	0.143
-674.149	-66.760	-0.297	-0.117
-673.135	276.913	-0.033	0.058
-672.120	-200.000	0.006	0.049
-671.105	76.913	-0.152	-0.161
-670.091	-200.000	0.012	0.101
-669.076	585.380	0.051	-0.124
-668.062	-94.155	-0.356	-0.097
-667.047	-138.624	-0.151	0.016
-666.032	-200.000	-0.016	-0.149
-665.018	103.302	-0.059	-0.069
-664.003	-200.000	-0.041	0.200
-662.989	25.121	0.176	0.145
-661.974	-60.529	-0.184	-0.078
-660.959	-114.309	-0.328	-0.063
-659.945	-60.507	0.150	-0.063
-658.930	120.861	-0.052	-0.065
-657.916	-200.000	-0.078	-0.467
-656.901	111.881	0.060	-0.072
-655.886	328.033	-0.116	-0.221
-654.872	-200.000	-0.026	-0.266
-653.857	-200.000	0.018	-0.079
-652.843	186.522	-0.265	0.392
-651.828	-71.709	-0.177	0.066
-650.814	-57.474	-0.225	-0.098
-649.799	-67.859	-0.074	-0.029
-648.784	-200.000	-0.028	-0.157
-647.770	800.000	0.042	-0.182
-646.755	-102.749	0.233	0.055
-645.741	44.485	-0.255	0.233
-644.726	-200.000	0.009	-0.180
-643.711	-200.000	-0.013	0.371
-642.697	413.634	0.150	0.318
-641.682	-200.000	0.007	0.053
-640.668	800.000	0.053	-0.207
-639.653	146.073	-0.294	0.392
-638.638	-200.000	-0.006	-0.192
-637.624	564.612	-0.047	0.113
-636.609	789.405	-0.160	0.438
-635.595	-124.500	0.281	0.043
-634.580	87.992	-0.158	0.175
-633.565	95.968	0.186	0.212
-632.551	235.334	0.088	-0.145
-631.536	449.310	-0.044	0.097
-630.522	-200.000	-0.056	-0.261
-629.507	69.751	0.113	-0.116
-628.492	-63.783	-0.384	-0.156
-627.478	69.272	-0.243	-0.249
-626.463	-200.000	-0.018	-0.146
-625.449	800.000	0.033	-0.121
-624.434	257.770	0.197	-0.337
-623.419	177.652	0.073	-0.106
-622.405	359.278	0.103	-0.206
-621.390	5.982	0.098	0.072
-620.376	9.850	-0.167	-0.126
-619.361	-200.000	0.008	-0.118
-618.346	-29.412	0.388	0.221
-617.332	-169.584	-0.168	0.006
-616.317	696.248	-0.093	0.242
-615.303	-106.124	-0.355	-0.079
-614.288	121.972	0.016	-0.020
-613.273	199.485	-0.200	-0.305
-612.259	0.603	0.054	-0.039
-611.244	-200.000	-0.038	-0.228
-610.230	670.761	-0.072	0.186
-609.215	517.279	0.109	0.253
-608.201	-128.364	-0.394	0.056
-607.186	-149.791	0.436	0.034
-606.171	211.468	0.108	0.169
-605.157	-51.223	0.257	-0.119
-604.142	101.657	0.112	-0.130
-603.128	-200.000	0.012	0.243
-602.113	-73.436	-0.407	-0.148
-601.098	39.646	-0.161	-0.143
-600.084	-200.000	-0.046	0.237
-599.069	-41.803	-0.074	-0.038
-598.055	-17.357	-0.310	-0.194
-597.040	-189.851	-0.487	-0.005
-596.025	-119.421	-0.097	0.017
-595.011	-200.000	-0.017	-0.358
-593.996	-123.471	-0.124	0.020
-592.982	32.550	-0.237	-0.203
-591.967	800.000	0.051	-0.223
-590.952	-165.099	0.023	-0.001
-589.938	-200.000	0.031	-0.139
-588.923	-12.793	-0.129	0.083
-587.909	-200.000	0.073	0.335
-586.894	-183.331	0.342	0.006
-585.879	-119.313	0.078	0.013
-584.865	271.382	-0.052	0.091
-583.850	-117.777	-0.251	-0.045
-582.836	546.715	-0.110	-0.261
-581.821	-37.363	-0.283	-0.150
-580.806	664.174	-0.068	0.175
-579.792	371.492	0.078	-0.158
-578.777	43.782	0.216	-0.196
-577.763	-200.000	-0.007	0.372
-576.748	-47.216	0.140	-0.068
-575.733	-200.000	-0.005	0.219
-574.719	-62.646	-0.268	0.110
-573.704	800.000	-0.029	0.083
-572.690	800.000	-0.102	-0.310
-571.675	201.704	-0.162	-0.248
-570.661	-200.000	-0.033	-0.336
-569.646	3.476	0.234	0.169
-568.631	-48.684	-0.127	0.061
-567.617	-49.484	-0.127	-0.060
-566.602	-84.469	-0.277	0.087
-565.588	100.265	0.155	-0.178
-564.573	800.000	0.047	0.135
-563.558	355.171	-0.036	-0.070
-562.544	-117.037	0.397	-0.072
-561.529	800.000	-0.015	-0.053
-560.515	200.029	-0.127	-0.193
-559.500	154.342	0.235	0.319
-558.485	134.917	-0.142	0.183
-557.471	-106.683	-0.173	0.038
-556.456	-5.042	-0.491	-0.335
-555.442	-200.000	0.004	0.138
-554.427	252.975	0.109	0.184
-553.412	150.405	0.287	0.387
-552.398	76.241	-0.047	-0.049
-551.383	248.112	0.133	0.224
-550.369	161.469	0.189	0.262
-549.354	-12.933	-0.140	0.090
-548.339	79.933	-0.065	-0.069
-547.325	-110.287	0.152	0.031
-546.310	800.000	0.014	-0.052
-545.296	26.895	0.352	0.293
-544.281	14.654	-0.213	-0.165
-543.266	418.994	0.044	0.093
-542.252	151.676	0.072	-0.097
-541.237	-200.000	0.026	0.178
-540.223	25.010	-0.230	-0.189
-539.208	21.322	-0.205	0.165
-538.193	93.307	-0.251	0.281
-537.179	-200.000	-0.040	-0.235
-536.164	98.011	-0.168	-0.191
-535.150	-108.141	-0.171	0.037
-534.135	561.163	-0.058	-0.140
-533.121	41.400	0.156	-0.140
-532.106	45.282	-0.040	0.036
-531.091	-200.000	-0.010	0.167
-530.077	211.478	0.192	0.299
-529.062	63.188	0.148	0.147
-528.048	-36.204	-0.126	-0.067
-527.033	-117.485	-0.238	0.043
-526.018	324.987	0.030	0.056
-525.004	9.873	-0.171	-0.129
-523.989	-156.663	0.261	0.016
-522.975	8.864	0.133	0.099
-521.960	253.927	-0.154	0.260
-520.945	-193.577	0.244	0.002
-519.931	-170.545	-0.349	0.012
-518.916	-54.294	0.028	0.013
-517.902	472.952	-0.118	0.264
-516.887	-0.550	0.194	0.136
-515.872	361.441	0.143	-0.283
-514.858	-128.651	-0.102	0.014
-513.843	77.599	-0.172	0.181
-512.829	-68.191	-0.268	0.103
-511.814	-146.678	-0.175	0.015
-510.799	-86.345	0.013	0.004
-509.785	-77.088	-0.275	0.095
-508.770	-143.139	0.413	-0.039
-507.756	-7.371	-0.267	-0.179
-506.741	20.055	-0.093	0.074
-505.726	800.000	-0.055	0.176
-504.712	-82.732	-0.421	0.135
-503.697	275.600	0.045	-0.078
-502.683	-200.000	-0.000	-0.032
-501.668	-105.305	0.398	-0.090
-500.653	566.312	-0.137	0.328
-499.639	-200.000	0.148	0.674
-498.624	156.191	-0.141	-0.193
-497.610	-5.424	-0.338	0.230
-496.595	316.798	0.087	0.163
-495.581	-111.840	-0.217	0.043
-494.566	578.971	0.147	0.355
-493.551	-59.381	-0.116	-0.049
-492.537	187.594	-0.092	0.136
-491.522	65.839	-0.258	0.259
-490.508	4.875	-0.146	-0.106
-489.493	325.525	0.117	-0.222
-488.478	-200.000	0.012	0.088
-487.464	38.108	0.056	0.050
-486.449	56.505	0.106	0.102
-485.435	319.218	-0.125	0.235
-484.420	-132.149	0.445	0.057
-483.405	-116.459	0.270	0.049
-482.391	-200.000	-0.060	-0.305
-481.376	133.572	0.188	-0.240
-480.362	-56.922	-0.173	0.075
-479.347	153.307	0.313	0.424
-478.332	-200.000	-0.024	0.269
-477.318	-200.000	0.059	-0.290
-476.303	-70.135	-0.356	0.134
-475.289	258.474	0.124	0.211
-474.274	59.068	0.050	-0.048
-473.259	800.000	0.013	-0.040
-472.245	-32.496	0.121	-0.066
-471.230	-17.737	-0.317	0.197
-470.216	54.163	-0.039	0.037
-469.201	-200.000	-0.133	0.001
-468.186	52.353	-0.106	-0.100
-467.172	170.161	-0.090	-0.128
-466.157	-200.000	-0.018	-0.214
-465.143	91.820	-0.288	0.320
-464.128	800.000	-0.050	0.209
-463.113	800.000	0.124	-0.440
-462.099	800.000	-0.085	-0.314
-461.084	237.154	0.119	-0.194
-460.070	-200.000	-0.021	-0.155
-459.055	359.720	-0.153	0.303
-458.040	-3.625	0.048	-0.033
-457.026	-69.595	-0.207	-0.078
-456.011	75.867	-0.101	0.105
-454.997	800.000	0.049	-0.203
-453.982	-152.217	-0.303	-0.022
-452.968	-76.245	0.408	0.142
-451.953	-200.000	0.028	0.134
-450.938	296.203	-0.138	-0.250
-449.924	3.756	-0.204	0.147
-448.909	-161.079	-0.198	0.010
-447.895	62.343	0.107	-0.106
-446.880	-21.345	0.109	0.066
-445.865	169.572	-0.051	-0.071
-444.851	-51.155	0.380	-0.176
-443.836	-95.724	-0.136	0.036
-442.822	231.478	-0.093	0.151
-441.807	-134.993	0.166	-0.020
-440.792	-200.000	-0.024	0.122
-439.778	-200.000	-0.051	-0.277
-438.763	141.423	0.076	-0.100
-437.749	-200.000	0.034	-0.315
-436.734	28.781	-0.109	0.091
-435.719	-200.000	-0.026	0.177
-434.705	-132.863	-0.253	-0.032
-433.690	286.827	-0.047	-0.085
-432.676	13.095	-0.108	0.082
-431.661	-19.718	-0.177	0.108
-430.646	760.554	-0.062	0.165
-429.632	139.835	-0.087	0.113
-428.617	-37.527	0.229	0.121
-427.603	46.949	-0.097	0.089
-426.588	-200.000	-0.042	0.202
-425.573	-200.000	-0.009	0.320
-424.559	19.597	-0.214	0.170
-423.544	-119.225	0.119	-0.020
-422.530	-33.677	0.138	0.075
-421.515	60.989	0.199	-0.195
-420.500	-148.786	-0.245	-0.020
-419.486	-100.765	0.396	-0.096
-418.471	7.682	0.435	0.321
-417.457	168.916	0.144	0.203
-416.442	57.395	-0.178	-0.172
-415.428	-89.133	-0.153	0.045
-414.413	-200.000	0.005	0.271
-413.398	-200.000	0.049	0.238
-412.384	571.382	0.126	0.301
-411.369	-200.000	0.015	0.189
-410.355	14.761	0.192	-0.148
-409.340	226.173	-0.162	-0.259
-408.325	-108.796	0.347	0.073
-407.311	800.000	-0.062	0.259
-406.296	238.974	0.115	0.188
-405.282	255.105	0.084	-0.141
-404.267	288.992	0.032	0.058
-403.252	800.000	-0.026	-0.108
-402.238	-54.903	0.278	-0.124
-401.223	35.225	0.097	-0.084
-400.209	4.842	0.132	-0.096
-399.194	-154.500	-0.364	0.024
-398.179	13.438	0.146	0.112
-397.165	31.712	-0.206	-0.174
-396.150	-29.307	0.295	-0.167
-395.136	724.331	-0.113	0.298
-394.121	800.000	-0.064	-0.244
-393.106	133.018	0.069	-0.088
-392.092	526.651	0.064	-0.149
-391.077	174.264	0.263	-0.374
-390.063	311.065	-0.016	0.029
-389.048	800.000	-0.097	-0.264
-388.033	-26.795	0.078	-0.045
-387.019	216.269	0.068	0.106
-386.004	655.372	-0.050	0.126
-384.990	800.000	0.130	0.490
-383.975	253.463	-0.188	0.316
-382.960	-60.630	0.054	-0.023
-381.946	-89.820	0.397	0.114
-380.931	145.978	0.079	-0.104
-379.917	-200.000	-0.015	-0.098
-378.902	-16.525	-0.211	-0.131
-377.888	-200.000	-0.017	-0.125
-376.873	800.000	0.095	0.301
-375.858	386.798	-0.093	-0.189
-374.844	-85.849	0.346	-0.106
-373.829	-35.063	-0.276	-0.148
-372.815	33.510	-0.165	0.141
-371.800	-26.156	-0.267	0.154
-370.785	345.410	0.113	-0.219
-369.771	62.971	-0.116	-0.115
-368.756	-85.282	0.267	-0.082
-367.742	407.465	-0.117	0.243
-366.727	800.000	0.075	0.292
-365.712	-69.380	0.279	0.105
-364.698	-42.714	-0.036	-0.018
-363.683	748.360	-0.134	-0.355
-362.669	414.735	0.078	0.163
-361.654	-105.835	0.343	0.076
-360.639	-200.000	0.032	-0.311
-359.625	-200.000	0.029	0.156
-358.610	0.532	0.166	-0.117
-357.596	-123.326	0.083	-0.013
-356.581	530.630	-0.034	0.079
-355.566	-161.926	0.024	-0.001
-354.552	40.791	-0.076	-0.067
-353.537	800.000	-0.035	-0.106
-352.523	54.457	0.148	-0.141
-351.508	-159.060	-0.202	-0.011
-350.493	-28.948	-0.331	-0.187
-349.479	43.746	0.097	-0.087
-348.464	-200.000	-0.009	-0.138
-347.450	800.000	-0.123	-0.338
-346.435	-149.700	0.243	-0.019
-345.420	20.224	-0.202	-0.160
-344.406	-132.009	0.347	-0.044
-343.391	-4.671	0.011	0.007
-342.377	346.667	0.081	0.157
-341.362	233.747	0.158	-0.256
-340.348	-44.191	-0.286	0.141
-339.333	800.000	0.059	0.243
-338.318	-118.096	-0.218	-0.038
-337.304	83.322	0.128	0.137
-336.289	800.000	-0.021	-0.075
-335.275	-21.158	-0.236	-0.142
-334.260	34.338	-0.133	0.114
-333.245	-136.267	-0.019	-0.002
-332.231	756.146	-0.099	-0.265
-331.216	-200.000	-0.037	-0.205
-330.202	-20.711	0.426	-0.257
-329.187	366.875	0.085	0.169
-328.172	-128.160	0.453	0.064
-327.158	-141.685	-0.148	-0.015
-326.143	-112.405	-0.245	-0.048
-325.129	-46.017	-0.058	0.028
-324.114	130.649	0.125	-0.158
-323.099	-60.615	0.171	0.071
-322.085	40.006	0.218	0.192
-321.070	-200.000	0.032	-0.297
-320.056	-200.000	-0.064	-0.405
-319.041	-4.420	0.221	-0.150
-318.026	-93.123	0.159	-0.044
-317.012	-5.877	-0.117	0.079
-315.997	-64.044	-0.386	0.155
-314.983	800.000	0.029	0.089
-313.968	800.000	-0.198	-0.624
-312.953	620.780	-0.163	-0.402
-311.939	-163.042	-0.150	0.007
-310.924	-200.000	0.008	0.043
-309.910	-200.000	-0.003	0.131
-308.895	-63.587	0.281	0.113
-307.880	38.723	-0.086	0.076
-306.866	500.883	0.142	-0.321
-305.851	221.119	0.122	-0.192
-304.837	296.487	-0.040	0.072
-303.822	372.323	-0.180	0.360
-302.807	-128.451	0.151	0.021
-301.793	355.825	-0.191	0.374
-300.778	160.007	0.087	0.119
-299.764	-50.076	0.190	-0.088
-298.749	20.104	0.192	-0.152
-297.735	61.611	-0.114	0.112
-296.720	-200.000	-0.028	0.262
-295.705	-200.000	-0.021	-0.282
-294.691	-84.921	0.254	0.078
-293.676	-94.605	-0.321	-0.086
-292.662	800.000	-0.057	-0.181
-291.647	-200.000	0.005	0.230
-290.632	265.175	0.120	-0.206
-289.618	22.543	0.039	0.031
-288.603	-7.917	0.157	0.104
-287.589	67.628	0.164	0.164
-286.574	-125.966	0.418	0.062
-285.559	-200.000	-0.005	0.310
-284.545	-6.973	-0.089	0.060
-283.530	74.796	0.080	-0.083
-282.516	151.234	0.101	-0.135
-281.501	681.370	0.088	0.225
-280.486	-43.322	0.519	0.258
-279.472	28.839	-0.110	-0.091
-278.457	-72.035	0.201	-0.073
-277.443	-200.000	0.000	-0.404
-276.428	4.409	0.202	0.145
-275.413	-30.918	-0.261	0.144
-274.399	187.697	0.173	-0.253
-273.384	180.474	0.184	-0.265
-272.370	-200.000	0.008	-0.262
-271.355	-200.000	-0.029	-0.137
-270.340	-200.000	-0.039	0.247
-269.326	-200.000	-0.001	0.096
-268.311	-73.719	0.300	-0.107
-267.297	-98.037	-0.148	-0.037
-266.282	201.867	0.191	-0.289
-265.267	-194.127	0.239	0.002
-264.253	800.000	-0.104	0.308
-263.238	52.130	0.285	0.267
-262.224	-39.224	0.140	-0.072
-261.209	277.648	-0.139	0.242
-260.195	-200.000	0.045	0.465
-259.180	-200.000	-0.056	-0.295
-258.165	18.643	0.161	-0.126
-257.151	464.273	0.172	-0.376
-256.136	-200.000	0.011	0.125
-255.122	-144.829	0.276	-0.025
-254.107	223.606	-0.269	-0.426
-253.092	-161.370	-0.123	0.006
-252.078	671.364	0.086	-0.218
-251.063	-155.864	0.214	-0.013
-250.049	-200.000	0.035	0.151
-249.034	-63.654	-0.317	0.128
-248.019	-55.512	0.107	0.047
-247.005	-200.000	0.257	0.000
-245.990	27.257	0.187	0.153
-244.976	242.553	-0.215	0.352
-243.961	158.835	-0.118	-0.160
-242.946	-200.000	0.025	0.137
-241.932	-105.656	-0.127	-0.028
-240.917	-200.000	-0.022	0.162
-239.903	84.569	0.246	0.263
-238.888	-59.016	-0.218	0.092
-237.873	-128.405	-0.017	0.002
-236.859	-24.169	0.186	0.109
-235.844	60.104	-0.317	0.307
-234.830	53.125	-0.104	0.098
-233.815	-125.500	0.167	-0.025
-232.800	23.748	-0.286	0.231
-231.786	-3.281	-0.214	0.146
-230.771	80.415	0.060	-0.063
-229.757	-41.543	0.220	0.111
-228.742	-113.503	-0.223	-0.043
-227.727	-174.266	-0.058	0.002
-226.713	-0.819	-0.417	-0.289
-225.698	-200.000	-0.018	0.136
-224.684	-200.000	-0.008	-0.052
-223.669	-16.686	-0.207	0.128
-222.655	332.772	0.153	0.289
-221.640	-74.336	0.091	-0.032
-220.625	-77.371	-0.201	-0.068
-219.611	0.717	-0.506	-0.355
-218.596	133.301	0.069	-0.088
-217.582	361.433	-0.080	-0.157
-216.567	-24.152	0.359	0.210
-215.552	282.689	-0.031	-0.054
-214.538	-79.947	0.142	0.047
-213.523	-8.315	0.038	0.025
-212.509	-200.000	-0.010	-0.428
-211.494	-200.000	0.039	-0.216
-210.479	-3.414	-0.084	0.057
-209.465	-200.000	0.027	-0.155
-208.450	45.673	-0.106	-0.096
-207.436	-88.058	0.113	-0.033
-206.421	-200.000	-0.021	0.135
-205.406	158.186	-0.149	0.202
-204.392	-200.000	0.015	0.073
-203.377	34.507	0.242	-0.207
-202.363	-110.633	0.246	-0.050
-201.348	-51.801	0.139	-0.063
-200.333	623.460	-0.022	-0.054
-199.319	679.734	-0.092	0.235
-198.304	64.193	0.097	0.095
-197.290	-200.000	-0.035	-0.208
-196.275	110.649	-0.199	-0.234
-195.260	-59.546	0.012	0.005
-194.246	800.000	-0.027	0.072
-193.231	800.000	0.105	0.306
-192.217	800.000	-0.128	-0.364
-191.202	502.874	0.200	-0.453
-190.187	-143.639	0.230	-0.021
-189.173	180.009	-0.140	0.201
-188.158	206.504	0.242	-0.368
-187.144	-174.491	-0.397	-0.011
-186.129	2.489	-0.350	-0.247
-185.114	-67.282	0.535	-0.206
-184.100	800.000	0.116	-0.385
-183.085	800.000	0.095	-0.362
-182.071	-200.000	-0.025	-0.155
-181.056	-166.726	0.312	0.013
-180.042	-200.000	-0.008	0.101
-179.027	113.430	-0.168	0.199
-178.012	-200.000	-0.021	0.195
-176.998	-107.626	-0.289	-0.062
-175.983	-123.264	0.426	-0.067
-174.969	-21.351	-0.157	-0.094
-173.954	-175.704	0.198	-0.005
-172.939	-69.819	-0.064	-0.024
-171.925	-84.563	0.344	-0.106
-170.910	-23.488	-0.277	-0.163
-169.896	-107.726	0.220	0.047
-168.881	800.000	-0.033	0.103
-167.866	16.550	0.201	-0.155
-166.852	27.939	-0.087	-0.071
-165.837	117.097	-0.137	-0.165
-164.823	-38.999	-0.142	0.073
-163.808	-178.561	-0.073	-0.002
-162.793	111.906	-0.100	0.118
-161.779	41.729	0.201	0.178
-160.764	84.190	-0.043	-0.046
-159.750	-95.851	0.145	-0.038
-158.735	615.702	-0.133	-0.326
-157.720	-200.000	0.033	0.332
-156.706	800.000	0.108	0.295
-155.691	431.472	-0.071	-0.151
-154.677	-200.000	0.041	0.297
-153.662	-200.000	-0.065	-0.310
-152.647	674.573	0.029	-0.074
-151.633	653.364	-0.092	-0.230
-150.618	-146.646	-0.077	-0.007
-149.604	297.642	-0.179	0.322
-148.589	-129.963	-0.387	0.052
-147.574	65.784	0.125	-0.124
-146.560	-88.840	-0.186	-0.054
-145.545	800.000	0.121	0.359
-144.531	179.525	0.124	0.177
-143.516	494.489	0.061	0.138
-142.502	-200.000	0.020	-0.319
-141.487	-166.480	0.102	0.004
-140.472	-71.703	0.145	-0.053
-139.458	-132.787	0.077	0.010
-138.443	89.625	-0.068	0.074
-137.429	-116.703	-0.229	-0.041
-136.414	15.577	-0.178	-0.136
-135.399	800.000	0.036	-0.133
-134.385	237.875	-0.046	0.075
-133.370	-200.000	0.014	0.166
-132.356	11.945	0.144	0.108
-131.341	-200.000	-0.045	-0.322
-130.326	666.278	0.031	-0.077
-129.312	-137.518	0.027	0.003
-128.297	485.749	0.045	-0.100
-127.283	800.000	-0.050	0.139
-126.268	76.849	0.094	0.098
-125.253	-31.048	-0.110	-0.060
-124.239	443.948	-0.027	-0.058
-123.224	83.420	-0.105	0.112
-122.210	283.424	0.105	-0.185
