DTS Sentinel unit serial number:	SN413079Multiplexer serial number:	ORYXHardware model number:	OX4-SRSoftware version number:	ORYX F/W v4.00 Oryx Data Collector v3.7.2.0data status	okinstallation	princeton_trtdifferential loss correction	single-endedforward channel	channel 3reverse channel	N/Adate	2019/09/17time	20:08:35forward acquisition time	60.00reverse acquisition time	0.00gamma	496.2192k internal	0.2326k external	0.2326temperature offset calibration	0.9954default loss term (dB/km)	0.3790temperature slope calibration	1.0000multiplexer offset coefficient	1.0000multiplexer slope coefficient	1.0000fibre end	0.00T internal ref (°C)	32.47T ext. ref 1 (°C)	0.23T ext. ref 2 (°C)	22.45length (m)	temperature (°C)	Stokes	anti-Stokes-747.200	-121.126	0.307	0.052
-746.185	-200.000	0.035	0.346
-745.171	-200.000	0.167	-0.001
-744.156	-145.222	0.127	-0.012
-743.142	800.000	-0.050	-0.169
-742.127	-127.089	-0.490	0.072
-741.112	-200.000	-0.008	-0.097
-740.098	-110.156	-0.230	-0.048
-739.083	-9.644	-0.225	-0.151
-738.069	76.413	-0.153	0.164
-737.054	-28.737	0.025	0.014
-736.039	-52.687	-0.143	-0.067
-735.025	-35.800	0.026	-0.014
-734.010	-187.305	-0.566	-0.008
-732.996	-64.396	-0.167	-0.068
-731.981	-200.000	0.002	0.377
-730.966	267.694	0.068	0.120
-729.952	-44.019	-0.146	0.074
-728.937	-125.436	-0.223	0.034
-727.923	57.690	0.265	-0.262
-726.908	82.533	0.170	-0.186
-725.894	-51.291	-0.179	0.084
-724.879	-200.000	0.008	-0.211
-723.864	-200.000	0.017	-0.196
-722.850	800.000	0.187	-0.530
-721.835	442.101	-0.036	0.080
-720.821	-22.615	-0.230	0.140
-719.806	-200.000	-0.015	-0.138
-718.791	-167.828	0.085	0.003
-717.777	-200.000	0.040	-0.254
-716.762	153.076	0.199	-0.275
-715.748	-200.000	-0.243	-0.000
-714.733	59.755	-0.319	-0.317
-713.718	-53.049	-0.083	0.038
-712.704	175.494	-0.038	0.056
-711.689	-49.360	-0.242	0.116
-710.675	180.412	0.146	-0.216
-709.660	800.000	0.081	-0.246
-708.645	30.262	-0.113	0.097
-707.631	60.212	-0.232	-0.231
-706.616	-122.677	0.261	0.043
-705.602	-187.570	0.399	-0.005
-704.587	-73.604	-0.385	0.141
-703.572	-142.753	-0.254	0.025
-702.558	-31.674	-0.104	0.059
-701.543	147.411	-0.152	-0.206
-700.529	800.000	0.208	-0.603
-699.514	-104.261	-0.211	-0.049
-698.499	-94.360	0.051	0.014
-697.485	96.904	0.081	-0.094
-696.470	800.000	0.108	0.309
-695.456	296.680	0.068	-0.126
-694.441	-79.327	0.062	-0.021
-693.426	276.511	0.084	-0.150
-692.412	114.833	-0.231	0.284
-691.397	-93.755	-0.247	0.069
-690.383	-105.329	0.225	-0.052
-689.368	800.000	-0.051	-0.163
-688.354	23.143	-0.155	0.128
-687.339	720.373	0.062	-0.165
-686.324	-8.592	0.083	0.056
-685.310	138.577	-0.108	0.143
-684.295	3.905	-0.318	-0.234
-683.281	29.685	0.178	0.152
-682.266	-200.000	-0.033	0.223
-681.251	-102.620	0.476	0.114
-680.237	64.802	-0.201	-0.204
-679.222	-23.957	0.026	0.015
-678.208	119.419	-0.090	0.111
-677.193	127.575	-0.158	-0.202
-676.178	82.184	-0.065	-0.071
-675.164	800.000	0.077	-0.260
-674.149	55.693	0.222	-0.217
-673.135	-145.470	-0.171	-0.015
-672.120	716.127	0.021	-0.057
-671.105	-157.366	-0.333	0.020
-670.091	-96.403	-0.323	0.086
-669.076	15.527	-0.064	-0.050
-668.062	-107.308	-0.094	-0.021
-667.047	212.878	0.148	-0.234
-666.032	203.796	-0.208	0.323
-665.018	68.702	0.117	-0.121
-664.003	-33.786	-0.231	0.128
-662.989	-200.000	-0.017	-0.348
-661.974	-143.987	0.150	0.014
-660.959	800.000	-0.068	-0.210
-659.945	-200.000	0.032	-0.273
-658.930	800.000	-0.051	0.151
-657.916	-3.698	0.239	0.167
-656.901	28.790	0.029	-0.024
-655.886	-200.000	-0.075	-0.346
-654.872	-200.000	-0.012	0.178
-653.857	59.173	0.154	-0.152
-652.843	14.111	-0.109	-0.086
-651.828	371.358	0.040	-0.082
-650.814	800.000	-0.061	-0.220
-649.799	-44.400	-0.240	-0.121
-648.784	-30.642	0.088	0.050
-647.770	800.000	0.085	-0.295
-646.755	-200.000	-0.035	0.258
-645.741	78.621	-0.162	0.174
-644.726	-200.000	-0.039	-0.178
-643.711	180.260	0.167	0.247
-642.697	-31.120	-0.077	-0.043
-641.682	-200.000	-0.013	-0.419
-640.668	32.802	0.258	0.224
-639.653	-10.845	-0.089	-0.059
-638.638	-200.000	0.039	0.429
-637.624	-184.299	0.075	-0.001
-636.609	-200.000	0.043	0.427
-635.595	-104.137	0.178	0.041
-634.580	-103.661	0.153	0.036
-633.565	-200.000	0.058	-0.267
-632.551	-172.058	0.388	-0.013
-631.536	-200.000	-0.008	0.326
-630.522	452.009	-0.053	0.118
-629.507	120.577	0.170	0.213
-628.492	-67.018	-0.207	0.082
-627.478	800.000	0.061	0.247
-626.463	-21.041	0.152	-0.094
-625.449	-200.000	-0.024	-0.477
-624.434	800.000	-0.050	-0.201
-623.419	-47.916	0.114	-0.055
-622.405	800.000	0.056	0.237
-621.390	-200.000	0.002	-0.019
-620.376	-198.362	0.051	0.000
-619.361	-11.363	0.174	-0.115
-618.346	-18.339	-0.170	-0.107
-617.332	232.733	-0.234	0.386
-616.317	-10.831	-0.119	-0.079
-615.303	-59.444	0.131	0.056
-614.288	800.000	-0.011	-0.041
-613.273	222.698	-0.184	-0.297
-612.259	-200.000	0.002	-0.076
-611.244	-200.000	-0.014	-0.220
-610.230	-200.000	0.054	-0.296
-609.215	-17.984	-0.154	0.097
-608.201	-200.000	-0.001	0.144
-607.186	-200.000	-0.021	-0.106
-606.171	154.640	0.205	0.282
-605.157	800.000	0.046	0.142
-604.142	-200.000	0.052	0.301
-603.128	-23.251	-0.181	0.109
-602.113	800.000	-0.007	0.031
-601.098	-109.662	0.283	0.060
-600.084	-61.640	0.261	-0.110
-599.069	-84.556	0.103	0.033
-598.055	-134.498	0.232	-0.028
-597.040	-59.664	-0.302	-0.130
-596.025	250.463	0.196	-0.334
-595.011	-200.000	-0.004	0.158
-593.996	645.394	0.026	-0.067
-592.982	-69.412	-0.165	-0.064
-591.967	126.208	0.131	0.166
-590.952	-51.288	-0.258	-0.121
-589.938	152.549	0.162	-0.222
-588.923	-24.439	-0.139	0.083
-587.909	-83.165	-0.041	-0.013
-586.894	800.000	-0.060	0.209
-585.879	30.787	-0.092	-0.079
-584.865	-93.062	-0.119	0.033
-583.850	-21.688	0.047	0.029
-582.836	-133.291	-0.092	-0.012
-581.821	-200.000	-0.050	-0.320
-580.806	-186.626	-0.181	-0.003
-579.792	-111.767	0.396	-0.080
-578.777	250.038	0.045	0.077
-577.763	-200.000	0.029	0.166
-576.748	-200.000	0.011	0.099
-575.733	-93.869	0.039	-0.011
-574.719	-162.567	0.143	0.007
-573.704	-68.846	0.276	-0.107
-572.690	-200.000	-0.010	0.202
-571.675	-136.983	-0.293	-0.034
-570.661	-21.561	-0.193	0.118
-569.646	86.943	0.130	-0.144
-568.631	273.447	0.130	0.230
-567.617	-140.397	0.077	0.008
-566.602	-61.354	0.374	0.158
-565.588	787.587	0.027	-0.075
-564.573	60.363	-0.150	0.148
-563.558	37.878	0.139	-0.123
-562.544	-200.000	0.035	0.179
-561.529	-200.000	-0.054	0.401
-560.515	800.000	0.032	-0.099
-559.500	800.000	0.044	0.189
-558.485	800.000	0.053	0.151
-557.471	5.811	0.265	-0.197
-556.456	-42.252	-0.173	0.088
-555.442	-194.821	0.229	-0.002
-554.427	22.117	0.283	0.231
-553.412	800.000	0.045	-0.139
-552.398	-59.667	-0.335	-0.144
-551.383	48.894	0.088	-0.082
-550.369	-131.687	-0.245	-0.032
-549.354	-92.878	0.163	0.046
-548.339	442.236	0.071	0.156
-547.325	5.510	-0.130	0.096
-546.310	-37.780	-0.469	-0.250
-545.296	83.351	0.130	-0.142
-544.281	-200.000	-0.022	-0.405
-543.266	192.475	0.110	-0.167
-542.252	-200.000	0.001	-0.007
-541.237	-3.174	-0.093	0.065
-540.223	118.117	0.090	0.111
-539.208	-89.435	0.168	-0.050
-538.193	-125.000	-0.164	0.025
-537.179	98.336	-0.061	0.070
-536.164	-51.494	-0.170	-0.079
-535.150	-200.000	0.062	-0.302
-534.135	-166.836	-0.208	0.009
-533.121	86.324	-0.185	0.204
-532.106	-37.447	0.057	0.030
-531.091	-28.473	-0.294	-0.169
-530.077	-48.763	-0.150	0.072
-529.062	50.181	-0.337	-0.318
-528.048	-16.395	-0.161	-0.102
-527.033	14.196	0.248	0.193
-526.018	-80.856	-0.322	-0.107
-525.004	-139.211	-0.281	0.030
-523.989	85.009	0.123	-0.135
-522.975	682.645	0.045	0.117
-521.960	250.647	0.009	0.016
-520.945	-36.093	0.141	0.076
-519.931	-89.332	-0.071	0.021
-518.916	181.506	-0.060	0.088
-517.902	40.051	0.279	-0.250
-516.887	800.000	-0.019	-0.081
-515.872	38.607	0.153	0.136
-514.858	-60.049	-0.239	-0.102
-513.843	-200.000	0.073	0.460
-512.829	619.615	-0.129	-0.324
-511.814	-26.342	-0.117	-0.068
-510.799	-63.737	0.104	-0.043
-509.785	-200.000	0.003	0.186
-508.770	800.000	0.094	0.294
-507.756	-200.000	0.049	-0.372
-506.741	32.880	-0.057	-0.050
-505.726	800.000	0.033	0.107
-504.712	800.000	-0.057	0.158
-503.697	-75.007	0.137	-0.049
-502.683	-59.848	-0.188	0.081
-501.668	214.912	-0.109	0.172
-500.653	283.817	-0.159	-0.285
-499.639	-154.671	-0.191	-0.013
-498.624	-35.309	-0.376	-0.204
-497.610	-43.452	-0.157	0.079
-496.595	-68.755	0.154	-0.059
-495.581	-88.825	-0.180	0.054
-494.566	-97.827	0.074	-0.019
-493.551	62.295	-0.158	-0.157
-492.537	800.000	-0.047	0.134
-491.522	534.535	-0.058	0.137
-490.508	-200.000	-0.039	-0.197
-489.493	-28.068	-0.011	0.006
-488.478	29.723	0.102	-0.086
-487.464	-103.754	-0.104	-0.024
-486.449	310.472	-0.047	0.088
-485.435	-74.440	0.241	0.087
-484.420	800.000	-0.132	0.444
-483.405	745.222	0.137	0.368
-482.391	-200.000	-0.014	-0.113
-481.376	286.313	-0.118	0.212
-480.362	-125.451	-0.185	-0.028
-479.347	-108.105	0.509	-0.110
-478.332	-17.483	0.283	-0.178
-477.318	153.524	0.238	-0.325
-476.303	-39.308	0.162	-0.085
-475.289	-6.067	0.332	-0.226
-474.274	-61.659	0.302	-0.127
-473.259	-0.318	-0.180	-0.128
-472.245	550.911	0.085	0.204
-471.230	66.895	0.220	-0.223
-470.216	-200.000	0.075	0.355
-469.201	-200.000	0.001	-0.038
-468.186	181.420	-0.054	0.079
-467.172	547.001	0.031	0.073
-466.157	570.584	-0.035	-0.085
-465.143	-142.314	-0.293	-0.029
-464.128	64.664	0.150	-0.151
-463.113	-97.254	0.303	-0.079
-462.099	89.993	0.147	-0.163
-461.084	206.222	0.094	0.146
-460.070	118.292	0.169	0.208
-459.055	210.809	-0.032	0.051
-458.040	47.709	0.147	-0.137
-457.026	-190.621	-0.115	-0.001
-456.011	-200.000	0.032	0.252
-454.997	-200.000	-0.020	0.173
-453.982	232.473	0.148	-0.242
-452.968	56.243	-0.228	-0.221
-451.953	533.823	-0.093	0.220
-450.938	-40.122	-0.068	0.035
-449.924	-200.000	-0.043	-0.289
-448.909	800.000	-0.149	-0.492
-447.895	-187.867	0.080	-0.001
-446.880	236.438	0.058	-0.096
-445.865	800.000	0.080	0.284
-444.851	445.976	-0.087	-0.191
-443.836	69.167	-0.130	-0.133
-442.822	210.541	0.051	-0.080
-441.807	-87.994	-0.070	0.021
-440.792	10.788	0.040	0.031
-439.778	210.068	-0.149	-0.233
-438.763	800.000	-0.077	0.333
-437.749	0.319	0.197	-0.140
-436.734	126.632	-0.104	0.131
-435.719	800.000	0.088	-0.291
-434.705	593.381	-0.078	-0.193
-433.690	800.000	0.060	0.247
-432.676	511.815	0.153	0.355
-431.661	152.683	0.077	0.105
-430.646	700.035	0.077	0.202
-429.632	-81.230	0.178	-0.058
-428.617	441.066	-0.116	-0.253
-427.603	650.047	-0.085	-0.216
-426.588	320.738	0.104	-0.197
-425.573	73.945	-0.168	0.175
-424.559	800.000	-0.066	-0.195
-423.544	136.713	-0.189	0.246
-422.530	-127.095	0.113	-0.017
-421.515	-156.234	0.377	-0.024
-420.500	-91.956	-0.318	0.090
-419.486	800.000	0.108	-0.331
-418.471	96.498	-0.173	0.197
-417.457	421.651	0.035	0.075
-416.442	800.000	0.195	0.545
-415.428	-3.370	-0.298	0.206
-414.413	-64.015	0.189	-0.077
-413.398	5.067	-0.120	0.088
-412.384	-200.000	-0.013	-0.201
-411.369	285.655	-0.174	-0.312
-410.355	109.610	-0.252	-0.300
-409.340	208.539	0.055	0.086
-408.325	-110.983	0.217	0.044
-407.311	420.558	0.160	-0.341
-406.296	800.000	-0.097	0.272
-405.282	337.862	0.126	0.245
-404.267	-175.569	-0.178	-0.005
-403.252	800.000	0.059	0.195
-402.238	-43.293	0.085	0.043
-401.223	-62.918	-0.102	-0.042
-400.209	-200.000	0.002	-0.231
-399.194	454.518	0.052	-0.116
-398.179	-106.089	0.182	0.041
-397.165	-200.000	0.045	0.244
-396.150	66.166	-0.045	0.046
-395.136	-112.118	0.126	-0.025
-394.121	742.456	-0.071	-0.191
-393.106	21.710	-0.195	-0.158
-392.092	-200.000	0.031	-0.320
-391.077	-107.356	0.450	0.098
-390.063	-95.433	-0.169	0.045
-389.048	2.465	-0.073	-0.052
-388.033	428.868	-0.119	-0.256
-387.019	64.190	-0.116	-0.116
-386.004	-200.000	0.033	-0.309
-384.990	-162.306	0.159	-0.008
-383.975	800.000	-0.071	0.300
-382.960	-59.406	0.480	-0.205
-381.946	-200.000	0.029	0.177
-380.931	-62.174	0.124	-0.051
-379.917	-200.000	0.049	-0.257
-378.902	41.366	0.230	0.207
-377.888	800.000	-0.116	0.340
-376.873	-50.123	-0.267	-0.126
-375.858	0.035	-0.094	0.066
-374.844	10.524	0.181	-0.137
-373.829	-37.487	0.063	0.034
-372.815	-200.000	0.311	0.001
-371.800	233.001	-0.141	0.230
-370.785	-58.918	-0.276	-0.119
-369.771	-88.172	0.303	0.090
-368.756	141.901	0.104	0.137
-367.742	-99.151	0.152	-0.038
-366.727	360.040	-0.257	-0.511
-365.712	-80.654	-0.328	-0.108
-364.698	-200.000	-0.062	0.327
-363.683	-200.000	-0.026	-0.233
-362.669	800.000	0.074	-0.257
-361.654	-38.066	-0.100	-0.053
-360.639	14.996	0.147	0.114
-359.625	703.053	0.057	0.148
-358.610	-140.470	-0.313	-0.032
-357.596	-60.200	0.167	0.071
-356.581	102.956	-0.160	-0.187
-355.566	341.221	-0.155	-0.301
-354.552	-14.261	-0.456	-0.292
-353.537	5.119	0.114	0.083
-352.523	-64.506	0.157	-0.063
-351.508	19.980	0.279	-0.224
-350.493	247.691	0.168	-0.282
-349.479	662.624	-0.052	0.132
-348.464	0.324	0.016	-0.011
-347.450	-130.968	0.072	0.010
-346.435	800.000	0.015	0.061
-345.420	-200.000	-0.015	0.194
-344.406	-53.853	-0.270	0.122
-343.391	800.000	0.040	-0.171
-342.377	-38.090	-0.148	0.078
-341.362	-200.000	0.066	0.362
-340.348	-99.809	0.236	0.059
-339.333	-124.251	-0.045	0.007
-338.318	-139.680	-0.244	-0.026
-337.304	-2.060	-0.077	0.054
-336.289	-148.052	0.432	0.036
-335.275	-200.000	-0.026	-0.335
-334.260	145.213	-0.105	0.139
-333.245	70.346	0.129	0.132
-332.231	-94.847	-0.092	-0.025
-331.216	-79.149	0.119	-0.040
-330.202	168.234	-0.036	0.051
-329.187	-113.220	0.432	-0.084
-328.172	17.969	-0.188	0.149
-327.158	63.131	0.293	0.291
-326.143	242.698	0.161	-0.267
-325.129	-6.514	-0.414	-0.280
-324.114	-200.000	-0.040	-0.320
-323.099	417.043	-0.141	0.299
-322.085	-30.247	0.323	0.182
-321.070	-59.931	0.351	0.149
-320.056	214.835	-0.099	-0.156
-319.041	38.941	0.124	0.110
-318.026	91.230	-0.174	0.193
-317.012	-152.918	0.213	0.015
-315.997	-72.743	-0.111	-0.040
-314.983	569.510	0.137	-0.331
-313.968	-110.686	-0.126	-0.026
-312.953	144.011	-0.168	-0.222
-311.939	63.955	0.143	0.142
-310.924	14.057	0.155	-0.120
-309.910	69.874	0.106	0.108
-308.895	-159.341	-0.250	0.014
-307.880	-103.155	-0.228	-0.054
-306.866	-200.000	0.022	-0.240
-305.851	-103.763	0.126	0.029
-304.837	-32.041	-0.304	-0.168
-303.822	-14.248	-0.095	0.061
-302.807	23.206	-0.181	-0.148
-301.793	800.000	0.025	-0.093
-300.778	97.344	0.168	0.191
-299.764	800.000	-0.084	0.293
-298.749	-122.795	-0.203	-0.033
-297.735	-53.599	-0.299	0.136
-296.720	-75.235	-0.253	-0.090
-295.705	-200.000	0.002	0.305
-294.691	-20.696	0.200	-0.121
-293.676	144.727	-0.130	0.173
-292.662	83.484	-0.223	0.241
-291.647	-152.136	0.175	0.013
-290.632	247.995	-0.175	0.293
-289.618	800.000	-0.071	0.232
-288.603	122.872	0.111	-0.137
-287.589	-1.581	-0.124	-0.087
-286.574	647.839	0.095	-0.239
-285.559	-200.000	-0.035	-0.231
-284.545	15.625	0.269	-0.210
-283.530	800.000	0.022	0.062
-282.516	-200.000	0.009	0.062
-281.501	260.147	0.083	-0.141
-280.486	13.059	0.128	-0.098
-279.472	-99.352	-0.032	0.008
-278.457	224.233	0.060	0.096
-277.443	-109.202	-0.088	0.019
-276.428	12.939	-0.091	0.070
-275.413	-200.000	-0.038	0.237
-274.399	-17.276	0.303	-0.189
-273.384	-200.000	-0.003	-0.172
-272.370	6.896	0.243	0.179
-271.355	-2.826	-0.185	0.128
-270.340	-72.215	-0.358	-0.131
-269.326	800.000	-0.072	-0.234
-268.311	-200.000	-0.026	0.311
-267.297	800.000	-0.112	-0.352
-266.282	-35.196	0.271	-0.146
-265.267	155.326	-0.028	-0.038
-264.253	800.000	0.125	0.390
-263.238	-22.384	-0.273	-0.163
-262.224	-76.884	-0.153	0.053
-261.209	-64.891	0.268	-0.107
-260.195	-24.168	0.233	0.138
-259.180	-16.723	0.346	-0.217
-258.165	-33.882	0.180	0.098
-257.151	87.280	0.126	-0.138
-256.136	358.065	-0.192	-0.380
-255.122	183.196	0.105	-0.153
-254.107	-1.131	0.309	-0.216
-253.092	-200.000	0.012	-0.103
-252.078	-84.616	0.268	0.083
-251.063	-16.011	0.218	-0.137
-250.049	2.510	0.126	0.091
-249.034	219.118	-0.079	-0.125
-248.019	95.574	-0.328	-0.370
-247.005	75.230	-0.109	0.114
-245.990	125.280	-0.083	-0.103
-244.976	-200.000	-0.003	0.363
-243.961	-22.903	-0.028	-0.017
-242.946	-64.287	-0.169	-0.068
-241.932	-28.747	0.164	-0.093
-240.917	104.055	-0.090	-0.105
-239.903	8.042	0.120	-0.089
-238.888	106.780	-0.133	-0.156
-237.873	61.802	-0.195	0.192
-236.859	-12.018	0.306	0.198
-235.844	-11.041	0.235	-0.153
-234.830	267.449	-0.211	-0.364
-233.815	-120.873	0.049	0.008
-232.800	-118.958	-0.209	0.036
-231.786	-200.000	-0.027	-0.204
-230.771	-20.864	-0.493	-0.299
-229.757	257.106	-0.139	-0.236
-228.742	-108.983	-0.461	-0.097
-227.727	-113.406	0.131	0.025
-226.713	3.881	-0.099	-0.072
-225.698	-200.000	-0.072	0.326
-224.684	6.234	0.218	0.160
-223.669	800.000	-0.078	0.249
-222.655	-24.518	-0.285	0.168
-221.640	31.628	0.144	-0.123
-220.625	-200.000	0.005	0.030
-219.611	27.529	0.219	0.182
-218.596	321.676	-0.081	-0.152
-217.582	-25.099	0.127	0.075
-216.567	640.351	-0.203	0.509
-215.552	800.000	0.076	-0.252
-214.538	45.244	-0.194	0.176
-213.523	229.705	-0.133	-0.215
-212.509	-100.414	-0.199	0.049
-211.494	-126.777	-0.453	-0.066
-210.479	-113.865	-0.023	0.004
-209.465	22.475	0.202	0.163
-208.450	-74.348	0.278	0.099
-207.436	647.123	0.099	-0.249
-206.421	-33.946	-0.302	0.164
-205.406	-200.000	-0.035	-0.261
-204.392	-200.000	0.002	0.124
-203.377	-114.379	-0.370	0.070
-202.363	-96.832	-0.138	0.036
-201.348	-60.007	0.192	-0.081
-200.333	317.191	-0.137	-0.256
-199.319	261.477	0.047	-0.080
-198.304	-93.986	0.221	0.060
-197.290	-61.548	-0.180	-0.075
-196.275	103.416	-0.134	-0.155
-195.260	800.000	0.121	-0.398
-194.246	172.987	-0.026	-0.037
-193.231	282.320	-0.149	0.265
-192.217	3.685	-0.299	0.216
-191.202	-117.286	-0.362	0.065
-190.187	-87.547	-0.194	0.058
-189.173	454.621	0.112	0.245
-188.158	212.067	-0.221	0.344
-187.144	236.238	0.117	0.190
-186.129	800.000	-0.091	0.327
-185.114	-49.966	-0.198	0.093
-184.100	77.233	-0.145	0.152
-183.085	-98.034	0.329	0.084
-182.071	-43.015	-0.125	0.063
-181.056	378.342	-0.065	-0.132
-180.042	3.084	0.140	-0.101
-179.027	-18.612	0.160	-0.098
-178.012	-177.842	0.094	0.002
-176.998	-39.085	0.169	0.088
-175.983	800.000	-0.053	0.202
-174.969	-200.000	-0.034	0.166
-173.954	-76.096	0.438	0.153
-172.939	182.945	-0.026	-0.037
-171.925	-200.000	-0.004	0.031
-170.910	800.000	0.095	0.386
-169.896	101.385	-0.150	0.173
-168.881	-200.000	0.031	0.200
-167.866	-52.722	-0.038	0.017
-166.852	-101.298	0.251	0.060
-165.837	-55.095	0.277	0.123
-164.823	248.983	0.168	-0.281
-163.808	180.407	-0.058	-0.084
-162.793	362.567	-0.125	0.247
-161.779	165.889	-0.123	-0.171
-160.764	-85.236	-0.046	0.014
-159.750	12.789	0.292	0.222
-158.735	524.512	0.033	-0.076
-157.720	800.000	-0.055	0.154
-156.706	-200.000	0.016	0.367
-155.691	800.000	-0.031	-0.114
-154.677	194.786	-0.190	0.284
-153.662	274.844	-0.107	0.187
-152.647	212.730	0.099	-0.154
-151.633	179.940	-0.061	0.088
-150.618	-200.000	-0.069	0.358
-149.604	-200.000	-0.036	0.202
-148.589	-70.822	-0.172	0.064
-147.574	510.617	0.062	0.142
-146.560	637.181	0.108	0.272
-145.545	42.773	0.173	-0.156
-144.531	-200.000	0.001	0.208
-143.516	355.495	0.156	-0.305
-142.502	-74.666	0.263	-0.093
-141.487	-200.000	0.025	-0.314
-140.472	-182.397	0.405	0.007
-139.458	665.813	0.099	0.251
-138.443	135.441	0.148	-0.189
-137.429	-91.323	-0.113	-0.032
-136.414	75.429	0.201	0.209
-135.399	-200.000	-0.016	0.091
-134.385	547.005	-0.109	0.257
-133.370	-116.364	0.129	0.024
-132.356	-34.906	0.178	-0.096
-131.341	44.767	0.294	-0.267
-130.326	9.588	-0.290	-0.216
-129.312	-78.123	-0.253	0.086
-128.297	-17.989	-0.057	-0.035
-127.283	72.599	-0.131	0.134
-126.268	-63.059	0.340	0.138
-125.253	330.648	0.067	0.127
-124.239	-102.962	0.110	0.026
-123.224	634.411	0.066	0.165
-122.210	-32.616	0.042	-0.023
-121.195	251.641	0.096	-0.161
-120.180	-200.000	0.033	0.277
