DTS Sentinel unit serial number:	SN413079Multiplexer serial number:	ORYXHardware model number:	OX4-SRSoftware version number:	ORYX F/W v4.00 Oryx Data Collector v3.7.2.0data status	okinstallation	princeton_trtdifferential loss correction	single-endedforward channel	channel 3reverse channel	N/Adate	2019/09/15time	10:24:35forward acquisition time	60.00reverse acquisition time	0.00gamma	496.2192k internal	0.2307k external	0.2307temperature offset calibration	0.9972default loss term (dB/km)	0.3790temperature slope calibration	1.0000multiplexer offset coefficient	1.0000multiplexer slope coefficient	1.0000fibre end	0.00T internal ref (°C)	34.25T ext. ref 1 (°C)	5.03T ext. ref 2 (°C)	29.41length (m)	temperature (°C)	Stokes	anti-Stokes-747.200	-129.049	-0.223	0.032
-746.185	-98.766	-0.112	-0.029
-745.171	152.072	-0.143	0.198
-744.156	-75.412	0.165	0.060
-743.142	-63.973	0.287	0.119
-742.127	-177.561	-0.099	-0.002
-741.112	-200.000	-0.037	0.167
-740.098	124.292	-0.191	0.245
-739.083	6.561	0.046	0.034
-738.069	308.150	-0.120	0.228
-737.054	-111.410	-0.301	-0.062
-736.039	-200.000	-0.037	-0.222
-735.025	56.928	0.373	0.369
-734.010	1.498	-0.201	0.147
-732.996	-90.986	-0.318	0.093
-731.981	-200.000	-0.064	0.375
-730.966	-122.005	-0.048	0.008
-729.952	-83.838	-0.273	-0.088
-728.937	-63.615	-0.420	-0.175
-727.923	30.882	0.025	-0.021
-726.908	77.059	-0.176	0.190
-725.894	-117.332	0.094	-0.017
-724.879	-152.370	-0.408	0.030
-723.864	-76.478	-0.112	0.040
-722.850	-120.432	0.152	-0.026
-721.835	-103.379	-0.162	-0.039
-720.821	-172.558	-0.277	-0.009
-719.806	37.818	-0.115	-0.104
-718.791	-200.000	0.008	0.073
-717.777	800.000	-0.036	0.109
-716.762	121.888	-0.087	-0.110
-715.748	-200.000	-0.007	-0.046
-714.733	49.152	-0.240	0.229
-713.718	800.000	0.014	-0.059
-712.704	204.583	0.067	-0.105
-711.689	800.000	-0.043	0.159
-710.675	-30.580	-0.316	0.182
-709.660	36.817	-0.111	-0.100
-708.645	800.000	0.077	0.259
-707.631	800.000	0.031	-0.136
-706.616	7.122	0.171	0.129
-705.602	-142.671	-0.239	0.024
-704.587	338.271	-0.054	-0.106
-703.572	-52.627	-0.204	0.096
-702.558	-67.424	-0.320	0.128
-701.543	-177.591	-0.202	0.005
-700.529	135.670	0.050	0.067
-699.514	18.362	0.152	-0.123
-698.499	-193.094	0.462	0.004
-697.485	-14.026	0.158	-0.104
-696.470	768.489	-0.038	0.106
-695.456	-56.723	0.112	-0.050
-694.441	-164.996	0.243	0.011
-693.426	418.298	-0.061	0.132
-692.412	103.923	0.133	-0.158
-691.397	-23.635	0.254	0.155
-690.383	438.415	-0.189	-0.417
-689.368	-200.000	0.020	0.238
-688.354	-153.238	-0.319	0.023
-687.339	83.680	0.250	0.277
-686.324	-125.510	-0.344	-0.053
-685.310	-184.958	-0.162	-0.003
-684.295	-24.912	-0.082	0.049
-683.281	-70.444	-0.198	-0.076
-682.266	-41.187	-0.092	-0.048
-681.251	-194.187	0.045	0.000
-680.237	-200.000	0.074	0.341
-679.222	800.000	0.098	0.283
-678.208	243.128	0.108	0.183
-677.193	387.482	-0.187	0.391
-676.178	-82.288	-0.260	-0.086
-675.164	47.131	0.120	-0.113
-674.149	-100.653	-0.242	0.060
-673.135	-13.408	0.561	-0.369
-672.120	-54.953	0.151	-0.069
-671.105	-65.075	-0.133	-0.055
-670.091	800.000	0.065	0.187
-669.076	135.578	-0.146	0.193
-668.062	800.000	0.082	-0.244
-667.047	-101.892	-0.031	-0.008
-666.032	443.636	-0.135	-0.300
-665.018	-200.000	-0.010	-0.267
-664.003	143.853	0.102	0.138
-662.989	-60.176	0.218	-0.094
-661.974	800.000	-0.032	0.129
-660.959	-200.000	-0.034	-0.160
-659.945	-152.405	0.220	0.016
-658.930	37.833	-0.183	0.164
-657.916	-200.000	0.005	0.104
-656.901	57.344	0.075	0.074
-655.886	-154.375	-0.026	-0.002
-654.872	-141.417	-0.338	-0.035
-653.857	-200.000	0.036	-0.216
-652.843	-200.000	-0.014	0.119
-651.828	518.420	0.110	0.261
-650.814	-54.098	-0.223	0.103
-649.799	-200.000	-0.004	0.068
-648.784	239.828	-0.202	-0.340
-647.770	-95.374	0.394	0.107
-646.755	800.000	0.075	-0.246
-645.741	114.156	-0.180	0.221
-644.726	-200.000	0.042	0.192
-643.711	246.736	0.091	-0.155
-642.697	-81.712	-0.418	0.139
-641.682	207.203	-0.083	-0.130
-640.668	-135.991	-0.465	0.055
-639.653	800.000	-0.042	-0.132
-638.638	-153.462	-0.350	-0.025
-637.624	18.250	-0.149	0.121
-636.609	800.000	-0.037	-0.150
-635.595	0.964	-0.186	-0.135
-634.580	292.143	-0.148	-0.273
-633.565	-200.000	0.042	0.207
-632.551	-27.275	0.126	-0.074
-631.536	-71.610	0.303	0.115
-630.522	121.732	-0.173	-0.218
-629.507	-135.323	0.171	0.021
-628.492	-42.289	-0.079	0.041
-627.478	41.971	0.086	0.079
-626.463	138.405	0.136	-0.181
-625.449	-200.000	0.026	0.194
-624.434	60.158	-0.101	-0.101
-623.419	-200.000	0.025	-0.343
-622.405	-10.111	0.104	0.070
-621.390	-59.933	-0.091	0.039
-620.376	387.859	-0.042	-0.088
-619.361	-200.000	0.013	-0.144
-618.346	-49.630	0.052	0.025
-617.332	400.001	0.025	-0.054
-616.317	-200.000	-0.010	0.305
-615.303	-200.000	0.001	0.297
-614.288	182.503	-0.110	-0.164
-613.273	48.016	-0.114	-0.108
-612.259	-89.917	0.146	0.043
-611.244	-31.747	-0.085	-0.048
-610.230	-200.000	0.068	-0.340
-609.215	-200.000	0.033	-0.264
-608.201	330.262	0.054	0.106
-607.186	12.094	0.209	0.162
-606.171	-61.097	0.189	-0.081
-605.157	185.491	-0.146	0.219
-604.142	-104.949	0.053	0.012
-603.128	-147.448	0.083	-0.007
-602.113	-137.078	-0.227	0.026
-601.098	-20.944	-0.256	0.158
-600.084	100.100	0.046	0.054
-599.069	-35.498	-0.094	0.052
-598.055	102.081	0.205	-0.241
-597.040	247.678	-0.027	0.047
-596.025	-113.566	-0.297	0.059
-595.011	-105.924	0.061	-0.014
-593.996	77.779	0.238	0.257
-592.982	800.000	0.083	0.250
-591.967	800.000	0.032	-0.096
-590.952	113.524	0.214	0.263
-589.938	800.000	0.024	-0.106
-588.923	-112.679	-0.162	-0.033
-587.909	-157.785	0.207	-0.012
-586.894	-13.735	-0.229	0.150
-585.879	321.222	-0.092	-0.176
-584.865	-200.000	0.057	0.282
-583.850	-139.933	0.197	-0.021
-582.836	-133.483	0.135	-0.017
-581.821	-96.680	0.211	-0.056
-580.806	-101.684	-0.339	-0.083
-579.792	543.793	0.029	0.070
-578.777	-48.292	0.141	-0.068
-577.763	-183.564	0.184	0.003
-576.748	-76.572	-0.149	-0.053
-575.733	-28.459	-0.229	-0.133
-574.719	332.492	-0.105	-0.204
-573.704	-142.915	0.175	0.017
-572.690	-151.616	0.181	0.014
-571.675	-2.229	-0.235	0.166
-570.661	-83.618	0.229	0.074
-569.646	201.105	-0.291	0.452
-568.631	-200.000	0.038	-0.179
-567.617	95.303	-0.109	0.125
-566.602	382.284	-0.096	0.198
-565.588	273.836	0.127	-0.226
-564.573	-200.000	0.012	-0.239
-563.558	-55.318	0.255	-0.116
-562.544	440.270	0.141	0.311
-561.529	128.968	0.136	0.175
-560.515	-61.093	-0.299	-0.128
-559.500	-35.851	0.082	0.045
-558.485	-200.000	-0.035	-0.243
-557.471	1.312	0.214	0.155
-556.456	-200.000	-0.005	-0.049
-555.442	-200.000	-0.012	-0.176
-554.427	-183.136	-0.292	0.005
-553.412	-7.490	-0.247	0.169
-552.398	83.360	0.294	-0.323
-551.383	-103.211	-0.500	-0.119
-550.369	-184.024	0.309	0.005
-549.354	197.130	-0.147	0.227
-548.339	-66.010	-0.081	0.033
-547.325	29.786	0.378	0.325
-546.310	800.000	0.049	-0.152
-545.296	739.634	-0.061	0.165
-544.281	-35.610	0.344	0.188
-543.266	10.398	0.158	-0.121
-542.252	25.971	-0.029	0.024
-541.237	-153.411	0.359	-0.025
-540.223	800.000	-0.096	0.320
-539.208	38.301	-0.124	-0.111
-538.193	-6.165	-0.297	0.205
-537.179	291.595	0.123	0.226
-536.164	800.000	-0.093	0.301
-535.150	-40.967	0.083	-0.043
-534.135	-95.967	0.137	0.037
-533.121	-149.129	0.166	0.013
-532.106	-115.872	-0.177	-0.033
-531.091	-36.727	-0.325	0.176
-530.077	-74.257	0.054	0.020
-529.062	-67.232	-0.127	0.051
-528.048	-178.693	0.271	0.006
-527.033	-200.000	0.026	0.183
-526.018	-179.195	-0.065	-0.001
-525.004	679.881	0.102	0.267
-523.989	-200.000	0.050	0.251
-522.975	-73.022	0.106	-0.039
-521.960	-74.976	0.265	-0.096
-520.945	228.046	0.085	-0.140
-519.931	-200.000	0.013	-0.162
-518.916	350.763	-0.176	-0.351
-517.902	45.212	-0.044	-0.041
-516.887	72.875	0.081	0.085
-515.872	-124.690	-0.242	0.038
-514.858	-144.933	0.356	0.033
-513.843	519.506	0.053	-0.126
-512.829	-200.000	-0.029	0.298
-511.814	-200.000	0.006	0.107
-510.799	16.547	0.164	0.130
-509.785	133.782	0.026	0.034
-508.770	165.417	0.122	0.173
-507.756	-126.598	0.265	0.040
-506.741	178.347	0.212	0.312
-505.726	33.012	-0.231	0.202
-504.712	414.085	0.086	0.185
-503.697	-183.391	-0.092	-0.002
-502.683	800.000	-0.033	0.120
-501.668	-200.000	0.081	-0.428
-500.653	-200.000	0.021	-0.201
-499.639	800.000	-0.057	-0.203
-498.624	285.760	-0.293	-0.533
-497.610	800.000	0.032	-0.106
-496.595	268.933	0.066	0.117
-495.581	-200.000	-0.009	0.096
-494.566	-163.210	-0.195	0.009
-493.551	-200.000	-0.038	-0.172
-492.537	800.000	-0.040	-0.177
-491.522	228.312	-0.151	-0.247
-490.508	800.000	-0.025	-0.088
-489.493	-200.000	-0.005	0.053
-488.478	-200.000	-0.002	0.150
-487.464	189.065	-0.174	0.263
-486.449	199.407	-0.147	-0.227
-485.435	-55.548	-0.244	-0.110
-484.420	150.166	-0.098	0.134
-483.405	-96.107	0.250	0.067
-482.391	73.403	-0.116	0.122
-481.376	-97.889	-0.303	-0.079
-480.362	-128.975	0.440	-0.062
-479.347	-200.000	0.031	-0.244
-478.332	76.781	0.170	0.181
-477.318	800.000	0.035	0.110
-476.303	-200.000	-0.014	-0.190
-475.289	35.678	0.131	0.116
-474.274	-200.000	-0.022	-0.153
-473.259	-200.000	-0.051	-0.279
-472.245	-200.000	0.001	0.053
-471.230	-200.000	-0.005	0.129
-470.216	800.000	0.095	-0.318
-469.201	112.634	0.081	0.099
-468.186	-200.000	0.019	-0.431
-467.172	110.934	0.082	-0.099
-466.157	79.978	-0.072	-0.078
-465.143	-83.985	0.078	-0.025
-464.128	510.329	0.170	-0.397
-463.113	-157.397	0.424	-0.026
-462.099	-174.930	-0.177	0.005
-461.084	800.000	0.092	0.394
-460.070	-200.000	-0.015	0.313
-459.055	800.000	-0.050	0.212
-458.040	-46.874	0.273	0.134
-457.026	-200.000	0.090	-0.476
-456.011	-133.518	0.391	0.049
-454.997	-145.059	0.375	0.034
-453.982	800.000	-0.041	0.163
-452.968	-200.000	-0.011	0.076
-451.953	-200.000	-0.035	-0.315
-450.938	-71.731	-0.202	0.076
-449.924	-200.000	-0.038	-0.476
-448.909	114.376	-0.124	0.151
-447.895	-13.371	-0.083	-0.054
-446.880	800.000	0.054	-0.151
-445.865	63.445	-0.044	-0.044
-444.851	92.968	0.118	0.134
-443.836	350.442	-0.074	0.148
-442.822	-101.915	-0.285	0.069
-441.807	32.058	0.054	0.047
-440.792	18.646	-0.063	0.050
-439.778	800.000	-0.106	0.310
-438.763	11.951	-0.042	-0.032
-437.749	800.000	-0.014	0.049
-436.734	-73.348	-0.134	-0.049
-435.719	-17.636	0.089	-0.056
-434.705	-132.373	-0.089	-0.012
-433.690	187.046	-0.110	0.165
-432.676	-200.000	0.043	0.469
-431.661	22.918	0.072	0.059
-430.646	-66.907	-0.153	0.061
-429.632	181.691	-0.065	0.096
-428.617	115.423	-0.224	-0.274
-427.603	141.028	-0.087	0.116
-426.588	-119.006	-0.133	0.023
-425.573	504.927	0.057	-0.133
-424.559	-152.196	-0.153	-0.011
-423.544	-200.000	-0.036	0.231
-422.530	-139.785	0.159	-0.017
-421.515	-81.798	0.279	-0.092
-420.500	373.875	-0.143	0.291
-419.486	-200.000	0.010	-0.051
-418.471	129.860	0.143	-0.183
-417.457	-200.000	-0.007	-0.094
-416.442	-30.171	-0.328	-0.187
-415.428	-111.653	0.275	0.056
-414.413	800.000	-0.046	-0.145
-413.398	146.663	0.076	-0.103
-412.384	-59.386	-0.194	-0.084
-411.369	800.000	0.101	-0.319
-410.355	-27.600	0.197	0.115
-409.340	61.304	-0.248	0.247
-408.325	-138.747	0.262	0.029
-407.311	-73.127	-0.154	0.057
-406.296	-116.442	0.107	-0.020
-405.282	-43.316	-0.425	0.216
-404.267	-43.285	0.253	0.128
-403.252	22.192	0.060	-0.049
-402.238	385.187	-0.124	0.257
-401.223	-200.000	-0.057	-0.252
-400.209	-107.989	0.365	-0.079
-399.194	325.633	0.023	0.044
-398.179	-59.002	0.194	-0.084
-397.165	-172.452	0.119	-0.004
-396.150	-132.256	0.396	-0.051
-395.136	370.086	0.073	0.148
-394.121	-51.938	-0.296	-0.138
-393.106	116.420	-0.049	-0.061
-392.092	73.861	0.135	-0.142
-391.077	455.211	-0.069	-0.153
-390.063	-149.531	-0.065	-0.005
-389.048	-114.417	0.222	-0.043
-388.033	-200.000	-0.009	-0.145
-387.019	800.000	-0.074	-0.244
-386.004	333.411	-0.161	0.312
-384.990	-94.944	0.199	0.054
-383.975	-75.588	-0.055	0.019
-382.960	12.672	0.082	0.064
-381.946	-184.130	0.177	-0.003
-380.931	-156.907	0.040	0.002
-379.917	-99.309	-0.161	-0.041
-378.902	800.000	0.071	0.242
-377.888	-200.000	-0.005	-0.300
-376.873	-111.224	0.302	0.062
-375.858	63.544	-0.133	0.133
-374.844	-17.061	-0.221	-0.140
-373.829	39.555	0.037	-0.033
-372.815	-200.000	-0.024	-0.109
-371.800	275.926	-0.122	0.217
-370.785	-93.858	0.214	0.059
-369.771	800.000	-0.074	0.221
-368.756	-200.000	0.073	-0.396
-367.742	-64.096	0.074	0.030
-366.727	-175.225	0.352	0.010
-365.712	-200.000	-0.069	-0.370
-364.698	317.557	0.104	-0.197
-363.683	159.059	-0.041	-0.057
-362.669	499.561	0.134	0.310
-361.654	-187.112	0.334	-0.005
-360.639	-56.886	-0.239	-0.106
-359.625	-200.000	0.019	0.127
-358.610	800.000	-0.061	0.182
-357.596	60.788	-0.041	-0.041
-356.581	97.643	-0.260	-0.299
-355.566	48.676	-0.201	0.189
-354.552	-105.711	-0.274	-0.062
-353.537	139.385	0.049	0.064
-352.523	202.477	0.181	0.280
-351.508	556.366	0.112	-0.271
-350.493	81.392	-0.093	-0.100
-349.479	63.390	-0.073	-0.074
-348.464	19.120	0.080	-0.065
-347.450	19.022	0.291	0.233
-346.435	-110.028	0.222	-0.047
-345.420	-103.100	0.031	0.007
-344.406	-4.705	-0.087	-0.060
-343.391	18.082	0.017	-0.014
-342.377	-90.956	0.229	-0.066
-341.362	800.000	0.047	0.145
-340.348	342.018	0.068	0.132
-339.333	8.663	0.079	-0.060
-338.318	-200.000	-0.055	0.432
-337.304	-52.851	-0.052	-0.024
-336.289	103.743	-0.086	0.101
-335.275	-200.000	0.038	0.214
-334.260	-9.260	-0.199	-0.133
-333.245	23.681	0.142	0.117
-332.231	-88.995	-0.385	0.114
-331.216	-60.139	0.173	-0.074
-330.202	-106.522	-0.322	-0.072
-329.187	35.529	0.124	-0.109
-328.172	504.084	0.044	-0.101
-327.158	-70.427	0.054	-0.020
-326.143	-137.467	-0.073	0.008
-325.129	-200.000	0.000	-0.281
-324.114	-200.000	0.070	0.546
-323.099	-200.000	-0.020	-0.215
-322.085	800.000	-0.032	-0.112
-321.070	-34.614	-0.152	-0.083
-320.056	-37.174	0.076	-0.041
-319.041	248.185	0.041	0.069
-318.026	48.264	0.107	-0.100
-317.012	111.594	-0.174	0.210
-315.997	292.598	0.066	-0.120
-314.983	-200.000	-0.043	-0.436
-313.968	2.038	-0.068	-0.049
-312.953	-200.000	0.003	0.070
-311.939	800.000	-0.069	-0.289
-310.924	79.157	-0.249	-0.267
-309.910	-45.502	-0.203	0.100
-308.895	320.154	0.012	0.023
-307.880	-22.158	-0.190	0.115
-306.866	-200.000	-0.197	0.001
-305.851	-200.000	-0.029	0.203
-304.837	-200.000	-0.070	-0.342
-303.822	377.485	-0.204	-0.417
-302.807	-36.488	-0.274	0.148
-301.793	800.000	-0.031	0.128
-300.778	651.773	-0.164	-0.419
-299.764	-115.623	0.129	-0.024
-298.749	723.516	0.053	0.140
-297.735	-187.114	0.212	0.003
-296.720	253.527	0.108	0.184
-295.705	320.358	-0.134	-0.254
-294.691	-161.729	0.062	0.003
-293.676	-200.000	0.009	0.255
-292.662	5.113	-0.263	0.194
-291.647	318.033	-0.004	-0.007
-290.632	-200.000	0.027	0.132
-289.618	-140.823	0.053	0.005
-288.603	67.808	0.252	-0.257
-287.589	-200.000	-0.035	0.189
-286.574	128.815	-0.188	0.239
-285.559	-149.439	-0.093	-0.007
-284.545	-113.571	0.248	-0.048
-283.530	-161.330	-0.185	-0.010
-282.516	-90.445	0.544	0.157
-281.501	162.035	0.224	0.313
-280.486	-26.620	0.183	0.107
-279.472	244.662	-0.194	-0.325
-278.457	800.000	0.062	-0.170
-277.443	-3.251	-0.407	0.283
-276.428	-139.688	0.212	-0.023
-275.413	-51.599	-0.171	0.080
-274.399	368.063	-0.208	0.420
-273.384	-64.110	-0.188	-0.076
-272.370	-55.523	-0.125	-0.056
-271.355	-106.951	0.194	-0.043
-270.340	-163.998	-0.218	0.010
-269.326	800.000	0.050	-0.196
-268.311	-89.592	-0.108	-0.032
-267.297	133.547	0.079	0.103
-266.282	-39.300	-0.177	-0.093
-265.267	-126.239	0.096	0.014
-264.253	-94.546	0.124	0.034
-263.238	800.000	-0.025	-0.071
-262.224	56.019	-0.023	-0.022
-261.209	-200.000	-0.038	0.168
-260.195	128.779	0.101	0.128
-259.180	-100.974	0.558	0.137
-258.165	778.406	0.045	0.124
-257.151	337.660	0.031	-0.060
-256.136	198.078	-0.088	0.135
-255.122	-200.000	0.010	0.209
-254.107	800.000	0.053	-0.227
-253.092	63.404	-0.166	0.166
-252.078	-112.770	0.041	0.008
-251.063	40.909	-0.143	0.129
-250.049	-200.000	-0.031	-0.377
-249.034	424.566	0.176	-0.377
-248.019	148.583	0.029	-0.039
-247.005	770.734	0.093	0.252
-245.990	-200.000	-0.027	-0.213
-244.976	402.253	0.035	-0.073
-243.961	-16.038	-0.134	-0.085
-242.946	-14.426	0.101	-0.065
-241.932	-200.000	-0.000	-0.126
-240.917	-200.000	-0.001	0.415
-239.903	-94.164	-0.263	0.072
-238.888	702.066	-0.173	0.453
-237.873	44.766	0.104	-0.096
-236.859	-200.000	0.009	-0.068
-235.844	-122.307	-0.211	0.034
-234.830	-38.899	-0.189	-0.099
-233.815	144.962	0.177	-0.235
-232.800	-200.000	-0.005	-0.228
-231.786	-90.148	0.416	-0.121
-230.771	-37.187	-0.170	-0.091
-229.757	-63.646	0.275	0.112
-228.742	123.435	-0.334	-0.418
-227.727	-85.611	0.238	-0.074
-226.713	-87.093	0.066	0.020
-225.698	800.000	-0.007	-0.020
-224.684	-14.759	-0.262	-0.168
-223.669	652.819	-0.024	0.063
-222.655	800.000	0.104	0.372
-221.640	-167.883	-0.080	0.003
-220.625	154.690	-0.097	-0.133
-219.611	757.230	-0.114	-0.308
-218.596	19.103	0.279	-0.223
-217.582	185.357	-0.054	0.079
-216.567	-111.634	-0.190	0.038
-215.552	-30.395	0.068	-0.038
-214.538	81.240	-0.105	-0.112
-213.523	-200.000	-0.011	-0.130
-212.509	-200.000	-0.083	-0.395
-211.494	-18.883	0.131	-0.081
-210.479	-37.325	-0.134	0.072
-209.465	19.033	0.057	0.045
-208.450	236.621	0.148	0.244
-207.436	800.000	-0.084	-0.272
-206.421	-90.167	-0.355	-0.103
-205.406	-70.539	-0.160	0.060
-204.392	-49.083	0.091	0.043
-203.377	-94.666	0.201	0.054
-202.363	133.109	-0.121	-0.155
-201.348	-9.953	0.105	0.070
-200.333	-102.273	0.382	0.091
-199.319	711.547	0.125	-0.330
-198.304	62.018	0.123	0.122
-197.290	-81.474	-0.346	0.113
-196.275	-70.863	-0.381	0.143
-195.260	71.486	-0.165	-0.171
-194.246	49.383	0.243	-0.228
-193.231	-73.677	0.322	-0.117
-192.217	144.542	-0.032	-0.043
-191.202	85.478	-0.069	0.076
-190.187	-200.000	0.034	0.336
-189.173	800.000	-0.088	0.262
-188.158	47.704	-0.007	-0.007
-187.144	134.888	-0.316	0.408
-186.129	800.000	-0.048	0.204
-185.114	-36.519	-0.155	-0.083
-184.100	-200.000	-0.001	-0.056
-183.085	-72.008	0.082	-0.030
-182.071	-200.000	0.027	0.334
-181.056	715.772	0.065	0.172
-180.042	491.098	0.042	-0.096
-179.027	-24.935	0.207	-0.122
-178.012	-63.026	-0.246	0.101
-176.998	-104.263	-0.238	-0.055
-175.983	-200.000	-0.012	0.053
-174.969	-108.390	-0.328	-0.070
-173.954	205.528	0.171	-0.265
-172.939	-80.717	-0.325	-0.107
-171.925	12.263	0.132	-0.101
-170.910	-200.000	-0.017	-0.079
-169.896	800.000	0.027	0.112
-168.881	98.836	0.120	-0.137
-167.866	-42.816	-0.041	-0.021
-166.852	307.347	-0.069	0.128
-165.837	-48.028	-0.241	0.116
-164.823	-67.642	0.148	0.057
-163.808	800.000	0.093	-0.306
-162.793	-200.000	0.015	0.248
-161.779	233.810	0.162	0.265
-160.764	-200.000	-0.002	-0.037
-159.750	63.342	-0.067	-0.067
-158.735	-200.000	-0.007	0.062
-157.720	-61.065	0.258	-0.108
-156.706	800.000	-0.062	0.183
-155.691	298.719	-0.045	0.081
-154.677	83.537	-0.045	0.049
-153.662	-126.720	0.393	-0.058
-152.647	432.511	-0.095	0.205
-151.633	-104.329	0.044	-0.010
-150.618	-62.502	0.089	-0.037
-149.604	-11.821	-0.175	0.114
-148.589	383.641	0.099	0.203
-147.574	-86.040	-0.044	-0.014
-146.560	-200.000	0.069	-0.434
-145.545	28.142	0.274	0.230
-144.531	-200.000	0.037	0.254
-143.516	61.614	0.235	0.232
-142.502	-200.000	-0.006	0.074
-141.487	92.458	0.185	-0.207
-140.472	566.740	-0.066	0.159
-139.458	-11.470	-0.190	-0.124
-138.443	53.205	0.122	0.116
-137.429	-200.000	0.013	0.206
-136.414	-144.461	0.289	0.027
-135.399	138.371	0.062	-0.081
-134.385	800.000	-0.072	-0.238
-133.370	49.610	0.102	-0.095
-132.356	800.000	0.071	0.196
-131.341	-14.779	0.232	-0.148
-130.326	224.034	-0.128	0.205
-129.312	-62.595	-0.355	0.146
-128.297	212.007	0.175	-0.273
-127.283	-108.602	-0.147	-0.031
-126.268	800.000	-0.009	0.026
-125.253	-53.296	0.149	-0.068
-124.239	-22.153	-0.135	0.081
-123.224	284.442	0.235	0.420
-122.210	-49.404	0.221	-0.104
