DTS Sentinel unit serial number:	SN413079Multiplexer serial number:	ORYXHardware model number:	OX4-SRSoftware version number:	ORYX F/W v4.00 Oryx Data Collector v3.7.2.0data status	okinstallation	princeton_trtdifferential loss correction	single-endedforward channel	channel 3reverse channel	N/Adate	2019/09/17time	02:00:35forward acquisition time	60.00reverse acquisition time	0.00gamma	496.2192k internal	0.2324k external	0.2324temperature offset calibration	0.9944default loss term (dB/km)	0.3790temperature slope calibration	1.0000multiplexer offset coefficient	1.0000multiplexer slope coefficient	1.0000fibre end	0.00T internal ref (°C)	29.64T ext. ref 1 (°C)	0.12T ext. ref 2 (°C)	24.52length (m)	temperature (°C)	Stokes	anti-Stokes-747.200	800.000	-0.071	-0.206
-746.185	-172.226	-0.095	0.003
-745.171	-5.801	0.278	0.192
-744.156	-113.356	-0.252	-0.050
-743.142	-200.000	-0.004	0.505
-742.127	5.897	0.322	0.240
-741.112	-200.000	0.002	0.041
-740.098	68.864	-0.141	0.146
-739.083	-126.894	-0.069	-0.010
-738.069	274.771	-0.023	0.041
-737.054	800.000	0.043	-0.122
-736.039	45.742	-0.250	0.233
-735.025	-49.021	0.255	0.123
-734.010	-54.278	0.187	0.086
-732.996	195.458	-0.044	0.067
-731.981	-93.253	0.119	0.033
-730.966	97.148	0.200	0.232
-729.952	174.236	-0.029	0.042
-728.937	-200.000	0.078	0.000
-727.923	39.362	0.230	-0.208
-726.908	66.322	-0.328	-0.336
-725.894	160.345	-0.051	-0.071
-724.879	753.791	-0.047	-0.129
-723.864	-188.622	0.287	-0.004
-722.850	-43.036	-0.282	0.144
-721.835	-200.000	0.010	-0.296
-720.821	-15.520	-0.175	0.113
-719.806	361.492	-0.035	-0.072
-718.791	105.172	-0.044	-0.053
-717.777	229.775	-0.101	0.167
-716.762	207.229	0.130	-0.205
-715.748	-113.754	-0.211	-0.041
-714.733	-200.000	-0.052	0.261
-713.718	-22.252	0.228	-0.139
-712.704	-200.000	-0.083	-0.449
-711.689	114.211	-0.091	-0.112
-710.675	40.893	0.072	-0.065
-709.660	33.917	-0.160	0.141
-708.645	-97.160	0.166	-0.044
-707.631	294.056	0.089	0.164
-706.616	604.910	-0.118	-0.297
-705.602	-43.421	0.279	-0.142
-704.587	184.198	-0.199	0.296
-703.572	158.631	-0.235	0.329
-702.558	84.664	0.116	0.128
-701.543	-92.440	0.264	-0.075
-700.529	272.275	0.254	-0.452
-699.514	-110.551	0.210	0.044
-698.499	237.652	-0.213	-0.356
-697.485	-174.034	-0.501	0.015
-696.470	343.696	0.099	0.195
-695.456	420.697	0.198	0.427
-694.441	65.420	-0.303	-0.309
-693.426	800.000	-0.017	-0.058
-692.412	-39.362	0.073	0.039
-691.397	-87.373	0.174	-0.053
-690.383	74.406	-0.237	-0.251
-689.368	-200.000	-0.077	-0.383
-688.354	-197.340	0.101	0.001
-687.339	-19.414	0.165	-0.103
-686.324	22.075	-0.104	-0.086
-685.310	-74.577	-0.136	0.049
-684.295	-170.076	0.404	-0.014
-683.281	800.000	-0.058	-0.177
-682.266	-53.095	-0.114	0.053
-681.251	-21.189	-0.113	-0.070
-680.237	54.221	0.071	-0.069
-679.222	-168.101	-0.215	0.008
-678.208	598.513	0.119	-0.298
-677.193	304.149	-0.130	-0.243
-676.178	37.944	-0.413	-0.370
-675.164	-21.307	-0.077	-0.047
-674.149	92.727	0.237	-0.269
-673.135	55.509	-0.182	0.178
-672.120	-200.000	-0.171	0.001
-671.105	80.240	-0.029	-0.031
-670.091	478.181	-0.071	0.161
-669.076	-6.142	0.299	0.206
-668.062	211.092	0.262	-0.415
-667.047	-56.268	-0.222	0.099
-666.032	-108.283	-0.124	0.027
-665.018	-200.000	-0.002	-0.316
-664.003	-46.898	-0.344	-0.169
-662.989	-77.415	-0.100	-0.035
-661.974	-54.791	0.148	0.067
-660.959	22.778	-0.077	-0.063
-659.945	-112.692	-0.258	0.052
-658.930	-68.885	0.042	-0.016
-657.916	-200.000	0.034	0.262
-656.901	25.602	0.287	-0.241
-655.886	800.000	-0.035	-0.149
-654.872	42.158	-0.283	-0.259
-653.857	196.230	0.194	0.297
-652.843	63.469	-0.306	-0.308
-651.828	-140.376	0.238	0.025
-650.814	342.989	0.154	0.303
-649.799	-76.605	-0.049	0.017
-648.784	-173.275	-0.343	0.011
-647.770	-75.242	-0.206	-0.074
-646.755	233.993	-0.152	0.252
-645.741	-9.746	0.535	-0.358
-644.726	-200.000	-0.058	-0.485
-643.711	56.515	0.312	0.305
-642.697	-73.901	-0.125	-0.046
-641.682	800.000	0.073	0.218
-640.668	47.036	0.176	-0.165
-639.653	-157.999	0.244	0.014
-638.638	-33.558	-0.269	-0.149
-637.624	-200.000	-0.035	0.257
-636.609	546.528	-0.114	0.275
-635.595	-98.335	0.332	-0.086
-634.580	-28.829	0.186	-0.107
-633.565	360.961	0.080	0.161
-632.551	51.607	-0.117	0.112
-631.536	-69.996	-0.168	-0.064
-630.522	-200.000	-0.011	0.234
-629.507	107.230	-0.323	0.386
-628.492	-71.439	0.098	0.037
-627.478	-138.121	-0.137	0.015
-626.463	-200.000	-0.124	-0.000
-625.449	7.485	-0.123	0.092
-624.434	-18.902	-0.285	-0.178
-623.419	52.161	-0.314	0.300
-622.405	-200.000	0.030	-0.214
-621.390	-93.086	0.302	-0.085
-620.376	-200.000	0.010	0.174
-619.361	-19.310	-0.072	-0.045
-618.346	-72.596	0.164	0.061
-617.332	800.000	-0.137	-0.593
-616.317	283.341	-0.116	0.210
-615.303	-121.726	0.242	-0.040
-614.288	-102.879	-0.305	0.073
-613.273	291.815	0.138	-0.252
-612.259	-200.000	0.017	-0.194
-611.244	-34.758	-0.120	0.066
-610.230	-200.000	0.014	-0.077
-609.215	6.745	0.197	0.147
-608.201	386.224	0.012	0.024
-607.186	13.408	-0.293	0.228
-606.171	6.203	0.130	-0.097
-605.157	13.583	0.207	0.162
-604.142	-51.132	-0.336	-0.158
-603.128	486.454	-0.098	-0.224
-602.113	198.108	-0.176	0.270
-601.098	187.863	0.171	0.256
-600.084	-4.754	0.223	0.154
-599.069	656.498	-0.079	0.204
-598.055	275.980	0.121	0.216
-597.040	-125.478	-0.170	-0.026
-596.025	405.527	0.090	0.190
-595.011	625.348	-0.045	-0.115
-593.996	-66.948	-0.107	-0.042
-592.982	118.928	-0.141	-0.174
-591.967	800.000	0.141	-0.502
-590.952	-82.916	0.122	0.039
-589.938	-200.000	-0.016	0.272
-588.923	35.414	-0.098	-0.086
-587.909	307.598	0.123	0.231
-586.894	250.683	-0.111	0.189
-585.879	-18.585	-0.292	0.183
-584.865	381.041	0.193	-0.398
-583.850	-139.086	0.125	0.014
-582.836	415.867	0.134	-0.287
-581.821	556.521	0.216	-0.523
-580.806	693.947	-0.102	-0.268
-579.792	15.631	-0.064	-0.050
-578.777	133.904	-0.115	-0.150
-577.763	513.929	-0.131	0.307
-576.748	33.007	0.070	-0.061
-575.733	60.716	0.309	0.307
-574.719	-1.718	0.094	0.066
-573.704	-80.202	-0.177	0.059
-572.690	-200.000	0.002	0.047
-571.675	-200.000	0.010	-0.454
-570.661	-127.448	-0.310	-0.045
-569.646	109.795	0.107	0.128
-568.631	124.101	-0.206	-0.260
-567.617	-114.503	-0.344	-0.066
-566.602	383.165	-0.147	0.304
-565.588	800.000	-0.066	0.238
-564.573	226.938	0.173	-0.281
-563.558	632.462	-0.033	-0.084
-562.544	-72.583	-0.344	-0.127
-561.529	75.269	-0.130	-0.138
-560.515	110.556	-0.219	-0.264
-559.500	12.536	-0.178	0.138
-558.485	-200.000	-0.047	0.408
-557.471	-154.095	-0.042	-0.003
-556.456	343.301	0.059	0.115
-555.442	-129.620	0.317	-0.044
-554.427	-118.299	0.428	-0.076
-553.412	-81.797	-0.519	-0.171
-552.398	14.993	0.073	-0.058
-551.383	-26.993	0.194	-0.114
-550.369	-152.216	0.070	0.005
-549.354	-144.834	-0.281	0.026
-548.339	-71.342	0.353	-0.132
-547.325	-200.000	-0.022	0.190
-546.310	76.762	0.085	-0.091
-545.296	800.000	-0.082	0.308
-544.281	747.909	-0.109	-0.295
-543.266	429.815	0.070	0.152
-542.252	200.786	0.100	0.154
-541.237	59.281	-0.249	-0.246
-540.223	800.000	-0.057	-0.211
-539.208	-45.451	0.181	-0.090
-538.193	-83.669	0.100	-0.032
-537.179	88.711	-0.047	-0.053
-536.164	-53.007	-0.048	-0.022
-535.150	-107.183	0.070	-0.015
-534.135	196.282	-0.065	-0.099
-533.121	-41.515	0.136	0.070
-532.106	81.989	-0.092	0.100
-531.091	-122.725	-0.111	-0.018
-530.077	228.572	0.034	-0.055
-529.062	-67.692	0.166	0.065
-528.048	-200.000	-0.160	0.000
-527.033	800.000	0.019	-0.082
-526.018	57.617	-0.117	-0.114
-525.004	351.188	-0.055	0.109
-523.989	-177.953	-0.312	0.007
-522.975	-200.000	-0.020	0.244
-521.960	-46.221	0.216	-0.107
-520.945	-64.629	-0.081	0.033
-519.931	114.738	0.104	0.127
-518.916	-45.068	0.325	0.162
-517.902	282.857	-0.114	0.205
-516.887	-63.373	0.156	-0.064
-515.872	-200.000	-0.051	-0.239
-514.858	201.638	-0.097	-0.150
-513.843	-36.783	-0.062	0.033
-512.829	103.219	-0.243	-0.285
-511.814	361.169	-0.125	0.250
-510.799	-200.000	0.004	0.238
-509.785	186.468	0.149	-0.222
-508.770	-65.062	0.014	-0.006
-507.756	-157.505	-0.100	-0.006
-506.741	303.768	-0.039	-0.073
-505.726	-200.000	0.014	0.188
-504.712	223.878	-0.077	-0.124
-503.697	-25.567	-0.159	-0.094
-502.683	-67.833	0.232	-0.091
-501.668	11.626	0.089	0.068
-500.653	228.875	-0.081	-0.133
-499.639	-134.810	0.184	0.022
-498.624	196.664	0.045	0.069
-497.610	-147.921	0.230	0.019
-496.595	135.661	-0.066	-0.085
-495.581	-200.000	0.040	-0.271
-494.566	-30.110	0.277	0.158
-493.551	-127.125	-0.053	-0.008
-492.537	-200.000	0.015	-0.255
-491.522	-200.000	0.053	-0.367
-490.508	-59.225	0.249	-0.107
-489.493	638.040	0.123	0.313
-488.478	419.682	0.076	-0.163
-487.464	212.943	0.127	0.200
-486.449	-13.596	-0.251	-0.163
-485.435	679.006	-0.111	0.289
-484.420	-126.533	0.259	-0.038
-483.405	181.779	0.294	0.432
-482.391	356.386	0.069	0.137
-481.376	800.000	-0.106	0.380
-480.362	9.405	-0.307	-0.232
-479.347	123.754	-0.197	-0.247
-478.332	343.691	-0.070	-0.138
-477.318	-121.369	0.208	-0.035
-476.303	150.891	0.074	0.100
-475.289	-81.841	0.251	-0.082
-474.274	177.405	0.153	0.222
-473.259	-200.000	0.045	0.224
-472.245	-33.256	-0.376	-0.208
-471.230	-6.184	-0.184	0.126
-470.216	-135.103	-0.286	-0.034
-469.201	611.535	-0.051	-0.127
-468.186	-200.000	0.000	-0.091
-467.172	-122.873	-0.095	-0.015
-466.157	-103.149	0.087	-0.021
-465.143	152.171	0.122	-0.167
-464.128	36.771	0.145	-0.128
-463.113	357.052	-0.047	0.093
-462.099	-172.920	-0.267	0.008
-461.084	760.840	-0.033	-0.089
-460.070	470.247	0.085	0.190
-459.055	-44.075	-0.375	0.188
-458.040	303.918	-0.078	0.144
-457.026	-133.374	0.182	0.023
-456.011	-144.874	0.285	0.026
-454.997	-200.000	-0.018	-0.141
-453.982	16.195	-0.172	0.136
-452.968	224.179	0.190	0.306
-451.953	-119.981	-0.260	0.044
-450.938	-25.083	-0.190	-0.112
-449.924	-200.000	-0.023	0.252
-448.909	-44.921	0.099	0.049
-447.895	199.518	-0.155	0.238
-446.880	1.724	-0.249	0.179
-445.865	-49.422	0.066	0.031
-444.851	-133.364	-0.266	-0.033
-443.836	1.332	0.441	0.316
-442.822	-200.000	-0.047	0.292
-441.807	28.516	-0.090	-0.076
-440.792	9.098	0.162	-0.122
-439.778	181.876	-0.099	-0.146
-438.763	-21.323	0.161	0.098
-437.749	192.547	0.068	0.102
-436.734	29.869	-0.194	0.165
-435.719	-200.000	0.003	-0.191
-434.705	-67.900	0.213	0.083
-433.690	-79.159	0.175	-0.059
-432.676	-40.393	0.050	0.026
-431.661	-10.544	0.203	-0.134
-430.646	82.444	-0.054	-0.059
-429.632	-81.621	-0.149	-0.049
-428.617	-73.426	0.081	-0.029
-427.603	180.090	-0.204	-0.298
-426.588	10.748	-0.084	0.064
-425.573	-66.364	0.319	0.126
-424.559	-200.000	0.012	0.281
-423.544	451.047	-0.147	-0.323
-422.530	-133.359	-0.254	0.032
-421.515	16.922	-0.084	0.066
-420.500	-200.000	0.048	-0.240
-419.486	105.081	0.128	-0.151
-418.471	-200.000	-0.021	0.124
-417.457	402.667	-0.119	0.250
-416.442	88.777	0.126	0.139
-415.428	-96.069	-0.306	-0.081
-414.413	207.711	-0.194	-0.302
-413.398	439.383	-0.148	-0.323
-412.384	5.127	-0.089	0.066
-411.369	800.000	-0.015	-0.053
-410.355	-141.925	0.153	0.015
-409.340	-41.984	0.103	-0.052
-408.325	800.000	0.073	0.214
-407.311	81.362	-0.135	0.145
-406.296	187.142	-0.067	0.099
-405.282	163.837	0.018	-0.025
-404.267	-62.344	0.125	0.052
-403.252	-104.865	-0.009	-0.002
-402.238	-200.000	0.041	-0.322
-401.223	215.744	-0.130	-0.206
-400.209	233.623	-0.082	-0.134
-399.194	-83.040	0.197	0.063
-398.179	-200.000	0.008	-0.113
-397.165	387.262	-0.114	0.234
-396.150	-119.341	0.084	-0.015
-395.136	-200.000	0.014	-0.235
-394.121	-4.017	-0.060	0.041
-393.106	-200.000	0.098	0.569
-392.092	-154.418	0.121	-0.008
-391.077	-200.000	0.030	0.262
-390.063	-72.703	-0.084	-0.031
-389.048	377.117	-0.036	-0.074
-388.033	-149.219	-0.140	0.011
-387.019	-40.938	-0.062	-0.032
-386.004	6.812	0.095	-0.070
-384.990	-41.014	0.114	-0.059
-383.975	-200.000	0.030	-0.273
-382.960	79.565	-0.105	-0.112
-381.946	-200.000	0.064	-0.315
-380.931	351.805	0.041	-0.081
-379.917	-200.000	0.029	-0.299
-378.902	-58.810	0.192	-0.083
-377.888	233.974	-0.312	-0.512
-376.873	73.943	-0.065	-0.068
-375.858	48.655	0.190	0.178
-374.844	32.601	-0.215	-0.185
-373.829	-11.967	0.150	0.098
-372.815	-173.806	0.297	-0.009
-371.800	800.000	-0.087	0.311
-370.785	110.937	0.172	0.206
-369.771	-70.910	-0.342	0.128
-368.756	-49.480	0.114	-0.054
-367.742	-200.000	0.021	-0.554
-366.727	91.120	-0.340	-0.379
-365.712	-200.000	0.014	-0.154
-364.698	74.766	-0.095	-0.100
-363.683	49.312	-0.310	-0.290
-362.669	129.354	0.147	-0.187
-361.654	63.817	0.268	0.267
-360.639	-129.975	0.102	0.014
-359.625	-34.575	-0.319	0.174
-358.610	-136.600	-0.160	-0.018
-357.596	800.000	0.132	-0.442
-356.581	-77.026	-0.161	-0.056
-355.566	-133.615	-0.353	0.044
-354.552	-58.254	-0.022	-0.009
-353.537	-200.000	0.033	0.231
-352.523	-200.000	0.013	-0.161
-351.508	800.000	-0.012	-0.042
-350.493	35.507	-0.168	-0.146
-349.479	-80.930	0.228	-0.075
-348.464	75.261	-0.033	0.035
-347.450	-200.000	0.015	-0.166
-346.435	51.607	0.016	-0.015
-345.420	7.772	0.132	-0.098
-344.406	-93.633	-0.110	0.030
-343.391	-11.999	0.096	0.062
-342.377	-98.322	0.173	-0.044
-341.362	-200.000	-0.480	0.000
-340.348	-63.535	0.182	0.074
-339.333	-200.000	0.055	0.447
-338.318	-200.000	0.005	0.123
-337.304	-107.861	-0.407	-0.088
-336.289	-80.940	-0.055	0.018
-335.275	-54.709	0.271	-0.122
-334.260	-34.726	-0.247	0.134
-333.245	105.112	0.074	0.087
-332.231	800.000	-0.054	0.182
-331.216	-122.517	-0.269	0.044
-330.202	-200.000	0.027	0.146
-329.187	192.058	-0.267	-0.400
-328.172	118.292	-0.257	0.315
-327.158	-124.206	0.234	0.036
-326.143	54.663	-0.296	0.283
-325.129	23.312	0.129	0.105
-324.114	-21.771	0.271	-0.164
-323.099	800.000	0.042	0.162
-322.085	357.600	0.050	0.099
-321.070	204.196	0.114	-0.175
-320.056	28.804	-0.329	-0.277
-319.041	800.000	-0.077	0.321
-318.026	-55.892	0.465	0.206
-317.012	-45.687	0.314	-0.154
-315.997	-55.707	0.151	-0.067
-314.983	800.000	-0.064	0.184
-313.968	-200.000	0.036	-0.286
-312.953	60.301	-0.102	0.100
-311.939	-126.986	0.092	-0.013
-310.924	-56.424	0.205	-0.090
-309.910	-200.000	0.003	0.195
-308.895	134.947	0.084	0.108
-307.880	37.890	-0.141	0.124
-306.866	-60.155	-0.081	0.034
-305.851	-51.353	-0.189	0.088
-304.837	183.489	-0.048	-0.070
-303.822	52.210	-0.201	0.190
-302.807	800.000	-0.050	-0.212
-301.793	-155.646	0.200	0.013
-300.778	-46.458	-0.398	-0.194
-299.764	-153.832	0.160	-0.011
-298.749	-179.548	-0.153	0.003
-297.735	-56.347	0.488	0.215
-296.720	68.768	0.137	0.139
-295.705	-200.000	0.051	-0.491
-294.691	-11.707	0.029	0.019
-293.676	-22.439	-0.070	0.042
-292.662	254.503	-0.098	-0.166
-291.647	37.727	0.022	-0.020
-290.632	-28.797	0.084	0.048
-289.618	-94.284	-0.343	-0.093
-288.603	-200.000	0.018	-0.121
-287.589	454.351	0.139	-0.306
-286.574	-182.197	-0.157	-0.003
-285.559	-117.772	0.235	-0.042
-284.545	-63.502	-0.240	-0.098
-283.530	94.776	0.094	0.106
-282.516	800.000	0.126	-0.464
-281.501	-105.703	-0.168	-0.038
-280.486	-68.981	0.233	0.089
-279.472	-200.000	-0.034	-0.342
-278.457	-93.018	0.141	-0.039
-277.443	259.913	0.158	0.271
-276.428	-200.000	0.018	-0.261
-275.413	73.267	0.071	0.074
-274.399	88.590	0.222	-0.245
-273.384	292.044	0.074	0.134
-272.370	-73.731	-0.145	-0.052
-271.355	-24.893	0.170	-0.100
-270.340	262.666	0.291	-0.500
-269.326	-200.000	0.032	0.206
-268.311	-200.000	0.077	0.716
-267.297	238.039	-0.242	0.398
-266.282	16.531	0.224	0.175
-265.267	28.740	0.145	-0.122
-264.253	405.908	0.221	-0.461
-263.238	-200.000	-0.029	-0.168
-262.224	-50.960	-0.141	0.065
-261.209	800.000	-0.031	-0.131
-260.195	-135.188	-0.287	-0.034
-259.180	162.510	0.114	0.159
-258.165	133.613	0.163	0.209
-257.151	-121.935	0.151	-0.025
-256.136	142.797	-0.138	-0.182
-255.122	397.735	0.150	-0.310
-254.107	57.469	-0.097	0.094
-253.092	116.100	0.142	-0.172
-252.078	-41.815	0.142	0.072
-251.063	97.130	0.082	-0.093
-250.049	89.093	0.083	-0.091
-249.034	-10.201	0.131	0.086
-248.019	17.429	0.025	-0.020
-247.005	-76.106	-0.241	0.084
-245.990	-45.400	-0.043	-0.021
-244.976	99.370	0.203	0.233
-243.961	-200.000	0.028	0.272
-242.946	133.379	0.182	-0.233
-241.932	34.288	-0.400	0.346
-240.917	-111.506	0.295	-0.059
-239.903	-200.000	0.026	-0.187
-238.888	114.223	-0.153	-0.184
-237.873	-47.100	-0.199	0.096
-236.859	-89.699	-0.375	-0.109
-235.844	494.205	0.165	0.375
-234.830	-51.214	0.172	0.080
-233.815	364.005	-0.163	0.325
-232.800	396.641	-0.060	0.123
-231.786	-162.390	0.203	0.010
-230.771	282.515	-0.122	0.217
-229.757	404.289	-0.154	0.320
-228.742	378.485	0.091	-0.185
-227.727	-200.000	0.029	-0.153
-226.713	679.865	0.082	0.211
-225.698	-200.000	0.093	0.527
-224.684	-64.087	-0.277	0.112
-223.669	-200.000	0.054	0.369
-222.655	800.000	0.087	0.308
-221.640	800.000	0.066	-0.183
-220.625	77.765	-0.137	0.145
-219.611	-131.852	-0.274	0.035
-218.596	-92.371	0.249	0.069
-217.582	203.682	-0.197	-0.302
-216.567	-148.674	0.266	-0.021
-215.552	-107.739	-0.324	0.070
-214.538	693.503	-0.036	0.093
-213.523	113.480	-0.170	0.204
-212.509	121.291	-0.270	0.332
-211.494	273.911	0.201	-0.352
-210.479	184.921	-0.200	-0.293
-209.465	-64.695	-0.254	0.102
-208.450	-74.598	0.097	0.035
-207.436	16.560	0.138	0.108
-206.421	-7.392	0.410	0.274
-205.406	134.613	0.128	0.165
-204.392	13.480	0.217	0.167
-203.377	-68.117	0.191	0.073
-202.363	-95.665	0.137	-0.036
-201.348	190.240	-0.226	0.336
-200.333	682.392	-0.050	0.130
-199.319	800.000	-0.099	-0.336
-198.304	70.314	0.113	-0.116
-197.290	186.622	0.134	0.198
-196.275	-114.355	0.125	0.024
-195.260	283.089	-0.083	-0.148
-194.246	230.259	0.084	-0.136
-193.231	22.033	-0.041	0.033
-192.217	-71.733	-0.330	0.121
-191.202	-200.000	0.017	-0.252
-190.187	-136.164	0.154	0.018
-189.173	-38.142	0.194	-0.102
-188.158	220.047	-0.143	0.226
-187.144	800.000	-0.082	0.253
-186.129	626.191	-0.116	-0.290
-185.114	-110.334	0.318	0.065
-184.100	-79.657	0.098	0.033
-183.085	181.441	-0.084	-0.122
-182.071	-24.241	-0.041	0.024
-181.056	-147.537	0.113	-0.009
-180.042	-189.702	-0.277	-0.003
-179.027	800.000	0.089	0.351
-178.012	49.167	0.134	0.125
-176.998	-156.845	0.009	-0.001
-175.983	210.640	-0.258	-0.401
-174.969	800.000	-0.064	-0.223
-173.954	-200.000	-0.018	0.294
-172.939	8.055	0.253	-0.187
-171.925	438.329	0.155	-0.333
-170.910	-52.160	0.228	-0.104
-169.896	-176.008	0.307	-0.008
-168.881	-26.906	-0.190	0.109
-167.866	141.535	0.169	-0.221
-166.852	43.516	0.100	0.091
-165.837	-16.107	0.233	0.146
-164.823	-4.543	0.168	-0.114
-163.808	59.251	0.042	-0.040
-162.793	80.367	0.174	-0.185
-161.779	-109.639	-0.390	0.081
-160.764	800.000	0.058	0.176
-159.750	84.440	0.066	-0.071
-158.735	-51.361	0.222	-0.102
-157.720	474.641	0.005	0.011
-156.706	137.872	-0.114	-0.147
-155.691	-44.082	-0.200	0.099
-154.677	-108.532	0.183	-0.039
-153.662	-49.312	0.321	-0.151
-152.647	706.418	-0.208	0.541
-151.633	-121.213	0.287	-0.047
-150.618	36.760	-0.147	-0.128
-149.604	-107.945	-0.371	0.080
-148.589	341.171	-0.061	0.117
-147.574	800.000	-0.055	-0.191
-146.560	800.000	0.051	0.179
-145.545	83.957	0.200	0.216
-144.531	800.000	-0.119	-0.358
-143.516	-200.000	0.021	0.269
-142.502	243.573	-0.166	-0.275
-141.487	300.178	-0.037	0.067
-140.472	-89.439	0.159	0.046
-139.458	-48.987	-0.051	0.024
-138.443	253.143	0.065	-0.109
-137.429	117.288	0.149	-0.181
-136.414	800.000	-0.087	-0.295
-135.399	-200.000	-0.015	0.237
-134.385	-200.000	-0.034	0.183
-133.370	148.954	0.146	0.195
-132.356	81.898	-0.223	0.238
-131.341	59.938	-0.158	0.154
-130.326	-89.811	0.386	-0.111
-129.312	446.082	-0.130	0.282
-128.297	-39.945	-0.154	-0.079
-127.283	800.000	-0.068	0.256
-126.268	-24.759	-0.368	-0.216
-125.253	-96.846	-0.251	0.065
-124.239	-44.539	-0.314	0.155
-123.224	-200.000	0.021	-0.382
-122.210	66.571	0.220	0.220
-121.195	465.073	0.015	-0.034
-120.180	-144.113	0.259	0.024
