DTS Sentinel unit serial number:	SN413079Multiplexer serial number:	ORYXHardware model number:	OX4-SRSoftware version number:	ORYX F/W v4.00 Oryx Data Collector v3.7.2.0data status	okinstallation	princeton_trtdifferential loss correction	single-endedforward channel	channel 3reverse channel	N/Adate	2019/09/15time	07:08:34forward acquisition time	60.00reverse acquisition time	0.00gamma	496.2192k internal	0.2324k external	0.2324temperature offset calibration	0.9981default loss term (dB/km)	0.3790temperature slope calibration	1.0000multiplexer offset coefficient	1.0000multiplexer slope coefficient	1.0000fibre end	0.00T internal ref (°C)	30.50T ext. ref 1 (°C)	4.87T ext. ref 2 (°C)	25.68length (m)	temperature (°C)	Stokes	anti-Stokes-747.200	72.106	0.157	0.164
-746.185	163.672	-0.149	0.212
-745.171	-128.751	-0.283	0.040
-744.156	-55.766	-0.281	0.127
-743.142	800.000	0.034	0.097
-742.127	-87.347	-0.154	0.047
-741.112	285.140	-0.044	-0.079
-740.098	800.000	0.038	0.153
-739.083	437.824	0.052	-0.114
-738.069	-200.000	-0.007	0.457
-737.054	800.000	-0.074	0.269
-736.039	-200.000	-0.008	0.096
-735.025	-180.906	0.167	-0.003
-734.010	-119.408	-0.111	-0.019
-732.996	-155.306	0.165	0.011
-731.981	800.000	-0.060	0.228
-730.966	305.430	0.059	-0.111
-729.952	184.012	0.052	0.077
-728.937	-83.818	0.333	-0.107
-727.923	-55.457	-0.235	-0.106
-726.908	231.122	0.136	-0.225
-725.894	-200.000	-0.015	0.158
-724.879	-12.479	-0.256	-0.168
-723.864	800.000	0.098	-0.280
-722.850	5.332	-0.291	-0.217
-721.835	800.000	0.059	-0.208
-720.821	-52.176	-0.093	0.044
-719.806	9.765	-0.141	-0.108
-718.791	280.752	0.088	-0.158
-717.777	-200.000	0.018	-0.094
-716.762	-71.323	-0.264	-0.100
-715.748	-157.295	0.380	-0.023
-714.733	-121.694	-0.120	-0.020
-713.718	800.000	0.028	-0.083
-712.704	-117.167	-0.151	0.028
-711.689	-90.331	-0.191	-0.056
-710.675	313.875	-0.140	-0.265
-709.660	-34.934	0.280	0.154
-708.645	-200.000	-0.015	0.079
-707.631	31.755	-0.076	0.066
-706.616	24.525	0.304	-0.253
-705.602	-200.000	-0.012	-0.124
-704.587	-149.841	0.077	0.006
-703.572	162.765	0.125	0.177
-702.558	-200.000	0.009	0.174
-701.543	159.670	0.113	0.159
-700.529	-94.846	0.175	0.048
-699.514	66.795	0.268	0.274
-698.499	-24.793	0.151	0.090
-697.485	54.638	-0.267	-0.260
-696.470	189.144	0.079	-0.120
-695.456	-200.000	-0.022	-0.188
-694.441	130.834	-0.103	-0.133
-693.426	800.000	-0.061	0.188
-692.412	-30.561	0.064	-0.037
-691.397	689.025	-0.076	0.199
-690.383	-200.000	0.034	0.173
-689.368	-79.225	0.257	0.088
-688.354	800.000	-0.106	-0.416
-687.339	135.672	-0.189	-0.248
-686.324	-86.986	0.329	-0.101
-685.310	89.160	0.134	-0.150
-684.295	-141.681	-0.181	-0.018
-683.281	-17.848	0.158	-0.100
-682.266	800.000	0.077	0.314
-681.251	-8.365	0.333	0.226
-680.237	159.743	-0.026	0.036
-679.222	-128.178	0.447	-0.064
-678.208	-96.085	-0.097	-0.026
-677.193	-200.000	-0.012	-0.135
-676.178	800.000	-0.068	0.240
-675.164	90.850	0.228	-0.258
-674.149	-200.000	-0.014	-0.332
-673.135	-103.253	-0.147	-0.035
-672.120	238.888	-0.187	-0.313
-671.105	101.074	0.118	-0.138
-670.091	154.657	-0.101	0.140
-669.076	238.903	-0.142	-0.238
-668.062	78.430	0.187	0.201
-667.047	800.000	-0.075	-0.273
-666.032	214.859	-0.023	0.036
-665.018	-122.192	0.253	0.042
-664.003	800.000	0.150	-0.431
-662.989	-200.000	-0.006	-0.074
-661.974	-198.237	0.179	0.001
-660.959	28.027	0.144	0.122
-659.945	800.000	0.086	-0.248
-658.930	279.384	-0.095	0.171
-657.916	-200.000	-0.020	0.152
-656.901	-97.982	0.077	-0.020
-655.886	101.903	0.280	0.328
-654.872	305.136	0.288	0.538
-653.857	-69.896	-0.174	0.067
-652.843	-125.354	0.184	-0.028
-651.828	-65.576	-0.127	-0.051
-650.814	471.887	-0.093	-0.211
-649.799	65.072	0.227	-0.230
-648.784	-6.202	-0.188	0.129
-647.770	112.146	0.047	0.057
-646.755	-66.000	-0.098	-0.039
-645.741	-104.485	-0.592	0.138
-644.726	70.254	0.214	-0.222
-643.711	800.000	-0.054	0.217
-642.697	72.072	0.068	0.071
-641.682	-2.105	-0.098	0.069
-640.668	-48.872	-0.379	0.183
-639.653	-200.000	0.019	0.169
-638.638	414.724	0.166	-0.356
-637.624	50.084	-0.199	-0.189
-636.609	164.170	0.056	0.080
-635.595	628.664	-0.083	0.210
-634.580	-200.000	0.007	0.105
-633.565	61.301	-0.191	0.190
-632.551	800.000	0.131	-0.380
-631.536	-40.582	0.079	0.041
-630.522	299.150	-0.114	-0.210
-629.507	98.109	0.070	-0.082
-628.492	-200.000	0.072	-0.319
-627.478	-50.769	0.107	0.050
-626.463	352.358	0.169	-0.337
-625.449	-29.802	-0.406	-0.233
-624.434	-72.969	0.190	-0.070
-623.419	270.516	-0.070	-0.123
-622.405	370.989	-0.122	0.248
-621.390	62.248	-0.026	0.026
-620.376	800.000	-0.010	-0.032
-619.361	-21.591	0.176	-0.108
-618.346	800.000	-0.077	-0.316
-617.332	121.077	0.074	-0.092
-616.317	-49.088	-0.011	0.005
-615.303	-76.028	0.119	-0.042
-614.288	-200.000	-0.050	0.247
-613.273	-200.000	-0.006	-0.120
-612.259	-200.000	-0.020	-0.272
-611.244	-200.000	0.019	-0.183
-610.230	-200.000	0.021	0.117
-609.215	-62.204	-0.228	0.096
-608.201	-141.413	-0.172	0.017
-607.186	-137.066	0.253	-0.029
-606.171	473.444	0.087	0.197
-605.157	-115.049	-0.222	-0.042
-604.142	535.476	0.102	-0.244
-603.128	-157.082	-0.189	-0.012
-602.113	-12.502	0.351	-0.230
-601.098	-90.285	-0.318	0.093
-600.084	705.147	-0.140	0.371
-599.069	-200.000	-0.011	0.264
-598.055	10.872	0.209	-0.160
-597.040	-123.165	-0.225	0.036
-596.025	-47.030	-0.398	-0.195
-595.011	-200.000	-0.078	-0.399
-593.996	12.745	-0.153	-0.118
-592.982	116.835	0.072	0.089
-591.967	33.214	-0.179	-0.156
-590.952	36.490	-0.139	-0.123
-589.938	324.056	-0.219	0.420
-588.923	800.000	0.046	-0.150
-587.909	800.000	0.075	-0.238
-586.894	361.166	0.062	0.125
-585.879	-57.146	-0.227	-0.100
-584.865	82.877	-0.163	0.177
-583.850	-118.966	-0.165	-0.029
-582.836	-16.017	0.133	-0.085
-581.821	800.000	-0.127	-0.470
-580.806	-166.087	-0.275	0.012
-579.792	-200.000	-0.038	-0.301
-578.777	-137.714	-0.114	-0.013
-577.763	64.479	-0.205	-0.207
-576.748	-70.399	-0.192	-0.073
-575.733	38.597	-0.218	-0.195
-574.719	-200.000	0.015	-0.119
-573.704	47.110	0.176	-0.164
-572.690	258.109	0.104	0.179
-571.675	56.169	-0.094	0.092
-570.661	-200.000	-0.040	0.353
-569.646	-150.769	0.283	-0.022
-568.631	146.594	-0.083	0.112
-567.617	196.800	-0.074	0.113
-566.602	-60.424	0.006	-0.002
-565.588	-19.515	0.470	-0.292
-564.573	-200.000	-0.000	0.105
-563.558	-200.000	0.021	0.201
-562.544	219.409	0.219	0.351
-561.529	316.301	0.268	-0.508
-560.515	-89.352	0.049	-0.014
-559.500	-131.396	-0.351	-0.046
-558.485	800.000	0.021	0.079
-557.471	-39.480	0.316	0.166
-556.456	-200.000	-0.004	0.345
-555.442	-125.337	-0.027	-0.004
-554.427	-62.026	-0.203	0.085
-553.412	56.497	0.071	-0.069
-552.398	800.000	-0.059	0.218
-551.383	-200.000	0.001	-0.218
-550.369	-85.344	-0.358	0.112
-549.354	-200.000	0.009	-0.100
-548.339	395.823	0.109	-0.227
-547.325	767.551	0.070	0.190
-546.310	97.782	0.121	0.139
-545.296	-138.654	-0.311	0.034
-544.281	-200.000	-0.054	-0.250
-543.266	70.619	0.030	0.031
-542.252	213.658	0.123	-0.195
-541.237	800.000	0.061	0.264
-540.223	16.056	0.245	-0.193
-539.208	-91.793	-0.266	-0.076
-538.193	101.208	0.134	-0.156
-537.179	-200.000	-0.018	-0.257
-536.164	127.781	0.107	-0.136
-535.150	800.000	0.026	0.095
-534.135	-103.314	-0.099	-0.023
-533.121	109.012	-0.122	-0.146
-532.106	-112.999	-0.171	-0.034
-531.091	-83.370	-0.072	-0.023
-530.077	-53.048	0.146	0.067
-529.062	-163.944	0.312	-0.015
-528.048	313.724	0.106	-0.200
-527.033	-157.319	0.081	-0.005
-526.018	4.384	0.207	-0.152
-525.004	-105.005	0.040	0.009
-523.989	42.455	0.229	-0.208
-522.975	-200.000	-0.020	-0.102
-521.960	-26.431	-0.092	-0.054
-520.945	280.592	0.116	-0.208
-519.931	-51.464	-0.447	-0.209
-518.916	-40.516	0.065	-0.034
-517.902	-40.007	0.087	-0.045
-516.887	730.649	-0.116	0.310
-515.872	208.668	-0.093	-0.146
-514.858	-102.523	-0.208	-0.050
-513.843	800.000	-0.062	0.178
-512.829	118.253	0.127	0.157
-511.814	800.000	-0.037	0.110
-510.799	-36.116	-0.470	-0.254
-509.785	-200.000	-0.070	0.365
-508.770	-14.996	-0.142	0.091
-507.756	800.000	-0.024	-0.074
-506.741	86.549	-0.159	-0.176
-505.726	212.397	-0.182	-0.287
-504.712	800.000	0.132	0.411
-503.697	800.000	-0.046	0.138
-502.683	-129.392	-0.221	-0.031
-501.668	417.891	-0.069	-0.148
-500.653	-90.190	0.204	0.059
-499.639	-200.000	0.379	-0.001
-498.624	-107.103	-0.177	0.039
-497.610	-58.759	0.216	-0.093
-496.595	556.254	0.030	0.073
-495.581	84.453	-0.129	-0.141
-494.566	43.374	0.236	-0.216
-493.551	800.000	0.063	-0.247
-492.537	-115.088	-0.145	-0.027
-491.522	-200.000	0.027	0.171
-490.508	351.259	0.066	-0.130
-489.493	94.636	-0.178	0.202
-488.478	-137.653	-0.181	-0.020
-487.464	-14.748	-0.084	-0.054
-486.449	523.974	-0.036	0.083
-485.435	-110.295	0.220	-0.046
-484.420	39.995	-0.247	-0.221
-483.405	435.547	-0.177	0.386
-482.391	-200.000	-0.006	-0.142
-481.376	-59.089	0.135	0.058
-480.362	7.194	0.021	-0.016
-479.347	-95.124	-0.227	0.061
-478.332	800.000	-0.126	0.414
-477.318	-200.000	0.045	0.199
-476.303	-23.378	0.163	0.098
-475.289	190.948	-0.059	-0.088
-474.274	-200.000	-0.009	0.251
-473.259	154.360	0.287	-0.394
-472.245	-1.628	0.364	-0.256
-471.230	12.507	0.028	0.022
-470.216	-200.000	-0.004	0.374
-469.201	426.704	-0.044	0.095
-468.186	210.905	0.163	-0.256
-467.172	-111.482	0.140	-0.028
-466.157	8.685	-0.073	-0.055
-465.143	684.351	-0.140	0.364
-464.128	-91.173	-0.063	-0.018
-463.113	739.778	-0.159	-0.425
-462.099	-70.192	0.208	-0.079
-461.084	-11.659	0.415	0.272
-460.070	480.906	0.115	-0.260
-459.055	91.763	-0.085	0.096
-458.040	800.000	0.014	0.051
-457.026	-12.057	-0.322	0.211
-456.011	-139.094	-0.175	-0.019
-454.997	59.636	-0.025	0.024
-453.982	-19.753	0.266	0.164
-452.968	-40.093	-0.205	0.107
-451.953	193.701	-0.155	0.234
-450.938	31.705	0.205	0.176
-449.924	-8.912	0.203	-0.136
-448.909	-183.201	0.185	-0.003
-447.895	800.000	-0.053	0.201
-446.880	-65.894	-0.184	0.073
-445.865	35.998	0.155	0.136
-444.851	-94.123	0.263	0.072
-443.836	-51.683	-0.312	-0.145
-442.822	116.031	-0.027	0.033
-441.807	140.919	-0.294	0.388
-440.792	-1.054	0.042	-0.030
-439.778	-200.000	0.021	0.101
-438.763	202.122	-0.027	-0.041
-437.749	300.263	-0.122	0.225
-436.734	-37.909	-0.414	-0.219
-435.719	474.679	0.114	-0.257
-434.705	-199.668	0.288	-0.001
-433.690	1.204	0.368	-0.264
-432.676	138.548	0.042	-0.055
-431.661	800.000	0.043	0.121
-430.646	-93.858	0.167	0.046
-429.632	487.100	-0.180	-0.409
-428.617	-200.000	0.039	-0.511
-427.603	800.000	-0.060	0.195
-426.588	160.221	0.218	0.303
-425.573	-200.000	0.036	0.183
-424.559	-129.619	0.134	0.018
-423.544	-82.571	0.369	-0.119
-422.530	800.000	0.087	-0.308
-421.515	-167.877	0.145	-0.006
-420.500	-182.746	0.295	-0.005
-419.486	-28.328	0.139	-0.080
-418.471	400.269	0.183	-0.383
-417.457	-81.351	-0.163	-0.053
-416.442	-200.000	0.039	-0.233
-415.428	-134.049	-0.318	-0.039
-414.413	-6.922	-0.226	-0.153
-413.398	536.616	-0.139	0.328
-412.384	-1.981	0.104	-0.073
-411.369	729.562	0.023	0.061
-410.355	-134.220	-0.656	-0.081
-409.340	-200.000	0.001	0.033
-408.325	-55.101	-0.422	0.189
-407.311	262.851	0.138	0.238
-406.296	-16.295	0.189	0.120
-405.282	38.074	0.154	-0.136
-404.267	191.791	0.052	-0.078
-403.252	19.250	-0.100	0.080
-402.238	181.537	0.152	-0.223
-401.223	369.701	-0.064	-0.128
-400.209	-200.000	-0.016	-0.421
-399.194	76.493	0.213	-0.225
-398.179	800.000	-0.095	-0.316
-397.165	800.000	0.056	-0.175
-396.150	-119.950	-0.208	0.036
-395.136	-88.652	-0.147	0.044
-394.121	336.885	0.045	-0.086
-393.106	246.697	0.171	-0.287
-392.092	800.000	-0.204	-0.627
-391.077	7.109	0.262	0.195
-390.063	538.388	0.098	-0.233
-389.048	-200.000	0.015	-0.069
-388.033	-200.000	-0.026	0.198
-387.019	393.120	-0.118	0.245
-386.004	83.005	-0.053	0.057
-384.990	-200.000	-0.021	0.240
-383.975	-61.364	-0.505	-0.211
-382.960	50.203	-0.051	0.048
-381.946	-200.000	-0.005	-0.132
-380.931	262.895	-0.080	-0.138
-379.917	800.000	0.060	0.218
-378.902	224.592	0.118	-0.190
-377.888	-61.362	-0.136	0.057
-376.873	-103.548	-0.172	0.040
-375.858	198.162	0.132	-0.201
-374.844	-187.819	0.276	-0.004
-373.829	-81.514	0.256	-0.084
-372.815	117.840	0.104	0.127
-371.800	30.602	0.122	-0.104
-370.785	-107.782	-0.200	-0.043
-369.771	-173.874	-0.147	0.004
-368.756	-128.031	0.205	-0.029
-367.742	-200.000	0.001	0.294
-366.727	-58.531	-0.142	0.061
-365.712	783.681	-0.008	-0.022
-364.698	355.821	0.189	-0.374
-363.683	-119.451	-0.194	0.034
-362.669	800.000	0.102	0.364
-361.654	800.000	0.018	0.057
-360.639	144.969	-0.066	0.088
-359.625	34.345	0.215	0.187
-358.610	59.260	0.133	0.130
-357.596	800.000	0.039	-0.113
-356.581	-51.775	0.189	-0.087
-355.566	-164.760	-0.057	0.003
-354.552	800.000	0.123	-0.500
-353.537	-37.606	-0.155	0.082
-352.523	127.035	0.158	0.200
-351.508	48.994	0.177	-0.165
-350.493	-200.000	-0.046	0.290
-349.479	-200.000	0.058	0.289
-348.464	-46.735	-0.183	-0.089
-347.450	-81.822	-0.266	-0.086
-346.435	-200.000	0.034	0.170
-345.420	105.640	0.123	-0.145
-344.406	0.144	0.202	0.143
-343.391	-33.052	0.133	0.073
-342.377	2.646	-0.096	-0.069
-341.362	-7.456	-0.283	0.190
-340.348	180.000	-0.252	-0.367
-339.333	-200.000	0.045	0.211
-338.318	-122.799	0.165	-0.026
-337.304	223.193	0.110	0.176
-336.289	-200.000	-0.321	0.001
-335.275	97.073	-0.065	-0.074
-334.260	-19.020	-0.361	0.223
-333.245	54.268	-0.232	0.222
-332.231	504.799	-0.099	0.228
-331.216	-200.000	-0.042	0.275
-330.202	-89.568	0.157	-0.046
-329.187	435.930	-0.117	0.252
-328.172	33.914	-0.112	-0.097
-327.158	-200.000	0.012	0.345
-326.143	-43.931	0.228	0.114
-325.129	63.110	-0.244	-0.243
-324.114	530.535	0.079	0.186
-323.099	51.248	-0.182	0.171
-322.085	-69.413	0.083	-0.032
-321.070	-135.265	0.108	-0.013
-320.056	256.508	0.059	-0.101
-319.041	800.000	-0.097	-0.280
-318.026	-2.233	-0.189	0.131
-317.012	127.994	0.088	0.111
-315.997	-103.587	-0.251	0.058
-314.983	-87.393	0.283	-0.085
-313.968	205.976	-0.139	0.214
-312.953	-74.269	0.436	-0.157
-311.939	-80.684	-0.212	-0.070
-310.924	-90.913	-0.163	0.047
-309.910	133.441	-0.179	-0.230
-308.895	641.801	-0.068	-0.172
-307.880	63.542	-0.136	0.136
-306.866	123.950	-0.173	0.216
-305.851	205.516	0.172	0.266
-304.837	-162.861	-0.512	-0.025
-303.822	-103.184	-0.439	0.103
-302.807	377.352	-0.085	-0.172
-301.793	-200.000	-0.078	0.403
-300.778	107.553	-0.126	0.149
-299.764	-48.462	0.175	0.083
-298.749	76.389	0.177	0.186
-297.735	-67.043	-0.216	0.084
-296.720	-200.000	-0.013	-0.360
-295.705	-200.000	0.054	-0.253
-294.691	-200.000	0.010	0.117
-293.676	-200.000	0.046	0.232
-292.662	-61.545	-0.218	-0.091
-291.647	-75.236	-0.233	0.082
-290.632	-200.000	-0.028	-0.150
-289.618	-56.234	0.280	0.124
-288.603	800.000	0.045	0.137
-287.589	-200.000	-0.011	-0.054
-286.574	-200.000	0.076	-0.366
-285.559	276.364	-0.106	-0.187
-284.545	-96.258	0.110	0.029
-283.530	800.000	0.058	0.209
-282.516	105.205	-0.006	0.008
-281.501	-10.052	-0.428	-0.282
-280.486	-47.707	0.282	0.135
-279.472	108.336	-0.165	-0.195
-278.457	-101.638	0.359	0.086
-277.443	-31.207	0.037	0.021
-276.428	800.000	-0.068	-0.251
-275.413	-70.475	0.365	0.137
-274.399	183.970	0.162	-0.238
-273.384	-98.089	-0.324	-0.083
-272.370	197.764	-0.044	0.067
-271.355	-151.559	-0.104	-0.008
-270.340	-62.101	-0.096	0.040
-269.326	177.077	0.089	0.129
-268.311	185.260	-0.030	0.044
-267.297	-56.068	-0.198	-0.087
-266.282	-124.540	0.124	0.019
-265.267	-105.035	0.137	0.031
-264.253	33.324	-0.315	0.271
-263.238	800.000	0.070	0.301
-262.224	800.000	0.115	0.349
-261.209	718.855	-0.056	-0.148
-260.195	453.382	0.102	-0.224
-259.180	1.147	-0.144	-0.102
-258.165	-44.308	0.243	0.120
-257.151	278.618	-0.128	-0.225
-256.136	99.707	0.268	0.307
-255.122	298.957	0.103	0.188
-254.107	800.000	-0.108	0.312
-253.092	68.404	0.117	-0.119
-252.078	-200.000	0.023	0.182
-251.063	-8.574	0.181	-0.120
-250.049	-200.000	-0.017	0.106
-249.034	-155.777	-0.097	-0.006
-248.019	-78.260	0.029	0.010
-247.005	114.064	-0.230	0.277
-245.990	20.055	-0.117	0.094
-244.976	-126.287	0.089	-0.013
-243.961	-200.000	0.020	-0.255
-242.946	146.820	-0.086	0.115
-241.932	76.940	-0.045	0.047
-240.917	14.967	0.182	0.141
-239.903	-52.255	0.085	0.039
-238.888	-62.781	-0.206	0.084
-237.873	-200.000	-0.050	0.307
-236.859	-157.815	0.241	-0.014
-235.844	800.000	0.057	-0.227
-234.830	-55.212	-0.117	0.052
-233.815	76.892	-0.298	0.313
-232.800	331.878	0.202	0.387
-231.786	-200.000	0.072	-0.356
-230.771	-200.000	-0.011	-0.086
-229.757	-87.356	0.068	0.020
-228.742	-84.286	0.314	-0.099
-227.727	-200.000	0.005	-0.148
-226.713	176.334	-0.053	0.076
-225.698	-200.000	-0.020	-0.167
-224.684	-119.801	-0.091	-0.015
-223.669	-200.000	0.000	0.118
-222.655	-166.026	-0.242	0.010
-221.640	42.208	0.194	0.175
-220.625	364.244	0.072	0.142
-219.611	64.980	-0.298	0.298
-218.596	-93.323	0.349	-0.096
-217.582	-142.263	0.282	-0.028
-216.567	-2.934	-0.274	0.189
-215.552	-200.000	-0.028	-0.343
-214.538	156.493	0.068	0.093
-213.523	158.051	-0.171	-0.235
-212.509	325.509	0.110	0.209
-211.494	-63.559	0.355	0.144
-210.479	800.000	0.113	0.325
-209.465	-200.000	0.013	0.068
-208.450	-165.950	0.139	0.006
-207.436	98.221	-0.022	0.025
-206.421	32.267	-0.131	-0.112
-205.406	800.000	0.083	0.229
-204.392	-84.940	0.290	0.090
-203.377	194.358	0.074	0.111
-202.363	-200.000	0.023	-0.114
-201.348	800.000	-0.047	0.201
-200.333	-200.000	0.065	-0.339
-199.319	163.886	0.191	-0.266
-198.304	44.659	0.375	-0.341
-197.290	-200.000	-0.061	0.268
-196.275	57.128	0.215	0.207
-195.260	-67.452	-0.310	0.120
-194.246	85.952	-0.287	0.312
-193.231	-54.561	0.384	-0.172
-192.217	800.000	0.081	-0.239
-191.202	-175.766	0.195	-0.005
-190.187	83.233	-0.135	-0.145
-189.173	109.647	-0.109	0.129
-188.158	-53.743	-0.180	-0.081
-187.144	55.164	0.220	-0.210
-186.129	-109.911	0.218	-0.045
-185.114	20.813	0.373	-0.299
-184.100	-38.598	0.127	-0.066
-183.085	11.499	0.331	0.251
-182.071	117.201	0.273	0.331
-181.056	-149.425	0.314	0.025
-180.042	61.759	-0.016	0.015
-179.027	320.442	0.107	-0.200
-178.012	-113.406	0.198	-0.038
-176.998	-18.323	-0.103	-0.064
-175.983	-76.429	0.186	-0.065
-174.969	-15.808	0.061	0.038
-173.954	63.654	-0.181	0.180
-172.939	732.302	0.034	-0.089
-171.925	164.373	-0.211	0.293
-170.910	32.826	-0.072	-0.062
-169.896	-79.247	0.150	0.050
-168.881	-117.324	-0.040	-0.007
-167.866	800.000	0.076	0.216
-166.852	2.190	-0.244	0.174
-165.837	145.496	-0.138	0.183
-164.823	-130.336	0.152	-0.020
-163.808	-200.000	-0.035	-0.185
-162.793	-29.606	0.140	0.079
-161.779	4.669	-0.332	-0.241
-160.764	732.466	-0.074	0.195
-159.750	-46.524	-0.112	-0.054
-158.735	383.882	0.172	-0.350
-157.720	-59.295	0.296	0.126
-156.706	-115.960	0.499	-0.092
-155.691	-127.905	0.262	-0.037
-154.677	-200.000	0.020	0.163
-153.662	-20.922	0.120	0.073
-152.647	-200.000	0.026	0.155
-151.633	325.644	0.152	0.287
-150.618	-169.036	0.291	0.011
-149.604	592.494	0.054	0.132
-148.589	-53.869	0.083	-0.037
-147.574	-57.473	-0.329	0.142
-146.560	-135.322	0.132	0.016
-145.545	-68.233	0.435	-0.167
-144.531	46.702	0.275	-0.252
-143.516	516.018	-0.132	0.305
-142.502	30.343	-0.152	-0.128
-141.487	14.602	0.262	0.202
-140.472	-78.672	0.266	-0.089
-139.458	-135.986	-0.076	0.009
-138.443	81.364	0.106	0.113
-137.429	-200.000	-0.008	-0.127
-136.414	-85.202	0.169	0.052
-135.399	302.730	-0.154	0.281
-134.385	45.827	0.141	-0.129
-133.370	-65.418	0.302	-0.120
-132.356	800.000	-0.072	-0.201
-131.341	269.311	-0.018	0.031
-130.326	250.915	-0.017	0.029
-129.312	-63.616	0.090	-0.036
-128.297	237.106	-0.158	-0.257
-127.283	332.025	0.191	-0.363
-126.268	-174.915	-0.306	0.008
-125.253	100.596	0.067	-0.076
-124.239	-83.786	-0.201	-0.063
-123.224	370.185	0.156	0.311
-122.210	-200.000	0.008	-0.067
-121.195	201.022	0.165	-0.250
-120.180	225.501	0.070	0.112
