DTS Sentinel unit serial number:	SN413079Multiplexer serial number:	ORYXHardware model number:	OX4-SRSoftware version number:	ORYX F/W v4.00 Oryx Data Collector v3.7.2.0data status	okinstallation	princeton_trtdifferential loss correction	single-endedforward channel	channel 3reverse channel	N/Adate	2019/09/16time	13:40:34forward acquisition time	60.00reverse acquisition time	0.00gamma	496.2192k internal	0.2294k external	0.2294temperature offset calibration	0.9941default loss term (dB/km)	0.3790temperature slope calibration	1.0000multiplexer offset coefficient	1.0000multiplexer slope coefficient	1.0000fibre end	0.00T internal ref (°C)	42.14T ext. ref 1 (°C)	13.88T ext. ref 2 (°C)	38.76length (m)	temperature (°C)	Stokes	anti-Stokes-747.200	100.129	-0.011	0.013
-746.185	144.174	0.136	-0.185
-745.171	-200.000	0.005	0.179
-744.156	800.000	-0.046	0.184
-743.142	42.989	0.184	-0.172
-742.127	13.152	-0.164	0.130
-741.112	-200.000	-0.044	0.243
-740.098	-112.170	-0.022	0.004
-739.083	126.084	-0.117	-0.151
-738.069	-40.266	-0.108	-0.058
-737.054	-200.000	-0.041	-0.238
-736.039	-200.000	-0.008	-0.399
-735.025	-120.080	0.167	-0.029
-734.010	-90.400	0.118	-0.035
-732.996	-200.000	-0.012	-0.097
-731.981	261.240	-0.087	-0.153
-730.966	-7.972	-0.075	0.052
-729.952	-200.000	-0.007	0.159
-728.937	-120.860	-0.309	0.053
-727.923	-65.859	-0.207	0.085
-726.908	449.409	-0.187	-0.421
-725.894	800.000	-0.068	-0.246
-724.879	-14.191	-0.250	0.165
-723.864	-200.000	0.048	-0.333
-722.850	-47.227	0.254	-0.126
-721.835	-113.291	0.142	0.029
-720.821	800.000	0.021	0.071
-719.806	108.871	-0.179	-0.218
-718.791	13.350	0.150	-0.119
-717.777	800.000	0.060	0.190
-716.762	-22.428	-0.096	0.060
-715.748	-124.323	-0.191	0.031
-714.733	51.069	-0.139	-0.135
-713.718	-106.972	-0.144	0.032
-712.704	-174.384	-0.225	-0.007
-711.689	-200.000	-0.001	-0.087
-710.675	-200.000	-0.000	0.034
-709.660	-25.590	0.091	-0.055
-708.645	-200.000	-0.048	0.215
-707.631	-181.305	0.279	-0.006
-706.616	29.492	-0.068	-0.059
-705.602	-13.754	0.220	0.145
-704.587	20.695	-0.171	-0.142
-703.572	104.974	0.299	-0.360
-702.558	-161.147	-0.366	0.019
-701.543	-200.000	0.001	0.062
-700.529	-200.000	0.031	-0.177
-699.514	-10.042	-0.264	0.179
-698.499	-200.000	0.023	-0.144
-697.485	-147.990	0.084	0.007
-696.470	13.310	-0.171	-0.136
-695.456	-200.000	0.005	-0.205
-694.441	-113.202	0.111	0.022
-693.426	-13.001	0.199	0.132
-692.412	-200.000	-0.057	-0.444
-691.397	-74.035	0.008	0.003
-690.383	-36.340	-0.121	0.067
-689.368	-200.000	0.036	-0.274
-688.354	24.900	-0.062	0.053
-687.339	-136.954	-0.279	-0.033
-686.324	55.975	-0.096	0.096
-685.310	800.000	-0.056	0.246
-684.295	-200.000	-0.007	0.049
-683.281	-200.000	0.001	-0.151
-682.266	-148.387	-0.180	-0.015
-681.251	-151.377	0.398	-0.030
-680.237	42.877	0.160	-0.149
-679.222	23.755	-0.090	-0.076
-678.208	800.000	0.055	0.172
-677.193	800.000	0.117	-0.350
-676.178	35.018	-0.184	0.164
-675.164	562.587	-0.098	0.242
-674.149	81.043	-0.189	-0.208
-673.135	224.616	0.259	0.427
-672.120	-48.537	-0.029	-0.014
-671.105	105.622	-0.170	-0.205
-670.091	-53.695	-0.301	0.140
-669.076	149.813	0.099	0.137
-668.062	-200.000	0.027	-0.251
-667.047	-200.000	0.010	-0.220
-666.032	545.565	0.167	-0.408
-665.018	-137.534	-0.251	-0.029
-664.003	-132.291	0.306	-0.040
-662.989	69.431	0.285	-0.299
-661.974	-33.262	-0.168	0.095
-660.959	-49.449	0.180	-0.087
-659.945	76.151	-0.121	-0.131
-658.930	-45.161	0.345	0.175
-657.916	210.507	-0.231	0.370
-656.901	266.296	-0.101	-0.181
-655.886	-87.008	-0.335	-0.104
-654.872	-200.000	0.045	0.278
-653.857	98.718	-0.079	-0.093
-652.843	-51.326	-0.234	0.112
-651.828	-145.215	-0.147	0.014
-650.814	800.000	0.053	0.199
-649.799	-200.000	0.062	-0.349
-648.784	357.146	-0.031	0.063
-647.770	27.226	0.183	-0.156
-646.755	-93.075	-0.129	-0.037
-645.741	706.941	-0.084	-0.226
-644.726	133.474	0.117	-0.154
-643.711	-57.027	-0.111	0.050
-642.697	-94.236	0.139	-0.039
-641.682	-112.946	0.108	0.022
-640.668	491.161	-0.041	0.097
-639.653	-27.496	0.190	0.112
-638.638	165.571	0.032	-0.046
-637.624	-5.629	0.136	-0.095
-636.609	-15.232	0.059	-0.038
-635.595	331.964	-0.091	0.179
-634.580	4.462	-0.287	0.214
-633.565	800.000	0.066	0.275
-632.551	221.577	0.125	0.205
-631.536	-53.831	-0.279	-0.129
-630.522	-76.236	0.468	-0.168
-629.507	-200.000	0.062	-0.281
-628.492	213.220	-0.123	0.197
-627.478	65.875	-0.090	0.093
-626.463	26.364	0.304	-0.259
-625.449	-200.000	0.053	0.259
-624.434	-200.000	-0.005	0.099
-623.419	800.000	0.107	-0.384
-622.405	-200.000	0.001	-0.345
-621.390	111.119	-0.231	-0.284
-620.376	22.579	-0.195	-0.163
-619.361	800.000	-0.089	-0.255
-618.346	-55.464	-0.204	-0.093
-617.332	68.621	-0.190	0.199
-616.317	319.859	-0.139	0.268
-615.303	118.898	-0.160	-0.202
-614.288	-112.905	0.044	0.009
-613.273	-135.207	0.199	-0.024
-612.259	138.817	0.147	-0.197
-611.244	-127.073	-0.113	0.017
-610.230	143.122	-0.331	-0.448
-609.215	-122.558	0.151	0.025
-608.201	46.730	0.140	0.132
-607.186	-38.474	-0.230	0.124
-606.171	-131.619	0.317	0.042
-605.157	613.979	-0.076	-0.194
-604.142	-115.887	-0.347	0.066
-603.128	-53.745	0.199	-0.093
-602.113	-112.689	-0.267	-0.054
-601.098	716.160	-0.022	-0.058
-600.084	800.000	-0.014	-0.058
-599.069	800.000	-0.016	0.055
-598.055	23.059	-0.071	0.059
-597.040	-77.481	0.235	-0.083
-596.025	4.769	-0.216	-0.161
-595.011	-28.442	0.067	-0.039
-593.996	-200.000	0.028	-0.219
-592.982	-200.000	0.052	0.238
-591.967	209.841	0.144	-0.229
-590.952	-6.249	-0.152	0.106
-589.938	493.778	0.108	0.251
-588.923	-200.000	-0.082	0.430
-587.909	-200.000	-0.008	0.069
-586.894	138.078	-0.085	0.114
-585.879	47.984	-0.137	0.130
-584.865	-200.000	-0.009	0.063
-583.850	6.566	-0.109	-0.082
-582.836	-200.000	0.022	-0.189
-581.821	-200.000	-0.044	-0.312
-580.806	-124.893	-0.373	0.058
-579.792	33.072	-0.319	-0.281
-578.777	800.000	-0.084	-0.336
-577.763	-57.852	-0.246	0.109
-576.748	87.213	0.046	-0.052
-575.733	-200.000	0.004	0.144
-574.719	-40.853	-0.050	-0.026
-573.704	800.000	-0.032	0.125
-572.690	-130.761	0.169	-0.023
-571.675	33.651	-0.153	0.135
-570.661	572.164	-0.072	0.178
-569.646	125.932	-0.019	-0.024
-568.631	800.000	0.089	0.308
-567.617	800.000	0.024	-0.075
-566.602	-200.000	0.019	-0.112
-565.588	-70.260	0.325	-0.125
-564.573	-94.165	0.155	-0.043
-563.558	-102.866	0.159	0.038
-562.544	377.454	0.069	-0.144
-561.529	157.749	-0.189	0.266
-560.515	135.399	0.116	0.153
-559.500	-200.000	0.018	0.438
-558.485	-200.000	-0.001	0.086
-557.471	622.243	0.173	-0.441
-556.456	266.165	0.181	-0.320
-555.442	35.270	0.302	0.269
-554.427	102.272	0.058	0.069
-553.412	-128.580	-0.098	0.014
-552.398	-200.000	0.041	0.253
-551.383	63.465	0.153	-0.156
-550.369	-200.000	-0.001	-0.173
-549.354	-130.498	0.117	-0.016
-548.339	-57.202	0.107	-0.048
-547.325	-7.818	-0.185	0.127
-546.310	-120.146	-0.219	0.038
-545.296	129.780	-0.130	0.169
-544.281	197.192	-0.057	0.089
-543.266	245.314	-0.045	-0.077
-542.252	-157.877	-0.221	0.013
-541.237	-14.500	-0.134	-0.087
-540.223	800.000	-0.022	0.063
-539.208	-61.661	0.083	-0.035
-538.193	-22.136	0.272	0.167
-537.179	800.000	-0.017	0.069
-536.164	-139.253	-0.303	0.033
-535.150	-200.000	-0.027	-0.275
-534.135	-158.149	0.068	0.004
-533.121	-55.541	0.122	-0.055
-532.106	71.851	-0.037	-0.039
-531.091	16.165	0.164	-0.131
-530.077	-172.028	0.074	0.002
-529.062	-0.654	0.318	0.229
-528.048	178.691	0.314	0.466
-527.033	295.951	0.147	-0.273
-526.018	129.735	-0.152	-0.197
-525.004	18.878	-0.063	0.051
-523.989	-200.000	0.016	-0.336
-522.975	-36.941	0.058	0.032
-521.960	-138.604	-0.262	0.029
-520.945	800.000	-0.061	-0.179
-519.931	-200.000	0.043	0.226
-518.916	138.903	0.062	0.082
-517.902	-97.133	0.206	0.055
-516.887	108.950	0.250	0.303
-515.872	-200.000	-0.003	-0.234
-514.858	-200.000	-0.032	-0.254
-513.843	-88.349	0.253	-0.077
-512.829	-200.000	-0.035	0.234
-511.814	-27.283	-0.047	0.028
-510.799	-35.439	0.211	-0.116
-509.785	-200.000	-0.010	0.355
-508.770	72.513	0.058	-0.061
-507.756	272.820	-0.016	-0.028
-506.741	-134.674	-0.106	-0.013
-505.726	139.041	0.106	0.141
-504.712	-17.521	-0.080	-0.051
-503.697	-125.437	-0.389	-0.060
-502.683	-143.076	-0.127	-0.012
-501.668	42.858	0.179	0.166
-500.653	192.004	-0.058	-0.088
-499.639	-200.000	-0.012	-0.127
-498.624	-67.067	0.161	0.064
-497.610	-200.000	0.042	-0.297
-496.595	-200.000	-0.020	-0.257
-495.581	-200.000	-0.032	-0.179
-494.566	-73.558	-0.189	0.070
-493.551	20.639	0.249	0.204
-492.537	155.250	0.026	0.036
-491.522	136.556	-0.176	0.232
-490.508	119.940	0.245	0.307
-489.493	436.122	0.008	-0.018
-488.478	59.915	0.195	0.195
-487.464	347.270	-0.106	0.212
-486.449	800.000	-0.083	-0.320
-485.435	-54.106	0.195	-0.090
-484.420	790.393	0.093	0.259
-483.405	-42.981	-0.292	0.150
-482.391	119.968	0.095	0.119
-481.376	800.000	0.101	0.350
-480.362	87.598	0.140	-0.157
-479.347	-200.000	-0.040	-0.262
-478.332	5.099	0.225	-0.168
-477.318	238.421	-0.080	-0.134
-476.303	-156.463	-0.251	0.016
-475.289	-161.043	-0.474	-0.025
-474.274	162.498	0.089	-0.126
-473.259	-200.000	0.001	-0.065
-472.245	-94.566	0.271	-0.075
-471.230	800.000	-0.035	-0.148
-470.216	486.572	0.022	0.052
-469.201	-28.075	-0.329	-0.193
-468.186	42.317	0.145	0.134
-467.172	-8.771	-0.135	0.092
-466.157	-28.901	0.137	0.080
-465.143	603.068	0.029	-0.073
-464.128	182.740	-0.128	-0.191
-463.113	2.571	0.365	0.267
-462.099	-89.132	-0.407	-0.122
-461.084	14.063	-0.113	-0.089
-460.070	663.379	0.024	0.062
-459.055	69.317	0.216	0.225
-458.040	185.789	-0.103	-0.155
-457.026	-200.000	0.025	0.213
-456.011	93.781	0.189	-0.216
-454.997	-200.000	0.021	-0.337
-453.982	-177.516	-0.294	0.007
-452.968	424.063	0.041	0.089
-451.953	-158.029	0.047	0.003
-450.938	-60.735	0.257	-0.110
-449.924	235.321	-0.118	-0.197
-448.909	-200.000	-0.025	0.351
-447.895	800.000	-0.126	0.356
-446.880	524.571	0.129	0.307
-445.865	365.212	-0.081	0.165
-444.851	-50.143	0.225	-0.108
-443.836	-200.000	0.023	0.295
-442.822	800.000	0.017	0.075
-441.807	706.200	0.091	-0.242
-440.792	219.719	-0.221	0.358
-439.778	26.149	0.130	0.110
-438.763	-73.933	-0.310	0.114
-437.749	-115.976	0.040	0.008
-436.734	-21.762	-0.240	0.148
-435.719	477.663	0.170	-0.388
-434.705	-112.141	-0.135	0.027
-433.690	-45.803	0.442	-0.220
-432.676	587.528	0.122	-0.304
-431.661	-131.392	-0.236	0.032
-430.646	-3.237	0.120	0.084
-429.632	-115.220	-0.281	-0.054
-428.617	-153.360	0.008	-0.001
-427.603	98.732	0.121	-0.141
-426.588	-50.820	0.113	-0.054
-425.573	141.301	0.198	0.265
-424.559	-116.282	0.190	-0.036
-423.544	800.000	-0.025	0.071
-422.530	-86.709	0.050	-0.015
-421.515	474.064	0.019	0.044
-420.500	800.000	-0.044	-0.145
-419.486	474.769	-0.082	-0.186
-418.471	-200.000	-0.033	-0.250
-417.457	265.489	0.110	-0.193
-416.442	378.471	-0.181	0.374
-415.428	182.373	-0.042	0.062
-414.413	-33.247	-0.183	-0.103
-413.398	218.297	-0.147	-0.237
-412.384	310.125	-0.034	-0.064
-411.369	-200.000	0.066	-0.299
-410.355	800.000	0.050	-0.148
-409.340	305.269	0.032	-0.060
-408.325	-82.986	0.297	-0.097
-407.311	-24.477	-0.098	-0.059
-406.296	164.684	-0.145	0.206
-405.282	100.788	-0.283	0.332
-404.267	271.188	0.045	-0.080
-403.252	800.000	0.038	-0.119
-402.238	-200.000	-0.012	-0.160
-401.223	-200.000	-0.013	0.105
-400.209	-37.452	-0.261	0.141
-399.194	-176.885	0.343	0.009
-398.179	-147.860	0.300	-0.025
-397.165	243.500	-0.185	-0.312
-396.150	-200.000	-0.013	-0.358
-395.136	-200.000	-0.002	-0.226
-394.121	-170.676	-0.321	-0.011
-393.106	460.534	0.205	0.461
-392.092	4.081	-0.078	-0.058
-391.077	-154.887	0.205	-0.014
-390.063	-128.159	0.184	-0.026
-389.048	-22.779	-0.119	-0.072
-388.033	800.000	-0.130	0.367
-387.019	-141.029	-0.307	0.032
-386.004	-159.522	-0.054	0.003
-384.990	342.987	-0.038	-0.075
-383.975	10.881	-0.150	-0.116
-382.960	114.758	0.113	0.138
-381.946	-120.034	-0.200	0.035
-380.931	287.932	-0.176	0.321
-379.917	-200.000	0.002	-0.016
-378.902	-46.197	-0.201	-0.100
-377.888	200.104	0.070	0.108
-376.873	115.911	0.077	-0.095
-375.858	147.894	-0.106	0.144
-374.844	-40.486	-0.123	0.064
-373.829	-40.392	-0.187	-0.098
-372.815	714.959	0.056	0.150
-371.800	-200.000	-0.033	-0.271
-370.785	-200.000	-0.005	-0.024
-369.771	-123.520	0.029	-0.005
-368.756	-200.000	0.066	-0.298
-367.742	-200.000	0.011	0.049
-366.727	-40.575	-0.097	0.051
-365.712	-52.670	0.207	0.096
-364.698	490.228	0.103	-0.238
-363.683	-200.000	0.073	0.472
-362.669	-124.770	0.146	-0.023
-361.654	202.732	-0.153	0.238
-360.639	-12.565	0.275	-0.181
-359.625	-37.842	0.134	-0.072
-358.610	800.000	-0.044	0.177
-357.596	129.252	0.143	-0.183
-356.581	699.345	0.052	0.139
-355.566	-164.601	-0.077	-0.003
-354.552	-65.529	-0.351	-0.142
-353.537	-153.515	0.086	-0.006
-352.523	-148.962	-0.055	-0.004
-351.508	143.000	-0.145	0.194
-350.493	-15.177	-0.061	0.040
-349.479	800.000	-0.133	-0.573
-348.464	119.661	0.207	0.259
-347.450	800.000	0.073	0.215
-346.435	65.710	0.177	-0.180
-345.420	-200.000	0.019	-0.091
-344.406	-200.000	-0.011	0.140
-343.391	-200.000	-0.007	0.083
-342.377	-200.000	-0.005	0.023
-341.362	-102.903	0.311	0.074
-340.348	715.649	0.075	-0.201
-339.333	7.242	-0.044	-0.033
-338.318	-58.446	0.073	-0.032
-337.304	-31.735	-0.280	-0.158
-336.289	45.741	-0.231	0.215
-335.275	-200.000	-0.032	-0.213
-334.260	-155.787	-0.187	-0.012
-333.245	-61.436	-0.224	0.095
-332.231	-200.000	-0.014	0.159
-331.216	-40.787	-0.071	-0.037
-330.202	108.629	-0.111	-0.134
-329.187	-200.000	-0.003	-0.122
-328.172	530.703	-0.233	0.555
-327.158	-35.410	-0.110	-0.060
-326.143	-200.000	-0.042	-0.263
-325.129	272.537	0.110	0.195
-324.114	38.857	-0.271	0.243
-323.099	81.086	0.169	0.183
-322.085	-56.181	0.075	0.034
-321.070	-15.211	0.328	-0.211
-320.056	132.244	-0.317	0.411
-319.041	-39.100	-0.332	0.176
-318.026	354.274	0.174	0.349
-317.012	-200.000	-0.014	0.104
-315.997	800.000	0.022	-0.090
-314.983	152.122	-0.062	-0.085
-313.968	785.099	-0.030	-0.083
-312.953	687.646	-0.056	0.147
-311.939	-200.000	0.000	-0.080
-310.924	28.996	0.358	-0.305
-309.910	-62.007	0.062	-0.026
-308.895	38.048	0.209	0.187
-307.880	343.770	-0.228	-0.449
-306.866	-140.066	0.071	0.007
-305.851	-63.779	-0.431	0.178
-304.837	-117.880	-0.208	-0.037
-303.822	-200.000	0.040	0.246
-302.807	109.149	0.061	-0.073
-301.793	-80.276	0.229	0.077
-300.778	-106.347	0.162	-0.036
-299.764	-123.175	0.119	-0.019
-298.749	-124.898	0.219	-0.034
-297.735	-67.077	-0.083	0.033
-296.720	495.488	0.161	-0.371
-295.705	-46.979	-0.148	-0.073
-294.691	12.388	0.329	0.255
-293.676	800.000	-0.029	0.093
-292.662	35.560	0.122	0.108
-291.647	209.605	-0.061	-0.095
-290.632	-152.059	-0.287	0.021
-289.618	-26.934	0.110	0.065
-288.603	27.931	-0.200	-0.169
-287.589	-48.225	0.458	0.222
-286.574	45.553	0.065	0.061
-285.559	-11.192	0.117	0.077
-284.545	-163.912	-0.236	-0.011
-283.530	-180.750	0.109	0.002
-282.516	7.054	-0.073	0.055
-281.501	-90.006	0.266	0.078
-280.486	16.783	0.394	0.313
-279.472	788.449	0.178	0.490
-278.457	51.897	0.263	0.252
-277.443	287.362	-0.154	-0.279
-276.428	-186.158	-0.309	-0.005
-275.413	269.711	0.117	-0.206
-274.399	-200.000	0.009	-0.237
-273.384	-200.000	-0.023	-0.192
-272.370	6.704	0.189	0.141
-271.355	-200.000	-0.120	0.533
-270.340	-120.841	-0.160	0.027
-269.326	494.617	0.085	0.196
-268.311	-99.304	0.401	-0.102
-267.297	-93.357	-0.173	-0.048
-266.282	-200.000	0.000	0.036
-265.267	-200.000	0.004	-0.116
-264.253	-152.435	0.141	-0.010
-263.238	325.597	-0.062	-0.119
-262.224	-200.000	-0.025	0.584
-261.209	-83.703	0.075	0.024
-260.195	800.000	-0.051	-0.200
-259.180	-200.000	-0.057	-0.283
-258.165	240.972	0.006	-0.010
-257.151	301.433	0.145	0.269
-256.136	410.934	-0.082	-0.174
-255.122	661.040	0.098	0.253
-254.107	196.778	-0.089	0.136
-253.092	-22.046	0.280	-0.171
-252.078	61.430	-0.078	-0.078
-251.063	-196.924	0.090	-0.001
-250.049	-95.896	-0.309	-0.083
-249.034	-16.967	-0.217	-0.138
-248.019	10.483	0.156	-0.119
-247.005	-71.179	-0.298	-0.112
-245.990	-89.730	-0.037	0.011
-244.976	6.387	0.074	0.055
-243.961	-82.635	0.405	0.132
-242.946	101.078	-0.077	0.090
-241.932	-57.818	-0.445	0.195
-240.917	-200.000	-0.008	0.059
-239.903	117.474	-0.291	0.359
-238.888	-155.000	-0.061	0.004
-237.873	-7.847	-0.147	0.100
-236.859	-109.688	-0.039	-0.008
-235.844	494.018	0.103	-0.236
-234.830	165.055	0.077	-0.109
-233.815	282.758	-0.112	-0.202
-232.800	-93.466	-0.360	0.100
-231.786	193.302	0.243	-0.368
-230.771	-157.192	-0.200	-0.012
-229.757	-137.503	0.257	-0.029
-228.742	-200.000	-0.058	-0.331
-227.727	-157.227	0.126	-0.008
-226.713	800.000	-0.051	-0.183
-225.698	161.217	0.145	0.204
-224.684	-45.128	0.211	0.105
-223.669	256.621	0.238	0.410
-222.655	-107.279	-0.175	-0.039
-221.640	-200.000	-0.022	-0.218
-220.625	-64.427	0.488	-0.199
-219.611	331.545	-0.155	0.299
-218.596	800.000	0.063	-0.192
-217.582	-79.257	0.380	-0.129
-216.567	-80.118	-0.096	-0.032
-215.552	456.940	0.110	-0.245
-214.538	-168.830	-0.236	0.009
-213.523	207.914	0.140	0.219
-212.509	-64.290	-0.323	-0.132
-211.494	136.611	-0.227	-0.297
-210.479	66.364	-0.124	0.126
-209.465	9.638	-0.200	-0.151
-208.450	-86.927	-0.065	-0.020
-207.436	-180.026	0.191	0.004
-206.421	-118.497	0.218	0.039
-205.406	-139.623	-0.209	-0.022
-204.392	103.000	0.042	-0.049
-203.377	638.587	0.094	-0.239
-202.363	290.259	0.036	-0.065
-201.348	-29.335	-0.099	0.057
-200.333	167.345	-0.145	0.207
-199.319	-200.000	-0.001	0.140
-198.304	-169.882	0.442	0.016
-197.290	-200.000	-0.017	-0.225
-196.275	114.982	-0.084	0.103
-195.260	800.000	-0.080	0.224
-194.246	800.000	-0.049	-0.207
-193.231	181.708	-0.045	-0.067
-192.217	-200.000	-0.003	-0.205
-191.202	-138.416	0.132	0.015
-190.187	-53.040	-0.183	-0.084
-189.173	87.688	0.179	-0.199
-188.158	-200.000	-0.042	0.360
-187.144	-200.000	0.050	0.230
-186.129	244.160	-0.120	-0.202
-185.114	-165.581	0.397	-0.017
-184.100	57.545	0.133	-0.130
-183.085	12.179	0.143	0.110
-182.071	-200.000	-0.007	0.325
-181.056	-200.000	-0.017	0.195
-180.042	28.871	0.064	-0.054
-179.027	238.232	0.082	-0.136
-178.012	63.983	0.079	0.080
-176.998	-22.856	0.255	-0.154
-175.983	-73.386	0.152	0.056
-174.969	-41.377	0.264	-0.136
-173.954	-120.440	0.198	-0.034
-172.939	800.000	-0.011	-0.041
-171.925	-100.131	-0.229	-0.057
-170.910	-23.478	-0.186	-0.112
-169.896	-71.492	-0.207	-0.077
-168.881	129.976	-0.287	-0.367
-167.866	-33.195	0.217	0.120
-166.852	445.416	0.099	0.217
-165.837	7.301	-0.235	0.175
-164.823	-70.198	-0.266	-0.101
-163.808	135.974	0.186	0.242
-162.793	-152.468	-0.311	-0.022
-161.779	-200.000	0.002	-0.015
-160.764	510.281	-0.139	-0.324
-159.750	148.797	0.109	-0.147
-158.735	-117.060	-0.367	-0.067
-157.720	-200.000	0.001	0.279
-156.706	209.178	0.050	0.078
-155.691	-200.000	0.030	0.313
-154.677	-0.272	-0.285	0.202
-153.662	800.000	-0.092	0.262
-152.647	64.950	0.119	-0.120
-151.633	-137.544	0.079	-0.009
-150.618	131.572	0.144	-0.185
-149.604	12.265	0.432	0.332
-148.589	-83.204	-0.151	-0.048
-147.574	-23.870	0.053	0.032
-146.560	-21.073	0.325	-0.198
-145.545	322.564	0.091	0.174
-144.531	-157.274	0.171	-0.010
-143.516	-200.000	-0.006	0.143
-142.502	85.580	0.126	0.139
-141.487	-75.450	0.340	0.121
-140.472	-76.432	-0.331	0.116
-139.458	-14.183	0.180	-0.116
-138.443	-191.967	0.177	-0.002
-137.429	-32.683	0.188	0.104
-136.414	-194.530	-0.138	0.001
-135.399	800.000	0.101	0.308
-134.385	-161.309	-0.121	0.006
-133.370	-113.348	0.251	-0.049
-132.356	800.000	-0.075	-0.285
-131.341	-115.242	-0.300	0.057
-130.326	64.729	0.045	0.045
-129.312	275.416	-0.027	0.047
-128.297	-75.093	-0.056	-0.020
-127.283	-40.879	0.278	0.144
-126.268	-89.986	-0.148	0.043
-125.253	-91.451	0.118	-0.034
-124.239	-200.000	0.021	0.134
-123.224	800.000	-0.124	-0.351
