DTS Sentinel unit serial number:	SN413079Multiplexer serial number:	ORYXHardware model number:	OX4-SRSoftware version number:	ORYX F/W v4.00 Oryx Data Collector v3.7.2.0data status	okinstallation	princeton_trtdifferential loss correction	single-endedforward channel	channel 3reverse channel	N/Adate	2019/09/11time	03:50:11forward acquisition time	60.00reverse acquisition time	0.00gamma	496.2192k internal	0.2331k external	0.2331temperature offset calibration	0.9906default loss term (dB/km)	0.3790temperature slope calibration	1.0000multiplexer offset coefficient	1.0000multiplexer slope coefficient	1.0000fibre end	0.00T internal ref (°C)	29.56T ext. ref 1 (°C)	-0.29T ext. ref 2 (°C)	23.74length (m)	temperature (°C)	Stokes	anti-Stokes-747.200	143.619	-0.128	-0.172
-746.185	-200.000	0.007	0.188
-745.171	13.241	0.128	0.099
-744.156	233.994	-0.104	-0.173
-743.142	-52.458	-0.195	-0.091
-742.127	60.140	0.179	0.178
-741.112	-88.156	-0.082	0.025
-740.098	-184.837	0.166	-0.003
-739.083	457.254	0.159	0.355
-738.069	-48.172	-0.357	-0.174
-737.054	-5.357	0.237	-0.164
-736.039	197.386	0.163	-0.250
-735.025	-200.000	0.003	-0.240
-734.010	221.141	-0.059	0.095
-732.996	107.164	0.077	0.092
-731.981	-103.958	-0.346	-0.081
-730.966	-7.652	-0.150	-0.102
-729.952	-72.707	-0.196	0.073
-728.937	436.660	0.131	0.287
-727.923	-51.010	0.434	0.205
-726.908	-58.842	0.269	0.117
-725.894	-200.000	0.017	-0.433
-724.879	608.060	-0.051	0.128
-723.864	-199.241	0.192	-0.001
-722.850	-200.000	0.002	-0.029
-721.835	-200.000	0.003	-0.098
-720.821	38.523	-0.139	0.125
-719.806	-84.255	0.304	0.097
-718.791	800.000	-0.061	-0.196
-717.777	-34.459	0.097	-0.054
-716.762	488.245	0.112	-0.256
-715.748	-200.000	-0.040	-0.416
-714.733	276.383	-0.140	-0.249
-713.718	62.266	0.085	-0.085
-712.704	387.763	-0.125	-0.259
-711.689	-171.324	0.202	-0.007
-710.675	238.665	0.144	-0.240
-709.660	-135.333	-0.062	-0.007
-708.645	56.435	0.133	0.130
-707.631	-14.339	0.307	-0.199
-706.616	167.988	-0.231	0.330
-705.602	79.644	-0.161	-0.174
-704.587	-119.181	-0.155	-0.027
-703.572	274.674	-0.078	-0.139
-702.558	290.796	0.063	0.115
-701.543	-200.000	0.059	-0.297
-700.529	800.000	-0.095	-0.280
-699.514	274.892	-0.068	-0.120
-698.499	131.830	0.135	0.175
-697.485	-57.869	-0.304	0.133
-696.470	-200.000	0.017	0.096
-695.456	-95.653	-0.210	-0.056
-694.441	-200.000	-0.016	0.200
-693.426	11.177	-0.184	0.141
-692.412	-98.760	0.111	0.028
-691.397	-124.410	-0.146	-0.023
-690.383	-183.869	-0.159	-0.003
-689.368	-36.020	-0.250	0.136
-688.354	800.000	-0.002	-0.009
-687.339	157.426	-0.137	0.190
-686.324	273.215	0.150	0.266
-685.310	59.461	-0.119	-0.118
-684.295	-200.000	0.046	-0.265
-683.281	43.915	0.128	-0.118
-682.266	-99.634	0.317	-0.080
-681.251	-40.652	-0.223	0.116
-680.237	83.350	0.186	0.204
-679.222	-69.099	0.380	0.147
-678.208	574.114	-0.153	-0.375
-677.193	5.154	-0.157	0.116
-676.178	87.093	-0.121	-0.134
-675.164	-35.998	0.210	0.114
-674.149	-3.838	0.125	-0.087
-673.135	52.649	-0.072	0.069
-672.120	383.110	-0.072	-0.149
-671.105	-24.935	0.059	0.035
-670.091	800.000	0.039	-0.112
-669.076	236.243	-0.179	-0.298
-668.062	536.246	-0.072	0.171
-667.047	-200.000	-0.005	0.072
-666.032	-200.000	-0.038	0.381
-665.018	103.973	-0.031	-0.037
-664.003	111.670	-0.104	0.126
-662.989	-10.192	0.016	-0.011
-661.974	-160.700	0.308	0.016
-660.959	23.592	-0.185	-0.153
-659.945	73.657	-0.026	0.028
-658.930	-74.168	-0.254	0.092
-657.916	-142.692	0.203	0.020
-656.901	138.260	-0.116	0.152
-655.886	-200.000	-0.061	0.571
-654.872	6.243	0.248	-0.185
-653.857	800.000	0.073	-0.259
-652.843	30.637	0.079	0.068
-651.828	-8.189	0.018	0.012
-650.814	-193.992	-0.052	-0.000
-649.799	271.863	0.097	0.171
-648.784	-99.036	0.260	0.066
-647.770	-103.134	0.286	0.068
-646.755	800.000	-0.094	-0.288
-645.741	169.139	0.076	-0.109
-644.726	682.331	-0.043	-0.114
-643.711	0.092	-0.166	-0.118
-642.697	139.099	-0.238	-0.314
-641.682	-65.106	-0.073	-0.030
-640.668	58.603	0.086	-0.084
-639.653	235.238	-0.071	-0.118
-638.638	-154.984	-0.160	-0.011
-637.624	8.081	-0.224	0.168
-636.609	180.904	0.069	0.102
-635.595	800.000	-0.097	0.309
-634.580	-115.422	0.015	0.003
-633.565	-11.694	0.104	0.069
-632.551	-200.000	-0.024	0.135
-631.536	-200.000	-0.044	-0.258
-630.522	-200.000	0.000	-0.315
-629.507	800.000	0.063	-0.260
-628.492	-57.892	0.210	0.092
-627.478	-135.394	-0.058	-0.007
-626.463	107.036	-0.155	-0.184
-625.449	8.803	-0.256	0.193
-624.434	109.758	-0.229	0.275
-623.419	-21.367	-0.051	-0.031
-622.405	-168.790	-0.282	-0.011
-621.390	800.000	0.105	-0.290
-620.376	3.752	-0.208	-0.152
-619.361	-25.140	0.302	-0.179
-618.346	-23.913	-0.034	0.021
-617.332	750.551	-0.079	-0.214
-616.317	8.389	0.099	0.075
-615.303	800.000	-0.126	0.441
-614.288	-45.651	0.100	-0.050
-613.273	-6.766	0.085	-0.058
-612.259	162.245	0.154	0.216
-611.244	-200.000	0.061	0.276
-610.230	-200.000	-0.056	-0.488
-609.215	-186.917	-0.137	0.002
-608.201	-26.751	-0.098	0.057
-607.186	800.000	0.086	0.242
-606.171	-116.557	0.194	-0.036
-605.157	800.000	0.028	-0.083
-604.142	-61.547	0.323	-0.136
-603.128	73.702	0.084	0.088
-602.113	-26.894	-0.086	-0.051
-601.098	-39.245	-0.296	-0.155
-600.084	-42.067	-0.302	-0.155
-599.069	-200.000	0.156	-0.000
-598.055	124.386	0.241	0.303
-597.040	157.798	-0.132	-0.183
-596.025	-111.009	-0.341	-0.070
-595.011	-93.691	-0.262	-0.072
-593.996	182.016	-0.183	-0.270
-592.982	-200.000	-0.008	-0.074
-591.967	72.634	-0.122	0.127
-590.952	800.000	0.080	0.332
-589.938	-200.000	0.020	0.109
-588.923	52.615	0.144	-0.138
-587.909	-95.913	-0.126	-0.034
-586.894	-107.276	-0.418	0.092
-585.879	-185.988	-0.059	-0.001
-584.865	-193.344	-0.138	-0.001
-583.850	-200.000	0.001	-0.159
-582.836	800.000	-0.081	0.284
-581.821	15.534	-0.258	0.203
-580.806	-38.058	-0.333	0.177
-579.792	800.000	0.022	-0.071
-578.777	62.758	-0.160	-0.160
-577.763	-130.255	0.178	-0.024
-576.748	127.888	-0.080	-0.102
-575.733	47.893	0.144	0.134
-574.719	129.901	-0.167	-0.214
-573.704	177.036	-0.037	-0.054
-572.690	-65.089	0.353	-0.143
-571.675	-137.105	-0.274	0.031
-570.661	800.000	0.116	-0.357
-569.646	-200.000	-0.034	0.321
-568.631	-137.107	0.164	-0.019
-567.617	-22.941	-0.277	-0.167
-566.602	-107.824	-0.118	0.026
-565.588	-75.162	0.177	-0.063
-564.573	-200.000	-0.045	-0.234
-563.558	-156.889	0.119	0.007
-562.544	-78.772	-0.250	-0.085
-561.529	28.837	0.293	-0.248
-560.515	-62.804	-0.103	-0.043
-559.500	73.563	0.121	0.127
-558.485	-114.311	-0.100	-0.019
-557.471	437.027	0.090	0.195
-556.456	-82.362	0.168	0.055
-555.442	-46.177	0.019	-0.009
-554.427	-200.000	-0.025	-0.159
-553.412	800.000	0.118	-0.439
-552.398	16.833	-0.330	0.261
-551.383	53.531	0.146	0.140
-550.369	259.939	0.150	-0.260
-549.354	-88.965	0.303	-0.090
-548.339	-200.000	0.037	0.316
-547.325	-70.809	-0.057	0.022
-546.310	76.310	0.127	0.134
-545.296	-37.150	0.333	-0.178
-544.281	97.924	0.172	-0.198
-543.266	-89.195	-0.147	0.043
-542.252	-23.782	-0.220	0.132
-541.237	-200.000	-0.031	0.143
-540.223	95.699	-0.096	-0.109
-539.208	-17.767	-0.182	-0.114
-538.193	-24.246	0.198	0.118
-537.179	-2.862	0.487	-0.340
-536.164	800.000	-0.078	-0.216
-535.150	800.000	0.041	0.156
-534.135	-200.000	0.018	-0.153
-533.121	-85.288	0.193	-0.060
-532.106	-150.792	0.397	-0.030
-531.091	172.030	-0.116	0.166
-530.077	46.964	-0.076	0.071
-529.062	-151.088	0.364	0.027
-528.048	63.007	-0.241	0.241
-527.033	-5.358	0.124	0.085
-526.018	-48.770	-0.345	-0.165
-525.004	-104.830	-0.261	0.060
-523.989	800.000	0.032	-0.092
-522.975	-126.343	0.108	-0.016
-521.960	87.069	-0.210	-0.231
-520.945	-41.017	-0.260	-0.134
-519.931	208.112	-0.038	0.059
-518.916	89.206	0.105	0.117
-517.902	-74.227	0.328	0.118
-516.887	-125.855	-0.356	-0.054
-515.872	760.526	0.053	-0.143
-514.858	-200.000	0.032	-0.000
-513.843	-118.831	-0.266	0.047
-512.829	800.000	0.042	0.177
-511.814	24.447	0.158	0.130
-510.799	-9.757	-0.245	0.163
-509.785	-43.138	0.306	-0.155
-508.770	-200.000	0.038	0.233
-507.756	535.488	0.096	-0.227
-506.741	15.429	0.084	0.066
-505.726	-158.471	0.326	0.019
-504.712	-111.380	-0.224	0.046
-503.697	-38.015	-0.020	0.011
-502.683	57.407	0.248	0.242
-501.668	-114.380	-0.139	-0.027
-500.653	-37.615	-0.173	0.092
-499.639	36.778	-0.215	-0.190
-498.624	172.107	-0.096	0.137
-497.610	-100.048	-0.281	-0.070
-496.595	-114.646	0.284	0.054
-495.581	-200.000	0.012	0.241
-494.566	90.265	0.165	-0.184
-493.551	-38.127	0.102	0.054
-492.537	258.415	0.139	0.239
-491.522	-79.606	-0.328	0.110
-490.508	-20.053	-0.193	0.119
-489.493	-20.663	0.137	0.084
-488.478	202.909	-0.170	0.261
-487.464	-200.000	0.030	0.212
-486.449	92.903	-0.149	-0.167
-485.435	-200.000	-0.024	0.154
-484.420	800.000	-0.065	-0.184
-483.405	308.613	0.234	-0.436
-482.391	-69.025	0.175	0.067
-481.376	800.000	-0.014	-0.052
-480.362	673.296	0.028	0.074
-479.347	720.302	-0.036	-0.097
-478.332	39.109	0.243	0.217
-477.318	126.443	0.149	0.188
-476.303	642.308	0.149	-0.378
-475.289	800.000	-0.096	0.273
-474.274	308.917	-0.114	0.212
-473.259	-21.362	0.212	-0.129
-472.245	-200.000	0.017	0.147
-471.230	13.909	-0.162	-0.126
-470.216	32.652	-0.177	0.153
-469.201	-127.099	-0.198	-0.029
-468.186	-166.642	-0.158	0.007
-467.172	586.670	0.075	-0.184
-466.157	-59.231	-0.028	0.012
-465.143	596.144	-0.041	0.102
-464.128	373.340	-0.083	-0.167
-463.113	-200.000	0.003	-0.145
-462.099	656.529	-0.057	-0.146
-461.084	-200.000	0.025	0.231
-460.070	800.000	0.091	0.254
-459.055	-200.000	0.032	0.313
-458.040	-59.636	-0.397	0.170
-457.026	-69.356	-0.059	-0.023
-456.011	52.329	-0.191	-0.182
-454.997	-39.909	-0.119	-0.062
-453.982	-8.610	-0.336	-0.225
-452.968	800.000	0.058	-0.178
-451.953	-200.000	-0.020	-0.155
-450.938	606.824	-0.143	-0.355
-449.924	-200.000	-0.009	-0.052
-448.909	-200.000	-0.003	0.019
-447.895	-54.390	-0.108	-0.049
-446.880	26.711	0.282	-0.235
-445.865	-18.129	-0.024	-0.015
-444.851	10.628	-0.125	0.095
-443.836	-33.996	-0.166	0.091
-442.822	-156.541	0.379	-0.023
-441.807	-0.007	0.194	0.137
-440.792	800.000	-0.098	-0.323
-439.778	246.795	0.053	0.089
-438.763	-61.621	0.279	-0.116
-437.749	-93.308	0.216	-0.060
-436.734	-27.527	0.225	-0.130
-435.719	233.505	0.188	-0.308
-434.705	-171.186	-0.181	0.006
-433.690	-109.367	0.481	-0.101
-432.676	-49.494	-0.131	0.062
-431.661	800.000	0.065	-0.198
-430.646	800.000	-0.087	-0.347
-429.632	-174.850	0.169	-0.005
-428.617	-5.717	0.133	0.090
-427.603	-200.000	0.026	-0.116
-426.588	116.494	0.075	0.091
-425.573	69.305	0.157	0.160
-424.559	-200.000	-0.001	0.048
-423.544	-94.987	0.231	0.062
-422.530	-12.879	-0.290	-0.188
-421.515	-200.000	-0.012	0.107
-420.500	57.294	0.189	-0.183
-419.486	35.551	-0.177	0.155
-418.471	32.545	0.326	-0.280
-417.457	-98.608	0.159	-0.040
-416.442	-45.271	0.315	-0.156
-415.428	800.000	-0.026	0.107
-414.413	97.467	-0.233	0.266
-413.398	-6.555	0.299	-0.202
-412.384	-116.356	-0.207	-0.038
-411.369	-55.798	-0.062	-0.028
-410.355	800.000	0.083	0.314
-409.340	54.893	-0.308	0.296
-408.325	6.126	-0.197	0.145
-407.311	1.361	-0.055	0.040
-406.296	-113.641	0.272	-0.053
-405.282	11.844	-0.349	0.267
-404.267	-200.000	0.017	-0.127
-403.252	-145.411	-0.123	0.011
-402.238	800.000	-0.133	0.458
-401.223	157.591	-0.123	0.169
-400.209	-72.108	0.197	0.073
-399.194	-200.000	-0.018	-0.208
-398.179	260.592	0.150	-0.257
-397.165	-24.810	0.066	-0.039
-396.150	800.000	0.135	-0.430
-395.136	-146.354	0.157	-0.014
-394.121	-45.025	0.031	0.016
-393.106	-200.000	0.089	-0.561
-392.092	-165.377	0.212	-0.009
-391.077	800.000	0.084	0.237
-390.063	800.000	0.051	0.167
-389.048	301.970	-0.104	0.190
-388.033	-30.153	0.093	0.052
-387.019	-200.000	-0.068	0.319
-386.004	-200.000	-0.004	-0.136
-384.990	-82.205	-0.278	0.090
-383.975	-90.080	-0.063	0.018
-382.960	-28.980	-0.250	0.142
-381.946	-67.192	-0.110	-0.043
-380.931	-112.991	-0.382	0.075
-379.917	37.317	-0.158	-0.139
-378.902	-153.649	0.097	-0.007
-377.888	-138.866	-0.305	-0.033
-376.873	-1.403	0.177	-0.124
-375.858	-106.415	0.404	-0.090
-374.844	21.204	0.105	-0.085
-373.829	87.972	0.261	-0.287
-372.815	-95.834	0.206	-0.054
-371.800	-15.197	-0.228	-0.145
-370.785	-90.404	-0.092	0.026
-369.771	-200.000	-0.005	-0.107
-368.756	-34.117	0.155	0.084
-367.742	-200.000	-0.047	0.283
-366.727	-66.092	0.119	0.047
-365.712	800.000	0.054	-0.217
-364.698	270.329	0.131	0.228
-363.683	28.221	-0.145	0.121
-362.669	282.399	0.021	0.038
-361.654	-200.000	0.075	-0.346
-360.639	4.832	-0.301	-0.219
-359.625	-23.557	-0.108	0.064
-358.610	110.006	-0.014	0.017
-357.596	-200.000	0.043	0.481
-356.581	-200.000	-0.079	-0.403
-355.566	-200.000	-0.008	0.190
-354.552	19.921	-0.141	0.113
-353.537	157.421	0.043	-0.059
-352.523	140.502	-0.194	-0.254
-351.508	800.000	-0.062	0.181
-350.493	718.894	-0.063	0.166
-349.479	-101.224	-0.275	-0.067
-348.464	5.940	-0.162	-0.119
-347.450	-200.000	0.089	0.553
-346.435	-6.446	-0.199	0.135
-345.420	-121.024	-0.343	-0.057
-344.406	-200.000	0.008	-0.197
-343.391	-27.739	0.163	-0.093
-342.377	-177.352	-0.231	0.006
-341.362	-200.000	-0.028	0.131
-340.348	-12.510	-0.073	-0.047
-339.333	-110.013	0.207	0.043
-338.318	144.598	0.298	-0.394
-337.304	55.084	0.167	-0.160
-336.289	800.000	0.146	0.432
-335.275	800.000	0.111	-0.426
-334.260	-52.570	0.264	0.121
-333.245	75.289	0.221	0.231
-332.231	-169.704	0.314	-0.011
-331.216	-132.922	0.114	0.014
-330.202	81.887	0.274	0.293
-329.187	-89.598	0.230	-0.067
-328.172	-82.175	0.203	-0.066
-327.158	800.000	-0.071	0.280
-326.143	-112.320	0.299	0.059
-325.129	158.877	0.086	0.118
-324.114	-25.834	0.169	-0.098
-323.099	61.761	-0.201	0.198
-322.085	-118.562	-0.233	0.041
-321.070	66.994	0.268	0.271
-320.056	407.201	-0.152	0.317
-319.041	-172.511	0.266	-0.008
-318.026	154.148	-0.098	0.133
-317.012	-12.628	0.172	0.111
-315.997	-21.065	0.336	-0.203
-314.983	-200.000	0.012	0.309
-313.968	27.053	-0.084	0.070
-312.953	-0.834	0.227	0.159
-311.939	29.178	-0.165	0.139
-310.924	601.299	-0.038	0.094
-309.910	-184.779	-0.412	-0.007
-308.895	231.500	0.231	0.375
-307.880	-112.679	0.182	-0.036
-306.866	-111.937	0.344	0.069
-305.851	18.867	-0.112	0.088
-304.837	-200.000	-0.009	-0.208
-303.822	-129.360	0.250	0.034
-302.807	-75.523	-0.179	-0.063
-301.793	-200.000	0.021	-0.118
-300.778	-200.000	-0.045	0.366
-299.764	79.989	-0.250	-0.266
-298.749	-110.350	0.283	0.058
-297.735	170.206	-0.119	-0.169
-296.720	-72.322	-0.348	0.127
-295.705	53.520	0.136	-0.129
-294.691	25.366	0.094	0.078
-293.676	800.000	-0.059	0.164
-292.662	-69.442	-0.296	-0.112
-291.647	311.879	0.162	0.300
-290.632	40.969	-0.274	0.244
-289.618	13.750	0.236	0.181
-288.603	-37.258	-0.445	0.235
-287.589	17.792	0.010	-0.008
-286.574	-200.000	0.069	-0.363
-285.559	-71.676	0.353	-0.130
-284.545	217.244	0.229	-0.360
-283.530	131.243	-0.191	-0.243
-282.516	271.053	0.073	-0.127
-281.501	-200.000	0.011	0.122
-280.486	800.000	-0.030	0.085
-279.472	-200.000	0.011	0.296
-278.457	333.853	-0.174	0.332
-277.443	-15.351	-0.189	-0.120
-276.428	405.984	0.107	0.222
-275.413	85.114	0.207	0.224
-274.399	-118.371	0.140	-0.024
-273.384	-127.297	-0.213	-0.031
-272.370	279.847	0.135	0.238
-271.355	155.196	0.031	0.042
-270.340	9.487	0.177	-0.133
-269.326	340.682	0.081	0.157
-268.311	-147.205	-0.141	-0.012
-267.297	190.475	0.094	0.140
-266.282	-115.248	-0.207	0.039
-265.267	6.878	0.117	0.086
-264.253	-19.386	0.185	-0.113
-263.238	-200.000	-0.020	-0.187
-262.224	800.000	0.069	-0.222
-261.209	-6.993	-0.128	-0.086
-260.195	56.487	-0.168	-0.161
-259.180	-24.421	0.251	-0.148
-258.165	-101.245	0.375	0.091
-257.151	800.000	-0.031	0.093
-256.136	250.681	0.124	-0.207
-255.122	-200.000	0.020	-0.091
-254.107	-54.923	-0.087	0.039
-253.092	397.827	0.100	-0.206
-252.078	-117.315	0.091	0.016
-251.063	-90.059	-0.280	0.081
-250.049	588.034	0.072	-0.175
-249.034	182.699	-0.142	0.206
-248.019	-138.680	-0.077	-0.008
-247.005	218.358	-0.135	-0.213
-245.990	-175.119	-0.194	0.005
-244.976	-200.000	0.087	-0.392
-243.961	113.271	0.097	0.116
-242.946	142.263	0.185	-0.243
-241.932	-135.169	-0.170	-0.020
-240.917	-110.478	0.241	0.049
-239.903	415.328	0.121	0.255
-238.888	800.000	0.048	-0.193
-237.873	-59.805	-0.617	-0.261
-236.859	42.210	0.148	-0.132
-235.844	133.230	0.100	-0.127
-234.830	-83.955	0.043	0.013
-233.815	-46.883	-0.278	0.134
-232.800	800.000	-0.071	-0.193
-231.786	230.701	0.112	-0.180
-230.771	-200.000	0.022	-0.327
-229.757	278.140	0.152	0.268
-228.742	-87.877	-0.293	-0.087
-227.727	-101.143	-0.275	0.066
-226.713	-171.102	-0.142	0.005
-225.698	261.111	-0.161	-0.275
-224.684	16.677	-0.062	0.048
-223.669	-153.717	0.261	-0.018
-222.655	-97.969	-0.261	-0.066
-221.640	800.000	-0.027	0.083
-220.625	-5.846	0.224	0.151
-219.611	235.542	-0.124	0.202
-218.596	-81.848	-0.143	-0.046
-217.582	249.304	-0.099	-0.166
-216.567	-141.624	-0.301	-0.030
-215.552	24.798	0.321	-0.262
-214.538	-89.555	0.225	0.065
-213.523	-200.000	0.008	-0.168
-212.509	-99.616	-0.190	0.047
-211.494	-85.113	-0.149	-0.046
-210.479	-136.311	-0.190	-0.022
-209.465	-45.528	0.155	0.075
-208.450	-200.000	0.002	-0.157
-207.436	-117.096	-0.163	0.029
-206.421	-18.564	-0.125	0.077
-205.406	-126.790	0.245	0.036
-204.392	672.594	0.065	0.165
-203.377	800.000	-0.084	-0.234
-202.363	370.260	0.096	-0.191
-201.348	-115.061	-0.051	-0.010
-200.333	17.966	0.291	-0.229
-199.319	173.020	0.167	-0.237
-198.304	11.913	-0.233	-0.177
-197.290	-58.134	-0.131	-0.056
-196.275	282.162	0.084	0.149
-195.260	-163.772	0.407	0.019
-194.246	-200.000	-0.003	0.071
-193.231	353.724	-0.067	0.130
-192.217	104.979	0.117	-0.136
-191.202	397.856	-0.111	0.229
-190.187	-190.516	0.530	0.006
-189.173	41.752	-0.272	0.243
-188.158	-200.000	0.062	0.303
-187.144	126.927	-0.157	-0.195
-186.129	-90.867	-0.107	0.030
-185.114	-89.155	0.280	0.082
-184.100	2.456	0.131	0.093
-183.085	-103.664	-0.137	0.032
-182.071	-138.656	0.242	-0.026
-181.056	-200.000	0.003	-0.247
-180.042	-93.113	-0.273	0.075
-179.027	99.331	0.114	0.130
-178.012	-193.535	-0.121	-0.001
-176.998	-80.497	0.163	0.053
-175.983	-100.608	-0.312	0.076
-174.969	461.504	-0.085	0.187
-173.954	113.479	0.111	-0.133
-172.939	-102.150	-0.134	0.032
-171.925	-84.282	-0.167	-0.052
-170.910	800.000	0.023	-0.095
-169.896	-200.000	-0.016	-0.247
-168.881	800.000	0.134	0.386
-167.866	113.734	-0.027	0.033
-166.852	115.963	-0.073	0.088
-165.837	53.192	-0.119	0.112
-164.823	-200.000	-0.054	0.249
-163.808	800.000	-0.080	0.270
-162.793	21.521	-0.089	0.071
-161.779	145.755	0.094	0.123
-160.764	48.774	-0.059	-0.054
-159.750	-22.902	-0.052	-0.031
-158.735	-13.005	0.083	0.053
-157.720	9.274	0.226	0.168
-156.706	-53.465	-0.320	0.144
-155.691	-95.098	0.273	0.072
-154.677	120.214	-0.138	0.168
-153.662	-143.083	-0.176	-0.017
-152.647	-200.000	0.031	-0.234
-151.633	-51.714	-0.083	0.038
-150.618	-65.009	0.204	0.081
-149.604	-191.534	-0.104	-0.001
-148.589	333.511	-0.224	0.427
-147.574	-200.000	0.000	-0.180
-146.560	800.000	-0.017	-0.069
-145.545	322.215	0.021	-0.039
-144.531	-200.000	0.035	0.290
-143.516	-169.591	-0.158	0.006
-142.502	377.456	0.156	-0.314
-141.487	-166.666	-0.022	0.001
-140.472	50.783	-0.118	0.110
-139.458	-200.000	0.015	0.249
-138.443	800.000	0.075	0.309
-137.429	-188.471	-0.134	0.002
-136.414	179.719	0.140	-0.201
-135.399	490.728	0.050	-0.112
-134.385	74.767	0.235	0.243
-133.370	-200.000	-0.059	0.358
-132.356	-98.528	0.106	-0.027
-131.341	800.000	0.039	0.135
-130.326	-200.000	-0.026	0.193
-129.312	245.515	-0.041	-0.067
-128.297	-200.000	0.017	0.143
-127.283	444.773	0.117	0.253
-126.268	-141.728	0.443	0.044
-125.253	-200.000	0.025	-0.277
-124.239	212.110	0.052	0.081
-123.224	152.891	-0.215	-0.289
-122.210	54.903	0.271	-0.257
-121.195	-200.000	-0.056	-0.384
