DTS Sentinel unit serial number:	SN413079Multiplexer serial number:	ORYXHardware model number:	OX4-SRSoftware version number:	ORYX F/W v4.00 Oryx Data Collector v3.7.2.0data status	okinstallation	princeton_trtdifferential loss correction	single-endedforward channel	channel 3reverse channel	N/Adate	2019/09/16time	06:48:35forward acquisition time	60.00reverse acquisition time	0.00gamma	496.2192k internal	0.2335k external	0.2335temperature offset calibration	0.9961default loss term (dB/km)	0.3790temperature slope calibration	1.0000multiplexer offset coefficient	1.0000multiplexer slope coefficient	1.0000fibre end	0.00T internal ref (°C)	27.37T ext. ref 1 (°C)	11.45T ext. ref 2 (°C)	21.84length (m)	temperature (°C)	Stokes	anti-Stokes-747.200	150.764	0.203	0.278
-746.185	765.495	0.041	0.112
-745.171	-100.340	0.135	0.034
-744.156	23.635	-0.161	0.133
-743.142	181.883	0.070	0.103
-742.127	-200.000	-0.004	0.239
-741.112	800.000	0.017	0.064
-740.098	0.663	-0.194	-0.140
-739.083	32.328	-0.114	0.099
-738.069	290.622	0.139	-0.254
-737.054	-200.000	0.005	-0.266
-736.039	-88.971	-0.179	0.053
-735.025	-94.957	0.488	-0.132
-734.010	-200.000	0.056	-0.290
-732.996	218.187	0.020	-0.032
-731.981	800.000	0.073	0.203
-730.966	172.307	-0.065	-0.094
-729.952	328.022	0.151	0.291
-728.937	20.743	-0.165	0.134
-727.923	-77.103	0.168	0.059
-726.908	54.597	-0.227	-0.220
-725.894	-70.348	-0.392	0.149
-724.879	-200.000	-0.000	-0.174
-723.864	232.377	-0.157	-0.259
-722.850	800.000	0.079	-0.318
-721.835	87.085	0.144	-0.159
-720.821	800.000	-0.031	0.113
-719.806	-140.181	0.106	-0.011
-718.791	399.905	0.184	-0.387
-717.777	-54.333	-0.302	0.138
-716.762	-61.048	0.140	0.059
-715.748	183.132	-0.035	-0.052
-714.733	-92.127	-0.215	0.061
-713.718	210.216	0.089	0.140
-712.704	-57.933	0.230	-0.101
-711.689	800.000	-0.124	-0.459
-710.675	7.589	0.173	-0.130
-709.660	-71.105	-0.557	-0.210
-708.645	375.852	0.200	0.409
-707.631	-76.586	0.205	-0.072
-706.616	-45.166	0.242	0.121
-705.602	800.000	0.089	0.284
-704.587	97.625	-0.121	-0.140
-703.572	-187.523	-0.261	0.003
-702.558	152.677	0.246	-0.337
-701.543	800.000	0.139	-0.563
-700.529	-200.000	0.007	0.253
-699.514	-200.000	-0.011	0.234
-698.499	-140.432	-0.374	-0.039
-697.485	617.717	-0.070	0.177
-696.470	800.000	-0.089	-0.347
-695.456	800.000	-0.143	-0.415
-694.441	800.000	-0.018	-0.074
-693.426	-63.069	0.248	0.103
-692.412	147.287	0.122	-0.165
-691.397	800.000	0.063	-0.207
-690.383	616.433	0.095	-0.240
-689.368	-200.000	-0.036	-0.519
-688.354	-200.000	0.040	-0.229
-687.339	-200.000	-0.055	0.368
-686.324	800.000	-0.028	0.093
-685.310	457.235	-0.129	0.287
-684.295	-200.000	0.007	-0.082
-683.281	800.000	-0.043	0.171
-682.266	-55.045	-0.166	-0.075
-681.251	108.220	-0.074	-0.089
-680.237	-84.173	-0.284	0.090
-679.222	-200.000	0.031	-0.193
-678.208	5.205	-0.071	0.052
-677.193	131.631	0.209	0.269
-676.178	-200.000	0.069	-0.321
-675.164	800.000	-0.042	0.136
-674.149	-200.000	-0.004	0.082
-673.135	-8.615	0.084	0.057
-672.120	-8.468	0.202	0.136
-671.105	118.555	0.245	-0.303
-670.091	45.402	-0.195	-0.180
-669.076	-200.000	0.031	0.178
-668.062	20.053	0.162	-0.131
-667.047	-31.240	-0.232	-0.131
-666.032	122.207	0.057	-0.071
-665.018	-120.801	-0.101	-0.017
-664.003	291.227	0.129	-0.235
-662.989	-4.383	-0.030	0.021
-661.974	119.378	0.098	-0.122
-660.959	263.984	0.162	-0.283
-659.945	79.691	-0.168	-0.181
-658.930	310.753	-0.017	0.032
-657.916	-126.823	0.075	-0.011
-656.901	-16.499	-0.166	-0.106
-655.886	-84.259	-0.183	0.058
-654.872	-200.000	-0.062	-0.498
-653.857	-62.987	-0.232	-0.096
-652.843	-21.234	0.049	0.030
-651.828	555.112	-0.081	-0.196
-650.814	91.253	0.059	-0.066
-649.799	390.754	0.084	0.175
-648.784	-43.400	0.193	0.098
-647.770	403.731	-0.109	0.230
-646.755	-102.648	-0.141	-0.034
-645.741	-200.000	-0.057	-0.262
-644.726	-51.864	0.101	0.047
-643.711	85.173	0.279	-0.307
-642.697	77.506	-0.130	-0.138
-641.682	-108.419	0.298	-0.064
-640.668	-200.000	0.008	0.139
-639.653	400.754	0.158	-0.332
-638.638	-97.410	0.215	-0.056
-637.624	5.693	0.074	0.055
-636.609	800.000	-0.141	-0.398
-635.595	35.479	0.238	-0.209
-634.580	-12.069	0.142	-0.093
-633.565	39.376	0.181	0.163
-632.551	108.538	-0.071	0.085
-631.536	-72.538	0.069	-0.026
-630.522	800.000	0.042	-0.151
-629.507	-101.956	-0.121	0.029
-628.492	-143.811	0.112	0.011
-627.478	800.000	0.034	-0.119
-626.463	-200.000	0.038	-0.337
-625.449	-95.425	-0.231	-0.062
-624.434	-101.803	-0.448	0.108
-623.419	800.000	-0.027	-0.108
-622.405	195.468	-0.085	0.130
-621.390	5.492	-0.058	-0.043
-620.376	204.841	-0.200	-0.310
-619.361	-65.052	0.075	0.030
-618.346	-87.963	-0.477	-0.143
-617.332	-200.000	0.000	-0.090
-616.317	-200.000	-0.003	0.298
-615.303	-108.619	-0.404	0.087
-614.288	-200.000	0.024	0.163
-613.273	-200.000	0.015	0.236
-612.259	-131.933	0.114	0.015
-611.244	589.468	-0.175	-0.431
-610.230	-106.958	0.185	-0.041
-609.215	18.923	-0.220	-0.176
-608.201	-150.528	-0.358	0.027
-607.186	112.453	-0.076	-0.092
-606.171	800.000	-0.070	-0.267
-605.157	-11.956	-0.126	-0.083
-604.142	-104.767	0.268	0.062
-603.128	23.171	0.071	-0.058
-602.113	-200.000	0.058	-0.417
-601.098	-200.000	-0.033	-0.208
-600.084	-21.047	0.305	0.187
-599.069	-59.766	-0.310	0.133
-598.055	-94.805	-0.118	0.032
-597.040	800.000	-0.063	0.252
-596.025	444.886	0.016	0.036
-595.011	-200.000	-0.004	-0.096
-593.996	-139.233	-0.299	-0.032
-592.982	-23.560	-0.210	-0.126
-591.967	-126.515	-0.383	0.057
-590.952	-200.000	-0.017	-0.373
-589.938	30.437	0.137	-0.117
-588.923	195.332	-0.113	-0.171
-587.909	271.070	-0.131	0.230
-586.894	-54.144	-0.317	-0.144
-585.879	359.083	0.063	-0.125
-584.865	-42.374	-0.305	-0.156
-583.850	800.000	0.042	0.139
-582.836	-151.297	0.239	-0.018
-581.821	65.765	-0.152	0.154
-580.806	111.451	-0.133	-0.160
-579.792	499.031	-0.203	0.468
-578.777	40.456	0.031	-0.027
-577.763	188.287	-0.051	0.076
-576.748	800.000	-0.068	0.262
-575.733	-34.527	-0.260	-0.142
-574.719	-200.000	-0.001	0.045
-573.704	-15.361	0.219	-0.140
-572.690	106.728	-0.292	-0.346
-571.675	-77.976	0.235	-0.081
-570.661	-54.802	-0.186	-0.084
-569.646	-105.947	0.129	0.029
-568.631	-60.688	0.124	0.052
-567.617	134.137	-0.020	0.026
-566.602	-23.239	-0.107	0.064
-565.588	-48.225	0.247	0.119
-564.573	-96.234	0.177	-0.047
-563.558	-52.295	0.068	0.031
-562.544	-200.000	-0.005	0.234
-561.529	318.383	-0.057	0.107
-560.515	-26.588	-0.255	0.149
-559.500	-37.837	0.207	-0.110
-558.485	-36.193	-0.169	-0.091
-557.471	793.814	0.018	0.048
-556.456	-24.607	0.360	-0.214
-555.442	-83.341	0.334	-0.107
-554.427	-107.821	0.388	-0.084
-553.412	-200.000	-0.009	0.189
-552.398	547.116	0.076	-0.182
-551.383	-200.000	0.012	0.122
-550.369	551.303	-0.087	0.209
-549.354	-71.398	0.300	-0.112
-548.339	-200.000	0.051	0.229
-547.325	24.093	-0.105	0.086
-546.310	166.042	0.178	-0.252
-545.296	-99.374	-0.298	-0.075
-544.281	-200.000	0.014	0.225
-543.266	553.130	0.063	0.150
-542.252	-105.156	0.162	-0.037
-541.237	25.973	-0.052	0.043
-540.223	102.775	-0.181	0.212
-539.208	-200.000	-0.026	0.490
-538.193	-200.000	-0.013	0.065
-537.179	27.828	0.279	0.234
-536.164	142.727	0.046	0.061
-535.150	-31.443	0.236	0.132
-534.135	36.530	0.191	0.168
-533.121	-200.000	0.004	0.068
-532.106	207.247	-0.239	-0.371
-531.091	-171.282	-0.193	-0.006
-530.077	-91.283	-0.276	-0.079
-529.062	629.912	-0.051	-0.129
-528.048	132.018	0.078	-0.100
-527.033	30.878	0.110	0.093
-526.018	-133.673	-0.239	0.030
-525.004	295.250	-0.085	0.155
-523.989	65.096	0.094	-0.095
-522.975	-72.745	-0.303	-0.111
-521.960	346.814	-0.097	-0.190
-520.945	-16.858	-0.407	0.256
-519.931	800.000	0.089	-0.278
-518.916	-132.585	0.371	-0.047
-517.902	38.664	-0.282	0.250
-516.887	-200.000	-0.049	0.324
-515.872	-200.000	-0.026	-0.125
-514.858	-148.315	-0.251	0.021
-513.843	800.000	-0.050	-0.216
-512.829	-200.000	-0.021	0.128
-511.814	-37.601	0.229	0.121
-510.799	-166.346	-0.406	0.017
-509.785	-5.880	-0.364	0.248
-508.770	800.000	-0.029	-0.113
-507.756	-24.960	-0.068	-0.040
-506.741	-46.974	-0.224	-0.109
-505.726	45.431	-0.022	-0.020
-504.712	-60.863	0.113	0.047
-503.697	779.457	0.067	-0.182
-502.683	-46.789	-0.088	0.043
-501.668	18.782	0.068	-0.054
-500.653	-115.239	-0.295	-0.055
-499.639	800.000	-0.091	0.324
-498.624	139.754	0.135	0.177
-497.610	208.269	-0.318	-0.495
-496.595	-103.191	-0.311	-0.073
-495.581	-77.724	-0.075	0.026
-494.566	-200.000	-0.010	0.341
-493.551	-88.628	-0.026	0.008
-492.537	-162.829	-0.029	-0.001
-491.522	-71.966	-0.508	-0.188
-490.508	-24.838	0.070	-0.041
-489.493	-92.508	0.143	-0.040
-488.478	-79.801	-0.305	-0.102
-487.464	-112.470	0.018	0.004
-486.449	-95.984	-0.155	0.041
-485.435	-200.000	-0.009	0.372
-484.420	-102.450	0.321	0.076
-483.405	-61.344	-0.106	-0.045
-482.391	-95.127	-0.411	-0.110
-481.376	800.000	0.030	0.083
-480.362	-200.000	-0.009	0.048
-479.347	770.699	-0.098	0.266
-478.332	-54.318	0.079	0.035
-477.318	132.938	-0.068	-0.087
-476.303	218.806	0.068	-0.108
-475.289	-132.689	-0.050	-0.006
-474.274	-111.913	0.211	0.042
-473.259	-200.000	0.029	0.486
-472.245	21.029	0.150	0.121
-471.230	-200.000	0.011	0.184
-470.216	-114.720	-0.140	0.027
-469.201	170.387	-0.109	-0.154
-468.186	41.064	0.279	-0.251
-467.172	-106.624	0.349	-0.077
-466.157	-200.000	0.019	0.191
-465.143	332.377	-0.050	0.096
-464.128	164.747	0.255	-0.358
-463.113	-200.000	0.076	-0.357
-462.099	-200.000	0.020	0.366
-461.084	11.092	0.334	-0.254
-460.070	-152.366	-0.028	-0.002
-459.055	120.107	0.106	-0.131
-458.040	-145.042	0.293	0.027
-457.026	-47.870	0.245	0.118
-456.011	147.717	-0.051	0.069
-454.997	800.000	0.079	-0.333
-453.982	-47.471	-0.262	0.127
-452.968	-200.000	0.030	0.156
-451.953	601.736	0.134	-0.331
-450.938	-119.280	-0.077	-0.013
-449.924	52.344	0.074	0.070
-448.909	800.000	-0.008	-0.030
-447.895	-140.516	-0.185	-0.019
-446.880	115.781	0.129	-0.156
-445.865	13.966	0.075	-0.058
-444.851	800.000	-0.087	-0.300
-443.836	6.263	-0.234	-0.172
-442.822	-81.637	0.099	-0.032
-441.807	92.987	0.305	-0.343
-440.792	-126.974	0.183	0.027
-439.778	-143.609	-0.182	-0.017
-438.763	-200.000	-0.045	-0.244
-437.749	-200.000	-0.021	0.170
-436.734	800.000	-0.032	0.094
-435.719	378.396	-0.094	0.191
-434.705	-95.648	0.146	-0.039
-433.690	800.000	-0.039	-0.128
-432.676	-5.116	-0.117	0.080
-431.661	84.872	0.229	-0.249
-430.646	800.000	0.049	-0.186
-429.632	-155.845	0.205	-0.013
-428.617	-57.118	0.165	-0.072
-427.603	800.000	0.124	-0.362
-426.588	-200.000	0.014	-0.143
-425.573	-37.857	0.202	-0.107
-424.559	-200.000	0.001	-0.133
-423.544	4.440	-0.113	0.083
-422.530	-174.319	-0.191	0.005
-421.515	-200.000	-0.003	-0.108
-420.500	-43.541	-0.219	-0.110
-419.486	43.323	0.242	0.220
-418.471	-6.691	0.067	-0.045
-417.457	11.737	0.287	0.218
-416.442	-200.000	0.007	-0.051
-415.428	800.000	0.036	-0.144
-414.413	-123.394	-0.151	-0.024
-413.398	-89.878	0.287	0.083
-412.384	16.705	-0.222	0.174
-411.369	-140.432	-0.211	-0.022
-410.355	244.912	-0.143	0.238
-409.340	152.936	0.062	0.084
-408.325	158.612	-0.226	0.311
-407.311	522.454	0.028	-0.066
-406.296	-200.000	-0.027	0.276
-405.282	-107.614	-0.104	0.023
-404.267	462.451	0.113	0.250
-403.252	-200.000	0.004	0.179
-402.238	-150.909	-0.307	0.023
-401.223	9.249	0.272	0.204
-400.209	256.781	-0.081	-0.138
-399.194	-106.618	0.200	0.044
-398.179	348.185	0.120	-0.234
-397.165	800.000	-0.067	0.218
-396.150	800.000	0.047	0.154
-395.136	611.358	-0.076	-0.187
-394.121	-139.689	0.261	-0.027
-393.106	19.558	0.069	0.055
-392.092	112.860	0.117	-0.141
-391.077	100.036	-0.165	0.189
-390.063	-200.000	-0.006	0.119
-389.048	-52.556	-0.276	-0.126
-388.033	-162.978	0.145	0.007
-387.019	-50.604	0.055	0.026
-386.004	100.067	-0.108	0.124
-384.990	-135.765	-0.265	0.031
-383.975	-79.530	-0.246	-0.082
-382.960	-110.529	0.079	0.016
-381.946	-69.797	0.337	-0.127
-380.931	147.539	0.105	0.140
-379.917	36.440	0.249	-0.218
-378.902	-78.829	0.114	0.038
-377.888	-98.692	-0.215	0.054
-376.873	-27.193	0.368	0.212
-375.858	-112.795	0.392	-0.077
-374.844	32.113	0.150	0.128
-373.829	-93.197	-0.301	0.083
-372.815	-162.457	-0.253	-0.012
-371.800	-64.713	-0.311	-0.125
-370.785	800.000	0.099	0.279
-369.771	590.393	0.124	0.302
-368.756	-70.830	-0.190	-0.071
-367.742	-200.000	-0.012	-0.198
-366.727	800.000	-0.057	0.198
-365.712	-166.539	0.134	-0.006
-364.698	121.883	0.170	-0.211
-363.683	-71.581	-0.269	0.099
-362.669	-80.892	0.259	-0.085
-361.654	-108.346	-0.097	0.021
-360.639	30.231	-0.262	-0.222
-359.625	800.000	-0.018	0.066
-358.610	-73.159	-0.096	-0.035
-357.596	-200.000	0.002	-0.039
-356.581	8.810	-0.214	0.160
-355.566	-66.946	0.101	-0.040
-354.552	412.644	-0.158	-0.332
-353.537	-11.260	0.233	-0.152
-352.523	42.796	-0.072	0.065
-351.508	38.102	0.247	-0.217
-350.493	44.731	-0.201	-0.183
-349.479	52.777	0.296	-0.280
-348.464	-200.000	0.053	-0.355
-347.450	-67.727	0.149	-0.057
-346.435	688.145	-0.075	-0.194
-345.420	-76.720	-0.121	0.042
-344.406	0.613	0.101	0.072
-343.391	319.980	0.142	0.267
-342.377	800.000	0.048	-0.191
-341.362	-200.000	0.003	0.019
-340.348	664.002	-0.034	0.087
-339.333	-200.000	0.049	0.212
-338.318	-102.236	0.074	-0.018
-337.304	59.576	0.251	-0.245
-336.289	84.300	-0.053	0.058
-335.275	86.131	0.093	0.102
-334.260	74.752	-0.132	0.137
-333.245	-200.000	-0.002	0.083
-332.231	183.644	-0.057	-0.084
-331.216	800.000	0.084	-0.327
-330.202	-138.865	-0.288	-0.031
-329.187	122.215	0.126	0.155
-328.172	-141.238	-0.147	0.015
-327.158	800.000	-0.031	0.123
-326.143	-103.178	0.127	0.030
-325.129	191.614	-0.043	0.065
-324.114	-161.806	-0.330	0.017
-323.099	108.440	0.091	0.107
-322.085	167.765	0.069	-0.097
-321.070	-73.656	0.181	-0.065
-320.056	-25.692	-0.270	-0.157
-319.041	-200.000	-0.005	0.159
-318.026	-200.000	0.148	-0.000
-317.012	-121.740	0.426	0.070
-315.997	-53.645	-0.457	-0.206
-314.983	104.703	-0.152	0.177
-313.968	-31.929	0.092	0.051
-312.953	-200.000	-0.016	0.180
-311.939	32.886	0.139	-0.119
-310.924	-36.360	0.208	0.111
-309.910	419.745	0.123	-0.260
-308.895	-200.000	-0.033	-0.223
-307.880	-200.000	-0.019	0.249
-306.866	-74.899	0.241	-0.085
-305.851	-200.000	-0.009	-0.253
-304.837	-64.585	0.043	0.017
-303.822	242.452	-0.024	-0.040
-302.807	-100.589	0.409	-0.100
-301.793	-31.869	-0.090	-0.050
-300.778	597.211	-0.066	0.162
-299.764	89.788	-0.115	0.126
-298.749	-46.802	0.221	0.107
-297.735	-51.728	-0.234	-0.107
-296.720	116.294	-0.194	-0.235
-295.705	-114.400	0.174	0.033
-294.691	-128.360	0.254	0.036
-293.676	31.193	-0.279	-0.236
-292.662	233.299	0.077	0.124
-291.647	-88.798	0.408	-0.119
-290.632	69.548	0.091	-0.092
-289.618	102.476	-0.099	-0.115
-288.603	-42.387	0.302	0.152
-287.589	-57.386	-0.189	0.082
-286.574	800.000	-0.034	0.112
-285.559	80.708	-0.081	-0.087
-284.545	-200.000	-0.017	-0.157
-283.530	26.335	0.166	0.137
-282.516	800.000	-0.074	0.260
-281.501	-200.000	-0.039	0.214
-280.486	-92.655	0.303	0.084
-279.472	30.129	-0.084	-0.070
-278.457	-200.000	0.002	0.056
-277.443	706.649	0.109	0.283
-276.428	-151.498	-0.155	-0.011
-275.413	-123.597	0.159	-0.025
-274.399	800.000	0.107	0.343
-273.384	-200.000	0.210	0.001
-272.370	-19.352	-0.186	-0.114
-271.355	-108.702	-0.080	-0.017
-270.340	8.533	-0.309	0.229
-269.326	-68.377	-0.376	-0.144
-268.311	-108.943	-0.037	0.008
-267.297	-76.398	0.112	0.039
-266.282	-44.068	-0.163	0.081
-265.267	-200.000	0.085	0.421
-264.253	-126.942	-0.333	0.048
-263.238	-30.549	-0.052	-0.029
-262.224	80.968	-0.265	-0.282
-261.209	126.407	0.134	0.167
-260.195	-38.875	-0.158	0.082
-259.180	157.692	-0.066	-0.090
-258.165	-61.128	0.049	0.020
-257.151	-83.591	-0.147	-0.046
-256.136	77.433	-0.429	-0.450
-255.122	-93.338	0.327	0.089
-254.107	-21.326	-0.222	0.133
-253.092	227.766	0.085	0.137
-252.078	-200.000	-0.014	0.155
-251.063	731.537	-0.090	0.237
-250.049	-123.917	0.332	0.052
-249.034	287.089	-0.089	0.159
-248.019	800.000	0.065	-0.206
-247.005	800.000	-0.040	-0.146
-245.990	50.112	-0.307	0.286
-244.976	-166.077	0.374	-0.016
-243.961	0.430	0.281	0.198
-242.946	61.475	0.097	-0.095
-241.932	-200.000	0.005	-0.120
-240.917	-70.210	-0.226	0.085
-239.903	4.194	0.125	-0.090
-238.888	-4.753	0.070	-0.048
-237.873	43.005	-0.129	0.116
-236.859	800.000	0.024	-0.104
-235.844	800.000	0.043	0.147
-234.830	623.410	0.051	0.127
-233.815	-62.693	-0.414	-0.169
-232.800	76.813	0.190	-0.198
-231.786	-200.000	0.023	0.121
-230.771	-56.837	-0.332	0.144
-229.757	177.467	0.061	-0.087
-228.742	10.526	-0.268	-0.201
-227.727	-165.933	0.434	-0.018
-226.713	198.385	0.038	-0.058
-225.698	-200.000	0.037	0.538
-224.684	-200.000	0.069	-0.366
-223.669	800.000	0.050	-0.175
-222.655	-11.493	0.175	-0.113
-221.640	58.493	-0.159	0.153
-220.625	36.140	0.330	0.286
-219.611	-80.532	0.221	0.073
-218.596	221.468	0.241	-0.380
-217.582	-178.028	-0.120	0.003
-216.567	-120.637	-0.270	-0.045
-215.552	-120.622	0.183	-0.030
-214.538	800.000	0.045	0.192
-213.523	-23.477	-0.177	0.105
-212.509	-87.498	0.259	-0.077
-211.494	-58.572	-0.166	-0.071
-210.479	-79.076	-0.241	-0.080
-209.465	-40.929	0.265	0.135
-208.450	-67.775	0.117	-0.045
-207.436	58.634	0.308	0.298
-206.421	800.000	0.034	-0.126
-205.406	-42.642	-0.251	0.126
-204.392	331.773	0.117	0.223
-203.377	800.000	-0.058	-0.191
-202.363	-131.177	-0.137	0.018
-201.348	132.656	0.091	0.116
-200.333	28.315	0.172	-0.143
-199.319	16.650	-0.196	0.152
-198.304	-200.000	-0.019	0.160
-197.290	207.819	-0.101	0.154
-196.275	800.000	-0.014	-0.061
-195.260	-115.052	-0.294	-0.055
-194.246	139.175	-0.024	-0.031
-193.231	-34.364	0.158	0.085
-192.217	231.525	-0.123	0.199
-191.202	372.019	0.049	0.098
-190.187	-141.523	-0.322	-0.032
-189.173	-60.216	0.240	0.100
-188.158	-200.000	-0.010	0.151
-187.144	-200.000	0.076	0.355
-186.129	-67.558	0.135	-0.052
-185.114	338.051	-0.078	-0.149
-184.100	-52.846	0.433	0.196
-183.085	-115.361	-0.186	0.035
-182.071	-200.000	0.024	-0.348
-181.056	-97.356	0.039	0.010
-180.042	139.536	0.139	0.180
-179.027	800.000	0.219	0.620
-178.012	94.245	0.149	0.166
-176.998	74.084	0.080	0.082
-175.983	-200.000	0.034	-0.167
-174.969	39.517	0.327	-0.288
-173.954	-39.624	0.309	0.159
-172.939	800.000	-0.040	0.117
-171.925	-200.000	-0.052	0.468
-170.910	-53.383	-0.117	0.053
-169.896	-129.718	0.348	-0.047
-168.881	137.985	-0.045	-0.058
-167.866	-175.023	0.144	-0.004
-166.852	-17.277	-0.184	-0.114
-165.837	-200.000	0.021	-0.543
-164.823	-200.000	-0.017	0.189
-163.808	-67.770	-0.326	-0.125
-162.793	-105.407	-0.048	0.011
-161.779	-40.625	-0.251	0.128
-160.764	-29.925	-0.136	-0.076
-159.750	-14.986	0.449	-0.283
-158.735	-56.925	0.215	-0.093
-157.720	-200.000	-0.004	-0.276
-156.706	-200.000	-0.034	0.362
-155.691	-200.000	0.027	-0.123
-154.677	800.000	0.067	-0.199
-153.662	-200.000	0.002	-0.019
-152.647	48.448	0.118	-0.108
-151.633	89.945	-0.101	-0.111
-150.618	-192.961	0.031	0.000
-149.604	4.531	0.192	0.138
-148.589	800.000	-0.037	0.116
-147.574	-113.255	0.070	-0.013
-146.560	224.579	0.038	0.061
-145.545	43.450	-0.242	0.217
-144.531	-42.527	0.195	-0.097
-143.516	-22.776	0.146	-0.087
-142.502	-129.676	-0.036	-0.005
-141.487	256.803	0.192	0.324
-140.472	-12.313	0.188	-0.121
-139.458	-55.387	-0.252	-0.111
-138.443	96.472	0.076	0.085
-137.429	189.991	-0.156	-0.229
-136.414	-96.783	-0.486	-0.125
-135.399	-200.000	-0.085	-0.382
-134.385	-91.763	0.165	-0.046
-133.370	494.046	-0.228	0.514
-132.356	405.327	0.163	-0.336
-131.341	241.055	-0.134	0.219
-130.326	269.559	-0.139	-0.240
-129.312	-67.694	0.139	0.053
-128.297	-89.204	-0.385	-0.111
-127.283	-200.000	-0.003	-0.222
-126.268	-58.169	-0.056	0.024
-125.253	-59.017	-0.028	0.012
-124.239	419.097	0.180	0.377
-123.224	81.594	-0.127	0.135
-122.210	51.159	0.054	0.050
-121.195	426.404	-0.215	0.454
