DTS Sentinel unit serial number:	SN413079Multiplexer serial number:	ORYXHardware model number:	OX4-SRSoftware version number:	ORYX F/W v4.00 Oryx Data Collector v3.7.2.0data status	okinstallation	princeton_trtdifferential loss correction	single-endedforward channel	channel 3reverse channel	N/Adate	2019/09/16time	07:08:35forward acquisition time	60.00reverse acquisition time	0.00gamma	496.2192k internal	0.2335k external	0.2335temperature offset calibration	0.9957default loss term (dB/km)	0.3790temperature slope calibration	1.0000multiplexer offset coefficient	1.0000multiplexer slope coefficient	1.0000fibre end	0.00T internal ref (°C)	27.37T ext. ref 1 (°C)	11.52T ext. ref 2 (°C)	21.92length (m)	temperature (°C)	Stokes	anti-Stokes-747.200	5.096	0.109	-0.080
-746.185	-28.521	-0.206	-0.119
-745.171	96.786	0.199	-0.230
-744.156	-49.405	-0.175	-0.084
-743.142	-200.000	0.014	-0.332
-742.127	213.594	-0.225	0.358
-741.112	-101.423	0.419	0.103
-740.098	-83.635	0.295	0.095
-739.083	-200.000	0.004	0.157
-738.069	-200.000	-0.048	-0.240
-737.054	505.070	-0.035	-0.082
-736.039	7.883	-0.143	0.108
-735.025	-49.722	0.457	0.218
-734.010	118.550	0.023	-0.028
-732.996	-116.360	-0.140	-0.026
-731.981	-51.819	0.058	-0.027
-730.966	426.644	-0.093	-0.200
-729.952	260.616	0.107	-0.186
-728.937	98.259	-0.121	0.140
-727.923	-200.000	-0.043	-0.297
-726.908	-19.611	-0.067	0.042
-725.894	-94.514	0.151	-0.041
-724.879	-159.908	-0.329	-0.018
-723.864	121.580	-0.188	-0.235
-722.850	-88.021	-0.213	-0.064
-721.835	-30.330	-0.271	0.155
-720.821	30.494	0.240	-0.206
-719.806	-46.153	-0.452	0.223
-718.791	-27.826	-0.327	-0.190
-717.777	-100.080	-0.093	-0.023
-716.762	-34.729	0.131	0.072
-715.748	-200.000	0.094	-0.426
-714.733	30.363	0.071	0.061
-713.718	800.000	0.063	-0.182
-712.704	-39.683	0.053	0.028
-711.689	-59.243	0.559	-0.241
-710.675	800.000	0.054	0.225
-709.660	-67.377	-0.155	-0.061
-708.645	-51.022	-0.247	-0.117
-707.631	-178.714	-0.303	0.007
-706.616	411.674	0.108	-0.229
-705.602	800.000	0.043	0.136
-704.587	466.420	0.108	-0.242
-703.572	497.251	-0.073	0.168
-702.558	-98.725	0.249	-0.064
-701.543	65.479	0.257	0.261
-700.529	-166.096	0.382	-0.016
-699.514	593.273	0.068	0.168
-698.499	-149.154	0.033	-0.003
-697.485	33.609	-0.109	-0.095
-696.470	-171.741	0.158	0.005
-695.456	85.698	-0.096	0.106
-694.441	-0.714	0.292	0.207
-693.426	-182.013	-0.492	0.009
-692.412	-68.312	0.293	0.114
-691.397	362.256	-0.078	-0.156
-690.383	-97.851	0.260	0.067
-689.368	-37.264	0.108	-0.058
-688.354	-104.362	-0.207	-0.048
-687.339	800.000	0.042	0.152
-686.324	297.383	-0.239	0.441
-685.310	-30.645	0.085	0.048
-684.295	35.087	-0.103	-0.091
-683.281	-167.935	-0.181	0.007
-682.266	800.000	-0.074	0.293
-681.251	-122.850	0.248	0.040
-680.237	-200.000	0.011	-0.143
-679.222	60.721	0.121	0.120
-678.208	-27.842	0.175	0.102
-677.193	-36.852	-0.324	0.174
-676.178	132.645	0.136	-0.175
-675.164	-32.828	-0.444	-0.247
-674.149	130.590	0.200	-0.257
-673.135	800.000	0.030	-0.130
-672.120	588.265	0.082	-0.202
-671.105	136.003	-0.353	-0.461
-670.091	7.661	0.180	-0.135
-669.076	-134.301	0.183	0.023
-668.062	154.724	-0.089	0.123
-667.047	94.576	0.097	0.110
-666.032	-200.000	0.040	0.194
-665.018	-200.000	0.039	0.387
-664.003	-104.020	0.142	-0.033
-662.989	800.000	-0.041	-0.177
-661.974	303.008	0.110	0.204
-660.959	6.832	-0.271	0.202
-659.945	-109.046	0.338	-0.072
-658.930	-6.795	-0.319	-0.218
-657.916	-125.067	0.101	-0.016
-656.901	-35.562	-0.363	-0.197
-655.886	-138.576	0.261	0.029
-654.872	522.283	0.077	0.182
-653.857	-5.920	-0.146	0.100
-652.843	484.586	0.132	-0.302
-651.828	30.417	-0.343	-0.293
-650.814	800.000	0.070	-0.302
-649.799	219.989	-0.123	0.198
-648.784	800.000	-0.031	0.088
-647.770	-95.986	-0.142	0.038
-646.755	-12.803	0.182	-0.119
-645.741	-132.766	-0.245	0.031
-644.726	-69.509	-0.203	0.078
-643.711	-76.028	0.251	0.089
-642.697	-200.000	0.092	0.533
-641.682	332.821	0.099	0.192
-640.668	-163.963	-0.130	0.006
-639.653	193.026	-0.168	-0.254
-638.638	800.000	-0.101	-0.349
-637.624	-76.395	-0.340	-0.120
-636.609	-26.735	0.197	-0.115
-635.595	800.000	-0.052	0.203
-634.580	-200.000	-0.043	-0.324
-633.565	-200.000	-0.091	0.456
-632.551	-57.434	-0.232	0.102
-631.536	283.835	0.092	-0.165
-630.522	800.000	0.119	-0.334
-629.507	-60.992	0.322	0.136
-628.492	800.000	0.055	0.218
-627.478	-200.000	0.006	-0.200
-626.463	-124.857	0.342	0.053
-625.449	273.678	0.100	-0.176
-624.434	-9.532	0.337	-0.225
-623.419	-200.000	-0.032	0.190
-622.405	-68.970	-0.202	0.078
-621.390	800.000	-0.032	-0.120
-620.376	-98.601	0.223	-0.057
-619.361	34.794	0.205	0.179
-618.346	-29.018	0.391	0.224
-617.332	-94.385	-0.111	-0.030
-616.317	-65.565	0.176	-0.071
-615.303	277.093	0.086	-0.154
-614.288	-80.245	0.244	-0.082
-613.273	83.904	-0.088	0.096
-612.259	-117.779	-0.223	-0.040
-611.244	-145.963	-0.281	-0.025
-610.230	-80.143	0.242	0.081
-609.215	100.304	-0.136	0.157
-608.201	-98.582	0.140	-0.036
-607.186	195.861	-0.049	-0.075
-606.171	-79.799	-0.116	0.039
-605.157	152.750	0.010	0.013
-604.142	166.783	-0.297	0.421
-603.128	-200.000	-0.012	-0.330
-602.113	56.369	-0.164	-0.159
-601.098	566.647	-0.072	-0.175
-600.084	322.126	0.127	0.241
-599.069	184.022	-0.197	0.291
-598.055	238.328	-0.149	0.247
-597.040	-32.401	0.354	0.197
-596.025	-121.099	-0.128	0.022
-595.011	140.480	0.172	-0.227
-593.996	263.815	0.104	-0.181
-592.982	57.876	0.154	0.150
-591.967	-149.184	-0.119	-0.009
-590.952	-58.197	0.184	-0.080
-589.938	800.000	-0.115	0.362
-588.923	800.000	-0.113	0.356
-587.909	-133.632	-0.099	-0.012
-586.894	-23.120	-0.269	0.162
-585.879	171.284	-0.198	-0.283
-584.865	-165.489	0.310	0.014
-583.850	-159.466	-0.293	0.016
-582.836	-200.000	-0.051	0.477
-581.821	372.467	-0.075	-0.152
-580.806	-54.111	-0.048	-0.022
-579.792	-30.107	0.157	0.089
-578.777	292.489	0.093	0.170
-577.763	-60.925	-0.315	-0.133
-576.748	460.998	0.164	-0.364
-575.733	55.714	0.124	-0.120
-574.719	140.359	-0.104	-0.137
-573.704	101.416	-0.198	0.230
-572.690	-122.896	-0.151	-0.024
-571.675	-200.000	-0.014	0.183
-570.661	800.000	-0.039	0.137
-569.646	800.000	0.134	0.437
-568.631	-200.000	0.011	-0.122
-567.617	3.368	-0.317	-0.230
-566.602	631.561	0.122	-0.308
-565.588	55.861	0.097	0.094
-564.573	-80.262	-0.263	0.088
-563.558	800.000	0.035	-0.130
-562.544	153.892	-0.094	-0.129
-561.529	-79.185	-0.107	-0.036
-560.515	-70.414	0.164	-0.062
-559.500	-200.000	0.036	0.244
-558.485	800.000	-0.046	0.148
-557.471	-200.000	0.049	0.327
-556.456	140.493	-0.083	-0.109
-555.442	-101.001	0.108	0.026
-554.427	139.210	-0.105	-0.138
-553.412	342.768	-0.127	-0.248
-552.398	-66.104	-0.281	-0.112
-551.383	-81.239	-0.410	-0.135
-550.369	800.000	-0.092	0.382
-549.354	800.000	-0.106	0.351
-548.339	-200.000	0.015	0.104
-547.325	308.887	-0.142	0.265
-546.310	800.000	0.041	-0.152
-545.296	800.000	-0.082	-0.329
-544.281	-81.664	-0.286	-0.094
-543.266	-27.547	-0.140	0.081
-542.252	-73.055	0.250	-0.091
-541.237	-132.431	0.179	0.023
-540.223	92.458	-0.066	-0.074
-539.208	20.435	0.056	0.045
-538.193	-89.677	0.186	0.054
-537.179	-200.000	-0.013	0.081
-536.164	-25.663	0.234	-0.138
-535.150	89.219	0.090	0.100
-534.135	40.578	0.034	-0.030
-533.121	22.785	0.108	0.088
-532.106	-103.964	-0.172	-0.040
-531.091	47.477	-0.179	-0.166
-530.077	6.563	0.299	0.221
-529.062	800.000	-0.133	0.451
-528.048	230.770	0.090	0.146
-527.033	192.376	-0.257	-0.386
-526.018	-200.000	0.022	-0.124
-525.004	-118.443	-0.194	0.034
-523.989	99.442	-0.370	0.426
-522.975	39.144	-0.125	-0.111
-521.960	15.769	0.161	-0.126
-520.945	37.626	-0.141	0.124
-519.931	-129.112	0.145	-0.020
-518.916	73.422	-0.244	0.255
-517.902	568.491	-0.072	-0.174
-516.887	-200.000	0.059	-0.272
-515.872	800.000	-0.028	-0.092
-514.858	25.641	-0.133	-0.111
-513.843	13.274	0.060	-0.046
-512.829	110.291	0.208	0.248
-511.814	-68.971	-0.383	0.147
-510.799	138.593	-0.162	0.212
-509.785	-108.575	0.087	0.019
-508.770	491.817	0.065	-0.149
-507.756	273.204	0.122	-0.215
-506.741	344.299	-0.137	-0.268
-505.726	-125.467	-0.092	0.014
-504.712	666.709	0.059	-0.152
-503.697	308.225	0.089	-0.166
-502.683	-83.965	-0.198	0.063
-501.668	57.181	0.185	0.180
-500.653	45.891	-0.393	-0.362
-499.639	-121.223	-0.381	-0.063
-498.624	-200.000	-0.034	-0.322
-497.610	55.357	0.212	0.204
-496.595	74.845	0.002	-0.003
-495.581	131.761	-0.042	0.054
-494.566	309.474	0.136	0.252
-493.551	61.443	0.144	0.142
-492.537	166.703	-0.082	0.116
-491.522	221.924	-0.045	-0.072
-490.508	655.170	-0.057	-0.147
-489.493	-119.152	0.182	-0.032
-488.478	-200.000	-0.026	-0.150
-487.464	573.370	0.147	0.355
-486.449	748.212	-0.105	0.283
-485.435	-133.853	0.136	0.017
-484.420	86.875	0.232	-0.254
-483.405	-56.294	0.189	0.083
-482.391	342.865	-0.137	-0.267
-481.376	-105.661	0.186	-0.042
-480.362	127.853	0.007	0.009
-479.347	-68.936	-0.158	-0.061
-478.332	-76.254	0.172	-0.060
-477.318	-200.000	-0.030	-0.274
-476.303	-120.372	0.149	-0.025
-475.289	800.000	-0.083	0.236
-474.274	44.962	-0.052	-0.048
-473.259	104.908	-0.066	0.078
-472.245	109.147	0.102	0.122
-471.230	-152.718	-0.274	-0.019
-470.216	800.000	-0.146	-0.401
-469.201	800.000	-0.103	-0.339
-468.186	307.727	-0.169	0.313
-467.172	-156.664	-0.292	-0.018
-466.157	490.431	-0.048	-0.109
-465.143	-200.000	0.091	-0.510
-464.128	-40.382	0.191	0.098
-463.113	-97.337	0.232	0.060
-462.099	800.000	-0.062	0.204
-461.084	-80.017	-0.107	0.036
-460.070	53.053	0.031	0.030
-459.055	-139.072	0.068	0.007
-458.040	27.274	0.152	-0.127
-457.026	323.409	-0.050	0.095
-456.011	-147.232	0.135	-0.011
-454.997	-27.086	0.186	0.108
-453.982	-34.115	0.030	0.016
-452.968	548.590	0.092	0.219
-451.953	118.613	-0.152	-0.186
-450.938	-31.946	0.225	0.125
-449.924	146.809	0.121	-0.162
-448.909	-43.735	0.451	0.226
-447.895	-110.166	0.130	-0.027
-446.880	-26.463	-0.055	0.032
-445.865	800.000	-0.093	0.280
-444.851	126.202	0.152	0.190
-443.836	-200.000	-0.046	0.241
-442.822	-18.385	0.048	-0.030
-441.807	-200.000	0.050	0.264
-440.792	-101.874	-0.165	-0.040
-439.778	404.792	0.047	0.099
-438.763	17.513	0.138	0.109
-437.749	168.926	0.124	0.176
-436.734	-200.000	0.003	-0.096
-435.719	1.649	-0.217	-0.155
-434.705	177.931	-0.310	0.448
-433.690	3.172	-0.378	0.273
-432.676	-200.000	-0.007	-0.091
-431.661	352.358	0.089	-0.175
-430.646	219.732	0.100	-0.159
-429.632	604.523	0.006	-0.014
-428.617	137.667	-0.356	-0.463
-427.603	-64.288	-0.102	0.041
-426.588	-200.000	0.000	-0.041
-425.573	163.787	-0.114	-0.160
-424.559	5.945	-0.261	-0.191
-423.544	63.761	-0.085	-0.085
-422.530	12.788	0.180	-0.138
-421.515	-200.000	0.046	0.297
-420.500	16.665	-0.235	-0.184
-419.486	-200.000	0.034	-0.164
-418.471	175.431	0.069	0.099
-417.457	-28.330	-0.046	0.026
-416.442	11.237	0.409	0.311
-415.428	800.000	0.083	-0.292
-414.413	-28.775	0.154	-0.088
-413.398	-200.000	-0.031	0.359
-412.384	141.311	-0.058	-0.077
-411.369	91.235	-0.105	0.117
-410.355	198.253	-0.065	0.098
-409.340	7.196	0.124	-0.092
-408.325	800.000	0.041	0.138
-407.311	-200.000	0.040	0.287
-406.296	40.321	0.155	-0.138
-405.282	-86.779	0.071	0.022
-404.267	163.490	-0.182	0.253
-403.252	304.723	-0.122	-0.224
-402.238	-94.971	-0.146	-0.039
-401.223	702.891	-0.182	0.475
-400.209	127.292	-0.182	0.229
-399.194	-200.000	-0.018	-0.231
-398.179	-8.771	0.174	0.115
-397.165	-153.383	-0.477	0.033
-396.150	800.000	-0.088	-0.345
-395.136	-21.481	-0.213	-0.129
-394.121	30.123	0.133	-0.112
-393.106	-90.456	0.119	0.034
-392.092	-109.874	0.188	0.039
-391.077	-200.000	-0.003	-0.204
-390.063	-52.258	0.111	0.051
-389.048	-200.000	0.045	-0.260
-388.033	800.000	0.053	-0.195
-387.019	800.000	0.065	-0.203
-386.004	-200.000	-0.002	-0.353
-384.990	-9.385	0.311	0.206
-383.975	-46.755	-0.290	0.141
-382.960	-64.136	0.125	-0.050
-381.946	141.424	-0.167	-0.219
-380.931	-76.658	-0.166	-0.058
-379.917	-200.000	0.011	0.166
-378.902	-200.000	0.047	-0.440
-377.888	-74.240	-0.090	0.032
-376.873	800.000	-0.080	-0.310
-375.858	-200.000	-0.010	0.146
-374.844	511.058	-0.079	0.183
-373.829	-47.240	-0.280	-0.135
-372.815	-6.626	0.209	0.141
-371.800	94.843	-0.197	0.222
-370.785	-77.179	0.144	0.050
-369.771	393.306	-0.074	0.153
-368.756	-200.000	-0.024	-0.110
-367.742	-200.000	-0.001	0.029
-366.727	322.380	0.084	-0.158
-365.712	1.355	-0.238	0.169
-364.698	-168.183	0.243	-0.009
-363.683	17.473	0.249	-0.196
-362.669	5.707	0.168	0.123
-361.654	800.000	-0.078	0.336
-360.639	800.000	0.022	0.071
-359.625	-67.602	-0.272	0.105
-358.610	800.000	0.052	0.161
-357.596	-62.681	0.190	0.078
-356.581	298.467	-0.179	-0.326
-355.566	236.559	-0.162	-0.265
-354.552	35.413	0.264	-0.229
-353.537	245.583	0.098	-0.164
-352.523	180.266	0.102	0.148
-351.508	-54.581	0.218	0.097
-350.493	-157.217	-0.136	-0.008
-349.479	-93.592	0.183	-0.050
-348.464	65.002	0.062	0.062
-347.450	-200.000	0.038	0.213
-346.435	800.000	0.068	0.191
-345.420	15.190	0.212	-0.165
-344.406	192.102	0.118	0.177
-343.391	-200.000	-0.022	-0.326
-342.377	-10.732	-0.133	-0.087
-341.362	-189.642	0.090	-0.001
-340.348	305.921	-0.018	-0.033
-339.333	146.752	0.147	0.196
-338.318	-77.018	-0.350	0.121
-337.304	-200.000	0.028	-0.133
-336.289	563.793	0.086	-0.205
-335.275	-200.000	0.043	-0.192
-334.260	411.329	0.095	0.200
-333.245	-75.560	0.049	0.017
-332.231	21.971	0.176	0.142
-331.216	432.396	0.101	-0.217
-330.202	15.633	-0.105	-0.082
-329.187	-44.956	-0.077	-0.038
-328.172	376.037	-0.177	-0.357
-327.158	-23.791	0.288	-0.170
-326.143	381.550	0.087	-0.176
-325.129	-53.392	0.142	0.064
-324.114	73.110	0.208	0.215
-323.099	232.502	-0.136	-0.221
-322.085	-155.186	0.099	0.006
-321.070	-90.539	0.313	0.089
-320.056	-83.471	0.274	-0.087
-319.041	-41.557	0.163	0.083
-318.026	-200.000	-0.013	-0.073
-317.012	541.768	-0.098	0.230
-315.997	-123.550	-0.263	0.041
-314.983	800.000	-0.034	-0.119
-313.968	-35.557	-0.045	0.024
-312.953	76.842	0.264	0.277
-311.939	-200.000	-0.008	0.068
-310.924	-181.615	-0.148	0.003
-309.910	-36.957	0.312	-0.165
-308.895	800.000	0.034	-0.109
-307.880	800.000	-0.115	0.362
-306.866	363.208	-0.142	-0.281
-305.851	-200.000	0.015	0.113
-304.837	-77.917	-0.246	-0.084
-303.822	-200.000	0.030	-0.147
-302.807	-200.000	0.004	-0.181
-301.793	-200.000	0.010	0.295
-300.778	800.000	0.062	0.244
-299.764	-144.989	0.283	-0.026
-298.749	-97.258	-0.058	-0.015
-297.735	-142.406	0.329	-0.032
-296.720	-106.533	-0.152	0.034
-295.705	232.682	-0.119	-0.193
-294.691	57.300	-0.126	-0.122
-293.676	536.558	-0.133	-0.311
-292.662	-1.328	0.227	0.158
-291.647	0.196	-0.094	0.066
-290.632	-200.000	0.012	0.249
-289.618	-182.934	-0.277	0.005
-288.603	-200.000	0.010	0.296
-287.589	-200.000	0.011	0.113
-286.574	751.304	0.045	-0.119
-285.559	1.962	0.200	-0.143
-284.545	-31.322	0.086	0.048
-283.530	-200.000	0.018	0.182
-282.516	187.632	0.247	0.363
-281.501	800.000	-0.108	0.412
-280.486	312.249	-0.168	-0.310
-279.472	-200.000	-0.018	-0.111
-278.457	800.000	0.152	-0.437
-277.443	-24.303	-0.321	-0.189
-276.428	-200.000	0.000	-0.153
-275.413	-114.159	0.198	-0.038
-274.399	-120.040	0.213	-0.036
-273.384	800.000	-0.116	-0.321
-272.370	134.715	-0.214	-0.274
-271.355	38.484	0.026	0.023
-270.340	-200.000	-0.001	0.270
-269.326	800.000	-0.054	-0.216
-268.311	-200.000	-0.040	0.207
-267.297	170.453	0.141	0.199
-266.282	-108.705	-0.464	0.098
-265.267	59.448	-0.031	-0.030
-264.253	-120.368	-0.076	-0.013
-263.238	-41.478	-0.252	-0.128
-262.224	-200.000	0.055	0.284
-261.209	800.000	0.048	-0.176
-260.195	-3.039	-0.289	0.199
-259.180	-200.000	-0.056	0.375
-258.165	-200.000	0.018	-0.204
-257.151	157.526	0.080	-0.109
-256.136	-142.793	-0.423	0.041
-255.122	119.166	0.132	0.161
-254.107	502.746	-0.110	0.250
-253.092	-200.000	0.029	0.129
-252.078	-200.000	0.005	0.209
-251.063	-40.281	0.091	-0.047
-250.049	-93.447	0.213	0.058
-249.034	113.141	0.129	0.154
-248.019	-122.116	0.223	-0.036
-247.005	-28.589	0.154	0.087
-245.990	617.949	-0.122	-0.301
-244.976	358.968	0.124	0.244
-243.961	-36.166	0.240	-0.128
-242.946	98.928	-0.226	0.257
-241.932	64.285	-0.241	0.239
-240.917	246.360	-0.079	0.131
-239.903	-200.000	0.038	0.254
-238.888	-132.802	0.159	-0.020
-237.873	-59.072	-0.378	-0.161
-236.859	-46.659	-0.196	-0.094
-235.844	-200.000	0.012	0.116
-234.830	-96.564	0.319	0.083
-233.815	126.137	-0.132	0.164
-232.800	-90.760	0.128	0.036
-231.786	-200.000	-0.023	0.376
-230.771	129.251	0.143	-0.180
-229.757	68.804	0.183	-0.185
-228.742	-9.888	-0.119	0.078
-227.727	-200.000	0.010	-0.256
-226.713	-32.089	0.254	0.140
-225.698	-41.024	-0.095	0.049
-224.684	65.097	0.095	-0.095
-223.669	531.417	-0.228	0.530
-222.655	68.448	-0.305	0.308
-221.640	800.000	-0.047	-0.189
-220.625	-100.808	-0.343	0.083
-219.611	-93.875	-0.124	-0.034
-218.596	21.776	0.031	0.025
-217.582	-22.769	-0.212	-0.126
-216.567	131.972	0.084	-0.106
-215.552	-57.004	0.342	0.148
-214.538	-200.000	0.022	-0.331
-213.523	653.548	-0.123	-0.311
-212.509	-171.348	-0.117	0.004
-211.494	-200.000	0.042	-0.345
-210.479	-112.292	0.121	0.024
-209.465	592.201	-0.039	-0.096
-208.450	13.373	0.235	-0.179
-207.436	800.000	-0.060	-0.230
-206.421	-62.765	0.150	-0.061
-205.406	-170.170	0.311	-0.011
-204.392	-200.000	-0.037	-0.570
-203.377	127.402	-0.119	-0.148
-202.363	-200.000	-0.021	0.348
-201.348	800.000	0.059	0.194
-200.333	-34.407	-0.136	0.073
-199.319	-129.532	-0.259	-0.035
-198.304	-18.197	0.253	-0.156
-197.290	-103.639	-0.135	-0.031
-196.275	-200.000	0.035	0.154
-195.260	-197.431	0.050	0.000
-194.246	-154.333	0.101	-0.007
-193.231	-106.506	0.290	-0.064
-192.217	-169.453	0.214	-0.008
-191.202	800.000	-0.006	0.016
-190.187	800.000	-0.045	-0.163
-189.173	-50.433	-0.087	-0.040
-188.158	-59.574	0.079	-0.033
-187.144	148.537	0.172	-0.229
-186.129	800.000	0.034	-0.125
-185.114	800.000	-0.041	0.149
-184.100	800.000	-0.071	0.215
-183.085	-200.000	-0.401	0.002
-182.071	-200.000	0.006	0.103
-181.056	123.030	-0.150	-0.185
-180.042	312.139	0.026	0.048
-179.027	-54.068	0.442	0.198
-178.012	800.000	-0.046	-0.143
-176.998	-62.425	0.255	-0.104
-175.983	302.957	-0.028	0.052
-174.969	-159.802	0.126	0.007
-173.954	-200.000	-0.025	-0.203
-172.939	800.000	-0.088	-0.337
-171.925	122.753	-0.038	0.046
-170.910	-124.323	0.274	-0.042
-169.896	-33.113	0.304	0.166
-168.881	-108.266	0.133	0.028
-167.866	-200.000	-0.140	-0.000
-166.852	-200.000	-0.031	0.197
-165.837	-104.374	0.423	-0.096
-164.823	-147.417	0.250	0.021
-163.808	-17.482	-0.196	-0.121
-162.793	800.000	0.021	0.085
-161.779	-102.693	0.198	-0.046
-160.764	354.449	-0.033	-0.064
-159.750	-70.733	-0.281	-0.104
-158.735	-142.100	0.263	-0.026
-157.720	20.831	0.275	-0.218
-156.706	45.050	-0.126	-0.114
-155.691	-49.765	-0.122	0.057
-154.677	346.766	0.058	-0.112
-153.662	-168.277	0.246	0.009
-152.647	113.365	-0.264	-0.315
-151.633	264.527	0.121	-0.206
-150.618	73.466	0.121	-0.124
-149.604	375.469	-0.039	0.077
-148.589	68.081	-0.315	0.316
-147.574	-3.181	0.265	0.181
-146.560	-129.288	0.255	-0.035
-145.545	-88.657	-0.377	0.110
-144.531	316.210	0.055	0.102
-143.516	-124.838	0.317	-0.048
-142.502	61.892	0.149	0.146
-141.487	286.260	-0.189	0.335
-140.472	73.807	0.168	0.173
-139.458	-30.314	-0.248	-0.138
-138.443	-70.924	-0.274	0.101
-137.429	43.559	-0.335	-0.301
-136.414	-132.964	0.063	-0.008
-135.399	173.520	-0.119	-0.168
-134.385	800.000	-0.054	-0.148
-133.370	704.262	-0.036	-0.092
-132.356	215.987	-0.042	-0.066
-131.341	-128.927	0.163	-0.022
-130.326	800.000	-0.085	-0.251
-129.312	-92.884	-0.242	-0.066
-128.297	-144.347	0.086	-0.008
-127.283	80.385	0.208	0.220
-126.268	53.463	-0.102	0.096
-125.253	204.955	0.147	-0.224
-124.239	-77.198	0.238	-0.081
-123.224	-114.249	-0.197	-0.037
-122.210	-135.064	0.287	-0.034
-121.195	327.288	-0.029	-0.055
