DTS Sentinel unit serial number:	SN413079Multiplexer serial number:	ORYXHardware model number:	OX4-SRSoftware version number:	ORYX F/W v4.00 Oryx Data Collector v3.7.2.0data status	okinstallation	princeton_trtdifferential loss correction	single-endedforward channel	channel 3reverse channel	N/Adate	2019/09/13time	21:36:34forward acquisition time	60.00reverse acquisition time	0.00gamma	496.2192k internal	0.2334k external	0.2334temperature offset calibration	1.0064default loss term (dB/km)	0.3790temperature slope calibration	1.0000multiplexer offset coefficient	1.0000multiplexer slope coefficient	1.0000fibre end	0.00T internal ref (°C)	28.19T ext. ref 1 (°C)	3.19T ext. ref 2 (°C)	22.84length (m)	temperature (°C)	Stokes	anti-Stokes-747.200	-137.350	-0.256	-0.029
-746.185	-178.924	-0.112	-0.003
-745.171	800.000	-0.099	0.302
-744.156	-200.000	-0.009	0.282
-743.142	167.793	-0.075	-0.108
-742.127	329.541	0.262	0.507
-741.112	552.877	-0.040	0.097
-740.098	8.137	-0.097	-0.073
-739.083	245.510	-0.079	-0.134
-738.069	99.702	0.071	0.082
-737.054	-102.366	0.125	0.030
-736.039	209.912	-0.064	0.101
-735.025	-43.717	0.262	0.133
-734.010	210.395	-0.173	-0.273
-732.996	-200.000	-0.034	-0.268
-731.981	789.795	0.044	-0.121
-730.966	-40.218	-0.092	-0.048
-729.952	-68.141	-0.134	-0.053
-728.937	209.677	0.014	0.021
-727.923	116.761	0.070	-0.086
-726.908	101.479	0.173	0.202
-725.894	-97.267	-0.089	0.023
-724.879	-145.901	-0.193	-0.017
-723.864	-200.000	0.002	-0.203
-722.850	1.214	0.297	0.214
-721.835	-181.020	0.138	0.003
-720.821	241.751	-0.192	-0.323
-719.806	302.955	0.097	0.180
-718.791	-200.000	0.009	-0.154
-717.777	250.562	-0.034	-0.059
-716.762	800.000	-0.024	0.096
-715.748	135.123	0.132	-0.172
-714.733	-76.931	-0.190	-0.067
-713.718	51.917	0.152	0.145
-712.704	-28.414	0.083	-0.048
-711.689	-23.085	0.316	-0.191
-710.675	26.386	0.058	-0.049
-709.660	0.525	-0.148	-0.106
-708.645	-9.673	-0.168	0.113
-707.631	492.328	0.024	-0.054
-706.616	-200.000	-0.014	0.278
-705.602	800.000	0.070	-0.196
-704.587	-103.293	0.416	0.099
-703.572	-33.591	-0.143	0.079
-702.558	-28.217	0.198	-0.115
-701.543	-27.267	0.224	0.131
-700.529	-58.661	-0.266	-0.116
-699.514	106.125	0.206	0.245
-698.499	-122.441	-0.230	-0.038
-697.485	358.786	-0.159	0.318
-696.470	-200.000	-0.030	0.176
-695.456	68.396	-0.078	-0.081
-694.441	-147.394	-0.143	0.012
-693.426	44.134	-0.029	0.026
-692.412	-57.437	0.169	0.074
-691.397	-169.700	0.217	-0.008
-690.383	800.000	-0.069	-0.302
-689.368	622.722	-0.064	0.161
-688.354	-200.000	-0.013	-0.447
-687.339	-200.000	0.018	-0.121
-686.324	35.033	0.057	-0.050
-685.310	130.129	0.090	-0.115
-684.295	-64.170	-0.218	-0.089
-683.281	77.453	-0.275	0.294
-682.266	-102.094	0.296	-0.071
-681.251	-129.594	0.129	0.018
-680.237	268.048	0.115	0.202
-679.222	160.500	-0.093	0.131
-678.208	78.209	-0.168	-0.180
-677.193	275.376	0.071	-0.126
-676.178	-60.614	-0.233	0.099
-675.164	-37.122	0.240	-0.129
-674.149	286.231	0.120	0.218
-673.135	364.111	-0.076	0.153
-672.120	-200.000	0.011	-0.097
-671.105	-87.194	-0.062	0.019
-670.091	-54.812	-0.254	0.115
-669.076	-200.000	0.017	0.101
-668.062	22.889	-0.304	0.250
-667.047	341.112	0.054	-0.106
-666.032	143.802	0.066	0.089
-665.018	-147.437	-0.291	-0.025
-664.003	-115.149	0.190	-0.036
-662.989	190.700	-0.112	-0.168
-661.974	200.256	-0.102	0.158
-660.959	-200.000	0.032	-0.151
-659.945	800.000	-0.017	-0.064
-658.930	-200.000	0.016	0.136
-657.916	-82.948	0.362	0.117
-656.901	-154.959	-0.124	-0.008
-655.886	800.000	-0.115	-0.355
-654.872	83.364	0.150	-0.164
-653.857	800.000	0.008	-0.030
-652.843	-200.000	0.002	-0.065
-651.828	-103.095	0.337	0.080
-650.814	-65.600	0.172	-0.069
-649.799	-200.000	0.001	-0.232
-648.784	800.000	-0.057	0.182
-647.770	-200.000	0.008	0.239
-646.755	-16.661	0.051	-0.033
-645.741	-64.190	-0.150	0.061
-644.726	-74.365	0.196	-0.071
-643.711	132.204	-0.119	-0.153
-642.697	800.000	0.055	0.157
-641.682	-100.927	0.362	0.089
-640.668	196.713	0.084	0.128
-639.653	-65.002	-0.498	-0.202
-638.638	-58.896	0.235	-0.102
-637.624	-87.357	0.095	0.029
-636.609	43.859	0.071	-0.065
-635.595	-29.458	-0.216	0.124
-634.580	200.478	0.196	0.301
-633.565	165.741	-0.143	0.203
-632.551	-200.000	-0.013	-0.110
-631.536	-37.469	0.180	-0.096
-630.522	-6.302	0.146	-0.100
-629.507	10.565	-0.320	0.244
-628.492	7.990	-0.124	-0.093
-627.478	-200.000	0.007	-0.222
-626.463	212.044	-0.334	0.527
-625.449	330.631	-0.092	-0.178
-624.434	-200.000	0.019	-0.166
-623.419	-127.548	-0.105	0.015
-622.405	17.758	0.135	0.108
-621.390	-151.440	0.389	-0.029
-620.376	275.128	0.091	0.161
-619.361	-33.993	-0.218	-0.120
-618.346	-186.399	0.146	-0.002
-617.332	-108.830	0.210	-0.045
-616.317	-45.748	-0.458	0.226
-615.303	252.273	0.140	0.238
-614.288	512.057	-0.078	-0.182
-613.273	-86.667	0.130	-0.040
-612.259	130.569	0.133	0.170
-611.244	-85.973	-0.149	0.046
-610.230	-62.230	-0.252	0.105
-609.215	-200.000	0.020	-0.140
-608.201	411.116	-0.052	-0.111
-607.186	-200.000	-0.012	-0.158
-606.171	-54.797	-0.363	-0.164
-605.157	800.000	-0.085	0.361
-604.142	-200.000	0.004	0.155
-603.128	-41.724	0.227	0.117
-602.113	90.817	-0.230	0.257
-601.098	-44.370	0.066	0.033
-600.084	800.000	-0.044	-0.181
-599.069	-79.114	-0.381	-0.129
-598.055	266.360	-0.167	-0.292
-597.040	-163.347	0.376	-0.018
-596.025	-80.397	0.109	-0.036
-595.011	-115.172	0.255	0.048
-593.996	-200.000	-0.031	-0.262
-592.982	-12.152	0.251	-0.164
-591.967	800.000	-0.005	-0.022
-590.952	-106.680	-0.099	-0.022
-589.938	-81.749	-0.006	-0.002
-588.923	-79.816	-0.385	0.129
-587.909	-52.630	-0.164	0.076
-586.894	71.304	-0.091	-0.094
-585.879	186.366	-0.209	0.310
-584.865	-200.000	0.039	0.254
-583.850	-15.293	0.161	0.103
-582.836	-42.119	0.241	0.123
-581.821	-88.425	-0.464	0.138
-580.806	183.192	0.233	-0.343
-579.792	35.177	-0.101	-0.089
-578.777	-200.000	-0.014	-0.137
-577.763	38.566	0.206	0.184
-576.748	118.196	-0.271	0.334
-575.733	230.061	-0.115	0.187
-574.719	-80.922	0.406	-0.135
-573.704	20.262	-0.065	-0.053
-572.690	-96.119	0.349	-0.093
-571.675	800.000	-0.082	-0.276
-570.661	110.213	0.109	0.131
-569.646	-53.503	-0.356	-0.163
-568.631	-134.572	0.162	0.020
-567.617	-200.000	-0.001	0.241
-566.602	-30.270	-0.191	0.108
-565.588	35.945	0.258	0.227
-564.573	203.438	-0.155	-0.239
-563.558	-2.455	-0.068	0.047
-562.544	-87.931	-0.428	0.129
-561.529	154.365	0.100	-0.138
-560.515	109.752	0.138	-0.166
-559.500	-31.413	0.067	-0.038
-558.485	157.248	0.238	-0.328
-557.471	-51.835	-0.280	-0.130
-556.456	-22.936	0.193	0.116
-555.442	45.735	0.292	0.270
-554.427	-102.993	0.383	-0.091
-553.412	70.811	-0.116	-0.120
-552.398	481.260	0.044	-0.099
-551.383	-49.148	0.282	0.134
-550.369	-200.000	-0.004	-0.107
-549.354	-18.820	0.166	0.103
-548.339	46.442	0.112	0.104
-547.325	333.566	-0.127	0.245
-546.310	-47.521	0.166	-0.081
-545.296	205.401	0.068	0.105
-544.281	800.000	0.098	-0.297
-543.266	-64.069	0.122	-0.050
-542.252	20.850	-0.462	-0.373
-541.237	-2.504	-0.142	0.099
-540.223	-102.502	-0.439	0.105
-539.208	30.346	-0.116	0.098
-538.193	-105.929	0.131	0.030
-537.179	16.510	0.080	0.063
-536.164	-83.377	0.082	0.026
-535.150	-56.870	-0.179	0.079
-534.135	-200.000	0.001	-0.017
-533.121	-146.313	-0.280	-0.024
-532.106	-200.000	-0.044	-0.305
-531.091	4.501	-0.189	-0.138
-530.077	-43.269	-0.389	0.196
-529.062	117.908	0.113	-0.139
-528.048	630.498	0.070	-0.177
-527.033	176.640	0.088	0.128
-526.018	-73.269	0.098	-0.036
-525.004	274.965	-0.177	-0.313
-523.989	-26.623	0.287	-0.168
-522.975	135.949	-0.170	0.221
-521.960	126.629	0.052	0.065
-520.945	-120.769	0.420	-0.071
-519.931	-144.610	0.113	-0.010
-518.916	168.654	-0.215	-0.305
-517.902	12.519	0.301	-0.231
-516.887	90.182	0.094	-0.105
-515.872	260.299	0.076	0.130
-514.858	20.332	-0.232	-0.187
-513.843	-88.046	-0.238	0.071
-512.829	196.987	-0.115	-0.174
-511.814	-114.906	0.079	-0.015
-510.799	-57.289	0.129	-0.056
-509.785	36.778	0.184	0.162
-508.770	111.031	-0.076	-0.091
-507.756	31.886	-0.247	0.212
-506.741	-130.938	0.117	-0.016
-505.726	626.533	0.155	-0.390
-504.712	-122.677	0.072	-0.012
-503.697	64.237	0.152	0.152
-502.683	272.096	0.181	-0.319
-501.668	-200.000	-0.006	-0.175
-500.653	800.000	0.020	-0.080
-499.639	-61.869	-0.101	0.042
-498.624	-108.410	-0.429	-0.092
-497.610	-200.000	-0.020	0.206
-496.595	29.645	0.278	-0.236
-495.581	514.544	-0.045	0.105
-494.566	415.375	0.070	-0.149
-493.551	-122.525	-0.453	-0.073
-492.537	-76.441	0.192	-0.067
-491.522	-79.252	-0.125	0.042
-490.508	-154.027	0.089	0.006
-489.493	298.698	-0.204	-0.374
-488.478	39.283	0.296	-0.263
-487.464	-52.480	-0.249	0.115
-486.449	-200.000	0.010	-0.065
-485.435	-21.351	-0.396	-0.240
-484.420	-133.956	-0.088	-0.011
-483.405	-116.434	-0.567	0.104
-482.391	-37.599	-0.086	0.046
-481.376	479.395	0.073	-0.166
-480.362	-3.382	-0.081	0.056
-479.347	162.618	0.243	-0.340
-478.332	-55.437	-0.407	-0.181
-477.318	22.834	-0.204	-0.166
-476.303	-89.173	0.455	0.134
-475.289	433.446	0.130	0.281
-474.274	417.080	0.054	-0.114
-473.259	-82.594	-0.278	-0.090
-472.245	508.735	-0.147	-0.339
-471.230	-42.140	-0.321	0.163
-470.216	-200.000	0.049	-0.230
-469.201	-159.463	-0.289	0.016
-468.186	-200.000	0.015	-0.207
-467.172	-200.000	0.049	-0.489
-466.157	-50.329	0.060	0.028
-465.143	-200.000	0.010	0.190
-464.128	106.344	0.113	-0.134
-463.113	21.117	0.321	-0.259
-462.099	584.075	-0.035	-0.087
-461.084	-68.439	-0.084	0.032
-460.070	-200.000	0.007	-0.164
-459.055	184.862	0.228	0.336
-458.040	-200.000	-0.018	-0.319
-457.026	5.515	-0.034	0.025
-456.011	-200.000	0.050	0.262
-454.997	800.000	-0.025	0.089
-453.982	38.402	-0.045	0.040
-452.968	15.965	0.186	-0.145
-451.953	2.956	-0.124	0.090
-450.938	136.697	0.122	-0.159
-449.924	214.793	-0.198	-0.311
-448.909	-125.957	0.058	0.009
-447.895	-200.000	0.020	-0.249
-446.880	-200.000	-0.004	-0.063
-445.865	409.376	0.192	0.405
-444.851	62.697	0.055	-0.054
-443.836	159.800	0.083	-0.115
-442.822	-62.340	-0.052	0.022
-441.807	-127.500	-0.362	-0.052
-440.792	-40.733	0.175	0.090
-439.778	-200.000	-0.048	0.347
-438.763	-136.906	0.127	0.015
-437.749	573.574	0.120	0.291
-436.734	-192.462	0.096	-0.001
-435.719	7.605	0.264	-0.196
-434.705	-89.297	-0.165	-0.048
-433.690	800.000	-0.057	0.189
-432.676	33.372	-0.062	-0.053
-431.661	10.850	0.121	0.092
-430.646	800.000	0.053	0.181
-429.632	-148.083	-0.237	0.020
-428.617	-113.613	0.189	-0.037
-427.603	800.000	-0.041	-0.140
-426.588	-47.599	0.212	-0.102
-425.573	-200.000	0.024	0.127
-424.559	-162.255	-0.057	-0.003
-423.544	-179.352	-0.225	-0.005
-422.530	800.000	-0.018	-0.063
-421.515	-10.462	-0.166	-0.109
-420.500	452.581	0.021	-0.047
-419.486	-200.000	-0.009	0.153
-418.471	-24.435	0.198	-0.117
-417.457	-80.589	0.272	0.090
-416.442	216.330	0.129	-0.204
-415.428	-200.000	0.009	0.040
-414.413	-103.429	0.023	-0.005
-413.398	690.519	-0.034	0.089
-412.384	-200.000	0.043	0.193
-411.369	800.000	0.023	-0.068
-410.355	-85.030	-0.293	0.091
-409.340	104.890	-0.151	0.176
-408.325	-200.000	-0.023	-0.107
-407.311	-51.561	-0.126	0.058
-406.296	-200.000	-0.026	-0.202
-405.282	53.795	-0.234	0.223
-404.267	561.095	-0.086	0.205
-403.252	678.182	-0.071	0.183
-402.238	729.806	0.022	0.058
-401.223	-29.288	-0.040	0.023
-400.209	52.672	0.134	0.127
-399.194	-41.045	-0.308	0.158
-398.179	369.700	-0.087	0.174
-397.165	-83.644	0.124	0.039
-396.150	64.866	-0.199	0.199
-395.136	161.603	-0.156	-0.217
-394.121	-76.238	0.163	0.057
-393.106	-29.254	-0.153	-0.087
-392.092	182.956	-0.114	0.167
-391.077	-2.586	0.111	0.077
-390.063	-162.274	0.537	-0.027
-389.048	800.000	-0.059	0.165
-388.033	-127.569	0.209	-0.030
-387.019	121.284	0.062	-0.077
-386.004	-200.000	-0.024	0.149
-384.990	-47.452	0.178	-0.086
-383.975	-153.325	-0.344	-0.024
-382.960	-109.193	0.141	-0.030
-381.946	-124.138	-0.122	-0.019
-380.931	-108.946	0.367	0.078
-379.917	-200.000	0.030	0.305
-378.902	-33.748	-0.259	-0.142
-377.888	98.483	0.153	0.174
-376.873	800.000	0.050	-0.172
-375.858	-100.560	-0.245	0.060
-374.844	22.931	0.114	-0.093
-373.829	-200.000	0.003	0.133
-372.815	-200.000	-0.001	0.072
-371.800	-125.296	0.263	0.040
-370.785	-200.000	-0.033	-0.245
-369.771	-200.000	-0.060	0.390
-368.756	-163.845	-0.138	-0.006
-367.742	-200.000	-0.022	-0.321
-366.727	-137.405	0.176	0.020
-365.712	28.799	-0.074	-0.062
-364.698	-97.668	-0.075	-0.019
-363.683	-95.146	0.306	-0.082
-362.669	-176.345	0.277	-0.007
-361.654	34.108	-0.241	0.208
-360.639	-123.916	-0.420	-0.066
-359.625	-200.000	0.018	-0.210
-358.610	255.475	0.071	-0.121
-357.596	-88.825	0.192	-0.057
-356.581	-200.000	-0.075	0.388
-355.566	-121.029	0.287	-0.048
-354.552	-18.581	0.231	0.143
-353.537	-200.000	0.007	0.090
-352.523	-60.923	0.131	0.055
-351.508	135.622	0.042	-0.055
-350.493	56.719	-0.033	-0.032
-349.479	72.519	-0.071	-0.073
-348.464	-200.000	-0.004	-0.097
-347.450	-200.000	0.000	0.162
-346.435	-87.998	-0.292	0.087
-345.420	160.737	0.131	0.181
-344.406	800.000	-0.066	-0.204
-343.391	69.881	-0.039	-0.040
-342.377	-163.978	-0.225	0.010
-341.362	-141.433	-0.289	0.029
-340.348	34.599	-0.095	0.082
-339.333	173.712	-0.153	-0.218
-338.318	-87.028	0.092	-0.028
-337.304	-200.000	-0.055	0.335
-336.289	251.042	-0.173	-0.291
-335.275	800.000	0.118	-0.408
-334.260	800.000	0.087	-0.351
-333.245	800.000	-0.040	0.111
-332.231	-200.000	-0.020	0.265
-331.216	-147.436	-0.229	-0.019
-330.202	-100.714	-0.437	-0.107
-329.187	800.000	0.061	0.213
-328.172	-8.706	-0.082	0.055
-327.158	-151.686	-0.228	0.017
-326.143	-36.276	-0.245	-0.131
-325.129	6.920	-0.058	0.043
-324.114	-64.209	-0.238	0.096
-323.099	800.000	-0.031	-0.117
-322.085	-99.474	-0.173	-0.043
-321.070	68.767	0.194	0.197
-320.056	-131.084	0.060	-0.008
-319.041	800.000	-0.060	0.240
-318.026	-200.000	0.019	0.152
-317.012	800.000	0.080	0.267
-315.997	-103.234	0.343	0.080
-314.983	800.000	0.067	0.230
-313.968	-98.030	0.143	-0.036
-312.953	-51.884	0.250	0.115
-311.939	-200.000	0.025	-0.258
-310.924	39.980	0.147	0.131
-309.910	-69.445	0.219	0.083
-308.895	82.229	-0.174	-0.187
-307.880	-160.518	0.169	-0.009
-306.866	7.187	-0.168	-0.124
-305.851	392.752	-0.092	0.190
-304.837	-83.115	0.379	0.120
-303.822	800.000	0.023	-0.088
-302.807	15.185	-0.135	-0.105
-301.793	74.791	0.117	-0.121
-300.778	800.000	0.027	-0.111
-299.764	58.558	0.074	0.071
-298.749	-29.050	-0.235	0.133
-297.735	-200.000	0.006	0.217
-296.720	-33.757	-0.060	0.033
-295.705	-12.438	0.175	-0.113
-294.691	-35.969	-0.049	0.026
-293.676	286.991	-0.156	0.278
-292.662	-92.594	-0.430	-0.119
-291.647	-2.106	0.242	0.168
-290.632	568.732	0.203	0.487
-289.618	800.000	-0.046	-0.150
-288.603	6.585	-0.032	-0.024
-287.589	-200.000	-0.017	-0.158
-286.574	135.826	0.150	-0.192
-285.559	-158.319	0.059	0.003
-284.545	-200.000	0.032	-0.292
-283.530	-28.264	-0.082	-0.047
-282.516	-76.596	0.194	-0.067
-281.501	-13.582	0.225	-0.144
-280.486	-193.368	-0.482	0.004
-279.472	-104.562	-0.219	-0.050
-278.457	-200.000	0.057	0.347
-277.443	-69.902	-0.216	0.081
-276.428	119.747	-0.098	0.120
-275.413	371.197	0.154	0.309
-274.399	7.396	-0.329	-0.243
-273.384	-91.173	0.159	0.045
-272.370	-200.000	-0.018	-0.356
-271.355	83.513	-0.070	0.075
-270.340	-77.819	0.345	-0.118
-269.326	205.061	0.187	-0.286
-268.311	-200.000	-0.060	-0.481
-267.297	-200.000	0.045	0.305
-266.282	-66.547	-0.070	-0.027
-265.267	91.691	0.087	-0.097
-264.253	282.420	0.078	0.138
-263.238	325.585	-0.047	0.089
-262.224	172.202	0.192	0.273
-261.209	-126.232	0.157	-0.023
-260.195	-30.707	-0.216	0.120
-259.180	-15.453	0.308	-0.194
-258.165	-122.029	0.419	0.068
-257.151	318.315	-0.168	-0.314
-256.136	-81.445	0.294	-0.096
-255.122	71.849	-0.055	0.057
-254.107	-154.429	-0.081	-0.005
-253.092	800.000	0.102	-0.410
-252.078	154.074	-0.014	0.020
-251.063	-146.363	-0.119	-0.010
-250.049	758.157	0.077	0.205
-249.034	-78.709	0.367	0.124
-248.019	479.508	0.161	0.361
-247.005	-5.109	-0.143	0.097
-245.990	40.800	-0.196	-0.175
-244.976	167.294	-0.142	0.199
-243.961	-102.283	0.308	0.073
-242.946	-5.332	0.225	-0.152
-241.932	-200.000	-0.045	-0.343
-240.917	504.516	-0.111	0.254
-239.903	-101.668	0.135	0.032
-238.888	-75.433	0.217	0.076
-237.873	-23.652	0.309	-0.183
-236.859	205.774	0.159	-0.244
-235.844	676.073	0.031	0.079
-234.830	73.951	0.110	0.114
-233.815	-70.264	0.157	-0.059
-232.800	288.985	0.147	0.263
-231.786	-64.626	-0.324	0.130
-230.771	29.067	0.178	0.149
-229.757	800.000	-0.048	0.164
-228.742	-83.964	0.186	-0.058
-227.727	-151.076	-0.320	-0.024
-226.713	-106.439	-0.441	0.097
-225.698	800.000	0.014	0.042
-224.684	-74.057	0.185	0.066
-223.669	-187.160	0.253	0.003
-222.655	-6.657	-0.180	0.121
-221.640	-58.048	0.498	0.214
-220.625	-114.231	0.242	0.046
-219.611	-154.196	-0.274	-0.018
-218.596	-146.978	0.352	0.030
-217.582	-200.000	0.005	0.121
-216.567	318.267	0.165	-0.307
-215.552	29.994	-0.259	-0.218
-214.538	314.015	0.102	-0.190
-213.523	168.689	0.098	0.138
-212.509	800.000	0.037	-0.104
-211.494	-143.950	-0.243	-0.023
-210.479	153.050	-0.182	0.245
-209.465	-200.000	-0.034	-0.159
-208.450	28.478	-0.092	0.077
-207.436	0.012	0.097	-0.068
-206.421	-126.806	-0.222	0.032
-205.406	-200.000	-0.012	0.131
-204.392	72.281	-0.175	-0.180
-203.377	497.510	-0.041	0.092
-202.363	-132.035	-0.163	-0.021
-201.348	281.404	-0.120	-0.211
-200.333	-200.000	-0.052	0.239
-199.319	-123.140	-0.177	-0.028
-198.304	96.714	0.287	0.323
-197.290	-200.000	-0.003	0.040
-196.275	184.658	0.110	0.160
-195.260	70.895	-0.244	-0.249
-194.246	-51.436	-0.086	0.040
-193.231	-200.000	-0.028	0.358
-192.217	-199.718	0.006	0.000
-191.202	-58.332	0.283	-0.121
-190.187	79.345	-0.019	-0.020
-189.173	-200.000	-0.040	-0.371
-188.158	-200.000	0.031	0.157
-187.144	432.113	0.197	0.420
-186.129	-200.000	-0.025	0.157
-185.114	-58.889	0.141	0.060
-184.100	29.709	0.034	-0.029
-183.085	-87.138	-0.115	0.034
-182.071	414.768	-0.058	-0.121
-181.056	-24.381	0.136	0.080
-180.042	800.000	-0.042	0.123
-179.027	537.681	0.019	-0.044
-178.012	-117.161	0.386	0.069
-176.998	141.379	0.094	-0.122
-175.983	499.950	0.060	-0.135
-174.969	-200.000	0.035	0.171
-173.954	-25.502	0.033	0.019
-172.939	800.000	0.067	0.184
-171.925	800.000	-0.069	0.196
-170.910	72.256	0.196	-0.201
-169.896	296.383	-0.069	-0.125
-168.881	-200.000	0.025	-0.167
-167.866	18.788	0.064	-0.050
-166.852	-160.524	-0.370	-0.019
-165.837	-68.820	0.139	0.053
-164.823	633.081	0.078	-0.194
-163.808	-200.000	-0.053	-0.264
-162.793	155.026	-0.156	-0.211
-161.779	-57.264	-0.327	-0.142
-160.764	-39.618	-0.174	-0.089
-159.750	-122.509	0.339	0.054
-158.735	362.097	-0.202	0.398
-157.720	800.000	-0.030	0.083
-156.706	316.328	-0.119	0.221
-155.691	251.412	-0.033	0.056
-154.677	-200.000	-0.007	-0.053
-153.662	-85.223	0.338	-0.104
-152.647	-26.752	-0.228	0.131
-151.633	-84.153	0.089	-0.028
-150.618	-3.350	0.137	-0.094
-149.604	350.579	0.145	-0.281
-148.589	126.428	0.106	-0.132
-147.574	212.690	0.207	-0.320
-146.560	-160.810	0.443	0.023
-145.545	41.858	-0.086	0.076
-144.531	-128.242	-0.121	-0.017
-143.516	-142.886	-0.103	-0.010
-142.502	-82.151	-0.476	-0.152
-141.487	-200.000	0.008	-0.056
-140.472	199.421	-0.156	-0.235
-139.458	-34.880	-0.352	-0.189
-138.443	-200.000	-0.005	0.065
-137.429	-6.589	0.209	-0.140
-136.414	-200.000	0.013	0.239
-135.399	-56.242	0.213	0.093
-134.385	-103.486	-0.152	-0.035
-133.370	-155.139	0.210	0.013
-132.356	-56.701	0.257	0.112
-131.341	-200.000	-0.002	0.159
-130.326	7.905	0.130	-0.096
-129.312	8.384	-0.152	0.112
-128.297	86.462	0.177	0.191
-127.283	-103.268	0.365	0.085
-126.268	0.745	0.243	0.171
-125.253	-200.000	-0.032	-0.418
-124.239	-200.000	-0.021	0.091
-123.224	-58.458	0.130	0.055
-122.210	-200.000	0.049	0.254
-121.195	-28.509	0.034	0.019
