DTS Sentinel unit serial number:	SN413079Multiplexer serial number:	ORYXHardware model number:	OX4-SRSoftware version number:	ORYX F/W v4.00 Oryx Data Collector v3.7.2.0data status	okinstallation	princeton_trtdifferential loss correction	single-endedforward channel	channel 3reverse channel	N/Adate	2019/09/12time	10:50:11forward acquisition time	60.00reverse acquisition time	0.00gamma	496.2192k internal	0.2295k external	0.2295temperature offset calibration	1.0032default loss term (dB/km)	0.3790temperature slope calibration	1.0000multiplexer offset coefficient	1.0000multiplexer slope coefficient	1.0000fibre end	0.00T internal ref (°C)	37.94T ext. ref 1 (°C)	1.92T ext. ref 2 (°C)	36.63length (m)	temperature (°C)	Stokes	anti-Stokes-747.200	160.930	0.219	0.313
-746.185	-200.000	0.030	0.262
-745.171	800.000	0.077	0.284
-744.156	44.778	-0.218	0.205
-743.142	-200.000	0.006	0.277
-742.127	111.925	0.102	0.125
-741.112	352.817	0.129	-0.262
-740.098	52.143	0.112	0.109
-739.083	567.796	-0.084	0.208
-738.069	31.506	0.279	0.245
-737.054	339.352	0.098	-0.195
-736.039	-200.000	0.031	-0.223
-735.025	800.000	0.057	0.178
-734.010	71.240	-0.428	-0.453
-732.996	-100.685	-0.181	-0.046
-731.981	800.000	0.056	-0.229
-730.966	57.987	0.153	-0.154
-729.952	-63.087	-0.249	-0.105
-728.937	22.740	-0.281	-0.235
-727.923	-131.957	0.008	-0.001
-726.908	-200.000	-0.015	-0.160
-725.894	-78.366	-0.307	0.108
-724.879	313.231	-0.194	0.373
-723.864	800.000	0.020	-0.063
-722.850	-200.000	-0.048	-0.234
-721.835	-132.485	0.226	-0.030
-720.821	-46.646	-0.237	0.118
-719.806	9.483	-0.205	-0.159
-718.791	800.000	-0.090	-0.255
-717.777	301.141	0.019	0.036
-716.762	-33.882	0.226	0.127
-715.748	219.836	0.108	0.177
-714.733	296.291	0.186	-0.348
-713.718	-51.876	-0.279	0.133
-712.704	3.814	-0.183	0.137
-711.689	-200.000	-0.004	0.032
-710.675	74.960	-0.213	-0.229
-709.660	-156.112	-0.116	0.008
-708.645	96.989	0.062	0.072
-707.631	231.961	-0.081	0.135
-706.616	785.702	-0.020	-0.056
-705.602	13.802	-0.115	-0.091
-704.587	-1.802	-0.232	-0.167
-703.572	132.960	0.222	0.292
-702.558	800.000	0.011	-0.044
-701.543	0.313	0.144	-0.105
-700.529	-117.259	-0.359	-0.067
-699.514	-73.303	0.379	-0.142
-698.499	15.200	0.206	0.164
-697.485	-15.813	0.076	0.050
-696.470	-139.729	-0.205	0.022
-695.456	800.000	0.090	0.356
-694.441	-87.109	-0.174	-0.054
-693.426	47.568	-0.182	-0.173
-692.412	457.730	-0.122	0.277
-691.397	-101.973	-0.226	-0.056
-690.383	-200.000	-0.035	0.163
-689.368	441.229	0.098	-0.218
-688.354	800.000	0.127	0.406
-687.339	67.995	-0.125	0.130
-686.324	113.227	0.036	-0.044
-685.310	309.408	-0.137	0.261
-684.295	-30.582	-0.137	0.079
-683.281	-76.977	0.292	0.104
-682.266	-36.665	0.226	0.124
-681.251	496.505	0.055	-0.130
-680.237	85.655	-0.108	0.121
-679.222	405.819	0.019	0.041
-678.208	-200.000	0.049	0.245
-677.193	144.145	-0.014	-0.019
-676.178	-74.012	-0.208	-0.077
-675.164	-200.000	-0.020	0.130
-674.149	157.219	-0.089	-0.126
-673.135	-142.520	-0.211	-0.021
-672.120	-200.000	0.022	0.397
-671.105	-93.065	0.199	0.056
-670.091	-96.877	-0.148	0.040
-669.076	-200.000	0.002	0.138
-668.062	-82.487	-0.195	0.064
-667.047	-48.701	-0.310	-0.152
-666.032	-74.912	0.140	-0.051
-665.018	259.251	-0.062	0.109
-664.003	-70.145	0.225	0.087
-662.989	-200.000	-0.053	-0.317
-661.974	583.855	-0.163	0.407
-660.959	-114.801	-0.196	-0.038
-659.945	-47.724	-0.332	0.164
-658.930	747.971	0.062	0.170
-657.916	149.030	0.216	-0.298
-656.901	-122.311	0.094	-0.016
-655.886	-200.000	-0.030	0.206
-654.872	8.485	-0.147	-0.113
-653.857	-136.345	0.155	-0.018
-652.843	-200.000	0.025	0.230
-651.828	-20.205	-0.054	0.034
-650.814	-200.000	-0.003	-0.160
-649.799	166.063	-0.162	-0.234
-648.784	800.000	0.045	-0.147
-647.770	-169.254	0.151	-0.006
-646.755	-115.482	-0.328	0.063
-645.741	134.167	0.207	-0.274
-644.726	-200.000	0.012	-0.235
-643.711	-200.000	-0.001	0.041
-642.697	800.000	-0.165	-0.469
-641.682	-170.904	-0.152	0.005
-640.668	241.990	0.086	-0.146
-639.653	85.387	-0.156	-0.175
-638.638	-192.580	0.086	-0.001
-637.624	-23.574	-0.249	0.152
-636.609	-143.948	-0.416	0.040
-635.595	130.796	0.089	-0.116
-634.580	-53.658	0.100	-0.047
-633.565	-28.122	0.404	0.238
-632.551	-200.000	0.024	0.219
-631.536	2.080	-0.102	0.075
-630.522	-78.943	-0.316	-0.109
-629.507	321.936	-0.087	-0.169
-628.492	-200.000	-0.007	-0.100
-627.478	241.265	0.092	-0.156
-626.463	-10.543	-0.322	-0.217
-625.449	210.675	0.134	0.214
-624.434	44.082	-0.275	0.257
-623.419	-200.000	0.002	-0.110
-622.405	412.033	-0.104	-0.225
-621.390	434.509	-0.107	0.237
-620.376	-137.436	-0.182	-0.021
-619.361	24.338	-0.352	0.296
-618.346	-19.484	0.137	-0.086
-617.332	-200.000	-0.000	-0.232
-616.317	36.530	0.108	-0.097
-615.303	116.161	-0.155	-0.193
-614.288	-200.000	-0.025	-0.124
-613.273	-23.106	0.101	-0.062
-612.259	431.357	0.119	0.263
-611.244	57.158	-0.154	0.153
-610.230	-200.000	-0.067	-0.391
-609.215	6.635	0.206	-0.155
-608.201	-200.000	-0.050	0.240
-607.186	562.601	-0.068	-0.167
-606.171	-178.753	0.271	-0.006
-605.157	595.263	0.062	-0.156
-604.142	316.133	-0.118	0.226
-603.128	-200.000	-0.034	0.402
-602.113	-46.360	-0.126	0.063
-601.098	-49.892	-0.342	-0.165
-600.084	-57.460	0.104	0.046
-599.069	-200.000	0.030	-0.190
-598.055	223.422	-0.190	0.311
-597.040	57.380	0.188	-0.186
-596.025	-200.000	-0.004	-0.129
-595.011	800.000	0.083	-0.263
-593.996	-200.000	-0.015	-0.115
-592.982	622.670	0.061	-0.155
-591.967	132.057	-0.217	-0.284
-590.952	-51.998	0.065	0.031
-589.938	-16.182	-0.081	-0.052
-588.923	-200.000	0.016	-0.090
-587.909	-68.151	-0.288	-0.114
-586.894	-200.000	0.059	-0.283
-585.879	-22.624	0.026	0.016
-584.865	418.985	0.049	-0.107
-583.850	800.000	-0.103	0.323
-582.836	-32.167	0.157	0.089
-581.821	-35.392	-0.185	0.102
-580.806	-128.846	-0.115	0.016
-579.792	-107.224	-0.286	0.064
-578.777	120.552	0.065	-0.082
-577.763	-109.026	-0.122	0.026
-576.748	7.611	-0.178	0.135
-575.733	-200.000	0.033	0.216
-574.719	-67.084	0.225	0.090
-573.704	-200.000	-0.008	0.145
-572.690	-14.251	-0.211	0.138
-571.675	22.709	-0.178	0.148
-570.661	800.000	-0.127	-0.358
-569.646	-200.000	-0.043	-0.313
-568.631	-200.000	0.072	0.528
-567.617	231.947	0.072	0.120
-566.602	-200.000	-0.095	-0.515
-565.588	800.000	-0.028	0.098
-564.573	205.448	0.155	-0.244
-563.558	-93.110	0.152	0.043
-562.544	800.000	-0.017	0.062
-561.529	483.647	-0.084	-0.193
-560.515	148.141	-0.064	0.088
-559.500	-200.000	0.042	-0.304
-558.485	-132.082	0.335	0.044
-557.471	179.814	-0.167	-0.249
-556.456	-200.000	-0.018	0.221
-555.442	210.015	-0.300	0.478
-554.427	34.912	-0.353	0.313
-553.412	-133.619	-0.096	-0.012
-552.398	-200.000	-0.002	0.193
-551.383	6.231	-0.223	0.168
-550.369	767.571	-0.093	0.256
-549.354	-34.922	-0.078	0.043
-548.339	-151.362	0.220	0.017
-547.325	-58.922	0.317	-0.139
-546.310	778.856	-0.062	0.172
-545.296	320.206	-0.059	0.113
-544.281	-62.446	0.053	0.023
-543.266	221.954	0.029	-0.048
-542.252	-117.214	-0.299	0.055
-541.237	-92.340	0.181	0.052
-540.223	69.019	-0.163	-0.170
-539.208	-94.230	0.270	-0.075
-538.193	330.120	-0.165	0.322
-537.179	141.395	-0.263	0.353
-536.164	349.258	-0.043	0.085
-535.150	477.795	0.168	-0.385
-534.135	-89.575	0.220	0.065
-533.121	-43.157	-0.093	-0.048
-532.106	62.304	-0.151	-0.152
-531.091	-16.238	0.079	-0.051
-530.077	-128.292	-0.344	-0.050
-529.062	800.000	0.041	0.151
-528.048	-61.540	0.376	-0.160
-527.033	-12.742	0.208	0.137
-526.018	-200.000	0.004	0.116
-525.004	-7.690	0.142	-0.097
-523.989	15.814	0.019	0.015
-522.975	218.671	0.259	0.420
-521.960	-107.362	-0.199	0.044
-520.945	130.492	-0.112	-0.145
-519.931	206.929	-0.092	-0.145
-518.916	-200.000	-0.045	-0.220
-517.902	800.000	-0.090	0.325
-516.887	800.000	-0.064	-0.198
-515.872	-131.049	0.132	-0.018
-514.858	412.755	0.100	-0.215
-513.843	2.885	-0.182	0.134
-512.829	-102.772	-0.169	-0.041
-511.814	-200.000	-0.033	0.252
-510.799	201.926	0.258	-0.403
-509.785	-98.493	-0.209	-0.054
-508.770	55.044	-0.209	0.205
-507.756	800.000	-0.096	0.304
-506.741	-106.805	-0.165	0.037
-505.726	216.412	-0.036	0.059
-504.712	-106.756	0.053	0.012
-503.697	226.937	0.107	0.177
-502.683	-93.423	-0.273	-0.077
-501.668	-200.000	0.037	0.192
-500.653	-200.000	0.011	0.392
-499.639	-93.826	-0.097	-0.027
-498.624	-61.814	0.135	0.057
-497.610	386.118	-0.070	0.147
-496.595	114.897	0.136	0.167
-495.581	-29.566	-0.160	0.093
-494.566	-138.603	0.163	0.018
-493.551	800.000	-0.067	-0.191
-492.537	-108.206	0.225	0.049
-491.522	-200.000	0.004	-0.060
-490.508	152.154	0.042	0.058
-489.493	149.619	0.111	0.152
-488.478	-36.520	0.154	-0.084
-487.464	-82.911	-0.337	0.110
-486.449	22.325	-0.244	0.202
-485.435	202.503	0.213	0.332
-484.420	160.783	-0.057	-0.081
-483.405	36.903	0.235	-0.210
-482.391	-136.463	0.214	-0.025
-481.376	207.923	0.159	0.251
-480.362	221.413	0.109	0.177
-479.347	494.835	-0.124	0.289
-478.332	68.719	-0.134	-0.139
-477.318	-6.051	0.059	0.041
-476.303	-141.536	-0.037	0.004
-475.289	-59.492	0.325	0.141
-474.274	-200.000	0.003	-0.075
-473.259	133.034	0.036	-0.047
-472.245	-58.080	0.072	0.032
-471.230	-98.889	-0.175	-0.045
-470.216	-114.955	-0.284	-0.055
-469.201	39.079	0.176	-0.159
-468.186	-52.926	0.149	-0.069
-467.172	800.000	-0.125	-0.504
-466.157	-103.406	-0.370	-0.088
-465.143	-60.772	0.205	-0.088
-464.128	-15.861	0.077	0.050
-463.113	-107.895	-0.211	-0.046
-462.099	-200.000	-0.021	-0.125
-461.084	-4.970	-0.138	-0.096
-460.070	35.435	0.140	0.124
-459.055	800.000	-0.146	-0.439
-458.040	-29.569	-0.128	0.074
-457.026	-99.877	0.154	0.039
-456.011	104.906	0.232	-0.277
-454.997	256.376	0.121	-0.210
-453.982	-200.000	0.076	-0.410
-452.968	-0.669	0.179	-0.128
-451.953	-49.845	-0.240	-0.115
-450.938	772.361	-0.044	-0.120
-449.924	60.479	-0.148	-0.148
-448.909	-159.486	0.312	-0.018
-447.895	-35.659	0.073	0.040
-446.880	-127.072	-0.109	-0.016
-445.865	-76.972	0.254	-0.090
-444.851	-200.000	-0.038	-0.364
-443.836	-200.000	0.019	0.274
-442.822	50.919	0.160	0.154
-441.807	-13.002	-0.204	0.134
-440.792	-69.379	-0.249	0.096
-439.778	24.483	0.062	-0.052
-438.763	-35.114	0.135	0.074
-437.749	-30.942	-0.139	-0.079
-436.734	78.967	-0.105	0.114
-435.719	-52.266	0.353	-0.165
-434.705	335.137	-0.095	0.187
-433.690	-91.355	0.452	-0.131
-432.676	20.016	-0.103	-0.084
-431.661	-122.169	0.250	0.041
-430.646	-172.471	0.182	-0.006
-429.632	-73.069	-0.209	-0.077
-428.617	31.830	-0.062	-0.054
-427.603	-200.000	-0.021	0.109
-426.588	-52.071	-0.094	0.044
-425.573	-128.029	0.122	-0.018
-424.559	-200.000	0.017	0.164
-423.544	-109.823	-0.285	0.060
-422.530	-45.875	0.192	0.096
-421.515	-72.607	0.201	-0.075
-420.500	-200.000	-0.003	-0.046
-419.486	666.246	0.117	-0.305
-418.471	-40.442	-0.157	-0.082
-417.457	-154.969	0.251	-0.017
-416.442	164.998	0.119	-0.169
-415.428	76.638	0.079	-0.085
-414.413	-149.493	0.194	-0.015
-413.398	41.324	-0.035	-0.032
-412.384	447.420	0.026	0.058
-411.369	-3.616	-0.155	0.109
-410.355	225.337	0.042	-0.068
-409.340	136.175	0.044	-0.057
-408.325	-63.461	-0.249	0.103
-407.311	-89.925	0.095	-0.028
-406.296	330.844	0.096	-0.187
-405.282	-57.003	0.151	0.067
-404.267	-200.000	-0.039	0.274
-403.252	-200.000	0.030	0.203
-402.238	800.000	-0.010	0.030
-401.223	94.669	0.141	-0.162
-400.209	-157.541	0.326	0.020
-399.194	-83.627	0.285	-0.092
-398.179	162.201	-0.152	0.214
-397.165	-77.058	-0.141	-0.049
-396.150	800.000	0.020	0.063
-395.136	800.000	0.059	-0.174
-394.121	5.903	-0.312	0.233
-393.106	460.005	0.044	0.100
-392.092	204.670	-0.070	0.109
-391.077	772.829	0.154	0.424
-390.063	800.000	0.156	0.504
-389.048	158.472	0.075	-0.105
-388.033	227.882	-0.036	-0.059
-387.019	485.109	0.148	0.340
-386.004	-15.702	-0.111	0.072
-384.990	148.973	0.178	-0.242
-383.975	173.363	0.109	-0.158
-382.960	-5.894	-0.151	-0.104
-381.946	800.000	0.044	-0.189
-380.931	-200.000	0.025	0.201
-379.917	-200.000	0.106	0.576
-378.902	-199.655	-0.073	0.000
-377.888	83.197	-0.387	-0.425
-376.873	-148.965	0.138	0.011
-375.858	-162.644	0.119	0.006
-374.844	0.045	-0.141	0.101
-373.829	10.476	-0.190	-0.146
-372.815	800.000	0.015	-0.046
-371.800	800.000	-0.043	-0.173
-370.785	-45.079	0.191	-0.096
-369.771	-97.768	0.220	0.057
-368.756	800.000	-0.082	-0.358
-367.742	24.891	-0.184	-0.154
-366.727	-21.050	-0.111	-0.068
-365.712	178.328	-0.075	-0.110
-364.698	86.245	0.246	0.273
-363.683	91.185	0.098	0.111
-362.669	162.513	0.039	-0.056
-361.654	11.307	0.089	0.069
-360.639	74.630	0.109	-0.115
-359.625	48.966	-0.354	0.335
-358.610	-117.439	0.216	0.039
-357.596	130.008	-0.120	-0.155
-356.581	301.465	-0.068	0.127
-355.566	-200.000	0.031	0.168
-354.552	90.241	0.068	0.076
-353.537	-87.933	0.175	-0.053
-352.523	-60.475	-0.092	-0.040
-351.508	-67.628	0.153	0.061
-350.493	262.337	-0.033	-0.058
-349.479	-171.413	-0.030	0.001
-348.464	-200.000	-0.017	-0.167
-347.450	-200.000	0.057	0.286
-346.435	-170.791	0.251	-0.009
-345.420	242.031	0.145	0.244
-344.406	491.049	0.070	0.160
-343.391	-80.590	-0.224	0.075
-342.377	81.143	-0.208	-0.226
-341.362	-182.161	0.026	-0.000
-340.348	59.601	-0.262	-0.260
-339.333	46.410	-0.086	-0.080
-338.318	800.000	-0.111	0.342
-337.304	-2.153	0.148	0.104
-336.289	-200.000	0.002	0.184
-335.275	583.088	-0.094	0.232
-334.260	-200.000	0.010	-0.185
-333.245	-33.701	0.488	-0.271
-332.231	249.513	0.210	-0.358
-331.216	-200.000	0.004	-0.031
-330.202	53.208	-0.168	-0.162
-329.187	-64.672	-0.256	-0.104
-328.172	-200.000	-0.040	0.202
-327.158	63.547	-0.089	0.090
-326.143	38.892	-0.150	-0.134
-325.129	63.482	-0.283	-0.285
-324.114	-22.566	0.012	0.008
-323.099	-93.242	0.132	0.037
-322.085	-200.000	-0.026	0.373
-321.070	-200.000	0.005	0.113
-320.056	-64.273	0.217	0.089
-319.041	-103.120	0.064	-0.015
-318.026	-200.000	-0.009	0.151
-317.012	-24.591	0.325	0.195
-315.997	-4.213	0.304	-0.212
-314.983	800.000	-0.057	-0.218
-313.968	-200.000	0.028	0.207
-312.953	-128.817	0.205	-0.029
-311.939	80.625	-0.076	-0.082
-310.924	-11.019	-0.314	-0.208
-309.910	-150.716	0.298	0.023
-308.895	-109.264	-0.107	0.023
-307.880	195.484	-0.129	0.197
-306.866	-70.151	-0.138	0.053
-305.851	78.792	-0.157	-0.169
-304.837	-200.000	0.016	0.070
-303.822	-200.000	0.022	0.099
-302.807	232.043	0.126	0.207
-301.793	8.823	-0.036	0.028
-300.778	118.450	-0.176	-0.218
-299.764	-50.763	0.155	-0.073
-298.749	-108.925	-0.248	0.053
-297.735	89.708	0.293	-0.329
-296.720	45.879	-0.055	0.051
-295.705	-55.617	-0.062	-0.028
-294.691	-125.319	0.403	-0.062
-293.676	-200.000	0.023	0.203
-292.662	-200.000	0.050	-0.324
-291.647	-84.022	0.369	0.118
-290.632	800.000	0.037	0.159
-289.618	-34.851	0.170	0.093
-288.603	8.279	-0.119	0.090
-287.589	-44.693	-0.120	0.060
-286.574	119.755	-0.082	-0.102
-285.559	504.187	0.076	0.176
-284.545	-132.542	0.217	-0.028
-283.530	228.859	0.120	0.197
-282.516	151.217	-0.052	-0.070
-281.501	-82.228	-0.262	-0.086
-280.486	283.735	-0.031	0.057
-279.472	162.761	-0.120	0.169
-278.457	248.783	-0.181	-0.308
-277.443	768.323	0.053	-0.144
-276.428	467.382	-0.154	-0.347
-275.413	-126.687	0.099	0.015
-274.399	44.735	-0.125	-0.116
-273.384	-26.597	0.506	-0.298
-272.370	-200.000	0.320	-0.001
-271.355	-5.993	-0.035	0.024
-270.340	3.908	-0.117	0.085
-269.326	800.000	-0.031	-0.093
-268.311	252.333	-0.026	0.044
-267.297	-136.039	0.211	-0.025
-266.282	80.425	0.133	0.144
-265.267	800.000	0.066	-0.286
-264.253	26.082	-0.133	-0.111
-263.238	-200.000	-0.038	-0.234
-262.224	51.306	-0.068	-0.065
-261.209	-200.000	0.060	0.269
-260.195	-37.147	-0.087	-0.047
-259.180	106.612	0.285	-0.339
-258.165	229.552	-0.167	-0.274
-257.151	800.000	-0.081	0.319
-256.136	-200.000	-0.022	-0.107
-255.122	14.453	-0.098	-0.077
-254.107	27.247	0.255	0.215
-253.092	18.824	-0.312	0.250
-252.078	137.593	0.040	-0.053
-251.063	800.000	0.064	-0.276
-250.049	-14.144	-0.045	0.029
-249.034	-16.046	-0.079	0.050
-248.019	800.000	0.027	-0.116
-247.005	-14.430	-0.195	0.126
-245.990	800.000	-0.058	0.170
-244.976	75.279	-0.248	-0.262
-243.961	-15.303	0.220	-0.141
-242.946	48.441	0.258	-0.242
-241.932	315.092	-0.174	-0.329
-240.917	436.041	0.049	0.106
-239.903	103.571	0.220	0.258
-238.888	559.924	-0.122	-0.295
-237.873	199.512	0.052	-0.080
-236.859	-200.000	0.021	0.649
-235.844	-134.041	0.126	-0.016
-234.830	-68.576	-0.212	0.082
-233.815	-71.287	0.154	0.058
-232.800	-8.084	0.053	-0.036
-231.786	800.000	-0.017	-0.050
-230.771	13.423	0.223	0.174
-229.757	-91.280	0.381	0.109
-228.742	127.159	-0.117	-0.148
-227.727	-92.307	-0.218	0.062
-226.713	-200.000	-0.006	0.316
-225.698	41.444	-0.056	0.051
-224.684	-200.000	0.071	0.364
-223.669	21.646	-0.102	0.083
-222.655	-119.457	-0.294	0.051
-221.640	-58.793	-0.106	-0.046
-220.625	-142.624	0.189	-0.018
-219.611	67.840	0.114	-0.117
-218.596	-51.044	-0.172	-0.081
-217.582	143.371	-0.041	0.055
-216.567	-10.944	-0.183	0.121
-215.552	48.977	0.320	0.301
-214.538	474.204	-0.095	0.215
-213.523	-105.454	-0.508	-0.116
-212.509	-66.908	0.375	-0.148
-211.494	248.392	0.170	0.288
-210.479	800.000	-0.032	-0.127
-209.465	741.607	-0.117	-0.314
-208.450	48.258	0.095	0.089
-207.436	800.000	0.058	0.184
-206.421	50.315	-0.078	0.074
-205.406	800.000	0.032	-0.130
-204.392	-94.177	0.317	-0.087
-203.377	-113.710	0.166	0.032
-202.363	800.000	-0.068	0.265
-201.348	-36.351	-0.257	-0.139
-200.333	-200.000	0.044	0.355
-199.319	-200.000	0.033	-0.199
-198.304	-197.500	-0.179	-0.001
-197.290	-110.865	-0.409	-0.084
-196.275	60.340	0.084	-0.083
-195.260	270.863	0.041	0.072
-194.246	-200.000	0.012	0.062
-193.231	-200.000	-0.011	-0.160
-192.217	-72.245	-0.242	-0.090
-191.202	-45.901	0.405	-0.200
-190.187	288.222	-0.218	0.394
-189.173	-122.625	-0.219	0.036
-188.158	91.683	0.031	0.035
-187.144	80.355	-0.050	0.053
-186.129	800.000	-0.029	0.093
-185.114	-100.396	-0.228	-0.057
-184.100	13.653	0.121	0.094
-183.085	-200.000	0.010	-0.065
-182.071	-200.000	-0.374	-0.001
-181.056	-157.346	0.362	-0.022
-180.042	-82.114	0.311	-0.101
-179.027	-121.372	0.150	0.025
-178.012	122.679	-0.154	0.193
-176.998	800.000	-0.032	-0.088
-175.983	-27.576	0.071	-0.041
-174.969	800.000	0.009	0.034
-173.954	-11.249	-0.112	0.074
-172.939	90.003	0.215	-0.240
-171.925	-123.342	0.229	0.037
-170.910	-93.314	0.214	-0.059
-169.896	-7.367	-0.458	0.310
-168.881	-105.278	-0.104	0.024
-167.866	-100.090	-0.242	0.060
-166.852	36.000	0.205	-0.181
-165.837	-200.000	-0.001	0.222
-164.823	278.530	0.170	0.303
-163.808	-111.014	0.288	-0.059
-162.793	663.556	-0.057	0.147
-161.779	607.295	-0.178	-0.444
-160.764	-62.577	0.281	0.116
-159.750	-16.386	-0.153	-0.097
-158.735	238.102	0.067	0.111
-157.720	156.749	-0.154	-0.213
-156.706	-40.836	0.090	-0.046
-155.691	-72.536	0.173	-0.064
-154.677	-67.961	0.080	-0.031
-153.662	-62.754	0.048	-0.020
-152.647	-154.905	0.092	0.006
-151.633	-85.675	0.012	0.004
-150.618	52.662	0.143	0.137
-149.604	606.199	0.149	0.371
-148.589	-44.305	-0.064	0.032
-147.574	-40.492	0.140	0.073
-146.560	88.027	0.229	0.254
-145.545	-200.000	0.038	-0.240
-144.531	-18.377	-0.402	-0.251
-143.516	-200.000	-0.005	-0.095
-142.502	14.174	0.111	0.086
-141.487	-145.765	-0.268	-0.024
-140.472	-200.000	0.027	0.278
-139.458	800.000	0.018	0.067
-138.443	-200.000	-0.015	0.224
-137.429	26.268	-0.136	-0.114
-136.414	48.660	-0.159	-0.149
-135.399	-68.416	0.248	-0.096
-134.385	33.629	-0.091	-0.079
-133.370	788.418	0.045	0.123
-132.356	-54.093	0.157	0.071
-131.341	800.000	-0.051	0.159
-130.326	-140.874	-0.029	-0.003
-129.312	-11.284	0.336	0.221
-128.297	59.757	0.138	0.136
-127.283	226.896	0.171	0.278
-126.268	-89.038	-0.221	0.065
-125.253	-200.000	-0.006	0.219
-124.239	-25.684	-0.534	0.314
-123.224	120.256	-0.037	0.045
-122.210	-200.000	-0.091	-0.406
-121.195	228.610	0.117	-0.189
-120.180	59.658	-0.074	-0.072
