DTS Sentinel unit serial number:	SN413079Multiplexer serial number:	ORYXHardware model number:	OX4-SRSoftware version number:	ORYX F/W v4.00 Oryx Data Collector v3.7.2.0data status	okinstallation	princeton_trtdifferential loss correction	single-endedforward channel	channel 3reverse channel	N/Adate	2019/09/19time	12:56:35forward acquisition time	60.00reverse acquisition time	0.00gamma	496.2192k internal	0.2330k external	0.2330temperature offset calibration	0.9988default loss term (dB/km)	0.3790temperature slope calibration	1.0000multiplexer offset coefficient	1.0000multiplexer slope coefficient	1.0000fibre end	0.00T internal ref (°C)	28.42T ext. ref 1 (°C)	0.91T ext. ref 2 (°C)	26.72length (m)	temperature (°C)	Stokes	anti-Stokes-747.200	-200.000	-0.006	0.152
-746.185	234.455	0.092	0.152
-745.171	42.389	0.123	-0.112
-744.156	695.669	-0.139	0.366
-743.142	22.278	-0.123	0.101
-742.127	800.000	0.067	0.260
-741.112	90.801	-0.040	0.046
-740.098	800.000	0.038	-0.114
-739.083	-55.799	-0.033	0.015
-738.069	-200.000	0.052	-0.312
-737.054	-200.000	-0.004	-0.064
-736.039	800.000	-0.112	-0.399
-735.025	-13.213	0.154	0.101
-734.010	-23.000	-0.164	-0.100
-732.996	-136.006	-0.271	0.032
-731.981	-200.000	-0.006	-0.052
-730.966	-18.295	-0.119	0.075
-729.952	-3.058	0.263	-0.185
-728.937	-133.900	-0.228	0.028
-727.923	-143.106	-0.369	0.036
-726.908	-200.000	0.056	-0.533
-725.894	-81.789	0.130	0.043
-724.879	-200.000	0.035	0.178
-723.864	-200.000	-0.042	-0.251
-722.850	-200.000	0.002	-0.063
-721.835	-76.311	-0.221	-0.078
-720.821	-200.000	-0.005	-0.333
-719.806	-150.369	0.169	0.013
-718.791	34.024	-0.260	-0.228
-717.777	-200.000	-0.014	0.208
-716.762	-200.000	0.032	-0.176
-715.748	234.669	-0.119	-0.197
-714.733	-52.113	-0.167	-0.078
-713.718	-164.714	0.163	-0.007
-712.704	623.058	0.045	-0.113
-711.689	-137.805	0.528	-0.059
-710.675	110.016	-0.187	-0.225
-709.660	-171.205	0.266	-0.009
-708.645	-200.000	0.039	0.190
-707.631	28.532	0.094	0.080
-706.616	800.000	-0.046	0.139
-705.602	-200.000	-0.037	-0.207
-704.587	-144.885	-0.150	0.014
-703.572	194.970	-0.052	0.079
-702.558	186.570	0.113	-0.169
-701.543	800.000	0.067	-0.209
-700.529	112.958	-0.072	0.088
-699.514	800.000	-0.045	0.145
-698.499	-43.881	0.264	-0.133
-697.485	-200.000	0.004	-0.165
-696.470	-17.363	0.166	0.105
-695.456	148.022	0.042	0.057
-694.441	-89.249	0.130	-0.038
-693.426	7.226	0.077	0.057
-692.412	800.000	0.078	0.289
-691.397	234.953	-0.091	0.150
-690.383	301.110	-0.038	0.070
-689.368	7.250	0.179	-0.134
-688.354	122.921	-0.152	0.191
-687.339	-3.136	0.216	0.151
-686.324	-200.000	0.019	0.231
-685.310	-84.060	-0.306	0.098
-684.295	800.000	-0.066	-0.280
-683.281	-93.669	-0.333	-0.092
-682.266	-177.613	0.115	0.003
-681.251	-25.452	0.425	0.252
-680.237	-23.000	0.056	-0.034
-679.222	-109.997	-0.155	0.033
-678.208	-96.558	-0.216	0.057
-677.193	480.023	-0.108	0.246
-676.178	261.683	0.096	-0.167
-675.164	-50.056	-0.013	0.006
-674.149	-97.536	0.156	-0.041
-673.135	-111.226	0.138	0.028
-672.120	127.801	-0.281	-0.359
-671.105	-166.112	-0.204	-0.009
-670.091	275.036	0.174	0.310
-669.076	-152.779	-0.256	0.018
-668.062	66.299	-0.257	0.262
-667.047	800.000	0.106	0.379
-666.032	-60.828	0.067	-0.029
-665.018	-98.926	-0.102	-0.026
-664.003	800.000	-0.054	-0.209
-662.989	800.000	-0.051	-0.211
-661.974	-200.000	0.007	-0.151
-660.959	316.632	-0.135	-0.256
-659.945	800.000	0.081	0.285
-658.930	-40.401	0.205	-0.107
-657.916	800.000	0.092	-0.351
-656.901	-144.906	0.208	-0.019
-655.886	108.419	-0.073	-0.087
-654.872	9.789	-0.097	-0.074
-653.857	-64.862	-0.270	-0.110
-652.843	800.000	-0.102	0.329
-651.828	-200.000	-0.028	-0.298
-650.814	-87.033	0.135	0.041
-649.799	44.672	-0.273	0.252
-648.784	800.000	-0.098	0.361
-647.770	-56.588	-0.180	-0.080
-646.755	-12.717	0.065	0.042
-645.741	-3.520	0.268	-0.187
-644.726	1.157	0.107	0.077
-643.711	-131.950	0.066	-0.009
-642.697	434.180	-0.071	0.155
-641.682	-78.645	-0.177	-0.061
-640.668	800.000	-0.065	0.210
-639.653	93.168	-0.097	-0.110
-638.638	-200.000	-0.008	0.135
-637.624	17.939	-0.403	-0.322
-636.609	457.956	0.124	-0.277
-635.595	66.422	0.157	-0.160
-634.580	-66.544	0.638	0.254
-633.565	-75.690	-0.181	-0.064
-632.551	-61.549	0.341	0.143
-631.536	-200.000	-0.003	0.111
-630.522	106.825	-0.157	0.186
-629.507	44.302	0.089	-0.082
-628.492	-123.753	-0.123	0.019
-627.478	-131.897	0.214	0.028
-626.463	433.184	-0.064	-0.139
-625.449	-200.000	-0.016	-0.223
-624.434	800.000	-0.009	0.030
-623.419	-57.582	-0.100	-0.044
-622.405	392.891	0.074	-0.155
-621.390	-200.000	0.027	-0.249
-620.376	-200.000	0.003	0.321
-619.361	33.690	0.130	0.114
-618.346	-200.000	0.045	-0.329
-617.332	65.148	-0.118	0.120
-616.317	-61.289	0.370	-0.156
-615.303	-200.000	-0.016	-0.115
-614.288	-18.463	0.180	-0.113
-613.273	-52.918	-0.277	0.128
-612.259	379.897	0.107	-0.221
-611.244	-162.538	-0.105	-0.005
-610.230	-200.000	0.016	0.233
-609.215	-200.000	-0.020	0.101
-608.201	12.404	-0.199	-0.154
-607.186	170.653	0.226	-0.325
-606.171	748.427	-0.017	-0.046
-605.157	-34.369	-0.205	0.113
-604.142	-15.393	-0.118	0.076
-603.128	-200.000	-0.042	0.218
-602.113	-114.385	-0.051	0.010
-601.098	-200.000	-0.031	0.270
-600.084	157.331	-0.238	-0.330
-599.069	800.000	0.055	0.229
-598.055	-136.049	0.061	0.007
-597.040	-166.366	0.271	0.011
-596.025	-14.590	-0.126	0.081
-595.011	-86.308	-0.109	-0.034
-593.996	-98.083	0.241	-0.062
-592.982	-29.927	-0.247	-0.141
-591.967	-65.728	0.538	-0.216
-590.952	383.696	0.273	0.562
-589.938	-90.323	-0.311	0.090
-588.923	800.000	0.120	0.381
-587.909	7.100	-0.115	-0.086
-586.894	168.984	-0.140	0.199
-585.879	-0.286	0.115	0.082
-584.865	-200.000	-0.034	-0.192
-583.850	-86.276	0.209	-0.065
-582.836	-122.842	-0.249	-0.040
-581.821	34.076	0.096	0.084
-580.806	147.153	0.141	0.189
-579.792	-140.575	0.258	-0.027
-578.777	-98.299	0.237	-0.061
-577.763	-181.090	0.214	-0.004
-576.748	800.000	0.095	0.321
-575.733	88.153	0.138	0.153
-574.719	-200.000	-0.039	0.192
-573.704	-33.821	-0.095	0.053
-572.690	-102.825	0.100	-0.024
-571.675	32.724	-0.282	-0.244
-570.661	-200.000	-0.008	0.358
-569.646	182.779	-0.045	-0.066
-568.631	780.767	0.090	-0.246
-567.617	-200.000	0.003	-0.170
-566.602	-154.528	-0.117	0.008
-565.588	99.324	0.052	0.060
-564.573	-200.000	0.010	-0.066
-563.558	800.000	-0.053	0.183
-562.544	152.641	-0.054	0.073
-561.529	629.002	-0.030	-0.075
-560.515	-56.442	-0.158	-0.070
-559.500	-200.000	-0.019	0.297
-558.485	-130.689	0.207	0.028
-557.471	800.000	-0.030	0.127
-556.456	10.490	0.241	-0.183
-555.442	-200.000	-0.080	-0.401
-554.427	-37.875	-0.398	-0.211
-553.412	-200.000	0.006	0.211
-552.398	-112.929	-0.143	-0.028
-551.383	-200.000	-0.020	0.347
-550.369	800.000	0.058	-0.239
-549.354	108.808	0.146	-0.175
-548.339	148.796	0.141	0.191
-547.325	244.209	-0.124	-0.208
-546.310	-70.133	0.174	-0.066
-545.296	800.000	0.043	-0.154
-544.281	-97.483	-0.083	0.022
-543.266	-6.884	0.027	-0.019
-542.252	420.951	0.040	-0.085
-541.237	-144.165	0.261	0.024
-540.223	800.000	-0.023	0.075
-539.208	-54.519	0.368	0.167
-538.193	-65.065	0.107	-0.043
-537.179	-74.869	-0.142	-0.051
-536.164	800.000	0.077	0.265
-535.150	-53.483	0.395	0.181
-534.135	-8.067	-0.244	-0.164
-533.121	0.465	-0.195	-0.139
-532.106	-200.000	0.008	-0.265
-531.091	72.777	-0.133	-0.139
-530.077	-70.653	-0.096	-0.036
-529.062	-18.901	0.230	0.143
-528.048	-200.000	-0.041	-0.260
-527.033	-72.759	-0.235	0.086
-526.018	305.534	0.105	-0.195
-525.004	-200.000	0.052	0.233
-523.989	7.389	0.168	0.126
-522.975	287.954	0.094	-0.170
-521.960	676.179	0.076	-0.198
-520.945	29.787	-0.157	0.133
-519.931	-200.000	0.030	-0.182
-518.916	243.109	0.200	-0.335
-517.902	12.673	-0.270	0.208
-516.887	-54.812	0.133	-0.060
-515.872	-11.838	0.061	-0.040
-514.858	-188.244	0.284	0.004
-513.843	-37.855	-0.054	-0.029
-512.829	-122.924	0.246	0.039
-511.814	269.648	0.168	-0.295
-510.799	-148.462	-0.282	0.023
-509.785	36.822	0.142	-0.125
-508.770	-173.211	0.240	0.007
-507.756	-8.574	0.182	-0.122
-506.741	210.213	0.009	-0.014
-505.726	-40.193	0.027	-0.014
-504.712	-200.000	-0.043	-0.233
-503.697	-200.000	0.026	-0.213
-502.683	79.043	0.195	-0.208
-501.668	13.061	0.065	0.050
-500.653	-118.440	-0.180	-0.032
-499.639	-146.413	0.206	0.018
-498.624	-115.436	-0.139	0.026
-497.610	-83.099	-0.325	0.104
-496.595	95.668	0.179	0.203
-495.581	14.746	0.147	0.115
-494.566	-171.090	-0.210	-0.007
-493.551	-135.028	-0.166	0.020
-492.537	83.695	-0.110	-0.120
-491.522	800.000	0.189	0.538
-490.508	68.048	-0.092	0.094
-489.493	800.000	0.146	0.461
-488.478	-167.234	-0.365	0.015
-487.464	-77.955	0.106	-0.036
-486.449	-44.872	-0.120	-0.060
-485.435	-123.728	0.257	0.040
-484.420	-200.000	0.060	-0.368
-483.405	-200.000	0.020	-0.215
-482.391	25.293	0.303	0.251
-481.376	800.000	0.026	0.107
-480.362	116.480	0.117	-0.143
-479.347	242.647	0.111	-0.186
-478.332	-105.103	-0.095	-0.022
-477.318	64.361	-0.125	0.126
-476.303	-200.000	-0.080	0.526
-475.289	539.889	0.054	-0.129
-474.274	452.530	0.105	-0.232
-473.259	5.125	0.256	-0.188
-472.245	154.719	-0.233	0.319
-471.230	-2.813	-0.396	0.276
-470.216	-53.181	0.180	-0.082
-469.201	360.726	-0.115	0.230
-468.186	77.326	-0.315	-0.334
-467.172	-84.854	-0.217	-0.068
-466.157	-19.946	0.124	-0.076
-465.143	295.393	0.107	-0.196
-464.128	39.334	-0.187	0.167
-463.113	119.002	-0.058	0.072
-462.099	42.137	-0.081	-0.073
-461.084	-36.556	0.299	-0.160
-460.070	392.315	0.139	-0.287
-459.055	91.762	-0.160	0.179
-458.040	-4.707	-0.288	0.198
-457.026	-109.002	-0.345	-0.073
-456.011	-200.000	0.001	-0.235
-454.997	390.524	-0.112	-0.232
-453.982	119.398	0.154	-0.190
-452.968	166.043	-0.286	0.403
-451.953	314.690	0.194	0.364
-450.938	-54.632	0.085	0.038
-449.924	-68.160	0.144	-0.056
-448.909	-54.998	0.072	-0.032
-447.895	-0.482	-0.170	0.120
-446.880	-72.462	0.357	0.131
-445.865	-13.727	0.223	0.144
-444.851	-93.214	-0.414	-0.114
-443.836	47.037	-0.135	0.125
-442.822	-73.762	0.154	-0.056
-441.807	-200.000	-0.002	0.140
-440.792	-51.447	-0.406	-0.189
-439.778	51.995	0.106	-0.101
-438.763	-27.553	-0.158	-0.091
-437.749	246.671	0.123	0.207
-436.734	6.831	-0.429	-0.318
-435.719	278.242	-0.041	0.073
-434.705	-88.795	0.091	-0.027
-433.690	308.149	-0.157	0.291
-432.676	335.228	0.118	0.227
-431.661	185.627	0.123	0.182
-430.646	-158.073	0.101	0.006
-429.632	-78.257	0.219	0.075
-428.617	116.528	0.117	0.142
-427.603	145.846	-0.082	0.110
-426.588	-65.228	0.208	0.084
-425.573	636.313	-0.170	0.429
-424.559	-200.000	0.050	-0.350
-423.544	-138.083	0.400	-0.044
-422.530	-200.000	-0.004	-0.156
-421.515	673.468	-0.079	0.203
-420.500	-123.386	0.169	0.027
-419.486	116.902	0.089	0.108
-418.471	-11.282	0.131	0.086
-417.457	800.000	0.111	0.388
-416.442	-200.000	0.081	0.393
-415.428	-112.330	-0.247	-0.049
-414.413	75.614	0.223	0.234
-413.398	115.012	-0.025	0.030
-412.384	800.000	-0.065	-0.219
-411.369	449.966	0.041	0.091
-410.355	127.231	-0.143	-0.180
-409.340	-200.000	-0.027	-0.178
-408.325	209.977	-0.316	0.493
-407.311	-149.913	0.137	-0.011
-406.296	-168.485	0.195	0.007
-405.282	800.000	-0.033	0.110
-404.267	-29.526	-0.120	0.068
-403.252	34.565	-0.152	0.132
-402.238	-168.624	-0.126	-0.005
-401.223	-200.000	0.003	-0.180
-400.209	2.775	0.291	-0.209
-399.194	10.102	-0.262	-0.198
-398.179	254.783	0.146	0.249
-397.165	24.735	0.185	-0.152
-396.150	-200.000	-0.035	0.276
-395.136	-19.522	0.231	-0.142
-394.121	-200.000	-0.017	0.103
-393.106	117.300	0.213	-0.260
-392.092	-159.539	-0.099	0.005
-391.077	-200.000	0.003	0.133
-390.063	-0.368	0.078	-0.055
-389.048	37.930	0.066	-0.059
-388.033	-20.658	-0.114	-0.069
-387.019	16.795	-0.083	0.065
-386.004	517.274	-0.140	-0.324
-384.990	11.805	-0.166	0.126
-383.975	-200.000	0.041	0.360
-382.960	4.802	-0.048	0.035
-381.946	-143.265	-0.162	-0.015
-380.931	114.417	0.202	-0.244
-379.917	-143.050	-0.135	-0.013
-378.902	-42.343	0.071	-0.036
-377.888	-200.000	0.064	0.313
-376.873	-7.398	-0.221	0.148
-375.858	475.494	-0.066	-0.148
-374.844	177.650	0.155	0.225
-373.829	471.105	0.076	0.169
-372.815	800.000	-0.077	0.243
-371.800	374.544	-0.100	0.203
-370.785	56.265	-0.204	0.196
-369.771	-132.631	-0.398	-0.051
-368.756	-133.623	-0.238	0.030
-367.742	132.998	-0.211	0.270
-366.727	800.000	-0.036	0.144
-365.712	-105.755	0.167	-0.037
-364.698	-200.000	-0.074	-0.336
-363.683	-22.874	-0.240	-0.144
-362.669	-200.000	0.032	-0.399
-361.654	111.606	0.082	-0.098
-360.639	-188.737	0.393	0.005
-359.625	455.689	0.203	0.447
-358.610	-66.115	-0.278	0.110
-357.596	800.000	-0.025	0.099
-356.581	665.038	-0.054	-0.138
-355.566	219.269	0.127	0.201
-354.552	-70.686	0.118	-0.044
-353.537	-200.000	-0.064	0.361
-352.523	-141.195	0.175	0.018
-351.508	56.212	-0.224	-0.215
-350.493	73.742	0.101	-0.105
-349.479	-42.197	0.420	-0.213
-348.464	800.000	-0.089	-0.302
-347.450	800.000	-0.024	-0.076
-346.435	115.979	-0.070	0.085
-345.420	-108.181	0.264	-0.057
-344.406	-4.984	-0.049	-0.033
-343.391	228.350	-0.153	-0.247
-342.377	800.000	-0.062	0.231
-341.362	8.584	-0.340	-0.254
-340.348	-120.183	-0.287	0.049
-339.333	97.215	0.272	0.310
-338.318	-35.506	0.242	0.130
-337.304	102.490	0.137	-0.159
-336.289	529.630	0.044	0.103
-335.275	800.000	-0.066	0.205
-334.260	-200.000	0.035	-0.355
-333.245	-200.000	0.009	0.173
-332.231	122.966	-0.238	0.295
-331.216	175.224	0.176	-0.252
-330.202	28.750	-0.220	-0.185
-329.187	800.000	-0.105	-0.395
-328.172	-110.252	0.182	0.038
-327.158	-148.508	0.145	0.012
-326.143	-135.827	0.125	-0.015
-325.129	-200.000	-0.011	-0.122
-324.114	-85.706	0.305	-0.094
-323.099	-39.230	0.342	-0.178
-322.085	165.813	0.185	-0.260
-321.070	-79.721	0.193	-0.064
-320.056	107.081	0.084	0.099
-319.041	-200.000	0.059	0.257
-318.026	178.501	0.086	-0.124
-317.012	-102.202	0.117	-0.028
-315.997	-142.457	-0.048	0.005
-314.983	152.634	0.119	0.161
-313.968	25.229	0.102	-0.084
-312.953	-121.498	-0.165	-0.027
-311.939	-134.477	-0.253	0.031
-310.924	49.945	-0.188	-0.175
-309.910	-52.529	-0.081	0.037
-308.895	800.000	0.037	0.103
-307.880	193.965	-0.057	-0.085
-306.866	-31.604	0.175	-0.097
-305.851	-138.506	0.108	0.012
-304.837	223.942	0.127	0.204
-303.822	-200.000	-0.009	0.291
-302.807	-200.000	0.028	0.228
-301.793	-67.960	-0.154	-0.059
-300.778	16.061	-0.048	-0.038
-299.764	-200.000	0.048	-0.272
-298.749	800.000	-0.073	-0.250
-297.735	31.959	0.096	-0.082
-296.720	-131.412	0.122	0.016
-295.705	75.411	-0.089	0.093
-294.691	300.116	-0.136	-0.249
-293.676	-76.431	-0.284	-0.099
-292.662	59.785	-0.101	0.098
-291.647	-99.838	-0.041	0.010
-290.632	-121.910	0.228	-0.037
-289.618	141.483	-0.205	-0.269
-288.603	-49.117	0.284	0.135
-287.589	504.010	0.144	-0.329
-286.574	-31.794	0.075	-0.042
-285.559	-118.707	0.361	-0.063
-284.545	-187.665	-0.249	0.003
-283.530	55.424	0.157	-0.150
-282.516	191.014	-0.160	0.238
-281.501	-200.000	-0.054	-0.252
-280.486	53.474	0.161	-0.152
-279.472	-30.990	0.175	0.098
-278.457	-200.000	-0.069	0.467
-277.443	-200.000	-0.023	-0.125
-276.428	114.052	-0.217	-0.261
-275.413	421.480	-0.027	0.057
-274.399	710.733	0.016	0.041
-273.384	17.256	-0.055	0.043
-272.370	89.587	-0.071	-0.078
-271.355	800.000	-0.038	-0.110
-270.340	-137.233	0.344	0.039
-269.326	123.914	-0.259	0.322
-268.311	72.596	0.053	-0.054
-267.297	97.239	-0.011	-0.013
-266.282	735.614	0.091	0.240
-265.267	111.269	-0.192	0.229
-264.253	92.139	-0.275	-0.306
-263.238	-23.903	0.194	-0.115
-262.224	-63.981	-0.140	0.057
-261.209	-24.333	0.120	0.071
-260.195	771.925	-0.018	0.049
-259.180	-200.000	0.030	0.150
-258.165	242.885	-0.026	-0.042
-257.151	-170.450	-0.128	-0.004
-256.136	629.035	0.135	-0.336
-255.122	-150.350	-0.202	-0.015
-254.107	-137.562	0.121	0.013
-253.092	-78.336	-0.148	-0.050
-252.078	-6.507	0.168	0.113
-251.063	142.317	-0.141	0.184
-250.049	427.057	0.053	-0.114
-249.034	-200.000	-0.019	-0.235
-248.019	36.462	0.112	-0.097
-247.005	-48.823	-0.170	0.080
-245.990	54.061	-0.309	0.293
-244.976	-101.291	0.201	0.048
-243.961	-31.607	0.190	0.105
-242.946	91.491	0.136	0.150
-241.932	193.783	0.130	0.195
-240.917	66.087	0.081	0.081
-239.903	-200.000	0.061	0.394
-238.888	-147.579	-0.256	0.021
-237.873	-36.258	0.270	-0.144
-236.859	-37.342	0.193	0.102
-235.844	15.481	-0.283	-0.219
-234.830	42.175	-0.158	0.142
-233.815	800.000	-0.011	-0.045
-232.800	-49.247	-0.221	-0.104
-231.786	-172.810	-0.163	0.005
-230.771	-106.862	-0.083	-0.018
-229.757	290.538	-0.056	-0.101
-228.742	656.427	-0.082	0.207
-227.727	794.876	-0.032	-0.086
-226.713	-67.875	0.229	0.088
-225.698	-11.574	-0.300	0.194
-224.684	-63.622	0.114	-0.046
-223.669	386.832	-0.130	-0.265
-222.655	330.842	-0.078	0.149
-221.640	2.507	-0.038	-0.027
-220.625	-129.686	-0.245	-0.033
-219.611	-200.000	-0.006	-0.102
-218.596	-13.308	0.155	-0.099
-217.582	508.435	-0.096	-0.219
-216.567	-137.383	-0.259	0.029
-215.552	-200.000	0.008	-0.162
-214.538	-130.373	0.125	0.017
-213.523	-200.000	0.008	0.096
-212.509	-110.139	0.455	-0.094
-211.494	-116.213	0.473	-0.087
-210.479	-98.797	0.200	-0.050
-209.465	-72.956	0.151	0.055
-208.450	62.134	-0.197	-0.193
-207.436	225.303	-0.103	0.164
-206.421	-51.241	-0.148	0.068
-205.406	-200.000	0.004	0.095
-204.392	416.108	-0.159	-0.335
-203.377	68.538	-0.126	-0.127
-202.363	-34.462	0.117	-0.063
-201.348	-168.852	0.180	0.007
-200.333	-48.942	0.163	0.077
-199.319	800.000	-0.069	0.224
-198.304	-71.623	0.168	-0.062
-197.290	-172.220	-0.136	0.004
-196.275	-200.000	0.001	-0.006
-195.260	297.213	-0.101	-0.182
-194.246	-173.721	-0.322	-0.009
-193.231	-200.000	-0.007	-0.305
-192.217	-200.000	-0.009	-0.245
-191.202	-48.751	-0.412	0.195
-190.187	316.342	0.079	-0.148
-189.173	-111.098	0.305	-0.062
-188.158	-159.627	-0.112	0.006
-187.144	-165.263	0.225	0.010
-186.129	-137.587	-0.126	0.014
-185.114	-27.011	0.275	-0.158
-184.100	800.000	0.058	0.214
-183.085	5.871	0.171	-0.124
-182.071	-66.304	-0.076	-0.030
-181.056	-200.000	0.002	-0.175
-180.042	575.733	0.155	-0.374
-179.027	-200.000	0.010	-0.139
-178.012	-48.940	0.091	-0.043
-176.998	-97.517	-0.092	-0.024
-175.983	1.394	-0.151	-0.107
-174.969	-200.000	0.009	-0.058
-173.954	-44.464	-0.265	0.131
-172.939	-96.087	0.176	0.046
-171.925	-110.538	-0.299	-0.061
-170.910	-49.790	-0.212	0.099
-169.896	14.810	0.073	0.056
-168.881	15.737	-0.276	-0.214
-167.866	173.860	0.070	0.100
-166.852	-141.746	-0.221	0.022
-165.837	404.777	-0.115	0.239
-164.823	-200.000	0.058	0.437
-163.808	-96.480	-0.116	0.030
-162.793	-200.000	-0.036	-0.178
-161.779	65.685	-0.340	-0.339
-160.764	162.214	-0.165	-0.228
-159.750	-112.763	-0.329	0.064
-158.735	-142.542	0.175	0.017
-157.720	119.941	-0.141	0.172
-156.706	252.848	-0.171	-0.288
-155.691	-34.732	-0.428	0.230
-154.677	800.000	0.051	0.202
-153.662	800.000	-0.118	-0.344
-152.647	-96.648	-0.095	-0.025
-151.633	502.008	-0.014	-0.031
-150.618	89.401	0.109	0.119
-149.604	192.972	-0.086	-0.128
-148.589	59.799	0.206	0.200
-147.574	-150.963	0.163	-0.012
-146.560	-200.000	-0.034	0.236
-145.545	-108.395	0.342	-0.073
-144.531	-58.798	0.057	0.024
-143.516	544.187	-0.054	-0.126
-142.502	662.935	-0.090	-0.228
-141.487	-27.437	0.117	-0.067
-140.472	-81.132	-0.154	-0.050
-139.458	169.360	0.117	-0.165
-138.443	357.443	-0.145	-0.284
-137.429	-81.980	-0.174	0.056
-136.414	14.594	0.098	0.075
-135.399	800.000	0.127	0.366
-134.385	194.892	0.098	0.147
-133.370	525.471	0.118	0.273
-132.356	-62.333	0.316	-0.129
-131.341	260.341	0.095	-0.161
-130.326	-200.000	0.009	0.402
-129.312	119.884	0.213	0.259
-128.297	-80.983	0.149	0.049
-127.283	-109.624	-0.367	-0.076
-126.268	5.184	0.167	0.121
-125.253	241.981	-0.014	-0.022
-124.239	-23.823	0.105	-0.062
-123.224	-130.693	-0.220	-0.029
-122.210	145.384	-0.215	-0.283
-121.195	-54.735	0.098	0.043
