DTS Sentinel unit serial number:	SN413079Multiplexer serial number:	ORYXHardware model number:	OX4-SRSoftware version number:	ORYX F/W v4.00 Oryx Data Collector v3.7.2.0data status	okinstallation	princeton_trtdifferential loss correction	single-endedforward channel	channel 3reverse channel	N/Adate	2019/09/18time	23:32:35forward acquisition time	60.00reverse acquisition time	0.00gamma	496.2192k internal	0.2345k external	0.2345temperature offset calibration	0.9986default loss term (dB/km)	0.3790temperature slope calibration	1.0000multiplexer offset coefficient	1.0000multiplexer slope coefficient	1.0000fibre end	0.00T internal ref (°C)	23.64T ext. ref 1 (°C)	0.76T ext. ref 2 (°C)	16.59length (m)	temperature (°C)	Stokes	anti-Stokes-747.200	146.288	0.085	0.114
-746.185	2.176	0.357	0.258
-745.171	-200.000	0.078	0.399
-744.156	-86.662	-0.316	-0.097
-743.142	-88.667	0.138	0.041
-742.127	800.000	-0.104	0.339
-741.112	357.545	-0.017	0.034
-740.098	-200.000	-0.100	0.458
-739.083	751.485	0.046	-0.125
-738.069	-62.319	-0.497	0.207
-737.054	23.993	0.167	-0.138
-736.039	-49.568	-0.168	0.080
-735.025	160.058	0.051	0.071
-734.010	-200.000	0.018	-0.272
-732.996	232.602	-0.176	-0.289
-731.981	113.887	-0.172	-0.208
-730.966	-149.277	-0.467	0.037
-729.952	-200.000	0.040	-0.213
-728.937	222.144	0.084	0.135
-727.923	86.577	-0.188	-0.207
-726.908	-93.294	0.284	-0.079
-725.894	36.823	-0.373	-0.330
-724.879	757.956	-0.083	-0.226
-723.864	37.249	-0.027	-0.024
-722.850	-200.000	0.022	-0.121
-721.835	800.000	0.175	-0.486
-720.821	-98.012	-0.108	-0.028
-719.806	-85.945	-0.122	0.038
-718.791	443.065	-0.116	-0.253
-717.777	38.456	-0.097	0.086
-716.762	-168.856	-0.297	-0.011
-715.748	-122.317	-0.167	-0.027
-714.733	-200.000	-0.003	-0.065
-713.718	156.145	0.029	0.040
-712.704	554.992	0.037	0.089
-711.689	-7.379	-0.137	-0.093
-710.675	54.249	0.089	-0.086
-709.660	-142.218	0.261	-0.026
-708.645	800.000	0.055	-0.189
-707.631	117.186	-0.277	-0.340
-706.616	-172.652	0.236	0.007
-705.602	-118.231	0.182	-0.032
-704.587	-8.248	-0.426	0.286
-703.572	-88.292	-0.450	-0.134
-702.558	-200.000	-0.008	-0.609
-701.543	156.491	0.096	-0.132
-700.529	165.474	-0.189	-0.267
-699.514	-60.039	-0.059	0.025
-698.499	-81.984	-0.114	-0.037
-697.485	800.000	-0.080	-0.305
-696.470	-8.672	-0.356	-0.239
-695.456	428.891	0.019	0.040
-694.441	69.394	0.154	0.158
-693.426	-98.938	0.241	0.061
-692.412	-200.000	0.036	-0.392
-691.397	484.645	0.042	-0.097
-690.383	2.956	-0.078	0.057
-689.368	800.000	-0.130	-0.453
-688.354	-50.763	0.066	-0.031
-687.339	287.946	0.081	-0.146
-686.324	-101.159	0.340	0.083
-685.310	609.369	-0.190	0.474
-684.295	247.511	-0.052	0.087
-683.281	250.476	-0.068	0.115
-682.266	-97.834	0.206	0.053
-681.251	-66.694	-0.356	0.141
-680.237	800.000	0.100	-0.410
-679.222	120.905	-0.195	0.242
-678.208	27.874	-0.137	0.115
-677.193	-159.005	0.119	0.007
-676.178	145.406	-0.142	0.189
-675.164	-200.000	0.026	-0.262
-674.149	-200.000	0.018	0.090
-673.135	-200.000	-0.008	-0.194
-672.120	13.351	-0.189	-0.147
-671.105	800.000	0.052	-0.163
-670.091	-200.000	-0.001	0.061
-669.076	-200.000	-0.002	-0.092
-668.062	-21.577	0.200	0.122
-667.047	-200.000	0.029	-0.224
-666.032	295.848	-0.158	-0.288
-665.018	-100.870	0.237	0.058
-664.003	800.000	-0.048	-0.153
-662.989	800.000	-0.068	0.292
-661.974	-33.780	-0.088	-0.048
-660.959	-12.599	0.201	-0.131
-659.945	-39.333	-0.311	0.163
-658.930	22.059	0.179	-0.146
-657.916	-53.766	0.015	-0.007
-656.901	5.669	0.111	-0.082
-655.886	90.798	0.116	-0.130
-654.872	-200.000	-0.001	-0.090
-653.857	800.000	-0.059	0.218
-652.843	-71.417	0.235	-0.088
-651.828	-200.000	-0.010	0.064
-650.814	-157.667	0.363	0.022
-649.799	-71.682	-0.166	-0.062
-648.784	74.855	0.173	-0.181
-647.770	147.526	0.040	0.054
-646.755	-200.000	-0.001	0.209
-645.741	-183.562	0.284	0.005
-644.726	18.470	-0.196	0.156
-643.711	420.113	0.082	-0.174
-642.697	59.652	-0.028	0.028
-641.682	-52.343	0.068	0.032
-640.668	-149.996	-0.227	-0.018
-639.653	-32.373	0.208	-0.115
-638.638	-9.200	-0.189	-0.126
-637.624	774.241	-0.117	0.317
-636.609	22.551	-0.152	0.124
-635.595	-5.798	-0.110	-0.075
-634.580	-6.853	-0.260	-0.176
-633.565	-73.422	0.141	0.051
-632.551	28.737	0.206	-0.174
-631.536	397.111	-0.117	-0.243
-630.522	-96.359	-0.066	0.017
-629.507	-26.960	-0.402	0.234
-628.492	744.930	-0.071	0.191
-627.478	-200.000	0.006	-0.216
-626.463	-33.756	-0.102	0.056
-625.449	-146.955	0.358	-0.031
-624.434	-142.246	0.123	0.012
-623.419	165.028	-0.271	-0.381
-622.405	-63.764	-0.158	0.065
-621.390	-200.000	-0.028	-0.394
-620.376	111.815	0.184	-0.221
-619.361	-122.620	0.213	-0.034
-618.346	-93.242	0.372	-0.103
-617.332	-200.000	-0.009	-0.358
-616.317	-140.594	0.215	-0.022
-615.303	115.642	-0.179	-0.218
-614.288	-92.218	0.160	0.045
-613.273	-89.433	0.233	0.068
-612.259	151.171	0.099	-0.135
-611.244	-23.646	-0.268	0.160
-610.230	-182.955	0.239	-0.004
-609.215	-51.045	0.156	-0.073
-608.201	-41.050	0.186	-0.095
-607.186	-5.919	0.165	0.112
-606.171	360.320	-0.101	-0.201
-605.157	763.575	0.097	0.261
-604.142	46.928	0.272	-0.252
-603.128	201.811	-0.133	0.204
-602.113	-80.849	0.125	0.041
-601.098	-114.424	-0.491	-0.094
-600.084	-14.383	-0.090	-0.057
-599.069	-11.488	0.135	0.088
-598.055	-73.958	0.142	0.051
-597.040	-23.600	-0.216	0.129
-596.025	342.795	-0.039	0.076
-595.011	89.226	-0.131	0.145
-593.996	122.178	0.114	0.141
-592.982	-24.428	0.116	-0.068
-591.967	-91.652	-0.402	0.114
-590.952	124.410	0.012	-0.015
-589.938	-87.128	-0.153	-0.046
-588.923	178.982	-0.206	-0.299
-587.909	-117.756	-0.196	-0.035
-586.894	362.464	0.109	-0.218
-585.879	124.785	-0.049	0.062
-584.865	194.420	-0.017	0.025
-583.850	-132.439	-0.033	0.004
-582.836	-85.713	0.187	-0.058
-581.821	-87.951	0.215	-0.064
-580.806	109.318	0.114	0.135
-579.792	-144.041	0.171	0.016
-578.777	-34.445	0.082	0.045
-577.763	800.000	0.031	-0.123
-576.748	-200.000	-0.079	0.351
-575.733	164.839	-0.314	0.440
-574.719	18.999	-0.117	0.093
-573.704	-45.308	-0.211	-0.104
-572.690	128.616	0.033	-0.042
-571.675	-43.278	0.190	-0.096
-570.661	12.708	-0.085	0.065
-569.646	-133.285	0.353	0.044
-568.631	94.265	-0.097	-0.109
-567.617	244.701	-0.014	0.024
-566.602	-43.802	0.197	0.099
-565.588	266.566	-0.087	0.151
-564.573	-200.000	-0.002	0.032
-563.558	36.542	-0.107	-0.094
-562.544	-101.722	-0.256	-0.062
-561.529	791.248	0.117	-0.320
-560.515	168.169	-0.029	-0.041
-559.500	-200.000	-0.013	0.143
-558.485	-25.402	0.078	-0.046
-557.471	-21.765	0.184	0.111
-556.456	-57.979	-0.076	0.033
-555.442	-12.103	0.412	-0.268
-554.427	178.222	-0.136	0.197
-553.412	641.524	0.053	-0.135
-552.398	-144.726	-0.047	0.004
-551.383	-200.000	-0.020	0.150
-550.369	636.606	0.120	-0.302
-549.354	63.499	0.102	-0.101
-548.339	-51.735	0.346	0.160
-547.325	181.684	-0.127	0.186
-546.310	-200.000	0.009	0.211
-545.296	28.004	0.144	0.120
-544.281	365.144	0.184	0.367
-543.266	-77.652	-0.220	0.076
-542.252	28.800	-0.169	-0.142
-541.237	-200.000	-0.032	0.280
-540.223	263.207	-0.192	0.330
-539.208	800.000	0.155	-0.491
-538.193	64.021	0.245	0.244
-537.179	800.000	0.057	0.247
-536.164	134.393	0.093	-0.119
-535.150	59.410	-0.154	0.151
-534.135	-200.000	-0.017	0.392
-533.121	-117.008	-0.097	0.018
-532.106	-200.000	-0.003	-0.133
-531.091	5.805	0.033	-0.024
-530.077	363.750	0.111	-0.221
-529.062	-200.000	0.000	0.219
-528.048	-75.347	-0.100	-0.035
-527.033	73.831	-0.088	0.092
-526.018	322.407	0.085	-0.160
-525.004	500.878	0.099	-0.227
-523.989	-30.477	0.278	-0.156
-522.975	181.712	-0.092	0.134
-521.960	-109.361	0.305	-0.064
-520.945	21.121	-0.111	-0.089
-519.931	539.250	0.204	-0.482
-518.916	-139.708	-0.061	-0.006
-517.902	15.035	-0.014	-0.011
-516.887	-93.001	-0.200	0.055
-515.872	-99.468	0.221	0.055
-514.858	175.099	-0.068	0.098
-513.843	-174.145	-0.083	-0.002
-512.829	51.957	-0.204	0.193
-511.814	-144.561	0.210	0.019
-510.799	-200.000	0.029	0.443
-509.785	-16.107	-0.063	0.040
-508.770	19.531	-0.239	0.191
-507.756	800.000	0.020	-0.084
-506.741	453.241	-0.148	-0.324
-505.726	-109.418	0.544	0.114
-504.712	-90.930	0.170	0.049
-503.697	239.909	-0.033	-0.055
-502.683	800.000	-0.013	-0.051
-501.668	-80.759	-0.074	-0.024
-500.653	800.000	-0.117	-0.337
-499.639	671.280	-0.133	-0.342
-498.624	-94.402	-0.395	0.107
-497.610	790.983	0.161	-0.439
-496.595	-200.000	0.009	0.120
-495.581	-143.176	0.213	-0.020
-494.566	9.232	-0.250	-0.187
-493.551	800.000	0.087	-0.242
-492.537	366.084	-0.044	0.087
-491.522	216.222	0.070	0.110
-490.508	-53.046	0.053	-0.024
-489.493	4.723	-0.079	0.057
-488.478	-96.706	-0.104	-0.027
-487.464	-200.000	0.087	-0.547
-486.449	30.889	-0.233	0.198
-485.435	120.881	0.231	0.284
-484.420	-137.333	-0.104	-0.012
-483.405	-25.629	-0.193	-0.113
-482.391	103.333	-0.329	-0.382
-481.376	399.039	0.108	-0.225
-480.362	-200.000	-0.003	-0.178
-479.347	213.081	0.015	0.023
-478.332	-18.606	0.281	-0.174
-477.318	-85.333	0.262	-0.081
-476.303	800.000	-0.085	0.306
-475.289	262.859	0.018	-0.031
-474.274	85.960	0.033	0.036
-473.259	-200.000	0.000	0.020
-472.245	-116.885	0.166	0.030
-471.230	-84.140	-0.202	-0.064
-470.216	115.062	-0.104	-0.126
-469.201	-147.411	0.536	0.045
-468.186	-200.000	0.002	0.185
-467.172	-200.000	-0.015	-0.328
-466.157	-27.727	-0.066	0.038
-465.143	-47.165	-0.265	0.128
-464.128	-122.425	0.107	0.017
-463.113	-21.847	0.173	0.104
-462.099	10.497	0.167	-0.126
-461.084	106.806	-0.194	0.228
-460.070	-148.380	-0.235	0.019
-459.055	207.435	-0.158	0.245
-458.040	-49.786	-0.206	-0.097
-457.026	800.000	-0.038	0.137
-456.011	-200.000	-0.075	0.423
-454.997	-34.396	-0.072	0.039
-453.982	733.585	-0.049	-0.130
-452.968	-94.237	-0.125	-0.034
-451.953	89.489	0.151	-0.166
-450.938	-49.024	-0.201	0.095
-449.924	-200.000	0.048	0.263
-448.909	800.000	-0.126	0.431
-447.895	172.074	0.117	0.166
-446.880	-80.672	-0.225	0.074
-445.865	17.900	-0.153	0.121
-444.851	197.179	-0.124	0.186
-443.836	800.000	0.084	-0.283
-442.822	800.000	-0.079	-0.268
-441.807	-115.069	-0.047	-0.009
-440.792	76.415	0.118	0.123
-439.778	344.665	-0.120	-0.233
-438.763	-200.000	-0.034	-0.270
-437.749	-200.000	0.014	-0.172
-436.734	-32.703	-0.230	-0.127
-435.719	-41.557	0.388	0.197
-434.705	96.579	0.156	0.177
-433.690	-180.293	0.405	0.008
-432.676	132.100	-0.153	0.195
-431.661	55.178	0.188	0.180
-430.646	11.569	-0.030	0.023
-429.632	596.034	0.068	-0.166
-428.617	-56.945	-0.026	-0.011
-427.603	-103.318	0.317	-0.074
-426.588	178.243	0.098	-0.141
-425.573	33.962	-0.095	0.082
-424.559	-93.256	-0.155	-0.043
-423.544	126.062	0.318	0.396
-422.530	-89.835	0.234	-0.068
-421.515	66.479	0.040	0.040
-420.500	-27.496	-0.149	-0.086
-419.486	800.000	-0.071	0.290
-418.471	389.934	0.207	0.425
-417.457	-105.023	0.323	0.073
-416.442	-130.259	0.122	0.016
-415.428	-200.000	0.020	-0.277
-414.413	-158.787	-0.092	0.005
-413.398	133.009	0.244	0.312
-412.384	-200.000	-0.006	-0.201
-411.369	37.203	0.325	0.284
-410.355	-188.241	-0.298	-0.004
-409.340	11.472	-0.193	-0.146
-408.325	-80.134	-0.060	-0.020
-407.311	104.552	-0.100	0.116
-406.296	294.949	0.052	-0.094
-405.282	21.917	-0.288	0.232
-404.267	-200.000	-0.014	0.106
-403.252	-200.000	0.014	0.160
-402.238	-67.122	-0.141	-0.055
-401.223	-200.000	0.017	-0.177
-400.209	-42.147	0.101	0.051
-399.194	-161.316	-0.033	0.002
-398.179	315.135	0.223	0.414
-397.165	800.000	0.020	-0.074
-396.150	-96.058	-0.266	0.070
-395.136	-62.204	-0.107	-0.044
-394.121	-75.398	-0.395	0.139
-393.106	800.000	-0.066	0.190
-392.092	-78.033	-0.151	0.051
-391.077	660.754	0.020	0.051
-390.063	-79.606	0.283	-0.094
-389.048	315.419	0.116	0.216
-388.033	-31.942	-0.212	-0.117
-387.019	-38.658	-0.329	0.171
-386.004	-86.747	0.142	-0.043
-384.990	-11.466	-0.076	-0.049
-383.975	127.420	-0.188	-0.236
-382.960	37.688	-0.111	0.097
-381.946	91.523	0.214	-0.237
-380.931	-134.968	-0.197	0.024
-379.917	-118.136	0.045	-0.008
-378.902	31.696	-0.125	-0.106
-377.888	-13.412	0.275	-0.176
-376.873	-102.309	0.191	-0.045
-375.858	74.436	-0.078	0.081
-374.844	-131.600	-0.170	-0.022
-373.829	-200.000	-0.035	0.162
-372.815	466.731	-0.276	-0.610
-371.800	-82.766	-0.085	-0.027
-370.785	-18.372	0.110	-0.068
-369.771	-54.497	-0.104	0.046
-368.756	226.672	-0.078	-0.125
-367.742	4.858	-0.202	0.146
-366.727	5.633	-0.173	0.126
-365.712	-200.000	-0.027	-0.206
-364.698	109.459	-0.288	-0.340
-363.683	-149.763	0.301	0.023
-362.669	-10.488	-0.183	0.119
-361.654	-42.941	0.154	0.077
-360.639	800.000	0.024	0.083
-359.625	496.715	-0.024	-0.055
-358.610	-68.740	0.134	0.051
-357.596	416.533	0.027	-0.057
-356.581	3.943	0.104	-0.075
-355.566	683.101	0.009	0.022
-354.552	109.297	0.067	-0.079
-353.537	-200.000	0.017	-0.108
-352.523	301.198	0.255	0.463
-351.508	-200.000	-0.011	0.197
-350.493	-98.565	0.239	-0.060
-349.479	-200.000	0.001	0.240
-348.464	-103.568	-0.022	0.005
-347.450	331.581	0.272	-0.517
-346.435	-125.107	0.270	-0.041
-345.420	-135.207	0.404	-0.048
-344.406	262.498	-0.071	0.121
-343.391	5.316	0.174	0.126
-342.377	269.232	-0.009	0.015
-341.362	454.647	0.119	-0.259
-340.348	-8.386	0.211	0.140
-339.333	476.337	0.146	0.325
-338.318	-200.000	-0.014	0.277
-337.304	-200.000	-0.050	0.299
-336.289	-46.456	-0.181	0.087
-335.275	-4.632	0.396	-0.269
-334.260	-135.037	-0.126	-0.015
-333.245	-200.000	-0.016	0.205
-332.231	800.000	0.023	-0.097
-331.216	-128.999	0.532	-0.073
-330.202	-52.423	0.216	-0.098
-329.187	-82.981	0.092	0.029
-328.172	-25.450	-0.231	0.134
-327.158	344.729	0.030	0.058
-326.143	-200.000	0.034	0.160
-325.129	-122.910	0.264	0.042
-324.114	7.190	-0.226	-0.166
-323.099	-200.000	-0.047	0.273
-322.085	29.402	0.018	-0.015
-321.070	-14.295	-0.157	0.099
-320.056	-200.000	-0.023	-0.230
-319.041	123.334	-0.028	-0.034
-318.026	800.000	0.042	-0.148
-317.012	-91.367	-0.288	0.081
-315.997	282.519	-0.071	0.126
-314.983	-200.000	0.022	0.166
-313.968	-140.962	0.307	-0.031
-312.953	188.613	-0.157	-0.231
-311.939	203.588	0.137	-0.209
-310.924	-49.697	-0.187	-0.087
-309.910	-88.158	0.101	0.030
-308.895	800.000	-0.024	0.094
-307.880	264.677	0.090	-0.154
-306.866	-149.576	-0.249	-0.019
-305.851	762.339	-0.033	0.088
-304.837	800.000	-0.104	0.382
-303.822	180.132	-0.136	0.196
-302.807	-163.320	-0.233	0.011
-301.793	-91.024	-0.400	0.113
-300.778	-19.176	0.165	0.101
-299.764	-111.421	-0.237	-0.047
-298.749	85.079	0.037	0.040
-297.735	-70.090	-0.273	0.102
-296.720	-99.203	-0.200	0.050
-295.705	800.000	-0.144	-0.422
-294.691	17.356	0.033	0.026
-293.676	-35.413	0.115	-0.062
-292.662	35.154	0.301	-0.260
-291.647	-0.521	-0.107	-0.074
-290.632	26.244	-0.223	0.183
-289.618	308.443	0.071	0.130
-288.603	-200.000	-0.005	-0.123
-287.589	32.713	0.214	-0.182
-286.574	-200.000	-0.030	0.201
-285.559	-43.584	0.198	0.098
-284.545	-200.000	-0.027	0.228
-283.530	-12.232	0.244	-0.157
-282.516	-200.000	-0.043	-0.410
-281.501	71.519	0.119	0.121
-280.486	-5.683	0.159	-0.107
-279.472	-200.000	0.016	-0.088
-278.457	-96.418	0.157	0.041
-277.443	-16.785	-0.131	0.081
-276.428	-55.033	-0.521	0.231
-275.413	-140.223	-0.240	-0.025
-274.399	270.562	0.222	-0.384
-273.384	800.000	-0.065	-0.260
-272.370	684.937	0.067	0.172
-271.355	-141.411	-0.473	0.047
-270.340	-46.667	-0.125	0.060
-269.326	-200.000	-0.025	-0.233
-268.311	-46.676	0.101	-0.049
-267.297	96.733	-0.228	0.257
-266.282	-66.647	0.118	0.046
-265.267	800.000	-0.022	-0.065
-264.253	302.595	0.082	0.150
-263.238	800.000	0.095	-0.287
-262.224	800.000	0.110	0.354
-261.209	65.313	-0.127	0.126
-260.195	31.258	-0.115	-0.097
-259.180	-82.442	0.330	0.105
-258.165	800.000	0.060	-0.187
-257.151	-43.857	0.055	0.027
-256.136	800.000	-0.147	-0.485
-255.122	78.890	0.226	-0.237
-254.107	-162.606	0.165	0.008
-253.092	33.921	0.097	0.083
-252.078	800.000	0.044	-0.138
-251.063	-200.000	0.029	-0.364
-250.049	-200.000	0.041	0.249
-249.034	-200.000	-0.015	0.073
-248.019	-125.176	-0.211	0.032
-247.005	-30.613	-0.142	-0.079
-245.990	144.916	0.086	-0.112
-244.976	-44.603	0.196	-0.096
-243.961	-95.439	-0.079	0.021
-242.946	87.371	-0.183	-0.199
-241.932	200.841	0.032	0.049
-240.917	800.000	-0.158	0.487
-239.903	-200.000	-0.058	-0.296
-238.888	800.000	0.052	-0.212
-237.873	61.371	-0.258	0.252
-236.859	183.809	0.053	0.076
-235.844	800.000	-0.088	-0.241
-234.830	-109.888	-0.350	0.072
-233.815	800.000	0.043	-0.144
-232.800	83.411	0.227	0.242
-231.786	-83.158	-0.108	0.034
-230.771	378.587	0.072	-0.145
-229.757	-6.936	-0.431	-0.287
-228.742	-124.040	0.075	0.011
-227.727	63.208	0.122	0.120
-226.713	105.669	-0.144	-0.167
-225.698	465.207	-0.067	-0.146
-224.684	38.064	0.267	-0.233
-223.669	61.261	-0.084	0.082
-222.655	139.324	-0.075	-0.097
-221.640	800.000	-0.141	0.459
-220.625	30.037	0.370	-0.309
-219.611	-73.905	-0.427	0.152
-218.596	-136.133	-0.187	0.021
-217.582	-144.072	0.274	0.025
-216.567	-76.426	0.055	-0.019
-215.552	-66.788	-0.260	0.101
-214.538	126.818	-0.125	-0.156
-213.523	26.648	-0.027	-0.022
-212.509	217.401	-0.089	-0.139
-211.494	-40.795	0.065	0.033
-210.479	114.703	0.055	0.066
-209.465	-137.530	-0.361	-0.040
-208.450	-141.979	0.408	0.040
-207.436	1.708	-0.009	0.006
-206.421	372.535	-0.102	0.203
-205.406	-61.393	0.435	0.179
-204.392	459.133	-0.134	-0.291
-203.377	402.467	-0.108	0.221
-202.363	-35.889	0.095	0.051
-201.348	-200.000	-0.016	-0.073
-200.333	800.000	0.097	0.270
-199.319	-188.728	-0.249	-0.003
-198.304	-56.348	0.107	-0.047
-197.290	-83.655	0.257	0.080
-196.275	199.031	0.061	0.091
-195.260	-200.000	-0.018	-0.144
-194.246	-71.785	-0.151	-0.055
-193.231	-14.115	0.172	-0.109
-192.217	-111.546	-0.108	0.022
-191.202	439.070	-0.156	-0.334
-190.187	-90.771	0.182	-0.051
-189.173	123.022	0.045	-0.056
-188.158	131.341	0.014	0.018
-187.144	-81.877	-0.282	0.090
-186.129	-26.730	0.215	-0.123
-185.114	800.000	0.079	0.310
-184.100	49.538	-0.143	-0.132
-183.085	-112.780	-0.144	-0.028
-182.071	-200.000	-0.003	-0.193
-181.056	718.381	0.070	-0.183
-180.042	425.785	0.023	0.049
-179.027	-5.920	0.123	0.082
-178.012	-50.944	0.167	-0.077
-176.998	-200.000	-0.001	0.120
-175.983	126.978	0.065	-0.081
-174.969	262.493	-0.078	-0.132
-173.954	-69.786	0.205	-0.077
-172.939	180.867	-0.133	0.191
-171.925	27.975	-0.153	-0.126
-170.910	93.762	-0.136	0.151
-169.896	173.473	-0.117	0.165
-168.881	800.000	0.054	0.151
-167.866	631.397	0.094	0.233
-166.852	21.387	-0.084	-0.067
-165.837	800.000	-0.052	0.156
-164.823	75.809	-0.215	-0.222
-163.808	266.305	-0.040	-0.069
-162.793	487.680	0.051	0.115
-161.779	-135.729	-0.056	-0.006
-160.764	-200.000	0.024	-0.203
-159.750	-200.000	-0.050	0.376
-158.735	-120.098	0.198	-0.033
-157.720	660.804	-0.070	-0.177
-156.706	-47.769	-0.391	-0.185
-155.691	183.094	0.028	0.040
-154.677	-125.443	0.244	-0.036
-153.662	275.330	0.137	-0.237
-152.647	-200.000	0.011	0.250
-151.633	243.718	0.198	0.324
-150.618	-200.000	0.053	0.259
-149.604	-87.532	-0.086	-0.025
-148.589	-104.403	0.182	-0.041
-147.574	-147.482	-0.474	0.039
-146.560	-80.649	-0.098	0.032
-145.545	609.390	-0.070	0.170
-144.531	-121.293	-0.206	0.034
-143.516	409.395	0.060	-0.124
-142.502	-200.000	0.035	0.208
-141.487	-200.000	0.001	-0.297
-140.472	166.319	-0.242	0.336
-139.458	237.288	-0.062	-0.100
-138.443	800.000	-0.151	0.447
-137.429	-96.614	0.181	0.047
-136.414	-189.802	0.176	-0.002
-135.399	-124.289	0.120	0.018
-134.385	31.662	-0.387	-0.325
-133.370	-124.959	0.290	0.044
-132.356	217.373	-0.197	0.307
-131.341	-25.833	0.142	0.082
-130.326	169.961	0.111	0.155
-129.312	292.774	-0.245	0.436
-128.297	-200.000	0.047	-0.269
-127.283	34.769	-0.094	-0.081
-126.268	-200.000	0.011	0.177
-125.253	-69.181	0.375	-0.141
-124.239	-200.000	0.030	-0.129
-123.224	-200.000	-0.028	0.492
-122.210	-200.000	0.061	-0.320
-121.195	-54.109	0.147	-0.065
