DTS Sentinel unit serial number:	SN413079Multiplexer serial number:	ORYXHardware model number:	OX4-SRSoftware version number:	ORYX F/W v4.00 Oryx Data Collector v3.7.2.0data status	okinstallation	princeton_trtdifferential loss correction	single-endedforward channel	channel 3reverse channel	N/Adate	2019/09/10time	19:34:11forward acquisition time	60.00reverse acquisition time	0.00gamma	496.2192k internal	0.2320k external	0.2320temperature offset calibration	0.9912default loss term (dB/km)	0.3790temperature slope calibration	1.0000multiplexer offset coefficient	1.0000multiplexer slope coefficient	1.0000fibre end	0.00T internal ref (°C)	33.36T ext. ref 1 (°C)	-0.35T ext. ref 2 (°C)	26.03length (m)	temperature (°C)	Stokes	anti-Stokes-747.200	139.631	0.058	-0.077
-746.185	-200.000	0.024	-0.124
-745.171	160.503	-0.204	-0.288
-744.156	800.000	-0.127	0.368
-743.142	51.709	0.110	0.106
-742.127	-16.725	-0.353	0.226
-741.112	376.853	-0.100	0.207
-740.098	444.594	0.140	0.310
-739.083	212.975	-0.198	0.317
-738.069	-200.000	0.012	0.174
-737.054	-8.277	0.079	-0.054
-736.039	-80.620	-0.186	0.063
-735.025	440.638	0.082	0.180
-734.010	30.428	-0.238	-0.206
-732.996	48.901	-0.121	-0.115
-731.981	171.845	0.113	-0.164
-730.966	-94.682	0.351	-0.096
-729.952	-152.583	0.022	0.002
-728.937	800.000	0.102	-0.317
-727.923	86.618	-0.143	0.160
-726.908	-200.000	-0.079	-0.416
-725.894	-76.512	-0.254	-0.090
-724.879	-45.045	-0.186	-0.094
-723.864	-134.966	0.362	0.044
-722.850	218.987	-0.080	0.129
-721.835	-200.000	0.010	0.096
-720.821	217.332	0.052	0.084
-719.806	-133.986	-0.345	0.043
-718.791	-83.915	-0.269	-0.087
-717.777	-74.148	-0.299	-0.109
-716.762	20.299	0.256	0.209
-715.748	73.756	-0.082	-0.087
-714.733	60.563	0.438	-0.438
-713.718	-200.000	-0.030	-0.262
-712.704	-200.000	-0.024	-0.348
-711.689	-144.536	0.204	0.019
-710.675	-7.953	0.190	-0.129
-709.660	33.352	-0.072	-0.063
-708.645	62.984	0.101	-0.103
-707.631	-141.760	0.231	-0.023
-706.616	-200.000	0.029	0.151
-705.602	-131.338	0.183	0.024
-704.587	-36.790	-0.207	0.112
-703.572	130.022	0.172	-0.223
-702.558	43.097	0.063	0.058
-701.543	-200.000	-0.071	-0.641
-700.529	-57.808	-0.137	-0.061
-699.514	-2.543	-0.264	-0.186
-698.499	254.192	0.180	-0.310
-697.485	147.884	-0.053	0.072
-696.470	-76.131	0.303	0.108
-695.456	637.189	-0.041	-0.106
-694.441	458.665	0.060	0.135
-693.426	800.000	0.130	-0.425
-692.412	51.774	0.105	0.101
-691.397	136.628	0.315	-0.415
-690.383	-200.000	-0.002	-0.012
-689.368	-0.934	0.223	-0.159
-688.354	800.000	0.065	-0.208
-687.339	-91.582	0.348	-0.100
-686.324	800.000	-0.020	-0.088
-685.310	93.182	0.190	-0.217
-684.295	-90.977	0.192	-0.056
-683.281	-132.686	-0.213	-0.028
-682.266	800.000	-0.058	0.163
-681.251	-146.307	-0.187	-0.017
-680.237	-49.113	0.327	0.158
-679.222	-52.787	0.129	0.060
-678.208	387.332	0.123	0.257
-677.193	-200.000	0.030	-0.374
-676.178	-59.830	0.207	0.090
-675.164	-39.530	-0.165	-0.087
-674.149	-111.468	0.157	-0.032
-673.135	-122.725	-0.224	-0.037
-672.120	366.821	0.044	-0.089
-671.105	-87.419	-0.138	0.042
-670.091	-200.000	0.007	-0.109
-669.076	800.000	-0.063	-0.185
-668.062	35.436	-0.305	0.270
-667.047	390.463	-0.079	-0.165
-666.032	40.024	0.325	-0.295
-665.018	800.000	-0.066	-0.228
-664.003	-108.615	-0.187	-0.041
-662.989	580.737	0.119	0.294
-661.974	-16.617	-0.295	-0.188
-660.959	-151.075	0.169	-0.013
-659.945	-200.000	-0.020	0.294
-658.930	80.247	-0.171	-0.186
-657.916	-160.839	-0.279	0.015
-656.901	-31.357	0.207	-0.117
-655.886	-73.496	-0.157	0.058
-654.872	-93.945	-0.107	-0.030
-653.857	-146.037	-0.060	0.005
-652.843	-58.350	-0.108	-0.047
-651.828	-200.000	-0.027	-0.143
-650.814	-108.987	0.188	0.040
-649.799	-109.901	-0.450	-0.095
-648.784	-125.132	0.084	0.013
-647.770	216.006	0.176	0.281
-646.755	-200.000	-0.022	0.243
-645.741	-200.000	-0.072	-0.357
-644.726	-114.827	-0.242	-0.047
-643.711	-200.000	-0.060	0.276
-642.697	800.000	-0.090	0.385
-641.682	-60.434	-0.242	0.104
-640.668	-200.000	0.019	0.364
-639.653	104.579	-0.094	0.112
-638.638	249.083	0.092	0.158
-637.624	-168.918	-0.177	0.007
-636.609	-54.047	-0.127	0.058
-635.595	691.797	-0.096	-0.252
-634.580	593.763	-0.105	-0.262
-633.565	-2.915	-0.192	-0.135
-632.551	-54.121	-0.082	0.038
-631.536	180.048	0.136	-0.201
-630.522	54.299	0.220	0.213
-629.507	19.555	-0.101	0.082
-628.492	518.095	-0.092	-0.218
-627.478	-3.482	-0.134	-0.094
-626.463	-72.198	-0.294	-0.110
-625.449	157.465	-0.081	-0.113
-624.434	-107.173	0.391	0.087
-623.419	-175.675	0.114	-0.003
-622.405	800.000	-0.062	0.197
-621.390	584.931	-0.012	0.029
-620.376	-58.174	-0.176	0.077
-619.361	-170.931	-0.228	-0.008
-618.346	-13.983	0.278	-0.181
-617.332	-200.000	0.005	-0.115
-616.317	-118.958	0.264	0.047
-615.303	457.441	0.123	-0.274
-614.288	73.681	0.044	-0.047
-613.273	82.752	-0.261	-0.285
-612.259	-31.436	0.145	-0.082
-611.244	-200.000	-0.009	0.234
-610.230	-143.171	-0.193	0.019
-609.215	21.620	-0.147	-0.121
-608.201	-120.022	-0.073	-0.013
-607.186	-132.378	0.435	0.056
-606.171	-135.161	0.236	-0.029
-605.157	-73.353	-0.270	-0.099
-604.142	199.449	-0.110	-0.169
-603.128	2.888	-0.141	0.103
-602.113	201.945	-0.291	-0.451
-601.098	-96.460	0.128	0.034
-600.084	-143.844	0.063	-0.006
-599.069	800.000	-0.074	-0.281
-598.055	-200.000	0.047	-0.208
-597.040	38.295	-0.349	-0.313
-596.025	-10.780	-0.237	-0.158
-595.011	31.382	0.142	-0.123
-593.996	62.728	0.307	-0.309
-592.982	-24.958	-0.158	0.094
-591.967	-73.223	-0.312	0.115
-590.952	-63.791	0.300	-0.123
-589.938	-106.377	-0.378	-0.085
-588.923	-91.355	-0.215	-0.062
-587.909	63.060	0.100	0.100
-586.894	-53.512	-0.121	0.056
-585.879	20.594	-0.138	0.112
-584.865	-200.000	-0.007	0.080
-583.850	-53.120	-0.219	-0.101
-582.836	800.000	0.068	-0.244
-581.821	-108.863	0.287	0.062
-580.806	16.960	-0.172	-0.137
-579.792	-200.000	-0.021	0.332
-578.777	-200.000	-0.009	-0.171
-577.763	21.993	-0.127	0.104
-576.748	800.000	0.089	0.283
-575.733	285.052	0.033	0.059
-574.719	-200.000	-0.015	-0.077
-573.704	-72.034	-0.093	-0.035
-572.690	-54.502	0.223	0.101
-571.675	29.567	-0.230	0.196
-570.661	-96.074	0.166	-0.044
-569.646	36.964	0.134	0.119
-568.631	-189.392	-0.163	-0.002
-567.617	33.066	0.242	-0.210
-566.602	800.000	0.009	-0.026
-565.588	150.937	0.092	0.126
-564.573	48.573	-0.052	0.049
-563.558	-146.849	-0.169	-0.015
-562.544	-78.152	0.269	-0.093
-561.529	-200.000	-0.021	0.184
-560.515	-10.509	-0.184	0.122
-559.500	14.519	0.075	0.058
-558.485	-200.000	0.019	0.143
-557.471	800.000	-0.150	0.498
-556.456	149.423	-0.298	-0.406
-555.442	241.498	-0.029	-0.048
-554.427	-200.000	0.010	0.253
-553.412	380.570	-0.035	-0.071
-552.398	81.856	0.063	0.068
-551.383	137.869	-0.125	0.164
-550.369	-61.449	-0.096	0.041
-549.354	-165.037	-0.108	0.005
-548.339	-200.000	0.016	0.125
-547.325	158.570	-0.288	-0.401
-546.310	-58.049	0.090	-0.039
-545.296	-200.000	0.036	-0.270
-544.281	59.149	-0.081	-0.080
-543.266	-46.286	-0.202	-0.100
-542.252	-3.515	-0.225	-0.157
-541.237	-55.120	-0.251	-0.113
-540.223	800.000	0.042	0.119
-539.208	-104.682	-0.244	-0.056
-538.193	54.604	0.078	0.075
-537.179	-98.454	0.324	0.083
-536.164	409.842	-0.020	0.042
-535.150	5.868	-0.328	-0.244
-534.135	709.673	0.091	-0.242
-533.121	-27.594	-0.106	0.062
-532.106	128.403	-0.138	0.177
-531.091	335.992	-0.096	0.187
-530.077	146.086	-0.093	0.126
-529.062	-109.937	0.034	-0.007
-528.048	16.313	-0.164	0.130
-527.033	-38.541	-0.355	0.188
-526.018	800.000	-0.051	-0.205
-525.004	-96.274	0.613	0.163
-523.989	215.141	-0.197	0.313
-522.975	-76.659	-0.245	0.086
-521.960	233.637	-0.032	-0.053
-520.945	358.418	0.088	0.176
-519.931	-200.000	0.027	-0.334
-518.916	201.439	-0.031	-0.048
-517.902	-72.816	0.220	0.081
-516.887	-200.000	-0.015	-0.068
-515.872	280.886	-0.079	-0.141
-514.858	122.946	-0.249	0.312
-513.843	-200.000	0.008	-0.448
-512.829	143.690	-0.122	-0.163
-511.814	-200.000	-0.011	0.220
-510.799	-200.000	0.029	-0.136
-509.785	-144.337	0.095	-0.009
-508.770	-101.549	-0.280	-0.068
-507.756	591.975	-0.109	0.269
-506.741	-15.473	0.195	0.125
-505.726	133.375	0.152	0.197
-504.712	16.530	-0.237	0.187
-503.697	-154.018	-0.168	0.011
-502.683	-71.096	0.207	-0.078
-501.668	354.098	-0.033	0.065
-500.653	68.790	0.263	-0.271
-499.639	-32.597	-0.174	0.097
-498.624	-178.106	0.134	-0.003
-497.610	-11.846	0.120	0.079
-496.595	-200.000	-0.004	-0.115
-495.581	143.945	0.130	-0.174
-494.566	51.756	0.131	-0.125
-493.551	17.952	0.153	-0.122
-492.537	-200.000	-0.001	-0.102
-491.522	-94.405	0.217	0.059
-490.508	-51.440	-0.022	0.010
-489.493	377.042	-0.104	-0.212
-488.478	-200.000	-0.002	0.356
-487.464	270.075	0.201	-0.353
-486.449	300.193	-0.136	-0.252
-485.435	1.133	-0.237	-0.170
-484.420	78.879	0.167	0.179
-483.405	73.873	-0.189	-0.198
-482.391	-132.576	-0.095	-0.012
-481.376	36.438	0.205	-0.181
-480.362	-63.498	-0.059	-0.024
-479.347	93.844	-0.143	0.162
-478.332	2.705	0.177	0.129
-477.318	325.923	-0.057	0.108
-476.303	237.864	0.103	-0.171
-475.289	-169.349	-0.205	-0.008
-474.274	424.939	-0.018	-0.039
-473.259	-200.000	-0.056	0.330
-472.245	-19.731	0.198	0.122
-471.230	612.247	0.064	0.161
-470.216	800.000	0.008	0.035
-469.201	800.000	0.059	0.212
-468.186	164.522	0.090	-0.128
-467.172	66.148	0.037	0.037
-466.157	170.837	0.059	-0.085
-465.143	-10.228	-0.408	-0.271
-464.128	258.980	-0.025	0.044
-463.113	438.353	0.101	-0.219
-462.099	-176.595	-0.112	-0.003
-461.084	351.493	0.183	0.363
-460.070	-2.580	-0.283	-0.198
-459.055	800.000	-0.042	0.121
-458.040	70.640	0.121	-0.125
-457.026	789.299	-0.129	0.355
-456.011	-67.388	-0.078	-0.031
-454.997	-69.554	-0.159	0.061
-453.982	-36.252	0.317	0.171
-452.968	-200.000	-0.002	-0.053
-451.953	-200.000	0.004	-0.027
-450.938	-200.000	-0.001	0.165
-449.924	-146.045	0.406	0.036
-448.909	237.725	0.159	-0.263
-447.895	151.475	0.103	0.140
-446.880	428.161	-0.098	0.212
-445.865	454.498	0.060	0.132
-444.851	-109.254	0.405	-0.086
-443.836	41.624	0.161	-0.146
-442.822	46.180	0.245	-0.227
-441.807	-128.335	-0.048	-0.007
-440.792	-25.404	-0.180	0.106
-439.778	-200.000	0.007	-0.221
-438.763	-191.418	-0.072	-0.001
-437.749	508.188	-0.092	0.213
-436.734	64.855	0.118	0.119
-435.719	122.320	-0.235	0.293
-434.705	-200.000	0.028	0.365
-433.690	-81.904	-0.229	0.075
-432.676	129.132	0.114	-0.146
-431.661	131.130	-0.148	-0.190
-430.646	213.824	0.166	-0.262
-429.632	231.940	0.097	-0.159
-428.617	-78.571	0.281	-0.096
-427.603	-108.389	-0.074	0.016
-426.588	-200.000	-0.019	-0.184
-425.573	-200.000	0.231	-0.001
-424.559	-200.000	-0.012	0.131
-423.544	11.745	-0.258	-0.198
-422.530	800.000	0.057	0.166
-421.515	-200.000	0.003	-0.129
-420.500	-51.448	-0.177	0.082
-419.486	-12.680	0.182	-0.118
-418.471	-105.160	0.156	0.035
-417.457	800.000	0.049	0.189
-416.442	-117.585	0.121	-0.022
-415.428	800.000	-0.132	-0.393
-414.413	-200.000	0.012	-0.166
-413.398	800.000	0.012	-0.049
-412.384	-25.895	0.337	-0.198
-411.369	6.411	-0.119	-0.088
-410.355	-186.796	0.147	-0.002
-409.340	800.000	0.056	0.213
-408.325	800.000	-0.058	-0.160
-407.311	-78.476	0.460	0.157
-406.296	800.000	0.058	-0.170
-405.282	53.587	0.146	-0.140
-404.267	-146.452	-0.229	0.020
-403.252	-91.220	-0.250	0.071
-402.238	-96.176	-0.070	0.018
-401.223	-16.573	-0.250	-0.158
-400.209	-149.538	-0.175	-0.014
-399.194	-50.902	-0.269	-0.126
-398.179	-120.341	0.300	-0.051
-397.165	-184.325	-0.139	-0.002
-396.150	391.298	-0.061	-0.127
-395.136	-51.571	0.125	0.058
-394.121	-138.725	-0.185	-0.020
-393.106	-115.972	0.155	0.029
-392.092	-118.868	0.217	0.038
-391.077	384.050	-0.054	-0.112
-390.063	-144.956	-0.135	0.012
-389.048	800.000	-0.055	0.240
-388.033	-13.346	0.157	0.102
-387.019	-24.345	0.236	0.140
-386.004	296.974	-0.142	0.259
-384.990	-44.518	0.137	-0.068
-383.975	54.052	-0.074	0.071
-382.960	-46.206	0.147	-0.072
-381.946	78.970	-0.058	-0.062
-380.931	-16.452	0.109	-0.069
-379.917	-200.000	0.006	0.103
-378.902	-200.000	-0.011	0.127
-377.888	-76.218	0.093	-0.033
-376.873	-200.000	-0.049	-0.239
-375.858	417.388	0.054	-0.116
-374.844	55.775	0.160	0.155
-373.829	-37.355	0.180	-0.096
-372.815	12.004	-0.258	-0.198
-371.800	800.000	0.004	-0.015
-370.785	-110.890	-0.180	-0.037
-369.771	-123.984	-0.046	-0.007
-368.756	-68.739	0.177	0.068
-367.742	7.048	-0.247	0.184
-366.727	-82.217	-0.203	-0.066
-365.712	800.000	0.102	0.362
-364.698	774.197	0.100	0.272
-363.683	275.934	0.035	0.062
-362.669	-46.118	0.266	-0.131
-361.654	-200.000	-0.044	0.238
-360.639	-200.000	0.017	-0.324
-359.625	-200.000	0.006	0.252
-358.610	-63.567	-0.189	-0.077
-357.596	-64.845	0.511	-0.206
-356.581	449.959	-0.090	-0.198
-355.566	-87.470	0.211	0.064
-354.552	662.124	-0.107	-0.274
-353.537	-200.000	0.004	-0.135
-352.523	-114.726	-0.162	0.031
-351.508	-49.850	0.281	-0.133
-350.493	257.375	0.054	0.093
-349.479	514.626	-0.114	0.264
-348.464	-107.486	0.294	-0.064
-347.450	71.752	-0.104	0.107
-346.435	-111.465	0.303	-0.061
-345.420	-34.937	0.179	-0.097
-344.406	354.446	-0.147	-0.290
-343.391	800.000	-0.102	-0.311
-342.377	223.932	-0.122	0.196
-341.362	-68.562	0.404	0.156
-340.348	800.000	0.056	0.198
-339.333	105.222	0.047	-0.055
-338.318	-131.788	0.245	-0.032
-337.304	223.162	-0.076	-0.123
-336.289	255.878	-0.064	-0.109
-335.275	-110.508	-0.540	0.112
-334.260	800.000	0.045	-0.178
-333.245	170.788	0.326	0.465
-332.231	13.507	0.261	0.202
-331.216	155.699	0.024	-0.033
-330.202	209.490	0.170	-0.265
-329.187	-120.615	0.354	0.060
-328.172	800.000	-0.080	0.327
-327.158	-176.600	0.227	0.006
-326.143	44.097	-0.124	-0.113
-325.129	128.702	0.138	-0.175
-324.114	-200.000	0.017	0.126
-323.099	-155.299	-0.104	0.007
-322.085	-125.742	-0.301	-0.045
-321.070	130.283	-0.101	0.129
-320.056	-200.000	0.044	0.238
-319.041	241.891	0.143	-0.238
-318.026	-200.000	0.019	-0.154
-317.012	-200.000	0.022	-0.171
-315.997	-3.083	0.347	0.241
-314.983	-124.566	-0.227	0.035
-313.968	-137.804	0.603	-0.067
-312.953	-125.166	-0.176	0.027
-311.939	800.000	-0.107	-0.332
-310.924	-200.000	0.024	-0.417
-309.910	-200.000	-0.021	-0.127
-308.895	-28.133	-0.069	0.040
-307.880	-9.806	0.075	-0.049
-306.866	-92.401	0.180	-0.050
-305.851	800.000	0.100	0.284
-304.837	61.256	0.098	0.097
-303.822	648.899	0.090	-0.229
-302.807	612.525	0.108	-0.269
-301.793	-200.000	-0.012	-0.063
-300.778	-79.637	-0.176	0.059
-299.764	-56.065	-0.179	0.079
-298.749	-72.842	0.177	-0.065
-297.735	128.698	0.127	0.160
-296.720	125.136	-0.270	-0.339
-295.705	4.936	0.161	-0.117
-294.691	371.059	0.063	0.127
-293.676	-0.267	-0.056	0.040
-292.662	138.634	-0.042	-0.054
-291.647	104.210	0.100	0.117
-290.632	694.596	0.132	0.345
-289.618	63.242	-0.155	-0.154
-288.603	-120.354	-0.069	0.012
-287.589	396.811	-0.078	-0.163
-286.574	800.000	0.042	-0.143
-285.559	-135.233	-0.009	-0.001
-284.545	76.560	-0.236	-0.248
-283.530	-144.476	0.266	0.024
-282.516	-116.747	-0.225	0.041
-281.501	-62.425	-0.229	-0.094
-280.486	800.000	-0.128	0.460
-279.472	800.000	-0.082	-0.257
-278.457	-135.914	0.052	-0.006
-277.443	-70.331	-0.157	0.059
-276.428	-112.095	0.223	-0.045
-275.413	-164.622	0.084	-0.004
-274.399	-47.643	0.210	-0.101
-273.384	-31.240	-0.089	-0.050
-272.370	128.152	-0.065	-0.082
-271.355	143.538	0.150	0.198
-270.340	-200.000	-0.034	-0.190
-269.326	-51.351	-0.123	-0.057
-268.311	800.000	0.025	0.087
-267.297	-200.000	0.000	-0.272
-266.282	55.632	-0.334	-0.321
-265.267	-11.660	0.129	0.084
-264.253	439.574	-0.154	0.334
-263.238	-129.598	-0.201	0.028
-262.224	24.279	-0.286	0.235
-261.209	800.000	0.054	-0.202
-260.195	800.000	0.072	-0.249
-259.180	287.339	-0.091	0.164
-258.165	-200.000	0.043	0.206
-257.151	327.315	-0.212	-0.404
-256.136	320.374	-0.069	-0.129
-255.122	-50.220	-0.331	0.155
-254.107	38.242	0.122	0.108
-253.092	456.084	-0.061	0.133
-252.078	64.481	0.090	0.090
-251.063	84.591	-0.114	0.124
-250.049	800.000	-0.055	-0.236
-249.034	-200.000	0.026	0.240
-248.019	-61.854	0.151	0.063
-247.005	800.000	-0.106	-0.355
-245.990	43.161	0.074	-0.067
-244.976	49.138	-0.220	0.205
-243.961	-73.569	-0.220	0.080
-242.946	89.533	0.114	-0.126
-241.932	-200.000	-0.012	-0.103
-240.917	-12.710	-0.087	-0.056
-239.903	26.414	0.073	0.061
-238.888	147.084	0.117	0.156
-237.873	-125.612	0.523	-0.079
-236.859	270.359	0.071	0.124
-235.844	-88.699	0.019	0.006
-234.830	42.272	0.144	0.130
-233.815	44.296	-0.052	-0.048
-232.800	-119.962	0.123	0.021
-231.786	-200.000	-0.059	0.359
-230.771	-162.812	0.228	-0.011
-229.757	-55.846	-0.270	0.119
-228.742	-125.687	0.283	0.042
-227.727	-200.000	-0.044	-0.303
-226.713	-138.878	-0.337	0.036
-225.698	-55.351	-0.054	0.024
-224.684	800.000	0.051	-0.155
-223.669	452.560	0.058	0.127
-222.655	402.153	-0.126	0.263
-221.640	-200.000	0.025	0.318
-220.625	-200.000	-0.006	0.116
-219.611	800.000	0.040	0.118
-218.596	149.453	-0.129	0.174
-217.582	-200.000	-0.048	0.336
-216.567	800.000	0.055	0.155
-215.552	160.368	0.096	-0.132
-214.538	-29.233	-0.248	-0.141
-213.523	359.358	0.141	0.279
-212.509	188.598	-0.120	-0.178
-211.494	790.525	0.105	-0.286
-210.479	-67.329	0.051	0.020
-209.465	-124.308	-0.449	0.069
-208.450	-17.679	-0.096	-0.060
-207.436	-200.000	0.025	-0.131
-206.421	-200.000	0.038	-0.170
-205.406	688.800	0.083	0.215
-204.392	126.505	-0.144	-0.181
-203.377	800.000	-0.058	0.203
-202.363	255.848	0.089	-0.151
-201.348	708.700	0.027	0.071
-200.333	4.485	-0.229	-0.166
-199.319	-20.053	0.142	0.086
-198.304	800.000	0.091	0.281
-197.290	-200.000	-0.035	0.269
-196.275	146.580	-0.169	0.224
-195.260	777.310	-0.104	0.282
-194.246	-200.000	0.018	0.093
-193.231	6.189	-0.191	-0.140
-192.217	800.000	0.092	0.293
-191.202	71.696	-0.227	0.233
-190.187	800.000	0.072	0.214
-189.173	551.003	-0.128	-0.304
-188.158	800.000	-0.061	-0.180
-187.144	-132.377	0.129	-0.016
-186.129	722.897	0.048	0.127
-185.114	-200.000	0.063	0.410
-184.100	747.469	0.097	0.259
-183.085	800.000	0.069	-0.211
-182.071	-81.561	0.184	0.060
-181.056	-103.279	0.128	0.030
-180.042	800.000	0.074	0.287
-179.027	548.970	0.069	0.163
-178.012	-200.000	0.010	-0.184
-176.998	-186.555	0.328	0.005
-175.983	-6.971	0.034	0.023
-174.969	123.941	0.098	0.122
-173.954	98.697	0.088	-0.100
-172.939	-101.802	-0.126	-0.030
-171.925	353.302	-0.210	-0.412
-170.910	-146.542	0.470	0.040
-169.896	-200.000	0.005	0.372
-168.881	800.000	-0.040	-0.109
-167.866	-200.000	0.070	0.323
-166.852	-37.230	0.050	-0.027
-165.837	-146.021	-0.145	0.013
-164.823	-186.955	0.121	0.002
-163.808	89.881	0.280	-0.309
-162.793	-178.857	0.239	0.005
-161.779	-200.000	0.040	0.183
-160.764	-73.085	-0.186	0.067
-159.750	-74.849	0.294	-0.104
-158.735	619.271	0.119	0.295
-157.720	321.794	0.092	-0.173
-156.706	-200.000	0.047	-0.355
-155.691	120.730	0.094	0.115
-154.677	-65.794	-0.226	-0.089
-153.662	209.247	0.167	0.259
-152.647	-200.000	-0.009	-0.433
-151.633	-171.849	0.328	-0.011
-150.618	-150.533	-0.174	-0.013
-149.604	-134.669	0.240	0.029
-148.589	-3.596	0.290	0.199
-147.574	-40.113	-0.110	-0.057
-146.560	121.487	-0.070	-0.086
-145.545	-50.660	0.251	-0.117
-144.531	-78.870	-0.214	-0.072
-143.516	40.904	0.095	-0.085
-142.502	-144.843	-0.234	-0.021
-141.487	-200.000	-0.016	-0.126
-140.472	-200.000	-0.054	0.362
-139.458	-23.100	-0.250	-0.149
-138.443	217.663	-0.144	-0.227
-137.429	122.563	0.125	0.155
-136.414	116.003	-0.108	0.131
-135.399	-115.712	0.272	0.050
-134.385	91.997	0.159	0.177
-133.370	-28.799	0.147	0.083
-132.356	-112.784	-0.248	-0.049
-131.341	-200.000	0.023	-0.237
-130.326	92.095	0.195	-0.216
-129.312	399.017	-0.063	-0.131
-128.297	74.698	0.090	-0.094
-127.283	-131.736	0.091	0.012
-126.268	205.606	-0.223	-0.342
-125.253	-48.720	0.170	-0.080
-124.239	24.920	-0.074	0.061
-123.224	-59.208	-0.261	-0.111
-122.210	501.395	0.055	-0.125
