DTS Sentinel unit serial number:	SN413079Multiplexer serial number:	ORYXHardware model number:	OX4-SRSoftware version number:	ORYX F/W v4.00 Oryx Data Collector v3.7.2.0data status	okinstallation	princeton_trtdifferential loss correction	single-endedforward channel	channel 3reverse channel	N/Adate	2019/09/17time	02:44:34forward acquisition time	60.00reverse acquisition time	0.00gamma	496.2192k internal	0.2323k external	0.2323temperature offset calibration	0.9942default loss term (dB/km)	0.3790temperature slope calibration	1.0000multiplexer offset coefficient	1.0000multiplexer slope coefficient	1.0000fibre end	0.00T internal ref (°C)	29.87T ext. ref 1 (°C)	0.13T ext. ref 2 (°C)	24.87length (m)	temperature (°C)	Stokes	anti-Stokes-747.200	-55.916	0.235	0.106
-746.185	222.399	-0.183	0.297
-745.171	800.000	0.051	0.170
-744.156	-37.942	-0.263	0.141
-743.142	474.608	0.096	0.218
-742.127	-200.000	0.008	-0.063
-741.112	260.629	-0.068	-0.119
-740.098	66.806	-0.239	0.245
-739.083	-36.044	-0.251	0.137
-738.069	32.469	0.043	0.037
-737.054	-114.877	0.163	-0.031
-736.039	27.271	-0.229	0.194
-735.025	-87.234	0.140	0.043
-734.010	350.367	0.130	0.260
-732.996	-31.695	-0.354	-0.201
-731.981	122.497	-0.062	-0.079
-730.966	-123.440	-0.227	0.036
-729.952	8.703	-0.303	-0.230
-728.937	-200.000	-0.019	0.199
-727.923	74.368	0.050	0.053
-726.908	-76.312	0.288	-0.102
-725.894	-61.646	-0.236	0.100
-724.879	103.793	0.057	0.067
-723.864	-6.515	-0.172	0.118
-722.850	-25.565	0.260	0.155
-721.835	-200.000	0.024	0.250
-720.821	-200.000	0.021	-0.104
-719.806	-115.164	-0.072	-0.014
-718.791	-141.734	-0.108	0.011
-717.777	-111.362	-0.231	0.048
-716.762	112.287	-0.196	0.239
-715.748	-166.937	-0.091	0.004
-714.733	-44.843	-0.263	0.132
-713.718	-119.542	-0.301	-0.053
-712.704	4.092	-0.174	-0.128
-711.689	-105.556	-0.212	0.049
-710.675	-49.555	-0.201	-0.097
-709.660	65.559	0.237	-0.242
-708.645	-200.000	0.013	-0.078
-707.631	298.568	-0.147	-0.273
-706.616	-88.008	0.114	0.035
-705.602	21.951	-0.048	-0.040
-704.587	-33.131	0.330	0.184
-703.572	-200.000	0.002	-0.043
-702.558	294.566	-0.161	0.296
-701.543	-103.386	-0.037	0.009
-700.529	-15.235	0.039	0.025
-699.514	-157.001	0.124	0.008
-698.499	-94.230	-0.182	0.050
-697.485	-200.000	0.006	0.027
-696.470	2.794	0.257	0.188
-695.456	-127.323	-0.149	-0.022
-694.441	1.691	-0.221	-0.161
-693.426	-96.627	0.156	-0.041
-692.412	163.017	-0.164	0.232
-691.397	170.783	0.079	-0.115
-690.383	800.000	-0.044	0.149
-689.368	800.000	-0.055	0.231
-688.354	-148.501	-0.314	-0.026
-687.339	-49.206	0.055	-0.027
-686.324	-146.696	0.246	0.021
-685.310	115.267	0.059	0.073
-684.295	9.458	-0.576	0.439
-683.281	-3.084	-0.173	0.122
-682.266	-25.100	-0.336	0.200
-681.251	-50.702	-0.058	0.027
-680.237	800.000	0.042	-0.141
-679.222	-200.000	0.053	0.256
-678.208	-200.000	-0.007	-0.156
-677.193	-51.901	-0.341	0.160
-676.178	-41.544	-0.212	0.110
-675.164	204.870	0.037	-0.057
-674.149	519.929	-0.142	-0.334
-673.135	336.079	-0.145	-0.282
-672.120	800.000	0.048	-0.176
-671.105	-10.148	-0.084	0.056
-670.091	-138.626	-0.253	-0.028
-669.076	733.961	-0.015	0.039
-668.062	800.000	-0.031	-0.107
-667.047	15.404	-0.152	0.120
-666.032	19.778	-0.315	0.256
-665.018	265.826	-0.095	0.166
-664.003	62.130	-0.111	-0.111
-662.989	-44.760	0.321	0.161
-661.974	-200.000	-0.033	0.223
-660.959	21.798	0.055	0.045
-659.945	37.473	-0.073	0.065
-658.930	109.026	-0.104	0.125
-657.916	52.471	-0.162	-0.156
-656.901	-142.708	0.141	0.014
-655.886	169.820	0.128	0.184
-654.872	-89.884	0.354	0.104
-653.857	-131.647	0.146	-0.019
-652.843	254.332	-0.227	-0.391
-651.828	-200.000	0.014	0.194
-650.814	-200.000	0.045	-0.373
-649.799	-85.802	-0.157	0.049
-648.784	700.649	-0.091	-0.242
-647.770	-200.000	-0.010	0.052
-646.755	70.920	-0.104	0.109
-645.741	142.444	0.060	0.080
-644.726	800.000	-0.101	0.284
-643.711	800.000	-0.096	-0.283
-642.697	-200.000	-0.064	-0.337
-641.682	-92.442	-0.305	-0.086
-640.668	-124.319	0.263	-0.041
-639.653	-90.384	-0.300	-0.087
-638.638	-131.582	0.198	0.026
-637.624	1.198	-0.239	-0.173
-636.609	800.000	0.048	-0.181
-635.595	-121.422	0.086	0.014
-634.580	800.000	0.078	0.227
-633.565	-200.000	-0.037	0.259
-632.551	83.687	-0.181	0.198
-631.536	-13.714	0.282	0.184
-630.522	-16.473	-0.253	-0.161
-629.507	185.421	0.082	-0.123
-628.492	590.584	-0.039	-0.097
-627.478	-104.455	0.173	0.040
-626.463	141.047	-0.072	0.096
-625.449	120.758	0.194	-0.242
-624.434	-90.761	-0.315	-0.091
-623.419	111.032	0.084	-0.102
-622.405	307.035	-0.055	0.103
-621.390	-200.000	-0.003	0.207
-620.376	618.630	-0.103	-0.260
-619.361	299.567	-0.100	-0.185
-618.346	-200.000	-0.010	0.294
-617.332	144.839	0.170	0.228
-616.317	-32.124	-0.324	0.182
-615.303	32.028	0.204	-0.177
-614.288	232.572	-0.045	-0.074
-613.273	-33.622	-0.202	-0.112
-612.259	800.000	-0.128	-0.357
-611.244	517.766	0.049	-0.115
-610.230	237.548	-0.052	0.087
-609.215	156.305	-0.139	-0.192
-608.201	800.000	-0.110	0.313
-607.186	-200.000	0.039	-0.331
-606.171	-200.000	-0.014	-0.207
-605.157	-24.790	-0.178	0.106
-604.142	-107.640	-0.112	-0.025
-603.128	26.850	-0.148	0.124
-602.113	406.517	0.099	0.209
-601.098	110.820	-0.229	-0.276
-600.084	-46.653	-0.149	0.073
-599.069	-86.755	0.388	-0.119
-598.055	-49.193	0.088	-0.042
-597.040	-18.044	0.108	-0.068
-596.025	-13.760	-0.342	-0.222
-595.011	83.675	-0.152	-0.166
-593.996	-19.493	0.072	0.045
-592.982	-55.032	0.263	-0.119
-591.967	323.709	0.116	-0.223
-590.952	64.900	0.197	-0.200
-589.938	-10.141	0.149	0.100
-588.923	742.769	-0.060	0.161
-587.909	17.355	0.121	0.096
-586.894	-177.182	0.141	0.004
-585.879	800.000	-0.073	-0.256
-584.865	-200.000	-0.043	-0.213
-583.850	-154.017	-0.466	-0.032
-582.836	64.825	0.012	0.012
-581.821	47.457	-0.200	0.187
-580.806	-31.774	0.285	-0.161
-579.792	-148.520	-0.298	-0.024
-578.777	72.591	0.124	-0.129
-577.763	800.000	0.128	0.390
-576.748	-159.587	0.156	0.009
-575.733	-180.769	-0.143	-0.003
-574.719	-88.013	-0.138	0.041
-573.704	800.000	0.028	-0.097
-572.690	759.364	-0.084	0.229
-571.675	-57.354	-0.214	0.095
-570.661	-150.025	0.079	0.006
-569.646	-200.000	0.018	0.099
-568.631	156.999	-0.052	-0.072
-567.617	800.000	-0.152	-0.436
-566.602	88.294	-0.056	-0.063
-565.588	-49.227	-0.287	0.138
-564.573	-200.000	0.023	0.109
-563.558	154.030	0.084	0.115
-562.544	17.987	-0.205	0.164
-561.529	-80.812	-0.412	-0.137
-560.515	800.000	-0.038	-0.110
-559.500	-72.555	0.115	-0.043
-558.485	800.000	-0.042	-0.135
-557.471	85.409	-0.163	-0.180
-556.456	-49.338	-0.267	0.128
-555.442	-200.000	-0.043	-0.231
-554.427	800.000	-0.058	-0.246
-553.412	-110.304	0.250	-0.052
-552.398	-135.181	-0.457	-0.055
-551.383	379.379	-0.042	-0.087
-550.369	-200.000	0.001	0.137
-549.354	72.448	0.115	-0.120
-548.339	-200.000	-0.051	0.464
-547.325	-103.184	-0.095	0.022
-546.310	-114.075	-0.068	-0.013
-545.296	-23.984	0.210	0.126
-544.281	6.689	-0.093	-0.069
-543.266	-114.070	-0.246	0.048
-542.252	-92.432	0.473	-0.133
-541.237	-157.093	0.298	-0.018
-540.223	-65.730	0.275	-0.111
-539.208	-150.969	0.143	-0.011
-538.193	35.845	-0.276	-0.243
-537.179	-157.719	0.079	-0.005
-536.164	784.099	0.130	0.356
-535.150	-200.000	-0.006	-0.321
-534.135	685.735	-0.052	-0.136
-533.121	140.613	0.063	-0.083
-532.106	381.221	-0.052	-0.108
-531.091	-1.950	0.101	-0.071
-530.077	12.516	0.158	-0.122
-529.062	154.007	-0.108	-0.148
-528.048	-135.177	0.162	0.020
-527.033	-200.000	0.020	0.293
-526.018	-200.000	-0.026	-0.214
-525.004	-200.000	0.051	-0.279
-523.989	-51.870	-0.176	0.082
-522.975	-14.657	0.265	-0.170
-521.960	-138.925	-0.313	-0.034
-520.945	800.000	0.065	-0.216
-519.931	800.000	0.043	0.122
-518.916	800.000	0.005	0.017
-517.902	800.000	-0.052	0.176
-516.887	125.768	0.031	-0.039
-515.872	800.000	-0.055	0.160
-514.858	99.276	-0.234	0.271
-513.843	-33.497	-0.245	-0.136
-512.829	373.962	-0.117	0.238
-511.814	141.328	-0.154	-0.204
-510.799	353.123	-0.138	-0.274
-509.785	-200.000	-0.027	-0.232
-508.770	-87.801	0.189	0.057
-507.756	-58.538	0.113	0.049
-506.741	338.516	-0.063	0.123
-505.726	21.938	0.297	-0.242
-504.712	-13.659	0.239	-0.155
-503.697	332.655	0.084	0.163
-502.683	-69.842	-0.458	-0.175
-501.668	-75.653	0.226	-0.080
-500.653	-200.000	0.029	-0.137
-499.639	397.132	-0.115	-0.239
-498.624	-200.000	0.061	0.485
-497.610	-68.602	-0.162	-0.063
-496.595	29.718	0.021	0.018
-495.581	-138.833	0.164	-0.018
-494.566	-2.707	-0.330	-0.231
-493.551	-7.439	0.187	0.127
-492.537	46.224	0.192	-0.178
-491.522	-74.817	0.026	0.009
-490.508	115.753	0.222	0.272
-489.493	9.963	-0.107	-0.081
-488.478	-96.137	-0.253	0.067
-487.464	800.000	0.047	0.134
-486.449	-56.551	0.119	0.053
-485.435	-168.154	0.129	0.005
-484.420	-189.784	-0.217	-0.002
-483.405	-90.837	-0.235	0.068
-482.391	201.956	0.128	-0.197
-481.376	169.057	-0.214	0.306
-480.362	779.973	0.043	-0.118
-479.347	-200.000	0.007	-0.177
-478.332	-61.002	-0.175	-0.074
-477.318	800.000	0.011	0.039
-476.303	-57.290	0.085	0.037
-475.289	-18.389	0.085	-0.053
-474.274	-200.000	0.351	0.000
-473.259	101.613	-0.153	0.178
-472.245	-3.060	0.196	0.136
-471.230	286.776	-0.112	-0.202
-470.216	333.104	-0.319	-0.615
-469.201	-200.000	0.029	0.204
-468.186	31.750	0.264	-0.227
-467.172	44.731	-0.234	-0.215
-466.157	14.867	0.122	-0.095
-465.143	113.867	-0.159	-0.193
-464.128	-138.057	-0.143	0.016
-463.113	141.510	-0.169	0.223
-462.099	-113.751	0.135	-0.026
-461.084	211.583	0.140	-0.220
-460.070	236.021	0.098	0.161
-459.055	232.660	0.113	0.185
-458.040	54.590	0.114	0.110
-457.026	116.376	0.096	-0.117
-456.011	12.568	0.399	0.307
-454.997	275.520	-0.228	0.403
-453.982	800.000	-0.051	-0.202
-452.968	800.000	0.022	0.078
-451.953	1.472	-0.172	0.123
-450.938	111.317	-0.098	-0.118
-449.924	219.461	-0.267	-0.426
-448.909	34.558	0.280	0.244
-447.895	-40.240	0.069	-0.036
-446.880	249.269	-0.090	0.152
-445.865	800.000	0.099	0.277
-444.851	800.000	-0.120	-0.335
-443.836	-200.000	-0.015	-0.159
-442.822	340.138	-0.042	0.082
-441.807	800.000	0.103	-0.375
-440.792	585.055	0.049	-0.120
-439.778	-92.911	-0.356	0.099
-438.763	518.187	0.072	0.168
-437.749	-133.790	0.093	-0.012
-436.734	496.899	0.122	0.281
-435.719	-11.321	-0.069	-0.045
-434.705	-187.565	-0.127	-0.002
-433.690	222.031	-0.111	0.179
-432.676	-200.000	-0.003	-0.198
-431.661	-39.976	0.073	-0.038
-430.646	-21.926	-0.332	-0.201
-429.632	185.297	0.012	-0.018
-428.617	-12.596	0.112	0.073
-427.603	4.319	0.307	0.224
-426.588	-159.688	0.346	0.019
-425.573	-123.414	-0.082	0.013
-424.559	-161.948	-0.133	-0.007
-423.544	169.551	-0.107	0.153
-422.530	-200.000	-0.001	0.083
-421.515	222.802	-0.070	-0.112
-420.500	-200.000	-0.010	0.267
-419.486	-200.000	0.039	-0.197
-418.471	-41.113	0.190	0.098
-417.457	-64.093	0.118	0.048
-416.442	33.546	-0.133	0.115
-415.428	-200.000	-0.031	-0.238
-414.413	800.000	0.047	0.153
-413.398	-200.000	0.007	0.279
-412.384	157.533	0.185	-0.255
-411.369	-64.332	0.225	-0.091
-410.355	149.334	0.086	0.116
-409.340	-27.098	-0.316	0.184
-408.325	800.000	0.049	0.180
-407.311	306.968	0.067	0.124
-406.296	332.314	-0.086	0.165
-405.282	800.000	-0.021	-0.076
-404.267	-200.000	-0.015	0.166
-403.252	-1.625	-0.238	0.167
-402.238	-11.901	-0.158	0.103
-401.223	-89.619	0.252	0.074
-400.209	800.000	-0.020	0.061
-399.194	-200.000	0.022	0.108
-398.179	-200.000	0.016	0.117
-397.165	-200.000	-0.059	-0.275
-396.150	55.861	0.184	-0.177
-395.136	247.769	0.083	-0.139
-394.121	182.639	0.093	0.136
-393.106	-158.074	0.344	-0.020
-392.092	331.712	-0.125	-0.240
-391.077	800.000	0.054	0.183
-390.063	-159.935	0.230	-0.013
-389.048	101.178	0.152	-0.177
-388.033	44.388	-0.128	-0.117
-387.019	-200.000	0.010	0.244
-386.004	416.662	0.044	0.094
-384.990	-35.651	-0.020	0.011
-383.975	52.139	0.140	-0.133
-382.960	-200.000	0.022	0.137
-381.946	511.214	0.050	-0.115
-380.931	431.967	0.088	0.190
-379.917	-10.128	0.271	0.179
-378.902	33.290	-0.167	-0.144
-377.888	-99.659	0.169	-0.042
-376.873	-200.000	-0.033	-0.161
-375.858	-200.000	-0.005	0.232
-374.844	800.000	0.041	0.171
-373.829	-200.000	-0.022	-0.230
-372.815	6.349	-0.262	-0.194
-371.800	800.000	0.032	0.130
-370.785	20.023	-0.074	-0.059
-369.771	-72.400	-0.230	-0.085
-368.756	-119.375	0.441	0.076
-367.742	240.609	-0.198	0.329
-366.727	536.834	0.037	-0.087
-365.712	527.660	0.094	-0.219
-364.698	-37.439	-0.224	0.119
-363.683	-36.638	0.162	-0.087
-362.669	145.219	0.294	0.392
-361.654	728.140	0.082	0.218
-360.639	0.800	0.155	0.110
-359.625	-200.000	0.034	-0.172
-358.610	319.032	-0.013	0.025
-357.596	214.063	-0.105	0.165
-356.581	-59.424	0.160	0.068
-355.566	-200.000	-0.007	-0.123
-354.552	-66.424	-0.122	0.048
-353.537	-200.000	-0.030	-0.303
-352.523	800.000	-0.056	0.198
-351.508	261.105	0.072	-0.123
-350.493	-6.165	-0.504	0.343
-349.479	-54.248	-0.280	0.126
-348.464	67.401	-0.070	-0.071
-347.450	-71.170	0.220	0.082
-346.435	37.705	-0.113	0.100
-345.420	127.864	-0.105	0.132
-344.406	108.947	0.189	-0.225
-343.391	268.040	-0.039	-0.067
-342.377	-200.000	0.022	0.100
-341.362	-185.098	0.159	0.002
-340.348	800.000	-0.033	0.096
-339.333	-200.000	-0.004	-0.157
-338.318	112.945	-0.066	0.079
-337.304	-200.000	-0.021	-0.270
-336.289	-25.355	0.347	-0.204
-335.275	116.389	-0.165	0.201
-334.260	248.176	-0.130	-0.219
-333.245	16.808	0.255	0.200
-332.231	778.884	-0.110	0.298
-331.216	-200.000	-0.037	0.344
-330.202	-13.897	-0.160	0.103
-329.187	69.421	-0.124	-0.127
-328.172	-135.050	0.122	0.015
-327.158	-75.952	0.254	0.089
-326.143	-200.000	-0.004	-0.221
-325.129	21.379	-0.152	-0.122
-324.114	-200.000	-0.076	0.346
-323.099	800.000	-0.020	-0.064
-322.085	-132.578	0.185	-0.024
-321.070	-98.811	0.220	-0.056
-320.056	800.000	-0.089	-0.368
-319.041	239.631	0.052	-0.086
-318.026	304.466	-0.070	-0.129
-317.012	159.094	0.064	0.088
-315.997	-200.000	0.062	-0.296
-314.983	-189.217	-0.109	0.001
-313.968	-85.038	-0.135	-0.042
-312.953	-53.723	0.124	-0.056
-311.939	257.958	-0.046	0.078
-310.924	-79.200	0.049	0.016
-309.910	-90.139	0.137	-0.040
-308.895	584.860	0.112	-0.273
-307.880	89.009	0.307	0.339
-306.866	-200.000	0.002	-0.218
-305.851	-146.286	0.287	0.025
-304.837	-200.000	0.006	-0.047
-303.822	-113.499	0.227	0.044
-302.807	55.639	0.093	-0.090
-301.793	152.989	-0.166	-0.225
-300.778	-105.457	-0.246	0.056
-299.764	-118.474	0.219	0.038
-298.749	-17.427	0.066	0.041
-297.735	-94.880	0.279	0.075
-296.720	-75.085	-0.248	-0.088
-295.705	-119.044	0.189	-0.033
-294.691	-89.288	-0.194	0.057
-293.676	676.093	0.027	-0.070
-292.662	-79.683	0.112	0.037
-291.647	79.980	-0.080	-0.086
-290.632	800.000	0.018	0.053
-289.618	-200.000	0.026	0.226
-288.603	-47.564	0.219	-0.105
-287.589	136.192	0.034	0.044
-286.574	800.000	-0.086	-0.269
-285.559	-28.515	0.316	-0.181
-284.545	-8.348	0.085	-0.057
-283.530	-200.000	-0.017	0.291
-282.516	-200.000	0.021	0.283
-281.501	-35.863	0.283	-0.152
-280.486	431.122	-0.098	0.211
-279.472	-86.835	-0.035	0.011
-278.457	-29.279	0.114	-0.065
-277.443	-200.000	0.070	-0.526
-276.428	-13.295	0.406	-0.261
-275.413	275.565	-0.055	0.097
-274.399	257.929	-0.247	0.421
-273.384	585.779	0.042	-0.103
-272.370	10.397	-0.225	0.170
-271.355	231.507	0.167	-0.271
-270.340	-102.500	0.149	0.035
-269.326	-200.000	0.026	0.267
-268.311	-53.213	-0.061	0.028
-267.297	-113.276	0.159	0.031
-266.282	-94.114	-0.094	-0.026
-265.267	-129.309	0.202	-0.028
-264.253	-62.423	-0.124	0.051
-263.238	-56.933	0.349	0.153
-262.224	-37.633	-0.085	0.045
-261.209	-101.673	0.287	-0.069
-260.195	-200.000	0.030	-0.259
-259.180	228.991	0.034	0.055
-258.165	39.904	0.074	0.066
-257.151	81.939	-0.121	0.130
-256.136	-184.194	-0.175	-0.003
-255.122	-14.502	0.229	0.146
-254.107	-168.619	0.243	0.009
-253.092	800.000	-0.022	0.071
-252.078	24.114	0.152	0.124
-251.063	194.735	0.115	0.173
-250.049	-200.000	-0.002	0.183
-249.034	-126.428	-0.475	-0.070
-248.019	-141.200	0.094	0.009
-247.005	-1.625	0.329	0.229
-245.990	786.689	0.044	0.118
-244.976	-200.000	-0.033	-0.323
-243.961	-200.000	0.061	-0.340
-242.946	162.807	0.261	-0.363
-241.932	-200.000	-0.015	0.165
-240.917	92.921	-0.147	0.165
-239.903	-79.884	-0.315	0.105
-238.888	-0.620	0.238	0.167
-237.873	-141.074	0.353	-0.036
-236.859	-49.229	-0.135	0.064
-235.844	-71.627	0.143	-0.053
-234.830	-200.000	0.001	0.210
-233.815	89.673	-0.080	0.088
-232.800	37.798	-0.157	-0.138
-231.786	100.809	-0.072	0.083
-230.771	469.201	-0.095	0.212
-229.757	17.996	0.239	0.188
-228.742	60.164	-0.182	0.178
-227.727	160.846	0.063	0.086
-226.713	120.357	-0.065	0.080
-225.698	186.504	-0.161	0.237
-224.684	-200.000	0.011	-0.284
-223.669	-152.711	-0.052	0.004
-222.655	249.643	0.102	0.171
-221.640	800.000	0.090	-0.290
-220.625	243.406	0.079	-0.131
-219.611	84.884	-0.288	0.313
-218.596	800.000	-0.026	0.106
-217.582	2.453	-0.137	-0.098
-216.567	800.000	-0.057	-0.185
-215.552	-200.000	0.041	-0.355
-214.538	-179.624	-0.225	-0.005
-213.523	268.261	0.116	0.202
-212.509	-126.880	-0.272	0.040
-211.494	-111.256	0.135	0.027
-210.479	57.075	0.190	0.183
-209.465	-185.188	-0.408	-0.006
-208.450	531.134	0.168	-0.394
-207.436	184.373	0.172	-0.251
-206.421	-77.359	-0.262	-0.090
-205.406	49.643	0.186	-0.173
-204.392	800.000	-0.038	-0.106
-203.377	326.316	-0.099	-0.187
-202.363	-64.295	-0.197	-0.079
-201.348	-122.788	-0.080	0.013
-200.333	-97.722	0.209	-0.053
-199.319	-200.000	-0.006	0.352
-198.304	-88.621	-0.273	0.080
-197.290	-150.505	-0.361	-0.027
-196.275	11.337	-0.238	0.180
-195.260	12.877	0.201	-0.153
-194.246	-10.221	-0.109	0.071
-193.231	42.064	0.130	-0.117
-192.217	-58.885	-0.076	-0.032
-191.202	-36.509	-0.051	0.027
-190.187	-54.928	0.096	-0.043
-189.173	800.000	0.072	-0.246
-188.158	506.981	-0.019	0.043
-187.144	-106.139	-0.152	0.034
-186.129	800.000	-0.034	-0.128
-185.114	-0.552	0.149	-0.104
-184.100	-67.329	0.151	-0.059
-183.085	-10.691	-0.148	0.097
-182.071	-106.804	0.324	0.071
-181.056	-200.000	-0.022	0.162
-180.042	-143.386	0.189	0.018
-179.027	-59.927	-0.208	0.088
-178.012	257.820	0.117	-0.199
-176.998	557.824	0.072	0.173
-175.983	-47.138	-0.078	-0.038
-174.969	-158.782	-0.229	-0.013
-173.954	-200.000	-0.008	0.056
-172.939	-64.257	0.268	0.108
-171.925	-200.000	-0.025	0.263
-170.910	308.594	-0.085	-0.156
-169.896	541.992	-0.047	-0.112
-168.881	-132.425	-0.354	0.045
-167.866	-13.810	0.055	-0.035
-166.852	-74.017	0.097	0.035
-165.837	-89.857	-0.220	0.063
-164.823	-200.000	-0.007	0.264
-163.808	-17.996	-0.159	0.098
-162.793	136.847	0.309	0.398
-161.779	79.863	-0.212	0.225
-160.764	-200.000	-0.026	0.222
-159.750	377.593	-0.214	0.431
-158.735	-5.993	0.119	0.080
-157.720	800.000	0.054	0.169
-156.706	86.226	-0.084	0.091
-155.691	243.166	0.057	0.093
-154.677	-110.672	0.225	0.046
-153.662	800.000	0.048	0.164
-152.647	142.626	-0.190	-0.249
-151.633	33.557	-0.117	-0.100
-150.618	-71.697	0.174	0.064
-149.604	698.388	0.092	0.238
-148.589	800.000	0.057	0.168
-147.574	-105.004	-0.323	0.073
-146.560	-200.000	-0.018	0.110
-145.545	-33.533	0.222	-0.121
-144.531	-200.000	0.004	-0.136
-143.516	800.000	0.088	0.265
-142.502	27.008	-0.097	-0.080
-141.487	25.003	0.150	-0.123
-140.472	800.000	0.046	-0.176
-139.458	405.704	-0.053	0.110
-138.443	153.824	0.263	-0.355
-137.429	79.453	0.137	0.145
-136.414	425.775	0.143	0.303
-135.399	-47.569	0.439	0.210
-134.385	-105.945	0.037	0.008
-133.370	-51.914	-0.231	-0.106
-132.356	-200.000	0.022	-0.150
-131.341	-84.925	0.384	0.119
-130.326	83.145	-0.037	-0.039
-129.312	-200.000	0.013	-0.311
-128.297	-176.839	-0.194	0.005
-127.283	78.218	-0.097	-0.102
-126.268	-72.752	-0.376	-0.136
-125.253	-51.947	0.106	0.048
-124.239	377.949	-0.097	0.196
-123.224	-37.207	0.107	-0.056
-122.210	-200.000	0.036	-0.243
-121.195	-18.343	0.045	0.028
-120.180	-14.712	-0.048	0.030
