DTS Sentinel unit serial number:	SN413079Multiplexer serial number:	ORYXHardware model number:	OX4-SRSoftware version number:	ORYX F/W v4.00 Oryx Data Collector v3.7.2.0data status	okinstallation	princeton_trtdifferential loss correction	single-endedforward channel	channel 3reverse channel	N/Adate	2019/09/13time	20:44:35forward acquisition time	60.00reverse acquisition time	0.00gamma	496.2192k internal	0.2332k external	0.2332temperature offset calibration	1.0063default loss term (dB/km)	0.3790temperature slope calibration	1.0000multiplexer offset coefficient	1.0000multiplexer slope coefficient	1.0000fibre end	0.00T internal ref (°C)	28.87T ext. ref 1 (°C)	3.20T ext. ref 2 (°C)	23.46length (m)	temperature (°C)	Stokes	anti-Stokes-747.200	110.587	0.057	-0.069
-746.185	154.188	0.330	0.456
-745.171	-2.184	-0.163	0.115
-744.156	-46.197	-0.058	-0.029
-743.142	800.000	0.079	0.222
-742.127	91.013	-0.539	0.608
-741.112	-200.000	-0.088	-0.440
-740.098	314.522	-0.094	0.178
-739.083	-98.919	-0.033	-0.009
-738.069	12.672	-0.069	0.054
-737.054	800.000	0.024	0.094
-736.039	154.004	-0.078	0.107
-735.025	121.618	0.296	0.371
-734.010	-44.574	-0.304	0.153
-732.996	201.380	0.104	0.161
-731.981	70.404	0.132	-0.137
-730.966	70.843	0.136	0.142
-729.952	800.000	0.096	0.275
-728.937	9.974	-0.223	0.171
-727.923	-160.972	-0.161	0.009
-726.908	-89.506	-0.270	-0.080
-725.894	-143.619	-0.181	0.017
-724.879	800.000	-0.077	-0.218
-723.864	-88.503	0.133	-0.040
-722.850	40.054	0.217	0.196
-721.835	78.608	-0.067	-0.072
-720.821	-61.035	-0.278	-0.118
-719.806	-70.774	-0.020	-0.008
-718.791	528.457	0.077	-0.183
-717.777	69.160	-0.230	-0.238
-716.762	-200.000	-0.010	0.185
-715.748	-120.720	0.458	-0.078
-714.733	-60.435	0.258	-0.110
-713.718	140.776	0.210	-0.279
-712.704	193.305	-0.227	-0.345
-711.689	-200.000	0.016	0.090
-710.675	-112.940	-0.168	-0.033
-709.660	800.000	0.066	-0.193
-708.645	134.904	-0.089	-0.116
-707.631	601.095	-0.081	-0.202
-706.616	53.100	-0.297	-0.286
-705.602	331.882	0.142	0.276
-704.587	-121.537	-0.101	0.017
-703.572	-41.085	0.039	0.020
-702.558	800.000	0.024	0.102
-701.543	800.000	-0.032	-0.117
-700.529	800.000	-0.080	-0.244
-699.514	-119.070	-0.111	-0.020
-698.499	800.000	-0.052	-0.176
-697.485	87.827	0.186	0.207
-696.470	244.177	0.083	-0.140
-695.456	211.528	-0.094	0.148
-694.441	-71.842	0.192	-0.072
-693.426	94.206	-0.279	-0.318
-692.412	-89.685	0.184	0.054
-691.397	-90.553	-0.122	0.036
-690.383	-49.544	-0.309	-0.148
-689.368	-200.000	-0.071	-0.427
-688.354	-30.166	0.311	-0.177
-687.339	30.727	0.131	-0.112
-686.324	800.000	-0.112	-0.426
-685.310	-73.850	-0.229	-0.083
-684.295	77.341	-0.100	-0.106
-683.281	800.000	0.033	-0.102
-682.266	-142.863	-0.394	-0.038
-681.251	46.473	0.319	0.297
-680.237	-149.979	-0.143	0.011
-679.222	-50.993	0.251	0.118
-678.208	-15.188	-0.148	-0.095
-677.193	-200.000	0.042	0.315
-676.178	14.827	0.306	0.240
-675.164	-200.000	-0.013	0.068
-674.149	-45.184	0.278	-0.139
-673.135	-80.711	-0.189	-0.063
-672.120	59.903	0.020	0.019
-671.105	-73.453	-0.120	-0.044
-670.091	121.823	0.106	0.132
-669.076	138.772	-0.239	0.315
-668.062	-154.571	-0.101	0.007
-667.047	185.071	-0.152	0.226
-666.032	-88.783	0.183	-0.054
-665.018	-102.689	-0.278	0.067
-664.003	-103.186	0.347	0.082
-662.989	47.016	0.040	-0.038
-661.974	-59.985	-0.230	-0.099
-660.959	160.176	0.303	-0.424
-659.945	235.506	0.079	-0.131
-658.930	-102.782	0.277	-0.066
-657.916	-200.000	0.011	-0.059
-656.901	446.336	0.073	-0.160
-655.886	139.660	0.017	0.022
-654.872	-200.000	-0.003	0.070
-653.857	-126.226	-0.109	-0.016
-652.843	-165.728	-0.280	-0.012
-651.828	-53.320	-0.232	0.107
-650.814	-200.000	0.046	0.000
-649.799	-200.000	0.185	0.000
-648.784	800.000	-0.089	-0.277
-647.770	-139.664	0.208	-0.022
-646.755	30.962	-0.309	-0.265
-645.741	685.938	0.024	-0.062
-644.726	119.295	-0.110	-0.137
-643.711	87.968	-0.191	0.213
-642.697	-200.000	-0.002	-0.090
-641.682	800.000	-0.026	-0.110
-640.668	190.443	0.031	0.046
-639.653	-3.740	-0.224	-0.156
-638.638	-200.000	0.011	0.104
-637.624	-122.905	-0.190	-0.031
-636.609	-39.510	0.188	0.099
-635.595	-139.903	0.222	-0.024
-634.580	237.491	-0.164	0.273
-633.565	-183.326	0.234	-0.004
-632.551	800.000	0.039	0.163
-631.536	231.300	-0.177	0.291
-630.522	800.000	0.064	0.201
-629.507	-200.000	0.018	0.105
-628.492	20.430	-0.078	-0.063
-627.478	132.633	-0.098	0.127
-626.463	-45.461	0.251	-0.124
-625.449	-77.693	0.263	0.091
-624.434	8.895	-0.213	-0.161
-623.419	-67.949	-0.375	0.146
-622.405	-110.669	-0.317	0.066
-621.390	-161.560	-0.074	0.004
-620.376	-200.000	-0.011	-0.312
-619.361	-106.855	-0.348	-0.077
-618.346	-60.393	-0.210	-0.089
-617.332	-118.245	0.075	0.013
-616.317	-200.000	-0.003	0.108
-615.303	-30.726	0.199	-0.112
-614.288	-96.110	0.366	-0.097
-613.273	-200.000	0.016	0.102
-612.259	276.187	0.140	0.249
-611.244	349.482	0.124	0.245
-610.230	721.887	0.118	-0.313
-609.215	8.168	-0.522	-0.392
-608.201	-144.590	-0.375	0.035
-607.186	-3.587	-0.106	-0.074
-606.171	-111.742	-0.359	0.073
-605.157	-1.141	0.258	-0.182
-604.142	-110.380	-0.177	-0.037
-603.128	-200.000	0.006	0.148
-602.113	212.003	-0.096	0.151
-601.098	-3.035	-0.053	0.037
-600.084	-94.329	0.159	0.043
-599.069	398.454	0.157	0.330
-598.055	-105.521	-0.219	0.050
-597.040	141.346	-0.044	-0.058
-596.025	138.870	-0.161	0.211
-595.011	-200.000	0.031	-0.278
-593.996	44.604	-0.077	0.071
-592.982	108.649	0.064	0.076
-591.967	41.764	0.105	0.096
-590.952	-131.117	0.232	0.031
-589.938	-14.889	-0.343	0.220
-588.923	0.066	0.230	0.164
-587.909	-200.000	0.018	0.133
-586.894	-200.000	-0.014	0.172
-585.879	678.551	-0.023	-0.059
-584.865	-200.000	-0.057	-0.308
-583.850	-15.274	0.176	-0.112
-582.836	-120.858	0.051	-0.009
-581.821	407.365	-0.056	-0.118
-580.806	-40.101	-0.195	-0.102
-579.792	-13.023	-0.284	-0.185
-578.777	93.302	0.108	0.122
-577.763	83.166	0.185	0.201
-576.748	605.602	-0.096	-0.238
-575.733	500.118	-0.121	0.280
-574.719	-200.000	-0.027	-0.149
-573.704	-200.000	0.017	-0.370
-572.690	493.353	0.115	-0.264
-571.675	236.080	-0.250	-0.412
-570.661	174.523	0.066	0.096
-569.646	-3.722	-0.164	0.114
-568.631	-121.865	-0.146	0.024
-567.617	-172.824	0.603	0.019
-566.602	304.471	-0.061	-0.113
-565.588	-72.091	-0.488	-0.181
-564.573	336.188	0.162	-0.313
-563.558	-31.360	-0.157	0.088
-562.544	42.240	-0.181	0.164
-561.529	-21.433	0.143	-0.087
-560.515	153.847	-0.034	-0.046
-559.500	-50.128	0.317	-0.150
-558.485	-58.842	0.107	0.046
-557.471	-71.554	0.050	-0.019
-556.456	120.833	0.115	0.142
-555.442	52.663	-0.109	0.104
-554.427	-137.151	0.175	-0.020
-553.412	6.760	0.157	-0.117
-552.398	-15.772	-0.151	-0.096
-551.383	98.542	-0.101	-0.116
-550.369	152.915	-0.003	0.005
-549.354	-3.198	0.201	-0.140
-548.339	-200.000	-0.004	0.292
-547.325	17.096	-0.352	0.279
-546.310	117.398	-0.237	-0.291
-545.296	-75.521	-0.052	-0.018
-544.281	606.541	-0.150	-0.372
-543.266	-29.302	0.263	-0.150
-542.252	46.294	-0.315	0.291
-541.237	-200.000	-0.021	0.167
-540.223	-84.309	0.176	-0.056
-539.208	-200.000	0.015	-0.098
-538.193	220.020	-0.025	0.040
-537.179	337.293	0.182	0.353
-536.164	-159.850	0.327	-0.018
-535.150	-48.389	-0.044	0.021
-534.135	-88.796	0.089	-0.027
-533.121	298.226	0.076	0.140
-532.106	0.699	0.209	-0.149
-531.091	116.320	-0.303	-0.370
-530.077	-200.000	0.035	-0.328
-529.062	-12.617	0.185	0.120
-528.048	-53.266	-0.114	-0.052
-527.033	196.678	0.192	-0.292
-526.018	63.102	0.180	-0.180
-525.004	-9.839	-0.317	-0.210
-523.989	685.935	0.074	-0.193
-522.975	261.710	0.174	-0.301
-521.960	44.537	0.126	0.116
-520.945	-124.953	0.287	-0.044
-519.931	-200.000	0.021	0.150
-518.916	-200.000	-0.021	0.110
-517.902	-133.021	-0.255	-0.032
-516.887	45.943	0.046	-0.043
-515.872	178.262	-0.126	0.183
-514.858	50.965	0.201	0.190
-513.843	0.098	0.101	-0.072
-512.829	-200.000	-0.003	0.276
-511.814	383.315	-0.139	0.285
-510.799	-200.000	0.003	-0.321
-509.785	-200.000	-0.046	0.379
-508.770	25.211	0.038	-0.032
-507.756	-50.457	0.370	-0.174
-506.741	-73.635	-0.567	-0.206
-505.726	552.810	0.085	-0.205
-504.712	-200.000	0.044	-0.252
-503.697	-107.979	-0.236	0.051
-502.683	-200.000	0.025	0.227
-501.668	296.854	0.120	-0.219
-500.653	-100.008	-0.269	-0.067
-499.639	-154.730	-0.113	0.007
-498.624	-23.796	0.158	-0.095
-497.610	272.355	0.031	-0.054
-496.595	-200.000	0.018	-0.203
-495.581	243.697	-0.097	0.162
-494.566	26.953	0.191	-0.160
-493.551	-115.896	0.067	0.012
-492.537	75.100	0.062	-0.065
-491.522	-74.166	0.102	0.037
-490.508	267.538	-0.083	0.144
-489.493	-200.000	-0.018	0.143
-488.478	-21.924	-0.136	-0.082
-487.464	184.847	-0.262	0.386
-486.449	-87.084	-0.415	-0.126
-485.435	180.095	-0.283	-0.413
-484.420	800.000	-0.081	-0.240
-483.405	-101.093	0.170	0.041
-482.391	147.056	-0.235	0.315
-481.376	-63.391	0.176	0.072
-480.362	91.242	-0.261	-0.291
-479.347	-144.717	-0.260	0.024
-478.332	444.036	-0.028	0.062
-477.318	-29.471	-0.110	-0.063
-476.303	-26.356	-0.153	0.090
-475.289	-120.222	-0.189	0.032
-474.274	-177.685	-0.226	-0.005
-473.259	487.808	0.087	0.199
-472.245	253.299	-0.143	0.242
-471.230	-18.207	-0.065	-0.041
-470.216	227.669	0.140	-0.226
-469.201	490.282	0.159	0.361
-468.186	-46.636	-0.240	-0.117
-467.172	321.112	0.160	-0.303
-466.157	74.510	0.073	-0.077
-465.143	-156.301	-0.230	-0.014
-464.128	183.962	-0.037	0.054
-463.113	-200.000	0.062	-0.289
-462.099	-44.827	-0.158	0.079
-461.084	-116.498	0.463	-0.085
-460.070	-167.109	-0.233	0.009
-459.055	-200.000	-0.028	0.213
-458.040	-28.829	0.297	-0.170
-457.026	24.487	0.082	-0.068
-456.011	366.050	0.083	-0.166
-454.997	578.135	0.102	-0.249
-453.982	663.520	0.051	0.132
-452.968	-200.000	-0.015	-0.242
-451.953	-113.958	-0.186	-0.036
-450.938	-158.609	-0.053	0.003
-449.924	366.124	0.050	0.099
-448.909	-73.052	0.119	-0.043
-447.895	411.638	-0.078	0.164
-446.880	84.145	0.183	0.199
-445.865	219.756	0.107	0.170
-444.851	285.164	0.072	-0.128
-443.836	36.969	0.067	0.059
-442.822	800.000	-0.016	-0.044
-441.807	-84.783	0.245	0.077
-440.792	-53.871	-0.123	0.056
-439.778	-200.000	-0.027	0.271
-438.763	257.105	0.070	-0.120
-437.749	-200.000	0.053	0.402
-436.734	-51.519	-0.170	-0.079
-435.719	-52.696	0.194	0.089
-434.705	-82.124	-0.146	0.047
-433.690	-200.000	0.043	-0.229
-432.676	-12.792	0.226	0.146
-431.661	-134.460	-0.171	0.021
-430.646	-35.079	-0.208	0.113
-429.632	510.750	-0.048	0.110
-428.617	21.192	-0.078	-0.063
-427.603	-200.000	-0.028	0.231
-426.588	-134.609	0.221	0.027
-425.573	-102.173	-0.076	-0.018
-424.559	800.000	0.091	0.299
-423.544	800.000	0.013	-0.056
-422.530	287.014	0.131	0.235
-421.515	64.172	0.209	0.209
-420.500	140.772	-0.212	-0.278
-419.486	-139.685	-0.275	-0.029
-418.471	-150.333	-0.230	0.018
-417.457	-16.930	-0.018	-0.011
-416.442	-78.669	0.050	-0.017
-415.428	234.891	-0.090	0.148
-414.413	800.000	-0.106	0.303
-413.398	-200.000	-0.013	0.360
-412.384	-54.038	0.205	0.093
-411.369	-196.287	-0.209	-0.001
-410.355	740.468	0.137	-0.366
-409.340	553.884	0.162	-0.386
-408.325	579.492	-0.082	-0.199
-407.311	-13.089	0.290	0.187
-406.296	-31.228	0.253	0.142
-405.282	3.026	-0.109	0.078
-404.267	-72.160	0.145	0.054
-403.252	-77.838	0.194	-0.066
-402.238	-200.000	-0.013	-0.200
-401.223	633.089	-0.096	-0.241
-400.209	458.233	0.072	0.159
-399.194	731.529	0.042	-0.111
-398.179	-200.000	0.025	-0.136
-397.165	-26.920	0.126	0.073
-396.150	-21.551	0.246	0.149
-395.136	229.709	0.040	-0.065
-394.121	-95.213	0.076	-0.020
-393.106	-68.303	0.107	-0.041
-392.092	-200.000	0.018	-0.278
-391.077	30.917	0.167	0.142
-390.063	267.356	-0.143	-0.248
-389.048	55.729	0.106	0.102
-388.033	800.000	0.058	-0.210
-387.019	-152.959	0.228	0.016
-386.004	-142.708	-0.195	0.019
-384.990	-9.541	0.358	-0.237
-383.975	-200.000	0.038	0.174
-382.960	-50.948	-0.129	0.060
-381.946	-29.508	0.221	-0.125
-380.931	800.000	-0.112	0.402
-379.917	-200.000	0.023	0.274
-378.902	-85.682	0.070	0.021
-377.888	286.577	0.108	0.194
-376.873	-171.732	-0.354	-0.012
-375.858	-151.520	0.522	0.038
-374.844	-36.541	-0.106	0.056
-373.829	-200.000	0.032	0.388
-372.815	324.069	-0.119	0.225
-371.800	-65.899	-0.229	0.091
-370.785	-87.273	0.348	-0.105
-369.771	556.068	0.014	0.034
-368.756	-52.241	-0.311	-0.143
-367.742	-200.000	-0.022	-0.221
-366.727	185.153	0.058	0.086
-365.712	-20.771	-0.514	-0.313
-364.698	111.715	-0.177	-0.211
-363.683	-200.000	0.041	0.000
-362.669	-118.340	0.105	-0.019
-361.654	800.000	-0.076	-0.328
-360.639	-200.000	-0.015	-0.268
-359.625	-64.168	-0.256	-0.104
-358.610	800.000	0.012	0.034
-357.596	-96.183	0.328	-0.086
-356.581	-74.756	0.320	-0.114
-355.566	-104.740	0.162	0.037
-354.552	-200.000	0.007	0.624
-353.537	57.488	-0.216	0.209
-352.523	-56.733	-0.308	-0.135
-351.508	279.643	0.046	-0.082
-350.493	800.000	0.116	-0.354
-349.479	-27.752	0.168	0.096
-348.464	638.036	-0.189	-0.477
-347.450	-50.318	0.334	-0.156
-346.435	800.000	-0.042	0.150
-345.420	38.971	0.131	0.116
-344.406	800.000	-0.058	0.230
-343.391	5.481	0.138	0.101
-342.377	-114.143	0.267	-0.051
-341.362	68.281	-0.199	-0.202
-340.348	147.872	0.169	0.226
-339.333	-8.858	-0.328	0.218
-338.318	-139.541	-0.320	-0.034
-337.304	800.000	-0.061	0.216
-336.289	-70.420	-0.256	-0.096
-335.275	-11.124	-0.147	0.096
-334.260	-26.973	0.234	0.135
-333.245	-31.509	0.092	0.051
-332.231	50.563	-0.300	-0.281
-331.216	-37.090	0.303	0.160
-330.202	-128.057	-0.230	-0.033
-329.187	178.696	0.189	0.273
-328.172	-200.000	0.055	0.242
-327.158	-30.699	-0.235	-0.131
-326.143	253.763	0.118	0.200
-325.129	-135.396	0.238	0.028
-324.114	-182.788	0.230	-0.004
-323.099	80.094	-0.142	0.151
-322.085	-2.634	0.089	0.062
-321.070	-54.479	-0.112	-0.050
-320.056	-61.183	0.255	-0.106
-319.041	85.553	-0.224	-0.244
-318.026	-24.388	0.270	-0.159
-317.012	-43.064	0.298	0.150
-315.997	-125.199	-0.127	0.019
-314.983	800.000	0.096	0.269
-313.968	180.378	-0.120	-0.175
-312.953	800.000	-0.074	-0.249
-311.939	-139.519	0.105	-0.011
-310.924	-88.562	0.177	0.052
-309.910	-200.000	-0.029	0.129
-308.895	69.152	-0.116	0.118
-307.880	185.412	0.192	0.282
-306.866	-73.748	-0.060	0.022
-305.851	49.505	0.138	-0.128
-304.837	4.785	-0.342	-0.249
-303.822	-69.461	-0.026	-0.010
-302.807	463.852	-0.200	0.441
-301.793	-38.965	0.101	0.052
-300.778	-200.000	-0.024	-0.228
-299.764	-21.764	0.179	0.108
-298.749	800.000	-0.077	-0.230
-297.735	2.172	0.166	-0.119
-296.720	94.871	-0.184	-0.207
-295.705	-200.000	-0.018	-0.103
-294.691	800.000	-0.019	-0.072
-293.676	14.737	-0.094	-0.072
-292.662	-46.765	0.103	-0.050
-291.647	-100.920	0.105	-0.025
-290.632	-2.633	-0.158	0.109
-289.618	-69.947	-0.120	-0.045
-288.603	800.000	0.019	0.061
-287.589	23.616	0.166	-0.135
-286.574	287.223	-0.108	0.193
-285.559	-200.000	-0.090	-0.405
-284.545	-200.000	0.077	-0.411
-283.530	9.495	0.114	-0.086
-282.516	340.674	0.079	-0.152
-281.501	-200.000	-0.036	-0.312
-280.486	800.000	0.045	0.139
-279.472	-65.729	0.429	-0.170
-278.457	174.564	0.159	-0.228
-277.443	16.743	0.071	-0.055
-276.428	85.313	0.076	0.082
-275.413	-147.412	0.242	0.020
-274.399	62.867	0.292	-0.289
-273.384	800.000	0.083	0.265
-272.370	77.431	-0.103	0.108
-271.355	-200.000	0.032	-0.497
-270.340	-26.032	0.212	-0.123
-269.326	-21.068	0.176	0.106
-268.311	800.000	-0.034	-0.125
-267.297	115.877	0.188	-0.227
-266.282	-151.135	-0.285	0.021
-265.267	-200.000	-0.042	0.200
-264.253	-6.013	0.031	-0.021
-263.238	130.792	-0.219	-0.277
-262.224	-9.595	0.017	0.012
-261.209	27.019	-0.193	0.160
-260.195	62.132	-0.113	-0.111
-259.180	174.003	0.160	0.228
-258.165	-104.186	-0.151	-0.035
-257.151	800.000	-0.003	-0.010
-256.136	-126.708	0.028	-0.004
-255.122	175.667	0.154	-0.220
-254.107	-136.174	-0.168	-0.019
-253.092	209.206	-0.114	-0.176
-252.078	3.543	-0.276	0.198
-251.063	-29.099	-0.225	0.127
-250.049	800.000	0.086	-0.302
-249.034	-23.104	0.121	0.072
-248.019	-11.628	0.193	-0.125
-247.005	-200.000	-0.016	0.135
-245.990	17.934	-0.352	0.277
-244.976	-59.723	-0.029	-0.012
-243.961	-86.898	0.050	0.015
-242.946	-163.705	0.123	0.006
-241.932	48.055	0.176	0.162
-240.917	800.000	-0.054	0.174
-239.903	-200.000	-0.001	-0.095
-238.888	248.356	-0.182	0.304
-237.873	407.795	-0.070	0.145
-236.859	800.000	0.063	-0.261
-235.844	-200.000	-0.011	0.336
-234.830	-2.182	0.098	0.068
-233.815	-26.656	-0.152	-0.088
-232.800	243.527	-0.131	-0.217
-231.786	-200.000	0.004	0.247
-230.771	478.379	-0.060	0.133
-229.757	44.727	-0.030	0.027
-228.742	-200.000	-0.027	-0.185
-227.727	434.975	-0.153	0.328
-226.713	742.125	0.197	0.522
-225.698	240.991	0.157	0.259
-224.684	419.194	0.051	0.108
-223.669	-195.998	-0.181	0.001
-222.655	-15.594	0.211	0.133
-221.640	30.977	-0.309	0.261
-220.625	-200.000	0.055	0.248
-219.611	-200.000	0.013	-0.313
-218.596	-101.788	0.350	-0.083
-217.582	-40.126	-0.170	0.087
-216.567	120.155	0.110	0.134
-215.552	-68.717	-0.041	-0.016
-214.538	-18.901	0.139	-0.085
-213.523	-200.000	-0.006	0.297
-212.509	-200.000	-0.053	0.314
-211.494	800.000	0.048	-0.165
-210.479	-139.287	0.339	-0.036
-209.465	800.000	0.066	0.205
-208.450	102.050	0.287	0.331
-207.436	-117.641	0.200	-0.035
-206.421	-137.317	0.315	0.035
-205.406	-200.000	0.000	-0.310
-204.392	206.267	-0.036	-0.055
-203.377	-179.364	-0.222	-0.005
-202.363	38.969	0.087	-0.077
-201.348	-8.598	-0.112	0.074
-200.333	-200.000	-0.054	0.395
-199.319	800.000	0.132	0.549
-198.304	209.682	0.078	0.121
-197.290	-145.560	-0.438	-0.039
-196.275	105.952	-0.189	0.220
-195.260	800.000	0.106	-0.334
-194.246	-9.883	-0.261	-0.171
-193.231	43.637	-0.200	-0.180
-192.217	-200.000	0.004	0.132
-191.202	800.000	0.094	0.328
-190.187	709.716	0.077	0.201
-189.173	-71.924	-0.086	0.031
-188.158	141.708	0.033	-0.043
-187.144	800.000	0.019	0.071
-186.129	-14.220	-0.339	-0.215
-185.114	-20.951	0.080	-0.048
-184.100	371.387	-0.041	0.081
-183.085	-83.677	0.394	-0.124
-182.071	3.231	0.165	0.118
-181.056	177.350	-0.141	-0.202
-180.042	-200.000	-0.053	-0.240
-179.027	320.003	0.077	-0.144
-178.012	-164.932	-0.461	-0.020
-176.998	-137.731	-0.280	0.031
-175.983	-77.810	-0.134	-0.046
-174.969	59.493	-0.058	-0.056
-173.954	50.163	-0.247	-0.230
-172.939	92.396	-0.120	0.133
-171.925	-200.000	0.193	-0.001
-170.910	-31.389	0.213	-0.118
-169.896	-200.000	-0.025	-0.271
-168.881	-57.225	0.079	0.034
-167.866	490.221	0.028	0.064
-166.852	267.170	-0.019	-0.032
-165.837	-62.727	-0.296	0.121
-164.823	800.000	-0.061	0.248
-163.808	-200.000	0.014	0.270
-162.793	-22.885	0.100	0.059
-161.779	35.574	0.074	-0.064
-160.764	361.463	0.097	0.191
-159.750	-24.114	0.152	-0.089
-158.735	185.478	-0.052	-0.076
-157.720	175.993	0.124	-0.178
-156.706	-71.684	0.205	0.075
-155.691	-73.637	0.288	0.103
-154.677	382.424	0.074	-0.149
-153.662	-200.000	0.022	0.210
-152.647	394.143	0.082	-0.168
-151.633	-158.486	-0.228	0.013
-150.618	-200.000	-0.041	-0.320
-149.604	-108.362	-0.151	-0.032
-148.589	-7.291	-0.095	0.063
-147.574	-200.000	0.036	-0.156
-146.560	-135.618	0.414	0.048
-145.545	-99.056	0.231	-0.058
-144.531	174.691	0.111	-0.158
-143.516	-126.983	-0.116	0.017
-142.502	105.694	-0.035	-0.041
-141.487	120.238	-0.132	-0.161
-140.472	-200.000	-0.023	-0.182
-139.458	-200.000	0.033	0.143
-138.443	800.000	0.034	-0.100
-137.429	85.983	0.115	0.124
-136.414	62.793	0.189	-0.186
-135.399	32.400	0.124	0.105
-134.385	158.686	0.169	0.231
-133.370	-145.174	-0.248	-0.022
-132.356	-52.258	0.475	0.216
-131.341	11.667	0.308	0.232
-130.326	-200.000	-0.071	-0.327
-129.312	-51.735	-0.225	-0.103
-128.297	-35.079	-0.134	0.072
-127.283	25.906	0.378	-0.310
-126.268	304.704	0.081	-0.148
-125.253	-125.355	0.316	-0.047
-124.239	315.727	-0.066	-0.123
-123.224	-108.048	0.334	-0.071
-122.210	-200.000	-0.004	-0.040
-121.195	800.000	-0.035	0.140
