DTS Sentinel unit serial number:	SN413079Multiplexer serial number:	ORYXHardware model number:	OX4-SRSoftware version number:	ORYX F/W v4.00 Oryx Data Collector v3.7.2.0data status	okinstallation	princeton_trtdifferential loss correction	single-endedforward channel	channel 3reverse channel	N/Adate	2019/09/16time	21:36:35forward acquisition time	60.00reverse acquisition time	0.00gamma	496.2192k internal	0.2325k external	0.2325temperature offset calibration	0.9934default loss term (dB/km)	0.3790temperature slope calibration	1.0000multiplexer offset coefficient	1.0000multiplexer slope coefficient	1.0000fibre end	0.00T internal ref (°C)	31.37T ext. ref 1 (°C)	0.06T ext. ref 2 (°C)	25.62length (m)	temperature (°C)	Stokes	anti-Stokes-747.200	-33.117	0.099	0.055
-746.185	24.264	-0.209	0.174
-745.171	-97.821	0.146	-0.038
-744.156	35.570	-0.137	0.121
-743.142	646.658	0.113	-0.292
-742.127	-92.814	-0.124	-0.035
-741.112	288.946	-0.037	0.069
-740.098	-86.966	-0.530	0.163
-739.083	-79.052	-0.106	-0.036
-738.069	-200.000	0.013	0.110
-737.054	161.116	-0.136	0.192
-736.039	4.623	-0.258	0.191
-735.025	452.582	0.103	0.230
-734.010	800.000	-0.066	-0.230
-732.996	800.000	-0.106	-0.308
-731.981	-200.000	-0.037	-0.232
-730.966	-61.578	0.147	-0.062
-729.952	-26.026	-0.248	-0.147
-728.937	-187.794	-0.536	-0.007
-727.923	159.865	-0.148	-0.208
-726.908	-110.066	-0.443	-0.093
-725.894	444.573	0.138	-0.306
-724.879	100.926	0.062	-0.073
-723.864	-152.712	-0.300	0.022
-722.850	560.863	0.137	0.335
-721.835	21.747	0.217	0.178
-720.821	167.610	-0.041	0.059
-719.806	-44.893	-0.155	0.078
-718.791	241.529	0.116	0.196
-717.777	38.756	0.328	-0.295
-716.762	71.339	-0.075	-0.079
-715.748	-76.363	-0.209	-0.074
-714.733	-3.101	-0.189	-0.133
-713.718	-200.000	-0.043	-0.349
-712.704	-74.773	0.031	-0.011
-711.689	-200.000	0.045	-0.211
-710.675	-200.000	-0.043	-0.263
-709.660	-200.000	0.002	0.174
-708.645	78.879	0.081	0.087
-707.631	800.000	-0.009	0.034
-706.616	483.644	0.014	-0.033
-705.602	266.667	-0.031	0.054
-704.587	-200.000	0.062	0.302
-703.572	299.721	-0.050	-0.093
-702.558	-21.583	0.105	0.064
-701.543	-200.000	-0.016	0.213
-700.529	800.000	0.062	0.207
-699.514	42.082	0.114	0.104
-698.499	-109.139	-0.540	0.116
-697.485	407.806	-0.145	-0.309
-696.470	-57.649	-0.211	0.093
-695.456	800.000	0.122	-0.497
-694.441	3.126	0.151	0.110
-693.426	174.881	-0.061	0.089
-692.412	-7.649	-0.173	-0.118
-691.397	-200.000	-0.047	-0.270
-690.383	-166.298	-0.247	-0.010
-689.368	800.000	0.018	0.076
-688.354	-89.246	-0.277	-0.082
-687.339	285.464	0.092	-0.166
-686.324	334.611	0.101	0.197
-685.310	25.016	0.125	-0.105
-684.295	-99.765	-0.178	-0.045
-683.281	-98.264	-0.237	-0.061
-682.266	17.418	-0.212	-0.169
-681.251	-62.777	0.175	-0.073
-680.237	-107.974	-0.399	-0.087
-679.222	-200.000	-0.038	-0.265
-678.208	47.559	-0.178	-0.167
-677.193	800.000	-0.065	0.247
-676.178	139.777	0.173	0.229
-675.164	-73.373	-0.277	0.102
-674.149	-43.576	0.239	0.121
-673.135	-96.527	-0.168	0.045
-672.120	800.000	-0.011	0.042
-671.105	-200.000	0.015	-0.130
-670.091	-188.907	-0.312	-0.004
-669.076	59.381	-0.166	-0.165
-668.062	199.941	0.117	-0.181
-667.047	-200.000	-0.001	0.066
-666.032	0.471	0.088	0.063
-665.018	-47.057	-0.095	-0.047
-664.003	-200.000	-0.000	0.126
-662.989	36.588	0.169	-0.150
-661.974	93.021	-0.245	0.278
-660.959	-142.262	-0.321	-0.032
-659.945	256.081	0.086	0.149
-658.930	-103.835	-0.288	-0.068
-657.916	-75.436	0.313	-0.112
-656.901	119.475	-0.034	0.042
-655.886	-28.107	-0.376	0.219
-654.872	-200.000	-0.009	-0.051
-653.857	-200.000	-0.007	0.115
-652.843	25.368	-0.137	-0.115
-651.828	232.597	-0.152	0.252
-650.814	167.162	-0.165	0.236
-649.799	-123.729	0.139	0.022
-648.784	-21.223	0.137	0.084
-647.770	-116.044	-0.170	0.032
-646.755	2.084	0.235	0.171
-645.741	355.278	0.037	0.074
-644.726	503.128	-0.114	0.264
-643.711	800.000	-0.106	0.459
-642.697	-90.121	0.063	0.018
-641.682	-200.000	-0.018	-0.270
-640.668	491.620	0.150	-0.345
-639.653	800.000	0.072	-0.269
-638.638	-127.934	0.326	-0.047
-637.624	-85.953	-0.131	-0.041
-636.609	-163.488	0.093	0.004
-635.595	-200.000	-0.020	0.227
-634.580	-169.238	0.243	0.009
-633.565	-77.414	-0.324	0.113
-632.551	-64.998	0.215	-0.087
-631.536	-53.529	0.179	-0.082
-630.522	-114.231	0.214	0.041
-629.507	-75.102	-0.138	-0.050
-628.492	-74.784	-0.256	0.092
-627.478	-97.729	0.110	-0.029
-626.463	357.817	-0.170	0.340
-625.449	-200.000	-0.087	-0.410
-624.434	-78.329	-0.182	-0.063
-623.419	-14.596	0.263	-0.170
-622.405	112.085	-0.219	-0.266
-621.390	-129.737	0.094	0.013
-620.376	-143.691	-0.208	-0.020
-619.361	-200.000	-0.006	-0.106
-618.346	216.906	-0.200	-0.319
-617.332	-85.758	-0.288	-0.090
-616.317	800.000	-0.040	-0.159
-615.303	271.440	-0.163	-0.289
-614.288	92.547	-0.112	0.127
-613.273	-40.314	0.218	0.114
-612.259	1.055	0.362	-0.261
-611.244	26.209	-0.125	-0.105
-610.230	800.000	0.034	-0.113
-609.215	-91.978	0.075	-0.021
-608.201	29.273	0.087	0.074
-607.186	-81.774	-0.175	-0.058
-606.171	-65.691	0.164	-0.066
-605.157	-105.285	0.396	-0.091
-604.142	-85.434	0.201	-0.063
-603.128	-38.177	0.136	0.073
-602.113	89.834	-0.128	0.144
-601.098	436.932	0.074	-0.161
-600.084	-162.960	0.010	-0.000
-599.069	177.219	-0.099	0.145
-598.055	-200.000	0.030	0.254
-597.040	-87.273	-0.047	-0.014
-596.025	-171.076	-0.136	-0.005
-595.011	-73.945	-0.371	0.135
-593.996	800.000	0.077	-0.326
-592.982	800.000	0.046	0.133
-591.967	165.747	0.217	0.308
-590.952	500.557	0.070	0.163
-589.938	-200.000	0.008	0.150
-588.923	170.505	0.116	-0.167
-587.909	-71.293	0.224	0.084
-586.894	-200.000	-0.032	-0.167
-585.879	-171.300	0.243	-0.008
-584.865	-125.294	0.558	-0.085
-583.850	-0.503	-0.053	0.037
-582.836	-185.159	0.232	0.004
-581.821	-95.180	-0.153	-0.041
-580.806	232.274	0.166	0.273
-579.792	11.121	0.064	-0.049
-578.777	321.525	-0.056	0.107
-577.763	277.406	-0.180	-0.320
-576.748	-32.868	-0.198	-0.110
-575.733	108.393	-0.221	0.264
-574.719	-200.000	0.009	0.379
-573.704	-200.000	-0.036	-0.202
-572.690	-200.000	-0.020	0.211
-571.675	-59.800	0.173	-0.074
-570.661	-102.973	-0.164	-0.039
-569.646	800.000	0.028	-0.089
-568.631	194.575	0.062	0.094
-567.617	33.728	0.240	-0.209
-566.602	-144.999	0.119	0.011
-565.588	216.688	-0.242	-0.386
-564.573	-174.081	-0.079	-0.002
-563.558	-120.145	-0.256	-0.044
-562.544	-187.738	0.275	0.004
-561.529	385.873	-0.087	-0.180
-560.515	486.294	0.059	0.135
-559.500	9.578	0.091	0.069
-558.485	26.242	-0.091	0.076
-557.471	-200.000	0.047	0.334
-556.456	800.000	-0.096	-0.304
-555.442	331.097	-0.027	-0.052
-554.427	97.349	0.098	0.112
-553.412	800.000	-0.074	0.206
-552.398	-137.907	-0.030	-0.003
-551.383	228.606	0.127	0.208
-550.369	276.126	0.114	0.204
-549.354	-200.000	-0.030	0.242
-548.339	-90.364	0.132	0.038
-547.325	148.114	0.254	0.343
-546.310	175.895	-0.073	0.106
-545.296	309.095	0.103	0.193
-544.281	-37.103	-0.168	0.090
-543.266	800.000	0.103	-0.318
-542.252	-55.222	0.236	0.106
-541.237	100.169	-0.245	0.285
-540.223	-112.317	-0.307	0.062
-539.208	-97.341	0.108	0.028
-538.193	30.744	0.249	0.214
-537.179	-200.000	0.003	0.462
-536.164	-200.000	-0.041	0.215
-535.150	-90.967	0.146	-0.042
-534.135	-56.176	-0.010	-0.004
-533.121	-150.262	0.041	-0.003
-532.106	-21.682	0.194	-0.118
-531.091	800.000	-0.220	-0.653
-530.077	41.292	-0.192	0.174
-529.062	70.963	0.185	0.191
-528.048	800.000	-0.079	0.297
-527.033	-147.115	-0.305	0.026
-526.018	323.458	-0.112	-0.213
-525.004	-123.063	0.431	0.069
-523.989	270.029	-0.007	-0.012
-522.975	-59.196	-0.273	-0.118
-521.960	-200.000	-0.053	-0.258
-520.945	41.824	-0.268	0.243
-519.931	54.829	-0.107	0.103
-518.916	800.000	-0.121	-0.494
-517.902	171.298	-0.114	-0.163
-516.887	53.658	0.087	0.083
-515.872	-181.715	0.172	0.003
-514.858	-24.849	-0.227	0.135
-513.843	350.933	0.040	-0.079
-512.829	-133.569	-0.097	0.012
-511.814	-97.185	0.322	0.084
-510.799	-200.000	-0.010	-0.129
-509.785	-131.093	-0.352	-0.047
-508.770	-200.000	0.011	0.183
-507.756	2.706	-0.032	-0.023
-506.741	77.932	0.146	0.155
-505.726	-200.000	0.003	0.266
-504.712	-65.317	0.240	0.097
-503.697	220.414	-0.085	-0.136
-502.683	424.679	0.154	-0.331
-501.668	42.989	0.109	-0.100
-500.653	-112.583	0.208	-0.041
-499.639	-63.332	-0.335	0.138
-498.624	69.627	-0.122	-0.125
-497.610	-200.000	0.022	-0.186
-496.595	437.079	0.193	-0.420
-495.581	-63.057	-0.241	-0.099
-494.566	-39.466	-0.328	0.172
-493.551	-98.052	0.175	0.045
-492.537	-145.177	-0.369	-0.033
-491.522	-109.595	-0.218	0.046
-490.508	118.542	-0.088	0.108
-489.493	-200.000	-0.023	0.416
-488.478	-200.000	0.006	-0.160
-487.464	800.000	-0.058	0.202
-486.449	-66.724	-0.176	0.069
-485.435	-27.529	-0.202	-0.117
-484.420	77.155	0.178	-0.189
-483.405	-122.309	0.351	0.057
-482.391	-63.750	0.238	0.097
-481.376	-1.036	-0.107	-0.076
-480.362	-126.882	-0.228	-0.034
-479.347	-200.000	-0.019	-0.196
-478.332	-56.884	-0.085	-0.038
-477.318	-200.000	0.034	0.207
-476.303	-15.508	0.346	-0.221
-475.289	-45.130	-0.244	0.121
-474.274	800.000	-0.049	-0.156
-473.259	-104.674	0.280	0.064
-472.245	-3.094	0.211	0.147
-471.230	-4.781	0.099	0.068
-470.216	-6.524	-0.120	-0.081
-469.201	-27.274	0.076	-0.044
-468.186	273.354	0.198	0.350
-467.172	80.716	0.142	-0.153
-466.157	239.629	0.079	-0.131
-465.143	-83.873	-0.116	0.037
-464.128	123.810	0.106	-0.133
-463.113	-200.000	0.004	-0.200
-462.099	-200.000	0.012	-0.108
-461.084	800.000	-0.051	0.202
-460.070	-8.330	-0.176	-0.118
-459.055	697.581	0.263	-0.689
-458.040	-129.247	0.013	-0.002
-457.026	-111.001	0.463	0.095
-456.011	-39.869	0.176	-0.092
-454.997	-140.158	-0.312	0.033
-453.982	83.661	-0.202	0.220
-452.968	423.854	0.018	-0.038
-451.953	65.020	0.070	0.071
-450.938	-200.000	0.038	-0.216
-449.924	440.614	-0.124	-0.269
-448.909	-200.000	-0.003	-0.371
-447.895	-24.191	-0.067	0.040
-446.880	278.389	0.178	-0.316
-445.865	85.285	-0.281	-0.308
-444.851	262.695	-0.044	-0.076
-443.836	-61.765	-0.275	0.115
-442.822	28.894	0.325	-0.275
-441.807	800.000	0.121	0.353
-440.792	88.840	-0.264	-0.293
-439.778	-93.392	0.047	-0.013
-438.763	-28.292	-0.060	-0.034
-437.749	-132.016	0.126	0.016
-436.734	-200.000	-0.006	-0.154
-435.719	677.400	-0.081	0.209
-434.705	46.343	-0.202	0.187
-433.690	32.002	-0.181	0.156
-432.676	371.361	-0.044	0.090
-431.661	-123.079	-0.084	0.013
-430.646	-104.086	-0.076	-0.018
-429.632	-65.404	-0.186	0.075
-428.617	-173.904	-0.244	0.007
-427.603	-63.905	-0.228	0.093
-426.588	173.413	0.161	0.231
-425.573	-31.008	-0.263	0.148
-424.559	189.824	-0.154	0.230
-423.544	-200.000	-0.025	0.170
-422.530	-65.621	-0.289	-0.115
-421.515	-200.000	-0.007	-0.133
-420.500	259.771	-0.120	0.206
-419.486	-144.207	0.078	0.007
-418.471	-200.000	-0.038	-0.210
-417.457	175.350	0.226	0.326
-416.442	247.801	-0.076	-0.127
-415.428	75.078	0.107	-0.112
-414.413	65.103	0.245	-0.247
-413.398	-200.000	-0.032	-0.483
-412.384	-113.825	-0.347	0.067
-411.369	-200.000	0.023	-0.152
-410.355	800.000	0.057	-0.246
-409.340	54.135	0.221	0.212
-408.325	60.419	-0.073	0.072
-407.311	-24.878	-0.339	-0.200
-406.296	-138.678	0.164	0.018
-405.282	664.546	0.034	0.089
-404.267	273.698	-0.121	0.213
-403.252	-200.000	0.006	-0.219
-402.238	-7.015	0.281	-0.190
-401.223	800.000	0.085	0.245
-400.209	42.999	0.099	-0.090
-399.194	-36.587	0.145	-0.077
-398.179	38.942	-0.201	-0.179
-397.165	-112.838	-0.209	-0.041
-396.150	244.788	-0.079	0.132
-395.136	39.986	-0.070	0.063
-394.121	177.753	-0.163	0.236
-393.106	-5.863	-0.088	0.060
-392.092	386.957	-0.102	0.210
-391.077	710.084	0.054	-0.143
-390.063	614.754	0.027	-0.067
-389.048	-200.000	-0.014	-0.113
-388.033	-170.377	-0.118	-0.004
-387.019	-98.073	0.283	0.072
-386.004	-186.204	0.434	0.006
-384.990	-200.000	-0.033	0.201
-383.975	39.083	0.150	0.133
-382.960	123.885	-0.176	-0.220
-381.946	-4.183	0.204	0.140
-380.931	144.988	0.074	0.098
-379.917	-155.072	0.131	0.009
-378.902	-13.216	0.111	-0.072
-377.888	-200.000	-0.035	-0.303
-376.873	124.167	-0.245	-0.307
-375.858	-183.718	-0.143	0.002
-374.844	-1.864	-0.170	-0.119
-373.829	-53.075	0.049	-0.023
-372.815	800.000	-0.016	-0.055
-371.800	-137.142	-0.277	0.031
-370.785	-200.000	-0.005	-0.100
-369.771	-200.000	-0.082	0.425
-368.756	-200.000	-0.027	-0.311
-367.742	-200.000	0.033	0.176
-366.727	153.453	0.220	0.299
-365.712	-200.000	-0.064	0.432
-364.698	165.026	0.093	0.130
-363.683	-144.281	0.305	0.028
-362.669	-7.824	0.195	-0.131
-361.654	-200.000	0.000	0.031
-360.639	-44.814	0.409	0.203
-359.625	15.389	-0.184	0.144
-358.610	2.021	-0.415	0.298
-357.596	-119.984	-0.187	0.032
-356.581	216.402	-0.097	0.154
-355.566	-54.252	-0.165	-0.074
-354.552	-200.000	0.033	0.340
-353.537	-35.705	0.184	0.099
-352.523	6.969	0.080	-0.059
-351.508	217.382	-0.045	-0.071
-350.493	351.689	0.080	-0.157
-349.479	-200.000	0.056	0.247
-348.464	355.227	-0.072	-0.143
-347.450	-200.000	0.121	-0.526
-346.435	176.596	0.089	0.129
-345.420	-89.052	-0.135	0.040
-344.406	-200.000	-0.029	0.194
-343.391	-132.373	0.180	0.023
-342.377	-26.692	0.017	-0.010
-341.362	-83.112	-0.255	-0.082
-340.348	-79.594	0.242	-0.081
-339.333	-41.552	0.253	-0.129
-338.318	250.390	0.198	0.335
-337.304	79.200	0.131	0.139
-336.289	24.745	-0.327	0.269
-335.275	-40.260	0.137	0.071
-334.260	-67.459	-0.370	0.144
-333.245	4.211	0.160	0.116
-332.231	-121.740	-0.321	0.053
-331.216	15.586	-0.129	-0.100
-330.202	87.502	-0.082	-0.090
-329.187	25.287	-0.063	0.052
-328.172	112.883	0.203	-0.245
-327.158	-20.752	-0.201	-0.122
-326.143	-77.568	0.090	0.031
-325.129	518.091	-0.055	-0.127
-324.114	-98.608	-0.085	0.022
-323.099	-84.216	0.296	-0.093
-322.085	-66.639	0.153	-0.060
-321.070	311.692	0.090	0.168
-320.056	-64.709	0.334	-0.134
-319.041	-100.098	0.121	-0.030
-318.026	-200.000	-0.062	-0.300
-317.012	800.000	0.052	-0.151
-315.997	-200.000	-0.031	0.222
-314.983	-63.219	0.115	-0.047
-313.968	347.363	0.105	-0.205
-312.953	-200.000	-0.003	0.176
-311.939	-64.985	0.069	0.027
-310.924	-105.356	-0.186	-0.042
-309.910	512.514	-0.100	-0.232
-308.895	-106.721	-0.157	-0.035
-307.880	-200.000	-0.013	0.064
-306.866	-200.000	0.038	0.317
-305.851	393.873	-0.069	0.142
-304.837	-65.808	-0.316	-0.126
-303.822	-42.625	-0.352	-0.178
-302.807	134.600	-0.066	-0.085
-301.793	-60.307	0.163	-0.069
-300.778	20.335	-0.147	-0.118
-299.764	-186.131	0.204	0.003
-298.749	742.267	0.067	0.178
-297.735	194.660	-0.068	-0.102
-296.720	800.000	-0.087	-0.276
-295.705	-200.000	0.048	-0.227
-294.691	-73.397	-0.145	0.052
-293.676	75.300	-0.075	0.078
-292.662	68.952	-0.155	-0.158
-291.647	213.129	-0.130	-0.203
-290.632	87.744	0.090	0.099
-289.618	-60.605	0.240	0.101
-288.603	-124.815	-0.092	0.014
-287.589	-2.710	-0.159	-0.110
-286.574	239.999	0.192	0.317
-285.559	32.650	-0.183	-0.157
-284.545	326.597	0.099	-0.189
-283.530	41.675	-0.272	0.244
-282.516	-200.000	-0.046	0.219
-281.501	800.000	0.086	0.327
-280.486	-33.845	-0.033	0.018
-279.472	-200.000	0.020	-0.397
-278.457	800.000	-0.122	-0.383
-277.443	-10.239	-0.387	0.255
-276.428	55.165	-0.213	-0.204
-275.413	65.869	0.121	0.122
-274.399	-160.949	0.354	0.018
-273.384	-57.476	-0.232	0.101
-272.370	9.333	0.358	-0.268
-271.355	336.153	-0.093	-0.178
-270.340	-64.357	0.294	0.119
-269.326	800.000	-0.092	0.392
-268.311	-62.576	-0.207	0.085
-267.297	-200.000	0.051	0.312
-266.282	164.867	0.134	-0.188
-265.267	3.424	0.282	0.203
-264.253	723.264	0.040	-0.105
-263.238	-50.544	-0.258	-0.120
-262.224	-171.888	-0.337	0.011
-261.209	335.492	0.170	0.326
-260.195	-155.168	0.334	-0.022
-259.180	800.000	-0.050	-0.209
-258.165	-200.000	-0.013	-0.118
-257.151	255.323	0.107	-0.182
-256.136	99.280	0.036	0.041
-255.122	800.000	0.024	-0.068
-254.107	4.764	-0.114	-0.083
-253.092	375.207	0.040	-0.080
-252.078	41.272	0.252	-0.225
-251.063	114.208	-0.216	0.260
-250.049	-75.966	-0.393	-0.138
-249.034	-200.000	-0.009	0.083
-248.019	-27.311	-0.176	-0.102
-247.005	-200.000	-0.001	-0.037
-245.990	85.631	0.180	-0.195
-244.976	143.751	-0.231	-0.304
-243.961	-200.000	-0.010	0.269
-242.946	-200.000	0.015	-0.189
-241.932	139.454	-0.159	-0.207
-240.917	-91.346	-0.125	0.035
-239.903	624.891	0.126	0.315
-238.888	800.000	0.043	0.138
-237.873	-82.780	0.300	-0.096
-236.859	580.334	-0.078	0.189
-235.844	252.016	0.172	0.290
-234.830	56.368	-0.181	0.174
-233.815	-98.936	-0.437	-0.110
-232.800	-200.000	-0.003	0.384
-231.786	431.418	-0.027	-0.058
-230.771	48.671	0.070	0.065
-229.757	-3.294	0.156	0.108
-228.742	800.000	-0.055	-0.152
-227.727	49.338	0.066	-0.061
-226.713	800.000	-0.040	-0.147
-225.698	45.751	-0.086	0.079
-224.684	86.982	0.337	0.368
-223.669	717.178	-0.039	-0.101
-222.655	42.361	0.123	-0.111
-221.640	-200.000	0.009	0.104
-220.625	14.412	-0.190	0.146
-219.611	167.987	0.115	-0.162
-218.596	800.000	-0.066	-0.274
-217.582	-200.000	-0.009	0.122
-216.567	800.000	-0.108	0.324
-215.552	-200.000	0.047	0.209
-214.538	-149.728	0.436	0.034
-213.523	-134.565	0.127	0.015
-212.509	-113.680	0.267	-0.052
-211.494	-65.243	-0.105	0.042
-210.479	333.396	0.015	-0.030
-209.465	738.649	0.136	0.361
-208.450	-51.547	0.234	-0.108
-207.436	-73.002	0.135	-0.049
-206.421	119.173	0.088	-0.107
-205.406	-13.022	0.112	0.072
-204.392	-200.000	0.066	-0.417
-203.377	800.000	0.040	0.160
-202.363	-122.096	-0.229	0.037
-201.348	147.594	0.163	-0.217
-200.333	800.000	0.025	0.106
-199.319	-98.819	-0.092	0.023
-198.304	-150.201	-0.112	0.009
-197.290	800.000	0.014	-0.049
-196.275	-200.000	0.010	-0.156
-195.260	12.137	0.049	0.037
-194.246	800.000	0.160	0.484
-193.231	89.939	-0.147	0.162
-192.217	-94.450	-0.098	0.026
-191.202	800.000	-0.030	0.121
-190.187	49.194	-0.122	0.113
-189.173	89.185	0.090	0.099
-188.158	-22.510	0.378	0.226
-187.144	800.000	-0.056	-0.182
-186.129	92.185	0.057	-0.063
-185.114	190.474	0.091	0.135
-184.100	-85.034	-0.174	-0.054
-183.085	-180.105	-0.353	-0.007
-182.071	800.000	-0.040	0.113
-181.056	-127.928	0.164	-0.023
-180.042	-200.000	0.042	-0.304
-179.027	-64.481	0.105	-0.042
-178.012	-88.877	-0.101	0.030
-176.998	-200.000	-0.050	-0.252
-175.983	38.445	0.306	-0.269
-174.969	704.240	0.051	0.134
-173.954	-114.883	0.180	-0.034
-172.939	800.000	-0.078	0.250
-171.925	-4.278	0.071	0.048
-170.910	388.954	-0.089	-0.182
-169.896	-109.795	0.148	-0.031
-168.881	119.965	0.135	0.165
-167.866	96.234	0.030	-0.034
-166.852	33.260	0.067	-0.057
-165.837	800.000	0.064	-0.203
-164.823	-76.152	-0.139	-0.048
-163.808	-94.889	-0.172	-0.046
-162.793	-125.720	0.175	-0.026
-161.779	24.453	-0.109	-0.089
-160.764	800.000	-0.027	0.099
-159.750	83.361	-0.128	-0.138
-158.735	-126.469	-0.244	0.036
-157.720	-200.000	0.005	0.024
-156.706	-40.243	-0.300	0.154
-155.691	-27.799	0.078	0.045
-154.677	-1.911	-0.136	0.094
-153.662	-154.049	-0.413	-0.028
-152.647	603.169	0.158	-0.388
-151.633	-38.430	0.175	-0.091
-150.618	59.072	-0.276	-0.268
-149.604	-137.394	0.168	-0.019
-148.589	800.000	0.040	0.109
-147.574	800.000	0.049	0.155
-146.560	800.000	0.024	-0.074
-145.545	11.872	0.161	0.122
-144.531	-19.315	0.252	0.154
-143.516	392.963	0.099	-0.203
-142.502	-170.520	0.131	0.005
-141.487	-64.865	0.205	-0.082
-140.472	-103.954	-0.279	0.064
-139.458	-179.221	0.062	-0.001
-138.443	374.575	-0.183	0.367
-137.429	-200.000	0.008	0.347
-136.414	-61.701	0.234	0.097
-135.399	-25.772	-0.040	0.023
-134.385	91.215	-0.195	-0.216
-133.370	26.467	-0.184	-0.151
-132.356	387.424	0.057	-0.117
-131.341	190.858	0.114	-0.169
-130.326	93.173	0.133	-0.148
-129.312	20.642	0.133	-0.106
-128.297	-98.357	-0.200	-0.050
-127.283	412.791	0.089	0.187
-126.268	-200.000	0.015	0.163
-125.253	-116.512	0.166	-0.030
-124.239	-37.483	-0.038	-0.020
-123.224	30.520	-0.149	-0.126
-122.210	800.000	-0.080	0.249
-121.195	529.994	-0.050	-0.117
