DTS Sentinel unit serial number:	SN413079Multiplexer serial number:	ORYXHardware model number:	OX4-SRSoftware version number:	ORYX F/W v4.00 Oryx Data Collector v3.7.2.0data status	okinstallation	princeton_trtdifferential loss correction	single-endedforward channel	channel 3reverse channel	N/Adate	2019/09/10time	18:42:11forward acquisition time	60.00reverse acquisition time	0.00gamma	496.2192k internal	0.2309k external	0.2309temperature offset calibration	0.9913default loss term (dB/km)	0.3790temperature slope calibration	1.0000multiplexer offset coefficient	1.0000multiplexer slope coefficient	1.0000fibre end	0.00T internal ref (°C)	35.34T ext. ref 1 (°C)	-0.39T ext. ref 2 (°C)	27.39length (m)	temperature (°C)	Stokes	anti-Stokes-747.200	381.039	0.030	0.062
-746.185	249.056	-0.183	0.315
-745.171	134.318	0.079	0.104
-744.156	-176.580	-0.398	0.010
-743.142	-182.491	0.494	-0.009
-742.127	-200.000	0.094	0.507
-741.112	-63.934	-0.282	0.117
-740.098	-200.000	-0.015	-0.206
-739.083	102.828	0.149	-0.177
-738.069	-97.469	0.225	-0.060
-737.054	-200.000	0.014	-0.250
-736.039	0.177	-0.233	0.169
-735.025	-200.000	0.013	0.235
-734.010	-200.000	-0.010	-0.344
-732.996	356.352	0.100	-0.203
-731.981	-88.539	-0.249	-0.075
-730.966	89.418	0.080	-0.091
-729.952	-166.564	-0.165	-0.007
-728.937	-140.089	0.493	-0.053
-727.923	32.689	0.137	0.120
-726.908	25.037	-0.167	-0.140
-725.894	800.000	0.080	-0.310
-724.879	-200.000	0.015	0.215
-723.864	800.000	-0.032	-0.115
-722.850	14.840	-0.205	-0.163
-721.835	-93.200	-0.030	0.009
-720.821	-64.125	-0.121	0.050
-719.806	800.000	-0.019	0.082
-718.791	141.102	-0.075	0.101
-717.777	621.604	-0.067	-0.171
-716.762	-200.000	0.051	0.268
-715.748	267.670	0.138	-0.244
-714.733	-122.946	-0.229	-0.037
-713.718	-200.000	-0.014	0.158
-712.704	-108.342	-0.217	-0.048
-711.689	-200.000	-0.081	-0.359
-710.675	-47.950	-0.113	-0.056
-709.660	115.437	0.330	-0.409
-708.645	800.000	0.040	0.138
-707.631	-94.102	0.165	-0.046
-706.616	119.655	-0.084	0.106
-705.602	394.901	0.019	0.041
-704.587	-179.512	0.335	-0.007
-703.572	48.525	0.184	0.175
-702.558	800.000	-0.031	0.102
-701.543	-151.835	0.267	0.020
-700.529	-128.757	0.162	0.023
-699.514	-115.799	0.231	0.044
-698.499	107.612	0.103	-0.125
-697.485	523.448	0.080	0.191
-696.470	-9.317	-0.115	-0.078
-695.456	68.029	0.037	-0.039
-694.441	-200.000	-0.158	-0.000
-693.426	3.803	0.135	-0.100
-692.412	-200.000	-0.016	0.090
-691.397	-119.569	-0.077	-0.014
-690.383	110.606	-0.141	0.172
-689.368	37.567	-0.224	-0.201
-688.354	30.319	-0.072	0.063
-687.339	-69.114	0.433	0.169
-686.324	28.398	-0.147	0.126
-685.310	-200.000	0.013	-0.188
-684.295	-200.000	-0.313	0.001
-683.281	-62.945	-0.186	-0.078
-682.266	-145.262	0.244	0.022
-681.251	241.912	0.093	-0.157
-680.237	-27.791	0.018	-0.011
-679.222	-1.308	-0.140	0.100
-678.208	-45.433	-0.575	0.289
-677.193	2.877	0.306	0.225
-676.178	-41.950	-0.157	0.082
-675.164	-63.162	-0.204	0.085
-674.149	104.680	0.175	-0.209
-673.135	-200.000	-0.017	-0.338
-672.120	-147.962	0.028	-0.002
-671.105	-166.426	0.178	0.008
-670.091	-43.911	0.232	0.118
-669.076	-200.000	-0.032	-0.186
-668.062	-119.663	-0.262	0.046
-667.047	-71.020	-0.224	-0.085
-666.032	645.154	-0.092	-0.239
-665.018	-14.445	-0.270	-0.176
-664.003	411.304	-0.098	0.210
-662.989	800.000	0.043	-0.173
-661.974	-90.586	-0.177	-0.052
-660.959	169.552	-0.232	0.336
-659.945	69.396	0.049	0.051
-658.930	-91.056	-0.033	0.010
-657.916	-63.670	0.061	-0.025
-656.901	75.700	0.048	0.051
-655.886	-200.000	0.012	-0.141
-654.872	-200.000	-0.039	0.309
-653.857	-200.000	0.036	0.414
-652.843	-127.057	-0.122	-0.018
-651.828	-109.796	-0.093	-0.020
-650.814	150.611	0.055	0.076
-649.799	-200.000	0.066	0.382
-648.784	42.193	0.141	-0.130
-647.770	-54.804	-0.188	-0.086
-646.755	-200.000	0.010	-0.142
-645.741	-200.000	-0.007	-0.197
-644.726	-200.000	0.034	-0.212
-643.711	-96.317	0.195	0.052
-642.697	26.401	0.143	-0.121
-641.682	-165.211	-0.292	0.013
-640.668	-200.000	0.107	0.511
-639.653	4.529	-0.029	-0.021
-638.638	-200.000	0.051	-0.280
-637.624	-34.657	-0.250	-0.138
-636.609	19.445	0.108	0.088
-635.595	219.321	-0.062	-0.100
-634.580	-91.891	0.340	-0.098
-633.565	-138.859	0.205	-0.023
-632.551	32.821	0.010	-0.009
-631.536	-123.071	0.244	-0.040
-630.522	70.349	0.188	0.197
-629.507	389.976	-0.026	-0.054
-628.492	-200.000	0.004	-0.026
-627.478	-157.258	-0.187	-0.011
-626.463	-42.135	-0.347	0.180
-625.449	-105.261	-0.102	-0.024
-624.434	124.033	0.156	0.198
-623.419	800.000	0.078	0.303
-622.405	-200.000	-0.026	-0.172
-621.390	-41.178	0.176	-0.092
-620.376	800.000	0.050	0.141
-619.361	106.993	-0.371	0.445
-618.346	-171.664	0.218	-0.007
-617.332	-175.296	0.060	-0.002
-616.317	72.438	-0.082	-0.086
-615.303	464.128	-0.072	0.162
-614.288	-11.394	0.182	-0.121
-613.273	-200.000	-0.021	-0.150
-612.259	-200.000	0.023	-0.269
-611.244	-90.409	-0.100	-0.029
-610.230	-200.000	0.308	0.000
-609.215	38.411	-0.073	-0.066
-608.201	-200.000	0.013	-0.174
-607.186	-200.000	-0.060	-0.279
-606.171	-108.663	-0.029	-0.006
-605.157	-57.198	-0.220	0.098
-604.142	800.000	-0.088	0.293
-603.128	-66.563	0.197	0.079
-602.113	-200.000	0.031	-0.338
-601.098	110.472	-0.147	0.179
-600.084	800.000	0.041	-0.120
-599.069	-106.192	-0.151	0.034
-598.055	-200.000	0.018	0.212
-597.040	-27.825	-0.274	0.161
-596.025	62.831	-0.189	0.191
-595.011	-200.000	-0.036	0.445
-593.996	-81.658	0.158	0.052
-592.982	-200.000	-0.041	-0.247
-591.967	297.609	-0.080	-0.148
-590.952	89.318	0.203	0.229
-589.938	110.008	0.126	0.153
-588.923	28.861	-0.249	-0.213
-587.909	-38.451	0.221	-0.118
-586.894	144.599	-0.072	-0.098
-585.879	0.109	0.307	-0.221
-584.865	-200.000	0.049	-0.319
-583.850	-73.765	0.169	-0.062
-582.836	683.053	-0.076	0.200
-581.821	305.188	-0.156	0.293
-580.806	-200.000	-0.048	0.360
-579.792	-200.000	-0.074	0.423
-578.777	-57.585	-0.215	0.095
-577.763	502.871	0.050	0.117
-576.748	-200.000	0.011	-0.087
-575.733	-200.000	0.010	0.102
-574.719	-200.000	0.034	-0.295
-573.704	800.000	0.051	0.185
-572.690	-200.000	0.018	0.387
-571.675	-125.919	0.235	-0.036
-570.661	-117.709	-0.086	0.016
-569.646	-129.426	-0.227	0.032
-568.631	250.444	0.040	0.069
-567.617	-75.884	-0.083	0.030
-566.602	-149.232	0.359	0.029
-565.588	800.000	-0.081	-0.249
-564.573	175.114	-0.088	-0.129
-563.558	-58.014	0.171	-0.075
-562.544	-150.401	0.258	0.020
-561.529	800.000	0.044	0.188
-560.515	-114.695	-0.109	0.021
-559.500	-136.357	-0.226	0.027
-558.485	746.163	-0.134	-0.364
-557.471	558.780	-0.053	-0.129
-556.456	157.381	-0.133	-0.186
-555.442	-122.873	0.459	-0.075
-554.427	-123.263	0.205	0.033
-553.412	-49.113	-0.073	-0.035
-552.398	733.241	-0.127	-0.343
-551.383	203.477	0.074	-0.115
-550.369	38.771	0.149	0.134
-549.354	50.905	0.062	-0.059
-548.339	-44.627	0.111	-0.056
-547.325	76.057	-0.170	-0.182
-546.310	-65.163	-0.178	0.072
-545.296	-200.000	-0.020	-0.176
-544.281	227.343	-0.257	0.421
-543.266	148.027	0.155	0.211
-542.252	248.815	0.191	0.326
-541.237	800.000	-0.039	0.142
-540.223	-136.715	-0.374	-0.044
-539.208	-118.724	-0.150	-0.027
-538.193	-26.283	0.020	-0.012
-537.179	739.886	-0.095	0.258
-536.164	-98.163	-0.116	-0.030
-535.150	116.120	0.149	0.184
-534.135	-51.066	0.044	0.021
-533.121	-137.875	-0.333	-0.038
-532.106	-93.708	-0.258	0.072
-531.091	-160.049	0.114	-0.006
-530.077	113.729	0.280	-0.342
-529.062	-173.511	-0.235	0.007
-528.048	800.000	-0.131	-0.384
-527.033	566.815	0.055	0.134
-526.018	800.000	0.072	0.291
-525.004	52.385	-0.273	-0.262
-523.989	285.130	0.134	0.244
-522.975	800.000	0.029	0.113
-521.960	44.280	0.084	-0.077
-520.945	26.037	0.221	0.185
-519.931	-200.000	-0.036	-0.285
-518.916	66.345	0.138	-0.141
-517.902	-36.143	0.215	-0.117
-516.887	19.356	0.152	0.123
-515.872	-18.912	-0.054	0.034
-514.858	149.265	0.097	0.132
-513.843	-67.911	-0.249	0.098
-512.829	-135.705	0.138	-0.016
-511.814	-200.000	-0.002	0.156
-510.799	-48.673	-0.197	-0.095
-509.785	800.000	-0.035	-0.103
-508.770	-23.983	0.269	-0.162
-507.756	800.000	-0.175	-0.514
-506.741	3.341	-0.214	-0.157
-505.726	247.317	-0.052	-0.088
-504.712	-200.000	-0.034	-0.154
-503.697	-119.151	0.071	0.012
-502.683	21.153	0.170	0.139
-501.668	-11.619	-0.091	-0.060
-500.653	-81.353	-0.135	-0.045
-499.639	254.362	-0.040	-0.068
-498.624	800.000	-0.028	0.077
-497.610	800.000	0.086	0.242
-496.595	53.988	-0.183	-0.177
-495.581	-200.000	0.018	-0.281
-494.566	-200.000	0.023	-0.343
-493.551	-40.741	0.093	-0.048
-492.537	-68.375	-0.169	-0.066
-491.522	140.860	0.167	0.222
-490.508	-141.975	0.300	0.030
-489.493	-146.113	0.163	-0.014
-488.478	130.656	0.021	0.027
-487.464	-0.349	0.230	0.164
-486.449	339.426	0.053	-0.103
-485.435	-27.475	-0.341	-0.199
-484.420	-200.000	-0.027	0.248
-483.405	123.592	-0.053	0.066
-482.391	-79.038	0.118	0.040
-481.376	-56.835	-0.227	-0.101
-480.362	-200.000	-0.037	-0.218
-479.347	800.000	-0.076	-0.224
-478.332	122.338	0.113	0.141
-477.318	-23.830	0.283	-0.171
-476.303	-200.000	-0.009	-0.317
-475.289	261.288	-0.122	-0.212
-474.274	-20.536	-0.412	-0.254
-473.259	-67.449	0.159	0.063
-472.245	35.434	-0.251	0.222
-471.230	9.480	0.225	0.172
-470.216	-56.202	0.455	0.203
-469.201	172.748	-0.029	0.043
-468.186	-200.000	0.001	-0.316
-467.172	800.000	-0.035	0.107
-466.157	24.269	-0.076	0.063
-465.143	-7.897	0.133	0.090
-464.128	-98.835	0.297	0.076
-463.113	-157.079	0.160	0.010
-462.099	-200.000	0.085	-0.381
-461.084	4.563	-0.224	-0.165
-460.070	6.222	0.130	-0.097
-459.055	-49.881	-0.131	-0.063
-458.040	-3.886	0.112	-0.078
-457.026	-110.275	-0.220	0.046
-456.011	-43.106	-0.102	-0.052
-454.997	-136.265	0.111	0.013
-453.982	-200.000	-0.004	-0.132
-452.968	180.297	-0.120	0.176
-451.953	112.329	-0.117	-0.142
-450.938	-23.651	0.114	0.069
-449.924	246.936	-0.076	0.129
-448.909	-35.015	-0.131	-0.072
-447.895	-189.680	-0.451	-0.005
-446.880	-200.000	-0.032	0.191
-445.865	183.716	-0.046	-0.069
-444.851	650.212	0.052	0.134
-443.836	-142.588	-0.259	0.026
-442.822	67.453	-0.069	0.071
-441.807	-21.428	-0.212	-0.130
-440.792	-200.000	0.033	-0.168
-439.778	-199.100	0.302	-0.002
-438.763	44.451	-0.151	0.139
-437.749	-200.000	-0.145	0.000
-436.734	137.689	0.406	-0.534
-435.719	-200.000	0.021	-0.097
-434.705	-114.960	-0.082	0.016
-433.690	-161.862	0.213	0.011
-432.676	61.443	0.049	-0.049
-431.661	800.000	-0.050	0.143
-430.646	13.960	-0.175	0.137
-429.632	-148.636	0.142	-0.012
-428.617	132.472	0.084	-0.108
-427.603	-126.394	-0.196	0.029
-426.588	220.993	-0.201	-0.324
-425.573	36.920	0.291	-0.258
-424.559	218.542	0.078	0.126
-423.544	-74.242	0.179	0.065
-422.530	-200.000	-0.025	0.131
-421.515	-50.137	-0.055	-0.026
-420.500	-109.323	0.163	0.035
-419.486	-23.766	-0.320	0.192
-418.471	-107.950	-0.250	-0.054
-417.457	63.395	0.207	-0.208
-416.442	190.918	-0.188	-0.283
-415.428	186.609	0.167	-0.249
-414.413	-71.843	0.313	0.117
-413.398	-153.471	0.262	0.018
-412.384	132.909	-0.119	-0.155
-411.369	-111.083	-0.113	0.023
-410.355	-200.000	-0.033	0.230
-409.340	263.018	0.203	0.353
-408.325	-200.000	0.006	-0.053
-407.311	134.400	0.069	-0.090
-406.296	-53.985	-0.135	-0.061
-405.282	110.370	-0.129	0.156
-404.267	-200.000	-0.035	0.327
-403.252	-5.285	0.337	0.232
-402.238	135.757	0.091	-0.119
-401.223	-87.584	0.263	0.080
-400.209	46.131	-0.231	0.214
-399.194	-200.000	-0.011	-0.135
-398.179	-200.000	-0.015	-0.144
-397.165	48.546	0.057	-0.054
-396.150	-200.000	0.004	0.242
-395.136	142.272	0.133	-0.177
-394.121	-48.685	0.248	0.119
-393.106	-151.171	-0.164	0.012
-392.092	203.908	-0.056	0.087
-391.077	800.000	0.041	0.129
-390.063	353.363	-0.162	0.323
-389.048	91.511	-0.035	0.039
-388.033	800.000	-0.034	0.127
-387.019	800.000	-0.087	-0.280
-386.004	-125.111	0.324	0.050
-384.990	-200.000	0.003	-0.318
-383.975	222.013	-0.137	-0.221
-382.960	123.340	-0.111	-0.140
-381.946	20.138	0.178	0.144
-380.931	139.750	0.073	0.096
-379.917	800.000	0.101	-0.351
-378.902	-200.000	0.012	0.217
-377.888	8.042	0.176	0.132
-376.873	-200.000	-0.044	-0.313
-375.858	85.202	-0.241	0.265
-374.844	-116.494	-0.239	0.044
-373.829	-172.355	0.292	0.009
-372.815	-200.000	0.022	-0.105
-371.800	-147.111	0.233	-0.020
-370.785	-98.777	0.440	-0.112
-369.771	-200.000	-0.011	-0.056
-368.756	105.555	-0.040	-0.047
-367.742	-65.297	0.130	-0.053
-366.727	204.928	-0.312	-0.485
-365.712	-116.782	-0.156	0.029
-364.698	-156.038	0.178	-0.011
-363.683	-27.717	-0.252	0.146
-362.669	-176.059	-0.331	-0.009
-361.654	-200.000	0.020	-0.163
-360.639	9.522	-0.097	-0.074
-359.625	-102.262	0.193	-0.046
-358.610	206.894	-0.065	0.102
-357.596	51.913	0.165	-0.158
-356.581	115.035	-0.097	0.118
-355.566	-61.579	-0.301	0.127
-354.552	-200.000	0.002	0.010
-353.537	-15.465	0.178	-0.114
-352.523	47.390	-0.176	0.164
-351.508	-29.035	0.089	0.051
-350.493	800.000	0.098	-0.289
-349.479	-200.000	0.036	-0.242
-348.464	794.066	-0.110	-0.304
-347.450	295.721	-0.062	-0.114
-346.435	-200.000	0.014	0.140
-345.420	-56.522	-0.277	-0.123
-344.406	-200.000	-0.026	0.305
-343.391	256.567	-0.160	-0.275
-342.377	-200.000	-0.013	0.199
-341.362	-120.301	0.245	0.042
-340.348	122.224	-0.055	0.069
-339.333	110.931	0.156	-0.188
-338.318	800.000	-0.086	0.373
-337.304	-123.379	0.213	0.034
-336.289	298.727	0.131	0.240
-335.275	800.000	0.025	0.080
-334.260	-112.906	-0.382	0.076
-333.245	-72.089	0.074	0.027
-332.231	-5.547	0.211	0.145
-331.216	800.000	-0.086	0.374
-330.202	-136.699	0.188	-0.022
-329.187	70.799	0.166	0.172
-328.172	800.000	0.083	-0.297
-327.158	-118.279	0.338	-0.060
-326.143	-82.674	-0.312	-0.101
-325.129	25.106	-0.210	-0.174
-324.114	-105.555	-0.248	0.056
-323.099	-200.000	0.004	0.137
-322.085	568.218	-0.079	0.193
-321.070	796.876	0.043	0.117
-320.056	514.900	-0.081	-0.190
-319.041	-200.000	0.020	-0.142
-318.026	-23.363	0.129	0.077
-317.012	-100.951	0.323	0.079
-315.997	-26.061	-0.403	0.237
-314.983	-85.274	-0.431	0.134
-313.968	-46.658	-0.173	0.084
-312.953	-113.716	-0.136	0.027
-311.939	800.000	-0.099	-0.426
-310.924	-39.897	-0.326	0.170
-309.910	-68.514	-0.158	-0.061
-308.895	-200.000	-0.027	0.191
-307.880	522.563	-0.095	-0.224
-306.866	-39.153	0.171	-0.090
-305.851	-200.000	-0.037	0.389
-304.837	-28.214	-0.076	0.044
-303.822	800.000	-0.049	-0.163
-302.807	-85.971	-0.235	0.073
-301.793	-68.901	0.171	-0.066
-300.778	-144.954	0.148	-0.014
-299.764	79.317	0.110	0.118
-298.749	-200.000	0.028	0.200
-297.735	-200.000	-0.057	0.321
-296.720	-85.336	-0.163	-0.051
-295.705	800.000	0.035	0.131
-294.691	-0.613	-0.131	-0.093
-293.676	-200.000	0.004	0.308
-292.662	-46.297	-0.127	-0.063
-291.647	14.666	-0.133	0.104
-290.632	-121.970	-0.131	-0.022
-289.618	-200.000	-0.001	-0.036
-288.603	-140.959	0.296	-0.030
-287.589	149.685	-0.063	-0.085
-286.574	-13.948	-0.157	-0.101
-285.559	-200.000	0.016	0.128
-284.545	-15.610	-0.237	0.151
-283.530	-97.194	-0.223	-0.058
-282.516	17.829	0.392	-0.311
-281.501	-200.000	-0.008	0.275
-280.486	274.522	0.151	0.266
-279.472	-37.777	0.054	-0.029
-278.457	51.560	-0.030	0.028
-277.443	800.000	0.035	-0.102
-276.428	-122.072	-0.170	0.028
-275.413	-172.786	0.377	-0.012
-274.399	-56.123	-0.135	-0.060
-273.384	-15.274	0.085	-0.054
-272.370	-200.000	-0.009	-0.535
-271.355	64.793	0.195	-0.196
-270.340	-20.246	-0.084	-0.052
-269.326	-159.748	-0.235	0.013
-268.311	661.536	-0.134	-0.343
-267.297	800.000	-0.028	0.106
-266.282	-59.255	0.185	0.080
-265.267	-1.787	-0.135	0.095
-264.253	800.000	-0.064	-0.228
-263.238	119.343	0.145	0.179
-262.224	-200.000	0.026	0.269
-261.209	738.755	0.108	0.289
-260.195	-200.000	-0.034	0.226
-259.180	68.561	-0.136	-0.139
-258.165	333.384	0.179	-0.344
-257.151	-56.771	0.073	-0.032
-256.136	-187.275	0.243	-0.003
-255.122	-74.488	0.119	0.043
-254.107	-10.674	0.171	0.113
-253.092	259.281	0.058	-0.100
-252.078	91.088	0.230	-0.258
-251.063	-200.000	0.060	0.468
-250.049	439.351	-0.197	0.428
-249.034	-153.260	-0.045	0.003
-248.019	800.000	-0.011	0.035
-247.005	-79.756	-0.081	-0.027
-245.990	-66.443	0.240	-0.095
-244.976	-200.000	-0.034	0.338
-243.961	-4.872	0.084	0.058
-242.946	-38.305	-0.342	0.180
-241.932	-48.907	0.297	0.142
-240.917	-40.087	-0.153	0.079
-239.903	-200.000	-0.066	-0.408
-238.888	237.149	0.168	-0.277
-237.873	210.317	-0.191	-0.298
-236.859	193.171	-0.187	0.282
-235.844	27.671	0.139	0.116
-234.830	-59.589	-0.089	-0.038
-233.815	-66.551	0.308	0.122
-232.800	121.990	-0.159	0.198
-231.786	306.166	0.120	0.222
-230.771	-105.529	-0.191	0.043
-229.757	17.358	-0.196	-0.155
-228.742	-200.000	-0.115	-0.517
-227.727	98.926	-0.111	0.127
-226.713	74.072	-0.121	0.126
-225.698	431.901	0.088	0.189
-224.684	9.647	-0.253	0.191
-223.669	100.713	-0.101	0.117
-222.655	-37.355	0.113	-0.060
-221.640	234.437	0.275	-0.452
-220.625	90.789	-0.133	-0.148
-219.611	800.000	-0.082	0.344
-218.596	-43.755	-0.307	-0.154
-217.582	-18.111	0.034	0.021
-216.567	-200.000	0.012	0.109
-215.552	800.000	-0.056	0.180
-214.538	300.600	0.146	0.268
-213.523	-200.000	-0.120	-0.000
-212.509	-182.515	0.260	-0.005
-211.494	314.680	0.334	-0.626
-210.479	-200.000	-0.025	-0.285
-209.465	104.226	0.066	-0.078
-208.450	375.575	0.118	0.240
-207.436	-40.149	-0.119	-0.062
-206.421	-200.000	0.021	0.114
-205.406	-200.000	-0.074	-0.389
-204.392	-200.000	0.015	0.111
-203.377	9.740	0.276	0.208
-202.363	800.000	0.075	-0.241
-201.348	85.088	-0.104	0.114
-200.333	73.293	-0.072	-0.075
-199.319	500.849	-0.065	-0.149
-198.304	417.704	-0.138	0.293
-197.290	-56.996	-0.410	0.180
-196.275	174.536	0.093	-0.134
-195.260	-106.892	0.367	-0.081
-194.246	-200.000	-0.055	0.423
-193.231	-19.264	-0.211	0.130
-192.217	60.429	0.137	-0.135
-191.202	191.280	0.258	0.386
-190.187	258.982	-0.055	0.093
-189.173	-17.309	0.123	-0.077
-188.158	-200.000	-0.019	-0.088
-187.144	-200.000	-0.058	-0.258
-186.129	392.876	0.048	0.099
-185.114	75.943	0.136	0.143
-184.100	-200.000	-0.003	-0.194
-183.085	-84.644	0.101	0.032
-182.071	31.252	0.259	-0.221
-181.056	126.077	-0.083	0.104
-180.042	619.886	0.150	-0.374
-179.027	170.341	-0.151	-0.215
-178.012	324.481	-0.078	-0.149
-176.998	70.463	-0.157	-0.162
-175.983	-200.000	-0.002	0.124
-174.969	-51.755	0.407	-0.188
-173.954	-151.835	-0.051	-0.004
-172.939	589.996	0.084	-0.206
-171.925	78.230	-0.291	-0.309
-170.910	81.290	0.093	0.100
-169.896	650.692	0.283	-0.720
-168.881	629.757	-0.029	0.072
-167.866	-3.355	-0.195	0.135
-166.852	-200.000	0.034	0.350
-165.837	-84.317	-0.061	0.019
-164.823	-200.000	0.013	0.222
-163.808	-63.561	-0.122	0.050
-162.793	-38.949	0.096	0.050
-161.779	800.000	0.096	0.284
-160.764	257.753	0.116	0.197
-159.750	-200.000	0.005	0.302
-158.735	-15.252	0.081	0.051
-157.720	161.083	-0.257	0.357
-156.706	-159.152	0.116	0.007
-155.691	-200.000	-0.019	0.190
-154.677	-98.963	-0.251	0.063
-153.662	-200.000	-0.028	-0.240
-152.647	71.729	-0.093	-0.096
-151.633	-163.834	0.275	-0.013
-150.618	15.606	-0.089	0.069
-149.604	-107.991	0.344	-0.074
-148.589	99.763	0.164	0.188
-147.574	-27.690	0.221	0.127
-146.560	-118.478	0.114	-0.020
-145.545	11.812	0.435	-0.331
-144.531	-92.505	0.123	0.034
-143.516	800.000	0.018	-0.070
-142.502	-99.419	-0.348	-0.087
-141.487	-200.000	0.003	-0.083
-140.472	800.000	0.039	0.162
-139.458	-3.515	-0.154	-0.106
-138.443	215.263	0.228	-0.358
-137.429	-33.632	0.250	-0.137
-136.414	0.320	0.370	0.262
-135.399	-75.600	-0.217	-0.077
-134.385	-200.000	-0.058	0.271
-133.370	800.000	0.070	0.301
-132.356	-88.237	-0.437	-0.130
-131.341	-200.000	0.007	0.232
-130.326	68.917	0.174	0.177
-129.312	225.625	-0.057	0.091
-128.297	-93.413	0.299	-0.082
-127.283	-107.336	0.032	0.007
-126.268	610.119	0.118	0.291
-125.253	65.533	-0.135	-0.135
-124.239	-8.412	-0.093	-0.062
-123.224	-200.000	0.029	-0.333
-122.210	-93.174	-0.303	-0.084
