DTS Sentinel unit serial number:	SN413079Multiplexer serial number:	ORYXHardware model number:	OX4-SRSoftware version number:	ORYX F/W v4.00 Oryx Data Collector v3.7.2.0data status	okinstallation	princeton_trtdifferential loss correction	single-endedforward channel	channel 3reverse channel	N/Adate	2019/09/19time	04:48:34forward acquisition time	60.00reverse acquisition time	0.00gamma	496.2192k internal	0.2348k external	0.2348temperature offset calibration	0.9995default loss term (dB/km)	0.3790temperature slope calibration	1.0000multiplexer offset coefficient	1.0000multiplexer slope coefficient	1.0000fibre end	0.00T internal ref (°C)	19.87T ext. ref 1 (°C)	0.60T ext. ref 2 (°C)	12.90length (m)	temperature (°C)	Stokes	anti-Stokes-747.200	-55.477	0.410	-0.184
-746.185	60.829	-0.126	0.125
-745.171	-200.000	0.033	-0.150
-744.156	13.111	-0.148	0.115
-743.142	-200.000	-0.037	-0.289
-742.127	114.360	0.018	-0.022
-741.112	214.391	0.236	-0.374
-740.098	-47.356	-0.315	0.153
-739.083	6.345	0.065	0.048
-738.069	-53.254	-0.025	-0.011
-737.054	105.518	-0.029	0.034
-736.039	-200.000	-0.015	0.204
-735.025	-33.201	0.069	0.038
-734.010	208.489	0.175	-0.273
-732.996	-200.000	0.004	-0.084
-731.981	-185.366	0.279	-0.004
-730.966	22.468	0.109	-0.089
-729.952	-177.852	-0.632	0.015
-728.937	800.000	0.057	0.159
-727.923	-120.050	-0.287	-0.049
-726.908	800.000	-0.058	0.210
-725.894	-139.942	0.351	-0.037
-724.879	15.684	-0.204	0.160
-723.864	-175.969	0.303	0.008
-722.850	-124.910	0.064	0.010
-721.835	-41.936	0.294	0.150
-720.821	90.335	-0.266	-0.297
-719.806	-0.738	-0.329	-0.233
-718.791	719.731	-0.029	-0.078
-717.777	120.436	-0.200	0.248
-716.762	800.000	-0.147	0.411
-715.748	800.000	0.071	-0.281
-714.733	-76.106	0.176	-0.062
-713.718	-200.000	-0.028	-0.126
-712.704	86.018	-0.144	-0.158
-711.689	800.000	0.058	-0.238
-710.675	71.681	0.213	0.221
-709.660	800.000	0.096	-0.340
-708.645	130.450	0.138	-0.176
-707.631	47.337	-0.174	0.162
-706.616	-200.000	0.020	0.153
-705.602	-113.607	-0.314	-0.061
-704.587	-120.275	-0.189	-0.032
-703.572	13.938	0.033	0.026
-702.558	1.436	0.091	0.065
-701.543	293.091	0.099	-0.180
-700.529	80.116	-0.233	-0.250
-699.514	-52.236	-0.160	-0.074
-698.499	-144.959	-0.169	0.015
-697.485	800.000	0.039	0.170
-696.470	-200.000	-0.009	-0.168
-695.456	-200.000	0.036	-0.169
-694.441	69.077	-0.225	0.230
-693.426	422.358	-0.149	-0.318
-692.412	-39.800	0.238	0.124
-691.397	-155.644	0.164	-0.011
-690.383	57.550	-0.135	-0.132
-689.368	321.696	-0.028	-0.053
-688.354	38.027	0.084	0.074
-687.339	-200.000	0.007	0.151
-686.324	-47.335	-0.035	-0.017
-685.310	-200.000	0.014	-0.603
-684.295	-200.000	-0.038	0.216
-683.281	800.000	-0.048	0.139
-682.266	89.693	-0.029	0.032
-681.251	-200.000	-0.007	-0.184
-680.237	-20.216	0.202	0.124
-679.222	-3.937	0.213	0.147
-678.208	-8.197	0.217	-0.145
-677.193	-113.817	-0.127	0.025
-676.178	262.048	0.137	0.237
-675.164	-110.928	0.109	0.022
-674.149	153.434	-0.058	-0.079
-673.135	-70.002	-0.237	-0.090
-672.120	-16.242	0.062	0.040
-671.105	-7.109	0.077	-0.052
-670.091	-90.059	-0.121	-0.035
-669.076	-200.000	0.071	-0.355
-668.062	476.088	-0.051	0.115
-667.047	-38.059	-0.058	0.031
-666.032	25.714	0.197	-0.163
-665.018	800.000	0.055	-0.226
-664.003	-106.672	-0.488	-0.108
-662.989	-200.000	0.038	-0.331
-661.974	-37.883	-0.418	-0.221
-660.959	20.058	0.197	-0.159
-659.945	800.000	-0.081	0.280
-658.930	-64.967	-0.101	0.041
-657.916	-155.507	-0.422	0.027
-656.901	-200.000	0.079	0.540
-655.886	310.299	-0.041	-0.077
-654.872	361.099	-0.083	-0.165
-653.857	-155.826	0.101	-0.006
-652.843	-160.682	0.118	0.006
-651.828	-200.000	0.044	-0.404
-650.814	16.424	-0.230	-0.180
-649.799	-193.357	0.142	-0.001
-648.784	800.000	0.060	-0.172
-647.770	-63.057	-0.361	0.149
-646.755	30.573	-0.142	-0.121
-645.741	-93.618	0.053	-0.015
-644.726	21.655	0.063	-0.051
-643.711	214.700	0.163	-0.258
-642.697	497.282	-0.060	-0.137
-641.682	-128.258	-0.307	-0.044
-640.668	75.447	-0.106	-0.112
-639.653	800.000	-0.077	-0.270
-638.638	441.659	-0.016	0.034
-637.624	8.197	0.306	-0.229
-636.609	-200.000	0.013	0.057
-635.595	85.179	-0.147	-0.160
-634.580	9.137	-0.203	0.153
-633.565	-99.914	0.060	-0.015
-632.551	-99.823	0.275	0.068
-631.536	97.050	0.091	0.103
-630.522	-200.000	0.058	0.464
-629.507	-63.226	-0.435	-0.178
-628.492	-200.000	-0.010	-0.178
-627.478	-13.835	0.204	0.131
-626.463	800.000	0.071	0.259
-625.449	-97.885	-0.071	0.018
-624.434	-200.000	-0.049	-0.237
-623.419	40.359	-0.210	-0.188
-622.405	128.886	-0.208	0.264
-621.390	-103.966	0.185	0.043
-620.376	-66.212	0.065	-0.026
-619.361	-200.000	-0.029	0.135
-618.346	-200.000	0.002	0.252
-617.332	-182.427	0.038	0.001
-616.317	-200.000	0.033	-0.274
-615.303	342.929	-0.092	-0.179
-614.288	-72.051	-0.338	0.125
-613.273	42.640	-0.104	0.095
-612.259	36.131	-0.102	0.089
-611.244	366.909	-0.098	-0.196
-610.230	462.838	0.248	0.551
-609.215	-127.343	0.359	0.052
-608.201	-23.649	-0.274	0.164
-607.186	800.000	0.055	0.154
-606.171	-173.679	-0.054	-0.002
-605.157	78.939	-0.158	0.168
-604.142	-134.493	0.400	-0.049
-603.128	800.000	0.036	0.122
-602.113	-200.000	-0.055	0.304
-601.098	-36.512	-0.260	-0.139
-600.084	800.000	-0.066	-0.239
-599.069	152.126	-0.147	-0.200
-598.055	148.799	0.126	0.169
-597.040	-200.000	0.028	-0.419
-596.025	115.522	-0.237	-0.287
-595.011	66.863	0.157	0.158
-593.996	-24.954	-0.099	-0.058
-592.982	-15.614	0.237	-0.150
-591.967	-116.474	0.164	-0.030
-590.952	398.437	-0.132	-0.274
-589.938	-115.606	0.176	0.033
-588.923	-200.000	0.056	-0.291
-587.909	-195.498	0.287	0.002
-586.894	62.070	-0.090	0.090
-585.879	192.992	-0.140	-0.210
-584.865	-5.544	-0.037	0.025
-583.850	-154.911	0.100	0.007
-582.836	-69.211	-0.251	0.096
-581.821	-200.000	0.017	0.120
-580.806	-200.000	0.028	0.240
-579.792	11.360	-0.319	-0.242
-578.777	192.717	-0.208	0.312
-577.763	238.045	-0.045	0.074
-576.748	-200.000	0.061	-0.310
-575.733	-4.810	0.213	-0.146
-574.719	-24.113	-0.207	0.123
-573.704	-88.952	0.130	0.038
-572.690	-53.943	0.104	-0.047
-571.675	-14.773	0.113	-0.072
-570.661	41.762	-0.128	0.115
-569.646	-200.000	0.001	-0.093
-568.631	800.000	0.115	-0.394
-567.617	366.767	0.125	-0.250
-566.602	28.284	0.094	0.079
-565.588	657.508	0.117	-0.299
-564.573	151.594	0.180	0.243
-563.558	60.962	-0.314	0.309
-562.544	126.636	-0.089	0.112
-561.529	-6.002	0.450	-0.305
-560.515	-200.000	-0.022	-0.105
-559.500	800.000	0.065	0.208
-558.485	800.000	0.072	0.211
-557.471	49.378	-0.219	0.204
-556.456	463.488	0.087	0.193
-555.442	62.871	-0.199	-0.197
-554.427	510.739	0.129	-0.297
-553.412	35.065	-0.289	-0.251
-552.398	-74.885	0.221	-0.079
-551.383	-200.000	0.114	0.548
-550.369	331.454	0.072	-0.138
-549.354	800.000	-0.119	-0.348
-548.339	-50.002	0.441	0.207
-547.325	-72.712	-0.278	-0.102
-546.310	-35.077	0.152	0.082
-545.296	10.166	0.166	0.125
-544.281	-200.000	0.015	0.358
-543.266	139.681	0.070	-0.091
-542.252	101.789	-0.199	0.230
-541.237	13.920	-0.208	0.161
-540.223	-7.789	0.378	-0.253
-539.208	800.000	0.129	-0.390
-538.193	-43.616	-0.195	-0.097
-537.179	-33.993	-0.223	0.122
-536.164	11.832	0.161	0.122
-535.150	87.137	-0.141	-0.155
-534.135	-200.000	0.009	0.097
-533.121	-118.097	-0.203	-0.036
-532.106	-72.206	0.337	-0.124
-531.091	311.077	-0.077	-0.144
-530.077	-200.000	0.038	0.184
-529.062	-200.000	0.004	0.315
-528.048	326.916	-0.127	0.241
-527.033	800.000	0.046	0.165
-526.018	-109.695	-0.229	0.048
-525.004	-59.403	-0.247	-0.105
-523.989	-1.406	-0.120	0.084
-522.975	-12.024	0.389	-0.252
-521.960	70.452	0.075	0.077
-520.945	266.506	0.160	-0.276
-519.931	800.000	0.030	0.093
-518.916	-115.375	-0.403	0.075
-517.902	178.528	0.085	-0.122
-516.887	427.568	-0.128	-0.273
-515.872	72.710	-0.285	-0.295
-514.858	22.829	-0.067	0.054
-513.843	8.442	-0.227	0.169
-512.829	-47.396	0.309	0.149
-511.814	-101.750	-0.058	0.014
-510.799	-3.934	-0.169	-0.116
-509.785	96.047	-0.235	0.266
-508.770	800.000	-0.017	0.051
-507.756	618.225	-0.110	-0.275
-506.741	317.957	-0.098	0.183
-505.726	135.313	0.102	-0.131
-504.712	440.204	0.070	0.152
-503.697	-40.603	-0.284	0.146
-502.683	470.202	-0.089	-0.197
-501.668	-92.756	0.231	0.064
-500.653	184.372	-0.030	0.044
-499.639	-91.768	0.146	0.041
-498.624	-129.749	-0.378	0.051
-497.610	128.359	0.137	0.173
-496.595	20.655	-0.074	-0.060
-495.581	346.072	0.097	-0.190
-494.566	-57.486	-0.186	-0.081
-493.551	-98.764	-0.183	-0.046
-492.537	-61.301	0.195	-0.081
-491.522	800.000	0.089	-0.334
-490.508	800.000	-0.114	0.387
-489.493	214.462	-0.192	-0.302
-488.478	-56.204	-0.260	-0.115
-487.464	49.401	0.062	0.057
-486.449	-91.798	0.088	0.025
-485.435	-200.000	-0.048	0.272
-484.420	152.103	-0.122	0.164
-483.405	87.139	-0.108	0.118
-482.391	-133.614	0.178	0.022
-481.376	-80.028	0.294	-0.097
-480.362	79.001	0.223	0.236
-479.347	98.735	0.279	0.318
-478.332	-31.254	-0.116	0.065
-477.318	80.228	0.145	-0.155
-476.303	-106.867	0.346	-0.076
-475.289	-68.742	0.174	0.067
-474.274	-200.000	0.003	0.115
-473.259	71.199	0.209	-0.214
-472.245	-119.005	-0.158	0.027
-471.230	-200.000	0.055	0.347
-470.216	77.364	-0.138	-0.145
-469.201	28.450	0.213	0.178
-468.186	-50.854	0.199	-0.093
-467.172	-200.000	-0.020	0.392
-466.157	181.705	-0.060	-0.087
-465.143	22.648	0.260	-0.210
-464.128	736.640	-0.104	-0.275
-463.113	-200.000	0.008	0.329
-462.099	800.000	0.016	0.048
-461.084	-148.120	-0.107	-0.009
-460.070	395.842	0.072	0.149
-459.055	-22.532	0.123	0.074
-458.040	-113.214	-0.130	0.025
-457.026	-196.664	-0.254	-0.002
-456.011	299.274	-0.142	0.258
-454.997	106.005	-0.225	0.263
-453.982	-47.908	0.057	-0.027
-452.968	192.381	-0.050	-0.075
-451.953	172.491	0.239	-0.340
-450.938	800.000	0.008	-0.030
-449.924	358.355	0.108	-0.214
-448.909	-171.490	-0.166	0.005
-447.895	181.886	0.045	-0.065
-446.880	-32.278	0.141	0.078
-445.865	-107.412	0.306	-0.066
-444.851	-21.608	-0.506	-0.305
-443.836	148.812	-0.186	-0.249
-442.822	-200.000	-0.004	0.292
-441.807	106.915	0.052	-0.061
-440.792	-200.000	-0.004	0.217
-439.778	714.309	-0.063	-0.164
-438.763	-73.302	0.128	-0.046
-437.749	586.822	-0.069	0.167
-436.734	-22.602	0.089	-0.053
-435.719	-77.299	0.228	-0.078
-434.705	135.990	-0.250	-0.322
-433.690	88.831	-0.033	-0.037
-432.676	27.809	-0.143	-0.119
-431.661	9.853	-0.314	0.235
-430.646	-200.000	0.015	0.419
-429.632	442.864	-0.051	0.110
-428.617	-102.450	-0.091	-0.021
-427.603	163.402	-0.007	0.010
-426.588	253.729	0.097	-0.164
-425.573	-37.759	-0.129	-0.068
-424.559	-30.937	0.153	-0.085
-423.544	-200.000	0.039	0.179
-422.530	678.798	0.086	-0.221
-421.515	800.000	-0.010	-0.042
-420.500	-91.744	0.145	0.041
-419.486	-115.232	-0.240	-0.045
-418.471	-23.583	-0.108	-0.064
-417.457	-39.210	-0.037	-0.019
-416.442	800.000	-0.099	0.354
-415.428	-200.000	0.036	-0.177
-414.413	560.520	-0.019	-0.044
-413.398	800.000	-0.052	0.191
-412.384	735.871	0.116	-0.306
-411.369	-113.529	0.257	0.050
-410.355	-20.607	-0.086	-0.052
-409.340	-74.607	-0.120	0.043
-408.325	-39.979	0.097	0.050
-407.311	303.273	0.194	-0.354
-406.296	-36.910	0.195	0.103
-405.282	78.268	-0.142	0.149
-404.267	156.372	0.136	0.186
-403.252	33.171	0.234	0.200
-402.238	-113.986	0.084	0.016
-401.223	-200.000	-0.052	0.404
-400.209	-200.000	-0.031	0.155
-399.194	-54.204	-0.402	-0.180
-398.179	800.000	-0.025	0.096
-397.165	-7.704	-0.198	0.132
-396.150	-200.000	-0.004	-0.139
-395.136	-200.000	-0.003	-0.148
-394.121	-0.359	-0.176	-0.124
-393.106	-136.252	0.153	-0.018
-392.092	-22.037	-0.115	-0.069
-391.077	370.978	0.111	-0.222
-390.063	-159.120	-0.196	0.011
-389.048	258.977	0.075	-0.127
-388.033	-81.459	-0.286	-0.093
-387.019	800.000	-0.030	0.113
-386.004	-175.343	-0.183	-0.005
-384.990	225.303	0.133	0.212
-383.975	194.398	0.082	-0.122
-382.960	214.132	0.243	-0.379
-381.946	213.028	0.013	0.021
-380.931	-66.254	0.372	0.146
-379.917	-131.751	-0.072	0.009
-378.902	443.337	-0.110	-0.238
-377.888	-96.537	0.611	0.159
-376.873	17.360	0.202	0.158
-375.858	-170.444	-0.171	0.006
-374.844	-63.776	-0.145	-0.059
-373.829	772.947	-0.063	-0.170
-372.815	516.091	-0.076	-0.175
-371.800	-77.730	-0.430	-0.147
-370.785	-72.126	0.236	-0.086
-369.771	-154.986	0.129	-0.008
-368.756	126.434	0.085	-0.106
-367.742	-58.265	-0.154	-0.066
-366.727	135.193	0.121	0.155
-365.712	800.000	-0.051	0.162
-364.698	-8.401	0.346	-0.229
-363.683	47.353	-0.395	-0.362
-362.669	256.559	-0.118	0.199
-361.654	-200.000	-0.090	-0.452
-360.639	563.440	0.042	0.101
-359.625	14.183	0.204	-0.157
-358.610	35.470	-0.145	-0.125
-357.596	-147.151	-0.070	0.006
-356.581	-200.000	0.021	0.184
-355.566	336.717	0.089	0.170
-354.552	-149.590	0.346	0.027
-353.537	14.603	-0.109	0.084
-352.523	62.922	0.193	-0.190
-351.508	-200.000	0.018	0.255
-350.493	-89.576	-0.272	0.078
-349.479	-200.000	-0.035	0.443
-348.464	-155.723	-0.212	0.013
-347.450	-19.410	0.262	-0.160
-346.435	-200.000	0.033	0.308
-345.420	-47.170	0.259	0.124
-344.406	98.550	0.039	0.045
-343.391	-147.747	-0.150	-0.012
-342.377	-163.688	0.144	-0.007
-341.362	-71.280	0.095	-0.035
-340.348	-200.000	0.044	0.264
-339.333	229.274	-0.231	0.371
-338.318	-165.431	-0.297	0.013
-337.304	-166.645	-0.375	-0.015
-336.289	-200.000	0.080	-0.366
-335.275	800.000	0.181	-0.568
-334.260	-200.000	0.026	-0.285
-333.245	-41.480	-0.146	0.074
-332.231	87.335	0.196	0.213
-331.216	-200.000	-0.026	0.427
-330.202	-52.481	-0.371	0.168
-329.187	-200.000	-0.104	0.539
-328.172	-98.384	0.163	0.041
-327.158	413.632	0.095	-0.198
-326.143	-52.785	-0.343	0.155
-325.129	165.863	-0.134	0.187
-324.114	-57.674	0.332	-0.143
-323.099	150.708	0.065	0.087
-322.085	-140.363	-0.253	0.026
-321.070	-13.094	0.161	-0.103
-320.056	87.108	-0.386	0.419
-319.041	230.659	0.149	-0.239
-318.026	-97.621	-0.134	-0.034
-317.012	-200.000	-0.078	-0.365
-315.997	-68.309	0.127	-0.049
-314.983	195.637	-0.076	-0.113
-313.968	-161.738	0.145	-0.007
-312.953	327.043	0.317	0.598
-311.939	-103.656	0.307	-0.071
-310.924	55.047	0.100	-0.095
-309.910	-4.250	-0.196	-0.134
-308.895	-64.616	-0.245	0.098
-307.880	4.822	0.041	-0.029
-306.866	462.496	-0.096	-0.211
-305.851	-139.785	0.337	-0.035
-304.837	27.497	-0.141	0.116
-303.822	214.921	0.154	-0.240
-302.807	-200.000	0.008	-0.204
-301.793	-6.499	-0.519	0.347
-300.778	262.020	0.167	0.285
-299.764	193.763	0.060	0.090
-298.749	-200.000	0.010	0.545
-297.735	623.203	0.099	-0.244
-296.720	-118.477	0.123	-0.021
-295.705	348.597	-0.034	-0.066
-294.691	-158.168	0.261	-0.015
-293.676	-139.215	0.028	0.003
-292.662	569.934	-0.063	0.151
-291.647	-200.000	-0.004	-0.144
-290.632	477.642	-0.103	-0.229
-289.618	1.123	0.314	-0.222
-288.603	800.000	0.022	0.068
-287.589	46.247	0.150	0.136
-286.574	498.165	-0.146	0.329
-285.559	217.808	-0.102	0.160
-284.545	535.427	0.060	-0.140
-283.530	-200.000	-0.019	-0.125
-282.516	-52.879	0.151	0.068
-281.501	-41.545	0.133	-0.067
-280.486	800.000	-0.053	-0.166
-279.472	655.091	-0.074	-0.187
-278.457	-61.741	-0.189	0.078
-277.443	-105.501	-0.227	-0.051
-276.428	-146.748	0.291	0.025
-275.413	401.169	-0.201	0.413
-274.399	-156.574	-0.480	-0.029
-273.384	-106.341	-0.228	-0.050
-272.370	171.443	-0.212	-0.299
-271.355	1.711	0.064	0.045
-270.340	-43.995	0.328	-0.162
-269.326	-200.000	-0.016	-0.086
-268.311	-200.000	0.006	-0.264
-267.297	800.000	0.054	0.165
-266.282	-107.566	0.243	0.052
-265.267	-122.259	-0.237	0.038
-264.253	64.342	-0.209	-0.207
-263.238	313.510	0.133	-0.246
-262.224	-59.650	0.146	0.061
-261.209	800.000	0.081	-0.269
-260.195	150.328	-0.031	-0.042
-259.180	108.026	0.226	-0.264
-258.165	-35.219	-0.162	0.087
-257.151	2.964	0.128	-0.091
-256.136	-58.244	-0.120	0.051
-255.122	247.363	0.111	0.184
-254.107	67.390	0.275	-0.275
-253.092	-40.114	-0.513	0.262
-252.078	-25.673	0.056	-0.032
-251.063	233.488	-0.061	0.098
-250.049	14.536	-0.078	0.059
-249.034	-86.265	-0.124	-0.037
-248.019	445.540	0.083	0.179
-247.005	-107.382	-0.183	-0.039
-245.990	-34.804	0.092	-0.049
-244.976	-147.577	-0.352	-0.029
-243.961	-105.934	0.194	-0.043
-242.946	109.376	-0.089	-0.105
-241.932	-2.913	0.053	-0.036
-240.917	-200.000	0.066	0.284
-239.903	293.794	0.128	-0.230
-238.888	-47.804	0.103	0.049
-237.873	129.992	-0.204	-0.256
-236.859	-104.599	0.176	0.040
-235.844	384.434	0.160	0.323
-234.830	489.725	0.152	-0.340
-233.815	-200.000	-0.006	0.153
-232.800	-0.678	0.154	-0.107
-231.786	-200.000	-0.035	-0.287
-230.771	558.910	-0.195	-0.462
-229.757	-45.678	0.072	0.035
-228.742	-200.000	-0.001	0.150
-227.727	-200.000	0.011	0.390
-226.713	61.768	-0.141	0.137
-225.698	81.941	0.096	0.102
-224.684	17.889	0.251	0.196
-223.669	-108.878	-0.241	0.050
-222.655	-23.466	0.310	0.182
-221.640	-14.682	-0.181	0.114
-220.625	79.867	0.133	-0.140
-219.611	115.001	-0.054	0.065
-218.596	305.841	0.081	-0.147
-217.582	52.356	-0.126	-0.118
-216.567	776.823	-0.077	-0.206
-215.552	-8.412	-0.071	-0.047
-214.538	-200.000	0.018	0.162
-213.523	59.337	0.075	-0.073
-212.509	-70.681	-0.099	0.037
-211.494	-200.000	0.027	0.185
-210.479	-88.204	-0.025	-0.007
-209.465	-200.000	0.040	-0.410
-208.450	-200.000	0.021	-0.293
-207.436	579.076	0.043	0.103
-206.421	800.000	0.054	0.225
-205.406	800.000	0.096	-0.339
-204.392	108.288	-0.257	0.299
-203.377	-68.669	-0.172	0.065
-202.363	59.535	0.139	0.134
-201.348	125.790	0.102	-0.126
-200.333	13.773	0.227	0.173
-199.319	-112.042	0.078	0.015
-198.304	25.290	0.159	0.129
-197.290	-90.238	0.280	-0.080
-196.275	284.598	-0.101	0.178
-195.260	474.103	-0.069	0.153
-194.246	-200.000	0.022	-0.115
-193.231	-89.762	0.282	-0.081
-192.217	186.985	0.260	0.379
-191.202	69.332	-0.041	-0.041
-190.187	-12.175	-0.341	-0.218
-189.173	85.900	0.152	-0.164
-188.158	32.488	0.310	0.262
-187.144	800.000	-0.059	-0.243
-186.129	35.788	0.187	-0.161
-185.114	-113.983	0.083	0.016
-184.100	30.293	-0.122	-0.102
-183.085	8.072	0.357	-0.262
-182.071	451.529	-0.020	-0.043
-181.056	-51.783	-0.222	0.101
-180.042	477.084	0.060	-0.133
-179.027	288.061	-0.157	0.278
-178.012	800.000	-0.080	0.312
-176.998	-66.610	0.225	-0.087
-175.983	206.083	0.211	-0.321
-174.969	190.020	0.076	0.111
-173.954	-114.084	-0.279	0.053
-172.939	420.210	-0.222	0.464
-171.925	-31.361	-0.354	0.195
-170.910	-76.699	-0.169	-0.058
-169.896	119.814	0.207	0.251
-168.881	-95.174	0.161	0.042
-167.866	69.165	-0.197	-0.198
-166.852	800.000	0.069	0.281
-165.837	-30.270	-0.132	0.073
-164.823	152.916	-0.019	0.025
-163.808	64.114	0.314	0.309
-162.793	-64.694	0.172	-0.068
-161.779	-200.000	0.018	-0.313
-160.764	130.855	-0.166	-0.208
-159.750	-200.000	-0.055	-0.267
-158.735	800.000	-0.061	0.251
-157.720	-120.180	0.485	0.081
-156.706	-200.000	-0.033	-0.279
-155.691	-63.611	0.119	0.048
-154.677	321.633	-0.110	-0.205
-153.662	-200.000	0.038	0.185
-152.647	211.522	-0.232	-0.357
-151.633	800.000	0.028	0.082
-150.618	96.307	-0.128	-0.143
-149.604	470.397	0.085	-0.186
-148.589	323.518	-0.162	-0.303
-147.574	-78.256	0.353	-0.118
-146.560	-70.002	0.010	0.004
-145.545	-200.000	0.011	-0.348
-144.531	800.000	0.042	-0.172
-143.516	-73.989	-0.166	0.059
-142.502	314.919	0.161	0.296
-141.487	-131.948	-0.073	-0.009
-140.472	639.040	0.100	0.247
-139.458	-200.000	0.009	0.136
-138.443	-156.456	0.170	0.010
-137.429	-200.000	0.080	-0.459
-136.414	800.000	-0.076	0.271
-135.399	-150.349	0.106	-0.008
-134.385	169.975	-0.065	0.091
-133.370	2.148	0.072	-0.051
-132.356	73.406	-0.162	0.165
-131.341	-19.448	0.123	-0.074
-130.326	531.912	0.086	-0.199
-129.312	113.788	-0.010	-0.012
-128.297	-25.564	0.363	-0.209
-127.283	-54.748	0.091	-0.040
-126.268	9.820	0.172	-0.128
-125.253	800.000	0.056	0.156
-124.239	7.437	-0.185	-0.135
-123.224	-141.086	-0.268	0.027
-122.210	-37.400	0.222	-0.115
-121.195	-54.401	0.100	-0.044
-120.180	372.827	0.026	0.052
