DTS Sentinel unit serial number:	SN413079Multiplexer serial number:	ORYXHardware model number:	OX4-SRSoftware version number:	ORYX F/W v4.00 Oryx Data Collector v3.7.2.0data status	okinstallation	princeton_trtdifferential loss correction	single-endedforward channel	channel 3reverse channel	N/Adate	2019/09/12time	03:38:11forward acquisition time	60.00reverse acquisition time	0.00gamma	496.2192k internal	0.2322k external	0.2322temperature offset calibration	1.0065default loss term (dB/km)	0.3790temperature slope calibration	1.0000multiplexer offset coefficient	1.0000multiplexer slope coefficient	1.0000fibre end	0.00T internal ref (°C)	32.16T ext. ref 1 (°C)	2.16T ext. ref 2 (°C)	27.05length (m)	temperature (°C)	Stokes	anti-Stokes-747.200	-200.000	0.005	-0.138
-746.185	800.000	-0.197	0.558
-745.171	356.366	-0.201	0.404
-744.156	-47.323	0.455	0.224
-743.142	-200.000	-0.050	-0.390
-742.127	402.101	0.070	0.149
-741.112	246.386	-0.094	0.160
-740.098	92.797	0.032	0.036
-739.083	730.588	0.162	0.439
-738.069	51.360	0.025	0.024
-737.054	55.756	0.039	-0.038
-736.039	-22.477	-0.247	-0.151
-735.025	398.600	0.180	0.381
-734.010	90.127	-0.247	-0.279
-732.996	-17.704	-0.344	-0.218
-731.981	-58.346	-0.415	0.182
-730.966	800.000	-0.121	-0.429
-729.952	1.687	0.106	-0.077
-728.937	-200.000	-0.024	0.132
-727.923	150.200	-0.214	-0.293
-726.908	799.509	-0.167	0.465
-725.894	144.658	0.118	-0.159
-724.879	-200.000	0.025	0.119
-723.864	-67.431	0.167	-0.066
-722.850	-200.000	0.010	0.246
-721.835	526.762	0.100	-0.237
-720.821	-200.000	0.012	-0.331
-719.806	24.355	0.144	-0.120
-718.791	-74.515	0.245	-0.089
-717.777	-200.000	0.023	-0.246
-716.762	-65.314	-0.243	-0.099
-715.748	764.993	0.084	-0.229
-714.733	-125.072	-0.482	-0.075
-713.718	599.488	0.028	-0.069
-712.704	171.625	0.181	-0.262
-711.689	-200.000	0.090	0.502
-710.675	18.013	-0.033	-0.027
-709.660	241.279	-0.039	0.066
-708.645	-13.967	0.136	0.089
-707.631	-76.496	-0.305	0.108
-706.616	-31.875	-0.335	0.190
-705.602	-43.662	0.165	0.084
-704.587	85.652	-0.173	0.192
-703.572	228.752	0.049	-0.080
-702.558	800.000	-0.106	0.445
-701.543	-134.282	0.306	0.038
-700.529	-200.000	0.025	0.315
-699.514	443.086	-0.117	-0.259
-698.499	244.961	-0.153	0.259
-697.485	116.260	0.309	0.382
-696.470	-8.150	-0.102	-0.069
-695.456	-200.000	-0.093	-0.572
-694.441	-121.733	-0.133	-0.022
-693.426	-200.000	-0.038	0.215
-692.412	800.000	0.033	0.108
-691.397	254.462	-0.125	0.216
-690.383	-162.097	-0.357	0.018
-689.368	25.654	0.242	0.203
-688.354	2.513	-0.191	0.139
-687.339	690.004	0.041	0.107
-686.324	-200.000	0.001	-0.068
-685.310	-200.000	0.022	0.117
-684.295	-43.378	-0.156	0.079
-683.281	63.782	-0.084	0.085
-682.266	-73.169	-0.269	0.099
-681.251	537.121	-0.134	-0.320
-680.237	29.616	0.110	-0.094
-679.222	800.000	-0.037	0.111
-678.208	91.040	-0.053	-0.060
-677.193	-85.341	0.431	0.136
-676.178	48.776	-0.289	0.273
-675.164	204.497	-0.086	0.135
-674.149	-200.000	0.036	-0.234
-673.135	-200.000	0.104	-0.524
-672.120	-25.854	-0.079	-0.047
-671.105	551.329	-0.136	0.329
-670.091	-16.286	0.251	0.160
-669.076	-200.000	0.074	0.504
-668.062	-161.981	0.203	-0.010
-667.047	-1.423	-0.048	-0.034
-666.032	388.845	0.067	-0.139
-665.018	-105.869	0.166	-0.038
-664.003	23.424	0.030	0.025
-662.989	-32.530	-0.208	0.117
-661.974	-112.345	-0.487	0.098
-660.959	719.209	0.061	0.165
-659.945	-38.400	-0.097	0.052
-658.930	-109.203	-0.162	0.035
-657.916	800.000	0.078	0.279
-656.901	93.204	0.176	0.200
-655.886	2.363	0.118	-0.086
-654.872	462.565	-0.111	-0.249
-653.857	245.710	0.097	0.164
-652.843	188.365	0.058	0.088
-651.828	-200.000	-0.020	-0.095
-650.814	393.744	-0.224	-0.470
-649.799	453.312	-0.168	-0.374
-648.784	-200.000	-0.059	0.260
-647.770	4.992	-0.240	-0.178
-646.755	-121.321	-0.221	-0.037
-645.741	61.282	-0.280	-0.280
-644.726	-173.827	0.258	-0.008
-643.711	35.422	-0.129	-0.114
-642.697	-200.000	-0.039	0.253
-641.682	177.914	-0.047	-0.069
-640.668	-7.952	-0.108	-0.074
-639.653	566.539	-0.090	0.219
-638.638	17.522	0.271	0.216
-637.624	-74.588	-0.250	-0.091
-636.609	-200.000	-0.045	-0.378
-635.595	-135.693	0.250	0.030
-634.580	410.587	0.158	-0.337
-633.565	453.607	-0.177	0.394
-632.551	-107.607	-0.176	0.039
-631.536	-50.231	-0.176	-0.084
-630.522	-41.360	0.085	-0.044
-629.507	800.000	0.120	-0.472
-628.492	689.457	0.027	-0.070
-627.478	-200.000	-0.005	0.470
-626.463	-16.150	0.064	-0.041
-625.449	-108.578	0.220	0.047
-624.434	-200.000	0.001	-0.099
-623.419	-84.935	-0.405	0.128
-622.405	211.182	-0.077	-0.122
-621.390	800.000	0.061	0.215
-620.376	283.059	0.180	-0.324
-619.361	101.111	-0.161	0.189
-618.346	636.762	0.123	-0.313
-617.332	485.742	0.137	-0.314
-616.317	-76.734	-0.133	-0.047
-615.303	-46.151	0.120	-0.059
-614.288	-45.958	-0.329	-0.163
-613.273	152.270	-0.074	0.101
-612.259	-200.000	-0.045	0.707
-611.244	107.815	-0.191	-0.228
-610.230	-70.018	0.088	-0.034
-609.215	19.552	-0.206	0.166
-608.201	176.288	0.241	0.351
-607.186	-123.989	-0.182	-0.029
-606.171	-130.390	0.272	0.037
-605.157	800.000	0.087	0.295
-604.142	-47.301	-0.307	-0.150
-603.128	-133.891	0.214	0.027
-602.113	288.402	-0.160	0.290
-601.098	-200.000	-0.008	0.047
-600.084	168.420	0.032	-0.045
-599.069	-123.138	0.135	0.022
-598.055	159.842	-0.108	0.150
-597.040	-47.477	-0.114	0.055
-596.025	111.538	-0.154	0.186
-595.011	-200.000	0.014	-0.428
-593.996	212.120	0.154	-0.244
-592.982	-92.709	-0.199	0.056
-591.967	124.682	0.037	-0.047
-590.952	65.303	-0.116	-0.118
-589.938	800.000	0.117	-0.340
-588.923	-25.893	-0.310	-0.183
-587.909	-6.613	0.284	0.194
-586.894	99.729	-0.155	-0.181
-585.879	251.816	0.086	0.148
-584.865	70.919	-0.149	-0.155
-583.850	-64.730	0.159	0.065
-582.836	-106.640	0.378	-0.084
-581.821	519.479	-0.020	0.047
-580.806	-191.979	0.174	-0.002
-579.792	170.242	-0.102	-0.147
-578.777	132.854	-0.112	-0.145
-577.763	60.823	-0.169	-0.168
-576.748	-11.942	0.116	0.076
-575.733	190.887	0.043	-0.065
-574.719	80.563	-0.096	0.104
-573.704	41.602	0.264	0.240
-572.690	-103.774	0.370	0.087
-571.675	283.223	0.072	-0.129
-570.661	-46.409	-0.249	0.123
-569.646	465.527	0.141	0.316
-568.631	6.623	-0.173	-0.129
-567.617	-32.239	-0.101	0.057
-566.602	-200.000	0.026	0.192
-565.588	800.000	-0.103	0.289
-564.573	-161.369	-0.184	-0.010
-563.558	13.658	-0.021	-0.016
-562.544	-3.131	-0.020	-0.014
-561.529	402.790	0.184	-0.388
-560.515	-132.435	-0.166	-0.021
-559.500	-64.765	-0.221	0.090
-558.485	225.920	-0.085	-0.137
-557.471	76.111	-0.090	0.095
-556.456	-41.619	-0.235	-0.121
-555.442	656.705	0.038	0.097
-554.427	27.456	-0.168	0.142
-553.412	131.251	0.173	0.223
-552.398	800.000	-0.044	0.159
-551.383	-134.998	0.145	0.018
-550.369	-129.823	-0.257	-0.035
-549.354	-200.000	0.033	0.469
-548.339	-200.000	0.001	0.041
-547.325	-138.708	-0.267	-0.029
-546.310	317.533	0.184	0.349
-545.296	800.000	0.046	0.187
-544.281	-44.429	0.201	-0.101
-543.266	126.339	0.095	-0.121
-542.252	204.185	-0.018	0.028
-541.237	60.192	-0.167	0.166
-540.223	-108.987	0.285	-0.061
-539.208	800.000	0.010	-0.043
-538.193	294.185	-0.248	0.454
-537.179	-180.373	0.184	-0.004
-536.164	-140.475	-0.190	-0.020
-535.150	49.837	0.043	0.040
-534.135	-197.464	0.062	0.000
-533.121	-79.948	0.038	-0.013
-532.106	-56.318	-0.200	-0.089
-531.091	-98.564	-0.184	-0.047
-530.077	195.682	-0.258	-0.393
-529.062	800.000	-0.119	-0.433
-528.048	-129.069	0.296	-0.042
-527.033	800.000	0.028	-0.097
-526.018	-97.863	0.268	-0.069
-525.004	-54.962	-0.101	0.045
-523.989	-200.000	-0.033	0.000
-522.975	80.199	0.176	-0.189
-521.960	496.231	0.126	0.291
-520.945	258.620	0.128	-0.220
-519.931	570.018	-0.057	0.140
-518.916	-10.250	0.110	-0.073
-517.902	-105.416	-0.200	0.046
-516.887	-88.768	-0.276	0.082
-515.872	-84.299	-0.152	-0.048
-514.858	-135.872	0.484	0.057
-513.843	130.343	0.137	0.176
-512.829	-42.146	-0.323	0.165
-511.814	-18.966	0.166	-0.103
-510.799	800.000	0.031	-0.097
-509.785	30.803	-0.267	-0.229
-508.770	-124.319	-0.031	0.005
-507.756	-102.678	-0.161	0.038
-506.741	254.973	0.218	0.374
-505.726	-69.098	-0.235	-0.091
-504.712	146.472	-0.120	0.161
-503.697	-8.188	0.133	0.090
-502.683	-200.000	-0.014	-0.416
-501.668	204.262	-0.071	0.111
-500.653	88.467	-0.129	-0.143
-499.639	24.362	-0.142	-0.117
-498.624	779.003	0.107	0.293
-497.610	-200.000	0.027	0.172
-496.595	-4.506	0.079	-0.055
-495.581	-78.190	-0.089	-0.031
-494.566	800.000	-0.086	-0.325
-493.551	-139.147	0.137	-0.015
-492.537	-86.935	0.298	0.091
-491.522	-2.958	0.062	0.043
-490.508	-5.968	0.122	0.083
-489.493	-200.000	-0.033	0.276
-488.478	69.076	-0.022	0.023
-487.464	800.000	-0.036	-0.117
-486.449	-87.291	-0.186	0.056
-485.435	-35.580	0.298	-0.162
-484.420	-200.000	-0.023	0.162
-483.405	-161.995	-0.084	-0.004
-482.391	-83.090	-0.080	-0.026
-481.376	67.295	0.086	0.088
-480.362	800.000	-0.052	-0.217
-479.347	-176.968	-0.322	0.008
-478.332	-200.000	-0.007	-0.359
-477.318	-200.000	0.030	0.151
-476.303	-154.546	-0.178	-0.012
-475.289	362.817	0.163	-0.328
-474.274	501.696	0.087	-0.201
-473.259	174.836	-0.340	-0.492
-472.245	178.586	0.163	0.238
-471.230	3.199	0.417	0.303
-470.216	-200.000	0.023	-0.236
-469.201	-47.868	0.408	0.197
-468.186	-146.512	-0.054	-0.005
-467.172	136.180	0.292	0.381
-466.157	7.169	-0.207	0.155
-465.143	-51.097	0.159	-0.075
-464.128	36.917	0.282	0.250
-463.113	800.000	-0.045	0.158
-462.099	-86.022	-0.164	-0.051
-461.084	-79.511	-0.182	0.061
-460.070	-14.733	-0.142	0.091
-459.055	-12.189	-0.106	0.069
-458.040	-200.000	-0.017	0.148
-457.026	-23.557	-0.147	-0.088
-456.011	-200.000	-0.030	-0.191
-454.997	-114.497	-0.127	0.024
-453.982	-200.000	0.009	0.048
-452.968	92.011	-0.108	0.121
-451.953	84.440	0.206	-0.225
-450.938	-57.577	-0.188	-0.083
-449.924	225.804	-0.134	-0.217
-448.909	421.437	-0.059	0.126
-447.895	60.235	0.060	0.059
-446.880	-48.891	-0.225	-0.108
-445.865	147.439	0.096	0.129
-444.851	-87.613	0.205	0.062
-443.836	800.000	0.099	-0.303
-442.822	800.000	-0.056	0.158
-441.807	16.431	0.173	-0.136
-440.792	12.929	0.231	0.178
-439.778	552.527	-0.119	-0.285
-438.763	-200.000	-0.042	0.228
-437.749	-148.186	-0.238	0.020
-436.734	-9.600	-0.182	-0.121
-435.719	-120.099	-0.179	0.031
-434.705	-200.000	-0.037	-0.393
-433.690	-99.355	0.276	0.069
-432.676	249.345	-0.200	0.339
-431.661	-200.000	0.028	-0.234
-430.646	-84.940	0.312	0.098
-429.632	-43.703	-0.242	-0.122
-428.617	-200.000	0.026	-0.238
-427.603	331.343	-0.018	-0.034
-426.588	178.265	0.062	-0.090
-425.573	-54.425	0.229	-0.104
-424.559	-200.000	0.002	-0.127
-423.544	-200.000	0.035	-0.228
-422.530	-83.993	-0.089	-0.028
-421.515	-200.000	-0.031	0.256
-420.500	-47.639	-0.194	-0.094
-419.486	-200.000	-0.020	-0.240
-418.471	458.435	-0.081	0.180
-417.457	158.361	-0.150	0.207
-416.442	-19.154	0.094	-0.058
-415.428	-200.000	0.044	-0.428
-414.413	18.620	-0.142	-0.113
-413.398	800.000	0.087	-0.276
-412.384	122.128	-0.247	-0.308
-411.369	216.569	0.100	0.158
-410.355	-200.000	0.020	0.158
-409.340	-95.720	-0.254	0.068
-408.325	5.530	-0.276	0.203
-407.311	-123.904	0.241	0.038
-406.296	-140.027	0.094	-0.010
-405.282	17.165	0.237	0.187
-404.267	-1.517	-0.105	-0.074
-403.252	17.692	0.170	-0.135
-402.238	-200.000	0.003	-0.079
-401.223	305.352	0.162	0.301
-400.209	-164.302	0.115	-0.005
-399.194	372.344	0.078	0.158
-398.179	-78.372	0.545	0.186
-397.165	172.182	0.062	0.089
-396.150	174.490	0.121	0.175
-395.136	-2.104	-0.229	0.160
-394.121	-200.000	0.018	-0.234
-393.106	12.372	0.130	-0.100
-392.092	-118.820	-0.090	0.016
-391.077	-70.090	-0.103	0.039
-390.063	783.215	-0.059	-0.160
-389.048	-200.000	-0.017	0.295
-388.033	151.182	-0.138	-0.188
-387.019	-78.484	0.249	-0.085
-386.004	-108.362	0.231	-0.050
-384.990	278.772	0.144	-0.257
-383.975	-87.365	0.139	0.042
-382.960	-106.770	0.091	0.020
-381.946	152.533	-0.091	-0.123
-380.931	171.901	0.288	-0.412
-379.917	-117.844	-0.127	-0.023
-378.902	-12.894	-0.129	0.084
-377.888	66.574	0.215	0.218
-376.873	217.860	-0.091	0.144
-375.858	754.943	0.057	-0.154
-374.844	-59.176	-0.097	0.042
-373.829	471.009	0.026	0.059
-372.815	9.465	0.138	-0.104
-371.800	-59.400	0.087	0.037
-370.785	-200.000	0.242	-0.001
-369.771	42.514	0.160	0.145
-368.756	-11.306	-0.065	-0.043
-367.742	24.718	0.191	-0.158
-366.727	-23.189	-0.193	0.115
-365.712	41.632	-0.087	0.078
-364.698	-200.000	0.009	0.281
-363.683	-200.000	0.004	-0.185
-362.669	-96.566	-0.321	0.084
-361.654	-200.000	0.000	-0.023
-360.639	-59.155	0.314	0.135
-359.625	-200.000	0.037	0.170
-358.610	-113.324	0.122	0.024
-357.596	50.479	-0.130	-0.123
-356.581	-200.000	-0.031	-0.225
-355.566	15.955	-0.215	-0.168
-354.552	-68.172	-0.107	0.041
-353.537	486.476	0.031	0.071
-352.523	-118.823	0.333	-0.058
-351.508	250.371	-0.200	0.339
-350.493	800.000	-0.129	0.372
-349.479	-122.188	0.062	0.010
-348.464	215.868	-0.090	-0.142
-347.450	-200.000	0.039	0.172
-346.435	-200.000	0.012	0.189
-345.420	181.667	-0.164	-0.240
-344.406	426.010	-0.086	0.185
-343.391	-96.523	0.076	-0.020
-342.377	44.924	0.391	0.358
-341.362	-132.887	0.467	-0.059
-340.348	-52.551	-0.186	-0.086
-339.333	243.884	-0.031	0.052
-338.318	-88.396	-0.302	-0.090
-337.304	52.853	-0.263	-0.250
-336.289	428.704	0.120	-0.257
-335.275	-109.611	-0.056	-0.012
-334.260	-61.149	0.081	-0.034
-333.245	800.000	0.038	0.136
-332.231	800.000	0.091	0.260
-331.216	800.000	-0.042	0.166
-330.202	-70.989	-0.187	-0.070
-329.187	-142.197	-0.170	0.017
-328.172	78.330	-0.173	-0.184
-327.158	-200.000	0.014	0.319
-326.143	-94.327	-0.051	0.014
-325.129	-97.668	0.306	-0.079
-324.114	-94.485	-0.261	0.071
-323.099	-200.000	0.013	-0.211
-322.085	-150.437	0.162	0.012
-321.070	-200.000	-0.024	-0.231
-320.056	-200.000	0.006	-0.360
-319.041	-3.491	-0.144	-0.100
-318.026	9.248	0.075	0.056
-317.012	204.693	0.164	0.253
-315.997	-57.628	0.145	0.063
-314.983	446.445	-0.025	0.054
-313.968	-36.338	0.154	-0.082
-312.953	-103.423	0.359	-0.084
-311.939	16.473	0.193	0.152
-310.924	-183.172	-0.361	0.006
-309.910	345.885	-0.075	0.146
-308.895	800.000	-0.108	-0.357
-307.880	4.679	0.203	-0.148
-306.866	172.649	0.289	0.413
-305.851	-200.000	-0.085	0.392
-304.837	-200.000	0.032	0.207
-303.822	-45.963	-0.317	-0.155
-302.807	564.097	0.160	-0.384
-301.793	-200.000	0.010	0.197
-300.778	-62.969	0.219	-0.090
-299.764	-13.218	0.143	0.092
-298.749	421.133	0.087	0.186
-297.735	-200.000	-0.081	0.358
-296.720	-101.128	0.223	0.054
-295.705	23.560	-0.316	-0.258
-294.691	609.221	-0.092	0.229
-293.676	185.172	0.068	-0.100
-292.662	-73.355	0.199	-0.072
-291.647	139.457	0.146	0.191
-290.632	55.494	0.058	0.056
-289.618	-1.910	0.121	-0.084
-288.603	800.000	0.077	0.227
-287.589	-183.656	-0.089	0.002
-286.574	-200.000	-0.005	-0.152
-285.559	-200.000	-0.006	-0.174
-284.545	92.300	-0.122	0.137
-283.530	-200.000	-0.006	0.121
-282.516	51.464	0.108	-0.102
-281.501	-192.396	0.109	-0.001
-280.486	-200.000	0.061	0.279
-279.472	82.955	0.159	-0.172
-278.457	-200.000	-0.015	0.312
-277.443	-200.000	-0.036	-0.244
-276.428	800.000	0.096	-0.265
-275.413	61.552	0.147	0.145
-274.399	-144.274	-0.160	0.015
-273.384	73.404	0.159	-0.165
-272.370	288.861	0.172	-0.309
-271.355	576.505	-0.050	-0.121
-270.340	-200.000	-0.011	0.119
-269.326	234.509	-0.070	-0.114
-268.311	144.310	-0.127	0.169
-267.297	-114.829	-0.258	0.049
-266.282	519.193	-0.079	0.184
-265.267	142.360	-0.086	0.113
-264.253	-200.000	-0.032	-0.172
-263.238	-139.997	0.364	0.038
-262.224	-96.365	-0.596	-0.156
-261.209	11.998	0.082	-0.063
-260.195	800.000	0.056	-0.186
-259.180	2.680	0.221	0.159
-258.165	-200.000	-0.029	0.202
-257.151	-151.082	-0.082	0.006
-256.136	470.725	-0.125	-0.278
-255.122	83.465	-0.050	-0.054
-254.107	-43.907	0.164	-0.082
-253.092	78.110	-0.144	-0.153
-252.078	179.220	0.059	0.085
-251.063	-200.000	-0.043	0.261
-250.049	578.156	-0.020	0.048
-249.034	-150.123	-0.276	0.021
-248.019	-138.490	0.198	0.022
-247.005	-98.893	-0.115	-0.029
-245.990	-200.000	-0.000	-0.246
-244.976	210.222	-0.141	-0.219
-243.961	436.368	0.073	-0.158
-242.946	56.168	0.051	0.049
-241.932	-96.535	0.108	0.028
-240.917	33.570	-0.152	0.130
-239.903	788.723	0.099	0.269
-238.888	64.168	-0.250	-0.249
-237.873	293.930	-0.056	-0.101
-236.859	-77.541	-0.195	-0.067
-235.844	541.227	-0.160	0.376
-234.830	19.588	0.099	-0.079
-233.815	582.109	-0.049	-0.119
-232.800	-45.951	-0.326	-0.160
-231.786	-96.382	0.172	0.045
-230.771	-200.000	0.008	-0.173
-229.757	-70.961	0.191	0.071
-228.742	-50.431	-0.125	0.058
-227.727	-200.000	-0.016	-0.072
-226.713	583.754	-0.101	0.246
-225.698	90.309	-0.152	-0.169
-224.684	-85.765	-0.052	-0.016
-223.669	-61.085	0.243	-0.101
-222.655	-200.000	-0.004	0.313
-221.640	800.000	-0.014	0.042
-220.625	-74.006	-0.304	-0.109
-219.611	-89.883	0.120	0.035
-218.596	-44.383	0.279	-0.138
-217.582	-135.517	0.321	0.038
-216.567	-75.509	-0.098	0.035
-215.552	-7.266	-0.072	-0.048
-214.538	-43.097	0.351	-0.176
-213.523	-142.270	0.159	0.016
-212.509	800.000	0.081	0.281
-211.494	-184.510	0.311	0.005
-210.479	-74.206	-0.027	-0.010
-209.465	-114.388	-0.396	0.075
-208.450	124.130	0.187	0.232
-207.436	-200.000	0.015	0.087
-206.421	-200.000	-0.033	-0.147
-205.406	-96.370	0.355	-0.093
-204.392	146.592	-0.259	-0.344
-203.377	-188.698	0.139	-0.002
-202.363	-73.275	-0.053	0.019
-201.348	15.019	0.181	-0.140
-200.333	-121.940	0.334	-0.054
-199.319	129.508	0.045	0.057
-198.304	123.593	-0.130	-0.161
-197.290	-108.516	-0.116	0.025
-196.275	40.959	-0.167	0.149
-195.260	6.675	0.190	0.140
-194.246	333.719	-0.054	0.104
-193.231	800.000	0.044	-0.132
-192.217	345.803	0.047	0.092
-191.202	800.000	-0.071	-0.245
-190.187	-138.068	0.335	0.037
-189.173	-51.039	0.115	0.053
-188.158	-64.357	0.216	0.087
-187.144	-200.000	-0.018	0.086
-186.129	95.236	-0.170	-0.192
-185.114	-158.199	0.135	0.008
-184.100	-22.173	-0.299	-0.179
-183.085	-200.000	0.026	-0.274
-182.071	-140.206	-0.173	-0.018
-181.056	-200.000	-0.025	-0.227
-180.042	800.000	0.019	0.053
-179.027	742.371	-0.048	0.127
-178.012	69.468	-0.239	0.244
-176.998	-200.000	0.006	0.091
-175.983	-34.201	-0.102	-0.055
-174.969	157.947	-0.157	-0.215
-173.954	-198.901	0.160	-0.001
-172.939	-81.864	0.089	-0.029
-171.925	-167.208	-0.489	-0.020
-170.910	-73.982	-0.319	0.114
-169.896	-181.687	-0.162	-0.003
-168.881	-76.600	0.068	-0.024
-167.866	-200.000	0.002	-0.329
-166.852	-81.370	0.103	0.034
-165.837	175.241	-0.084	0.120
-164.823	41.879	0.147	0.132
-163.808	141.485	-0.191	0.249
-162.793	800.000	0.084	-0.259
-161.779	-74.359	0.272	-0.097
-160.764	14.741	0.125	0.097
-159.750	78.659	-0.208	0.219
-158.735	800.000	0.041	0.122
-157.720	-55.245	-0.169	0.075
-156.706	54.655	0.191	-0.182
-155.691	800.000	0.030	0.102
-154.677	-200.000	-0.022	0.148
-153.662	-200.000	-0.016	0.189
-152.647	-5.912	0.144	0.097
-151.633	-65.096	0.194	-0.077
-150.618	55.755	0.208	0.199
-149.604	800.000	-0.077	0.220
-148.589	800.000	-0.104	0.312
-147.574	-152.018	0.593	0.043
-146.560	82.962	-0.126	0.136
-145.545	128.142	-0.144	0.181
-144.531	501.558	-0.048	0.110
-143.516	800.000	0.105	0.370
-142.502	-38.395	0.316	-0.165
-141.487	-86.270	0.055	0.017
-140.472	-17.756	-0.170	-0.105
-139.458	-200.000	0.025	0.157
-138.443	0.518	-0.133	-0.094
-137.429	118.416	0.317	0.386
-136.414	-178.668	-0.201	0.005
-135.399	140.226	-0.055	0.072
-134.385	800.000	0.026	-0.092
-133.370	-49.354	-0.177	0.083
-132.356	-34.315	-0.469	-0.254
-131.341	-126.589	0.037	0.005
-130.326	-68.750	-0.219	0.084
-129.312	94.975	0.127	-0.142
-128.297	-74.382	0.334	0.119
-127.283	133.258	0.077	-0.098
-126.268	-118.299	0.426	0.075
-125.253	102.658	-0.211	-0.244
-124.239	-200.000	-0.053	-0.278
-123.224	15.701	-0.086	0.067
-122.210	649.357	0.177	0.447
-121.195	-67.680	-0.162	-0.063
-120.180	-135.906	0.202	-0.024
