DTS Sentinel unit serial number:	SN413079Multiplexer serial number:	ORYXHardware model number:	OX4-SRSoftware version number:	ORYX F/W v4.00 Oryx Data Collector v3.7.2.0data status	okinstallation	princeton_trtdifferential loss correction	single-endedforward channel	channel 3reverse channel	N/Adate	2019/09/13time	12:44:35forward acquisition time	60.00reverse acquisition time	0.00gamma	496.2192k internal	0.2303k external	0.2303temperature offset calibration	1.0149default loss term (dB/km)	0.3790temperature slope calibration	1.0000multiplexer offset coefficient	1.0000multiplexer slope coefficient	1.0000fibre end	0.00T internal ref (°C)	34.69T ext. ref 1 (°C)	4.58T ext. ref 2 (°C)	30.54length (m)	temperature (°C)	Stokes	anti-Stokes-747.200	309.966	-0.088	0.168
-746.185	137.435	0.208	0.278
-745.171	556.328	-0.010	-0.025
-744.156	-200.000	-0.011	0.112
-743.142	366.948	-0.089	0.182
-742.127	-200.000	0.014	0.190
-741.112	-156.799	0.323	-0.020
-740.098	-55.991	-0.071	-0.032
-739.083	109.525	0.199	-0.242
-738.069	395.682	0.154	0.328
-737.054	41.854	0.217	-0.200
-736.039	-54.140	-0.574	-0.265
-735.025	800.000	-0.062	0.184
-734.010	-40.674	-0.259	-0.137
-732.996	-57.098	-0.164	-0.073
-731.981	-200.000	-0.024	-0.257
-730.966	-88.379	0.058	-0.018
-729.952	-99.542	-0.256	-0.066
-728.937	74.887	-0.139	0.149
-727.923	-129.561	-0.045	0.006
-726.908	165.800	-0.113	-0.163
-725.894	-152.587	-0.226	0.016
-724.879	-67.520	-0.361	-0.144
-723.864	51.684	-0.213	0.207
-722.850	-122.277	0.279	0.046
-721.835	-67.729	0.222	-0.088
-720.821	423.299	-0.014	-0.031
-719.806	5.890	0.252	-0.190
-718.791	-42.893	-0.466	0.241
-717.777	-0.997	0.117	-0.084
-716.762	-85.240	-0.187	0.060
-715.748	-47.027	0.285	0.141
-714.733	96.726	-0.152	0.177
-713.718	800.000	0.052	-0.175
-712.704	-67.092	0.188	-0.075
-711.689	630.082	0.076	0.195
-710.675	69.563	0.243	0.254
-709.660	126.438	0.303	-0.390
-708.645	-200.000	0.022	-0.108
-707.631	-45.556	-0.162	-0.081
-706.616	47.924	0.221	-0.210
-705.602	-20.764	-0.226	0.141
-704.587	95.141	-0.125	-0.145
-703.572	3.734	-0.160	-0.119
-702.558	246.561	-0.083	0.142
-701.543	418.060	-0.060	-0.130
-700.529	107.381	0.071	0.086
-699.514	-24.925	-0.285	-0.172
-698.499	99.032	-0.142	0.166
-697.485	257.127	-0.054	-0.095
-696.470	800.000	-0.054	-0.220
-695.456	-156.424	-0.273	0.017
-694.441	191.463	0.019	0.029
-693.426	-101.054	0.158	0.039
-692.412	26.854	0.331	0.282
-691.397	198.581	0.138	-0.215
-690.383	295.075	0.089	0.165
-689.368	373.997	0.046	0.096
-688.354	373.803	0.098	-0.203
-687.339	-200.000	0.037	-0.247
-686.324	-99.861	0.091	-0.023
-685.310	-200.000	-0.029	0.349
-684.295	68.482	-0.136	-0.141
-683.281	76.618	0.209	-0.225
-682.266	800.000	-0.100	0.304
-681.251	-91.550	-0.233	-0.067
-680.237	489.856	-0.064	-0.149
-679.222	-35.620	-0.115	-0.063
-678.208	141.846	0.225	-0.303
-677.193	-29.380	0.226	-0.131
-676.178	703.290	0.072	0.192
-675.164	304.134	-0.060	0.114
-674.149	-200.000	0.005	-0.107
-673.135	800.000	0.080	0.233
-672.120	-81.135	-0.267	-0.090
-671.105	-64.190	-0.172	0.071
-670.091	-48.347	0.320	0.157
-669.076	40.620	-0.042	0.039
-668.062	-51.502	-0.030	-0.014
-667.047	72.631	0.259	0.274
-666.032	66.383	-0.216	-0.223
-665.018	192.505	0.083	-0.127
-664.003	51.134	0.054	-0.052
-662.989	58.156	-0.235	0.234
-661.974	22.093	-0.155	-0.128
-660.959	-200.000	-0.004	0.074
-659.945	435.461	-0.084	0.186
-658.930	-51.926	-0.096	-0.045
-657.916	103.614	0.040	-0.048
-656.901	0.508	-0.089	-0.065
-655.886	-123.933	0.115	0.018
-654.872	245.836	0.157	0.268
-653.857	75.911	0.324	-0.348
-652.843	550.455	0.066	0.160
-651.828	254.641	0.169	0.293
-650.814	-200.000	0.059	-0.388
-649.799	126.355	-0.254	-0.326
-648.784	-200.000	-0.045	-0.203
-647.770	397.375	0.086	0.182
-646.755	16.040	0.290	-0.231
-645.741	-200.000	0.000	0.097
-644.726	-108.099	0.049	-0.011
-643.711	-200.000	0.003	0.138
-642.697	192.111	-0.032	-0.049
-641.682	-55.877	-0.027	-0.012
-640.668	-127.652	-0.516	0.076
-639.653	28.455	-0.219	-0.187
-638.638	300.241	0.132	0.248
-637.624	-200.000	-0.039	0.183
-636.609	148.805	0.097	0.132
-635.595	-89.692	0.152	0.045
-634.580	32.684	-0.187	-0.164
-633.565	32.670	-0.288	-0.253
-632.551	18.885	-0.158	0.128
-631.536	-96.511	-0.149	0.040
-630.522	-200.000	0.038	-0.472
-629.507	-38.556	-0.099	-0.053
-628.492	-178.005	0.170	0.004
-627.478	-22.204	0.120	0.074
-626.463	-63.758	-0.276	0.114
-625.449	800.000	-0.010	-0.032
-624.434	256.230	-0.236	-0.410
-623.419	191.465	0.105	-0.161
-622.405	-119.808	0.297	0.052
-621.390	-200.000	-0.020	-0.122
-620.376	451.572	-0.127	0.284
-619.361	-200.000	0.005	0.264
-618.346	-116.406	-0.433	-0.081
-617.332	-200.000	0.031	-0.178
-616.317	-192.047	-0.343	0.003
-615.303	-127.081	-0.268	0.040
-614.288	-0.615	-0.303	-0.218
-613.273	-200.000	0.017	-0.341
-612.259	86.869	-0.143	0.160
-611.244	-133.882	-0.027	0.003
-610.230	-113.654	0.229	-0.045
-609.215	-10.630	-0.405	0.272
-608.201	800.000	0.093	-0.386
-607.186	-60.212	0.268	-0.116
-606.171	-67.483	-0.133	-0.053
-605.157	-8.395	-0.030	-0.021
-604.142	-61.967	-0.030	0.013
-603.128	-33.208	0.051	0.029
-602.113	800.000	-0.128	-0.383
-601.098	608.956	0.060	-0.153
-600.084	238.445	0.125	0.210
-599.069	76.051	0.211	-0.226
-598.055	-200.000	0.011	-0.140
-597.040	-200.000	0.031	-0.319
-596.025	-12.710	-0.276	-0.182
-595.011	662.636	-0.046	0.121
-593.996	374.158	-0.060	-0.123
-592.982	800.000	-0.070	0.221
-591.967	-127.627	-0.112	-0.016
-590.952	-69.475	0.230	0.089
-589.938	68.332	-0.115	0.119
-588.923	-104.863	-0.051	0.012
-587.909	657.846	-0.047	0.122
-586.894	800.000	0.035	-0.114
-585.879	2.885	0.063	0.046
-584.865	-3.055	-0.032	-0.023
-583.850	-32.024	-0.181	-0.102
-582.836	-165.812	-0.503	0.022
-581.821	-88.578	-0.263	-0.079
-580.806	557.840	0.089	0.218
-579.792	-59.388	-0.309	-0.134
-578.777	800.000	-0.032	-0.142
-577.763	-88.326	0.202	-0.061
-576.748	49.001	0.144	-0.137
-575.733	-4.836	0.231	-0.161
-574.719	800.000	0.106	-0.408
-573.704	-200.000	0.018	-0.111
-572.690	19.096	-0.142	0.115
-571.675	-170.296	-0.118	-0.004
-570.661	-181.148	0.084	-0.002
-569.646	-200.000	0.022	0.393
-568.631	-90.123	0.303	0.089
-567.617	-54.364	0.216	-0.099
-566.602	-90.789	0.235	0.068
-565.588	40.645	-0.281	0.256
-564.573	-32.611	-0.146	0.082
-563.558	309.082	-0.054	0.102
-562.544	-200.000	-0.004	-0.202
-561.529	74.069	0.170	-0.181
-560.515	-152.251	-0.145	-0.011
-559.500	39.812	0.127	0.116
-558.485	-33.874	0.101	-0.056
-557.471	-69.108	-0.162	0.063
-556.456	-127.650	0.149	0.022
-555.442	-161.656	-0.050	-0.003
-554.427	-59.244	-0.320	0.140
-553.412	-200.000	0.003	-0.094
-552.398	63.022	0.069	-0.070
-551.383	-150.256	-0.166	0.013
-550.369	-154.595	-0.325	-0.022
-549.354	-152.072	-0.066	0.005
-548.339	191.250	0.048	0.074
-547.325	54.416	0.150	-0.146
-546.310	434.028	-0.130	0.285
-545.296	90.766	-0.154	0.175
-544.281	-200.000	0.059	-0.320
-543.266	-200.000	0.009	0.048
-542.252	-200.000	-0.067	-0.336
-541.237	0.272	-0.078	0.056
-540.223	800.000	0.050	0.199
-539.208	-79.619	0.125	-0.043
-538.193	800.000	-0.050	-0.207
-537.179	-62.874	-0.047	0.020
-536.164	-8.537	-0.299	0.203
-535.150	50.644	-0.119	0.114
-534.135	79.517	-0.030	-0.033
-533.121	-122.881	0.328	0.054
-532.106	-200.000	-0.017	0.146
-531.091	-105.140	-0.250	-0.058
-530.077	-106.223	-0.198	0.045
-529.062	72.030	0.176	0.185
-528.048	25.305	0.216	-0.181
-527.033	-168.172	0.410	-0.016
-526.018	-134.080	0.123	-0.015
-525.004	-200.000	0.023	-0.215
-523.989	-162.913	0.295	0.014
-522.975	-1.602	0.450	0.320
-521.960	-131.071	-0.308	-0.041
-520.945	800.000	0.046	-0.136
-519.931	-143.218	-0.253	0.025
-518.916	-200.000	-0.051	0.230
-517.902	-3.044	-0.262	-0.185
-516.887	800.000	0.050	-0.179
-515.872	-3.766	0.197	-0.138
-514.858	166.258	0.124	-0.177
-513.843	194.149	0.194	-0.296
-512.829	22.710	0.147	0.122
-511.814	800.000	-0.058	-0.207
-510.799	73.465	-0.322	0.340
-509.785	-200.000	-0.076	0.544
-508.770	-149.893	0.164	-0.013
-507.756	-200.000	-0.034	-0.203
-506.741	-60.893	0.348	-0.149
-505.726	-109.795	0.300	0.064
-504.712	-86.234	-0.273	0.085
-503.697	47.100	0.149	-0.140
-502.683	276.795	0.020	0.037
-501.668	18.387	-0.092	-0.074
-500.653	-200.000	-0.006	0.051
-499.639	-59.054	-0.129	0.056
-498.624	-142.951	-0.197	0.019
-497.610	145.459	-0.317	0.428
-496.595	110.236	-0.051	-0.062
-495.581	-200.000	-0.051	0.226
-494.566	-200.000	0.010	0.220
-493.551	-35.759	-0.062	-0.034
-492.537	47.054	-0.231	0.217
-491.522	-66.192	-0.239	0.096
-490.508	278.666	-0.190	-0.341
-489.493	-135.011	-0.355	0.043
-488.478	-101.159	0.235	-0.058
-487.464	185.249	0.154	0.231
-486.449	-125.195	0.166	0.026
-485.435	219.169	0.116	-0.187
-484.420	-200.000	0.008	-0.057
-483.405	248.706	-0.159	-0.271
-482.391	83.076	0.123	0.135
-481.376	-110.847	0.200	-0.041
-480.362	-200.000	0.040	0.262
-479.347	-200.000	-0.025	0.147
-478.332	77.727	-0.124	0.133
-477.318	800.000	0.127	-0.513
-476.303	240.697	0.106	0.179
-475.289	-5.141	0.208	-0.144
-474.274	540.950	0.047	-0.114
-473.259	-142.928	-0.201	0.020
-472.245	-150.447	0.116	-0.009
-471.230	385.894	-0.071	0.148
-470.216	-200.000	0.341	0.001
-469.201	-200.000	-0.020	0.116
-468.186	663.281	-0.066	-0.170
-467.172	242.326	-0.167	0.281
-466.157	46.944	0.144	0.135
-465.143	-36.603	-0.103	0.056
-464.128	-200.000	0.034	-0.296
-463.113	-116.292	0.106	0.020
-462.099	467.774	-0.055	-0.124
-461.084	-90.821	0.146	0.042
-460.070	-32.268	-0.095	-0.053
-459.055	-71.637	0.105	0.040
-458.040	95.352	-0.224	-0.257
-457.026	-119.182	-0.068	0.012
-456.011	437.173	-0.104	-0.229
-454.997	-97.787	0.184	-0.048
-453.982	-99.672	0.438	-0.111
-452.968	120.199	-0.084	0.105
-451.953	-140.137	-0.181	-0.019
-450.938	26.519	0.115	0.097
-449.924	305.708	-0.287	-0.536
-448.909	-161.284	0.132	-0.007
-447.895	-4.531	-0.131	0.091
-446.880	-167.602	0.387	-0.015
-445.865	399.154	0.120	0.252
-444.851	-99.476	0.393	-0.100
-443.836	309.200	-0.153	-0.287
-442.822	-200.000	0.012	-0.252
-441.807	339.259	-0.058	0.114
-440.792	-28.582	-0.241	-0.140
-439.778	270.910	0.078	-0.138
-438.763	800.000	0.066	0.240
-437.749	165.135	0.082	-0.117
-436.734	114.709	0.114	0.140
-435.719	30.263	0.116	-0.099
-434.705	-200.000	-0.016	0.130
-433.690	113.782	0.166	0.203
-432.676	74.719	0.202	0.213
-431.661	-34.733	0.335	0.184
-430.646	-111.838	0.202	0.041
-429.632	-71.672	-0.266	-0.100
-428.617	-200.000	-0.001	-0.274
-427.603	29.644	-0.241	-0.206
-426.588	-138.590	-0.110	-0.012
-425.573	452.985	0.139	0.308
-424.559	-200.000	-0.018	-0.140
-423.544	19.673	0.074	-0.060
-422.530	-91.501	-0.135	-0.039
-421.515	800.000	0.075	-0.232
-420.500	-46.370	-0.092	-0.046
-419.486	89.550	-0.006	0.006
-418.471	-107.822	-0.127	0.028
-417.457	-200.000	-0.033	-0.442
-416.442	-200.000	0.005	0.319
-415.428	-11.775	-0.049	-0.032
-414.413	-101.451	-0.132	-0.032
-413.398	-146.867	-0.124	0.011
-412.384	-200.000	0.028	-0.183
-411.369	168.232	-0.238	-0.341
-410.355	29.379	0.149	0.127
-409.340	112.015	0.209	0.253
-408.325	531.282	-0.052	0.125
-407.311	-108.434	0.201	0.044
-406.296	800.000	0.088	-0.372
-405.282	213.212	-0.127	-0.202
-404.267	-90.883	-0.368	0.107
-403.252	-200.000	-0.013	0.344
-402.238	-200.000	0.009	0.044
-401.223	-200.000	-0.007	-0.086
-400.209	-30.526	0.345	0.196
-399.194	-42.186	-0.364	-0.187
-398.179	17.961	0.137	0.110
-397.165	-96.826	0.396	0.104
-396.150	800.000	0.021	0.069
-395.136	-117.576	0.085	-0.015
-394.121	798.607	-0.023	0.063
-393.106	687.148	0.083	0.217
-392.092	149.333	-0.074	0.101
-391.077	-11.789	-0.072	0.048
-390.063	-91.744	-0.341	0.097
-389.048	-19.311	-0.202	-0.126
-388.033	2.757	-0.301	0.220
-387.019	-200.000	-0.020	-0.149
-386.004	154.896	-0.013	-0.018
-384.990	380.750	0.042	-0.087
-383.975	-9.978	0.199	0.133
-382.960	-134.175	0.125	0.016
-381.946	571.280	0.032	0.078
-380.931	-84.766	0.102	0.032
-379.917	-175.763	0.228	-0.006
-378.902	-200.000	-0.005	-0.472
-377.888	43.938	-0.268	0.246
-376.873	-55.202	0.058	0.026
-375.858	157.041	-0.097	-0.135
-374.844	-167.681	-0.096	0.004
-373.829	-200.000	-0.008	0.127
-372.815	-150.463	-0.372	-0.029
-371.800	17.154	0.117	-0.093
-370.785	-41.204	0.130	0.067
-369.771	-200.000	0.026	-0.225
-368.756	-200.000	0.063	0.296
-367.742	306.277	0.175	-0.326
-366.727	-97.235	-0.230	0.060
-365.712	236.270	0.105	0.174
-364.698	51.384	0.135	-0.129
-363.683	-99.076	-0.116	0.029
-362.669	355.011	-0.069	0.139
-361.654	568.477	0.116	-0.282
-360.639	-200.000	-0.004	0.131
-359.625	-200.000	0.058	-0.530
-358.610	187.684	0.109	-0.164
-357.596	15.032	-0.148	-0.116
-356.581	16.851	-0.168	0.133
-355.566	5.967	0.217	0.161
-354.552	800.000	0.077	0.257
-353.537	-0.777	0.222	0.158
-352.523	-114.200	0.099	0.019
-351.508	-73.562	0.154	-0.056
-350.493	69.792	-0.235	0.243
-349.479	-76.275	0.137	-0.048
-348.464	113.708	0.124	-0.152
-347.450	-21.051	-0.163	-0.100
-346.435	-15.645	-0.210	-0.134
-345.420	-13.781	-0.232	-0.150
-344.406	117.592	-0.124	-0.153
-343.391	800.000	0.062	-0.208
-342.377	-3.974	-0.161	-0.112
-341.362	-111.864	0.394	0.080
-340.348	13.729	-0.160	0.125
-339.333	93.190	0.075	0.085
-338.318	-55.667	0.301	0.135
-337.304	800.000	-0.125	-0.387
-336.289	800.000	-0.046	0.184
-335.275	800.000	0.057	-0.172
-334.260	68.155	-0.167	-0.172
-333.245	59.099	-0.062	-0.062
-332.231	221.902	-0.087	0.140
-331.216	234.688	0.151	-0.249
-330.202	-95.163	-0.080	0.022
-329.187	-200.000	-0.007	0.048
-328.172	45.856	-0.179	0.166
-327.158	11.201	-0.192	0.148
-326.143	-200.000	0.072	-0.363
-325.129	800.000	0.064	0.226
-324.114	800.000	-0.059	-0.219
-323.099	-160.611	-0.168	0.009
-322.085	-0.158	0.132	0.094
-321.070	800.000	-0.067	-0.246
-320.056	-194.795	-0.330	-0.003
-319.041	-200.000	0.035	0.212
-318.026	-200.000	-0.012	-0.155
-317.012	-200.000	0.022	-0.221
-315.997	28.608	0.273	0.231
-314.983	-104.966	-0.230	-0.053
-313.968	-200.000	0.037	0.439
-312.953	800.000	0.050	0.188
-311.939	309.500	-0.084	0.157
-310.924	569.747	-0.056	0.137
-309.910	-54.181	-0.362	0.165
-308.895	-43.890	0.262	-0.132
-307.880	133.073	0.056	-0.072
-306.866	34.408	0.278	-0.243
-305.851	-145.172	-0.139	-0.013
-304.837	8.396	-0.417	0.314
-303.822	800.000	-0.120	-0.489
-302.807	-38.083	0.212	0.113
-301.793	0.527	0.240	0.171
-300.778	800.000	-0.042	-0.124
-299.764	-200.000	0.017	-0.097
-298.749	100.359	-0.165	-0.191
-297.735	-62.767	0.162	0.067
-296.720	-200.000	-0.012	-0.194
-295.705	282.370	-0.149	0.268
-294.691	49.038	0.136	0.128
-293.676	800.000	0.083	-0.299
-292.662	123.902	0.279	0.350
-291.647	-34.204	-0.303	0.167
-290.632	-200.000	-0.014	-0.154
-289.618	-200.000	0.023	-0.174
-288.603	-70.115	-0.289	0.110
-287.589	-38.788	-0.267	0.141
-286.574	-99.181	0.106	0.027
-285.559	-200.000	0.040	0.210
-284.545	182.344	0.068	-0.100
-283.530	-43.640	-0.149	-0.075
-282.516	800.000	-0.037	0.139
-281.501	689.038	0.098	0.256
-280.486	108.204	-0.389	-0.464
-279.472	800.000	0.060	0.193
-278.457	800.000	0.033	-0.092
-277.443	380.085	0.090	0.185
-276.428	151.743	-0.008	0.011
-275.413	306.477	0.165	-0.306
-274.399	-200.000	-0.031	0.152
-273.384	553.490	0.053	-0.127
-272.370	-49.827	0.025	0.012
-271.355	-163.136	-0.242	0.012
-270.340	800.000	-0.155	0.534
-269.326	-200.000	0.028	-0.129
-268.311	33.338	0.085	0.074
-267.297	800.000	-0.067	0.255
-266.282	-10.987	-0.124	-0.082
-265.267	-97.093	0.290	-0.076
-264.253	5.283	0.329	0.243
-263.238	-89.961	0.258	-0.075
-262.224	-66.705	0.218	0.086
-261.209	76.701	-0.081	0.086
-260.195	-47.260	-0.102	0.049
-259.180	-200.000	0.001	-0.073
-258.165	80.884	0.154	-0.165
-257.151	54.312	0.101	-0.097
-256.136	720.346	-0.069	-0.183
-255.122	67.923	0.152	0.156
-254.107	-200.000	0.014	0.172
-253.092	214.095	0.093	0.148
-252.078	-156.803	-0.199	-0.012
-251.063	58.734	0.038	-0.037
-250.049	-149.246	0.204	-0.016
-249.034	800.000	0.099	-0.288
-248.019	-152.558	-0.186	0.013
-247.005	800.000	-0.094	-0.403
-245.990	-200.000	-0.013	0.111
-244.976	452.919	0.119	0.264
-243.961	-94.567	0.155	0.042
-242.946	-200.000	-0.027	0.291
-241.932	-174.231	0.146	0.004
-240.917	-120.490	0.077	-0.013
-239.903	-56.495	0.012	-0.005
-238.888	93.334	0.226	0.255
-237.873	-112.834	0.315	0.062
-236.859	-200.000	-0.005	0.056
-235.844	-200.000	-0.006	0.161
-234.830	-110.005	0.323	0.067
-233.815	381.280	0.114	0.235
-232.800	-134.561	0.113	0.014
-231.786	-200.000	-0.023	-0.187
-230.771	52.421	0.036	0.034
-229.757	-159.176	0.159	-0.009
-228.742	318.885	0.075	0.141
-227.727	-47.866	-0.108	-0.052
-226.713	227.217	0.145	0.235
-225.698	142.912	-0.063	0.083
-224.684	117.621	-0.043	-0.052
-223.669	137.012	0.106	-0.138
-222.655	-60.310	-0.051	-0.022
-221.640	-200.000	-0.027	-0.386
-220.625	-3.453	0.245	0.170
-219.611	-20.027	-0.080	0.049
-218.596	23.780	0.106	0.087
-217.582	800.000	-0.038	0.106
-216.567	17.259	0.219	-0.173
-215.552	-27.166	-0.085	0.049
-214.538	-132.097	-0.288	-0.037
-213.523	-200.000	-0.021	0.105
-212.509	-93.196	-0.183	0.051
-211.494	-200.000	-0.006	0.215
-210.479	-170.531	0.298	0.010
-209.465	52.960	-0.083	0.079
-208.450	-83.521	0.207	0.066
-207.436	198.703	-0.037	0.057
-206.421	-20.170	-0.175	-0.108
-205.406	800.000	0.027	-0.077
-204.392	-75.510	-0.090	0.032
-203.377	-71.794	-0.305	-0.113
-202.363	-200.000	-0.005	0.192
-201.348	339.123	0.232	0.452
-200.333	-200.000	-0.023	0.369
-199.319	-85.441	-0.254	0.079
-198.304	67.041	-0.147	0.150
-197.290	-114.309	0.207	0.040
-196.275	-48.415	0.210	-0.101
-195.260	800.000	-0.048	0.140
-194.246	-138.634	0.161	-0.018
-193.231	-200.000	0.006	0.141
-192.217	800.000	0.097	-0.322
-191.202	102.324	-0.168	-0.195
-190.187	-147.267	0.255	0.022
-189.173	16.182	0.065	0.051
-188.158	256.015	0.249	0.425
-187.144	482.961	0.008	0.019
-186.129	-122.147	0.182	-0.030
-185.114	104.044	-0.218	0.256
-184.100	-19.272	-0.351	0.217
-183.085	133.335	0.167	0.215
-182.071	-146.089	-0.156	-0.014
-181.056	-127.958	-0.141	-0.020
-180.042	45.704	0.139	0.128
-179.027	406.194	-0.053	-0.112
-178.012	166.204	0.290	-0.409
-176.998	-160.452	0.362	-0.019
-175.983	-125.602	-0.366	-0.055
-174.969	-8.296	-0.164	-0.110
-173.954	-200.000	0.035	-0.176
-172.939	800.000	-0.080	-0.243
-171.925	-114.012	0.163	-0.032
-170.910	-118.031	-0.385	0.068
-169.896	-13.987	-0.264	-0.170
-168.881	-22.665	0.345	-0.207
-167.866	136.816	-0.102	0.133
-166.852	-7.315	0.242	0.163
-165.837	-200.000	-0.034	0.294
-164.823	213.581	0.134	0.211
-163.808	178.035	0.164	-0.239
-162.793	-111.944	0.246	0.049
-161.779	-17.590	0.445	0.279
-160.764	184.763	0.149	-0.219
-159.750	-178.146	-0.357	0.008
-158.735	-102.866	-0.108	0.026
-157.720	646.426	0.022	0.057
-156.706	-138.791	-0.182	-0.020
-155.691	-101.711	0.249	0.060
-154.677	-200.000	0.011	0.099
-153.662	-142.683	0.036	0.004
-152.647	-94.621	0.118	0.032
-151.633	-50.262	0.040	0.019
-150.618	-75.125	-0.255	-0.091
-149.604	56.614	0.213	-0.207
-148.589	-200.000	-0.010	-0.294
-147.574	192.483	-0.083	-0.124
-146.560	-200.000	-0.060	0.276
-145.545	12.759	-0.354	-0.272
-144.531	-56.918	0.195	-0.086
-143.516	-9.189	0.271	-0.180
-142.502	-89.025	0.309	0.091
-141.487	-32.793	-0.196	-0.108
-140.472	-61.087	0.346	0.145
-139.458	800.000	0.023	-0.086
-138.443	-44.742	-0.250	-0.124
-137.429	105.958	0.044	-0.052
-136.414	199.275	-0.144	0.220
-135.399	75.578	-0.108	-0.113
-134.385	148.205	-0.036	-0.048
-133.370	-50.114	-0.390	0.183
-132.356	-200.000	-0.005	0.035
-131.341	800.000	0.061	0.227
-130.326	-200.000	-0.061	-0.376
-129.312	-200.000	-0.025	-0.175
-128.297	-40.754	-0.098	0.051
-127.283	-130.643	0.106	0.014
-126.268	123.554	-0.108	0.135
-125.253	-107.775	-0.117	0.025
-124.239	173.353	0.269	0.385
-123.224	800.000	0.069	0.220
-122.210	-81.169	0.133	0.044
-121.195	-68.569	0.221	0.085
