DTS Sentinel unit serial number:	SN413079Multiplexer serial number:	ORYXHardware model number:	OX4-SRSoftware version number:	ORYX F/W v4.00 Oryx Data Collector v3.7.2.0data status	okinstallation	princeton_trtdifferential loss correction	single-endedforward channel	channel 3reverse channel	N/Adate	2019/09/17time	02:20:34forward acquisition time	60.00reverse acquisition time	0.00gamma	496.2192k internal	0.2323k external	0.2323temperature offset calibration	0.9942default loss term (dB/km)	0.3790temperature slope calibration	1.0000multiplexer offset coefficient	1.0000multiplexer slope coefficient	1.0000fibre end	0.00T internal ref (°C)	29.77T ext. ref 1 (°C)	0.12T ext. ref 2 (°C)	24.70length (m)	temperature (°C)	Stokes	anti-Stokes-747.200	-200.000	0.035	0.243
-746.185	-24.612	-0.233	-0.140
-745.171	-88.567	-0.125	0.038
-744.156	105.749	-0.194	0.232
-743.142	-60.698	0.226	0.097
-742.127	242.392	-0.167	0.281
-741.112	154.776	-0.090	0.125
-740.098	528.923	0.049	0.118
-739.083	75.897	-0.218	0.233
-738.069	-71.797	-0.078	0.029
-737.054	129.924	0.072	-0.094
-736.039	-33.864	-0.158	-0.088
-735.025	-9.979	-0.072	-0.048
-734.010	-68.389	-0.238	0.093
-732.996	196.990	-0.225	-0.346
-731.981	430.576	0.145	0.316
-730.966	-200.000	-0.086	0.407
-729.952	-44.710	0.082	-0.042
-728.937	-113.914	0.144	0.028
-727.923	-106.650	-0.468	-0.105
-726.908	649.447	-0.048	-0.125
-725.894	-183.050	0.041	-0.001
-724.879	-6.977	-0.168	-0.115
-723.864	-200.000	-0.058	-0.452
-722.850	-200.000	0.001	0.194
-721.835	-80.195	0.147	-0.050
-720.821	35.856	-0.214	-0.190
-719.806	563.107	0.113	-0.275
-718.791	-196.362	0.165	0.001
-717.777	-200.000	0.024	-0.118
-716.762	800.000	-0.034	-0.150
-715.748	-123.992	0.306	-0.049
-714.733	395.802	0.067	0.140
-713.718	104.039	0.081	0.096
-712.704	-88.706	0.275	-0.082
-711.689	-180.900	-0.247	-0.005
-710.675	255.991	-0.074	-0.128
-709.660	-76.707	-0.147	-0.052
-708.645	-102.686	-0.332	0.080
-707.631	-51.396	-0.294	-0.139
-706.616	-200.000	-0.000	0.067
-705.602	-99.072	0.460	0.118
-704.587	701.123	-0.018	0.049
-703.572	-73.718	-0.261	0.096
-702.558	-101.901	0.134	0.033
-701.543	-11.194	0.057	0.038
-700.529	199.156	-0.107	0.166
-699.514	-126.080	0.327	-0.050
-698.499	104.410	-0.115	0.136
-697.485	-123.628	0.400	-0.064
-696.470	-200.000	0.009	-0.175
-695.456	503.262	0.102	0.237
-694.441	-71.880	-0.302	0.113
-693.426	16.610	0.179	-0.143
-692.412	-200.000	0.006	0.120
-691.397	-200.000	-0.005	0.075
-690.383	-127.102	-0.261	0.039
-689.368	-152.926	-0.496	0.035
-688.354	-200.000	0.422	0.000
-687.339	-78.179	0.156	-0.054
-686.324	800.000	-0.078	0.274
-685.310	149.756	0.153	0.210
-684.295	-115.778	0.283	-0.053
-683.281	-200.000	-0.020	0.283
-682.266	283.276	-0.205	-0.372
-681.251	65.420	-0.329	-0.335
-680.237	-41.113	-0.320	-0.166
-679.222	173.814	-0.140	-0.204
-678.208	4.513	-0.167	0.124
-677.193	148.011	0.067	-0.091
-676.178	-78.457	-0.261	-0.090
-675.164	-200.000	0.045	-0.269
-674.149	793.451	0.068	0.190
-673.135	-173.238	0.463	-0.014
-672.120	289.638	-0.199	-0.363
-671.105	800.000	0.040	-0.137
-670.091	800.000	0.065	0.185
-669.076	114.376	-0.119	0.146
-668.062	-163.711	-0.098	-0.005
-667.047	57.416	0.122	0.120
-666.032	678.075	0.039	-0.103
-665.018	800.000	-0.076	0.222
-664.003	-83.267	0.240	0.078
-662.989	-103.161	-0.172	0.041
-661.974	-95.304	0.229	0.062
-660.959	-10.792	-0.055	0.036
-659.945	0.190	0.132	-0.095
-658.930	370.264	-0.096	0.196
-657.916	186.808	0.108	0.162
-656.901	-44.496	0.246	-0.124
-655.886	320.264	0.106	0.203
-654.872	-125.141	-0.168	0.026
-653.857	-24.095	-0.329	0.198
-652.843	704.678	0.104	0.276
-651.828	352.341	-0.197	0.394
-650.814	-121.812	0.322	-0.054
-649.799	390.628	-0.077	0.160
-648.784	76.440	0.061	-0.065
-647.770	-94.530	0.097	0.027
-646.755	623.369	-0.160	-0.406
-645.741	290.042	0.094	-0.172
-644.726	800.000	0.025	-0.105
-643.711	45.086	-0.137	0.127
-642.697	440.522	-0.088	-0.193
-641.682	-20.611	0.116	-0.072
-640.668	-98.252	-0.194	-0.050
-639.653	-154.213	-0.163	0.011
-638.638	241.993	-0.233	-0.392
-637.624	35.227	-0.268	-0.236
-636.609	-40.989	-0.307	-0.160
-635.595	10.202	-0.047	-0.036
-634.580	6.242	0.129	0.097
-633.565	-200.000	0.002	0.245
-632.551	-73.516	-0.438	-0.161
-631.536	7.969	0.165	-0.125
-630.522	568.886	0.142	0.346
-629.507	-81.273	0.243	-0.081
-628.492	21.579	0.051	0.042
-627.478	800.000	-0.057	-0.242
-626.463	117.210	0.058	-0.072
-625.449	241.917	-0.256	0.430
-624.434	-16.828	0.036	0.023
-623.419	-200.000	-0.004	-0.088
-622.405	214.999	0.096	0.153
-621.390	-200.000	0.052	-0.251
-620.376	371.680	-0.099	-0.202
-619.361	-49.780	-0.318	-0.152
-618.346	-136.877	-0.293	0.034
-617.332	-62.870	-0.250	0.104
-616.317	-101.482	0.087	-0.021
-615.303	104.819	0.163	0.193
-614.288	-89.704	-0.094	-0.028
-613.273	68.489	0.103	0.106
-612.259	-68.329	0.371	-0.145
-611.244	-200.000	-0.002	0.096
-610.230	-10.900	0.165	-0.110
-609.215	-98.396	-0.370	0.095
-608.201	-200.000	0.022	-0.259
-607.186	240.856	-0.095	-0.159
-606.171	323.970	-0.131	0.252
-605.157	-137.309	0.176	0.020
-604.142	800.000	0.067	0.267
-603.128	65.540	-0.170	-0.173
-602.113	-93.157	-0.015	0.004
-601.098	-200.000	0.023	-0.185
-600.084	-15.085	0.153	-0.098
-599.069	-69.802	-0.387	0.148
-598.055	-200.000	0.024	-0.119
-597.040	800.000	0.072	-0.291
-596.025	-96.361	-0.281	-0.075
-595.011	50.843	-0.048	-0.046
-593.996	-11.495	-0.327	0.216
-592.982	644.765	-0.239	-0.611
-591.967	-168.550	0.089	0.003
-590.952	689.737	0.078	-0.205
-589.938	800.000	-0.028	-0.102
-588.923	-161.553	-0.323	-0.017
-587.909	-200.000	0.022	-0.247
-586.894	-97.503	-0.102	0.026
-585.879	219.824	0.133	-0.214
-584.865	-198.951	0.154	0.001
-583.850	342.883	0.129	0.253
-582.836	800.000	-0.015	0.046
-581.821	384.290	0.114	-0.236
-580.806	-70.866	-0.155	-0.059
-579.792	-158.020	-0.181	0.011
-578.777	-156.748	0.414	0.026
-577.763	-19.813	0.262	0.163
-576.748	-83.109	0.170	-0.055
-575.733	46.509	-0.101	-0.094
-574.719	-23.654	0.200	-0.120
-573.704	-12.526	0.289	0.190
-572.690	-200.000	-0.016	0.295
-571.675	800.000	-0.062	0.238
-570.661	481.995	0.137	0.312
-569.646	-200.000	0.025	0.153
-568.631	-200.000	0.028	0.313
-567.617	-200.000	-0.018	-0.140
-566.602	483.393	0.059	-0.134
-565.588	-200.000	0.005	-0.042
-564.573	60.508	-0.209	-0.207
-563.558	-200.000	-0.026	-0.325
-562.544	-33.309	0.144	-0.080
-561.529	-62.583	0.107	-0.044
-560.515	215.985	0.058	-0.092
-559.500	800.000	0.036	-0.119
-558.485	176.748	-0.067	-0.097
-557.471	-41.544	-0.080	-0.041
-556.456	-200.000	0.044	-0.398
-555.442	-107.112	0.245	0.054
-554.427	800.000	0.084	0.277
-553.412	800.000	-0.046	-0.127
-552.398	-186.628	0.122	0.002
-551.383	-151.756	0.133	-0.010
-550.369	-29.439	0.366	-0.210
-549.354	-200.000	0.016	-0.324
-548.339	429.710	0.121	0.263
-547.325	-85.646	-0.337	0.105
-546.310	360.158	0.045	-0.091
-545.296	21.465	-0.294	-0.240
-544.281	93.675	0.045	0.051
-543.266	800.000	0.034	-0.110
-542.252	541.726	0.121	-0.289
-541.237	-56.680	-0.033	0.015
-540.223	-69.353	0.023	0.009
-539.208	3.642	0.136	-0.099
-538.193	-20.661	-0.178	-0.110
-537.179	-58.978	0.268	-0.116
-536.164	800.000	0.045	0.167
-535.150	-200.000	0.002	0.245
-534.135	139.734	0.050	0.066
-533.121	800.000	-0.080	-0.261
-532.106	-100.482	0.079	-0.019
-531.091	316.897	-0.065	-0.124
-530.077	800.000	0.018	-0.063
-529.062	291.114	-0.109	-0.198
-528.048	88.070	0.177	-0.197
-527.033	-31.585	-0.261	-0.147
-526.018	-55.237	-0.435	-0.196
-525.004	-200.000	0.027	-0.301
-523.989	800.000	0.074	-0.274
-522.975	800.000	0.051	0.160
-521.960	-200.000	-0.011	0.307
-520.945	153.682	0.071	0.098
-519.931	419.732	0.150	0.322
-518.916	-1.034	-0.230	-0.163
-517.902	-68.708	-0.076	-0.029
-516.887	-58.332	-0.139	0.061
-515.872	-9.102	-0.059	-0.040
-514.858	-200.000	-0.068	0.314
-513.843	800.000	-0.033	0.094
-512.829	-34.814	0.223	-0.122
-511.814	800.000	-0.135	0.449
-510.799	338.508	0.096	0.186
-509.785	137.436	0.148	-0.194
-508.770	176.512	-0.245	0.357
-507.756	-124.325	0.050	-0.008
-506.741	-28.281	-0.197	-0.114
-505.726	-136.555	-0.240	0.028
-504.712	-24.166	0.232	-0.139
-503.697	5.038	0.130	0.096
-502.683	242.811	-0.136	0.228
-501.668	-18.498	-0.178	0.111
-500.653	-44.481	-0.148	-0.074
-499.639	144.788	0.150	-0.201
-498.624	193.101	0.205	0.310
-497.610	-66.544	0.199	0.079
-496.595	-38.135	-0.320	-0.170
-495.581	-111.993	0.109	-0.022
-494.566	800.000	0.031	0.130
-493.551	-23.858	0.147	-0.088
-492.537	-140.304	-0.396	-0.041
-491.522	-19.238	-0.279	-0.173
-490.508	-96.068	0.235	-0.062
-489.493	800.000	-0.030	-0.106
-488.478	-16.728	0.157	-0.100
-487.464	-89.940	-0.108	0.031
-486.449	12.540	0.071	0.055
-485.435	-41.449	-0.134	0.069
-484.420	-98.384	0.374	-0.096
-483.405	-127.036	-0.184	0.027
-482.391	-168.939	0.202	-0.008
-481.376	-59.222	-0.087	0.038
-480.362	-117.523	-0.177	0.032
-479.347	94.567	-0.059	0.068
-478.332	-42.139	0.142	0.073
-477.318	92.348	-0.148	-0.167
-476.303	800.000	0.044	0.183
-475.289	12.891	0.111	0.086
-474.274	-200.000	0.015	-0.282
-473.259	800.000	-0.044	0.121
-472.245	94.294	0.093	0.105
-471.230	-200.000	-0.014	0.153
-470.216	52.613	0.194	-0.185
-469.201	800.000	0.070	-0.287
-468.186	-118.653	-0.273	-0.048
-467.172	-40.440	0.191	-0.099
-466.157	494.286	-0.150	0.344
-465.143	-200.000	-0.005	0.176
-464.128	-200.000	-0.005	0.425
-463.113	176.013	-0.087	-0.126
-462.099	-200.000	0.012	0.067
-461.084	690.311	-0.020	0.053
-460.070	-200.000	-0.011	-0.232
-459.055	-200.000	-0.008	0.090
-458.040	3.950	0.175	-0.127
-457.026	-200.000	-0.002	-0.041
-456.011	-200.000	-0.006	-0.211
-454.997	218.557	0.123	-0.196
-453.982	-132.362	-0.384	0.050
-452.968	-40.127	0.254	-0.132
-451.953	-200.000	0.007	-0.351
-450.938	-69.220	-0.159	0.061
-449.924	66.272	0.239	0.242
-448.909	344.576	0.097	0.190
-447.895	156.916	-0.172	-0.238
-446.880	25.458	0.213	0.177
-445.865	-147.670	0.157	-0.013
-444.851	-200.000	-0.047	-0.240
-443.836	-200.000	-0.014	0.079
-442.822	-72.271	0.231	-0.085
-441.807	456.294	0.123	0.272
-440.792	13.643	-0.268	-0.208
-439.778	-29.441	0.276	-0.157
-438.763	22.149	-0.237	-0.193
-437.749	-76.728	-0.027	0.009
-436.734	-96.104	-0.248	-0.066
-435.719	-22.095	0.270	-0.164
-434.705	-93.007	0.278	0.077
-433.690	-200.000	-0.065	0.286
-432.676	270.628	-0.029	-0.051
-431.661	-173.054	-0.208	-0.006
-430.646	-121.244	0.173	-0.029
-429.632	231.545	0.112	-0.184
-428.617	-36.640	-0.173	-0.093
-427.603	-82.046	-0.086	0.028
-426.588	129.790	-0.170	0.217
-425.573	57.047	-0.087	0.085
-424.559	60.432	0.117	0.116
-423.544	-7.553	-0.053	0.036
-422.530	-200.000	-0.010	0.166
-421.515	-4.314	-0.193	0.133
-420.500	534.358	-0.013	0.030
-419.486	779.138	-0.141	0.385
-418.471	-6.503	0.265	-0.180
-417.457	-168.655	0.247	0.009
-416.442	-131.461	-0.180	0.024
-415.428	15.411	-0.139	0.108
-414.413	-200.000	-0.041	0.304
-413.398	52.233	0.020	-0.019
-412.384	-65.500	0.087	-0.035
-411.369	-200.000	-0.051	0.277
-410.355	-117.316	0.168	-0.030
-409.340	462.517	0.025	0.055
-408.325	344.774	-0.097	0.190
-407.311	-84.078	-0.244	-0.077
-406.296	-165.218	-0.321	-0.014
-405.282	408.922	0.094	0.199
-404.267	-57.836	0.395	0.172
-403.252	-200.000	-0.037	0.303
-402.238	223.476	-0.080	-0.129
-401.223	-200.000	-0.026	-0.181
-400.209	-121.196	-0.115	0.019
-399.194	-80.263	-0.118	-0.039
-398.179	565.598	-0.040	-0.096
-397.165	90.677	0.211	0.236
-396.150	-117.709	-0.319	0.057
-395.136	800.000	0.083	-0.354
-394.121	-166.939	-0.137	0.006
-393.106	-42.615	0.034	-0.017
-392.092	-131.458	-0.112	-0.015
-391.077	-200.000	0.012	0.084
-390.063	800.000	0.065	0.185
-389.048	65.690	0.204	-0.206
-388.033	-200.000	-0.003	-0.133
-387.019	-200.000	-0.051	0.226
-386.004	490.047	-0.055	-0.125
-384.990	-66.319	-0.279	-0.111
-383.975	244.033	-0.116	-0.194
-382.960	675.820	-0.053	0.138
-381.946	434.017	0.051	0.111
-380.931	-113.425	-0.100	-0.020
-379.917	-2.307	0.276	0.193
-378.902	-200.000	0.002	0.034
-377.888	-14.726	0.189	-0.121
-376.873	113.537	-0.087	0.105
-375.858	717.093	-0.119	-0.315
-374.844	-134.250	0.271	0.033
-373.829	-41.977	-0.161	0.082
-372.815	-25.830	-0.471	-0.276
-371.800	-13.074	-0.271	-0.175
-370.785	271.190	0.149	-0.261
-369.771	48.810	-0.097	0.091
-368.756	177.138	0.160	0.232
-367.742	-36.937	-0.153	0.082
-366.727	645.625	-0.049	0.125
-365.712	-31.926	-0.233	0.130
-364.698	-112.877	-0.107	-0.021
-363.683	-11.292	0.120	0.078
-362.669	-28.451	-0.047	-0.027
-361.654	-200.000	-0.015	0.068
-360.639	-200.000	-0.085	0.370
-359.625	800.000	-0.062	0.177
-358.610	-72.392	-0.243	0.090
-357.596	-42.000	0.180	0.091
-356.581	43.838	0.196	0.178
-355.566	129.893	0.169	0.215
-354.552	-200.000	0.010	0.208
-353.537	-87.625	0.360	-0.108
-352.523	745.770	-0.033	-0.088
-351.508	68.071	0.166	0.169
-350.493	800.000	0.088	0.258
-349.479	5.265	0.087	0.064
-348.464	-89.204	-0.430	0.126
-347.450	283.548	0.090	0.161
-346.435	800.000	0.130	0.491
-345.420	22.960	-0.061	0.050
-344.406	-76.573	0.285	0.100
-343.391	250.426	0.121	-0.204
-342.377	84.634	0.172	-0.187
-341.362	226.227	0.179	0.288
-340.348	316.624	-0.243	-0.456
-339.333	-200.000	-0.015	-0.336
-338.318	-38.033	0.343	0.181
-337.304	-137.809	0.072	-0.008
-336.289	-200.000	0.022	0.265
-335.275	433.298	0.022	-0.048
-334.260	361.855	0.098	-0.196
-333.245	-145.362	-0.187	-0.017
-332.231	-53.728	-0.124	-0.056
-331.216	-4.711	-0.250	0.172
-330.202	-32.921	-0.341	-0.188
-329.187	129.535	0.089	0.112
-328.172	-61.283	0.189	0.079
-327.158	-146.766	-0.243	0.021
-326.143	216.872	0.044	-0.070
-325.129	410.375	-0.071	-0.150
-324.114	-146.515	0.228	0.020
-323.099	-160.887	0.291	0.015
-322.085	-25.392	0.190	0.112
-321.070	211.814	0.061	-0.096
-320.056	-200.000	-0.035	-0.404
-319.041	-102.381	0.294	-0.070
-318.026	240.477	0.129	0.214
-317.012	-200.000	-0.014	-0.129
-315.997	-15.644	-0.077	-0.048
-314.983	19.832	0.167	-0.134
-313.968	72.254	0.226	-0.234
-312.953	-3.198	-0.344	0.238
-311.939	12.331	-0.194	0.148
-310.924	-200.000	0.051	-0.379
-309.910	9.376	0.153	0.115
-308.895	-4.998	-0.203	0.139
-307.880	45.821	0.014	0.013
-306.866	-200.000	0.059	0.323
-305.851	-200.000	-0.024	0.132
-304.837	-18.592	0.101	-0.062
-303.822	-107.358	0.199	-0.043
-302.807	800.000	-0.047	-0.196
-301.793	23.583	-0.067	0.055
-300.778	-200.000	0.040	-0.219
-299.764	-104.595	0.211	-0.048
-298.749	800.000	-0.097	-0.398
-297.735	-10.867	0.302	0.198
-296.720	-124.476	0.105	-0.016
-295.705	-22.709	0.125	-0.075
-294.691	113.894	-0.101	-0.122
-293.676	-117.055	-0.216	0.039
-292.662	-139.354	-0.077	-0.008
-291.647	104.733	0.064	0.075
-290.632	-5.051	-0.115	-0.078
-289.618	-200.000	-0.001	-0.027
-288.603	-183.604	0.264	-0.004
-287.589	254.079	-0.059	-0.100
-286.574	82.045	-0.084	0.090
-285.559	-88.014	-0.208	0.062
-284.545	-84.408	0.289	-0.091
-283.530	-62.643	-0.043	-0.018
-282.516	122.508	0.190	0.236
-281.501	146.609	-0.243	0.323
-280.486	-200.000	0.001	0.185
-279.472	-15.770	0.318	-0.201
-278.457	475.893	0.078	-0.175
-277.443	-70.171	-0.275	-0.104
-276.428	31.730	0.098	0.084
-275.413	-159.605	0.281	-0.015
-274.399	535.424	0.058	0.136
-273.384	457.075	0.185	0.407
-272.370	-125.457	-0.173	0.026
-271.355	-200.000	-0.016	-0.101
-270.340	-200.000	0.033	-0.175
-269.326	-100.968	-0.374	-0.091
-268.311	-10.044	-0.233	-0.154
-267.297	-94.115	0.199	0.054
-266.282	-80.194	0.158	-0.053
-265.267	-20.205	-0.040	0.024
-264.253	40.381	-0.230	0.205
-263.238	77.563	-0.191	-0.202
-262.224	-110.299	-0.078	-0.016
-261.209	54.396	0.149	0.142
-260.195	-117.867	-0.265	0.047
-259.180	-43.019	0.151	-0.076
-258.165	41.332	0.077	0.069
-257.151	-105.127	0.293	-0.066
-256.136	134.993	-0.119	0.153
-255.122	624.621	0.057	0.143
-254.107	253.229	-0.191	0.324
-253.092	-200.000	0.019	-0.085
-252.078	294.168	-0.168	-0.304
-251.063	-200.000	-0.015	-0.199
-250.049	424.703	-0.082	0.174
-249.034	557.452	0.120	-0.287
-248.019	-200.000	-0.022	-0.181
-247.005	800.000	-0.074	-0.268
-245.990	130.574	-0.116	0.147
-244.976	737.544	-0.071	0.188
-243.961	-16.309	-0.314	0.197
-242.946	98.396	-0.084	-0.096
-241.932	466.589	-0.163	-0.362
-240.917	339.145	0.135	-0.261
-239.903	-113.489	0.069	-0.013
-238.888	-200.000	0.008	-0.185
-237.873	800.000	-0.063	0.212
-236.859	256.903	-0.180	0.307
-235.844	-200.000	0.024	-0.204
-234.830	77.319	-0.202	-0.213
-233.815	-138.720	-0.241	0.026
-232.800	-67.685	0.285	0.110
-231.786	51.645	0.081	0.076
-230.771	-68.902	-0.256	-0.098
-229.757	-101.852	0.091	0.022
-228.742	342.958	0.047	0.090
-227.727	202.335	0.115	0.175
-226.713	42.002	-0.406	0.365
-225.698	181.748	0.072	0.105
-224.684	592.019	-0.106	0.259
-223.669	800.000	0.090	0.306
-222.655	-80.875	0.231	-0.076
-221.640	119.775	0.076	-0.093
-220.625	127.193	0.095	0.120
-219.611	-151.487	-0.207	0.015
-218.596	-171.386	0.085	0.003
-217.582	116.964	-0.087	0.105
-216.567	-85.439	0.198	-0.061
-215.552	-200.000	0.085	-0.464
-214.538	-144.745	-0.287	-0.026
-213.523	800.000	0.025	-0.105
-212.509	800.000	0.059	0.201
-211.494	104.279	-0.177	0.206
-210.479	-200.000	-0.009	-0.172
-209.465	-3.030	0.165	0.114
-208.450	-31.701	0.150	0.083
-207.436	-200.000	-0.032	0.196
-206.421	-95.033	0.054	-0.015
-205.406	47.873	0.133	-0.123
-204.392	-200.000	-0.061	0.356
-203.377	-161.441	0.138	-0.007
-202.363	-86.057	-0.073	-0.022
-201.348	-143.440	0.083	0.008
-200.333	-62.943	0.257	-0.105
-199.319	-81.037	0.176	0.058
-198.304	-117.347	0.170	-0.030
-197.290	80.115	0.214	0.227
-196.275	-180.300	0.036	0.001
-195.260	282.111	-0.058	0.103
-194.246	-200.000	-0.019	-0.248
-193.231	-130.447	0.357	0.048
-192.217	4.758	-0.206	-0.150
-191.202	-115.444	-0.225	-0.042
-190.187	-106.369	-0.137	0.030
-189.173	291.586	-0.069	-0.124
-188.158	-200.000	-0.012	0.068
-187.144	172.572	-0.116	-0.165
-186.129	-64.296	-0.097	0.039
-185.114	-95.273	0.169	0.045
-184.100	163.295	-0.179	-0.248
-183.085	154.004	0.111	-0.150
-182.071	112.017	0.103	0.123
-181.056	83.754	0.175	0.189
-180.042	-81.709	0.100	0.032
-179.027	-19.623	0.082	-0.050
-178.012	95.671	0.252	-0.284
-176.998	800.000	0.041	-0.145
-175.983	131.493	-0.127	-0.161
-174.969	-61.682	-0.257	-0.106
-173.954	-17.372	0.281	0.175
-172.939	727.010	0.116	-0.306
-171.925	-200.000	-0.071	-0.324
-170.910	-19.446	0.398	0.243
-169.896	-86.839	0.165	0.050
-168.881	39.154	-0.082	0.072
-167.866	-200.000	0.002	0.090
-166.852	-54.388	0.455	0.204
-165.837	-186.334	0.208	0.003
-164.823	-200.000	0.006	0.031
-163.808	-31.159	-0.295	0.164
-162.793	92.822	-0.341	0.380
-161.779	800.000	-0.087	0.263
-160.764	800.000	0.038	0.150
-159.750	-200.000	0.008	-0.131
-158.735	-200.000	0.026	0.145
-157.720	247.103	-0.162	0.270
-156.706	166.939	0.105	-0.147
-155.691	-200.000	-0.099	0.000
-154.677	-200.000	0.024	0.360
-153.662	78.063	-0.132	0.139
-152.647	-200.000	0.023	-0.167
-151.633	19.970	0.182	0.145
-150.618	-200.000	-0.009	0.127
-149.604	-173.553	0.115	-0.003
-148.589	-200.000	-0.049	0.317
-147.574	149.756	-0.133	0.178
-146.560	-27.125	0.129	0.074
-145.545	202.454	0.045	0.068
-144.531	158.172	-0.028	0.038
-143.516	685.852	0.088	0.226
-142.502	-200.000	-0.040	-0.248
-141.487	-200.000	0.047	-0.259
-140.472	-119.802	-0.066	-0.011
-139.458	-200.000	0.029	0.329
-138.443	-68.179	0.263	0.101
-137.429	106.101	-0.058	0.068
-136.414	800.000	-0.067	0.254
-135.399	-141.075	0.270	0.027
-134.385	-200.000	-0.006	0.157
-133.370	-59.503	0.039	0.016
-132.356	-117.994	-0.124	0.022
-131.341	-200.000	0.043	-0.226
-130.326	800.000	-0.098	-0.330
-129.312	-31.457	-0.165	-0.091
-128.297	-177.347	0.236	0.006
-127.283	-17.938	-0.225	-0.139
-126.268	-126.679	-0.074	0.011
-125.253	156.813	-0.042	-0.057
-124.239	-93.055	-0.150	0.041
-123.224	-200.000	-0.020	0.133
-122.210	-75.608	0.497	-0.174
-121.195	38.069	0.062	0.055
