DTS Sentinel unit serial number:	SN413079Multiplexer serial number:	ORYXHardware model number:	OX4-SRSoftware version number:	ORYX F/W v4.00 Oryx Data Collector v3.7.2.0data status	okinstallation	princeton_trtdifferential loss correction	single-endedforward channel	channel 3reverse channel	N/Adate	2019/09/16time	02:40:35forward acquisition time	60.00reverse acquisition time	0.00gamma	496.2192k internal	0.2335k external	0.2335temperature offset calibration	0.9950default loss term (dB/km)	0.3790temperature slope calibration	1.0000multiplexer offset coefficient	1.0000multiplexer slope coefficient	1.0000fibre end	0.00T internal ref (°C)	27.73T ext. ref 1 (°C)	10.32T ext. ref 2 (°C)	22.46length (m)	temperature (°C)	Stokes	anti-Stokes-747.200	-200.000	-0.002	0.013
-746.185	-151.541	0.023	0.002
-745.171	14.782	0.269	0.211
-744.156	-147.975	-0.360	-0.030
-743.142	-106.349	0.107	0.024
-742.127	-200.000	0.027	0.161
-741.112	-22.555	0.190	-0.115
-740.098	-9.494	-0.237	0.159
-739.083	-158.189	-0.240	-0.014
-738.069	4.118	-0.266	0.196
-737.054	-8.498	0.107	-0.072
-736.039	-141.681	-0.183	0.018
-735.025	319.226	-0.097	0.184
-734.010	-11.174	-0.115	-0.076
-732.996	-157.989	-0.198	-0.012
-731.981	-122.247	-0.396	0.065
-730.966	-56.394	0.166	-0.074
-729.952	-158.607	-0.242	0.014
-728.937	-134.455	0.134	0.016
-727.923	-51.872	-0.422	-0.197
-726.908	143.631	-0.197	0.263
-725.894	800.000	0.115	0.346
-724.879	-91.233	-0.138	-0.040
-723.864	31.426	-0.257	-0.222
-722.850	-200.000	-0.260	0.001
-721.835	177.814	-0.071	0.105
-720.821	779.213	-0.112	-0.308
-719.806	800.000	-0.006	0.023
-718.791	-200.000	-0.066	-0.386
-717.777	282.165	-0.076	-0.137
-716.762	111.433	-0.014	0.017
-715.748	-135.969	-0.332	0.039
-714.733	150.112	0.236	0.322
-713.718	800.000	-0.006	-0.017
-712.704	21.632	-0.313	-0.256
-711.689	-73.132	-0.412	0.152
-710.675	265.850	-0.093	0.162
-709.660	800.000	0.047	-0.137
-708.645	-200.000	0.393	0.000
-707.631	-200.000	0.003	-0.256
-706.616	328.534	0.061	-0.118
-705.602	10.344	-0.111	-0.085
-704.587	800.000	-0.050	0.200
-703.572	222.968	0.129	-0.208
-702.558	85.388	-0.049	-0.054
-701.543	688.118	-0.083	-0.217
-700.529	-35.390	-0.285	-0.155
-699.514	-200.000	-0.023	0.226
-698.499	137.983	0.090	-0.118
-697.485	-93.982	-0.214	-0.059
-696.470	182.038	-0.094	0.139
-695.456	596.713	0.103	-0.257
-694.441	-108.407	-0.050	0.011
-693.426	-24.071	-0.171	0.102
-692.412	133.885	-0.156	-0.203
-691.397	-56.923	-0.334	0.148
-690.383	-16.644	0.037	-0.024
-689.368	-200.000	0.048	-0.305
-688.354	800.000	-0.050	0.210
-687.339	-46.370	0.439	-0.216
-686.324	637.152	0.110	-0.279
-685.310	-31.699	-0.323	0.182
-684.295	-200.000	-0.007	0.039
-683.281	-25.981	-0.235	-0.139
-682.266	90.468	-0.148	0.166
-681.251	65.059	0.277	-0.281
-680.237	424.826	-0.044	0.096
-679.222	-184.041	-0.251	0.004
-678.208	18.531	-0.198	0.158
-677.193	-41.217	-0.097	-0.050
-676.178	314.687	-0.033	0.063
-675.164	-116.762	-0.174	0.032
-674.149	-66.787	0.148	0.059
-673.135	94.558	0.124	0.141
-672.120	-200.000	0.008	-0.241
-671.105	-200.000	0.047	-0.396
-670.091	-90.352	-0.265	-0.077
-669.076	180.691	-0.174	0.256
-668.062	268.375	0.097	-0.171
-667.047	-21.289	-0.136	0.083
-666.032	157.709	-0.109	0.152
-665.018	237.437	-0.103	-0.171
-664.003	-200.000	0.025	-0.183
-662.989	-0.054	0.183	0.131
-661.974	-4.033	-0.089	0.062
-660.959	-1.454	-0.205	-0.145
-659.945	80.662	0.163	-0.176
-658.930	-200.000	0.048	0.241
-657.916	-74.432	0.134	-0.048
-656.901	-200.000	-0.061	-0.360
-655.886	33.893	-0.189	-0.165
-654.872	-79.331	-0.280	-0.095
-653.857	302.397	0.039	-0.073
-652.843	-200.000	-0.011	0.187
-651.828	-150.639	0.179	0.014
-650.814	337.814	0.077	0.150
-649.799	800.000	0.094	0.272
-648.784	-10.691	0.269	-0.178
-647.770	61.120	-0.212	-0.211
-646.755	800.000	0.106	-0.333
-645.741	363.028	0.070	-0.141
-644.726	29.361	0.171	0.146
-643.711	33.032	0.175	0.152
-642.697	-33.975	-0.134	0.074
-641.682	800.000	-0.065	0.187
-640.668	-142.967	0.355	-0.034
-639.653	-156.585	-0.115	-0.007
-638.638	800.000	-0.073	-0.258
-637.624	541.972	-0.167	-0.398
-636.609	17.922	-0.198	0.157
-635.595	800.000	-0.077	-0.271
-634.580	-65.792	-0.032	0.013
-633.565	24.410	0.056	0.047
-632.551	158.533	-0.109	-0.151
-631.536	70.178	0.154	0.160
-630.522	148.639	0.154	-0.209
-629.507	117.218	-0.246	-0.303
-628.492	31.869	-0.172	0.149
-627.478	-48.773	0.132	-0.063
-626.463	-118.953	0.042	-0.007
-625.449	-200.000	0.057	0.388
-624.434	176.352	-0.421	0.612
-623.419	-159.892	0.306	0.017
-622.405	60.362	-0.196	-0.194
-621.390	92.179	0.246	-0.277
-620.376	-104.961	-0.169	-0.039
-619.361	98.719	0.040	0.046
-618.346	13.375	0.130	-0.101
-617.332	355.982	-0.131	-0.260
-616.317	-104.072	-0.170	0.040
-615.303	-200.000	-0.256	-0.001
-614.288	-118.379	-0.356	-0.063
-613.273	-200.000	0.015	-0.068
-612.259	-70.973	-0.212	0.080
-611.244	-200.000	-0.058	0.432
-610.230	3.532	0.254	0.185
-609.215	-84.092	-0.359	0.114
-608.201	800.000	-0.108	-0.328
-607.186	-38.828	0.183	0.097
-606.171	324.258	0.143	0.273
-605.157	32.354	-0.267	-0.231
-604.142	-200.000	0.157	0.000
-603.128	17.731	-0.067	-0.053
-602.113	-41.576	0.235	-0.121
-601.098	-76.112	-0.201	0.071
-600.084	296.092	0.075	-0.137
-599.069	210.349	0.147	0.231
-598.055	137.619	0.024	-0.032
-597.040	172.613	-0.155	-0.224
-596.025	7.142	-0.202	0.150
-595.011	-41.264	-0.116	-0.060
-593.996	63.070	0.204	-0.204
-592.982	-55.310	0.385	-0.173
-591.967	-61.722	0.033	-0.014
-590.952	-44.855	0.347	0.173
-589.938	34.394	-0.146	0.127
-588.923	-86.870	0.111	-0.034
-587.909	196.678	-0.198	-0.302
-586.894	476.045	-0.082	0.184
-585.879	-131.688	0.313	0.041
-584.865	800.000	-0.033	-0.123
-583.850	26.105	-0.143	-0.119
-582.836	170.477	0.030	0.043
-581.821	-112.109	-0.315	0.063
-580.806	-200.000	-0.062	-0.318
-579.792	69.592	-0.111	0.114
-578.777	-55.321	-0.382	-0.171
-577.763	-33.610	-0.094	-0.052
-576.748	302.296	0.092	0.170
-575.733	314.119	-0.085	0.159
-574.719	-200.000	0.017	-0.121
-573.704	-67.601	-0.252	0.099
-572.690	800.000	-0.067	-0.204
-571.675	-68.960	0.129	-0.050
-570.661	47.107	-0.178	-0.165
-569.646	-200.000	-0.008	-0.096
-568.631	8.719	-0.302	0.227
-567.617	-200.000	0.048	-0.302
-566.602	-1.555	-0.242	0.170
-565.588	-19.199	-0.320	0.198
-564.573	-68.595	0.269	-0.104
-563.558	115.726	-0.135	0.165
-562.544	20.575	-0.084	-0.067
-561.529	46.686	0.089	-0.083
-560.515	-200.000	0.002	-0.101
-559.500	-76.402	-0.153	-0.054
-558.485	800.000	-0.103	0.304
-557.471	-78.743	-0.278	0.095
-556.456	230.682	-0.122	0.200
-555.442	166.962	-0.136	-0.193
-554.427	-200.000	-0.001	-0.212
-553.412	-200.000	-0.008	0.151
-552.398	232.085	0.059	0.096
-551.383	-73.797	-0.346	-0.125
-550.369	-100.346	0.095	0.023
-549.354	-105.315	-0.390	0.089
-548.339	-110.827	0.331	0.068
-547.325	708.206	0.053	-0.140
-546.310	-129.622	-0.201	0.028
-545.296	78.685	-0.126	0.134
-544.281	-61.145	0.470	0.198
-543.266	233.267	0.220	-0.361
-542.252	-178.867	0.217	-0.005
-541.237	-200.000	-0.023	0.209
-540.223	32.514	0.120	0.103
-539.208	800.000	0.107	-0.305
-538.193	-92.944	-0.214	-0.060
-537.179	-26.012	0.326	0.191
-536.164	72.681	-0.220	0.229
-535.150	-70.062	-0.104	-0.039
-534.135	-3.299	-0.205	0.143
-533.121	598.099	-0.086	0.214
-532.106	-93.516	0.563	0.155
-531.091	-200.000	-0.006	0.027
-530.077	-173.633	0.189	0.006
-529.062	-2.370	0.120	0.084
-528.048	-2.042	-0.206	-0.144
-527.033	171.181	-0.118	0.169
-526.018	226.954	-0.182	0.294
-525.004	-66.224	-0.339	0.135
-523.989	-69.067	0.121	0.046
-522.975	-139.434	0.212	-0.023
-521.960	800.000	-0.081	-0.309
-520.945	22.901	0.145	0.119
-519.931	-3.355	-0.073	0.051
-518.916	-184.049	0.155	0.003
-517.902	132.422	-0.119	0.153
-516.887	-169.432	0.129	-0.005
-515.872	83.435	0.090	0.097
-514.858	-113.866	-0.415	0.080
-513.843	-133.873	-0.061	-0.008
-512.829	-140.183	0.292	-0.031
-511.814	800.000	0.046	-0.175
-510.799	800.000	0.053	-0.208
-509.785	-75.601	-0.410	0.145
-508.770	-102.598	0.308	0.073
-507.756	-88.236	-0.145	0.043
-506.741	153.270	-0.204	-0.278
-505.726	-28.552	0.069	-0.040
-504.712	-200.000	0.027	-0.225
-503.697	-140.662	-0.272	0.028
-502.683	800.000	-0.055	0.228
-501.668	-59.612	-0.105	0.045
-500.653	44.492	-0.188	-0.172
-499.639	800.000	-0.029	0.083
-498.624	188.771	-0.147	0.219
-497.610	-173.328	-0.241	-0.007
-496.595	323.645	0.047	0.090
-495.581	-200.000	-0.016	-0.223
-494.566	-52.869	0.195	0.089
-493.551	71.229	0.298	-0.308
-492.537	-78.127	0.199	0.068
-491.522	-200.000	0.027	0.131
-490.508	-156.701	0.376	-0.023
-489.493	6.378	0.275	0.203
-488.478	-51.237	0.159	0.074
-487.464	-200.000	-0.002	-0.169
-486.449	187.705	-0.179	0.265
-485.435	-113.215	0.159	-0.031
-484.420	79.945	0.081	-0.087
-483.405	-23.074	-0.101	0.060
-482.391	-200.000	-0.025	-0.449
-481.376	-63.000	0.059	0.024
-480.362	-200.000	-0.397	-0.001
-479.347	102.816	0.066	-0.076
-478.332	-105.795	0.173	0.039
-477.318	-101.311	-0.395	-0.096
-476.303	84.584	0.055	-0.060
-475.289	-25.447	-0.082	0.048
-474.274	-128.361	-0.028	-0.004
-473.259	800.000	-0.121	-0.369
-472.245	-200.000	0.005	-0.151
-471.230	-100.024	0.096	-0.024
-470.216	451.056	0.087	-0.190
-469.201	42.358	0.130	0.118
-468.186	289.134	-0.089	-0.161
-467.172	212.971	0.183	-0.288
-466.157	800.000	-0.060	0.179
-465.143	125.070	0.168	0.210
-464.128	-22.434	0.304	0.183
-463.113	-82.841	-0.273	0.088
-462.099	-200.000	0.030	0.327
-461.084	7.792	-0.117	-0.087
-460.070	74.706	0.090	-0.094
-459.055	-200.000	0.023	0.104
-458.040	-66.765	-0.192	0.076
-457.026	79.143	0.289	0.307
-456.011	38.324	-0.094	-0.083
-454.997	-200.000	0.002	-0.113
-453.982	-74.242	0.262	0.094
-452.968	-141.644	-0.056	0.006
-451.953	800.000	-0.097	0.335
-450.938	-200.000	0.020	0.190
-449.924	194.320	-0.106	0.160
-448.909	237.126	0.071	0.117
-447.895	-175.382	0.024	0.001
-446.880	-138.354	0.136	-0.015
-445.865	800.000	-0.003	-0.011
-444.851	231.665	-0.230	-0.374
-443.836	-62.185	0.062	-0.026
-442.822	30.166	-0.094	-0.080
-441.807	-200.000	0.003	0.229
-440.792	17.729	0.179	0.142
-439.778	-200.000	0.009	-0.149
-438.763	191.411	0.025	0.037
-437.749	-97.107	0.045	0.012
-436.734	-75.546	0.313	0.111
-435.719	49.557	-0.211	0.198
-434.705	-9.656	0.179	0.119
-433.690	372.447	0.024	0.048
-432.676	30.529	0.118	0.101
-431.661	-109.089	0.159	-0.034
-430.646	800.000	-0.097	-0.340
-429.632	55.703	0.333	0.320
-428.617	144.254	0.045	-0.060
-427.603	-179.686	0.239	-0.005
-426.588	-128.944	0.160	0.022
-425.573	46.100	-0.131	-0.121
-424.559	0.731	0.163	-0.116
-423.544	-4.846	-0.235	0.161
-422.530	800.000	-0.060	-0.165
-421.515	157.271	0.110	-0.151
-420.500	-48.935	-0.077	-0.037
-419.486	800.000	0.098	-0.335
-418.471	-200.000	0.008	0.038
-417.457	-109.154	-0.285	0.060
-416.442	-51.738	0.282	-0.130
-415.428	-97.053	0.168	-0.044
-414.413	-124.483	0.164	-0.025
-413.398	20.775	-0.097	0.078
-412.384	-200.000	-0.015	-0.097
-411.369	-83.338	-0.141	0.045
-410.355	-53.316	-0.313	0.142
-409.340	91.238	0.179	0.199
-408.325	-181.909	-0.188	0.004
-407.311	8.198	0.310	-0.231
-406.296	-200.000	0.017	0.178
-405.282	135.142	0.173	0.222
-404.267	-200.000	0.000	-0.055
-403.252	-168.753	0.026	-0.001
-402.238	-200.000	-0.001	0.045
-401.223	6.135	0.258	-0.190
-400.209	800.000	0.031	0.118
-399.194	-46.427	0.082	-0.040
-398.179	32.451	0.083	-0.071
-397.165	263.297	-0.067	0.115
-396.150	408.460	-0.119	-0.250
-395.136	800.000	0.084	-0.232
-394.121	174.440	-0.127	-0.183
-393.106	-42.418	-0.207	0.105
-392.092	283.046	0.068	0.121
-391.077	-28.985	0.069	0.039
-390.063	800.000	-0.082	-0.242
-389.048	800.000	0.121	-0.375
-388.033	800.000	-0.100	-0.277
-387.019	-200.000	-0.015	-0.189
-386.004	125.839	-0.014	-0.018
-384.990	-87.619	0.228	0.068
-383.975	122.323	0.017	-0.021
-382.960	-200.000	0.065	0.340
-381.946	-200.000	0.012	0.125
-380.931	800.000	0.084	-0.249
-379.917	83.217	-0.122	0.131
-378.902	-3.512	-0.231	0.159
-377.888	-107.408	-0.132	0.029
-376.873	75.103	0.127	0.132
-375.858	-95.605	-0.315	-0.084
-374.844	-200.000	-0.016	0.084
-373.829	104.188	-0.027	0.031
-372.815	-200.000	0.023	0.399
-371.800	-30.367	0.114	0.064
-370.785	124.295	0.171	-0.213
-369.771	-200.000	-0.041	-0.333
-368.756	-200.000	-0.003	0.063
-367.742	-200.000	-0.002	-0.232
-366.727	-42.856	-0.089	0.045
-365.712	-82.513	0.121	-0.039
-364.698	254.954	-0.052	-0.088
-363.683	-128.408	-0.282	-0.040
-362.669	-90.685	0.317	-0.091
-361.654	-55.366	0.113	-0.050
-360.639	51.958	0.154	0.145
-359.625	35.370	-0.148	0.129
-358.610	800.000	0.072	0.216
-357.596	14.405	-0.328	0.253
-356.581	-200.000	0.005	0.100
-355.566	145.566	-0.093	0.123
-354.552	22.178	0.195	-0.158
-353.537	-94.139	-0.218	0.059
-352.523	-39.186	-0.414	0.215
-351.508	800.000	-0.029	-0.092
-350.493	800.000	0.043	0.141
-349.479	-43.878	0.084	-0.042
-348.464	-118.682	0.289	-0.050
-347.450	77.152	0.215	0.226
-346.435	800.000	-0.102	-0.359
-345.420	-145.253	-0.255	0.023
-344.406	-30.656	-0.195	-0.109
-343.391	243.321	0.118	0.195
-342.377	-200.000	-0.000	-0.134
-341.362	8.180	0.258	0.192
-340.348	-117.569	0.110	-0.020
-339.333	-116.365	0.195	0.036
-338.318	72.031	-0.175	-0.180
-337.304	-200.000	-0.002	-0.199
-336.289	46.599	-0.181	0.166
-335.275	-115.110	-0.132	-0.025
-334.260	-76.329	-0.339	0.118
-333.245	-82.435	-0.177	-0.057
-332.231	87.885	-0.203	0.222
-331.216	-44.300	-0.225	0.112
-330.202	800.000	-0.040	-0.114
-329.187	-117.281	0.279	-0.050
-328.172	-29.832	-0.232	-0.131
-327.158	-65.397	0.123	0.049
-326.143	-200.000	0.009	0.256
-325.129	800.000	-0.083	0.334
-324.114	393.285	-0.087	-0.178
-323.099	-62.970	0.138	0.056
-322.085	-200.000	-0.028	-0.351
-321.070	800.000	-0.050	0.181
-320.056	800.000	0.020	0.083
-319.041	0.249	0.184	0.130
-318.026	6.281	-0.125	0.091
-317.012	-10.561	0.096	-0.063
-315.997	-200.000	0.011	-0.051
-314.983	-124.651	-0.204	0.031
-313.968	-200.000	0.002	-0.130
-312.953	273.008	0.089	-0.155
-311.939	-200.000	-0.006	0.067
-310.924	-117.459	-0.313	-0.056
-309.910	-129.039	0.166	0.023
-308.895	-11.197	0.042	0.027
-307.880	-200.000	-0.063	-0.301
-306.866	-170.563	-0.039	-0.001
-305.851	-68.467	-0.195	0.075
-304.837	800.000	-0.090	-0.303
-303.822	-109.536	-0.041	0.009
-302.807	-156.510	0.263	0.016
-301.793	-179.614	0.217	0.005
-300.778	741.723	0.102	0.269
-299.764	695.479	-0.041	0.106
-298.749	-9.613	0.243	-0.160
-297.735	-87.570	-0.248	-0.074
-296.720	47.737	0.407	-0.375
-295.705	187.672	0.229	-0.338
-294.691	800.000	0.025	0.082
-293.676	-200.000	-0.066	-0.369
-292.662	-200.000	0.048	0.214
-291.647	360.389	0.084	0.167
-290.632	-200.000	0.034	-0.326
-289.618	-108.364	0.037	-0.008
-288.603	-125.656	0.410	0.061
-287.589	800.000	-0.030	-0.126
-286.574	-200.000	-0.005	-0.138
-285.559	800.000	-0.052	-0.174
-284.545	-159.860	-0.134	-0.007
-283.530	-200.000	-0.043	-0.246
-282.516	557.036	-0.076	-0.181
-281.501	-154.177	-0.024	-0.002
-280.486	-200.000	0.016	-0.085
-279.472	95.015	-0.141	0.159
-278.457	211.279	-0.155	0.241
-277.443	251.153	-0.141	0.236
-276.428	-200.000	-0.021	-0.140
-275.413	152.084	-0.104	0.141
-274.399	-139.064	-0.127	-0.014
-273.384	800.000	-0.114	-0.444
-272.370	126.936	-0.025	0.031
-271.355	679.363	-0.153	-0.392
-270.340	-1.786	0.296	-0.205
-269.326	-96.743	0.175	0.046
-268.311	67.576	-0.150	0.151
-267.297	574.876	-0.032	0.077
-266.282	430.085	-0.043	-0.092
-265.267	-36.430	0.227	-0.121
-264.253	8.803	0.101	0.075
-263.238	-119.689	-0.251	0.043
-262.224	499.264	0.083	0.189
-261.209	-10.503	0.057	0.037
-260.195	-95.818	-0.153	0.040
-259.180	-120.473	0.518	0.087
-258.165	-141.014	0.476	-0.048
-257.151	-200.000	0.021	-0.092
-256.136	-22.979	0.154	-0.091
-255.122	-42.523	-0.112	0.056
-254.107	-164.183	0.199	-0.009
-253.092	-192.586	0.384	-0.004
-252.078	-200.000	0.008	-0.082
-251.063	-5.198	-0.097	0.066
-250.049	-5.347	0.180	0.122
-249.034	-15.810	-0.273	-0.171
-248.019	61.068	-0.230	-0.225
-247.005	73.530	0.128	0.132
-245.990	-147.214	-0.355	0.030
-244.976	92.289	-0.335	-0.372
-243.961	-83.330	-0.062	0.020
-242.946	800.000	-0.074	0.260
-241.932	-158.726	-0.237	-0.013
-240.917	-72.279	-0.421	-0.154
-239.903	-177.334	0.092	-0.002
-238.888	183.795	-0.066	0.096
-237.873	-52.110	0.201	0.092
-236.859	800.000	-0.063	-0.239
-235.844	50.608	0.200	0.187
-234.830	108.847	0.118	0.138
-233.815	-200.000	-0.018	-0.123
-232.800	-200.000	0.001	0.049
-231.786	-200.000	-0.006	-0.107
-230.771	-8.508	0.130	-0.086
-229.757	22.655	-0.212	0.171
-228.742	302.107	0.048	-0.088
-227.727	-22.579	0.219	0.131
-226.713	261.377	-0.261	0.444
-225.698	-9.658	-0.094	-0.062
-224.684	-59.012	0.086	0.037
-223.669	-91.773	-0.175	0.049
-222.655	505.275	0.053	0.122
-221.640	-140.288	0.084	-0.009
-220.625	326.379	0.079	-0.149
-219.611	227.481	-0.131	-0.210
-218.596	-90.584	0.133	-0.038
-217.582	800.000	-0.029	0.124
-216.567	-137.758	0.157	0.017
-215.552	-53.316	-0.213	-0.096
-214.538	-56.903	-0.246	0.107
-213.523	71.599	-0.156	-0.159
-212.509	233.905	-0.105	0.171
-211.494	55.949	-0.176	0.168
-210.479	38.917	0.088	-0.077
-209.465	106.034	0.035	-0.040
-208.450	-13.468	0.094	-0.060
-207.436	-168.541	-0.170	-0.006
-206.421	44.686	0.324	0.293
-205.406	-44.813	-0.338	-0.166
-204.392	152.456	0.178	-0.239
-203.377	-39.051	-0.125	-0.065
-202.363	-152.266	0.364	0.026
-201.348	-25.729	-0.042	-0.025
-200.333	82.588	0.088	0.094
-199.319	331.177	0.060	0.114
-198.304	328.968	0.114	0.216
-197.290	-106.293	0.256	-0.056
-196.275	-200.000	0.024	0.160
-195.260	515.292	-0.058	0.132
-194.246	-94.819	-0.159	0.042
-193.231	-97.799	0.705	0.179
-192.217	-154.872	0.250	0.016
-191.202	-101.277	0.067	0.016
-190.187	-28.676	-0.091	0.051
-189.173	-144.152	-0.100	-0.009
-188.158	130.261	0.142	-0.179
-187.144	-200.000	0.033	0.177
-186.129	800.000	0.018	-0.063
-185.114	67.145	0.162	0.162
-184.100	332.196	-0.039	-0.074
-183.085	-26.145	0.096	0.055
-182.071	56.997	0.154	0.148
-181.056	800.000	-0.063	0.219
-180.042	-6.793	-0.260	-0.174
-179.027	515.894	-0.174	-0.401
-178.012	-200.000	-0.040	0.279
-176.998	800.000	0.024	0.067
-175.983	744.293	0.056	0.149
-174.969	-110.886	-0.347	-0.070
-173.954	800.000	0.079	0.216
-172.939	-102.594	0.261	0.061
-171.925	800.000	0.053	-0.212
-170.910	-14.645	0.078	0.049
-169.896	-114.321	0.146	-0.028
-168.881	-200.000	-0.001	0.154
-167.866	234.072	-0.136	0.220
-166.852	-200.000	0.015	-0.065
-165.837	676.064	-0.106	-0.271
-164.823	-63.975	0.076	0.030
-163.808	7.379	-0.373	0.274
-162.793	34.472	-0.130	-0.111
-161.779	-139.641	0.337	-0.035
-160.764	-200.000	0.018	0.143
-159.750	-97.578	0.096	0.024
-158.735	-200.000	0.008	-0.064
-157.720	-189.435	0.354	0.004
-156.706	-110.627	0.064	-0.013
-155.691	3.424	0.230	0.164
-154.677	142.209	0.190	0.248
-153.662	-67.225	-0.197	-0.076
-152.647	-148.044	0.115	0.009
-151.633	-200.000	-0.034	-0.184
-150.618	43.245	-0.110	0.098
-149.604	-155.023	0.294	-0.019
-148.589	39.293	-0.322	0.283
-147.574	-85.335	-0.216	0.066
-146.560	329.587	0.214	0.404
-145.545	-183.499	-0.301	0.005
-144.531	26.288	0.153	0.126
-143.516	5.760	-0.203	-0.148
-142.502	-140.702	0.119	-0.012
-141.487	353.540	0.026	-0.051
-140.472	-148.768	0.308	-0.025
-139.458	800.000	-0.049	0.168
-138.443	-180.230	0.209	0.004
-137.429	19.534	-0.124	-0.098
-136.414	487.976	-0.184	-0.411
-135.399	-39.992	0.141	-0.072
-134.385	-97.601	0.076	0.019
-133.370	-130.687	-0.190	-0.025
-132.356	-34.483	-0.137	0.074
-131.341	-200.000	-0.010	0.063
-130.326	-14.266	0.197	0.125
-129.312	338.963	-0.042	0.080
-128.297	227.778	-0.037	-0.059
-127.283	-92.411	-0.089	0.025
-126.268	210.760	0.144	-0.223
-125.253	800.000	-0.030	0.100
-124.239	-180.255	0.404	0.008
-123.224	-200.000	-0.003	0.038
-122.210	293.689	-0.210	-0.376
-121.195	306.393	-0.133	0.243
