DTS Sentinel unit serial number:	SN413079Multiplexer serial number:	ORYXHardware model number:	OX4-SRSoftware version number:	ORYX F/W v4.00 Oryx Data Collector v3.7.2.0data status	okinstallation	princeton_trtdifferential loss correction	single-endedforward channel	channel 3reverse channel	N/Adate	2019/09/13time	07:48:35forward acquisition time	60.00reverse acquisition time	0.00gamma	496.2192k internal	0.2336k external	0.2336temperature offset calibration	1.0141default loss term (dB/km)	0.3790temperature slope calibration	1.0000multiplexer offset coefficient	1.0000multiplexer slope coefficient	1.0000fibre end	0.00T internal ref (°C)	26.56T ext. ref 1 (°C)	4.22T ext. ref 2 (°C)	23.00length (m)	temperature (°C)	Stokes	anti-Stokes-747.200	127.659	0.099	-0.126
-746.185	-26.178	-0.234	-0.138
-745.171	-66.901	0.198	-0.078
-744.156	-102.726	0.363	0.087
-743.142	-85.833	0.185	0.058
-742.127	167.554	0.044	-0.062
-741.112	-145.926	0.395	0.035
-740.098	800.000	0.050	0.189
-739.083	346.132	0.136	0.268
-738.069	110.261	-0.208	0.250
-737.054	195.729	0.120	-0.183
-736.039	481.634	-0.110	-0.250
-735.025	493.763	-0.058	0.133
-734.010	585.546	-0.072	-0.178
-732.996	83.154	0.108	-0.118
-731.981	-43.387	-0.146	-0.074
-730.966	101.889	-0.055	-0.064
-729.952	91.450	-0.118	0.133
-728.937	-32.561	0.038	0.021
-727.923	-45.774	-0.137	-0.068
-726.908	504.540	-0.020	0.047
-725.894	-81.247	-0.315	-0.104
-724.879	-166.571	-0.283	0.012
-723.864	-200.000	-0.014	0.268
-722.850	-200.000	0.010	-0.135
-721.835	-107.503	-0.276	-0.061
-720.821	800.000	-0.166	0.469
-719.806	-169.081	-0.133	-0.005
-718.791	-1.630	-0.088	-0.063
-717.777	-200.000	-0.000	-0.202
-716.762	-200.000	0.045	-0.311
-715.748	568.769	-0.113	-0.275
-714.733	-200.000	0.002	-0.253
-713.718	-200.000	-0.034	-0.249
-712.704	-200.000	0.030	0.178
-711.689	-5.328	0.169	0.116
-710.675	-46.310	0.124	-0.061
-709.660	28.400	-0.383	-0.325
-708.645	184.568	-0.092	0.137
-707.631	-106.868	-0.118	0.026
-706.616	404.802	0.100	0.212
-705.602	-79.594	0.137	0.046
-704.587	122.287	0.145	0.181
-703.572	430.691	-0.063	-0.137
-702.558	800.000	0.110	-0.310
-701.543	150.573	-0.098	-0.133
-700.529	157.738	-0.050	-0.070
-699.514	-106.337	-0.271	-0.061
-698.499	444.821	-0.139	-0.305
-697.485	109.365	0.254	0.305
-696.470	450.622	-0.109	0.241
-695.456	-200.000	0.028	-0.181
-694.441	-200.000	-0.010	-0.262
-693.426	-101.439	-0.476	-0.116
-692.412	287.032	-0.245	0.444
-691.397	-50.334	-0.088	0.042
-690.383	147.747	-0.180	-0.243
-689.368	-200.000	-0.018	0.092
-688.354	-200.000	-0.008	0.127
-687.339	-149.483	-0.283	0.022
-686.324	-200.000	0.018	-0.268
-685.310	-200.000	-0.087	-0.388
-684.295	-44.974	-0.027	-0.013
-683.281	800.000	0.034	0.139
-682.266	-81.640	-0.092	-0.030
-681.251	323.867	0.055	0.105
-680.237	-200.000	-0.046	-0.310
-679.222	141.008	-0.134	0.177
-678.208	-25.856	-0.283	-0.167
-677.193	84.944	-0.117	-0.128
-676.178	-110.291	0.135	0.028
-675.164	-200.000	0.011	0.084
-674.149	143.406	-0.123	-0.163
-673.135	56.359	-0.078	-0.076
-672.120	-119.424	0.134	-0.023
-671.105	55.438	-0.148	0.144
-670.091	-22.917	-0.131	-0.079
-669.076	287.901	0.221	-0.400
-668.062	203.215	0.162	-0.251
-667.047	-75.932	-0.092	0.033
-666.032	-78.695	-0.175	0.060
-665.018	360.152	-0.026	-0.051
-664.003	800.000	0.001	-0.003
-662.989	-2.171	-0.222	0.156
-661.974	-21.521	-0.122	0.074
-660.959	-13.497	-0.247	0.160
-659.945	42.019	0.246	-0.224
-658.930	-200.000	-0.026	0.249
-657.916	-38.434	-0.183	-0.097
-656.901	12.685	0.438	-0.338
-655.886	-126.428	0.209	-0.031
-654.872	-132.950	-0.073	0.009
-653.857	-44.054	-0.183	0.092
-652.843	19.641	-0.286	0.231
-651.828	127.789	-0.142	0.180
-650.814	-87.381	-0.268	-0.081
-649.799	15.698	0.155	0.122
-648.784	-138.185	0.369	0.041
-647.770	568.597	0.056	-0.136
-646.755	57.151	0.179	-0.175
-645.741	-116.843	-0.133	0.024
-644.726	-148.448	-0.160	0.013
-643.711	82.005	-0.195	-0.212
-642.697	416.076	0.118	-0.252
-641.682	-135.340	0.119	0.014
-640.668	-200.000	0.020	-0.120
-639.653	-123.966	-0.278	0.044
-638.638	-54.041	-0.341	0.155
-637.624	-163.293	0.326	-0.016
-636.609	-80.892	0.211	0.070
-635.595	-200.000	0.001	-0.165
-634.580	-200.000	-0.047	0.305
-633.565	-110.941	-0.131	0.027
-632.551	199.577	0.150	-0.230
-631.536	-78.532	-0.245	-0.084
-630.522	-200.000	0.033	0.310
-629.507	47.612	-0.186	-0.174
-628.492	33.706	0.196	0.170
-627.478	87.245	-0.238	0.263
-626.463	800.000	0.095	-0.297
-625.449	-12.240	-0.318	-0.208
-624.434	4.410	0.270	0.198
-623.419	-53.388	0.350	-0.160
-622.405	113.952	-0.112	-0.136
-621.390	127.503	0.177	-0.225
-620.376	-40.477	-0.162	-0.084
-619.361	342.828	-0.014	0.027
-618.346	-104.352	-0.220	0.051
-617.332	-115.038	-0.273	-0.052
-616.317	159.192	0.023	-0.032
-615.303	-0.988	0.269	0.190
-614.288	800.000	-0.043	0.157
-613.273	-7.135	-0.168	-0.114
-612.259	-64.819	-0.198	-0.080
-611.244	-61.513	0.181	-0.076
-610.230	800.000	-0.059	0.220
-609.215	-200.000	-0.082	-0.412
-608.201	-144.788	0.318	-0.029
-607.186	-45.430	-0.053	-0.026
-606.171	553.817	-0.055	-0.133
-605.157	800.000	-0.179	-0.495
-604.142	337.666	0.102	0.198
-603.128	-84.762	0.069	0.022
-602.113	-67.611	-0.382	0.150
-601.098	-120.853	0.220	0.037
-600.084	-78.237	0.115	-0.040
-599.069	-6.904	0.102	-0.069
-598.055	135.188	-0.126	0.163
-597.040	800.000	-0.043	0.170
-596.025	-123.243	-0.278	0.044
-595.011	82.252	-0.282	-0.305
-593.996	799.952	0.097	-0.268
-592.982	250.595	-0.134	0.227
-591.967	215.398	-0.120	-0.190
-590.952	-100.847	0.435	-0.107
-589.938	-200.000	-0.013	0.177
-588.923	-44.601	-0.335	-0.167
-587.909	30.122	-0.158	-0.135
-586.894	-40.044	0.154	-0.080
-585.879	86.150	-0.042	0.046
-584.865	129.065	-0.127	-0.162
-583.850	-64.727	0.081	-0.033
-582.836	124.664	0.191	0.240
-581.821	503.572	0.060	0.139
-580.806	-80.887	0.304	-0.101
-579.792	-150.359	-0.179	0.014
-578.777	109.645	0.053	-0.064
-577.763	554.780	-0.182	-0.437
-576.748	16.183	-0.240	-0.189
-575.733	642.468	-0.098	-0.248
-574.719	-61.252	-0.373	-0.157
-573.704	-200.000	0.015	-0.241
-572.690	243.891	-0.075	-0.125
-571.675	79.695	-0.255	-0.273
-570.661	91.152	-0.193	-0.216
-569.646	-200.000	-0.020	-0.172
-568.631	-200.000	0.041	-0.293
-567.617	-65.916	0.075	0.030
-566.602	318.258	0.134	-0.253
-565.588	-23.096	-0.118	0.071
-564.573	713.028	0.113	0.298
-563.558	-170.877	0.142	0.005
-562.544	-131.018	-0.296	-0.039
-561.529	16.373	0.165	0.130
-560.515	-200.000	0.062	-0.359
-559.500	204.550	-0.072	-0.111
-558.485	800.000	-0.095	-0.310
-557.471	15.266	0.145	0.113
-556.456	-48.885	-0.213	0.102
-555.442	-50.034	0.085	0.040
-554.427	800.000	-0.055	0.238
-553.412	800.000	-0.033	-0.132
-552.398	437.391	-0.206	0.447
-551.383	7.478	-0.174	-0.129
-550.369	-11.885	0.308	0.201
-549.354	-130.053	-0.265	-0.036
-548.339	218.079	-0.122	-0.193
-547.325	-85.946	0.157	-0.048
-546.310	-200.000	0.010	0.130
-545.296	418.326	0.080	-0.170
-544.281	335.366	0.080	-0.155
-543.266	-120.634	-0.187	-0.032
-542.252	3.148	0.189	0.137
-541.237	47.342	0.257	-0.238
-540.223	-82.237	-0.172	0.056
-539.208	-200.000	0.036	-0.186
-538.193	-200.000	0.006	-0.259
-537.179	88.114	0.037	0.040
-536.164	157.496	0.095	-0.131
-535.150	-200.000	-0.007	0.080
-534.135	800.000	0.100	0.312
-533.121	-47.216	0.303	-0.147
-532.106	306.651	-0.105	0.195
-531.091	-200.000	0.031	-0.264
-530.077	-8.155	-0.106	-0.071
-529.062	671.860	-0.199	-0.513
-528.048	-172.789	-0.269	-0.008
-527.033	-69.328	-0.217	0.083
-526.018	-45.996	-0.086	0.042
-525.004	-200.000	-0.001	-0.243
-523.989	-200.000	-0.008	-0.085
-522.975	4.534	-0.217	0.159
-521.960	-88.464	0.110	0.033
-520.945	-122.168	-0.220	0.036
-519.931	191.835	-0.130	0.194
-518.916	48.609	-0.199	0.186
-517.902	434.591	0.021	0.046
-516.887	199.824	-0.153	-0.233
-515.872	-22.811	0.245	-0.147
-514.858	-126.459	-0.270	0.040
-513.843	59.651	0.154	-0.151
-512.829	-200.000	-0.010	-0.155
-511.814	244.662	-0.210	0.351
-510.799	-74.793	-0.102	0.036
-509.785	-200.000	0.022	-0.210
-508.770	-62.201	-0.166	0.069
-507.756	-56.820	-0.050	0.022
-506.741	-200.000	0.054	0.247
-505.726	-132.345	0.184	0.024
-504.712	-18.534	0.298	0.185
-503.697	52.614	-0.338	0.321
-502.683	-200.000	0.025	-0.142
-501.668	-86.829	0.259	-0.079
-500.653	9.805	0.312	-0.236
-499.639	-99.292	-0.282	-0.071
-498.624	-71.880	-0.142	-0.052
-497.610	-185.737	0.172	-0.003
-496.595	80.912	-0.191	-0.205
-495.581	-81.609	-0.154	0.050
-494.566	27.337	0.096	0.080
-493.551	62.034	-0.168	-0.167
-492.537	-154.230	-0.061	0.004
-491.522	111.006	0.171	-0.205
-490.508	106.911	-0.138	0.163
-489.493	-56.756	0.154	-0.068
-488.478	-5.823	0.180	0.123
-487.464	-49.288	0.066	-0.032
-486.449	-173.875	0.220	0.006
-485.435	121.321	-0.247	0.305
-484.420	-121.352	-0.212	0.035
-483.405	-149.927	0.113	-0.009
-482.391	9.471	0.109	0.082
-481.376	-48.053	0.287	0.138
-480.362	50.150	0.102	-0.095
-479.347	800.000	-0.100	0.320
-478.332	55.346	0.281	0.271
-477.318	800.000	-0.041	0.119
-476.303	547.740	0.090	-0.213
-475.289	-97.935	-0.439	0.112
-474.274	-200.000	0.074	0.336
-473.259	417.014	0.114	-0.241
-472.245	-146.600	-0.231	0.020
-471.230	-200.000	-0.014	-0.147
-470.216	14.457	-0.138	-0.107
-469.201	442.023	-0.154	-0.334
-468.186	-109.043	0.225	0.048
-467.172	-200.000	0.122	-0.554
-466.157	-125.190	0.426	-0.065
-465.143	17.663	0.228	0.180
-464.128	23.661	-0.301	-0.246
-463.113	-200.000	0.069	0.315
-462.099	-150.010	0.129	-0.010
-461.084	-200.000	-0.033	-0.146
-460.070	-15.955	-0.461	-0.291
-459.055	91.869	-0.132	-0.147
-458.040	-200.000	-0.003	0.092
-457.026	800.000	-0.061	0.207
-456.011	-109.375	0.254	-0.053
-454.997	-78.525	-0.192	0.065
-453.982	-200.000	-0.015	-0.135
-452.968	260.929	-0.108	0.186
-451.953	-200.000	-0.025	0.159
-450.938	-200.000	0.018	0.483
-449.924	-37.991	-0.271	0.143
-448.909	97.476	-0.108	0.123
-447.895	-77.001	0.307	0.106
-446.880	111.519	0.147	-0.176
-445.865	-117.799	-0.350	0.062
-444.851	-53.122	0.294	0.134
-443.836	-71.167	0.077	-0.029
-442.822	-200.000	-0.044	-0.682
-441.807	69.521	0.215	-0.219
-440.792	560.774	-0.149	0.357
-439.778	191.390	-0.209	-0.312
-438.763	-200.000	-0.004	-0.031
-437.749	-200.000	0.019	-0.232
-436.734	211.590	-0.172	-0.269
-435.719	-200.000	0.021	-0.254
-434.705	-77.615	0.296	-0.102
-433.690	-200.000	-0.004	-0.064
-432.676	-119.754	0.286	-0.049
-431.661	-48.576	-0.241	-0.115
-430.646	-200.000	0.015	0.116
-429.632	-129.554	-0.081	0.011
-428.617	-125.021	-0.018	0.003
-427.603	18.391	0.247	0.196
-426.588	800.000	-0.031	0.117
-425.573	-20.765	0.245	-0.149
-424.559	-81.277	-0.103	0.034
-423.544	48.487	0.069	0.064
-422.530	-200.000	0.011	0.055
-421.515	-149.077	0.359	-0.029
-420.500	-54.200	0.263	0.119
-419.486	-200.000	0.048	-0.267
-418.471	415.605	0.036	0.076
-417.457	-35.581	-0.150	0.081
-416.442	225.269	0.014	-0.023
-415.428	278.002	-0.215	0.379
-414.413	-200.000	-0.008	0.222
-413.398	215.369	-0.141	0.222
-412.384	-71.878	-0.427	0.157
-411.369	249.761	0.088	0.149
-410.355	32.274	-0.126	-0.108
-409.340	316.150	0.143	-0.267
-408.325	800.000	0.058	-0.189
-407.311	-200.000	-0.001	0.153
-406.296	-163.098	0.092	0.004
-405.282	800.000	0.111	-0.384
-404.267	483.564	0.050	-0.112
-403.252	-89.753	-0.259	0.075
-402.238	-151.797	0.179	0.013
-401.223	72.608	0.026	0.027
-400.209	-179.416	-0.192	-0.004
-399.194	51.568	-0.018	-0.017
-398.179	-130.313	0.319	0.043
-397.165	-200.000	0.023	0.183
-396.150	499.433	-0.130	0.296
-395.136	-80.579	-0.118	-0.039
-394.121	451.590	-0.086	-0.188
-393.106	5.192	0.157	-0.115
-392.092	-47.929	0.279	0.134
-391.077	-200.000	-0.014	-0.093
-390.063	16.672	-0.088	0.069
-389.048	-137.795	0.376	-0.042
-388.033	719.830	0.131	-0.346
-387.019	-200.000	-0.018	-0.203
-386.004	800.000	0.137	-0.384
-384.990	-154.421	0.157	-0.010
-383.975	-27.874	-0.136	-0.078
-382.960	53.256	0.087	0.082
-381.946	79.424	0.131	0.139
-380.931	800.000	0.138	-0.416
-379.917	-76.329	-0.182	0.063
-378.902	99.174	0.037	-0.042
-377.888	229.330	-0.183	0.296
-376.873	692.391	-0.113	-0.293
-375.858	68.264	0.299	-0.304
-374.844	800.000	0.015	0.061
-373.829	-15.417	0.111	-0.070
-372.815	167.242	-0.119	0.167
-371.800	-87.764	-0.091	0.027
-370.785	254.488	-0.132	0.223
-369.771	725.297	0.027	0.071
-368.756	-95.175	0.292	0.078
-367.742	-75.925	-0.154	-0.054
-366.727	51.173	-0.109	0.102
-365.712	-6.488	0.154	0.104
-364.698	-117.537	-0.203	0.036
-363.683	-200.000	-0.012	0.512
-362.669	4.068	0.073	0.053
-361.654	-200.000	-0.005	-0.072
-360.639	-200.000	0.024	0.308
-359.625	151.015	0.243	0.327
-358.610	705.199	0.093	0.243
-357.596	-122.332	0.334	0.054
-356.581	800.000	-0.028	0.077
-355.566	-6.211	0.198	0.134
-354.552	-200.000	0.010	0.304
-353.537	-200.000	-0.005	-0.046
-352.523	205.024	0.045	0.069
-351.508	-85.821	-0.198	0.061
-350.493	-19.157	0.315	0.193
-349.479	-6.202	-0.097	-0.066
-348.464	-200.000	-0.004	-0.085
-347.450	-56.526	-0.213	-0.093
-346.435	-35.741	-0.244	-0.131
-345.420	194.930	-0.073	0.110
-344.406	313.383	-0.149	-0.277
-343.391	332.870	0.170	-0.325
-342.377	-127.878	0.210	-0.030
-341.362	800.000	-0.076	-0.277
-340.348	-146.458	-0.304	-0.026
-339.333	-27.839	0.109	0.063
-338.318	9.134	-0.158	0.118
-337.304	-156.889	0.254	0.015
-336.289	170.296	-0.141	-0.199
-335.275	800.000	-0.090	-0.250
-334.260	255.748	0.071	-0.121
-333.245	-200.000	-0.008	-0.238
-332.231	6.296	-0.062	0.046
-331.216	-56.718	-0.095	-0.042
-330.202	-119.903	0.153	-0.026
-329.187	-11.094	-0.068	0.044
-328.172	-93.284	-0.084	0.023
-327.158	-111.300	0.236	-0.048
-326.143	-54.319	0.134	0.060
-325.129	88.749	0.135	0.148
-324.114	800.000	0.064	0.235
-323.099	-200.000	0.000	0.052
-322.085	-68.943	-0.298	0.113
-321.070	248.262	0.087	0.146
-320.056	-99.625	-0.083	-0.021
-319.041	-200.000	0.025	-0.283
-318.026	148.945	-0.109	0.146
-317.012	451.966	-0.100	-0.219
-315.997	316.324	0.230	0.429
-314.983	398.680	0.069	0.144
-313.968	41.865	-0.278	-0.249
-312.953	10.625	-0.284	0.214
-311.939	800.000	0.106	0.311
-310.924	-21.515	-0.357	0.215
-309.910	800.000	0.153	0.575
-308.895	-70.792	-0.198	-0.074
-307.880	-34.587	0.131	-0.071
-306.866	699.140	-0.107	0.279
-305.851	363.887	0.056	0.111
-304.837	-19.232	0.318	-0.195
-303.822	800.000	0.034	-0.111
-302.807	-145.379	0.297	-0.026
-301.793	-28.617	-0.088	-0.050
-300.778	17.075	-0.224	0.175
-299.764	-200.000	-0.067	-0.363
-298.749	-28.644	0.164	-0.093
-297.735	133.129	-0.103	-0.131
-296.720	-160.228	-0.092	-0.005
-295.705	208.717	-0.069	0.107
-294.691	-200.000	-0.000	0.379
-293.676	584.692	-0.092	0.224
-292.662	800.000	-0.053	0.146
-291.647	-200.000	0.052	0.309
-290.632	11.791	0.066	0.050
-289.618	-4.609	-0.193	-0.131
-288.603	-200.000	-0.025	0.177
-287.589	-200.000	0.028	0.166
-286.574	-152.040	-0.071	-0.005
-285.559	8.447	0.204	-0.152
-284.545	26.206	-0.083	0.068
-283.530	-89.636	-0.155	0.045
-282.516	-20.940	0.335	0.202
-281.501	88.103	-0.051	-0.055
-280.486	-88.230	-0.339	-0.100
-279.472	-7.654	-0.180	0.120
-278.457	299.502	0.114	0.208
-277.443	27.076	0.290	0.240
-276.428	94.184	-0.212	0.237
-275.413	-69.490	-0.246	-0.093
-274.399	-200.000	-0.015	-0.336
-273.384	800.000	0.034	-0.097
-272.370	4.426	0.331	0.239
-271.355	64.898	-0.121	0.121
-270.340	362.788	-0.030	0.058
-269.326	16.526	0.369	-0.287
-268.311	23.375	0.269	0.218
-267.297	-200.000	0.033	-0.178
-266.282	252.886	-0.061	-0.102
-265.267	245.023	0.100	0.165
-264.253	800.000	-0.053	0.190
-263.238	-19.542	-0.204	-0.125
-262.224	-53.334	0.084	0.038
-261.209	-18.445	-0.115	-0.071
-260.195	-153.310	-0.477	0.033
-259.180	-183.198	-0.183	-0.003
-258.165	293.489	-0.228	0.411
-257.151	138.742	0.173	-0.224
-256.136	2.592	-0.279	-0.200
-255.122	80.135	-0.085	0.090
-254.107	-125.122	-0.034	0.005
-253.092	98.298	-0.078	0.089
-252.078	113.133	0.046	-0.055
-251.063	-200.000	-0.028	0.614
-250.049	-200.000	0.077	0.335
-249.034	2.008	-0.175	0.124
-248.019	-27.136	0.143	0.082
-247.005	-167.247	0.251	-0.010
-245.990	-86.614	-0.105	0.032
-244.976	182.000	0.030	-0.043
-243.961	-200.000	-0.003	0.096
-242.946	238.289	0.132	-0.216
-241.932	97.422	0.216	-0.244
-240.917	-177.168	-0.221	0.005
-239.903	-15.766	0.378	0.237
-238.888	-152.897	-0.131	-0.009
-237.873	42.338	-0.187	-0.168
-236.859	800.000	0.055	0.233
-235.844	800.000	0.023	-0.090
-234.830	-34.142	0.200	0.108
-233.815	-135.718	-0.287	0.034
-232.800	-82.654	-0.262	-0.084
-231.786	-136.090	0.078	0.009
-230.771	49.012	0.130	-0.120
-229.757	-6.774	0.223	-0.149
-228.742	800.000	0.064	0.254
-227.727	-200.000	0.014	-0.187
-226.713	5.347	0.268	-0.195
-225.698	-158.044	-0.234	-0.014
-224.684	71.703	0.104	-0.106
-223.669	432.701	-0.129	-0.276
-222.655	-141.045	0.364	-0.037
-221.640	2.133	0.345	0.245
-220.625	450.932	0.060	0.131
-219.611	-135.920	0.221	0.026
-218.596	-200.000	-0.049	0.248
-217.582	-101.753	0.255	-0.061
-216.567	317.329	-0.137	0.255
-215.552	168.497	0.230	-0.322
-214.538	2.674	0.320	0.228
-213.523	-15.220	0.369	0.233
-212.509	47.711	-0.199	0.182
-211.494	52.744	-0.231	0.217
-210.479	-140.600	-0.046	0.005
-209.465	390.022	0.029	0.058
-208.450	-50.903	-0.081	0.037
-207.436	47.195	0.125	0.115
-206.421	800.000	0.014	0.045
-205.406	19.271	0.234	0.185
-204.392	-71.612	-0.363	0.133
-203.377	800.000	-0.049	0.183
-202.363	114.693	0.167	-0.200
-201.348	-47.236	0.165	0.079
-200.333	-74.804	-0.055	-0.020
-199.319	348.276	0.093	0.180
-198.304	-200.000	0.035	0.194
-197.290	257.367	0.134	-0.227
-196.275	72.635	0.162	0.167
-195.260	151.483	-0.109	0.145
-194.246	-157.549	-0.185	0.011
-193.231	800.000	0.050	-0.150
-192.217	-59.649	0.053	-0.022
-191.202	-85.629	-0.134	0.041
-190.187	-37.238	0.199	0.105
-189.173	-59.450	0.302	-0.128
-188.158	170.776	0.136	0.192
-187.144	191.574	0.178	-0.264
-186.129	-134.025	-0.219	0.027
-185.114	20.186	-0.165	-0.131
-184.100	307.585	-0.098	0.180
-183.085	-96.052	-0.221	0.058
-182.071	-200.000	0.007	0.182
-181.056	786.396	0.077	-0.208
-180.042	-200.000	0.218	0.001
-179.027	123.516	0.046	-0.057
-178.012	124.807	0.303	0.375
-176.998	-67.620	-0.138	0.053
-175.983	-75.525	0.214	-0.075
-174.969	-50.076	-0.236	0.110
-173.954	-131.168	0.261	0.034
-172.939	17.266	-0.046	0.036
-171.925	64.781	0.066	0.066
-170.910	-94.859	-0.252	-0.067
-169.896	-17.766	0.107	-0.066
-168.881	385.363	0.204	0.413
-167.866	-200.000	0.007	-0.234
-166.852	-200.000	0.054	0.275
-165.837	159.717	0.050	0.069
-164.823	85.882	-0.168	-0.181
-163.808	-200.000	0.026	-0.305
-162.793	117.595	0.036	-0.043
-161.779	67.014	-0.054	-0.054
-160.764	-74.859	-0.196	-0.069
-159.750	-200.000	-0.039	-0.239
-158.735	22.152	0.093	-0.075
-157.720	800.000	-0.128	-0.379
-156.706	800.000	0.041	-0.135
-155.691	-156.838	-0.178	-0.011
-154.677	-124.593	-0.125	-0.019
-153.662	-111.657	-0.211	0.042
-152.647	21.738	0.130	0.104
-151.633	142.431	0.089	-0.116
-150.618	-49.716	-0.336	0.157
-149.604	209.547	0.172	-0.265
-148.589	-200.000	-0.049	-0.238
-147.574	8.427	0.183	0.135
-146.560	-200.000	0.000	-0.391
-145.545	515.905	-0.027	-0.061
-144.531	800.000	-0.067	0.229
-143.516	-17.114	-0.336	0.208
-142.502	119.627	-0.234	-0.285
-141.487	-6.024	-0.272	0.182
-140.472	35.616	0.046	0.040
-139.458	457.860	0.058	-0.126
-138.443	270.312	0.116	-0.200
-137.429	143.169	-0.135	0.176
-136.414	166.790	-0.207	-0.288
-135.399	169.442	-0.182	0.256
-134.385	165.767	-0.190	-0.264
-133.370	-136.797	-0.341	0.039
-132.356	800.000	0.078	-0.247
-131.341	-61.000	0.162	-0.067
-130.326	-1.932	-0.203	0.140
-129.312	-90.688	-0.276	0.078
-128.297	-108.008	-0.289	0.061
-127.283	37.885	0.063	0.055
-126.268	-200.000	-0.003	-0.255
-125.253	-124.010	0.340	-0.052
-124.239	-110.650	-0.227	-0.046
-123.224	-89.853	0.315	0.090
-122.210	134.911	0.193	0.246
-121.195	-51.534	0.260	-0.119
