DTS Sentinel unit serial number:	SN413079Multiplexer serial number:	ORYXHardware model number:	OX4-SRSoftware version number:	ORYX F/W v4.00 Oryx Data Collector v3.7.2.0data status	okinstallation	princeton_trtdifferential loss correction	single-endedforward channel	channel 3reverse channel	N/Adate	2019/09/18time	23:20:35forward acquisition time	60.00reverse acquisition time	0.00gamma	496.2192k internal	0.2345k external	0.2345temperature offset calibration	0.9994default loss term (dB/km)	0.3790temperature slope calibration	1.0000multiplexer offset coefficient	1.0000multiplexer slope coefficient	1.0000fibre end	0.00T internal ref (°C)	23.81T ext. ref 1 (°C)	0.77T ext. ref 2 (°C)	16.98length (m)	temperature (°C)	Stokes	anti-Stokes-747.200	115.735	-0.215	0.263
-746.185	-62.619	-0.342	0.142
-745.171	-42.130	0.185	-0.095
-744.156	179.947	-0.173	-0.253
-743.142	204.590	-0.118	0.183
-742.127	-9.486	-0.144	0.096
-741.112	800.000	-0.017	0.052
-740.098	-54.200	-0.323	-0.147
-739.083	-28.494	0.160	0.093
-738.069	-200.000	0.039	-0.312
-737.054	-41.719	0.265	-0.136
-736.039	167.978	-0.216	-0.307
-735.025	0.828	-0.105	-0.075
-734.010	-200.000	0.034	0.212
-732.996	-200.000	0.012	-0.101
-731.981	-95.149	-0.167	0.045
-730.966	-97.874	-0.175	-0.045
-729.952	-200.000	-0.036	0.188
-728.937	-22.784	0.212	0.128
-727.923	109.754	-0.176	0.211
-726.908	-75.845	-0.084	0.030
-725.894	-200.000	0.009	-0.473
-724.879	-155.251	-0.107	0.007
-723.864	-200.000	-0.008	-0.074
-722.850	-200.000	-0.032	0.380
-721.835	322.551	-0.060	-0.114
-720.821	-104.606	0.221	-0.051
-719.806	190.213	-0.083	0.125
-718.791	329.300	-0.022	-0.041
-717.777	481.176	-0.091	-0.207
-716.762	113.057	0.102	0.124
-715.748	-154.501	0.400	-0.027
-714.733	800.000	-0.027	-0.098
-713.718	800.000	0.053	-0.210
-712.704	-200.000	0.012	0.080
-711.689	800.000	-0.138	-0.439
-710.675	170.594	-0.284	-0.406
-709.660	284.466	0.169	-0.303
-708.645	-200.000	-0.035	0.181
-707.631	-6.197	0.027	0.019
-706.616	150.260	0.170	-0.230
-705.602	-24.123	-0.104	0.062
-704.587	20.104	-0.111	0.090
-703.572	87.624	0.042	-0.047
-702.558	41.329	0.378	0.341
-701.543	-190.208	-0.290	0.003
-700.529	800.000	0.028	0.112
-699.514	-57.287	-0.126	-0.055
-698.499	-24.331	-0.180	-0.107
-697.485	100.748	0.174	-0.202
-696.470	41.749	-0.138	-0.125
-695.456	235.230	-0.010	-0.016
-694.441	-200.000	-0.005	0.026
-693.426	-120.923	0.375	-0.063
-692.412	220.366	-0.097	-0.155
-691.397	66.520	0.189	-0.192
-690.383	88.490	-0.124	0.138
-689.368	-30.359	0.063	-0.036
-688.354	-90.391	-0.018	-0.005
-687.339	302.815	0.104	0.192
-686.324	-200.000	0.033	-0.232
-685.310	-200.000	-0.012	-0.068
-684.295	619.435	0.067	0.168
-683.281	84.512	-0.020	-0.022
-682.266	133.309	0.050	-0.065
-681.251	258.957	0.094	0.162
-680.237	-66.864	-0.240	0.095
-679.222	422.764	-0.074	-0.158
-678.208	-75.182	-0.190	0.068
-677.193	6.773	0.185	0.138
-676.178	800.000	-0.056	0.161
-675.164	432.742	0.196	0.423
-674.149	401.464	-0.195	0.409
-673.135	15.794	-0.359	-0.282
-672.120	800.000	-0.035	0.105
-671.105	-131.445	-0.029	-0.004
-670.091	30.030	0.289	0.246
-669.076	800.000	-0.061	0.183
-668.062	-50.207	-0.133	-0.063
-667.047	-174.071	0.272	0.008
-666.032	-97.867	-0.363	0.094
-665.018	-200.000	0.054	-0.244
-664.003	350.097	-0.205	0.404
-662.989	270.588	-0.091	0.161
-661.974	-81.408	0.238	0.078
-660.959	66.988	0.255	0.259
-659.945	15.349	0.305	-0.238
-658.930	800.000	0.090	-0.378
-657.916	800.000	0.148	0.481
-656.901	181.816	0.202	0.297
-655.886	-3.023	-0.054	-0.037
-654.872	-22.181	0.115	-0.070
-653.857	597.664	0.010	-0.024
-652.843	-78.279	-0.190	0.065
-651.828	-24.850	0.274	0.163
-650.814	800.000	0.034	0.121
-649.799	-200.000	0.022	0.303
-648.784	35.879	0.133	-0.117
-647.770	-133.057	-0.227	0.029
-646.755	-78.951	-0.431	0.146
-645.741	532.131	-0.037	-0.088
-644.726	-79.237	-0.093	0.032
-643.711	-200.000	-0.021	-0.108
-642.697	101.356	0.249	-0.290
-641.682	-123.537	0.258	-0.041
-640.668	-135.159	-0.144	-0.017
-639.653	-146.111	-0.483	0.042
-638.638	108.902	-0.198	-0.236
-637.624	-200.000	-0.005	-0.256
-636.609	-21.913	0.289	-0.175
-635.595	-200.000	-0.007	-0.078
-634.580	-200.000	-0.015	0.172
-633.565	-64.476	-0.129	0.052
-632.551	-34.847	0.074	-0.040
-631.536	-107.780	0.195	0.042
-630.522	-200.000	0.039	0.321
-629.507	-200.000	0.031	0.196
-628.492	314.540	-0.052	0.097
-627.478	-63.504	0.263	0.108
-626.463	475.398	-0.209	-0.469
-625.449	800.000	0.072	-0.282
-624.434	474.863	0.216	-0.486
-623.419	-200.000	-0.003	0.087
-622.405	-41.396	0.150	-0.077
-621.390	-46.055	-0.329	-0.161
-620.376	-181.975	0.169	0.003
-619.361	-87.214	-0.202	-0.061
-618.346	-200.000	-0.020	-0.105
-617.332	-40.403	0.192	0.099
-616.317	-138.057	-0.365	-0.040
-615.303	21.464	-0.238	0.193
-614.288	800.000	0.102	0.359
-613.273	-63.762	-0.273	-0.112
-612.259	-79.475	-0.106	0.036
-611.244	796.640	0.084	-0.231
-610.230	-51.088	0.139	-0.065
-609.215	274.594	0.137	-0.242
-608.201	339.014	0.035	0.068
-607.186	-200.000	0.027	0.304
-606.171	-148.838	-0.132	-0.011
-605.157	-85.254	0.187	0.058
-604.142	-1.197	0.251	0.177
-603.128	200.673	-0.125	-0.191
-602.113	39.031	-0.082	0.073
-601.098	112.331	0.206	0.247
-600.084	-54.254	0.076	-0.034
-599.069	-120.983	-0.162	-0.027
-598.055	-200.000	0.029	-0.148
-597.040	-200.000	0.024	0.333
-596.025	-100.967	0.028	-0.007
-595.011	-93.981	0.532	-0.145
-593.996	-114.496	-0.205	0.039
-592.982	-131.952	-0.272	-0.035
-591.967	709.539	-0.076	-0.199
-590.952	-37.741	-0.170	0.090
-589.938	150.348	0.107	0.144
-588.923	-200.000	0.022	-0.145
-587.909	-83.423	0.383	0.122
-586.894	124.484	0.060	0.075
-585.879	217.279	-0.177	-0.280
-584.865	-126.778	0.328	-0.048
-583.850	-200.000	-0.002	0.451
-582.836	-119.127	-0.101	0.018
-581.821	249.683	0.158	-0.267
-580.806	800.000	-0.141	-0.527
-579.792	-176.723	-0.125	-0.003
-578.777	239.754	-0.139	0.230
-577.763	-70.411	-0.192	0.072
-576.748	-200.000	0.002	0.194
-575.733	16.281	0.229	0.179
-574.719	-200.000	0.090	0.425
-573.704	177.601	-0.231	0.335
-572.690	119.246	0.280	0.344
-571.675	266.433	-0.177	-0.307
-570.661	152.559	0.083	0.113
-569.646	-94.342	0.222	0.060
-568.631	88.775	0.099	0.109
-567.617	-70.173	-0.140	0.053
-566.602	489.489	-0.154	-0.351
-565.588	-26.296	-0.287	-0.167
-564.573	-200.000	-0.060	-0.509
-563.558	198.559	0.131	0.199
-562.544	26.151	-0.257	-0.214
-561.529	23.900	0.084	-0.069
-560.515	-6.704	-0.226	-0.153
-559.500	-30.975	0.276	-0.155
-558.485	24.349	-0.162	-0.133
-557.471	169.730	0.155	0.220
-556.456	55.949	0.129	-0.124
-555.442	12.246	-0.208	0.159
-554.427	-200.000	0.014	0.212
-553.412	-70.501	-0.173	0.065
-552.398	-108.271	-0.064	-0.014
-551.383	272.960	0.175	-0.307
-550.369	217.941	-0.068	-0.107
-549.354	-131.050	0.151	-0.020
-548.339	526.026	-0.109	0.256
-547.325	800.000	0.014	0.041
-546.310	-10.033	0.251	-0.166
-545.296	334.732	-0.260	-0.499
-544.281	50.204	0.111	-0.104
-543.266	800.000	0.020	0.075
-542.252	156.920	-0.067	-0.092
-541.237	-57.986	0.158	-0.069
-540.223	-18.481	0.128	-0.079
-539.208	-200.000	-0.018	-0.135
-538.193	800.000	0.046	-0.141
-537.179	-108.428	0.265	0.057
-536.164	140.338	-0.352	0.461
-535.150	-79.285	0.178	0.060
-534.135	103.152	-0.070	-0.081
-533.121	-200.000	0.009	-0.179
-532.106	-161.132	0.209	-0.011
-531.091	-21.820	0.041	-0.025
-530.077	-142.692	0.459	-0.045
-529.062	-29.644	-0.152	0.086
-528.048	41.543	-0.182	-0.164
-527.033	-99.595	0.328	-0.082
-526.018	-99.058	-0.361	0.091
-525.004	-79.626	0.122	-0.041
-523.989	-83.663	-0.336	-0.106
-522.975	-200.000	-0.025	0.389
-521.960	51.855	0.164	-0.155
-520.945	313.470	0.051	0.095
-519.931	-71.125	0.166	-0.062
-518.916	-36.330	-0.079	0.042
-517.902	-128.285	-0.158	0.022
-516.887	-190.479	-0.518	0.006
-515.872	-179.311	0.114	0.003
-514.858	34.770	-0.067	0.059
-513.843	81.263	-0.228	-0.245
-512.829	94.820	0.057	0.065
-511.814	-110.847	-0.177	-0.036
-510.799	433.848	0.078	-0.167
-509.785	417.401	0.028	0.060
-508.770	29.483	0.099	-0.083
-507.756	800.000	0.076	-0.212
-506.741	-200.000	-0.009	0.165
-505.726	-90.022	-0.274	0.079
-504.712	-124.595	-0.206	0.032
-503.697	-111.598	-0.189	-0.038
-502.683	94.220	0.278	0.313
-501.668	126.667	0.135	0.170
-500.653	125.430	0.158	0.197
-499.639	30.693	0.181	0.153
-498.624	-200.000	0.001	-0.121
-497.610	39.756	0.088	-0.078
-496.595	74.485	-0.193	-0.201
-495.581	250.863	-0.166	-0.280
-494.566	60.632	-0.265	-0.260
-493.551	-194.066	-0.234	0.002
-492.537	178.422	-0.073	-0.105
-491.522	-200.000	0.014	-0.378
-490.508	620.163	0.097	0.243
-489.493	136.895	-0.118	0.152
-488.478	152.478	0.084	-0.114
-487.464	-200.000	0.027	-0.153
-486.449	-85.650	0.164	-0.050
-485.435	645.784	0.122	-0.309
-484.420	14.979	0.150	-0.116
-483.405	-34.488	0.380	-0.206
-482.391	154.819	0.160	-0.218
-481.376	-84.066	0.240	0.075
-480.362	-200.000	0.060	0.315
-479.347	-76.999	-0.317	0.110
-478.332	40.101	-0.102	0.091
-477.318	145.818	-0.071	-0.094
-476.303	-200.000	-0.023	0.329
-475.289	75.614	-0.149	-0.156
-474.274	-14.891	0.109	0.069
-473.259	-84.000	0.171	0.054
-472.245	443.177	0.085	0.185
-471.230	231.932	-0.164	0.266
-470.216	43.841	-0.126	0.114
-469.201	-71.497	0.466	-0.173
-468.186	-68.090	0.383	0.148
-467.172	-200.000	-0.056	0.271
-466.157	138.946	0.068	-0.089
-465.143	800.000	-0.017	0.049
-464.128	-87.887	-0.125	-0.037
-463.113	77.180	0.149	0.157
-462.099	47.690	0.125	-0.116
-461.084	21.518	0.238	0.191
-460.070	-129.262	0.291	-0.040
-459.055	-200.000	0.036	0.193
-458.040	800.000	-0.024	-0.098
-457.026	-18.958	0.111	-0.069
-456.011	-96.042	-0.128	0.034
-454.997	-133.508	0.154	0.019
-453.982	-1.799	-0.189	-0.132
-452.968	631.913	0.097	0.244
-451.953	800.000	-0.146	-0.437
-450.938	-200.000	-0.012	0.118
-449.924	-200.000	0.013	0.147
-448.909	187.717	0.097	0.143
-447.895	800.000	0.034	0.148
-446.880	-86.366	0.367	-0.112
-445.865	-55.498	-0.387	0.172
-444.851	-200.000	0.036	-0.287
-443.836	481.781	-0.094	-0.211
-442.822	66.122	0.329	0.330
-441.807	-1.397	-0.049	0.034
-440.792	-49.403	-0.022	0.010
-439.778	800.000	-0.033	0.107
-438.763	-39.132	0.103	-0.053
-437.749	19.386	0.422	0.335
-436.734	64.411	0.107	0.107
-435.719	-171.873	-0.167	-0.005
-434.705	-200.000	-0.032	0.156
-433.690	-132.790	-0.288	0.036
-432.676	407.860	-0.110	-0.229
-431.661	495.700	-0.028	-0.063
-430.646	65.420	0.113	0.113
-429.632	161.345	0.155	-0.214
-428.617	-108.701	-0.238	-0.050
-427.603	10.042	0.074	-0.056
-426.588	49.745	-0.193	0.180
-425.573	200.323	-0.061	-0.092
-424.559	-99.931	-0.102	-0.025
-423.544	-200.000	-0.067	-0.300
-422.530	23.752	-0.203	0.166
-421.515	464.077	-0.091	0.200
-420.500	-102.964	0.273	-0.064
-419.486	-77.460	0.255	-0.088
-418.471	-200.000	0.018	0.087
-417.457	-68.736	0.249	-0.095
-416.442	-151.361	0.209	0.015
-415.428	-88.548	-0.308	-0.091
-414.413	35.643	-0.409	0.355
-413.398	47.073	-0.151	0.139
-412.384	-37.678	-0.111	-0.058
-411.369	-147.476	0.317	-0.026
-410.355	-200.000	-0.051	-0.287
-409.340	-200.000	0.012	0.139
-408.325	-53.171	0.221	-0.100
-407.311	364.422	0.052	-0.104
-406.296	340.001	0.100	0.192
-405.282	-46.569	-0.243	0.118
-404.267	-50.470	-0.140	0.065
-403.252	302.839	-0.138	-0.253
-402.238	68.341	-0.139	-0.140
-401.223	800.000	0.058	0.239
-400.209	-200.000	-0.009	-0.294
-399.194	44.156	0.147	-0.133
-398.179	21.713	0.165	0.133
-397.165	800.000	-0.061	0.196
-396.150	-104.795	-0.173	0.039
-395.136	44.773	-0.265	-0.241
-394.121	555.477	-0.034	0.080
-393.106	-120.096	0.280	-0.047
-392.092	-31.214	-0.175	0.097
-391.077	800.000	-0.058	0.197
-390.063	-53.438	-0.208	-0.094
-389.048	-142.410	-0.106	0.010
-388.033	800.000	0.030	-0.124
-387.019	-200.000	-0.013	-0.112
-386.004	800.000	0.033	-0.093
-384.990	-63.401	-0.067	-0.027
-383.975	93.064	0.128	-0.143
-382.960	271.880	0.051	0.090
-381.946	-121.269	-0.293	-0.048
-380.931	7.938	-0.121	0.090
-379.917	-52.050	-0.284	-0.130
-378.902	450.382	0.125	0.273
-377.888	-68.528	0.386	-0.147
-376.873	-154.806	-0.208	-0.014
-375.858	-156.606	0.225	0.014
-374.844	179.517	-0.051	0.074
-373.829	126.632	-0.205	-0.257
-372.815	104.644	0.278	0.323
-371.800	-200.000	0.017	0.102
-370.785	-58.522	-0.271	0.116
-369.771	-200.000	-0.002	-0.080
-368.756	800.000	0.034	-0.106
-367.742	-200.000	0.034	0.151
-366.727	800.000	0.112	0.352
-365.712	-27.896	-0.133	0.076
-364.698	97.791	0.120	0.137
-363.683	122.792	-0.193	-0.238
-362.669	23.049	0.064	-0.052
-361.654	-200.000	0.014	0.167
-360.639	800.000	0.169	0.549
-359.625	286.359	0.117	0.209
-358.610	-200.000	-0.000	0.261
-357.596	135.267	0.199	0.255
-356.581	42.882	0.151	0.135
-355.566	-23.410	-0.267	-0.158
-354.552	-200.000	-0.009	-0.290
-353.537	442.958	0.115	0.248
-352.523	-100.779	0.272	0.066
-351.508	-106.895	0.178	-0.039
-350.493	54.212	-0.150	0.142
-349.479	277.918	-0.009	0.016
-348.464	137.293	-0.198	0.255
-347.450	800.000	0.043	-0.171
-346.435	800.000	0.046	-0.156
-345.420	-118.699	-0.335	-0.058
-344.406	158.588	0.054	0.074
-343.391	-200.000	-0.062	-0.427
-342.377	273.738	-0.032	-0.057
-341.362	-162.338	-0.196	0.010
-340.348	-136.728	0.238	-0.027
-339.333	-21.507	0.273	0.164
-338.318	152.498	0.139	0.186
-337.304	800.000	-0.040	0.170
-336.289	800.000	0.051	-0.141
-335.275	800.000	0.054	-0.177
-334.260	800.000	0.042	0.117
-333.245	550.654	0.016	0.037
-332.231	-151.767	0.182	0.013
-331.216	31.190	-0.166	-0.141
-330.202	240.696	0.035	0.058
-329.187	285.882	0.121	-0.215
-328.172	25.691	0.131	-0.107
-327.158	-200.000	0.025	-0.131
-326.143	2.226	0.172	0.123
-325.129	311.020	0.086	-0.159
-324.114	-83.891	0.021	0.006
-323.099	-41.504	-0.234	-0.119
-322.085	-127.118	-0.173	-0.025
-321.070	-200.000	-0.001	-0.116
-320.056	-93.383	0.086	-0.023
-319.041	28.240	0.146	-0.122
-318.026	800.000	0.104	-0.282
-317.012	-60.309	-0.064	0.027
-315.997	800.000	-0.010	-0.043
-314.983	554.647	-0.098	-0.233
-313.968	242.995	-0.129	-0.212
-312.953	800.000	0.035	-0.119
-311.939	800.000	-0.038	0.106
-310.924	800.000	0.021	0.062
-309.910	17.300	-0.249	-0.194
-308.895	-48.312	-0.191	0.091
-307.880	106.002	-0.070	0.082
-306.866	-128.441	0.132	0.018
-305.851	68.039	0.100	-0.101
-304.837	33.374	0.317	0.271
-303.822	12.912	-0.095	-0.072
-302.807	-196.249	0.172	0.001
-301.793	250.213	0.043	0.072
-300.778	-89.276	-0.094	0.027
-299.764	233.042	0.064	-0.104
-298.749	6.219	-0.126	-0.092
-297.735	800.000	-0.098	0.302
-296.720	-200.000	-0.006	-0.113
-295.705	103.860	-0.262	0.303
-294.691	486.088	-0.050	0.112
-293.676	24.967	0.282	-0.230
-292.662	-133.051	0.139	-0.017
-291.647	-156.631	0.269	-0.016
-290.632	360.283	0.094	-0.186
-289.618	382.736	0.087	-0.175
-288.603	478.668	-0.101	0.224
-287.589	-147.664	0.062	-0.005
-286.574	266.925	0.184	0.315
-285.559	-200.000	-0.009	-0.107
-284.545	-78.756	-0.100	-0.034
-283.530	-99.616	0.162	-0.040
-282.516	65.088	-0.132	0.132
-281.501	47.751	0.216	-0.198
-280.486	-13.256	0.250	0.159
-279.472	-106.380	-0.356	-0.078
-278.457	-30.652	0.317	0.177
-277.443	800.000	-0.116	0.388
-276.428	593.206	0.124	-0.301
-275.413	-151.281	0.324	0.024
-274.399	19.773	-0.443	-0.350
-273.384	-141.909	-0.061	-0.006
-272.370	-157.181	0.122	0.007
-271.355	-36.239	-0.059	-0.031
-270.340	280.801	0.087	-0.153
-269.326	27.135	-0.082	-0.067
-268.311	-92.695	-0.224	-0.062
-267.297	328.087	0.093	-0.174
-266.282	-122.223	0.228	0.037
-265.267	361.514	-0.131	-0.258
-264.253	-116.362	0.285	-0.052
-263.238	-200.000	0.021	-0.164
-262.224	800.000	0.098	-0.285
-261.209	-200.000	-0.050	-0.335
-260.195	682.468	-0.042	0.108
-259.180	-103.086	0.166	-0.039
-258.165	-108.480	-0.200	0.042
-257.151	532.372	-0.081	-0.188
-256.136	60.484	0.111	0.108
-255.122	800.000	0.044	0.130
-254.107	-180.349	0.008	-0.000
-253.092	800.000	-0.059	-0.229
-252.078	-83.964	0.290	0.091
-251.063	658.475	-0.118	0.298
-250.049	201.158	-0.267	0.403
-249.034	800.000	0.066	-0.186
-248.019	-72.935	0.128	0.046
-247.005	-68.292	-0.213	-0.081
-245.990	-200.000	-0.003	-0.211
-244.976	466.882	-0.044	-0.096
-243.961	-2.551	-0.151	0.104
-242.946	-166.099	-0.048	-0.002
-241.932	800.000	0.058	-0.158
-240.917	-80.629	0.370	-0.121
-239.903	800.000	-0.092	0.316
-238.888	800.000	0.030	0.103
-237.873	-131.663	0.297	-0.038
-236.859	-104.341	0.155	0.035
-235.844	69.210	0.309	-0.312
-234.830	178.607	-0.144	-0.206
-233.815	90.916	0.214	0.236
-232.800	800.000	-0.067	-0.252
-231.786	-107.286	-0.057	-0.012
-230.771	184.162	-0.091	-0.132
-229.757	7.178	0.236	0.173
-228.742	287.917	-0.198	-0.350
-227.727	32.053	-0.215	0.182
-226.713	57.458	0.171	-0.163
-225.698	27.972	0.313	-0.259
-224.684	-200.000	0.022	-0.215
-223.669	-117.303	-0.373	0.066
-222.655	-200.000	0.017	0.114
-221.640	-19.504	-0.341	-0.207
-220.625	51.107	-0.234	-0.217
-219.611	-132.132	-0.208	-0.026
-218.596	-60.874	-0.421	0.174
-217.582	88.252	0.167	-0.182
-216.567	78.461	-0.093	0.097
-215.552	-31.660	-0.170	-0.093
-214.538	-200.000	-0.013	0.107
-213.523	-14.696	-0.226	0.142
-212.509	-84.834	-0.412	0.127
-211.494	-200.000	-0.002	0.087
-210.479	-200.000	-0.052	0.317
-209.465	75.310	-0.056	0.058
-208.450	77.687	0.110	-0.115
-207.436	166.453	0.067	-0.093
-206.421	25.026	-0.206	-0.167
-205.406	-21.399	-0.123	-0.073
-204.392	15.246	-0.146	-0.112
-203.377	-177.145	0.280	-0.007
-202.363	-200.000	0.032	0.216
-201.348	-81.290	-0.183	0.059
-200.333	263.153	-0.021	0.036
-199.319	-200.000	-0.055	0.580
-198.304	-122.316	-0.298	0.048
-197.290	126.061	0.117	0.145
-196.275	23.512	0.063	-0.051
-195.260	-75.080	-0.256	0.090
-194.246	-200.000	-0.013	0.363
-193.231	91.020	-0.182	-0.200
-192.217	-200.000	-0.024	-0.318
-191.202	-149.907	0.211	0.016
-190.187	295.525	-0.152	0.273
-189.173	-200.000	0.022	-0.305
-188.158	-56.953	-0.206	0.089
-187.144	-96.987	0.334	-0.086
-186.129	-136.210	0.181	-0.021
-185.114	39.608	-0.162	0.142
-184.100	-49.168	-0.320	-0.150
-183.085	25.387	-0.122	0.099
-182.071	-74.162	-0.114	-0.040
-181.056	-14.902	-0.249	0.156
-180.042	800.000	0.058	0.225
-179.027	50.799	-0.152	-0.141
-178.012	800.000	0.091	0.256
-176.998	-6.939	0.107	0.071
-175.983	-64.119	-0.210	0.084
-174.969	-45.807	-0.250	-0.121
-173.954	-110.638	0.190	-0.038
-172.939	509.404	-0.055	0.125
-171.925	800.000	0.058	0.194
-170.910	122.570	0.144	0.176
-169.896	180.315	0.150	-0.215
-168.881	-200.000	0.001	0.483
-167.866	-200.000	0.057	-0.372
-166.852	-200.000	-0.021	-0.362
-165.837	-23.519	-0.093	0.055
-164.823	-8.208	-0.202	0.133
-163.808	-200.000	0.009	0.335
-162.793	61.272	0.258	0.251
-161.779	-38.756	0.163	0.084
-160.764	-48.463	0.335	0.158
-159.750	562.523	0.110	0.260
-158.735	-164.100	-0.157	0.007
-157.720	450.520	-0.100	-0.215
-156.706	173.947	0.060	0.085
-155.691	-98.026	-0.120	0.030
-154.677	398.787	0.177	0.362
-153.662	-160.437	0.278	-0.015
-152.647	-47.207	-0.090	0.043
-151.633	-42.020	-0.161	0.080
-150.618	-126.895	-0.215	-0.031
-149.604	153.720	0.045	0.060
-148.589	-200.000	-0.082	0.532
-147.574	-37.464	-0.230	0.120
-146.560	-110.877	-0.079	0.016
-145.545	-200.000	-0.019	0.150
-144.531	-73.774	0.053	0.019
-143.516	7.998	-0.386	0.283
-142.502	292.981	-0.158	0.281
-141.487	-200.000	-0.031	0.163
-140.472	-200.000	0.054	-0.321
-139.458	-116.349	-0.097	-0.018
-138.443	-27.484	0.228	-0.130
-137.429	-102.820	0.310	0.072
-136.414	710.731	-0.047	0.123
-135.399	98.633	-0.102	0.115
-134.385	542.843	0.083	0.193
-133.370	1.618	0.127	-0.089
-132.356	800.000	0.113	-0.307
-131.341	-197.928	-0.189	-0.001
-130.326	800.000	0.009	-0.025
-129.312	424.577	0.160	0.335
-128.297	-200.000	-0.024	0.106
-127.283	44.093	-0.096	-0.086
-126.268	73.751	-0.179	0.184
-125.253	-200.000	0.039	0.175
-124.239	800.000	-0.089	-0.277
-123.224	-84.341	0.299	0.092
-122.210	-32.827	0.274	0.149
-121.195	320.375	0.098	0.182
