DTS Sentinel unit serial number:	SN413079Multiplexer serial number:	ORYXHardware model number:	OX4-SRSoftware version number:	ORYX F/W v4.00 Oryx Data Collector v3.7.2.0data status	okinstallation	princeton_trtdifferential loss correction	single-endedforward channel	channel 3reverse channel	N/Adate	2019/09/12time	08:02:10forward acquisition time	60.00reverse acquisition time	0.00gamma	496.2192k internal	0.2313k external	0.2313temperature offset calibration	1.0037default loss term (dB/km)	0.3790temperature slope calibration	1.0000multiplexer offset coefficient	1.0000multiplexer slope coefficient	1.0000fibre end	0.00T internal ref (°C)	33.06T ext. ref 1 (°C)	1.68T ext. ref 2 (°C)	29.60length (m)	temperature (°C)	Stokes	anti-Stokes-747.200	-200.000	-0.019	0.126
-746.185	800.000	0.091	0.293
-745.171	800.000	0.019	0.081
-744.156	-200.000	-0.036	0.279
-743.142	435.399	0.077	0.170
-742.127	3.003	-0.041	-0.030
-741.112	94.720	-0.090	-0.103
-740.098	-200.000	-0.014	0.236
-739.083	-200.000	-0.005	0.147
-738.069	-200.000	-0.054	0.302
-737.054	-200.000	-0.050	-0.368
-736.039	34.074	0.114	0.101
-735.025	800.000	0.102	0.331
-734.010	163.377	0.136	-0.194
-732.996	-200.000	0.254	-0.000
-731.981	798.432	-0.117	0.326
-730.966	457.335	0.052	0.116
-729.952	-200.000	0.008	-0.055
-728.937	337.014	-0.053	0.105
-727.923	-200.000	-0.041	-0.377
-726.908	800.000	-0.075	0.237
-725.894	-114.397	-0.320	-0.062
-724.879	-133.305	0.308	-0.039
-723.864	160.454	-0.238	-0.337
-722.850	-110.302	0.463	-0.098
-721.835	141.828	-0.148	0.199
-720.821	-175.680	0.219	0.006
-719.806	746.562	-0.042	0.114
-718.791	-200.000	0.043	-0.296
-717.777	-87.976	-0.033	0.010
-716.762	174.017	-0.152	-0.222
-715.748	-123.456	-0.158	-0.026
-714.733	173.897	-0.273	-0.399
-713.718	13.954	-0.129	0.102
-712.704	17.084	-0.150	0.120
-711.689	-200.000	0.005	-0.288
-710.675	800.000	-0.078	-0.255
-709.660	-44.182	0.127	0.064
-708.645	800.000	-0.052	-0.153
-707.631	-43.823	-0.104	0.053
-706.616	-113.056	0.269	0.054
-705.602	759.643	0.088	0.242
-704.587	800.000	-0.040	0.118
-703.572	-67.300	0.341	0.136
-702.558	800.000	-0.061	0.218
-701.543	-162.216	-0.249	-0.013
-700.529	103.686	0.022	0.026
-699.514	-200.000	0.059	-0.308
-698.499	-200.000	-0.045	-0.380
-697.485	-200.000	0.056	0.277
-696.470	596.601	0.051	0.127
-695.456	-200.000	0.045	-0.455
-694.441	351.697	0.059	0.117
-693.426	-70.190	-0.283	0.109
-692.412	-62.961	-0.209	0.087
-691.397	-122.180	-0.089	-0.015
-690.383	315.300	0.174	-0.332
-689.368	434.518	0.002	0.005
-688.354	-52.434	0.334	-0.156
-687.339	-128.926	0.304	-0.043
-686.324	-159.656	-0.349	-0.020
-685.310	-200.000	0.023	-0.146
-684.295	245.888	0.035	-0.059
-683.281	-117.213	-0.210	-0.039
-682.266	-200.000	0.015	-0.103
-681.251	-200.000	0.028	0.254
-680.237	210.461	-0.092	-0.146
-679.222	131.104	-0.279	-0.362
-678.208	-107.221	-0.182	-0.040
-677.193	15.927	0.245	-0.195
-676.178	-115.260	0.337	0.065
-675.164	-83.237	-0.081	-0.026
-674.149	-200.000	0.027	-0.376
-673.135	411.535	0.027	0.059
-672.120	-84.060	-0.160	0.052
-671.105	493.230	-0.020	-0.047
-670.091	3.289	-0.074	-0.054
-669.076	-111.214	0.076	-0.016
-668.062	56.680	0.141	-0.139
-667.047	800.000	-0.061	-0.179
-666.032	-23.968	-0.213	-0.129
-665.018	791.249	-0.156	-0.435
-664.003	66.735	-0.240	-0.247
-662.989	-143.616	-0.201	-0.019
-661.974	800.000	-0.162	-0.601
-660.959	-200.000	-0.040	0.292
-659.945	155.776	0.183	-0.255
-658.930	188.434	0.161	0.244
-657.916	-1.846	0.058	0.041
-656.901	590.098	0.092	-0.229
-655.886	-41.474	-0.164	-0.085
-654.872	-200.000	-0.032	0.255
-653.857	800.000	-0.072	-0.252
-652.843	13.447	-0.124	-0.097
-651.828	585.329	0.098	0.243
-650.814	13.586	-0.436	0.342
-649.799	800.000	-0.039	0.139
-648.784	3.577	0.172	-0.127
-647.770	181.599	0.159	0.236
-646.755	-200.000	0.006	0.032
-645.741	-200.000	-0.017	0.196
-644.726	-69.884	-0.262	-0.101
-643.711	-55.171	-0.147	-0.067
-642.697	-200.000	0.045	0.332
-641.682	-200.000	-0.007	0.079
-640.668	-150.294	0.407	0.032
-639.653	29.601	0.072	-0.062
-638.638	-200.000	-0.009	-0.059
-637.624	-52.145	-0.190	0.089
-636.609	329.124	0.015	-0.028
-635.595	29.658	0.115	-0.099
-634.580	800.000	-0.176	-0.608
-633.565	143.651	-0.292	-0.393
-632.551	-200.000	-0.067	-0.301
-631.536	-148.098	0.305	0.026
-630.522	-75.604	0.237	-0.085
-629.507	363.978	0.161	0.327
-628.492	-91.827	-0.114	-0.033
-627.478	800.000	-0.021	-0.087
-626.463	-200.000	-0.060	-0.278
-625.449	20.150	0.052	0.042
-624.434	-200.000	-0.017	0.177
-623.419	124.429	0.140	0.177
-622.405	-116.000	-0.138	-0.026
-621.390	-57.406	0.380	0.168
-620.376	92.883	0.163	-0.186
-619.361	137.903	-0.103	0.136
-618.346	-142.143	-0.213	0.021
-617.332	800.000	-0.039	0.150
-616.317	21.080	0.171	0.140
-615.303	532.564	-0.053	0.126
-614.288	7.545	-0.178	0.135
-613.273	262.345	-0.144	-0.252
-612.259	-124.094	0.151	0.024
-611.244	-146.562	0.158	0.014
-610.230	-200.000	0.052	0.341
-609.215	55.986	-0.264	0.259
-608.201	28.128	-0.051	0.043
-607.186	611.917	0.150	-0.379
-606.171	-76.128	-0.319	0.113
-605.157	-1.179	-0.172	0.123
-604.142	-58.488	-0.325	-0.142
-603.128	-200.000	0.012	0.182
-602.113	22.415	0.026	0.022
-601.098	-116.350	0.341	0.064
-600.084	-190.649	0.139	-0.001
-599.069	-178.368	-0.225	-0.005
-598.055	402.175	0.163	0.346
-597.040	15.185	-0.115	0.091
-596.025	800.000	0.060	-0.254
-595.011	-20.581	0.057	-0.035
-593.996	24.223	0.386	0.322
-592.982	800.000	0.069	0.201
-591.967	-80.102	-0.201	0.068
-590.952	-200.000	-0.000	0.146
-589.938	-200.000	-0.035	-0.335
-588.923	577.842	0.082	-0.202
-587.909	408.541	-0.140	-0.298
-586.894	-7.839	-0.128	0.087
-585.879	172.533	0.076	-0.110
-584.865	12.388	0.084	-0.065
-583.850	292.328	0.171	-0.314
-582.836	278.599	-0.069	-0.124
-581.821	136.300	0.089	-0.117
-580.806	-126.020	0.272	-0.041
-579.792	-123.931	-0.283	0.045
-578.777	-33.782	-0.137	0.076
-577.763	144.299	0.045	-0.061
-576.748	-73.360	0.122	0.045
-575.733	-93.231	0.327	-0.092
-574.719	-99.501	0.131	-0.033
-573.704	-43.081	-0.451	0.230
-572.690	-200.000	-0.059	0.490
-571.675	-15.566	0.190	0.122
-570.661	-64.930	-0.087	-0.035
-569.646	-109.359	0.081	-0.017
-568.631	-115.314	-0.179	-0.034
-567.617	-131.662	0.235	-0.031
-566.602	-11.511	0.263	-0.175
-565.588	60.300	-0.287	0.286
-564.573	128.277	-0.071	-0.091
-563.558	87.443	0.121	0.134
-562.544	141.012	-0.299	0.397
-561.529	222.752	0.075	0.122
-560.515	460.389	-0.241	-0.541
-559.500	-200.000	-0.053	-0.276
-558.485	800.000	-0.066	-0.256
-557.471	800.000	0.046	-0.144
-556.456	201.066	-0.072	0.112
-555.442	800.000	-0.007	0.024
-554.427	-73.835	-0.275	0.101
-553.412	23.451	0.263	0.217
-552.398	-54.612	-0.292	0.133
-551.383	-109.888	-0.194	-0.041
-550.369	-200.000	0.041	-0.187
-549.354	343.004	-0.031	0.062
-548.339	-141.304	0.189	0.019
-547.325	-39.830	-0.204	0.107
-546.310	-51.589	-0.321	-0.151
-545.296	75.847	0.207	0.220
-544.281	54.349	0.117	0.113
-543.266	-127.963	0.294	0.043
-542.252	-74.999	-0.025	-0.009
-541.237	277.255	0.079	-0.142
-540.223	111.320	-0.118	0.143
-539.208	800.000	0.057	0.247
-538.193	-94.586	0.389	-0.106
-537.179	-84.568	-0.130	0.041
-536.164	102.838	0.083	-0.097
-535.150	212.694	0.232	0.369
-534.135	334.399	0.154	-0.301
-533.121	-89.242	-0.275	-0.082
-532.106	-86.116	-0.332	-0.103
-531.091	102.565	0.138	0.162
-530.077	800.000	0.032	0.108
-529.062	-179.679	-0.348	-0.008
-528.048	-200.000	0.001	-0.324
-527.033	140.463	-0.215	-0.286
-526.018	-128.756	-0.232	0.033
-525.004	800.000	0.042	0.178
-523.989	-68.854	-0.298	0.116
-522.975	800.000	0.035	-0.098
-521.960	-200.000	-0.002	-0.224
-520.945	31.413	0.262	0.226
-519.931	121.181	0.127	-0.159
-518.916	219.053	-0.113	-0.181
-517.902	102.773	0.194	0.228
-516.887	-98.368	0.361	-0.093
-515.872	-90.728	0.281	0.081
-514.858	259.399	-0.130	0.226
-513.843	-200.000	-0.000	0.195
-512.829	-200.000	-0.007	-0.036
-511.814	-38.504	0.544	0.289
-510.799	-114.370	-0.196	0.038
-509.785	361.378	-0.086	-0.174
-508.770	204.255	0.113	-0.177
-507.756	126.619	-0.157	0.200
-506.741	26.842	0.196	-0.165
-505.726	47.661	0.148	0.139
-504.712	-101.099	-0.262	-0.064
-503.697	-49.034	0.226	0.109
-502.683	151.815	-0.183	0.251
-501.668	304.368	-0.087	-0.162
-500.653	15.390	0.265	0.209
-499.639	88.275	-0.148	0.165
-498.624	-200.000	0.051	0.260
-497.610	-160.420	-0.070	0.004
-496.595	-200.000	0.023	0.290
-495.581	146.680	0.048	0.065
-494.566	-8.126	-0.056	-0.038
-493.551	-164.702	-0.224	0.010
-492.537	-200.000	0.002	-0.331
-491.522	-74.028	0.375	0.137
-490.508	-24.985	-0.217	-0.129
-489.493	204.497	0.152	0.237
-488.478	-64.744	-0.112	-0.046
-487.464	-200.000	-0.061	-0.303
-486.449	-121.767	0.204	0.034
-485.435	-200.000	0.010	-0.178
-484.420	-165.615	0.351	-0.015
-483.405	-200.000	0.015	-0.139
-482.391	548.438	-0.135	-0.324
-481.376	-200.000	-0.045	0.371
-480.362	40.069	0.174	-0.157
-479.347	496.937	-0.170	-0.392
-478.332	500.882	0.084	0.194
-477.318	-116.486	-0.330	-0.061
-476.303	-200.000	-0.037	-0.170
-475.289	-36.668	-0.295	0.159
-474.274	-68.548	0.204	0.079
-473.259	67.003	-0.343	-0.351
-472.245	800.000	-0.066	0.261
-471.230	12.001	0.203	0.157
-470.216	98.310	0.208	-0.241
-469.201	-200.000	-0.008	0.230
-468.186	-200.000	0.010	0.188
-467.172	-144.814	-0.067	-0.006
-466.157	-200.000	-0.008	0.071
-465.143	265.982	0.098	-0.172
-464.128	-106.550	0.235	0.052
-463.113	-121.346	0.192	-0.032
-462.099	146.566	-0.263	0.355
-461.084	-200.000	-0.022	-0.259
-460.070	3.216	-0.107	-0.078
-459.055	-200.000	0.030	-0.377
-458.040	117.332	-0.080	-0.099
-457.026	116.378	0.245	-0.301
-456.011	-129.839	0.241	-0.033
-454.997	-39.305	0.323	-0.170
-453.982	-153.415	0.075	-0.005
-452.968	106.859	-0.275	-0.328
-451.953	692.413	0.146	-0.384
-450.938	-99.246	0.034	-0.009
-449.924	104.533	-0.167	-0.197
-448.909	62.299	-0.117	-0.117
-447.895	28.187	0.257	0.217
-446.880	438.914	0.088	0.193
-445.865	-200.000	0.028	-0.283
-444.851	-49.753	0.198	0.095
-443.836	52.728	0.169	0.162
-442.822	-16.346	-0.123	-0.078
-441.807	-200.000	-0.032	0.161
-440.792	18.041	-0.142	0.113
-439.778	-81.284	-0.214	-0.071
-438.763	-146.954	0.076	0.007
-437.749	-200.000	0.073	-0.353
-436.734	-105.744	0.231	-0.052
-435.719	-26.958	0.149	-0.087
-434.705	413.095	-0.017	0.036
-433.690	-105.946	-0.169	-0.038
-432.676	-200.000	-0.017	-0.216
-431.661	-200.000	-0.002	-0.051
-430.646	-55.588	-0.377	0.169
-429.632	-16.087	0.198	0.126
-428.617	800.000	0.066	-0.284
-427.603	-153.140	0.148	-0.010
-426.588	-145.375	0.257	0.023
-425.573	727.346	0.043	0.115
-424.559	-64.721	-0.214	-0.087
-423.544	91.223	0.240	-0.270
-422.530	-139.766	0.069	0.007
-421.515	-78.190	-0.246	-0.085
-420.500	136.985	-0.220	-0.288
-419.486	-24.016	0.053	-0.032
-418.471	-200.000	-0.006	0.125
-417.457	800.000	-0.027	0.082
-416.442	-200.000	0.002	-0.194
-415.428	-93.419	0.148	-0.041
-414.413	350.301	-0.111	-0.220
-413.398	83.957	-0.145	-0.159
-412.384	108.735	-0.120	-0.143
-411.369	-22.701	0.078	0.047
-410.355	-15.826	0.267	0.170
-409.340	-181.064	0.186	-0.004
-408.325	-96.503	-0.503	-0.133
-407.311	107.480	-0.086	-0.102
-406.296	-108.563	0.092	0.020
-405.282	133.883	-0.230	-0.298
-404.267	106.904	-0.075	-0.089
-403.252	338.304	0.088	0.171
-402.238	-200.000	-0.092	-0.000
-401.223	-200.000	-0.047	0.210
-400.209	-21.529	-0.032	0.019
-399.194	-105.527	0.210	-0.048
-398.179	38.400	-0.085	-0.076
-397.165	-27.576	-0.145	-0.085
-396.150	-200.000	0.014	-0.070
-395.136	-117.763	0.258	-0.046
-394.121	-200.000	-0.019	-0.117
-393.106	-158.004	-0.443	0.026
-392.092	-30.367	-0.051	-0.029
-391.077	-200.000	0.015	-0.174
-390.063	42.119	0.058	-0.053
-389.048	167.881	0.078	0.110
-388.033	17.431	-0.208	-0.165
-387.019	-29.571	-0.250	0.143
-386.004	177.578	-0.115	-0.167
-384.990	-200.000	-0.030	-0.150
-383.975	-127.424	0.141	0.021
-382.960	-200.000	0.009	-0.346
-381.946	79.626	-0.248	-0.266
-380.931	21.660	0.218	0.177
-379.917	138.501	-0.096	0.126
-378.902	-27.374	-0.145	0.084
-377.888	-69.793	-0.606	-0.231
-376.873	-200.000	-0.013	0.184
-375.858	560.163	-0.172	0.416
-374.844	182.271	-0.146	-0.215
-373.829	-200.000	0.022	0.162
-372.815	-200.000	-0.060	0.427
-371.800	-200.000	0.021	-0.183
-370.785	-110.732	-0.115	0.024
-369.771	-66.674	-0.255	0.101
-368.756	-85.796	0.486	0.151
-367.742	232.048	0.126	-0.206
-366.727	-200.000	-0.004	0.096
-365.712	196.633	0.116	0.177
-364.698	108.865	-0.141	-0.169
-363.683	-38.055	0.180	-0.095
-362.669	325.934	-0.152	0.291
-361.654	-42.676	0.032	-0.016
-360.639	96.369	0.063	-0.073
-359.625	-49.068	0.076	-0.036
-358.610	-200.000	-0.010	0.230
-357.596	-73.569	0.005	0.002
-356.581	200.151	0.333	-0.510
-355.566	-200.000	0.005	0.095
-354.552	-200.000	-0.057	0.266
-353.537	-200.000	0.034	0.187
-352.523	34.161	0.129	-0.113
-351.508	76.549	-0.164	0.174
-350.493	76.511	-0.089	-0.094
-349.479	75.099	-0.185	-0.195
-348.464	47.412	-0.256	-0.238
-347.450	103.270	-0.208	0.243
-346.435	-123.317	-0.349	0.056
-345.420	233.135	0.029	-0.048
-344.406	719.580	-0.097	0.258
-343.391	-55.619	-0.180	0.080
-342.377	-142.709	0.116	-0.011
-341.362	-44.765	0.243	-0.121
-340.348	754.030	0.061	-0.164
-339.333	48.813	0.301	-0.282
-338.318	-89.695	-0.301	0.088
-337.304	-32.912	-0.157	-0.087
-336.289	377.651	-0.159	-0.325
-335.275	337.804	-0.061	0.118
-334.260	-200.000	0.015	0.181
-333.245	216.930	0.101	-0.160
-332.231	72.737	-0.103	0.107
-331.216	-139.249	0.233	-0.025
-330.202	-73.066	0.191	0.070
-329.187	-31.123	-0.239	-0.135
-328.172	-200.000	0.068	-0.344
-327.158	-200.000	-0.013	-0.154
-326.143	35.724	0.293	0.257
-325.129	800.000	-0.022	0.062
-324.114	445.460	-0.037	0.081
-323.099	-119.955	-0.279	0.048
-322.085	-104.200	0.175	0.041
-321.070	491.472	0.053	0.120
-320.056	-200.000	0.024	-0.124
-319.041	-8.467	-0.114	0.077
-318.026	499.434	0.016	0.036
-317.012	43.720	-0.057	-0.052
-315.997	60.258	-0.198	0.196
-314.983	800.000	0.059	0.178
-313.968	125.795	0.065	0.082
-312.953	-200.000	-0.068	0.416
-311.939	-200.000	-0.011	0.295
-310.924	634.679	-0.065	0.164
-309.910	454.133	0.098	0.217
-308.895	-15.061	0.211	-0.135
-307.880	181.855	0.243	-0.357
-306.866	90.814	0.214	0.239
-305.851	-200.000	0.014	-0.132
-304.837	-200.000	-0.011	0.179
-303.822	52.441	0.314	0.299
-302.807	-88.188	0.067	0.020
-301.793	657.132	-0.177	0.454
-300.778	800.000	0.048	-0.163
-299.764	-70.572	-0.228	-0.086
-298.749	287.391	-0.095	-0.171
-297.735	545.186	-0.181	-0.431
-296.720	57.179	-0.141	-0.137
-295.705	-170.202	0.257	-0.009
-294.691	-57.659	-0.254	0.111
-293.676	525.092	-0.078	-0.184
-292.662	101.130	0.136	0.158
-291.647	-200.000	-0.021	0.201
-290.632	92.804	0.170	0.192
-289.618	-200.000	-0.071	0.356
-288.603	-90.411	0.239	-0.069
-287.589	-43.519	-0.173	0.087
-286.574	-200.000	0.035	0.229
-285.559	-100.256	0.280	0.069
-284.545	-200.000	-0.016	0.257
-283.530	357.558	-0.091	-0.181
-282.516	-68.202	-0.208	-0.080
-281.501	-68.791	-0.289	0.111
-280.486	343.008	-0.017	-0.033
-279.472	-140.082	-0.068	-0.007
-278.457	-1.360	0.238	0.167
-277.443	78.889	0.108	0.115
-276.428	170.706	0.204	-0.292
-275.413	652.360	0.087	-0.223
-274.399	277.474	0.099	-0.175
-273.384	800.000	0.065	0.282
-272.370	71.042	-0.024	0.025
-271.355	-200.000	-0.018	-0.362
-270.340	-173.708	-0.263	-0.008
-269.326	95.288	-0.159	0.180
-268.311	-16.815	0.324	-0.204
-267.297	-132.684	-0.336	-0.043
-266.282	71.112	-0.094	0.097
-265.267	138.985	-0.194	0.254
-264.253	-200.000	0.010	0.057
-263.238	303.293	0.100	0.184
-262.224	-140.916	0.125	0.013
-261.209	-82.908	0.461	-0.148
-260.195	742.082	-0.073	-0.195
-259.180	-200.000	-0.014	-0.117
-258.165	-92.824	0.163	-0.045
-257.151	425.335	-0.121	0.258
-256.136	-74.803	-0.107	-0.038
-255.122	145.780	0.148	-0.198
-254.107	800.000	-0.034	-0.136
-253.092	88.160	-0.129	-0.142
-252.078	547.299	-0.070	0.168
-251.063	-64.997	-0.106	-0.042
-250.049	412.934	0.040	-0.085
-249.034	143.947	-0.192	0.254
-248.019	-200.000	0.036	-0.245
-247.005	-154.361	0.246	0.016
-245.990	193.753	-0.053	0.080
-244.976	-200.000	0.021	0.096
-243.961	-75.303	0.106	0.038
-242.946	18.001	0.037	-0.029
-241.932	-200.000	0.004	0.118
-240.917	-129.390	-0.176	0.024
-239.903	-6.524	0.140	-0.095
-238.888	-32.347	-0.098	0.055
-237.873	186.290	0.146	0.216
-236.859	-200.000	0.043	-0.346
-235.844	443.013	0.043	0.094
-234.830	530.982	0.043	-0.102
-233.815	-200.000	0.001	0.292
-232.800	-15.451	-0.111	0.071
-231.786	232.334	0.014	0.023
-230.771	240.373	0.052	0.086
-229.757	-87.879	-0.334	-0.100
-228.742	800.000	0.076	-0.267
-227.727	113.253	0.141	-0.169
-226.713	-200.000	0.001	-0.044
-225.698	66.392	-0.138	0.140
-224.684	-39.638	0.231	-0.120
-223.669	-200.000	0.018	0.128
-222.655	-200.000	-0.075	0.393
-221.640	-200.000	0.047	0.305
-220.625	-200.000	0.016	-0.087
-219.611	800.000	-0.198	-0.600
-218.596	90.933	-0.245	-0.273
-217.582	86.365	0.353	0.386
-216.567	-75.334	0.207	0.073
-215.552	-200.000	0.041	0.220
-214.538	6.416	0.223	0.165
-213.523	-200.000	0.033	0.185
-212.509	153.000	-0.170	0.230
-211.494	-97.429	0.336	-0.087
-210.479	-75.385	-0.298	-0.105
-209.465	-159.927	0.023	0.001
-208.450	-35.022	-0.173	0.094
-207.436	-25.407	-0.148	0.087
-206.421	-111.996	-0.105	-0.021
-205.406	128.566	-0.148	0.188
-204.392	13.101	0.093	-0.071
-203.377	-76.372	0.357	0.125
-202.363	91.932	-0.158	-0.176
-201.348	-189.630	-0.419	0.005
-200.333	-200.000	-0.023	0.417
-199.319	-0.638	0.142	-0.100
-198.304	68.651	-0.081	-0.082
-197.290	-68.381	-0.186	-0.072
-196.275	-5.749	-0.161	-0.109
-195.260	800.000	0.107	0.391
-194.246	-166.746	0.177	0.007
-193.231	131.791	0.277	0.354
-192.217	800.000	0.011	0.043
-191.202	-200.000	0.036	0.326
-190.187	-115.219	0.043	0.008
-189.173	-100.687	0.325	-0.079
-188.158	-19.412	0.095	-0.059
-187.144	28.270	-0.084	-0.070
-186.129	-28.335	-0.131	0.075
-185.114	-144.180	-0.180	-0.017
-184.100	136.271	0.039	0.050
-183.085	-9.979	-0.157	-0.104
-182.071	-78.985	0.140	0.047
-181.056	199.148	0.067	-0.101
-180.042	-59.197	0.209	-0.089
-179.027	800.000	0.074	0.207
-178.012	-46.547	-0.350	-0.170
-176.998	-116.654	0.344	0.063
-175.983	-200.000	-0.031	0.137
-174.969	-64.276	-0.174	-0.070
-173.954	17.105	-0.079	-0.062
-172.939	-109.211	0.108	-0.023
-171.925	-59.995	-0.237	-0.100
-170.910	-88.380	-0.042	0.012
-169.896	-11.393	-0.084	-0.055
-168.881	4.612	0.170	0.124
-167.866	352.523	0.039	0.076
-166.852	-85.297	0.315	0.098
-165.837	-127.625	0.071	0.010
-164.823	-200.000	0.007	0.032
-163.808	-123.726	-0.244	-0.038
-162.793	468.164	-0.140	-0.311
-161.779	800.000	-0.079	0.239
-160.764	-133.450	-0.252	0.031
-159.750	57.503	0.201	-0.194
-158.735	14.797	0.375	-0.290
-157.720	145.971	-0.069	-0.092
-156.706	36.858	0.129	0.113
-155.691	-200.000	-0.072	-0.330
-154.677	563.480	0.216	-0.519
-153.662	-90.223	0.121	-0.035
-152.647	-86.964	-0.016	-0.005
-151.633	-175.899	-0.169	-0.004
-150.618	148.076	-0.075	0.101
-149.604	-97.844	0.684	-0.175
-148.589	800.000	-0.041	-0.126
-147.574	-175.282	-0.283	-0.008
-146.560	800.000	-0.102	-0.308
-145.545	17.661	0.114	0.090
-144.531	63.846	-0.293	0.292
-143.516	-24.701	-0.091	0.053
-142.502	276.217	0.064	-0.113
-141.487	-48.805	-0.075	0.036
-140.472	-200.000	-0.009	-0.167
-139.458	150.842	-0.110	-0.149
-138.443	-105.816	0.223	0.050
-137.429	215.339	0.200	-0.315
-136.414	-96.423	-0.116	0.030
-135.399	173.095	-0.100	0.143
-134.385	261.381	0.175	-0.300
-133.370	800.000	0.054	-0.164
-132.356	-200.000	-0.035	0.192
-131.341	-200.000	0.005	-0.076
-130.326	-164.966	0.112	0.005
-129.312	-200.000	-0.080	0.356
-128.297	-200.000	0.152	-0.001
-127.283	24.070	-0.296	-0.241
-126.268	133.138	0.070	0.089
-125.253	131.393	0.271	0.345
-124.239	325.650	-0.086	-0.163
-123.224	-53.743	0.113	0.051
-122.210	117.213	-0.107	0.130
