DTS Sentinel unit serial number:	SN413079Multiplexer serial number:	ORYXHardware model number:	OX4-SRSoftware version number:	ORYX F/W v4.00 Oryx Data Collector v3.7.2.0data status	okinstallation	princeton_trtdifferential loss correction	single-endedforward channel	channel 3reverse channel	N/Adate	2019/09/15time	22:52:35forward acquisition time	60.00reverse acquisition time	0.00gamma	496.2192k internal	0.2333k external	0.2333temperature offset calibration	0.9944default loss term (dB/km)	0.3790temperature slope calibration	1.0000multiplexer offset coefficient	1.0000multiplexer slope coefficient	1.0000fibre end	0.00T internal ref (°C)	28.70T ext. ref 1 (°C)	8.91T ext. ref 2 (°C)	22.27length (m)	temperature (°C)	Stokes	anti-Stokes-747.200	310.966	0.041	0.078
-746.185	-124.709	-0.223	-0.035
-745.171	127.316	0.149	-0.190
-744.156	-1.507	-0.215	0.153
-743.142	-101.113	0.435	0.107
-742.127	-80.422	-0.160	0.054
-741.112	116.859	0.300	0.370
-740.098	-76.233	-0.186	0.066
-739.083	-13.082	-0.246	-0.161
-738.069	203.503	0.092	0.143
-737.054	45.580	0.280	-0.260
-736.039	438.382	-0.068	0.148
-735.025	39.856	0.173	-0.156
-734.010	-110.721	-0.050	0.010
-732.996	361.535	-0.002	0.005
-731.981	-44.782	-0.141	0.071
-730.966	329.382	0.077	-0.149
-729.952	-200.000	-0.003	-0.129
-728.937	800.000	0.062	-0.193
-727.923	286.600	-0.110	0.200
-726.908	-66.890	-0.102	0.040
-725.894	-170.908	-0.124	0.004
-724.879	-27.715	-0.122	-0.071
-723.864	277.338	-0.138	-0.247
-722.850	-63.115	0.184	0.076
-721.835	800.000	-0.076	0.271
-720.821	-113.456	-0.255	0.050
-719.806	-91.804	0.272	-0.078
-718.791	-167.441	0.033	-0.001
-717.777	162.726	-0.086	-0.121
-716.762	-200.000	-0.023	-0.134
-715.748	-200.000	0.005	0.161
-714.733	-200.000	0.014	-0.415
-713.718	48.367	-0.209	0.196
-712.704	-176.723	0.099	-0.003
-711.689	-35.564	0.144	-0.079
-710.675	724.820	-0.059	0.158
-709.660	-181.255	-0.102	0.002
-708.645	44.776	0.224	0.207
-707.631	800.000	0.049	-0.138
-706.616	800.000	0.028	-0.103
-705.602	199.876	-0.172	-0.266
-704.587	800.000	0.094	-0.373
-703.572	-77.506	-0.273	-0.095
-702.558	-47.700	0.487	0.237
-701.543	-68.676	-0.078	-0.030
-700.529	201.850	-0.068	0.105
-699.514	88.475	-0.176	0.197
-698.499	-49.553	-0.128	0.061
-697.485	-13.867	-0.225	0.146
-696.470	225.892	-0.272	-0.442
-695.456	-200.000	0.045	-0.235
-694.441	20.754	0.082	-0.066
-693.426	80.864	0.068	0.073
-692.412	0.385	-0.283	0.203
-691.397	-157.489	0.080	-0.005
-690.383	153.435	-0.026	-0.035
-689.368	389.348	-0.098	0.204
-688.354	-107.546	-0.262	-0.058
-687.339	5.151	-0.095	0.070
-686.324	-178.784	-0.234	-0.005
-685.310	-200.000	-0.045	-0.321
-684.295	-200.000	-0.068	-0.417
-683.281	-200.000	-0.017	-0.247
-682.266	105.176	-0.146	0.173
-681.251	800.000	0.054	-0.205
-680.237	-183.776	0.313	0.005
-679.222	71.277	0.152	-0.158
-678.208	-110.202	0.295	-0.062
-677.193	3.165	-0.246	0.179
-676.178	44.089	-0.060	-0.056
-675.164	-200.000	0.024	0.229
-674.149	466.626	0.114	-0.255
-673.135	36.290	-0.122	-0.108
-672.120	97.728	0.174	-0.201
-671.105	-47.872	0.354	-0.172
-670.091	641.783	0.112	0.286
-669.076	85.011	-0.308	0.339
-668.062	-19.755	0.047	0.029
-667.047	-79.463	0.135	0.046
-666.032	416.929	-0.091	0.194
-665.018	-43.000	0.266	0.135
-664.003	280.146	0.127	-0.228
-662.989	-114.336	-0.454	-0.088
-661.974	-120.719	-0.209	0.035
-660.959	-136.763	-0.112	-0.013
-659.945	14.293	-0.227	-0.178
-658.930	-86.099	-0.164	0.051
-657.916	-200.000	0.015	-0.141
-656.901	-200.000	0.011	0.212
-655.886	114.821	0.099	0.121
-654.872	800.000	-0.053	-0.164
-653.857	800.000	0.033	0.124
-652.843	-158.748	-0.281	0.016
-651.828	-126.523	-0.138	0.020
-650.814	45.197	-0.065	-0.060
-649.799	800.000	0.066	0.196
-648.784	-81.795	0.260	0.085
-647.770	207.687	-0.082	-0.129
-646.755	-114.407	0.139	0.027
-645.741	102.000	0.036	0.042
-644.726	768.608	-0.073	0.199
-643.711	258.265	-0.049	0.084
-642.697	-110.567	0.118	-0.025
-641.682	-200.000	0.010	0.152
-640.668	-31.019	-0.101	-0.057
-639.653	53.510	-0.041	-0.039
-638.638	-26.598	0.092	0.054
-637.624	-200.000	-0.003	-0.174
-636.609	70.909	-0.139	0.145
-635.595	-200.000	-0.024	0.131
-634.580	-75.538	-0.140	0.050
-633.565	800.000	-0.043	0.124
-632.551	65.165	0.116	-0.117
-631.536	-41.200	0.145	-0.075
-630.522	1.373	0.271	0.195
-629.507	-97.890	0.321	-0.083
-628.492	-11.071	-0.145	0.096
-627.478	-200.000	-0.011	0.120
-626.463	-200.000	0.102	-0.451
-625.449	-68.884	0.392	0.151
-624.434	800.000	-0.029	-0.102
-623.419	-65.966	-0.152	-0.061
-622.405	-200.000	-0.006	-0.114
-621.390	-200.000	-0.002	0.017
-620.376	464.387	-0.084	-0.188
-619.361	-200.000	-0.005	-0.063
-618.346	-2.729	0.174	0.122
-617.332	-34.895	0.228	-0.125
-616.317	-85.208	-0.288	0.090
-615.303	-131.167	-0.189	0.025
-614.288	-200.000	0.113	0.499
-613.273	800.000	0.010	-0.039
-612.259	-88.105	-0.132	-0.040
-611.244	-100.825	-0.125	0.031
-610.230	800.000	-0.064	-0.195
-609.215	-200.000	0.026	-0.125
-608.201	800.000	0.054	0.219
-607.186	-200.000	0.017	0.122
-606.171	-100.115	0.082	0.020
-605.157	50.972	-0.150	-0.142
-604.142	-119.408	-0.073	-0.013
-603.128	0.729	-0.184	-0.132
-602.113	-149.844	0.383	-0.030
-601.098	227.986	0.198	-0.322
-600.084	-59.293	0.259	0.111
-599.069	498.943	-0.078	0.180
-598.055	172.513	0.068	-0.098
-597.040	-108.002	-0.090	0.020
-596.025	800.000	0.017	0.066
-595.011	13.801	0.206	-0.160
-593.996	-24.580	-0.340	0.202
-592.982	57.338	0.306	-0.299
-591.967	26.656	-0.128	0.107
-590.952	230.534	0.034	0.056
-589.938	201.443	0.033	0.050
-588.923	74.607	0.078	0.082
-587.909	489.917	-0.213	0.486
-586.894	77.924	-0.212	0.225
-585.879	800.000	0.100	0.370
-584.865	462.567	0.081	-0.181
-583.850	800.000	-0.108	0.319
-582.836	-60.182	-0.472	0.201
-581.821	-200.000	-0.042	0.347
-580.806	535.286	0.120	0.285
-579.792	160.369	0.162	0.226
-578.777	-82.380	-0.236	0.077
-577.763	102.648	-0.113	-0.132
-576.748	-200.000	0.022	-0.144
-575.733	-31.995	0.090	-0.050
-574.719	800.000	0.053	0.186
-573.704	155.719	0.134	-0.185
-572.690	-123.387	-0.102	-0.016
-571.675	-47.515	0.183	-0.089
-570.661	308.630	-0.130	0.243
-569.646	95.343	0.092	0.105
-568.631	82.377	-0.288	-0.312
-567.617	-98.887	0.229	0.058
-566.602	431.013	0.009	-0.019
-565.588	-55.634	0.442	-0.198
-564.573	-9.344	0.141	0.094
-563.558	2.377	-0.211	0.152
-562.544	-126.307	-0.033	-0.005
-561.529	800.000	-0.026	0.101
-560.515	-97.194	-0.052	0.013
-559.500	-63.269	-0.206	0.085
-558.485	112.938	0.063	-0.076
-557.471	-158.802	-0.318	-0.018
-556.456	800.000	-0.036	-0.154
-555.442	-200.000	-0.002	-0.160
-554.427	800.000	0.132	-0.479
-553.412	117.891	-0.158	-0.195
-552.398	-200.000	-0.006	-0.162
-551.383	-200.000	-0.119	0.653
-550.369	-90.142	-0.310	-0.090
-549.354	236.783	-0.075	-0.123
-548.339	-200.000	0.028	-0.186
-547.325	-200.000	0.033	-0.380
-546.310	26.106	0.237	0.197
-545.296	3.033	0.095	-0.069
-544.281	260.520	0.187	0.322
-543.266	58.287	0.053	-0.051
-542.252	106.928	0.056	0.066
-541.237	-45.739	-0.111	-0.055
-540.223	133.395	-0.245	0.315
-539.208	-111.161	0.108	-0.022
-538.193	264.419	-0.104	-0.180
-537.179	800.000	-0.109	-0.355
-536.164	64.307	0.208	-0.208
-535.150	-77.668	-0.113	-0.039
-534.135	161.882	0.175	-0.245
-533.121	-113.117	-0.443	-0.087
-532.106	-200.000	0.032	-0.190
-531.091	-29.145	-0.181	0.103
-530.077	16.502	0.079	0.062
-529.062	0.448	-0.028	-0.020
-528.048	17.823	0.128	0.101
-527.033	-83.909	0.127	-0.040
-526.018	-12.688	0.098	-0.064
-525.004	-77.018	0.142	-0.049
-523.989	-200.000	0.001	0.151
-522.975	-200.000	0.025	-0.108
-521.960	58.492	0.137	0.134
-520.945	470.772	0.195	0.438
-519.931	-96.580	-0.385	0.101
-518.916	49.143	0.185	0.174
-517.902	269.469	0.051	0.089
-516.887	4.451	0.159	-0.116
-515.872	-116.379	-0.421	0.078
-514.858	640.534	-0.102	-0.258
-513.843	-111.840	-0.136	-0.027
-512.829	-44.779	0.216	0.108
-511.814	-68.931	0.279	0.107
-510.799	202.406	-0.276	-0.424
-509.785	25.786	0.315	0.262
-508.770	-96.457	0.143	0.038
-507.756	-82.006	-0.224	-0.073
-506.741	-81.112	-0.115	-0.038
-505.726	-44.606	0.107	0.053
-504.712	-200.000	-0.004	-0.085
-503.697	369.653	0.087	-0.175
-502.683	12.503	0.259	0.199
-501.668	800.000	0.129	-0.403
-500.653	170.162	0.085	-0.122
-499.639	257.075	-0.105	0.180
-498.624	564.797	-0.078	-0.188
-497.610	83.946	0.081	0.088
-496.595	-135.980	-0.325	-0.038
-495.581	800.000	-0.081	-0.332
-494.566	332.230	-0.180	-0.346
-493.551	-55.158	-0.170	-0.076
-492.537	-98.323	0.211	-0.054
-491.522	800.000	-0.065	-0.231
-490.508	427.496	-0.039	0.084
-489.493	588.156	-0.120	-0.294
-488.478	-124.297	-0.321	-0.050
-487.464	-200.000	0.051	-0.308
-486.449	183.028	-0.166	-0.245
-485.435	-200.000	0.020	0.191
-484.420	-110.973	-0.259	-0.053
-483.405	-85.860	-0.112	-0.034
-482.391	37.190	0.204	0.180
-481.376	60.784	-0.121	0.120
-480.362	-124.085	-0.181	-0.028
-479.347	-82.678	0.117	0.038
-478.332	-120.463	0.379	-0.064
-477.318	96.393	-0.190	0.216
-476.303	46.695	0.363	-0.335
-475.289	8.706	-0.204	-0.153
-474.274	508.483	-0.083	-0.193
-473.259	55.946	0.158	0.152
-472.245	-82.450	-0.235	0.076
-471.230	-94.046	-0.100	0.027
-470.216	287.432	-0.095	-0.170
-469.201	41.263	0.223	0.200
-468.186	-128.153	-0.168	-0.024
-467.172	52.736	0.076	0.072
-466.157	115.278	-0.158	-0.192
-465.143	-200.000	-0.023	-0.124
-464.128	-200.000	0.036	-0.196
-463.113	-200.000	0.055	0.344
-462.099	244.063	-0.156	-0.261
-461.084	-200.000	0.007	-0.111
-460.070	-200.000	-0.027	-0.338
-459.055	0.450	0.126	-0.089
-458.040	175.127	0.091	-0.131
-457.026	-82.691	-0.252	-0.081
-456.011	-166.815	0.300	0.012
-454.997	103.978	0.263	0.308
-453.982	-131.110	0.130	0.017
-452.968	-73.969	0.046	0.017
-451.953	-200.000	0.049	-0.327
-450.938	775.034	0.058	0.156
-449.924	116.832	-0.136	0.166
-448.909	-200.000	-0.012	0.338
-447.895	-115.244	0.204	0.038
-446.880	-200.000	-0.018	0.255
-445.865	-200.000	-0.029	-0.288
-444.851	163.170	0.287	-0.401
-443.836	497.243	0.162	0.369
-442.822	-200.000	0.055	0.353
-441.807	333.210	-0.063	-0.121
-440.792	800.000	-0.062	0.189
-439.778	-157.291	-0.312	-0.019
-438.763	507.704	-0.054	0.125
-437.749	-168.912	0.065	-0.002
-436.734	177.566	-0.142	0.206
-435.719	354.692	0.040	-0.079
-434.705	-170.998	-0.373	-0.013
-433.690	-200.000	-0.042	-0.280
-432.676	162.541	0.235	-0.328
-431.661	345.942	-0.107	0.208
-430.646	-161.988	-0.178	0.009
-429.632	-200.000	0.035	-0.233
-428.617	155.071	-0.110	-0.150
-427.603	-40.730	-0.248	0.128
-426.588	-165.929	0.283	0.012
-425.573	-79.569	0.496	-0.166
-424.559	-76.744	-0.188	0.065
-423.544	-100.541	-0.149	0.036
-422.530	-194.480	0.132	-0.001
-421.515	-129.984	-0.268	-0.036
-420.500	-200.000	0.015	-0.176
-419.486	800.000	-0.112	0.316
-418.471	-200.000	0.002	-0.093
-417.457	18.078	0.383	-0.303
-416.442	297.764	-0.119	0.218
-415.428	-198.283	-0.122	0.001
-414.413	170.397	-0.187	-0.265
-413.398	-126.103	-0.191	-0.028
-412.384	123.880	0.157	-0.195
-411.369	-200.000	-0.005	-0.093
-410.355	121.368	-0.148	0.183
-409.340	-200.000	-0.008	0.306
-408.325	416.806	0.223	0.473
-407.311	44.890	-0.203	0.185
-406.296	80.831	-0.121	-0.130
-405.282	186.690	0.135	0.200
-404.267	800.000	-0.027	-0.103
-403.252	741.431	-0.069	-0.185
-402.238	800.000	-0.044	-0.190
-401.223	-200.000	-0.015	0.090
-400.209	800.000	-0.078	-0.306
-399.194	-61.522	0.184	-0.077
-398.179	222.217	-0.126	-0.200
-397.165	-114.315	-0.289	0.055
-396.150	25.780	-0.151	-0.125
-395.136	800.000	-0.053	-0.158
-394.121	-107.427	-0.463	-0.101
-393.106	-110.667	-0.189	0.039
-392.092	328.743	-0.233	-0.444
-391.077	-149.860	0.149	0.012
-390.063	-168.103	0.323	0.012
-389.048	163.069	0.192	0.267
-388.033	260.422	0.154	0.265
-387.019	-64.068	-0.011	0.004
-386.004	-76.274	-0.159	-0.055
-384.990	800.000	0.074	0.308
-383.975	-108.245	-0.312	-0.067
-382.960	800.000	0.071	-0.306
-381.946	800.000	-0.013	-0.036
-380.931	150.140	-0.151	0.204
-379.917	-34.347	0.124	-0.067
-378.902	-55.647	0.257	-0.114
-377.888	-47.954	-0.354	-0.170
-376.873	398.370	-0.036	0.074
-375.858	-85.419	0.112	0.035
-374.844	-75.879	0.326	0.114
-373.829	447.593	0.187	0.409
-372.815	17.897	-0.172	-0.136
-371.800	-200.000	0.002	-0.124
-370.785	-102.380	-0.380	0.090
-369.771	800.000	-0.063	0.260
-368.756	373.480	-0.131	-0.263
-367.742	3.311	-0.126	0.091
-366.727	-98.076	0.087	0.022
-365.712	-105.598	0.338	0.076
-364.698	800.000	0.065	-0.200
-363.683	-200.000	0.017	0.220
-362.669	-19.550	-0.044	-0.027
-361.654	-125.128	-0.121	0.018
-360.639	53.234	-0.192	0.182
-359.625	-200.000	-0.115	-0.598
-358.610	-200.000	-0.029	0.205
-357.596	234.976	-0.276	0.451
-356.581	-0.889	0.393	-0.276
-355.566	404.651	-0.086	-0.180
-354.552	-200.000	0.015	-0.237
-353.537	-200.000	-0.028	0.196
-352.523	-200.000	0.015	0.279
-351.508	29.435	0.152	-0.128
-350.493	101.728	0.035	0.041
-349.479	-50.094	0.363	-0.170
-348.464	-53.942	-0.247	-0.112
-347.450	-37.519	-0.244	0.129
-346.435	640.146	0.086	-0.217
-345.420	-200.000	0.056	0.261
-344.406	-115.767	-0.116	0.021
-343.391	161.452	-0.201	-0.278
-342.377	120.778	0.081	0.100
-341.362	-200.000	0.019	0.188
-340.348	-134.630	0.366	-0.044
-339.333	-162.275	-0.123	-0.006
-338.318	21.326	0.262	0.210
-337.304	-134.962	0.227	0.027
-336.289	-42.718	0.233	0.117
-335.275	-86.116	-0.335	-0.102
-334.260	257.145	-0.189	-0.322
-333.245	81.521	-0.168	-0.180
-332.231	-119.088	0.235	-0.041
-331.216	241.033	0.138	-0.227
-330.202	-151.937	-0.223	0.016
-329.187	238.802	0.144	0.236
-328.172	-200.000	0.034	0.211
-327.158	-4.773	0.095	-0.065
-326.143	-30.827	0.123	0.069
-325.129	-76.051	-0.299	0.105
-324.114	-148.063	0.444	-0.036
-323.099	5.028	0.171	0.125
-322.085	-96.111	-0.079	-0.021
-321.070	-200.000	0.058	0.281
-320.056	-200.000	0.057	0.457
-319.041	800.000	0.094	0.359
-318.026	-62.931	0.413	0.169
-317.012	-118.017	-0.184	-0.033
-315.997	-200.000	-0.028	-0.165
-314.983	800.000	0.054	-0.186
-313.968	-164.463	0.274	-0.012
-312.953	-82.453	0.098	0.031
-311.939	-77.652	-0.139	-0.048
-310.924	143.637	0.122	-0.160
-309.910	47.183	0.196	0.180
-308.895	-141.939	-0.250	0.025
-307.880	-200.000	-0.007	0.060
-306.866	44.740	0.069	-0.063
-305.851	-200.000	-0.017	-0.127
-304.837	-130.022	0.129	-0.017
-303.822	-200.000	0.034	-0.173
-302.807	-200.000	0.268	-0.001
-301.793	89.010	0.143	0.158
-300.778	-106.133	0.182	-0.040
-299.764	-36.301	-0.074	-0.039
-298.749	14.670	-0.073	-0.057
-297.735	42.987	-0.102	0.092
-296.720	800.000	-0.102	0.280
-295.705	-200.000	-0.007	0.312
-294.691	800.000	0.043	0.118
-293.676	64.089	-0.293	0.291
-292.662	-200.000	0.011	0.183
-291.647	-200.000	0.022	-0.129
-290.632	-47.512	0.319	0.153
-289.618	397.861	0.043	-0.089
-288.603	-200.000	-0.003	-0.205
-287.589	-200.000	0.025	-0.180
-286.574	69.391	0.098	0.099
-285.559	-200.000	-0.012	0.067
-284.545	2.946	-0.046	-0.033
-283.530	-88.117	-0.198	0.059
-282.516	-44.334	0.379	0.188
-281.501	543.849	-0.083	-0.195
-280.486	-46.619	0.071	0.034
-279.472	-62.277	0.162	0.067
-278.457	-200.000	0.057	0.249
-277.443	800.000	0.005	0.023
-276.428	-121.259	-0.059	0.010
-275.413	52.234	0.101	-0.095
-274.399	-104.441	0.110	0.025
-273.384	116.200	-0.051	-0.062
-272.370	-200.000	0.049	0.231
-271.355	75.950	-0.150	-0.157
-270.340	-200.000	0.069	-0.390
-269.326	-115.522	0.181	0.034
-268.311	-172.648	0.321	-0.010
-267.297	167.962	-0.076	-0.106
-266.282	570.135	-0.120	-0.289
-265.267	-27.419	0.126	-0.072
-264.253	-44.508	-0.171	0.084
-263.238	24.099	0.168	0.137
-262.224	-9.171	-0.292	-0.193
-261.209	-200.000	0.029	-0.154
-260.195	96.333	0.203	0.229
-259.180	25.133	-0.131	0.108
-258.165	77.470	-0.090	0.094
-257.151	-31.414	0.099	0.055
-256.136	449.087	-0.107	0.232
-255.122	-81.851	-0.295	0.095
-254.107	800.000	0.097	0.289
-253.092	-31.173	-0.200	0.111
-252.078	255.805	-0.115	-0.194
-251.063	165.670	-0.057	-0.080
-250.049	-83.849	-0.322	-0.101
-249.034	-71.115	0.187	0.069
-248.019	73.814	0.315	0.326
-247.005	409.060	-0.135	-0.281
-245.990	156.147	-0.128	-0.174
-244.976	75.384	-0.049	-0.051
-243.961	800.000	0.083	-0.344
-242.946	-164.629	0.211	-0.009
-241.932	800.000	-0.062	-0.243
-240.917	58.546	-0.063	-0.061
-239.903	11.512	-0.131	0.099
-238.888	-120.327	0.231	0.039
-237.873	493.238	0.110	-0.250
-236.859	-200.000	0.026	-0.422
-235.844	110.422	-0.154	-0.182
-234.830	-156.133	-0.156	-0.010
-233.815	-109.649	-0.202	0.042
-232.800	-73.444	-0.094	0.034
-231.786	800.000	-0.047	0.146
-230.771	-113.675	-0.028	0.005
-229.757	109.681	0.089	-0.105
-228.742	59.877	-0.111	0.108
-227.727	-167.224	-0.167	0.007
-226.713	332.647	0.105	-0.201
-225.698	800.000	0.015	-0.053
-224.684	800.000	-0.038	-0.115
-223.669	-36.574	0.238	0.126
-222.655	47.469	-0.173	0.159
-221.640	150.402	-0.246	-0.330
-220.625	-69.134	0.133	0.050
-219.611	-108.030	-0.294	-0.063
-218.596	505.275	0.044	-0.101
-217.582	-16.584	0.195	-0.122
-216.567	-76.789	0.083	0.028
-215.552	-115.943	0.092	0.017
-214.538	3.132	0.161	0.115
-213.523	-126.588	0.128	0.019
-212.509	-116.361	-0.444	-0.081
-211.494	-90.836	-0.150	0.042
-210.479	800.000	-0.097	0.270
-209.465	800.000	-0.037	0.119
-208.450	-84.034	-0.314	-0.098
-207.436	800.000	0.014	0.053
-206.421	100.837	0.176	0.202
-205.406	37.967	0.099	-0.087
-204.392	800.000	-0.104	-0.335
-203.377	510.785	0.088	-0.202
-202.363	-200.000	-0.465	-0.001
-201.348	-39.030	0.050	-0.026
-200.333	-200.000	-0.003	-0.237
-199.319	-40.873	0.383	0.195
-198.304	84.497	0.179	0.193
-197.290	-122.324	0.109	0.018
-196.275	-191.318	-0.233	0.002
-195.260	45.072	0.205	0.186
-194.246	-53.793	-0.072	0.032
-193.231	10.356	-0.158	-0.118
-192.217	176.366	0.076	0.108
-191.202	-200.000	-0.037	-0.205
-190.187	117.283	-0.166	0.200
-189.173	-59.203	0.159	-0.067
-188.158	-200.000	-0.036	0.463
-187.144	-76.532	0.133	0.046
-186.129	-106.517	0.068	0.015
-185.114	-200.000	-0.018	-0.095
-184.100	-85.745	0.281	-0.086
-183.085	303.070	-0.158	-0.287
-182.071	139.059	0.154	0.199
-181.056	-138.655	-0.107	0.012
-180.042	56.283	0.236	-0.226
-179.027	157.786	-0.264	-0.360
-178.012	-30.361	0.072	-0.040
-176.998	91.460	0.246	0.272
-175.983	338.586	0.238	0.456
-174.969	505.155	-0.028	-0.064
-173.954	-86.078	-0.389	0.118
-172.939	-200.000	-0.019	-0.207
-171.925	-200.000	-0.009	-0.224
-170.910	800.000	0.059	-0.253
-169.896	800.000	0.021	-0.082
-168.881	-53.711	0.253	-0.113
-167.866	77.859	-0.388	0.407
-166.852	-102.171	0.190	0.045
-165.837	365.095	0.063	-0.125
-164.823	38.039	-0.151	0.132
-163.808	-200.000	0.019	-0.190
-162.793	11.036	-0.111	-0.084
-161.779	-157.213	-0.136	0.008
-160.764	20.827	0.100	0.080
-159.750	118.454	-0.103	-0.125
-158.735	800.000	0.129	0.445
-157.720	800.000	0.059	-0.205
-156.706	526.894	-0.122	0.282
-155.691	205.578	0.199	0.304
-154.677	322.566	0.042	0.079
-153.662	48.444	0.086	0.079
-152.647	-200.000	0.002	0.345
-151.633	415.360	-0.119	0.248
-150.618	-145.725	0.308	0.027
-149.604	-114.986	0.165	0.031
-148.589	491.104	0.097	-0.217
-147.574	800.000	-0.040	0.162
-146.560	432.379	-0.127	0.271
-145.545	-13.261	0.077	0.049
-144.531	161.271	0.091	-0.126
-143.516	249.616	0.101	-0.168
-142.502	74.466	-0.098	-0.101
-141.487	155.202	0.146	0.197
-140.472	-200.000	0.007	-0.195
-139.458	800.000	-0.046	-0.145
-138.443	148.929	-0.146	0.194
-137.429	-83.382	0.254	-0.080
-136.414	-37.634	-0.158	-0.083
-135.399	800.000	-0.018	-0.061
-134.385	-200.000	0.023	-0.320
-133.370	-9.902	0.227	-0.148
-132.356	-137.617	-0.239	-0.026
-131.341	96.455	0.080	-0.090
-130.326	32.487	0.071	-0.061
-129.312	-81.046	-0.170	-0.055
-128.297	12.080	-0.101	-0.076
-127.283	465.119	-0.097	0.213
-126.268	241.401	0.115	-0.188
-125.253	63.954	0.249	0.246
-124.239	40.181	-0.092	-0.081
-123.224	106.310	0.139	-0.161
-122.210	418.758	0.028	-0.059
-121.195	-118.947	-0.269	0.046
