DTS Sentinel unit serial number:	SN413079Multiplexer serial number:	ORYXHardware model number:	OX4-SRSoftware version number:	ORYX F/W v4.00 Oryx Data Collector v3.7.2.0data status	okinstallation	princeton_trtdifferential loss correction	single-endedforward channel	channel 3reverse channel	N/Adate	2019/09/18time	18:28:35forward acquisition time	60.00reverse acquisition time	0.00gamma	496.2192k internal	0.2294k external	0.2294temperature offset calibration	0.9997default loss term (dB/km)	0.3790temperature slope calibration	1.0000multiplexer offset coefficient	1.0000multiplexer slope coefficient	1.0000fibre end	0.00T internal ref (°C)	38.41T ext. ref 1 (°C)	0.93T ext. ref 2 (°C)	30.93length (m)	temperature (°C)	Stokes	anti-Stokes-747.200	-138.614	0.062	0.007
-746.185	123.654	-0.185	0.237
-745.171	-82.128	0.190	0.064
-744.156	-200.000	0.030	0.249
-743.142	-200.000	-0.019	0.148
-742.127	-200.000	-0.039	0.439
-741.112	-200.000	0.052	0.240
-740.098	-82.262	-0.183	0.061
-739.083	-200.000	0.078	0.528
-738.069	104.281	-0.352	0.424
-737.054	-119.221	-0.153	0.027
-736.039	151.023	0.290	0.403
-735.025	800.000	-0.199	0.591
-734.010	-200.000	-0.011	-0.159
-732.996	9.693	0.073	0.057
-731.981	233.467	-0.161	-0.272
-730.966	-34.036	-0.220	0.124
-729.952	79.316	0.082	-0.090
-728.937	-118.184	-0.223	-0.041
-727.923	256.972	-0.078	-0.137
-726.908	-154.199	-0.281	-0.019
-725.894	46.879	-0.240	-0.227
-724.879	-50.215	-0.403	-0.195
-723.864	-183.817	-0.243	-0.004
-722.850	-108.781	0.276	0.060
-721.835	0.431	-0.141	-0.103
-720.821	20.311	-0.140	-0.115
-719.806	800.000	-0.070	-0.219
-718.791	186.568	-0.138	-0.209
-717.777	800.000	0.077	0.272
-716.762	-99.322	-0.086	-0.022
-715.748	-200.000	-0.005	-0.252
-714.733	-200.000	0.056	0.347
-713.718	-76.674	0.119	-0.043
-712.704	-5.174	0.113	-0.079
-711.689	-200.000	-0.014	0.407
-710.675	552.390	-0.050	0.123
-709.660	800.000	-0.060	0.267
-708.645	139.220	0.100	-0.134
-707.631	-7.909	-0.067	-0.046
-706.616	-15.826	-0.255	-0.166
-705.602	-85.436	-0.132	0.042
-704.587	-51.128	-0.283	0.135
-703.572	-34.906	0.238	-0.133
-702.558	166.728	0.045	-0.065
-701.543	-184.765	0.149	-0.002
-700.529	-38.371	-0.069	0.037
-699.514	125.975	-0.097	-0.125
-698.499	-200.000	-0.033	-0.305
-697.485	265.650	-0.139	-0.247
-696.470	-200.000	-0.010	0.155
-695.456	476.491	0.074	0.171
-694.441	-74.870	-0.110	-0.040
-693.426	480.964	0.038	0.089
-692.412	-200.000	-0.007	0.092
-691.397	-200.000	-0.001	-0.130
-690.383	-45.686	0.188	0.095
-689.368	-200.000	0.056	-0.336
-688.354	-102.109	-0.079	0.019
-687.339	44.722	0.268	-0.252
-686.324	-27.176	0.148	-0.088
-685.310	12.931	0.101	0.079
-684.295	800.000	0.061	-0.223
-683.281	-87.712	-0.170	-0.052
-682.266	-200.000	0.037	-0.214
-681.251	-200.000	-0.001	0.329
-680.237	800.000	0.029	0.085
-679.222	-77.696	0.114	0.040
-678.208	800.000	0.113	-0.335
-677.193	-104.073	0.178	-0.042
-676.178	49.510	-0.541	-0.519
-675.164	-77.907	-0.269	-0.095
-674.149	72.331	-0.183	-0.195
-673.135	-200.000	0.004	-0.514
-672.120	89.759	-0.041	0.047
-671.105	800.000	0.047	-0.153
-670.091	134.914	-0.152	0.201
-669.076	-92.087	-0.322	0.093
-668.062	-8.138	-0.163	-0.112
-667.047	-93.196	0.135	-0.038
-666.032	-110.454	0.218	-0.046
-665.018	202.738	0.071	0.112
-664.003	238.689	0.037	-0.062
-662.989	395.122	-0.076	-0.162
-661.974	-97.628	0.055	0.014
-660.959	198.952	-0.184	0.288
-659.945	354.434	-0.097	-0.197
-658.930	-122.475	-0.374	0.062
-657.916	800.000	0.079	-0.341
-656.901	-65.058	-0.327	0.134
-655.886	109.000	-0.193	-0.235
-654.872	216.511	0.109	-0.176
-653.857	43.215	0.111	0.104
-652.843	660.139	0.026	0.070
-651.828	109.165	0.138	-0.169
-650.814	-29.355	0.280	-0.163
-649.799	224.516	0.035	0.057
-648.784	800.000	0.093	0.354
-647.770	444.747	0.079	0.177
-646.755	179.575	0.072	-0.107
-645.741	-200.000	-0.006	0.188
-644.726	-200.000	-0.059	0.268
-643.711	349.740	0.049	-0.098
-642.697	222.541	-0.201	0.330
-641.682	-2.813	0.180	-0.128
-640.668	399.223	0.043	0.091
-639.653	9.616	0.163	-0.126
-638.638	24.587	0.050	-0.042
-637.624	-145.690	0.384	0.035
-636.609	174.265	-0.206	-0.304
-635.595	157.117	-0.083	0.116
-634.580	365.408	-0.014	0.029
-633.565	-39.589	0.417	0.222
-632.551	-66.309	0.318	0.129
-631.536	-200.000	-0.026	-0.204
-630.522	-55.322	-0.110	-0.050
-629.507	645.245	0.115	-0.298
-628.492	-69.880	-0.551	0.214
-627.478	152.958	0.284	0.396
-626.463	-200.000	0.024	-0.184
-625.449	800.000	0.072	0.273
-624.434	-200.000	0.027	-0.272
-623.419	411.615	-0.075	-0.161
-622.405	-124.770	-0.273	0.043
-621.390	50.100	0.163	0.157
-620.376	583.692	-0.134	-0.336
-619.361	463.277	0.035	0.079
-618.346	-179.625	0.265	0.006
-617.332	-101.119	0.528	0.132
-616.317	-65.253	0.181	-0.074
-615.303	-61.268	0.466	-0.200
-614.288	2.014	0.208	-0.153
-613.273	-200.000	0.020	-0.402
-612.259	244.945	-0.184	-0.314
-611.244	-200.000	-0.017	0.116
-610.230	-159.900	0.100	0.006
-609.215	20.170	-0.170	-0.139
-608.201	-87.718	0.201	0.062
-607.186	770.424	-0.044	-0.123
-606.171	800.000	-0.120	-0.378
-605.157	-152.085	0.265	-0.020
-604.142	-45.499	0.214	-0.108
-603.128	104.468	-0.117	-0.140
-602.113	423.481	-0.075	0.164
-601.098	113.405	-0.209	-0.257
-600.084	-10.401	0.238	0.160
-599.069	-122.547	-0.212	0.035
-598.055	-82.326	0.182	-0.060
-597.040	-81.918	0.054	-0.018
-596.025	-176.851	-0.100	-0.003
-595.011	-200.000	0.061	-0.393
-593.996	-129.601	0.201	-0.028
-592.982	-200.000	0.049	-0.268
-591.967	243.702	-0.124	0.211
-590.952	800.000	-0.039	0.158
-589.938	-200.000	0.021	-0.103
-588.923	-162.003	-0.217	0.011
-587.909	24.820	-0.157	0.132
-586.894	-200.000	0.016	-0.342
-585.879	-142.555	0.069	-0.007
-584.865	-62.156	-0.080	-0.034
-583.850	2.796	0.145	0.107
-582.836	58.385	0.060	0.059
-581.821	-181.988	-0.034	-0.001
-580.806	234.447	-0.189	-0.316
-579.792	49.653	0.329	-0.315
-578.777	58.056	0.138	-0.138
-577.763	-200.000	0.000	0.280
-576.748	408.624	-0.049	0.106
-575.733	0.959	-0.100	-0.073
-574.719	-133.888	-0.353	0.045
-573.704	-13.665	0.207	-0.136
-572.690	102.260	0.192	-0.228
-571.675	-200.000	0.039	0.190
-570.661	-190.729	0.287	-0.003
-569.646	-96.798	0.465	-0.124
-568.631	611.717	0.058	0.147
-567.617	-42.194	-0.270	-0.140
-566.602	-168.181	-0.234	0.009
-565.588	296.274	0.090	0.167
-564.573	1.938	-0.317	-0.232
-563.558	82.095	-0.089	0.098
-562.544	-70.389	0.083	0.032
-561.529	4.794	-0.224	-0.167
-560.515	-18.830	-0.147	0.093
-559.500	-41.066	-0.191	0.100
-558.485	415.070	0.145	-0.313
-557.471	41.577	0.267	-0.245
-556.456	190.988	0.144	-0.220
-555.442	-122.553	0.457	-0.075
-554.427	-200.000	-0.251	-0.000
-553.412	134.690	-0.194	0.256
-552.398	800.000	0.056	-0.192
-551.383	-0.206	0.194	0.140
-550.369	-200.000	-0.037	-0.177
-549.354	-200.000	-0.014	-0.229
-548.339	-200.000	0.198	-0.000
-547.325	-45.991	-0.269	-0.135
-546.310	350.078	-0.137	0.275
-545.296	-64.508	0.085	0.035
-544.281	-5.487	-0.171	-0.119
-543.266	19.293	0.216	-0.176
-542.252	-70.499	0.156	0.060
-541.237	-200.000	-0.023	0.285
-540.223	-31.876	-0.157	-0.089
-539.208	193.681	-0.034	0.052
-538.193	-200.000	-0.048	-0.279
-537.179	-82.444	-0.301	0.099
-536.164	-62.585	0.091	-0.038
-535.150	122.636	-0.041	0.052
-534.135	-200.000	0.056	-0.286
-533.121	-200.000	-0.018	0.153
-532.106	800.000	-0.109	0.390
-531.091	-25.194	-0.327	-0.196
-530.077	-200.000	-0.035	-0.257
-529.062	88.993	-0.036	0.041
-528.048	-72.687	0.236	0.088
-527.033	-159.499	-0.451	0.025
-526.018	658.809	0.093	-0.242
-525.004	24.688	-0.156	-0.131
-523.989	-98.276	-0.375	0.098
-522.975	800.000	-0.044	0.165
-521.960	68.638	0.136	0.141
-520.945	-76.058	0.193	0.069
-519.931	148.417	0.113	-0.154
-518.916	-145.695	-0.194	0.018
-517.902	39.795	-0.116	0.105
-516.887	-54.905	0.304	-0.139
-515.872	-200.000	-0.022	-0.185
-514.858	0.409	0.049	0.035
-513.843	-43.748	-0.121	-0.062
-512.829	-156.394	0.186	-0.012
-511.814	800.000	-0.041	0.128
-510.799	67.878	-0.079	0.082
-509.785	288.067	-0.045	-0.082
-508.770	382.432	-0.172	-0.357
-507.756	-135.493	-0.345	0.042
-506.741	460.296	-0.098	0.221
-505.726	-115.142	-0.422	-0.081
-504.712	-64.354	-0.214	0.088
-503.697	338.395	0.063	-0.124
-502.683	-147.411	0.094	0.008
-501.668	-66.230	-0.150	-0.061
-500.653	-57.471	0.480	0.214
-499.639	338.581	-0.016	0.031
-498.624	-127.157	-0.056	-0.008
-497.610	20.034	-0.179	-0.146
-496.595	-82.697	0.432	-0.142
-495.581	-3.674	0.094	-0.066
-494.566	800.000	0.062	0.272
-493.551	-200.000	0.023	-0.127
-492.537	-72.666	0.122	-0.045
-491.522	-200.000	0.012	0.137
-490.508	560.267	0.075	-0.182
-489.493	79.348	-0.206	0.223
-488.478	134.451	-0.069	-0.091
-487.464	230.680	0.079	0.130
-486.449	-91.718	-0.159	-0.046
-485.435	800.000	-0.043	0.176
-484.420	14.794	0.115	0.091
-483.405	-200.000	0.016	-0.113
-482.391	59.928	0.125	-0.125
-481.376	-59.181	-0.159	-0.069
-480.362	-59.517	-0.116	0.050
-479.347	6.658	0.204	0.154
-478.332	216.359	-0.062	-0.099
-477.318	-17.817	0.138	0.088
-476.303	-184.878	-0.050	-0.001
-475.289	26.882	-0.063	0.053
-474.274	800.000	0.059	0.166
-473.259	800.000	0.024	0.073
-472.245	-139.478	-0.005	-0.001
-471.230	-87.172	-0.342	0.105
-470.216	-151.348	-0.147	0.011
-469.201	73.620	-0.230	0.243
-468.186	-117.399	0.194	0.036
-467.172	721.882	0.049	-0.133
-466.157	800.000	-0.074	0.296
-465.143	-169.175	-0.411	-0.015
-464.128	-171.374	0.177	-0.006
-463.113	-124.158	-0.417	0.066
-462.099	-31.472	-0.133	0.075
-461.084	-57.789	-0.473	0.209
-460.070	-131.542	-0.470	0.063
-459.055	-86.137	0.260	0.081
-458.040	-63.234	-0.231	0.096
-457.026	-23.871	0.343	-0.208
-456.011	-185.496	0.187	-0.003
-454.997	800.000	0.124	-0.361
-453.982	120.243	-0.316	-0.397
-452.968	293.180	0.081	-0.150
-451.953	596.363	0.068	0.169
-450.938	304.952	0.048	0.090
-449.924	800.000	0.129	-0.374
-448.909	-169.879	-0.314	-0.011
-447.895	-52.713	-0.250	-0.117
-446.880	-33.657	-0.312	-0.174
-445.865	-200.000	0.009	0.050
-444.851	-200.000	-0.015	0.114
-443.836	4.810	-0.176	0.131
-442.822	800.000	0.035	-0.130
-441.807	-170.543	-0.277	0.010
-440.792	-200.000	0.065	0.391
-439.778	800.000	-0.031	0.105
-438.763	-200.000	0.004	-0.047
-437.749	-36.524	0.295	-0.161
-436.734	-100.285	0.342	-0.086
-435.719	114.582	-0.421	0.519
-434.705	82.719	-0.037	-0.040
-433.690	120.423	0.027	0.034
-432.676	47.830	-0.061	0.058
-431.661	-40.731	0.148	0.077
-430.646	116.002	0.027	0.033
-429.632	58.487	0.004	-0.004
-428.617	-200.000	-0.049	-0.389
-427.603	-170.120	-0.300	-0.011
-426.588	-119.552	0.071	-0.012
-425.573	34.358	0.103	-0.091
-424.559	800.000	0.042	-0.149
-423.544	-31.998	0.295	-0.167
-422.530	11.381	0.327	-0.253
-421.515	-83.108	-0.066	-0.022
-420.500	-68.302	-0.382	-0.150
-419.486	73.183	0.207	0.219
-418.471	-200.000	0.032	0.287
-417.457	297.124	0.104	0.192
-416.442	-136.298	-0.276	0.033
-415.428	800.000	-0.053	0.182
-414.413	-164.276	0.297	-0.014
-413.398	-10.918	-0.140	0.093
-412.384	800.000	-0.015	-0.049
-411.369	-200.000	-0.017	-0.243
-410.355	800.000	0.041	0.162
-409.340	-113.234	-0.030	-0.006
-408.325	-200.000	-0.014	0.261
-407.311	-81.826	0.327	-0.108
-406.296	800.000	-0.082	-0.319
-405.282	65.309	-0.144	-0.147
-404.267	-200.000	-0.011	0.118
-403.252	93.129	0.233	-0.265
-402.238	-33.918	0.317	-0.176
-401.223	800.000	-0.047	0.198
-400.209	-50.170	-0.444	0.212
-399.194	800.000	-0.036	-0.112
-398.179	-78.216	-0.162	0.056
-397.165	4.509	-0.220	-0.163
-396.150	-78.831	0.081	-0.028
-395.136	52.653	0.123	0.118
-394.121	-21.600	-0.105	0.064
-393.106	-136.140	0.376	0.044
-392.092	44.895	-0.188	0.174
-391.077	-200.000	0.072	0.369
-390.063	694.778	0.059	0.157
-389.048	185.381	0.057	-0.086
-388.033	34.369	-0.151	-0.132
-387.019	110.720	-0.154	-0.187
-386.004	800.000	0.064	0.248
-384.990	189.150	0.071	-0.107
-383.975	59.306	0.250	-0.248
-382.960	70.154	-0.192	0.200
-381.946	-55.105	-0.126	-0.057
-380.931	-37.656	-0.181	-0.097
-379.917	31.962	0.096	0.084
-378.902	800.000	0.098	-0.420
-377.888	-151.225	0.301	-0.023
-376.873	-200.000	-0.054	0.378
-375.858	-156.265	-0.110	0.007
-374.844	-35.214	-0.249	-0.137
-373.829	227.028	-0.047	0.076
-372.815	-25.872	0.289	0.171
-371.800	19.007	0.138	0.111
-370.785	800.000	0.102	0.288
-369.771	47.184	-0.203	-0.190
-368.756	-108.794	0.137	-0.030
-367.742	-69.140	0.142	0.055
-366.727	2.639	-0.337	0.246
-365.712	-94.043	0.258	0.071
-364.698	-0.049	-0.196	0.140
-363.683	-200.000	-0.005	0.316
-362.669	68.987	0.148	0.153
-361.654	575.606	0.064	-0.157
-360.639	-102.853	-0.092	0.022
-359.625	11.240	-0.171	0.132
-358.610	-117.941	0.271	-0.049
-357.596	-76.391	0.162	-0.058
-356.581	217.932	0.214	-0.344
-355.566	-3.022	-0.142	-0.100
-354.552	552.016	-0.052	0.125
-353.537	334.004	-0.177	0.344
-352.523	-200.000	0.045	-0.229
-351.508	-7.878	0.036	0.025
-350.493	-200.000	0.018	0.138
-349.479	256.206	-0.154	-0.266
-348.464	644.980	0.095	-0.245
-347.450	79.816	0.029	0.031
-346.435	800.000	0.067	-0.206
-345.420	770.231	-0.062	0.169
-344.406	297.117	-0.102	0.188
-343.391	-200.000	0.010	-0.265
-342.377	436.217	-0.035	-0.077
-341.362	-41.041	-0.219	-0.114
-340.348	800.000	-0.065	0.185
-339.333	227.265	-0.103	0.168
-338.318	-61.574	0.102	-0.043
-337.304	-200.000	-0.002	0.285
-336.289	39.971	0.232	0.210
-335.275	317.094	0.159	0.303
-334.260	2.073	0.031	0.022
-333.245	40.519	0.175	0.158
-332.231	-55.532	-0.156	-0.071
-331.216	-200.000	0.016	-0.221
-330.202	-4.872	-0.106	-0.073
-329.187	107.032	-0.106	-0.127
-328.172	800.000	0.094	-0.311
-327.158	266.128	-0.140	-0.246
-326.143	169.407	0.077	-0.111
-325.129	757.264	0.175	0.476
-324.114	-53.609	0.190	-0.087
-323.099	-200.000	-0.005	-0.092
-322.085	-19.022	0.128	0.080
-321.070	62.417	0.114	-0.114
-320.056	-112.899	0.062	-0.012
-319.041	-142.536	-0.160	0.016
-318.026	190.126	-0.148	-0.224
-317.012	372.431	0.200	-0.409
-315.997	533.795	-0.080	-0.191
-314.983	-200.000	-0.002	0.180
-313.968	103.727	-0.140	0.166
-312.953	20.248	0.025	0.020
-311.939	800.000	-0.036	0.131
-310.924	-142.517	0.263	0.026
-309.910	-200.000	0.037	-0.292
-308.895	-16.740	-0.106	0.068
-307.880	-200.000	-0.000	0.169
-306.866	240.990	-0.108	0.182
-305.851	229.334	0.061	0.101
-304.837	-12.747	-0.088	-0.057
-303.822	-171.308	0.266	-0.009
-302.807	-38.071	0.191	-0.102
-301.793	-25.605	-0.213	-0.126
-300.778	-200.000	-0.033	0.282
-299.764	-81.332	-0.316	0.105
-298.749	-139.657	0.272	-0.029
-297.735	149.782	0.183	-0.250
-296.720	66.126	0.085	-0.087
-295.705	-200.000	-0.015	-0.110
-294.691	-15.347	0.174	0.112
-293.676	97.228	-0.084	0.096
-292.662	-126.229	0.202	0.030
-291.647	-200.000	0.015	0.375
-290.632	272.429	0.012	0.022
-289.618	50.005	-0.230	0.218
-288.603	-74.475	-0.297	-0.108
-287.589	-74.791	-0.165	0.060
-286.574	176.949	-0.248	-0.362
-285.559	-50.511	0.194	0.092
-284.545	-5.697	0.168	0.116
-283.530	-177.692	0.314	-0.008
-282.516	13.658	-0.263	-0.205
-281.501	-120.095	-0.262	0.045
-280.486	-89.881	0.263	-0.077
-279.472	331.389	-0.113	-0.218
-278.457	-88.660	-0.196	0.059
-277.443	-131.443	0.256	0.034
-276.428	307.297	0.037	0.068
-275.413	181.776	-0.007	0.010
-274.399	-153.405	0.164	0.011
-273.384	-200.000	0.033	0.328
-272.370	245.966	0.263	0.444
-271.355	264.109	0.271	0.474
-270.340	92.451	0.099	0.112
-269.326	72.243	-0.358	-0.375
-268.311	307.120	0.086	-0.160
-267.297	-114.240	0.069	0.013
-266.282	-200.000	0.035	0.314
-265.267	-200.000	0.054	0.411
-264.253	721.928	-0.063	-0.167
-263.238	-139.475	-0.061	-0.007
-262.224	350.735	0.019	-0.039
-261.209	324.190	0.083	-0.158
-260.195	-200.000	0.008	-0.123
-259.180	-85.719	0.175	-0.054
-258.165	-200.000	0.083	0.380
-257.151	-25.936	0.222	-0.131
-256.136	163.709	0.037	0.052
-255.122	308.586	0.021	-0.039
-254.107	45.599	-0.053	0.050
-253.092	-200.000	-0.022	-0.152
-252.078	-88.177	-0.081	-0.024
-251.063	-141.398	0.135	0.014
-250.049	800.000	0.004	0.012
-249.034	-200.000	-0.007	0.124
-248.019	-129.448	-0.194	0.027
-247.005	-120.852	-0.276	-0.047
-245.990	-46.801	-0.229	-0.112
-244.976	112.392	0.322	0.391
-243.961	800.000	0.049	-0.164
-242.946	-200.000	-0.050	-0.387
-241.932	192.260	0.151	0.228
-240.917	-138.119	-0.192	-0.021
-239.903	62.407	-0.066	0.066
-238.888	-95.994	-0.326	-0.087
-237.873	-200.000	0.019	0.164
-236.859	77.714	-0.049	0.052
-235.844	800.000	-0.083	-0.334
-234.830	57.430	-0.106	-0.104
-233.815	-200.000	0.019	-0.459
-232.800	-20.913	-0.348	0.213
-231.786	-92.099	0.295	-0.084
-230.771	110.767	-0.130	-0.157
-229.757	57.399	-0.095	-0.093
-228.742	202.423	-0.156	-0.242
-227.727	175.853	0.353	0.513
-226.713	214.966	-0.103	0.163
-225.698	-41.374	-0.203	-0.105
-224.684	-116.272	0.244	-0.045
-223.669	-200.000	0.045	0.236
-222.655	15.496	-0.127	-0.100
-221.640	-137.890	-0.309	0.035
-220.625	71.103	0.218	-0.227
-219.611	-200.000	0.025	0.130
-218.596	-144.813	0.136	-0.013
-217.582	213.126	-0.081	0.128
-216.567	-24.129	-0.295	-0.177
-215.552	9.684	0.009	0.007
-214.538	-200.000	0.162	-0.000
-213.523	-160.163	0.112	-0.006
-212.509	112.403	0.126	-0.153
-211.494	-163.038	-0.389	-0.019
-210.479	-25.098	-0.218	-0.130
-209.465	190.317	-0.155	0.233
-208.450	45.210	0.292	0.270
-207.436	800.000	-0.089	0.266
-206.421	-149.045	-0.161	0.013
-205.406	651.693	-0.051	0.132
-204.392	408.587	0.091	-0.194
-203.377	429.803	0.092	0.200
-202.363	222.111	-0.186	-0.300
-201.348	15.525	0.163	0.128
-200.333	306.126	-0.065	0.121
-199.319	52.647	0.090	-0.086
-198.304	-13.478	0.046	0.030
-197.290	-5.817	0.095	-0.065
-196.275	-15.459	0.284	-0.182
-195.260	-20.394	0.223	-0.137
-194.246	9.976	-0.370	0.281
-193.231	112.397	0.038	-0.046
-192.217	-75.729	0.258	-0.092
-191.202	-39.925	0.157	-0.082
-190.187	217.418	-0.038	0.061
-189.173	235.985	-0.050	0.083
-188.158	608.131	0.042	0.104
-187.144	739.581	0.105	0.283
-186.129	800.000	0.052	-0.154
-185.114	800.000	0.057	-0.168
-184.100	18.306	-0.302	-0.241
-183.085	109.740	-0.041	0.049
-182.071	114.156	0.176	0.214
-181.056	84.795	-0.058	-0.063
-180.042	19.343	-0.047	0.037
-179.027	-200.000	0.009	-0.073
-178.012	-200.000	0.020	0.240
-176.998	-148.305	-0.099	-0.008
-175.983	-144.003	0.339	0.032
-174.969	288.020	-0.125	0.226
-173.954	-181.207	0.326	0.006
-172.939	800.000	0.069	0.285
-171.925	170.056	-0.187	-0.268
-170.910	800.000	0.037	0.108
-169.896	-99.241	-0.347	-0.088
-168.881	-200.000	0.040	0.332
-167.866	12.272	-0.056	0.043
-166.852	-2.035	-0.232	0.163
-165.837	-99.443	-0.174	0.044
-164.823	7.844	-0.224	0.168
-163.808	63.437	0.105	0.105
-162.793	-40.030	0.392	-0.205
-161.779	115.053	0.106	-0.130
-160.764	-200.000	0.021	-0.333
-159.750	-8.427	0.243	-0.163
-158.735	-66.129	-0.069	0.027
-157.720	-28.875	-0.115	0.066
-156.706	-160.474	0.153	0.008
-155.691	-200.000	0.006	0.085
-154.677	-134.151	-0.201	0.025
-153.662	598.107	-0.136	0.336
-152.647	63.185	0.169	-0.169
-151.633	-145.537	-0.115	0.010
-150.618	84.147	-0.195	0.213
-149.604	33.260	0.150	0.130
-148.589	-200.000	-0.033	-0.171
-147.574	-106.383	-0.219	-0.049
-146.560	-161.028	-0.518	-0.027
-145.545	-121.152	-0.256	-0.043
-144.531	434.865	0.152	0.329
-143.516	734.129	0.026	0.068
-142.502	31.117	-0.275	-0.236
-141.487	-124.594	0.526	-0.082
-140.472	800.000	-0.106	0.309
-139.458	71.703	-0.157	0.163
-138.443	-50.843	0.045	-0.021
-137.429	158.206	0.158	0.219
-136.414	-1.282	0.180	-0.127
-135.399	-141.699	-0.066	-0.007
-134.385	-165.514	0.171	0.007
-133.370	-23.711	0.166	0.099
-132.356	800.000	-0.102	-0.342
-131.341	-21.232	0.181	0.110
-130.326	-141.744	-0.119	0.012
-129.312	323.486	-0.035	-0.066
-128.297	650.345	0.092	0.235
-127.283	-3.079	-0.037	0.025
-126.268	494.999	-0.047	0.107
-125.253	-24.820	0.226	0.134
-124.239	50.851	-0.088	0.084
-123.224	216.793	0.180	0.286
-122.210	-200.000	-0.008	0.039
-121.195	-79.642	-0.113	0.038
-120.180	800.000	0.062	0.195
