DTS Sentinel unit serial number:	SN413079Multiplexer serial number:	ORYXHardware model number:	OX4-SRSoftware version number:	ORYX F/W v4.00 Oryx Data Collector v3.7.2.0data status	okinstallation	princeton_trtdifferential loss correction	single-endedforward channel	channel 3reverse channel	N/Adate	2019/09/15time	00:56:35forward acquisition time	60.00reverse acquisition time	0.00gamma	496.2192k internal	0.2320k external	0.2320temperature offset calibration	0.9965default loss term (dB/km)	0.3790temperature slope calibration	1.0000multiplexer offset coefficient	1.0000multiplexer slope coefficient	1.0000fibre end	0.00T internal ref (°C)	32.03T ext. ref 1 (°C)	4.54T ext. ref 2 (°C)	26.90length (m)	temperature (°C)	Stokes	anti-Stokes-747.200	-200.000	0.025	0.260
-746.185	800.000	-0.039	0.140
-745.171	107.367	-0.244	0.293
-744.156	-200.000	-0.035	0.422
-743.142	582.875	0.090	-0.223
-742.127	400.415	-0.069	0.145
-741.112	109.980	-0.181	-0.220
-740.098	220.600	0.056	0.090
-739.083	800.000	-0.040	0.138
-738.069	300.754	-0.170	0.318
-737.054	-200.000	0.062	0.307
-736.039	-137.890	-0.286	0.032
-735.025	279.340	-0.018	-0.032
-734.010	-15.642	-0.207	0.134
-732.996	-99.722	-0.170	-0.043
-731.981	733.212	-0.073	-0.197
-730.966	247.793	0.048	-0.082
-729.952	800.000	0.086	-0.261
-728.937	65.829	-0.111	-0.114
-727.923	101.876	0.201	-0.237
-726.908	-48.964	0.290	0.140
-725.894	-200.000	-0.022	-0.178
-724.879	-8.209	-0.121	-0.082
-723.864	-136.924	0.386	0.045
-722.850	535.568	-0.053	-0.127
-721.835	-52.557	-0.122	-0.057
-720.821	-26.983	-0.378	-0.223
-719.806	310.063	-0.019	-0.035
-718.791	-98.279	0.244	-0.063
-717.777	-200.000	0.009	-0.432
-716.762	800.000	0.032	-0.102
-715.748	214.293	0.146	0.234
-714.733	-83.717	0.023	0.008
-713.718	-200.000	-0.002	-0.034
-712.704	800.000	-0.093	-0.328
-711.689	120.694	-0.050	0.063
-710.675	184.789	0.134	-0.200
-709.660	-159.552	-0.183	-0.010
-708.645	-200.000	-0.020	-0.248
-707.631	151.297	0.069	-0.095
-706.616	-134.472	-0.236	0.029
-705.602	207.771	-0.163	0.257
-704.587	-7.088	-0.041	-0.028
-703.572	-39.412	-0.203	0.107
-702.558	213.494	-0.078	0.125
-701.543	-56.240	-0.152	0.068
-700.529	-92.001	0.287	-0.082
-699.514	-200.000	-0.001	0.342
-698.499	-138.902	-0.388	-0.043
-697.485	-41.680	0.288	0.149
-696.470	-148.784	0.346	-0.028
-695.456	-200.000	-0.013	-0.179
-694.441	-121.280	0.106	0.018
-693.426	-200.000	0.023	-0.218
-692.412	-55.183	-0.314	-0.143
-691.397	800.000	-0.067	0.258
-690.383	800.000	0.062	0.187
-689.368	122.434	-0.250	-0.315
-688.354	-200.000	0.001	-0.022
-687.339	199.463	-0.201	0.311
-686.324	73.610	-0.045	-0.048
-685.310	-155.282	-0.189	0.012
-684.295	133.807	0.123	0.160
-683.281	82.305	0.081	-0.088
-682.266	-151.093	0.463	-0.035
-681.251	-191.462	-0.164	-0.002
-680.237	-200.000	-0.015	-0.155
-679.222	-27.243	-0.203	-0.119
-678.208	-10.390	0.059	-0.040
-677.193	92.287	-0.163	-0.185
-676.178	505.486	-0.129	-0.300
-675.164	-200.000	0.015	-0.132
-674.149	-85.296	0.231	-0.073
-673.135	-200.000	-0.037	-0.218
-672.120	-173.128	-0.302	-0.009
-671.105	-200.000	-0.008	0.122
-670.091	-65.404	-0.136	0.055
-669.076	-44.558	0.212	-0.107
-668.062	-200.000	-0.019	-0.089
-667.047	-116.971	0.281	-0.052
-666.032	46.791	-0.329	-0.308
-665.018	-200.000	0.023	-0.287
-664.003	494.991	-0.111	-0.257
-662.989	-97.072	-0.421	0.111
-661.974	178.457	0.155	0.228
-660.959	65.929	0.243	-0.248
-659.945	-77.980	-0.348	-0.121
-658.930	-63.641	-0.217	-0.090
-657.916	-200.000	0.036	0.367
-656.901	-6.816	0.091	0.062
-655.886	100.315	-0.120	-0.141
-654.872	-5.947	-0.112	0.077
-653.857	-84.699	-0.152	0.048
-652.843	226.736	-0.042	-0.069
-651.828	-138.851	-0.199	-0.022
-650.814	415.437	0.123	-0.264
-649.799	-19.095	0.255	-0.160
-648.784	-200.000	0.044	0.218
-647.770	-19.200	0.257	0.161
-646.755	101.578	-0.042	-0.049
-645.741	-200.000	0.057	-0.392
-644.726	254.923	0.121	0.209
-643.711	-121.571	0.358	-0.060
-642.697	-200.000	-0.035	0.173
-641.682	-125.033	0.117	0.018
-640.668	800.000	0.030	0.100
-639.653	24.764	0.296	-0.247
-638.638	195.179	0.107	-0.164
-637.624	-118.770	-0.338	0.060
-636.609	-200.000	-0.003	-0.377
-635.595	-200.000	-0.026	-0.235
-634.580	101.936	-0.076	-0.089
-633.565	-1.174	0.443	-0.315
-632.551	-200.000	-0.039	0.184
-631.536	-68.486	-0.170	-0.066
-630.522	737.563	0.106	-0.285
-629.507	-200.000	0.008	0.145
-628.492	-200.000	0.019	-0.159
-627.478	24.006	-0.153	0.127
-626.463	-158.165	-0.417	0.025
-625.449	286.243	-0.138	-0.252
-624.434	187.228	0.040	-0.061
-623.419	-103.814	-0.260	0.061
-622.405	-200.000	-0.037	-0.346
-621.390	318.678	-0.063	0.119
-620.376	-200.000	0.033	0.158
-619.361	-151.200	-0.150	0.011
-618.346	-200.000	0.007	0.059
-617.332	-108.415	-0.276	0.060
-616.317	-170.331	-0.400	-0.014
-615.303	800.000	0.015	0.055
-614.288	257.395	-0.054	-0.093
-613.273	225.814	-0.231	-0.377
-612.259	-100.873	-0.168	0.041
-611.244	15.353	-0.221	0.174
-610.230	262.706	-0.035	-0.061
-609.215	800.000	0.123	-0.402
-608.201	-26.866	0.228	-0.134
-607.186	81.170	0.085	-0.093
-606.171	26.019	0.184	0.154
-605.157	-42.699	-0.084	-0.043
-604.142	-46.107	0.184	0.091
-603.128	68.176	0.123	-0.127
-602.113	-191.092	-0.366	0.004
-601.098	-200.000	0.001	-0.217
-600.084	-79.912	0.175	0.059
-599.069	83.758	-0.172	-0.188
-598.055	46.920	-0.322	-0.301
-597.040	293.194	-0.111	-0.204
-596.025	-68.177	-0.260	-0.102
-595.011	123.588	-0.081	-0.103
-593.996	93.187	-0.195	0.222
-592.982	347.243	-0.190	0.376
-591.967	-147.446	0.353	-0.030
-590.952	-17.115	0.345	0.219
-589.938	163.093	0.068	0.096
-588.923	7.921	0.170	0.128
-587.909	-200.000	-0.020	0.119
-586.894	-70.854	0.296	-0.112
-585.879	156.345	-0.167	0.231
-584.865	-146.417	0.128	0.011
-583.850	-94.846	-0.213	-0.058
-582.836	246.936	-0.098	0.166
-581.821	-23.961	0.182	-0.109
-580.806	136.668	-0.208	0.272
-579.792	14.648	-0.211	-0.166
-578.777	-60.849	-0.337	0.143
-577.763	2.988	0.296	0.216
-576.748	-81.854	-0.096	0.032
-575.733	210.981	-0.073	-0.115
-574.719	6.480	-0.213	-0.159
-573.704	12.499	-0.156	0.121
-572.690	12.785	-0.105	-0.082
-571.675	-22.503	-0.188	-0.114
-570.661	412.438	0.103	-0.221
-569.646	-107.091	0.054	-0.012
-568.631	51.642	0.185	-0.177
-567.617	800.000	0.022	-0.063
-566.602	-115.250	0.275	0.052
-565.588	311.561	-0.072	-0.135
-564.573	109.905	0.120	0.145
-563.558	37.960	0.044	-0.039
-562.544	28.934	-0.262	-0.223
-561.529	-200.000	0.008	-0.202
-560.515	519.234	0.040	-0.095
-559.500	-200.000	0.016	0.160
-558.485	144.665	0.099	0.133
-557.471	-26.013	-0.346	-0.204
-556.456	-142.368	-0.228	-0.023
-555.442	230.390	0.184	-0.303
-554.427	-93.637	0.013	0.004
-553.412	197.453	-0.036	0.055
-552.398	49.676	-0.233	-0.221
-551.383	-55.544	0.263	0.118
-550.369	-57.870	-0.260	-0.114
-549.354	800.000	0.060	0.225
-548.339	-200.000	-0.009	0.420
-547.325	-46.224	-0.053	0.026
-546.310	99.220	-0.083	-0.096
-545.296	-200.000	0.028	0.186
-544.281	55.913	0.333	0.324
-543.266	-120.468	0.160	-0.027
-542.252	-142.050	-0.122	0.012
-541.237	665.557	0.088	-0.227
-540.223	218.515	-0.176	0.281
-539.208	-122.417	-0.163	0.027
-538.193	800.000	-0.102	0.386
-537.179	-200.000	0.026	0.131
-536.164	-74.235	0.218	-0.079
-535.150	-200.000	-0.039	-0.191
-534.135	-14.189	0.039	-0.025
-533.121	60.137	-0.030	-0.030
-532.106	800.000	-0.026	-0.081
-531.091	636.004	0.031	0.080
-530.077	-113.385	-0.118	-0.023
-529.062	231.185	0.027	-0.045
-528.048	320.804	0.129	-0.246
-527.033	150.713	0.014	0.019
-526.018	-127.424	-0.152	0.022
-525.004	-117.131	-0.120	-0.022
-523.989	-171.364	0.257	0.009
-522.975	-191.320	0.345	0.004
-521.960	176.057	0.086	0.125
-520.945	800.000	0.072	-0.220
-519.931	-200.000	-0.021	0.450
-518.916	28.382	0.144	-0.122
-517.902	7.612	-0.121	0.091
-516.887	352.247	0.078	0.156
-515.872	-20.569	-0.194	0.120
-514.858	-122.594	-0.302	-0.049
-513.843	-200.000	-0.007	-0.589
-512.829	-200.000	-0.001	-0.026
-511.814	-109.752	0.274	-0.058
-510.799	-100.452	0.176	-0.044
-509.785	63.963	0.133	-0.134
-508.770	-200.000	0.049	-0.445
-507.756	-87.995	-0.236	-0.071
-506.741	92.261	-0.188	0.213
-505.726	-200.000	-0.028	-0.299
-504.712	192.962	0.040	0.061
-503.697	172.226	0.065	0.093
-502.683	-105.904	-0.140	0.032
-501.668	800.000	0.113	-0.424
-500.653	-28.974	-0.249	0.143
-499.639	800.000	0.092	0.279
-498.624	648.310	0.045	0.116
-497.610	3.435	-0.281	0.205
-496.595	327.473	-0.081	0.155
-495.581	-200.000	-0.071	0.321
-494.566	134.737	-0.098	-0.127
-493.551	800.000	-0.123	-0.394
-492.537	-38.375	-0.192	0.102
-491.522	-82.344	-0.268	-0.087
-490.508	-146.763	-0.300	-0.026
-489.493	-69.293	-0.155	0.059
-488.478	800.000	0.090	-0.269
-487.464	800.000	-0.045	0.186
-486.449	128.359	-0.138	0.175
-485.435	-177.584	0.426	-0.010
-484.420	-200.000	0.102	0.473
-483.405	-72.175	-0.117	-0.044
-482.391	16.143	0.075	-0.059
-481.376	14.466	0.186	-0.145
-480.362	-137.528	-0.113	0.013
-479.347	97.012	-0.234	-0.269
-478.332	94.332	-0.106	0.121
-477.318	-17.913	0.264	-0.166
-476.303	-200.000	-0.017	-0.238
-475.289	-200.000	-0.009	-0.304
-474.274	-100.805	0.250	-0.062
-473.259	-161.433	-0.374	0.019
-472.245	57.843	0.125	-0.123
-471.230	-160.088	-0.060	0.003
-470.216	302.159	-0.095	-0.175
-469.201	800.000	0.045	-0.197
-468.186	59.015	-0.169	0.166
-467.172	-200.000	0.009	0.323
-466.157	-200.000	-0.023	0.321
-465.143	800.000	-0.046	-0.168
-464.128	-23.606	-0.132	0.079
-463.113	-200.000	0.010	0.239
-462.099	-136.832	0.167	0.019
-461.084	-106.816	0.509	-0.113
-460.070	-103.521	0.055	0.013
-459.055	-200.000	-0.010	0.063
-458.040	-91.243	0.170	0.049
-457.026	-69.039	0.206	0.079
-456.011	-89.908	0.203	0.059
-454.997	23.983	-0.190	-0.157
-453.982	-132.878	0.192	0.024
-452.968	-5.712	-0.365	0.250
-451.953	644.791	-0.079	-0.202
-450.938	276.051	0.135	0.239
-449.924	-152.897	0.194	-0.014
-448.909	114.963	-0.122	-0.149
-447.895	384.433	-0.027	0.056
-446.880	-153.725	0.378	-0.026
-445.865	-145.484	0.282	0.025
-444.851	-127.028	0.228	0.034
-443.836	-85.012	0.096	0.030
-442.822	800.000	-0.063	-0.191
-441.807	-200.000	0.013	-0.146
-440.792	411.742	-0.051	-0.108
-439.778	-200.000	-0.018	-0.219
-438.763	536.873	0.075	-0.179
-437.749	-200.000	0.020	0.202
-436.734	-91.272	-0.284	0.081
-435.719	-200.000	-0.026	0.255
-434.705	306.975	-0.161	0.300
-433.690	-132.883	-0.291	0.037
-432.676	-200.000	0.052	-0.438
-431.661	162.626	-0.174	-0.243
-430.646	375.031	0.085	-0.174
-429.632	-61.514	-0.139	0.058
-428.617	32.719	-0.177	0.153
-427.603	-69.709	0.107	-0.041
-426.588	-181.574	0.160	-0.003
-425.573	758.528	0.065	-0.177
-424.559	-163.087	-0.059	0.003
-423.544	-108.863	0.207	0.044
-422.530	178.872	0.211	0.308
-421.515	12.042	-0.219	-0.168
-420.500	146.481	0.200	-0.268
-419.486	-31.874	0.299	0.167
-418.471	244.128	0.081	0.136
-417.457	721.331	-0.088	-0.233
-416.442	-42.066	0.203	0.104
-415.428	-100.955	-0.463	0.113
-414.413	-200.000	0.030	-0.139
-413.398	-97.875	0.242	-0.062
-412.384	800.000	-0.086	-0.245
-411.369	53.253	0.150	0.144
-410.355	13.607	0.054	-0.042
-409.340	112.795	0.027	-0.033
-408.325	800.000	0.073	-0.287
-407.311	172.199	0.247	-0.354
-406.296	-189.632	-0.375	0.004
-405.282	74.593	0.173	0.181
-404.267	-200.000	-0.006	0.256
-403.252	-20.980	0.076	-0.046
-402.238	-117.592	-0.306	0.055
-401.223	37.467	0.161	-0.142
-400.209	-200.000	0.013	-0.065
-399.194	-118.914	-0.264	-0.046
-398.179	286.475	-0.045	-0.081
-397.165	-151.299	-0.235	-0.018
-396.150	-200.000	0.045	-0.296
-395.136	-110.156	0.299	-0.062
-394.121	-13.164	-0.208	-0.135
-393.106	542.097	-0.071	-0.169
-392.092	-15.643	-0.231	0.147
-391.077	800.000	0.016	0.063
-390.063	-57.183	0.248	0.109
-389.048	-150.751	-0.199	0.015
-388.033	-43.860	-0.215	-0.108
-387.019	391.488	-0.194	0.402
-386.004	-61.763	0.080	0.033
-384.990	-41.603	0.235	0.121
-383.975	-200.000	0.031	0.281
-382.960	-153.685	0.254	0.017
-381.946	-200.000	-0.019	-0.153
-380.931	510.277	-0.067	-0.156
-379.917	-200.000	0.013	-0.156
-378.902	-16.864	-0.245	0.155
-377.888	-11.956	0.322	0.210
-376.873	40.693	0.122	-0.110
-375.858	-96.565	-0.285	-0.075
-374.844	-200.000	0.044	0.239
-373.829	545.673	-0.157	-0.373
-372.815	-103.423	-0.073	0.017
-371.800	235.157	-0.179	0.295
-370.785	800.000	-0.104	0.300
-369.771	-86.412	-0.135	-0.041
-368.756	-200.000	-0.036	-0.173
-367.742	-105.596	-0.224	0.051
-366.727	-200.000	-0.022	0.168
-365.712	160.883	0.092	0.127
-364.698	147.708	0.192	0.258
-363.683	-155.804	0.270	-0.017
-362.669	-174.561	-0.106	-0.003
-361.654	4.664	0.115	-0.084
-360.639	-58.986	-0.178	-0.077
-359.625	-3.187	0.335	0.233
-358.610	174.907	0.110	-0.159
-357.596	-12.980	0.105	0.068
-356.581	800.000	0.095	-0.325
-355.566	-96.242	-0.209	-0.055
-354.552	22.746	0.318	-0.259
-353.537	800.000	-0.079	-0.227
-352.523	-13.701	-0.078	-0.050
-351.508	503.748	-0.055	-0.127
-350.493	-126.342	0.208	-0.031
-349.479	-44.402	-0.087	-0.043
-348.464	-68.243	0.127	0.049
-347.450	12.886	0.098	-0.075
-346.435	51.614	0.108	-0.102
-345.420	40.008	-0.192	-0.172
-344.406	-93.246	0.275	0.076
-343.391	126.844	0.114	-0.144
-342.377	8.168	0.350	-0.262
-341.362	-137.415	-0.305	0.034
-340.348	236.934	-0.124	-0.204
-339.333	246.777	0.141	0.236
-338.318	282.365	-0.146	0.261
-337.304	-200.000	0.003	0.099
-336.289	23.972	0.145	0.119
-335.275	80.488	0.161	0.172
-334.260	800.000	-0.094	0.260
-333.245	-51.147	0.168	0.078
-332.231	800.000	0.091	-0.289
-331.216	-155.412	-0.359	0.023
-330.202	-79.390	0.210	0.071
-329.187	800.000	0.068	0.188
-328.172	800.000	0.037	-0.144
-327.158	32.958	0.056	-0.048
-326.143	525.247	0.007	0.016
-325.129	41.844	0.058	0.052
-324.114	-200.000	0.023	-0.125
-323.099	219.935	-0.190	-0.303
-322.085	6.343	0.143	0.106
-321.070	800.000	-0.072	0.288
-320.056	275.700	-0.136	0.240
-319.041	173.691	-0.203	0.292
-318.026	-120.775	-0.115	0.019
-317.012	-159.433	-0.016	-0.001
-315.997	31.427	0.166	0.142
-314.983	386.809	0.187	-0.385
-313.968	-119.182	0.231	-0.040
-312.953	-200.000	-0.010	-0.292
-311.939	-116.429	-0.130	-0.024
-310.924	-121.745	0.270	-0.044
-309.910	-13.481	0.234	-0.151
-308.895	-108.494	-0.218	-0.047
-307.880	687.600	0.186	0.483
-306.866	121.169	0.183	0.227
-305.851	800.000	-0.117	0.324
-304.837	-114.560	0.361	-0.069
-303.822	-200.000	0.032	-0.366
-302.807	35.761	-0.320	-0.280
-301.793	800.000	0.050	0.197
-300.778	299.576	0.150	0.274
-299.764	-200.000	0.005	0.254
-298.749	-200.000	0.042	0.205
-297.735	-62.967	-0.114	-0.047
-296.720	800.000	0.033	-0.099
-295.705	-111.481	-0.476	0.096
-294.691	800.000	0.011	0.047
-293.676	-1.369	-0.268	-0.188
-292.662	-200.000	-0.044	0.246
-291.647	392.437	-0.047	0.097
-290.632	-200.000	0.008	-0.047
-289.618	-132.664	-0.180	-0.023
-288.603	-106.646	0.128	0.028
-287.589	405.784	0.086	-0.180
-286.574	120.962	-0.094	0.116
-285.559	800.000	-0.048	0.184
-284.545	-52.539	-0.213	-0.098
-283.530	-14.949	0.239	-0.152
-282.516	-120.637	-0.589	0.099
-281.501	-88.459	-0.284	0.084
-280.486	-3.347	0.269	0.186
-279.472	-121.067	-0.110	0.018
-278.457	-77.737	-0.031	-0.011
-277.443	430.164	-0.133	-0.286
-276.428	611.839	-0.034	-0.083
-275.413	18.928	-0.155	0.123
-274.399	-62.616	0.147	-0.061
-273.384	155.633	-0.159	0.217
-272.370	145.154	0.203	0.269
-271.355	512.653	0.019	0.045
-270.340	97.621	0.041	0.047
-269.326	-200.000	-0.067	-0.309
-268.311	800.000	-0.046	-0.139
-267.297	531.146	0.098	0.230
-266.282	-153.715	-0.543	-0.037
-265.267	169.614	-0.093	0.132
-264.253	30.195	-0.222	0.188
-263.238	-200.000	-0.011	0.416
-262.224	800.000	0.069	0.278
-261.209	199.824	-0.077	0.117
-260.195	65.020	0.181	0.181
-259.180	318.409	0.068	-0.128
-258.165	-35.795	0.148	-0.080
-257.151	509.424	0.137	-0.316
-256.136	-104.089	0.191	0.044
-255.122	140.213	-0.280	-0.367
-254.107	124.135	0.067	0.084
-253.092	155.760	-0.198	-0.271
-252.078	118.261	0.175	0.214
-251.063	-40.347	0.243	0.125
-250.049	-200.000	0.055	-0.365
-249.034	-82.231	-0.213	-0.069
-248.019	-200.000	0.010	0.203
-247.005	213.300	-0.166	0.260
-245.990	800.000	0.036	0.132
-244.976	143.126	0.192	-0.254
-243.961	103.193	0.223	0.259
-242.946	-200.000	-0.018	-0.163
-241.932	-28.813	0.318	-0.181
-240.917	-147.854	-0.159	0.013
-239.903	218.344	0.050	0.080
-238.888	-32.021	-0.168	-0.093
-237.873	-90.799	-0.203	0.058
-236.859	8.453	-0.172	-0.128
-235.844	-169.265	-0.251	-0.009
-234.830	25.771	0.113	0.094
-233.815	-9.377	0.307	-0.203
-232.800	-42.140	-0.254	-0.129
-231.786	107.901	-0.066	-0.078
-230.771	-200.000	-0.017	0.166
-229.757	-200.000	0.041	0.288
-228.742	-200.000	-0.028	0.173
-227.727	-200.000	0.011	0.140
-226.713	-200.000	0.083	0.389
-225.698	-200.000	0.080	0.365
-224.684	800.000	-0.008	0.033
-223.669	800.000	0.029	0.088
-222.655	358.550	-0.069	-0.136
-221.640	124.785	0.195	0.244
-220.625	41.284	0.178	-0.159
-219.611	-29.066	0.167	0.095
-218.596	-200.000	-0.018	-0.084
-217.582	-41.275	0.284	0.145
-216.567	-200.000	0.012	0.148
-215.552	118.154	-0.243	0.297
-214.538	102.673	-0.129	0.149
-213.523	39.263	0.151	-0.133
-212.509	-88.133	-0.122	-0.036
-211.494	8.989	0.204	-0.152
-210.479	800.000	-0.065	-0.185
-209.465	-29.222	-0.136	0.077
-208.450	-200.000	-0.031	-0.204
-207.436	125.918	-0.078	0.098
-206.421	-35.583	-0.216	-0.116
-205.406	-138.989	-0.066	-0.007
-204.392	-200.000	-0.105	0.471
-203.377	48.804	-0.258	0.239
-202.363	-137.745	0.379	0.042
-201.348	-200.000	0.025	0.128
-200.333	-175.053	0.160	0.004
-199.319	94.665	0.125	0.141
-198.304	114.244	-0.121	-0.146
-197.290	445.987	0.105	0.229
-196.275	522.274	-0.103	0.240
-195.260	-136.974	0.144	0.016
-194.246	-32.840	0.105	0.058
-193.231	-155.616	-0.189	0.012
-192.217	-139.557	0.093	-0.010
-191.202	276.941	-0.021	0.036
-190.187	-200.000	0.010	-0.060
-189.173	-84.831	-0.363	0.113
-188.158	642.353	0.019	-0.047
-187.144	18.052	0.283	-0.223
-186.129	-38.600	-0.238	0.124
-185.114	-81.182	0.270	-0.088
-184.100	800.000	0.113	-0.461
-183.085	800.000	0.039	-0.133
-182.071	86.908	0.232	0.254
-181.056	-130.240	-0.144	0.019
-180.042	56.252	0.226	-0.217
-179.027	149.731	0.193	-0.258
-178.012	104.497	-0.065	-0.076
-176.998	-200.000	0.020	0.263
-175.983	787.800	0.086	0.233
-174.969	-200.000	0.004	-0.096
-173.954	800.000	-0.089	-0.299
-172.939	-200.000	-0.019	0.177
-171.925	-200.000	-0.006	-0.065
-170.910	319.458	0.095	-0.178
-169.896	-67.931	0.153	0.059
-168.881	328.913	0.090	0.171
-167.866	21.509	0.179	0.144
-166.852	381.515	-0.107	-0.217
-165.837	61.937	-0.217	-0.214
-164.823	-111.006	-0.289	0.059
-163.808	130.488	0.256	0.324
-162.793	28.193	-0.047	-0.039
-161.779	800.000	0.164	0.525
-160.764	219.980	0.172	-0.272
-159.750	248.709	0.064	-0.108
-158.735	37.478	0.110	-0.096
-157.720	162.927	-0.095	0.132
-156.706	-135.428	0.397	0.047
-155.691	-108.369	0.234	0.050
-154.677	-93.669	-0.306	0.083
-153.662	-139.925	0.299	0.031
-152.647	53.108	-0.153	-0.145
-151.633	-200.000	0.033	-0.227
-150.618	-103.251	-0.104	0.024
-149.604	-52.687	0.162	0.074
-148.589	40.774	-0.068	0.060
-147.574	800.000	0.068	0.263
-146.560	69.947	0.154	0.157
-145.545	20.924	0.112	0.090
-144.531	25.585	-0.176	-0.145
-143.516	-200.000	0.587	-0.001
-142.502	-55.583	0.115	0.051
-141.487	800.000	0.048	0.195
-140.472	122.203	-0.095	-0.118
-139.458	663.685	0.139	0.354
-138.443	-102.845	-0.390	0.092
-137.429	-108.209	0.333	0.071
-136.414	494.676	-0.138	0.313
-135.399	192.322	0.128	0.191
-134.385	-69.517	0.147	-0.056
-133.370	145.820	-0.141	-0.187
-132.356	-29.719	0.073	0.041
-131.341	-20.110	0.067	0.041
-130.326	800.000	-0.062	-0.186
-129.312	-0.670	0.226	-0.158
-128.297	-76.341	0.131	-0.046
-127.283	-200.000	0.021	-0.237
-126.268	-200.000	0.075	-0.356
-125.253	83.906	-0.314	0.338
-124.239	-122.222	0.358	-0.058
-123.224	800.000	-0.017	-0.064
-122.210	279.218	-0.165	-0.291
