DTS Sentinel unit serial number:	SN413079Multiplexer serial number:	ORYXHardware model number:	OX4-SRSoftware version number:	ORYX F/W v4.00 Oryx Data Collector v3.7.2.0data status	okinstallation	princeton_trtdifferential loss correction	single-endedforward channel	channel 3reverse channel	N/Adate	2019/09/17time	04:08:35forward acquisition time	60.00reverse acquisition time	0.00gamma	496.2192k internal	0.2323k external	0.2323temperature offset calibration	0.9942default loss term (dB/km)	0.3790temperature slope calibration	1.0000multiplexer offset coefficient	1.0000multiplexer slope coefficient	1.0000fibre end	0.00T internal ref (°C)	29.86T ext. ref 1 (°C)	0.13T ext. ref 2 (°C)	24.30length (m)	temperature (°C)	Stokes	anti-Stokes-747.200	-93.330	-0.216	-0.061
-746.185	800.000	0.056	-0.193
-745.171	-76.173	-0.222	0.079
-744.156	800.000	-0.027	-0.109
-743.142	-200.000	0.048	0.244
-742.127	112.812	-0.194	0.237
-741.112	4.053	-0.410	0.303
-740.098	357.149	-0.149	0.300
-739.083	-100.478	-0.094	0.023
-738.069	148.115	-0.152	0.207
-737.054	-183.069	0.276	0.005
-736.039	-19.371	-0.106	-0.067
-735.025	-200.000	-0.018	-0.104
-734.010	-32.212	-0.474	-0.267
-732.996	94.909	0.161	0.184
-731.981	38.931	0.113	-0.102
-730.966	142.989	0.413	-0.555
-729.952	406.898	0.063	-0.134
-728.937	-122.413	-0.378	-0.062
-727.923	52.742	0.308	-0.297
-726.908	134.674	0.135	-0.177
-725.894	616.748	-0.119	-0.301
-724.879	119.786	-0.071	-0.088
-723.864	-75.145	0.049	0.018
-722.850	97.836	-0.177	-0.205
-721.835	-66.604	0.430	0.172
-720.821	15.925	-0.071	0.056
-719.806	-200.000	0.013	0.154
-718.791	-2.369	-0.229	-0.162
-717.777	173.866	-0.249	-0.363
-716.762	93.166	-0.396	-0.452
-715.748	-84.529	-0.376	0.120
-714.733	135.428	0.081	0.106
-713.718	59.309	0.237	-0.236
-712.704	800.000	0.117	-0.390
-711.689	-101.911	0.294	0.072
-710.675	-64.649	0.130	-0.053
-709.660	154.696	-0.063	-0.087
-708.645	116.673	0.083	-0.102
-707.631	-200.000	0.014	0.414
-706.616	167.724	0.022	-0.032
-705.602	-154.623	-0.341	-0.023
-704.587	-112.705	0.257	-0.052
-703.572	471.359	-0.146	-0.331
-702.558	-79.615	0.063	-0.021
-701.543	-82.573	-0.032	0.010
-700.529	336.364	-0.099	0.194
-699.514	208.270	0.099	0.156
-698.499	369.506	0.089	0.182
-697.485	80.534	0.243	-0.264
-696.470	800.000	0.058	0.238
-695.456	-78.890	0.239	-0.082
-694.441	182.869	0.046	0.068
-693.426	-200.000	0.038	-0.492
-692.412	465.429	-0.089	-0.201
-691.397	800.000	0.061	-0.231
-690.383	507.674	-0.150	0.351
-689.368	800.000	-0.103	0.388
-688.354	-132.088	-0.350	0.046
-687.339	800.000	-0.052	-0.169
-686.324	-116.654	0.022	-0.004
-685.310	-200.000	-0.006	-0.082
-684.295	151.300	-0.062	-0.086
-683.281	-97.633	-0.028	0.007
-682.266	260.060	-0.144	-0.250
-681.251	76.842	-0.127	-0.136
-680.237	-108.553	0.090	0.019
-679.222	258.710	-0.125	0.216
-678.208	-200.000	0.003	-0.301
-677.193	-102.821	-0.109	0.026
-676.178	-165.779	-0.428	0.019
-675.164	-177.345	-0.386	0.010
-674.149	260.838	0.059	-0.104
-673.135	-30.896	0.189	-0.108
-672.120	-200.000	0.013	-0.211
-671.105	-106.841	0.293	0.065
-670.091	-200.000	0.002	-0.173
-669.076	-200.000	-0.017	0.185
-668.062	-30.525	0.098	0.056
-667.047	800.000	-0.144	-0.411
-666.032	287.409	-0.095	-0.173
-665.018	-111.559	0.062	0.013
-664.003	-200.000	-0.002	0.194
-662.989	-200.000	0.035	0.201
-661.974	-1.495	0.092	0.065
-660.959	352.018	-0.093	0.186
-659.945	1.203	-0.082	0.059
-658.930	-72.023	-0.317	0.119
-657.916	-119.232	-0.340	-0.060
-656.901	-75.424	-0.320	0.115
-655.886	-73.501	0.122	0.045
-654.872	-60.635	-0.221	0.094
-653.857	-100.784	-0.339	0.084
-652.843	-200.000	0.005	0.078
-651.828	96.149	-0.214	-0.246
-650.814	-200.000	-0.027	-0.377
-649.799	-93.052	-0.080	-0.022
-648.784	-115.098	0.329	-0.063
-647.770	40.212	-0.176	-0.159
-646.755	-43.101	-0.114	0.058
-645.741	-160.777	0.252	0.013
-644.726	-78.118	0.244	-0.085
-643.711	-28.626	0.234	-0.136
-642.697	-200.000	0.031	0.173
-641.682	-34.510	0.227	-0.125
-640.668	19.059	-0.145	-0.117
-639.653	-200.000	-0.005	-0.439
-638.638	-100.708	0.299	-0.074
-637.624	72.765	-0.277	0.291
-636.609	-200.000	-0.027	-0.120
-635.595	-200.000	0.011	-0.050
-634.580	-62.662	-0.458	-0.191
-633.565	187.591	0.130	-0.194
-632.551	281.663	0.086	-0.155
-631.536	-50.101	-0.159	-0.076
-630.522	115.723	-0.069	-0.084
-629.507	-67.196	0.125	-0.050
-628.492	13.890	-0.169	0.132
-627.478	323.097	-0.088	0.169
-626.463	18.548	0.365	0.293
-625.449	-0.873	-0.030	0.022
-624.434	500.422	-0.059	0.136
-623.419	-200.000	-0.102	-0.541
-622.405	340.332	-0.100	-0.196
-621.390	-200.000	0.010	-0.408
-620.376	-48.602	0.264	-0.128
-619.361	136.987	-0.184	0.242
-618.346	177.015	0.098	-0.143
-617.332	169.843	-0.212	-0.305
-616.317	123.570	0.037	-0.046
-615.303	-125.241	-0.243	-0.037
-614.288	-98.112	-0.035	-0.009
-613.273	-123.454	0.101	-0.016
-612.259	-200.000	0.013	-0.126
-611.244	132.854	-0.146	0.189
-610.230	-18.525	-0.299	-0.188
-609.215	-12.810	-0.021	0.014
-608.201	-142.158	0.145	-0.014
-607.186	-16.958	-0.051	0.032
-606.171	474.260	-0.068	-0.153
-605.157	800.000	0.088	0.263
-604.142	-115.944	0.324	-0.061
-603.128	6.172	-0.131	-0.097
-602.113	327.700	-0.107	0.205
-601.098	800.000	0.055	0.176
-600.084	-190.185	-0.164	-0.002
-599.069	79.955	0.135	0.145
-598.055	34.183	-0.168	-0.147
-597.040	329.425	0.053	0.102
-596.025	103.832	0.093	-0.110
-595.011	800.000	0.031	0.101
-593.996	267.488	0.061	0.107
-592.982	553.514	-0.045	0.108
-591.967	358.876	0.102	0.205
-590.952	-200.000	0.020	-0.258
-589.938	71.241	-0.128	0.133
-588.923	524.328	0.100	-0.236
-587.909	800.000	0.053	0.220
-586.894	42.386	-0.200	-0.182
-585.879	-94.850	-0.269	-0.073
-584.865	303.615	0.133	0.248
-583.850	-200.000	0.066	0.325
-582.836	800.000	-0.164	-0.464
-581.821	-75.528	-0.385	-0.137
-580.806	52.213	0.062	0.059
-579.792	-200.000	-0.022	-0.305
-578.777	106.625	-0.072	-0.086
-577.763	732.484	0.039	0.105
-576.748	48.516	-0.156	0.147
-575.733	-200.000	-0.016	0.079
-574.719	176.930	0.117	0.170
-573.704	316.649	-0.125	0.237
-572.690	-126.351	-0.194	0.029
-571.675	20.257	-0.085	0.069
-570.661	800.000	-0.052	-0.196
-569.646	74.684	0.015	-0.016
-568.631	-128.498	0.128	-0.018
-567.617	70.656	0.294	-0.305
-566.602	-200.000	-0.020	0.218
-565.588	81.025	-0.110	-0.119
-564.573	-200.000	-0.022	0.194
-563.558	-145.606	-0.151	-0.014
-562.544	-200.000	-0.025	0.175
-561.529	705.429	-0.115	0.304
-560.515	1.815	-0.144	0.104
-559.500	800.000	0.061	0.227
-558.485	127.380	-0.002	-0.002
-557.471	226.956	0.086	-0.139
-556.456	800.000	-0.083	-0.261
-555.442	78.185	-0.084	0.090
-554.427	-124.709	-0.297	0.046
-553.412	-130.969	0.132	-0.018
-552.398	-200.000	0.006	0.127
-551.383	-126.585	-0.323	0.048
-550.369	39.410	0.119	0.107
-549.354	-200.000	-0.011	0.112
-548.339	149.253	0.229	-0.310
-547.325	-200.000	0.018	-0.245
-546.310	-200.000	0.030	-0.167
-545.296	100.282	-0.158	-0.184
-544.281	-152.169	0.265	-0.019
-543.266	-155.096	-0.244	0.016
-542.252	-66.374	0.414	-0.165
-541.237	-7.152	-0.239	-0.163
-540.223	137.560	-0.292	-0.383
-539.208	-26.242	0.083	-0.049
-538.193	621.700	-0.056	-0.140
-537.179	38.638	-0.289	0.259
-536.164	254.298	0.187	0.321
-535.150	-118.320	-0.074	0.013
-534.135	-75.461	-0.224	0.080
-533.121	-200.000	-0.002	-0.058
-532.106	561.260	-0.051	0.123
-531.091	-200.000	-0.003	0.374
-530.077	-200.000	0.029	-0.204
-529.062	-200.000	-0.025	-0.219
-528.048	65.307	0.068	0.069
-527.033	266.344	0.145	0.254
-526.018	37.936	-0.069	-0.061
-525.004	-163.726	0.206	-0.010
-523.989	108.144	-0.148	0.176
-522.975	50.647	-0.217	-0.206
-521.960	132.887	0.174	-0.225
-520.945	-28.887	-0.273	-0.157
-519.931	-120.395	-0.234	-0.040
-518.916	290.723	0.064	0.116
-517.902	800.000	0.058	0.191
-516.887	-200.000	0.005	0.114
-515.872	337.840	-0.055	0.107
-514.858	-200.000	0.042	-0.310
-513.843	4.780	-0.021	0.016
-512.829	-84.189	-0.087	0.028
-511.814	-178.672	-0.338	0.008
-510.799	124.909	0.207	-0.261
-509.785	-124.176	-0.291	-0.046
-508.770	-157.227	0.084	-0.005
-507.756	318.123	0.123	0.232
-506.741	220.316	0.120	0.193
-505.726	36.274	-0.183	-0.161
-504.712	-200.000	0.061	-0.341
-503.697	687.144	-0.052	0.137
-502.683	-116.946	-0.207	-0.038
-501.668	-200.000	0.047	-0.335
-500.653	63.939	-0.109	-0.110
-499.639	367.929	0.038	0.077
-498.624	-157.895	0.132	0.008
-497.610	-75.163	-0.270	0.096
-496.595	97.351	-0.094	-0.108
-495.581	-86.986	-0.279	0.085
-494.566	626.963	0.101	-0.255
-493.551	-52.067	-0.048	0.022
-492.537	-96.194	0.178	-0.047
-491.522	800.000	-0.084	0.242
-490.508	-106.756	0.126	0.028
-489.493	219.159	0.284	-0.455
-488.478	101.766	0.234	-0.272
-487.464	2.318	0.217	0.157
-486.449	-136.816	0.200	0.023
-485.435	800.000	0.057	-0.206
-484.420	-68.374	-0.085	0.033
-483.405	-139.698	-0.102	0.011
-482.391	-60.523	-0.112	-0.047
-481.376	582.713	0.085	0.209
-480.362	36.269	-0.156	-0.137
-479.347	-200.000	0.019	0.086
-478.332	107.080	-0.236	-0.280
-477.318	-33.677	-0.106	0.058
-476.303	800.000	-0.085	0.293
-475.289	800.000	-0.083	0.232
-474.274	-95.720	0.245	0.065
-473.259	-151.142	0.202	0.015
-472.245	-200.000	-0.030	0.256
-471.230	-79.926	-0.053	-0.018
-470.216	-104.415	-0.213	-0.049
-469.201	-200.000	0.030	-0.447
-468.186	208.963	-0.214	-0.335
-467.172	238.519	0.162	0.269
-466.157	-47.263	-0.279	-0.136
-465.143	-200.000	-0.001	0.058
-464.128	-45.785	-0.215	0.106
-463.113	-173.265	0.320	-0.010
-462.099	291.762	0.048	-0.088
-461.084	-200.000	0.036	0.309
-460.070	180.172	0.308	-0.451
-459.055	179.083	0.039	0.057
-458.040	800.000	-0.089	0.328
-457.026	86.428	-0.066	0.073
-456.011	-200.000	0.022	-0.111
-454.997	45.700	-0.186	-0.172
-453.982	169.253	-0.165	-0.235
-452.968	-200.000	0.053	-0.269
-451.953	80.038	-0.114	0.123
-450.938	-160.354	0.263	0.014
-449.924	161.906	-0.103	-0.144
-448.909	-175.803	0.204	-0.005
-447.895	-40.677	-0.188	0.097
-446.880	-14.428	0.182	-0.117
-445.865	-48.395	-0.312	0.150
-444.851	679.780	-0.156	0.405
-443.836	-93.796	-0.067	-0.018
-442.822	-88.027	0.241	-0.072
-441.807	-200.000	0.025	-0.312
-440.792	172.114	0.100	-0.143
-439.778	-76.491	0.149	0.052
-438.763	-13.551	-0.061	-0.040
-437.749	800.000	-0.097	0.387
-436.734	-200.000	0.018	0.123
-435.719	126.351	-0.131	0.165
-434.705	-163.995	0.261	-0.012
-433.690	3.305	-0.116	-0.084
-432.676	28.300	0.083	0.070
-431.661	-34.387	0.244	0.133
-430.646	-138.582	0.455	0.050
-429.632	-200.000	0.056	0.256
-428.617	326.930	-0.198	0.378
-427.603	21.634	-0.337	-0.274
-426.588	800.000	-0.027	-0.087
-425.573	-128.376	0.099	-0.014
-424.559	-200.000	0.064	0.303
-423.544	-12.365	0.108	-0.070
-422.530	340.557	-0.082	-0.159
-421.515	36.444	0.300	0.264
-420.500	-20.446	-0.166	-0.102
-419.486	74.218	0.053	0.056
-418.471	-131.976	-0.007	0.001
-417.457	8.868	-0.080	0.060
-416.442	-200.000	0.013	-0.109
-415.428	126.886	0.133	-0.168
-414.413	-200.000	-0.035	0.349
-413.398	-99.411	0.233	0.058
-412.384	318.450	0.092	0.174
-411.369	-100.838	-0.279	-0.068
-410.355	625.264	0.045	0.113
-409.340	41.067	0.121	0.109
-408.325	-43.706	0.393	-0.198
-407.311	-25.560	0.116	-0.068
-406.296	-133.903	0.335	-0.041
-405.282	215.377	-0.130	0.205
-404.267	17.448	-0.186	0.147
-403.252	-0.884	-0.121	-0.086
-402.238	-82.678	-0.057	-0.019
-401.223	-200.000	0.038	0.209
-400.209	352.375	0.109	0.216
-399.194	800.000	0.050	-0.163
-398.179	-114.265	0.260	0.050
-397.165	591.654	0.117	-0.287
-396.150	-200.000	0.031	0.209
-395.136	261.737	0.041	-0.070
-394.121	544.106	0.083	-0.197
-393.106	59.976	-0.190	0.187
-392.092	-15.553	0.461	-0.293
-391.077	406.634	-0.213	-0.448
-390.063	-200.000	-0.033	-0.182
-389.048	777.569	0.181	-0.494
-388.033	99.424	0.102	0.118
-387.019	-20.785	-0.055	-0.034
-386.004	-68.490	-0.147	-0.057
-384.990	-200.000	-0.058	-0.429
-383.975	-52.031	-0.032	0.015
-382.960	40.143	0.142	-0.127
-381.946	-200.000	0.008	0.086
-380.931	1.984	0.398	-0.286
-379.917	-82.138	0.226	0.073
-378.902	703.435	0.078	0.206
-377.888	-200.000	0.024	0.256
-376.873	-200.000	0.036	-0.196
-375.858	-200.000	0.065	-0.324
-374.844	-156.617	-0.107	0.007
-373.829	99.865	0.349	0.402
-372.815	6.076	-0.166	0.122
-371.800	-65.526	-0.111	-0.044
-370.785	-200.000	0.010	-0.230
-369.771	-3.660	-0.137	-0.095
-368.756	144.802	-0.134	-0.178
-367.742	-105.693	0.285	-0.064
-366.727	45.079	0.410	0.376
-365.712	-74.071	-0.163	-0.059
-364.698	-120.021	0.220	0.037
-363.683	800.000	-0.144	0.409
-362.669	800.000	0.084	-0.302
-361.654	5.234	0.241	0.177
-360.639	-183.871	0.179	-0.003
-359.625	158.548	-0.171	-0.236
-358.610	-200.000	-0.010	0.220
-357.596	-89.474	-0.054	0.016
-356.581	-70.130	-0.034	-0.013
-355.566	28.425	-0.061	-0.052
-354.552	-196.495	-0.456	0.003
-353.537	301.224	0.075	-0.137
-352.523	800.000	0.031	0.104
-351.508	160.639	0.176	-0.244
-350.493	-71.447	-0.178	-0.066
-349.479	248.932	-0.114	0.191
-348.464	-200.000	-0.000	0.072
-347.450	-200.000	-0.026	0.120
-346.435	-63.796	0.104	-0.042
-345.420	294.481	-0.136	-0.247
-344.406	-30.813	-0.197	0.111
-343.391	356.509	-0.049	-0.097
-342.377	116.284	-0.155	-0.189
-341.362	-13.690	0.138	0.089
-340.348	-200.000	0.010	0.200
-339.333	13.298	-0.060	0.046
-338.318	-46.802	0.239	-0.116
-337.304	-10.086	0.225	0.149
-336.289	55.260	-0.112	0.108
-335.275	-180.828	0.108	-0.002
-334.260	123.357	0.280	-0.349
-333.245	44.240	0.170	-0.155
-332.231	-146.095	0.307	-0.027
-331.216	748.862	0.069	-0.185
-330.202	-200.000	-0.050	0.383
-329.187	262.416	-0.142	-0.245
-328.172	-80.698	-0.121	-0.040
-327.158	-171.135	-0.258	0.009
-326.143	-53.437	0.318	0.145
-325.129	-200.000	-0.014	0.143
-324.114	-12.375	0.058	0.038
-323.099	419.437	-0.062	-0.132
-322.085	-200.000	0.021	0.244
-321.070	-200.000	0.017	0.382
-320.056	800.000	-0.077	0.265
-319.041	416.337	-0.137	-0.290
-318.026	279.741	0.098	-0.175
-317.012	654.691	0.062	-0.159
-315.997	296.208	-0.082	0.150
-314.983	800.000	0.082	-0.227
-313.968	324.477	0.026	-0.050
-312.953	-73.674	-0.370	0.134
-311.939	-121.737	0.076	0.012
-310.924	82.388	0.064	-0.069
-309.910	379.166	0.171	0.349
-308.895	-29.939	0.337	-0.190
-307.880	-200.000	-0.010	0.184
-306.866	-18.961	-0.079	-0.049
-305.851	-135.610	-0.130	-0.015
-304.837	6.569	-0.042	-0.031
-303.822	-200.000	-0.036	0.344
-302.807	-53.125	-0.229	-0.105
-301.793	-5.058	-0.215	-0.147
-300.778	-47.012	-0.111	-0.054
-299.764	-200.000	0.068	0.359
-298.749	-58.408	-0.080	-0.035
-297.735	800.000	0.058	-0.163
-296.720	791.804	0.068	0.186
-295.705	511.578	-0.077	-0.179
-294.691	-196.471	-0.170	-0.001
-293.676	-59.367	0.123	0.052
-292.662	800.000	0.080	-0.323
-291.647	-18.707	-0.223	-0.138
-290.632	-200.000	0.007	0.246
-289.618	-149.512	-0.267	-0.021
-288.603	-152.371	0.296	0.021
-287.589	-21.303	0.276	0.167
-286.574	420.319	0.040	0.084
-285.559	-68.297	-0.109	0.042
-284.545	-200.000	-0.058	0.406
-283.530	-200.000	0.007	-0.042
-282.516	-192.566	-0.318	-0.003
-281.501	-74.830	0.075	-0.027
-280.486	727.991	0.036	-0.096
-279.472	800.000	0.078	0.287
-278.457	-200.000	-0.004	0.024
-277.443	48.430	0.294	-0.273
-276.428	-12.969	0.053	0.034
-275.413	240.512	-0.041	0.067
-274.399	-200.000	0.019	0.090
-273.384	-10.757	0.127	-0.083
-272.370	-200.000	-0.056	-0.249
-271.355	800.000	-0.063	0.186
-270.340	-20.100	0.122	-0.075
-269.326	-200.000	-0.008	-0.142
-268.311	-157.451	0.049	-0.003
-267.297	-23.572	0.235	0.140
-266.282	-108.681	-0.154	0.033
-265.267	-187.681	0.083	-0.001
-264.253	497.035	-0.056	0.128
-263.238	-200.000	0.036	0.205
-262.224	-121.094	-0.121	0.020
-261.209	201.924	-0.074	0.114
-260.195	147.229	-0.221	-0.294
-259.180	3.863	0.056	-0.040
-258.165	-91.867	0.255	0.072
-257.151	800.000	0.029	0.102
-256.136	800.000	0.050	0.141
-255.122	-200.000	0.028	-0.183
-254.107	584.292	0.146	-0.355
-253.092	-46.298	0.070	-0.034
-252.078	184.211	-0.076	0.111
-251.063	-200.000	-0.002	-0.011
-250.049	39.643	-0.014	0.012
-249.034	-37.188	0.146	0.077
-248.019	411.523	0.102	0.215
-247.005	238.877	-0.068	-0.113
-245.990	-59.778	-0.077	0.033
-244.976	-3.078	0.219	0.151
-243.961	-127.326	-0.226	-0.033
-242.946	-135.486	0.218	0.026
-241.932	172.657	0.089	0.127
-240.917	30.954	-0.119	0.101
-239.903	-200.000	0.012	-0.222
-238.888	-21.915	0.254	0.153
-237.873	135.611	0.024	0.031
-236.859	-111.791	-0.137	-0.027
-235.844	66.880	-0.200	0.202
-234.830	144.045	0.125	0.166
-233.815	-82.567	-0.413	-0.133
-232.800	-200.000	0.174	0.000
-231.786	800.000	-0.184	0.520
-230.771	800.000	0.035	-0.097
-229.757	203.015	0.101	-0.154
-228.742	777.632	-0.071	0.191
-227.727	-200.000	0.000	0.293
-226.713	-126.487	0.181	-0.027
-225.698	88.092	0.040	-0.044
-224.684	34.405	0.255	-0.220
-223.669	-157.278	-0.245	-0.015
-222.655	299.763	-0.086	0.157
-221.640	67.456	0.078	-0.079
-220.625	-107.370	-0.402	-0.087
-219.611	-0.194	0.078	-0.055
-218.596	-8.553	-0.235	-0.156
-217.582	-123.445	-0.083	0.013
-216.567	20.730	0.197	0.158
-215.552	71.061	0.247	0.253
-214.538	-47.977	0.077	0.037
-213.523	-88.980	-0.431	0.126
-212.509	-200.000	0.030	-0.137
-211.494	-200.000	0.005	-0.051
-210.479	-200.000	-0.029	0.182
-209.465	-115.705	0.231	-0.043
-208.450	478.735	-0.208	0.467
-207.436	30.004	-0.287	0.242
-206.421	800.000	-0.105	0.416
-205.406	1.565	-0.270	-0.192
-204.392	-200.000	-0.046	0.291
-203.377	-14.419	-0.113	0.072
-202.363	597.665	0.102	-0.249
-201.348	64.839	0.252	-0.252
-200.333	800.000	0.017	0.060
-199.319	-127.961	-0.334	0.047
-198.304	80.173	0.164	0.174
-197.290	-200.000	-0.002	0.069
-196.275	-8.852	-0.242	-0.160
-195.260	-115.827	0.363	0.067
-194.246	24.179	-0.142	-0.116
-193.231	800.000	-0.024	-0.096
-192.217	110.596	-0.100	0.119
-191.202	-111.259	0.270	-0.055
-190.187	-147.831	-0.242	0.020
-189.173	6.778	0.403	-0.297
-188.158	-200.000	-0.007	0.189
-187.144	221.503	-0.033	0.052
-186.129	800.000	-0.043	0.184
-185.114	277.360	-0.071	0.125
-184.100	102.360	-0.184	-0.213
-183.085	81.927	0.152	0.163
-182.071	-114.104	-0.236	-0.045
-181.056	-63.423	0.208	-0.085
-180.042	65.162	-0.260	-0.259
-179.027	-54.021	0.146	-0.066
-178.012	800.000	-0.103	0.400
-176.998	-85.240	0.193	-0.059
-175.983	30.197	0.190	-0.160
-174.969	-200.000	0.009	-0.201
-173.954	57.270	-0.184	-0.177
-172.939	-20.962	0.155	0.094
-171.925	86.896	0.033	0.036
-170.910	692.748	0.077	-0.200
-169.896	800.000	-0.081	-0.325
-168.881	24.845	-0.057	0.047
-167.866	-58.071	0.221	0.095
-166.852	-200.000	-0.008	-0.090
-165.837	800.000	0.079	0.314
-164.823	264.467	-0.126	0.216
-163.808	-8.975	-0.057	-0.038
-162.793	31.290	-0.088	0.074
-161.779	-120.068	0.577	0.098
-160.764	-4.155	-0.367	0.251
-159.750	-96.763	-0.047	-0.012
-158.735	800.000	0.016	-0.060
-157.720	-76.215	0.125	-0.044
-156.706	-107.275	-0.251	-0.055
-155.691	40.825	0.229	-0.204
-154.677	-6.745	-0.116	0.078
-153.662	800.000	0.060	0.172
-152.647	-142.345	-0.432	0.042
-151.633	-66.913	0.298	0.116
-150.618	-72.628	-0.057	-0.021
-149.604	-200.000	0.067	0.299
-148.589	-200.000	0.011	0.128
-147.574	-200.000	-0.018	0.132
-146.560	2.720	-0.197	-0.141
-145.545	-70.840	-0.298	0.111
-144.531	20.377	0.175	-0.140
-143.516	-146.322	0.323	-0.028
-142.502	174.770	0.063	-0.090
-141.487	-18.860	-0.125	-0.077
-140.472	-155.087	0.143	0.009
-139.458	-200.000	-0.018	-0.150
-138.443	-30.855	0.407	-0.227
-137.429	-200.000	0.020	-0.111
-136.414	233.123	-0.105	0.169
-135.399	27.771	0.080	0.066
-134.385	-49.264	-0.342	0.161
-133.370	26.047	0.128	-0.105
-132.356	-25.653	0.231	0.134
-131.341	148.584	0.178	-0.237
-130.326	99.446	-0.210	-0.240
-129.312	353.621	0.224	0.438
-128.297	-200.000	-0.037	-0.271
-127.283	-117.904	0.237	0.042
-126.268	33.336	0.193	-0.165
-125.253	247.303	-0.112	0.187
-124.239	716.150	-0.030	-0.079
-123.224	11.530	-0.047	0.036
-122.210	-84.710	0.303	0.094
-121.195	567.089	-0.069	0.164
