DTS Sentinel unit serial number:	SN413079Multiplexer serial number:	ORYXHardware model number:	OX4-SRSoftware version number:	ORYX F/W v4.00 Oryx Data Collector v3.7.2.0data status	okinstallation	princeton_trtdifferential loss correction	single-endedforward channel	channel 3reverse channel	N/Adate	2019/09/15time	10:32:34forward acquisition time	60.00reverse acquisition time	0.00gamma	496.2192k internal	0.2308k external	0.2308temperature offset calibration	0.9974default loss term (dB/km)	0.3790temperature slope calibration	1.0000multiplexer offset coefficient	1.0000multiplexer slope coefficient	1.0000fibre end	0.00T internal ref (°C)	34.25T ext. ref 1 (°C)	5.04T ext. ref 2 (°C)	29.53length (m)	temperature (°C)	Stokes	anti-Stokes-747.200	208.810	-0.122	-0.194
-746.185	-84.488	0.169	-0.054
-745.171	-104.477	0.273	-0.064
-744.156	800.000	-0.009	-0.034
-743.142	76.312	0.207	-0.222
-742.127	-200.000	0.016	0.479
-741.112	800.000	0.049	0.208
-740.098	800.000	0.044	-0.134
-739.083	706.048	0.052	-0.140
-738.069	-106.213	0.335	0.076
-737.054	379.603	-0.090	-0.187
-736.039	671.505	-0.114	-0.299
-735.025	-64.552	0.399	0.165
-734.010	65.750	-0.085	-0.088
-732.996	-125.546	-0.209	0.032
-731.981	-200.000	-0.042	-0.329
-730.966	-72.249	0.079	0.030
-729.952	-62.345	-0.256	0.108
-728.937	-179.561	-0.203	0.004
-727.923	-64.562	0.254	0.105
-726.908	34.747	-0.236	0.209
-725.894	-200.000	-0.002	0.160
-724.879	800.000	-0.036	0.155
-723.864	800.000	-0.099	-0.285
-722.850	20.188	-0.206	-0.169
-721.835	-200.000	-0.059	-0.279
-720.821	-114.107	-0.138	0.027
-719.806	240.218	0.211	0.357
-718.791	-186.331	-0.108	-0.002
-717.777	-118.460	-0.080	0.014
-716.762	-200.000	-0.003	0.270
-715.748	-200.000	0.013	-0.077
-714.733	-125.635	-0.307	0.047
-713.718	-56.306	0.117	-0.053
-712.704	-7.538	0.103	-0.071
-711.689	9.470	-0.110	0.085
-710.675	-200.000	0.007	0.066
-709.660	-156.195	-0.097	-0.006
-708.645	40.880	0.124	-0.114
-707.631	800.000	0.098	0.303
-706.616	-96.811	-0.041	0.011
-705.602	-81.438	0.210	0.070
-704.587	-43.117	-0.292	-0.150
-703.572	-2.318	0.222	0.158
-702.558	-156.748	0.361	0.023
-701.543	-99.516	-0.204	0.052
-700.529	18.671	0.320	-0.259
-699.514	800.000	-0.031	-0.092
-698.499	-77.906	-0.207	-0.072
-697.485	37.150	0.246	-0.221
-696.470	377.197	-0.058	0.120
-695.456	-30.669	0.211	0.121
-694.441	361.043	-0.067	-0.136
-693.426	461.750	-0.142	-0.322
-692.412	-200.000	0.025	-0.124
-691.397	-167.167	0.149	0.006
-690.383	-88.153	-0.282	0.086
-689.368	-15.858	-0.187	-0.121
-688.354	-200.000	-0.061	0.305
-687.339	90.696	-0.180	0.205
-686.324	-73.693	0.230	-0.085
-685.310	189.551	0.089	0.136
-684.295	800.000	-0.050	-0.162
-683.281	431.416	0.079	-0.174
-682.266	11.877	-0.215	-0.168
-681.251	-200.000	0.017	-0.186
-680.237	-200.000	0.016	-0.123
-679.222	413.108	-0.092	-0.198
-678.208	-53.331	-0.144	-0.067
-677.193	-200.000	0.009	0.109
-676.178	-164.711	0.284	-0.013
-675.164	151.213	0.189	-0.261
-674.149	-200.000	0.026	0.192
-673.135	-136.663	0.237	0.028
-672.120	14.132	-0.273	-0.215
-671.105	-5.692	-0.016	-0.011
-670.091	154.006	0.233	-0.323
-669.076	-70.444	-0.137	0.053
-668.062	143.136	-0.213	-0.287
-667.047	-38.489	0.176	-0.094
-666.032	-81.627	-0.278	0.093
-665.018	-35.515	0.129	0.071
-664.003	170.440	0.146	0.212
-662.989	800.000	-0.049	0.195
-661.974	-32.957	-0.072	-0.040
-660.959	-90.344	-0.060	-0.018
-659.945	-200.000	-0.048	-0.269
-658.930	800.000	-0.051	-0.197
-657.916	59.697	-0.101	-0.101
-656.901	-102.148	-0.230	0.056
-655.886	-99.554	-0.408	0.104
-654.872	-27.404	0.114	0.067
-653.857	800.000	-0.068	-0.290
-652.843	115.532	0.241	-0.298
-651.828	-200.000	-0.190	-0.001
-650.814	281.476	-0.165	-0.298
-649.799	-26.060	-0.339	0.202
-648.784	-83.942	0.140	0.045
-647.770	67.962	0.208	0.215
-646.755	138.968	0.209	-0.278
-645.741	-35.853	-0.104	0.057
-644.726	-106.407	-0.098	-0.022
-643.711	-149.871	0.142	-0.011
-642.697	-44.647	-0.166	-0.084
-641.682	-146.363	0.423	-0.037
-640.668	-77.935	0.340	-0.119
-639.653	-128.609	-0.256	0.037
-638.638	-114.050	0.459	-0.090
-637.624	800.000	-0.092	-0.350
-636.609	221.064	-0.083	-0.135
-635.595	-22.658	-0.136	0.083
-634.580	134.628	0.085	0.112
-633.565	-107.883	0.108	0.024
-632.551	-200.000	-0.060	0.273
-631.536	291.594	-0.113	0.208
-630.522	31.591	-0.078	-0.068
-629.507	182.913	-0.170	-0.254
-628.492	-73.943	-0.386	-0.142
-627.478	243.611	0.128	-0.217
-626.463	81.226	0.206	0.225
-625.449	720.572	-0.062	-0.168
-624.434	-20.095	-0.081	0.051
-623.419	11.587	0.144	-0.112
-622.405	800.000	0.084	-0.235
-621.390	288.623	-0.186	0.340
-620.376	69.873	0.295	0.308
-619.361	-121.597	0.139	-0.023
-618.346	-113.078	0.157	-0.031
-617.332	49.712	-0.062	0.059
-616.317	800.000	-0.047	-0.168
-615.303	-200.000	0.011	-0.065
-614.288	523.433	-0.135	-0.320
-613.273	-171.991	-0.365	-0.012
-612.259	261.817	0.038	-0.067
-611.244	-131.538	0.136	0.018
-610.230	-157.880	-0.403	-0.024
-609.215	-140.373	0.564	0.060
-608.201	-200.000	-0.025	0.190
-607.186	800.000	-0.051	0.183
-606.171	49.943	-0.072	0.068
-605.157	800.000	0.072	-0.315
-604.142	800.000	-0.039	0.127
-603.128	-78.794	-0.407	0.140
-602.113	-119.052	0.187	-0.033
-601.098	-68.018	-0.150	0.059
-600.084	-200.000	-0.001	-0.073
-599.069	-64.655	0.413	-0.169
-598.055	424.407	0.144	-0.313
-597.040	800.000	0.052	0.185
-596.025	75.865	0.130	0.139
-595.011	-200.000	0.045	0.324
-593.996	-200.000	0.004	-0.277
-592.982	291.497	-0.104	0.190
-591.967	800.000	0.105	0.376
-590.952	800.000	-0.122	-0.399
-589.938	47.139	0.308	0.290
-588.923	252.198	-0.081	-0.139
-587.909	664.324	0.030	-0.077
-586.894	452.999	0.016	-0.036
-585.879	-200.000	0.057	-0.284
-584.865	171.180	-0.043	-0.062
-583.850	666.219	-0.014	0.037
-582.836	-55.498	-0.123	-0.056
-581.821	83.014	-0.194	-0.213
-580.806	133.536	0.097	-0.127
-579.792	316.859	-0.071	-0.135
-578.777	164.059	-0.092	-0.131
-577.763	-95.105	-0.175	0.048
-576.748	-28.700	-0.147	0.085
-575.733	543.287	-0.036	0.086
-574.719	-55.665	0.244	0.110
-573.704	174.067	-0.103	0.150
-572.690	-132.161	-0.335	0.044
-571.675	1.709	-0.150	0.109
-570.661	96.867	0.284	-0.328
-569.646	11.292	-0.082	-0.064
-568.631	-158.455	-0.338	0.020
-567.617	-142.429	0.141	-0.014
-566.602	-200.000	-0.005	-0.597
-565.588	800.000	0.124	-0.384
-564.573	800.000	-0.035	0.120
-563.558	348.092	0.056	-0.112
-562.544	547.391	-0.109	0.263
-561.529	25.151	0.332	0.278
-560.515	-145.042	-0.153	-0.014
-559.500	-200.000	0.015	-0.185
-558.485	233.010	-0.113	-0.188
-557.471	-37.531	0.243	-0.131
-556.456	-151.240	0.297	0.022
-555.442	-200.000	-0.014	-0.247
-554.427	-56.330	0.252	-0.113
-553.412	-200.000	0.001	0.049
-552.398	77.321	-0.140	-0.150
-551.383	800.000	0.051	-0.196
-550.369	-13.139	0.231	-0.152
-549.354	800.000	0.065	0.196
-548.339	-106.092	0.066	0.015
-547.325	-57.210	0.178	0.079
-546.310	-115.776	-0.117	0.022
-545.296	800.000	0.039	0.130
-544.281	50.265	-0.150	0.143
-543.266	65.795	-0.199	0.203
-542.252	130.486	0.221	-0.286
-541.237	-200.000	0.019	0.329
-540.223	259.690	-0.167	-0.290
-539.208	235.902	0.122	-0.203
-538.193	9.170	0.198	-0.151
-537.179	159.156	-0.216	0.303
-536.164	46.848	-0.090	-0.084
-535.150	285.703	0.151	-0.274
-534.135	-200.000	-0.006	-0.181
-533.121	512.290	-0.050	0.117
-532.106	295.468	0.036	-0.066
-531.091	-0.757	-0.090	-0.064
-530.077	337.652	-0.255	0.499
-529.062	-72.578	0.349	-0.130
-528.048	-62.587	0.135	0.056
-527.033	71.416	-0.180	-0.188
-526.018	17.549	0.249	-0.200
-525.004	-200.000	-0.330	-0.001
-523.989	-96.791	-0.114	-0.030
-522.975	-200.000	-0.036	-0.158
-521.960	-200.000	-0.033	-0.380
-520.945	427.880	0.061	0.134
-519.931	800.000	0.075	0.234
-518.916	800.000	-0.097	-0.273
-517.902	-200.000	0.042	-0.245
-516.887	-93.056	-0.365	-0.102
-515.872	-200.000	-0.063	-0.329
-514.858	-83.424	-0.186	-0.060
-513.843	-200.000	-0.012	0.264
-512.829	424.555	-0.018	-0.039
-511.814	-133.293	0.033	0.004
-510.799	-180.176	0.400	0.008
-509.785	-200.000	-0.039	0.225
-508.770	211.181	-0.095	-0.150
-507.756	106.489	-0.225	-0.269
-506.741	800.000	0.042	-0.171
-505.726	-83.390	0.104	0.034
-504.712	69.401	0.201	-0.208
-503.697	207.804	0.109	0.172
-502.683	352.378	-0.127	-0.254
-501.668	-81.554	0.085	0.028
-500.653	82.433	0.122	-0.133
-499.639	-114.766	0.443	0.085
-498.624	106.136	0.167	0.199
-497.610	-200.000	-0.051	-0.316
-496.595	-91.117	-0.093	0.027
-495.581	179.270	-0.141	-0.208
-494.566	-200.000	0.023	0.119
-493.551	229.476	-0.103	0.170
-492.537	277.646	0.022	0.040
-491.522	800.000	-0.029	-0.110
-490.508	-41.390	-0.211	0.109
-489.493	-103.918	-0.264	-0.062
-488.478	-0.301	0.046	0.033
-487.464	800.000	0.044	-0.140
-486.449	562.125	0.025	0.060
-485.435	644.102	0.146	0.375
-484.420	41.871	0.118	-0.108
-483.405	-72.175	-0.246	0.092
-482.391	289.140	-0.061	-0.112
-481.376	111.817	0.112	0.136
-480.362	56.958	-0.101	0.099
-479.347	515.538	0.094	-0.221
-478.332	4.008	-0.199	-0.146
-477.318	-200.000	0.010	-0.141
-476.303	608.517	0.048	-0.121
-475.289	108.035	-0.348	0.418
-474.274	-200.000	-0.008	-0.212
-473.259	-1.662	0.098	0.069
-472.245	42.635	-0.128	-0.117
-471.230	16.016	0.267	0.212
-470.216	226.965	-0.122	-0.199
-469.201	17.323	0.183	-0.146
-468.186	800.000	0.081	-0.265
-467.172	-65.790	0.234	0.094
-466.157	-200.000	0.011	-0.243
-465.143	-200.000	0.009	0.114
-464.128	-57.472	0.455	0.201
-463.113	-82.265	-0.460	0.151
-462.099	88.498	0.181	-0.202
-461.084	642.574	-0.070	0.180
-460.070	-86.756	0.290	-0.089
-459.055	-66.509	-0.279	0.111
-458.040	-129.766	-0.064	-0.009
-457.026	-140.569	0.119	-0.012
-456.011	-109.040	0.183	0.039
-454.997	97.041	0.055	0.063
-453.982	-106.718	-0.138	0.031
-452.968	-121.278	-0.351	-0.059
-451.953	279.570	0.094	-0.168
-450.938	-135.108	0.117	-0.014
-449.924	-22.554	0.143	0.087
-448.909	-0.146	-0.278	-0.199
-447.895	124.367	0.117	0.148
-446.880	1.975	-0.215	0.156
-445.865	-148.367	-0.249	-0.021
-444.851	-193.274	0.163	-0.001
-443.836	-0.375	0.246	0.175
-442.822	-21.538	0.212	-0.130
-441.807	-97.016	-0.159	-0.042
-440.792	-32.388	0.277	-0.155
-439.778	-94.787	-0.042	0.011
-438.763	-56.679	-0.357	0.159
-437.749	-185.955	-0.277	-0.004
-436.734	-158.983	0.223	-0.013
-435.719	-200.000	0.080	0.352
-434.705	-132.839	0.301	-0.039
-433.690	204.741	0.216	0.337
-432.676	562.907	-0.056	0.135
-431.661	800.000	0.055	-0.168
-430.646	279.832	0.185	-0.331
-429.632	167.785	-0.041	0.059
-428.617	183.789	-0.147	-0.218
-427.603	-200.000	0.026	-0.161
-426.588	-107.252	-0.129	-0.029
-425.573	100.422	-0.045	-0.052
-424.559	102.255	-0.185	-0.217
-423.544	461.439	0.075	0.168
-422.530	-200.000	-0.045	0.330
-421.515	17.595	0.165	0.131
-420.500	332.737	-0.145	0.280
-419.486	-37.620	0.207	0.111
-418.471	35.167	0.251	0.220
-417.457	-181.718	0.056	0.001
-416.442	-4.298	0.084	0.058
-415.428	80.509	0.257	-0.278
-414.413	257.412	0.049	-0.085
-413.398	20.238	-0.105	-0.085
-412.384	69.232	-0.048	0.050
-411.369	-103.272	0.305	0.072
-410.355	577.666	-0.080	-0.197
-409.340	-140.125	0.130	0.014
-408.325	363.009	-0.192	0.388
-407.311	-200.000	0.009	-0.048
-406.296	169.580	-0.256	0.366
-405.282	-200.000	0.003	-0.015
-404.267	-113.529	-0.296	0.058
-403.252	-200.000	0.005	0.475
-402.238	-9.721	0.067	0.045
-401.223	-103.787	-0.302	-0.071
-400.209	275.677	0.031	-0.055
-399.194	-200.000	-0.041	0.232
-398.179	161.107	-0.131	-0.183
-397.165	-107.395	-0.227	0.050
-396.150	33.543	0.215	0.187
-395.136	88.901	-0.288	0.321
-394.121	-200.000	-0.026	0.199
-393.106	-127.579	-0.389	0.057
-392.092	-87.801	-0.156	0.047
-391.077	-73.445	0.114	0.042
-390.063	-103.435	-0.071	0.017
-389.048	-91.236	0.189	0.054
-388.033	-108.450	0.449	0.097
-387.019	478.194	0.019	-0.044
-386.004	-27.762	-0.012	0.007
-384.990	-6.132	0.173	0.118
-383.975	-200.000	0.053	-0.622
-382.960	-108.470	-0.316	-0.068
-381.946	333.735	-0.085	-0.165
-380.931	45.052	0.115	-0.106
-379.917	-151.035	0.410	-0.031
-378.902	800.000	-0.081	-0.309
-377.888	18.954	-0.161	-0.129
-376.873	262.258	-0.038	0.066
-375.858	-99.469	-0.167	-0.042
-374.844	-200.000	0.022	-0.241
-373.829	-55.385	-0.148	0.066
-372.815	13.624	0.154	0.120
-371.800	-200.000	0.034	0.189
-370.785	-101.514	0.079	-0.019
-369.771	800.000	-0.028	-0.100
-368.756	161.248	-0.132	0.185
-367.742	388.071	0.186	0.385
-366.727	-109.257	0.083	0.018
-365.712	41.879	0.047	-0.043
-364.698	-168.315	-0.401	0.015
-363.683	132.204	0.015	0.019
-362.669	-200.000	-0.036	0.224
-361.654	-200.000	-0.005	-0.097
-360.639	146.965	0.111	-0.149
-359.625	71.208	-0.144	0.150
-358.610	-200.000	-0.024	0.297
-357.596	-29.278	-0.136	-0.078
-356.581	257.843	-0.060	-0.104
-355.566	20.185	-0.163	-0.132
-354.552	-195.623	-0.250	0.002
-353.537	-160.453	-0.391	-0.021
-352.523	12.486	-0.071	0.055
-351.508	-156.947	0.406	-0.025
-350.493	-150.835	-0.284	0.022
-349.479	15.085	0.094	0.074
-348.464	-200.000	0.003	0.105
-347.450	800.000	-0.040	-0.170
-346.435	800.000	0.027	0.115
-345.420	-200.000	-0.007	-0.131
-344.406	163.180	-0.125	-0.175
-343.391	48.926	-0.252	-0.237
-342.377	-179.309	0.337	0.007
-341.362	-38.709	0.274	0.145
-340.348	-121.083	-0.374	-0.063
-339.333	-81.347	-0.084	0.028
-338.318	-24.801	0.379	0.225
-337.304	-71.424	0.224	0.084
-336.289	-154.675	-0.178	-0.012
-335.275	-99.971	-0.187	0.047
-334.260	800.000	0.023	-0.067
-333.245	338.312	-0.221	-0.430
-332.231	36.977	0.317	0.280
-331.216	392.056	0.093	0.194
-330.202	154.392	0.152	0.209
-329.187	140.364	-0.110	0.145
-328.172	-40.466	-0.321	0.167
-327.158	177.385	0.071	0.103
-326.143	-159.895	0.094	-0.005
-325.129	201.834	0.128	-0.197
-324.114	121.896	-0.080	0.100
-323.099	-6.721	0.130	0.089
-322.085	-200.000	-0.009	0.212
-321.070	211.805	0.136	0.214
-320.056	39.890	0.262	0.235
-319.041	33.757	-0.173	-0.151
-318.026	111.171	-0.134	-0.161
-317.012	204.202	0.124	0.192
-315.997	-70.125	0.077	0.029
-314.983	-7.161	0.183	-0.124
-313.968	679.200	0.070	0.183
-312.953	384.726	-0.058	0.119
-311.939	170.708	-0.117	0.167
-310.924	62.363	-0.044	0.044
-309.910	-157.347	-0.348	-0.021
-308.895	431.122	0.068	-0.148
-307.880	402.905	0.143	-0.301
-306.866	-66.975	-0.196	0.077
-305.851	-200.000	-0.054	0.287
-304.837	42.287	-0.049	0.045
-303.822	-13.994	0.128	-0.082
-302.807	-103.700	-0.115	-0.027
-301.793	-200.000	-0.017	0.330
-300.778	124.046	0.069	0.086
-299.764	-43.857	-0.190	0.095
-298.749	340.714	-0.144	-0.281
-297.735	221.615	-0.073	-0.117
-296.720	800.000	0.011	-0.037
-295.705	197.936	-0.150	-0.230
-294.691	-200.000	-0.002	0.260
-293.676	-128.162	0.423	0.060
-292.662	-200.000	0.004	0.126
-291.647	421.305	0.121	0.260
-290.632	800.000	-0.087	-0.250
-289.618	-119.765	0.118	0.020
-288.603	-71.530	0.177	-0.066
-287.589	-142.441	-0.181	-0.018
-286.574	-36.269	0.141	-0.076
-285.559	-97.568	0.063	-0.016
-284.545	24.104	-0.069	-0.056
-283.530	800.000	-0.106	0.450
-282.516	-123.782	-0.220	0.035
-281.501	-96.590	-0.395	0.104
-280.486	-63.333	0.249	0.102
-279.472	-105.403	-0.212	0.048
-278.457	212.665	0.079	-0.124
-277.443	800.000	-0.137	0.394
-276.428	14.997	0.199	-0.156
-275.413	169.716	0.233	-0.333
-274.399	59.457	0.160	0.157
-273.384	-82.890	0.174	0.056
-272.370	293.705	0.072	0.132
-271.355	43.287	0.343	0.312
-270.340	311.810	0.041	-0.077
-269.326	-81.552	-0.117	-0.038
-268.311	-18.428	0.176	0.110
-267.297	-22.491	-0.035	0.021
-266.282	-120.313	0.322	-0.055
-265.267	-200.000	-0.074	0.416
-264.253	-137.124	0.242	-0.028
-263.238	215.666	0.040	0.064
-262.224	-200.000	0.022	-0.214
-261.209	-200.000	-0.012	-0.101
-260.195	-57.211	0.147	-0.064
-259.180	-124.316	-0.120	0.019
-258.165	-73.928	-0.295	0.107
-257.151	-200.000	0.008	-0.050
-256.136	62.326	0.122	0.122
-255.122	116.601	-0.021	0.026
-254.107	-47.842	0.650	0.314
-253.092	-156.164	-0.426	-0.027
-252.078	800.000	0.053	-0.175
-251.063	423.278	-0.154	-0.331
-250.049	-200.000	0.006	0.137
-249.034	266.201	-0.099	0.172
-248.019	-58.122	-0.471	-0.205
-247.005	-110.627	-0.128	0.026
-245.990	25.363	-0.145	-0.120
-244.976	-30.374	0.325	0.184
-243.961	-149.902	0.315	-0.025
-242.946	113.572	0.121	-0.146
-241.932	-110.018	-0.236	0.049
-240.917	5.250	-0.083	-0.061
-239.903	-29.155	0.336	0.192
-238.888	-66.085	-0.216	0.086
-237.873	-7.115	0.140	0.095
-236.859	-200.000	0.011	-0.105
-235.844	197.207	0.101	0.154
-234.830	-4.798	0.173	0.119
-233.815	259.471	0.128	-0.220
-232.800	111.795	0.100	-0.121
-231.786	800.000	0.063	0.192
-230.771	387.799	-0.242	-0.498
-229.757	-124.528	-0.149	0.023
-228.742	-161.377	-0.169	-0.009
-227.727	99.336	0.237	-0.273
-226.713	20.545	0.168	-0.136
-225.698	-121.857	-0.234	-0.039
-224.684	375.245	-0.100	-0.203
-223.669	-200.000	0.036	0.275
-222.655	-200.000	-0.042	-0.278
-221.640	43.003	0.172	-0.156
-220.625	-125.117	0.147	0.022
-219.611	-6.430	0.149	-0.101
-218.596	-200.000	-0.010	-0.111
-217.582	753.753	-0.031	-0.083
-216.567	655.044	0.116	0.297
-215.552	-183.796	-0.240	0.004
-214.538	-84.767	0.285	0.089
-213.523	36.170	0.217	0.190
-212.509	16.602	-0.275	-0.216
-211.494	479.876	0.088	0.198
-210.479	-200.000	-0.003	0.317
-209.465	-106.246	-0.484	0.108
-208.450	89.158	-0.130	0.145
-207.436	274.927	0.075	-0.132
-206.421	-81.493	0.424	0.139
-205.406	1.368	-0.131	-0.094
-204.392	-111.878	-0.168	-0.034
-203.377	-147.471	0.320	0.027
-202.363	18.748	-0.201	-0.160
-201.348	60.302	0.045	0.044
-200.333	55.767	0.257	-0.248
-199.319	198.147	0.145	0.220
-198.304	-84.381	-0.391	0.123
-197.290	-131.650	-0.138	0.018
-196.275	156.160	-0.093	-0.128
-195.260	-120.993	0.212	-0.035
-194.246	-10.621	-0.127	-0.084
-193.231	-39.332	-0.085	-0.045
-192.217	-48.348	0.305	0.146
-191.202	-52.506	-0.228	0.105
-190.187	135.504	-0.185	-0.239
-189.173	800.000	0.067	-0.247
-188.158	-97.786	-0.236	-0.061
-187.144	42.169	-0.082	-0.074
-186.129	724.095	0.073	-0.193
-185.114	-200.000	-0.015	-0.092
-184.100	-38.942	0.476	-0.249
-183.085	209.288	0.156	0.243
-182.071	-158.949	0.129	0.007
-181.056	38.774	-0.177	-0.157
-180.042	477.045	0.041	0.092
-179.027	677.142	-0.097	0.249
-178.012	-200.000	0.069	-0.367
-176.998	-200.000	-0.292	-0.001
-175.983	-51.423	-0.173	-0.080
-174.969	489.584	-0.129	0.294
-173.954	35.108	0.124	0.108
-172.939	-170.239	-0.100	-0.004
-171.925	56.613	0.203	0.197
-170.910	800.000	-0.075	-0.310
-169.896	495.460	0.057	0.130
-168.881	-72.716	-0.454	-0.166
-167.866	-89.701	-0.462	0.135
-166.852	137.922	-0.052	0.068
-165.837	208.665	0.108	-0.168
-164.823	-13.191	0.159	0.103
-163.808	-136.057	0.375	0.044
-162.793	192.262	0.106	0.160
-161.779	143.276	-0.071	0.093
-160.764	-165.355	-0.363	-0.016
-159.750	-97.792	-0.449	-0.115
-158.735	-34.539	0.099	0.054
-157.720	234.557	-0.070	0.114
-156.706	61.129	0.117	0.115
-155.691	-75.718	0.082	-0.029
-154.677	135.009	0.105	0.135
-153.662	141.447	-0.165	-0.217
-152.647	643.143	0.057	0.143
-151.633	-98.975	-0.365	0.092
-150.618	800.000	0.021	0.067
-149.604	-105.511	0.191	-0.043
-148.589	-113.694	-0.453	0.088
-147.574	-116.486	0.077	-0.014
-146.560	800.000	0.060	0.215
-145.545	69.444	0.181	0.185
-144.531	800.000	-0.117	0.325
-143.516	-146.967	-0.213	0.018
-142.502	-155.410	0.262	-0.017
-141.487	-200.000	0.005	0.057
-140.472	-106.329	-0.211	0.047
-139.458	-148.092	-0.094	0.008
-138.443	-149.977	-0.123	0.010
-137.429	61.439	-0.240	-0.236
-136.414	135.470	0.206	-0.265
-135.399	-19.451	-0.209	0.129
-134.385	56.565	0.050	0.049
-133.370	37.882	-0.235	-0.207
-132.356	-200.000	-0.014	0.139
-131.341	-200.000	-0.008	-0.103
-130.326	-20.384	0.144	-0.088
-129.312	-200.000	0.029	0.186
-128.297	20.718	0.274	-0.220
-127.283	379.040	-0.155	0.315
-126.268	-200.000	-0.032	-0.145
-125.253	275.301	0.109	-0.192
-124.239	346.719	-0.088	-0.171
-123.224	-200.000	0.043	-0.226
-122.210	-200.000	0.002	-0.177
