DTS Sentinel unit serial number:	SN413079Multiplexer serial number:	ORYXHardware model number:	OX4-SRSoftware version number:	ORYX F/W v4.00 Oryx Data Collector v3.7.2.0data status	okinstallation	princeton_trtdifferential loss correction	single-endedforward channel	channel 3reverse channel	N/Adate	2019/09/16time	18:24:35forward acquisition time	60.00reverse acquisition time	0.00gamma	496.2192k internal	0.2305k external	0.2305temperature offset calibration	0.9948default loss term (dB/km)	0.3790temperature slope calibration	1.0000multiplexer offset coefficient	1.0000multiplexer slope coefficient	1.0000fibre end	0.00T internal ref (°C)	36.81T ext. ref 1 (°C)	15.79T ext. ref 2 (°C)	30.32length (m)	temperature (°C)	Stokes	anti-Stokes-747.200	317.790	-0.105	0.203
-746.185	-37.588	0.030	0.017
-745.171	99.834	-0.176	0.208
-744.156	-0.716	0.290	0.210
-743.142	372.655	-0.015	0.030
-742.127	-200.000	-0.012	0.275
-741.112	-200.000	0.015	0.120
-740.098	227.855	-0.052	0.086
-739.083	-200.000	0.022	0.329
-738.069	-200.000	0.012	0.128
-737.054	-98.195	-0.119	-0.031
-736.039	-95.659	0.071	0.019
-735.025	-94.914	0.079	0.022
-734.010	-28.131	-0.366	0.215
-732.996	-5.552	-0.167	-0.116
-731.981	-200.000	0.032	-0.444
-730.966	617.770	-0.124	-0.316
-729.952	127.189	-0.052	0.068
-728.937	20.224	-0.270	-0.221
-727.923	14.510	-0.231	-0.184
-726.908	-77.420	0.207	-0.073
-725.894	-139.081	0.055	0.006
-724.879	-145.615	-0.444	0.040
-723.864	369.299	-0.097	0.199
-722.850	-98.739	0.212	-0.055
-721.835	0.475	-0.397	0.289
-720.821	-89.261	-0.208	0.062
-719.806	-200.000	-0.002	-0.151
-718.791	70.888	0.099	-0.104
-717.777	-29.383	0.089	-0.052
-716.762	-83.298	-0.204	-0.067
-715.748	-11.104	-0.119	-0.079
-714.733	198.526	-0.160	0.249
-713.718	-39.120	0.171	0.091
-712.704	-200.000	0.012	0.234
-711.689	540.312	-0.128	0.310
-710.675	333.235	-0.087	-0.171
-709.660	-58.969	0.062	-0.027
-708.645	-3.276	-0.266	0.189
-707.631	5.747	0.219	0.165
-706.616	-5.312	-0.081	0.056
-705.602	-200.000	0.006	-0.218
-704.587	-28.891	-0.183	0.107
-703.572	-41.686	0.066	0.034
-702.558	-132.222	-0.096	0.013
-701.543	-15.737	0.411	-0.266
-700.529	-110.341	0.215	0.045
-699.514	-200.000	-0.045	0.303
-698.499	-200.000	0.007	0.268
-697.485	95.496	0.098	0.114
-696.470	59.350	0.251	0.251
-695.456	124.655	0.052	0.066
-694.441	-113.478	-0.149	0.030
-693.426	-26.922	0.115	-0.068
-692.412	800.000	-0.041	-0.147
-691.397	800.000	0.053	-0.165
-690.383	-200.000	-0.012	0.334
-689.368	350.617	-0.053	0.107
-688.354	-104.309	-0.201	0.047
-687.339	16.490	0.206	0.165
-686.324	-99.533	0.148	0.038
-685.310	114.237	-0.319	-0.394
-684.295	-200.000	0.016	-0.109
-683.281	33.656	-0.104	-0.092
-682.266	-96.344	0.258	-0.069
-681.251	-57.814	0.072	0.032
-680.237	178.138	-0.181	-0.268
-679.222	-80.060	-0.345	-0.117
-678.208	-200.000	-0.009	0.372
-677.193	-93.814	-0.056	0.016
-676.178	-200.000	-0.001	0.174
-675.164	-198.631	0.141	0.001
-674.149	-142.812	0.189	0.019
-673.135	127.582	0.196	0.252
-672.120	-140.822	-0.340	-0.036
-671.105	-31.116	-0.335	0.192
-670.091	197.745	-0.073	0.113
-669.076	-124.350	0.350	-0.055
-668.062	-200.000	0.014	0.319
-667.047	-99.635	-0.147	-0.037
-666.032	-54.932	0.134	0.062
-665.018	-66.548	-0.225	0.090
-664.003	55.170	-0.196	0.192
-662.989	639.988	-0.111	0.287
-661.974	7.049	0.134	-0.101
-660.959	-37.339	-0.044	0.024
-659.945	-15.710	-0.199	-0.128
-658.930	-200.000	0.003	-0.269
-657.916	-129.402	0.605	-0.085
-656.901	204.369	0.097	0.153
-655.886	-200.000	-0.026	-0.189
-654.872	-200.000	0.007	0.219
-653.857	11.731	0.107	-0.083
-652.843	-75.158	0.261	0.095
-651.828	-72.455	-0.136	-0.051
-650.814	-56.233	-0.162	0.073
-649.799	-43.756	0.293	-0.150
-648.784	-151.488	-0.034	0.003
-647.770	157.783	-0.178	-0.250
-646.755	800.000	0.046	-0.150
-645.741	45.463	-0.105	0.098
-644.726	96.098	0.242	-0.281
-643.711	-200.000	-0.014	-0.148
-642.697	57.017	-0.066	0.066
-641.682	-200.000	-0.051	0.287
-640.668	-27.849	-0.169	0.099
-639.653	694.571	-0.184	-0.490
-638.638	-61.143	0.110	-0.047
-637.624	216.917	0.073	0.118
-636.609	800.000	-0.066	-0.225
-635.595	800.000	0.060	0.189
-634.580	259.354	-0.066	0.115
-633.565	800.000	0.047	-0.142
-632.551	-15.967	-0.338	-0.218
-631.536	800.000	-0.114	-0.399
-630.522	-29.285	-0.193	0.112
-629.507	211.231	-0.174	-0.277
-628.492	-96.700	0.283	0.075
-627.478	-151.742	0.140	-0.010
-626.463	16.442	-0.049	-0.039
-625.449	167.114	0.045	-0.064
-624.434	-68.179	0.224	0.089
-623.419	415.518	-0.081	-0.176
-622.405	-200.000	-0.002	0.194
-621.390	176.855	0.023	-0.034
-620.376	-84.226	0.093	0.030
-619.361	20.865	0.029	0.024
-618.346	-44.129	0.201	-0.102
-617.332	257.960	0.044	-0.076
-616.317	-90.650	0.164	-0.048
-615.303	800.000	-0.075	-0.235
-614.288	136.905	0.171	-0.227
-613.273	195.390	-0.125	-0.192
-612.259	1.566	0.178	-0.130
-611.244	800.000	-0.056	0.171
-610.230	-102.857	0.249	-0.060
-609.215	405.532	0.052	-0.111
-608.201	22.592	-0.228	-0.189
-607.186	46.409	0.210	-0.198
-606.171	397.377	0.083	0.175
-605.157	-3.512	-0.037	-0.026
-604.142	-82.177	-0.109	0.036
-603.128	-75.142	-0.401	-0.145
-602.113	1.696	0.378	0.276
-601.098	-80.177	-0.174	0.059
-600.084	695.151	0.022	0.058
-599.069	763.433	0.048	-0.131
-598.055	-2.297	0.187	0.133
-597.040	-200.000	0.003	-0.065
-596.025	-88.375	-0.128	0.039
-595.011	-88.115	-0.226	0.069
-593.996	-1.986	0.075	-0.054
-592.982	89.138	0.168	0.189
-591.967	-62.981	-0.316	-0.132
-590.952	-81.931	-0.157	-0.052
-589.938	-120.116	0.186	-0.032
-588.923	-200.000	-0.002	0.125
-587.909	720.123	0.141	-0.380
-586.894	800.000	-0.094	0.350
-585.879	66.434	0.054	-0.056
-584.865	126.261	0.175	-0.224
-583.850	-142.343	-0.390	0.039
-582.836	65.389	0.161	-0.165
-581.821	800.000	-0.115	-0.385
-580.806	79.688	-0.236	0.256
-579.792	96.786	-0.166	-0.193
-578.777	250.023	-0.090	-0.155
-577.763	-61.565	-0.224	-0.095
-576.748	-42.057	-0.077	0.040
-575.733	394.839	0.060	0.127
-574.719	-149.925	0.108	-0.009
-573.704	-67.595	-0.098	0.039
-572.690	-161.078	0.192	0.010
-571.675	-118.744	0.182	0.032
-570.661	-57.993	-0.035	0.016
-569.646	800.000	0.054	-0.189
-568.631	-121.131	-0.153	0.026
-567.617	32.790	0.115	0.101
-566.602	87.535	-0.068	-0.076
-565.588	-91.859	-0.190	-0.055
-564.573	26.671	0.104	-0.088
-563.558	-68.992	0.185	0.072
-562.544	60.214	0.152	0.151
-561.529	195.577	-0.164	-0.252
-560.515	-200.000	-0.075	-0.343
-559.500	-200.000	-0.127	0.000
-558.485	248.918	0.137	0.235
-557.471	-200.000	-0.071	0.315
-556.456	-110.856	0.391	0.081
-555.442	-98.204	-0.081	0.021
-554.427	-99.492	-0.021	0.005
-553.412	649.181	0.109	0.281
-552.398	117.860	-0.022	0.028
-551.383	33.230	-0.139	-0.122
-550.369	-197.958	0.306	-0.002
-549.354	-123.545	-0.214	-0.034
-548.339	277.923	-0.115	-0.206
-547.325	800.000	0.053	-0.163
-546.310	55.753	0.293	-0.287
-545.296	-84.851	-0.305	-0.097
-544.281	208.951	0.079	-0.124
-543.266	-42.564	-0.124	0.064
-542.252	-87.869	0.145	0.044
-541.237	12.981	0.200	0.156
-540.223	382.039	0.086	-0.179
-539.208	-200.000	0.013	0.060
-538.193	51.105	-0.159	0.152
-537.179	184.776	0.125	0.188
-536.164	-12.277	0.114	-0.075
-535.150	362.871	0.102	-0.207
-534.135	-11.914	-0.100	-0.066
-533.121	105.398	-0.149	0.178
-532.106	-60.927	-0.230	-0.098
-531.091	-14.246	-0.406	-0.264
-530.077	409.833	0.036	-0.076
-529.062	529.213	0.140	-0.334
-528.048	-13.535	-0.010	-0.007
-527.033	-4.328	0.330	0.231
-526.018	-117.305	-0.317	0.058
-525.004	-200.000	0.039	-0.183
-523.989	800.000	-0.012	-0.035
-522.975	219.947	-0.105	0.170
-521.960	281.398	-0.136	-0.245
-520.945	460.347	0.134	0.301
-519.931	800.000	-0.023	0.077
-518.916	-128.227	0.354	-0.051
-517.902	-200.000	-0.025	-0.335
-516.887	-72.585	-0.088	-0.033
-515.872	-149.096	0.499	-0.040
-514.858	40.403	0.248	-0.226
-513.843	109.476	0.213	-0.257
-512.829	20.143	-0.189	-0.154
-511.814	239.471	0.094	-0.158
-510.799	131.857	-0.087	-0.112
-509.785	-200.000	-0.027	0.393
-508.770	5.478	-0.185	0.138
-507.756	60.915	-0.188	0.188
-506.741	-77.517	0.262	0.092
-505.726	7.441	-0.250	0.189
-504.712	800.000	0.060	0.182
-503.697	138.611	0.314	0.416
-502.683	-99.217	-0.074	-0.019
-501.668	800.000	0.073	-0.310
-500.653	230.960	-0.170	-0.281
-499.639	800.000	0.019	-0.071
-498.624	-28.593	0.289	-0.168
-497.610	-135.892	-0.213	0.025
-496.595	186.730	0.057	-0.085
-495.581	-89.325	-0.186	-0.055
-494.566	99.411	-0.063	0.074
-493.551	-200.000	-0.010	-0.082
-492.537	-200.000	-0.026	-0.261
-491.522	-200.000	0.042	0.233
-490.508	-89.843	0.227	-0.067
-489.493	-128.922	-0.141	-0.020
-488.478	-183.187	-0.072	-0.001
-487.464	-34.071	0.125	0.069
-486.449	-139.274	-0.207	-0.022
-485.435	-56.034	-0.149	-0.067
-484.420	179.152	-0.298	0.440
-483.405	-124.124	-0.194	0.031
-482.391	665.508	0.099	-0.257
-481.376	748.245	-0.095	-0.257
-480.362	31.701	0.136	-0.118
-479.347	512.484	0.072	-0.168
-478.332	-181.534	0.230	0.005
-477.318	16.460	-0.185	-0.147
-476.303	-112.310	0.224	-0.045
-475.289	-200.000	-0.054	-0.302
-474.274	719.144	0.050	-0.134
-473.259	414.077	0.060	-0.129
-472.245	800.000	-0.064	0.210
-471.230	-200.000	-0.018	-0.192
-470.216	300.116	-0.190	-0.353
-469.201	800.000	-0.063	-0.276
-468.186	47.115	-0.154	0.144
-467.172	-65.335	-0.271	0.110
-466.157	4.775	0.294	-0.218
-465.143	-199.616	-0.328	-0.002
-464.128	-35.854	0.113	-0.062
-463.113	14.625	0.198	-0.156
-462.099	70.643	-0.128	-0.134
-461.084	683.231	0.066	0.172
-460.070	-150.706	0.363	-0.028
-459.055	-200.000	0.010	0.109
-458.040	522.555	0.037	0.087
-457.026	-66.784	0.158	0.063
-456.011	-82.118	0.228	0.075
-454.997	-14.785	0.304	0.197
-453.982	-90.503	0.280	-0.082
-452.968	800.000	0.053	-0.206
-451.953	249.732	-0.208	0.354
-450.938	254.604	0.054	-0.093
-449.924	-200.000	-0.021	-0.201
-448.909	-44.697	-0.220	-0.111
-447.895	-70.464	0.147	-0.056
-446.880	-200.000	-0.019	-0.261
-445.865	-132.475	0.132	-0.017
-444.851	-200.000	0.002	0.028
-443.836	125.268	-0.164	-0.207
-442.822	-23.223	0.365	0.221
-441.807	-75.050	-0.293	-0.105
-440.792	-18.385	-0.224	0.141
-439.778	211.525	-0.043	-0.068
-438.763	-200.000	-0.037	-0.312
-437.749	-200.000	0.024	-0.108
-436.734	800.000	0.027	0.081
-435.719	-83.265	0.199	-0.064
-434.705	-200.000	-0.018	-0.211
-433.690	-200.000	0.023	0.248
-432.676	51.859	-0.091	0.087
-431.661	249.641	0.085	0.145
-430.646	520.761	-0.125	-0.296
-429.632	16.379	0.133	0.106
-428.617	17.987	-0.229	-0.183
-427.603	-38.284	-0.206	-0.110
-426.588	-64.707	-0.224	0.091
-425.573	101.891	-0.343	0.402
-424.559	135.782	0.053	-0.069
-423.544	-34.775	0.090	0.049
-422.530	217.974	0.133	-0.213
-421.515	48.915	0.034	0.032
-420.500	94.216	0.119	0.135
-419.486	260.905	-0.208	0.362
-418.471	800.000	-0.042	0.156
-417.457	203.871	0.265	0.412
-416.442	-200.000	0.051	0.232
-415.428	12.642	0.143	-0.111
-414.413	200.195	0.095	-0.147
-413.398	112.505	0.072	-0.088
-412.384	800.000	0.068	0.228
-411.369	-80.011	0.269	0.091
-410.355	228.041	-0.107	-0.175
-409.340	-200.000	-0.038	-0.244
-408.325	-200.000	0.032	0.195
-407.311	50.794	0.140	-0.133
-406.296	-177.769	-0.346	-0.008
-405.282	-155.247	0.500	-0.033
-404.267	48.471	0.177	-0.167
-403.252	-83.683	-0.235	-0.075
-402.238	-96.432	-0.119	-0.032
-401.223	800.000	0.152	0.518
-400.209	-45.987	-0.152	0.075
-399.194	156.940	-0.176	-0.244
-398.179	-81.699	0.189	-0.062
-397.165	-169.516	-0.168	0.006
-396.150	-107.016	0.191	-0.042
-395.136	-200.000	-0.020	-0.092
-394.121	77.652	-0.301	-0.322
-393.106	-200.000	-0.016	0.444
-392.092	678.920	0.108	0.281
-391.077	51.562	0.249	0.238
-390.063	240.665	0.122	0.204
-389.048	594.146	0.193	-0.479
-388.033	115.691	0.060	0.073
-387.019	-181.826	0.066	-0.001
-386.004	79.949	-0.058	0.062
-384.990	-152.628	-0.376	0.027
-383.975	-200.000	-0.021	0.188
-382.960	-98.560	0.195	0.050
-381.946	-200.000	0.025	0.224
-380.931	-16.313	0.129	0.082
-379.917	41.168	0.100	-0.090
-378.902	-200.000	-0.013	-0.081
-377.888	478.816	-0.068	-0.154
-376.873	309.191	0.087	-0.163
-375.858	-41.605	0.257	0.132
-374.844	316.434	0.026	0.049
-373.829	-200.000	-0.044	0.292
-372.815	96.779	0.147	0.169
-371.800	-1.977	-0.153	0.108
-370.785	142.008	0.010	-0.013
-369.771	292.368	-0.270	0.493
-368.756	87.930	-0.165	0.184
-367.742	-200.000	0.060	0.320
-366.727	101.005	-0.073	0.085
-365.712	14.614	-0.085	-0.067
-364.698	720.672	-0.115	0.307
-363.683	447.409	-0.092	0.204
-362.669	121.122	-0.051	0.064
-361.654	42.814	-0.099	-0.090
-360.639	-134.211	-0.342	0.042
-359.625	-84.155	0.179	0.057
-358.610	-200.000	0.058	0.281
-357.596	-163.477	0.241	-0.011
-356.581	119.902	-0.074	-0.092
-355.566	148.408	0.374	-0.507
-354.552	62.892	-0.218	0.219
-353.537	225.230	-0.154	0.249
-352.523	198.334	0.033	0.051
-351.508	50.440	0.274	-0.260
-350.493	-93.091	-0.107	0.030
-349.479	555.682	-0.089	-0.215
-348.464	404.707	0.065	0.136
-347.450	800.000	0.076	-0.259
-346.435	266.502	-0.080	-0.139
-345.420	-32.482	-0.066	-0.037
-344.406	-9.430	-0.419	0.280
-343.391	-200.000	-0.011	0.295
-342.377	-200.000	-0.003	0.290
-341.362	-200.000	-0.008	-0.116
-340.348	0.407	-0.123	-0.088
-339.333	-83.328	0.256	0.082
-338.318	383.281	0.125	0.258
-337.304	27.205	0.091	0.077
-336.289	-139.380	0.361	-0.039
-335.275	-50.900	0.106	0.050
-334.260	643.574	0.168	0.429
-333.245	-100.421	0.555	0.138
-332.231	201.686	-0.197	-0.304
-331.216	-78.615	-0.128	-0.044
-330.202	309.022	0.194	-0.363
-329.187	96.157	0.092	-0.105
-328.172	-81.120	-0.099	0.033
-327.158	269.888	0.093	0.163
-326.143	87.494	0.241	0.267
-325.129	-200.000	-0.017	0.420
-324.114	94.126	0.062	0.071
-323.099	-81.052	-0.209	0.069
-322.085	71.056	-0.390	-0.404
-321.070	800.000	0.088	0.334
-320.056	800.000	-0.032	-0.092
-319.041	88.783	-0.145	0.161
-318.026	-200.000	-0.004	0.309
-317.012	163.163	-0.197	0.277
-315.997	657.660	0.029	-0.074
-314.983	119.047	-0.144	0.178
-313.968	-200.000	0.032	-0.256
-312.953	226.219	0.089	0.144
-311.939	28.906	0.358	0.304
-310.924	-110.237	-0.189	-0.039
-309.910	14.798	-0.014	0.011
-308.895	-200.000	-0.080	-0.485
-307.880	800.000	-0.031	0.133
-306.866	-200.000	-0.018	0.126
-305.851	-42.376	0.214	0.109
-304.837	-157.290	0.224	-0.014
-303.822	28.118	-0.113	-0.095
-302.807	97.724	0.277	0.319
-301.793	-58.852	0.180	-0.078
-300.778	9.922	0.234	-0.178
-299.764	-171.067	-0.282	-0.010
-298.749	-80.194	-0.138	-0.046
-297.735	-200.000	0.006	0.244
-296.720	29.625	0.221	-0.188
-295.705	-96.713	-0.123	-0.032
-294.691	-200.000	0.008	0.035
-293.676	-19.721	-0.226	-0.140
-292.662	-117.905	0.348	0.062
-291.647	-50.877	-0.271	-0.127
-290.632	-200.000	0.025	0.187
-289.618	79.492	0.129	-0.138
-288.603	-152.193	-0.222	0.016
-287.589	-200.000	0.121	-0.558
-286.574	-54.433	0.242	0.110
-285.559	217.202	-0.258	0.410
-284.545	-60.297	-0.050	0.021
-283.530	86.059	0.157	0.173
-282.516	800.000	0.087	0.324
-281.501	-200.000	-0.191	0.001
-280.486	107.942	-0.016	0.019
-279.472	800.000	-0.077	0.220
-278.457	-200.000	-0.046	0.546
-277.443	-21.436	0.135	0.083
-276.428	800.000	-0.064	-0.219
-275.413	-68.472	0.290	0.113
-274.399	-200.000	-0.021	-0.118
-273.384	-200.000	-0.051	0.394
-272.370	-159.023	-0.237	-0.013
-271.355	-40.769	-0.184	-0.095
-270.340	-35.637	-0.372	0.202
-269.326	-109.192	-0.267	-0.057
-268.311	403.466	0.079	0.166
-267.297	-104.223	0.217	-0.050
-266.282	-99.775	-0.429	-0.107
-265.267	-200.000	0.069	0.336
-264.253	-45.603	0.305	0.151
-263.238	391.605	0.057	-0.119
-262.224	478.389	0.064	0.144
-261.209	-96.976	0.186	-0.049
-260.195	32.779	0.179	-0.155
-259.180	-124.124	-0.077	-0.012
-258.165	38.131	-0.143	-0.127
-257.151	71.834	0.047	-0.049
-256.136	250.837	-0.213	-0.361
-255.122	11.033	-0.233	-0.178
-254.107	33.965	-0.426	-0.371
-253.092	-200.000	0.001	-0.009
-252.078	15.153	-0.041	0.032
-251.063	3.973	-0.111	-0.081
-250.049	191.613	-0.099	0.149
-249.034	-161.216	0.202	-0.010
-248.019	-84.861	-0.251	0.079
-247.005	-200.000	0.061	0.332
-245.990	537.676	-0.217	0.516
-244.976	-200.000	0.063	0.456
-243.961	85.539	0.201	0.220
-242.946	-67.173	0.258	0.101
-241.932	145.382	-0.145	-0.193
-240.917	137.148	-0.227	-0.296
-239.903	-169.251	0.203	-0.007
-238.888	-117.100	-0.307	-0.056
-237.873	37.493	0.129	-0.114
-236.859	-88.127	-0.273	0.082
-235.844	-135.436	-0.308	-0.037
-234.830	-174.958	0.172	0.005
-233.815	391.555	-0.034	0.071
-232.800	341.601	0.105	0.205
-231.786	-103.356	0.127	0.030
-230.771	800.000	-0.045	-0.144
-229.757	254.471	-0.081	-0.139
-228.742	-129.903	-0.424	0.058
-227.727	106.867	-0.133	-0.158
-226.713	92.785	-0.175	0.197
-225.698	184.387	-0.181	-0.267
-224.684	31.617	0.126	0.108
-223.669	93.801	-0.018	0.020
-222.655	-89.407	-0.078	-0.023
-221.640	198.014	0.046	0.070
-220.625	338.467	-0.060	0.117
-219.611	73.199	0.286	0.298
-218.596	147.694	-0.169	0.227
-217.582	800.000	-0.010	0.042
-216.567	-45.153	0.076	0.038
-215.552	-128.887	-0.163	0.023
-214.538	634.893	-0.093	0.234
-213.523	800.000	-0.084	-0.234
-212.509	179.049	0.185	-0.269
-211.494	-31.040	0.089	0.050
-210.479	800.000	-0.059	-0.204
-209.465	-4.083	0.101	-0.070
-208.450	514.723	0.185	-0.431
-207.436	-29.495	-0.089	0.051
-206.421	133.955	-0.106	0.137
-205.406	-200.000	-0.023	0.000
-204.392	245.635	0.224	0.375
-203.377	-85.109	0.325	0.101
-202.363	-25.610	-0.161	0.095
-201.348	-98.860	-0.088	-0.022
-200.333	27.647	-0.088	0.074
-199.319	800.000	-0.038	0.146
-198.304	307.589	0.145	-0.269
-197.290	-153.370	0.106	0.007
-196.275	-56.803	0.071	-0.031
-195.260	112.765	0.151	-0.182
-194.246	13.606	0.209	-0.162
-193.231	107.805	0.144	-0.170
-192.217	-129.470	-0.233	0.032
-191.202	-85.135	-0.202	0.063
-190.187	498.652	0.114	-0.262
-189.173	800.000	0.046	-0.167
-188.158	418.890	0.012	0.026
-187.144	800.000	-0.116	0.432
-186.129	98.099	0.184	-0.211
-185.114	-200.000	-0.027	-0.352
-184.100	458.521	-0.179	-0.397
-183.085	132.930	-0.077	0.099
-182.071	116.976	-0.100	-0.122
-181.056	466.269	-0.028	0.063
-180.042	-45.916	0.061	-0.030
-179.027	-200.000	-0.009	0.105
-178.012	34.881	0.292	-0.255
-176.998	-200.000	0.022	-0.144
-175.983	528.155	-0.075	0.177
-174.969	299.555	0.130	0.238
-173.954	-41.992	-0.209	-0.107
-172.939	-165.828	0.068	0.003
-171.925	-19.484	0.509	-0.314
-170.910	-106.656	-0.201	0.044
-169.896	309.003	-0.096	-0.178
-168.881	-32.601	0.452	0.250
-167.866	127.089	-0.348	0.439
-166.852	54.075	-0.088	-0.084
-165.837	800.000	0.056	0.182
-164.823	-127.266	-0.157	0.023
-163.808	-2.175	-0.093	0.065
-162.793	-151.249	0.093	-0.007
-161.779	14.123	-0.262	-0.203
-160.764	-79.931	0.358	0.120
-159.750	86.602	-0.305	-0.334
-158.735	-200.000	-0.040	0.338
-157.720	800.000	-0.055	-0.178
-156.706	-93.735	0.340	0.093
-155.691	705.487	-0.098	-0.257
-154.677	800.000	-0.085	0.256
-153.662	421.696	-0.187	0.398
-152.647	800.000	0.006	0.026
-151.633	-200.000	0.018	-0.110
-150.618	-200.000	0.057	0.348
-149.604	-9.599	-0.381	0.252
-148.589	100.575	0.137	0.159
-147.574	-127.799	-0.211	-0.030
-146.560	-103.592	0.236	-0.055
-145.545	109.439	0.254	0.303
-144.531	-200.000	0.054	0.254
-143.516	64.483	0.094	-0.094
-142.502	358.641	0.091	0.182
-141.487	-5.681	-0.119	-0.081
-140.472	292.823	-0.079	0.143
-139.458	-147.816	0.224	0.019
-138.443	-25.386	-0.139	0.082
-137.429	-158.032	-0.262	0.015
-136.414	316.107	0.087	0.163
-135.399	-115.661	-0.142	-0.027
-134.385	800.000	0.056	-0.244
-133.370	-10.859	-0.319	-0.209
-132.356	196.712	-0.124	0.188
-131.341	-200.000	0.019	0.246
-130.326	-111.573	-0.363	-0.073
-129.312	-87.924	0.180	-0.054
-128.297	-99.611	-0.263	0.066
-127.283	-18.633	-0.289	-0.179
-126.268	800.000	-0.098	0.307
-125.253	-200.000	-0.041	-0.224
-124.239	-37.366	-0.177	-0.094
-123.224	-149.191	-0.285	-0.023
-122.210	92.200	0.262	-0.293
-121.195	72.988	0.071	-0.074
-120.180	-200.000	0.032	0.508
