DTS Sentinel unit serial number:	SN413079Multiplexer serial number:	ORYXHardware model number:	OX4-SRSoftware version number:	ORYX F/W v4.00 Oryx Data Collector v3.7.2.0data status	okinstallation	princeton_trtdifferential loss correction	single-endedforward channel	channel 3reverse channel	N/Adate	2019/09/12time	09:54:11forward acquisition time	60.00reverse acquisition time	0.00gamma	496.2192k internal	0.2300k external	0.2300temperature offset calibration	1.0034default loss term (dB/km)	0.3790temperature slope calibration	1.0000multiplexer offset coefficient	1.0000multiplexer slope coefficient	1.0000fibre end	0.00T internal ref (°C)	36.11T ext. ref 1 (°C)	1.87T ext. ref 2 (°C)	32.42length (m)	temperature (°C)	Stokes	anti-Stokes-747.200	301.588	0.053	0.101
-746.185	800.000	0.025	0.083
-745.171	58.423	-0.151	-0.152
-744.156	184.977	-0.054	0.082
-743.142	-200.000	0.037	0.274
-742.127	-200.000	0.009	-0.059
-741.112	340.452	-0.125	0.248
-740.098	-200.000	-0.102	0.000
-739.083	-148.864	0.100	0.008
-738.069	-200.000	0.003	0.091
-737.054	109.939	0.183	0.224
-736.039	-200.000	0.010	0.063
-735.025	-200.000	0.018	0.432
-734.010	-32.626	-0.182	-0.103
-732.996	-200.000	0.242	0.000
-731.981	128.644	0.113	-0.147
-730.966	-10.087	-0.245	0.166
-729.952	800.000	-0.053	0.153
-728.937	-142.809	-0.487	0.048
-727.923	-200.000	-0.012	-0.192
-726.908	559.013	0.013	-0.031
-725.894	466.099	-0.140	-0.321
-724.879	800.000	0.054	-0.187
-723.864	-37.597	0.061	0.033
-722.850	-77.387	-0.237	0.084
-721.835	309.832	-0.131	0.250
-720.821	800.000	0.054	0.221
-719.806	-72.355	0.252	0.095
-718.791	-22.575	0.051	-0.031
-717.777	-58.490	-0.121	0.053
-716.762	-109.615	-0.165	-0.035
-715.748	-200.000	-0.008	-0.183
-714.733	288.589	0.065	0.119
-713.718	-200.000	-0.015	-0.292
-712.704	-200.000	0.015	-0.180
-711.689	800.000	0.075	-0.306
-710.675	-153.875	-0.045	-0.003
-709.660	169.685	-0.056	0.081
-708.645	150.616	-0.162	0.225
-707.631	-200.000	0.054	0.249
-706.616	18.793	0.090	-0.074
-705.602	-200.000	0.022	-0.217
-704.587	-200.000	-0.022	0.145
-703.572	-85.952	-0.122	0.038
-702.558	72.804	-0.100	-0.107
-701.543	-25.643	0.334	-0.201
-700.529	-200.000	0.018	0.083
-699.514	-200.000	-0.005	0.266
-698.499	800.000	-0.058	0.197
-697.485	160.757	-0.087	-0.123
-696.470	52.683	-0.188	0.183
-695.456	130.652	-0.068	-0.089
-694.441	-74.727	0.281	0.103
-693.426	-106.986	0.262	0.059
-692.412	46.102	0.105	0.099
-691.397	-200.000	0.005	0.202
-690.383	102.383	0.215	0.256
-689.368	155.809	0.057	0.081
-688.354	168.861	0.122	-0.178
-687.339	44.092	-0.100	-0.093
-686.324	95.617	0.219	-0.254
-685.310	-135.598	-0.197	-0.024
-684.295	211.613	-0.110	-0.176
-683.281	40.908	-0.100	-0.092
-682.266	-36.212	0.244	-0.134
-681.251	-42.127	-0.237	0.123
-680.237	1.017	0.485	0.354
-679.222	-76.487	-0.244	-0.087
-678.208	-24.552	-0.264	-0.160
-677.193	-76.471	-0.301	0.108
-676.178	-35.463	-0.163	0.090
-675.164	-118.246	0.134	-0.024
-674.149	-46.719	-0.064	0.032
-673.135	-200.000	0.027	-0.165
-672.120	-60.234	0.323	-0.140
-671.105	5.088	-0.428	-0.320
-670.091	-37.792	0.441	-0.238
-669.076	-112.961	-0.205	0.041
-668.062	-81.020	0.189	0.064
-667.047	217.380	0.047	0.076
-666.032	-96.475	-0.251	0.067
-665.018	800.000	0.056	-0.245
-664.003	556.959	0.080	0.196
-662.989	62.852	0.248	0.252
-661.974	800.000	-0.059	0.191
-660.959	-200.000	-0.014	0.158
-659.945	296.951	0.150	0.280
-658.930	-43.317	0.187	-0.096
-657.916	427.627	0.076	0.167
-656.901	58.528	0.192	0.192
-655.886	20.352	0.136	-0.111
-654.872	-160.071	0.270	0.015
-653.857	-132.785	-0.206	-0.027
-652.843	-64.724	-0.273	0.113
-651.828	31.625	-0.082	0.072
-650.814	-140.460	-0.189	0.020
-649.799	-200.000	-0.003	0.116
-648.784	-110.369	-0.371	0.078
-647.770	-136.257	-0.154	0.018
-646.755	-96.980	-0.177	-0.047
-645.741	-11.541	0.115	-0.077
-644.726	-200.000	0.054	-0.367
-643.711	800.000	0.044	0.148
-642.697	320.335	0.126	-0.243
-641.682	800.000	-0.053	0.214
-640.668	-89.442	0.179	-0.053
-639.653	800.000	0.011	0.043
-638.638	-163.401	-0.356	-0.017
-637.624	172.792	-0.194	0.284
-636.609	257.315	0.038	-0.066
-635.595	7.096	-0.050	0.038
-634.580	-143.404	-0.192	0.019
-633.565	-89.384	-0.217	-0.065
-632.551	-109.977	-0.043	0.009
-631.536	450.734	0.013	0.030
-630.522	-141.245	-0.179	0.018
-629.507	800.000	0.132	0.402
-628.492	-40.549	-0.154	0.081
-627.478	-68.942	0.249	0.098
-626.463	739.816	-0.053	-0.144
-625.449	-147.225	0.212	0.018
-624.434	765.170	-0.108	-0.299
-623.419	-76.036	0.314	-0.113
-622.405	-64.035	0.238	-0.099
-621.390	-97.511	-0.167	0.044
-620.376	-69.915	-0.056	-0.022
-619.361	-25.682	-0.144	0.086
-618.346	13.448	0.460	-0.362
-617.332	151.038	0.196	0.271
-616.317	-85.021	-0.231	0.073
-615.303	-61.972	0.144	0.061
-614.288	72.377	0.173	0.183
-613.273	542.937	0.092	0.222
-612.259	-200.000	0.013	-0.062
-611.244	116.987	-0.094	0.117
-610.230	159.110	0.088	-0.125
-609.215	-42.144	0.311	0.161
-608.201	6.902	-0.249	0.188
-607.186	-26.824	0.158	0.094
-606.171	-34.482	-0.175	0.098
-605.157	-99.226	-0.293	0.075
-604.142	-118.100	-0.241	0.044
-603.128	-127.806	-0.116	0.017
-602.113	-200.000	-0.066	0.305
-601.098	-135.869	0.110	0.013
-600.084	-198.066	0.315	0.002
-599.069	-104.360	0.220	-0.052
-598.055	-200.000	-0.015	0.091
-597.040	-42.205	0.215	0.112
-596.025	800.000	-0.107	0.311
-595.011	-37.587	-0.097	-0.052
-593.996	165.305	-0.210	-0.301
-592.982	800.000	0.110	-0.355
-591.967	800.000	-0.064	-0.213
-590.952	19.481	0.264	-0.215
-589.938	800.000	-0.066	0.239
-588.923	-155.022	-0.145	-0.010
-587.909	-76.620	0.233	-0.083
-586.894	-200.000	-0.001	0.202
-585.879	-71.954	-0.359	-0.135
-584.865	172.011	-0.132	-0.193
-583.850	163.702	-0.084	0.120
-582.836	-19.354	-0.150	-0.094
-581.821	233.306	-0.064	0.106
-580.806	-200.000	-0.047	-0.449
-579.792	800.000	-0.108	0.337
-578.777	-200.000	0.006	0.043
-577.763	118.467	-0.091	-0.113
-576.748	311.150	0.019	-0.037
-575.733	-112.876	-0.086	0.017
-574.719	-69.681	0.067	-0.026
-573.704	-109.062	0.066	0.014
-572.690	165.742	0.096	-0.138
-571.675	-54.086	-0.155	0.071
-570.661	-158.675	0.186	0.011
-569.646	428.907	-0.108	0.237
-568.631	388.290	-0.111	-0.234
-567.617	-200.000	-0.003	0.098
-566.602	-101.419	0.267	0.066
-565.588	-151.424	0.289	0.022
-564.573	54.111	-0.088	-0.086
-563.558	-200.000	0.065	0.314
-562.544	-193.264	-0.148	0.001
-561.529	441.478	0.045	0.099
-560.515	-93.409	-0.195	0.055
-559.500	-12.940	0.176	0.116
-558.485	18.729	0.238	-0.193
-557.471	-49.228	-0.123	0.059
-556.456	-52.403	0.199	-0.093
-555.442	151.851	0.010	-0.013
-554.427	-138.941	0.078	-0.009
-553.412	-84.256	-0.478	0.153
-552.398	-200.000	0.045	-0.257
-551.383	-200.000	-0.041	-0.367
-550.369	-83.951	-0.079	-0.025
-549.354	16.264	-0.218	0.174
-548.339	52.970	0.256	-0.248
-547.325	-38.019	0.223	0.120
-546.310	605.116	0.032	0.079
-545.296	-200.000	0.002	-0.267
-544.281	-42.434	0.173	-0.089
-543.266	-116.751	0.112	0.021
-542.252	-200.000	0.088	0.467
-541.237	626.705	-0.075	0.191
-540.223	-96.220	-0.396	0.106
-539.208	-121.042	0.369	-0.063
-538.193	-77.223	0.154	0.054
-537.179	-83.028	-0.149	0.049
-536.164	281.328	0.201	0.364
-535.150	247.569	0.043	0.073
-534.135	-124.398	0.153	0.024
-533.121	-200.000	-0.020	0.094
-532.106	800.000	-0.064	-0.222
-531.091	-71.122	-0.286	0.109
-530.077	-155.109	0.079	-0.005
-529.062	53.559	0.107	-0.104
-528.048	-115.106	-0.046	-0.009
-527.033	250.009	-0.042	0.073
-526.018	-139.677	-0.154	0.017
-525.004	165.112	0.049	-0.070
-523.989	786.208	-0.050	0.139
-522.975	-58.362	-0.099	0.044
-521.960	142.761	0.158	0.212
-520.945	800.000	0.021	-0.063
-519.931	-94.781	-0.139	-0.038
-518.916	-200.000	-0.039	-0.293
-517.902	-121.408	-0.449	-0.076
-516.887	36.464	-0.130	0.116
-515.872	216.005	-0.130	0.209
-514.858	243.119	-0.070	0.118
-513.843	297.115	-0.121	-0.224
-512.829	455.637	-0.086	-0.192
-511.814	776.700	-0.111	0.307
-510.799	-80.649	-0.196	0.066
-509.785	800.000	0.040	-0.142
-508.770	-91.040	-0.186	-0.054
-507.756	703.324	-0.033	-0.088
-506.741	-64.163	0.147	-0.061
-505.726	-200.000	0.004	0.227
-504.712	-44.424	0.036	0.018
-503.697	-81.965	0.201	-0.066
-502.683	-111.281	-0.189	-0.039
-501.668	-69.383	0.146	-0.057
-500.653	701.234	-0.022	-0.058
-499.639	-200.000	0.001	-0.129
-498.624	129.207	-0.137	0.177
-497.610	-75.829	-0.137	0.049
-496.595	-200.000	0.089	0.000
-495.581	-200.000	0.008	-0.149
-494.566	-109.517	0.175	-0.037
-493.551	-59.828	-0.263	0.114
-492.537	-7.603	-0.191	-0.131
-491.522	-136.568	-0.190	-0.022
-490.508	800.000	-0.046	-0.149
-489.493	-200.000	0.012	0.183
-488.478	241.590	0.253	-0.428
-487.464	218.218	0.053	-0.085
-486.449	-107.462	0.464	-0.103
-485.435	800.000	-0.024	0.090
-484.420	-200.000	-0.005	-0.053
-483.405	-87.176	-0.194	0.060
-482.391	-116.621	-0.175	0.032
-481.376	-148.832	0.274	-0.022
-480.362	393.229	-0.143	0.300
-479.347	-118.822	-0.064	-0.011
-478.332	132.097	0.226	0.294
-477.318	126.863	-0.041	0.053
-476.303	486.662	0.061	-0.140
-475.289	800.000	0.025	-0.097
-474.274	-104.686	0.188	0.044
-473.259	800.000	-0.075	0.244
-472.245	800.000	0.040	-0.153
-471.230	-132.851	0.118	-0.015
-470.216	177.945	-0.141	0.207
-469.201	522.229	0.050	-0.118
-468.186	-122.320	0.271	0.045
-467.172	-146.726	0.316	0.028
-466.157	42.015	-0.277	0.254
-465.143	-200.000	0.050	-0.264
-464.128	800.000	0.026	-0.105
-463.113	82.975	-0.160	-0.175
-462.099	800.000	-0.019	0.068
-461.084	-186.003	0.108	0.002
-460.070	-175.674	-0.320	0.009
-459.055	-200.000	0.017	-0.280
-458.040	800.000	-0.030	-0.129
-457.026	-200.000	0.047	-0.242
-456.011	6.026	-0.040	0.030
-454.997	-143.610	-0.166	-0.016
-453.982	-50.217	0.396	-0.189
-452.968	-198.455	0.003	0.000
-451.953	262.206	0.227	-0.396
-450.938	-47.758	-0.166	-0.081
-449.924	-136.871	-0.185	0.021
-448.909	44.746	0.058	-0.054
-447.895	-63.734	-0.219	0.090
-446.880	-43.644	-0.149	-0.076
-445.865	800.000	0.102	-0.371
-444.851	-14.219	-0.161	-0.104
-443.836	-61.437	-0.243	-0.103
-442.822	-200.000	-0.019	-0.189
-441.807	-200.000	0.024	-0.180
-440.792	-200.000	0.018	0.167
-439.778	49.295	0.106	-0.101
-438.763	431.880	0.058	0.128
-437.749	-40.024	-0.177	0.093
-436.734	-6.758	0.320	-0.219
-435.719	-45.168	0.324	0.162
-434.705	295.194	0.078	-0.144
-433.690	237.643	-0.140	-0.234
-432.676	800.000	-0.023	0.088
-431.661	361.154	0.061	-0.124
-430.646	-92.647	0.152	0.043
-429.632	-24.983	-0.096	0.057
-428.617	-59.008	-0.108	0.047
-427.603	211.234	0.084	-0.132
-426.588	-22.996	-0.178	-0.108
-425.573	-200.000	-0.031	0.173
-424.559	-143.003	0.196	-0.019
-423.544	703.554	0.126	-0.336
-422.530	524.066	-0.108	-0.256
-421.515	-142.376	0.347	-0.034
-420.500	783.937	-0.050	0.137
-419.486	126.923	-0.054	-0.068
-418.471	-200.000	-0.004	-0.146
-417.457	43.178	0.247	-0.227
-416.442	-61.948	-0.320	-0.135
-415.428	-62.838	-0.241	0.101
-414.413	-22.230	-0.255	-0.156
-413.398	-95.839	0.219	-0.059
-412.384	-10.373	0.066	-0.044
-411.369	800.000	0.065	-0.286
-410.355	77.964	-0.229	0.246
-409.340	-200.000	0.027	-0.158
-408.325	78.678	0.193	-0.208
-407.311	-184.660	-0.043	0.001
-406.296	800.000	0.041	-0.175
-405.282	-93.775	0.192	-0.053
-404.267	-14.347	0.147	-0.096
-403.252	45.433	0.288	0.268
-402.238	-109.274	0.079	-0.017
-401.223	800.000	0.104	-0.357
-400.209	-120.061	-0.215	-0.037
-399.194	-200.000	-0.006	0.044
-398.179	69.433	0.201	-0.208
-397.165	800.000	0.039	0.160
-396.150	-150.945	-0.076	0.006
-395.136	-200.000	0.004	0.107
-394.121	-200.000	0.037	0.217
-393.106	800.000	0.066	0.189
-392.092	731.230	-0.074	-0.198
-391.077	-128.669	-0.236	0.033
-390.063	800.000	0.077	-0.267
-389.048	-167.461	0.282	0.011
-388.033	322.578	-0.071	0.135
-387.019	193.054	-0.119	0.181
-386.004	62.327	0.274	-0.275
-384.990	123.510	-0.249	0.315
-383.975	800.000	0.037	-0.118
-382.960	4.751	-0.067	0.050
-381.946	325.172	0.086	-0.166
-380.931	97.522	0.076	0.088
-379.917	-200.000	0.007	0.389
-378.902	85.949	-0.156	-0.173
-377.888	151.160	-0.119	0.163
-376.873	-78.098	0.164	-0.057
-375.858	-200.000	-0.001	0.130
-374.844	-47.988	-0.096	-0.047
-373.829	30.762	0.201	0.173
-372.815	-200.000	0.002	0.027
-371.800	442.513	0.126	0.278
-370.785	344.040	-0.154	0.303
-369.771	-195.939	0.164	0.001
-368.756	-141.932	0.170	-0.017
-367.742	601.817	-0.024	-0.061
-366.727	800.000	-0.037	-0.154
-365.712	-111.861	-0.195	-0.040
-364.698	140.719	-0.117	-0.156
-363.683	10.226	0.346	0.264
-362.669	-156.594	-0.243	-0.015
-361.654	-100.970	0.268	-0.066
-360.639	-200.000	-0.039	0.354
-359.625	-117.716	0.143	0.026
-358.610	-166.281	-0.150	0.006
-357.596	29.235	0.071	-0.061
-356.581	301.739	-0.115	-0.214
-355.566	-66.497	-0.063	0.025
-354.552	-159.131	0.349	-0.020
-353.537	-79.148	0.084	0.029
-352.523	-200.000	0.038	0.169
-351.508	-94.778	0.265	0.072
-350.493	-13.354	0.327	0.213
-349.479	186.565	-0.159	-0.238
-348.464	11.926	0.068	0.052
-347.450	-200.000	-0.055	-0.392
-346.435	166.366	-0.238	-0.338
-345.420	-13.368	0.240	-0.156
-344.406	-200.000	-0.018	0.255
-343.391	22.200	0.134	0.110
-342.377	-89.854	-0.328	0.096
-341.362	-69.828	0.052	-0.020
-340.348	150.646	-0.054	-0.073
-339.333	8.977	-0.257	-0.194
-338.318	-54.512	-0.189	-0.086
-337.304	-67.431	0.354	0.140
-336.289	-57.102	0.138	0.061
-335.275	432.369	-0.128	0.279
-334.260	-121.190	0.235	-0.039
-333.245	-200.000	-0.028	-0.235
-332.231	-46.408	-0.260	-0.128
-331.216	800.000	0.062	-0.197
-330.202	-200.000	0.003	-0.016
-329.187	105.476	-0.069	0.082
-328.172	-200.000	-0.053	-0.294
-327.158	-200.000	0.030	0.240
-326.143	-94.618	0.277	0.076
-325.129	369.965	-0.137	0.279
-324.114	670.290	0.218	0.565
-323.099	-152.431	-0.140	0.010
-322.085	-2.593	0.080	0.056
-321.070	-142.478	0.109	-0.011
-320.056	-39.446	0.143	-0.075
-319.041	-157.961	-0.369	-0.022
-318.026	15.018	-0.094	-0.074
-317.012	-68.328	-0.045	0.017
-315.997	373.028	-0.103	0.209
-314.983	-104.877	-0.207	0.048
-313.968	324.603	0.169	0.324
-312.953	-6.476	0.115	-0.078
-311.939	0.520	0.244	-0.175
-310.924	800.000	-0.115	0.452
-309.910	-200.000	-0.001	-0.096
-308.895	246.375	-0.183	-0.309
-307.880	-200.000	-0.046	-0.325
-306.866	800.000	0.037	-0.125
-305.851	94.968	-0.125	-0.143
-304.837	7.439	-0.172	-0.129
-303.822	308.628	0.089	-0.167
-302.807	-141.338	0.189	0.019
-301.793	-172.618	-0.354	-0.011
-300.778	800.000	0.162	-0.458
-299.764	158.271	0.153	0.212
-298.749	53.619	0.178	0.172
-297.735	-44.910	0.387	-0.193
-296.720	-91.898	-0.084	-0.024
-295.705	53.747	0.242	-0.233
-294.691	-151.365	-0.292	0.022
-293.676	-77.975	-0.126	0.043
-292.662	466.452	-0.181	0.405
-291.647	52.977	0.209	0.200
-290.632	800.000	-0.091	-0.268
-289.618	123.877	0.127	-0.159
-288.603	-7.131	0.238	-0.162
-287.589	-132.029	-0.217	0.028
-286.574	-91.970	-0.151	0.043
-285.559	173.083	-0.094	-0.136
-284.545	-200.000	-0.011	0.497
-283.530	-200.000	0.010	0.343
-282.516	-21.692	0.321	-0.196
-281.501	-200.000	0.010	-0.200
-280.486	89.552	-0.193	-0.216
-279.472	232.179	0.175	-0.288
-278.457	19.337	-0.159	-0.128
-277.443	40.111	-0.103	-0.092
-276.428	-124.577	-0.160	0.025
-275.413	800.000	0.040	-0.170
-274.399	-49.289	-0.240	0.115
-273.384	800.000	0.066	-0.188
-272.370	-53.743	-0.161	-0.074
-271.355	-70.100	-0.240	0.091
-270.340	319.803	-0.096	-0.182
-269.326	-81.121	0.324	-0.107
-268.311	-79.330	0.137	-0.046
-267.297	-27.952	-0.191	0.111
-266.282	15.494	-0.189	0.149
-265.267	-44.508	0.095	-0.047
-264.253	12.418	0.222	0.171
-263.238	-200.000	-0.025	0.272
-262.224	185.361	-0.106	-0.158
-261.209	-50.955	-0.195	0.092
-260.195	-200.000	0.049	-0.241
-259.180	741.342	-0.036	-0.097
-258.165	307.084	-0.163	-0.303
-257.151	518.833	0.044	-0.104
-256.136	-200.000	0.020	0.120
-255.122	38.835	-0.214	0.191
-254.107	-97.700	-0.170	-0.044
-253.092	36.025	-0.024	0.021
-252.078	-2.191	0.138	0.097
-251.063	-123.650	-0.334	0.053
-250.049	800.000	0.086	0.274
-249.034	13.665	0.071	0.055
-248.019	-84.330	-0.041	0.013
-247.005	-107.546	-0.114	-0.025
-245.990	353.563	-0.082	0.163
-244.976	-200.000	0.002	-0.257
-243.961	-110.825	-0.195	-0.040
-242.946	-55.665	-0.199	0.089
-241.932	596.666	-0.155	-0.383
-240.917	114.886	-0.091	0.111
-239.903	78.126	-0.179	-0.191
-238.888	-105.157	0.166	-0.038
-237.873	109.894	0.083	0.099
-236.859	-117.744	-0.120	0.022
-235.844	48.106	0.140	-0.131
-234.830	-108.659	0.151	0.032
-233.815	-8.610	-0.126	0.084
-232.800	-139.476	0.314	-0.034
-231.786	800.000	0.030	0.121
-230.771	119.660	-0.054	0.067
-229.757	-151.353	0.710	0.053
-228.742	29.004	-0.153	-0.130
-227.727	168.445	0.235	-0.335
-226.713	99.958	-0.077	0.089
-225.698	210.338	-0.101	0.159
-224.684	-200.000	-0.020	0.336
-223.669	146.752	-0.098	-0.132
-222.655	-9.752	0.070	-0.047
-221.640	-200.000	-0.005	-0.267
-220.625	243.762	-0.043	0.071
-219.611	-35.071	-0.258	0.140
-218.596	-120.380	0.332	-0.057
-217.582	-200.000	-0.026	0.173
-216.567	12.197	0.064	0.049
-215.552	-139.117	-0.276	-0.030
-214.538	-23.850	0.502	-0.301
-213.523	-136.995	0.228	-0.026
-212.509	52.237	0.154	-0.147
-211.494	-167.669	-0.199	-0.008
-210.479	93.038	-0.180	0.203
-209.465	61.341	-0.300	0.298
-208.450	-158.308	0.172	-0.010
-207.436	-49.705	-0.067	0.032
-206.421	10.256	0.190	-0.144
-205.406	200.043	0.034	-0.053
-204.392	19.318	0.243	0.195
-203.377	50.159	-0.155	0.146
-202.363	-54.896	-0.199	-0.089
-201.348	555.743	0.048	0.114
-200.333	46.875	0.324	0.300
-199.319	-200.000	-0.049	0.242
-198.304	20.457	-0.120	-0.097
-197.290	-136.866	-0.067	-0.008
-196.275	346.515	0.013	-0.025
-195.260	800.000	-0.052	-0.213
-194.246	126.326	0.169	0.214
-193.231	64.555	0.295	-0.297
-192.217	-58.879	-0.266	0.115
-191.202	800.000	-0.045	-0.142
-190.187	-111.681	-0.303	0.061
-189.173	-105.025	0.062	-0.014
-188.158	-8.064	0.195	0.131
-187.144	-200.000	-0.066	0.352
-186.129	666.872	0.138	0.355
-185.114	47.602	0.190	-0.177
-184.100	-142.558	0.517	0.051
-183.085	20.977	-0.061	0.049
-182.071	800.000	0.058	-0.209
-181.056	800.000	0.049	0.188
-180.042	799.626	0.075	0.205
-179.027	-60.960	0.116	0.049
-178.012	-125.900	0.143	0.021
-176.998	800.000	-0.123	0.354
-175.983	399.760	-0.098	0.205
-174.969	-69.197	-0.238	-0.091
-173.954	70.355	0.227	0.234
-172.939	-9.972	0.127	-0.084
-171.925	158.619	-0.037	-0.051
-170.910	-102.648	-0.111	0.026
-169.896	-200.000	0.044	-0.569
-168.881	76.863	-0.125	0.132
-167.866	-15.172	-0.218	-0.139
-166.852	343.202	-0.159	0.310
-165.837	800.000	-0.147	0.536
-164.823	315.650	-0.096	0.180
-163.808	-200.000	-0.006	-0.351
-162.793	-200.000	0.019	0.333
-161.779	800.000	-0.034	0.108
-160.764	-200.000	-0.011	0.196
-159.750	192.492	0.146	-0.219
-158.735	-13.032	0.193	0.125
-157.720	-95.647	-0.366	0.098
-156.706	8.586	0.133	0.100
-155.691	773.499	-0.064	0.175
-154.677	800.000	-0.075	-0.284
-153.662	-27.479	0.258	0.150
-152.647	-63.898	0.105	0.043
-151.633	-181.421	-0.279	0.005
-150.618	245.459	-0.235	-0.394
-149.604	-4.789	0.196	-0.135
-148.589	40.824	-0.310	0.279
-147.574	19.407	-0.128	-0.103
-146.560	-193.685	0.313	0.003
-145.545	9.257	0.100	0.076
-144.531	-107.249	0.209	-0.046
-143.516	-49.772	-0.323	-0.153
-142.502	-173.678	-0.079	0.002
-141.487	-11.107	0.201	0.132
-140.472	-152.850	0.328	-0.023
-139.458	73.671	-0.052	0.055
-138.443	-68.836	-0.152	-0.058
-137.429	-61.905	0.255	0.106
-136.414	-129.141	0.146	-0.020
-135.399	61.618	-0.195	0.193
-134.385	-23.476	-0.205	-0.123
-133.370	166.741	-0.096	-0.136
-132.356	284.942	0.313	0.562
-131.341	4.175	0.113	0.083
-130.326	-200.000	0.012	-0.074
-129.312	-200.000	-0.010	-0.138
-128.297	-4.495	0.163	0.112
-127.283	-200.000	0.023	-0.143
-126.268	-132.215	-0.137	-0.018
-125.253	-121.163	0.399	0.067
-124.239	51.121	-0.332	0.313
-123.224	-149.234	0.218	0.017
-122.210	-19.124	0.048	-0.030
-121.195	-200.000	-0.006	-0.108
