DTS Sentinel unit serial number:	SN413079Multiplexer serial number:	ORYXHardware model number:	OX4-SRSoftware version number:	ORYX F/W v4.00 Oryx Data Collector v3.7.2.0data status	okinstallation	princeton_trtdifferential loss correction	single-endedforward channel	channel 3reverse channel	N/Adate	2019/09/12time	19:37:04forward acquisition time	15.00reverse acquisition time	0.00gamma	496.2192k internal	0.2322k external	0.2322temperature offset calibration	1.0101default loss term (dB/km)	0.3790temperature slope calibration	1.0000multiplexer offset coefficient	1.0000multiplexer slope coefficient	1.0000fibre end	0.00T internal ref (°C)	32.19T ext. ref 1 (°C)	3.25T ext. ref 2 (°C)	26.71length (m)	temperature (°C)	Stokes	anti-Stokes-747.200	630.269	-0.196	0.500
-746.185	17.292	-0.732	0.587
-745.171	-67.844	0.718	-0.283
-744.156	-96.031	0.575	0.154
-743.142	-40.725	-0.615	-0.322
-742.127	-200.000	-0.019	0.292
-741.112	-39.394	0.055	0.029
-740.098	269.104	-0.293	0.519
-739.083	3.002	0.479	0.352
-738.069	-75.047	0.868	0.314
-737.054	444.658	-0.243	-0.539
-736.039	-200.000	0.021	0.201
-735.025	-200.000	-0.049	0.400
-734.010	-182.541	0.993	-0.018
-732.996	-106.903	-1.191	0.266
-731.981	-101.072	-0.831	0.206
-730.966	255.592	0.298	-0.516
-729.952	228.030	-0.533	0.876
-728.937	14.326	-0.118	-0.093
-727.923	-2.947	-0.600	0.423
-726.908	-200.000	-0.043	0.621
-725.894	47.562	-0.623	-0.586
-724.879	74.000	-0.552	-0.584
-723.864	-200.000	-0.032	0.285
-722.850	-200.000	0.051	0.638
-721.835	-200.000	0.021	0.801
-720.821	-126.423	0.640	0.096
-719.806	800.000	0.248	-0.760
-718.791	511.222	0.272	0.638
-717.777	-178.641	-0.756	0.018
-716.762	197.821	0.211	0.326
-715.748	800.000	0.150	-0.447
-714.733	477.032	0.122	0.279
-713.718	382.460	-0.182	-0.377
-712.704	608.444	0.150	-0.378
-711.689	-129.965	0.292	-0.040
-710.675	758.997	0.244	-0.666
-709.660	-135.836	-0.468	-0.056
-708.645	-35.281	-0.293	-0.161
-707.631	78.742	-0.297	0.320
-706.616	-35.987	-0.129	-0.070
-705.602	800.000	0.118	-0.373
-704.587	-200.000	-0.021	0.620
-703.572	-46.886	0.617	0.304
-702.558	308.780	-0.089	-0.167
-701.543	-93.167	-1.158	0.325
-700.529	800.000	0.150	0.551
-699.514	-166.317	-0.188	-0.008
-698.499	-99.795	-0.493	0.124
-697.485	596.111	-0.236	0.589
-696.470	76.417	0.709	-0.757
-695.456	68.173	0.109	0.112
-694.441	-122.782	0.765	0.125
-693.426	128.125	0.355	0.455
-692.412	-200.000	-0.032	0.362
-691.397	-22.023	-0.457	-0.280
-690.383	-34.731	0.416	0.229
-689.368	-129.412	0.613	-0.086
-688.354	732.759	-0.246	-0.663
-687.339	505.290	0.162	0.377
-686.324	36.445	0.203	-0.180
-685.310	-200.000	0.019	0.339
-684.295	-132.658	-0.275	-0.035
-683.281	86.552	-0.379	0.421
-682.266	-200.000	-0.121	0.924
-681.251	-200.000	-0.047	0.539
-680.237	120.249	-0.252	-0.315
-679.222	-200.000	0.068	-0.327
-678.208	-24.847	0.939	0.562
-677.193	800.000	-0.196	0.693
-676.178	11.355	0.201	0.155
-675.164	6.538	0.224	0.168
-674.149	289.404	-0.344	-0.629
-673.135	53.447	0.099	-0.096
-672.120	181.261	-0.349	0.517
-671.105	83.613	0.341	-0.375
-670.091	755.055	-0.132	-0.361
-669.076	-17.425	0.286	0.181
-668.062	612.004	0.237	0.597
-667.047	-33.812	0.419	0.233
-666.032	800.000	-0.104	0.402
-665.018	139.465	0.509	-0.675
-664.003	800.000	0.082	0.347
-662.989	-130.639	0.552	-0.075
-661.974	-52.301	0.493	0.230
-660.959	170.610	0.334	0.482
-659.945	-123.036	0.726	-0.117
-658.930	-31.165	0.166	0.094
-657.916	-200.000	0.037	0.232
-656.901	106.541	0.261	0.312
-655.886	-37.766	-0.236	-0.126
-654.872	-138.491	-1.146	-0.127
-653.857	-200.000	0.075	0.659
-652.843	-3.518	-0.339	-0.237
-651.828	-200.000	0.056	0.743
-650.814	30.283	0.273	0.234
-649.799	-7.985	0.265	-0.180
-648.784	71.554	-0.259	-0.271
-647.770	531.750	-0.175	0.416
-646.755	281.502	0.435	0.784
-645.741	161.143	0.418	0.589
-644.726	800.000	-0.035	-0.127
-643.711	-200.000	-0.089	-0.565
-642.697	-52.218	0.524	0.245
-641.682	-99.271	1.003	0.255
-640.668	115.601	0.217	-0.267
-639.653	-31.133	-0.674	-0.382
-638.638	144.867	-0.110	0.148
-637.624	-178.093	-0.197	-0.005
-636.609	-200.000	0.042	0.403
-635.595	191.038	-0.029	-0.044
-634.580	-200.000	0.087	0.739
-633.565	630.766	0.240	0.612
-632.551	95.829	0.390	0.447
-631.536	-132.385	0.101	-0.013
-630.522	-21.723	-0.492	0.301
-629.507	91.656	-0.269	0.304
-628.492	-200.000	0.008	0.126
-627.478	251.388	-0.576	0.985
-626.463	46.993	-0.216	-0.202
-625.449	50.411	0.369	-0.350
-624.434	111.736	-0.301	0.365
-623.419	28.359	-0.346	0.294
-622.405	-73.271	0.426	0.157
-621.390	22.787	-0.332	-0.274
-620.376	800.000	-0.237	-0.751
-619.361	74.346	0.431	0.455
-618.346	25.501	-0.197	0.164
-617.332	-69.773	0.293	-0.112
-616.317	-127.901	0.561	0.081
-615.303	548.038	0.303	-0.729
-614.288	-2.245	0.208	-0.147
-613.273	26.611	0.470	0.395
-612.259	-12.679	-0.202	0.132
-611.244	372.538	0.212	0.433
-610.230	169.848	0.335	-0.481
-609.215	-116.296	0.598	0.111
-608.201	-81.072	0.730	0.243
-607.186	-35.373	-0.434	-0.237
-606.171	-46.627	-0.243	0.120
-605.157	-12.047	-0.171	-0.112
-604.142	142.112	-0.350	-0.467
-603.128	335.461	0.199	-0.388
-602.113	800.000	-0.163	-0.511
-601.098	-200.000	0.110	0.940
-600.084	163.949	0.106	-0.149
-599.069	-102.106	0.309	0.075
-598.055	-102.072	-0.769	-0.186
-597.040	-90.631	-0.902	0.262
-596.025	-4.600	-0.490	0.340
-595.011	6.011	-0.665	-0.495
-593.996	-109.515	-0.596	-0.126
-592.982	-137.964	-0.474	0.053
-591.967	-200.000	0.166	-0.874
-590.952	800.000	0.239	-0.913
-589.938	-200.000	-0.070	0.789
-588.923	139.667	-0.147	-0.194
-587.909	617.377	0.185	0.466
-586.894	543.418	-0.215	-0.514
-585.879	-17.083	0.160	0.101
-584.865	279.798	-0.208	-0.373
-583.850	-154.892	-0.413	-0.027
-582.836	-200.000	0.157	-0.991
-581.821	-41.906	-0.869	-0.447
-580.806	800.000	-0.309	0.953
-579.792	97.431	-0.512	-0.590
-578.777	416.416	-0.465	-0.997
-577.763	-5.195	-0.446	-0.308
-576.748	800.000	-0.230	0.688
-575.733	800.000	-0.373	1.213
-574.719	-68.041	-0.599	-0.235
-573.704	-37.299	-0.510	-0.274
-572.690	216.136	-0.131	-0.208
-571.675	-200.000	0.012	0.458
-570.661	-18.194	-0.841	0.528
-569.646	114.698	-0.757	-0.925
-568.631	-17.608	-0.217	0.137
-567.617	-57.707	-0.325	0.143
-566.602	172.880	0.318	-0.459
-565.588	171.374	0.171	-0.246
-564.573	-169.339	-0.325	0.012
-563.558	117.205	0.177	-0.218
-562.544	-181.072	-0.468	-0.009
-561.529	-14.899	-0.279	0.180
-560.515	-119.971	-0.113	-0.019
-559.500	0.412	0.412	0.295
-558.485	-200.000	-0.044	-0.503
-557.471	636.006	0.260	0.662
-556.456	-170.720	0.130	0.004
-555.442	-200.000	0.204	0.996
-554.427	800.000	0.038	-0.118
-553.412	-15.213	0.383	-0.246
-552.398	327.051	-0.126	0.242
-551.383	413.813	-0.358	0.764
-550.369	665.750	-0.340	0.880
-549.354	34.172	-0.334	0.292
-548.339	800.000	-0.366	1.143
-547.325	300.407	-0.309	0.570
-546.310	110.283	0.456	-0.549
-545.296	-200.000	-0.048	-0.737
-544.281	-30.797	-0.429	0.243
-543.266	108.015	-0.150	-0.179
-542.252	54.811	-0.269	-0.260
-541.237	-87.430	-0.180	-0.055
-540.223	-81.144	0.175	0.058
-539.208	-19.771	-0.269	0.167
-538.193	107.029	-0.334	-0.397
-537.179	-185.467	-0.557	-0.009
-536.164	275.238	0.364	0.647
-535.150	-32.637	-0.438	-0.244
-534.135	48.243	-0.359	0.336
-533.121	-200.000	-0.064	-0.513
-532.106	486.037	0.067	-0.153
-531.091	800.000	0.311	1.162
-530.077	-98.403	0.753	-0.193
-529.062	-200.000	-0.011	0.078
-528.048	-132.944	-0.559	-0.071
-527.033	800.000	-0.100	-0.311
-526.018	13.186	0.364	-0.282
-525.004	19.450	0.398	0.320
-523.989	-200.000	0.098	-0.439
-522.975	113.210	0.331	0.402
-521.960	-132.728	0.277	-0.035
-520.945	537.591	0.028	-0.066
-519.931	668.587	-0.165	0.427
-518.916	429.148	0.291	-0.630
-517.902	-83.533	-0.385	0.123
-516.887	27.362	0.900	0.757
-515.872	-2.605	-0.273	0.191
-514.858	-200.000	-0.117	0.729
-513.843	27.943	0.329	-0.277
-512.829	-15.830	0.715	-0.456
-511.814	-200.000	0.049	-0.290
-510.799	120.665	-0.457	0.569
-509.785	-200.000	-0.007	-0.194
-508.770	14.444	0.171	0.134
-507.756	-35.205	-0.764	-0.416
-506.741	-100.350	1.313	0.326
-505.726	36.274	0.498	0.439
-504.712	-24.625	-0.708	-0.422
-503.697	403.799	-0.239	-0.504
-502.683	39.606	0.494	-0.443
-501.668	277.468	0.159	0.283
-500.653	-124.275	-1.071	0.168
-499.639	-200.000	0.138	-0.715
-498.624	154.358	-0.479	0.658
-497.610	55.696	0.171	0.166
-496.595	-147.070	0.153	-0.013
-495.581	-152.836	-0.429	0.030
-494.566	-200.000	-0.104	-0.744
-493.551	125.354	0.280	-0.354
-492.537	170.680	-0.530	-0.760
-491.522	800.000	0.046	-0.141
-490.508	-64.545	-0.252	0.102
-489.493	-200.000	-0.037	0.207
-488.478	84.638	0.071	0.078
-487.464	107.642	-0.365	0.434
-486.449	-164.841	0.863	-0.039
-485.435	378.701	-0.139	-0.285
-484.420	269.760	0.189	-0.331
-483.405	210.431	0.280	-0.439
-482.391	592.572	0.233	-0.576
-481.376	24.594	-0.339	-0.281
-480.362	-4.288	0.391	-0.271
-479.347	148.842	-0.426	-0.575
-478.332	-200.000	0.062	0.448
-477.318	34.650	0.445	0.389
-476.303	47.899	0.502	-0.468
-475.289	-2.166	-0.335	-0.235
-474.274	-121.022	0.440	-0.074
-473.259	100.283	-0.343	-0.398
-472.245	-33.736	0.220	0.121
-471.230	250.272	0.380	-0.645
-470.216	378.144	0.215	-0.439
-469.201	-13.258	0.463	-0.300
-468.186	75.138	0.843	-0.888
-467.172	-66.233	-0.728	-0.290
-466.157	170.233	0.245	0.350
-465.143	234.475	-0.398	-0.656
-464.128	330.912	0.182	-0.351
-463.113	178.994	-0.178	0.261
-462.099	491.152	-0.506	-1.158
-461.084	-200.000	0.081	0.528
-460.070	800.000	0.081	-0.249
-459.055	-200.000	0.212	-1.140
-458.040	-103.931	0.192	-0.045
-457.026	-200.000	-0.038	-0.324
-456.011	-40.175	0.320	-0.166
-454.997	319.631	-0.197	0.372
-453.982	800.000	-0.202	-0.763
-452.968	-3.379	0.494	0.344
-451.953	-200.000	-0.024	-0.358
-450.938	-116.470	1.274	-0.235
-449.924	-75.917	0.200	-0.071
-448.909	59.428	-0.323	-0.318
-447.895	-161.943	-0.832	-0.042
-446.880	-54.630	-0.377	-0.170
-445.865	91.416	-0.544	-0.610
-444.851	217.742	0.596	-0.949
-443.836	-118.937	0.224	-0.039
-442.822	181.395	-0.153	0.224
-441.807	29.652	0.501	-0.425
-440.792	13.039	0.525	0.405
-439.778	176.062	-0.247	-0.357
-438.763	265.103	0.165	-0.286
-437.749	-200.000	-0.002	0.498
-436.734	276.235	-0.131	0.232
-435.719	-91.698	0.320	-0.091
-434.705	-61.507	0.538	-0.226
-433.690	724.202	0.121	0.322
-432.676	745.673	-0.486	1.305
-431.661	800.000	-0.148	-0.598
-430.646	-11.200	-0.600	-0.395
-429.632	-57.950	-0.500	-0.218
-428.617	-141.991	0.803	0.080
-427.603	-117.060	0.407	-0.074
-426.588	115.647	-0.317	-0.387
-425.573	50.567	0.638	0.602
-424.559	800.000	-0.113	-0.454
-423.544	800.000	-0.098	0.332
-422.530	30.296	-0.212	0.181
-421.515	-122.310	-0.505	0.082
-420.500	-32.752	-0.150	0.083
-419.486	-38.688	-0.366	-0.193
-418.471	-73.834	0.776	-0.281
-417.457	-164.088	-0.651	0.030
-416.442	181.963	0.389	0.571
-415.428	-200.000	-0.023	0.216
-414.413	330.688	0.211	-0.405
-413.398	-200.000	-0.014	-1.082
-412.384	-9.009	0.663	0.442
-411.369	-200.000	0.035	0.355
-410.355	305.728	-0.080	-0.148
-409.340	-200.000	0.121	-0.667
-408.325	108.866	0.361	-0.430
-407.311	-137.206	-0.210	-0.024
-406.296	-200.000	-0.116	1.095
-405.282	-70.804	-0.317	0.119
-404.267	800.000	-0.105	-0.380
-403.252	-200.000	-0.020	0.280
-402.238	11.382	0.826	0.631
-401.223	349.962	-0.181	0.356
-400.209	70.697	-0.193	0.199
-399.194	242.698	0.139	-0.232
-398.179	800.000	-0.060	-0.255
-397.165	-132.140	-0.447	0.058
-396.150	-200.000	-0.004	-0.247
-395.136	-108.233	0.611	0.132
-394.121	-86.931	-0.561	-0.171
-393.106	1.166	-0.321	-0.229
-392.092	-51.108	0.580	-0.271
-391.077	-200.000	0.039	0.424
-390.063	-96.427	-0.544	-0.143
-389.048	-200.000	0.025	0.232
-388.033	4.676	0.364	-0.266
-387.019	-33.383	-0.589	0.325
-386.004	-37.850	-0.741	-0.393
-384.990	-200.000	-0.067	-0.460
-383.975	-75.753	0.648	0.229
-382.960	-92.070	-0.458	-0.129
-381.946	101.273	-0.135	-0.157
-380.931	-132.196	0.441	-0.057
-379.917	-21.774	0.135	-0.082
-378.902	-74.601	0.436	-0.156
-377.888	41.701	-0.395	-0.356
-376.873	755.293	-0.276	0.744
-375.858	191.018	0.100	0.149
-374.844	339.429	0.355	-0.689
-373.829	677.466	0.258	0.668
-372.815	-139.064	1.136	0.122
-371.800	-22.894	-0.958	0.575
-370.785	-121.170	-0.583	0.097
-369.771	-200.000	-0.167	-0.868
-368.756	-86.035	0.733	-0.225
-367.742	-200.000	0.008	0.340
-366.727	-63.960	-0.400	-0.163
-365.712	-33.438	-0.352	-0.193
-364.698	94.204	-0.526	0.594
-363.683	-200.000	0.123	0.638
-362.669	-200.000	-0.090	0.774
-361.654	-103.970	1.092	0.254
-360.639	560.919	0.117	-0.281
-359.625	87.639	0.539	0.594
-358.610	64.582	0.154	0.155
-357.596	-95.129	-1.140	0.306
-356.581	248.097	-0.667	1.123
-355.566	-45.354	0.548	0.271
-354.552	800.000	-0.158	0.502
-353.537	-58.916	0.189	0.081
-352.523	800.000	0.338	-0.951
-351.508	-81.761	-0.802	0.261
-350.493	-116.841	0.894	-0.163
-349.479	-62.317	-1.060	-0.439
-348.464	-75.848	1.051	-0.370
-347.450	105.920	0.251	-0.295
-346.435	-98.242	-0.733	-0.187
-345.420	800.000	0.331	1.055
-344.406	-164.351	0.346	0.016
-343.391	-128.261	-0.165	0.023
-342.377	-175.376	-0.449	-0.012
-341.362	-200.000	0.058	-0.914
-340.348	-57.469	-0.503	-0.220
-339.333	-12.147	-0.389	-0.253
-338.318	-45.419	0.475	0.234
-337.304	434.877	0.310	0.670
-336.289	-192.109	-0.718	-0.007
-335.275	243.966	-0.313	0.523
-334.260	468.885	0.048	0.108
-333.245	-200.000	-0.037	0.398
-332.231	-17.291	0.331	0.207
-331.216	-200.000	0.036	0.657
-330.202	-103.227	-0.019	0.005
-329.187	44.037	-0.308	0.281
-328.172	-200.000	-0.045	-0.199
-327.158	-200.000	0.013	-0.635
-326.143	138.973	0.393	0.513
-325.129	-200.000	0.002	-0.387
-324.114	-53.810	1.020	0.462
-323.099	557.211	-0.351	-0.840
-322.085	-153.499	-0.513	-0.035
-321.070	800.000	-0.198	-0.666
-320.056	96.936	-0.585	-0.667
-319.041	322.050	0.195	0.369
-318.026	-173.381	-0.928	0.028
-317.012	-200.000	-0.080	-0.420
-315.997	-70.738	0.594	-0.223
-314.983	80.794	-0.027	0.029
-313.968	-200.000	-0.038	-0.767
-312.953	800.000	0.127	0.453
-311.939	79.774	0.190	0.203
-310.924	150.934	-0.452	-0.610
-309.910	209.552	-0.363	0.566
-308.895	800.000	-0.120	0.421
-307.880	421.432	0.234	0.499
-306.866	419.358	0.249	-0.528
-305.851	-200.000	-0.104	0.570
-304.837	-52.642	-1.196	0.548
-303.822	-37.785	0.267	-0.141
-302.807	-61.012	0.374	0.157
-301.793	-69.713	-0.627	-0.238
-300.778	216.825	-0.253	-0.400
-299.764	800.000	0.069	0.210
-298.749	360.932	0.188	0.373
-297.735	-75.009	0.584	-0.207
-296.720	361.974	-0.075	0.149
-295.705	800.000	0.197	0.808
-294.691	796.144	0.370	1.012
-293.676	188.853	-0.125	0.186
-292.662	-21.225	0.412	-0.250
-291.647	-40.515	1.088	-0.560
-290.632	-200.000	0.045	-0.430
-289.618	129.904	0.315	-0.400
-288.603	-72.968	-0.572	-0.209
-287.589	718.574	-0.134	-0.353
-286.574	-80.566	0.177	-0.058
-285.559	-71.012	0.529	0.197
-284.545	-200.000	-0.076	-0.485
-283.530	-129.047	-0.199	0.028
-282.516	800.000	0.093	0.336
-281.501	-15.935	0.395	0.249
-280.486	800.000	0.066	-0.261
-279.472	60.729	0.095	-0.093
-278.457	-200.000	0.038	-0.386
-277.443	303.729	0.469	0.862
-276.428	-200.000	0.081	0.718
-275.413	188.242	-0.243	-0.360
-274.399	-167.021	0.199	0.008
-273.384	-200.000	0.155	0.779
-272.370	-163.162	0.157	0.008
-271.355	-1.672	0.549	0.384
-270.340	-200.000	-0.151	-0.965
-269.326	33.396	-0.168	-0.145
-268.311	-200.000	-0.014	0.691
-267.297	800.000	-0.162	0.631
-266.282	-160.749	0.658	-0.035
-265.267	-77.164	0.308	-0.106
-264.253	-142.589	0.405	-0.039
-263.238	-101.286	-0.199	-0.048
-262.224	-173.561	1.143	0.034
-261.209	-200.000	-0.007	0.329
-260.195	-200.000	0.130	-0.688
-259.180	50.527	0.064	0.060
-258.165	-200.000	0.047	-0.511
-257.151	-99.641	0.596	-0.148
-256.136	283.237	-0.318	0.565
-255.122	-200.000	0.018	0.732
-254.107	124.785	0.190	-0.237
-253.092	800.000	0.076	0.273
-252.078	192.490	-0.106	-0.158
-251.063	127.246	0.260	0.327
-250.049	-131.863	-0.317	-0.041
-249.034	-24.539	-0.662	-0.391
-248.019	763.813	0.021	0.057
-247.005	-67.979	-0.483	0.187
-245.990	800.000	0.052	0.177
-244.976	-103.446	0.451	-0.105
-243.961	-200.000	0.094	0.684
-242.946	-63.653	-0.610	-0.248
-241.932	-73.555	-0.332	0.120
-240.917	271.818	0.509	-0.889
-239.903	-117.583	0.662	-0.118
-238.888	88.696	-0.374	0.412
-237.873	-9.494	-0.115	-0.076
-236.859	484.575	0.461	-1.038
-235.844	-146.941	-0.452	-0.038
-234.830	-103.242	0.077	-0.018
-233.815	-80.132	-0.495	0.164
-232.800	154.622	0.091	-0.124
-231.786	323.524	0.647	-1.221
-230.771	-154.112	-0.795	-0.053
-229.757	1.455	-0.187	-0.133
-228.742	-200.000	0.036	-0.714
-227.727	-200.000	-0.073	0.627
-226.713	240.854	0.237	0.392
-225.698	18.028	1.103	-0.870
-224.684	-125.461	-0.822	-0.124
-223.669	-157.628	0.651	-0.038
-222.655	94.620	-0.440	-0.495
-221.640	-193.111	-0.243	0.002
-220.625	170.280	0.328	0.464
-219.611	-68.950	0.737	0.281
-218.596	-49.222	0.152	0.072
-217.582	800.000	0.272	0.946
-216.567	69.957	-0.412	-0.421
-215.552	-108.677	-0.419	-0.089
-214.538	28.532	-0.974	0.815
-213.523	-116.467	0.765	0.140
-212.509	34.361	-0.515	-0.445
-211.494	-42.951	0.395	-0.198
-210.479	800.000	0.118	0.347
-209.465	129.796	0.204	0.257
-208.450	-134.163	0.221	0.027
-207.436	-169.970	0.196	-0.007
-206.421	163.535	0.174	-0.241
-205.406	-200.000	-0.001	0.770
-204.392	167.232	0.415	0.582
-203.377	-50.209	-0.268	0.126
-202.363	-132.651	0.772	-0.098
-201.348	-200.000	0.049	0.485
-200.333	-3.571	0.547	0.376
-199.319	-133.426	0.148	-0.018
-198.304	-159.600	-0.343	-0.019
-197.290	65.041	-0.469	0.468
-196.275	-57.834	-0.394	-0.171
-195.260	-200.000	-0.082	0.448
-194.246	-200.000	-0.044	-0.859
-193.231	5.765	0.280	0.204
-192.217	800.000	0.178	0.637
-191.202	-200.000	-0.022	-0.132
-190.187	-67.183	-0.143	0.056
-189.173	800.000	-0.098	-0.387
-188.158	800.000	0.196	-0.586
-187.144	-18.329	-0.542	-0.335
-186.129	-62.484	-0.217	-0.089
-185.114	-200.000	-0.027	0.160
-184.100	-100.718	0.422	-0.103
-183.085	-75.518	-0.334	-0.118
-182.071	468.737	-0.362	-0.804
-181.056	32.930	0.217	-0.186
-180.042	-1.180	-0.116	-0.081
-179.027	-74.134	0.629	0.225
-178.012	-200.000	0.246	1.200
-176.998	217.568	-0.233	-0.366
-175.983	228.419	0.494	-0.794
-174.969	-200.000	-0.188	0.983
-173.954	-200.000	-0.035	-0.302
-172.939	-200.000	-0.009	0.135
-171.925	-200.000	-0.001	-0.075
-170.910	282.812	0.474	0.840
-169.896	76.905	-0.392	0.411
-168.881	-102.167	-0.387	-0.092
-167.866	800.000	0.203	0.677
-166.852	-87.775	0.649	-0.193
-165.837	800.000	-0.142	-0.402
-164.823	-76.310	0.565	0.196
-163.808	183.665	-0.246	-0.359
-162.793	78.253	-0.172	0.181
-161.779	100.587	-0.241	0.276
-160.764	-99.394	0.475	0.118
-159.750	-51.020	-0.707	0.327
-158.735	137.236	-0.425	-0.549
-157.720	-53.568	-0.291	-0.131
-156.706	-55.868	-0.082	0.036
-155.691	-146.890	0.285	-0.024
-154.677	244.568	-0.414	0.686
-153.662	-200.000	-0.051	-0.235
-152.647	-64.448	-0.048	-0.019
-151.633	-77.203	0.736	0.253
-150.618	38.275	-0.280	0.246
-149.604	-163.136	0.471	-0.022
-148.589	-37.023	-0.891	0.471
-147.574	52.501	0.149	-0.141
-146.560	-200.000	0.099	-0.541
-145.545	73.464	-0.423	-0.437
-144.531	153.120	-0.114	0.154
-143.516	254.793	0.424	-0.715
-142.502	-20.505	-0.859	-0.521
-141.487	-195.946	0.532	-0.004
-140.472	158.178	-0.416	-0.569
-139.458	-85.218	0.438	-0.135
-138.443	-46.771	0.090	0.044
-137.429	-82.866	-0.777	0.247
-136.414	58.734	0.604	-0.585
-135.399	-84.281	-0.312	0.097
-134.385	460.348	-0.272	-0.597
-133.370	-41.993	-0.220	-0.111
-132.356	-200.000	-0.132	0.799
-131.341	682.807	-0.057	0.146
-130.326	-111.016	-0.373	-0.076
-129.312	97.297	0.334	0.378
-128.297	140.157	0.620	0.806
-127.283	-200.000	0.059	0.557
-126.268	-200.000	-0.037	-0.335
-125.253	-186.573	0.509	0.007
-124.239	-49.394	0.410	0.193
-123.224	800.000	-0.148	0.589
-122.210	-97.796	0.348	-0.089
