DTS Sentinel unit serial number:	SN413079Multiplexer serial number:	ORYXHardware model number:	OX4-SRSoftware version number:	ORYX F/W v4.00 Oryx Data Collector v3.7.2.0data status	okinstallation	princeton_trtdifferential loss correction	single-endedforward channel	channel 3reverse channel	N/Adate	2019/09/14time	15:08:34forward acquisition time	60.00reverse acquisition time	0.00gamma	496.2192k internal	0.2293k external	0.2293temperature offset calibration	1.0055default loss term (dB/km)	0.3790temperature slope calibration	1.0000multiplexer offset coefficient	1.0000multiplexer slope coefficient	1.0000fibre end	0.00T internal ref (°C)	39.06T ext. ref 1 (°C)	5.07T ext. ref 2 (°C)	35.18length (m)	temperature (°C)	Stokes	anti-Stokes-747.200	-81.016	-0.156	0.053
-746.185	125.586	-0.179	0.231
-745.171	43.145	0.161	0.150
-744.156	36.166	0.087	-0.079
-743.142	46.097	-0.272	-0.258
-742.127	-200.000	-0.037	0.209
-741.112	800.000	-0.013	0.040
-740.098	-162.887	-0.166	-0.008
-739.083	-200.000	0.039	-0.307
-738.069	-49.094	0.136	0.066
-737.054	-200.000	-0.016	-0.154
-736.039	-22.777	0.318	0.196
-735.025	-82.851	0.195	0.065
-734.010	27.891	-0.345	-0.297
-732.996	-85.561	-0.183	-0.058
-731.981	800.000	0.014	-0.050
-730.966	45.296	0.122	-0.115
-729.952	-31.368	-0.187	-0.108
-728.937	-20.692	-0.192	-0.121
-727.923	-61.126	-0.119	-0.051
-726.908	-135.395	0.196	-0.024
-725.894	-71.894	-0.273	-0.104
-724.879	106.108	0.050	-0.060
-723.864	37.344	-0.239	-0.217
-722.850	-200.000	-0.020	-0.283
-721.835	145.056	-0.119	-0.162
-720.821	-124.250	-0.296	0.047
-719.806	-200.000	0.016	-0.139
-718.791	413.223	-0.191	0.416
-717.777	48.943	-0.295	-0.283
-716.762	-36.140	-0.251	-0.139
-715.748	231.704	0.109	0.183
-714.733	-148.765	-0.089	0.007
-713.718	-138.254	-0.149	0.017
-712.704	-34.752	-0.334	-0.187
-711.689	-200.000	0.072	-0.452
-710.675	81.978	-0.279	0.309
-709.660	-200.000	0.078	-0.544
-708.645	31.334	-0.133	0.116
-707.631	-66.022	-0.294	0.120
-706.616	800.000	0.082	-0.313
-705.602	-132.427	-0.047	-0.006
-704.587	-27.090	-0.463	0.276
-703.572	800.000	-0.052	0.172
-702.558	-42.000	0.252	-0.132
-701.543	-80.867	0.260	-0.088
-700.529	289.146	0.067	-0.124
-699.514	-200.000	0.006	-0.129
-698.499	-132.467	0.191	0.025
-697.485	-200.000	-0.014	0.194
-696.470	-200.000	0.003	-0.151
-695.456	-31.906	-0.199	0.114
-694.441	800.000	0.069	-0.211
-693.426	-153.073	-0.196	-0.014
-692.412	-200.000	-0.017	-0.105
-691.397	-159.703	0.145	0.008
-690.383	-25.594	-0.251	0.151
-689.368	-200.000	0.024	-0.381
-688.354	800.000	-0.078	0.227
-687.339	75.547	-0.167	-0.180
-686.324	220.168	0.211	0.345
-685.310	-83.136	-0.190	-0.062
-684.295	-82.446	-0.292	0.097
-683.281	151.585	-0.135	-0.187
-682.266	-149.025	0.063	0.005
-681.251	148.368	0.015	-0.021
-680.237	-91.352	-0.148	-0.043
-679.222	-200.000	0.042	-0.209
-678.208	-186.652	-0.309	-0.004
-677.193	-8.847	-0.105	-0.072
-676.178	1.173	0.212	-0.155
-675.164	800.000	0.059	-0.252
-674.149	-54.174	-0.299	-0.139
-673.135	-96.730	-0.044	-0.012
-672.120	-51.125	-0.149	0.071
-671.105	-57.641	-0.180	0.081
-670.091	-103.559	0.191	-0.046
-669.076	304.187	-0.135	0.256
-668.062	-143.200	0.122	0.012
-667.047	-38.060	0.108	-0.059
-666.032	52.441	0.110	-0.107
-665.018	-0.974	-0.176	0.127
-664.003	-143.210	0.159	0.016
-662.989	100.013	0.129	-0.153
-661.974	-78.026	-0.147	0.051
-660.959	221.924	0.178	0.292
-659.945	-168.021	-0.317	-0.013
-658.930	27.156	-0.132	-0.113
-657.916	-63.406	0.286	-0.120
-656.901	-13.553	0.020	-0.013
-655.886	800.000	0.121	-0.534
-654.872	-200.000	-0.034	-0.236
-653.857	660.894	-0.035	-0.091
-652.843	98.887	0.228	-0.268
-651.828	-52.919	-0.178	0.084
-650.814	800.000	-0.029	-0.085
-649.799	503.490	-0.190	0.447
-648.784	-173.883	-0.370	0.011
-647.770	108.586	0.040	0.049
-646.755	-24.197	0.113	0.069
-645.741	-200.000	0.010	0.125
-644.726	-100.378	0.500	0.126
-643.711	-54.355	-0.288	-0.133
-642.697	-58.312	-0.144	0.064
-641.682	733.577	-0.118	0.322
-640.668	243.308	-0.212	0.361
-639.653	-162.023	-0.356	-0.018
-638.638	-111.063	-0.275	-0.057
-637.624	451.168	-0.032	-0.072
-636.609	-70.825	0.079	-0.030
-635.595	-173.472	0.179	-0.005
-634.580	-172.164	-0.203	-0.007
-633.565	17.530	-0.219	-0.177
-632.551	46.695	-0.118	0.112
-631.536	-52.924	0.257	0.121
-630.522	144.078	-0.123	0.167
-629.507	800.000	-0.050	-0.193
-628.492	-105.864	0.066	0.015
-627.478	-87.114	-0.125	-0.039
-626.463	-177.097	0.252	0.006
-625.449	305.834	-0.164	0.310
-624.434	150.557	0.174	-0.240
-623.419	-120.619	-0.299	-0.051
-622.405	106.434	-0.199	0.240
-621.390	120.795	0.100	-0.127
-620.376	48.114	-0.354	-0.337
-619.361	-128.650	0.141	0.020
-618.346	22.623	0.135	-0.113
-617.332	-45.934	0.170	0.085
-616.317	-123.430	0.118	-0.019
-615.303	800.000	0.061	-0.187
-614.288	-21.054	-0.036	0.022
-613.273	103.619	0.064	0.077
-612.259	800.000	-0.054	0.234
-611.244	-200.000	0.002	-0.071
-610.230	800.000	-0.091	-0.286
-609.215	-54.916	0.321	-0.147
-608.201	-21.778	0.054	-0.033
-607.186	-96.330	-0.086	0.023
-606.171	273.908	-0.173	0.311
-605.157	320.105	-0.178	-0.344
-604.142	609.684	0.146	0.372
-603.128	-67.855	0.217	0.086
-602.113	136.071	-0.134	0.178
-601.098	44.580	-0.267	0.249
-600.084	-101.335	0.122	-0.030
-599.069	-10.809	0.177	0.119
-598.055	800.000	-0.037	-0.151
-597.040	800.000	-0.057	0.249
-596.025	93.983	-0.248	0.286
-595.011	-112.023	-0.307	-0.063
-593.996	-163.963	0.181	-0.009
-592.982	748.179	-0.018	0.049
-591.967	439.986	-0.028	-0.063
-590.952	-200.000	-0.005	-0.416
-589.938	73.620	-0.105	0.111
-588.923	-4.689	0.160	0.112
-587.909	-200.000	-0.065	0.384
-586.894	334.810	-0.054	0.106
-585.879	800.000	0.075	0.267
-584.865	-14.121	0.158	-0.103
-583.850	-162.439	0.102	-0.005
-582.836	-26.327	-0.169	-0.101
-581.821	423.763	-0.127	-0.277
-580.806	-11.891	-0.276	-0.184
-579.792	-57.192	-0.227	0.102
-578.777	198.663	-0.145	0.226
-577.763	800.000	-0.163	0.496
-576.748	-14.715	0.224	0.146
-575.733	-200.000	-0.029	0.366
-574.719	-73.642	-0.105	-0.039
-573.704	-200.000	0.021	0.153
-572.690	301.363	0.068	-0.127
-571.675	80.513	0.212	0.232
-570.661	200.189	-0.117	-0.182
-569.646	-61.316	-0.091	-0.039
-568.631	35.036	-0.343	-0.305
-567.617	41.973	-0.160	0.147
-566.602	-76.212	-0.263	-0.094
-565.588	-200.000	-0.016	0.177
-564.573	274.148	0.128	-0.230
-563.558	222.250	-0.065	0.107
-562.544	538.356	0.038	-0.092
-561.529	-113.395	-0.253	0.050
-560.515	110.812	0.034	-0.042
-559.500	-170.891	0.097	-0.003
-558.485	-56.959	-0.321	-0.144
-557.471	-200.000	-0.014	0.078
-556.456	49.268	-0.038	0.036
-555.442	-61.568	-0.208	-0.089
-554.427	-61.720	0.186	-0.079
-553.412	71.041	-0.157	-0.165
-552.398	-25.364	-0.344	0.207
-551.383	-200.000	-0.012	-0.258
-550.369	-70.939	0.361	-0.138
-549.354	-91.929	0.172	0.049
-548.339	-29.520	-0.156	-0.090
-547.325	339.076	0.098	0.194
-546.310	-121.777	0.096	0.016
-545.296	33.506	0.114	0.100
-544.281	-45.530	0.408	-0.205
-543.266	-64.732	-0.191	0.079
-542.252	-4.684	-0.064	0.045
-541.237	262.909	0.190	0.334
-540.223	-200.000	0.036	-0.296
-539.208	-200.000	-0.050	0.253
-538.193	-84.386	0.277	-0.089
-537.179	-53.340	0.107	-0.050
-536.164	-81.699	0.335	-0.111
-535.150	800.000	0.089	-0.326
-534.135	-95.296	-0.552	-0.151
-533.121	95.100	0.233	0.269
-532.106	800.000	-0.040	-0.126
-531.091	101.427	-0.197	-0.233
-530.077	155.152	-0.051	0.071
-529.062	-200.000	0.021	-0.177
-528.048	-200.000	-0.044	-0.503
-527.033	15.100	-0.199	-0.158
-526.018	-97.138	0.029	-0.008
-525.004	8.712	-0.118	-0.090
-523.989	-200.000	0.027	0.320
-522.975	191.786	0.103	0.158
-521.960	-42.256	0.251	-0.130
-520.945	72.924	-0.022	-0.023
-519.931	144.826	0.062	-0.083
-518.916	-45.967	0.198	0.099
-517.902	245.683	0.197	0.336
-516.887	-59.392	0.255	0.111
-515.872	-20.564	-0.215	-0.134
-514.858	35.895	-0.217	0.194
-513.843	-47.819	-0.240	-0.118
-512.829	-28.417	0.264	0.155
-511.814	3.839	0.329	0.244
-510.799	-19.768	0.195	-0.122
-509.785	-1.568	-0.198	0.141
-508.770	-73.251	0.151	-0.056
-507.756	-109.663	-0.127	-0.027
-506.741	-148.368	-0.255	0.021
-505.726	-200.000	0.007	0.073
-504.712	72.627	-0.107	-0.114
-503.697	433.873	-0.061	0.135
-502.683	124.615	0.221	0.283
-501.668	-200.000	0.001	0.064
-500.653	-90.055	0.299	0.088
-499.639	9.551	0.226	0.173
-498.624	264.630	0.098	-0.173
-497.610	156.447	-0.043	-0.061
-496.595	-96.584	0.362	-0.097
-495.581	129.079	-0.066	0.085
-494.566	-64.816	-0.113	-0.046
-493.551	242.577	-0.058	0.099
-492.537	619.617	-0.113	0.288
-491.522	-127.774	-0.256	0.037
-490.508	17.070	-0.121	-0.097
-489.493	-200.000	-0.001	-0.120
-488.478	-5.228	-0.044	0.031
-487.464	-200.000	0.017	0.125
-486.449	-109.114	-0.151	-0.032
-485.435	-151.979	0.512	0.038
-484.420	59.588	0.145	-0.145
-483.405	288.855	-0.023	0.043
-482.391	-116.305	0.384	-0.072
-481.376	122.111	-0.118	-0.149
-480.362	-200.000	-0.024	0.237
-479.347	800.000	0.072	0.261
-478.332	111.946	-0.070	0.085
-477.318	265.358	-0.065	-0.115
-476.303	34.924	-0.098	-0.087
-475.289	-25.938	-0.207	0.124
-474.274	95.393	-0.271	-0.313
-473.259	-81.856	-0.174	0.058
-472.245	-189.279	-0.171	-0.002
-471.230	346.712	-0.129	0.256
-470.216	125.430	-0.108	0.138
-469.201	-200.000	0.011	0.098
-468.186	-62.529	0.316	0.133
-467.172	-127.788	0.168	-0.024
-466.157	-62.257	-0.321	-0.135
-465.143	79.644	0.118	-0.128
-464.128	95.948	-0.043	0.050
-463.113	328.202	-0.059	-0.115
-462.099	800.000	0.023	0.103
-461.084	800.000	0.036	0.111
-460.070	56.621	-0.119	-0.117
-459.055	7.498	0.368	-0.279
-458.040	-95.041	-0.273	0.075
-457.026	800.000	0.106	0.309
-456.011	-96.542	0.031	-0.008
-454.997	-200.000	0.018	-0.109
-453.982	339.343	-0.099	0.196
-452.968	-200.000	0.000	0.080
-451.953	-63.980	-0.272	-0.112
-450.938	-60.437	0.057	0.024
-449.924	67.557	-0.125	-0.129
-448.909	-200.000	0.035	0.188
-447.895	-31.542	0.019	0.011
-446.880	-200.000	-0.001	0.140
-445.865	347.542	0.019	-0.037
-444.851	120.537	-0.179	0.225
-443.836	-66.614	0.034	-0.014
-442.822	89.017	-0.145	0.163
-441.807	71.722	0.128	-0.134
-440.792	800.000	-0.030	-0.123
-439.778	800.000	-0.099	0.284
-438.763	-200.000	-0.011	0.346
-437.749	-200.000	0.016	-0.127
-436.734	-37.022	0.161	-0.087
-435.719	298.706	-0.113	0.211
-434.705	-200.000	-0.016	-0.185
-433.690	127.428	0.169	0.217
-432.676	-22.442	-0.041	0.025
-431.661	-2.068	0.089	0.063
-430.646	480.340	0.083	0.191
-429.632	-61.208	-0.081	0.034
-428.617	-36.981	-0.224	-0.121
-427.603	-35.202	-0.150	0.082
-426.588	-200.000	-0.023	-0.166
-425.573	-200.000	-0.040	-0.328
-424.559	-96.567	-0.328	0.088
-423.544	-200.000	0.027	-0.185
-422.530	91.879	-0.083	-0.094
-421.515	-200.000	0.035	0.292
-420.500	-69.601	0.022	-0.008
-419.486	-118.490	-0.259	0.046
-418.471	122.614	-0.276	0.349
-417.457	398.868	-0.126	-0.266
-416.442	-200.000	0.035	-0.350
-415.428	111.757	0.158	-0.192
-414.413	128.095	0.131	0.169
-413.398	-102.841	-0.289	0.069
-412.384	-200.000	0.010	-0.367
-411.369	-99.851	-0.199	0.050
-410.355	396.134	0.089	0.187
-409.340	-158.613	0.387	-0.023
-408.325	42.971	-0.143	-0.132
-407.311	-1.383	0.448	-0.319
-406.296	-95.950	0.236	-0.064
-405.282	800.000	0.013	0.042
-404.267	42.038	0.179	0.164
-403.252	-89.388	-0.238	-0.071
-402.238	-101.590	0.085	0.021
-401.223	736.007	-0.014	0.037
-400.209	-75.626	0.270	0.097
-399.194	-19.114	0.082	-0.051
-398.179	283.349	0.128	-0.232
-397.165	-56.680	0.147	-0.066
-396.150	214.322	-0.073	0.117
-395.136	-200.000	0.004	-0.038
-394.121	-111.748	0.258	0.053
-393.106	-45.768	0.081	0.040
-392.092	215.765	0.134	-0.215
-391.077	-47.816	0.263	-0.128
-390.063	-110.219	0.173	0.036
-389.048	-103.536	0.054	-0.013
-388.033	-93.563	0.259	0.072
-387.019	-1.321	-0.229	-0.163
-386.004	-94.925	-0.143	0.039
-384.990	46.965	0.127	-0.120
-383.975	-200.000	-0.011	-0.111
-382.960	49.452	0.238	-0.226
-381.946	-109.670	-0.179	-0.038
-380.931	800.000	0.134	-0.424
-379.917	156.992	0.140	0.195
-378.902	-123.457	-0.361	0.058
-377.888	-48.362	0.194	-0.094
-376.873	385.443	-0.059	0.123
-375.858	736.839	0.056	0.153
-374.844	-200.000	-0.008	-0.049
-373.829	-66.152	0.293	0.118
-372.815	3.585	0.131	-0.097
-371.800	-167.237	0.120	-0.005
-370.785	-129.602	0.188	-0.026
-369.771	-200.000	0.024	-0.308
-368.756	-200.000	0.019	-0.539
-367.742	413.788	0.070	-0.151
-366.727	405.230	-0.124	0.263
-365.712	-60.070	0.168	-0.072
-364.698	-200.000	0.021	-0.132
-363.683	-82.973	-0.225	0.073
-362.669	800.000	0.035	0.098
-361.654	-40.274	-0.171	0.090
-360.639	-23.309	-0.154	-0.093
-359.625	-54.764	0.246	-0.112
-358.610	-108.160	0.269	0.059
-357.596	18.847	-0.229	-0.185
-356.581	800.000	0.050	-0.179
-355.566	-16.592	-0.118	-0.075
-354.552	5.295	-0.236	-0.176
-353.537	800.000	0.069	-0.212
-352.523	-200.000	0.004	0.048
-351.508	-200.000	0.047	0.362
-350.493	604.239	0.040	0.099
-349.479	7.203	-0.094	-0.070
-348.464	59.130	-0.287	-0.284
-347.450	-77.954	-0.100	0.035
-346.435	-200.000	0.032	0.423
-345.420	133.175	-0.177	0.230
-344.406	-1.641	-0.263	0.186
-343.391	311.660	0.157	-0.296
-342.377	16.243	0.104	0.082
-341.362	64.528	0.160	0.162
-340.348	800.000	0.050	-0.152
-339.333	-147.341	0.408	-0.035
-338.318	-200.000	-0.005	-0.223
-337.304	-200.000	-0.093	-0.441
-336.289	542.465	-0.029	-0.071
-335.275	-99.283	-0.118	0.030
-334.260	170.076	-0.172	-0.248
-333.245	-13.117	-0.083	-0.055
-332.231	-200.000	0.010	-0.153
-331.216	121.975	0.105	-0.132
-330.202	125.024	0.231	0.292
-329.187	-200.000	-0.040	0.261
-328.172	160.681	-0.085	0.120
-327.158	800.000	0.021	-0.065
-326.143	800.000	-0.015	-0.048
-325.129	-200.000	0.070	-0.359
-324.114	113.118	0.112	-0.137
-323.099	-180.914	-0.262	0.005
-322.085	800.000	0.065	-0.234
-321.070	-94.258	-0.386	-0.106
-320.056	105.400	0.086	-0.102
-319.041	62.355	0.264	0.265
-318.026	-106.390	-0.133	0.030
-317.012	-37.538	0.266	0.143
-315.997	-200.000	-0.002	0.213
-314.983	800.000	0.054	-0.176
-313.968	800.000	0.071	-0.297
-312.953	-113.379	-0.171	0.034
-311.939	24.713	0.135	-0.113
-310.924	-121.912	0.276	0.046
-309.910	-98.824	-0.240	0.061
-308.895	-19.165	-0.191	0.119
-307.880	-89.054	0.208	0.062
-306.866	800.000	0.029	-0.093
-305.851	-69.044	-0.284	-0.110
-304.837	-76.709	-0.389	0.137
-303.822	53.546	0.049	0.047
-302.807	-90.155	0.104	0.031
-301.793	100.455	0.197	-0.231
-300.778	-187.560	-0.365	0.005
-299.764	139.507	-0.104	-0.138
-298.749	-103.846	-0.401	0.094
-297.735	-200.000	0.028	0.205
-296.720	79.233	-0.156	0.168
-295.705	17.088	-0.235	-0.187
-294.691	-162.476	-0.239	-0.012
-293.676	-22.220	0.092	-0.056
-292.662	-97.652	0.206	-0.054
-291.647	-109.467	0.165	0.035
-290.632	530.945	0.028	-0.066
-289.618	-146.248	0.169	-0.015
-288.603	129.525	-0.082	-0.106
-287.589	800.000	0.102	-0.346
-286.574	800.000	0.041	0.146
-285.559	-18.006	0.250	-0.157
-284.545	-200.000	0.204	-0.000
-283.530	-70.920	-0.264	0.100
-282.516	-5.406	0.173	0.119
-281.501	-92.897	0.027	-0.008
-280.486	-27.435	0.196	-0.114
-279.472	800.000	-0.062	-0.241
-278.457	74.413	-0.177	-0.187
-277.443	-164.465	-0.062	0.003
-276.428	73.220	-0.142	0.149
-275.413	-131.268	-0.271	-0.036
-274.399	800.000	-0.121	0.495
-273.384	113.812	-0.094	-0.115
-272.370	503.254	0.160	0.371
-271.355	-190.622	0.245	-0.003
-270.340	299.228	-0.061	-0.113
-269.326	-200.000	0.003	-0.077
-268.311	-63.192	-0.188	-0.078
-267.297	-116.342	-0.205	0.038
-266.282	467.875	0.125	-0.281
-265.267	505.130	-0.101	-0.236
-264.253	22.871	0.258	0.212
-263.238	126.079	0.131	-0.166
-262.224	-200.000	0.008	-0.065
-261.209	-179.381	0.260	-0.006
-260.195	-23.550	0.012	0.007
-259.180	-108.455	0.139	-0.030
-258.165	-113.386	0.249	-0.049
-257.151	-200.000	0.059	-0.357
-256.136	132.454	0.283	-0.366
-255.122	-118.249	-0.238	0.042
-254.107	-133.460	0.337	0.042
-253.092	-138.121	0.141	0.016
-252.078	88.393	-0.235	-0.262
-251.063	324.438	0.143	-0.274
-250.049	153.826	-0.095	0.131
-249.034	-108.610	0.211	-0.045
-248.019	-200.000	-0.002	-0.187
-247.005	-24.035	0.097	0.058
-245.990	199.227	0.187	0.287
-244.976	-200.000	0.016	0.260
-243.961	-200.000	0.032	0.172
-242.946	-22.992	-0.259	0.157
-241.932	800.000	0.124	-0.409
-240.917	-200.000	0.058	0.322
-239.903	27.629	0.141	0.119
-238.888	-183.118	-0.407	-0.007
-237.873	-60.701	0.140	-0.060
-236.859	118.308	-0.266	-0.329
-235.844	25.206	-0.114	0.095
-234.830	-73.607	0.319	0.117
-233.815	3.493	-0.326	-0.238
-232.800	-200.000	-0.065	0.380
-231.786	543.308	-0.088	-0.211
-230.771	-152.180	-0.038	-0.003
-229.757	92.321	-0.030	0.034
-228.742	-89.629	0.287	0.084
-227.727	78.287	-0.113	0.120
-226.713	-30.844	0.263	0.149
-225.698	-142.011	-0.123	0.012
-224.684	107.995	-0.221	0.264
-223.669	-89.570	0.370	-0.109
-222.655	-200.000	-0.007	-0.050
-221.640	-147.925	-0.156	-0.013
-220.625	-200.000	0.055	-0.377
-219.611	14.768	-0.133	0.105
-218.596	-118.079	0.239	-0.043
-217.582	-36.800	-0.212	-0.114
-216.567	-79.329	0.239	-0.081
-215.552	3.392	-0.118	0.086
-214.538	-90.514	0.199	-0.058
-213.523	-163.904	0.222	0.010
-212.509	-196.167	0.112	0.001
-211.494	-38.088	-0.125	-0.067
-210.479	516.463	0.046	-0.109
-209.465	-131.942	0.262	-0.034
-208.450	-11.246	0.285	-0.188
-207.436	-200.000	-0.006	0.031
-206.421	141.324	0.127	-0.169
-205.406	-200.000	-0.002	0.063
-204.392	-200.000	-0.026	-0.117
-203.377	-140.692	0.319	0.033
-202.363	-143.565	-0.108	0.010
-201.348	-13.422	0.162	-0.105
-200.333	154.974	-0.187	-0.258
-199.319	512.018	-0.232	-0.540
-198.304	733.488	-0.102	0.273
-197.290	-110.942	0.176	0.036
-196.275	42.564	-0.359	-0.327
-195.260	-200.000	-0.031	0.266
-194.246	-129.143	-0.120	-0.017
-193.231	800.000	0.041	0.158
-192.217	337.979	-0.170	-0.330
-191.202	-200.000	-0.037	-0.226
-190.187	123.135	0.148	-0.185
-189.173	18.480	0.165	-0.132
-188.158	117.694	-0.081	-0.100
-187.144	-43.481	-0.364	0.184
-186.129	-200.000	-0.024	0.209
-185.114	108.215	0.087	0.104
-184.100	-18.717	0.262	0.164
-183.085	-200.000	0.009	0.155
-182.071	800.000	-0.066	0.271
-181.056	115.282	-0.152	0.186
-180.042	463.515	0.079	0.176
-179.027	12.683	-0.146	0.113
-178.012	800.000	0.124	0.449
-176.998	21.242	-0.124	0.101
-175.983	-108.444	0.270	0.058
-174.969	83.022	-0.214	0.232
-173.954	229.789	-0.076	-0.124
-172.939	725.708	0.032	-0.087
-171.925	235.858	0.096	-0.159
-170.910	22.525	-0.172	0.141
-169.896	76.482	-0.180	0.191
-168.881	-157.754	0.439	-0.026
-167.866	-88.831	-0.105	0.031
-166.852	561.693	-0.011	-0.027
-165.837	250.884	-0.166	0.283
-164.823	-145.664	0.418	-0.037
-163.808	-200.000	-0.037	0.256
-162.793	-187.222	-0.283	0.004
-161.779	-200.000	0.028	-0.138
-160.764	-37.986	-0.049	0.026
-159.750	-112.139	0.481	0.097
-158.735	-149.815	-0.064	-0.005
-157.720	800.000	-0.048	-0.189
-156.706	-200.000	0.003	0.133
-155.691	-200.000	0.018	-0.152
-154.677	-200.000	-0.002	0.026
-153.662	172.490	-0.099	0.143
-152.647	-29.576	0.232	0.132
-151.633	32.947	0.223	0.193
-150.618	-128.318	0.283	0.040
-149.604	128.705	-0.256	-0.326
-148.589	236.533	-0.046	0.076
-147.574	-136.606	0.424	-0.049
-146.560	76.364	0.104	0.110
-145.545	41.556	0.148	-0.134
-144.531	-82.466	0.341	0.111
-143.516	173.152	0.147	0.212
-142.502	48.370	-0.229	-0.214
-141.487	-200.000	-0.028	-0.334
-140.472	-89.174	0.136	-0.040
-139.458	-200.000	0.006	0.103
-138.443	226.625	-0.106	-0.171
-137.429	26.939	0.101	-0.084
-136.414	172.489	0.122	0.176
-135.399	-86.122	0.138	-0.042
-134.385	-56.649	0.323	-0.143
-133.370	22.005	0.115	-0.093
-132.356	800.000	-0.021	0.088
-131.341	800.000	0.055	0.204
-130.326	-27.760	-0.007	-0.004
-129.312	-119.896	-0.292	0.050
-128.297	800.000	0.044	-0.160
-127.283	61.409	-0.199	-0.198
-126.268	-200.000	0.027	0.218
-125.253	-104.467	0.221	-0.051
-124.239	173.028	-0.094	-0.135
-123.224	59.426	-0.149	0.146
-122.210	82.292	-0.224	-0.243
