DTS Sentinel unit serial number:	SN413079Multiplexer serial number:	ORYXHardware model number:	OX4-SRSoftware version number:	ORYX F/W v4.00 Oryx Data Collector v3.7.2.0data status	okinstallation	princeton_trtdifferential loss correction	single-endedforward channel	channel 3reverse channel	N/Adate	2019/09/13time	00:44:34forward acquisition time	60.00reverse acquisition time	0.00gamma	496.2192k internal	0.2331k external	0.2331temperature offset calibration	1.0124default loss term (dB/km)	0.3790temperature slope calibration	1.0000multiplexer offset coefficient	1.0000multiplexer slope coefficient	1.0000fibre end	0.00T internal ref (°C)	28.20T ext. ref 1 (°C)	3.69T ext. ref 2 (°C)	22.77length (m)	temperature (°C)	Stokes	anti-Stokes-747.200	69.484	-0.138	0.143
-746.185	-74.440	-0.107	-0.039
-745.171	-200.000	-0.019	0.279
-744.156	800.000	0.067	-0.194
-743.142	-200.000	-0.040	0.225
-742.127	169.407	-0.182	0.262
-741.112	552.385	-0.073	-0.176
-740.098	-26.256	-0.127	-0.075
-739.083	50.139	0.307	0.292
-738.069	229.100	0.140	0.230
-737.054	-200.000	-0.002	0.099
-736.039	-200.000	-0.047	-0.313
-735.025	-200.000	0.036	-0.170
-734.010	132.487	0.186	0.241
-732.996	401.170	0.075	-0.159
-731.981	21.335	-0.169	-0.138
-730.966	800.000	0.034	-0.110
-729.952	6.683	0.007	-0.006
-728.937	175.484	-0.144	0.210
-727.923	674.281	0.078	-0.204
-726.908	198.253	-0.168	-0.258
-725.894	434.478	-0.071	0.155
-724.879	-200.000	-0.027	0.229
-723.864	255.420	-0.099	0.170
-722.850	-200.000	-0.004	-0.066
-721.835	112.358	-0.055	0.067
-720.821	321.783	0.117	-0.224
-719.806	-10.970	0.172	-0.114
-718.791	152.769	-0.117	-0.161
-717.777	720.096	0.010	-0.027
-716.762	503.583	-0.114	0.265
-715.748	-200.000	0.024	-0.445
-714.733	330.418	-0.113	-0.218
-713.718	323.765	-0.103	-0.198
-712.704	96.377	0.141	-0.162
-711.689	123.384	0.147	0.185
-710.675	-167.068	-0.431	-0.018
-709.660	8.759	0.201	0.152
-708.645	-22.374	0.147	0.089
-707.631	44.705	0.251	0.232
-706.616	-142.160	0.113	0.011
-705.602	101.847	-0.093	-0.109
-704.587	-200.000	0.001	-0.027
-703.572	226.131	-0.214	0.349
-702.558	52.788	-0.161	-0.155
-701.543	-121.131	-0.139	0.023
-700.529	42.563	0.083	-0.076
-699.514	96.030	0.228	0.262
-698.499	-39.658	-0.037	0.020
-697.485	-200.000	-0.039	-0.244
-696.470	25.796	-0.114	-0.095
-695.456	800.000	0.115	-0.403
-694.441	-72.152	-0.190	-0.071
-693.426	164.031	-0.106	0.151
-692.412	-124.187	0.143	0.023
-691.397	-25.417	0.177	-0.105
-690.383	-83.880	-0.166	0.053
-689.368	-122.853	0.104	0.017
-688.354	800.000	-0.073	-0.309
-687.339	-200.000	0.010	-0.331
-686.324	702.157	-0.081	-0.215
-685.310	-122.989	0.195	-0.032
-684.295	-43.864	-0.152	0.077
-683.281	-200.000	-0.042	-0.199
-682.266	50.681	0.207	-0.197
-681.251	-30.837	-0.389	-0.221
-680.237	800.000	-0.088	-0.330
-679.222	-21.729	-0.127	-0.078
-678.208	-30.537	-0.118	-0.067
-677.193	-2.958	0.104	-0.073
-676.178	-200.000	0.025	0.166
-675.164	-27.080	-0.327	-0.191
-674.149	-137.490	-0.357	-0.041
-673.135	-59.546	0.269	-0.116
-672.120	800.000	0.073	-0.208
-671.105	-84.216	-0.184	0.059
-670.091	-9.648	-0.124	-0.083
-669.076	77.769	0.169	0.181
-668.062	4.051	-0.031	-0.022
-667.047	235.191	-0.076	0.126
-666.032	26.185	-0.346	-0.290
-665.018	-23.283	0.259	-0.156
-664.003	260.200	-0.052	0.091
-662.989	238.334	-0.067	-0.112
-661.974	66.828	0.097	-0.099
-660.959	226.404	-0.195	-0.318
-659.945	800.000	-0.043	0.142
-658.930	28.593	0.083	0.071
-657.916	-200.000	0.004	-0.322
-656.901	-34.403	-0.129	-0.071
-655.886	224.841	-0.082	-0.133
-654.872	800.000	0.030	-0.100
-653.857	-30.718	-0.249	0.141
-652.843	-200.000	-0.035	-0.170
-651.828	-152.415	-0.185	-0.013
-650.814	800.000	0.083	-0.328
-649.799	234.276	0.092	0.152
-648.784	-128.644	0.365	0.052
-647.770	-137.305	0.107	-0.012
-646.755	149.344	0.216	-0.293
-645.741	-198.225	-0.098	0.001
-644.726	-200.000	0.080	-0.395
-643.711	-200.000	0.002	0.222
-642.697	358.403	0.065	-0.130
-641.682	129.082	0.021	-0.027
-640.668	-43.704	-0.265	-0.134
-639.653	2.146	-0.136	0.098
-638.638	19.389	-0.206	-0.166
-637.624	-88.560	0.242	0.072
-636.609	252.696	-0.141	0.241
-635.595	-138.696	-0.032	0.004
-634.580	54.326	0.160	-0.154
-633.565	-57.329	0.429	-0.189
-632.551	63.852	-0.144	-0.145
-631.536	283.956	-0.044	-0.079
-630.522	-29.021	-0.207	0.119
-629.507	-144.268	-0.218	-0.020
-628.492	15.480	-0.104	-0.082
-627.478	-108.817	-0.313	0.067
-626.463	-24.812	0.021	0.012
-625.449	192.046	-0.032	-0.048
-624.434	800.000	-0.090	-0.350
-623.419	800.000	-0.022	-0.083
-622.405	7.548	0.128	-0.096
-621.390	-200.000	-0.021	-0.197
-620.376	130.252	0.099	0.127
-619.361	-200.000	0.006	0.112
-618.346	-113.539	0.323	-0.063
-617.332	-200.000	-0.024	0.235
-616.317	-34.411	-0.194	-0.107
-615.303	-124.583	-0.157	-0.024
-614.288	-128.099	-0.375	0.054
-613.273	291.305	0.203	-0.370
-612.259	107.864	0.073	0.087
-611.244	-200.000	0.031	0.188
-610.230	87.549	0.059	-0.066
-609.215	-100.734	0.328	-0.081
-608.201	-106.946	-0.114	-0.025
-607.186	52.211	-0.212	0.202
-606.171	123.521	-0.158	0.199
-605.157	-20.205	-0.306	-0.189
-604.142	671.799	-0.099	-0.257
-603.128	800.000	0.081	0.249
-602.113	-145.251	0.370	0.034
-601.098	-200.000	0.003	-0.083
-600.084	-200.000	-0.005	0.237
-599.069	223.997	-0.206	-0.333
-598.055	214.067	0.114	-0.180
-597.040	236.274	0.058	0.097
-596.025	27.366	0.303	-0.255
-595.011	62.342	0.163	-0.163
-593.996	-88.460	-0.102	0.030
-592.982	-110.678	-0.156	0.032
-591.967	-89.331	-0.255	-0.075
-590.952	-200.000	0.000	0.379
-589.938	192.412	0.107	-0.161
-588.923	-11.341	0.203	0.134
-587.909	-200.000	-0.023	0.272
-586.894	-155.513	0.081	-0.005
-585.879	110.622	0.124	-0.149
-584.865	800.000	-0.111	-0.411
-583.850	277.568	0.112	0.200
-582.836	21.298	0.019	-0.015
-581.821	-62.993	0.124	-0.051
-580.806	225.624	0.073	-0.119
-579.792	552.124	-0.110	-0.265
-578.777	-93.836	0.186	-0.051
-577.763	379.576	-0.061	0.124
-576.748	-86.857	0.281	-0.086
-575.733	106.547	0.081	0.096
-574.719	434.322	0.109	0.236
-573.704	14.686	-0.037	-0.029
-572.690	254.562	0.066	-0.112
-571.675	-31.780	0.114	-0.064
-570.661	-200.000	-0.051	-0.251
-569.646	-108.868	-0.114	-0.024
-568.631	83.999	0.149	-0.162
-567.617	-200.000	-0.049	0.493
-566.602	-135.546	-0.385	0.046
-565.588	-77.315	0.291	0.101
-564.573	-80.157	0.277	-0.093
-563.558	79.378	-0.202	0.216
-562.544	325.123	-0.048	0.091
-561.529	31.218	0.350	0.300
-560.515	800.000	-0.181	0.653
-559.500	1.033	-0.063	-0.045
-558.485	178.027	-0.408	-0.594
-557.471	367.229	-0.128	0.258
-556.456	57.092	-0.201	-0.196
-555.442	92.312	0.172	0.193
-554.427	30.851	0.078	-0.067
-553.412	-160.366	0.249	0.013
-552.398	172.081	0.166	-0.239
-551.383	-22.502	-0.142	0.086
-550.369	800.000	-0.037	0.146
-549.354	219.922	-0.069	-0.111
-548.339	56.874	0.226	-0.220
-547.325	348.050	-0.100	0.197
-546.310	11.818	0.439	0.337
-545.296	-183.812	-0.584	-0.010
-544.281	-43.659	0.034	0.017
-543.266	-29.764	0.262	-0.149
-542.252	-200.000	-0.004	0.116
-541.237	-39.546	-0.039	0.020
-540.223	-158.367	0.097	-0.006
-539.208	-200.000	-0.048	0.236
-538.193	752.912	0.076	0.206
-537.179	-50.679	0.308	0.145
-536.164	800.000	0.049	0.140
-535.150	229.048	0.085	0.139
-534.135	-65.776	0.263	0.105
-533.121	502.426	0.047	-0.109
-532.106	800.000	0.024	0.103
-531.091	679.067	0.045	-0.118
-530.077	-23.891	0.089	-0.053
-529.062	-109.521	0.232	0.049
-528.048	-200.000	0.009	-0.055
-527.033	235.091	-0.065	0.107
-526.018	-200.000	-0.004	0.018
-525.004	-139.553	-0.126	-0.013
-523.989	3.261	-0.298	-0.217
-522.975	-28.778	0.179	0.103
-521.960	-85.154	0.237	0.074
-520.945	-200.000	0.050	0.259
-519.931	-124.164	0.464	0.072
-518.916	602.352	0.099	-0.246
-517.902	-135.327	-0.360	-0.043
-516.887	46.546	-0.168	-0.156
-515.872	800.000	-0.071	0.278
-514.858	-71.068	-0.107	0.040
-513.843	-52.681	-0.189	0.087
-512.829	-200.000	0.036	0.372
-511.814	92.234	-0.115	-0.129
-510.799	178.215	0.148	0.215
-509.785	58.244	-0.091	-0.089
-508.770	85.786	0.037	0.040
-507.756	800.000	0.032	0.114
-506.741	492.154	0.070	0.159
-505.726	164.334	-0.115	0.162
-504.712	-157.953	-0.319	-0.019
-503.697	-136.851	0.102	0.012
-502.683	395.359	-0.069	0.143
-501.668	-200.000	0.003	-0.187
-500.653	-200.000	0.035	-0.273
-499.639	-200.000	0.004	0.118
-498.624	119.161	0.061	-0.076
-497.610	-155.482	0.058	-0.004
-496.595	69.491	-0.107	-0.109
-495.581	82.012	-0.154	0.166
-494.566	800.000	0.032	0.125
-493.551	-200.000	0.041	0.234
-492.537	460.978	-0.086	0.190
-491.522	-200.000	-0.007	-0.194
-490.508	-17.177	-0.104	0.065
-489.493	-117.228	0.173	0.031
-488.478	94.718	0.357	-0.404
-487.464	-40.153	-0.099	-0.051
-486.449	169.307	0.054	-0.077
-485.435	130.173	-0.193	-0.246
-484.420	208.438	-0.030	-0.046
-483.405	445.999	-0.084	0.183
-482.391	-162.378	-0.212	-0.010
-481.376	-57.033	0.289	0.127
-480.362	249.377	0.142	0.239
-479.347	-115.106	-0.066	0.012
-478.332	-200.000	-0.003	0.113
-477.318	407.176	0.071	-0.149
-476.303	384.136	0.061	-0.124
-475.289	197.626	0.070	-0.106
-474.274	43.854	0.057	-0.052
-473.259	184.440	-0.067	-0.100
-472.245	-200.000	0.012	-0.307
-471.230	-173.579	-0.183	0.005
-470.216	800.000	0.040	0.155
-469.201	-98.549	-0.098	0.025
-468.186	-21.330	-0.212	-0.129
-467.172	-200.000	0.044	-0.219
-466.157	-93.538	-0.070	0.019
-465.143	-132.651	-0.122	0.016
-464.128	-138.264	0.232	-0.026
-463.113	-25.776	-0.271	0.159
-462.099	137.308	-0.296	0.385
-461.084	-28.269	-0.485	0.279
-460.070	-0.975	-0.142	-0.100
-459.055	444.290	0.123	0.269
-458.040	800.000	-0.049	-0.167
-457.026	171.318	0.093	0.133
-456.011	50.704	0.164	0.155
-454.997	611.260	0.123	-0.307
-453.982	149.761	-0.077	0.104
-452.968	-200.000	-0.011	-0.138
-451.953	297.863	0.205	0.375
-450.938	78.707	-0.275	0.293
-449.924	-14.159	-0.434	-0.278
-448.909	-200.000	0.010	0.181
-447.895	-136.560	0.324	-0.037
-446.880	173.137	0.054	0.077
-445.865	71.413	0.077	0.080
-444.851	-83.080	-0.135	-0.043
-443.836	331.480	0.079	0.151
-442.822	-200.000	0.034	-0.171
-441.807	-200.000	0.045	0.337
-440.792	-93.470	-0.252	-0.069
-439.778	149.473	-0.159	-0.215
-438.763	286.219	-0.122	-0.219
-437.749	-119.273	0.223	0.039
-436.734	78.117	0.213	0.226
-435.719	800.000	-0.056	0.180
-434.705	-120.583	0.160	0.027
-433.690	1.677	0.203	0.145
-432.676	-143.338	0.404	0.039
-431.661	-99.355	0.210	0.053
-430.646	-200.000	-0.015	-0.128
-429.632	800.000	0.014	-0.040
-428.617	278.268	-0.048	-0.085
-427.603	800.000	0.039	-0.146
-426.588	186.997	-0.104	0.155
-425.573	26.899	0.248	0.207
-424.559	-200.000	-0.010	-0.332
-423.544	50.260	0.143	-0.134
-422.530	149.631	-0.059	-0.079
-421.515	-128.662	0.447	0.063
-420.500	800.000	0.037	-0.119
-419.486	-87.210	0.358	-0.108
-418.471	415.702	-0.107	0.228
-417.457	-200.000	-0.040	0.258
-416.442	12.393	-0.028	-0.021
-415.428	383.174	-0.147	0.301
-414.413	147.766	0.105	-0.141
-413.398	35.551	-0.240	-0.209
-412.384	800.000	-0.045	-0.173
-411.369	-167.747	-0.142	-0.006
-410.355	-176.148	0.164	0.004
-409.340	175.013	0.113	-0.163
-408.325	26.319	0.294	-0.244
-407.311	-200.000	-0.007	0.162
-406.296	-200.000	0.018	0.288
-405.282	-88.408	-0.393	-0.117
-404.267	105.780	0.162	-0.190
-403.252	5.811	0.179	0.132
-402.238	-139.398	-0.010	-0.001
-401.223	800.000	-0.014	-0.052
-400.209	64.665	0.067	0.068
-399.194	-48.621	-0.063	-0.030
-398.179	-200.000	-0.030	0.393
-397.165	-200.000	0.039	0.235
-396.150	-200.000	0.009	-0.321
-395.136	-104.800	0.202	-0.046
-394.121	-162.794	-0.406	0.020
-393.106	-200.000	-0.011	-0.161
-392.092	95.593	0.258	-0.293
-391.077	7.972	0.179	-0.133
-390.063	-80.444	-0.083	-0.027
-389.048	-42.918	-0.049	-0.025
-388.033	800.000	-0.072	-0.276
-387.019	-119.057	0.160	0.028
-386.004	352.978	0.139	-0.273
-384.990	-30.312	-0.180	-0.102
-383.975	-200.000	-0.040	-0.301
-382.960	-200.000	-0.010	0.308
-381.946	800.000	0.016	-0.049
-380.931	136.798	-0.222	-0.288
-379.917	-200.000	-0.046	0.254
-378.902	-139.865	0.151	-0.016
-377.888	152.812	0.086	0.117
-376.873	-200.000	-0.049	0.308
-375.858	447.729	-0.041	0.090
-374.844	-16.118	-0.250	-0.158
-373.829	-200.000	-0.017	0.357
-372.815	800.000	0.015	-0.053
-371.800	-92.413	-0.202	-0.056
-370.785	-200.000	0.068	0.386
-369.771	-200.000	0.010	-0.254
-368.756	75.508	-0.192	-0.201
-367.742	-98.070	-0.287	0.073
-366.727	31.704	-0.195	-0.167
-365.712	-136.158	0.167	-0.019
-364.698	-108.104	0.461	-0.099
-363.683	-90.794	0.060	-0.017
-362.669	-200.000	0.314	0.000
-361.654	-51.949	-0.035	-0.016
-360.639	-72.226	-0.205	-0.075
-359.625	-77.561	-0.368	0.126
-358.610	583.148	-0.099	0.241
-357.596	-74.985	-0.067	-0.024
-356.581	238.389	-0.097	0.160
-355.566	-180.059	0.212	-0.004
-354.552	214.739	-0.116	-0.183
-353.537	-171.055	0.189	0.006
-352.523	800.000	-0.015	-0.048
-351.508	13.581	-0.437	-0.336
-350.493	-117.468	0.262	-0.047
-349.479	-200.000	0.025	-0.247
-348.464	-200.000	-0.025	-0.252
-347.450	800.000	-0.073	0.290
-346.435	69.690	0.174	0.178
-345.420	93.372	0.209	0.234
-344.406	-115.521	-0.205	0.038
-343.391	380.948	0.114	0.232
-342.377	-97.608	-0.247	-0.064
-341.362	-164.145	0.285	-0.013
-340.348	52.523	-0.154	-0.146
-339.333	100.148	0.006	-0.007
-338.318	-200.000	0.021	-0.313
-337.304	23.360	-0.042	0.034
-336.289	-140.592	-0.127	0.013
-335.275	-16.724	0.347	0.217
-334.260	172.051	0.066	0.095
-333.245	-103.565	0.200	-0.047
-332.231	114.915	0.085	0.103
-331.216	800.000	0.080	0.229
-330.202	3.121	0.196	-0.141
-329.187	-200.000	-0.031	0.147
-328.172	-84.037	-0.179	0.056
-327.158	-200.000	-0.000	-0.124
-326.143	-84.247	-0.430	-0.135
-325.129	-53.517	-0.097	0.044
-324.114	-87.262	-0.439	0.132
-323.099	25.595	0.145	0.120
-322.085	186.925	-0.017	-0.025
-321.070	190.044	-0.100	0.149
-320.056	-200.000	0.010	0.104
-319.041	135.238	0.027	-0.035
-318.026	253.064	-0.111	-0.187
-317.012	-156.168	-0.143	-0.009
-315.997	-200.000	0.052	-0.335
-314.983	-162.897	-0.238	-0.011
-313.968	-86.104	-0.236	-0.072
-312.953	-200.000	0.018	-0.296
-311.939	4.423	0.266	-0.193
-310.924	-4.229	0.242	-0.166
-309.910	70.794	0.340	-0.349
-308.895	800.000	0.044	0.177
-307.880	-116.709	0.098	-0.018
-306.866	-200.000	-0.022	0.153
-305.851	552.884	-0.161	0.383
-304.837	135.731	-0.100	0.129
-303.822	388.549	-0.111	0.228
-302.807	209.572	-0.183	0.284
-301.793	-200.000	0.037	0.290
-300.778	-57.348	0.219	0.095
-299.764	-192.050	0.083	0.001
-298.749	11.411	0.038	0.029
-297.735	800.000	0.045	-0.162
-296.720	-200.000	-0.004	-0.028
-295.705	800.000	0.053	-0.214
-294.691	-200.000	0.035	-0.169
-293.676	217.259	-0.272	0.429
-292.662	-141.816	0.227	0.023
-291.647	-44.514	0.268	0.133
-290.632	-200.000	-0.103	0.484
-289.618	239.833	-0.143	0.236
-288.603	458.227	0.051	-0.113
-287.589	106.329	0.262	-0.307
-286.574	-90.679	-0.227	-0.065
-285.559	15.477	-0.132	-0.102
-284.545	-76.896	0.053	-0.018
-283.530	679.356	-0.162	-0.417
-282.516	544.994	0.074	-0.174
-281.501	577.637	0.202	-0.488
-280.486	24.582	-0.320	0.262
-279.472	-2.406	0.237	0.164
-278.457	-81.367	0.174	-0.057
-277.443	-106.293	0.209	0.046
-276.428	-31.193	-0.077	-0.043
-275.413	-200.000	-0.052	-0.245
-274.399	372.168	-0.072	-0.145
-273.384	-92.062	-0.153	-0.043
-272.370	-12.476	-0.193	-0.124
-271.355	106.417	0.057	-0.066
-270.340	-132.700	-0.102	0.013
-269.326	-200.000	-0.025	-0.150
-268.311	-200.000	0.039	0.442
-267.297	355.640	0.015	0.029
-266.282	-105.504	-0.236	0.053
-265.267	-81.347	0.286	-0.093
-264.253	-44.671	-0.234	0.115
-263.238	89.172	-0.145	-0.159
-262.224	-200.000	0.004	0.160
-261.209	800.000	-0.057	0.162
-260.195	-107.303	0.253	-0.055
-259.180	91.323	-0.242	-0.268
-258.165	-105.054	-0.200	-0.045
-257.151	-193.842	0.262	-0.002
-256.136	800.000	0.070	-0.296
-255.122	-18.724	0.057	-0.035
-254.107	-120.011	0.241	-0.041
-253.092	8.420	-0.250	0.185
-252.078	604.941	0.087	-0.214
-251.063	-200.000	0.005	0.107
-250.049	-47.052	-0.084	-0.041
-249.034	-200.000	-0.012	0.078
-248.019	74.870	-0.237	0.246
-247.005	-145.032	-0.541	0.049
-245.990	11.150	0.081	-0.061
-244.976	-146.077	-0.325	-0.028
-243.961	-61.444	-0.146	0.060
-242.946	-94.881	0.068	0.018
-241.932	-135.611	0.265	0.031
-240.917	179.432	-0.098	0.142
-239.903	800.000	0.034	-0.123
-238.888	33.598	-0.311	-0.266
-237.873	-120.523	-0.231	0.039
-236.859	-200.000	-0.023	-0.165
-235.844	32.747	0.214	-0.183
-234.830	-200.000	-0.011	-0.093
-233.815	-3.313	0.139	-0.096
-232.800	-200.000	-0.074	-0.448
-231.786	681.648	-0.113	0.289
-230.771	-75.241	0.091	0.032
-229.757	-86.399	-0.283	-0.086
-228.742	-200.000	0.065	0.377
-227.727	-55.885	-0.142	-0.063
-226.713	0.008	-0.131	0.092
-225.698	339.135	-0.149	-0.286
-224.684	-26.257	0.352	-0.204
-223.669	384.982	-0.054	0.110
-222.655	-133.733	-0.166	0.020
-221.640	510.966	0.179	0.412
-220.625	-200.000	0.025	0.200
-219.611	-73.451	-0.145	-0.052
-218.596	800.000	0.106	0.307
-217.582	-31.666	0.093	-0.051
-216.567	-141.860	0.492	0.049
-215.552	242.337	0.185	0.306
-214.538	-101.177	0.158	-0.038
-213.523	-26.999	-0.178	-0.103
-212.509	-200.000	-0.008	0.049
-211.494	14.924	-0.205	-0.158
-210.479	800.000	0.038	-0.143
-209.465	-200.000	0.002	0.291
-208.450	145.008	-0.180	-0.237
-207.436	-80.936	0.101	0.033
-206.421	-29.732	-0.244	0.137
-205.406	758.928	-0.040	0.108
-204.392	371.520	-0.067	0.134
-203.377	41.924	0.136	0.122
-202.363	-57.716	0.115	-0.049
-201.348	1.655	0.199	0.141
-200.333	-17.467	-0.198	0.123
-199.319	168.459	0.122	-0.172
-198.304	-133.850	-0.134	0.016
-197.290	166.899	0.091	0.128
-196.275	-200.000	-0.010	-0.116
-195.260	800.000	-0.062	-0.249
-194.246	-200.000	0.016	0.224
-193.231	258.722	0.113	-0.192
-192.217	-86.122	-0.043	-0.013
-191.202	296.934	-0.078	0.142
-190.187	405.046	-0.098	-0.203
-189.173	82.613	-0.124	-0.132
-188.158	-157.518	0.377	0.022
-187.144	-111.871	-0.302	0.060
-186.129	137.169	-0.240	-0.309
-185.114	-164.619	-0.143	-0.006
-184.100	-89.567	-0.162	0.047
-183.085	-200.000	0.017	0.203
-182.071	-84.742	-0.096	-0.030
-181.056	800.000	-0.053	-0.145
-180.042	350.565	-0.090	0.175
-179.027	800.000	-0.056	-0.188
-178.012	-200.000	-0.060	-0.287
-176.998	511.320	-0.192	-0.441
-175.983	248.917	0.162	-0.270
-174.969	-88.286	0.077	0.023
-173.954	781.534	-0.031	0.085
-172.939	-103.164	0.331	-0.077
-171.925	-25.204	-0.164	0.095
-170.910	-66.105	0.182	0.072
-169.896	-9.785	-0.158	-0.104
-168.881	1.012	-0.016	-0.011
-167.866	397.915	-0.064	-0.132
-166.852	-9.643	-0.121	-0.079
-165.837	-58.979	0.290	-0.123
-164.823	-0.596	0.014	-0.010
-163.808	-200.000	0.042	0.368
-162.793	800.000	0.073	0.208
-161.779	-27.972	-0.016	0.009
-160.764	-13.870	0.111	-0.070
-159.750	449.838	0.158	0.342
-158.735	425.091	-0.136	-0.289
-157.720	492.566	-0.090	0.204
-156.706	130.052	0.202	-0.254
-155.691	-51.833	0.262	-0.120
-154.677	-200.000	-0.029	0.179
-153.662	711.423	-0.108	0.280
-152.647	30.962	0.113	-0.096
-151.633	205.998	-0.024	0.037
-150.618	800.000	0.058	-0.215
-149.604	-37.769	0.325	0.170
-148.589	-24.607	-0.070	-0.041
-147.574	-55.936	0.189	-0.083
-146.560	800.000	-0.035	0.106
-145.545	29.601	-0.144	0.120
-144.531	320.704	0.084	0.156
-143.516	-153.408	0.303	-0.021
-142.502	249.292	-0.099	0.164
-141.487	232.488	0.147	0.238
-140.472	9.607	-0.051	-0.038
-139.458	20.391	-0.133	0.106
-138.443	171.644	-0.058	0.081
-137.429	342.212	-0.021	-0.040
-136.414	-200.000	-0.016	-0.189
-135.399	-138.639	0.605	0.065
-134.385	45.099	-0.223	0.202
-133.370	-97.543	-0.178	-0.045
-132.356	271.260	0.103	-0.178
-131.341	206.196	0.150	-0.230
-130.326	-200.000	-0.010	-0.377
-129.312	-200.000	0.076	0.453
-128.297	-160.475	0.079	-0.004
-127.283	-115.109	0.218	-0.041
-126.268	514.931	0.066	-0.150
-125.253	-88.156	-0.371	-0.109
-124.239	-192.459	0.115	-0.001
-123.224	393.727	-0.098	0.200
-122.210	-23.267	-0.299	0.177
