DTS Sentinel unit serial number:	SN413079Multiplexer serial number:	ORYXHardware model number:	OX4-SRSoftware version number:	ORYX F/W v4.00 Oryx Data Collector v3.7.2.0data status	okinstallation	princeton_trtdifferential loss correction	single-endedforward channel	channel 3reverse channel	N/Adate	2019/09/13time	13:32:35forward acquisition time	60.00reverse acquisition time	0.00gamma	496.2192k internal	0.2303k external	0.2303temperature offset calibration	1.0146default loss term (dB/km)	0.3790temperature slope calibration	1.0000multiplexer offset coefficient	1.0000multiplexer slope coefficient	1.0000fibre end	0.00T internal ref (°C)	35.03T ext. ref 1 (°C)	4.57T ext. ref 2 (°C)	31.05length (m)	temperature (°C)	Stokes	anti-Stokes-747.200	-96.917	-0.203	0.054
-746.185	582.594	-0.019	-0.049
-745.171	131.263	0.086	-0.112
-744.156	-142.275	-0.391	0.039
-743.142	-27.801	0.111	-0.066
-742.127	85.006	0.062	0.069
-741.112	800.000	-0.053	0.180
-740.098	-49.373	-0.292	0.142
-739.083	-119.588	0.074	0.013
-738.069	261.919	-0.211	0.372
-737.054	27.105	-0.053	-0.046
-736.039	171.561	-0.161	0.236
-735.025	-27.458	-0.098	-0.058
-734.010	-200.000	0.062	-0.333
-732.996	-118.642	-0.290	-0.052
-731.981	-200.000	-0.001	0.136
-730.966	-8.335	-0.170	0.116
-729.952	182.161	0.109	-0.163
-728.937	297.883	-0.062	0.117
-727.923	800.000	-0.050	-0.151
-726.908	-200.000	0.008	0.108
-725.894	224.308	-0.270	-0.444
-724.879	-200.000	0.012	-0.099
-723.864	129.125	0.115	-0.149
-722.850	97.577	-0.148	-0.173
-721.835	-82.591	-0.126	-0.042
-720.821	-111.553	-0.209	-0.043
-719.806	-200.000	0.019	0.138
-718.791	249.978	-0.084	0.146
-717.777	800.000	-0.055	0.213
-716.762	-200.000	-0.007	-0.184
-715.748	-76.228	0.215	-0.077
-714.733	-127.690	-0.331	-0.049
-713.718	-33.486	0.196	-0.110
-712.704	-200.000	0.008	-0.117
-711.689	48.750	-0.320	0.305
-710.675	73.789	-0.196	-0.209
-709.660	21.478	0.043	-0.036
-708.645	85.099	-0.050	-0.055
-707.631	-73.486	0.078	0.029
-706.616	200.657	0.061	-0.096
-705.602	548.810	0.059	-0.145
-704.587	-18.634	0.107	0.068
-703.572	-200.000	-0.184	-0.001
-702.558	403.008	-0.126	-0.270
-701.543	-39.289	-0.108	-0.058
-700.529	183.586	0.105	-0.158
-699.514	32.381	0.363	-0.318
-698.499	135.996	0.156	-0.207
-697.485	-200.000	0.027	0.190
-696.470	-78.116	0.069	-0.024
-695.456	-78.443	-0.233	0.081
-694.441	104.760	-0.153	-0.183
-693.426	-136.748	-0.209	-0.024
-692.412	-30.968	-0.274	-0.157
-691.397	58.393	0.361	-0.360
-690.383	0.856	-0.115	0.084
-689.368	-96.128	-0.332	-0.090
-688.354	237.769	0.045	0.076
-687.339	800.000	0.051	0.164
-686.324	189.182	-0.054	0.082
-685.310	-23.089	0.260	-0.159
-684.295	-58.985	-0.130	-0.057
-683.281	-23.672	-0.176	0.107
-682.266	16.132	0.267	-0.214
-681.251	-200.000	0.041	-0.205
-680.237	356.566	0.077	0.155
-679.222	84.030	-0.039	-0.043
-678.208	-52.470	0.179	-0.084
-677.193	800.000	0.055	-0.163
-676.178	248.071	-0.205	-0.353
-675.164	188.278	-0.204	0.310
-674.149	749.883	-0.103	0.281
-673.135	-64.772	0.330	0.136
-672.120	233.828	0.141	-0.235
-671.105	560.366	-0.024	-0.060
-670.091	0.681	0.088	-0.064
-669.076	-36.674	-0.138	-0.075
-668.062	727.569	0.076	0.205
-667.047	265.781	-0.184	0.326
-666.032	207.717	-0.120	-0.190
-665.018	287.885	-0.139	-0.255
-664.003	800.000	0.093	0.293
-662.989	148.503	-0.060	0.082
-661.974	-30.460	-0.142	-0.082
-660.959	-70.328	-0.239	-0.092
-659.945	206.761	-0.070	0.111
-658.930	-109.622	0.355	-0.076
-657.916	-200.000	-0.008	0.190
-656.901	-71.966	-0.311	-0.117
-655.886	6.754	-0.118	0.089
-654.872	326.283	-0.074	0.143
-653.857	800.000	-0.024	0.079
-652.843	142.397	0.081	-0.109
-651.828	178.802	-0.097	0.143
-650.814	90.994	0.306	-0.348
-649.799	526.775	-0.062	0.147
-648.784	-180.878	-0.269	0.006
-647.770	-111.095	-0.295	0.061
-646.755	211.902	0.243	-0.389
-645.741	383.534	0.130	0.272
-644.726	-98.404	0.302	-0.079
-643.711	-100.721	-0.384	0.096
-642.697	-200.000	-0.002	0.368
-641.682	7.440	0.103	0.078
-640.668	-158.951	0.096	0.006
-639.653	800.000	-0.078	-0.245
-638.638	800.000	0.035	0.123
-637.624	402.680	-0.181	-0.387
-636.609	585.049	-0.075	0.187
-635.595	373.299	0.032	-0.066
-634.580	-93.138	0.098	0.028
-633.565	3.056	-0.073	0.054
-632.551	-131.127	-0.161	-0.022
-631.536	-68.313	-0.112	0.044
-630.522	70.944	0.102	-0.108
-629.507	-170.876	-0.154	0.005
-628.492	298.779	-0.119	-0.222
-627.478	132.003	-0.179	-0.234
-626.463	272.564	0.093	-0.166
-625.449	375.829	0.104	-0.214
-624.434	731.224	0.120	-0.326
-623.419	800.000	-0.051	-0.154
-622.405	73.901	0.077	-0.082
-621.390	800.000	-0.093	0.277
-620.376	800.000	-0.115	-0.383
-619.361	108.370	0.111	0.135
-618.346	549.798	-0.127	0.307
-617.332	124.918	-0.154	0.196
-616.317	60.921	0.118	0.119
-615.303	-48.861	0.036	-0.018
-614.288	-200.000	0.009	0.192
-613.273	263.651	-0.231	0.406
-612.259	303.433	-0.046	0.087
-611.244	55.937	-0.106	0.104
-610.230	-83.227	-0.203	-0.066
-609.215	5.905	0.332	0.249
-608.201	391.367	0.079	-0.165
-607.186	-200.000	0.063	-0.451
-606.171	159.844	-0.063	-0.089
-605.157	55.370	-0.361	-0.354
-604.142	800.000	-0.092	-0.322
-603.128	326.471	0.125	-0.243
-602.113	-154.141	-0.216	-0.015
-601.098	-96.009	0.293	0.079
-600.084	-163.164	-0.343	-0.017
-599.069	717.649	0.114	0.307
-598.055	20.854	-0.172	0.141
-597.040	-163.781	0.143	-0.007
-596.025	-115.514	-0.308	0.059
-595.011	-200.000	-0.009	-0.207
-593.996	-200.000	0.053	0.297
-592.982	-200.000	0.036	0.307
-591.967	-200.000	0.010	-0.084
-590.952	800.000	-0.048	-0.175
-589.938	120.352	-0.112	-0.141
-588.923	-101.048	0.131	0.033
-587.909	68.499	-0.073	-0.075
-586.894	17.036	0.272	-0.218
-585.879	-200.000	-0.044	-0.197
-584.865	42.529	-0.156	0.144
-583.850	151.356	-0.146	-0.201
-582.836	497.523	0.079	-0.185
-581.821	248.636	-0.080	-0.137
-580.806	-167.790	-0.130	0.005
-579.792	-200.000	0.020	-0.204
-578.777	-200.000	0.045	-0.263
-577.763	-184.040	-0.068	-0.001
-576.748	-138.433	-0.238	-0.027
-575.733	-200.000	0.027	-0.126
-574.719	671.899	-0.014	-0.037
-573.704	46.963	0.104	0.098
-572.690	170.157	-0.152	-0.221
-571.675	-48.439	-0.350	0.171
-570.661	506.010	0.045	0.105
-569.646	-200.000	0.033	-0.389
-568.631	131.416	0.189	-0.246
-567.617	4.597	0.247	0.184
-566.602	-200.000	0.019	0.089
-565.588	358.804	-0.088	-0.177
-564.573	743.542	-0.056	0.153
-563.558	-176.522	0.183	0.005
-562.544	-200.000	-0.094	0.436
-561.529	-128.068	-0.331	-0.048
-560.515	593.329	0.033	0.082
-559.500	175.027	0.079	-0.116
-558.485	126.214	-0.130	-0.166
-557.471	-97.474	0.263	-0.069
-556.456	-162.940	-0.139	-0.007
-555.442	-200.000	-0.349	-0.001
-554.427	-11.480	-0.085	-0.057
-553.412	320.259	0.059	-0.113
-552.398	-200.000	0.006	0.349
-551.383	-40.767	-0.108	-0.057
-550.369	195.203	0.081	-0.125
-549.354	-147.485	0.228	0.019
-548.339	-34.880	-0.273	0.151
-547.325	-200.000	-0.078	0.368
-546.310	-86.827	-0.197	0.061
-545.296	10.129	0.101	-0.077
-544.281	263.968	-0.068	-0.119
-543.266	-88.162	0.063	-0.019
-542.252	78.660	-0.314	-0.339
-541.237	800.000	-0.048	-0.154
-540.223	149.768	-0.082	-0.113
-539.208	142.494	-0.077	0.104
-538.193	-50.167	0.179	0.086
-537.179	474.805	-0.038	0.086
-536.164	-107.532	0.290	-0.064
-535.150	-98.330	0.164	0.043
-534.135	-64.704	-0.254	-0.104
-533.121	-115.022	0.069	0.013
-532.106	98.145	0.037	-0.044
-531.091	-55.166	0.257	-0.117
-530.077	79.557	-0.067	0.072
-529.062	-63.464	-0.484	-0.201
-528.048	-200.000	-0.020	-0.092
-527.033	-36.353	-0.027	0.015
-526.018	-200.000	-0.055	-0.360
-525.004	-135.387	-0.282	-0.034
-523.989	797.919	-0.111	-0.310
-522.975	-13.340	-0.210	0.138
-521.960	-61.375	-0.207	0.088
-520.945	-4.559	-0.328	-0.229
-519.931	-200.000	-0.016	-0.176
-518.916	65.292	0.108	0.111
-517.902	519.945	0.091	-0.216
-516.887	800.000	0.106	-0.362
-515.872	301.188	0.150	-0.280
-514.858	800.000	0.096	0.304
-513.843	12.217	0.120	0.093
-512.829	-24.020	0.138	-0.083
-511.814	-200.000	0.056	0.396
-510.799	468.503	0.037	-0.085
-509.785	-127.610	0.157	-0.023
-508.770	176.726	-0.210	-0.308
-507.756	-112.732	-0.329	0.066
-506.741	-151.827	0.407	0.030
-505.726	-97.154	0.116	-0.031
-504.712	-175.128	-0.068	-0.002
-503.697	-50.385	-0.175	0.083
-502.683	72.396	0.273	-0.287
-501.668	-140.792	-0.138	-0.014
-500.653	800.000	0.062	-0.231
-499.639	800.000	0.081	0.316
-498.624	800.000	0.025	0.084
-497.610	-56.997	0.178	0.079
-496.595	8.063	-0.082	0.062
-495.581	-156.429	-0.200	0.013
-494.566	800.000	-0.012	0.035
-493.551	190.423	-0.118	0.178
-492.537	77.642	0.115	0.123
-491.522	800.000	-0.029	-0.122
-490.508	-37.412	0.352	0.190
-489.493	-42.870	-0.246	-0.126
-488.478	60.898	-0.038	0.038
-487.464	-200.000	-0.001	-0.218
-486.449	14.177	0.098	-0.077
-485.435	97.529	-0.091	-0.106
-484.420	-123.552	-0.289	-0.046
-483.405	-3.559	0.087	0.061
-482.391	-182.667	0.333	0.006
-481.376	-28.659	-0.093	0.054
-480.362	-103.874	0.058	-0.014
-479.347	-43.316	0.228	0.116
-478.332	-20.543	-0.062	-0.038
-477.318	-109.126	0.090	0.019
-476.303	-36.627	-0.227	0.123
-475.289	-11.735	-0.325	0.215
-474.274	274.588	-0.009	-0.015
-473.259	-11.866	0.090	0.059
-472.245	-124.980	0.353	0.055
-471.230	11.995	-0.262	0.203
-470.216	167.402	-0.200	0.287
-469.201	373.966	-0.129	-0.265
-468.186	116.033	-0.120	0.148
-467.172	-99.593	0.314	-0.079
-466.157	-73.331	-0.061	0.023
-465.143	413.450	0.138	-0.297
-464.128	-29.203	0.099	-0.057
-463.113	-12.700	-0.199	-0.131
-462.099	469.733	0.059	0.133
-461.084	304.094	0.174	-0.326
-460.070	-79.733	0.210	-0.071
-459.055	87.989	0.037	-0.041
-458.040	-92.166	-0.130	0.037
-457.026	12.370	-0.139	0.108
-456.011	151.781	0.120	0.164
-454.997	178.056	-0.257	0.378
-453.982	32.559	0.168	-0.147
-452.968	-55.855	-0.350	0.157
-451.953	-200.000	-0.029	0.144
-450.938	800.000	0.114	-0.347
-449.924	126.082	0.156	-0.198
-448.909	-87.133	0.142	-0.044
-447.895	-139.579	0.120	0.013
-446.880	-79.810	-0.357	-0.121
-445.865	800.000	0.107	0.383
-444.851	800.000	-0.065	0.266
-443.836	723.273	-0.162	-0.435
-442.822	-88.448	0.107	-0.032
-441.807	7.577	0.113	0.085
-440.792	-69.346	0.149	0.057
-439.778	-97.703	-0.172	0.045
-438.763	-123.324	0.042	-0.007
-437.749	-166.667	0.139	0.006
-436.734	110.499	-0.197	0.238
-435.719	-200.000	0.003	0.109
-434.705	-30.140	-0.145	0.083
-433.690	758.500	0.068	0.185
-432.676	218.710	0.100	-0.161
-431.661	800.000	-0.090	-0.263
-430.646	-80.915	-0.250	-0.083
-429.632	455.850	0.133	0.296
-428.617	-23.214	-0.201	0.122
-427.603	661.350	0.052	0.136
-426.588	-9.452	0.362	0.243
-425.573	27.759	0.094	-0.080
-424.559	-110.765	0.173	-0.036
-423.544	39.908	0.044	0.040
-422.530	17.497	0.134	-0.107
-421.515	227.216	-0.135	0.220
-420.500	800.000	-0.034	0.119
-419.486	800.000	0.023	-0.082
-418.471	-50.738	-0.281	0.133
-417.457	-34.641	0.134	-0.074
-416.442	-53.247	0.169	-0.078
-415.428	-200.000	-0.007	0.107
-414.413	-90.345	-0.242	0.071
-413.398	17.636	-0.203	0.163
-412.384	-166.107	-0.243	-0.010
-411.369	56.470	0.253	-0.247
-410.355	98.933	0.151	0.175
-409.340	220.098	-0.151	-0.243
-408.325	288.514	0.124	-0.225
-407.311	-14.877	0.144	-0.093
-406.296	95.263	0.304	-0.348
-405.282	-200.000	-0.074	-0.336
-404.267	556.070	-0.090	-0.217
-403.252	108.168	0.194	0.233
-402.238	-200.000	-0.009	0.127
-401.223	-106.979	-0.153	-0.034
-400.209	401.709	0.129	-0.273
-399.194	157.062	-0.213	0.296
-398.179	50.801	0.113	0.107
-397.165	124.665	0.120	-0.152
-396.150	349.334	-0.143	0.283
-395.136	-126.475	-0.166	0.025
-394.121	433.414	-0.083	0.181
-393.106	665.207	0.089	-0.231
-392.092	800.000	0.075	-0.280
-391.077	800.000	0.078	-0.239
-390.063	-135.525	0.135	-0.016
-389.048	-30.211	-0.043	-0.025
-388.033	102.296	-0.134	-0.157
-387.019	-10.152	-0.192	0.128
-386.004	151.299	0.147	0.201
-384.990	-18.659	-0.293	0.183
-383.975	800.000	0.107	0.330
-382.960	-67.318	-0.106	0.042
-381.946	-36.777	0.031	-0.016
-380.931	-71.626	0.110	0.041
-379.917	-19.118	-0.064	0.040
-378.902	-11.439	0.099	0.065
-377.888	-3.390	0.116	0.081
-376.873	800.000	-0.036	-0.126
-375.858	-200.000	0.035	-0.000
-374.844	-39.601	0.309	0.163
-373.829	-111.780	0.307	-0.062
-372.815	-175.990	-0.077	-0.002
-371.800	4.591	-0.162	0.120
-370.785	753.938	-0.059	-0.159
-369.771	-161.599	0.291	0.015
-368.756	81.823	-0.119	-0.129
-367.742	334.540	0.138	-0.268
-366.727	-50.233	-0.119	-0.057
-365.712	800.000	0.061	0.268
-364.698	79.889	-0.225	0.243
-363.683	-102.004	0.349	0.084
-362.669	246.922	0.198	0.335
-361.654	-200.000	0.006	-0.044
-360.639	6.640	-0.251	0.187
-359.625	800.000	0.104	0.291
-358.610	-200.000	-0.018	-0.269
-357.596	800.000	0.054	-0.169
-356.581	31.102	0.065	-0.056
-355.566	-200.000	-0.007	-0.302
-354.552	401.025	-0.190	0.399
-353.537	-96.615	-0.284	-0.075
-352.523	139.301	-0.203	0.268
-351.508	-174.244	0.152	-0.004
-350.493	-125.115	-0.260	-0.040
-349.479	800.000	-0.056	-0.177
-348.464	-200.000	0.202	-0.000
-347.450	-42.668	0.461	0.236
-346.435	527.752	-0.055	-0.131
-345.420	800.000	-0.115	-0.474
-344.406	-200.000	0.025	0.116
-343.391	-53.721	0.108	0.050
-342.377	800.000	-0.066	-0.281
-341.362	154.576	-0.076	0.104
-340.348	98.293	-0.291	-0.337
-339.333	-189.462	0.128	0.001
-338.318	94.774	0.141	0.161
-337.304	-200.000	0.040	0.453
-336.289	-114.244	0.238	0.046
-335.275	-126.638	-0.188	-0.028
-334.260	418.253	-0.113	0.243
-333.245	29.562	-0.010	0.009
-332.231	35.075	0.151	0.133
-331.216	-44.996	-0.292	0.145
-330.202	455.796	0.068	-0.152
-329.187	231.780	-0.067	0.110
-328.172	-80.114	0.106	-0.036
-327.158	426.647	0.110	-0.238
-326.143	-44.642	0.094	-0.047
-325.129	-44.360	0.245	-0.123
-324.114	-99.956	0.270	0.068
-323.099	800.000	-0.054	0.197
-322.085	-42.181	0.077	0.039
-321.070	506.453	0.078	0.182
-320.056	-55.083	-0.298	-0.134
-319.041	-181.214	0.374	0.007
-318.026	-200.000	0.000	0.191
-317.012	537.821	0.074	0.176
-315.997	147.260	-0.160	0.216
-314.983	-200.000	0.017	0.105
-313.968	-200.000	0.010	0.165
-312.953	-66.574	-0.249	-0.099
-311.939	11.297	-0.251	-0.193
-310.924	571.470	-0.048	-0.117
-309.910	197.524	-0.046	-0.071
-308.895	-30.635	0.354	-0.201
-307.880	6.688	-0.142	0.106
-306.866	-200.000	-0.013	0.084
-305.851	-103.288	-0.168	-0.040
-304.837	-11.049	-0.166	0.110
-303.822	364.237	0.037	0.075
-302.807	16.129	-0.073	-0.057
-301.793	800.000	0.008	-0.029
-300.778	-31.750	-0.393	0.221
-299.764	-96.977	-0.216	0.057
-298.749	-68.888	-0.081	0.031
-297.735	-114.286	-0.165	0.032
-296.720	-200.000	0.013	-0.385
-295.705	-19.275	0.262	0.163
-294.691	-14.496	-0.259	0.167
-293.676	95.910	0.211	-0.242
-292.662	-116.064	0.123	0.023
-291.647	-2.646	-0.040	-0.028
-290.632	-200.000	0.043	-0.315
-289.618	7.087	0.116	0.087
-288.603	-115.910	-0.215	0.040
-287.589	243.274	-0.078	-0.131
-286.574	-38.107	-0.197	0.104
-285.559	-200.000	-0.043	0.321
-284.545	-200.000	0.023	0.326
-283.530	-17.538	-0.342	-0.215
-282.516	-101.256	0.198	-0.048
-281.501	48.673	0.207	0.194
-280.486	-56.587	0.213	-0.094
-279.472	2.455	-0.101	-0.073
-278.457	464.603	-0.039	-0.087
-277.443	55.205	0.144	-0.139
-276.428	155.027	-0.166	-0.228
-275.413	3.815	0.170	0.124
-274.399	54.825	-0.180	-0.174
-273.384	6.120	-0.104	0.077
-272.370	-30.430	-0.289	0.164
-271.355	144.763	0.079	-0.105
-270.340	6.109	-0.255	-0.189
-269.326	530.475	0.122	-0.288
-268.311	263.143	0.134	-0.232
-267.297	-64.435	-0.184	0.075
-266.282	-176.225	0.390	-0.010
-265.267	561.718	0.117	0.282
-264.253	294.345	0.164	0.300
-263.238	127.709	0.123	0.156
-262.224	8.107	-0.104	-0.078
-261.209	-200.000	0.027	0.338
-260.195	-177.991	0.267	-0.006
-259.180	-41.547	0.137	-0.070
-258.165	-58.829	0.074	-0.032
-257.151	50.073	-0.160	-0.151
-256.136	90.302	-0.210	-0.234
-255.122	-36.276	0.264	-0.142
-254.107	-124.455	0.291	-0.045
-253.092	26.425	0.129	0.108
-252.078	-200.000	-0.054	-0.240
-251.063	286.428	0.051	-0.091
-250.049	62.817	0.190	0.190
-249.034	115.912	-0.130	0.159
-248.019	-82.917	-0.167	0.054
-247.005	-200.000	0.044	0.225
-245.990	-120.798	0.024	0.004
-244.976	-147.713	-0.130	0.011
-243.961	-189.065	0.247	-0.003
-242.946	800.000	-0.069	-0.210
-241.932	-25.244	0.308	-0.182
-240.917	-78.414	-0.281	-0.096
-239.903	30.848	0.152	0.130
-238.888	15.360	-0.071	0.056
-237.873	-88.029	0.280	-0.084
-236.859	88.925	0.263	0.292
-235.844	634.770	-0.118	0.300
-234.830	800.000	0.047	0.138
-233.815	-200.000	0.019	0.189
-232.800	-124.860	0.069	-0.011
-231.786	800.000	-0.073	0.224
-230.771	214.697	0.167	-0.264
-229.757	210.478	0.176	0.276
-228.742	148.786	0.055	-0.074
-227.727	134.390	-0.036	-0.047
-226.713	800.000	-0.040	-0.113
-225.698	-8.174	-0.245	0.165
-224.684	-200.000	-0.012	0.093
-223.669	63.723	-0.158	-0.159
-222.655	-138.210	0.221	-0.024
-221.640	37.564	0.252	-0.223
-220.625	800.000	0.172	0.534
-219.611	212.984	0.349	0.549
-218.596	-200.000	0.022	0.220
-217.582	-200.000	-0.011	0.217
-216.567	675.280	0.034	-0.087
-215.552	-100.854	0.309	0.076
-214.538	-200.000	-0.029	-0.272
-213.523	7.234	-0.037	-0.027
-212.509	-75.830	-0.075	0.026
-211.494	-158.842	-0.104	-0.006
-210.479	-119.004	0.231	-0.040
-209.465	178.189	0.057	-0.083
-208.450	543.530	0.221	0.527
-207.436	126.566	0.130	-0.164
-206.421	-24.120	0.161	-0.096
-205.406	800.000	-0.101	0.391
-204.392	-115.942	0.168	-0.031
-203.377	76.457	0.076	-0.081
-202.363	740.160	0.058	0.154
-201.348	-87.789	-0.320	0.096
-200.333	-156.571	0.274	0.017
-199.319	-200.000	-0.023	-0.122
-198.304	163.500	-0.310	0.435
-197.290	-200.000	0.034	-0.250
-196.275	-98.757	-0.113	0.029
-195.260	800.000	-0.024	0.071
-194.246	-96.194	-0.229	0.061
-193.231	6.450	-0.360	0.267
-192.217	448.529	0.132	-0.289
-191.202	63.969	0.145	-0.146
-190.187	800.000	0.103	-0.309
-189.173	277.889	-0.127	0.225
-188.158	-117.253	-0.174	0.031
-187.144	-103.654	0.466	0.109
-186.129	127.817	0.292	0.369
-185.114	472.162	0.040	-0.089
-184.100	-15.202	-0.285	-0.182
-183.085	463.766	-0.132	0.295
-182.071	423.249	0.123	-0.263
-181.056	-25.679	0.335	-0.197
-180.042	5.683	-0.188	0.138
-179.027	11.494	0.198	0.151
-178.012	-200.000	0.002	-0.055
-176.998	-131.562	-0.305	-0.040
-175.983	50.620	-0.016	-0.016
-174.969	25.310	0.044	0.037
-173.954	230.161	-0.029	-0.047
-172.939	-44.761	0.169	-0.084
-171.925	-200.000	-0.010	-0.138
-170.910	800.000	-0.074	-0.225
-169.896	0.149	0.061	-0.043
-168.881	-75.761	-0.138	-0.049
-167.866	800.000	-0.080	-0.223
-166.852	16.025	0.102	-0.080
-165.837	193.946	-0.074	0.111
-164.823	-200.000	-0.078	-0.381
-163.808	-81.165	0.076	-0.025
-162.793	-133.228	-0.057	0.007
-161.779	17.642	-0.064	-0.051
-160.764	800.000	0.043	0.153
-159.750	-144.284	0.273	-0.025
-158.735	81.429	0.195	0.210
-157.720	253.702	-0.050	-0.086
-156.706	-53.367	0.172	-0.079
-155.691	4.500	-0.299	0.218
-154.677	-200.000	-0.027	-0.217
-153.662	-128.635	0.191	0.027
-152.647	109.398	0.065	0.078
-151.633	-71.176	0.227	-0.085
-150.618	-161.173	-0.443	0.023
-149.604	-113.155	0.108	-0.021
-148.589	800.000	0.075	-0.226
-147.574	-163.466	0.310	-0.015
-146.560	-200.000	0.030	0.159
-145.545	-56.491	0.275	-0.121
-144.531	-200.000	0.078	0.448
-143.516	800.000	0.111	0.353
-142.502	-200.000	0.009	0.194
-141.487	-0.606	-0.337	0.238
-140.472	120.151	0.120	-0.149
-139.458	-126.395	-0.187	-0.028
-138.443	376.463	-0.022	0.044
-137.429	52.204	-0.067	-0.064
-136.414	-125.353	-0.103	-0.016
-135.399	-23.410	0.114	0.068
-134.385	-200.000	0.052	0.307
-133.370	-172.820	-0.229	-0.007
-132.356	27.284	0.163	0.136
-131.341	-48.030	-0.141	0.068
-130.326	52.457	0.099	-0.094
-129.312	553.870	-0.049	0.116
-128.297	526.878	-0.183	0.428
-127.283	-118.641	0.015	0.003
-126.268	-9.182	0.032	0.021
-125.253	-200.000	0.020	0.125
-124.239	800.000	-0.081	0.274
-123.224	79.907	0.152	-0.162
-122.210	186.568	-0.067	-0.099
-121.195	203.888	-0.146	-0.225
-120.180	800.000	0.051	0.176
