DTS Sentinel unit serial number:	SN413079Multiplexer serial number:	ORYXHardware model number:	OX4-SRSoftware version number:	ORYX F/W v4.00 Oryx Data Collector v3.7.2.0data status	okinstallation	princeton_trtdifferential loss correction	single-endedforward channel	channel 3reverse channel	N/Adate	2019/09/16time	01:52:35forward acquisition time	60.00reverse acquisition time	0.00gamma	496.2192k internal	0.2337k external	0.2337temperature offset calibration	0.9952default loss term (dB/km)	0.3790temperature slope calibration	1.0000multiplexer offset coefficient	1.0000multiplexer slope coefficient	1.0000fibre end	0.00T internal ref (°C)	27.41T ext. ref 1 (°C)	10.04T ext. ref 2 (°C)	22.30length (m)	temperature (°C)	Stokes	anti-Stokes-747.200	-121.958	-0.212	-0.035
-746.185	-48.002	0.097	0.047
-745.171	-182.937	-0.151	-0.003
-744.156	268.586	-0.159	-0.279
-743.142	800.000	-0.030	0.085
-742.127	-25.813	-0.255	0.151
-741.112	-18.503	-0.017	0.011
-740.098	80.281	0.148	0.160
-739.083	-82.800	0.387	-0.126
-738.069	800.000	0.045	0.187
-737.054	121.065	-0.172	0.214
-736.039	-112.718	-0.460	-0.092
-735.025	98.466	0.101	0.117
-734.010	800.000	0.113	-0.407
-732.996	-36.834	-0.290	0.156
-731.981	-68.391	0.062	0.024
-730.966	-41.680	-0.073	-0.038
-729.952	-200.000	0.050	-0.352
-728.937	-8.139	-0.360	-0.244
-727.923	-13.496	-0.295	-0.192
-726.908	-40.645	0.127	0.066
-725.894	-125.028	-0.349	-0.054
-724.879	108.876	-0.161	-0.193
-723.864	-164.190	0.077	-0.004
-722.850	84.206	0.212	0.233
-721.835	-200.000	0.052	0.347
-720.821	-200.000	-0.025	0.330
-719.806	33.491	0.289	0.252
-718.791	24.923	0.025	0.020
-717.777	241.579	-0.251	-0.421
-716.762	109.514	0.115	0.138
-715.748	-89.669	0.300	0.088
-714.733	-200.000	0.007	0.103
-713.718	-54.951	-0.243	-0.110
-712.704	-142.854	-0.188	-0.018
-711.689	101.299	0.144	-0.168
-710.675	-77.082	-0.068	0.024
-709.660	386.737	0.069	0.143
-708.645	486.677	0.148	0.339
-707.631	-14.039	0.233	0.151
-706.616	7.710	0.221	0.166
-705.602	-70.936	0.433	-0.164
-704.587	166.028	0.086	0.123
-703.572	-200.000	0.000	-0.162
-702.558	280.782	-0.121	0.217
-701.543	-62.573	-0.232	0.096
-700.529	-200.000	-0.024	0.474
-699.514	133.963	-0.158	-0.205
-698.499	-121.003	0.422	-0.071
-697.485	357.028	0.078	-0.156
-696.470	63.205	-0.243	0.244
-695.456	-96.983	-0.340	-0.089
-694.441	-48.489	0.047	0.023
-693.426	160.750	0.107	-0.149
-692.412	-200.000	-0.060	0.305
-691.397	-44.951	-0.171	-0.085
-690.383	800.000	-0.121	-0.380
-689.368	124.766	-0.188	-0.237
-688.354	70.903	-0.185	0.192
-687.339	585.228	-0.085	0.210
-686.324	568.138	-0.104	-0.252
-685.310	65.608	0.186	0.189
-684.295	184.215	-0.149	-0.221
-683.281	-120.356	-0.243	0.041
-682.266	-120.668	0.166	-0.028
-681.251	-148.456	0.201	0.016
-680.237	746.490	-0.149	-0.402
-679.222	-109.768	-0.405	-0.085
-678.208	-80.094	0.132	0.044
-677.193	-6.806	-0.226	-0.154
-676.178	197.851	-0.225	-0.345
-675.164	-200.000	-0.019	-0.261
-674.149	68.403	-0.159	0.163
-673.135	-200.000	0.389	0.001
-672.120	-106.153	-0.366	-0.082
-671.105	54.763	0.200	-0.194
-670.091	-73.107	0.161	0.059
-669.076	-169.090	-0.449	-0.017
-668.062	800.000	-0.055	0.210
-667.047	143.090	0.232	0.309
-666.032	44.217	0.384	-0.352
-665.018	-133.929	-0.110	-0.014
-664.003	12.042	0.047	0.036
-662.989	-200.000	-0.082	0.398
-661.974	-200.000	0.002	0.201
-660.959	64.090	-0.217	0.219
-659.945	-30.395	0.433	-0.246
-658.930	507.542	0.106	-0.247
-657.916	30.914	0.124	0.106
-656.901	187.196	-0.236	-0.352
-655.886	36.279	0.181	0.159
-654.872	39.927	-0.303	0.272
-653.857	-132.006	-0.189	-0.025
-652.843	-200.000	0.022	0.281
-651.828	-129.723	-0.147	0.020
-650.814	800.000	-0.069	-0.221
-649.799	-19.795	-0.187	-0.116
-648.784	-81.233	0.172	0.057
-647.770	-116.008	-0.178	-0.033
-646.755	-200.000	0.040	-0.183
-645.741	-200.000	-0.053	-0.265
-644.726	445.999	0.151	-0.332
-643.711	-79.673	0.186	0.063
-642.697	-30.425	-0.188	0.107
-641.682	-2.131	-0.210	0.147
-640.668	-107.275	-0.226	0.050
-639.653	-120.482	0.182	0.031
-638.638	-200.000	0.065	-0.317
-637.624	655.843	0.041	-0.104
-636.609	-153.636	0.310	-0.021
-635.595	103.660	-0.093	0.109
-634.580	413.082	-0.099	0.211
-633.565	-146.293	-0.204	0.018
-632.551	-200.000	0.030	-0.141
-631.536	-31.346	-0.178	-0.100
-630.522	-67.923	0.117	-0.046
-629.507	237.748	-0.056	0.093
-628.492	-200.000	-0.032	-0.207
-627.478	256.985	-0.152	0.261
-626.463	729.476	-0.094	0.252
-625.449	-200.000	0.054	-0.311
-624.434	-145.845	-0.272	-0.024
-623.419	119.321	-0.137	-0.169
-622.405	-186.692	-0.254	0.004
-621.390	97.268	0.176	0.202
-620.376	-20.570	-0.321	0.197
-619.361	112.892	-0.005	-0.006
-618.346	-99.160	0.291	0.073
-617.332	599.726	0.134	0.333
-616.317	-184.847	-0.440	0.007
-615.303	120.459	-0.225	0.280
-614.288	207.846	0.028	0.043
-613.273	-200.000	0.004	0.107
-612.259	800.000	0.153	-0.462
-611.244	800.000	0.109	0.423
-610.230	-194.949	0.095	-0.001
-609.215	74.127	-0.104	-0.109
-608.201	800.000	0.081	0.346
-607.186	173.570	-0.175	0.252
-606.171	140.125	-0.300	0.396
-605.157	-48.999	0.125	-0.060
-604.142	-80.321	-0.140	0.047
-603.128	-56.623	0.349	0.154
-602.113	37.440	0.154	0.136
-601.098	171.182	0.192	-0.275
-600.084	-37.426	0.083	-0.044
-599.069	-154.161	-0.219	0.015
-598.055	-87.482	0.382	-0.116
-597.040	-200.000	-0.005	-0.172
-596.025	10.554	-0.235	-0.179
-595.011	29.727	0.155	-0.132
-593.996	-54.081	0.245	0.111
-592.982	455.943	-0.137	0.304
-591.967	800.000	-0.074	0.215
-590.952	-163.784	0.286	-0.013
-589.938	-22.247	0.269	-0.163
-588.923	800.000	-0.022	0.082
-587.909	-173.086	0.227	0.007
-586.894	-42.800	0.064	-0.033
-585.879	142.817	-0.136	-0.181
-584.865	156.878	0.180	-0.248
-583.850	-92.612	-0.016	0.005
-582.836	-35.713	0.422	-0.228
-581.821	-70.243	-0.083	0.031
-580.806	28.231	-0.203	0.171
-579.792	-171.419	0.232	0.008
-578.777	-200.000	0.029	0.198
-577.763	-3.811	0.216	-0.149
-576.748	-120.080	0.421	-0.072
-575.733	47.966	0.214	-0.199
-574.719	800.000	0.107	0.424
-573.704	-200.000	0.004	0.163
-572.690	-15.050	0.115	0.073
-571.675	-130.569	-0.091	-0.012
-570.661	-158.209	-0.087	-0.005
-569.646	139.263	-0.071	0.094
-568.631	175.175	-0.111	-0.160
-567.617	-18.187	0.221	-0.138
-566.602	-54.211	0.328	0.149
-565.588	-102.973	-0.123	-0.029
-564.573	-200.000	0.016	-0.412
-563.558	-120.365	-0.348	0.059
-562.544	71.980	0.168	0.174
-561.529	84.552	0.235	0.256
-560.515	-200.000	0.260	0.000
-559.500	193.735	0.052	0.079
-558.485	-9.533	0.193	-0.128
-557.471	800.000	0.104	-0.289
-556.456	-59.158	-0.461	-0.198
-555.442	-84.236	0.215	-0.068
-554.427	161.854	0.391	-0.545
-553.412	-63.758	0.181	0.074
-552.398	112.684	-0.114	-0.138
-551.383	64.343	0.128	0.129
-550.369	-20.039	0.167	0.102
-549.354	-200.000	-0.001	-0.145
-548.339	-43.447	-0.027	-0.013
-547.325	800.000	0.056	0.225
-546.310	800.000	-0.065	-0.243
-545.296	26.990	-0.284	0.237
-544.281	-95.134	-0.371	0.100
-543.266	-165.976	0.014	-0.001
-542.252	-116.051	0.071	-0.013
-541.237	800.000	0.051	0.164
-540.223	-200.000	-0.080	-0.368
-539.208	-23.839	0.190	-0.113
-538.193	-200.000	0.008	0.134
-537.179	-54.679	0.065	0.029
-536.164	17.989	0.168	0.133
-535.150	239.907	-0.038	0.063
-534.135	-200.000	-0.002	-0.207
-533.121	-168.201	-0.223	-0.009
-532.106	-200.000	-0.031	0.140
-531.091	87.636	0.202	-0.223
-530.077	-54.010	0.163	-0.074
-529.062	9.892	-0.276	-0.208
-528.048	-92.452	0.087	-0.024
-527.033	53.546	-0.149	-0.143
-526.018	63.478	-0.113	0.113
-525.004	79.228	-0.182	0.194
-523.989	800.000	0.086	0.236
-522.975	-88.120	0.167	0.050
-521.960	-200.000	0.035	0.236
-520.945	8.906	-0.267	0.200
-519.931	271.165	-0.058	0.102
-518.916	71.917	0.063	-0.065
-517.902	-37.444	-0.115	-0.061
-516.887	-128.431	-0.136	0.019
-515.872	-68.418	-0.170	0.066
-514.858	75.457	-0.171	-0.179
-513.843	400.500	0.154	-0.321
-512.829	-200.000	0.019	-0.084
-511.814	387.329	-0.174	0.359
-510.799	800.000	-0.059	0.246
-509.785	800.000	-0.017	0.057
-508.770	800.000	0.086	0.260
-507.756	479.700	-0.053	0.119
-506.741	-200.000	0.013	-0.450
-505.726	-91.411	-0.021	-0.006
-504.712	181.146	0.092	-0.134
-503.697	-61.253	-0.194	-0.081
-502.683	496.850	0.115	-0.263
-501.668	117.581	0.118	-0.144
-500.653	29.499	-0.183	-0.155
-499.639	-43.656	0.325	-0.163
-498.624	-200.000	-0.046	0.411
-497.610	674.302	0.178	0.459
-496.595	60.176	-0.196	-0.193
-495.581	-85.624	-0.231	-0.071
-494.566	-134.526	0.160	0.019
-493.551	-39.487	0.313	0.163
-492.537	131.810	0.249	0.319
-491.522	9.302	0.080	-0.060
-490.508	-168.520	-0.199	-0.008
-489.493	-56.685	0.161	-0.071
-488.478	-161.711	-0.187	-0.009
-487.464	270.335	0.103	0.180
-486.449	118.377	-0.214	0.263
-485.435	800.000	0.079	0.327
-484.420	1.995	-0.289	-0.207
-483.405	-27.791	0.142	0.082
-482.391	280.469	0.080	-0.142
-481.376	37.830	-0.133	-0.118
-480.362	-129.095	-0.139	0.019
-479.347	-5.619	0.236	-0.161
-478.332	305.893	-0.205	0.379
-477.318	434.832	-0.168	0.363
-476.303	-87.519	0.271	0.081
-475.289	424.592	-0.051	-0.109
-474.274	-200.000	0.022	-0.330
-473.259	-200.000	0.004	-0.251
-472.245	286.831	-0.151	0.271
-471.230	295.919	-0.141	-0.257
-470.216	88.189	-0.119	0.131
-469.201	279.142	-0.153	0.272
-468.186	238.948	0.104	-0.172
-467.172	-81.500	0.131	-0.043
-466.157	386.085	-0.062	-0.126
-465.143	-115.531	-0.146	-0.027
-464.128	-47.313	-0.248	-0.120
-463.113	-8.053	-0.289	-0.193
-462.099	-200.000	-0.023	0.150
-461.084	-77.809	-0.242	-0.083
-460.070	-20.877	0.172	-0.105
-459.055	28.282	0.052	0.044
-458.040	34.837	-0.174	-0.151
-457.026	-62.715	-0.269	-0.111
-456.011	800.000	0.069	0.274
-454.997	-200.000	0.042	-0.340
-453.982	-200.000	0.016	-0.123
-452.968	-138.679	0.031	0.003
-451.953	286.153	-0.131	0.234
-450.938	44.691	-0.104	-0.095
-449.924	800.000	-0.065	0.181
-448.909	-167.111	-0.329	0.013
-447.895	-1.518	-0.139	0.097
-446.880	-24.786	0.509	0.300
-445.865	-46.553	0.244	0.119
-444.851	800.000	0.134	-0.441
-443.836	-200.000	0.005	0.073
-442.822	800.000	0.062	-0.231
-441.807	678.088	0.252	-0.651
-440.792	-200.000	-0.004	0.091
-439.778	36.581	0.171	0.149
-438.763	-82.161	0.273	-0.088
-437.749	-93.129	0.144	-0.040
-436.734	700.556	-0.088	0.231
-435.719	-200.000	0.069	-0.396
-434.705	131.174	-0.214	-0.272
-433.690	-70.965	-0.299	-0.112
-432.676	100.345	0.073	-0.085
-431.661	-71.082	0.040	-0.015
-430.646	-35.507	-0.135	-0.073
-429.632	800.000	-0.129	-0.413
-428.617	569.806	-0.035	0.084
-427.603	-6.328	-0.078	-0.052
-426.588	-59.754	-0.155	0.066
-425.573	-200.000	-0.008	0.192
-424.559	-141.523	0.262	0.026
-423.544	-172.756	-0.181	-0.006
-422.530	-200.000	0.001	-0.099
-421.515	397.593	-0.116	0.240
-420.500	0.470	-0.340	0.241
-419.486	-65.508	-0.198	-0.079
-418.471	-200.000	0.079	-0.359
-417.457	596.898	-0.069	0.169
-416.442	-200.000	-0.008	0.165
-415.428	-200.000	0.007	0.265
-414.413	170.272	-0.070	-0.099
-413.398	-174.050	0.239	-0.007
-412.384	-77.834	0.085	0.029
-411.369	-154.373	-0.094	0.006
-410.355	-141.694	0.075	-0.007
-409.340	-200.000	-0.029	0.276
-408.325	-200.000	0.018	-0.117
-407.311	-29.870	0.242	-0.136
-406.296	-171.848	-0.331	-0.011
-405.282	63.925	-0.037	0.037
-404.267	161.124	0.034	0.047
-403.252	-107.704	-0.300	-0.065
-402.238	38.835	-0.264	-0.234
-401.223	222.136	0.122	0.194
-400.209	215.351	0.061	0.095
-399.194	-200.000	0.011	-0.110
-398.179	36.183	0.169	0.147
-397.165	101.676	-0.149	0.172
-396.150	180.217	0.068	0.098
-395.136	-188.457	-0.085	0.001
-394.121	-200.000	0.021	-0.235
-393.106	-0.140	-0.381	0.269
-392.092	83.639	0.028	0.030
-391.077	281.817	-0.090	-0.159
-390.063	-199.393	0.267	-0.001
-389.048	800.000	0.042	-0.154
-388.033	-200.000	0.024	-0.250
-387.019	-101.352	0.123	-0.030
-386.004	5.063	-0.326	0.238
-384.990	-200.000	-0.000	-0.151
-383.975	231.894	0.080	-0.130
-382.960	97.124	0.203	-0.231
-381.946	-8.941	0.415	-0.275
-380.931	-76.742	0.210	-0.073
-379.917	161.327	-0.132	0.183
-378.902	-49.711	0.257	0.121
-377.888	-48.602	0.318	-0.151
-376.873	78.328	-0.109	-0.115
-375.858	35.182	0.287	0.249
-374.844	652.553	0.109	0.277
-373.829	85.697	-0.280	-0.305
-372.815	525.324	-0.149	-0.347
-371.800	18.362	0.206	-0.163
-370.785	-200.000	-0.019	0.113
-369.771	-103.830	-0.350	0.081
-368.756	67.265	-0.095	-0.096
-367.742	101.499	-0.145	0.167
-366.727	-41.345	0.224	0.114
-365.712	-9.448	-0.295	0.195
-364.698	-87.595	-0.140	0.042
-363.683	198.289	-0.087	-0.132
-362.669	43.806	0.110	0.100
-361.654	-48.846	-0.119	0.057
-360.639	34.851	-0.188	-0.163
-359.625	-75.162	0.080	-0.028
-358.610	93.787	0.292	0.328
-357.596	-200.000	-0.008	0.045
-356.581	-132.101	0.150	-0.019
-355.566	3.762	0.118	0.085
-354.552	800.000	-0.061	-0.179
-353.537	117.414	-0.180	-0.218
-352.523	-200.000	-0.020	-0.141
-351.508	-200.000	0.024	-0.226
-350.493	29.054	0.133	0.112
-349.479	34.509	0.167	0.144
-348.464	-200.000	0.032	0.420
-347.450	-101.585	-0.162	0.039
-346.435	-91.635	-0.117	-0.033
-345.420	55.015	-0.177	0.169
-344.406	800.000	0.073	-0.245
-343.391	45.666	-0.152	0.139
-342.377	434.595	0.021	-0.045
-341.362	23.622	0.352	-0.286
-340.348	325.666	0.045	-0.085
-339.333	418.584	0.149	0.314
-338.318	54.205	-0.130	0.124
-337.304	-65.089	0.409	-0.163
-336.289	67.111	0.106	0.107
-335.275	-57.225	-0.217	-0.095
-334.260	107.302	0.072	-0.085
-333.245	-28.579	0.118	-0.067
-332.231	800.000	0.047	-0.146
-331.216	209.487	-0.029	-0.046
-330.202	-121.549	0.152	0.025
-329.187	-84.381	-0.214	0.067
-328.172	-100.648	-0.331	-0.081
-327.158	91.205	0.259	-0.287
-326.143	800.000	0.102	-0.358
-325.129	-76.231	-0.041	0.014
-324.114	570.512	-0.043	-0.102
-323.099	-57.492	-0.156	-0.068
-322.085	-144.693	-0.297	0.027
-321.070	-200.000	0.023	-0.186
-320.056	142.866	0.114	0.149
-319.041	-139.315	0.147	-0.016
-318.026	-62.738	0.199	-0.081
-317.012	647.782	-0.167	0.422
-315.997	35.959	0.132	0.115
-314.983	-100.024	-0.352	0.087
-313.968	209.326	0.051	0.079
-312.953	274.075	-0.059	0.103
-311.939	-136.212	0.183	0.021
-310.924	800.000	-0.057	0.173
-309.910	-18.817	0.199	0.122
-308.895	385.175	-0.133	0.270
-307.880	-111.647	0.402	-0.081
-306.866	-41.921	-0.317	0.161
-305.851	-200.000	-0.022	-0.136
-304.837	224.753	0.065	-0.104
-303.822	-189.887	0.360	0.004
-302.807	220.866	-0.093	-0.148
-301.793	-200.000	0.015	-0.162
-300.778	27.414	-0.057	0.048
-299.764	222.373	0.094	0.150
-298.749	-8.466	0.128	0.085
-297.735	122.803	0.112	0.138
-296.720	-118.495	0.146	-0.026
-295.705	-200.000	0.024	0.206
-294.691	118.318	-0.172	-0.209
-293.676	348.666	-0.168	-0.328
-292.662	-77.069	-0.246	-0.085
-291.647	-90.373	0.257	0.073
-290.632	-159.252	-0.405	-0.022
-289.618	-59.214	-0.116	-0.049
-288.603	-200.000	-0.100	-0.000
-287.589	32.525	-0.128	0.109
-286.574	272.692	0.057	0.100
-285.559	59.237	-0.237	-0.230
-284.545	336.436	0.027	0.051
-283.530	57.741	-0.213	-0.206
-282.516	-200.000	-0.033	0.143
-281.501	800.000	-0.040	0.153
-280.486	-7.515	0.191	0.127
-279.472	-135.226	0.153	0.018
-278.457	800.000	0.059	-0.194
-277.443	800.000	-0.103	0.337
-276.428	235.855	0.081	0.131
-275.413	633.881	-0.017	0.043
-274.399	115.044	0.077	-0.093
-273.384	-147.225	0.622	0.052
-272.370	-42.788	-0.482	0.242
-271.355	-11.368	0.337	0.219
-270.340	89.595	0.124	0.136
-269.326	271.633	-0.076	0.132
-268.311	-200.000	0.016	0.433
-267.297	221.525	-0.087	0.138
-266.282	-135.566	-0.213	-0.025
-265.267	117.123	-0.262	-0.317
-264.253	311.057	-0.102	-0.189
-263.238	75.806	0.051	0.053
-262.224	-142.863	-0.394	0.038
-261.209	568.758	0.097	0.232
-260.195	140.537	0.155	-0.202
-259.180	-41.872	0.149	0.075
-258.165	94.735	0.005	0.006
-257.151	228.035	-0.048	-0.078
-256.136	154.162	0.219	-0.296
-255.122	-19.804	0.242	0.147
-254.107	281.324	-0.106	-0.187
-253.092	17.089	-0.097	-0.076
-252.078	-11.048	-0.282	-0.183
-251.063	47.435	-0.184	0.169
-250.049	800.000	0.121	-0.341
-249.034	-6.809	-0.217	0.145
-248.019	-200.000	0.003	-0.333
-247.005	-200.000	-0.040	-0.212
-245.990	-168.204	0.069	0.003
-244.976	-200.000	0.046	0.355
-243.961	182.251	-0.008	0.012
-242.946	-71.196	-0.282	0.104
-241.932	196.366	0.116	0.173
-240.917	82.173	0.106	0.113
-239.903	-83.393	0.383	-0.121
-238.888	-200.000	-0.059	-0.290
-237.873	-60.239	0.295	-0.124
-236.859	74.288	-0.353	-0.365
-235.844	-135.639	-0.087	0.010
-234.830	-13.892	-0.114	0.073
-233.815	-200.000	-0.053	0.296
-232.800	-74.725	-0.164	-0.058
-231.786	-31.169	-0.264	0.146
-230.771	800.000	0.113	-0.471
-229.757	-23.039	0.144	0.086
-228.742	-56.210	-0.098	0.043
-227.727	-200.000	-0.009	0.098
-226.713	-14.680	0.137	0.087
-225.698	-103.456	-0.130	0.030
-224.684	420.634	-0.051	0.107
-223.669	-167.370	0.167	0.007
-222.655	800.000	-0.098	-0.298
-221.640	-200.000	0.029	0.178
-220.625	-200.000	0.013	-0.072
-219.611	-14.468	-0.198	-0.125
-218.596	-76.271	0.174	-0.060
-217.582	-105.947	-0.350	0.078
-216.567	-200.000	0.010	0.135
-215.552	-200.000	0.024	-0.125
-214.538	179.128	-0.243	-0.349
-213.523	-91.750	0.448	0.125
-212.509	-200.000	-0.037	-0.196
-211.494	279.545	0.159	0.279
-210.479	6.605	0.211	0.154
-209.465	263.235	-0.208	0.355
-208.450	-6.286	0.185	0.124
-207.436	800.000	0.012	0.045
-206.421	800.000	0.012	0.046
-205.406	122.168	0.118	0.145
-204.392	-200.000	-0.031	0.305
-203.377	424.774	-0.111	0.235
-202.363	286.418	-0.093	-0.165
-201.348	510.634	0.176	0.402
-200.333	-200.000	0.004	-0.143
-199.319	36.170	-0.228	-0.197
-198.304	356.302	-0.060	0.117
-197.290	-167.217	0.378	-0.015
-196.275	-128.475	-0.123	-0.017
-195.260	205.889	-0.124	-0.189
-194.246	-111.622	0.473	-0.094
-193.231	35.652	0.150	-0.129
-192.217	-200.000	-0.011	0.093
-191.202	-200.000	0.007	0.254
-190.187	-83.118	-0.200	-0.063
-189.173	-87.529	0.151	0.045
-188.158	-200.000	0.038	0.280
-187.144	-22.676	0.100	0.059
-186.129	800.000	0.040	0.128
-185.114	800.000	0.016	-0.057
-184.100	229.510	0.141	-0.226
-183.085	465.613	0.079	-0.173
-182.071	339.856	-0.027	-0.051
-181.056	56.218	-0.203	0.193
-180.042	-200.000	-0.001	-0.039
-179.027	-40.440	-0.202	0.103
-178.012	-200.000	-0.043	-0.204
-176.998	92.357	0.053	0.059
-175.983	-126.334	-0.252	0.037
-174.969	-32.197	0.299	-0.164
-173.954	109.273	-0.111	-0.130
-172.939	409.688	-0.217	-0.452
-171.925	219.981	0.100	0.158
-170.910	-171.128	0.382	0.013
-169.896	685.985	-0.157	0.402
-168.881	-125.910	-0.268	0.040
-167.866	-78.759	0.329	-0.110
-166.852	-200.000	-0.032	0.200
-165.837	72.569	-0.142	-0.146
-164.823	14.023	0.174	-0.133
-163.808	101.937	-0.178	0.204
-162.793	-97.395	-0.224	0.057
-161.779	-57.085	0.209	0.090
-160.764	41.556	-0.157	-0.140
-159.750	-200.000	-0.100	0.449
-158.735	-127.711	0.201	-0.029
-157.720	-136.920	0.087	0.010
-156.706	263.251	-0.201	-0.342
-155.691	92.001	-0.184	-0.203
-154.677	82.512	0.212	0.226
-153.662	652.176	0.102	-0.257
-152.647	-200.000	-0.009	-0.074
-151.633	-200.000	-0.040	-0.193
-150.618	361.717	0.101	0.199
-149.604	-45.602	0.282	-0.137
-148.589	151.402	0.131	0.175
-147.574	-94.809	0.154	0.041
-146.560	113.278	-0.114	-0.135
-145.545	-200.000	-0.039	-0.337
-144.531	800.000	-0.045	0.137
-143.516	2.009	-0.093	-0.066
-142.502	461.738	-0.164	-0.359
-141.487	4.704	0.069	0.050
-140.472	-172.229	-0.243	0.008
-139.458	171.054	0.159	-0.224
-138.443	13.626	0.331	-0.252
-137.429	-133.432	0.286	-0.035
-136.414	7.620	-0.128	-0.094
-135.399	740.598	0.017	-0.046
-134.385	-200.000	0.067	0.299
-133.370	60.139	0.072	-0.070
-132.356	-200.000	-0.041	0.251
-131.341	32.457	-0.342	-0.290
-130.326	-200.000	-0.005	0.098
-129.312	240.187	-0.073	-0.118
-128.297	214.153	-0.204	-0.317
-127.283	101.998	0.122	0.139
-126.268	15.950	0.413	0.319
-125.253	35.010	0.167	-0.144
-124.239	-8.750	0.196	-0.129
-123.224	-200.000	0.062	0.336
-122.210	-200.000	0.091	0.415
-121.195	294.799	0.132	0.236
-120.180	-47.765	0.143	0.068
