DTS Sentinel unit serial number:	SN413079Multiplexer serial number:	ORYXHardware model number:	OX4-SRSoftware version number:	ORYX F/W v4.00 Oryx Data Collector v3.7.2.0data status	okinstallation	princeton_trtdifferential loss correction	single-endedforward channel	channel 3reverse channel	N/Adate	2019/09/13time	06:44:35forward acquisition time	60.00reverse acquisition time	0.00gamma	496.2192k internal	0.2339k external	0.2339temperature offset calibration	1.0137default loss term (dB/km)	0.3790temperature slope calibration	1.0000multiplexer offset coefficient	1.0000multiplexer slope coefficient	1.0000fibre end	0.00T internal ref (°C)	26.00T ext. ref 1 (°C)	4.11T ext. ref 2 (°C)	20.65length (m)	temperature (°C)	Stokes	anti-Stokes-747.200	-143.110	-0.082	-0.008
-746.185	140.167	-0.187	0.247
-745.171	-70.873	-0.232	0.088
-744.156	182.898	0.130	0.192
-743.142	800.000	0.018	-0.067
-742.127	-43.075	-0.245	0.124
-741.112	-112.021	0.173	-0.035
-740.098	-93.853	-0.311	0.086
-739.083	7.428	0.193	-0.144
-738.069	-89.524	-0.309	0.091
-737.054	-200.000	0.045	0.365
-736.039	2.819	-0.399	-0.290
-735.025	-57.751	0.249	0.109
-734.010	555.323	0.202	-0.488
-732.996	800.000	0.034	0.099
-731.981	-105.572	-0.243	0.055
-730.966	14.421	-0.059	-0.046
-729.952	-5.329	-0.241	0.166
-728.937	125.483	0.022	0.028
-727.923	333.010	0.180	-0.349
-726.908	-42.885	0.060	-0.030
-725.894	-97.448	0.206	-0.054
-724.879	331.220	0.092	0.178
-723.864	-115.328	0.185	-0.035
-722.850	157.403	-0.179	-0.248
-721.835	228.381	-0.140	0.228
-720.821	210.005	0.086	0.135
-719.806	-185.651	-0.297	0.004
-718.791	-200.000	-0.059	-0.275
-717.777	107.478	0.246	-0.293
-716.762	30.820	-0.198	-0.170
-715.748	36.770	-0.170	0.150
-714.733	162.182	-0.035	-0.049
-713.718	6.404	0.159	-0.118
-712.704	183.555	-0.093	-0.138
-711.689	150.447	0.159	-0.216
-710.675	108.997	-0.285	0.341
-709.660	-200.000	-0.049	-0.263
-708.645	-161.886	-0.340	0.017
-707.631	90.844	0.274	0.307
-706.616	108.776	-0.240	0.288
-705.602	800.000	0.101	0.310
-704.587	800.000	0.124	0.489
-703.572	-200.000	0.078	0.447
-702.558	-200.000	0.149	-0.001
-701.543	-200.000	0.023	-0.147
-700.529	-200.000	-0.006	0.092
-699.514	-34.367	0.401	-0.220
-698.499	-190.072	0.205	0.002
-697.485	-200.000	0.012	-0.190
-696.470	7.266	-0.301	-0.225
-695.456	165.943	0.058	-0.082
-694.441	-73.045	0.422	-0.155
-693.426	15.737	0.118	0.093
-692.412	378.338	0.179	-0.367
-691.397	800.000	-0.020	-0.071
-690.383	-200.000	-0.003	0.175
-689.368	-87.230	0.376	0.114
-688.354	-119.490	0.181	0.032
-687.339	-200.000	-0.019	-0.175
-686.324	540.279	-0.040	-0.095
-685.310	800.000	0.061	0.193
-684.295	476.056	0.093	0.211
-683.281	-142.014	0.151	-0.015
-682.266	-99.604	-0.287	-0.072
-681.251	547.433	-0.094	0.225
-680.237	551.635	-0.062	-0.150
-679.222	-111.510	-0.175	0.036
-678.208	-14.095	-0.092	0.059
-677.193	800.000	-0.122	-0.403
-676.178	-200.000	-0.000	-0.013
-675.164	-52.492	-0.172	0.080
-674.149	-200.000	-0.025	-0.120
-673.135	20.390	-0.164	0.132
-672.120	-7.203	0.107	-0.072
-671.105	185.756	0.115	-0.171
-670.091	85.988	0.047	0.051
-669.076	-200.000	-0.006	-0.056
-668.062	-200.000	0.065	-0.294
-667.047	-200.000	0.070	0.465
-666.032	224.836	-0.109	0.176
-665.018	-200.000	-0.014	0.263
-664.003	-80.925	0.258	0.085
-662.989	-20.932	0.059	-0.036
-661.974	-23.804	0.476	-0.285
-660.959	-80.170	-0.271	0.091
-659.945	51.724	-0.223	-0.212
-658.930	770.727	0.038	0.102
-657.916	-200.000	0.036	-0.271
-656.901	-200.000	0.013	-0.254
-655.886	800.000	0.082	-0.261
-654.872	-28.154	-0.068	-0.040
-653.857	57.513	-0.107	0.104
-652.843	800.000	-0.027	0.112
-651.828	-56.782	0.141	-0.063
-650.814	-149.159	-0.264	0.021
-649.799	679.060	0.101	-0.263
-648.784	51.300	0.231	-0.219
-647.770	229.855	0.028	0.046
-646.755	403.378	0.080	0.168
-645.741	-200.000	0.017	0.196
-644.726	-100.308	-0.324	0.080
-643.711	-83.764	-0.135	0.043
-642.697	-157.628	0.479	-0.029
-641.682	-200.000	0.051	0.232
-640.668	-23.157	-0.309	-0.186
-639.653	22.168	-0.058	-0.048
-638.638	98.116	0.120	0.138
-637.624	54.831	-0.135	0.131
-636.609	-200.000	0.041	0.275
-635.595	-167.560	0.154	0.006
-634.580	-73.626	0.174	-0.063
-633.565	-200.000	0.003	-0.146
-632.551	4.963	0.116	0.085
-631.536	800.000	0.066	-0.256
-630.522	51.754	-0.179	0.170
-629.507	-105.401	-0.431	0.098
-628.492	43.427	0.130	-0.119
-627.478	510.433	0.111	0.257
-626.463	59.983	0.167	0.164
-625.449	522.703	0.068	-0.159
-624.434	-11.094	-0.062	0.041
-623.419	-152.184	-0.225	-0.016
-622.405	31.529	-0.229	0.197
-621.390	281.223	0.028	-0.050
-620.376	76.373	0.302	-0.319
-619.361	-190.322	0.223	0.002
-618.346	-124.349	-0.202	0.031
-617.332	133.944	-0.200	0.258
-616.317	74.954	-0.191	-0.201
-615.303	-100.551	-0.103	-0.025
-614.288	611.599	-0.090	0.223
-613.273	106.068	0.124	-0.146
-612.259	-128.920	-0.215	0.030
-611.244	28.281	0.238	-0.201
-610.230	-76.016	0.184	0.065
-609.215	148.373	0.052	-0.070
-608.201	-10.541	-0.117	-0.077
-607.186	69.087	-0.082	0.084
-606.171	492.121	0.091	-0.207
-605.157	-4.588	0.169	-0.116
-604.142	252.932	0.057	0.096
-603.128	379.483	0.021	-0.042
-602.113	5.797	-0.153	-0.113
-601.098	-200.000	-0.041	-0.241
-600.084	168.541	0.176	-0.250
-599.069	-33.102	0.230	-0.127
-598.055	166.835	-0.187	0.265
-597.040	-200.000	-0.067	0.423
-596.025	50.917	0.103	0.097
-595.011	318.176	-0.065	-0.122
-593.996	-100.422	0.272	-0.067
-592.982	-200.000	-0.022	-0.148
-591.967	-106.407	0.316	0.070
-590.952	800.000	-0.025	0.079
-589.938	69.121	-0.191	-0.195
-588.923	90.811	-0.135	-0.151
-587.909	34.547	-0.112	-0.098
-586.894	-46.514	-0.337	0.165
-585.879	424.822	0.015	-0.032
-584.865	-29.982	0.594	-0.337
-583.850	-200.000	-0.025	-0.196
-582.836	90.742	-0.123	0.138
-581.821	23.135	-0.285	-0.234
-580.806	-200.000	0.042	0.219
-579.792	96.364	-0.146	-0.167
-578.777	165.839	0.117	0.165
-577.763	-3.638	-0.156	-0.108
-576.748	23.182	0.025	0.020
-575.733	-200.000	-0.054	0.258
-574.719	-184.948	0.288	-0.005
-573.704	-200.000	-0.051	0.233
-572.690	-200.000	0.007	0.109
-571.675	43.823	-0.044	0.041
-570.661	402.161	0.093	0.195
-569.646	460.023	-0.084	0.185
-568.631	-158.516	-0.334	0.019
-567.617	68.760	0.061	-0.062
-566.602	-60.062	-0.105	0.045
-565.588	68.671	0.113	0.115
-564.573	-45.664	-0.024	0.012
-563.558	-200.000	0.005	0.224
-562.544	157.608	-0.101	-0.139
-561.529	243.622	0.060	-0.101
-560.515	421.236	-0.111	-0.236
-559.500	-193.777	0.136	-0.001
-558.485	-22.944	-0.259	0.155
-557.471	-45.470	-0.092	-0.046
-556.456	800.000	-0.064	0.211
-555.442	-125.346	0.080	0.012
-554.427	-200.000	-0.008	-0.085
-553.412	-114.901	-0.605	0.115
-552.398	138.315	0.254	0.331
-551.383	800.000	0.118	-0.327
-550.369	800.000	-0.119	0.333
-549.354	2.159	-0.255	0.184
-548.339	158.489	-0.055	-0.076
-547.325	459.573	0.051	0.113
-546.310	800.000	-0.010	-0.029
-545.296	-113.400	-0.176	0.034
-544.281	-92.274	-0.331	0.093
-543.266	-200.000	-0.026	0.291
-542.252	-116.224	-0.310	0.057
-541.237	228.016	-0.123	0.199
-540.223	-94.568	-0.340	0.092
-539.208	-93.832	0.146	-0.040
-538.193	800.000	0.041	-0.173
-537.179	-142.742	-0.169	0.016
-536.164	800.000	0.008	-0.033
-535.150	-200.000	-0.003	-0.096
-534.135	-83.297	0.185	-0.059
-533.121	2.507	0.208	0.150
-532.106	800.000	0.122	0.337
-531.091	800.000	0.037	0.115
-530.077	-200.000	-0.014	-0.080
-529.062	-66.235	-0.156	-0.062
-528.048	-75.877	0.132	0.046
-527.033	-58.507	-0.108	0.046
-526.018	-23.081	0.282	-0.169
-525.004	-52.539	-0.105	0.048
-523.989	-91.132	-0.262	0.075
-522.975	-119.599	-0.140	-0.024
-521.960	21.011	0.106	0.085
-520.945	-41.294	-0.178	0.091
-519.931	205.750	-0.144	-0.223
-518.916	650.595	0.042	0.107
-517.902	0.215	0.109	-0.077
-516.887	446.837	0.013	0.028
-515.872	800.000	-0.041	-0.177
-514.858	-55.428	0.403	0.180
-513.843	282.781	-0.173	-0.309
-512.829	-85.296	0.156	-0.048
-511.814	192.946	0.176	-0.264
-510.799	-4.929	0.201	0.138
-509.785	-142.272	-0.511	-0.050
-508.770	39.090	0.038	0.033
-507.756	174.643	-0.300	0.432
-506.741	200.668	-0.060	-0.092
-505.726	56.316	-0.059	-0.057
-504.712	-16.297	0.103	-0.065
-503.697	68.962	-0.129	0.132
-502.683	-115.947	-0.286	0.053
-501.668	-200.000	-0.024	-0.162
-500.653	139.684	-0.155	0.203
-499.639	-200.000	-0.035	-0.415
-498.624	800.000	0.066	0.207
-497.610	-7.808	-0.117	0.078
-496.595	164.577	-0.136	-0.190
-495.581	5.979	0.364	0.268
-494.566	64.545	0.199	0.199
-493.551	-35.422	0.265	0.143
-492.537	17.516	-0.058	0.046
-491.522	283.704	-0.144	-0.256
-490.508	40.479	0.011	-0.010
-489.493	-100.107	0.202	-0.050
-488.478	77.887	0.235	0.249
-487.464	100.206	-0.098	-0.113
-486.449	204.956	0.185	-0.286
-485.435	-200.000	0.001	-0.068
-484.420	-66.012	0.155	0.061
-483.405	800.000	-0.098	0.397
-482.391	755.735	0.040	-0.106
-481.376	-137.998	-0.298	0.033
-480.362	-60.712	-0.146	0.061
-479.347	-200.000	0.017	0.206
-478.332	6.872	-0.113	0.084
-477.318	81.909	0.090	-0.097
-476.303	648.794	0.084	0.213
-475.289	97.265	0.100	0.114
-474.274	-97.993	0.048	0.012
-473.259	-73.500	0.105	0.038
-472.245	800.000	0.003	-0.010
-471.230	20.395	0.047	0.037
-470.216	193.377	0.217	0.326
-469.201	-49.356	0.011	0.005
-468.186	-10.933	-0.084	0.055
-467.172	-200.000	0.007	0.163
-466.157	-101.582	0.202	-0.049
-465.143	-51.847	0.382	-0.176
-464.128	-46.083	-0.192	0.094
-463.113	-161.174	0.036	0.002
-462.099	40.889	-0.063	0.056
-461.084	-44.069	0.205	0.102
-460.070	145.750	-0.091	-0.122
-459.055	294.757	0.164	0.298
-458.040	-130.110	-0.084	0.011
-457.026	-67.832	-0.366	-0.142
-456.011	-39.978	0.158	0.082
-454.997	-95.063	0.235	-0.063
-453.982	44.034	-0.168	-0.153
-452.968	-89.455	0.348	0.102
-451.953	-72.213	-0.091	-0.034
-450.938	-29.185	0.203	0.115
-449.924	119.674	-0.091	0.111
-448.909	-0.554	0.148	0.104
-447.895	153.358	0.190	-0.258
-446.880	-130.508	-0.357	0.048
-445.865	-99.543	0.077	-0.019
-444.851	-64.412	-0.208	-0.084
-443.836	-67.930	-0.393	0.152
-442.822	-158.518	-0.182	0.010
-441.807	64.602	-0.077	0.077
-440.792	18.761	-0.105	0.083
-439.778	-151.121	0.311	0.023
-438.763	800.000	-0.053	-0.144
-437.749	-200.000	-0.024	-0.269
-436.734	-171.047	0.346	0.012
-435.719	-30.898	-0.242	-0.136
-434.705	-37.712	-0.061	-0.032
-433.690	-200.000	-0.029	-0.191
-432.676	329.013	0.160	0.305
-431.661	-200.000	0.044	0.250
-430.646	-68.664	-0.280	-0.107
-429.632	800.000	0.097	-0.286
-428.617	35.220	-0.120	0.105
-427.603	113.013	0.077	0.092
-426.588	-200.000	0.069	0.360
-425.573	-200.000	-0.021	-0.120
-424.559	179.277	-0.148	-0.214
-423.544	-28.886	0.268	-0.152
-422.530	-99.396	-0.224	0.056
-421.515	70.691	0.058	0.060
-420.500	205.162	-0.176	0.271
-419.486	65.506	-0.043	0.043
-418.471	34.506	0.154	0.133
-417.457	-48.798	-0.257	-0.122
-416.442	205.238	0.176	-0.270
-415.428	800.000	-0.042	-0.167
-414.413	544.262	-0.084	-0.198
-413.398	-47.176	0.206	0.099
-412.384	-82.454	-0.184	0.059
-411.369	-92.288	0.218	-0.061
-410.355	-113.419	-0.162	0.032
-409.340	76.976	0.200	-0.210
-408.325	800.000	-0.103	-0.282
-407.311	-23.880	0.517	-0.306
-406.296	414.308	0.134	0.282
-405.282	-109.696	0.195	0.041
-404.267	-177.966	0.066	-0.002
-403.252	-140.298	0.537	-0.056
-402.238	210.021	0.150	-0.232
-401.223	86.922	-0.202	0.221
-400.209	-200.000	-0.010	-0.118
-399.194	434.110	-0.126	0.271
-398.179	-68.633	0.298	0.114
-397.165	-38.317	-0.240	-0.126
-396.150	201.310	0.113	-0.172
-395.136	20.000	-0.243	-0.194
-394.121	100.302	0.017	0.019
-393.106	191.856	-0.335	0.499
-392.092	-132.486	-0.144	-0.018
-391.077	93.340	0.194	0.217
-390.063	-200.000	0.010	-0.310
-389.048	-200.000	0.020	-0.188
-388.033	-141.991	-0.198	-0.020
-387.019	-109.813	0.192	-0.040
-386.004	-155.154	0.169	-0.011
-384.990	383.531	-0.065	-0.132
-383.975	800.000	0.049	-0.166
-382.960	-155.979	-0.261	0.016
-381.946	531.320	0.039	0.090
-380.931	-11.922	0.200	-0.130
-379.917	-200.000	-0.043	0.195
-378.902	-138.300	0.431	-0.047
-377.888	800.000	-0.010	0.041
-376.873	137.654	0.087	0.113
-375.858	800.000	0.112	-0.319
-374.844	131.909	-0.198	0.252
-373.829	453.996	0.060	-0.132
-372.815	37.444	-0.218	0.191
-371.800	121.529	-0.199	0.246
-370.785	232.710	0.174	0.282
-369.771	185.356	0.028	-0.041
-368.756	-96.490	-0.049	0.013
-367.742	-3.653	0.061	-0.042
-366.727	-200.000	-0.012	-0.314
-365.712	800.000	0.016	0.065
-364.698	-82.509	-0.199	0.064
-363.683	-67.984	-0.313	-0.120
-362.669	-200.000	0.008	-0.109
-361.654	-168.178	-0.296	-0.011
-360.639	672.967	-0.091	0.233
-359.625	457.550	0.039	0.087
-358.610	800.000	0.129	-0.395
-357.596	800.000	0.063	-0.197
-356.581	5.321	-0.378	-0.275
-355.566	800.000	0.101	-0.407
-354.552	-200.000	0.040	-0.238
-353.537	800.000	-0.007	0.026
-352.523	47.928	0.225	0.208
-351.508	-200.000	-0.006	-0.201
-350.493	-200.000	-0.013	-0.181
-349.479	-100.373	-0.080	-0.020
-348.464	-125.717	-0.264	0.039
-347.450	108.997	0.145	0.172
-346.435	-73.351	0.430	-0.155
-345.420	-138.492	-0.133	-0.014
-344.406	126.060	-0.019	-0.023
-343.391	24.881	0.100	-0.082
-342.377	-84.005	-0.131	-0.041
-341.362	87.655	0.240	0.263
-340.348	68.069	-0.222	0.224
-339.333	-111.170	-0.318	0.064
-338.318	94.803	-0.106	-0.119
-337.304	392.248	-0.017	0.035
-336.289	250.815	0.236	0.395
-335.275	-200.000	-0.011	-0.128
-334.260	-151.115	-0.095	-0.007
-333.245	28.174	0.184	0.154
-332.231	-42.962	0.236	-0.118
-331.216	143.534	0.168	0.220
-330.202	-59.077	-0.161	0.069
-329.187	-79.492	-0.362	-0.121
-328.172	35.208	0.266	-0.230
-327.158	-61.096	0.193	0.081
-326.143	287.123	0.126	0.225
-325.129	89.979	-0.167	0.184
-324.114	-138.605	-0.146	-0.016
-323.099	-200.000	-0.030	-0.422
-322.085	-29.499	0.207	-0.117
-321.070	-149.045	0.384	-0.030
-320.056	-200.000	0.050	-0.260
-319.041	-200.000	0.049	0.321
-318.026	27.830	0.180	-0.150
-317.012	76.163	0.204	-0.213
-315.997	275.799	-0.199	-0.349
-314.983	-102.996	0.141	0.033
-313.968	9.346	0.063	-0.047
-312.953	-200.000	-0.030	0.453
-311.939	-113.615	-0.251	-0.048
-310.924	191.709	-0.089	-0.132
-309.910	-200.000	0.093	0.406
-308.895	732.170	0.011	0.030
-307.880	189.294	-0.097	-0.143
-306.866	40.066	0.164	-0.146
-305.851	89.835	0.248	-0.273
-304.837	51.983	0.061	-0.058
-303.822	26.337	0.060	0.049
-302.807	-74.062	-0.351	0.125
-301.793	-136.104	-0.234	-0.027
-300.778	-200.000	-0.045	0.240
-299.764	213.640	-0.109	-0.169
-298.749	-98.418	0.131	-0.033
-297.735	-52.359	0.282	0.129
-296.720	-191.020	0.108	0.001
-295.705	165.317	0.073	0.102
-294.691	-123.840	-0.263	0.041
-293.676	36.041	-0.238	0.206
-292.662	-200.000	0.016	0.163
-291.647	21.277	-0.202	0.161
-290.632	-200.000	0.012	-0.070
-289.618	800.000	-0.105	-0.286
-288.603	43.049	-0.300	-0.270
-287.589	-200.000	-0.001	-0.210
-286.574	-200.000	0.051	-0.273
-285.559	-200.000	-0.007	0.038
-284.545	16.217	0.182	-0.142
-283.530	800.000	0.048	0.171
-282.516	-129.202	-0.218	0.030
-281.501	-200.000	0.010	0.383
-280.486	-200.000	-0.040	-0.409
-279.472	-15.469	0.173	0.109
-278.457	-104.033	0.237	0.054
-277.443	151.098	-0.080	0.107
-276.428	800.000	0.072	0.218
-275.413	167.771	0.144	0.201
-274.399	-151.444	-0.161	-0.012
-273.384	-100.912	-0.275	0.066
-272.370	-63.091	-0.122	0.050
-271.355	-200.000	-0.347	0.002
-270.340	91.873	0.329	-0.365
-269.326	-109.131	-0.088	-0.018
-268.311	800.000	0.042	0.133
-267.297	277.363	0.203	-0.356
-266.282	800.000	0.005	-0.014
-265.267	800.000	-0.018	0.065
-264.253	328.280	0.076	-0.143
-263.238	559.763	0.184	-0.438
-262.224	-82.931	0.130	0.041
-261.209	-43.117	-0.194	-0.097
-260.195	-19.937	-0.091	0.055
-259.180	43.079	-0.122	-0.109
-258.165	-39.914	0.141	0.072
-257.151	-21.362	0.167	-0.100
-256.136	-69.892	0.214	-0.080
-255.122	800.000	-0.045	-0.130
-254.107	41.335	0.217	-0.193
-253.092	115.782	0.092	-0.111
-252.078	800.000	0.109	-0.339
-251.063	800.000	-0.088	-0.300
-250.049	83.629	-0.232	0.249
-249.034	62.793	0.114	0.113
-248.019	96.487	-0.058	-0.065
-247.005	-191.987	-0.322	-0.003
-245.990	-200.000	0.070	0.505
-244.976	-135.109	-0.106	-0.013
-243.961	23.505	0.125	-0.101
-242.946	-78.444	-0.438	-0.148
-241.932	-200.000	-0.034	-0.196
-240.917	47.119	0.175	0.161
-239.903	368.259	0.099	-0.197
-238.888	-48.063	-0.346	-0.164
-237.873	-200.000	-0.002	0.129
-236.859	-47.290	0.130	-0.062
-235.844	44.302	0.061	-0.055
-234.830	-95.063	-0.063	0.017
-233.815	800.000	0.055	-0.233
-232.800	-132.210	-0.285	-0.036
-231.786	-70.310	-0.109	0.041
-230.771	702.776	-0.069	-0.179
-229.757	-200.000	-0.103	0.512
-228.742	-200.000	-0.000	0.158
-227.727	-200.000	0.036	0.284
-226.713	270.431	0.170	0.294
-225.698	-0.718	-0.133	-0.093
-224.684	-85.096	-0.269	-0.083
-223.669	-11.154	0.180	-0.117
-222.655	-54.247	-0.257	-0.115
-221.640	3.735	-0.218	-0.157
-220.625	-152.729	0.302	0.021
-219.611	-116.169	0.265	0.048
-218.596	-9.942	0.265	0.173
-217.582	-161.186	-0.271	0.014
-216.567	121.058	-0.197	-0.241
-215.552	357.255	-0.058	-0.115
-214.538	29.730	-0.184	-0.154
-213.523	685.029	0.067	-0.171
-212.509	96.684	0.077	0.086
-211.494	-74.310	-0.260	-0.092
-210.479	-178.160	-0.162	0.004
-209.465	-74.119	0.227	-0.081
-208.450	-200.000	0.001	-0.258
-207.436	-33.027	-0.336	-0.183
-206.421	279.759	-0.197	0.345
-205.406	-200.000	0.029	0.227
-204.392	419.919	0.140	0.294
-203.377	-200.000	-0.017	0.132
-202.363	-153.397	0.203	0.014
-201.348	800.000	-0.064	0.185
-200.333	-57.910	0.113	-0.048
-199.319	-4.187	0.183	-0.124
-198.304	98.953	0.080	0.090
-197.290	153.585	0.045	-0.061
-196.275	749.059	0.085	0.226
-195.260	148.571	0.026	0.034
-194.246	-200.000	-0.013	0.193
-193.231	-124.734	0.216	0.033
-192.217	-186.477	-0.014	0.000
-191.202	-75.928	0.245	-0.085
-190.187	-37.617	0.064	-0.033
-189.173	81.870	0.117	0.124
-188.158	-127.860	0.049	0.007
-187.144	654.675	0.083	-0.208
-186.129	11.445	0.367	0.276
-185.114	182.572	-0.120	0.173
-184.100	-136.972	0.260	0.029
-183.085	-200.000	0.007	0.033
-182.071	-200.000	0.011	0.056
-181.056	-63.860	0.208	0.083
-180.042	332.585	0.169	-0.319
-179.027	-200.000	-0.019	0.130
-178.012	17.943	-0.213	-0.167
-176.998	-128.759	-0.205	0.028
-175.983	-200.000	-0.016	-0.265
-174.969	543.617	0.056	0.131
-173.954	800.000	0.009	-0.035
-172.939	55.240	-0.235	-0.223
-171.925	-61.227	-0.238	-0.098
-170.910	203.946	-0.161	0.244
-169.896	-108.274	0.319	-0.068
-168.881	800.000	0.034	0.133
-167.866	-19.472	-0.139	-0.084
-166.852	-2.503	-0.215	-0.148
-165.837	-200.000	0.012	-0.077
-164.823	-200.000	-0.019	0.150
-163.808	-137.941	-0.220	-0.024
-162.793	800.000	-0.064	-0.239
-161.779	46.826	0.219	0.200
-160.764	455.856	-0.107	-0.232
-159.750	-115.688	-0.005	-0.001
-158.735	-200.000	-0.053	0.244
-157.720	-113.652	-0.110	-0.021
-156.706	-187.091	0.214	0.003
-155.691	-137.644	0.227	-0.025
-154.677	-31.374	0.183	-0.101
-153.662	-129.324	0.388	0.053
-152.647	-150.070	0.190	0.014
-151.633	800.000	-0.013	0.045
-150.618	-99.564	0.298	0.073
-149.604	-73.693	-0.270	0.096
-148.589	312.435	0.147	0.270
-147.574	108.152	0.038	-0.044
-146.560	233.795	0.015	-0.024
-145.545	-93.644	0.270	0.073
-144.531	38.556	-0.101	-0.088
-143.516	-200.000	-0.013	-0.143
-142.502	800.000	-0.085	-0.297
-141.487	-114.894	-0.506	-0.094
-140.472	-16.906	0.181	-0.112
-139.458	800.000	0.042	-0.126
-138.443	-182.672	-0.262	0.005
-137.429	800.000	0.031	0.100
-136.414	-124.949	0.139	0.021
-135.399	466.974	-0.155	-0.341
-134.385	132.128	0.218	-0.275
-133.370	-76.682	-0.310	-0.106
-132.356	800.000	0.152	0.416
-131.341	-200.000	0.032	-0.154
-130.326	87.892	0.213	0.231
-129.312	-93.279	-0.261	-0.071
-128.297	-200.000	-0.002	0.299
-127.283	67.281	0.023	0.023
-126.268	-89.706	0.204	-0.059
-125.253	-200.000	0.215	-0.000
-124.239	208.242	-0.094	-0.143
-123.224	-173.451	-0.167	0.005
-122.210	-0.161	-0.023	0.016
-121.195	-71.382	0.041	0.015
-120.180	459.652	0.052	-0.114
