DTS Sentinel unit serial number:	SN413079Multiplexer serial number:	ORYXHardware model number:	OX4-SRSoftware version number:	ORYX F/W v4.00 Oryx Data Collector v3.7.2.0data status	okinstallation	princeton_trtdifferential loss correction	single-endedforward channel	channel 3reverse channel	N/Adate	2019/09/16time	00:12:35forward acquisition time	60.00reverse acquisition time	0.00gamma	496.2192k internal	0.2337k external	0.2337temperature offset calibration	0.9947default loss term (dB/km)	0.3790temperature slope calibration	1.0000multiplexer offset coefficient	1.0000multiplexer slope coefficient	1.0000fibre end	0.00T internal ref (°C)	27.75T ext. ref 1 (°C)	9.45T ext. ref 2 (°C)	21.64length (m)	temperature (°C)	Stokes	anti-Stokes-747.200	-200.000	0.012	0.096
-746.185	-81.141	-0.305	0.101
-745.171	24.698	0.150	-0.125
-744.156	800.000	-0.106	0.307
-743.142	58.874	0.293	0.289
-742.127	355.254	-0.069	0.137
-741.112	331.480	0.179	0.346
-740.098	-79.871	0.214	0.072
-739.083	800.000	0.094	-0.406
-738.069	342.339	-0.100	0.196
-737.054	28.171	0.060	0.051
-736.039	-82.767	-0.167	-0.054
-735.025	800.000	0.086	0.325
-734.010	-23.533	-0.174	-0.105
-732.996	633.903	-0.054	0.137
-731.981	800.000	0.083	0.241
-730.966	-200.000	-0.029	-0.274
-729.952	-117.841	-0.154	0.028
-728.937	143.189	-0.230	-0.307
-727.923	-27.471	0.220	0.128
-726.908	32.962	-0.069	-0.060
-725.894	308.681	0.072	0.135
-724.879	231.136	-0.104	-0.170
-723.864	-54.583	-0.379	0.172
-722.850	-58.502	-0.098	0.042
-721.835	-119.496	-0.301	0.052
-720.821	-70.412	-0.174	0.066
-719.806	800.000	0.049	0.212
-718.791	-137.463	-0.342	-0.039
-717.777	23.290	0.094	0.077
-716.762	115.009	-0.244	-0.299
-715.748	-112.522	0.071	-0.014
-714.733	291.115	0.171	-0.311
-713.718	18.160	0.064	-0.051
-712.704	-200.000	0.016	0.172
-711.689	800.000	0.014	0.058
-710.675	-103.979	0.107	-0.025
-709.660	90.635	-0.040	0.045
-708.645	231.497	-0.158	-0.260
-707.631	-149.127	-0.324	0.026
-706.616	-146.288	0.102	0.009
-705.602	345.761	0.037	0.073
-704.587	800.000	0.041	-0.148
-703.572	157.183	0.213	0.295
-702.558	-20.784	-0.340	0.209
-701.543	-153.232	-0.147	-0.010
-700.529	41.892	-0.230	0.209
-699.514	6.722	0.071	-0.053
-698.499	-69.635	-0.240	0.092
-697.485	-19.975	-0.105	-0.065
-696.470	604.329	0.097	-0.241
-695.456	800.000	-0.067	0.216
-694.441	704.666	-0.071	0.188
-693.426	-138.170	-0.200	-0.022
-692.412	-90.653	0.037	0.011
-691.397	-110.160	-0.316	-0.066
-690.383	-200.000	0.045	-0.392
-689.368	-200.000	0.002	-0.091
-688.354	800.000	0.064	0.213
-687.339	-200.000	0.001	-0.056
-686.324	-139.396	-0.512	-0.055
-685.310	-83.798	-0.278	-0.089
-684.295	283.755	0.071	-0.129
-683.281	-107.150	-0.080	0.018
-682.266	-28.238	-0.274	-0.158
-681.251	-200.000	0.108	-0.476
-680.237	-98.658	-0.125	-0.032
-679.222	253.066	-0.081	0.139
-678.208	659.547	-0.036	0.092
-677.193	-151.975	0.046	0.003
-676.178	-165.745	0.022	0.001
-675.164	-142.743	0.405	0.040
-674.149	91.601	-0.215	0.242
-673.135	-200.000	-0.032	0.391
-672.120	-86.849	0.219	-0.067
-671.105	800.000	0.012	-0.044
-670.091	-104.429	-0.131	0.030
-669.076	-86.305	0.219	-0.067
-668.062	-98.935	-0.046	-0.012
-667.047	-96.855	0.193	0.051
-666.032	6.011	-0.108	0.080
-665.018	-200.000	-0.001	0.153
-664.003	800.000	0.062	-0.253
-662.989	159.886	-0.166	-0.231
-661.974	-74.052	-0.244	-0.088
-660.959	-96.662	-0.367	-0.097
-659.945	-119.109	0.196	0.034
-658.930	800.000	-0.030	0.084
-657.916	34.673	-0.075	0.065
-656.901	-151.893	-0.333	-0.024
-655.886	-88.265	0.206	0.062
-654.872	151.276	-0.085	-0.116
-653.857	471.897	0.139	0.312
-652.843	-164.267	-0.127	0.006
-651.828	-27.618	-0.164	-0.095
-650.814	-200.000	-0.003	-0.142
-649.799	-200.000	0.028	-0.149
-648.784	222.981	0.100	-0.161
-647.770	35.933	0.215	-0.189
-646.755	-48.797	0.142	0.068
-645.741	535.948	0.052	-0.124
-644.726	-56.588	-0.166	0.074
-643.711	-200.000	-0.016	0.107
-642.697	800.000	0.057	-0.208
-641.682	800.000	-0.090	-0.337
-640.668	146.578	-0.141	-0.189
-639.653	-200.000	-0.045	-0.240
-638.638	-200.000	0.029	-0.222
-637.624	-101.081	0.042	-0.010
-636.609	-200.000	-0.293	-0.000
-635.595	-200.000	0.059	-0.288
-634.580	-69.264	-0.144	-0.055
-633.565	-200.000	-0.007	0.233
-632.551	-200.000	0.015	-0.220
-631.536	-75.621	-0.121	0.043
-630.522	-39.189	0.167	-0.088
-629.507	-200.000	-0.006	-0.317
-628.492	74.728	0.276	0.290
-627.478	433.000	0.032	0.070
-626.463	-69.431	0.094	-0.036
-625.449	-156.989	0.273	0.017
-624.434	44.049	0.247	0.226
-623.419	-200.000	-0.003	-0.104
-622.405	-75.453	0.251	0.089
-621.390	14.132	0.179	0.139
-620.376	-13.219	-0.215	0.139
-619.361	595.738	-0.179	0.442
-618.346	-154.366	-0.335	0.022
-617.332	-200.000	0.004	-0.165
-616.317	17.784	0.098	-0.078
-615.303	-200.000	0.062	0.295
-614.288	-27.260	-0.022	-0.013
-613.273	-89.437	-0.288	-0.085
-612.259	-66.517	0.118	-0.047
-611.244	-38.747	0.146	-0.077
-610.230	-200.000	0.014	-0.428
-609.215	78.486	-0.084	-0.090
-608.201	172.698	-0.036	0.052
-607.186	44.931	0.066	0.061
-606.171	2.043	0.191	-0.138
-605.157	117.462	0.096	0.118
-604.142	800.000	0.118	0.390
-603.128	116.284	-0.256	-0.314
-602.113	-83.723	-0.402	-0.128
-601.098	42.273	0.118	0.107
-600.084	-200.000	-0.058	-0.366
-599.069	677.464	-0.062	0.160
-598.055	40.672	-0.103	-0.093
-597.040	158.411	0.186	0.258
-596.025	-200.000	0.049	-0.541
-595.011	-155.890	0.121	-0.008
-593.996	-107.042	0.111	0.025
-592.982	-200.000	-0.020	-0.102
-591.967	35.434	0.048	-0.042
-590.952	800.000	-0.038	0.116
-589.938	270.019	-0.122	-0.215
-588.923	-200.000	-0.016	0.085
-587.909	167.864	-0.261	-0.371
-586.894	-70.915	0.051	0.019
-585.879	-20.966	-0.143	-0.088
-584.865	-77.169	-0.158	0.055
-583.850	151.643	0.059	-0.080
-582.836	195.402	-0.079	-0.119
-581.821	166.517	0.073	-0.104
-580.806	353.962	0.087	-0.173
-579.792	-46.956	0.242	0.118
-578.777	175.636	-0.083	-0.121
-577.763	-60.203	0.068	0.029
-576.748	24.413	0.113	-0.093
-575.733	18.765	0.154	0.123
-574.719	12.669	0.209	0.161
-573.704	139.274	-0.192	0.251
-572.690	19.096	-0.113	-0.091
-571.675	-200.000	-0.038	0.280
-570.661	-200.000	-0.240	0.001
-569.646	-50.586	-0.092	-0.043
-568.631	14.723	-0.067	0.052
-567.617	800.000	-0.105	0.321
-566.602	167.367	-0.176	0.249
-565.588	43.130	-0.185	-0.169
-564.573	7.028	0.182	-0.135
-563.558	-24.975	-0.034	-0.020
-562.544	170.305	-0.283	0.404
-561.529	236.433	0.059	-0.098
-560.515	81.162	-0.101	0.108
-559.500	-137.232	0.070	0.008
-558.485	397.403	0.086	0.180
-557.471	161.911	-0.184	0.257
-556.456	14.691	-0.185	0.144
-555.442	-32.600	0.116	-0.064
-554.427	-69.499	-0.353	0.135
-553.412	226.148	0.086	0.139
-552.398	-21.463	0.209	0.127
-551.383	61.836	0.136	-0.135
-550.369	-91.368	-0.098	-0.028
-549.354	-49.964	0.069	-0.032
-548.339	28.668	-0.073	0.062
-547.325	-66.939	-0.179	0.071
-546.310	669.220	0.058	0.148
-545.296	147.610	0.199	-0.267
-544.281	-40.847	-0.406	-0.209
-543.266	-200.000	-0.008	0.129
-542.252	-200.000	-0.043	-0.276
-541.237	64.286	-0.215	0.216
-540.223	-41.862	-0.097	-0.049
-539.208	108.756	0.229	0.272
-538.193	800.000	-0.024	-0.078
-537.179	-90.577	0.118	-0.034
-536.164	119.362	-0.059	-0.072
-535.150	391.750	-0.205	0.424
-534.135	-139.992	0.088	0.009
-533.121	156.991	0.331	0.456
-532.106	-200.000	-0.023	-0.407
-531.091	-137.393	0.461	0.052
-530.077	-134.487	0.252	-0.031
-529.062	8.012	0.433	-0.324
-528.048	-132.132	0.280	0.036
-527.033	-16.294	-0.073	-0.046
-526.018	-81.079	0.262	0.086
-525.004	-80.318	-0.151	0.050
-523.989	69.128	-0.165	0.169
-522.975	22.648	-0.228	-0.186
-521.960	-34.262	0.348	-0.190
-520.945	-16.657	-0.194	-0.122
-519.931	-200.000	0.024	-0.225
-518.916	-7.806	0.051	0.034
-517.902	282.570	0.061	-0.109
-516.887	-156.036	0.187	0.012
-515.872	-128.239	0.141	-0.020
-514.858	-73.006	-0.300	-0.110
-513.843	800.000	-0.040	0.131
-512.829	26.242	-0.155	-0.129
-511.814	-200.000	-0.069	-0.320
-510.799	-170.554	0.109	0.004
-509.785	124.047	-0.266	0.332
-508.770	32.451	-0.181	-0.156
-507.756	-148.469	-0.356	0.029
-506.741	170.568	0.050	-0.072
-505.726	41.566	-0.070	0.063
-504.712	396.031	-0.101	0.209
-503.697	800.000	-0.077	-0.221
-502.683	-200.000	0.025	-0.148
-501.668	212.114	0.128	0.200
-500.653	-153.050	-0.408	-0.029
-499.639	-45.693	0.126	-0.062
-498.624	-200.000	0.017	-0.184
-497.610	-148.794	0.136	-0.011
-496.595	-200.000	0.023	0.134
-495.581	36.967	-0.109	-0.096
-494.566	164.523	0.186	0.261
-493.551	-200.000	-0.001	-0.101
-492.537	55.250	-0.049	-0.048
-491.522	-134.155	-0.473	0.058
-490.508	-200.000	-0.034	-0.217
-489.493	491.703	-0.034	-0.076
-488.478	-150.195	0.153	-0.012
-487.464	654.298	0.132	-0.336
-486.449	-47.417	-0.100	0.048
-485.435	800.000	-0.085	-0.294
-484.420	-200.000	-0.018	0.126
-483.405	-200.000	0.006	0.116
-482.391	345.034	0.071	0.139
-481.376	-12.213	-0.283	-0.184
-480.362	78.739	0.125	0.133
-479.347	-200.000	-0.011	-0.090
-478.332	28.467	0.259	-0.217
-477.318	-67.766	0.164	0.064
-476.303	1.459	-0.170	-0.122
-475.289	-143.240	-0.186	-0.018
-474.274	-47.862	-0.162	0.078
-473.259	-102.177	0.216	-0.052
-472.245	58.000	-0.318	-0.309
-471.230	-200.000	-0.003	0.051
-470.216	-37.517	0.395	-0.209
-469.201	91.005	-0.105	0.117
-468.186	-200.000	-0.044	0.289
-467.172	-7.168	-0.374	-0.252
-466.157	-135.996	-0.297	0.035
-465.143	351.900	0.050	-0.099
-464.128	-124.966	0.146	0.022
-463.113	16.972	-0.336	-0.264
-462.099	800.000	-0.030	0.110
-461.084	-20.484	-0.043	0.026
-460.070	-72.963	0.027	0.010
-459.055	345.435	-0.052	-0.101
-458.040	-200.000	0.058	-0.323
-457.026	-200.000	-0.016	0.191
-456.011	-75.075	0.386	-0.137
-454.997	-63.083	0.024	0.010
-453.982	-140.577	0.234	0.024
-452.968	440.060	0.053	0.115
-451.953	-90.614	-0.186	0.053
-450.938	68.563	-0.026	-0.026
-449.924	-200.000	-0.001	-0.213
-448.909	-200.000	-0.012	0.132
-447.895	119.720	-0.078	-0.096
-446.880	565.616	-0.028	-0.067
-445.865	-122.316	0.318	-0.052
-444.851	-114.047	-0.145	-0.028
-443.836	-126.432	0.163	-0.024
-442.822	-200.000	-0.002	-0.121
-441.807	204.396	-0.119	0.183
-440.792	61.439	0.121	0.119
-439.778	-200.000	-0.035	0.268
-438.763	-114.033	0.084	-0.016
-437.749	194.146	0.194	0.292
-436.734	-200.000	-0.057	0.435
-435.719	-78.950	-0.175	0.059
-434.705	-152.548	0.373	0.026
-433.690	-200.000	0.015	0.205
-432.676	-86.849	-0.063	-0.019
-431.661	-135.870	-0.239	-0.028
-430.646	72.708	0.188	-0.195
-429.632	413.069	0.102	0.215
-428.617	155.530	-0.151	-0.207
-427.603	-200.000	0.087	0.445
-426.588	527.366	0.154	0.359
-425.573	-138.590	0.243	0.026
-424.559	800.000	0.142	0.412
-423.544	-143.584	0.029	-0.003
-422.530	-200.000	0.042	0.355
-421.515	-77.468	0.209	0.072
-420.500	-133.578	0.139	0.017
-419.486	-43.948	0.250	0.124
-418.471	-72.654	0.158	0.058
-417.457	-200.000	-0.010	-0.145
-416.442	600.457	0.090	-0.222
-415.428	735.822	0.090	0.239
-414.413	22.144	0.096	0.078
-413.398	-138.285	-0.186	0.020
-412.384	-132.931	0.171	0.022
-411.369	583.048	-0.119	-0.289
-410.355	42.149	-0.283	0.255
-409.340	-142.890	0.192	-0.018
-408.325	511.701	-0.065	0.150
-407.311	560.035	0.047	-0.113
-406.296	-53.116	-0.318	-0.145
-405.282	226.854	0.015	-0.025
-404.267	-200.000	-0.001	0.047
-403.252	32.692	0.077	-0.066
-402.238	17.417	0.242	-0.190
-401.223	800.000	0.081	0.291
-400.209	99.614	-0.202	-0.231
-399.194	-200.000	-0.067	-0.305
-398.179	-71.620	-0.186	-0.069
-397.165	-200.000	0.022	-0.181
-396.150	35.994	-0.183	-0.160
-395.136	45.369	-0.342	0.312
-394.121	67.670	-0.125	0.126
-393.106	59.962	0.176	0.172
-392.092	800.000	-0.017	-0.070
-391.077	-59.555	-0.435	0.185
-390.063	-91.792	-0.167	0.047
-389.048	35.004	0.115	0.099
-388.033	79.943	-0.118	0.125
-387.019	-16.844	-0.201	0.126
-386.004	-28.316	-0.254	-0.145
-384.990	202.193	-0.087	-0.133
-383.975	-200.000	0.003	-0.045
-382.960	-7.618	0.109	-0.073
-381.946	-62.992	0.398	-0.163
-380.931	375.809	-0.148	0.298
-379.917	152.124	0.145	-0.196
-378.902	800.000	0.058	0.222
-377.888	-200.000	0.010	-0.095
-376.873	-200.000	-0.013	0.384
-375.858	800.000	-0.096	0.333
-374.844	-134.517	0.181	0.022
-373.829	51.037	-0.134	-0.126
-372.815	-155.314	-0.135	0.009
-371.800	654.541	-0.154	0.391
-370.785	800.000	-0.114	-0.376
-369.771	-81.330	0.197	0.064
-368.756	106.662	-0.135	-0.158
-367.742	-200.000	-0.015	0.511
-366.727	-200.000	-0.004	0.231
-365.712	0.243	0.038	-0.027
-364.698	800.000	0.094	0.334
-363.683	-200.000	0.019	-0.109
-362.669	-200.000	-0.021	-0.261
-361.654	-86.785	-0.315	0.095
-360.639	-51.870	-0.209	-0.096
-359.625	-146.141	0.025	-0.002
-358.610	-200.000	-0.037	-0.162
-357.596	378.834	-0.101	0.204
-356.581	800.000	0.122	0.367
-355.566	-200.000	0.027	-0.448
-354.552	315.393	0.188	-0.351
-353.537	-164.664	0.454	-0.020
-352.523	671.464	-0.098	-0.252
-351.508	-131.705	0.252	0.033
-350.493	-200.000	0.009	0.066
-349.479	10.884	0.153	0.116
-348.464	-179.843	-0.297	-0.006
-347.450	-25.777	0.256	-0.149
-346.435	758.210	-0.058	-0.156
-345.420	234.921	-0.104	0.169
-344.406	463.427	-0.145	-0.321
-343.391	276.111	-0.083	-0.146
-342.377	690.113	-0.053	0.138
-341.362	-13.635	0.171	-0.109
-340.348	25.866	0.116	0.096
-339.333	-1.979	0.297	-0.206
-338.318	-124.484	0.105	0.016
-337.304	-112.430	-0.225	-0.044
-336.289	189.475	0.095	-0.141
-335.275	439.955	0.149	0.322
-334.260	293.480	-0.137	0.248
-333.245	-111.238	-0.166	0.034
-332.231	-138.732	0.192	0.021
-331.216	37.093	0.119	-0.104
-330.202	-188.277	-0.302	0.004
-329.187	800.000	0.046	0.195
-328.172	800.000	0.058	-0.159
-327.158	800.000	0.084	0.251
-326.143	107.370	0.162	0.191
-325.129	443.951	-0.109	0.237
-324.114	800.000	0.017	0.060
-323.099	-62.807	0.213	0.087
-322.085	165.234	0.080	-0.112
-321.070	-200.000	-0.025	0.262
-320.056	-81.697	0.263	0.085
-319.041	-66.698	-0.181	-0.071
-318.026	-27.518	0.108	-0.062
-317.012	28.143	0.060	0.050
-315.997	-2.597	-0.090	0.062
-314.983	426.777	0.015	0.033
-313.968	-200.000	-0.061	0.329
-312.953	59.910	-0.119	0.116
-311.939	-200.000	-0.019	-0.132
-310.924	-171.279	0.069	0.002
-309.910	311.358	0.062	0.115
-308.895	7.596	0.155	-0.115
-307.880	-200.000	-0.006	0.159
-306.866	800.000	0.118	-0.325
-305.851	-200.000	0.039	-0.214
-304.837	99.800	-0.131	0.149
-303.822	114.623	0.155	-0.186
-302.807	-0.268	-0.143	-0.100
-301.793	-25.723	-0.072	0.042
-300.778	53.042	0.069	0.066
-299.764	206.706	-0.078	-0.119
-298.749	-40.811	0.165	-0.084
-297.735	800.000	-0.061	-0.190
-296.720	-55.730	0.286	-0.126
-295.705	-66.327	-0.273	-0.107
-294.691	144.775	-0.181	-0.238
-293.676	-138.549	-0.007	0.001
-292.662	216.881	0.054	-0.085
-291.647	-200.000	-0.033	0.325
-290.632	664.877	0.096	0.244
-289.618	-200.000	0.049	-0.217
-288.603	45.690	0.192	-0.175
-287.589	-154.323	-0.537	0.036
-286.574	800.000	-0.110	0.355
-285.559	-114.778	-0.234	-0.044
-284.545	19.118	0.232	0.183
-283.530	599.842	0.087	-0.213
-282.516	-70.221	-0.202	-0.076
-281.501	-23.741	-0.178	-0.105
-280.486	253.203	-0.224	0.377
-279.472	-98.037	-0.279	-0.071
-278.457	96.403	-0.216	-0.244
-277.443	-80.830	-0.289	-0.095
-276.428	32.022	0.122	-0.104
-275.413	238.157	-0.073	0.120
-274.399	-26.694	0.116	0.067
-273.384	800.000	0.068	-0.217
-272.370	-163.897	-0.207	0.010
-271.355	441.921	0.031	0.066
-270.340	-13.300	0.195	0.125
-269.326	-200.000	-0.027	0.296
-268.311	-90.771	0.131	0.037
-267.297	800.000	-0.099	-0.389
-266.282	-184.193	0.167	0.003
-265.267	-200.000	0.050	0.260
-264.253	-81.244	-0.107	0.035
-263.238	245.573	-0.165	-0.273
-262.224	23.163	-0.374	-0.302
-261.209	357.445	0.137	0.270
-260.195	800.000	-0.034	-0.128
-259.180	-137.342	0.217	-0.024
-258.165	-70.106	-0.059	0.022
-257.151	149.258	0.094	0.126
-256.136	14.673	-0.367	-0.283
-255.122	151.113	-0.128	-0.171
-254.107	-112.658	0.192	-0.038
-253.092	158.269	0.031	-0.043
-252.078	-169.922	-0.230	-0.008
-251.063	49.665	0.133	0.123
-250.049	66.327	-0.099	-0.099
-249.034	-200.000	0.019	0.287
-248.019	-125.097	-0.322	-0.049
-247.005	265.063	0.179	-0.306
-245.990	-149.372	0.289	0.023
-244.976	800.000	0.016	0.064
-243.961	-131.055	0.273	0.036
-242.946	-200.000	0.038	0.277
-241.932	800.000	0.047	0.190
-240.917	251.559	-0.036	-0.061
-239.903	-200.000	-0.014	-0.063
-238.888	-87.515	0.200	0.060
-237.873	664.558	-0.053	0.135
-236.859	58.574	0.075	0.072
-235.844	32.842	-0.495	-0.422
-234.830	564.957	-0.042	-0.101
-233.815	-5.625	0.199	0.134
-232.800	234.358	-0.054	0.087
-231.786	-5.987	0.128	-0.086
-230.771	-46.409	-0.055	0.027
-229.757	800.000	-0.034	-0.123
-228.742	36.373	-0.122	-0.106
-227.727	-200.000	-0.015	0.093
-226.713	800.000	-0.027	-0.096
-225.698	-132.664	0.183	0.023
-224.684	94.661	-0.176	0.196
-223.669	115.037	-0.034	0.041
-222.655	1.927	0.197	-0.139
-221.640	-91.492	-0.217	-0.061
-220.625	-2.825	0.202	-0.139
-219.611	-99.182	0.299	-0.074
-218.596	23.784	0.363	-0.294
-217.582	131.221	0.095	-0.121
-216.567	-197.529	-0.427	-0.003
-215.552	-98.348	0.235	0.059
-214.538	800.000	0.177	-0.506
-213.523	49.711	0.147	-0.136
-212.509	4.975	-0.190	-0.138
-211.494	-75.164	0.193	0.068
-210.479	800.000	0.100	0.303
-209.465	473.057	-0.154	0.341
-208.450	-33.231	-0.028	-0.015
-207.436	34.101	-0.152	0.130
-206.421	-67.595	0.188	0.073
-205.406	127.011	0.107	0.133
-204.392	-180.250	0.442	0.009
-203.377	-117.061	0.217	-0.039
-202.363	-200.000	-0.057	0.277
-201.348	800.000	0.029	0.106
-200.333	-20.760	-0.181	-0.109
-199.319	-200.000	-0.024	0.211
-198.304	800.000	0.060	0.176
-197.290	111.098	0.104	-0.124
-196.275	520.452	0.027	-0.061
-195.260	778.408	0.138	0.370
-194.246	800.000	-0.069	-0.249
-193.231	-200.000	-0.027	0.256
-192.217	340.902	-0.208	0.400
-191.202	-174.189	0.232	-0.007
-190.187	-113.425	0.284	-0.055
-189.173	264.431	-0.180	-0.307
-188.158	-200.000	0.013	0.552
-187.144	800.000	0.034	-0.128
-186.129	-33.534	-0.337	-0.183
-185.114	129.512	-0.099	-0.124
-184.100	546.133	0.033	-0.079
-183.085	599.922	0.139	0.339
-182.071	197.509	-0.038	-0.057
-181.056	147.538	0.078	-0.103
-180.042	-16.544	0.105	-0.065
-179.027	-200.000	0.000	-0.118
-178.012	-200.000	0.009	-0.069
-176.998	-196.710	0.144	0.001
-175.983	-150.748	0.369	-0.028
-174.969	1.924	-0.074	-0.052
-173.954	800.000	0.036	-0.137
-172.939	-200.000	0.042	-0.324
-171.925	80.191	-0.178	-0.188
-170.910	39.235	0.151	0.133
-169.896	-200.000	-0.023	0.142
-168.881	28.744	0.092	-0.076
-167.866	264.535	-0.086	-0.147
-166.852	77.323	0.130	-0.135
-165.837	422.897	0.043	0.091
-164.823	-55.596	0.186	0.082
-163.808	-80.890	-0.026	0.008
-162.793	-18.247	-0.439	0.269
-161.779	-12.828	0.166	-0.106
-160.764	800.000	0.096	-0.387
-159.750	-39.543	0.147	0.075
-158.735	349.940	-0.112	-0.217
-157.720	-200.000	-0.287	-0.000
-156.706	36.925	-0.075	0.065
-155.691	-41.755	0.076	-0.038
-154.677	117.696	-0.136	0.164
-153.662	-5.721	-0.260	0.175
-152.647	800.000	-0.045	0.136
-151.633	-200.000	0.067	0.429
-150.618	556.896	0.072	-0.169
-149.604	62.306	0.437	0.428
-148.589	-200.000	-0.022	0.376
-147.574	126.892	-0.155	0.193
-146.560	-141.914	-0.335	0.033
-145.545	147.506	-0.045	0.060
-144.531	-200.000	0.002	-0.209
-143.516	253.426	-0.170	-0.285
-142.502	-140.007	0.227	0.023
-141.487	-80.572	-0.176	0.058
-140.472	-200.000	-0.041	0.291
-139.458	-200.000	-0.080	0.355
-138.443	800.000	0.062	0.170
-137.429	800.000	0.088	0.310
-136.414	-151.940	0.167	-0.012
-135.399	503.266	0.063	0.143
-134.385	6.485	-0.271	-0.197
-133.370	-158.036	-0.122	-0.007
-132.356	800.000	0.025	0.097
-131.341	384.364	0.090	0.181
-130.326	-5.163	0.389	-0.262
-129.312	-57.058	-0.068	-0.029
-128.297	-200.000	0.015	-0.182
-127.283	800.000	-0.111	0.317
-126.268	-39.799	-0.091	-0.047
-125.253	333.612	0.101	-0.191
-124.239	-200.000	-0.077	-0.441
-123.224	-200.000	0.014	-0.227
-122.210	-200.000	-0.032	0.325
-121.195	-200.000	0.013	-0.217
