DTS Sentinel unit serial number:	SN413079Multiplexer serial number:	ORYXHardware model number:	OX4-SRSoftware version number:	ORYX F/W v4.00 Oryx Data Collector v3.7.2.0data status	okinstallation	princeton_trtdifferential loss correction	single-endedforward channel	channel 3reverse channel	N/Adate	2019/09/18time	00:24:35forward acquisition time	60.00reverse acquisition time	0.00gamma	496.2192k internal	0.2345k external	0.2345temperature offset calibration	0.9952default loss term (dB/km)	0.3790temperature slope calibration	1.0000multiplexer offset coefficient	1.0000multiplexer slope coefficient	1.0000fibre end	0.00T internal ref (°C)	23.61T ext. ref 1 (°C)	0.17T ext. ref 2 (°C)	17.25length (m)	temperature (°C)	Stokes	anti-Stokes-747.200	-200.000	0.020	0.230
-746.185	128.975	-0.069	0.089
-745.171	800.000	0.084	0.243
-744.156	359.892	-0.158	0.317
-743.142	40.520	-0.064	-0.057
-742.127	-200.000	-0.039	0.234
-741.112	46.686	0.078	0.073
-740.098	-200.000	-0.002	-0.050
-739.083	538.025	0.164	0.391
-738.069	584.621	-0.060	0.148
-737.054	-88.131	0.172	-0.052
-736.039	127.979	0.050	0.064
-735.025	31.221	-0.093	-0.080
-734.010	-59.309	0.118	0.051
-732.996	-15.357	-0.220	-0.141
-731.981	-114.007	-0.278	-0.054
-730.966	-55.321	0.119	-0.053
-729.952	-2.757	-0.201	-0.140
-728.937	800.000	-0.017	-0.071
-727.923	6.526	-0.099	-0.074
-726.908	-125.556	0.100	0.015
-725.894	800.000	-0.077	-0.241
-724.879	4.770	0.231	-0.170
-723.864	-200.000	-0.014	-0.072
-722.850	-200.000	0.016	-0.354
-721.835	800.000	0.069	0.266
-720.821	-200.000	0.028	0.272
-719.806	-147.768	-0.166	-0.014
-718.791	800.000	0.045	-0.127
-717.777	-2.952	0.139	0.097
-716.762	-200.000	0.040	-0.300
-715.748	-200.000	0.012	-0.230
-714.733	800.000	-0.059	0.250
-713.718	766.567	0.140	0.381
-712.704	-200.000	-0.031	0.221
-711.689	-94.063	-0.265	0.073
-710.675	-105.720	0.340	-0.077
-709.660	800.000	-0.078	-0.334
-708.645	50.047	-0.448	-0.423
-707.631	-28.728	0.148	-0.085
-706.616	-200.000	-0.006	-0.358
-705.602	800.000	0.057	0.161
-704.587	-75.718	-0.436	0.154
-703.572	747.606	0.067	0.181
-702.558	534.960	0.036	-0.085
-701.543	-167.082	0.286	0.012
-700.529	798.500	0.019	0.053
-699.514	171.967	-0.124	0.178
-698.499	-200.000	0.031	-0.160
-697.485	-12.583	-0.275	0.179
-696.470	-200.000	-0.004	-0.045
-695.456	496.027	-0.051	0.118
-694.441	-200.000	-0.042	0.203
-693.426	-195.397	-0.055	-0.000
-692.412	29.414	0.200	0.169
-691.397	401.041	-0.090	0.189
-690.383	800.000	0.030	0.124
-689.368	-56.633	-0.046	0.020
-688.354	-200.000	-0.025	-0.250
-687.339	166.314	-0.132	0.187
-686.324	-14.755	-0.017	-0.011
-685.310	508.874	-0.174	-0.404
-684.295	387.274	-0.132	0.272
-683.281	-30.472	0.078	-0.044
-682.266	231.494	0.133	0.218
-681.251	-200.000	0.035	0.589
-680.237	22.448	-0.147	-0.120
-679.222	-55.036	-0.160	0.072
-678.208	207.259	0.258	0.402
-677.193	170.701	0.033	0.047
-676.178	-200.000	-0.033	-0.143
-675.164	-182.070	-0.468	0.009
-674.149	-200.000	-0.018	0.129
-673.135	-65.481	-0.303	0.121
-672.120	96.151	0.115	-0.131
-671.105	-81.978	0.510	-0.166
-670.091	-58.882	-0.279	0.120
-669.076	-41.256	0.159	0.082
-668.062	-171.464	-0.188	-0.006
-667.047	247.844	0.097	-0.163
-666.032	40.883	0.134	-0.121
-665.018	148.847	-0.054	-0.073
-664.003	-200.000	0.001	0.144
-662.989	-6.500	-0.267	-0.181
-661.974	364.101	0.153	0.308
-660.959	23.527	-0.236	0.194
-659.945	348.805	0.106	0.208
-658.930	184.842	-0.219	-0.324
-657.916	90.442	-0.236	-0.264
-656.901	-69.464	-0.078	-0.030
-655.886	-200.000	0.012	-0.380
-654.872	-93.447	-0.280	0.077
-653.857	-200.000	-0.066	-0.563
-652.843	501.253	-0.097	0.223
-651.828	-28.382	0.118	-0.068
-650.814	800.000	0.047	-0.165
-649.799	-24.131	0.074	-0.044
-648.784	-200.000	-0.261	0.001
-647.770	-41.122	-0.212	-0.109
-646.755	800.000	-0.049	-0.165
-645.741	281.460	0.135	-0.240
-644.726	800.000	-0.086	0.242
-643.711	756.976	0.035	0.095
-642.697	-83.531	-0.036	0.011
-641.682	118.130	0.027	0.033
-640.668	-104.142	0.380	0.088
-639.653	-1.598	-0.113	-0.079
-638.638	322.040	-0.051	-0.097
-637.624	206.212	0.051	0.078
-636.609	-109.091	-0.161	0.034
-635.595	-200.000	0.034	-0.151
-634.580	-34.860	-0.073	-0.040
-633.565	132.973	0.386	0.497
-632.551	32.404	-0.101	-0.087
-631.536	117.114	-0.065	0.079
-630.522	-55.986	0.297	-0.132
-629.507	-135.706	0.036	0.004
-628.492	-160.997	-0.181	-0.009
-627.478	-200.000	-0.029	0.170
-626.463	-191.233	0.353	0.004
-625.449	-50.779	-0.216	-0.101
-624.434	-107.146	-0.249	-0.055
-623.419	-200.000	-0.010	-0.052
-622.405	77.097	0.093	0.099
-621.390	-45.406	-0.101	0.050
-620.376	800.000	-0.148	-0.467
-619.361	800.000	0.065	-0.218
-618.346	-98.728	-0.255	-0.065
-617.332	-48.505	-0.459	0.220
-616.317	96.706	-0.167	0.191
-615.303	-87.997	0.137	0.041
-614.288	376.935	0.057	0.115
-613.273	-87.850	0.120	0.036
-612.259	-200.000	0.025	-0.203
-611.244	77.390	0.244	0.258
-610.230	-39.168	0.137	-0.072
-609.215	409.385	-0.063	-0.134
-608.201	-200.000	-0.051	-0.259
-607.186	71.608	0.073	-0.075
-606.171	60.977	-0.331	0.327
-605.157	-94.303	0.139	0.038
-604.142	-146.605	-0.404	0.035
-603.128	-126.519	-0.027	0.004
-602.113	-38.642	0.195	0.103
-601.098	-200.000	0.034	-0.326
-600.084	-80.276	-0.154	-0.051
-599.069	-149.526	0.172	0.014
-598.055	800.000	-0.067	-0.199
-597.040	44.821	0.292	-0.267
-596.025	-12.822	0.086	-0.056
-595.011	-140.146	0.026	-0.003
-593.996	-5.188	-0.117	-0.080
-592.982	34.108	0.092	0.080
-591.967	-102.142	0.342	-0.082
-590.952	36.589	-0.229	-0.201
-589.938	800.000	0.088	0.258
-588.923	742.860	-0.129	-0.345
-587.909	800.000	-0.097	0.314
-586.894	25.846	-0.201	-0.166
-585.879	-83.236	0.079	0.025
-584.865	-200.000	-0.025	0.335
-583.850	-114.774	0.078	0.015
-582.836	228.829	0.028	0.045
-581.821	-200.000	0.002	-0.177
-580.806	-95.122	-0.176	-0.047
-579.792	373.073	0.117	0.236
-578.777	-33.668	0.250	-0.137
-577.763	-108.501	0.182	-0.039
-576.748	800.000	0.041	0.130
-575.733	-130.724	-0.094	-0.013
-574.719	81.264	0.140	0.150
-573.704	559.385	0.137	0.329
-572.690	34.245	0.196	-0.169
-571.675	-200.000	-0.010	-0.397
-570.661	257.550	-0.054	-0.093
-569.646	-200.000	-0.011	-0.204
-568.631	18.399	-0.315	0.250
-567.617	-65.992	0.216	0.086
-566.602	11.750	-0.077	-0.059
-565.588	-200.000	0.054	0.314
-564.573	703.292	0.047	-0.122
-563.558	800.000	0.082	0.276
-562.544	46.494	0.198	-0.183
-561.529	6.662	-0.118	0.087
-560.515	800.000	0.037	-0.154
-559.500	-119.778	-0.180	-0.031
-558.485	-53.025	-0.106	0.048
-557.471	179.128	-0.193	0.281
-556.456	800.000	-0.031	-0.086
-555.442	-23.989	0.240	0.143
-554.427	59.598	0.162	-0.159
-553.412	-200.000	0.014	0.108
-552.398	-97.873	-0.095	-0.024
-551.383	-21.140	-0.163	-0.099
-550.369	111.375	-0.162	0.194
-549.354	-100.839	-0.130	0.032
-548.339	41.091	0.128	0.114
-547.325	-200.000	0.046	-0.356
-546.310	81.287	0.144	0.154
-545.296	800.000	-0.035	0.101
-544.281	-86.575	-0.362	0.110
-543.266	233.279	0.135	-0.221
-542.252	-200.000	-0.007	0.207
-541.237	800.000	0.097	0.408
-540.223	60.978	-0.123	0.121
-539.208	-32.013	-0.090	0.050
-538.193	-200.000	-0.023	0.162
-537.179	16.130	-0.273	-0.214
-536.164	800.000	0.029	0.114
-535.150	-200.000	-0.064	0.351
-534.135	197.634	-0.181	-0.275
-533.121	-53.178	0.245	-0.111
-532.106	-52.687	0.133	-0.061
-531.091	54.377	-0.143	0.137
-530.077	303.112	0.059	0.109
-529.062	119.332	0.132	-0.162
-528.048	-200.000	-0.025	-0.120
-527.033	-84.589	0.264	-0.083
-526.018	-200.000	0.051	0.315
-525.004	-200.000	0.013	-0.192
-523.989	800.000	0.014	0.047
-522.975	-62.589	0.116	0.048
-521.960	-200.000	0.014	-0.404
-520.945	-177.955	-0.083	0.002
-519.931	58.610	0.252	0.246
-518.916	-92.985	0.197	-0.054
-517.902	-78.947	-0.052	0.018
-516.887	-53.651	-0.500	0.226
-515.872	479.347	-0.039	-0.088
-514.858	800.000	-0.029	0.098
-513.843	-200.000	-0.002	-0.187
-512.829	98.198	0.091	-0.104
-511.814	800.000	0.038	-0.118
-510.799	4.424	-0.057	0.041
-509.785	-200.000	0.033	-0.274
-508.770	618.956	0.200	0.499
-507.756	800.000	-0.092	0.399
-506.741	330.384	-0.055	0.106
-505.726	-200.000	0.020	0.449
-504.712	800.000	0.055	-0.234
-503.697	800.000	-0.110	0.409
-502.683	-200.000	-0.036	-0.224
-501.668	-64.691	-0.312	-0.125
-500.653	106.929	0.187	0.220
-499.639	160.377	-0.039	0.055
-498.624	-113.197	-0.048	0.009
-497.610	10.178	-0.180	-0.136
-496.595	50.694	-0.136	0.128
-495.581	269.730	0.092	0.160
-494.566	-72.491	-0.344	0.126
-493.551	191.902	-0.107	-0.159
-492.537	800.000	0.064	-0.204
-491.522	580.262	0.096	0.233
-490.508	-80.769	0.230	-0.076
-489.493	800.000	0.039	0.127
-488.478	-19.903	-0.055	0.034
-487.464	127.333	-0.082	-0.103
-486.449	9.044	-0.194	0.145
-485.435	58.218	0.079	-0.076
-484.420	-156.964	0.334	0.020
-483.405	-110.352	-0.094	-0.019
-482.391	29.865	-0.099	-0.084
-481.376	800.000	0.075	-0.320
-480.362	-79.225	0.199	0.067
-479.347	-200.000	-0.011	0.055
-478.332	53.753	-0.235	0.224
-477.318	158.423	0.324	-0.446
-476.303	-10.932	-0.110	0.072
-475.289	-117.183	-0.295	0.053
-474.274	474.857	0.130	-0.290
-473.259	-159.471	0.140	0.008
-472.245	558.677	-0.095	-0.227
-471.230	-86.448	0.193	-0.059
-470.216	-21.489	0.451	-0.272
-469.201	-45.483	-0.330	-0.162
-468.186	-26.649	0.040	-0.023
-467.172	295.595	-0.173	-0.314
-466.157	-200.000	-0.026	-0.176
-465.143	-161.358	0.171	-0.009
-464.128	-153.614	-0.228	-0.016
-463.113	92.354	-0.258	-0.288
-462.099	378.359	-0.210	-0.425
-461.084	-100.608	0.287	0.070
-460.070	262.369	-0.072	0.123
-459.055	283.755	0.114	0.203
-458.040	-11.662	-0.258	0.168
-457.026	107.602	0.142	0.167
-456.011	-200.000	-0.028	-0.182
-454.997	328.725	0.118	-0.224
-453.982	800.000	-0.042	-0.154
-452.968	103.750	-0.213	-0.248
-451.953	79.107	-0.020	0.021
-450.938	-69.872	-0.126	-0.047
-449.924	-105.524	-0.232	0.052
-448.909	153.366	-0.179	-0.242
-447.895	800.000	-0.096	0.283
-446.880	-29.473	0.275	0.155
-445.865	-139.223	-0.147	-0.016
-444.851	606.160	-0.063	-0.155
-443.836	-71.552	0.351	-0.130
-442.822	539.057	-0.074	0.174
-441.807	-92.378	0.080	0.022
-440.792	45.347	-0.221	0.201
-439.778	22.975	-0.249	0.202
-438.763	12.191	0.186	0.142
-437.749	1.296	0.241	-0.171
-436.734	-179.793	-0.133	-0.003
-435.719	436.736	0.053	0.114
-434.705	143.086	0.184	0.242
-433.690	-200.000	-0.019	0.185
-432.676	-200.000	0.020	-0.086
-431.661	800.000	-0.049	0.142
-430.646	489.665	0.068	0.153
-429.632	-200.000	-0.020	-0.349
-428.617	64.247	0.072	-0.072
-427.603	10.908	0.042	-0.032
-426.588	391.434	0.060	0.123
-425.573	-68.825	0.207	0.079
-424.559	-114.625	-0.302	0.057
-423.544	290.536	-0.201	0.360
-422.530	800.000	-0.042	-0.145
-421.515	-149.796	0.267	0.021
-420.500	800.000	0.058	0.175
-419.486	-200.000	-0.052	0.227
-418.471	-9.666	0.449	0.296
-417.457	232.762	-0.037	0.061
-416.442	-18.551	0.166	-0.102
-415.428	-84.472	0.073	-0.023
-414.413	-24.104	0.427	-0.252
-413.398	35.950	-0.131	-0.114
-412.384	780.284	0.072	-0.194
-411.369	-20.634	0.163	-0.099
-410.355	-79.337	0.167	-0.056
-409.340	-91.584	0.140	0.039
-408.325	-16.671	0.149	0.093
-407.311	-32.155	-0.161	-0.089
-406.296	453.421	-0.196	0.429
-405.282	10.765	0.157	0.118
-404.267	-40.906	-0.268	-0.137
-403.252	28.776	-0.181	-0.151
-402.238	53.911	-0.305	-0.290
-401.223	-200.000	-0.054	0.284
-400.209	64.734	-0.269	0.268
-399.194	-113.245	0.309	-0.060
-398.179	476.596	0.149	-0.333
-397.165	627.618	0.081	-0.202
-396.150	-200.000	-0.062	0.406
-395.136	185.867	0.110	-0.162
-394.121	-86.389	-0.126	-0.038
-393.106	398.800	0.144	-0.297
-392.092	-9.838	0.311	0.205
-391.077	800.000	-0.064	0.240
-390.063	150.683	0.080	-0.107
-389.048	25.331	0.211	0.173
-388.033	800.000	0.063	-0.231
-387.019	-52.657	0.525	0.239
-386.004	36.365	0.349	0.304
-384.990	-200.000	0.005	0.176
-383.975	-85.045	0.220	0.068
-382.960	-200.000	0.006	0.319
-381.946	800.000	0.089	-0.272
-380.931	9.409	0.005	0.004
-379.917	-104.115	-0.113	0.026
-378.902	-30.766	0.065	0.036
-377.888	800.000	0.033	-0.098
-376.873	772.132	-0.022	0.059
-375.858	219.138	-0.044	0.069
-374.844	-69.119	0.259	-0.098
-373.829	218.041	-0.185	0.291
-372.815	-200.000	-0.040	0.281
-371.800	-63.880	0.253	0.102
-370.785	600.128	0.043	-0.106
-369.771	18.893	-0.288	0.228
-368.756	46.800	-0.155	-0.142
-367.742	795.614	-0.099	0.268
-366.727	757.495	-0.033	0.088
-365.712	800.000	0.043	0.137
-364.698	-15.282	-0.223	-0.141
-363.683	672.509	0.087	-0.223
-362.669	117.918	-0.060	-0.073
-361.654	182.583	0.160	-0.232
-360.639	-200.000	0.071	-0.364
-359.625	-163.014	-0.314	0.015
-358.610	-120.532	-0.383	-0.064
-357.596	-100.038	0.384	0.094
-356.581	-130.688	0.321	0.043
-355.566	-196.076	-0.130	-0.001
-354.552	-87.283	0.098	-0.029
-353.537	-152.445	-0.130	-0.009
-352.523	26.465	-0.213	0.175
-351.508	800.000	0.107	0.372
-350.493	-18.334	-0.229	0.141
-349.479	-200.000	-0.035	0.336
-348.464	-200.000	0.004	-0.383
-347.450	34.319	0.186	-0.160
-346.435	6.587	0.209	-0.153
-345.420	220.836	-0.224	-0.355
-344.406	-36.335	0.143	-0.076
-343.391	-98.323	-0.226	-0.057
-342.377	-103.797	0.093	-0.021
-341.362	298.776	-0.040	0.073
-340.348	400.190	-0.155	0.320
-339.333	-28.392	0.280	-0.159
-338.318	800.000	0.043	-0.126
-337.304	70.968	-0.048	0.049
-336.289	69.236	0.052	0.052
-335.275	9.927	-0.153	-0.115
-334.260	151.926	-0.201	0.270
-333.245	20.313	-0.363	-0.289
-332.231	-92.296	-0.331	-0.092
-331.216	-200.000	0.049	0.253
-330.202	-11.617	-0.395	-0.256
-329.187	-149.786	-0.381	-0.029
-328.172	-116.172	-0.415	-0.076
-327.158	800.000	-0.096	0.278
-326.143	580.234	0.066	-0.159
-325.129	-200.000	0.003	0.257
-324.114	90.796	0.120	0.133
-323.099	-35.057	-0.103	0.055
-322.085	-200.000	0.005	-0.372
-321.070	18.123	0.139	-0.109
-320.056	414.519	0.083	0.175
-319.041	344.254	-0.074	0.143
-318.026	-21.461	0.114	-0.068
-317.012	-117.456	0.171	0.030
-315.997	800.000	-0.047	-0.184
-314.983	-58.466	-0.144	0.061
-313.968	30.800	-0.064	-0.054
-312.953	320.658	-0.069	0.129
-311.939	22.684	-0.038	-0.031
-310.924	277.506	0.030	0.052
-309.910	-189.405	0.255	-0.003
-308.895	800.000	-0.050	-0.205
-307.880	-8.938	0.246	0.162
-306.866	-200.000	0.041	-0.355
-305.851	-43.179	-0.180	0.090
-304.837	800.000	-0.024	0.072
-303.822	122.152	0.257	0.315
-302.807	121.146	-0.072	-0.088
-301.793	34.252	-0.183	0.157
-300.778	-117.789	-0.171	0.030
-299.764	531.554	0.104	-0.241
-298.749	-131.879	0.264	0.034
-297.735	800.000	-0.081	-0.304
-296.720	46.956	0.238	-0.217
-295.705	-90.815	-0.237	0.067
-294.691	-200.000	0.008	-0.460
-293.676	-200.000	0.018	-0.161
-292.662	-140.875	0.229	-0.023
-291.647	800.000	-0.106	-0.337
-290.632	-104.378	0.072	0.016
-289.618	-151.638	0.186	-0.013
-288.603	-200.000	-0.045	-0.307
-287.589	21.625	0.133	-0.106
-286.574	504.280	0.078	0.177
-285.559	252.692	0.141	-0.236
-284.545	133.407	0.075	0.095
-283.530	30.128	0.012	0.010
-282.516	-83.822	0.391	0.123
-281.501	162.505	0.160	0.221
-280.486	-200.000	-0.009	-0.050
-279.472	207.025	-0.141	-0.216
-278.457	208.897	-0.076	0.117
-277.443	78.933	-0.009	0.009
-276.428	-43.366	-0.076	-0.038
-275.413	5.649	-0.257	-0.187
-274.399	-197.881	0.303	-0.002
-273.384	419.546	0.093	-0.195
-272.370	-34.885	0.386	-0.207
-271.355	-61.343	-0.218	-0.090
-270.340	24.948	-0.230	0.187
-269.326	78.834	0.051	0.054
-268.311	-96.598	0.248	0.064
-267.297	-95.140	-0.480	0.127
-266.282	-22.487	-0.199	-0.118
-265.267	62.933	-0.146	0.144
-264.253	-152.895	-0.133	0.009
-263.238	300.322	-0.187	-0.338
-262.224	-54.309	-0.175	0.078
-261.209	48.269	0.219	-0.201
-260.195	24.770	-0.478	-0.389
-259.180	-159.661	0.222	0.012
-258.165	-77.544	-0.189	-0.064
-257.151	-144.157	0.378	-0.035
-256.136	-200.000	-0.018	0.159
-255.122	-200.000	0.101	0.581
-254.107	231.943	-0.070	0.113
-253.092	-35.412	0.411	0.219
-252.078	-200.000	0.005	0.105
-251.063	139.535	0.170	-0.220
-250.049	-97.276	0.229	-0.059
-249.034	222.462	0.043	-0.068
-248.019	152.080	-0.116	-0.155
-247.005	19.149	-0.243	-0.191
-245.990	73.311	-0.255	-0.262
-244.976	-140.831	0.188	0.019
-243.961	413.066	0.085	0.176
-242.946	157.166	-0.080	0.109
-241.932	-6.718	-0.123	-0.082
-240.917	-200.000	-0.024	-0.148
-239.903	-72.106	0.251	0.091
-238.888	-127.811	-0.240	0.034
-237.873	419.409	0.087	0.182
-236.859	800.000	0.109	0.336
-235.844	40.414	0.186	-0.164
-234.830	231.599	-0.051	-0.082
-233.815	-200.000	0.013	0.217
-232.800	800.000	-0.093	-0.269
-231.786	73.151	0.191	-0.196
-230.771	-24.937	0.206	0.120
-229.757	-200.000	-0.011	0.098
-228.742	45.258	-0.071	0.064
-227.727	509.105	-0.103	-0.234
-226.713	800.000	0.055	-0.226
-225.698	-200.000	0.044	0.232
-224.684	608.870	0.114	0.278
-223.669	-200.000	0.013	0.410
-222.655	-147.031	0.137	0.011
-221.640	-33.326	0.316	-0.171
-220.625	800.000	-0.154	0.422
-219.611	-27.391	-0.404	0.231
-218.596	489.079	-0.027	-0.060
-217.582	87.575	0.104	0.113
-216.567	-24.721	-0.220	0.128
-215.552	204.759	0.057	-0.086
-214.538	-113.477	-0.413	0.079
-213.523	69.078	0.380	0.383
-212.509	-120.230	-0.200	-0.034
-211.494	320.388	-0.117	0.218
-210.479	-200.000	0.025	-0.269
-209.465	27.135	-0.168	-0.139
-208.450	-175.828	-0.390	-0.010
-207.436	76.511	0.087	0.090
-206.421	-42.675	-0.182	-0.091
-205.406	-200.000	0.014	-0.380
-204.392	-32.495	0.306	-0.167
-203.377	2.043	0.073	-0.052
-202.363	81.061	0.101	-0.106
-201.348	-43.235	-0.151	0.075
-200.333	-137.286	0.048	0.005
-199.319	-95.215	-0.671	0.177
-198.304	-50.533	-0.196	-0.091
-197.290	-200.000	-0.038	-0.254
-196.275	504.073	-0.069	0.156
-195.260	-200.000	0.014	-0.404
-194.246	-12.588	0.310	0.198
-193.231	-200.000	-0.002	0.084
-192.217	248.399	0.117	0.195
-191.202	800.000	0.027	0.105
-190.187	-91.416	0.192	0.054
-189.173	-57.189	0.105	0.045
-188.158	353.131	-0.144	0.280
-187.144	305.411	0.042	0.076
-186.129	38.829	0.063	0.055
-185.114	-200.000	0.048	0.285
-184.100	-13.783	-0.238	0.151
-183.085	228.840	-0.100	-0.160
-182.071	800.000	-0.023	-0.066
-181.056	-200.000	-0.012	-0.177
-180.042	-130.935	0.148	-0.019
-179.027	800.000	0.082	0.289
-178.012	-200.000	-0.001	-0.056
-176.998	52.812	-0.158	-0.148
-175.983	-200.000	0.018	-0.239
-174.969	-59.948	0.144	-0.060
-173.954	-107.775	0.307	0.065
-172.939	-13.188	-0.388	-0.247
-171.925	333.781	0.135	0.255
-170.910	-117.167	0.088	-0.016
-169.896	109.617	0.245	-0.287
-168.881	800.000	-0.101	-0.289
-167.866	17.661	-0.014	0.011
-166.852	-20.877	-0.210	0.126
-165.837	-90.399	-0.105	-0.030
-164.823	638.757	0.055	-0.136
-163.808	-47.828	0.145	0.069
-162.793	-200.000	-0.048	0.246
-161.779	-143.448	0.140	0.013
-160.764	800.000	-0.068	0.209
-159.750	557.066	0.062	-0.145
-158.735	-161.396	0.212	-0.011
-157.720	7.976	-0.199	0.146
-156.706	-108.445	-0.195	-0.041
-155.691	-18.683	0.190	0.116
-154.677	690.572	0.097	-0.249
-153.662	-150.517	-0.304	0.023
-152.647	-64.258	0.116	-0.046
-151.633	270.677	0.110	-0.189
-150.618	-85.916	0.380	-0.115
-149.604	311.693	-0.197	-0.361
-148.589	260.160	0.220	-0.372
-147.574	283.478	0.068	0.119
-146.560	-52.594	0.538	0.243
-145.545	-163.241	-0.091	-0.004
-144.531	318.040	0.113	0.209
-143.516	64.672	0.291	-0.286
-142.502	800.000	0.055	0.172
-141.487	72.759	-0.030	0.031
-140.472	-28.573	-0.113	0.063
-139.458	192.784	-0.055	0.082
-138.443	52.358	0.073	0.068
-137.429	181.329	-0.167	-0.239
-136.414	490.310	0.023	-0.052
-135.399	89.357	0.093	0.101
-134.385	-29.816	0.288	0.161
-133.370	-65.158	0.213	-0.084
-132.356	800.000	0.150	0.418
-131.341	-200.000	0.036	-0.169
-130.326	-87.913	0.458	0.134
-129.312	-117.446	0.100	-0.018
-128.297	-200.000	-0.043	-0.398
-127.283	137.172	-0.097	-0.124
-126.268	540.428	0.187	0.435
-125.253	638.173	0.116	0.289
-124.239	-200.000	-0.007	0.123
-123.224	77.605	-0.154	0.160
-122.210	425.320	0.038	-0.079
-121.195	-26.598	-0.085	0.049
-120.180	-9.833	0.277	0.180
