DTS Sentinel unit serial number:	SN413079Multiplexer serial number:	ORYXHardware model number:	OX4-SRSoftware version number:	ORYX F/W v4.00 Oryx Data Collector v3.7.2.0data status	okinstallation	princeton_trtdifferential loss correction	single-endedforward channel	channel 3reverse channel	N/Adate	2019/09/17time	22:28:34forward acquisition time	60.00reverse acquisition time	0.00gamma	496.2192k internal	0.2344k external	0.2344temperature offset calibration	0.9951default loss term (dB/km)	0.3790temperature slope calibration	1.0000multiplexer offset coefficient	1.0000multiplexer slope coefficient	1.0000fibre end	0.00T internal ref (°C)	25.37T ext. ref 1 (°C)	0.18T ext. ref 2 (°C)	18.59length (m)	temperature (°C)	Stokes	anti-Stokes-747.200	-76.340	0.269	-0.095
-746.185	-200.000	0.008	0.204
-745.171	-52.395	-0.100	0.046
-744.156	-14.592	-0.321	0.207
-743.142	-73.075	0.391	-0.144
-742.127	-106.826	-0.138	0.031
-741.112	-200.000	0.018	0.234
-740.098	-18.121	0.080	-0.050
-739.083	-25.411	-0.283	0.167
-738.069	532.125	-0.071	0.167
-737.054	-105.525	-0.067	0.015
-736.039	50.187	-0.173	0.164
-735.025	-200.000	-0.013	0.118
-734.010	-200.000	-0.013	0.117
-732.996	-200.000	-0.076	-0.402
-731.981	-200.000	-0.007	-0.140
-730.966	46.211	0.049	-0.045
-729.952	-200.000	-0.074	-0.375
-728.937	-120.475	0.105	0.018
-727.923	-11.764	0.214	0.141
-726.908	-200.000	-0.021	0.000
-725.894	47.440	0.102	-0.095
-724.879	-125.892	-0.323	0.049
-723.864	192.897	-0.234	0.353
-722.850	210.531	0.135	-0.211
-721.835	-38.029	-0.463	-0.246
-720.821	102.605	-0.278	-0.325
-719.806	-132.332	0.262	0.034
-718.791	-88.667	0.123	-0.037
-717.777	800.000	0.107	-0.363
-716.762	-95.477	-0.273	0.073
-715.748	800.000	0.099	-0.322
-714.733	293.980	0.122	-0.224
-713.718	-90.651	0.131	-0.038
-712.704	-108.798	0.294	-0.063
-711.689	-200.000	0.017	-0.213
-710.675	-70.857	0.263	0.099
-709.660	350.128	0.079	0.155
-708.645	800.000	0.119	-0.342
-707.631	29.819	-0.066	0.056
-706.616	49.169	0.178	0.167
-705.602	135.649	0.190	0.247
-704.587	-200.000	-0.009	0.129
-703.572	63.793	-0.236	-0.237
-702.558	74.618	0.102	0.107
-701.543	-125.981	0.032	0.005
-700.529	8.765	0.069	0.052
-699.514	800.000	-0.028	-0.097
-698.499	34.286	-0.181	-0.158
-697.485	65.580	0.081	-0.082
-696.470	766.840	-0.032	-0.087
-695.456	123.338	0.170	-0.213
-694.441	-107.366	-0.346	-0.076
-693.426	230.647	0.117	-0.191
-692.412	-200.000	0.046	-0.273
-691.397	625.652	-0.028	-0.070
-690.383	9.593	0.185	-0.140
-689.368	98.138	-0.077	-0.088
-688.354	-148.139	-0.306	-0.025
-687.339	800.000	0.051	-0.150
-686.324	-127.140	-0.208	0.030
-685.310	481.460	-0.053	-0.121
-684.295	-99.091	-0.210	-0.053
-683.281	6.366	0.261	0.194
-682.266	-83.377	0.185	-0.059
-681.251	-171.099	-0.149	-0.005
-680.237	-96.404	0.297	-0.078
-679.222	-199.842	-0.150	0.001
-678.208	112.329	-0.091	0.110
-677.193	-106.793	0.263	-0.058
-676.178	457.593	-0.045	0.099
-675.164	-200.000	-0.049	0.281
-674.149	-200.000	-0.019	-0.165
-673.135	-65.442	0.380	0.152
-672.120	-158.621	-0.226	0.013
-671.105	-92.741	-0.362	-0.101
-670.091	62.382	0.044	-0.044
-669.076	-68.531	0.186	0.072
-668.062	280.291	-0.090	0.160
-667.047	123.629	-0.063	-0.078
-666.032	-119.481	0.287	0.050
-665.018	-4.301	0.236	0.163
-664.003	-5.673	0.061	-0.042
-662.989	-148.374	-0.163	0.013
-661.974	235.616	-0.055	-0.090
-660.959	198.512	0.031	-0.048
-659.945	-52.623	0.457	0.210
-658.930	-66.265	-0.313	-0.124
-657.916	-146.815	-0.090	-0.008
-656.901	390.583	0.138	-0.286
-655.886	-150.312	-0.219	-0.017
-654.872	-17.347	0.173	0.109
-653.857	-200.000	0.001	0.021
-652.843	-114.344	-0.232	0.045
-651.828	-50.750	0.084	-0.039
-650.814	-79.302	-0.320	-0.108
-649.799	800.000	0.091	0.392
-648.784	-9.574	-0.179	-0.119
-647.770	286.427	0.151	-0.272
-646.755	-19.581	-0.153	0.094
-645.741	-95.253	-0.251	-0.067
-644.726	-200.000	-0.047	-0.210
-643.711	-93.766	-0.262	0.072
-642.697	-186.441	0.136	0.002
-641.682	800.000	-0.025	-0.097
-640.668	-200.000	0.002	-0.236
-639.653	-135.455	-0.158	-0.019
-638.638	-54.675	0.261	-0.118
-637.624	-114.354	0.140	-0.027
-636.609	-8.574	-0.069	-0.046
-635.595	41.770	-0.052	0.047
-634.580	1.805	0.188	-0.135
-633.565	223.306	-0.021	-0.034
-632.551	270.072	-0.325	-0.570
-631.536	-169.532	-0.145	0.005
-630.522	147.101	-0.115	-0.154
-629.507	800.000	0.088	-0.281
-628.492	39.350	-0.203	-0.181
-627.478	-180.638	-0.301	0.006
-626.463	800.000	0.018	0.072
-625.449	-59.680	0.384	0.164
-624.434	-57.735	-0.353	0.154
-623.419	-153.754	-0.081	-0.006
-622.405	-31.890	-0.100	0.056
-621.390	-45.665	0.146	0.072
-620.376	606.289	0.158	0.392
-619.361	-130.733	-0.121	-0.016
-618.346	-47.681	-0.350	-0.169
-617.332	527.814	0.062	0.146
-616.317	-76.960	0.176	0.061
-615.303	-200.000	0.031	-0.203
-614.288	-25.687	0.350	-0.205
-613.273	2.524	0.198	-0.143
-612.259	203.084	0.182	-0.281
-611.244	109.274	-0.311	-0.371
-610.230	-123.210	0.112	-0.018
-609.215	-76.715	-0.213	-0.074
-608.201	416.358	0.104	0.221
-607.186	92.111	-0.296	-0.332
-606.171	59.243	-0.049	-0.048
-605.157	-143.966	0.131	-0.012
-604.142	-114.427	-0.234	0.045
-603.128	333.525	-0.043	-0.082
-602.113	457.752	-0.031	-0.068
-601.098	-164.641	0.246	0.011
-600.084	-171.883	0.397	-0.013
-599.069	-200.000	0.026	-0.126
-598.055	157.869	-0.098	-0.136
-597.040	-96.299	-0.154	0.041
-596.025	73.310	-0.017	0.017
-595.011	301.324	0.089	0.164
-593.996	-200.000	0.030	-0.237
-592.982	-48.299	0.122	0.059
-591.967	-163.040	-0.237	-0.011
-590.952	800.000	0.020	0.056
-589.938	800.000	0.112	-0.309
-588.923	258.964	0.194	0.332
-587.909	-79.522	0.223	-0.075
-586.894	-116.628	-0.045	0.008
-585.879	-200.000	-0.016	-0.205
-584.865	-61.237	-0.183	-0.077
-583.850	716.374	-0.054	0.141
-582.836	800.000	-0.091	0.262
-581.821	275.682	0.180	-0.317
-580.806	-122.746	0.196	0.032
-579.792	-148.819	-0.236	-0.019
-578.777	-171.323	-0.171	-0.006
-577.763	28.211	0.156	-0.131
-576.748	374.245	-0.046	0.092
-575.733	157.842	-0.330	0.455
-574.719	-200.000	0.001	0.122
-573.704	510.448	0.116	0.268
-572.690	23.947	0.222	0.182
-571.675	-147.523	-0.127	0.011
-570.661	-118.193	-0.465	-0.082
-569.646	36.136	-0.185	0.162
-568.631	-200.000	0.009	0.215
-567.617	-200.000	0.032	0.151
-566.602	78.147	-0.083	0.088
-565.588	-111.523	0.042	-0.008
-564.573	-200.000	-0.008	-0.210
-563.558	-200.000	0.032	-0.249
-562.544	92.865	-0.065	-0.073
-561.529	-118.733	-0.231	-0.040
-560.515	-118.976	-0.213	-0.037
-559.500	215.046	0.219	-0.345
-558.485	800.000	0.111	-0.372
-557.471	34.221	-0.022	-0.019
-556.456	-90.324	0.094	-0.027
-555.442	53.907	0.090	0.086
-554.427	-75.821	-0.390	0.137
-553.412	649.528	0.041	0.105
-552.398	-19.700	-0.332	-0.204
-551.383	-53.519	-0.117	-0.053
-550.369	264.451	0.113	0.196
-549.354	-30.881	0.156	0.087
-548.339	26.631	0.066	0.055
-547.325	49.759	0.219	0.205
-546.310	-180.038	0.130	0.003
-545.296	-21.956	-0.109	0.066
-544.281	-44.912	-0.123	-0.061
-543.266	-56.336	0.267	0.118
-542.252	-76.474	-0.073	0.025
-541.237	80.278	-0.152	-0.163
-540.223	247.152	0.149	0.250
-539.208	-200.000	-0.001	0.108
-538.193	-48.999	0.503	-0.239
-537.179	473.960	0.200	-0.447
-536.164	27.933	0.074	0.062
-535.150	270.954	-0.057	0.099
-534.135	-127.898	-0.372	0.053
-533.121	1.819	-0.239	0.171
-532.106	551.950	0.065	0.155
-531.091	-200.000	0.042	0.276
-530.077	325.055	-0.222	0.421
-529.062	-71.849	-0.119	-0.044
-528.048	-82.116	0.135	-0.044
-527.033	203.356	0.122	0.188
-526.018	800.000	0.032	0.108
-525.004	-83.350	-0.323	0.103
-523.989	-194.463	0.083	-0.001
-522.975	-74.254	0.168	-0.060
-521.960	42.796	0.060	-0.054
-520.945	516.262	-0.192	0.446
-519.931	60.012	0.174	-0.170
-518.916	-200.000	0.069	-0.354
-517.902	605.301	-0.152	-0.376
-516.887	424.611	0.067	0.144
-515.872	565.444	-0.025	0.061
-514.858	-82.385	-0.092	0.030
-513.843	-16.586	-0.209	-0.132
-512.829	-200.000	0.453	0.001
-511.814	255.201	0.235	-0.400
-510.799	800.000	0.064	-0.206
-509.785	178.990	0.054	-0.079
-508.770	-171.740	-0.319	0.010
-507.756	23.275	-0.254	0.207
-506.741	127.071	0.072	0.091
-505.726	46.233	0.059	-0.054
-504.712	-149.448	0.128	0.010
-503.697	-200.000	-0.016	-0.075
-502.683	120.429	0.161	0.199
-501.668	731.730	0.027	-0.072
-500.653	276.036	-0.095	-0.167
-499.639	191.778	0.081	-0.121
-498.624	-200.000	0.026	0.198
-497.610	135.001	-0.140	-0.180
-496.595	-200.000	0.010	-0.266
-495.581	-113.830	0.313	0.060
-494.566	-73.658	0.206	-0.074
-493.551	287.239	0.182	0.327
-492.537	-71.708	-0.444	-0.164
-491.522	-7.374	0.026	-0.017
-490.508	800.000	0.057	-0.190
-489.493	-84.326	-0.185	0.058
-488.478	-71.385	0.179	0.066
-487.464	800.000	-0.076	0.232
-486.449	-19.289	0.048	-0.029
-485.435	88.847	-0.044	0.048
-484.420	-41.802	-0.168	0.085
-483.405	-115.681	0.221	0.041
-482.391	497.521	-0.083	-0.190
-481.376	-200.000	-0.007	0.267
-480.362	800.000	0.132	-0.386
-479.347	168.983	-0.125	0.176
-478.332	-115.611	0.164	0.030
-477.318	-200.000	0.024	-0.179
-476.303	-200.000	-0.075	0.410
-475.289	-0.248	0.035	-0.024
-474.274	62.551	0.207	0.205
-473.259	-138.142	-0.234	0.026
-472.245	-101.110	-0.183	-0.044
-471.230	78.420	-0.084	-0.089
-470.216	-172.535	0.146	-0.005
-469.201	-15.618	-0.104	0.066
-468.186	800.000	0.057	-0.198
-467.172	-20.594	0.152	-0.092
-466.157	-111.519	-0.219	-0.044
-465.143	707.063	-0.117	0.305
-464.128	447.942	-0.087	-0.191
-463.113	486.849	-0.026	0.059
-462.099	-31.472	-0.473	0.263
-461.084	349.793	0.162	-0.317
-460.070	800.000	0.119	0.331
-459.055	-200.000	0.052	-0.271
-458.040	114.952	-0.213	-0.257
-457.026	206.551	-0.094	0.145
-456.011	-35.207	-0.064	0.035
-454.997	-22.584	-0.170	0.102
-453.982	330.568	-0.039	0.075
-452.968	-108.012	0.323	0.069
-451.953	320.950	0.092	-0.173
-450.938	-139.740	0.298	-0.031
-449.924	164.642	0.076	-0.106
-448.909	-15.354	0.075	-0.047
-447.895	548.575	0.016	0.037
-446.880	800.000	0.097	0.279
-445.865	-200.000	0.014	0.121
-444.851	218.297	-0.031	-0.049
-443.836	-45.253	0.376	0.184
-442.822	-200.000	-0.020	0.208
-441.807	-96.195	0.020	0.005
-440.792	-200.000	-0.009	0.093
-439.778	170.292	0.144	-0.204
-438.763	-200.000	0.003	-0.119
-437.749	74.282	-0.269	-0.280
-436.734	-200.000	0.000	0.005
-435.719	-200.000	-0.011	0.242
-434.705	-3.416	-0.045	0.031
-433.690	-20.438	-0.421	0.256
-432.676	-59.605	0.413	0.175
-431.661	-115.743	-0.152	0.028
-430.646	224.379	-0.245	0.392
-429.632	-56.751	-0.263	-0.115
-428.617	503.138	0.056	-0.129
-427.603	261.021	0.090	0.154
-426.588	102.423	-0.243	0.281
-425.573	381.497	0.119	-0.242
-424.559	-32.976	-0.143	0.078
-423.544	35.354	-0.120	0.104
-422.530	223.831	0.082	0.131
-421.515	-200.000	0.010	0.287
-420.500	800.000	-0.033	-0.130
-419.486	-200.000	-0.079	-0.465
-418.471	-62.827	0.185	0.076
-417.457	164.916	-0.050	-0.070
-416.442	-200.000	0.023	0.262
-415.428	218.168	-0.060	0.094
-414.413	-200.000	-0.010	0.285
-413.398	472.161	0.018	-0.039
-412.384	426.798	0.289	0.616
-411.369	68.435	-0.054	0.055
-410.355	26.229	-0.166	0.137
-409.340	174.235	-0.099	0.141
-408.325	233.122	0.237	0.386
-407.311	579.809	-0.137	0.331
-406.296	-35.309	-0.091	0.049
-405.282	121.424	-0.067	0.082
-404.267	0.408	-0.158	0.111
-403.252	527.887	-0.095	0.222
-402.238	-54.231	0.278	-0.124
-401.223	645.578	0.028	-0.072
-400.209	-114.165	0.109	0.021
-399.194	208.447	0.305	0.471
-398.179	107.659	-0.019	0.022
-397.165	-72.667	-0.094	-0.034
-396.150	-77.190	0.046	-0.016
-395.136	76.812	-0.110	0.116
-394.121	258.680	0.259	-0.440
-393.106	-200.000	-0.046	0.237
-392.092	800.000	0.069	-0.205
-391.077	-61.372	0.232	0.097
-390.063	-200.000	-0.016	-0.108
-389.048	-55.891	-0.078	0.034
-388.033	167.919	-0.119	0.166
-387.019	39.436	-0.190	-0.168
-386.004	-200.000	-0.009	-0.188
-384.990	-105.779	0.231	-0.051
-383.975	-49.302	0.102	-0.048
-382.960	800.000	-0.053	-0.206
-381.946	-200.000	-0.020	0.101
-380.931	-56.750	0.411	0.180
-379.917	-200.000	0.301	-0.000
-378.902	410.374	0.237	-0.496
-377.888	800.000	0.068	-0.220
-376.873	312.655	-0.172	0.318
-375.858	-94.978	-0.280	-0.075
-374.844	717.511	0.098	0.258
-373.829	-86.770	-0.474	-0.143
-372.815	57.076	0.092	-0.088
-371.800	140.051	-0.091	0.119
-370.785	-200.000	-0.027	-0.128
-369.771	800.000	-0.047	-0.129
-368.756	-140.806	-0.154	-0.016
-367.742	-200.000	0.015	0.418
-366.727	800.000	-0.114	0.352
-365.712	457.695	-0.065	0.143
-364.698	174.654	-0.150	-0.214
-363.683	14.920	0.121	0.093
-362.669	147.393	0.021	-0.028
-361.654	-42.808	0.042	0.021
-360.639	250.962	0.180	0.301
-359.625	631.009	-0.108	-0.271
-358.610	20.934	-0.287	0.229
-357.596	-36.847	-0.379	-0.201
-356.581	-168.691	0.119	-0.004
-355.566	-108.486	0.318	0.067
-354.552	800.000	0.049	0.179
-353.537	-34.979	-0.084	0.045
-352.523	191.894	0.080	0.120
-351.508	-40.474	-0.079	0.040
-350.493	-1.146	0.237	0.165
-349.479	-158.641	-0.033	0.002
-348.464	-200.000	-0.018	-0.135
-347.450	118.993	0.030	-0.036
-346.435	730.629	-0.055	0.144
-345.420	16.948	0.305	-0.238
-344.406	51.680	-0.086	0.080
-343.391	36.351	0.220	-0.192
-342.377	-71.743	0.032	0.012
-341.362	84.967	0.163	0.176
-340.348	-110.808	0.058	-0.012
-339.333	800.000	0.085	-0.311
-338.318	-161.711	-0.233	0.012
-337.304	-52.967	-0.132	0.060
-336.289	84.047	-0.054	-0.058
-335.275	153.486	0.075	-0.101
-334.260	-83.104	-0.305	-0.097
-333.245	-200.000	0.046	-0.336
-332.231	94.409	-0.170	-0.191
-331.216	-142.225	-0.024	0.002
-330.202	-30.697	-0.126	-0.070
-329.187	70.854	0.045	-0.046
-328.172	-60.924	0.390	0.162
-327.158	46.747	-0.108	-0.099
-326.143	-200.000	0.024	-0.102
-325.129	331.357	-0.102	0.193
-324.114	-193.295	-0.139	0.001
-323.099	240.265	0.116	-0.190
-322.085	64.956	0.169	-0.168
-321.070	21.617	0.233	-0.187
-320.056	28.718	-0.165	0.138
-319.041	171.327	-0.258	-0.364
-318.026	-101.815	0.185	-0.044
-317.012	-74.797	-0.226	-0.080
-315.997	-12.036	-0.176	0.113
-314.983	331.272	0.046	-0.087
-313.968	-147.207	-0.108	0.009
-312.953	-200.000	0.011	0.059
-311.939	439.106	0.087	0.187
-310.924	79.297	0.251	0.265
-309.910	300.623	-0.163	-0.295
-308.895	17.787	-0.380	-0.298
-307.880	-108.928	0.088	0.019
-306.866	70.258	-0.199	-0.202
-305.851	800.000	0.035	-0.139
-304.837	89.584	0.061	-0.067
-303.822	231.455	0.248	-0.399
-302.807	-200.000	0.014	-0.127
-301.793	353.459	-0.128	-0.250
-300.778	153.561	-0.016	0.022
-299.764	654.042	-0.111	-0.279
-298.749	8.274	0.282	0.209
-297.735	-200.000	-0.095	-0.495
-296.720	-78.441	-0.146	-0.049
-295.705	-200.000	0.022	-0.292
-294.691	-36.071	0.266	-0.141
-293.676	-116.657	-0.314	0.057
-292.662	284.566	-0.038	0.068
-291.647	800.000	0.049	-0.172
-290.632	-200.000	-0.005	0.419
-289.618	37.347	-0.378	0.329
-288.603	-200.000	-0.040	0.240
-287.589	-200.000	0.051	-0.310
-286.574	715.874	0.016	0.042
-285.559	800.000	-0.092	0.300
-284.545	-200.000	-0.038	-0.340
-283.530	-28.396	-0.120	0.068
-282.516	-200.000	-0.032	0.236
-281.501	174.333	0.003	-0.004
-280.486	620.359	-0.056	-0.139
-279.472	-83.523	-0.334	0.105
-278.457	320.070	-0.130	0.242
-277.443	-62.424	-0.162	0.066
-276.428	-40.398	-0.274	0.140
-275.413	23.072	0.187	0.151
-274.399	-200.000	-0.023	-0.189
-273.384	265.494	-0.195	-0.334
-272.370	11.161	0.219	0.165
-271.355	-120.859	0.087	0.014
-270.340	576.424	-0.028	0.067
-269.326	621.596	-0.137	0.339
-268.311	800.000	0.045	-0.157
-267.297	-85.310	0.387	-0.119
-266.282	41.116	-0.037	-0.033
-265.267	-200.000	0.011	-0.162
-264.253	289.922	-0.177	0.316
-263.238	-62.860	0.176	0.071
-262.224	81.815	0.126	-0.134
-261.209	-86.566	0.346	0.104
-260.195	-85.163	0.202	0.062
-259.180	-134.803	0.387	-0.046
-258.165	-200.000	0.038	-0.222
-257.151	-22.773	0.299	-0.177
-256.136	358.209	-0.044	-0.086
-255.122	434.526	0.087	-0.186
-254.107	800.000	-0.061	0.189
-253.092	-43.223	-0.394	-0.196
-252.078	-48.319	0.141	-0.067
-251.063	-5.705	0.290	-0.195
-250.049	-73.339	-0.291	-0.104
-249.034	-41.931	0.106	-0.053
-248.019	-67.559	-0.246	0.095
-247.005	-52.100	-0.282	0.128
-245.990	-63.337	-0.251	-0.101
-244.976	-76.735	-0.100	-0.034
-243.961	-0.085	-0.202	-0.141
-242.946	-111.893	0.576	-0.114
-241.932	-200.000	-0.009	-0.166
-240.917	407.328	0.123	0.254
-239.903	165.374	0.140	-0.194
-238.888	-126.531	-0.065	-0.009
-237.873	800.000	0.069	-0.233
-236.859	-19.569	0.304	-0.184
-235.844	-190.736	-0.205	-0.002
-234.830	109.265	-0.223	0.262
-233.815	-5.154	0.270	0.182
-232.800	664.044	-0.087	0.219
-231.786	-200.000	0.007	0.335
-230.771	-200.000	-0.038	0.229
-229.757	800.000	0.008	0.032
-228.742	78.303	-0.130	-0.136
-227.727	-43.808	-0.080	-0.039
-226.713	472.370	-0.172	0.380
-225.698	-200.000	0.004	-0.258
-224.684	45.516	0.312	-0.282
-223.669	-200.000	-0.017	-0.456
-222.655	15.357	0.089	0.069
-221.640	-200.000	0.041	-0.450
-220.625	242.887	0.253	0.415
-219.611	-156.467	-0.365	-0.022
-218.596	-200.000	0.028	-0.126
-217.582	-20.629	-0.251	-0.151
-216.567	499.701	0.115	-0.261
-215.552	-106.590	-0.137	-0.030
-214.538	800.000	-0.038	0.132
-213.523	-125.940	0.168	-0.025
-212.509	-200.000	0.005	-0.061
-211.494	380.964	0.058	-0.117
-210.479	-200.000	0.002	-0.008
-209.465	800.000	0.109	0.360
-208.450	-176.935	0.091	0.002
-207.436	-200.000	0.041	0.383
-206.421	-200.000	0.037	0.235
-205.406	106.400	0.089	0.103
-204.392	-200.000	0.005	-0.190
-203.377	257.750	-0.128	-0.216
-202.363	800.000	0.119	-0.392
-201.348	-60.268	-0.356	0.148
-200.333	-68.416	0.257	0.098
-199.319	-200.000	-0.027	-0.241
-198.304	-200.000	0.002	0.387
-197.290	800.000	0.072	0.212
-196.275	-200.000	-0.036	-0.248
-195.260	540.523	-0.068	0.158
-194.246	800.000	0.035	-0.144
-193.231	127.839	0.174	-0.216
-192.217	-200.000	0.047	0.337
-191.202	-112.224	0.350	0.069
-190.187	41.834	0.240	0.213
-189.173	-150.223	0.263	-0.020
-188.158	-200.000	0.006	0.158
-187.144	800.000	-0.072	-0.290
-186.129	-83.381	-0.286	-0.090
-185.114	284.949	0.103	-0.181
-184.100	800.000	-0.031	0.104
-183.085	-106.763	0.103	0.022
-182.071	245.942	-0.213	-0.352
-181.056	-75.170	0.090	0.032
-180.042	-89.566	0.325	0.093
-179.027	-61.551	0.013	0.005
-178.012	-40.967	-0.199	-0.101
-176.998	84.033	0.333	0.356
-175.983	178.133	-0.095	0.136
-174.969	726.609	-0.160	0.418
-173.954	-91.706	0.094	-0.026
-172.939	-200.000	-0.048	0.359
-171.925	24.665	-0.176	0.143
-170.910	-105.965	0.183	0.040
-169.896	4.747	0.137	0.098
-168.881	-15.327	-0.153	-0.096
-167.866	800.000	-0.047	-0.180
-166.852	-73.011	0.266	-0.096
-165.837	-54.772	-0.053	0.023
-164.823	-12.392	0.180	-0.115
-163.808	173.531	-0.042	-0.059
-162.793	772.669	0.058	0.156
-161.779	-171.147	0.310	0.010
-160.764	-200.000	-0.041	-0.180
-159.750	-5.700	-0.178	0.119
-158.735	464.950	-0.082	-0.180
-157.720	12.315	-0.351	0.265
-156.706	-47.586	0.350	0.166
-155.691	-26.981	0.193	0.110
-154.677	-3.298	-0.048	-0.033
-153.662	-55.547	0.349	0.153
-152.647	3.666	-0.139	-0.099
-151.633	-200.000	0.028	0.185
-150.618	382.030	-0.122	0.244
-149.604	195.299	0.086	-0.128
-148.589	-36.593	0.225	0.118
-147.574	67.481	-0.114	0.114
-146.560	61.238	0.275	-0.267
-145.545	-156.276	0.164	-0.010
-144.531	26.059	0.047	0.038
-143.516	154.360	0.171	-0.229
-142.502	96.188	0.192	0.214
-141.487	124.598	-0.123	0.152
-140.472	-65.170	0.144	-0.057
-139.458	-200.000	-0.046	0.269
-138.443	800.000	0.024	0.102
-137.429	75.661	-0.099	0.102
-136.414	660.741	0.153	0.385
-135.399	369.594	0.057	-0.113
-134.385	-37.668	0.311	-0.162
-133.370	-70.122	-0.152	-0.057
-132.356	800.000	-0.042	-0.115
-131.341	138.057	0.072	0.092
-130.326	6.157	-0.170	-0.123
-129.312	-34.149	0.137	-0.074
-128.297	-52.076	0.145	0.066
-127.283	-200.000	-0.006	0.165
-126.268	211.592	-0.130	-0.199
-125.253	-49.721	0.260	0.121
-124.239	-200.000	0.062	0.390
-123.224	669.317	-0.120	0.305
-122.210	-121.576	0.323	0.052
-121.195	-200.000	0.022	-0.342
