DTS Sentinel unit serial number:	SN413079Multiplexer serial number:	ORYXHardware model number:	OX4-SRSoftware version number:	ORYX F/W v4.00 Oryx Data Collector v3.7.2.0data status	okinstallation	princeton_trtdifferential loss correction	single-endedforward channel	channel 3reverse channel	N/Adate	2019/09/19time	05:56:35forward acquisition time	60.00reverse acquisition time	0.00gamma	496.2192k internal	0.2348k external	0.2348temperature offset calibration	0.9990default loss term (dB/km)	0.3790temperature slope calibration	1.0000multiplexer offset coefficient	1.0000multiplexer slope coefficient	1.0000fibre end	0.00T internal ref (°C)	19.19T ext. ref 1 (°C)	0.58T ext. ref 2 (°C)	12.81length (m)	temperature (°C)	Stokes	anti-Stokes-747.200	-131.097	0.331	0.044
-746.185	-58.257	-0.306	0.133
-745.171	-83.261	0.122	0.039
-744.156	269.755	-0.072	0.126
-743.142	-9.238	0.151	0.101
-742.127	21.082	-0.178	0.145
-741.112	-9.819	0.134	0.089
-740.098	-200.000	0.047	0.431
-739.083	161.908	0.218	0.304
-738.069	-181.893	-0.152	-0.003
-737.054	19.900	0.345	0.277
-736.039	-21.843	-0.114	-0.069
-735.025	69.686	-0.117	0.121
-734.010	-200.000	-0.005	-0.089
-732.996	32.381	-0.047	0.041
-731.981	-76.524	-0.226	0.079
-730.966	-92.349	0.338	-0.095
-729.952	-48.370	0.363	0.175
-728.937	-200.000	-0.014	0.242
-727.923	-28.349	0.074	0.043
-726.908	-200.000	-0.048	-0.499
-725.894	81.974	-0.175	-0.189
-724.879	-45.257	-0.320	-0.158
-723.864	-114.265	0.057	-0.011
-722.850	43.582	0.123	-0.112
-721.835	800.000	0.123	-0.387
-720.821	354.933	-0.163	0.324
-719.806	-99.852	0.082	-0.021
-718.791	800.000	-0.087	-0.244
-717.777	-200.000	0.024	-0.226
-716.762	-26.859	0.271	-0.158
-715.748	-200.000	-0.027	-0.259
-714.733	800.000	0.121	-0.456
-713.718	15.376	-0.172	-0.135
-712.704	-31.335	-0.291	-0.163
-711.689	195.069	-0.126	-0.191
-710.675	45.707	-0.031	0.028
-709.660	-145.681	0.149	0.013
-708.645	-71.925	-0.079	-0.029
-707.631	52.762	-0.009	0.008
-706.616	-177.600	-0.203	-0.005
-705.602	-22.165	-0.068	0.041
-704.587	-67.138	0.189	-0.074
-703.572	-200.000	-0.019	0.176
-702.558	-40.449	0.269	0.139
-701.543	-166.433	-0.393	0.016
-700.529	346.780	0.080	-0.156
-699.514	773.741	-0.167	-0.455
-698.499	160.776	0.137	-0.191
-697.485	-200.000	0.054	0.274
-696.470	-200.000	0.058	0.449
-695.456	14.476	-0.306	-0.238
-694.441	43.038	-0.053	0.048
-693.426	86.319	-0.085	0.093
-692.412	-100.127	0.283	0.070
-691.397	-44.219	-0.318	0.159
-690.383	210.284	-0.055	0.086
-689.368	150.346	-0.143	0.193
-688.354	-66.174	0.239	-0.095
-687.339	572.135	0.049	0.120
-686.324	566.241	0.119	-0.288
-685.310	-200.000	-0.002	0.131
-684.295	118.026	-0.111	0.136
-683.281	26.068	-0.333	0.277
-682.266	6.053	0.344	-0.254
-681.251	-95.664	-0.305	-0.081
-680.237	800.000	-0.063	0.201
-679.222	3.634	-0.146	-0.106
-678.208	-200.000	-0.036	-0.295
-677.193	-48.295	0.489	-0.235
-676.178	800.000	-0.040	-0.163
-675.164	83.462	-0.212	0.230
-674.149	800.000	0.055	-0.194
-673.135	-90.142	-0.451	0.131
-672.120	227.968	-0.116	-0.188
-671.105	-51.600	-0.317	-0.147
-670.091	60.193	-0.175	-0.172
-669.076	284.155	-0.156	0.279
-668.062	242.517	0.177	0.295
-667.047	115.445	0.280	-0.341
-666.032	-37.996	-0.224	-0.119
-665.018	132.165	-0.132	0.170
-664.003	598.382	-0.047	0.117
-662.989	231.671	-0.135	-0.221
-661.974	-11.178	-0.127	0.083
-660.959	-25.015	-0.184	-0.109
-659.945	-200.000	-0.001	0.312
-658.930	99.783	-0.075	-0.086
-657.916	-77.738	0.106	0.036
-656.901	217.813	-0.108	-0.171
-655.886	655.560	-0.083	-0.212
-654.872	-5.256	0.115	-0.079
-653.857	676.167	-0.091	-0.234
-652.843	22.085	0.129	-0.105
-651.828	-112.070	-0.183	-0.037
-650.814	-18.915	0.353	0.219
-649.799	203.968	0.083	0.128
-648.784	80.145	0.077	-0.083
-647.770	-87.703	0.210	-0.063
-646.755	-200.000	0.009	-0.340
-645.741	-200.000	-0.017	-0.456
-644.726	800.000	0.042	-0.137
-643.711	76.261	-0.037	-0.039
-642.697	229.162	-0.066	-0.108
-641.682	111.521	-0.218	-0.261
-640.668	800.000	0.048	-0.131
-639.653	-24.719	0.235	-0.139
-638.638	55.938	-0.181	0.175
-637.624	-158.261	-0.534	0.031
-636.609	507.614	0.071	0.164
-635.595	66.274	0.082	0.083
-634.580	-200.000	-0.036	-0.348
-633.565	-200.000	0.032	0.233
-632.551	10.479	-0.242	-0.184
-631.536	242.699	0.080	-0.133
-630.522	-44.911	-0.055	-0.027
-629.507	63.336	0.103	-0.103
-628.492	-5.052	0.208	0.142
-627.478	-200.000	0.016	-0.099
-626.463	800.000	0.054	-0.175
-625.449	-200.000	0.003	-0.207
-624.434	208.445	-0.050	-0.078
-623.419	-2.581	0.153	0.107
-622.405	227.282	0.092	-0.149
-621.390	-143.555	0.265	-0.025
-620.376	-57.488	-0.435	0.190
-619.361	-124.903	-0.329	-0.050
-618.346	308.354	-0.270	0.501
-617.332	-69.131	-0.066	0.025
-616.317	99.037	-0.093	-0.107
-615.303	159.821	-0.181	-0.251
-614.288	-146.672	-0.139	0.012
-613.273	-100.248	-0.231	-0.057
-612.259	-144.038	-0.174	0.016
-611.244	270.880	0.025	0.043
-610.230	800.000	0.064	0.262
-609.215	-10.642	-0.148	-0.097
-608.201	800.000	0.030	-0.100
-607.186	-67.951	-0.072	0.028
-606.171	255.079	0.261	-0.444
-605.157	9.574	-0.086	-0.065
-604.142	800.000	-0.034	0.094
-603.128	-200.000	-0.002	0.321
-602.113	-36.632	0.103	-0.055
-601.098	478.571	0.059	0.133
-600.084	-73.442	-0.095	0.034
-599.069	-65.019	-0.244	0.098
-598.055	-200.000	-0.027	-0.229
-597.040	-139.894	-0.045	0.005
-596.025	-200.000	-0.015	0.183
-595.011	800.000	0.057	-0.186
-593.996	-200.000	-0.034	-0.343
-592.982	296.754	0.086	-0.156
-591.967	24.129	-0.128	-0.105
-590.952	58.085	0.141	-0.137
-589.938	59.148	-0.221	0.216
-588.923	122.323	0.245	0.304
-587.909	414.130	-0.092	-0.194
-586.894	-104.879	0.075	0.017
-585.879	-30.037	0.011	0.006
-584.865	-84.079	-0.116	-0.037
-583.850	-128.622	0.095	0.013
-582.836	503.762	-0.104	0.239
-581.821	-200.000	-0.014	-0.118
-580.806	800.000	0.058	-0.235
-579.792	800.000	0.015	-0.063
-578.777	127.391	-0.177	-0.223
-577.763	385.623	-0.100	0.205
-576.748	-26.686	0.090	0.052
-575.733	75.727	0.228	-0.239
-574.719	-200.000	-0.043	0.207
-573.704	-122.934	-0.156	0.025
-572.690	-200.000	0.013	0.087
-571.675	-40.446	-0.076	0.039
-570.661	188.434	-0.096	0.142
-569.646	-200.000	0.044	-0.272
-568.631	-200.000	0.026	-0.224
-567.617	-170.172	0.175	-0.006
-566.602	-17.034	-0.394	0.247
-565.588	-93.560	-0.011	0.003
-564.573	-70.164	-0.254	-0.096
-563.558	374.117	0.100	-0.203
-562.544	800.000	0.097	0.315
-561.529	22.664	-0.207	0.168
-560.515	-63.264	-0.271	0.111
-559.500	-200.000	-0.009	-0.210
-558.485	73.948	-0.059	0.061
-557.471	-91.187	0.133	-0.038
-556.456	-200.000	-0.098	0.446
-555.442	-12.792	-0.271	-0.175
-554.427	-151.174	-0.514	-0.038
-553.412	800.000	-0.018	0.055
-552.398	-200.000	0.006	-0.031
-551.383	-200.000	-0.016	-0.103
-550.369	201.005	-0.146	0.223
-549.354	-91.931	0.315	-0.089
-548.339	-24.291	-0.078	0.046
-547.325	115.632	-0.105	-0.127
-546.310	800.000	-0.062	0.209
-545.296	102.142	-0.037	0.043
-544.281	800.000	0.110	0.356
-543.266	63.892	-0.187	0.186
-542.252	82.157	0.233	-0.250
-541.237	-63.656	-0.257	0.105
-540.223	-200.000	0.036	0.236
-539.208	29.383	0.356	0.300
-538.193	-200.000	0.002	0.086
-537.179	464.815	-0.064	-0.143
-536.164	800.000	-0.026	-0.081
-535.150	-200.000	-0.052	0.324
-534.135	-122.901	0.139	-0.022
-533.121	16.006	-0.369	-0.288
-532.106	53.806	-0.235	-0.224
-531.091	-81.971	-0.352	0.114
-530.077	277.448	0.131	0.231
-529.062	800.000	0.062	0.222
-528.048	-81.248	0.316	-0.103
-527.033	-51.415	0.290	0.134
-526.018	-179.311	-0.231	-0.005
-525.004	6.238	-0.111	0.081
-523.989	-104.039	0.020	-0.005
-522.975	-200.000	-0.018	0.172
-521.960	173.867	-0.141	0.201
-520.945	28.452	-0.060	-0.050
-519.931	55.278	0.201	0.192
-518.916	-121.056	-0.114	-0.019
-517.902	-36.089	-0.280	0.150
-516.887	391.546	0.163	0.336
-515.872	800.000	-0.069	-0.262
-514.858	-200.000	-0.031	0.281
-513.843	146.361	0.047	-0.062
-512.829	-200.000	0.057	0.286
-511.814	100.947	-0.121	0.139
-510.799	-71.173	-0.037	0.014
-509.785	97.259	-0.196	-0.222
-508.770	800.000	0.048	-0.167
-507.756	-76.146	-0.292	0.102
-506.741	-74.012	0.296	0.106
-505.726	-35.057	0.059	-0.032
-504.712	800.000	-0.062	-0.182
-503.697	-131.402	0.309	-0.040
-502.683	-142.377	0.237	0.023
-501.668	109.384	-0.042	0.049
-500.653	-200.000	0.012	-0.224
-499.639	-200.000	-0.006	-0.068
-498.624	800.000	0.039	0.117
-497.610	-127.493	-0.123	0.018
-496.595	128.707	0.153	0.193
-495.581	-200.000	0.004	0.158
-494.566	800.000	0.058	-0.219
-493.551	800.000	-0.137	0.381
-492.537	-54.532	0.208	-0.093
-491.522	800.000	-0.073	-0.274
-490.508	-161.370	-0.170	0.009
-489.493	-200.000	-0.033	-0.183
-488.478	-5.985	0.123	0.083
-487.464	-68.816	-0.243	-0.093
-486.449	-30.393	0.334	0.188
-485.435	-76.783	-0.060	0.021
-484.420	96.030	0.188	0.213
-483.405	-45.207	0.191	0.094
-482.391	313.049	-0.170	-0.315
-481.376	-78.025	-0.215	-0.073
-480.362	7.757	0.177	-0.131
-479.347	279.780	-0.064	0.113
-478.332	-159.984	-0.166	0.009
-477.318	-18.362	0.242	0.149
-476.303	67.299	-0.039	-0.039
-475.289	221.592	0.115	0.183
-474.274	800.000	0.038	-0.110
-473.259	-12.481	-0.019	0.012
-472.245	-91.121	-0.161	-0.046
-471.230	440.351	-0.032	0.070
-470.216	-84.647	-0.239	-0.074
-469.201	-200.000	0.003	0.220
-468.186	-200.000	0.046	-0.306
-467.172	800.000	-0.055	-0.204
-466.157	800.000	0.029	-0.104
-465.143	800.000	0.149	0.408
-464.128	184.398	0.048	-0.070
-463.113	800.000	0.125	-0.362
-462.099	-24.475	0.036	-0.021
-461.084	28.385	0.183	0.153
-460.070	-11.861	-0.037	-0.024
-459.055	-72.741	0.114	-0.041
-458.040	-200.000	-0.045	0.302
-457.026	143.713	0.090	0.118
-456.011	800.000	-0.040	0.155
-454.997	341.150	0.085	0.164
-453.982	-28.614	0.148	0.084
-452.968	-35.570	0.234	-0.125
-451.953	65.055	0.146	0.145
-450.938	682.056	-0.078	0.200
-449.924	-65.521	-0.143	0.057
-448.909	174.514	0.052	-0.074
-447.895	682.775	0.142	0.364
-446.880	-161.065	0.238	0.012
-445.865	-150.925	-0.285	0.021
-444.851	-200.000	-0.062	-0.296
-443.836	595.154	-0.095	-0.233
-442.822	145.399	-0.138	-0.182
-441.807	800.000	-0.011	0.042
-440.792	316.029	-0.103	0.192
-439.778	800.000	-0.056	-0.211
-438.763	7.623	-0.167	-0.123
-437.749	-191.802	-0.175	-0.002
-436.734	-200.000	-0.027	0.297
-435.719	-115.950	-0.216	-0.040
-434.705	268.454	0.125	0.216
-433.690	247.887	0.053	0.088
-432.676	-32.220	0.111	0.061
-431.661	-200.000	0.019	-0.361
-430.646	157.836	0.205	-0.280
-429.632	281.099	-0.098	0.173
-428.617	-200.000	0.096	-0.446
-427.603	-109.407	0.169	0.035
-426.588	800.000	-0.020	0.075
-425.573	-200.000	0.009	0.197
-424.559	338.335	0.115	-0.221
-423.544	268.961	-0.005	0.009
-422.530	-200.000	0.022	0.329
-421.515	1.440	-0.413	0.293
-420.500	187.836	-0.045	-0.066
-419.486	800.000	0.092	0.343
-418.471	800.000	-0.073	-0.232
-417.457	-130.908	-0.040	0.005
-416.442	50.396	0.180	-0.167
-415.428	563.676	0.081	0.195
-414.413	-200.000	0.022	0.107
-413.398	-200.000	-0.001	0.229
-412.384	-86.791	0.120	-0.036
-411.369	-73.104	0.094	0.034
-410.355	800.000	-0.058	-0.216
-409.340	-200.000	0.023	0.265
-408.325	56.390	-0.134	-0.129
-407.311	-66.110	-0.209	-0.082
-406.296	-200.000	-0.004	-0.295
-405.282	-16.409	0.153	-0.096
-404.267	72.380	0.147	-0.151
-403.252	194.341	0.145	-0.217
-402.238	30.174	-0.080	0.068
-401.223	-60.740	-0.158	-0.066
-400.209	-200.000	-0.025	0.240
-399.194	682.783	0.096	0.247
-398.179	-200.000	0.056	0.289
-397.165	800.000	-0.115	0.397
-396.150	800.000	-0.022	0.070
-395.136	-200.000	-0.022	-0.381
-394.121	-57.175	0.265	-0.115
-393.106	-200.000	-0.015	-0.131
-392.092	45.986	-0.226	0.206
-391.077	206.733	-0.026	0.040
-390.063	-76.038	0.214	-0.075
-389.048	-200.000	0.018	-0.302
-388.033	800.000	0.053	0.222
-387.019	-200.000	-0.003	-0.106
-386.004	-27.731	-0.158	0.090
-384.990	-88.981	0.334	0.097
-383.975	-46.111	0.232	0.113
-382.960	168.805	-0.127	0.178
-381.946	416.567	0.163	-0.343
-380.931	800.000	0.066	-0.238
-379.917	-3.876	0.119	-0.081
-378.902	115.086	-0.139	0.167
-377.888	-200.000	0.018	-0.217
-376.873	-194.363	0.214	-0.002
-375.858	6.005	-0.247	0.180
-374.844	-69.378	0.152	-0.057
-373.829	-83.195	-0.004	0.001
-372.815	-200.000	-0.071	0.372
-371.800	302.034	0.032	0.058
-370.785	-12.067	-0.117	0.076
-369.771	-79.171	-0.044	-0.015
-368.756	-128.216	-0.408	-0.057
-367.742	127.299	-0.122	-0.153
-366.727	-200.000	-0.029	0.160
-365.712	-200.000	-0.043	-0.345
-364.698	-82.043	0.421	-0.135
-363.683	357.580	0.112	0.220
-362.669	-91.941	-0.243	-0.068
-361.654	-200.000	-0.001	-0.245
-360.639	-200.000	-0.024	-0.165
-359.625	800.000	-0.058	-0.214
-358.610	428.846	-0.164	-0.349
-357.596	-200.000	-0.012	0.090
-356.581	-91.217	0.458	0.129
-355.566	6.355	-0.212	-0.155
-354.552	441.887	0.065	-0.139
-353.537	73.773	-0.176	0.181
-352.523	-103.112	0.279	-0.065
-351.508	51.127	-0.240	0.224
-350.493	-200.000	-0.083	0.517
-349.479	46.092	-0.073	0.067
-348.464	-154.002	0.363	0.024
-347.450	-41.969	-0.225	-0.113
-346.435	632.553	-0.056	-0.140
-345.420	-88.583	-0.293	0.086
-344.406	-61.789	0.104	-0.043
-343.391	315.918	-0.073	0.135
-342.377	39.544	-0.200	-0.176
-341.362	-141.071	0.335	0.034
-340.348	655.528	-0.133	0.336
-339.333	156.314	-0.030	0.040
-338.318	220.872	0.144	0.227
-337.304	44.270	0.108	-0.097
-336.289	452.486	0.042	0.091
-335.275	-83.776	-0.161	-0.050
-334.260	-86.827	0.323	0.097
-333.245	121.703	0.204	-0.250
-332.231	624.519	0.081	-0.200
-331.216	32.638	-0.249	-0.212
-330.202	441.245	-0.146	0.314
-329.187	59.823	0.327	0.317
-328.172	-1.092	0.086	0.060
-327.158	-52.459	0.176	-0.080
-326.143	371.509	-0.077	0.153
-325.129	55.313	0.129	-0.122
-324.114	-80.820	-0.048	-0.016
-323.099	-191.662	-0.423	0.004
-322.085	62.366	0.096	-0.095
-321.070	91.926	0.172	0.190
-320.056	150.479	-0.215	-0.287
-319.041	-47.791	0.244	-0.116
-318.026	120.847	0.047	0.057
-317.012	91.296	-0.124	0.137
-315.997	800.000	0.053	-0.174
-314.983	-200.000	-0.175	-0.001
-313.968	-122.687	0.189	-0.030
-312.953	-87.612	-0.090	-0.027
-311.939	-105.608	-0.180	0.040
-310.924	-29.322	0.155	0.087
-309.910	-137.789	-0.231	0.025
-308.895	7.080	-0.089	0.065
-307.880	36.424	0.090	-0.078
-306.866	-4.478	0.253	-0.172
-305.851	-159.659	0.245	0.013
-304.837	-32.950	-0.243	0.132
-303.822	-200.000	0.017	0.408
-302.807	-200.000	0.057	0.252
-301.793	-200.000	-0.025	-0.474
-300.778	800.000	0.055	-0.209
-299.764	-200.000	0.003	-0.189
-298.749	-60.076	0.454	-0.190
-297.735	458.715	-0.051	-0.111
-296.720	-92.141	-0.525	-0.146
-295.705	800.000	0.080	0.328
-294.691	77.417	0.257	0.268
-293.676	-200.000	-0.049	0.245
-292.662	39.985	0.160	-0.141
-291.647	278.924	-0.127	0.223
-290.632	0.318	0.338	0.237
-289.618	-137.816	-0.337	0.037
-288.603	290.336	-0.118	-0.210
-287.589	-200.000	0.279	0.001
-286.574	-183.426	0.254	-0.004
-285.559	345.106	0.110	-0.211
-284.545	-68.281	0.236	0.090
-283.530	-200.000	-0.013	0.067
-282.516	186.078	-0.304	0.444
-281.501	800.000	-0.028	0.100
-280.486	103.582	0.130	-0.150
-279.472	-200.000	-0.061	-0.332
-278.457	-200.000	-0.009	-0.103
-277.443	-16.182	-0.300	-0.187
-276.428	800.000	-0.082	-0.240
-275.413	-200.000	-0.049	-0.366
-274.399	-157.519	0.071	-0.004
-273.384	345.618	0.208	0.400
-272.370	-137.842	-0.092	0.010
-271.355	18.636	0.409	-0.321
-270.340	-23.952	-0.228	-0.133
-269.326	-95.537	0.102	0.027
-268.311	-72.820	0.256	0.092
-267.297	737.812	0.136	-0.358
-266.282	-24.628	-0.252	-0.147
-265.267	-200.000	-0.009	0.430
-264.253	-200.000	-0.013	0.163
-263.238	-21.972	0.228	-0.136
-262.224	-200.000	0.072	-0.451
-261.209	188.088	-0.138	-0.203
-260.195	800.000	-0.045	-0.162
-259.180	-200.000	-0.020	0.401
-258.165	-200.000	-0.006	-0.343
-257.151	-60.061	-0.319	-0.134
-256.136	-44.416	-0.325	0.160
-255.122	-41.009	-0.146	-0.074
-254.107	55.140	0.189	0.179
-253.092	-145.375	0.327	0.029
-252.078	-200.000	0.006	-0.164
-251.063	-106.442	-0.221	0.048
-250.049	-82.585	0.254	-0.081
-249.034	-10.610	0.289	-0.188
-248.019	-61.697	-0.105	-0.043
-247.005	-200.000	-0.005	0.179
-245.990	-200.000	0.004	0.137
-244.976	39.386	0.154	-0.135
-243.961	-170.231	0.038	0.001
-242.946	-31.303	0.052	-0.029
-241.932	-200.000	-0.075	-0.444
-240.917	0.080	-0.217	-0.152
-239.903	-41.609	-0.305	0.153
-238.888	-142.385	-0.144	0.014
-237.873	120.531	0.228	-0.278
-236.859	-200.000	0.034	-0.223
-235.844	-200.000	-0.026	-0.256
-234.830	-164.836	0.289	-0.013
-233.815	-200.000	-0.003	-0.284
-232.800	333.269	0.229	-0.433
-231.786	-122.042	0.301	0.048
-230.771	-31.642	0.354	-0.195
-229.757	95.099	0.232	0.259
-228.742	-5.599	0.223	0.150
-227.727	-141.749	-0.116	0.011
-226.713	91.077	0.135	-0.149
-225.698	42.194	-0.163	-0.145
-224.684	800.000	-0.122	-0.354
-223.669	203.309	-0.302	-0.458
-222.655	352.203	-0.022	0.043
-221.640	-200.000	0.013	-0.129
-220.625	-101.812	0.112	0.027
-219.611	477.741	-0.187	-0.414
-218.596	137.146	-0.086	0.110
-217.582	-51.448	0.095	-0.044
-216.567	26.070	0.234	0.191
-215.552	61.916	-0.185	0.180
-214.538	-131.329	-0.352	-0.046
-213.523	-200.000	0.084	-0.376
-212.509	201.132	0.215	0.324
-211.494	194.907	0.181	0.269
-210.479	-131.076	0.136	0.018
-209.465	109.058	-0.041	0.048
-208.450	800.000	0.042	0.143
-207.436	800.000	0.040	-0.131
-206.421	-141.461	-0.173	0.017
-205.406	334.759	-0.062	0.117
-204.392	-200.000	-0.018	0.129
-203.377	800.000	-0.052	-0.147
-202.363	-26.701	-0.218	0.125
-201.348	800.000	-0.039	-0.114
-200.333	204.765	0.259	-0.393
-199.319	-100.800	0.370	-0.089
-198.304	-110.779	-0.230	-0.046
-197.290	47.637	0.189	-0.173
-196.275	-108.372	-0.231	0.049
-195.260	-200.000	-0.009	-0.192
-194.246	-200.000	-0.000	0.291
-193.231	-22.776	0.191	0.113
-192.217	208.993	-0.268	-0.410
-191.202	275.366	0.118	0.204
-190.187	604.231	0.095	0.231
-189.173	-14.260	0.364	0.229
-188.158	-33.123	0.123	0.067
-187.144	-200.000	-0.008	0.268
-186.129	-30.756	-0.113	0.063
-185.114	-200.000	0.035	0.349
-184.100	216.835	0.297	-0.462
-183.085	186.326	-0.238	0.346
-182.071	-200.000	0.061	0.304
-181.056	145.968	-0.184	0.241
-180.042	-134.063	0.080	-0.010
-179.027	-85.117	0.244	0.075
-178.012	-200.000	0.027	-0.241
-176.998	446.478	0.043	0.092
-175.983	294.658	-0.321	0.574
-174.969	-136.951	0.282	0.032
-173.954	-77.093	-0.475	-0.162
-172.939	-54.594	0.327	0.145
-171.925	-28.787	0.232	-0.130
-170.910	-150.162	0.194	0.015
-169.896	-19.916	-0.274	0.165
-168.881	194.780	-0.030	-0.044
-167.866	84.793	-0.124	-0.132
-166.852	-200.000	-0.019	-0.141
-165.837	-200.000	0.026	0.338
-164.823	-119.412	-0.133	0.023
-163.808	208.207	-0.133	-0.204
-162.793	226.265	-0.067	0.106
-161.779	216.049	0.125	-0.194
-160.764	-133.652	0.283	0.035
-159.750	-200.000	0.013	0.133
-158.735	-127.806	-0.123	0.017
-157.720	97.145	-0.175	-0.196
-156.706	800.000	-0.033	0.094
-155.691	-200.000	0.074	0.363
-154.677	-56.249	-0.230	0.100
-153.662	-87.927	0.218	0.064
-152.647	-200.000	0.053	0.455
-151.633	192.290	0.128	0.189
-150.618	-200.000	0.046	0.196
-149.604	85.268	-0.153	-0.164
-148.589	-106.800	0.159	-0.034
-147.574	-93.521	-0.101	-0.027
-146.560	-83.438	0.318	0.099
-145.545	-61.712	-0.220	0.090
-144.531	58.249	0.058	-0.055
-143.516	-1.371	0.332	0.229
-142.502	800.000	0.045	-0.126
-141.487	-200.000	-0.001	-0.180
-140.472	230.613	-0.115	-0.184
-139.458	-101.867	-0.243	-0.057
-138.443	-63.028	0.368	0.148
-137.429	21.214	-0.406	0.322
-136.414	44.445	-0.410	0.367
-135.399	800.000	0.012	0.037
-134.385	64.966	0.350	0.345
-133.370	-110.760	0.061	-0.012
-132.356	800.000	0.092	-0.376
-131.341	800.000	0.058	-0.170
-130.326	-200.000	0.028	-0.196
-129.312	71.988	0.098	-0.100
-128.297	-200.000	-0.017	0.294
-127.283	-87.017	0.351	-0.104
-126.268	-200.000	0.010	0.130
-125.253	-200.000	0.003	-0.023
-124.239	3.963	-0.238	0.169
-123.224	0.572	0.211	-0.147
-122.210	-7.454	0.182	-0.120
-121.195	-200.000	0.044	0.274
