DTS Sentinel unit serial number:	SN413079Multiplexer serial number:	ORYXHardware model number:	OX4-SRSoftware version number:	ORYX F/W v4.00 Oryx Data Collector v3.7.2.0data status	okinstallation	princeton_trtdifferential loss correction	single-endedforward channel	channel 3reverse channel	N/Adate	2019/09/14time	05:28:35forward acquisition time	60.00reverse acquisition time	0.00gamma	496.2192k internal	0.2337k external	0.2337temperature offset calibration	1.0053default loss term (dB/km)	0.3790temperature slope calibration	1.0000multiplexer offset coefficient	1.0000multiplexer slope coefficient	1.0000fibre end	0.00T internal ref (°C)	26.94T ext. ref 1 (°C)	3.38T ext. ref 2 (°C)	21.89length (m)	temperature (°C)	Stokes	anti-Stokes-747.200	200.872	0.151	0.233
-746.185	40.511	-0.204	0.185
-745.171	173.202	-0.131	0.189
-744.156	206.689	-0.060	0.094
-743.142	-119.809	0.322	0.056
-742.127	250.938	-0.113	0.192
-741.112	-200.000	-0.002	0.031
-740.098	-145.634	-0.110	0.010
-739.083	-134.229	-0.306	-0.038
-738.069	9.228	-0.257	0.195
-737.054	-200.000	-0.026	-0.195
-736.039	312.890	-0.107	-0.201
-735.025	-59.515	-0.187	0.081
-734.010	435.658	0.074	-0.161
-732.996	-200.000	0.047	-0.207
-731.981	127.102	-0.173	0.220
-730.966	-83.113	0.096	-0.031
-729.952	163.005	-0.145	0.204
-728.937	52.930	-0.044	-0.042
-727.923	-137.763	0.065	0.007
-726.908	-4.012	0.198	0.138
-725.894	48.888	-0.172	-0.162
-724.879	-191.616	-0.056	0.001
-723.864	-112.187	-0.229	0.046
-722.850	-34.097	0.088	0.048
-721.835	-122.525	-0.130	-0.021
-720.821	-54.751	0.051	0.023
-719.806	-200.000	0.028	0.169
-718.791	-24.506	-0.059	-0.035
-717.777	-159.544	0.422	-0.024
-716.762	800.000	0.039	0.114
-715.748	-200.000	0.036	-0.188
-714.733	162.562	-0.057	-0.080
-713.718	21.348	0.028	-0.023
-712.704	372.102	0.134	-0.272
-711.689	102.981	-0.151	0.178
-710.675	-107.372	-0.206	-0.045
-709.660	-167.192	0.049	0.002
-708.645	-99.244	0.061	0.015
-707.631	-37.055	0.280	-0.150
-706.616	76.430	-0.216	0.229
-705.602	-178.996	-0.128	0.003
-704.587	-200.000	-0.004	-0.093
-703.572	-67.628	0.084	-0.033
-702.558	-200.000	0.042	-0.336
-701.543	-74.380	0.334	-0.121
-700.529	800.000	-0.036	-0.136
-699.514	-200.000	-0.002	-0.091
-698.499	98.299	0.181	-0.209
-697.485	-125.390	0.384	0.059
-696.470	50.254	-0.250	-0.236
-695.456	-121.998	0.057	-0.009
-694.441	800.000	-0.015	-0.049
-693.426	56.902	-0.198	-0.193
-692.412	-21.222	-0.229	0.140
-691.397	42.109	-0.157	0.143
-690.383	697.313	0.170	-0.447
-689.368	800.000	0.081	-0.266
-688.354	79.353	0.129	-0.139
-687.339	-37.852	0.032	0.017
-686.324	136.813	-0.205	-0.268
-685.310	305.646	0.200	-0.372
-684.295	-200.000	0.045	-0.289
-683.281	8.587	0.150	-0.113
-682.266	190.162	-0.184	-0.277
-681.251	57.346	-0.105	0.103
-680.237	-200.000	-0.028	-0.145
-679.222	-24.974	-0.354	-0.211
-678.208	-154.473	-0.432	-0.029
-677.193	442.180	0.073	0.161
-676.178	130.696	-0.224	0.288
-675.164	777.005	-0.107	-0.293
-674.149	587.670	0.183	-0.450
-673.135	-33.887	0.107	-0.059
-672.120	-200.000	-0.100	0.485
-671.105	-86.721	-0.179	0.055
-670.091	-74.331	0.312	-0.113
-669.076	47.035	-0.284	-0.264
-668.062	181.349	0.113	0.167
-667.047	-77.706	0.256	0.089
-666.032	-200.000	0.011	-0.158
-665.018	-120.690	0.285	-0.048
-664.003	201.697	0.071	0.109
-662.989	800.000	0.018	-0.068
-661.974	23.709	-0.075	0.062
-660.959	800.000	0.028	0.120
-659.945	800.000	-0.089	0.278
-658.930	-113.824	-0.288	0.056
-657.916	-200.000	0.022	-0.121
-656.901	-177.589	0.137	-0.003
-655.886	-97.550	0.145	0.038
-654.872	-142.072	0.110	0.011
-653.857	-57.973	0.119	-0.052
-652.843	-200.000	-0.022	0.369
-651.828	-200.000	-0.008	-0.038
-650.814	254.178	0.185	-0.317
-649.799	90.910	-0.253	-0.284
-648.784	79.912	-0.199	0.213
-647.770	800.000	0.059	-0.191
-646.755	-153.168	-0.257	-0.018
-645.741	1.520	0.401	-0.289
-644.726	123.577	0.126	-0.158
-643.711	-29.783	-0.210	0.120
-642.697	391.760	0.127	0.264
-641.682	-25.175	0.159	-0.094
-640.668	97.990	-0.398	0.458
-639.653	-200.000	0.030	0.312
-638.638	496.452	0.125	-0.287
-637.624	-200.000	0.023	0.213
-636.609	-200.000	0.000	-0.140
-635.595	417.595	-0.066	0.141
-634.580	800.000	-0.129	-0.359
-633.565	63.835	0.080	-0.080
-632.551	-140.619	0.062	0.006
-631.536	800.000	-0.083	0.349
-630.522	-136.725	0.119	-0.014
-629.507	80.787	-0.234	0.252
-628.492	714.265	0.010	-0.027
-627.478	-13.613	-0.212	-0.137
-626.463	-89.421	0.278	0.082
-625.449	198.637	-0.139	0.212
-624.434	117.096	-0.268	0.329
-623.419	-200.000	0.037	0.202
-622.405	182.384	0.112	-0.165
-621.390	22.860	0.162	-0.132
-620.376	6.004	-0.437	-0.323
-619.361	53.424	-0.135	0.129
-618.346	-86.458	-0.223	-0.068
-617.332	464.393	-0.042	-0.093
-616.317	-127.910	0.331	0.048
-615.303	-117.497	-0.232	0.042
-614.288	265.492	0.190	-0.331
-613.273	-176.359	0.121	-0.003
-612.259	-200.000	0.027	-0.200
-611.244	-69.318	-0.228	0.087
-610.230	425.356	-0.099	-0.214
-609.215	-52.579	0.156	-0.072
-608.201	139.191	0.099	0.130
-607.186	54.255	0.057	0.055
-606.171	-47.166	-0.277	-0.135
-605.157	91.711	0.176	-0.197
-604.142	-159.592	0.092	-0.005
-603.128	79.471	-0.261	-0.280
-602.113	-122.091	0.290	0.048
-601.098	88.094	0.145	-0.161
-600.084	59.247	0.254	0.250
-599.069	800.000	-0.047	-0.189
-598.055	-95.158	-0.462	0.124
-597.040	-149.460	0.058	0.005
-596.025	-200.000	-0.038	-0.329
-595.011	301.317	-0.127	-0.234
-593.996	22.131	0.030	-0.025
-592.982	-191.947	-0.309	-0.003
-591.967	-200.000	-0.012	0.098
-590.952	-35.866	-0.093	-0.050
-589.938	-200.000	0.065	-0.342
-588.923	-4.306	-0.079	0.055
-587.909	3.224	0.148	-0.107
-586.894	-200.000	-0.072	0.398
-585.879	38.462	-0.158	-0.140
-584.865	207.620	-0.140	0.218
-583.850	-87.110	0.125	0.038
-582.836	-106.599	0.158	-0.035
-581.821	-158.765	0.295	-0.017
-580.806	-108.068	-0.168	0.036
-579.792	-95.647	-0.432	-0.115
-578.777	-136.446	0.286	0.033
-577.763	-200.000	-0.055	-0.288
-576.748	278.498	0.226	-0.402
-575.733	212.554	-0.173	-0.273
-574.719	319.820	-0.038	0.072
-573.704	-140.517	0.201	-0.021
-572.690	800.000	0.103	0.343
-571.675	-200.000	0.006	-0.178
-570.661	13.791	0.162	-0.125
-569.646	637.919	-0.120	-0.305
-568.631	-114.134	0.394	-0.076
-567.617	-62.515	0.300	-0.124
-566.602	-95.862	0.192	0.051
-565.588	-200.000	0.043	0.418
-564.573	-53.083	0.057	-0.026
-563.558	104.237	-0.157	-0.184
-562.544	-81.440	-0.286	0.094
-561.529	-69.799	-0.206	-0.079
-560.515	-45.828	0.098	0.048
-559.500	-142.036	-0.328	0.033
-558.485	776.933	0.042	-0.114
-557.471	-5.193	0.340	-0.233
-556.456	471.802	-0.040	0.090
-555.442	-35.921	-0.024	-0.013
-554.427	133.324	0.121	0.156
-553.412	703.916	0.119	0.313
-552.398	164.059	-0.096	0.134
-551.383	-75.901	0.152	-0.054
-550.369	179.826	-0.064	0.094
-549.354	-1.394	-0.352	-0.247
-548.339	-43.023	0.151	0.076
-547.325	800.000	0.128	0.497
-546.310	-200.000	0.048	-0.309
-545.296	-200.000	0.014	-0.244
-544.281	16.368	0.195	-0.153
-543.266	-64.540	0.156	-0.063
-542.252	-156.896	-0.145	0.009
-541.237	-140.406	-0.346	-0.036
-540.223	-83.193	-0.457	0.146
-539.208	-71.337	0.324	-0.121
-538.193	-195.618	0.639	-0.005
-537.179	415.191	-0.040	-0.085
-536.164	-2.182	-0.197	0.138
-535.150	-200.000	0.010	-0.129
-534.135	-120.247	-0.219	-0.037
-533.121	-4.479	0.273	-0.188
-532.106	248.235	-0.084	-0.142
-531.091	-89.323	0.306	0.090
-530.077	204.969	-0.119	0.183
-529.062	800.000	0.010	-0.044
-528.048	-45.562	-0.247	-0.122
-527.033	582.126	-0.078	-0.191
-526.018	617.053	0.053	-0.132
-525.004	-4.309	-0.121	0.083
-523.989	694.908	0.110	-0.288
-522.975	-200.000	0.062	-0.348
-521.960	-49.999	-0.054	0.026
-520.945	139.169	0.177	-0.232
-519.931	16.022	-0.339	0.265
-518.916	-200.000	-0.021	-0.129
-517.902	-118.631	0.311	0.055
-516.887	800.000	-0.102	-0.306
-515.872	-200.000	-0.004	0.033
-514.858	132.174	-0.160	-0.205
-513.843	-39.164	-0.309	-0.162
-512.829	11.259	-0.109	0.083
-511.814	-200.000	-0.013	0.071
-510.799	-200.000	0.032	0.272
-509.785	133.006	0.124	0.159
-508.770	635.457	-0.156	0.395
-507.756	162.691	0.013	0.019
-506.741	307.075	0.108	0.200
-505.726	42.523	0.181	0.164
-504.712	-87.038	-0.263	0.080
-503.697	-34.400	-0.172	-0.094
-502.683	-47.351	0.110	0.053
-501.668	327.498	-0.119	0.227
-500.653	125.918	0.021	0.026
-499.639	332.411	-0.096	0.183
-498.624	-34.595	-0.199	-0.108
-497.610	-36.852	-0.379	-0.202
-496.595	696.231	-0.040	0.105
-495.581	-200.000	0.324	-0.001
-494.566	-178.670	0.133	0.003
-493.551	-200.000	-0.019	-0.162
-492.537	-86.138	0.178	-0.055
-491.522	800.000	-0.114	-0.449
-490.508	-28.353	0.208	-0.119
-489.493	-48.764	-0.284	-0.135
-488.478	197.577	-0.197	0.300
-487.464	67.130	0.147	0.149
-486.449	369.790	0.097	-0.195
-485.435	-35.235	0.230	-0.124
-484.420	23.284	0.066	0.054
-483.405	29.225	0.168	-0.141
-482.391	-103.041	0.134	-0.032
-481.376	-200.000	-0.077	0.516
-480.362	611.126	0.218	0.541
-479.347	-200.000	-0.007	-0.272
-478.332	233.460	-0.162	0.266
-477.318	-27.187	0.071	0.041
-476.303	207.657	-0.092	0.142
-475.289	35.401	-0.081	0.071
-474.274	-70.895	-0.234	-0.088
-473.259	395.722	-0.068	0.141
-472.245	269.828	0.026	-0.045
-471.230	-164.948	0.213	0.009
-470.216	66.065	-0.213	0.214
-469.201	104.347	-0.124	-0.145
-468.186	363.151	-0.154	-0.307
-467.172	800.000	0.040	-0.144
-466.157	186.305	0.070	0.103
-465.143	800.000	0.113	-0.362
-464.128	292.500	-0.128	0.231
-463.113	298.898	-0.101	-0.185
-462.099	-101.777	0.192	-0.046
-461.084	12.175	-0.097	-0.074
-460.070	709.407	-0.179	-0.470
-459.055	652.144	-0.063	0.160
-458.040	10.271	0.199	-0.150
-457.026	-130.956	-0.260	0.035
-456.011	126.684	0.217	0.272
-454.997	-100.480	0.409	-0.101
-453.982	182.641	0.136	0.200
-452.968	335.912	-0.078	-0.150
-451.953	-200.000	0.007	0.159
-450.938	30.433	0.257	-0.218
-449.924	-200.000	-0.001	-0.202
-448.909	-200.000	0.010	-0.130
-447.895	-200.000	-0.009	-0.115
-446.880	124.678	0.149	0.187
-445.865	203.066	-0.104	-0.159
-444.851	25.274	0.158	-0.131
-443.836	-86.911	0.231	0.070
-442.822	-155.278	0.157	-0.010
-441.807	-110.629	0.073	0.015
-440.792	-50.783	-0.297	0.139
-439.778	-164.863	-0.115	0.005
-438.763	-120.076	0.339	0.058
-437.749	150.571	-0.148	-0.199
-436.734	423.824	-0.177	-0.377
-435.719	93.611	-0.021	-0.023
-434.705	232.560	0.054	0.087
-433.690	85.066	0.086	0.094
-432.676	800.000	0.026	-0.108
-431.661	-200.000	0.022	-0.118
-430.646	-91.890	-0.387	-0.109
-429.632	-36.999	0.223	0.118
-428.617	800.000	-0.050	-0.165
-427.603	-45.900	-0.127	-0.062
-426.588	-200.000	-0.322	-0.000
-425.573	-10.167	-0.274	0.181
-424.559	-6.255	0.127	-0.086
-423.544	-151.450	0.239	-0.018
-422.530	137.740	-0.096	-0.125
-421.515	-63.880	0.107	0.044
-420.500	-66.851	0.069	0.027
-419.486	30.282	-0.092	-0.077
-418.471	142.683	0.075	0.099
-417.457	-130.242	0.037	-0.005
-416.442	281.095	-0.152	-0.269
-415.428	407.878	-0.093	-0.195
-414.413	20.522	0.153	0.123
-413.398	10.222	0.092	-0.069
-412.384	163.746	0.155	-0.216
-411.369	-91.057	-0.465	0.132
-410.355	-200.000	-0.021	-0.167
-409.340	-70.539	0.083	0.031
-408.325	-200.000	0.014	0.255
-407.311	-87.483	-0.073	-0.022
-406.296	-200.000	0.013	-0.357
-405.282	-151.386	0.035	-0.003
-404.267	-143.844	0.091	-0.008
-403.252	-26.329	0.072	0.042
-402.238	186.494	-0.102	-0.151
-401.223	-151.933	-0.177	-0.013
-400.209	-200.000	0.161	0.830
-399.194	-200.000	-0.003	0.250
-398.179	-128.098	0.372	-0.053
-397.165	529.864	0.118	0.276
-396.150	-74.406	0.436	0.156
-395.136	463.274	-0.092	-0.204
-394.121	23.604	0.165	0.135
-393.106	-200.000	0.036	0.328
-392.092	-137.511	-0.391	0.044
-391.077	311.460	0.027	-0.049
-390.063	800.000	0.116	-0.486
-389.048	-200.000	0.085	0.450
-388.033	143.453	-0.164	0.217
-387.019	58.060	-0.126	-0.122
-386.004	-53.924	0.267	0.120
-384.990	-200.000	-0.002	-0.049
-383.975	46.980	0.296	-0.272
-382.960	86.715	-0.105	-0.114
-381.946	11.661	-0.119	-0.090
-380.931	-200.000	0.056	0.367
-379.917	85.844	0.198	0.215
-378.902	-32.205	0.369	0.204
-377.888	800.000	-0.085	-0.303
-376.873	-61.184	-0.251	-0.105
-375.858	209.772	-0.126	-0.196
-374.844	-62.015	-0.361	0.149
-373.829	800.000	-0.074	0.217
-372.815	-200.000	-0.070	0.425
-371.800	132.413	-0.235	0.299
-370.785	-178.185	-0.124	-0.003
-369.771	518.554	0.067	0.156
-368.756	-67.035	0.182	-0.071
-367.742	-18.101	0.175	0.108
-366.727	564.103	0.088	0.211
-365.712	506.478	0.123	0.282
-364.698	-101.946	-0.201	0.048
-363.683	238.681	-0.053	0.087
-362.669	-106.140	0.304	0.067
-361.654	-54.472	0.209	0.094
-360.639	-200.000	0.010	0.178
-359.625	117.006	-0.108	-0.131
-358.610	-90.881	0.213	0.061
-357.596	38.351	-0.190	-0.168
-356.581	-125.619	0.097	0.015
-355.566	50.875	0.123	-0.116
-354.552	136.694	0.212	0.274
-353.537	74.124	0.290	0.301
-352.523	-175.402	-0.101	0.003
-351.508	-146.784	0.164	-0.014
-350.493	-120.032	-0.283	0.048
-349.479	-82.176	-0.507	0.163
-348.464	-200.000	-0.030	0.240
-347.450	-104.912	0.236	0.054
-346.435	-200.000	-0.024	-0.407
-345.420	-95.869	-0.125	0.033
-344.406	800.000	0.040	0.154
-343.391	-89.101	-0.169	-0.049
-342.377	206.935	0.075	0.116
-341.362	-93.698	0.139	-0.038
-340.348	-115.721	0.296	-0.055
-339.333	-96.428	0.193	0.050
-338.318	1.054	-0.201	0.142
-337.304	-151.827	-0.182	0.013
-336.289	-126.280	0.233	-0.034
-335.275	-20.690	-0.155	0.094
-334.260	538.992	0.066	0.156
-333.245	-167.404	-0.152	0.006
-332.231	-198.084	0.166	-0.001
-331.216	-200.000	-0.002	-0.141
-330.202	-200.000	0.022	-0.115
-329.187	13.983	0.276	0.212
-328.172	-41.873	-0.089	0.045
-327.158	800.000	0.055	0.234
-326.143	160.817	-0.252	0.348
-325.129	-101.496	-0.398	-0.096
-324.114	115.569	0.134	-0.162
-323.099	126.055	-0.105	0.132
-322.085	236.881	0.061	0.100
-321.070	-58.140	-0.177	0.076
-320.056	-62.398	0.294	-0.121
-319.041	-200.000	0.027	-0.164
-318.026	800.000	0.015	-0.061
-317.012	-1.427	-0.052	-0.036
-315.997	800.000	0.039	-0.157
-314.983	-99.418	0.190	-0.047
-313.968	267.058	-0.161	0.278
-312.953	-94.798	0.145	0.039
-311.939	-100.818	-0.069	-0.017
-310.924	22.019	0.062	0.050
-309.910	36.558	-0.248	-0.216
-308.895	-13.770	-0.183	0.117
-307.880	-107.606	-0.321	0.069
-306.866	-150.037	0.274	0.021
-305.851	-159.278	-0.224	0.012
-304.837	-200.000	0.072	-0.455
-303.822	165.333	0.069	0.096
-302.807	70.762	0.273	-0.279
-301.793	-122.899	0.157	-0.025
-300.778	-200.000	-0.014	0.217
-299.764	299.907	-0.134	-0.244
-298.749	-200.000	-0.001	0.329
-297.735	-200.000	0.038	0.000
-296.720	119.251	0.103	0.126
-295.705	574.173	-0.062	0.148
-294.691	-142.705	0.212	0.020
-293.676	-200.000	-0.023	0.230
-292.662	-200.000	-0.003	0.294
-291.647	-161.455	-0.054	-0.003
-290.632	568.004	-0.082	0.196
-289.618	80.678	-0.238	-0.253
-288.603	800.000	0.034	0.122
-287.589	428.676	-0.089	0.191
-286.574	800.000	0.047	-0.155
-285.559	-200.000	0.042	0.185
-284.545	41.508	-0.392	-0.350
-283.530	-200.000	0.180	0.000
-282.516	-37.051	0.250	0.132
-281.501	-200.000	0.044	-0.339
-280.486	800.000	-0.070	-0.268
-279.472	-52.025	0.163	-0.075
-278.457	-200.000	0.002	-0.012
-277.443	105.739	-0.015	0.018
-276.428	-33.665	0.373	-0.203
-275.413	9.315	-0.333	-0.248
-274.399	-200.000	0.031	-0.208
-273.384	-142.550	0.378	-0.037
-272.370	-39.940	-0.328	-0.169
-271.355	-87.978	-0.189	0.056
-270.340	127.095	-0.169	-0.212
-269.326	69.796	0.064	0.065
-268.311	22.711	-0.015	-0.012
-267.297	-58.427	0.174	0.075
-266.282	102.101	-0.240	0.276
-265.267	322.718	-0.097	0.182
-264.253	-188.172	0.363	0.005
-263.238	78.533	0.179	-0.189
-262.224	-200.000	0.009	-0.044
-261.209	-38.928	0.124	-0.064
-260.195	0.629	0.045	0.032
-259.180	-200.000	0.061	0.269
-258.165	17.531	0.160	0.125
-257.151	7.772	0.206	0.152
-256.136	-60.461	-0.467	0.195
-255.122	-165.082	0.107	0.005
-254.107	-200.000	0.043	-0.493
-253.092	228.908	-0.079	-0.127
-252.078	-200.000	-0.411	-0.002
-251.063	478.667	0.094	0.210
-250.049	534.295	0.107	0.249
-249.034	438.927	0.150	0.323
-248.019	479.946	0.107	0.238
-247.005	529.656	0.013	0.030
-245.990	7.400	0.201	-0.148
-244.976	119.994	0.080	-0.098
-243.961	-20.120	-0.070	0.043
-242.946	-200.000	-0.017	-0.209
-241.932	6.767	-0.118	0.087
-240.917	157.459	0.109	-0.148
-239.903	-74.201	0.287	-0.102
-238.888	108.706	-0.168	-0.197
-237.873	-39.497	0.141	0.072
-236.859	-200.000	-0.009	-0.192
-235.844	-160.780	0.305	-0.016
-234.830	-135.629	0.100	0.012
-233.815	196.551	0.159	0.239
-232.800	616.560	0.116	0.285
-231.786	-200.000	-0.007	0.135
-230.771	-135.605	-0.379	0.044
-229.757	26.836	-0.083	-0.068
-228.742	-32.315	0.100	-0.055
-227.727	-40.301	-0.419	-0.215
-226.713	-89.035	0.108	-0.031
-225.698	-6.218	0.282	0.190
-224.684	-37.127	-0.242	0.127
-223.669	-26.604	-0.098	-0.056
-222.655	-136.676	0.186	-0.021
-221.640	557.692	-0.115	-0.273
-220.625	-60.511	-0.111	0.046
-219.611	563.756	-0.090	0.214
-218.596	293.454	-0.218	-0.392
-217.582	327.370	0.038	-0.072
-216.567	-96.443	-0.212	0.055
-215.552	-163.854	-0.460	0.021
-214.538	-200.000	0.062	0.465
-213.523	-121.909	-0.172	-0.028
-212.509	-181.136	-0.170	-0.003
-211.494	-200.000	-0.021	0.118
-210.479	71.233	0.074	-0.076
-209.465	-2.321	0.229	0.158
-208.450	-111.456	0.328	-0.066
-207.436	31.739	0.016	-0.014
-206.421	-117.365	0.196	0.035
-205.406	-76.130	0.139	0.048
-204.392	-90.459	-0.392	-0.112
-203.377	-200.000	-0.047	0.316
-202.363	175.838	0.077	0.110
-201.348	-200.000	-0.033	0.183
-200.333	149.224	0.090	-0.119
-199.319	800.000	-0.059	-0.192
-198.304	62.895	-0.053	0.052
-197.290	60.552	-0.152	0.148
-196.275	-19.502	0.070	0.042
-195.260	-34.611	-0.189	-0.102
-194.246	-200.000	0.041	-0.187
-193.231	-200.000	0.003	-0.193
-192.217	605.187	0.137	0.335
-191.202	-20.739	-0.252	0.152
-190.187	-200.000	-0.043	0.250
-189.173	-97.319	0.347	0.089
-188.158	800.000	-0.055	-0.179
-187.144	800.000	-0.134	-0.431
-186.129	-76.907	0.073	0.025
-185.114	-48.588	0.062	0.029
-184.100	-64.133	-0.262	0.105
-183.085	-104.874	0.128	0.029
-182.071	-48.479	-0.326	-0.154
-181.056	2.887	0.195	-0.139
-180.042	17.766	0.022	-0.018
-179.027	-200.000	0.009	0.056
-178.012	400.113	0.160	-0.328
-176.998	75.378	0.255	0.265
-175.983	144.498	-0.127	-0.166
-174.969	132.766	-0.203	0.257
-173.954	-200.000	0.007	0.370
-172.939	-164.575	-0.229	0.010
-171.925	8.307	0.185	0.137
-170.910	-200.000	0.005	-0.078
-169.896	47.294	0.158	0.144
-168.881	279.259	-0.093	0.163
-167.866	-169.732	-0.144	0.005
-166.852	-43.678	-0.178	0.088
-165.837	-200.000	0.007	-0.179
-164.823	-63.150	-0.140	-0.057
-163.808	446.035	0.076	-0.164
-162.793	175.964	-0.139	-0.198
-161.779	800.000	0.088	-0.259
-160.764	8.059	-0.066	0.049
-159.750	-200.000	0.014	-0.222
-158.735	800.000	0.080	-0.270
-157.720	186.480	-0.144	-0.211
-156.706	-200.000	0.324	0.001
-155.691	800.000	-0.080	0.296
-154.677	85.899	-0.038	-0.041
-153.662	-46.959	0.291	-0.139
-152.647	623.867	0.049	-0.122
-151.633	268.550	-0.109	0.188
-150.618	800.000	0.038	-0.112
-149.604	-50.924	-0.276	-0.127
-148.589	800.000	-0.037	0.123
-147.574	-125.833	0.230	-0.034
-146.560	-43.037	0.174	0.087
-145.545	28.032	-0.278	0.230
-144.531	-96.099	0.022	0.006
-143.516	-48.374	0.018	0.009
-142.502	300.765	-0.054	-0.097
-141.487	-125.948	-0.221	-0.033
-140.472	41.753	0.260	0.231
-139.458	-158.693	0.196	-0.011
-138.443	299.345	0.149	0.268
-137.429	800.000	0.094	0.359
-136.414	-200.000	-0.039	0.323
-135.399	126.092	-0.177	0.219
-134.385	-177.436	-0.270	0.006
-133.370	5.925	-0.279	0.202
-132.356	800.000	-0.055	-0.198
-131.341	168.233	0.144	-0.200
-130.326	-55.522	-0.228	-0.100
-129.312	253.386	-0.080	-0.135
-128.297	-26.470	0.271	-0.155
-127.283	49.472	-0.126	0.116
-126.268	239.317	-0.202	0.330
-125.253	500.307	0.125	0.283
-124.239	-49.781	-0.172	-0.080
-123.224	763.353	0.020	0.054
-122.210	-200.000	-0.072	0.323
-121.195	-77.024	0.154	0.053
