DTS Sentinel unit serial number:	SN413079Multiplexer serial number:	ORYXHardware model number:	OX4-SRSoftware version number:	ORYX F/W v4.00 Oryx Data Collector v3.7.2.0data status	okinstallation	princeton_trtdifferential loss correction	single-endedforward channel	channel 3reverse channel	N/Adate	2019/09/18time	02:16:35forward acquisition time	60.00reverse acquisition time	0.00gamma	496.2192k internal	0.2344k external	0.2344temperature offset calibration	0.9952default loss term (dB/km)	0.3790temperature slope calibration	1.0000multiplexer offset coefficient	1.0000multiplexer slope coefficient	1.0000fibre end	0.00T internal ref (°C)	22.81T ext. ref 1 (°C)	0.16T ext. ref 2 (°C)	16.75length (m)	temperature (°C)	Stokes	anti-Stokes-747.200	-72.837	-0.284	-0.104
-746.185	264.843	-0.050	0.087
-745.171	488.403	0.053	-0.122
-744.156	-4.483	-0.290	0.201
-743.142	12.281	-0.057	-0.044
-742.127	80.150	-0.110	0.119
-741.112	455.688	0.232	-0.514
-740.098	-43.887	-0.200	0.101
-739.083	203.977	0.048	0.074
-738.069	257.055	-0.204	0.351
-737.054	-200.000	-0.012	0.089
-736.039	800.000	0.049	-0.177
-735.025	-91.923	0.247	0.070
-734.010	107.523	-0.125	0.149
-732.996	8.546	-0.073	-0.055
-731.981	-200.000	0.048	-0.213
-730.966	-162.567	-0.192	0.009
-729.952	334.864	0.201	-0.389
-728.937	-64.325	-0.242	-0.099
-727.923	274.905	-0.140	-0.249
-726.908	-14.046	-0.082	0.053
-725.894	214.225	0.124	-0.197
-724.879	5.590	0.190	-0.141
-723.864	-200.000	0.048	0.265
-722.850	-32.427	-0.274	-0.153
-721.835	73.168	-0.095	-0.099
-720.821	-200.000	-0.061	-0.287
-719.806	12.941	-0.197	0.152
-718.791	-54.548	0.156	0.071
-717.777	337.867	0.207	-0.402
-716.762	11.636	-0.270	0.207
-715.748	-76.747	0.220	-0.077
-714.733	-157.943	-0.379	-0.022
-713.718	302.692	0.161	-0.297
-712.704	-200.000	-0.331	-0.000
-711.689	-70.983	0.073	-0.028
-710.675	800.000	0.034	-0.134
-709.660	452.443	0.095	-0.209
-708.645	800.000	0.094	0.355
-707.631	206.080	-0.154	-0.239
-706.616	-200.000	-0.016	-0.285
-705.602	-200.000	0.020	-0.110
-704.587	-200.000	0.007	-0.106
-703.572	-200.000	-0.042	-0.195
-702.558	192.363	-0.110	0.165
-701.543	79.019	0.072	0.077
-700.529	-200.000	-0.022	0.100
-699.514	423.261	0.193	0.414
-698.499	-200.000	0.004	-0.053
-697.485	-161.449	-0.157	0.008
-696.470	-61.015	0.112	0.047
-695.456	98.260	0.177	-0.203
-694.441	-200.000	-0.002	0.122
-693.426	381.861	0.109	-0.223
-692.412	176.030	-0.099	-0.144
-691.397	-184.469	-0.125	-0.002
-690.383	47.062	-0.177	-0.164
-689.368	-200.000	0.029	-0.185
-688.354	-135.588	-0.339	0.040
-687.339	-32.690	-0.087	0.048
-686.324	-166.512	0.087	-0.004
-685.310	126.418	0.148	0.187
-684.295	-200.000	-0.051	-0.229
-683.281	-80.928	-0.179	0.059
-682.266	-200.000	0.074	-0.377
-681.251	-200.000	-0.019	-0.241
-680.237	168.409	-0.100	0.143
-679.222	-24.346	-0.167	-0.099
-678.208	800.000	-0.062	0.242
-677.193	-164.780	-0.445	-0.020
-676.178	70.991	0.094	0.097
-675.164	-6.028	-0.119	-0.081
-674.149	5.758	-0.141	-0.104
-673.135	-200.000	0.052	0.274
-672.120	693.915	-0.011	-0.030
-671.105	-134.866	-0.223	0.027
-670.091	-47.192	-0.266	0.129
-669.076	508.435	0.049	-0.114
-668.062	-200.000	0.015	0.225
-667.047	19.369	0.048	-0.038
-666.032	546.392	-0.069	0.164
-665.018	-44.426	0.079	0.039
-664.003	-155.764	0.055	0.004
-662.989	130.280	0.064	-0.081
-661.974	-125.011	-0.280	0.043
-660.959	200.754	0.034	0.052
-659.945	800.000	0.013	-0.038
-658.930	800.000	0.137	-0.402
-657.916	-75.990	-0.258	-0.091
-656.901	800.000	0.053	0.155
-655.886	25.940	0.214	0.178
-654.872	379.073	0.020	0.040
-653.857	53.600	0.233	-0.223
-652.843	-200.000	0.015	0.196
-651.828	236.973	0.004	-0.006
-650.814	-200.000	-0.002	-0.077
-649.799	-40.210	-0.126	0.065
-648.784	-43.401	-0.622	-0.313
-647.770	-20.021	0.194	-0.119
-646.755	273.773	-0.055	-0.097
-645.741	-200.000	-0.013	0.160
-644.726	29.249	-0.056	-0.047
-643.711	-200.000	-0.030	0.280
-642.697	189.416	-0.106	-0.158
-641.682	3.902	0.046	-0.033
-640.668	54.967	-0.107	-0.103
-639.653	-200.000	-0.012	0.129
-638.638	578.917	-0.080	-0.196
-637.624	-74.982	-0.164	-0.058
-636.609	84.928	-0.061	-0.067
-635.595	-200.000	0.014	0.231
-634.580	20.247	0.201	0.162
-633.565	266.727	-0.117	-0.205
-632.551	715.715	0.026	0.068
-631.536	-83.802	0.351	0.111
-630.522	-45.077	-0.099	0.049
-629.507	97.702	0.002	-0.003
-628.492	29.387	-0.137	0.116
-627.478	-110.248	-0.340	-0.070
-626.463	-86.857	-0.293	0.089
-625.449	128.859	0.116	-0.148
-624.434	800.000	0.050	-0.193
-623.419	613.811	0.066	0.165
-622.405	-200.000	-0.073	0.361
-621.390	800.000	0.006	0.020
-620.376	486.883	0.060	-0.136
-619.361	-107.152	-0.159	0.035
-618.346	800.000	0.073	0.202
-617.332	800.000	0.041	-0.157
-616.317	12.280	-0.288	0.221
-615.303	-144.393	0.280	0.026
-614.288	-200.000	0.000	-0.200
-613.273	209.394	-0.049	0.076
-612.259	98.080	0.055	0.063
-611.244	-200.000	-0.079	-0.401
-610.230	-40.083	0.135	0.070
-609.215	-163.264	-0.120	-0.006
-608.201	-92.276	0.212	-0.060
-607.186	452.868	-0.116	-0.255
-606.171	-200.000	0.044	-0.259
-605.157	-8.832	-0.199	-0.133
-604.142	-73.983	0.175	0.063
-603.128	-31.160	-0.059	-0.033
-602.113	-108.610	0.244	-0.052
-601.098	-162.282	-0.077	0.004
-600.084	-113.467	-0.327	-0.064
-599.069	48.711	-0.310	-0.289
-598.055	102.706	0.134	-0.156
-597.040	126.702	0.147	0.185
-596.025	326.520	-0.133	-0.254
-595.011	254.449	0.123	-0.209
-593.996	65.153	0.140	-0.141
-592.982	120.416	0.104	0.129
-591.967	-200.000	0.042	0.302
-590.952	800.000	0.053	0.230
-589.938	287.842	0.052	-0.094
-588.923	650.050	-0.035	-0.090
-587.909	452.886	0.029	0.065
-586.894	-91.057	-0.031	-0.009
-585.879	75.783	-0.079	-0.083
-584.865	-104.466	-0.173	0.040
-583.850	-131.247	0.261	0.035
-582.836	255.901	-0.066	0.113
-581.821	-93.649	0.212	-0.058
-580.806	-194.736	-0.183	0.001
-579.792	149.421	-0.093	-0.125
-578.777	-30.833	0.119	-0.067
-577.763	-142.588	0.209	0.020
-576.748	209.364	-0.162	-0.252
-575.733	-168.175	-0.210	-0.008
-574.719	-86.825	-0.192	-0.058
-573.704	14.549	0.220	-0.170
-572.690	-71.122	-0.085	-0.032
-571.675	533.045	0.088	-0.207
-570.661	-61.409	-0.120	0.050
-569.646	406.568	-0.008	0.016
-568.631	132.860	-0.047	0.060
-567.617	10.197	0.053	0.040
-566.602	800.000	-0.049	-0.137
-565.588	-10.524	0.163	-0.107
-564.573	-97.619	-0.286	-0.074
-563.558	-58.023	-0.054	0.023
-562.544	49.981	-0.103	0.096
-561.529	-200.000	-0.001	-0.200
-560.515	-200.000	-0.037	0.294
-559.500	800.000	-0.132	0.424
-558.485	-137.680	-0.046	-0.005
-557.471	69.078	0.140	0.143
-556.456	800.000	-0.064	-0.198
-555.442	-24.684	0.119	-0.070
-554.427	800.000	0.065	-0.245
-553.412	309.116	0.080	0.148
-552.398	232.001	-0.088	-0.143
-551.383	-200.000	-0.004	0.207
-550.369	93.569	0.074	-0.084
-549.354	-78.983	-0.234	0.079
-548.339	-200.000	0.109	-0.583
-547.325	-65.166	-0.296	0.118
-546.310	800.000	0.081	-0.248
-545.296	37.141	-0.295	-0.259
-544.281	-40.643	-0.396	0.204
-543.266	-140.279	0.229	0.024
-542.252	-200.000	-0.008	0.261
-541.237	-140.937	-0.098	0.010
-540.223	126.479	-0.092	0.116
-539.208	-148.836	-0.534	-0.043
-538.193	370.862	0.200	0.403
-537.179	-200.000	0.027	-0.262
-536.164	-25.308	0.073	0.043
-535.150	-42.572	-0.262	-0.132
-534.135	800.000	-0.079	0.335
-533.121	328.619	0.036	0.068
-532.106	11.179	0.332	-0.252
-531.091	309.183	0.095	-0.177
-530.077	345.621	0.151	-0.294
-529.062	-200.000	-0.033	0.176
-528.048	-200.000	-0.029	-0.222
-527.033	-200.000	0.001	-0.032
-526.018	-92.148	0.237	-0.066
-525.004	162.180	0.211	-0.294
-523.989	800.000	-0.135	-0.429
-522.975	800.000	0.116	0.340
-521.960	-104.354	0.228	-0.052
-520.945	-121.964	-0.156	-0.025
-519.931	800.000	-0.027	-0.115
-518.916	-56.131	-0.142	-0.063
-517.902	629.458	-0.164	-0.410
-516.887	-200.000	-0.005	-0.211
-515.872	-103.838	0.069	0.016
-514.858	800.000	0.030	0.104
-513.843	64.935	-0.253	-0.253
-512.829	-200.000	-0.007	0.151
-511.814	-200.000	0.058	-0.306
-510.799	-112.334	0.074	0.015
-509.785	553.203	0.075	0.178
-508.770	-149.327	-0.236	-0.019
-507.756	684.151	0.081	0.209
-506.741	170.957	0.068	0.097
-505.726	-120.306	0.321	0.054
-504.712	-123.614	0.427	-0.067
-503.697	800.000	-0.079	0.228
-502.683	6.301	-0.130	-0.096
-501.668	800.000	-0.029	-0.112
-500.653	675.077	0.104	0.269
-499.639	-76.372	-0.178	0.062
-498.624	184.848	0.106	-0.155
-497.610	-115.292	0.312	-0.058
-496.595	-200.000	-0.018	0.217
-495.581	-30.660	-0.247	0.139
-494.566	800.000	-0.080	0.344
-493.551	800.000	-0.049	-0.199
-492.537	0.907	0.478	0.339
-491.522	-2.111	-0.254	-0.177
-490.508	-85.685	0.373	0.115
-489.493	800.000	-0.030	0.124
-488.478	-80.424	-0.272	0.090
-487.464	148.337	0.242	0.323
-486.449	-99.395	0.293	-0.073
-485.435	-139.593	-0.181	0.019
-484.420	800.000	-0.037	0.157
-483.405	16.799	0.121	-0.095
-482.391	43.201	0.152	-0.137
-481.376	21.859	0.192	0.155
-480.362	613.317	0.010	-0.025
-479.347	-200.000	-0.033	-0.167
-478.332	48.770	0.062	-0.058
-477.318	-200.000	0.051	0.254
-476.303	-91.423	0.121	-0.034
-475.289	800.000	-0.026	-0.081
-474.274	517.366	0.104	-0.240
-473.259	-200.000	-0.101	0.443
-472.245	-200.000	-0.030	0.240
-471.230	-119.346	0.245	-0.042
-470.216	5.593	-0.267	0.195
-469.201	212.440	0.142	0.221
-468.186	187.752	-0.190	0.281
-467.172	-7.023	0.109	-0.073
-466.157	800.000	-0.093	-0.282
-465.143	-62.006	0.059	-0.024
-464.128	174.435	0.098	0.140
-463.113	-200.000	0.033	-0.164
-462.099	266.947	-0.096	-0.166
-461.084	-200.000	0.075	-0.369
-460.070	344.853	-0.077	-0.149
-459.055	-85.439	0.170	-0.052
-458.040	-75.842	0.165	0.058
-457.026	-28.705	0.065	0.037
-456.011	15.727	0.065	0.051
-454.997	-200.000	0.036	0.241
-453.982	-200.000	0.051	-0.321
-452.968	-38.809	0.172	0.090
-451.953	800.000	0.096	0.310
-450.938	-50.740	-0.071	0.033
-449.924	-69.855	-0.181	-0.068
-448.909	218.244	-0.030	0.048
-447.895	-30.501	0.140	0.078
-446.880	-8.436	-0.266	0.177
-445.865	712.693	0.062	0.162
-444.851	305.282	-0.084	0.154
-443.836	-169.690	-0.065	-0.002
-442.822	800.000	0.081	0.325
-441.807	-15.765	0.067	-0.042
-440.792	-110.997	0.199	0.040
-439.778	-55.334	0.090	0.040
-438.763	-119.155	-0.048	0.008
-437.749	-200.000	-0.008	0.052
-436.734	-75.637	-0.044	0.015
-435.719	627.783	0.072	0.179
-434.705	-6.168	0.269	-0.182
-433.690	33.633	-0.201	-0.173
-432.676	800.000	-0.082	-0.302
-431.661	-19.044	-0.284	-0.175
-430.646	132.847	-0.093	-0.118
-429.632	61.218	0.050	0.049
-428.617	-22.281	0.154	0.092
-427.603	497.322	-0.056	0.128
-426.588	-116.091	-0.070	-0.013
-425.573	-200.000	-0.004	0.388
-424.559	-108.795	-0.150	0.032
-423.544	-64.685	0.156	-0.062
-422.530	191.838	-0.142	-0.211
-421.515	-91.358	0.142	-0.040
-420.500	-200.000	-0.028	0.433
-419.486	-154.623	-0.023	0.002
-418.471	-200.000	0.047	0.314
-417.457	-34.501	-0.393	0.213
-416.442	-120.860	0.287	0.048
-415.428	-145.114	0.054	-0.005
-414.413	800.000	-0.108	-0.311
-413.398	-200.000	-0.045	0.266
-412.384	32.732	0.180	0.154
-411.369	-200.000	-0.021	-0.135
-410.355	-72.923	-0.417	-0.151
-409.340	-129.881	-0.096	0.013
-408.325	286.217	0.114	-0.203
-407.311	-200.000	0.040	-0.187
-406.296	-200.000	0.021	-0.159
-405.282	800.000	0.052	-0.157
-404.267	-112.865	-0.516	-0.101
-403.252	-200.000	0.019	0.090
-402.238	-200.000	0.043	0.334
-401.223	388.412	-0.138	-0.282
-400.209	300.836	0.078	-0.143
-399.194	-200.000	-0.003	-0.134
-398.179	800.000	0.040	0.148
-397.165	460.557	-0.132	0.290
-396.150	514.610	0.142	-0.328
-395.136	125.243	0.225	-0.280
-394.121	800.000	-0.057	0.244
-393.106	-7.130	0.118	0.079
-392.092	-15.596	-0.382	0.241
-391.077	97.503	0.192	0.218
-390.063	-14.475	0.157	0.100
-389.048	-137.204	0.323	0.036
-388.033	305.961	-0.173	-0.318
-387.019	-0.103	0.080	-0.056
-386.004	302.620	-0.077	0.141
-384.990	-86.881	0.246	0.074
-383.975	-88.573	0.141	-0.041
-382.960	-64.743	0.298	-0.119
-381.946	-89.718	0.160	0.046
-380.931	-29.795	-0.239	-0.135
-379.917	28.736	-0.082	0.068
-378.902	-100.620	-0.163	0.040
-377.888	-57.969	0.126	0.054
-376.873	-200.000	-0.006	-0.279
-375.858	143.168	0.216	0.284
-374.844	110.048	-0.180	0.213
-373.829	-133.704	-0.017	-0.002
-372.815	201.959	0.127	0.193
-371.800	-18.241	-0.078	0.048
-370.785	-136.672	-0.346	0.039
-369.771	7.509	-0.102	0.075
-368.756	83.677	-0.257	0.276
-367.742	306.411	0.108	0.198
-366.727	-89.948	0.339	0.098
-365.712	66.191	-0.230	0.231
-364.698	-118.905	-0.056	0.010
-363.683	12.723	0.069	0.052
-362.669	-90.649	-0.194	-0.055
-361.654	800.000	0.067	0.262
-360.639	50.946	-0.179	0.167
-359.625	-102.374	0.224	-0.053
-358.610	-200.000	-0.001	-0.168
-357.596	-119.067	0.142	-0.024
-356.581	800.000	-0.072	-0.196
-355.566	779.137	-0.055	-0.149
-354.552	-48.124	0.255	-0.121
-353.537	-27.019	-0.098	-0.056
-352.523	339.713	0.156	0.300
-351.508	-18.873	-0.292	0.179
-350.493	-200.000	-0.017	0.126
-349.479	-29.984	-0.272	-0.153
-348.464	-55.963	-0.110	-0.048
-347.450	-200.000	-0.077	0.357
-346.435	800.000	-0.076	-0.218
-345.420	69.221	-0.217	-0.220
-344.406	23.919	-0.098	0.079
-343.391	69.748	-0.189	0.192
-342.377	-140.906	0.432	0.044
-341.362	-92.179	0.276	-0.077
-340.348	800.000	-0.081	0.315
-339.333	87.755	0.059	0.065
-338.318	800.000	-0.067	0.207
-337.304	-170.010	0.234	-0.008
-336.289	-200.000	0.050	-0.243
-335.275	-200.000	0.003	0.051
-334.260	-129.204	-0.232	0.032
-333.245	57.901	0.192	-0.185
-332.231	-12.086	-0.364	-0.235
-331.216	-151.139	0.057	0.004
-330.202	-123.382	-0.419	-0.066
-329.187	800.000	0.035	-0.140
-328.172	126.360	-0.121	-0.151
-327.158	265.969	0.154	0.265
-326.143	42.496	0.062	-0.056
-325.129	136.527	0.049	0.063
-324.114	800.000	0.050	0.178
-323.099	-31.535	-0.211	-0.117
-322.085	472.496	-0.107	0.237
-321.070	93.028	0.104	-0.115
-320.056	-170.849	0.139	-0.005
-319.041	800.000	0.031	0.088
-318.026	775.821	-0.095	-0.255
-317.012	42.462	-0.243	-0.218
-315.997	-87.527	0.088	-0.026
-314.983	-10.875	0.195	0.127
-313.968	-126.677	0.168	0.024
-312.953	29.977	-0.222	-0.186
-311.939	508.617	-0.127	-0.291
-310.924	-78.431	0.087	0.029
-309.910	11.527	0.164	0.124
-308.895	294.858	-0.095	0.171
-307.880	427.343	-0.042	-0.088
-306.866	41.024	0.349	0.310
-305.851	319.831	0.097	0.182
-304.837	-200.000	0.015	-0.073
-303.822	-200.000	0.013	-0.129
-302.807	-200.000	-0.056	-0.358
-301.793	392.130	-0.035	-0.072
-300.778	-62.723	-0.175	0.071
-299.764	-186.178	0.421	-0.006
-298.749	800.000	0.098	0.282
-297.735	-200.000	-0.016	0.278
-296.720	-131.573	-0.315	0.041
-295.705	-84.133	-0.239	-0.075
-294.691	3.402	-0.092	0.066
-293.676	181.508	-0.177	-0.256
-292.662	130.073	-0.241	-0.303
-291.647	-200.000	-0.003	-0.122
-290.632	-200.000	0.043	-0.219
-289.618	800.000	-0.029	0.119
-288.603	-200.000	-0.033	-0.319
-287.589	-56.949	-0.102	0.044
-286.574	-139.877	-0.041	-0.004
-285.559	74.673	0.162	-0.167
-284.545	604.868	-0.038	-0.093
-283.530	163.979	0.048	0.067
-282.516	-200.000	0.049	-0.283
-281.501	97.155	-0.201	-0.227
-280.486	-200.000	0.001	0.418
-279.472	-88.619	-0.187	-0.055
-278.457	-51.524	0.201	-0.092
-277.443	487.665	-0.050	0.113
-276.428	800.000	0.064	0.201
-275.413	-200.000	-0.029	-0.199
-274.399	-200.000	0.023	0.100
-273.384	-200.000	-0.035	-0.428
-272.370	7.142	0.237	0.174
-271.355	-200.000	0.023	0.146
-270.340	800.000	0.028	-0.103
-269.326	-124.676	0.230	0.035
-268.311	-200.000	0.004	-0.096
-267.297	268.204	-0.017	0.030
-266.282	-104.463	0.259	0.059
-265.267	-142.526	0.243	-0.023
-264.253	-84.205	-0.129	0.040
-263.238	-126.432	-0.354	-0.052
-262.224	-200.000	0.011	0.191
-261.209	800.000	0.051	-0.200
-260.195	-57.373	0.439	0.189
-259.180	-145.849	-0.236	0.021
-258.165	111.206	-0.150	-0.178
-257.151	708.061	0.046	0.120
-256.136	152.969	0.180	0.242
-255.122	23.412	0.060	-0.048
-254.107	224.919	-0.052	0.083
-253.092	4.775	0.170	0.123
-252.078	-63.904	-0.180	-0.072
-251.063	-54.608	0.305	0.136
-250.049	28.402	-0.197	0.164
-249.034	-200.000	0.032	-0.168
-248.019	-200.000	-0.002	0.051
-247.005	-159.850	-0.222	0.012
-245.990	261.831	0.218	-0.371
-244.976	-3.339	-0.076	0.052
-243.961	-35.362	-0.395	0.211
-242.946	17.970	0.240	-0.187
-241.932	-187.783	0.525	-0.007
-240.917	182.934	0.121	-0.175
-239.903	800.000	0.101	-0.296
-238.888	-160.784	-0.187	0.010
-237.873	-200.000	0.023	-0.236
-236.859	487.496	-0.153	-0.342
-235.844	77.432	0.225	-0.235
-234.830	43.078	0.178	0.160
-233.815	-130.821	-0.371	-0.049
-232.800	275.271	-0.155	-0.270
-231.786	-200.000	0.013	0.376
-230.771	235.198	0.201	-0.325
-229.757	65.208	0.222	-0.220
-228.742	-200.000	0.049	0.263
-227.727	800.000	-0.026	-0.073
-226.713	-162.519	-0.096	0.005
-225.698	67.852	0.084	0.085
-224.684	-104.855	0.201	0.045
-223.669	-200.000	0.016	-0.076
-222.655	-200.000	-0.017	0.176
-221.640	-5.427	-0.129	0.087
-220.625	9.988	-0.285	-0.212
-219.611	800.000	-0.030	0.125
-218.596	551.251	-0.173	0.408
-217.582	-113.052	-0.121	-0.023
-216.567	-189.416	0.458	0.005
-215.552	241.463	0.071	0.116
-214.538	179.267	0.110	-0.157
-213.523	-200.000	0.004	0.180
-212.509	-51.728	0.297	-0.136
-211.494	-94.759	-0.450	-0.120
-210.479	-200.000	0.038	-0.331
-209.465	61.595	0.093	0.090
-208.450	800.000	-0.056	-0.186
-207.436	-22.369	0.266	-0.158
-206.421	-137.358	0.394	-0.044
-205.406	384.865	-0.147	-0.296
-204.392	800.000	0.105	0.311
-203.377	191.935	0.089	-0.131
-202.363	-38.776	-0.223	0.115
-201.348	-143.457	-0.150	-0.014
-200.333	519.868	0.101	-0.231
-199.319	15.886	-0.274	-0.211
-198.304	-79.238	0.096	0.032
-197.290	345.758	-0.031	-0.059
-196.275	-66.137	0.116	0.045
-195.260	-5.895	0.173	0.116
-194.246	-118.854	-0.084	0.014
-193.231	61.667	-0.173	0.169
-192.217	358.558	-0.193	0.378
-191.202	238.914	-0.057	-0.093
-190.187	-0.794	0.051	0.036
-189.173	-15.008	-0.017	-0.011
-188.158	-101.930	-0.102	-0.024
-187.144	178.096	0.200	0.285
-186.129	-200.000	0.001	0.183
-185.114	-40.704	0.253	0.128
-184.100	262.262	-0.048	0.081
-183.085	-54.505	0.216	-0.096
-182.071	284.043	-0.075	-0.133
-181.056	-200.000	-0.044	-0.215
-180.042	-103.375	-0.214	-0.049
-179.027	-154.190	0.169	-0.011
-178.012	-68.015	-0.231	-0.088
-176.998	-153.338	-0.341	-0.023
-175.983	60.249	0.069	-0.067
-174.969	24.898	-0.186	-0.151
-173.954	-200.000	0.021	0.371
-172.939	-32.585	-0.129	0.070
-171.925	568.860	-0.031	0.073
-170.910	-136.351	0.088	0.010
-169.896	505.829	-0.096	0.217
-168.881	800.000	0.080	0.331
-167.866	-97.857	0.266	0.067
-166.852	-85.226	0.062	0.019
-165.837	47.422	-0.147	0.134
-164.823	753.781	0.020	-0.054
-163.808	-134.062	-0.085	-0.010
-162.793	-96.763	0.224	-0.058
-161.779	-1.384	0.159	0.110
-160.764	-90.596	-0.067	-0.019
-159.750	-173.175	-0.345	-0.010
-158.735	-103.896	0.158	0.036
-157.720	-7.684	0.130	-0.086
-156.706	160.852	0.157	0.215
-155.691	-86.918	0.134	0.040
-154.677	-66.437	-0.082	0.032
-153.662	-63.564	0.178	0.072
-152.647	-26.964	0.229	0.130
-151.633	34.713	0.027	0.023
-150.618	741.436	-0.075	-0.198
-149.604	581.005	0.149	0.358
-148.589	505.270	-0.203	-0.461
-147.574	-152.981	-0.396	-0.027
-146.560	344.356	-0.028	0.053
-145.545	191.737	0.098	0.144
-144.531	44.077	0.423	0.379
-143.516	494.304	0.083	-0.186
-142.502	-53.532	-0.096	-0.043
-141.487	-32.102	0.353	0.193
-140.472	59.401	-0.199	0.191
-139.458	-200.000	0.007	0.134
-138.443	-76.537	0.366	-0.126
-137.429	-109.141	-0.096	0.020
-136.414	16.247	-0.048	-0.037
-135.399	-124.199	0.165	-0.025
-134.385	299.846	0.107	-0.193
-133.370	-36.023	-0.161	0.085
-132.356	219.206	-0.233	0.364
-131.341	-132.336	-0.266	-0.034
-130.326	-125.322	0.192	0.029
-129.312	494.232	0.140	0.314
-128.297	98.906	-0.100	-0.113
-127.283	-200.000	-0.036	0.164
-126.268	94.612	-0.135	0.150
-125.253	49.994	0.118	0.108
-124.239	-200.000	-0.018	-0.227
-123.224	-200.000	0.046	-0.395
-122.210	367.287	0.115	-0.227
-121.195	72.606	-0.111	-0.113
