DTS Sentinel unit serial number:	SN413079Multiplexer serial number:	ORYXHardware model number:	OX4-SRSoftware version number:	ORYX F/W v4.00 Oryx Data Collector v3.7.2.0data status	okinstallation	princeton_trtdifferential loss correction	single-endedforward channel	channel 3reverse channel	N/Adate	2019/09/13time	04:36:34forward acquisition time	60.00reverse acquisition time	0.00gamma	496.2192k internal	0.2337k external	0.2337temperature offset calibration	1.0135default loss term (dB/km)	0.3790temperature slope calibration	1.0000multiplexer offset coefficient	1.0000multiplexer slope coefficient	1.0000fibre end	0.00T internal ref (°C)	26.67T ext. ref 1 (°C)	4.05T ext. ref 2 (°C)	21.19length (m)	temperature (°C)	Stokes	anti-Stokes-747.200	800.000	0.098	0.358
-746.185	-92.546	-0.254	-0.072
-745.171	-200.000	-0.019	-0.156
-744.156	215.983	0.157	0.251
-743.142	-200.000	-0.002	-0.043
-742.127	-147.875	-0.351	0.029
-741.112	-87.304	0.178	-0.054
-740.098	800.000	0.020	-0.064
-739.083	800.000	0.101	0.340
-738.069	-40.990	-0.100	-0.052
-737.054	-62.180	-0.157	0.066
-736.039	-82.955	-0.415	0.134
-735.025	800.000	0.126	0.373
-734.010	356.688	0.138	0.277
-732.996	61.855	-0.206	0.206
-731.981	800.000	-0.063	0.235
-730.966	800.000	-0.101	0.286
-729.952	6.492	-0.237	-0.177
-728.937	82.575	-0.149	-0.162
-727.923	21.796	-0.159	-0.130
-726.908	-56.642	-0.425	0.189
-725.894	99.401	-0.059	-0.068
-724.879	24.393	-0.148	-0.123
-723.864	800.000	0.103	0.414
-722.850	-68.669	0.201	-0.078
-721.835	-200.000	-0.089	-0.418
-720.821	-79.172	0.172	-0.059
-719.806	444.084	-0.059	0.130
-718.791	-200.000	-0.021	0.173
-717.777	239.483	0.126	0.210
-716.762	-148.400	0.088	0.007
-715.748	46.267	-0.164	0.153
-714.733	10.341	-0.234	-0.179
-713.718	800.000	-0.064	0.234
-712.704	-149.388	-0.399	-0.032
-711.689	-149.399	0.100	-0.008
-710.675	-44.987	0.389	-0.194
-709.660	-177.421	-0.442	0.011
-708.645	708.160	-0.167	0.442
-707.631	-200.000	-0.005	0.439
-706.616	-200.000	0.003	-0.046
-705.602	650.472	-0.089	0.228
-704.587	185.592	0.078	0.116
-703.572	-117.560	-0.136	-0.025
-702.558	-200.000	0.254	0.001
-701.543	-63.901	-0.318	0.130
-700.529	-7.511	0.139	-0.094
-699.514	-165.225	0.166	-0.007
-698.499	86.958	0.198	-0.220
-697.485	800.000	-0.099	-0.316
-696.470	-38.767	0.201	-0.106
-695.456	-200.000	-0.048	-0.269
-694.441	800.000	-0.087	-0.252
-693.426	-34.055	-0.144	-0.080
-692.412	-68.929	0.172	-0.067
-691.397	-76.655	-0.143	-0.050
-690.383	56.598	-0.147	-0.143
-689.368	-200.000	0.029	-0.241
-688.354	-187.466	0.069	-0.001
-687.339	143.168	-0.021	-0.028
-686.324	-148.588	0.251	-0.021
-685.310	313.783	-0.110	-0.208
-684.295	-20.682	0.087	-0.053
-683.281	-11.907	-0.189	0.124
-682.266	-1.491	0.097	0.068
-681.251	-158.123	-0.211	-0.012
-680.237	204.028	0.170	0.263
-679.222	-71.348	-0.353	-0.132
-678.208	-200.000	-0.017	0.288
-677.193	60.956	-0.189	0.188
-676.178	722.258	0.097	0.257
-675.164	-37.180	-0.296	0.159
-674.149	88.707	-0.149	-0.166
-673.135	-27.743	0.147	-0.085
-672.120	-200.000	0.037	0.189
-671.105	-72.228	0.104	0.039
-670.091	-111.626	-0.140	-0.028
-669.076	344.727	0.139	-0.272
-668.062	-200.000	-0.013	-0.247
-667.047	178.991	-0.057	0.083
-666.032	560.506	0.071	-0.172
-665.018	-123.127	0.133	0.021
-664.003	31.393	0.134	-0.115
-662.989	650.227	-0.077	0.198
-661.974	-97.839	0.223	0.058
-660.959	8.875	-0.286	-0.216
-659.945	-59.306	-0.582	0.251
-658.930	-200.000	0.018	0.089
-657.916	-93.498	-0.216	0.060
-656.901	-200.000	0.008	0.316
-655.886	422.395	0.094	0.203
-654.872	800.000	-0.018	0.069
-653.857	775.292	0.026	-0.072
-652.843	-78.293	-0.382	0.131
-651.828	-3.672	-0.065	0.045
-650.814	-48.147	0.226	0.109
-649.799	-41.803	0.091	-0.047
-648.784	23.667	-0.082	0.067
-647.770	-99.317	0.025	-0.006
-646.755	-200.000	-0.000	-0.213
-645.741	-200.000	0.005	0.281
-644.726	-51.422	-0.440	-0.206
-643.711	-200.000	-0.020	0.192
-642.697	327.930	0.041	-0.079
-641.682	-52.876	-0.227	0.104
-640.668	353.487	0.145	0.288
-639.653	-79.368	0.274	0.093
-638.638	20.245	-0.206	0.167
-637.624	-27.360	0.422	0.246
-636.609	22.655	0.363	0.297
-635.595	-100.017	-0.077	0.019
-634.580	-33.664	-0.256	0.141
-633.565	800.000	-0.031	-0.123
-632.551	7.414	-0.151	-0.113
-631.536	42.225	0.337	-0.306
-630.522	107.290	-0.121	0.144
-629.507	-75.468	0.391	-0.139
-628.492	-51.296	-0.188	-0.088
-627.478	-19.276	-0.191	-0.118
-626.463	69.540	-0.095	0.098
-625.449	645.167	0.080	-0.204
-624.434	-132.987	0.144	-0.018
-623.419	47.992	-0.051	0.047
-622.405	-112.448	0.121	0.024
-621.390	-200.000	-0.032	-0.192
-620.376	-15.979	-0.080	0.051
-619.361	-194.091	-0.293	-0.002
-618.346	494.195	0.174	0.398
-617.332	79.801	-0.038	-0.041
-616.317	800.000	-0.033	-0.137
-615.303	249.912	-0.111	0.189
-614.288	800.000	-0.037	-0.118
-613.273	185.200	0.135	0.201
-612.259	-174.706	-0.134	-0.004
-611.244	-175.134	0.205	-0.006
-610.230	800.000	-0.075	0.247
-609.215	707.831	-0.059	-0.156
-608.201	-85.177	-0.310	0.097
-607.186	9.190	-0.154	0.116
-606.171	77.000	0.166	-0.176
-605.157	263.692	0.060	0.104
-604.142	680.520	0.036	0.095
-603.128	-200.000	0.001	-0.062
-602.113	22.704	0.368	0.301
-601.098	-27.012	-0.163	-0.095
-600.084	90.596	-0.133	0.149
-599.069	-193.057	-0.162	0.001
-598.055	682.028	-0.010	0.027
-597.040	-61.370	0.289	0.121
-596.025	76.897	0.113	0.120
-595.011	-200.000	-0.029	-0.279
-593.996	205.760	0.077	0.119
-592.982	800.000	0.035	0.102
-591.967	145.373	-0.170	0.227
-590.952	-93.752	0.319	-0.088
-589.938	800.000	-0.025	0.104
-588.923	116.720	-0.094	0.115
-587.909	0.391	-0.192	0.137
-586.894	-153.637	-0.378	-0.026
-585.879	-94.647	-0.112	0.030
-584.865	208.386	0.166	0.258
-583.850	28.769	0.269	-0.227
-582.836	311.705	-0.113	0.211
-581.821	800.000	-0.084	-0.277
-580.806	186.196	-0.054	0.081
-579.792	-53.902	-0.176	0.080
-578.777	205.341	-0.207	-0.321
-577.763	-30.874	0.251	0.141
-576.748	150.520	0.215	0.291
-575.733	-64.752	-0.096	-0.039
-574.719	49.075	-0.173	0.162
-573.704	213.594	-0.078	0.123
-572.690	-97.357	0.113	-0.029
-571.675	-70.392	0.190	-0.072
-570.661	-100.241	0.283	0.070
-569.646	-70.906	0.216	0.081
-568.631	-92.791	-0.296	0.083
-567.617	260.255	-0.118	0.204
-566.602	-200.000	-0.002	0.216
-565.588	-142.554	-0.237	0.023
-564.573	-120.207	0.199	0.034
-563.558	-13.576	0.053	0.034
-562.544	395.206	0.175	-0.363
-561.529	66.385	0.218	0.221
-560.515	-200.000	0.036	0.193
-559.500	-181.571	0.127	-0.002
-558.485	-110.123	-0.124	-0.026
-557.471	-26.972	-0.179	0.104
-556.456	219.116	0.022	0.036
-555.442	-75.524	0.167	0.059
-554.427	-111.160	-0.116	-0.024
-553.412	-200.000	-0.023	0.206
-552.398	358.794	-0.114	0.226
-551.383	302.153	0.075	-0.138
-550.369	369.052	0.046	0.093
-549.354	188.564	0.052	0.078
-548.339	62.132	0.266	0.264
-547.325	22.539	-0.141	-0.115
-546.310	611.027	-0.094	0.234
-545.296	391.159	0.194	0.402
-544.281	-84.801	0.359	0.113
-543.266	8.177	-0.171	0.128
-542.252	41.600	-0.203	-0.183
-541.237	800.000	-0.074	0.217
-540.223	-20.581	-0.173	0.106
-539.208	102.337	-0.390	-0.454
-538.193	-115.948	-0.326	0.060
-537.179	-200.000	-0.049	0.281
-536.164	91.651	0.037	-0.041
-535.150	-142.327	0.651	0.064
-534.135	-101.813	0.182	-0.044
-533.121	-21.807	0.133	0.080
-532.106	800.000	-0.050	-0.146
-531.091	-108.762	-0.170	0.036
-530.077	29.626	-0.153	0.129
-529.062	-128.006	-0.192	-0.027
-528.048	16.329	-0.119	0.093
-527.033	-15.243	-0.227	0.145
-526.018	77.459	0.079	0.083
-525.004	-200.000	-0.016	-0.106
-523.989	163.562	-0.031	-0.043
-522.975	161.439	0.038	-0.052
-521.960	174.424	0.203	-0.292
-520.945	-137.636	-0.354	-0.040
-519.931	-200.000	0.020	-0.125
-518.916	800.000	0.126	-0.381
-517.902	118.440	0.153	-0.188
-516.887	346.748	-0.145	0.285
-515.872	599.799	-0.105	-0.259
-514.858	-151.835	-0.095	-0.007
-513.843	-53.024	0.124	-0.057
-512.829	-79.880	-0.532	0.178
-511.814	103.490	0.064	-0.074
-510.799	377.800	-0.163	-0.330
-509.785	118.479	0.101	0.123
-508.770	13.081	0.186	-0.143
-507.756	800.000	-0.004	-0.013
-506.741	-200.000	-0.004	-0.137
-505.726	12.060	-0.113	0.087
-504.712	-200.000	0.024	-0.233
-503.697	164.539	-0.009	-0.013
-502.683	-155.440	-0.227	0.015
-501.668	-200.000	0.009	-0.075
-500.653	-3.341	-0.210	-0.146
-499.639	105.755	0.174	0.205
-498.624	169.873	0.236	-0.335
-497.610	-15.020	-0.121	-0.077
-496.595	41.477	0.100	0.090
-495.581	800.000	0.074	-0.210
-494.566	53.438	0.273	0.261
-493.551	550.002	0.040	-0.095
-492.537	-200.000	-0.010	-0.358
-491.522	-200.000	-0.021	-0.123
-490.508	-155.844	-0.114	-0.007
-489.493	800.000	0.098	-0.328
-488.478	-70.420	-0.073	-0.027
-487.464	22.579	0.253	0.206
-486.449	125.576	0.203	-0.255
-485.435	454.329	-0.148	-0.325
-484.420	213.942	0.166	-0.262
-483.405	-138.627	0.431	-0.047
-482.391	-200.000	0.038	0.352
-481.376	-89.174	0.203	0.060
-480.362	-72.845	0.218	-0.080
-479.347	-160.256	0.400	0.021
-478.332	36.368	0.271	-0.237
-477.318	-136.096	-0.232	-0.027
-476.303	800.000	-0.089	-0.331
-475.289	-48.024	0.064	0.031
-474.274	-101.577	-0.124	0.030
-473.259	84.882	-0.147	-0.160
-472.245	495.822	0.023	0.052
-471.230	650.692	-0.109	-0.277
-470.216	-200.000	-0.019	0.246
-469.201	800.000	0.058	0.166
-468.186	-200.000	0.007	0.118
-467.172	-131.309	-0.018	-0.002
-466.157	137.483	0.047	0.061
-465.143	22.093	-0.256	0.207
-464.128	-0.684	-0.336	-0.237
-463.113	159.974	-0.201	-0.278
-462.099	-200.000	0.010	0.350
-461.084	-200.000	0.000	-0.029
-460.070	37.968	0.098	0.086
-459.055	-34.477	-0.189	0.103
-458.040	612.843	0.046	-0.114
-457.026	-200.000	0.033	0.391
-456.011	150.465	-0.067	-0.091
-454.997	65.356	-0.161	0.162
-453.982	-89.842	0.307	-0.089
-452.968	-200.000	-0.005	0.057
-451.953	76.732	0.049	0.052
-450.938	-200.000	-0.028	-0.202
-449.924	-200.000	-0.026	0.422
-448.909	-5.879	-0.346	-0.235
-447.895	41.069	0.041	-0.036
-446.880	-124.652	-0.315	0.048
-445.865	-66.748	0.336	0.132
-444.851	-81.057	-0.017	-0.006
-443.836	-200.000	-0.042	-0.205
-442.822	-169.163	0.269	0.010
-441.807	494.700	0.119	0.271
-440.792	64.924	-0.126	0.126
-439.778	129.989	0.179	-0.227
-438.763	48.101	0.031	-0.029
-437.749	-127.283	-0.361	0.052
-436.734	101.201	0.092	-0.106
-435.719	151.013	-0.027	0.036
-434.705	272.266	-0.133	0.233
-433.690	-200.000	0.022	-0.182
-432.676	29.687	-0.070	-0.059
-431.661	-81.880	-0.355	-0.115
-430.646	-56.001	0.312	0.138
-429.632	-37.799	-0.140	-0.074
-428.617	70.384	0.092	0.094
-427.603	-200.000	0.003	-0.015
-426.588	-200.000	0.040	-0.429
-425.573	-175.317	-0.144	0.004
-424.559	800.000	0.066	-0.274
-423.544	-120.251	0.176	0.030
-422.530	-200.000	0.010	-0.046
-421.515	-200.000	-0.012	0.073
-420.500	-77.966	-0.318	0.109
-419.486	800.000	0.031	-0.087
-418.471	-136.414	-0.083	-0.010
-417.457	123.020	0.117	-0.145
-416.442	-153.527	-0.048	-0.003
-415.428	17.480	0.104	-0.081
-414.413	-200.000	0.026	0.169
-413.398	80.725	-0.188	0.201
-412.384	797.344	-0.129	-0.351
-411.369	-24.841	-0.096	-0.056
-410.355	-53.308	0.029	-0.013
-409.340	-58.339	0.321	0.138
-408.325	-200.000	-0.054	-0.335
-407.311	800.000	-0.023	-0.065
-406.296	451.705	-0.185	-0.405
-405.282	7.476	0.468	-0.347
-404.267	-200.000	0.275	-0.001
-403.252	-107.179	-0.116	0.025
-402.238	294.168	-0.099	-0.179
-401.223	-76.088	0.172	0.060
-400.209	-200.000	0.082	0.412
-399.194	281.916	-0.092	-0.163
-398.179	506.113	-0.062	-0.142
-397.165	-84.934	-0.106	-0.033
-396.150	36.447	0.197	0.172
-395.136	-142.796	-0.172	-0.017
-394.121	800.000	0.053	0.158
-393.106	-84.352	-0.301	0.094
-392.092	-100.498	0.128	-0.031
-391.077	-173.676	0.308	0.009
-390.063	381.569	-0.028	-0.057
-389.048	-200.000	0.013	0.238
-388.033	395.423	-0.095	-0.195
-387.019	-200.000	0.091	-0.503
-386.004	800.000	-0.041	-0.136
-384.990	-97.709	0.165	-0.042
-383.975	-48.786	-0.239	-0.114
-382.960	4.606	-0.137	-0.099
-381.946	411.336	-0.111	-0.234
-380.931	6.857	-0.207	-0.152
-379.917	613.406	-0.088	0.218
-378.902	567.857	-0.034	-0.083
-377.888	208.039	0.159	0.245
-376.873	800.000	0.042	0.137
-375.858	-93.957	-0.113	0.031
-374.844	255.650	0.195	-0.330
-373.829	-200.000	0.017	-0.095
-372.815	800.000	0.005	0.014
-371.800	332.521	-0.243	0.465
-370.785	262.608	-0.226	-0.387
-369.771	36.102	-0.183	-0.159
-368.756	-200.000	0.009	-0.250
-367.742	-61.660	-0.098	0.040
-366.727	505.196	-0.101	0.232
-365.712	73.855	0.192	-0.199
-364.698	190.405	0.242	0.359
-363.683	27.889	-0.150	-0.125
-362.669	800.000	0.062	0.266
-361.654	0.094	-0.214	0.151
-360.639	-144.015	-0.116	-0.011
-359.625	429.550	-0.053	-0.113
-358.610	15.205	0.031	-0.024
-357.596	-200.000	-0.007	0.402
-356.581	-200.000	0.007	0.218
-355.566	10.270	-0.133	0.100
-354.552	800.000	0.013	0.041
-353.537	-99.365	0.252	0.063
-352.523	-117.389	0.138	-0.025
-351.508	159.456	-0.129	0.177
-350.493	24.501	-0.218	0.178
-349.479	-61.716	0.115	-0.048
-348.464	305.760	0.140	-0.258
-347.450	58.228	-0.209	-0.203
-346.435	-165.533	-0.064	0.003
-345.420	-200.000	0.036	-0.329
-344.406	83.135	0.182	-0.196
-343.391	-177.026	-0.289	-0.007
-342.377	-104.093	0.211	0.049
-341.362	179.932	0.222	-0.322
-340.348	146.259	-0.092	0.122
-339.333	-34.204	0.094	-0.051
-338.318	800.000	-0.064	-0.229
-337.304	-10.329	-0.132	0.087
-336.289	-200.000	-0.002	-0.009
-335.275	77.315	0.146	-0.154
-334.260	36.660	-0.160	0.139
-333.245	-37.726	-0.141	-0.074
-332.231	381.713	-0.170	-0.345
-331.216	-112.003	0.158	-0.031
-330.202	-30.729	0.227	0.127
-329.187	-131.739	0.382	0.049
-328.172	-19.205	-0.035	-0.022
-327.158	369.156	-0.104	0.207
-326.143	-76.802	0.277	-0.096
-325.129	-200.000	0.025	-0.124
-324.114	14.118	0.090	-0.069
-323.099	-200.000	0.029	0.317
-322.085	-200.000	-0.009	-0.241
-321.070	-119.458	-0.185	0.032
-320.056	-155.456	-0.334	-0.021
-319.041	53.483	0.094	0.089
-318.026	-36.414	-0.262	-0.139
-317.012	-39.433	0.072	0.037
-315.997	300.457	-0.146	0.266
-314.983	332.687	0.079	-0.150
-313.968	-135.247	0.320	-0.038
-312.953	477.724	0.093	0.207
-311.939	-200.000	-0.009	0.072
-310.924	-200.000	0.003	-0.255
-309.910	-50.549	0.210	0.098
-308.895	-200.000	0.020	-0.094
-307.880	-49.857	0.369	-0.173
-306.866	34.945	-0.342	-0.295
-305.851	138.449	-0.112	0.146
-304.837	800.000	-0.069	0.199
-303.822	-66.700	-0.255	0.100
-302.807	720.085	-0.057	0.150
-301.793	-200.000	0.023	0.210
-300.778	13.347	0.027	-0.020
-299.764	-82.578	-0.180	-0.058
-298.749	-200.000	-0.042	-0.298
-297.735	-15.822	-0.222	0.140
-296.720	433.847	0.216	0.463
-295.705	411.981	0.087	-0.183
-294.691	289.239	-0.160	0.286
-293.676	137.180	0.114	-0.147
-292.662	215.437	-0.225	0.352
-291.647	-21.791	-0.216	0.129
-290.632	136.300	-0.144	-0.185
-289.618	-108.946	0.083	0.018
-288.603	-130.911	-0.441	0.058
-287.589	-200.000	0.031	-0.178
-286.574	85.997	0.158	0.171
-285.559	-162.580	-0.102	0.005
-284.545	4.047	-0.052	0.037
-283.530	-200.000	0.009	-0.134
-282.516	-200.000	-0.070	-0.389
-281.501	-29.659	-0.249	-0.140
-280.486	20.688	0.129	0.103
-279.472	423.041	-0.085	0.181
-278.457	335.255	0.088	0.168
-277.443	141.960	-0.151	-0.197
-276.428	695.291	-0.122	-0.316
-275.413	266.118	0.030	-0.052
-274.399	800.000	0.063	0.173
-273.384	-22.193	0.191	0.114
-272.370	-106.561	-0.176	0.039
-271.355	198.883	0.091	0.138
-270.340	123.352	0.162	0.200
-269.326	-73.752	0.046	0.017
-268.311	-120.627	0.181	-0.030
-267.297	-200.000	-0.003	-0.064
-266.282	29.470	0.173	-0.145
-265.267	131.396	0.222	-0.281
-264.253	185.928	0.081	-0.119
-263.238	344.484	-0.148	-0.287
-262.224	160.427	0.085	0.117
-261.209	159.709	0.228	0.312
-260.195	-125.350	-0.267	0.040
-259.180	51.235	0.303	0.283
-258.165	-80.431	0.108	0.036
-257.151	26.241	-0.233	-0.191
-256.136	332.952	-0.074	0.140
-255.122	-67.001	0.083	0.032
-254.107	3.211	0.180	-0.129
-253.092	-100.544	-0.225	-0.055
-252.078	-99.239	-0.130	0.032
-251.063	49.763	0.036	0.033
-250.049	377.334	-0.105	-0.212
-249.034	800.000	-0.027	-0.102
-248.019	168.356	0.088	0.123
-247.005	-5.505	-0.210	0.142
-245.990	-67.036	-0.313	0.122
-244.976	115.676	-0.159	-0.192
-243.961	75.799	-0.102	-0.106
-242.946	-28.932	-0.292	-0.165
-241.932	-101.656	-0.433	0.103
-240.917	-27.024	-0.345	-0.198
-239.903	-123.183	-0.142	-0.022
-238.888	-27.985	-0.166	0.095
-237.873	-145.115	0.257	0.023
-236.859	55.723	0.011	0.011
-235.844	93.119	-0.183	-0.204
-234.830	-144.019	0.344	0.032
-233.815	-125.062	0.170	-0.026
-232.800	-72.703	0.166	0.060
-231.786	-109.229	0.292	0.061
-230.771	26.224	0.126	-0.103
-229.757	-50.468	-0.129	-0.060
-228.742	326.440	-0.148	0.278
-227.727	-200.000	-0.055	-0.279
-226.713	-146.009	-0.188	0.016
-225.698	213.657	-0.075	0.117
-224.684	-200.000	-0.031	-0.348
-223.669	-200.000	0.009	-0.119
-222.655	157.398	0.094	0.128
-221.640	-67.731	-0.176	0.068
-220.625	-200.000	-0.068	0.313
-219.611	-124.946	-0.324	-0.049
-218.596	57.767	0.359	-0.345
-217.582	-84.024	0.118	-0.037
-216.567	-78.865	-0.397	0.133
-215.552	-37.003	0.346	0.182
-214.538	-3.630	0.227	-0.155
-213.523	-84.287	0.095	0.029
-212.509	38.180	0.143	0.125
-211.494	-165.401	0.104	-0.004
-210.479	-84.094	-0.208	-0.065
-209.465	-86.506	0.224	-0.068
-208.450	-109.151	-0.323	-0.068
-207.436	800.000	-0.037	-0.156
-206.421	-122.142	0.177	0.029
-205.406	800.000	0.072	0.245
-204.392	-96.061	-0.125	-0.033
-203.377	289.139	-0.094	-0.167
-202.363	516.375	0.108	0.249
-201.348	-57.490	0.346	0.149
-200.333	-100.754	0.272	0.066
-199.319	800.000	0.143	-0.389
-198.304	250.561	0.176	0.294
-197.290	10.563	0.286	-0.214
-196.275	-155.290	0.210	-0.013
-195.260	-29.343	-0.037	0.021
-194.246	-47.068	0.295	0.141
-193.231	474.932	-0.057	0.127
-192.217	-88.680	0.267	0.078
-191.202	-126.509	-0.183	0.027
-190.187	-74.561	0.402	-0.142
-189.173	-173.583	0.233	-0.007
-188.158	153.269	0.197	-0.265
-187.144	101.771	0.057	-0.065
-186.129	-39.108	0.277	-0.143
-185.114	20.940	-0.243	0.194
-184.100	800.000	0.048	0.153
-183.085	-200.000	0.036	-0.293
-182.071	31.635	0.084	-0.071
-181.056	22.621	0.081	0.065
-180.042	7.023	-0.084	-0.061
-179.027	-200.000	0.011	-0.154
-178.012	800.000	0.064	-0.192
-176.998	-133.578	-0.357	-0.044
-175.983	-182.715	-0.254	0.005
-174.969	94.880	-0.200	0.223
-173.954	456.510	-0.051	0.111
-172.939	-26.993	0.271	0.155
-171.925	800.000	0.037	-0.121
-170.910	-76.974	0.409	0.140
-169.896	-127.596	-0.344	0.049
-168.881	-200.000	-0.029	-0.201
-167.866	37.183	0.184	-0.160
-166.852	-24.884	-0.080	0.047
-165.837	40.763	0.117	-0.103
-164.823	-10.169	-0.188	0.123
-163.808	26.353	-0.242	0.198
-162.793	-0.503	0.396	0.276
-161.779	47.645	-0.157	-0.143
-160.764	-101.019	0.302	0.073
-159.750	-5.881	-0.234	0.157
-158.735	800.000	-0.058	0.209
-157.720	-173.159	0.269	-0.008
-156.706	-50.036	0.224	0.104
-155.691	-30.367	-0.093	0.052
-154.677	190.208	-0.144	-0.212
-153.662	-200.000	-0.008	0.190
-152.647	-200.000	-0.042	0.183
-151.633	-147.546	0.277	-0.023
-150.618	-200.000	-0.018	-0.122
-149.604	-200.000	-0.021	-0.509
-148.589	-50.942	0.071	0.033
-147.574	-46.580	-0.243	-0.117
-146.560	-200.000	-0.002	0.021
-145.545	-87.481	0.257	-0.076
-144.531	50.602	0.115	-0.107
-143.516	566.673	0.046	-0.109
-142.502	-96.639	0.065	-0.017
-141.487	-53.423	-0.123	-0.055
-140.472	-115.615	-0.204	0.038
-139.458	-153.637	0.229	-0.016
-138.443	382.343	0.136	-0.273
-137.429	477.378	-0.017	-0.037
-136.414	800.000	-0.062	0.171
-135.399	800.000	-0.035	0.101
-134.385	-113.741	-0.223	0.043
-133.370	45.471	-0.058	-0.053
-132.356	91.619	0.111	-0.122
-131.341	-134.363	-0.381	-0.046
-130.326	84.088	-0.189	-0.202
-129.312	-34.367	-0.176	0.095
-128.297	-121.729	-0.361	0.059
-127.283	9.469	0.245	-0.182
-126.268	487.862	-0.095	0.211
-125.253	800.000	-0.044	-0.183
-124.239	7.549	-0.083	-0.061
-123.224	648.745	-0.027	-0.068
-122.210	-131.326	0.540	-0.070
-121.195	50.587	0.167	-0.155
