DTS Sentinel unit serial number:	SN413079Multiplexer serial number:	ORYXHardware model number:	OX4-SRSoftware version number:	ORYX F/W v4.00 Oryx Data Collector v3.7.2.0data status	okinstallation	princeton_trtdifferential loss correction	single-endedforward channel	channel 3reverse channel	N/Adate	2019/09/13time	01:52:34forward acquisition time	60.00reverse acquisition time	0.00gamma	496.2192k internal	0.2334k external	0.2334temperature offset calibration	1.0124default loss term (dB/km)	0.3790temperature slope calibration	1.0000multiplexer offset coefficient	1.0000multiplexer slope coefficient	1.0000fibre end	0.00T internal ref (°C)	27.67T ext. ref 1 (°C)	3.82T ext. ref 2 (°C)	22.29length (m)	temperature (°C)	Stokes	anti-Stokes-747.200	90.894	-0.167	0.188
-746.185	-174.007	0.067	0.002
-745.171	227.457	0.166	0.272
-744.156	193.573	-0.172	0.262
-743.142	164.451	0.025	0.036
-742.127	184.996	-0.041	-0.061
-741.112	-71.552	0.106	-0.040
-740.098	-100.396	-0.620	0.154
-739.083	180.327	-0.248	-0.366
-738.069	56.984	-0.267	0.262
-737.054	-197.310	-0.118	-0.001
-736.039	-167.569	-0.210	-0.008
-735.025	34.212	0.023	0.020
-734.010	800.000	0.121	-0.484
-732.996	288.497	-0.188	-0.342
-731.981	-200.000	0.002	0.080
-730.966	-15.833	-0.174	-0.112
-729.952	-67.685	-0.137	0.054
-728.937	361.162	0.135	-0.272
-727.923	33.331	0.061	0.053
-726.908	-200.000	-0.054	-0.355
-725.894	-152.627	-0.052	0.004
-724.879	-57.037	0.061	0.027
-723.864	337.238	0.160	0.312
-722.850	-111.251	0.368	0.076
-721.835	193.625	-0.144	-0.220
-720.821	800.000	0.104	0.346
-719.806	800.000	0.083	0.270
-718.791	-15.211	-0.164	0.105
-717.777	-49.721	-0.252	0.120
-716.762	88.000	-0.121	-0.134
-715.748	-106.691	0.127	0.028
-714.733	-45.304	-0.116	-0.058
-713.718	-63.276	0.147	-0.061
-712.704	-49.392	-0.104	-0.050
-711.689	-102.874	-0.244	0.058
-710.675	-200.000	0.049	-0.361
-709.660	157.042	0.047	-0.066
-708.645	-39.276	-0.121	0.064
-707.631	-106.863	0.368	-0.082
-706.616	295.573	-0.094	0.172
-705.602	-107.903	-0.144	-0.032
-704.587	-105.732	-0.597	-0.136
-703.572	-200.000	-0.017	-0.104
-702.558	57.109	0.038	0.038
-701.543	-6.566	0.135	-0.092
-700.529	-35.207	0.062	-0.034
-699.514	-94.604	-0.155	0.042
-698.499	-200.000	-0.001	-0.084
-697.485	-84.773	-0.301	0.095
-696.470	800.000	0.085	0.295
-695.456	259.450	0.021	0.036
-694.441	-169.244	-0.100	0.004
-693.426	18.361	0.109	0.088
-692.412	73.281	-0.016	-0.017
-691.397	432.858	0.081	0.176
-690.383	800.000	-0.084	0.281
-689.368	-69.497	0.326	0.125
-688.354	-54.563	0.062	-0.028
-687.339	234.169	0.101	-0.167
-686.324	102.072	0.191	0.224
-685.310	-61.475	0.136	-0.057
-684.295	800.000	-0.051	-0.148
-683.281	210.850	0.208	0.327
-682.266	500.847	0.143	-0.332
-681.251	160.088	-0.026	0.036
-680.237	-79.663	0.066	0.022
-679.222	-86.225	0.374	0.115
-678.208	-37.347	-0.196	0.105
-677.193	187.977	-0.063	-0.094
-676.178	-4.918	-0.125	-0.086
-675.164	239.408	0.260	-0.433
-674.149	-55.987	0.180	0.081
-673.135	-54.548	-0.301	0.137
-672.120	-43.452	-0.399	-0.202
-671.105	-200.000	-0.068	-0.331
-670.091	800.000	-0.147	-0.416
-669.076	800.000	-0.069	-0.222
-668.062	51.695	-0.246	-0.235
-667.047	147.596	-0.017	-0.023
-666.032	-170.357	-0.274	0.010
-665.018	-200.000	-0.012	-0.095
-664.003	29.793	-0.257	-0.219
-662.989	510.739	0.125	0.290
-661.974	-166.382	-0.282	-0.012
-660.959	-87.752	-0.106	0.032
-659.945	58.515	-0.058	-0.057
-658.930	192.083	-0.082	-0.123
-657.916	280.796	-0.035	-0.063
-656.901	450.173	0.074	0.163
-655.886	16.528	0.158	0.125
-654.872	126.834	0.044	-0.056
-653.857	-145.405	0.164	0.015
-652.843	-84.705	-0.272	-0.086
-651.828	800.000	-0.062	0.211
-650.814	229.556	-0.145	0.237
-649.799	-114.351	-0.225	-0.043
-648.784	-31.309	-0.041	-0.023
-647.770	-200.000	-0.020	-0.143
-646.755	112.248	0.120	0.145
-645.741	374.184	-0.072	0.147
-644.726	756.664	-0.102	0.276
-643.711	-105.227	0.086	0.020
-642.697	-101.226	-0.313	-0.077
-641.682	-37.768	0.096	0.051
-640.668	129.580	-0.076	-0.097
-639.653	154.857	0.150	-0.206
-638.638	779.022	0.110	-0.300
-637.624	-200.000	0.023	-0.229
-636.609	-47.169	-0.327	-0.160
-635.595	-90.670	-0.354	0.102
-634.580	-200.000	-0.001	-0.041
-633.565	-83.980	0.423	0.135
-632.551	-172.073	-0.134	0.004
-631.536	318.924	0.096	-0.182
-630.522	53.538	0.109	-0.105
-629.507	800.000	0.030	0.082
-628.492	-142.575	-0.394	-0.039
-627.478	-59.808	0.182	-0.078
-626.463	-123.096	0.110	0.018
-625.449	-200.000	-0.034	-0.297
-624.434	-66.185	0.142	0.057
-623.419	800.000	0.056	-0.159
-622.405	452.624	-0.069	0.153
-621.390	-200.000	0.008	0.280
-620.376	404.248	0.049	0.103
-619.361	147.930	-0.044	-0.059
-618.346	42.185	-0.180	0.163
-617.332	112.667	-0.212	0.257
-616.317	-27.929	-0.366	0.212
-615.303	136.156	-0.207	-0.269
-614.288	-156.228	-0.286	0.018
-613.273	322.558	0.134	0.256
-612.259	-84.265	0.215	0.068
-611.244	567.511	-0.079	0.191
-610.230	-151.476	0.101	-0.008
-609.215	203.731	-0.013	0.019
-608.201	-121.062	-0.088	0.015
-607.186	-115.118	-0.200	0.038
-606.171	800.000	-0.102	-0.317
-605.157	800.000	-0.041	-0.174
-604.142	800.000	-0.060	-0.205
-603.128	-21.074	-0.168	0.103
-602.113	-21.496	0.169	0.103
-601.098	545.521	-0.057	-0.137
-600.084	229.367	-0.051	0.084
-599.069	800.000	-0.069	0.299
-598.055	-26.150	0.284	0.167
-597.040	800.000	-0.019	0.071
-596.025	800.000	-0.058	0.246
-595.011	-136.895	0.326	0.037
-593.996	-138.441	0.235	0.026
-592.982	-110.240	0.088	0.018
-591.967	-87.650	0.375	0.113
-590.952	-60.408	-0.037	-0.016
-589.938	-76.645	-0.210	0.074
-588.923	38.702	0.099	-0.088
-587.909	114.594	-0.124	0.150
-586.894	-200.000	-0.040	0.216
-585.879	-75.682	-0.122	-0.043
-584.865	-144.115	0.251	-0.023
-583.850	4.771	-0.047	0.034
-582.836	-44.732	0.132	0.066
-581.821	204.821	-0.146	0.227
-580.806	127.509	0.300	0.381
-579.792	11.912	0.094	0.072
-578.777	-108.312	0.176	-0.038
-577.763	-14.472	-0.149	0.096
-576.748	-77.355	0.368	0.128
-575.733	-68.865	-0.558	0.215
-574.719	-200.000	0.070	0.306
-573.704	-28.988	0.167	-0.096
-572.690	-10.136	-0.120	0.080
-571.675	262.879	0.078	0.135
-570.661	-200.000	0.028	-0.193
-569.646	-74.606	0.080	0.029
-568.631	97.125	0.180	0.206
-567.617	-106.890	0.279	-0.062
-566.602	-200.000	-0.004	0.322
-565.588	686.351	0.150	-0.392
-564.573	-200.000	0.033	0.200
-563.558	-123.657	0.237	0.038
-562.544	-200.000	0.018	-0.242
-561.529	215.696	0.037	-0.059
-560.515	-116.121	-0.287	0.053
-559.500	-200.000	0.018	-0.224
-558.485	156.240	0.167	-0.231
-557.471	-141.019	-0.220	-0.022
-556.456	0.193	0.123	-0.088
-555.442	-200.000	0.016	-0.228
-554.427	393.291	-0.025	0.051
-553.412	355.692	0.091	0.181
-552.398	29.342	-0.223	-0.189
-551.383	-200.000	0.000	0.198
-550.369	475.964	-0.064	-0.143
-549.354	502.574	0.105	0.242
-548.339	302.105	0.149	0.275
-547.325	56.972	-0.314	0.306
-546.310	25.716	-0.248	0.206
-545.296	106.975	-0.150	-0.177
-544.281	-200.000	-0.039	-0.172
-543.266	-61.424	0.332	-0.139
-542.252	500.192	0.198	0.455
-541.237	800.000	0.059	0.170
-540.223	800.000	0.078	0.321
-539.208	-158.985	0.201	-0.011
-538.193	2.962	0.220	0.160
-537.179	578.433	-0.113	0.276
-536.164	-83.140	-0.262	-0.084
-535.150	-91.274	0.149	-0.043
-534.135	118.146	0.187	-0.230
-533.121	-131.155	-0.154	-0.020
-532.106	-200.000	0.067	0.495
-531.091	219.484	-0.167	0.266
-530.077	-47.582	-0.291	-0.141
-529.062	800.000	0.020	0.074
-528.048	-200.000	0.005	-0.200
-527.033	-200.000	-0.082	0.393
-526.018	10.059	0.041	-0.031
-525.004	-66.370	0.276	-0.109
-523.989	-200.000	-0.056	-0.295
-522.975	-6.319	-0.273	0.186
-521.960	-200.000	-0.004	-0.244
-520.945	-200.000	-0.027	0.224
-519.931	-200.000	-0.035	0.178
-518.916	130.695	0.254	-0.325
-517.902	-200.000	0.011	0.076
-516.887	-80.178	-0.132	0.044
-515.872	403.751	0.075	-0.157
-514.858	800.000	0.042	0.178
-513.843	54.235	0.127	-0.122
-512.829	-134.402	-0.248	0.030
-511.814	244.035	0.063	-0.106
-510.799	-85.176	-0.118	0.037
-509.785	189.847	0.055	-0.083
-508.770	264.417	-0.102	0.178
-507.756	-146.818	0.181	0.016
-506.741	6.850	-0.145	-0.108
-505.726	-87.395	-0.367	0.111
-504.712	150.898	0.162	0.220
-503.697	499.695	-0.059	0.135
-502.683	-57.664	0.229	-0.100
-501.668	-63.025	0.080	-0.033
-500.653	427.681	0.168	0.362
-499.639	-56.905	0.120	0.053
-498.624	44.642	-0.137	-0.126
-497.610	94.721	-0.080	-0.091
-496.595	20.100	0.107	-0.086
-495.581	800.000	-0.067	0.221
-494.566	-74.452	-0.227	0.081
-493.551	-200.000	0.006	-0.158
-492.537	800.000	-0.138	0.397
-491.522	-33.732	-0.148	-0.081
-490.508	-181.312	-0.186	-0.004
-489.493	68.537	-0.139	-0.142
-488.478	-40.682	-0.418	0.216
-487.464	-100.349	-0.216	-0.053
-486.449	-107.774	0.015	-0.003
-485.435	-23.586	-0.122	0.073
-484.420	-105.249	-0.311	-0.071
-483.405	97.188	0.035	0.040
-482.391	501.599	-0.048	-0.110
-481.376	118.653	-0.156	-0.192
-480.362	185.305	0.084	0.125
-479.347	-111.615	0.183	0.037
-478.332	-200.000	0.002	-0.061
-477.318	-135.781	0.126	0.015
-476.303	-30.178	-0.215	0.121
-475.289	-152.085	-0.146	-0.011
-474.274	-46.107	0.145	-0.071
-473.259	-200.000	0.010	0.205
-472.245	800.000	-0.091	0.357
-471.230	485.804	0.049	-0.110
-470.216	-200.000	0.004	0.143
-469.201	-200.000	0.022	-0.138
-468.186	178.010	0.078	0.114
-467.172	-142.291	-0.207	0.020
-466.157	-108.749	-0.259	-0.055
-465.143	28.985	-0.122	-0.102
-464.128	93.272	0.186	0.209
-463.113	-200.000	0.003	-0.026
-462.099	-70.392	0.217	-0.082
-461.084	800.000	-0.145	-0.420
-460.070	-67.857	-0.076	0.030
-459.055	-167.529	-0.329	-0.013
-458.040	800.000	0.073	-0.309
-457.026	800.000	0.060	0.243
-456.011	197.352	-0.032	0.049
-454.997	-105.150	-0.105	0.024
-453.982	43.213	-0.091	0.083
-452.968	-200.000	-0.016	-0.115
-451.953	104.005	0.357	0.417
-450.938	-148.016	-0.309	0.025
-449.924	-200.000	0.025	-0.158
-448.909	800.000	0.036	0.106
-447.895	186.774	-0.122	0.181
-446.880	75.871	0.078	0.082
-445.865	-169.350	0.135	0.005
-444.851	-89.089	-0.153	0.045
-443.836	-121.139	0.275	0.046
-442.822	-139.431	-0.206	0.022
-441.807	-172.851	-0.054	0.002
-440.792	-189.507	-0.205	0.002
-439.778	-200.000	-0.017	0.097
-438.763	260.982	0.096	-0.166
-437.749	1.458	0.239	0.171
-436.734	-200.000	-0.000	0.437
-435.719	221.281	0.036	0.058
-434.705	-98.899	0.383	-0.097
-433.690	118.552	0.188	-0.231
-432.676	94.115	-0.093	0.105
-431.661	800.000	-0.107	-0.306
-430.646	-77.347	0.196	-0.068
-429.632	222.389	-0.215	-0.344
-428.617	-200.000	-0.056	-0.322
-427.603	74.295	-0.250	-0.261
-426.588	-119.084	0.088	-0.015
-425.573	-89.363	0.357	0.104
-424.559	-12.316	-0.254	0.165
-423.544	-118.949	-0.188	0.033
-422.530	-81.826	0.056	-0.018
-421.515	-121.474	-0.095	0.016
-420.500	-153.969	0.127	-0.009
-419.486	800.000	-0.029	-0.098
-418.471	143.718	0.016	-0.021
-417.457	269.981	-0.076	-0.132
-416.442	-66.161	-0.204	0.081
-415.428	800.000	-0.047	0.189
-414.413	132.519	0.032	0.041
-413.398	-143.462	0.339	0.032
-412.384	-24.687	0.317	0.187
-411.369	-65.803	0.158	0.063
-410.355	15.695	0.410	-0.320
-409.340	308.390	-0.058	0.107
-408.325	-83.203	0.244	-0.078
-407.311	118.201	-0.109	-0.134
-406.296	-64.054	0.295	-0.119
-405.282	118.959	0.123	-0.151
-404.267	-200.000	0.035	-0.166
-403.252	-87.135	-0.152	-0.046
-402.238	65.385	0.069	-0.069
-401.223	20.134	0.125	-0.100
-400.209	7.025	0.269	0.199
-399.194	-94.085	-0.051	0.014
-398.179	-50.772	0.181	0.085
-397.165	70.787	0.130	0.133
-396.150	243.311	0.120	0.200
-395.136	800.000	-0.030	-0.109
-394.121	-200.000	-0.004	-0.235
-393.106	86.802	-0.039	-0.042
-392.092	-68.503	0.118	-0.045
-391.077	-13.946	0.026	-0.017
-390.063	254.351	-0.173	0.293
-389.048	-200.000	0.012	0.248
-388.033	-124.278	-0.389	0.060
-387.019	334.479	0.046	-0.089
-386.004	-85.765	-0.169	-0.052
-384.990	-70.910	0.303	0.113
-383.975	31.833	-0.157	-0.134
-382.960	411.818	-0.113	-0.237
-381.946	197.798	0.224	-0.339
-380.931	-101.567	0.297	-0.072
-379.917	292.504	0.108	-0.196
-378.902	-171.230	-0.228	0.008
-377.888	516.691	-0.142	-0.330
-376.873	-200.000	0.088	-0.464
-375.858	138.337	0.136	-0.176
-374.844	-200.000	-0.046	-0.204
-373.829	-162.804	-0.205	0.010
-372.815	-190.750	0.277	-0.003
-371.800	-15.783	-0.060	-0.038
-370.785	-90.562	-0.155	-0.044
-369.771	-117.790	0.140	0.025
-368.756	152.803	0.068	-0.092
-367.742	210.649	0.080	0.124
-366.727	481.867	-0.073	-0.165
-365.712	-24.609	-0.083	-0.049
-364.698	21.156	0.134	0.107
-363.683	-155.614	-0.177	0.011
-362.669	233.801	-0.068	-0.110
-361.654	800.000	0.087	0.239
-360.639	-200.000	0.032	-0.160
-359.625	-83.635	-0.270	-0.085
-358.610	43.534	0.167	0.151
-357.596	-11.200	0.185	-0.121
-356.581	-200.000	0.006	0.047
-355.566	257.899	0.129	-0.220
-354.552	730.909	0.146	0.387
-353.537	237.017	0.025	0.040
-352.523	-148.486	-0.098	0.008
-351.508	800.000	-0.037	0.104
-350.493	-5.620	-0.044	0.030
-349.479	-8.529	0.079	-0.053
-348.464	-96.687	-0.111	-0.029
-347.450	-36.695	0.169	-0.090
-346.435	-32.987	-0.173	-0.095
-345.420	19.476	0.090	-0.072
-344.406	12.480	0.062	-0.047
-343.391	-4.118	-0.091	-0.063
-342.377	800.000	0.086	-0.315
-341.362	-64.277	-0.171	0.069
-340.348	-47.806	-0.158	-0.076
-339.333	117.959	-0.112	0.136
-338.318	-33.916	-0.281	0.153
-337.304	-68.462	-0.274	-0.105
-336.289	-26.447	-0.178	-0.103
-335.275	800.000	0.067	0.187
-334.260	-73.537	0.304	-0.110
-333.245	413.900	-0.110	-0.231
-332.231	175.184	-0.176	-0.252
-331.216	574.872	-0.078	0.188
-330.202	17.985	0.038	0.030
-329.187	-81.250	-0.317	0.103
-328.172	-69.233	0.318	0.121
-327.158	800.000	-0.073	0.221
-326.143	63.407	0.134	-0.133
-325.129	-200.000	-0.040	-0.250
-324.114	64.478	0.113	0.112
-323.099	800.000	0.018	0.053
-322.085	273.464	-0.022	0.038
-321.070	-78.840	0.139	0.047
-320.056	14.870	0.202	0.156
-319.041	6.124	0.152	-0.111
-318.026	235.150	0.041	-0.067
-317.012	-116.038	-0.200	-0.037
-315.997	-100.568	-0.116	0.028
-314.983	40.489	-0.067	0.060
-313.968	-79.401	-0.171	0.057
-312.953	-80.831	0.164	-0.054
-311.939	-42.148	0.292	-0.148
-310.924	-200.000	0.022	-0.118
-309.910	-35.760	0.247	-0.133
-308.895	530.535	0.109	0.254
-307.880	-200.000	-0.020	0.275
-306.866	-69.593	-0.033	-0.012
-305.851	188.955	-0.078	0.116
-304.837	192.352	0.196	0.292
-303.822	-86.572	0.239	-0.072
-302.807	152.259	-0.087	-0.118
-301.793	-11.796	-0.017	0.011
-300.778	252.155	0.095	0.159
-299.764	-21.571	0.077	0.046
-298.749	-133.029	-0.129	-0.016
-297.735	36.209	-0.081	0.070
-296.720	800.000	0.069	0.278
-295.705	-47.675	0.237	0.113
-294.691	800.000	0.052	-0.199
-293.676	-107.007	-0.328	-0.072
-292.662	201.995	0.086	0.131
-291.647	96.662	-0.300	0.339
-290.632	39.845	-0.107	-0.094
-289.618	-200.000	0.009	0.178
-288.603	-148.407	0.317	0.026
-287.589	327.385	0.082	0.155
-286.574	53.885	-0.115	-0.109
-285.559	-63.416	-0.172	0.070
-284.545	20.373	0.322	-0.257
-283.530	59.498	0.291	-0.283
-282.516	-200.000	-0.009	0.170
-281.501	10.214	0.350	-0.262
-280.486	91.481	0.149	0.165
-279.472	-130.226	0.166	0.022
-278.457	96.914	-0.162	0.183
-277.443	-89.336	0.185	0.054
-276.428	-34.220	-0.015	-0.008
-275.413	-108.894	0.204	0.043
-274.399	50.582	-0.300	0.280
-273.384	-157.469	-0.214	-0.013
-272.370	191.625	-0.043	-0.064
-271.355	444.880	0.193	-0.418
-270.340	-106.602	0.075	-0.016
-269.326	-48.863	-0.363	0.172
-268.311	-200.000	0.050	-0.405
-267.297	-200.000	-0.010	0.136
-266.282	177.421	0.016	0.023
-265.267	-181.479	-0.233	0.004
-264.253	278.748	0.058	-0.103
-263.238	-49.921	0.110	0.052
-262.224	800.000	-0.073	0.237
-261.209	215.900	0.088	-0.138
-260.195	-13.623	-0.251	-0.161
-259.180	75.099	-0.133	-0.139
-258.165	6.583	0.148	0.108
-257.151	-43.503	-0.353	0.176
-256.136	-91.992	0.307	-0.086
-255.122	800.000	0.099	0.359
-254.107	800.000	0.054	-0.169
-253.092	2.582	-0.127	-0.091
-252.078	-92.610	0.236	-0.065
-251.063	355.292	0.078	-0.153
-250.049	-200.000	-0.025	-0.346
-249.034	-46.798	-0.083	-0.040
-248.019	27.068	-0.257	-0.213
-247.005	-200.000	-0.012	-0.334
-245.990	-200.000	0.013	-0.067
-244.976	800.000	0.175	-0.628
-243.961	65.429	0.203	-0.202
-242.946	-73.040	0.208	-0.075
-241.932	-200.000	0.040	-0.294
-240.917	-200.000	-0.032	-0.233
-239.903	-200.000	-0.011	0.203
-238.888	-184.959	0.299	0.005
-237.873	-200.000	0.016	0.272
-236.859	504.407	-0.156	-0.356
-235.844	240.675	0.093	-0.153
-234.830	147.396	0.075	0.100
-233.815	-104.208	0.180	-0.041
-232.800	-200.000	0.008	0.128
-231.786	57.809	-0.069	0.066
-230.771	117.040	0.012	0.014
-229.757	-200.000	0.019	0.259
-228.742	-31.983	0.175	-0.096
-227.727	60.990	-0.043	-0.042
-226.713	800.000	-0.043	-0.141
-225.698	-103.275	0.145	-0.034
-224.684	-12.153	-0.176	-0.114
-223.669	-200.000	0.005	0.060
-222.655	-200.000	-0.003	0.323
-221.640	9.574	-0.062	-0.046
-220.625	-54.215	-0.461	-0.206
-219.611	-200.000	0.048	-0.210
-218.596	-74.659	0.161	0.057
-217.582	-1.954	-0.318	0.221
-216.567	247.011	-0.298	-0.495
-215.552	82.905	0.129	0.138
-214.538	-26.957	-0.207	0.119
-213.523	121.705	-0.241	0.296
-212.509	-149.872	0.195	0.015
-211.494	-83.310	-0.305	0.096
-210.479	317.464	0.125	-0.232
-209.465	800.000	-0.077	-0.235
-208.450	-153.890	0.235	-0.016
-207.436	69.422	0.151	0.153
-206.421	800.000	0.036	0.112
-205.406	800.000	0.053	0.187
-204.392	-200.000	-0.035	0.245
-203.377	-162.915	-0.130	0.006
-202.363	95.328	-0.192	-0.215
-201.348	31.335	0.039	0.033
-200.333	589.205	-0.088	0.214
-199.319	800.000	0.142	0.465
-198.304	-21.594	-0.194	0.116
-197.290	-41.498	-0.182	0.092
-196.275	-12.451	0.527	-0.339
-195.260	-105.954	-0.305	-0.068
-194.246	-141.708	-0.273	0.027
-193.231	-65.672	0.323	-0.127
-192.217	-139.165	0.234	-0.025
-191.202	-200.000	0.007	-0.285
-190.187	-14.839	-0.194	-0.123
-189.173	-200.000	-0.014	-0.241
-188.158	800.000	0.070	0.221
-187.144	-3.154	-0.074	-0.051
-186.129	-75.784	-0.211	-0.074
-185.114	-200.000	-0.020	0.239
-184.100	26.289	-0.297	0.244
-183.085	-113.536	0.175	0.034
-182.071	-122.714	0.112	0.018
-181.056	440.242	-0.182	-0.391
-180.042	23.848	-0.284	-0.230
-179.027	506.746	-0.091	0.207
-178.012	5.175	0.067	-0.048
-176.998	80.254	-0.052	0.055
-175.983	575.199	0.039	-0.093
-174.969	-115.962	-0.196	0.036
-173.954	-38.767	0.094	-0.049
-172.939	792.967	-0.121	-0.327
-171.925	-80.629	0.225	-0.074
-170.910	-35.412	-0.207	0.110
-169.896	123.325	-0.069	-0.086
-168.881	-159.957	-0.185	0.010
-167.866	-200.000	0.010	0.122
-166.852	0.838	-0.139	-0.098
-165.837	103.452	-0.109	0.125
-164.823	-102.365	-0.148	-0.035
-163.808	800.000	-0.051	-0.212
-162.793	-97.946	0.182	0.046
-161.779	-110.387	-0.223	-0.045
-160.764	-40.555	0.230	-0.117
-159.750	-42.973	0.278	0.139
-158.735	240.566	-0.125	-0.205
-157.720	168.920	0.208	-0.292
-156.706	71.310	0.096	0.098
-155.691	386.072	0.122	-0.247
-154.677	-24.241	0.064	0.038
-153.662	6.590	0.124	0.090
-152.647	593.588	0.087	0.210
-151.633	460.951	0.127	-0.278
-150.618	-5.885	0.083	-0.056
-149.604	-200.000	-0.001	-0.153
-148.589	-198.765	0.111	-0.001
-147.574	527.058	0.136	-0.315
-146.560	-79.494	-0.080	-0.027
-145.545	72.918	-0.142	-0.145
-144.531	72.492	-0.102	-0.105
-143.516	-122.862	-0.042	-0.007
-142.502	-40.523	-0.186	0.095
-141.487	481.027	0.195	0.435
-140.472	-35.140	0.233	0.125
-139.458	-85.435	0.386	-0.118
-138.443	-59.770	-0.307	0.129
-137.429	-89.303	-0.091	-0.026
-136.414	-200.000	0.041	0.315
-135.399	-200.000	0.050	0.237
-134.385	-48.734	0.313	-0.148
-133.370	-137.229	-0.452	-0.051
-132.356	800.000	-0.065	0.176
-131.341	-200.000	-0.056	0.271
-130.326	-200.000	-0.016	0.193
-129.312	-35.471	0.227	-0.121
-128.297	17.802	0.088	0.069
-127.283	-200.000	0.026	0.403
-126.268	-133.260	0.128	0.016
-125.253	-58.485	0.210	0.089
-124.239	-78.889	-0.421	-0.141
-123.224	-119.762	-0.302	-0.051
-122.210	453.187	-0.158	0.344
-121.195	-30.680	0.136	0.076
