DTS Sentinel unit serial number:	SN413079Multiplexer serial number:	ORYXHardware model number:	OX4-SRSoftware version number:	ORYX F/W v4.00 Oryx Data Collector v3.7.2.0data status	okinstallation	princeton_trtdifferential loss correction	single-endedforward channel	channel 3reverse channel	N/Adate	2019/09/15time	00:48:35forward acquisition time	60.00reverse acquisition time	0.00gamma	496.2192k internal	0.2319k external	0.2319temperature offset calibration	0.9973default loss term (dB/km)	0.3790temperature slope calibration	1.0000multiplexer offset coefficient	1.0000multiplexer slope coefficient	1.0000fibre end	0.00T internal ref (°C)	32.06T ext. ref 1 (°C)	4.59T ext. ref 2 (°C)	27.00length (m)	temperature (°C)	Stokes	anti-Stokes-747.200	-75.469	0.292	-0.105
-746.185	323.537	-0.141	0.273
-745.171	-200.000	-0.023	0.323
-744.156	91.168	0.142	0.161
-743.142	14.485	0.392	-0.310
-742.127	140.031	-0.078	0.104
-741.112	-142.671	0.126	0.012
-740.098	-4.588	-0.265	0.185
-739.083	-143.671	0.187	0.018
-738.069	-1.786	-0.262	0.186
-737.054	-20.935	-0.121	-0.075
-736.039	277.296	-0.199	-0.358
-735.025	-200.000	0.001	0.115
-734.010	800.000	0.066	-0.245
-732.996	800.000	-0.043	-0.130
-731.981	197.621	0.103	0.159
-730.966	800.000	-0.133	-0.380
-729.952	-0.915	0.116	0.083
-728.937	-103.795	0.327	-0.077
-727.923	-167.829	0.367	0.015
-726.908	599.840	0.084	0.210
-725.894	0.295	-0.204	-0.147
-724.879	-96.338	0.146	-0.039
-723.864	-200.000	0.008	-0.124
-722.850	215.596	-0.124	-0.198
-721.835	-84.384	-0.563	-0.180
-720.821	58.866	0.151	-0.150
-719.806	-161.628	-0.577	-0.030
-718.791	286.596	-0.118	-0.215
-717.777	-86.300	-0.255	0.079
-716.762	138.441	-0.400	-0.530
-715.748	-9.122	0.316	-0.213
-714.733	-74.290	-0.223	-0.082
-713.718	28.347	-0.181	-0.154
-712.704	135.232	-0.308	0.405
-711.689	579.137	0.130	-0.321
-710.675	800.000	-0.083	-0.287
-709.660	-123.957	-0.290	0.046
-708.645	-119.743	-0.176	0.031
-707.631	39.506	0.285	0.258
-706.616	-189.235	-0.360	0.004
-705.602	-109.750	-0.363	-0.077
-704.587	-200.000	-0.007	-0.241
-703.572	-174.905	0.421	-0.012
-702.558	-34.055	0.146	-0.081
-701.543	138.815	0.122	0.162
-700.529	-200.000	-0.027	0.135
-699.514	0.640	0.323	-0.234
-698.499	26.910	0.055	0.046
-697.485	143.626	0.082	0.111
-696.470	-200.000	0.014	-0.085
-695.456	800.000	0.066	0.257
-694.441	-70.653	0.178	-0.068
-693.426	-134.610	-0.116	0.014
-692.412	106.358	0.085	-0.101
-691.397	104.089	-0.235	0.278
-690.383	-200.000	-0.036	0.160
-689.368	-114.083	0.148	0.029
-688.354	-200.000	-0.026	0.209
-687.339	-200.000	0.004	0.049
-686.324	-123.465	-0.378	0.061
-685.310	108.072	-0.131	-0.158
-684.295	-134.025	-0.140	0.018
-683.281	-44.121	0.178	-0.090
-682.266	78.756	-0.184	-0.199
-681.251	-65.147	0.137	-0.056
-680.237	-139.391	0.223	0.024
-679.222	92.410	0.114	0.129
-678.208	52.233	0.213	0.205
-677.193	-67.961	0.142	0.056
-676.178	-12.445	0.048	-0.032
-675.164	800.000	0.114	-0.460
-674.149	255.053	0.145	0.251
-673.135	-70.417	0.491	-0.188
-672.120	161.096	0.126	-0.178
-671.105	800.000	-0.159	-0.473
-670.091	-7.834	0.078	-0.053
-669.076	-106.257	-0.227	0.051
-668.062	-27.830	0.272	0.159
-667.047	-19.757	-0.260	0.162
-666.032	800.000	0.099	0.421
-665.018	800.000	-0.046	-0.202
-664.003	236.033	0.074	0.124
-662.989	68.006	0.101	0.104
-661.974	-200.000	0.064	0.292
-660.959	-8.194	-0.198	0.134
-659.945	69.115	-0.223	-0.231
-658.930	-161.435	-0.218	0.011
-657.916	-85.462	0.341	0.107
-656.901	-126.557	0.004	0.001
-655.886	-200.000	0.043	-0.345
-654.872	-38.854	0.359	0.191
-653.857	800.000	0.055	0.208
-652.843	-74.922	0.226	-0.082
-651.828	-10.006	0.147	0.099
-650.814	290.869	-0.136	-0.250
-649.799	-194.755	-0.416	0.003
-648.784	800.000	-0.032	0.112
-647.770	-74.134	0.147	0.054
-646.755	-73.387	-0.551	0.203
-645.741	64.255	0.219	-0.222
-644.726	394.493	-0.150	-0.315
-643.711	-71.228	-0.248	0.094
-642.697	800.000	-0.080	-0.332
-641.682	800.000	-0.088	-0.351
-640.668	-41.267	-0.118	-0.061
-639.653	800.000	-0.031	-0.125
-638.638	-76.159	0.013	0.005
-637.624	121.957	0.128	-0.161
-636.609	-38.036	-0.445	-0.238
-635.595	-64.280	0.213	0.087
-634.580	-104.094	0.194	-0.045
-633.565	-200.000	0.003	0.015
-632.551	1.151	0.172	-0.124
-631.536	-123.582	-0.189	0.030
-630.522	800.000	0.023	0.066
-629.507	800.000	0.021	0.062
-628.492	800.000	0.045	0.144
-627.478	-119.751	0.282	-0.049
-626.463	199.536	0.053	-0.082
-625.449	-35.537	-0.186	0.102
-624.434	605.109	0.097	-0.242
-623.419	-44.130	0.328	0.166
-622.405	186.047	-0.120	-0.180
-621.390	257.827	-0.127	-0.221
-620.376	9.276	0.298	-0.227
-619.361	-200.000	-0.024	-0.278
-618.346	800.000	0.070	-0.262
-617.332	-77.622	-0.250	0.087
-616.317	-80.151	-0.285	0.096
-615.303	800.000	-0.054	-0.160
-614.288	-60.114	-0.252	-0.108
-613.273	407.820	0.098	0.209
-612.259	-80.595	0.217	0.073
-611.244	-16.942	0.072	0.046
-610.230	-18.409	-0.106	0.067
-609.215	41.632	0.170	-0.155
-608.201	-200.000	-0.002	0.050
-607.186	38.862	0.307	-0.276
-606.171	-31.616	-0.116	0.065
-605.157	-31.074	-0.004	0.002
-604.142	-60.813	0.347	0.148
-603.128	-174.957	-0.200	-0.006
-602.113	140.660	-0.113	0.150
-601.098	-103.796	-0.196	-0.046
-600.084	50.593	0.195	0.185
-599.069	-200.000	0.036	0.348
-598.055	171.301	0.217	-0.314
-597.040	166.654	-0.061	-0.087
-596.025	-200.000	-0.008	-0.097
-595.011	-200.000	0.006	0.558
-593.996	317.160	0.130	0.246
-592.982	800.000	-0.114	0.502
-591.967	493.193	0.078	0.181
-590.952	-52.318	-0.291	-0.135
-589.938	-200.000	0.035	0.272
-588.923	-79.482	0.065	0.022
-587.909	-20.947	0.326	0.201
-586.894	431.146	0.098	0.214
-585.879	240.531	0.042	0.071
-584.865	384.025	-0.052	0.107
-583.850	412.656	-0.064	0.137
-582.836	506.662	0.095	-0.221
-581.821	800.000	-0.053	-0.229
-580.806	664.196	-0.068	-0.175
-579.792	-200.000	-0.033	-0.291
-578.777	800.000	-0.091	0.264
-577.763	-49.881	-0.202	0.096
-576.748	26.518	0.133	-0.112
-575.733	4.579	-0.125	-0.092
-574.719	-120.508	0.164	-0.028
-573.704	-18.401	0.460	-0.289
-572.690	-200.000	0.024	0.108
-571.675	643.175	0.145	0.370
-570.661	-126.653	-0.150	-0.022
-569.646	-200.000	0.171	0.000
-568.631	-26.191	-0.122	0.072
-567.617	-95.069	-0.151	0.041
-566.602	-65.823	-0.275	0.111
-565.588	-16.096	0.389	0.248
-564.573	-200.000	0.002	-0.017
-563.558	-200.000	0.004	0.173
-562.544	-108.980	-0.235	-0.050
-561.529	-200.000	0.033	-0.227
-560.515	-200.000	0.129	0.000
-559.500	212.212	-0.128	0.203
-558.485	-64.399	-0.080	0.033
-557.471	800.000	0.067	-0.245
-556.456	69.570	-0.090	0.093
-555.442	-200.000	-0.049	-0.275
-554.427	800.000	-0.026	-0.075
-553.412	-67.538	-0.299	-0.118
-552.398	-173.294	0.330	-0.010
-551.383	-162.638	-0.179	0.009
-550.369	356.250	0.071	0.141
-549.354	-69.883	0.214	-0.082
-548.339	-167.466	-0.358	0.014
-547.325	198.887	0.194	0.298
-546.310	-21.653	-0.128	0.078
-545.296	325.500	0.099	0.190
-544.281	-200.000	0.008	-0.101
-543.266	800.000	0.065	-0.269
-542.252	-61.447	-0.306	0.129
-541.237	94.660	0.127	-0.144
-540.223	-142.914	0.160	-0.016
-539.208	800.000	0.079	-0.296
-538.193	66.050	0.135	0.137
-537.179	-49.325	-0.101	0.048
-536.164	352.835	0.076	0.152
-535.150	-51.508	-0.078	-0.037
-534.135	-94.470	-0.087	0.024
-533.121	-63.979	0.268	-0.110
-532.106	-23.830	-0.262	-0.157
-531.091	-137.186	-0.337	-0.038
-530.077	90.799	-0.140	-0.158
-529.062	-20.758	0.085	-0.052
-528.048	-134.173	-0.359	0.044
-527.033	166.161	0.165	-0.234
-526.018	18.251	-0.467	0.374
-525.004	507.637	-0.067	-0.156
-523.989	-200.000	-0.015	-0.229
-522.975	-200.000	-0.028	0.198
-521.960	-6.625	0.257	-0.175
-520.945	-200.000	-0.035	-0.265
-519.931	1.903	0.228	-0.165
-518.916	140.896	-0.039	-0.052
-517.902	-157.924	-0.130	0.008
-516.887	45.991	-0.116	0.107
-515.872	320.230	-0.136	-0.259
-514.858	-59.580	0.212	0.091
-513.843	-89.378	0.021	-0.006
-512.829	-200.000	-0.007	0.062
-511.814	-200.000	0.035	0.270
-510.799	-134.422	0.288	0.035
-509.785	-200.000	0.022	-0.261
-508.770	27.782	0.245	0.207
-507.756	-200.000	-0.069	0.304
-506.741	-200.000	-0.005	0.224
-505.726	-200.000	-0.040	0.279
-504.712	800.000	0.025	-0.088
-503.697	20.235	-0.152	-0.123
-502.683	666.353	0.072	0.187
-501.668	800.000	0.019	-0.066
-500.653	800.000	0.102	0.318
-499.639	-115.161	-0.241	-0.046
-498.624	-4.318	-0.251	-0.174
-497.610	-90.847	-0.124	-0.036
-496.595	-153.395	0.429	-0.030
-495.581	-79.285	-0.097	0.033
-494.566	214.763	0.037	-0.059
-493.551	132.311	-0.190	-0.245
-492.537	-23.225	-0.151	-0.091
-491.522	-60.108	-0.041	-0.018
-490.508	-156.740	-0.229	0.014
-489.493	251.156	-0.207	-0.352
-488.478	-200.000	-0.005	0.092
-487.464	800.000	-0.036	0.133
-486.449	11.876	-0.207	-0.159
-485.435	222.806	-0.226	-0.365
-484.420	472.844	0.094	0.211
-483.405	339.512	-0.106	0.207
-482.391	80.793	0.260	0.281
-481.376	116.437	0.033	0.040
-480.362	-60.922	-0.363	-0.154
-479.347	-200.000	-0.023	-0.311
-478.332	566.990	-0.178	0.432
-477.318	800.000	0.084	-0.235
-476.303	-200.000	-0.011	-0.084
-475.289	-103.065	-0.219	0.052
-474.274	29.852	0.152	0.130
-473.259	64.576	0.106	0.107
-472.245	800.000	0.080	-0.249
-471.230	-163.792	0.072	-0.003
-470.216	-107.104	-0.347	-0.077
-469.201	249.415	-0.138	0.233
-468.186	-200.000	0.035	-0.215
-467.172	800.000	0.070	0.203
-466.157	-200.000	0.047	-0.239
-465.143	-200.000	0.006	-0.273
-464.128	-152.904	0.192	-0.014
-463.113	47.925	0.235	0.219
-462.099	-200.000	0.007	0.130
-461.084	-200.000	0.001	0.081
-460.070	-128.280	0.299	-0.043
-459.055	-110.118	-0.121	-0.025
-458.040	772.614	0.065	0.177
-457.026	95.158	-0.109	0.125
-456.011	-119.212	0.074	0.013
-454.997	-93.421	0.049	0.014
-453.982	-9.571	-0.237	0.158
-452.968	-200.000	0.018	-0.096
-451.953	800.000	-0.071	-0.239
-450.938	-175.017	-0.218	0.006
-449.924	-200.000	0.012	-0.093
-448.909	-9.827	-0.192	0.128
-447.895	-22.441	-0.125	-0.075
-446.880	-35.577	0.124	-0.067
-445.865	-200.000	-0.018	0.227
-444.851	-172.064	0.137	-0.004
-443.836	104.708	0.223	-0.263
-442.822	800.000	0.126	0.406
-441.807	-200.000	0.004	-0.087
-440.792	-101.606	0.109	0.027
-439.778	-116.948	0.290	-0.053
-438.763	800.000	0.066	0.196
-437.749	156.787	-0.246	-0.340
-436.734	-91.706	-0.185	0.053
-435.719	366.581	0.104	-0.210
-434.705	-110.018	-0.069	0.014
-433.690	800.000	-0.048	0.193
-432.676	702.200	0.134	0.354
-431.661	800.000	-0.089	0.285
-430.646	-57.870	0.274	0.120
-429.632	-163.753	-0.377	-0.018
-428.617	52.889	0.096	-0.092
-427.603	-26.761	-0.063	-0.037
-426.588	-160.328	0.129	-0.007
-425.573	164.995	-0.102	-0.144
-424.559	-200.000	0.009	0.050
-423.544	800.000	-0.032	-0.126
-422.530	-200.000	0.004	-0.077
-421.515	35.461	-0.134	0.117
-420.500	-118.519	-0.472	0.084
-419.486	-78.179	0.341	-0.117
-418.471	164.759	-0.108	0.153
-417.457	-200.000	0.025	0.112
-416.442	38.500	-0.271	-0.241
-415.428	-53.108	-0.115	0.053
-414.413	-24.579	-0.211	0.126
-413.398	-200.000	-0.070	0.329
-412.384	-119.896	0.151	0.026
-411.369	-146.250	-0.229	-0.020
-410.355	-200.000	-0.023	0.145
-409.340	800.000	-0.090	0.250
-408.325	-200.000	0.056	-0.269
-407.311	-109.018	0.074	-0.016
-406.296	800.000	0.078	0.261
-405.282	-20.526	-0.188	0.116
-404.267	196.112	-0.071	0.108
-403.252	-75.049	0.132	0.047
-402.238	-49.965	0.113	0.053
-401.223	800.000	0.028	-0.078
-400.209	800.000	0.068	-0.203
-399.194	-70.111	-0.448	0.170
-398.179	-200.000	-0.079	0.407
-397.165	-4.169	0.180	0.124
-396.150	-29.053	0.147	-0.084
-395.136	-200.000	-0.018	-0.176
-394.121	-200.000	0.021	0.307
-393.106	196.433	0.192	-0.292
-392.092	265.149	-0.058	-0.101
-391.077	-128.521	-0.284	-0.040
-390.063	-200.000	-0.014	0.101
-389.048	61.088	-0.081	0.081
-388.033	303.201	-0.167	0.309
-387.019	194.201	0.074	-0.112
-386.004	291.780	0.071	-0.129
-384.990	-119.008	0.121	0.021
-383.975	-32.656	0.282	0.156
-382.960	-140.384	-0.066	0.007
-381.946	62.849	0.051	-0.051
-380.931	77.476	0.107	-0.114
-379.917	202.063	0.120	0.184
-378.902	-30.153	-0.187	-0.106
-377.888	-132.842	0.425	0.054
-376.873	288.255	0.149	0.269
-375.858	4.691	-0.033	0.024
-374.844	-112.811	0.327	0.065
-373.829	57.150	-0.190	-0.185
-372.815	-200.000	-0.134	-0.001
-371.800	-200.000	-0.039	-0.274
-370.785	-88.850	-0.428	-0.127
-369.771	-179.063	-0.173	0.004
-368.756	-200.000	-0.039	0.172
-367.742	-79.943	0.172	-0.058
-366.727	196.756	0.214	0.325
-365.712	800.000	0.033	0.118
-364.698	134.604	0.108	0.139
-363.683	497.034	-0.073	0.167
-362.669	182.446	0.193	0.283
-361.654	150.486	0.227	0.307
-360.639	-180.410	0.189	-0.004
-359.625	-50.697	-0.193	0.090
-358.610	331.467	-0.163	0.312
-357.596	366.742	0.054	0.109
-356.581	-52.666	-0.240	-0.110
-355.566	-173.654	-0.293	-0.009
-354.552	-160.335	0.131	-0.007
-353.537	378.878	0.146	-0.298
-352.523	-14.380	-0.193	-0.124
-351.508	-88.202	0.145	0.043
-350.493	-200.000	-0.039	-0.217
-349.479	-80.700	0.265	0.088
-348.464	-8.999	-0.106	-0.071
-347.450	100.236	0.248	-0.286
-346.435	4.109	0.120	0.087
-345.420	-200.000	-0.057	0.278
-344.406	445.605	-0.079	-0.172
-343.391	-91.790	0.116	0.033
-342.377	39.278	-0.206	0.184
-341.362	-200.000	0.008	0.225
-340.348	-200.000	-0.063	0.415
-339.333	38.684	-0.174	0.155
-338.318	14.924	-0.396	-0.308
-337.304	724.534	0.076	-0.202
-336.289	269.308	-0.095	-0.166
-335.275	-102.118	-0.336	-0.081
-334.260	-100.044	0.292	0.072
-333.245	219.117	0.254	0.404
-332.231	-200.000	0.070	-0.410
-331.216	-55.195	0.094	-0.042
-330.202	-67.906	-0.112	-0.044
-329.187	-39.878	0.277	0.144
-328.172	-140.829	0.216	0.022
-327.158	800.000	-0.049	0.152
-326.143	-85.715	0.444	0.137
-325.129	-142.914	-0.193	-0.019
-324.114	-112.580	0.386	-0.077
-323.099	72.939	0.125	-0.130
-322.085	800.000	-0.076	0.212
-321.070	249.732	-0.055	-0.093
-320.056	800.000	0.107	0.339
-319.041	-77.146	0.307	0.106
-318.026	351.578	-0.066	-0.129
-317.012	-17.106	0.103	0.064
-315.997	103.942	-0.053	-0.062
-314.983	207.747	-0.044	0.068
-313.968	-80.263	-0.353	-0.117
-312.953	-200.000	-0.032	-0.330
-311.939	169.137	-0.112	-0.158
-310.924	-200.000	0.017	-0.214
-309.910	188.786	0.152	0.227
-308.895	159.149	0.184	-0.254
-307.880	-200.000	0.015	-0.177
-306.866	-16.901	-0.219	-0.137
-305.851	800.000	0.020	-0.068
-304.837	402.464	-0.157	0.329
-303.822	799.643	-0.050	0.138
-302.807	-142.911	0.265	0.026
-301.793	52.726	-0.153	-0.145
-300.778	201.627	0.146	0.223
-299.764	122.386	-0.062	-0.076
-298.749	800.000	0.031	0.115
-297.735	-39.739	0.180	-0.093
-296.720	800.000	-0.076	0.300
-295.705	56.594	0.048	-0.046
-294.691	534.479	0.067	0.159
-293.676	-200.000	-0.023	-0.176
-292.662	41.866	-0.225	0.203
-291.647	486.994	-0.074	-0.168
-290.632	-131.498	-0.196	-0.026
-289.618	197.931	0.022	-0.034
-288.603	800.000	0.047	-0.175
-287.589	-200.000	-0.071	-0.328
-286.574	-74.604	-0.566	0.202
-285.559	157.781	-0.105	-0.145
-284.545	-161.066	0.129	0.007
-283.530	483.249	-0.108	0.244
-282.516	-20.605	0.163	-0.099
-281.501	-200.000	0.017	-0.155
-280.486	-200.000	-0.011	-0.102
-279.472	-192.941	-0.073	-0.001
-278.457	-65.421	-0.237	-0.094
-277.443	-41.435	0.087	0.044
-276.428	108.419	0.008	0.009
-275.413	-96.989	0.231	-0.060
-274.399	-200.000	0.018	-0.247
-273.384	-200.000	-0.034	0.163
-272.370	29.632	-0.219	-0.185
-271.355	-19.945	-0.195	-0.119
-270.340	-31.497	0.302	0.168
-269.326	800.000	0.064	0.261
-268.311	800.000	-0.070	-0.232
-267.297	-74.936	-0.187	0.066
-266.282	6.465	0.171	0.126
-265.267	-200.000	-0.022	-0.122
-264.253	-70.276	0.174	-0.066
-263.238	-94.328	-0.115	0.031
-262.224	-41.498	0.176	-0.090
-261.209	50.798	0.022	-0.020
-260.195	23.871	-0.197	0.161
-259.180	135.157	-0.126	-0.162
-258.165	37.268	0.140	-0.123
-257.151	65.351	-0.250	-0.251
-256.136	800.000	-0.035	-0.112
-255.122	-119.401	0.358	0.062
-254.107	109.680	-0.197	-0.234
-253.092	-108.113	0.371	0.080
-252.078	-200.000	0.012	0.156
-251.063	615.259	0.063	0.157
-250.049	-200.000	0.001	-0.139
-249.034	-9.823	0.207	0.137
-248.019	107.398	0.069	-0.081
-247.005	800.000	0.025	0.097
-245.990	800.000	-0.042	0.147
-244.976	66.250	-0.239	0.240
-243.961	-157.513	-0.077	0.005
-242.946	-200.000	0.068	-0.341
-241.932	-108.573	0.154	-0.033
-240.917	800.000	0.069	0.234
-239.903	363.438	-0.099	-0.197
-238.888	-134.490	0.166	0.020
-237.873	800.000	0.065	-0.221
-236.859	17.924	0.257	0.203
-235.844	-72.843	-0.170	-0.062
-234.830	-200.000	0.021	0.295
-233.815	-15.584	0.173	-0.109
-232.800	47.942	0.068	-0.063
-231.786	-200.000	-0.078	-0.424
-230.771	-200.000	-0.109	0.000
-229.757	-193.779	0.087	-0.001
-228.742	-169.247	-0.496	0.018
-227.727	-57.144	0.282	-0.123
-226.713	-179.121	0.131	0.003
-225.698	692.814	-0.110	-0.287
-224.684	-200.000	0.004	0.097
-223.669	-121.098	0.329	0.055
-222.655	800.000	0.096	-0.333
-221.640	-105.858	0.094	-0.021
-220.625	-96.768	0.152	0.040
-219.611	83.534	0.271	-0.292
-218.596	104.269	0.162	0.189
-217.582	-173.398	-0.257	0.008
-216.567	800.000	0.067	-0.195
-215.552	-200.000	-0.011	0.176
-214.538	-63.678	-0.253	0.103
-213.523	-190.853	-0.141	-0.001
-212.509	91.847	0.078	-0.087
-211.494	800.000	0.110	-0.331
-210.479	-200.000	0.003	-0.121
-209.465	380.099	0.134	-0.272
-208.450	800.000	-0.115	-0.316
-207.436	200.502	-0.084	0.128
-206.421	-70.803	0.180	0.067
-205.406	103.517	-0.177	-0.206
-204.392	210.246	0.144	0.224
-203.377	800.000	-0.096	-0.292
-202.363	179.167	-0.215	0.312
-201.348	-200.000	-0.017	-0.074
-200.333	-200.000	-0.011	-0.108
-199.319	320.915	-0.067	-0.127
-198.304	306.326	0.074	0.136
-197.290	189.489	-0.033	-0.049
-196.275	-131.532	0.229	0.030
-195.260	-61.257	0.167	0.070
-194.246	-200.000	-0.028	-0.420
-193.231	-35.412	-0.074	0.040
-192.217	-188.050	0.438	0.006
-191.202	41.168	-0.089	0.079
-190.187	202.270	-0.220	0.336
-189.173	356.318	0.163	0.321
-188.158	-47.920	-0.242	0.116
-187.144	-34.651	-0.111	0.060
-186.129	-68.020	0.252	0.097
-185.114	800.000	0.083	-0.273
-184.100	53.438	-0.033	0.031
-183.085	-80.178	0.346	-0.115
-182.071	484.779	0.090	0.203
-181.056	-3.649	0.314	-0.216
-180.042	262.590	-0.178	-0.305
-179.027	19.489	0.169	0.134
-178.012	70.417	-0.259	-0.265
-176.998	-125.792	0.141	-0.021
-175.983	374.345	-0.050	0.101
-174.969	-5.072	-0.061	0.042
-173.954	-162.696	-0.253	0.012
-172.939	114.677	0.183	-0.220
-171.925	800.000	-0.098	0.274
-170.910	111.068	-0.071	-0.085
-169.896	-59.478	-0.300	0.127
-168.881	201.695	0.146	0.222
-167.866	-35.202	-0.260	-0.140
-166.852	119.582	-0.110	-0.135
-165.837	800.000	-0.050	0.197
-164.823	-29.412	0.440	0.249
-163.808	61.253	0.132	-0.130
-162.793	-130.697	-0.109	0.015
-161.779	45.464	0.016	-0.015
-160.764	733.380	0.028	-0.073
-159.750	-0.224	0.209	-0.147
-158.735	800.000	0.097	-0.275
-157.720	183.366	-0.094	-0.138
-156.706	-50.242	0.297	-0.139
-155.691	-183.378	-0.236	-0.004
-154.677	175.234	0.115	0.165
-153.662	205.226	0.157	0.242
-152.647	-25.672	0.043	0.025
-151.633	-200.000	0.043	0.298
-150.618	688.683	0.103	-0.265
-149.604	174.275	0.106	-0.151
-148.589	-200.000	-0.003	0.013
-147.574	-81.613	-0.190	-0.062
-146.560	5.029	0.085	0.062
-145.545	367.502	-0.071	0.142
-144.531	-31.949	0.170	0.094
-143.516	-200.000	0.005	0.090
-142.502	111.228	-0.225	0.268
-141.487	-200.000	0.083	0.414
-140.472	-200.000	0.072	0.432
-139.458	-200.000	-0.021	-0.218
-138.443	63.148	0.140	-0.138
-137.429	800.000	-0.143	0.409
-136.414	800.000	0.027	0.091
-135.399	-163.131	-0.120	-0.006
-134.385	84.802	-0.195	-0.211
-133.370	-62.601	-0.103	0.042
-132.356	282.217	-0.135	-0.239
-131.341	112.753	-0.174	-0.208
-130.326	-94.593	-0.146	-0.039
-129.312	800.000	-0.091	0.267
-128.297	283.608	-0.072	-0.128
-127.283	800.000	-0.134	-0.382
-126.268	-122.257	0.179	0.029
-125.253	-61.670	-0.227	0.094
-124.239	-54.458	-0.065	0.029
-123.224	4.969	-0.115	0.084
-122.210	-45.105	-0.173	0.085
-121.195	213.844	0.066	0.104
