DTS Sentinel unit serial number:	SN413079Multiplexer serial number:	ORYXHardware model number:	OX4-SRSoftware version number:	ORYX F/W v4.00 Oryx Data Collector v3.7.2.0data status	okinstallation	princeton_trtdifferential loss correction	single-endedforward channel	channel 3reverse channel	N/Adate	2019/09/18time	04:04:34forward acquisition time	60.00reverse acquisition time	0.00gamma	496.2192k internal	0.2342k external	0.2342temperature offset calibration	0.9947default loss term (dB/km)	0.3790temperature slope calibration	1.0000multiplexer offset coefficient	1.0000multiplexer slope coefficient	1.0000fibre end	0.00T internal ref (°C)	23.22T ext. ref 1 (°C)	0.19T ext. ref 2 (°C)	18.01length (m)	temperature (°C)	Stokes	anti-Stokes-747.200	91.185	-0.177	0.199
-746.185	800.000	-0.068	0.243
-745.171	57.914	-0.237	-0.233
-744.156	281.493	0.015	-0.027
-743.142	800.000	0.028	0.108
-742.127	-161.502	-0.237	-0.012
-741.112	310.111	0.114	0.214
-740.098	-177.476	-0.088	0.002
-739.083	-151.613	0.231	-0.017
-738.069	139.762	-0.024	0.032
-737.054	-117.067	0.223	0.041
-736.039	-80.407	-0.443	0.148
-735.025	154.407	-0.140	0.192
-734.010	80.085	0.215	0.231
-732.996	-200.000	0.040	0.279
-731.981	-49.654	-0.173	-0.083
-730.966	800.000	0.073	0.219
-729.952	-200.000	-0.015	-0.069
-728.937	-128.707	-0.251	-0.035
-727.923	174.574	0.149	0.215
-726.908	800.000	-0.058	0.165
-725.894	-146.165	0.343	0.030
-724.879	-200.000	-0.049	0.000
-723.864	-200.000	-0.018	0.149
-722.850	152.455	-0.094	0.129
-721.835	-72.793	-0.333	-0.123
-720.821	-143.327	-0.190	-0.018
-719.806	353.538	0.007	0.015
-718.791	-51.135	-0.121	-0.057
-717.777	-126.963	-0.473	0.070
-716.762	-200.000	-0.049	0.276
-715.748	800.000	-0.046	-0.165
-714.733	52.454	-0.090	-0.086
-713.718	-196.056	-0.138	0.001
-712.704	625.129	-0.107	0.270
-711.689	139.911	-0.234	0.308
-710.675	-200.000	-0.013	0.102
-709.660	163.170	-0.197	0.277
-708.645	-181.427	-0.256	0.005
-707.631	517.249	-0.060	0.140
-706.616	708.304	0.020	0.053
-705.602	-200.000	-0.024	-0.139
-704.587	-17.726	0.050	-0.032
-703.572	154.195	0.099	0.136
-702.558	-0.885	0.133	-0.094
-701.543	-150.955	-0.060	0.005
-700.529	-86.031	0.101	-0.031
-699.514	-176.613	0.159	-0.004
-698.499	-137.121	-0.334	-0.038
-697.485	-67.835	0.149	0.058
-696.470	-41.112	-0.120	0.062
-695.456	721.851	0.071	-0.188
-694.441	-51.090	-0.362	-0.170
-693.426	136.636	0.104	-0.136
-692.412	533.732	-0.014	0.032
-691.397	84.255	-0.068	0.074
-690.383	-151.163	-0.347	-0.026
-689.368	800.000	-0.067	-0.188
-688.354	800.000	-0.057	-0.216
-687.339	800.000	-0.161	-0.497
-686.324	203.089	-0.179	-0.276
-685.310	164.460	0.184	0.259
-684.295	158.765	-0.272	0.378
-683.281	111.571	-0.307	0.370
-682.266	-43.859	0.116	0.058
-681.251	-81.286	-0.146	-0.048
-680.237	-71.339	-0.219	0.082
-679.222	223.041	-0.210	-0.338
-678.208	-67.279	-0.075	0.030
-677.193	66.018	0.099	0.100
-676.178	-23.295	-0.217	-0.130
-675.164	-42.462	0.099	-0.050
-674.149	39.758	-0.206	-0.185
-673.135	6.347	-0.263	0.195
-672.120	-106.621	0.218	-0.049
-671.105	680.432	0.021	-0.055
-670.091	800.000	-0.038	-0.107
-669.076	-60.644	-0.363	-0.154
-668.062	209.219	-0.133	0.208
-667.047	-200.000	-0.021	0.344
-666.032	-200.000	0.006	-0.262
-665.018	-200.000	-0.018	-0.176
-664.003	-200.000	0.030	0.462
-662.989	-28.694	0.223	0.128
-661.974	244.613	0.079	-0.132
-660.959	-86.653	0.236	0.072
-659.945	327.119	-0.086	0.165
-658.930	-200.000	0.094	-0.447
-657.916	-153.279	0.202	-0.014
-656.901	-14.892	-0.218	0.139
-655.886	-62.538	-0.178	0.074
-654.872	-76.357	-0.163	0.057
-653.857	21.612	-0.285	-0.232
-652.843	-200.000	-0.009	0.320
-651.828	-134.630	0.346	-0.042
-650.814	-23.636	0.104	-0.062
-649.799	-83.242	0.344	0.110
-648.784	-200.000	0.023	-0.375
-647.770	53.456	-0.142	-0.136
-646.755	-83.046	0.079	0.025
-645.741	-200.000	-0.045	0.249
-644.726	-124.842	0.208	-0.032
-643.711	10.188	0.088	0.066
-642.697	299.848	-0.094	0.173
-641.682	799.379	0.118	-0.324
-640.668	225.586	-0.199	-0.321
-639.653	-78.866	-0.114	0.039
-638.638	-132.899	-0.271	0.034
-637.624	800.000	-0.053	-0.229
-636.609	-123.894	0.156	0.025
-635.595	-54.333	0.173	-0.078
-634.580	53.779	-0.168	0.161
-633.565	659.374	0.081	0.208
-632.551	0.050	0.299	-0.212
-631.536	-19.412	0.035	-0.022
-630.522	65.287	-0.126	-0.127
-629.507	19.582	-0.271	-0.218
-628.492	54.622	-0.176	-0.169
-627.478	-200.000	0.000	-0.269
-626.463	-197.349	-0.084	0.001
-625.449	800.000	-0.047	0.179
-624.434	184.495	0.199	-0.294
-623.419	800.000	0.057	-0.212
-622.405	379.288	0.073	0.149
-621.390	800.000	0.148	-0.524
-620.376	-165.749	0.216	0.009
-619.361	-142.791	-0.176	0.017
-618.346	-150.240	-0.059	-0.005
-617.332	-112.750	0.366	0.072
-616.317	117.753	-0.093	-0.115
-615.303	-10.276	-0.293	0.194
-614.288	224.821	0.042	0.068
-613.273	-151.750	-0.113	0.008
-612.259	-158.502	-0.138	-0.008
-611.244	-138.250	-0.154	0.017
-610.230	-65.531	-0.237	0.095
-609.215	-200.000	0.001	0.091
-608.201	-127.003	-0.181	-0.026
-607.186	377.789	0.026	-0.052
-606.171	-111.903	-0.191	0.038
-605.157	100.656	-0.177	-0.205
-604.142	-153.748	-0.083	-0.006
-603.128	-54.443	0.117	0.053
-602.113	314.875	0.071	-0.133
-601.098	-17.122	0.136	-0.085
-600.084	578.272	0.168	-0.409
-599.069	-85.182	-0.427	-0.133
-598.055	19.308	0.123	-0.098
-597.040	77.046	0.312	-0.330
-596.025	-94.405	-0.081	-0.022
-595.011	-83.680	-0.393	-0.125
-593.996	-37.920	-0.436	0.231
-592.982	126.825	0.017	-0.022
-591.967	-200.000	0.003	0.020
-590.952	65.884	-0.052	0.052
-589.938	-200.000	-0.026	-0.333
-588.923	167.640	-0.147	0.207
-587.909	256.001	0.098	-0.168
-586.894	184.573	-0.106	-0.156
-585.879	-103.861	-0.229	0.053
-584.865	-64.801	0.398	0.160
-583.850	-13.601	-0.166	0.107
-582.836	-91.490	-0.196	-0.056
-581.821	-200.000	-0.001	-0.061
-580.806	284.672	-0.038	0.068
-579.792	-200.000	-0.039	0.191
-578.777	-14.460	-0.203	-0.130
-577.763	174.561	0.147	-0.212
-576.748	63.538	-0.154	-0.154
-575.733	-24.691	0.203	0.120
-574.719	-167.502	0.197	0.008
-573.704	83.906	-0.088	0.096
-572.690	-133.970	0.367	0.045
-571.675	-33.640	0.156	-0.086
-570.661	800.000	-0.087	0.283
-569.646	608.544	-0.137	-0.340
-568.631	-190.368	0.367	0.004
-567.617	512.537	0.046	-0.107
-566.602	121.385	0.210	-0.260
-565.588	-200.000	-0.020	0.162
-564.573	-37.627	0.288	0.153
-563.558	-45.809	-0.070	0.035
-562.544	423.768	-0.181	-0.386
-561.529	800.000	-0.116	0.410
-560.515	218.879	-0.128	0.203
-559.500	43.443	-0.307	-0.279
-558.485	800.000	-0.120	-0.423
-557.471	-200.000	-0.027	0.194
-556.456	-96.224	-0.420	0.111
-555.442	136.795	-0.050	-0.065
-554.427	-121.685	-0.330	0.054
-553.412	-104.151	0.192	-0.044
-552.398	-13.516	-0.147	-0.095
-551.383	-70.625	0.306	-0.115
-550.369	-12.738	0.088	-0.057
-549.354	-19.480	-0.240	-0.148
-548.339	-132.278	0.495	0.064
-547.325	-79.576	-0.466	0.156
-546.310	-38.218	0.126	0.066
-545.296	26.542	0.239	-0.199
-544.281	301.000	-0.050	0.091
-543.266	-104.655	0.137	0.031
-542.252	-95.730	-0.335	-0.089
-541.237	152.229	0.280	-0.380
-540.223	-200.000	-0.023	0.339
-539.208	433.138	0.047	0.101
-538.193	101.506	0.226	-0.262
-537.179	-129.626	-0.055	0.007
-536.164	800.000	0.059	0.165
-535.150	-42.684	-0.103	-0.052
-534.135	-113.588	-0.147	-0.028
-533.121	357.762	0.197	0.391
-532.106	-200.000	-0.064	-0.367
-531.091	800.000	-0.038	-0.127
-530.077	-200.000	-0.019	0.195
-529.062	-107.521	-0.272	-0.059
-528.048	103.000	0.064	0.074
-527.033	93.981	-0.203	-0.229
-526.018	800.000	-0.098	0.287
-525.004	-25.389	0.116	0.068
-523.989	337.774	-0.233	0.450
-522.975	70.069	0.137	-0.140
-521.960	-200.000	-0.028	-0.154
-520.945	-99.245	-0.083	0.021
-519.931	-200.000	-0.003	-0.054
-518.916	-125.687	0.189	-0.028
-517.902	251.715	0.107	-0.181
-516.887	-1.966	-0.028	-0.019
-515.872	-195.731	-0.122	0.001
-514.858	453.006	0.119	0.261
-513.843	-32.117	-0.184	0.102
-512.829	800.000	0.074	-0.220
-511.814	65.735	0.283	-0.285
-510.799	-136.752	-0.165	-0.019
-509.785	-200.000	-0.027	0.185
-508.770	172.629	-0.233	0.333
-507.756	-126.325	-0.455	-0.067
-506.741	-6.389	0.071	0.048
-505.726	-184.533	-0.305	-0.005
-504.712	-133.482	-0.103	-0.013
-503.697	90.776	-0.328	0.364
-502.683	14.054	-0.195	-0.150
-501.668	-117.537	-0.281	-0.050
-500.653	-79.271	0.151	-0.051
-499.639	-174.599	-0.487	0.014
-498.624	800.000	-0.099	-0.291
-497.610	-48.592	-0.364	-0.174
-496.595	31.965	-0.137	-0.117
-495.581	-200.000	-0.014	0.113
-494.566	209.830	-0.146	0.226
-493.551	-58.317	-0.165	0.071
-492.537	-120.399	-0.160	-0.027
-491.522	-95.174	0.279	0.075
-490.508	800.000	0.100	0.385
-489.493	149.963	0.090	-0.121
-488.478	-0.869	-0.066	-0.046
-487.464	-25.630	-0.251	0.147
-486.449	54.179	-0.161	-0.154
-485.435	-63.011	-0.162	-0.066
-484.420	-93.899	-0.297	0.081
-483.405	-200.000	0.025	0.226
-482.391	800.000	-0.096	0.330
-481.376	577.327	-0.064	-0.154
-480.362	49.600	0.096	0.090
-479.347	800.000	0.063	0.229
-478.332	-200.000	0.006	-0.088
-477.318	-200.000	-0.001	-0.269
-476.303	-156.822	0.483	-0.029
-475.289	48.180	-0.159	-0.148
-474.274	-20.517	0.274	0.167
-473.259	56.906	0.104	-0.101
-472.245	520.349	0.112	-0.260
-471.230	-128.589	0.222	0.031
-470.216	800.000	0.051	0.185
-469.201	-200.000	0.039	0.263
-468.186	-80.272	0.126	0.042
-467.172	-55.556	0.246	-0.109
-466.157	398.296	0.106	-0.220
-465.143	-104.937	-0.119	-0.027
-464.128	-200.000	-0.053	0.273
-463.113	-200.000	-0.013	-0.284
-462.099	800.000	0.020	0.055
-461.084	-88.566	-0.167	0.049
-460.070	417.901	0.140	0.297
-459.055	-69.017	-0.362	0.138
-458.040	-130.561	-0.035	-0.005
-457.026	-11.502	0.081	0.053
-456.011	229.690	0.144	0.233
-454.997	-21.326	-0.228	-0.138
-453.982	171.018	0.104	-0.148
-452.968	-98.832	0.145	0.036
-451.953	-12.993	0.142	-0.092
-450.938	-21.136	-0.116	-0.070
-449.924	-200.000	0.027	-0.310
-448.909	79.185	0.263	-0.279
-447.895	-96.247	0.147	-0.038
-446.880	795.824	-0.034	0.092
-445.865	57.993	0.145	0.141
-444.851	800.000	-0.076	-0.236
-443.836	-95.459	0.414	0.110
-442.822	-1.410	0.281	-0.196
-441.807	800.000	0.039	-0.130
-440.792	800.000	0.042	-0.142
-439.778	-68.305	0.171	0.066
-438.763	-75.361	0.157	-0.055
-437.749	-70.703	-0.208	0.078
-436.734	90.971	0.121	-0.135
-435.719	-98.114	0.141	0.036
-434.705	-128.896	0.302	-0.042
-433.690	116.919	-0.115	-0.140
-432.676	89.930	0.214	-0.236
-431.661	-183.231	-0.285	-0.005
-430.646	188.201	-0.122	0.180
-429.632	-81.004	-0.139	-0.045
-428.617	-70.698	-0.025	0.009
-427.603	573.996	-0.094	-0.226
-426.588	-5.110	0.137	-0.093
-425.573	25.539	0.229	0.188
-424.559	689.239	0.127	0.329
-423.544	-200.000	-0.049	0.480
-422.530	-200.000	0.003	0.103
-421.515	700.846	-0.030	0.079
-420.500	352.180	-0.071	0.139
-419.486	-11.020	-0.050	0.033
-418.471	-200.000	0.341	0.000
-417.457	-72.240	0.096	-0.035
-416.442	-59.494	-0.638	0.271
-415.428	104.395	0.040	-0.046
-414.413	-65.957	-0.099	0.039
-413.398	13.229	-0.139	-0.107
-412.384	310.792	-0.156	0.288
-411.369	-41.434	-0.113	-0.058
-410.355	29.289	0.216	-0.181
-409.340	42.811	-0.258	-0.232
-408.325	285.594	0.178	0.317
-407.311	30.295	0.092	0.078
-406.296	800.000	-0.062	-0.261
-405.282	-200.000	-0.022	0.104
-404.267	20.325	-0.086	-0.069
-403.252	-106.554	-0.173	-0.038
-402.238	352.513	-0.185	-0.362
-401.223	800.000	0.192	0.538
-400.209	800.000	-0.012	-0.042
-399.194	800.000	-0.063	0.180
-398.179	25.731	0.200	0.164
-397.165	-85.962	0.533	0.163
-396.150	-33.273	0.173	-0.095
-395.136	-38.968	0.071	-0.037
-394.121	61.955	0.224	-0.221
-393.106	12.247	-0.431	-0.328
-392.092	-200.000	-0.015	0.201
-391.077	-74.719	0.098	-0.035
-390.063	4.015	0.457	0.330
-389.048	223.090	0.116	-0.185
-388.033	794.223	0.089	-0.241
-387.019	-122.952	-0.215	-0.034
-386.004	-163.852	-0.260	-0.012
-384.990	-131.591	-0.390	-0.051
-383.975	60.848	0.268	-0.263
-382.960	-200.000	-0.022	-0.106
-381.946	387.285	0.091	0.185
-380.931	280.252	0.094	0.167
-379.917	-35.646	0.322	-0.172
-378.902	-133.882	-0.041	0.005
-377.888	74.205	-0.191	0.198
-376.873	-68.993	0.225	-0.085
-375.858	103.154	-0.154	0.178
-374.844	-48.747	0.164	-0.078
-373.829	66.448	0.033	-0.033
-372.815	-42.764	0.217	0.109
-371.800	-104.336	-0.236	0.054
-370.785	-200.000	0.040	-0.174
-369.771	116.532	-0.140	0.169
-368.756	96.354	0.152	0.171
-367.742	-89.591	-0.172	0.050
-366.727	213.621	0.180	0.281
-365.712	493.947	0.067	-0.152
-364.698	-143.981	-0.063	-0.006
-363.683	-22.455	-0.325	0.194
-362.669	9.279	0.367	-0.274
-361.654	-118.384	-0.142	0.025
-360.639	468.959	0.139	0.309
-359.625	-137.548	0.147	-0.016
-358.610	-50.717	0.359	0.167
-357.596	-177.945	-0.125	0.003
-356.581	800.000	-0.072	-0.223
-355.566	-200.000	-0.022	-0.178
-354.552	53.064	0.093	-0.088
-353.537	-76.765	0.304	0.105
-352.523	-200.000	-0.030	-0.131
-351.508	-10.502	0.238	0.155
-350.493	568.596	-0.072	-0.174
-349.479	112.716	-0.068	0.081
-348.464	71.493	0.204	0.209
-347.450	-93.785	-0.145	0.039
-346.435	141.841	0.166	0.217
-345.420	-54.970	0.278	-0.123
-344.406	-158.705	0.091	0.005
-343.391	15.403	-0.096	-0.074
-342.377	800.000	0.114	-0.478
-341.362	417.710	0.048	0.100
-340.348	-91.160	0.136	0.038
-339.333	191.603	-0.062	-0.092
-338.318	-82.565	0.090	0.029
-337.304	759.720	0.095	-0.253
-336.289	800.000	-0.017	0.063
-335.275	-200.000	-0.008	-0.044
-334.260	-200.000	0.044	0.273
-333.245	497.536	0.075	-0.170
-332.231	71.206	0.248	0.254
-331.216	-88.861	0.211	-0.062
-330.202	771.723	-0.101	0.272
-329.187	-55.331	0.040	0.017
-328.172	-164.709	-0.315	0.014
-327.158	132.887	-0.199	0.253
-326.143	-200.000	0.033	0.231
-325.129	25.812	-0.255	-0.209
-324.114	-200.000	-0.009	-0.299
-323.099	-118.362	0.116	0.020
-322.085	-8.015	0.098	-0.065
-321.070	183.204	0.023	-0.034
-320.056	-185.994	-0.290	-0.004
-319.041	22.712	-0.031	0.025
-318.026	800.000	0.038	0.119
-317.012	-200.000	-0.021	0.129
-315.997	-68.999	-0.284	-0.108
-314.983	-55.934	0.337	0.148
-313.968	-128.876	-0.339	0.047
-312.953	-200.000	0.008	0.208
-311.939	227.500	0.072	-0.115
-310.924	-200.000	0.070	0.341
-309.910	-10.243	-0.297	0.194
-308.895	138.806	0.077	0.100
-307.880	-175.859	0.229	0.006
-306.866	-70.682	0.026	-0.010
-305.851	-200.000	0.003	0.240
-304.837	-66.453	0.359	0.140
-303.822	-60.349	-0.175	-0.073
-302.807	-200.000	-0.038	-0.187
-301.793	55.583	0.324	-0.309
-300.778	100.732	-0.130	-0.149
-299.764	95.219	-0.230	-0.258
-298.749	299.897	0.081	0.148
-297.735	-142.249	0.078	-0.008
-296.720	-200.000	-0.019	-0.281
-295.705	-66.616	0.202	-0.079
-294.691	-22.660	-0.087	0.052
-293.676	-91.370	-0.129	0.036
-292.662	-80.523	0.250	-0.082
-291.647	-49.184	0.091	0.043
-290.632	177.601	-0.130	0.186
-289.618	-197.660	0.185	0.001
-288.603	-199.654	-0.232	0.001
-287.589	-200.000	-0.015	0.262
-286.574	55.773	0.225	0.215
-285.559	-121.044	0.225	0.037
-284.545	599.702	-0.106	0.259
-283.530	37.020	0.103	0.090
-282.516	-25.495	-0.122	0.071
-281.501	507.247	0.033	0.076
-280.486	60.512	0.168	0.164
-279.472	-200.000	0.016	-0.101
-278.457	495.833	-0.044	0.100
-277.443	-69.365	0.465	0.176
-276.428	-15.836	0.107	0.067
-275.413	-104.205	-0.186	0.042
-274.399	-1.767	-0.153	-0.106
-273.384	11.036	-0.320	-0.240
-272.370	-97.530	0.304	0.078
-271.355	-160.900	-0.173	0.009
-270.340	63.881	0.094	0.093
-269.326	-200.000	0.041	-0.197
-268.311	-60.380	0.330	0.138
-267.297	7.271	-0.130	0.095
-266.282	47.378	-0.126	-0.115
-265.267	281.934	-0.143	-0.252
-264.253	-89.719	0.287	-0.083
-263.238	800.000	-0.098	-0.333
-262.224	51.447	-0.196	0.183
-261.209	-200.000	0.013	-0.136
-260.195	-80.293	0.175	0.057
-259.180	-112.922	-0.268	-0.052
-258.165	283.301	0.122	-0.216
-257.151	-153.135	0.212	-0.015
-256.136	-200.000	0.011	-0.116
-255.122	101.329	-0.056	0.064
-254.107	-200.000	0.001	-0.118
-253.092	40.090	0.128	-0.113
-252.078	551.093	-0.013	0.031
-251.063	-200.000	-0.001	0.020
-250.049	454.988	0.160	-0.348
-249.034	26.224	-0.094	-0.077
-248.019	-86.630	-0.174	0.052
-247.005	46.837	0.233	-0.213
-245.990	-27.278	-0.148	-0.085
-244.976	-172.355	-0.111	-0.003
-243.961	330.700	-0.121	0.229
-242.946	35.372	0.260	0.224
-241.932	-61.889	-0.332	-0.136
-240.917	-52.748	-0.145	0.066
-239.903	268.276	0.133	0.229
-238.888	-107.293	0.175	0.038
-237.873	-2.619	-0.017	-0.012
-236.859	-200.000	-0.018	-0.144
-235.844	-15.206	-0.278	0.175
-234.830	645.887	0.064	0.159
-233.815	731.391	-0.049	0.128
-232.800	30.456	0.186	0.156
-231.786	161.577	0.169	-0.232
-230.771	199.298	-0.172	-0.259
-229.757	-190.294	0.139	-0.002
-228.742	-164.557	-0.354	0.016
-227.727	-198.962	-0.107	0.001
-226.713	25.371	-0.204	0.167
-225.698	-64.645	0.218	0.087
-224.684	-200.000	0.004	-0.054
-223.669	-92.472	0.178	0.049
-222.655	800.000	-0.064	0.216
-221.640	-200.000	0.043	0.269
-220.625	-200.000	0.008	0.061
-219.611	-200.000	-0.039	-0.320
-218.596	-105.586	0.174	0.039
-217.582	348.157	-0.160	-0.310
-216.567	-140.513	-0.315	-0.032
-215.552	-88.955	-0.025	-0.007
-214.538	131.140	-0.215	0.271
-213.523	-88.591	0.372	-0.109
-212.509	-14.060	0.180	-0.114
-211.494	-15.651	-0.143	-0.090
-210.479	-200.000	0.028	0.327
-209.465	-13.988	-0.221	-0.140
-208.450	-143.809	-0.170	0.016
-207.436	-97.415	0.229	-0.058
-206.421	-83.926	-0.346	0.108
-205.406	-200.000	-0.019	0.358
-204.392	-200.000	0.014	0.101
-203.377	-88.313	-0.147	0.043
-202.363	-4.664	0.223	0.151
-201.348	-58.110	0.157	0.067
-200.333	-200.000	-0.073	0.548
-199.319	-103.432	-0.224	-0.052
-198.304	-138.152	-0.016	-0.002
-197.290	-176.115	0.338	0.009
-196.275	-200.000	-0.002	-0.022
-195.260	37.855	-0.226	-0.197
-194.246	662.738	-0.154	-0.388
-193.231	-157.332	0.228	0.013
-192.217	29.387	0.130	-0.108
-191.202	414.907	-0.054	-0.113
-190.187	-21.826	-0.279	0.166
-189.173	800.000	0.052	-0.168
-188.158	245.507	-0.151	-0.249
-187.144	-200.000	-0.013	0.155
-186.129	70.854	-0.142	-0.144
-185.114	-69.143	0.087	-0.033
-184.100	603.616	0.100	0.244
-183.085	64.264	-0.093	-0.091
-182.071	360.157	0.143	-0.281
-181.056	-200.000	-0.005	0.319
-180.042	144.483	0.108	0.142
-179.027	800.000	0.078	0.283
-178.012	-89.548	-0.123	-0.036
-176.998	133.847	0.109	-0.139
-175.983	-200.000	-0.021	0.130
-174.969	175.527	0.150	0.213
-173.954	170.330	-0.078	-0.109
-172.939	-200.000	0.018	-0.398
-171.925	768.528	-0.110	-0.292
-170.910	-200.000	-0.030	0.330
-169.896	-100.258	0.289	0.070
-168.881	-118.195	0.195	0.034
-167.866	-200.000	-0.008	0.226
-166.852	173.650	0.056	-0.080
-165.837	-23.620	-0.053	-0.031
-164.823	-98.613	0.282	0.071
-163.808	75.372	0.058	0.060
-162.793	-8.524	0.080	-0.053
-161.779	-55.241	0.008	-0.004
-160.764	677.399	-0.099	0.251
-159.750	-160.226	0.226	0.012
-158.735	-11.639	-0.063	-0.040
-157.720	-200.000	0.030	0.130
-156.706	800.000	-0.063	0.234
-155.691	-4.338	0.273	-0.185
-154.677	-52.007	-0.170	0.077
-153.662	800.000	-0.054	0.159
-152.647	-102.331	-0.239	-0.056
-151.633	-98.750	-0.196	0.049
-150.618	9.286	-0.145	0.107
-149.604	-3.968	0.158	-0.107
-148.589	-40.072	-0.101	-0.052
-147.574	-97.902	0.089	-0.022
-146.560	-69.296	-0.251	-0.094
-145.545	-27.077	0.204	0.116
-144.531	-113.712	-0.078	0.015
-143.516	-106.005	0.185	-0.041
-142.502	-200.000	-0.042	0.258
-141.487	-200.000	0.044	0.227
-140.472	-55.841	-0.220	-0.096
-139.458	-183.488	0.311	0.005
-138.443	-113.255	-0.133	-0.026
-137.429	87.232	0.173	0.187
-136.414	800.000	0.084	0.233
-135.399	-102.465	0.104	0.024
-134.385	474.921	0.257	-0.567
-133.370	167.329	0.287	0.399
-132.356	800.000	0.070	-0.254
-131.341	-200.000	0.007	0.360
-130.326	288.555	-0.139	-0.245
-129.312	-46.546	-0.498	-0.239
-128.297	296.068	0.268	-0.480
-127.283	426.679	-0.135	-0.286
-126.268	-200.000	0.003	-0.299
-125.253	-134.122	-0.315	0.038
-124.239	-167.813	0.285	-0.011
-123.224	-77.899	0.274	0.092
-122.210	800.000	0.038	0.114
