DTS Sentinel unit serial number:	SN413079Multiplexer serial number:	ORYXHardware model number:	OX4-SRSoftware version number:	ORYX F/W v4.00 Oryx Data Collector v3.7.2.0data status	okinstallation	princeton_trtdifferential loss correction	single-endedforward channel	channel 3reverse channel	N/Adate	2019/09/19time	05:00:35forward acquisition time	60.00reverse acquisition time	0.00gamma	496.2192k internal	0.2348k external	0.2348temperature offset calibration	0.9992default loss term (dB/km)	0.3790temperature slope calibration	1.0000multiplexer offset coefficient	1.0000multiplexer slope coefficient	1.0000fibre end	0.00T internal ref (°C)	19.70T ext. ref 1 (°C)	0.62T ext. ref 2 (°C)	12.96length (m)	temperature (°C)	Stokes	anti-Stokes-747.200	6.028	0.097	0.072
-746.185	-68.300	-0.367	-0.142
-745.171	-68.833	0.085	0.033
-744.156	74.034	-0.309	-0.324
-743.142	47.551	-0.338	-0.315
-742.127	74.213	-0.222	0.233
-741.112	350.343	0.175	0.345
-740.098	18.180	-0.058	-0.046
-739.083	9.662	0.117	0.089
-738.069	137.714	-0.212	0.277
-737.054	-200.000	0.041	-0.423
-736.039	800.000	-0.056	-0.219
-735.025	-70.107	0.391	0.149
-734.010	-200.000	0.009	0.119
-732.996	33.606	-0.102	-0.089
-731.981	-75.828	-0.306	-0.108
-730.966	-200.000	-0.004	0.089
-729.952	-75.468	0.102	0.036
-728.937	-29.199	0.213	0.122
-727.923	-49.288	-0.086	-0.041
-726.908	-159.938	0.077	0.004
-725.894	160.491	0.144	-0.201
-724.879	-68.872	-0.125	-0.048
-723.864	-117.295	-0.122	0.022
-722.850	114.254	-0.068	0.082
-721.835	800.000	0.025	-0.109
-720.821	-12.212	0.020	0.013
-719.806	87.231	-0.256	-0.283
-718.791	-20.815	-0.192	-0.118
-717.777	800.000	-0.117	-0.464
-716.762	-76.798	-0.093	-0.032
-715.748	233.433	-0.179	0.294
-714.733	-69.612	0.165	0.063
-713.718	558.267	0.058	-0.140
-712.704	-136.399	0.066	0.008
-711.689	800.000	0.103	-0.409
-710.675	800.000	0.054	0.154
-709.660	-200.000	-0.014	-0.106
-708.645	800.000	-0.046	-0.150
-707.631	800.000	0.099	0.352
-706.616	-62.269	-0.160	0.067
-705.602	-44.895	-0.246	0.122
-704.587	156.816	0.136	-0.187
-703.572	-39.015	0.166	0.087
-702.558	288.105	-0.104	-0.188
-701.543	-200.000	-0.018	-0.110
-700.529	58.798	-0.306	-0.300
-699.514	-36.662	-0.214	-0.115
-698.499	-10.930	0.224	-0.147
-697.485	-200.000	0.010	-0.280
-696.470	-143.996	-0.363	0.034
-695.456	42.973	0.239	0.217
-694.441	800.000	-0.053	-0.206
-693.426	48.510	0.158	0.147
-692.412	-116.730	0.210	-0.038
-691.397	196.366	0.073	-0.111
-690.383	-200.000	-0.005	-0.126
-689.368	-53.156	-0.203	0.093
-688.354	-200.000	-0.009	0.085
-687.339	-113.208	0.142	0.028
-686.324	-116.774	-0.120	0.022
-685.310	176.808	0.076	0.111
-684.295	728.598	-0.024	-0.063
-683.281	194.907	-0.120	-0.182
-682.266	41.926	0.334	-0.302
-681.251	-12.137	-0.211	-0.138
-680.237	356.708	0.166	-0.330
-679.222	24.936	0.072	0.059
-678.208	92.985	0.235	-0.265
-677.193	137.557	0.158	-0.206
-676.178	-56.256	0.102	-0.045
-675.164	-91.790	-0.061	0.017
-674.149	-13.395	0.130	-0.084
-673.135	119.540	-0.139	0.172
-672.120	799.112	-0.176	-0.482
-671.105	448.802	-0.155	-0.341
-670.091	-200.000	0.032	0.217
-669.076	-76.461	-0.256	0.090
-668.062	-102.109	-0.112	-0.027
-667.047	800.000	-0.081	0.344
-666.032	800.000	0.019	-0.069
-665.018	86.930	0.026	-0.028
-664.003	299.210	-0.060	0.111
-662.989	-136.942	-0.173	-0.020
-661.974	800.000	-0.048	0.194
-660.959	51.851	0.113	-0.107
-659.945	800.000	-0.123	-0.387
-658.930	-200.000	0.020	-0.237
-657.916	800.000	0.037	-0.158
-656.901	-123.040	-0.378	-0.061
-655.886	-200.000	0.001	-0.234
-654.872	472.742	0.031	0.070
-653.857	-12.448	-0.426	-0.277
-652.843	214.171	0.136	-0.214
-651.828	-47.735	0.284	-0.137
-650.814	88.888	-0.332	-0.368
-649.799	-106.797	0.203	-0.045
-648.784	-200.000	-0.081	0.589
-647.770	800.000	-0.106	-0.430
-646.755	-141.809	0.199	0.020
-645.741	29.120	-0.085	-0.072
-644.726	800.000	-0.039	0.145
-643.711	-194.851	-0.221	0.002
-642.697	121.946	0.120	-0.149
-641.682	274.458	-0.186	-0.328
-640.668	3.082	0.134	-0.097
-639.653	-100.979	-0.394	-0.096
-638.638	44.189	0.051	0.047
-637.624	-200.000	0.048	-0.224
-636.609	-200.000	-0.079	-0.350
-635.595	780.601	-0.033	-0.089
-634.580	126.731	0.105	0.133
-633.565	-147.648	-0.302	-0.025
-632.551	-36.184	0.106	-0.057
-631.536	-12.963	-0.192	-0.124
-630.522	20.736	-0.094	-0.076
-629.507	-113.361	-0.050	0.010
-628.492	-84.812	0.268	0.084
-627.478	-123.596	0.052	0.008
-626.463	-78.534	0.301	0.102
-625.449	800.000	0.065	-0.247
-624.434	-17.506	-0.166	0.104
-623.419	304.647	0.152	0.280
-622.405	-185.116	0.336	-0.005
-621.390	98.316	-0.144	0.165
-620.376	90.648	-0.112	-0.125
-619.361	-10.608	-0.280	-0.184
-618.346	-200.000	-0.001	0.126
-617.332	-200.000	-0.024	-0.323
-616.317	-140.456	-0.222	-0.023
-615.303	-118.132	-0.255	-0.045
-614.288	-200.000	-0.005	0.043
-613.273	-129.098	-0.116	0.016
-612.259	3.525	0.118	-0.085
-611.244	800.000	-0.017	0.057
-610.230	481.199	-0.106	0.239
-609.215	-200.000	0.004	0.043
-608.201	324.064	0.031	0.060
-607.186	4.565	-0.171	0.125
-606.171	-75.968	-0.357	-0.125
-605.157	800.000	0.036	-0.153
-604.142	-200.000	0.009	0.203
-603.128	171.649	0.089	0.126
-602.113	-200.000	0.003	-0.210
-601.098	793.611	0.050	-0.136
-600.084	391.608	-0.125	0.257
-599.069	-200.000	-0.088	-0.384
-598.055	508.955	-0.023	-0.053
-597.040	800.000	-0.090	-0.328
-596.025	-200.000	0.048	-0.294
-595.011	-32.729	0.472	-0.261
-593.996	184.986	-0.115	-0.169
-592.982	17.655	0.188	-0.148
-591.967	174.739	0.067	-0.097
-590.952	-1.879	0.122	0.085
-589.938	63.123	-0.116	-0.115
-588.923	-63.630	-0.394	-0.160
-587.909	61.888	-0.061	0.061
-586.894	304.145	-0.027	0.049
-585.879	-31.403	0.101	-0.056
-584.865	597.012	-0.137	0.338
-583.850	300.584	-0.178	-0.325
-582.836	-108.094	-0.175	0.038
-581.821	-200.000	0.001	0.035
-580.806	-49.176	-0.185	0.088
-579.792	6.809	-0.210	-0.155
-578.777	-31.832	0.207	0.115
-577.763	82.668	0.074	0.080
-576.748	-200.000	0.074	-0.489
-575.733	18.492	-0.066	0.052
-574.719	675.685	-0.028	-0.072
-573.704	-200.000	-0.034	0.223
-572.690	38.476	-0.131	-0.116
-571.675	310.094	-0.071	-0.131
-570.661	254.301	0.075	-0.127
-569.646	28.232	-0.086	-0.072
-568.631	0.136	0.096	0.068
-567.617	-114.704	0.144	0.027
-566.602	222.293	-0.259	0.414
-565.588	20.540	-0.135	0.108
-564.573	800.000	-0.047	-0.175
-563.558	301.039	-0.124	-0.228
-562.544	-11.318	0.142	-0.093
-561.529	392.940	0.104	-0.215
-560.515	7.061	0.246	-0.182
-559.500	277.857	-0.050	0.089
-558.485	-200.000	-0.004	-0.068
-557.471	-200.000	0.032	0.206
-556.456	707.099	0.213	0.558
-555.442	-146.316	0.284	-0.025
-554.427	-200.000	0.020	0.414
-553.412	397.374	-0.213	-0.441
-552.398	125.943	0.076	0.095
-551.383	-200.000	0.036	-0.263
-550.369	-43.812	-0.142	0.071
-549.354	-106.579	-0.285	0.063
-548.339	240.726	0.082	-0.136
-547.325	490.878	-0.022	0.051
-546.310	-61.689	0.130	-0.054
-545.296	800.000	0.048	-0.160
-544.281	230.733	-0.106	0.172
-543.266	124.049	0.243	0.303
-542.252	-83.008	-0.325	0.104
-541.237	25.145	-0.112	0.092
-540.223	234.471	0.065	0.106
-539.208	-86.317	-0.256	-0.078
-538.193	-117.928	-0.214	-0.038
-537.179	14.928	-0.247	0.191
-536.164	65.648	0.198	-0.199
-535.150	-200.000	-0.038	0.274
-534.135	-56.283	-0.094	-0.041
-533.121	57.084	0.171	0.165
-532.106	329.372	-0.070	0.133
-531.091	744.955	-0.017	-0.046
-530.077	-116.800	0.396	0.072
-529.062	-158.473	0.245	0.014
-528.048	-34.030	0.237	-0.129
-527.033	-83.375	0.165	-0.052
-526.018	800.000	0.037	-0.138
-525.004	800.000	-0.014	0.047
-523.989	-77.009	-0.107	-0.037
-522.975	-125.815	-0.181	-0.027
-521.960	-200.000	-0.013	0.058
-520.945	-114.360	0.171	0.033
-519.931	-24.426	0.348	0.205
-518.916	-76.965	-0.347	0.120
-517.902	-70.761	0.054	0.020
-516.887	800.000	0.006	-0.024
-515.872	65.256	0.117	0.117
-514.858	18.364	-0.077	-0.061
-513.843	-150.874	-0.244	-0.018
-512.829	199.966	0.228	0.346
-511.814	-158.693	0.194	-0.011
-510.799	800.000	-0.054	-0.161
-509.785	98.760	-0.075	0.086
-508.770	18.365	0.115	-0.091
-507.756	16.719	-0.239	-0.187
-506.741	-170.030	-0.432	0.015
-505.726	-192.945	-0.142	-0.001
-504.712	197.034	-0.086	0.129
-503.697	-48.215	-0.065	0.031
-502.683	189.992	-0.047	-0.069
-501.668	35.957	0.060	-0.052
-500.653	-200.000	0.021	0.412
-499.639	-62.368	-0.263	-0.108
-498.624	-144.370	-0.085	0.008
-497.610	-97.278	0.440	-0.114
-496.595	-176.841	-0.271	0.007
-495.581	322.281	-0.058	-0.110
-494.566	106.239	0.033	0.038
-493.551	26.328	-0.070	0.058
-492.537	-0.179	-0.033	0.023
-491.522	800.000	-0.116	0.333
-490.508	-134.304	0.321	0.039
-489.493	-48.183	0.341	-0.163
-488.478	-21.490	-0.189	-0.114
-487.464	-52.534	0.089	-0.041
-486.449	27.373	-0.318	-0.265
-485.435	258.711	-0.097	0.166
-484.420	-82.687	0.421	0.135
-483.405	340.808	-0.141	0.272
-482.391	49.696	0.148	0.138
-481.376	8.438	-0.021	-0.015
-480.362	12.083	-0.241	0.183
-479.347	-5.539	0.100	-0.068
-478.332	-116.266	-0.165	-0.030
-477.318	-200.000	-0.041	0.202
-476.303	-200.000	-0.040	0.207
-475.289	-200.000	0.009	-0.119
-474.274	-107.334	-0.295	-0.064
-473.259	-63.557	0.323	-0.131
-472.245	108.690	0.151	-0.178
-471.230	-30.173	-0.253	0.142
-470.216	104.529	-0.324	0.377
-469.201	-200.000	0.007	-0.160
-468.186	-133.452	-0.144	-0.018
-467.172	800.000	-0.078	-0.216
-466.157	-200.000	0.010	0.201
-465.143	96.129	-0.167	-0.189
-464.128	-200.000	-0.000	-0.277
-463.113	-149.916	-0.276	-0.021
-462.099	-6.384	0.170	-0.115
-461.084	-66.446	0.200	0.079
-460.070	67.453	0.225	0.227
-459.055	313.197	0.040	-0.074
-458.040	800.000	-0.190	-0.607
-457.026	-200.000	0.030	-0.221
-456.011	800.000	0.117	-0.362
-454.997	-50.581	0.407	0.190
-453.982	800.000	-0.083	0.232
-452.968	-130.228	0.158	0.021
-451.953	675.657	0.087	0.223
-450.938	25.540	-0.267	0.220
-449.924	-71.779	-0.057	-0.021
-448.909	201.641	0.046	0.070
-447.895	-149.624	-0.096	-0.007
-446.880	6.090	0.005	-0.004
-445.865	800.000	-0.117	0.327
-444.851	33.718	-0.186	-0.160
-443.836	47.104	0.166	0.153
-442.822	92.411	-0.245	-0.272
-441.807	-200.000	0.052	-0.280
-440.792	78.946	0.091	-0.096
-439.778	-101.165	-0.143	-0.034
-438.763	309.423	0.096	0.176
-437.749	-167.464	0.278	-0.011
-436.734	129.204	-0.031	0.039
-435.719	-145.173	0.047	-0.004
-434.705	800.000	0.005	0.021
-433.690	-109.252	0.380	0.080
-432.676	-200.000	0.030	0.285
-431.661	727.509	0.023	0.059
-430.646	-75.101	-0.166	0.058
-429.632	-200.000	-0.004	0.503
-428.617	201.261	-0.240	0.365
-427.603	117.538	0.214	-0.260
-426.588	-160.047	0.081	0.004
-425.573	-200.000	0.018	-0.191
-424.559	10.149	0.200	-0.150
-423.544	-106.520	0.067	-0.015
-422.530	9.557	-0.104	0.078
-421.515	3.961	0.032	0.023
-420.500	287.929	-0.118	0.210
-419.486	-54.103	-0.263	-0.118
-418.471	-149.724	-0.091	-0.007
-417.457	-200.000	-0.059	0.326
-416.442	800.000	0.078	-0.269
-415.428	-63.721	0.177	-0.072
-414.413	69.735	-0.080	0.082
-413.398	184.601	-0.080	-0.116
-412.384	-86.871	-0.021	-0.006
-411.369	-200.000	0.010	-0.128
-410.355	114.492	0.128	0.154
-409.340	-103.936	-0.184	-0.042
-408.325	152.889	-0.176	0.237
-407.311	57.945	-0.137	-0.132
-406.296	301.558	0.176	-0.321
-405.282	148.873	0.279	-0.372
-404.267	-200.000	0.011	-0.326
-403.252	246.727	0.120	0.200
-402.238	-171.729	0.350	0.011
-401.223	-73.540	-0.225	-0.081
-400.209	800.000	0.046	-0.188
-399.194	433.669	0.072	0.154
-398.179	-17.251	-0.090	-0.056
-397.165	-4.193	-0.191	0.130
-396.150	297.163	0.042	0.077
-395.136	-200.000	-0.014	0.262
-394.121	-7.050	-0.095	-0.064
-393.106	47.460	-0.068	0.063
-392.092	-200.000	0.014	-0.176
-391.077	593.300	-0.186	-0.453
-390.063	53.402	-0.019	-0.018
-389.048	-73.904	0.139	0.050
-388.033	73.691	-0.132	0.137
-387.019	-200.000	-0.019	0.185
-386.004	416.825	-0.093	-0.195
-384.990	328.396	-0.071	0.134
-383.975	250.289	0.181	-0.302
-382.960	-200.000	-0.035	-0.212
-381.946	-200.000	-0.060	-0.331
-380.931	800.000	0.050	-0.152
-379.917	800.000	-0.063	-0.202
-378.902	-41.039	0.066	0.033
-377.888	-106.135	-0.222	-0.049
-376.873	-27.570	0.161	-0.092
-375.858	-67.812	-0.278	0.107
-374.844	42.977	0.038	0.034
-373.829	29.964	0.075	0.063
-372.815	62.612	-0.179	-0.176
-371.800	-200.000	-0.020	-0.142
-370.785	60.353	0.171	-0.167
-369.771	-43.913	0.194	0.096
-368.756	-200.000	-0.014	0.322
-367.742	111.610	0.225	-0.267
-366.727	-200.000	0.007	-0.086
-365.712	-200.000	-0.013	0.272
-364.698	214.767	-0.180	0.282
-363.683	-151.430	0.188	-0.014
-362.669	610.484	0.132	-0.324
-361.654	-106.404	0.070	0.015
-360.639	12.063	-0.030	0.022
-359.625	-80.100	-0.389	-0.128
-358.610	-145.847	-0.040	0.004
-357.596	-200.000	0.009	-0.061
-356.581	154.294	0.197	-0.266
-355.566	-200.000	0.043	-0.277
-354.552	44.108	0.320	0.289
-353.537	-185.278	-0.258	0.004
-352.523	354.891	-0.242	-0.474
-351.508	800.000	-0.054	0.229
-350.493	62.941	0.146	0.144
-349.479	32.407	0.169	-0.143
-348.464	-200.000	-0.039	-0.341
-347.450	800.000	0.069	0.239
-346.435	800.000	0.082	-0.278
-345.420	1.503	0.304	0.215
-344.406	331.463	-0.189	0.359
-343.391	-116.861	0.076	0.014
-342.377	755.926	-0.092	-0.246
-341.362	33.979	-0.182	-0.156
-340.348	208.199	0.020	-0.031
-339.333	-200.000	-0.019	0.272
-338.318	800.000	-0.042	0.176
-337.304	-19.241	0.040	0.024
-336.289	-102.098	-0.201	-0.048
-335.275	74.831	0.165	0.170
-334.260	-200.000	-0.025	0.161
-333.245	544.523	0.128	0.300
-332.231	-172.866	-0.193	0.006
-331.216	524.832	0.155	-0.359
-330.202	-142.763	0.240	0.023
-329.187	-14.368	-0.158	-0.100
-328.172	-200.000	-0.018	0.183
-327.158	139.760	-0.119	0.154
-326.143	361.319	0.054	0.105
-325.129	-126.275	-0.430	0.063
-324.114	-19.190	-0.287	-0.175
-323.099	-113.864	0.212	0.041
-322.085	-73.078	-0.039	0.014
-321.070	127.066	-0.113	0.141
-320.056	-38.397	0.129	0.067
-319.041	-102.097	0.116	0.027
-318.026	-124.689	0.333	0.051
-317.012	800.000	0.033	0.107
-315.997	-200.000	0.020	0.151
-314.983	-136.359	-0.358	-0.041
-313.968	-200.000	-0.106	-0.484
-312.953	106.782	-0.138	0.160
-311.939	-200.000	0.066	-0.338
-310.924	29.423	0.054	0.045
-309.910	800.000	-0.146	0.396
-308.895	800.000	0.075	0.234
-307.880	36.758	0.234	-0.203
-306.866	-200.000	0.028	-0.122
-305.851	-84.541	-0.014	-0.004
-304.837	609.829	-0.039	-0.095
-303.822	-14.523	-0.071	0.045
-302.807	508.553	-0.103	-0.236
-301.793	-200.000	0.018	-0.109
-300.778	16.908	-0.077	-0.060
-299.764	-200.000	-0.032	-0.165
-298.749	90.779	0.171	-0.189
-297.735	-23.936	0.203	-0.119
-296.720	-39.512	0.204	-0.105
-295.705	278.959	-0.154	-0.269
-294.691	-3.114	-0.138	-0.094
-293.676	36.479	0.061	0.053
-292.662	-75.621	0.198	-0.069
-291.647	800.000	-0.056	0.219
-290.632	297.427	0.112	0.202
-289.618	-200.000	-0.009	-0.113
-288.603	218.950	0.074	0.116
-287.589	-200.000	-0.027	0.484
-286.574	-200.000	-0.023	0.334
-285.559	680.061	-0.109	0.278
-284.545	128.472	0.116	0.145
-283.530	82.324	-0.203	0.217
-282.516	-54.597	0.289	-0.128
-281.501	-200.000	0.021	-0.201
-280.486	661.946	0.019	-0.049
-279.472	-42.037	0.154	-0.077
-278.457	800.000	0.169	0.520
-277.443	-200.000	0.004	-0.104
-276.428	-100.068	-0.404	-0.099
-275.413	130.778	0.024	0.030
-274.399	-85.458	-0.030	0.009
-273.384	108.656	0.198	0.232
-272.370	-200.000	-0.027	-0.294
-271.355	-75.967	0.242	-0.084
-270.340	-17.585	0.128	-0.079
-269.326	-0.160	0.161	0.113
-268.311	200.767	0.170	-0.256
-267.297	-46.202	-0.063	-0.030
-266.282	-92.944	0.059	-0.016
-265.267	169.421	-0.131	0.184
-264.253	172.294	0.076	-0.107
-263.238	-200.000	0.042	-0.397
-262.224	618.902	-0.067	0.166
-261.209	-62.564	0.203	0.083
-260.195	-105.707	-0.219	-0.049
-259.180	-14.171	0.152	0.096
-258.165	-200.000	0.003	-0.038
-257.151	369.475	-0.125	-0.249
-256.136	-200.000	0.010	0.359
-255.122	-132.393	-0.325	0.041
-254.107	-200.000	-0.079	0.453
-253.092	-1.805	0.075	0.051
-252.078	-68.635	-0.168	0.064
-251.063	105.778	0.115	0.133
-250.049	461.280	0.114	0.248
-249.034	-101.581	-0.209	0.050
-248.019	-37.734	-0.272	0.142
-247.005	785.243	-0.089	0.240
-245.990	-23.550	0.215	0.127
-244.976	39.353	0.119	-0.105
-243.961	529.676	0.103	-0.239
-242.946	800.000	-0.059	-0.167
-241.932	68.906	-0.167	-0.168
-240.917	-200.000	0.003	0.148
-239.903	-61.700	-0.232	-0.095
-238.888	-113.366	-0.205	-0.039
-237.873	800.000	-0.047	0.156
-236.859	-128.594	0.277	-0.038
-235.844	149.833	-0.049	-0.065
-234.830	151.734	0.152	0.203
-233.815	-45.414	0.204	0.099
-232.800	-75.116	0.380	-0.133
-231.786	-134.763	0.441	-0.052
-230.771	800.000	0.088	-0.268
-229.757	-155.204	-0.226	-0.014
-228.742	66.831	0.186	0.186
-227.727	-200.000	0.061	0.358
-226.713	-200.000	0.017	-0.251
-225.698	101.721	-0.106	0.121
-224.684	-124.694	-0.267	0.040
-223.669	-138.047	0.346	0.038
-222.655	-148.833	0.325	0.026
-221.640	-84.818	0.360	0.111
-220.625	-163.079	-0.395	0.019
-219.611	-31.750	-0.347	0.190
-218.596	-69.386	-0.256	-0.096
-217.582	49.740	-0.036	-0.033
-216.567	-200.000	0.007	0.055
-215.552	26.353	-0.112	-0.091
-214.538	-49.231	0.174	0.081
-213.523	-200.000	0.001	0.138
-212.509	-9.728	-0.063	-0.041
-211.494	-200.000	-0.010	0.153
-210.479	15.252	0.356	0.273
-209.465	116.835	0.069	0.083
-208.450	262.236	-0.057	0.096
-207.436	75.878	0.052	-0.054
-206.421	84.212	-0.085	0.091
-205.406	112.814	0.112	0.133
-204.392	-60.394	0.311	0.129
-203.377	-50.130	0.259	0.120
-202.363	8.490	-0.157	0.115
-201.348	-2.211	0.403	0.277
-200.333	264.029	0.094	0.160
-199.319	-93.957	-0.335	-0.090
-198.304	639.436	0.088	0.219
-197.290	-200.000	0.062	0.324
-196.275	530.611	-0.042	-0.097
-195.260	-66.162	0.299	-0.116
-194.246	-200.000	0.006	-0.437
-193.231	394.443	0.026	-0.053
-192.217	12.783	0.167	-0.126
-191.202	20.064	0.179	0.141
-190.187	-78.730	0.098	-0.033
-189.173	128.309	-0.228	-0.284
-188.158	-107.285	0.237	0.051
-187.144	-98.042	-0.111	0.028
-186.129	-200.000	0.052	0.496
-185.114	-149.819	0.032	-0.002
-184.100	40.106	-0.140	-0.123
-183.085	-26.093	-0.198	0.114
-182.071	-50.937	-0.128	-0.059
-181.056	135.410	-0.085	0.108
-180.042	-162.911	0.374	0.018
-179.027	23.080	0.085	-0.068
-178.012	-77.139	-0.153	-0.052
-176.998	-7.416	0.330	-0.218
-175.983	154.921	0.146	-0.196
-174.969	800.000	0.034	0.102
-173.954	-78.673	-0.143	0.048
-172.939	18.789	0.173	-0.135
-171.925	-200.000	0.012	0.138
-170.910	46.264	-0.132	-0.119
-169.896	-167.234	-0.301	-0.012
-168.881	-155.404	0.104	-0.007
-167.866	387.551	0.175	0.353
-166.852	-114.519	0.291	-0.054
-165.837	-23.696	-0.218	-0.128
-164.823	280.004	-0.215	0.375
-163.808	-68.623	-0.209	-0.079
-162.793	-74.430	0.232	-0.082
-161.779	-98.452	0.211	0.053
-160.764	-200.000	0.041	-0.198
-159.750	72.498	-0.033	-0.033
-158.735	-88.997	-0.116	-0.034
-157.720	22.646	-0.081	-0.065
-156.706	-200.000	0.009	-0.075
-155.691	-200.000	-0.027	-0.385
-154.677	35.978	-0.067	-0.058
-153.662	69.164	0.054	-0.054
-152.647	800.000	-0.078	0.284
-151.633	-200.000	0.012	-0.226
-150.618	101.200	0.085	-0.096
-149.604	155.582	0.146	-0.197
-148.589	800.000	-0.027	-0.096
-147.574	157.320	0.240	-0.325
-146.560	-200.000	0.076	-0.340
-145.545	214.067	-0.195	-0.301
-144.531	-107.132	0.245	-0.053
-143.516	-17.332	0.325	-0.200
-142.502	719.863	0.199	-0.516
-141.487	-200.000	0.004	-0.032
-140.472	172.129	0.084	-0.118
-139.458	-122.659	0.262	-0.041
-138.443	261.189	-0.084	0.141
-137.429	-129.562	0.227	0.031
-136.414	-200.000	0.002	0.085
-135.399	-67.612	0.185	0.071
-134.385	-200.000	0.021	-0.223
-133.370	246.789	0.134	0.221
-132.356	-78.444	0.166	0.056
-131.341	-40.231	-0.108	-0.055
-130.326	-117.071	0.162	0.029
-129.312	-200.000	-0.011	-0.080
-128.297	-29.930	0.364	-0.202
-127.283	800.000	-0.108	-0.372
-126.268	-200.000	0.005	0.025
-125.253	800.000	-0.064	0.207
-124.239	-91.150	-0.218	-0.061
-123.224	-150.537	0.264	0.020
-122.210	43.914	0.275	0.246
-121.195	-200.000	-0.041	0.382
