DTS Sentinel unit serial number:	SN413079Multiplexer serial number:	ORYXHardware model number:	OX4-SRSoftware version number:	ORYX F/W v4.00 Oryx Data Collector v3.7.2.0data status	okinstallation	princeton_trtdifferential loss correction	single-endedforward channel	channel 3reverse channel	N/Adate	2019/09/14time	00:32:34forward acquisition time	60.00reverse acquisition time	0.00gamma	496.2192k internal	0.2340k external	0.2340temperature offset calibration	1.0059default loss term (dB/km)	0.3790temperature slope calibration	1.0000multiplexer offset coefficient	1.0000multiplexer slope coefficient	1.0000fibre end	0.00T internal ref (°C)	26.44T ext. ref 1 (°C)	3.17T ext. ref 2 (°C)	21.14length (m)	temperature (°C)	Stokes	anti-Stokes-747.200	250.315	-0.067	0.114
-746.185	10.013	0.227	0.173
-745.171	-52.369	0.154	-0.071
-744.156	147.968	-0.088	-0.119
-743.142	15.190	-0.080	-0.063
-742.127	800.000	-0.026	0.103
-741.112	-30.769	0.142	0.081
-740.098	800.000	-0.091	-0.274
-739.083	-43.693	0.168	-0.085
-738.069	-19.266	0.082	-0.051
-737.054	94.527	0.182	-0.207
-736.039	800.000	0.117	-0.356
-735.025	-200.000	-0.024	-0.345
-734.010	-101.802	-0.132	0.032
-732.996	-26.777	0.338	-0.198
-731.981	31.344	-0.120	-0.103
-730.966	252.934	-0.110	-0.189
-729.952	345.966	-0.220	-0.434
-728.937	-67.876	-0.243	0.095
-727.923	402.037	-0.078	-0.164
-726.908	234.062	-0.146	-0.242
-725.894	-121.121	-0.264	0.044
-724.879	-92.376	0.033	-0.009
-723.864	-20.350	-0.332	0.205
-722.850	404.264	-0.205	-0.433
-721.835	1.650	-0.174	0.125
-720.821	-54.295	0.077	-0.035
-719.806	-134.542	-0.240	-0.029
-718.791	290.939	-0.084	0.154
-717.777	69.343	0.041	0.042
-716.762	-104.213	0.046	0.011
-715.748	30.359	0.022	-0.019
-714.733	-2.408	0.136	-0.096
-713.718	-48.641	-0.235	0.113
-712.704	-200.000	-0.013	0.072
-711.689	614.813	0.008	-0.020
-710.675	-75.490	-0.169	0.060
-709.660	-37.671	-0.135	0.072
-708.645	800.000	-0.074	0.256
-707.631	-200.000	-0.019	0.136
-706.616	367.390	0.117	0.236
-705.602	-200.000	0.034	0.394
-704.587	306.502	-0.127	0.237
-703.572	-54.791	0.180	0.081
-702.558	-200.000	-0.001	-0.116
-701.543	347.292	0.083	0.164
-700.529	-66.896	-0.272	0.108
-699.514	7.434	0.209	-0.156
-698.499	21.677	-0.200	0.163
-697.485	175.714	0.119	-0.173
-696.470	800.000	0.080	-0.241
-695.456	507.974	0.063	-0.147
-694.441	-120.600	0.100	0.017
-693.426	-114.780	-0.290	-0.055
-692.412	-63.610	-0.129	-0.053
-691.397	-24.197	-0.258	0.154
-690.383	57.425	-0.060	-0.058
-689.368	31.550	0.244	0.210
-688.354	-60.272	-0.245	0.104
-687.339	-162.127	0.304	-0.015
-686.324	-75.454	0.052	0.019
-685.310	-61.851	-0.105	-0.044
-684.295	167.635	-0.104	0.147
-683.281	-200.000	-0.009	-0.324
-682.266	-65.138	0.184	0.074
-681.251	4.427	-0.259	-0.190
-680.237	-20.183	0.180	-0.111
-679.222	800.000	-0.023	0.087
-678.208	675.128	-0.037	0.096
-677.193	566.996	0.052	0.126
-676.178	9.752	-0.253	0.192
-675.164	123.496	0.180	0.225
-674.149	-200.000	-0.031	0.187
-673.135	800.000	0.108	-0.309
-672.120	-92.378	-0.143	-0.040
-671.105	-82.047	-0.254	0.083
-670.091	320.363	-0.121	0.230
-669.076	-99.348	0.256	-0.065
-668.062	-200.000	-0.004	-0.045
-667.047	-126.916	0.333	-0.049
-666.032	120.158	0.114	-0.142
-665.018	45.180	-0.044	0.041
-664.003	-151.502	0.207	0.015
-662.989	-200.000	-0.005	-0.023
-661.974	-112.095	-0.282	-0.057
-660.959	63.599	0.157	-0.157
-659.945	285.031	0.160	-0.288
-658.930	-200.000	0.016	-0.176
-657.916	163.372	0.086	-0.121
-656.901	-200.000	-0.005	-0.138
-655.886	-127.761	0.048	0.007
-654.872	-52.496	-0.248	-0.115
-653.857	347.796	-0.066	-0.130
-652.843	-66.885	0.334	0.132
-651.828	557.302	-0.024	-0.058
-650.814	4.971	-0.080	0.059
-649.799	-147.394	-0.325	0.028
-648.784	-94.496	-0.278	0.076
-647.770	-18.497	0.031	0.019
-646.755	-87.640	0.143	0.043
-645.741	67.752	-0.105	0.107
-644.726	800.000	0.091	0.340
-643.711	-70.851	0.405	0.153
-642.697	-91.164	0.095	-0.027
-641.682	21.441	-0.176	0.143
-640.668	33.275	-0.081	-0.071
-639.653	-3.969	0.050	-0.035
-638.638	365.434	-0.042	-0.084
-637.624	70.187	-0.190	-0.196
-636.609	-116.208	0.203	-0.038
-635.595	49.744	-0.048	-0.045
-634.580	-156.722	-0.289	-0.018
-633.565	800.000	-0.036	-0.126
-632.551	286.189	-0.058	0.105
-631.536	51.412	0.111	-0.105
-630.522	-200.000	0.014	0.116
-629.507	800.000	-0.056	-0.240
-628.492	-39.427	-0.206	0.108
-627.478	161.786	0.092	0.129
-626.463	-5.517	-0.255	-0.174
-625.449	-177.768	-0.391	0.009
-624.434	-149.199	-0.321	-0.026
-623.419	290.777	-0.060	-0.110
-622.405	-120.004	0.204	-0.035
-621.390	98.496	-0.236	-0.271
-620.376	-18.145	-0.081	-0.050
-619.361	75.238	0.060	0.064
-618.346	-131.035	0.236	-0.031
-617.332	-200.000	-0.008	0.089
-616.317	-200.000	-0.002	-0.149
-615.303	-25.206	0.068	-0.040
-614.288	33.919	-0.121	-0.105
-613.273	800.000	0.075	0.272
-612.259	-37.994	0.312	0.166
-611.244	14.692	-0.144	0.112
-610.230	147.758	-0.092	0.124
-609.215	17.087	0.175	0.139
-608.201	456.512	-0.065	0.143
-607.186	-66.481	0.198	-0.079
-606.171	13.308	-0.053	-0.041
-605.157	342.751	0.099	0.193
-604.142	-194.427	-0.111	0.001
-603.128	37.170	0.120	0.106
-602.113	133.385	-0.166	0.213
-601.098	131.282	-0.155	-0.198
-600.084	-200.000	-0.030	0.155
-599.069	65.835	-0.277	0.280
-598.055	-14.304	-0.026	0.017
-597.040	-200.000	0.062	-0.351
-596.025	114.751	0.073	0.088
-595.011	4.847	0.224	-0.164
-593.996	-73.353	-0.061	0.022
-592.982	800.000	-0.093	0.372
-591.967	344.850	0.065	0.128
-590.952	86.081	-0.026	-0.028
-589.938	-70.175	-0.126	-0.048
-588.923	163.448	-0.119	0.167
-587.909	38.898	-0.237	0.211
-586.894	-177.767	-0.324	0.008
-585.879	-26.938	-0.292	-0.170
-584.865	800.000	-0.058	-0.203
-583.850	-140.688	0.214	-0.022
-582.836	187.810	0.064	-0.096
-581.821	166.853	-0.086	0.121
-580.806	129.156	0.036	0.045
-579.792	290.025	0.153	-0.276
-578.777	-200.000	0.008	-0.036
-577.763	-18.808	0.242	0.150
-576.748	347.124	0.141	-0.276
-575.733	-160.913	0.034	-0.002
-574.719	-150.630	-0.122	0.009
-573.704	-134.841	0.050	-0.006
-572.690	-110.122	-0.082	-0.017
-571.675	242.772	0.092	-0.153
-570.661	34.114	-0.061	0.053
-569.646	287.531	-0.067	0.120
-568.631	15.347	0.083	0.065
-567.617	-35.507	0.150	0.081
-566.602	-90.040	-0.191	-0.055
-565.588	-131.927	-0.212	-0.028
-564.573	88.869	0.163	-0.180
-563.558	50.420	-0.271	0.255
-562.544	-94.412	0.423	0.115
-561.529	-200.000	-0.055	-0.259
-560.515	800.000	-0.056	-0.204
-559.500	-124.314	-0.370	-0.058
-558.485	153.239	-0.122	-0.166
-557.471	167.283	0.229	0.323
-556.456	-200.000	-0.009	-0.074
-555.442	-163.505	0.182	0.009
-554.427	-143.278	-0.085	-0.008
-553.412	-71.736	0.510	0.189
-552.398	89.339	-0.212	0.235
-551.383	111.875	0.117	0.141
-550.369	-138.866	-0.369	-0.040
-549.354	274.637	0.143	0.252
-548.339	-37.742	-0.123	-0.065
-547.325	-93.880	-0.243	-0.067
-546.310	-200.000	0.004	0.172
-545.296	800.000	0.019	0.060
-544.281	-73.933	0.159	-0.057
-543.266	86.675	0.089	0.097
-542.252	-37.450	0.240	-0.127
-541.237	-110.176	0.188	0.039
-540.223	800.000	-0.146	0.407
-539.208	-200.000	-0.007	0.399
-538.193	563.923	0.078	0.189
-537.179	-7.722	0.167	-0.112
-536.164	-110.829	-0.168	-0.034
-535.150	265.233	-0.089	-0.155
-534.135	800.000	0.052	-0.152
-533.121	414.574	-0.095	0.201
-532.106	-200.000	0.017	-0.192
-531.091	-200.000	-0.018	0.133
-530.077	800.000	-0.046	-0.134
-529.062	800.000	-0.061	-0.216
-528.048	3.972	-0.128	-0.093
-527.033	800.000	-0.036	0.147
-526.018	800.000	0.090	0.345
-525.004	800.000	0.029	-0.085
-523.989	91.062	-0.187	-0.208
-522.975	-50.232	0.292	-0.137
-521.960	1.094	-0.155	0.111
-520.945	-90.779	-0.099	-0.028
-519.931	-200.000	0.013	0.223
-518.916	-61.511	-0.178	0.074
-517.902	116.353	0.093	-0.113
-516.887	336.619	-0.012	-0.024
-515.872	-23.599	-0.075	0.045
-514.858	201.199	-0.216	0.330
-513.843	-200.000	0.033	-0.151
-512.829	-100.117	0.448	-0.111
-511.814	-30.212	-0.154	0.087
-510.799	-57.255	-0.307	0.134
-509.785	-200.000	0.006	-0.046
-508.770	327.472	-0.061	0.116
-507.756	-200.000	0.057	-0.256
-506.741	-99.657	0.357	0.089
-505.726	73.880	-0.209	0.218
-504.712	-82.636	0.212	0.068
-503.697	-200.000	0.046	-0.385
-502.683	-26.405	-0.281	-0.164
-501.668	-200.000	-0.010	0.155
-500.653	243.361	-0.112	-0.187
-499.639	8.824	-0.570	0.427
-498.624	22.959	-0.173	0.141
-497.610	-200.000	-0.040	-0.219
-496.595	-141.011	0.204	0.021
-495.581	31.030	0.132	-0.113
-494.566	316.234	-0.198	0.371
-493.551	-200.000	0.007	0.079
-492.537	137.155	0.230	-0.298
-491.522	94.143	-0.068	-0.076
-490.508	-69.956	0.191	-0.072
-489.493	-200.000	-0.012	0.190
-488.478	98.596	0.205	0.235
-487.464	16.041	0.151	0.118
-486.449	-148.824	-0.345	0.028
-485.435	83.341	0.048	-0.052
-484.420	166.135	0.094	-0.132
-483.405	-200.000	0.029	0.235
-482.391	254.277	-0.102	-0.174
-481.376	-200.000	0.013	-0.213
-480.362	494.012	-0.079	-0.179
-479.347	800.000	0.050	-0.211
-478.332	-200.000	0.020	-0.158
-477.318	-200.000	-0.045	-0.271
-476.303	-174.500	-0.287	0.008
-475.289	-156.699	-0.190	0.012
-474.274	9.748	0.020	0.015
-473.259	-16.088	-0.255	-0.161
-472.245	-22.733	0.175	-0.105
-471.230	-57.370	-0.214	0.093
-470.216	-40.565	0.239	0.123
-469.201	-105.112	-0.129	0.029
-468.186	109.932	0.178	-0.212
-467.172	-26.882	-0.224	0.130
-466.157	-200.000	-0.036	0.224
-465.143	800.000	-0.015	0.045
-464.128	78.579	0.130	0.137
-463.113	330.850	0.161	0.308
-462.099	655.218	0.071	0.181
-461.084	-34.783	-0.250	0.136
-460.070	-0.494	0.232	-0.163
-459.055	-13.708	-0.071	-0.045
-458.040	-88.920	-0.206	-0.061
-457.026	28.831	0.205	0.172
-456.011	-94.156	-0.457	0.124
-454.997	54.184	0.279	-0.266
-453.982	-15.553	-0.268	-0.170
-452.968	-107.081	-0.298	0.065
-451.953	748.262	0.135	-0.362
-450.938	457.655	0.074	-0.163
-449.924	78.145	-0.262	-0.277
-448.909	96.819	-0.167	0.190
-447.895	39.410	-0.030	-0.026
-446.880	800.000	-0.092	0.290
-445.865	-43.822	0.102	0.051
-444.851	596.016	-0.074	-0.181
-443.836	24.546	-0.298	-0.244
-442.822	-99.799	0.528	0.131
-441.807	-200.000	-0.018	0.175
-440.792	14.982	0.166	0.129
-439.778	-29.539	-0.087	0.049
-438.763	321.479	-0.121	0.227
-437.749	-95.625	-0.284	0.075
-436.734	84.841	-0.156	0.169
-435.719	-200.000	0.024	-0.202
-434.705	-200.000	0.014	0.087
-433.690	-64.450	-0.048	-0.019
-432.676	-70.499	0.133	0.050
-431.661	165.525	-0.190	-0.265
-430.646	1.732	-0.134	0.095
-429.632	-28.597	-0.140	-0.080
-428.617	374.378	-0.108	0.218
-427.603	341.322	-0.072	0.140
-426.588	-7.290	0.192	-0.129
-425.573	-200.000	0.014	-0.132
-424.559	153.930	-0.169	-0.230
-423.544	715.361	0.057	-0.150
-422.530	596.870	-0.039	0.095
-421.515	-200.000	-0.007	0.155
-420.500	-11.429	0.071	-0.046
-419.486	213.921	-0.173	0.271
-418.471	65.867	0.051	0.051
-417.457	289.558	-0.107	0.191
-416.442	-94.213	0.331	0.090
-415.428	516.160	-0.036	-0.082
-414.413	124.665	-0.154	-0.192
-413.398	80.252	0.161	0.171
-412.384	38.550	-0.080	0.071
-411.369	-123.983	0.173	-0.027
-410.355	100.705	0.125	0.144
-409.340	96.520	0.047	0.054
-408.325	800.000	0.067	0.225
-407.311	-50.536	0.346	-0.161
-406.296	258.024	0.197	0.336
-405.282	-142.982	0.268	-0.026
-404.267	-103.248	0.037	0.009
-403.252	129.519	0.205	-0.259
-402.238	-135.662	0.165	-0.019
-401.223	-173.393	-0.129	-0.004
-400.209	736.871	0.078	-0.207
-399.194	-200.000	-0.008	0.237
-398.179	-190.096	-0.289	0.003
-397.165	800.000	-0.065	0.217
-396.150	11.205	0.095	-0.072
-395.136	-48.702	0.316	-0.150
-394.121	-92.398	-0.224	0.062
-393.106	28.032	0.145	0.121
-392.092	-97.602	0.140	0.036
-391.077	626.646	-0.169	0.421
-390.063	-19.233	0.322	-0.198
-389.048	406.405	-0.114	0.238
-388.033	554.920	-0.055	-0.131
-387.019	-200.000	0.022	-0.242
-386.004	-200.000	0.073	0.369
-384.990	-200.000	0.028	-0.155
-383.975	27.142	0.116	0.096
-382.960	332.291	-0.064	0.123
-381.946	168.858	-0.045	-0.064
-380.931	30.731	-0.225	-0.190
-379.917	-28.571	-0.167	0.095
-378.902	-129.885	-0.036	0.005
-377.888	-112.818	-0.227	-0.045
-376.873	9.793	0.192	0.144
-375.858	118.502	0.118	-0.143
-374.844	-200.000	-0.030	-0.157
-373.829	-200.000	-0.006	0.372
-372.815	197.086	-0.154	0.232
-371.800	-200.000	0.029	0.150
-370.785	129.880	0.080	-0.101
-369.771	-146.385	-0.150	0.013
-368.756	-63.475	0.342	-0.139
-367.742	345.269	0.122	-0.236
-366.727	423.701	0.033	-0.071
-365.712	-13.900	0.075	-0.048
-364.698	-67.427	0.182	0.071
-363.683	116.104	-0.012	0.014
-362.669	89.745	-0.355	0.391
-361.654	-96.697	-0.179	0.046
-360.639	-115.990	-0.330	0.061
-359.625	471.212	0.070	0.156
-358.610	-200.000	-0.003	-0.173
-357.596	-148.839	-0.344	-0.028
-356.581	-9.952	-0.153	-0.101
-355.566	-19.169	-0.231	0.141
-354.552	-127.727	0.252	-0.036
-353.537	-200.000	0.002	0.016
-352.523	525.537	-0.146	-0.338
-351.508	-97.535	0.202	-0.052
-350.493	-3.700	-0.190	-0.131
-349.479	-179.357	-0.337	0.007
-348.464	35.554	0.403	-0.349
-347.450	800.000	-0.072	-0.304
-346.435	-58.225	0.038	0.016
-345.420	55.265	0.462	-0.441
-344.406	-200.000	0.045	0.237
-343.391	-83.611	0.254	-0.080
-342.377	-200.000	-0.029	-0.247
-341.362	-200.000	0.010	-0.180
-340.348	334.313	-0.046	-0.088
-339.333	-200.000	-0.009	0.064
-338.318	-115.305	0.229	-0.043
-337.304	-102.237	-0.226	-0.054
-336.289	163.637	0.129	-0.178
-335.275	-10.107	-0.348	0.228
-334.260	-23.402	0.057	-0.034
-333.245	-176.865	-0.276	-0.007
-332.231	-4.117	0.273	0.187
-331.216	800.000	0.038	0.110
-330.202	205.175	-0.014	-0.021
-329.187	-144.015	0.275	-0.025
-328.172	-200.000	-0.024	-0.467
-327.158	134.887	-0.252	-0.323
-326.143	-176.843	0.225	-0.006
-325.129	-98.735	0.141	0.036
-324.114	800.000	0.070	0.210
-323.099	-92.508	0.353	-0.098
-322.085	40.359	0.193	0.172
-321.070	-103.008	-0.206	0.048
-320.056	-200.000	0.022	-0.102
-319.041	73.111	-0.009	-0.009
-318.026	-126.025	0.133	-0.020
-317.012	17.531	-0.188	0.147
-315.997	-180.486	-0.036	0.001
-314.983	238.889	-0.044	0.071
-313.968	800.000	-0.076	-0.227
-312.953	-200.000	0.044	-0.242
-311.939	130.677	0.164	-0.207
-310.924	-140.868	-0.132	0.013
-309.910	202.670	-0.073	-0.111
-308.895	-74.344	0.226	-0.080
-307.880	-90.285	-0.114	0.033
-306.866	105.096	0.148	0.172
-305.851	-25.778	-0.123	-0.072
-304.837	68.716	-0.232	-0.234
-303.822	79.890	-0.102	-0.108
-302.807	-160.204	-0.046	-0.002
-301.793	-38.254	-0.096	-0.050
-300.778	-200.000	-0.040	0.265
-299.764	-26.341	-0.181	-0.105
-298.749	74.135	-0.111	0.115
-297.735	800.000	0.116	0.330
-296.720	311.710	-0.026	0.049
-295.705	-72.004	0.236	-0.087
-294.691	207.585	0.050	0.076
-293.676	313.576	-0.010	0.018
-292.662	581.148	-0.128	-0.309
-291.647	14.288	-0.124	-0.095
-290.632	-35.018	0.177	-0.095
-289.618	204.358	-0.236	-0.361
-288.603	-20.127	-0.010	-0.006
-287.589	410.339	0.087	0.183
-286.574	97.043	0.150	0.170
-285.559	-102.739	0.377	-0.089
-284.545	87.770	0.163	-0.178
-283.530	-66.553	-0.126	0.049
-282.516	379.860	0.240	0.485
-281.501	309.118	0.084	-0.155
-280.486	-28.555	0.084	-0.047
-279.472	107.959	-0.271	0.318
-278.457	300.705	0.108	-0.197
-277.443	480.232	-0.113	-0.252
-276.428	-102.052	-0.197	-0.047
-275.413	-111.143	0.278	-0.056
-274.399	11.964	-0.164	0.124
-273.384	-105.079	0.210	-0.047
-272.370	-200.000	0.008	-0.071
-271.355	660.088	-0.048	0.122
-270.340	-96.131	0.045	-0.012
-269.326	-200.000	0.010	-0.052
-268.311	55.385	-0.032	-0.030
-267.297	-55.329	-0.361	-0.160
-266.282	46.002	0.297	-0.270
-265.267	-97.628	-0.234	-0.060
-264.253	-89.068	0.225	-0.065
-263.238	-42.965	0.277	-0.138
-262.224	22.219	0.203	-0.164
-261.209	49.646	0.167	0.155
-260.195	319.586	-0.212	0.395
-259.180	-200.000	0.040	-0.244
-258.165	800.000	-0.043	-0.122
-257.151	119.721	-0.108	0.132
-256.136	800.000	-0.092	-0.284
-255.122	392.932	-0.062	-0.127
-254.107	-200.000	0.551	0.001
-253.092	-56.488	-0.195	-0.085
-252.078	800.000	0.012	0.043
-251.063	560.416	-0.029	0.070
-250.049	800.000	0.057	0.209
-249.034	800.000	0.046	-0.160
-248.019	-86.214	0.049	0.015
-247.005	-74.638	0.166	0.059
-245.990	288.700	-0.048	0.086
-244.976	125.314	-0.216	-0.268
-243.961	-89.108	0.398	0.116
-242.946	-152.951	-0.023	-0.002
-241.932	9.259	-0.099	-0.074
-240.917	24.922	-0.186	0.151
-239.903	15.601	-0.223	-0.172
-238.888	157.895	-0.202	0.275
-237.873	185.137	0.116	0.169
-236.859	573.843	0.077	-0.185
-235.844	-77.281	0.257	-0.088
-234.830	-144.491	0.174	-0.016
-233.815	126.062	-0.219	0.272
-232.800	-54.450	0.160	-0.071
-231.786	-200.000	-0.049	0.213
-230.771	-153.491	-0.333	0.023
-229.757	800.000	-0.027	-0.092
-228.742	-64.247	-0.119	0.048
-227.727	-145.199	-0.136	0.012
-226.713	330.131	0.089	-0.168
-225.698	-83.113	0.132	-0.042
-224.684	-143.984	-0.173	0.016
-223.669	-144.882	-0.156	0.014
-222.655	174.719	0.077	-0.110
-221.640	40.186	0.077	-0.068
-220.625	-60.677	-0.252	0.105
-219.611	-80.533	0.081	0.027
-218.596	800.000	-0.043	0.184
-217.582	-145.402	0.586	-0.052
-216.567	-200.000	-0.053	0.315
-215.552	-200.000	0.056	-0.338
-214.538	580.104	-0.078	0.188
-213.523	39.226	-0.152	0.134
-212.509	800.000	-0.088	0.251
-211.494	679.660	-0.030	-0.076
-210.479	139.086	-0.135	0.174
-209.465	-91.560	0.145	0.041
-208.450	176.988	0.290	0.415
-207.436	-200.000	0.007	0.067
-206.421	-172.523	0.234	0.007
-205.406	800.000	0.068	-0.244
-204.392	-16.666	0.261	0.162
-203.377	-89.446	0.228	-0.066
-202.363	209.902	-0.041	0.063
-201.348	259.529	0.106	0.180
-200.333	63.515	-0.161	-0.159
-199.319	457.388	0.138	-0.301
-198.304	-48.091	-0.053	-0.025
-197.290	-34.630	0.337	-0.181
-196.275	-200.000	-0.006	0.190
-195.260	-173.652	-0.114	-0.003
-194.246	-43.319	-0.088	-0.044
-193.231	800.000	-0.064	-0.259
-192.217	-90.627	-0.117	0.033
-191.202	800.000	0.017	-0.069
-190.187	16.003	-0.220	-0.170
-189.173	-130.824	0.143	0.019
-188.158	-200.000	-0.006	0.231
-187.144	271.580	-0.128	0.222
-186.129	90.365	0.157	0.172
-185.114	256.627	-0.077	-0.130
-184.100	34.577	0.231	-0.198
-183.085	-200.000	-0.001	-0.344
-182.071	-53.572	-0.026	0.012
-181.056	-117.038	0.293	0.052
-180.042	174.686	-0.018	-0.025
-179.027	-65.844	-0.088	-0.034
-178.012	-5.110	0.305	-0.206
-176.998	17.010	-0.310	0.241
-175.983	555.944	0.146	-0.344
-174.969	83.401	-0.049	-0.053
-173.954	-126.419	0.205	0.030
-172.939	269.275	0.168	0.289
-171.925	800.000	0.111	-0.359
-170.910	-200.000	0.021	0.106
-169.896	218.297	0.041	-0.065
-168.881	-98.196	0.170	0.043
-167.866	714.700	0.088	-0.230
-166.852	-29.920	0.317	-0.177
-165.837	286.755	-0.255	-0.451
-164.823	7.457	-0.112	-0.082
-163.808	-118.410	-0.305	0.053
-162.793	-36.511	0.099	-0.052
-161.779	-63.191	0.210	-0.085
-160.764	23.533	-0.098	-0.079
-159.750	240.647	0.065	0.106
-158.735	192.821	0.085	-0.126
-157.720	-200.000	-0.020	0.143
-156.706	-200.000	0.015	0.067
-155.691	26.154	0.212	0.174
-154.677	107.899	-0.100	0.117
-153.662	183.803	0.159	0.230
-152.647	-84.615	0.187	-0.058
-151.633	33.898	0.153	0.130
-150.618	-200.000	0.011	-0.047
-149.604	-146.282	-0.012	-0.001
-148.589	-99.378	0.144	-0.036
-147.574	-200.000	0.014	0.312
-146.560	750.617	-0.049	0.130
-145.545	800.000	-0.047	0.154
-144.531	-67.144	0.203	-0.079
-143.516	527.522	-0.121	0.279
-142.502	83.954	0.224	-0.239
-141.487	-140.623	0.343	-0.035
-140.472	-38.465	0.182	-0.094
-139.458	288.343	0.060	-0.106
-138.443	-200.000	-0.008	0.410
-137.429	3.451	-0.330	0.236
-136.414	663.644	-0.133	0.336
-135.399	-200.000	0.079	-0.591
-134.385	-105.364	-0.140	-0.031
-133.370	137.106	0.148	0.189
-132.356	-66.717	0.438	-0.170
-131.341	223.175	0.172	0.271
-130.326	-1.520	-0.206	-0.142
-129.312	-87.606	0.333	-0.098
-128.297	-87.660	-0.363	0.107
-127.283	63.279	0.060	-0.059
-126.268	-136.465	0.288	-0.033
-125.253	-20.854	-0.286	0.171
-124.239	131.431	0.163	0.205
-123.224	800.000	-0.053	0.180
-122.210	88.260	-0.203	-0.220
-121.195	-200.000	0.075	0.380
