DTS Sentinel unit serial number:	SN413079Multiplexer serial number:	ORYXHardware model number:	OX4-SRSoftware version number:	ORYX F/W v4.00 Oryx Data Collector v3.7.2.0data status	okinstallation	princeton_trtdifferential loss correction	single-endedforward channel	channel 3reverse channel	N/Adate	2019/09/16time	18:48:35forward acquisition time	60.00reverse acquisition time	0.00gamma	496.2192k internal	0.2308k external	0.2308temperature offset calibration	0.9939default loss term (dB/km)	0.3790temperature slope calibration	1.0000multiplexer offset coefficient	1.0000multiplexer slope coefficient	1.0000fibre end	0.00T internal ref (°C)	36.00T ext. ref 1 (°C)	0.06T ext. ref 2 (°C)	29.34length (m)	temperature (°C)	Stokes	anti-Stokes-747.200	-113.184	0.182	0.036
-746.185	286.386	-0.157	-0.288
-745.171	125.110	0.106	0.135
-744.156	79.474	-0.116	-0.126
-743.142	65.814	-0.258	0.265
-742.127	-28.899	0.185	0.108
-741.112	342.272	0.119	0.236
-740.098	85.188	-0.197	0.219
-739.083	2.903	-0.295	-0.217
-738.069	-132.672	-0.355	0.046
-737.054	-52.165	-0.437	0.206
-736.039	55.327	-0.127	-0.125
-735.025	-79.304	-0.204	-0.070
-734.010	207.558	0.249	0.394
-732.996	476.067	0.036	-0.082
-731.981	172.850	-0.156	0.228
-730.966	-200.000	-0.012	-0.113
-729.952	-123.914	-0.576	-0.092
-728.937	-105.704	-0.233	0.053
-727.923	-87.054	-0.193	0.060
-726.908	-74.970	0.215	0.078
-725.894	-200.000	-0.035	-0.172
-724.879	-69.300	-0.228	-0.089
-723.864	-100.377	-0.181	-0.045
-722.850	374.673	-0.170	-0.352
-721.835	173.836	0.073	0.107
-720.821	215.256	0.080	-0.128
-719.806	623.412	0.112	-0.288
-718.791	259.045	-0.132	-0.232
-717.777	318.743	0.101	0.194
-716.762	209.082	-0.131	-0.208
-715.748	-30.346	-0.189	-0.109
-714.733	-83.293	-0.114	-0.037
-713.718	760.855	-0.065	0.178
-712.704	-103.959	-0.209	0.050
-711.689	-72.392	0.046	-0.017
-710.675	-200.000	-0.011	0.081
-709.660	-104.536	-0.191	-0.045
-708.645	114.532	0.064	-0.079
-707.631	-118.268	-0.143	-0.026
-706.616	29.821	0.234	-0.202
-705.602	-66.151	-0.186	0.075
-704.587	536.697	-0.109	0.262
-703.572	-74.234	0.203	-0.075
-702.558	-200.000	0.036	-0.214
-701.543	-47.870	-0.042	0.021
-700.529	-118.632	0.367	0.066
-699.514	89.114	-0.159	-0.180
-698.499	-200.000	-0.048	-0.353
-697.485	-200.000	0.026	-0.323
-696.470	409.259	-0.124	0.266
-695.456	-20.918	-0.192	0.119
-694.441	-122.139	-0.069	-0.012
-693.426	-141.504	-0.325	-0.033
-692.412	-200.000	0.022	0.149
-691.397	443.716	-0.109	-0.243
-690.383	-65.786	-0.179	-0.073
-689.368	-15.575	-0.186	-0.121
-688.354	800.000	-0.078	-0.221
-687.339	800.000	0.053	0.154
-686.324	110.716	-0.172	0.210
-685.310	9.661	0.226	0.174
-684.295	62.670	-0.222	-0.225
-683.281	-77.988	0.331	0.116
-682.266	34.219	-0.170	0.150
-681.251	800.000	0.095	-0.362
-680.237	-107.076	0.197	0.044
-679.222	84.767	-0.123	0.136
-678.208	-200.000	-0.039	-0.310
-677.193	-141.694	0.143	-0.015
-676.178	4.324	0.201	-0.150
-675.164	-29.021	-0.166	0.097
-674.149	-200.000	0.022	0.189
-673.135	6.033	-0.229	0.172
-672.120	-82.952	-0.245	0.080
-671.105	179.843	0.106	0.157
-670.091	800.000	0.045	0.151
-669.076	-139.570	0.233	0.025
-668.062	-12.170	-0.064	0.042
-667.047	-200.000	-0.006	0.027
-666.032	-200.000	-0.023	-0.332
-665.018	-69.258	-0.229	0.089
-664.003	-79.370	0.158	0.054
-662.989	-168.319	0.173	-0.007
-661.974	-38.449	-0.075	-0.040
-660.959	40.351	0.085	-0.078
-659.945	-116.117	0.108	-0.020
-658.930	-132.745	0.157	-0.020
-657.916	96.325	-0.204	-0.237
-656.901	102.821	-0.268	0.317
-655.886	-117.916	-0.265	0.048
-654.872	-108.691	0.295	-0.064
-653.857	-116.479	0.176	0.033
-652.843	84.230	-0.232	0.257
-651.828	-52.370	-0.210	0.098
-650.814	-106.727	0.116	0.026
-649.799	649.912	0.029	-0.075
-648.784	-97.238	-0.024	0.006
-647.770	555.532	-0.026	-0.063
-646.755	16.373	-0.130	-0.104
-645.741	800.000	0.037	0.154
-644.726	-200.000	0.012	-0.323
-643.711	-84.740	0.294	-0.094
-642.697	523.012	-0.035	-0.084
-641.682	106.504	0.169	0.203
-640.668	-14.419	0.230	0.150
-639.653	102.030	-0.089	0.106
-638.638	-47.718	0.230	-0.113
-637.624	218.084	0.095	0.153
-636.609	-103.207	-0.175	0.042
-635.595	37.303	0.103	-0.093
-634.580	27.374	-0.389	0.331
-633.565	-151.579	0.183	0.014
-632.551	800.000	0.041	-0.164
-631.536	-72.374	0.067	0.025
-630.522	-200.000	-0.006	-0.136
-629.507	-59.088	0.083	-0.036
-628.492	39.418	-0.105	0.095
-627.478	-200.000	-0.020	0.144
-626.463	-52.348	0.213	-0.100
-625.449	-27.774	0.206	0.121
-624.434	788.461	-0.109	0.303
-623.419	-200.000	-0.015	-0.340
-622.405	-200.000	0.014	-0.403
-621.390	-5.157	0.130	0.090
-620.376	-74.804	-0.088	-0.032
-619.361	66.872	-0.206	0.212
-618.346	800.000	0.087	0.313
-617.332	800.000	0.055	0.245
-616.317	67.248	0.186	0.192
-615.303	29.206	-0.018	0.016
-614.288	-158.785	-0.099	-0.006
-613.273	-200.000	0.328	0.001
-612.259	222.778	0.122	0.199
-611.244	-200.000	-0.038	0.284
-610.230	49.848	0.231	0.220
-609.215	306.333	-0.127	-0.238
-608.201	-200.000	-0.032	0.314
-607.186	409.827	0.110	0.236
-606.171	-97.398	0.284	-0.075
-605.157	-113.963	0.311	-0.061
-604.142	-48.772	0.100	0.049
-603.128	-118.743	0.164	0.029
-602.113	-20.324	0.202	0.126
-601.098	4.521	-0.079	-0.059
-600.084	-9.491	0.086	0.058
-599.069	-96.181	0.198	0.053
-598.055	800.000	0.047	0.178
-597.040	-200.000	-0.013	0.255
-596.025	274.927	0.026	-0.047
-595.011	-169.723	-0.067	0.002
-593.996	9.754	-0.229	0.175
-592.982	-151.837	-0.338	-0.025
-591.967	314.886	-0.069	-0.131
-590.952	0.928	-0.231	-0.168
-589.938	-68.020	-0.158	-0.062
-588.923	572.844	0.026	-0.064
-587.909	-7.995	0.119	-0.081
-586.894	457.335	0.006	-0.014
-585.879	110.696	0.151	0.184
-584.865	-148.884	0.116	-0.009
-583.850	253.340	-0.087	-0.149
-582.836	-140.073	-0.104	-0.011
-581.821	-22.216	0.346	-0.212
-580.806	182.523	-0.163	-0.243
-579.792	-200.000	0.008	-0.325
-578.777	-131.716	-0.332	0.044
-577.763	-124.615	-0.200	0.031
-576.748	-200.000	0.056	-0.297
-575.733	-116.393	-0.064	-0.012
-574.719	-73.330	-0.197	-0.073
-573.704	-74.221	-0.471	0.172
-572.690	-120.291	0.087	-0.015
-571.675	-159.566	-0.157	-0.009
-570.661	267.180	-0.066	0.117
-569.646	-66.035	-0.192	-0.077
-568.631	-49.453	0.113	0.054
-567.617	-19.912	0.243	0.151
-566.602	-200.000	0.008	-0.083
-565.588	175.575	0.164	-0.240
-564.573	-200.000	0.026	-0.200
-563.558	7.819	-0.272	0.206
-562.544	-150.732	0.194	-0.015
-561.529	-200.000	0.030	0.187
-560.515	-200.000	-0.041	0.305
-559.500	800.000	0.010	0.044
-558.485	-59.719	0.165	0.071
-557.471	177.264	-0.043	0.063
-556.456	307.760	-0.045	-0.085
-555.442	-132.203	0.187	0.024
-554.427	-143.722	-0.276	-0.026
-553.412	-87.261	0.205	-0.063
-552.398	119.829	-0.345	-0.432
-551.383	-200.000	0.047	-0.290
-550.369	-181.552	-0.230	0.005
-549.354	800.000	-0.023	0.089
-548.339	-44.187	-0.110	0.056
-547.325	800.000	0.060	0.261
-546.310	92.498	-0.207	0.235
-545.296	149.239	0.250	-0.342
-544.281	-200.000	-0.013	-0.417
-543.266	223.407	0.253	0.412
-542.252	-200.000	-0.038	0.286
-541.237	290.129	0.163	0.299
-540.223	800.000	-0.110	-0.313
-539.208	800.000	-0.129	0.362
-538.193	800.000	-0.163	0.518
-537.179	-11.986	0.158	-0.105
-536.164	25.768	0.301	-0.253
-535.150	129.419	-0.068	0.087
-534.135	-200.000	0.039	0.183
-533.121	-86.723	0.220	0.068
-532.106	-200.000	-0.008	-0.073
-531.091	-115.831	-0.211	-0.040
-530.077	-36.033	0.109	-0.059
-529.062	-189.576	-0.490	-0.006
-528.048	-64.888	-0.129	0.053
-527.033	275.567	-0.022	0.039
-526.018	575.008	0.084	-0.207
-525.004	286.393	0.186	-0.339
-523.989	319.434	0.139	-0.266
-522.975	479.014	0.111	-0.253
-521.960	800.000	0.070	-0.253
-520.945	800.000	0.047	-0.147
-519.931	-140.284	-0.097	-0.010
-518.916	-51.884	-0.266	-0.125
-517.902	158.041	-0.038	-0.053
-516.887	-128.444	0.276	-0.040
-515.872	800.000	-0.102	-0.319
-514.858	-69.859	-0.263	0.101
-513.843	243.773	-0.068	0.115
-512.829	261.248	0.284	0.495
-511.814	-93.861	0.285	-0.079
-510.799	-200.000	-0.065	0.349
-509.785	-117.095	-0.289	0.053
-508.770	151.109	0.070	-0.096
-507.756	100.885	-0.107	0.126
-506.741	55.592	0.214	0.209
-505.726	-1.969	-0.239	0.169
-504.712	-200.000	-0.038	0.371
-503.697	-12.246	0.083	0.055
-502.683	-33.716	0.114	-0.063
-501.668	-200.000	-0.028	0.228
-500.653	800.000	-0.136	-0.388
-499.639	271.832	0.172	-0.305
-498.624	12.375	-0.286	0.222
-497.610	-20.641	0.097	-0.060
-496.595	-105.148	-0.093	-0.021
-495.581	-165.645	-0.359	-0.016
-494.566	752.560	0.007	-0.018
-493.551	800.000	0.058	-0.219
-492.537	-93.696	0.249	-0.069
-491.522	519.721	0.059	0.139
-490.508	212.873	0.054	0.086
-489.493	-90.111	-0.145	-0.043
-488.478	269.369	-0.139	-0.246
-487.464	-88.729	0.220	0.066
-486.449	158.437	0.181	-0.253
-485.435	708.956	-0.092	0.245
-484.420	185.372	-0.122	0.182
-483.405	-119.950	-0.048	-0.008
-482.391	-61.666	0.235	-0.099
-481.376	125.142	0.118	0.149
-480.362	174.459	-0.143	-0.208
-479.347	-200.000	0.018	0.239
-478.332	-179.188	0.103	0.002
-477.318	103.317	0.277	0.326
-476.303	776.368	-0.058	0.159
-475.289	-31.952	-0.138	0.078
-474.274	-200.000	-0.001	-0.304
-473.259	80.792	0.278	-0.301
-472.245	-122.370	0.138	0.023
-471.230	-200.000	-0.005	-0.333
-470.216	800.000	0.029	0.121
-469.201	-173.981	-0.078	-0.002
-468.186	-71.318	-0.268	-0.101
-467.172	-112.403	0.099	0.020
-466.157	16.218	-0.182	-0.144
-465.143	800.000	-0.072	-0.277
-464.128	-96.440	-0.150	-0.040
-463.113	-200.000	-0.046	-0.463
-462.099	147.679	0.201	0.273
-461.084	800.000	0.076	0.276
-460.070	-154.153	0.056	-0.004
-459.055	-118.384	-0.140	0.025
-458.040	412.621	0.120	-0.257
-457.026	-17.223	-0.162	0.103
-456.011	303.131	0.114	-0.213
-454.997	120.810	-0.041	-0.051
-453.982	196.446	-0.224	0.343
-452.968	800.000	0.026	-0.086
-451.953	-200.000	-0.030	-0.194
-450.938	169.091	-0.223	-0.320
-449.924	132.802	0.048	0.063
-448.909	-94.369	0.144	0.039
-447.895	-52.048	0.132	-0.062
-446.880	-153.151	-0.336	0.024
-445.865	-12.246	-0.055	-0.036
-444.851	-200.000	0.040	-0.246
-443.836	800.000	0.114	-0.456
-442.822	-14.939	0.217	0.140
-441.807	-168.543	-0.381	-0.015
-440.792	-88.464	0.221	0.066
-439.778	-103.827	-0.269	0.063
-438.763	341.807	-0.140	0.276
-437.749	266.605	-0.076	0.133
-436.734	-70.685	-0.266	-0.101
-435.719	44.431	-0.341	0.315
-434.705	476.740	0.033	0.075
-433.690	5.975	0.227	-0.169
-432.676	517.128	-0.023	0.054
-431.661	-59.039	0.404	-0.175
-430.646	20.480	-0.391	-0.318
-429.632	152.180	0.350	-0.480
-428.617	-74.387	-0.278	0.101
-427.603	-63.983	-0.086	0.035
-426.588	800.000	0.080	-0.225
-425.573	-106.936	0.146	-0.032
-424.559	-200.000	-0.004	-0.135
-423.544	34.778	-0.063	-0.055
-422.530	-109.230	-0.204	-0.044
-421.515	108.926	0.167	-0.201
-420.500	83.870	0.134	-0.147
-419.486	-142.894	-0.130	-0.013
-418.471	-200.000	0.011	0.457
-417.457	-104.091	0.145	0.034
-416.442	42.979	-0.138	-0.127
-415.428	-147.684	0.047	0.004
-414.413	-103.392	0.051	0.012
-413.398	800.000	-0.121	-0.456
-412.384	19.954	-0.090	0.073
-411.369	262.984	0.178	-0.311
-410.355	-200.000	-0.011	0.284
-409.340	78.825	0.239	0.257
-408.325	134.034	-0.205	0.266
-407.311	-26.530	-0.141	0.083
-406.296	-13.356	0.341	-0.222
-405.282	30.396	-0.235	0.202
-404.267	-7.411	0.140	0.095
-403.252	34.498	0.105	-0.092
-402.238	176.600	0.164	-0.239
-401.223	-200.000	-0.052	0.247
-400.209	17.885	-0.351	0.281
-399.194	-33.814	-0.161	0.089
-398.179	202.812	-0.072	-0.112
-397.165	42.634	0.306	-0.279
-396.150	7.633	0.202	-0.152
-395.136	-200.000	0.001	-0.047
-394.121	-75.848	-0.273	-0.097
-393.106	-90.528	-0.150	0.043
-392.092	-107.818	-0.082	0.018
-391.077	-34.197	0.031	-0.017
-390.063	-80.072	-0.215	0.072
-389.048	800.000	0.106	0.354
-388.033	-55.988	-0.289	-0.129
-387.019	-105.340	0.272	-0.062
-386.004	-84.757	0.325	-0.103
-384.990	12.786	-0.082	-0.063
-383.975	-200.000	-0.005	-0.022
-382.960	471.028	-0.062	0.140
-381.946	-68.946	-0.127	-0.049
-380.931	92.697	0.022	-0.025
-379.917	-130.061	0.538	0.074
-378.902	349.673	0.105	0.208
-377.888	52.672	0.090	-0.086
-376.873	-200.000	-0.033	0.303
-375.858	374.045	0.108	0.221
-374.844	-109.348	-0.346	0.073
-373.829	48.942	0.214	0.202
-372.815	-130.274	-0.177	-0.024
-371.800	-120.080	-0.135	-0.023
-370.785	234.854	-0.101	-0.167
-369.771	160.775	-0.056	0.078
-368.756	-101.616	-0.418	-0.102
-367.742	-98.050	-0.073	-0.019
-366.727	-56.822	-0.224	0.099
-365.712	-16.854	-0.140	-0.088
-364.698	415.843	-0.042	-0.090
-363.683	630.987	-0.032	0.082
-362.669	-200.000	-0.004	0.051
-361.654	384.202	0.156	-0.323
-360.639	61.278	-0.404	0.402
-359.625	-33.030	0.122	0.068
-358.610	-110.160	0.091	-0.019
-357.596	800.000	0.053	-0.211
-356.581	169.199	0.093	0.133
-355.566	265.640	0.167	-0.291
-354.552	-200.000	-0.018	0.127
-353.537	91.992	0.189	0.213
-352.523	-141.316	0.065	-0.007
-351.508	-52.447	-0.399	-0.185
-350.493	-117.651	-0.394	0.071
-349.479	-200.000	-0.088	-0.598
-348.464	-48.910	0.329	0.158
-347.450	-27.644	-0.097	-0.057
-346.435	-95.386	-0.017	-0.005
-345.420	800.000	0.057	-0.162
-344.406	-33.688	-0.147	-0.081
-343.391	-120.245	0.238	0.041
-342.377	-125.408	0.154	-0.024
-341.362	102.087	0.202	0.236
-340.348	800.000	0.077	-0.319
-339.333	202.715	-0.085	-0.132
-338.318	21.408	0.161	-0.131
-337.304	-103.564	0.052	-0.012
-336.289	285.227	0.139	-0.250
-335.275	-200.000	-0.023	0.382
-334.260	-10.364	0.169	0.112
-333.245	140.878	-0.288	-0.381
-332.231	64.792	-0.039	-0.040
-331.216	-64.489	-0.090	0.037
-330.202	77.516	0.130	0.138
-329.187	-42.849	-0.169	-0.086
-328.172	23.986	-0.084	0.070
-327.158	-0.495	-0.137	-0.097
-326.143	-177.043	-0.216	0.005
-325.129	111.317	0.140	0.169
-324.114	800.000	0.077	-0.229
-323.099	-81.456	0.190	0.063
-322.085	150.108	-0.144	-0.195
-321.070	-153.533	0.140	0.010
-320.056	-121.603	-0.284	-0.047
-319.041	800.000	0.124	0.353
-318.026	265.313	-0.223	-0.389
-317.012	-18.143	0.181	-0.113
-315.997	48.693	0.354	-0.332
-314.983	-200.000	0.038	0.204
-313.968	84.073	0.131	-0.144
-312.953	459.512	0.076	0.170
-311.939	472.150	0.066	0.149
-310.924	-82.543	0.181	-0.059
-309.910	285.280	-0.301	-0.541
-308.895	-200.000	0.007	-0.188
-307.880	-12.095	-0.184	-0.120
-306.866	-154.923	-0.333	-0.022
-305.851	334.343	0.106	-0.204
-304.837	144.046	-0.150	0.200
-303.822	800.000	0.053	-0.191
-302.807	43.927	0.355	-0.325
-301.793	-28.196	0.162	0.094
-300.778	63.283	0.128	-0.128
-299.764	-139.329	-0.324	-0.035
-298.749	-39.063	-0.153	-0.080
-297.735	323.070	-0.043	-0.081
-296.720	-144.271	0.141	0.013
-295.705	-113.711	-0.126	0.025
-294.691	-200.000	-0.022	-0.353
-293.676	-69.092	0.217	0.083
-292.662	800.000	0.057	0.223
-291.647	-200.000	0.058	-0.280
-290.632	-118.300	-0.115	0.020
-289.618	-200.000	0.010	0.433
-288.603	-174.452	-0.157	0.005
-287.589	53.242	0.207	0.198
-286.574	285.989	-0.080	0.144
-285.559	800.000	0.083	0.257
-284.545	185.401	0.148	0.220
-283.530	-157.439	-0.315	0.019
-282.516	-200.000	-0.019	0.252
-281.501	20.805	0.298	-0.241
-280.486	-200.000	-0.001	0.202
-279.472	-200.000	0.002	-0.112
-278.457	800.000	0.034	-0.104
-277.443	800.000	0.150	-0.491
-276.428	-87.753	0.088	-0.026
-275.413	-87.137	-0.110	0.033
-274.399	-200.000	-0.021	-0.182
-273.384	-186.699	-0.110	-0.002
-272.370	-58.677	0.281	-0.122
-271.355	5.024	-0.215	0.158
-270.340	237.851	0.109	0.181
-269.326	-80.178	-0.270	-0.090
-268.311	-58.066	0.076	0.033
-267.297	-200.000	-0.034	0.205
-266.282	94.448	0.329	0.373
-265.267	117.580	0.195	0.239
-264.253	-108.570	0.082	-0.018
-263.238	154.326	0.268	0.367
-262.224	751.229	0.089	0.240
-261.209	-120.765	-0.382	-0.064
-260.195	63.149	0.157	-0.157
-259.180	205.984	-0.216	-0.335
-258.165	752.296	-0.106	-0.285
-257.151	316.100	0.063	0.118
-256.136	43.710	-0.096	0.087
-255.122	-3.560	-0.187	-0.129
-254.107	65.899	0.360	0.364
-253.092	-60.304	-0.125	-0.053
-252.078	-58.754	-0.520	-0.225
-251.063	-122.827	-0.451	0.073
-250.049	153.812	-0.044	-0.061
-249.034	-200.000	-0.010	-0.095
-248.019	-122.946	-0.316	0.051
-247.005	144.564	0.167	0.223
-245.990	-127.122	-0.222	-0.032
-244.976	800.000	0.048	0.158
-243.961	-111.138	-0.241	0.049
-242.946	384.680	-0.100	0.206
-241.932	-200.000	0.055	0.362
-240.917	113.411	0.264	0.320
-239.903	-101.784	-0.236	0.057
-238.888	-28.814	-0.203	-0.116
-237.873	-120.063	-0.214	0.037
-236.859	134.678	0.079	0.102
-235.844	103.417	0.128	0.150
-234.830	61.027	0.184	-0.182
-233.815	66.158	0.182	0.184
-232.800	-200.000	0.004	0.022
-231.786	-77.811	0.186	0.064
-230.771	-200.000	0.044	0.296
-229.757	-53.008	0.292	0.134
-228.742	800.000	0.104	-0.328
-227.727	-35.253	0.400	-0.217
-226.713	-200.000	-0.021	-0.108
-225.698	-68.937	0.400	0.154
-224.684	-160.390	-0.428	0.023
-223.669	-151.167	0.323	0.024
-222.655	45.763	0.156	0.144
-221.640	800.000	0.054	0.205
-220.625	-115.520	0.133	-0.025
-219.611	-63.658	-0.163	-0.067
-218.596	12.722	-0.149	-0.115
-217.582	-169.646	-0.109	-0.004
-216.567	-69.034	-0.073	0.028
-215.552	780.762	-0.134	-0.365
-214.538	-200.000	-0.079	0.405
-213.523	-200.000	-0.024	0.140
-212.509	-47.116	-0.243	-0.118
-211.494	-200.000	-0.023	-0.201
-210.479	-36.999	0.102	-0.054
-209.465	33.829	0.121	0.105
-208.450	107.719	-0.167	-0.198
-207.436	-85.618	-0.144	0.044
-206.421	800.000	-0.058	0.216
-205.406	-200.000	-0.033	-0.378
-204.392	405.290	-0.064	-0.134
-203.377	474.938	0.021	-0.046
-202.363	-200.000	-0.045	-0.318
-201.348	-200.000	-0.050	-0.240
-200.333	24.448	-0.134	-0.110
-199.319	-149.197	-0.070	0.006
-198.304	31.395	-0.159	-0.136
-197.290	246.909	0.006	-0.010
-196.275	-53.393	0.365	-0.166
-195.260	-200.000	0.007	0.137
-194.246	-200.000	-0.032	0.543
-193.231	-75.804	-0.267	0.094
-192.217	258.039	0.104	0.177
-191.202	-40.487	-0.453	0.234
-190.187	77.345	-0.093	-0.099
-189.173	357.438	-0.020	0.039
-188.158	56.341	-0.033	-0.032
-187.144	800.000	0.047	-0.167
-186.129	181.235	0.143	0.210
-185.114	149.419	0.167	0.224
-184.100	81.979	0.229	-0.246
-183.085	687.032	-0.042	-0.108
-182.071	59.960	-0.072	-0.070
-181.056	24.626	0.150	-0.123
-180.042	-56.624	0.421	-0.186
-179.027	-200.000	0.121	0.534
-178.012	262.012	-0.107	0.184
-176.998	232.133	0.152	-0.248
-175.983	-9.958	-0.236	0.156
-174.969	-129.115	-0.250	0.035
-173.954	800.000	0.050	0.192
-172.939	-200.000	0.033	0.195
-171.925	-156.920	0.211	0.013
-170.910	-9.532	0.059	0.039
-169.896	-97.947	0.237	0.061
-168.881	305.707	0.110	0.204
-167.866	-200.000	-0.001	0.055
-166.852	-79.631	0.128	0.043
-165.837	-200.000	-0.045	-0.230
-164.823	-200.000	0.100	-0.513
-163.808	57.637	-0.143	-0.139
-162.793	-105.509	-0.102	0.023
-161.779	800.000	0.038	0.147
-160.764	5.631	-0.101	-0.074
-159.750	-120.257	0.130	0.022
-158.735	-100.928	-0.177	-0.043
-157.720	-200.000	-0.017	0.296
-156.706	166.242	-0.079	0.111
-155.691	-137.911	0.376	-0.042
-154.677	-72.253	-0.231	0.085
-153.662	-200.000	0.270	0.001
-152.647	47.226	0.183	0.170
-151.633	800.000	-0.056	0.177
-150.618	400.775	0.152	-0.317
-149.604	-200.000	-0.008	-0.079
-148.589	-83.167	0.037	-0.012
-147.574	-40.731	0.220	0.113
-146.560	38.254	-0.179	0.158
-145.545	-99.536	-0.215	-0.054
-144.531	-13.263	0.116	-0.075
-143.516	-200.000	0.009	-0.223
-142.502	-144.023	0.185	0.017
-141.487	285.321	0.045	0.081
-140.472	-56.888	0.155	0.068
-139.458	-0.229	0.212	-0.150
-138.443	26.837	0.137	-0.114
-137.429	207.198	0.042	0.064
-136.414	278.691	0.123	0.218
-135.399	440.949	0.227	0.493
-134.385	-200.000	-0.001	0.174
-133.370	169.393	0.146	0.207
-132.356	25.489	0.219	0.181
-131.341	-40.389	-0.305	-0.157
-130.326	-96.478	0.499	0.131
-129.312	600.759	-0.196	-0.483
-128.297	-200.000	0.012	-0.128
-127.283	-104.161	0.158	-0.036
-126.268	93.926	0.176	0.198
-125.253	704.579	-0.070	-0.184
-124.239	-9.729	0.337	0.223
-123.224	800.000	0.052	0.161
-122.210	-104.153	-0.254	0.059
