DTS Sentinel unit serial number:	SN413079Multiplexer serial number:	ORYXHardware model number:	OX4-SRSoftware version number:	ORYX F/W v4.00 Oryx Data Collector v3.7.2.0data status	okinstallation	princeton_trtdifferential loss correction	single-endedforward channel	channel 3reverse channel	N/Adate	2019/09/18time	13:52:35forward acquisition time	60.00reverse acquisition time	0.00gamma	496.2192k internal	0.2310k external	0.2310temperature offset calibration	0.9973default loss term (dB/km)	0.3790temperature slope calibration	1.0000multiplexer offset coefficient	1.0000multiplexer slope coefficient	1.0000fibre end	0.00T internal ref (°C)	34.52T ext. ref 1 (°C)	0.65T ext. ref 2 (°C)	29.83length (m)	temperature (°C)	Stokes	anti-Stokes-747.200	-131.251	0.458	0.062
-746.185	302.397	-0.247	0.465
-745.171	-200.000	-0.029	0.201
-744.156	-200.000	0.059	0.441
-743.142	-200.000	-0.007	0.328
-742.127	-200.000	-0.064	0.401
-741.112	169.572	0.320	0.465
-740.098	31.730	-0.156	-0.136
-739.083	-123.382	-0.122	0.020
-738.069	800.000	0.123	0.542
-737.054	72.367	-0.112	-0.118
-736.039	-191.873	0.152	-0.002
-735.025	128.092	-0.074	0.095
-734.010	-63.056	-0.171	0.072
-732.996	205.363	-0.082	-0.130
-731.981	66.136	-0.197	-0.203
-730.966	-200.000	-0.056	0.361
-729.952	-51.098	0.158	0.075
-728.937	-10.881	-0.361	-0.242
-727.923	-79.219	0.021	0.007
-726.908	57.136	-0.107	-0.105
-725.894	-19.580	-0.068	0.042
-724.879	-200.000	-0.045	-0.346
-723.864	-200.000	-0.004	-0.391
-722.850	69.816	-0.076	-0.080
-721.835	-200.000	-0.022	-0.099
-720.821	-21.197	0.153	-0.095
-719.806	-155.258	0.043	-0.003
-718.791	-113.447	0.381	-0.076
-717.777	-139.038	-0.143	-0.016
-716.762	41.214	0.053	-0.049
-715.748	-98.604	-0.261	-0.068
-714.733	-200.000	-0.034	-0.474
-713.718	-49.558	-0.426	-0.206
-712.704	800.000	0.047	-0.134
-711.689	-13.585	0.112	0.074
-710.675	291.118	-0.034	0.062
-709.660	-200.000	0.007	-0.487
-708.645	-46.434	-0.384	0.191
-707.631	413.817	0.103	-0.222
-706.616	46.922	0.213	0.201
-705.602	-5.543	0.215	0.150
-704.587	-50.703	0.243	0.116
-703.572	800.000	-0.113	0.324
-702.558	-99.904	0.312	-0.079
-701.543	-21.940	-0.084	-0.052
-700.529	-200.000	0.046	-0.516
-699.514	129.962	-0.192	-0.250
-698.499	726.360	-0.161	-0.436
-697.485	-200.000	0.014	0.091
-696.470	-200.000	-0.017	0.211
-695.456	-100.184	0.192	-0.048
-694.441	-103.710	-0.206	-0.049
-693.426	-106.615	-0.284	-0.064
-692.412	-137.589	-0.218	0.025
-691.397	-44.744	-0.397	-0.201
-690.383	-135.852	-0.248	0.030
-689.368	385.618	-0.077	-0.162
-688.354	421.038	-0.121	-0.263
-687.339	-157.951	0.196	-0.012
-686.324	283.553	0.091	-0.166
-685.310	1.030	0.185	-0.135
-684.295	-58.786	0.251	-0.110
-683.281	128.839	-0.055	0.071
-682.266	30.809	0.064	-0.055
-681.251	-16.665	0.241	-0.155
-680.237	-67.944	-0.223	0.088
-679.222	316.270	-0.216	-0.414
-678.208	296.615	0.120	0.223
-677.193	800.000	-0.056	0.211
-676.178	-66.113	-0.093	0.038
-675.164	-54.156	-0.221	0.102
-674.149	133.450	-0.113	-0.147
-673.135	-60.558	0.403	0.173
-672.120	-138.237	0.073	0.008
-671.105	184.795	-0.071	-0.106
-670.091	334.852	0.074	0.145
-669.076	-108.704	0.195	-0.042
-668.062	-35.432	-0.140	-0.077
-667.047	77.888	-0.208	-0.225
-666.032	113.264	-0.288	-0.354
-665.018	-31.442	-0.071	-0.040
-664.003	781.172	0.056	-0.156
-662.989	116.260	0.140	-0.173
-661.974	31.826	0.026	-0.023
-660.959	672.067	0.011	0.030
-659.945	-200.000	-0.008	0.045
-658.930	-154.961	-0.502	-0.033
-657.916	440.484	0.092	0.204
-656.901	-30.532	0.247	0.142
-655.886	59.582	0.041	0.041
-654.872	-17.652	-0.217	0.138
-653.857	-75.094	0.067	0.024
-652.843	-52.759	0.211	0.098
-651.828	-163.937	0.081	-0.004
-650.814	186.849	0.127	-0.192
-649.799	87.665	-0.084	0.094
-648.784	400.251	0.097	-0.206
-647.770	800.000	-0.029	-0.111
-646.755	-105.636	-0.291	-0.067
-645.741	-145.235	-0.264	-0.024
-644.726	-21.506	-0.189	-0.117
-643.711	-75.834	0.148	-0.053
-642.697	-121.832	0.250	-0.042
-641.682	-200.000	0.028	-0.406
-640.668	800.000	-0.106	0.336
-639.653	-9.550	-0.153	-0.103
-638.638	800.000	0.150	-0.586
-637.624	-52.914	0.181	-0.084
-636.609	-62.166	-0.232	-0.098
-635.595	-126.293	-0.288	0.043
-634.580	290.726	0.040	0.074
-633.565	58.000	-0.080	-0.079
-632.551	204.712	0.119	-0.187
-631.536	-142.858	0.580	0.057
-630.522	-139.381	-0.302	0.033
-629.507	-112.849	-0.238	0.048
-628.492	-117.506	0.257	0.047
-627.478	403.327	-0.077	0.163
-626.463	210.598	-0.071	0.112
-625.449	357.858	-0.063	-0.128
-624.434	-200.000	0.010	0.179
-623.419	-46.437	0.155	-0.077
-622.405	56.079	-0.211	0.207
-621.390	344.900	0.060	-0.119
-620.376	-200.000	-0.002	-0.183
-619.361	28.118	0.117	0.100
-618.346	478.299	0.050	-0.114
-617.332	90.613	-0.083	0.094
-616.317	-0.605	-0.244	0.175
-615.303	-200.000	-0.006	0.135
-614.288	-13.477	0.157	-0.103
-613.273	67.801	0.078	-0.080
-612.259	420.669	-0.048	0.105
-611.244	800.000	0.058	-0.237
-610.230	-15.727	0.097	-0.062
-609.215	-7.662	0.397	0.271
-608.201	208.217	0.070	-0.111
-607.186	-16.327	0.373	-0.239
-606.171	800.000	-0.091	0.279
-605.157	-67.405	-0.380	-0.151
-604.142	33.191	-0.273	-0.239
-603.128	-19.829	-0.203	-0.126
-602.113	-167.885	-0.370	0.015
-601.098	-176.579	0.281	0.007
-600.084	-59.563	0.094	-0.041
-599.069	314.340	0.041	0.078
-598.055	-200.000	-0.044	0.300
-597.040	800.000	-0.040	-0.144
-596.025	-73.136	-0.105	-0.039
-595.011	106.466	-0.283	0.339
-593.996	418.450	0.042	-0.092
-592.982	15.226	-0.372	-0.294
-591.967	-64.163	-0.228	0.094
-590.952	283.799	0.080	-0.146
-589.938	-117.637	-0.073	-0.013
-588.923	-33.010	-0.213	0.119
-587.909	-107.099	-0.405	0.090
-586.894	-135.914	-0.367	0.044
-585.879	-46.490	-0.145	0.072
-584.865	-110.938	-0.064	-0.013
-583.850	56.122	-0.140	0.137
-582.836	197.173	-0.022	-0.035
-581.821	27.918	0.211	-0.180
-580.806	235.963	-0.184	0.307
-579.792	475.363	-0.152	0.346
-578.777	-200.000	-0.072	-0.343
-577.763	-200.000	-0.012	-0.240
-576.748	-186.612	-0.175	-0.003
-575.733	-3.957	0.220	-0.154
-574.719	800.000	-0.060	0.226
-573.704	32.690	-0.295	0.257
-572.690	-200.000	0.020	-0.242
-571.675	-18.444	0.119	0.075
-570.661	800.000	0.057	-0.189
-569.646	-200.000	0.029	0.273
-568.631	-56.980	0.366	0.163
-567.617	301.831	0.134	-0.250
-566.602	800.000	0.049	-0.214
-565.588	-200.000	0.068	-0.343
-564.573	116.329	0.029	0.035
-563.558	-142.984	-0.241	0.024
-562.544	-75.184	-0.094	0.034
-561.529	800.000	0.049	0.166
-560.515	421.008	-0.133	-0.287
-559.500	119.427	0.231	-0.288
-558.485	-114.394	-0.365	0.071
-557.471	347.027	0.142	0.282
-556.456	54.152	0.288	-0.280
-555.442	-47.699	0.157	-0.077
-554.427	800.000	0.130	-0.370
-553.412	-89.504	-0.061	-0.018
-552.398	29.729	0.165	0.141
-551.383	-200.000	0.105	-0.000
-550.369	-18.999	-0.040	-0.025
-549.354	-43.752	0.101	-0.051
-548.339	-93.893	-0.187	0.052
-547.325	34.968	-0.101	0.089
-546.310	-12.456	0.178	0.117
-545.296	65.501	-0.105	-0.108
-544.281	-107.411	0.186	-0.041
-543.266	-88.251	-0.100	-0.030
-542.252	800.000	0.047	-0.171
-541.237	-200.000	-0.006	-0.040
-540.223	-69.095	-0.078	0.030
-539.208	-77.961	-0.242	-0.084
-538.193	-200.000	-0.032	-0.188
-537.179	800.000	0.067	0.243
-536.164	466.859	-0.156	0.351
-535.150	-99.471	-0.156	-0.040
-534.135	800.000	-0.076	-0.261
-533.121	5.378	-0.125	0.093
-532.106	800.000	0.086	0.305
-531.091	-200.000	-0.074	0.500
-530.077	46.917	-0.324	-0.303
-529.062	-61.232	-0.145	0.062
-528.048	127.648	-0.236	0.302
-527.033	-11.399	-0.177	0.117
-526.018	-132.506	-0.283	0.037
-525.004	629.061	-0.087	0.220
-523.989	-106.603	0.207	-0.046
-522.975	167.364	0.141	-0.202
-521.960	200.132	0.058	-0.089
-520.945	133.257	-0.167	0.217
-519.931	51.681	-0.161	-0.154
-518.916	406.656	0.118	-0.250
-517.902	131.134	-0.213	0.275
-516.887	82.195	0.037	0.041
-515.872	-38.050	-0.160	0.086
-514.858	-200.000	-0.023	-0.247
-513.843	3.651	-0.165	-0.121
-512.829	-19.862	0.150	-0.093
-511.814	-38.976	0.051	0.027
-510.799	800.000	0.099	0.299
-509.785	43.549	0.098	0.090
-508.770	13.162	-0.320	-0.249
-507.756	13.135	-0.129	-0.101
-506.741	-93.490	0.172	0.048
-505.726	-109.432	0.236	-0.050
-504.712	4.027	0.266	0.195
-503.697	-46.413	-0.253	-0.125
-502.683	-127.825	-0.069	0.010
-501.668	174.077	-0.071	-0.104
-500.653	-77.079	-0.259	-0.091
-499.639	-200.000	-0.008	0.269
-498.624	-84.004	-0.180	0.057
-497.610	22.689	0.018	-0.015
-496.595	54.474	-0.033	-0.032
-495.581	-46.386	0.153	0.076
-494.566	-96.342	-0.210	0.056
-493.551	-159.332	-0.219	0.012
-492.537	-200.000	0.023	0.166
-491.522	519.602	0.052	0.122
-490.508	-141.740	-0.343	-0.035
-489.493	-73.669	-0.106	-0.039
-488.478	800.000	-0.024	-0.104
-487.464	-200.000	-0.025	-0.378
-486.449	-149.592	0.097	-0.008
-485.435	70.512	-0.206	-0.214
-484.420	162.540	0.135	0.191
-483.405	-200.000	0.016	-0.094
-482.391	3.090	0.373	-0.273
-481.376	-143.606	0.290	-0.028
-480.362	-38.792	-0.329	0.174
-479.347	14.726	-0.225	-0.177
-478.332	-118.358	0.382	-0.068
-477.318	-28.769	0.270	0.156
-476.303	243.037	0.163	-0.275
-475.289	690.364	-0.075	0.197
-474.274	770.900	0.127	-0.348
-473.259	142.652	0.102	-0.136
-472.245	-43.595	-0.068	-0.034
-471.230	26.739	-0.012	-0.010
-470.216	-194.480	-0.206	-0.002
-469.201	783.669	0.114	0.313
-468.186	511.217	0.063	-0.148
-467.172	2.530	-0.075	-0.054
-466.157	-30.712	-0.057	-0.032
-465.143	-14.368	-0.092	0.060
-464.128	110.801	0.122	0.147
-463.113	-92.646	0.069	0.019
-462.099	175.360	0.136	-0.197
-461.084	-200.000	-0.008	-0.238
-460.070	430.041	-0.064	-0.138
-459.055	800.000	0.059	0.205
-458.040	145.974	-0.169	-0.228
-457.026	-57.543	-0.045	0.020
-456.011	79.482	0.167	0.180
-454.997	-76.223	-0.156	-0.055
-453.982	511.749	0.011	0.026
-452.968	151.057	0.092	-0.125
-451.953	240.346	0.100	-0.167
-450.938	32.332	-0.115	-0.100
-449.924	-39.847	0.131	0.069
-448.909	-92.390	0.010	0.003
-447.895	-200.000	0.026	0.247
-446.880	-30.043	-0.403	0.230
-445.865	150.049	-0.103	0.140
-444.851	-50.079	0.112	-0.053
-443.836	-200.000	0.031	-0.146
-442.822	800.000	0.109	-0.367
-441.807	-200.000	-0.009	-0.300
-440.792	-56.597	0.161	0.072
-439.778	372.947	0.020	-0.040
-438.763	-27.177	-0.156	-0.091
-437.749	-191.140	0.461	-0.005
-436.734	-131.571	-0.148	-0.020
-435.719	56.889	-0.117	-0.115
-434.705	782.697	0.032	-0.089
-433.690	106.664	0.115	0.137
-432.676	38.561	-0.061	0.054
-431.661	255.034	-0.083	0.142
-430.646	-17.244	-0.085	0.054
-429.632	-70.301	-0.038	0.015
-428.617	-8.640	-0.234	-0.157
-427.603	24.215	0.330	0.273
-426.588	-104.635	0.182	-0.042
-425.573	24.004	0.412	-0.341
-424.559	-71.054	0.113	0.042
-423.544	-136.503	-0.298	0.035
-422.530	108.983	0.159	-0.190
-421.515	296.148	0.185	-0.340
-420.500	193.653	0.158	0.240
-419.486	-29.222	-0.235	0.135
-418.471	-101.800	0.183	0.045
-417.457	-151.226	-0.150	0.011
-416.442	-29.051	-0.251	-0.144
-415.428	-200.000	0.006	0.080
-414.413	288.268	0.026	-0.047
-413.398	-50.566	-0.223	0.105
-412.384	-200.000	0.033	-0.326
-411.369	-102.430	-0.214	-0.051
-410.355	-75.526	0.172	0.061
-409.340	476.872	0.084	0.190
-408.325	-200.000	0.011	-0.053
-407.311	34.677	0.169	0.148
-406.296	-70.861	0.108	0.041
-405.282	-95.865	-0.263	0.070
-404.267	-86.284	0.027	0.008
-403.252	-200.000	0.009	-0.138
-402.238	-61.088	0.336	0.142
-401.223	14.858	-0.127	-0.099
-400.209	-149.610	0.125	-0.010
-399.194	-1.072	0.145	-0.103
-398.179	-142.833	-0.067	-0.007
-397.165	-192.491	-0.141	0.001
-396.150	184.915	0.089	-0.133
-395.136	-39.325	-0.257	0.135
-394.121	300.404	0.130	-0.240
-393.106	39.356	0.079	-0.071
-392.092	-60.053	-0.184	0.079
-391.077	-85.621	0.375	-0.117
-390.063	-17.480	-0.243	0.153
-389.048	397.789	0.140	-0.294
-388.033	484.094	-0.071	-0.161
-387.019	-107.587	0.147	0.032
-386.004	-200.000	-0.013	-0.339
-384.990	157.449	-0.060	-0.083
-383.975	-137.362	0.113	0.013
-382.960	676.372	0.103	0.267
-381.946	-169.403	0.246	-0.009
-380.931	-200.000	0.003	-0.052
-379.917	-200.000	-0.036	-0.179
-378.902	800.000	0.062	-0.188
-377.888	45.832	0.286	0.265
-376.873	-200.000	0.026	-0.118
-375.858	30.673	0.366	-0.313
-374.844	-121.618	-0.195	-0.032
-373.829	-200.000	0.021	-0.178
-372.815	-41.544	0.124	-0.064
-371.800	36.941	0.282	-0.250
-370.785	515.838	0.182	-0.425
-369.771	31.828	-0.189	0.163
-368.756	243.559	0.038	0.064
-367.742	-0.291	0.333	0.237
-366.727	13.431	0.235	-0.182
-365.712	101.152	0.343	0.400
-364.698	-118.118	-0.287	0.051
-363.683	800.000	-0.023	0.080
-362.669	-134.281	-0.408	-0.050
-361.654	154.483	-0.146	0.200
-360.639	-41.645	0.159	0.082
-359.625	26.089	0.222	-0.185
-358.610	159.874	-0.107	0.149
-357.596	711.844	-0.089	-0.235
-356.581	153.131	0.123	0.169
-355.566	-53.286	-0.154	0.071
-354.552	47.992	-0.197	-0.184
-353.537	519.332	-0.084	-0.196
-352.523	-105.772	-0.198	-0.045
-351.508	49.560	0.057	0.054
-350.493	-200.000	0.052	0.271
-349.479	800.000	-0.070	0.270
-348.464	800.000	0.024	0.068
-347.450	15.399	-0.130	0.102
-346.435	-81.151	-0.198	-0.065
-345.420	-79.151	-0.256	0.087
-344.406	-134.856	-0.095	-0.011
-343.391	92.869	0.167	0.189
-342.377	-37.303	-0.068	-0.036
-341.362	-63.626	-0.144	0.059
-340.348	-44.071	-0.085	-0.043
-339.333	800.000	-0.065	-0.280
-338.318	800.000	0.043	-0.152
-337.304	-200.000	0.055	0.258
-336.289	-200.000	0.025	-0.185
-335.275	-200.000	-0.019	0.133
-334.260	-38.486	-0.126	-0.067
-333.245	313.724	-0.043	-0.080
-332.231	-200.000	0.019	-0.429
-331.216	185.901	0.185	0.275
-330.202	27.737	0.164	0.138
-329.187	800.000	0.042	-0.124
-328.172	-154.619	0.205	-0.014
-327.158	-97.214	-0.331	-0.086
-326.143	-200.000	0.063	0.307
-325.129	-200.000	-0.029	0.390
-324.114	-71.500	0.067	0.025
-323.099	800.000	0.081	0.233
-322.085	-87.674	0.370	0.111
-321.070	-51.326	0.198	0.093
-320.056	303.617	0.216	-0.400
-319.041	56.871	-0.084	-0.082
-318.026	32.553	-0.151	0.130
-317.012	-90.905	0.043	0.012
-315.997	-200.000	0.013	-0.120
-314.983	800.000	-0.023	-0.082
-313.968	-7.192	-0.120	0.082
-312.953	55.188	0.050	-0.049
-311.939	-75.601	0.063	0.023
-310.924	134.195	-0.075	0.097
-309.910	-2.821	0.256	0.178
-308.895	-132.994	0.174	0.022
-307.880	-200.000	0.005	0.031
-306.866	-22.172	0.104	0.063
-305.851	-17.061	0.053	0.033
-304.837	800.000	0.089	0.377
-303.822	198.962	-0.127	-0.194
-302.807	800.000	0.041	-0.170
-301.793	-24.769	0.135	0.080
-300.778	-121.403	-0.529	0.088
-299.764	576.141	-0.092	-0.223
-298.749	62.132	0.331	0.330
-297.735	230.157	0.215	0.350
-296.720	263.452	-0.140	0.243
-295.705	-200.000	-0.011	0.250
-294.691	162.188	-0.127	0.178
-293.676	82.560	-0.112	-0.122
-292.662	-27.012	-0.292	-0.170
-291.647	-200.000	-0.002	-0.060
-290.632	778.992	-0.016	-0.043
-289.618	-200.000	0.041	0.441
-288.603	67.867	-0.103	0.105
-287.589	-139.679	0.127	0.013
-286.574	-109.051	0.379	0.081
-285.559	712.426	-0.047	-0.123
-284.545	-36.861	-0.231	-0.124
-283.530	-106.116	-0.150	-0.034
-282.516	-200.000	-0.013	-0.143
-281.501	554.004	-0.076	-0.183
-280.486	-92.659	-0.548	0.153
-279.472	-9.552	0.160	-0.107
-278.457	777.634	0.018	-0.049
-277.443	644.428	-0.093	-0.237
-276.428	800.000	0.059	0.193
-275.413	-37.333	0.211	0.112
-274.399	-200.000	-0.006	0.120
-273.384	47.265	-0.145	0.135
-272.370	-200.000	-0.008	0.049
-271.355	-112.629	-0.365	0.072
-270.340	-200.000	-0.030	0.132
-269.326	-8.960	-0.247	-0.165
-268.311	-200.000	0.020	-0.100
-267.297	189.537	0.217	0.324
-266.282	462.210	0.075	0.166
-265.267	-103.692	0.308	0.072
-264.253	-25.211	-0.187	-0.111
-263.238	800.000	-0.065	0.237
-262.224	-135.762	-0.150	-0.018
-261.209	238.077	-0.053	0.088
-260.195	-91.770	0.309	0.088
-259.180	-55.089	0.363	0.163
-258.165	-51.856	0.611	0.283
-257.151	-200.000	-0.003	-0.095
-256.136	186.015	-0.070	0.103
-255.122	226.715	-0.126	-0.204
-254.107	-70.536	0.083	0.031
-253.092	-64.153	-0.181	0.074
-252.078	-129.305	-0.428	-0.059
-251.063	-200.000	0.013	0.145
-250.049	409.189	-0.075	-0.159
-249.034	230.438	-0.038	0.061
-248.019	800.000	0.131	-0.520
-247.005	-129.665	-0.232	0.032
-245.990	-52.362	0.312	-0.144
-244.976	187.359	0.275	-0.408
-243.961	-79.396	0.120	0.041
-242.946	-200.000	-0.023	0.246
-241.932	180.782	0.062	0.091
-240.917	-12.424	-0.211	0.137
-239.903	-200.000	0.005	0.309
-238.888	-80.583	0.153	-0.051
-237.873	-200.000	0.010	0.205
-236.859	-49.178	0.180	-0.086
-235.844	-115.677	0.377	-0.070
-234.830	-109.418	-0.318	0.067
-233.815	800.000	-0.068	-0.188
-232.800	-103.828	0.200	-0.047
-231.786	-153.354	0.126	-0.009
-230.771	283.684	0.074	0.132
-229.757	-40.105	-0.106	-0.055
-228.742	-200.000	0.057	-0.571
-227.727	-200.000	0.025	-0.223
-226.713	-57.934	-0.310	0.135
-225.698	-200.000	0.046	0.345
-224.684	121.175	0.143	-0.177
-223.669	36.654	-0.179	-0.157
-222.655	607.690	0.081	0.201
-221.640	108.723	-0.176	-0.209
-220.625	-200.000	-0.001	0.211
-219.611	442.505	-0.200	0.435
-218.596	-72.613	0.572	0.210
-217.582	44.362	0.164	-0.150
-216.567	800.000	-0.051	-0.209
-215.552	-89.567	0.237	0.069
-214.538	800.000	-0.117	0.334
-213.523	-200.000	0.027	0.176
-212.509	-55.894	-0.139	0.062
-211.494	-200.000	-0.002	-0.255
-210.479	508.847	0.112	0.260
-209.465	60.310	0.127	-0.125
-208.450	77.349	-0.121	-0.128
-207.436	800.000	0.112	-0.331
-206.421	-148.419	-0.284	-0.023
-205.406	-183.666	0.193	0.003
-204.392	800.000	0.102	-0.382
-203.377	-200.000	-0.029	-0.154
-202.363	-200.000	-0.032	0.287
-201.348	800.000	0.075	0.225
-200.333	-145.082	0.342	-0.031
-199.319	-125.670	-0.087	0.013
-198.304	265.127	-0.046	0.080
-197.290	-157.426	-0.142	0.008
-196.275	-71.038	-0.469	0.175
-195.260	-200.000	0.087	0.459
-194.246	44.077	0.125	0.114
-193.231	800.000	-0.018	-0.071
-192.217	53.110	-0.253	-0.241
-191.202	-143.018	-0.057	0.006
-190.187	-91.469	0.019	0.005
-189.173	21.560	0.174	0.141
-188.158	34.786	-0.224	0.195
-187.144	-123.975	0.101	0.016
-186.129	800.000	-0.021	-0.090
-185.114	800.000	0.056	0.197
-184.100	345.684	0.064	-0.125
-183.085	-200.000	0.001	-0.060
-182.071	-200.000	-0.052	0.353
-181.056	196.967	-0.084	0.127
-180.042	73.807	-0.054	-0.057
-179.027	596.611	0.048	-0.117
-178.012	-200.000	0.005	0.324
-176.998	-200.000	0.013	0.184
-175.983	-200.000	0.022	-0.415
-174.969	-33.534	0.202	-0.111
-173.954	461.882	0.068	-0.150
-172.939	-125.867	-0.153	0.023
-171.925	-77.815	0.239	0.082
-170.910	188.513	0.160	-0.238
-169.896	-135.732	0.242	0.028
-168.881	197.819	0.169	0.256
-167.866	-28.352	0.279	-0.160
-166.852	-200.000	0.041	-0.220
-165.837	-155.119	0.195	-0.013
-164.823	-16.070	-0.279	0.176
-163.808	-114.692	0.288	0.055
-162.793	-98.868	0.308	-0.078
-161.779	46.153	0.199	0.183
-160.764	342.489	-0.132	0.257
-159.750	-200.000	0.008	0.129
-158.735	17.994	-0.068	-0.054
-157.720	18.643	-0.280	0.222
-156.706	108.646	-0.065	0.077
-155.691	-200.000	0.012	-0.060
-154.677	9.916	-0.180	0.136
-153.662	-145.507	0.323	-0.029
-152.647	-200.000	-0.028	0.125
-151.633	-50.409	0.218	-0.102
-150.618	1.057	0.221	0.157
-149.604	-114.876	-0.079	-0.015
-148.589	-115.268	-0.159	0.030
-147.574	10.684	-0.294	0.222
-146.560	-87.507	-0.242	0.073
-145.545	-73.365	0.351	0.127
-144.531	95.160	0.125	-0.141
-143.516	155.371	0.078	0.106
-142.502	-137.602	-0.175	-0.020
-141.487	-155.980	-0.101	0.006
-140.472	5.949	-0.230	0.169
-139.458	19.063	-0.190	-0.151
-138.443	764.502	0.053	0.143
-137.429	160.716	-0.172	-0.238
-136.414	751.854	-0.184	-0.492
-135.399	800.000	-0.026	0.073
-134.385	49.047	0.092	-0.086
-133.370	-58.774	0.189	-0.081
-132.356	-200.000	0.017	-0.209
-131.341	-71.499	0.273	-0.101
-130.326	35.156	0.271	-0.235
-129.312	35.320	-0.135	-0.117
-128.297	-40.488	-0.154	-0.079
-127.283	91.493	0.046	0.051
-126.268	-171.903	0.234	-0.008
-125.253	-136.988	-0.210	0.024
-124.239	-122.656	0.073	0.012
-123.224	-86.351	0.122	-0.037
-122.210	518.536	-0.084	0.194
-121.195	-200.000	-0.023	-0.140
