DTS Sentinel unit serial number:	SN413079Multiplexer serial number:	ORYXHardware model number:	OX4-SRSoftware version number:	ORYX F/W v4.00 Oryx Data Collector v3.7.2.0data status	okinstallation	princeton_trtdifferential loss correction	single-endedforward channel	channel 3reverse channel	N/Adate	2019/09/16time	11:24:35forward acquisition time	60.00reverse acquisition time	0.00gamma	496.2192k internal	0.2298k external	0.2298temperature offset calibration	0.9943default loss term (dB/km)	0.3790temperature slope calibration	1.0000multiplexer offset coefficient	1.0000multiplexer slope coefficient	1.0000fibre end	0.00T internal ref (°C)	37.39T ext. ref 1 (°C)	12.92T ext. ref 2 (°C)	34.87length (m)	temperature (°C)	Stokes	anti-Stokes-747.200	59.204	0.228	0.229
-746.185	-28.647	-0.447	-0.263
-745.171	800.000	-0.023	-0.099
-744.156	-15.186	0.070	-0.046
-743.142	123.440	0.186	0.239
-742.127	-7.568	-0.163	0.112
-741.112	39.756	0.258	0.236
-740.098	102.153	-0.242	-0.288
-739.083	12.986	-0.046	-0.036
-738.069	-153.203	0.145	0.010
-737.054	-200.000	-0.024	-0.113
-736.039	-103.542	0.143	0.034
-735.025	60.851	-0.150	0.152
-734.010	-109.281	0.152	-0.033
-732.996	-133.171	0.305	-0.039
-731.981	-200.000	0.008	0.063
-730.966	-152.784	-0.158	0.011
-729.952	49.735	0.231	-0.223
-728.937	-200.000	0.016	-0.241
-727.923	298.382	-0.137	-0.258
-726.908	340.752	0.144	-0.286
-725.894	431.048	-0.145	0.321
-724.879	800.000	0.095	0.352
-723.864	524.942	0.038	0.090
-722.850	-11.238	0.222	-0.149
-721.835	292.605	-0.084	-0.156
-720.821	800.000	0.080	-0.267
-719.806	140.448	0.049	-0.066
-718.791	-146.909	0.088	0.008
-717.777	-200.000	0.032	0.272
-716.762	785.086	-0.077	0.216
-715.748	800.000	0.062	-0.230
-714.733	-103.564	0.202	0.048
-713.718	-200.000	0.005	-0.049
-712.704	249.714	0.026	-0.044
-711.689	-200.000	0.021	-0.380
-710.675	103.634	-0.217	-0.259
-709.660	222.722	-0.127	0.208
-708.645	-49.547	0.091	-0.044
-707.631	-200.000	-0.047	-0.521
-706.616	-128.366	-0.374	-0.054
-705.602	0.260	-0.246	0.179
-704.587	-91.287	0.153	-0.045
-703.572	91.610	-0.098	0.113
-702.558	58.379	-0.182	-0.182
-701.543	521.424	-0.053	-0.127
-700.529	-200.000	-0.003	-0.115
-699.514	-200.000	0.038	0.389
-698.499	-52.257	-0.291	-0.138
-697.485	533.547	0.077	-0.186
-696.470	-156.746	0.187	0.012
-695.456	216.281	-0.205	-0.332
-694.441	-57.756	0.225	-0.100
-693.426	105.400	-0.125	0.151
-692.412	-200.000	-0.017	0.094
-691.397	-76.884	-0.342	0.122
-690.383	143.191	0.115	-0.155
-689.368	-111.418	0.184	-0.038
-688.354	-113.272	-0.474	0.095
-687.339	73.205	-0.102	0.109
-686.324	800.000	-0.020	0.069
-685.310	-69.843	-0.307	-0.119
-684.295	800.000	-0.074	-0.250
-683.281	79.065	0.064	-0.070
-682.266	-200.000	0.023	0.276
-681.251	-58.032	0.124	0.055
-680.237	48.451	-0.221	0.210
-679.222	84.551	-0.226	-0.252
-678.208	-200.000	0.051	-0.267
-677.193	47.435	0.280	-0.265
-676.178	51.927	-0.183	0.178
-675.164	132.349	-0.104	0.136
-674.149	-141.798	0.252	-0.026
-673.135	-94.556	0.170	-0.047
-672.120	157.327	0.094	0.133
-671.105	248.406	-0.042	-0.072
-670.091	329.800	-0.113	0.222
-669.076	-200.000	-0.034	0.154
-668.062	43.848	0.132	-0.123
-667.047	-86.978	-0.127	-0.039
-666.032	-200.000	-0.001	0.145
-665.018	-200.000	0.097	0.610
-664.003	-200.000	0.028	-0.330
-662.989	-91.599	-0.273	-0.079
-661.974	-44.796	0.032	-0.016
-660.959	39.370	-0.254	-0.231
-659.945	284.590	0.257	-0.471
-658.930	-200.000	0.074	-0.552
-657.916	-95.383	-0.055	-0.015
-656.901	800.000	-0.043	0.153
-655.886	800.000	-0.086	-0.294
-654.872	-200.000	-0.003	0.030
-653.857	207.978	-0.200	-0.318
-652.843	179.479	-0.063	-0.093
-651.828	-79.906	-0.393	-0.135
-650.814	-26.067	0.049	0.029
-649.799	-154.296	-0.157	-0.011
-648.784	-200.000	-0.004	0.281
-647.770	381.303	0.130	0.271
-646.755	-138.371	-0.113	-0.013
-645.741	-47.497	0.100	-0.049
-644.726	146.752	-0.095	0.130
-643.711	447.547	-0.112	0.250
-642.697	479.535	0.042	0.096
-641.682	64.779	-0.232	-0.238
-640.668	-200.000	0.020	-0.138
-639.653	367.030	-0.164	-0.336
-638.638	263.109	0.110	-0.195
-637.624	43.520	0.149	-0.138
-636.609	-60.911	0.185	-0.080
-635.595	-4.510	-0.150	-0.105
-634.580	-200.000	0.004	-0.131
-633.565	-200.000	-0.023	-0.121
-632.551	-12.781	-0.120	0.079
-631.536	220.886	-0.102	0.166
-630.522	-148.003	0.191	0.016
-629.507	-200.000	-0.004	-0.228
-628.492	-170.385	0.143	-0.005
-627.478	-20.390	0.318	-0.199
-626.463	-200.000	0.026	-0.240
-625.449	-200.000	0.009	-0.472
-624.434	-40.555	0.150	0.079
-623.419	-78.313	0.247	-0.086
-622.405	-200.000	0.003	0.329
-621.390	119.529	-0.087	-0.109
-620.376	279.734	-0.136	-0.246
-619.361	28.948	0.061	-0.053
-618.346	-1.112	0.214	0.154
-617.332	253.683	-0.155	0.269
-616.317	291.436	-0.099	0.183
-615.303	77.778	-0.041	-0.044
-614.288	118.577	0.138	-0.174
-613.273	800.000	0.061	-0.187
-612.259	74.095	0.071	0.075
-611.244	800.000	0.046	0.186
-610.230	86.867	-0.092	-0.103
-609.215	-116.138	-0.159	0.030
-608.201	628.236	0.124	0.318
-607.186	-83.675	0.149	0.048
-606.171	800.000	0.012	-0.050
-605.157	43.173	0.364	-0.337
-604.142	-195.013	0.167	0.001
-603.128	-154.110	0.129	-0.009
-602.113	800.000	-0.030	-0.122
-601.098	-97.806	0.244	-0.064
-600.084	212.053	0.165	-0.264
-599.069	800.000	-0.037	0.120
-598.055	238.615	-0.137	0.231
-597.040	800.000	-0.076	0.297
-596.025	32.557	-0.208	-0.182
-595.011	242.674	-0.160	-0.272
-593.996	123.413	-0.074	-0.094
-592.982	-47.674	0.183	-0.090
-591.967	54.581	-0.262	0.256
-590.952	-200.000	-0.052	-0.247
-589.938	-32.825	0.114	0.064
-588.923	-147.170	-0.102	0.009
-587.909	135.659	0.075	-0.099
-586.894	65.804	0.105	0.108
-585.879	618.327	0.035	-0.089
-584.865	-200.000	0.107	-0.553
-583.850	-47.590	-0.034	0.017
-582.836	16.524	0.110	0.088
-581.821	26.798	-0.203	-0.173
-580.806	-25.545	0.170	0.102
-579.792	98.588	-0.103	0.120
-578.777	-8.118	-0.133	-0.091
-577.763	800.000	-0.078	-0.220
-576.748	800.000	-0.045	-0.170
-575.733	189.752	0.038	-0.058
-574.719	-135.633	-0.199	-0.024
-573.704	800.000	-0.046	0.179
-572.690	386.527	-0.131	0.275
-571.675	49.439	0.073	0.070
-570.661	-200.000	0.016	-0.184
-569.646	-167.009	0.151	-0.006
-568.631	133.732	0.187	0.246
-567.617	-155.443	-0.255	0.017
-566.602	-200.000	-0.007	0.214
-565.588	-168.097	0.441	-0.017
-564.573	181.623	0.211	-0.314
-563.558	705.035	0.064	-0.170
-562.544	76.186	-0.192	-0.206
-561.529	31.015	-0.116	0.101
-560.515	5.450	0.086	0.064
-559.500	800.000	0.071	0.211
-558.485	743.674	0.116	0.316
-557.471	722.523	-0.077	-0.208
-556.456	-200.000	0.037	0.199
-555.442	195.243	0.115	0.176
-554.427	-163.797	-0.223	0.011
-553.412	7.556	-0.351	0.266
-552.398	144.402	0.193	-0.261
-551.383	800.000	-0.018	-0.063
-550.369	-200.000	0.013	-0.311
-549.354	-0.279	-0.072	0.052
-548.339	3.241	-0.122	-0.090
-547.325	-200.000	-0.011	0.220
-546.310	173.439	0.057	-0.084
-545.296	55.056	-0.165	-0.161
-544.281	-200.000	0.034	0.239
-543.266	-200.000	0.004	-0.310
-542.252	-43.950	0.193	-0.098
-541.237	-70.306	-0.098	-0.038
-540.223	-145.320	0.263	0.024
-539.208	294.133	0.087	0.161
-538.193	-200.000	0.003	-0.263
-537.179	-41.499	0.322	-0.168
-536.164	334.882	-0.055	-0.108
-535.150	-200.000	-0.028	-0.199
-534.135	800.000	0.032	-0.124
-533.121	-39.559	0.219	0.116
-532.106	-78.087	0.127	-0.044
-531.091	240.142	0.108	0.183
-530.077	-5.879	-0.117	0.081
-529.062	253.843	0.182	0.314
-528.048	-171.761	0.193	0.006
-527.033	-21.395	-0.034	-0.021
-526.018	85.626	-0.136	-0.151
-525.004	3.952	0.095	0.070
-523.989	-44.955	-0.099	-0.050
-522.975	285.190	0.103	-0.187
-521.960	-22.189	-0.277	0.170
-520.945	-26.235	0.169	0.101
-519.931	-200.000	0.139	-0.000
-518.916	800.000	0.060	-0.201
-517.902	52.195	0.221	-0.213
-516.887	3.061	-0.221	-0.163
-515.872	191.822	0.174	-0.266
-514.858	-28.461	0.115	0.067
-513.843	-200.000	0.032	0.329
-512.829	-52.723	-0.021	0.010
-511.814	-7.353	0.187	0.128
-510.799	-114.364	0.124	-0.024
-509.785	-62.371	0.063	-0.026
-508.770	282.174	-0.127	0.230
-507.756	-95.910	-0.348	-0.094
-506.741	-200.000	0.003	0.024
-505.726	450.426	0.038	0.084
-504.712	-200.000	-0.003	0.318
-503.697	-200.000	0.017	0.145
-502.683	-200.000	-0.043	-0.220
-501.668	-200.000	0.039	0.201
-500.653	-66.750	-0.060	-0.024
-499.639	-200.000	0.056	0.276
-498.624	-200.000	-0.003	0.156
-497.610	-75.821	0.173	0.062
-496.595	-200.000	0.015	-0.357
-495.581	-61.316	-0.190	0.081
-494.566	-200.000	0.016	-0.181
-493.551	115.036	0.109	-0.135
-492.537	-35.440	-0.175	0.096
-491.522	70.257	-0.313	0.327
-490.508	84.580	-0.081	-0.090
-489.493	-42.190	-0.296	0.153
-488.478	-100.779	0.253	0.063
-487.464	-200.000	0.030	0.220
-486.449	-200.000	-0.004	-0.144
-485.435	800.000	-0.046	0.177
-484.420	315.922	0.019	-0.037
-483.405	-12.709	-0.359	0.237
-482.391	-19.606	-0.241	-0.151
-481.376	-200.000	0.049	-0.318
-480.362	-32.782	-0.359	0.202
-479.347	-200.000	0.151	0.000
-478.332	22.258	0.187	0.155
-477.318	-184.188	-0.136	0.002
-476.303	16.904	-0.108	0.087
-475.289	800.000	0.079	0.245
-474.274	13.198	0.241	-0.189
-473.259	28.596	-0.214	-0.183
-472.245	295.915	0.033	0.062
-471.230	800.000	-0.038	-0.114
-470.216	333.157	-0.151	-0.295
-469.201	-200.000	-0.001	0.326
-468.186	20.390	-0.088	-0.072
-467.172	-88.393	-0.268	-0.081
-466.157	800.000	-0.075	0.259
-465.143	-200.000	0.007	0.137
-464.128	-170.325	-0.241	0.009
-463.113	-69.748	-0.032	0.012
-462.099	238.948	0.130	0.218
-461.084	-154.596	0.036	0.002
-460.070	-200.000	-0.005	0.078
-459.055	-191.050	0.188	0.002
-458.040	269.181	-0.103	0.183
-457.026	-12.171	0.412	0.272
-456.011	-135.560	0.258	0.031
-454.997	244.971	0.181	0.308
-453.982	-89.605	-0.247	-0.073
-452.968	-194.807	-0.213	0.002
-451.953	-122.077	0.405	-0.067
-450.938	81.990	0.136	-0.148
-449.924	-105.487	0.317	0.073
-448.909	-200.000	0.003	-0.105
-447.895	-25.375	0.216	0.129
-446.880	-150.771	0.289	0.022
-445.865	-144.365	-0.582	-0.055
-444.851	-54.063	0.277	-0.127
-443.836	-46.955	-0.162	-0.080
-442.822	-122.789	-0.281	0.046
-441.807	-103.818	-0.312	0.074
-440.792	-64.329	-0.382	-0.157
-439.778	-95.558	-0.142	0.038
-438.763	-100.974	0.178	-0.044
-437.749	114.941	0.127	-0.156
-436.734	-200.000	0.010	-0.114
-435.719	250.465	-0.123	-0.211
-434.705	295.787	0.071	-0.130
-433.690	149.749	0.122	-0.166
-432.676	125.653	-0.187	0.239
-431.661	161.517	-0.020	-0.028
-430.646	-200.000	0.005	-0.154
-429.632	-81.761	-0.073	-0.024
-428.617	-200.000	-0.012	0.123
-427.603	34.688	0.190	0.167
-426.588	-26.491	-0.336	0.199
-425.573	-200.000	-0.002	0.133
-424.559	-31.719	-0.207	0.117
-423.544	-200.000	-0.086	0.390
-422.530	-200.000	0.055	-0.291
-421.515	0.178	-0.004	0.003
-420.500	800.000	-0.049	-0.160
-419.486	39.776	-0.135	-0.122
-418.471	73.208	0.177	-0.186
-417.457	-34.381	-0.070	-0.039
-416.442	-56.153	-0.285	0.128
-415.428	214.863	-0.102	0.164
-414.413	-87.570	0.247	0.075
-413.398	-115.896	0.187	0.035
-412.384	-18.933	-0.226	-0.141
-411.369	392.708	0.044	0.092
-410.355	-200.000	0.037	-0.195
-409.340	-55.576	-0.168	0.076
-408.325	-43.755	-0.251	0.127
-407.311	-200.000	0.012	-0.174
-406.296	-200.000	-0.026	-0.144
-405.282	71.915	-0.221	-0.231
-404.267	731.249	0.070	0.188
-403.252	-29.769	-0.128	-0.073
-402.238	56.408	-0.119	0.117
-401.223	800.000	0.043	-0.157
-400.209	150.968	-0.269	0.369
-399.194	-6.245	0.044	0.031
-398.179	196.330	0.066	-0.101
-397.165	-73.602	-0.336	0.123
-396.150	483.714	-0.063	0.145
-395.136	800.000	-0.064	-0.226
-394.121	4.711	0.111	-0.082
-393.106	27.463	0.199	-0.168
-392.092	19.878	0.109	0.089
-391.077	800.000	-0.066	0.248
-390.063	366.894	-0.150	0.305
-389.048	-80.590	0.297	0.100
-388.033	203.777	-0.173	-0.269
-387.019	637.497	0.063	-0.162
-386.004	416.045	0.035	0.076
-384.990	800.000	-0.116	0.351
-383.975	-76.017	0.525	0.187
-382.960	349.187	-0.109	-0.217
-381.946	34.691	-0.198	0.175
-380.931	11.911	-0.142	0.110
-379.917	292.615	0.116	0.212
-378.902	-200.000	-0.025	0.119
-377.888	89.909	0.235	-0.264
-376.873	-59.629	0.216	-0.093
-375.858	-67.012	0.186	0.074
-374.844	-110.433	0.154	-0.032
-373.829	-200.000	-0.013	0.140
-372.815	-110.444	-0.227	0.047
-371.800	-127.863	0.093	0.014
-370.785	378.991	-0.141	0.291
-369.771	113.919	-0.169	-0.207
-368.756	-16.273	0.122	-0.078
-367.742	-100.151	-0.195	-0.049
-366.727	526.398	-0.068	-0.160
-365.712	537.678	-0.080	0.192
-364.698	-141.890	0.228	-0.023
-363.683	198.499	0.233	0.359
-362.669	-81.136	-0.102	0.034
-361.654	-200.000	0.005	-0.037
-360.639	19.183	0.137	0.110
-359.625	-45.370	-0.102	-0.051
-358.610	-20.101	0.289	-0.179
-357.596	-100.437	-0.205	-0.051
-356.581	800.000	-0.027	0.111
-355.566	-118.989	0.137	-0.024
-354.552	41.739	-0.210	-0.191
-353.537	800.000	-0.120	-0.442
-352.523	84.553	-0.232	0.255
-351.508	-200.000	0.011	0.375
-350.493	-174.362	-0.183	0.005
-349.479	-54.477	-0.107	-0.049
-348.464	-89.058	-0.448	0.133
-347.450	-200.000	-0.079	-0.387
-346.435	62.608	0.173	0.174
-345.420	-105.677	0.210	-0.048
-344.406	-30.886	0.181	0.103
-343.391	-142.727	-0.052	-0.005
-342.377	-6.193	0.064	-0.044
-341.362	149.282	-0.074	-0.101
-340.348	123.103	-0.100	0.126
-339.333	-121.367	0.307	-0.051
-338.318	-106.854	-0.293	-0.065
-337.304	97.475	-0.190	0.219
-336.289	-12.669	0.208	0.137
-335.275	24.761	0.223	-0.185
-334.260	549.011	0.064	-0.153
-333.245	196.653	-0.191	0.293
-332.231	-2.941	-0.052	-0.037
-331.216	27.078	0.049	0.041
-330.202	-18.631	0.214	-0.134
-329.187	-200.000	-0.015	0.133
-328.172	-79.605	-0.149	-0.051
-327.158	-200.000	0.007	-0.081
-326.143	-19.961	0.067	0.041
-325.129	-159.139	0.086	-0.005
-324.114	-63.998	-0.046	0.019
-323.099	-124.085	-0.229	0.036
-322.085	236.094	-0.314	-0.522
-321.070	100.300	0.149	-0.173
-320.056	-68.631	-0.204	0.079
-319.041	800.000	-0.157	0.438
-318.026	-31.324	-0.170	0.096
-317.012	-159.624	0.201	0.011
-315.997	389.242	0.241	-0.501
-314.983	-200.000	0.022	-0.415
-313.968	725.644	0.101	-0.270
-312.953	800.000	-0.116	-0.381
-311.939	-117.971	-0.337	0.060
-310.924	141.483	-0.020	0.026
-309.910	188.779	0.193	-0.291
-308.895	268.089	-0.111	0.195
-307.880	75.521	-0.165	-0.175
-306.866	-2.233	0.333	0.235
-305.851	-10.177	-0.084	0.056
-304.837	800.000	-0.020	-0.073
-303.822	320.035	0.169	-0.321
-302.807	800.000	0.086	-0.269
-301.793	289.269	0.006	-0.011
-300.778	250.005	0.126	0.214
-299.764	800.000	0.044	0.123
-298.749	-99.658	0.101	-0.025
-297.735	-115.067	-0.141	0.027
-296.720	-200.000	0.001	0.277
-295.705	42.773	-0.128	0.117
-294.691	-171.735	0.339	0.011
-293.676	225.654	-0.042	0.068
-292.662	-10.973	0.093	0.062
-291.647	800.000	-0.070	0.303
-290.632	-200.000	-0.009	0.172
-289.618	-200.000	-0.006	0.199
-288.603	457.715	0.081	-0.180
-287.589	800.000	-0.057	-0.240
-286.574	800.000	0.043	0.184
-285.559	-36.394	-0.228	0.123
-284.545	-166.159	0.238	0.010
-283.530	531.348	-0.131	-0.309
-282.516	-150.818	-0.116	-0.009
-281.501	21.233	0.368	-0.300
-280.486	800.000	0.026	0.096
-279.472	164.537	0.086	-0.122
-278.457	-138.952	0.194	0.021
-277.443	-173.522	0.503	-0.015
-276.428	800.000	-0.142	0.490
-275.413	-178.833	0.288	-0.007
-274.399	-144.840	-0.260	0.024
-273.384	-73.328	0.193	0.071
-272.370	-200.000	0.020	-0.370
-271.355	-200.000	-0.020	0.128
-270.340	465.246	-0.006	-0.014
-269.326	164.861	0.173	-0.244
-268.311	46.529	0.181	-0.168
-267.297	-200.000	-0.071	0.392
-266.282	-200.000	-0.033	0.178
-265.267	800.000	-0.122	0.388
-264.253	-200.000	-0.024	0.194
-263.238	-162.343	0.074	0.004
-262.224	-112.477	0.129	0.026
-261.209	-200.000	-0.000	0.042
-260.195	-93.287	-0.151	0.042
-259.180	-47.021	0.250	0.122
-258.165	84.980	0.130	0.143
-257.151	-99.435	0.276	0.070
-256.136	235.148	-0.050	-0.083
-255.122	384.008	-0.071	0.147
-254.107	-200.000	0.011	-0.099
-253.092	-162.805	-0.280	-0.014
-252.078	-76.254	-0.314	0.111
-251.063	161.520	-0.135	-0.189
-250.049	-200.000	-0.092	0.417
-249.034	140.652	-0.189	-0.250
-248.019	-200.000	-0.001	-0.318
-247.005	-200.000	-0.019	-0.318
-245.990	-200.000	-0.020	0.135
-244.976	-76.386	-0.232	-0.082
-243.961	-165.097	-0.175	0.008
-242.946	-117.075	0.179	0.033
-241.932	522.103	0.015	-0.036
-240.917	800.000	-0.096	0.334
-239.903	126.186	0.212	0.268
-238.888	-200.000	0.046	0.234
-237.873	-200.000	-0.038	-0.328
-236.859	-119.352	0.114	-0.020
-235.844	-163.067	-0.197	0.010
-234.830	-200.000	0.026	-0.444
-233.815	17.207	-0.211	-0.168
-232.800	308.689	-0.124	0.233
-231.786	-200.000	-0.006	-0.053
-230.771	800.000	0.059	-0.168
-229.757	197.206	-0.130	-0.198
-228.742	-39.668	0.165	0.086
-227.727	-6.289	-0.193	0.131
-226.713	-4.024	0.392	0.272
-225.698	553.308	-0.131	-0.315
-224.684	-70.144	0.336	0.128
-223.669	-81.562	0.135	0.044
-222.655	-7.521	0.186	-0.126
-221.640	-200.000	-0.002	-0.116
-220.625	-45.087	-0.251	-0.125
-219.611	-155.091	-0.193	0.013
-218.596	230.459	0.181	-0.297
-217.582	594.692	0.077	-0.192
-216.567	-82.173	-0.059	0.019
-215.552	-138.555	0.271	-0.030
-214.538	-118.426	0.366	0.065
-213.523	-65.194	0.071	0.029
-212.509	-200.000	0.029	0.163
-211.494	15.288	0.134	0.105
-210.479	777.659	0.043	-0.118
-209.465	343.880	0.078	0.153
-208.450	-11.031	0.126	-0.083
-207.436	419.570	-0.121	0.259
-206.421	800.000	-0.071	0.237
-205.406	-136.591	0.187	-0.022
-204.392	447.477	0.196	0.431
-203.377	57.514	-0.074	0.072
-202.363	800.000	0.142	0.420
-201.348	-103.167	0.257	-0.061
-200.333	10.017	0.146	0.111
-199.319	142.479	-0.075	-0.100
-198.304	800.000	0.036	-0.142
-197.290	6.306	0.109	-0.081
-196.275	-90.824	-0.095	-0.027
-195.260	37.296	0.097	0.086
-194.246	91.777	-0.162	-0.182
-193.231	-103.476	0.329	-0.077
-192.217	-191.623	0.198	-0.002
-191.202	291.892	0.047	-0.086
-190.187	-123.103	-0.297	-0.048
-189.173	-46.076	-0.282	-0.139
-188.158	-168.092	-0.251	0.010
-187.144	-200.000	0.032	0.446
-186.129	89.325	-0.067	0.074
-185.114	-186.109	-0.196	0.003
-184.100	101.719	-0.208	-0.243
-183.085	26.704	-0.094	-0.078
-182.071	297.626	0.220	-0.403
-181.056	800.000	-0.153	0.467
-180.042	-200.000	-0.008	0.279
-179.027	249.628	0.047	-0.079
-178.012	413.814	-0.083	0.177
-176.998	-200.000	-0.037	-0.272
-175.983	34.226	-0.118	0.103
-174.969	-200.000	0.010	-0.044
-173.954	207.557	-0.180	0.281
-172.939	-46.388	-0.205	0.100
-171.925	283.912	-0.072	0.129
-170.910	-96.256	-0.073	-0.019
-169.896	74.611	-0.185	-0.194
-168.881	-200.000	0.015	-0.343
-167.866	-46.768	0.231	-0.113
-166.852	202.079	-0.187	-0.288
-165.837	205.656	-0.042	-0.065
-164.823	265.999	-0.069	-0.120
-163.808	49.860	0.113	-0.106
-162.793	-171.757	0.121	-0.004
-161.779	-200.000	0.000	-0.005
-160.764	-170.869	-0.194	-0.007
-159.750	800.000	0.013	0.040
-158.735	-200.000	-0.007	-0.063
-157.720	176.208	0.137	0.199
-156.706	-23.522	-0.173	0.104
-155.691	-102.669	-0.185	-0.044
-154.677	-30.246	-0.183	-0.103
-153.662	-59.135	-0.174	-0.075
-152.647	51.112	0.209	0.198
-151.633	800.000	0.114	-0.375
-150.618	420.883	-0.109	0.233
-149.604	-67.471	-0.190	0.074
-148.589	485.693	0.111	0.252
-147.574	-75.409	-0.066	0.023
-146.560	-200.000	0.015	0.430
-145.545	-126.934	-0.472	-0.069
-144.531	-200.000	0.048	-0.531
-143.516	225.860	-0.085	-0.138
-142.502	-154.283	0.189	-0.013
-141.487	14.778	0.161	0.126
-140.472	800.000	0.048	-0.143
-139.458	14.114	0.444	-0.345
-138.443	-186.778	0.135	-0.002
-137.429	-200.000	0.015	-0.326
-136.414	155.954	0.116	-0.160
-135.399	-163.906	-0.375	0.017
-134.385	-111.133	0.289	-0.059
-133.370	-200.000	0.022	0.364
-132.356	-99.688	-0.123	-0.031
-131.341	800.000	0.074	0.241
-130.326	131.874	-0.146	-0.188
-129.312	6.032	-0.223	0.165
-128.297	-67.770	0.344	0.134
-127.283	421.942	-0.100	-0.214
-126.268	-15.259	0.140	0.089
-125.253	-132.706	-0.261	0.033
-124.239	-63.372	0.264	-0.108
-123.224	-30.231	-0.289	0.163
-122.210	381.337	0.095	0.193
