DTS Sentinel unit serial number:	SN413079Multiplexer serial number:	ORYXHardware model number:	OX4-SRSoftware version number:	ORYX F/W v4.00 Oryx Data Collector v3.7.2.0data status	okinstallation	princeton_trtdifferential loss correction	single-endedforward channel	channel 3reverse channel	N/Adate	2019/09/17time	06:40:34forward acquisition time	60.00reverse acquisition time	0.00gamma	496.2192k internal	0.2332k external	0.2332temperature offset calibration	0.9947default loss term (dB/km)	0.3790temperature slope calibration	1.0000multiplexer offset coefficient	1.0000multiplexer slope coefficient	1.0000fibre end	0.00T internal ref (°C)	27.94T ext. ref 1 (°C)	0.13T ext. ref 2 (°C)	21.33length (m)	temperature (°C)	Stokes	anti-Stokes-747.200	82.161	-0.079	0.086
-746.185	727.939	0.169	0.455
-745.171	800.000	0.085	-0.246
-744.156	-77.436	-0.486	-0.170
-743.142	787.192	0.053	-0.147
-742.127	800.000	-0.145	0.410
-741.112	800.000	-0.055	-0.188
-740.098	-62.919	-0.246	0.102
-739.083	-121.300	0.131	0.022
-738.069	800.000	0.048	0.140
-737.054	58.256	-0.314	0.310
-736.039	-83.172	-0.100	-0.032
-735.025	177.149	-0.223	0.326
-734.010	-157.699	-0.189	0.011
-732.996	-113.771	-0.283	0.055
-731.981	-115.806	0.480	0.090
-730.966	-131.761	0.362	-0.048
-729.952	-21.317	-0.369	-0.227
-728.937	-129.470	0.226	0.031
-727.923	800.000	0.088	-0.251
-726.908	14.044	0.209	-0.163
-725.894	-200.000	0.025	-0.176
-724.879	-44.457	0.390	-0.196
-723.864	-200.000	-0.011	-0.519
-722.850	800.000	0.060	-0.191
-721.835	-200.000	-0.016	0.237
-720.821	-53.223	0.143	0.066
-719.806	-71.632	-0.398	-0.150
-718.791	67.826	-0.214	-0.220
-717.777	42.756	-0.293	0.269
-716.762	-142.715	0.319	-0.031
-715.748	134.340	-0.230	-0.300
-714.733	800.000	-0.066	-0.192
-713.718	-200.000	-0.054	0.277
-712.704	796.851	-0.111	0.306
-711.689	-177.847	-0.059	-0.001
-710.675	-200.000	0.062	-0.489
-709.660	-55.739	-0.460	0.206
-708.645	-200.000	0.075	0.426
-707.631	386.718	0.001	0.003
-706.616	800.000	-0.020	0.082
-705.602	-22.729	0.245	-0.149
-704.587	-9.511	-0.311	0.209
-703.572	62.042	-0.086	-0.086
-702.558	-200.000	0.029	-0.000
-701.543	-87.621	-0.273	-0.083
-700.529	-200.000	-0.137	-0.000
-699.514	-98.985	-0.064	0.016
-698.499	55.093	-0.216	-0.210
-697.485	-200.000	0.020	-0.171
-696.470	17.424	-0.098	-0.078
-695.456	246.255	-0.092	0.156
-694.441	-141.799	0.407	0.041
-693.426	175.125	0.189	-0.275
-692.412	-99.842	-0.428	0.107
-691.397	-4.878	-0.045	0.031
-690.383	-158.232	0.464	0.027
-689.368	-29.923	0.160	0.092
-688.354	-171.857	0.218	0.007
-687.339	-41.697	-0.116	0.060
-686.324	554.504	-0.083	-0.199
-685.310	-66.747	-0.505	-0.201
-684.295	-148.255	0.275	0.023
-683.281	-175.208	0.473	-0.013
-682.266	-200.000	0.008	-0.141
-681.251	-200.000	-0.025	0.264
-680.237	48.997	0.277	-0.261
-679.222	411.710	0.089	-0.190
-678.208	-46.267	0.306	0.151
-677.193	-33.675	-0.121	0.067
-676.178	-200.000	0.001	-0.056
-675.164	-59.473	0.063	-0.027
-674.149	-200.000	-0.012	-0.397
-673.135	-153.429	0.299	0.021
-672.120	-83.206	0.132	-0.043
-671.105	-23.396	-0.237	0.143
-670.091	-100.667	0.304	-0.075
-669.076	-37.684	-0.063	0.034
-668.062	-29.169	-0.051	0.029
-667.047	800.000	0.040	0.112
-666.032	104.922	-0.310	0.367
-665.018	-1.127	-0.195	-0.138
-664.003	-99.091	0.398	0.101
-662.989	202.752	0.080	0.123
-661.974	-43.563	-0.240	0.121
-660.959	571.962	-0.012	0.029
-659.945	800.000	0.077	0.245
-658.930	113.193	-0.109	-0.133
-657.916	800.000	-0.110	0.341
-656.901	-116.210	-0.194	0.036
-655.886	370.499	0.052	-0.106
-654.872	73.619	0.154	0.161
-653.857	-200.000	-0.009	0.256
-652.843	-200.000	0.019	0.173
-651.828	-18.109	-0.071	0.044
-650.814	-123.182	0.197	0.032
-649.799	87.116	0.096	0.107
-648.784	-43.961	-0.063	0.032
-647.770	-175.038	0.076	0.002
-646.755	800.000	0.092	-0.337
-645.741	111.044	-0.250	-0.302
-644.726	-58.699	0.132	0.057
-643.711	800.000	0.047	0.149
-642.697	-49.847	0.158	-0.075
-641.682	314.148	-0.096	-0.182
-640.668	776.179	-0.061	-0.168
-639.653	279.697	-0.123	0.220
-638.638	-7.044	0.185	-0.126
-637.624	-178.048	0.301	0.007
-636.609	199.299	-0.085	0.131
-635.595	-101.006	0.045	0.011
-634.580	-200.000	0.022	-0.101
-633.565	6.702	0.139	0.104
-632.551	-88.593	0.362	0.108
-631.536	117.474	-0.075	-0.093
-630.522	-60.790	0.181	-0.077
-629.507	-59.049	-0.066	-0.029
-628.492	-33.535	-0.297	0.164
-627.478	24.419	-0.017	-0.014
-626.463	-200.000	0.031	0.167
-625.449	800.000	-0.038	-0.124
-624.434	800.000	-0.116	-0.336
-623.419	-58.740	0.214	-0.093
-622.405	11.968	0.144	0.111
-621.390	-1.294	0.047	-0.033
-620.376	156.776	0.061	0.085
-619.361	800.000	-0.068	-0.195
-618.346	800.000	0.057	-0.177
-617.332	-200.000	0.005	-0.025
-616.317	-144.084	0.025	-0.002
-615.303	264.789	0.032	0.056
-614.288	-100.392	0.459	-0.114
-613.273	775.328	-0.077	-0.211
-612.259	-0.722	0.330	-0.234
-611.244	127.354	0.058	0.074
-610.230	293.121	-0.114	-0.208
-609.215	-200.000	0.029	0.171
-608.201	-200.000	0.011	0.254
-607.186	9.069	0.146	0.110
-606.171	25.120	0.187	0.156
-605.157	800.000	0.055	0.162
-604.142	800.000	0.018	0.069
-603.128	-98.060	-0.473	-0.122
-602.113	100.326	-0.111	-0.129
-601.098	-86.006	0.353	-0.109
-600.084	748.872	-0.054	-0.145
-599.069	377.360	-0.116	0.237
-598.055	549.456	0.105	0.251
-597.040	-44.425	-0.066	-0.033
-596.025	-200.000	-0.040	-0.210
-595.011	601.842	0.165	0.410
-593.996	438.000	-0.176	-0.384
-592.982	-200.000	-0.016	-0.420
-591.967	-200.000	0.013	0.288
-590.952	-200.000	0.003	-0.087
-589.938	800.000	0.093	-0.386
-588.923	643.835	-0.116	-0.297
-587.909	-184.853	-0.257	-0.004
-586.894	-113.092	-0.216	0.043
-585.879	-121.837	-0.572	-0.094
-584.865	184.635	0.140	0.208
-583.850	142.443	-0.059	0.079
-582.836	345.351	-0.053	-0.104
-581.821	-83.140	0.050	0.016
-580.806	800.000	0.016	0.054
-579.792	-125.359	-0.379	0.058
-578.777	-62.649	-0.283	-0.117
-577.763	800.000	-0.046	-0.180
-576.748	-141.682	-0.259	0.026
-575.733	-200.000	-0.010	-0.168
-574.719	-106.908	-0.343	0.076
-573.704	-53.078	0.139	-0.064
-572.690	459.788	-0.032	-0.071
-571.675	281.353	0.034	0.061
-570.661	106.687	0.155	-0.184
-569.646	449.967	-0.071	-0.157
-568.631	141.131	-0.246	-0.325
-567.617	800.000	-0.057	-0.237
-566.602	-200.000	0.010	0.174
-565.588	-200.000	-0.015	-0.295
-564.573	-14.647	-0.379	-0.243
-563.558	-123.526	0.159	0.025
-562.544	-1.114	0.107	-0.075
-561.529	-156.277	0.290	0.018
-560.515	-59.115	0.275	-0.119
-559.500	-117.294	-0.107	0.019
-558.485	33.512	0.113	0.098
-557.471	40.436	0.131	-0.118
-556.456	39.867	-0.182	-0.164
-555.442	-200.000	0.004	-0.072
-554.427	-68.670	0.299	0.116
-553.412	-61.766	0.068	-0.028
-552.398	194.467	-0.094	-0.143
-551.383	800.000	0.056	-0.238
-550.369	405.572	-0.075	0.158
-549.354	-200.000	-0.055	0.250
-548.339	2.757	-0.149	0.108
-547.325	-46.768	-0.155	0.076
-546.310	46.456	-0.288	0.267
-545.296	-66.509	0.316	0.125
-544.281	428.385	-0.085	0.183
-543.266	149.700	-0.066	0.089
-542.252	-26.087	-0.222	-0.130
-541.237	-81.717	-0.193	-0.063
-540.223	81.212	0.273	0.295
-539.208	-117.806	-0.122	0.022
-538.193	6.856	0.064	0.047
-537.179	800.000	0.028	0.080
-536.164	20.236	-0.069	-0.055
-535.150	-189.385	-0.298	0.003
-534.135	-56.770	-0.200	-0.088
-533.121	-200.000	-0.051	0.235
-532.106	-127.302	0.060	0.009
-531.091	-200.000	0.033	0.347
-530.077	-200.000	-0.059	0.277
-529.062	88.811	0.163	0.181
-528.048	376.916	-0.119	-0.242
-527.033	800.000	0.107	-0.337
-526.018	27.523	-0.298	-0.250
-525.004	34.737	-0.154	-0.135
-523.989	-32.080	-0.140	-0.078
-522.975	-127.756	-0.113	-0.016
-521.960	122.067	-0.194	-0.242
-520.945	517.153	0.134	0.312
-519.931	-52.692	0.188	-0.086
-518.916	-200.000	-0.033	0.197
-517.902	215.998	0.125	0.197
-516.887	-22.110	-0.259	0.157
-515.872	-49.226	-0.329	-0.157
-514.858	-149.695	-0.216	0.017
-513.843	52.827	0.203	0.194
-512.829	800.000	-0.119	-0.372
-511.814	800.000	0.044	-0.148
-510.799	-200.000	-0.016	-0.504
-509.785	8.279	-0.325	-0.243
-508.770	34.937	0.375	0.327
-507.756	99.091	0.125	0.144
-506.741	-60.277	-0.243	0.103
-505.726	-200.000	0.016	-0.157
-504.712	-20.800	0.416	0.254
-503.697	4.228	-0.130	-0.095
-502.683	18.547	0.362	-0.289
-501.668	-89.352	0.186	0.054
-500.653	112.484	-0.343	0.413
-499.639	35.734	-0.066	-0.058
-498.624	-200.000	-0.001	0.070
-497.610	-87.685	-0.375	-0.113
-496.595	227.462	-0.179	-0.290
-495.581	-56.619	0.351	0.155
-494.566	-200.000	0.050	-0.268
-493.551	26.050	0.226	0.188
-492.537	599.364	0.053	0.130
-491.522	56.397	0.369	-0.357
-490.508	-16.320	-0.355	0.224
-489.493	-200.000	-0.005	0.171
-488.478	-98.555	-0.443	-0.113
-487.464	130.666	0.085	0.108
-486.449	-200.000	-0.003	0.310
-485.435	-70.083	0.257	0.097
-484.420	-14.937	0.091	0.058
-483.405	-200.000	-0.027	-0.129
-482.391	-200.000	0.021	0.192
-481.376	-1.390	-0.114	-0.080
-480.362	-107.797	-0.214	-0.046
-479.347	-89.785	-0.120	0.035
-478.332	-200.000	0.018	0.258
-477.318	-185.804	-0.182	0.003
-476.303	602.256	0.071	-0.175
-475.289	134.627	-0.203	0.263
-474.274	-24.683	-0.177	0.105
-473.259	-200.000	-0.010	0.167
-472.245	-17.447	-0.125	0.078
-471.230	339.180	-0.047	0.092
-470.216	-8.348	-0.073	-0.049
-469.201	-152.882	-0.315	-0.022
-468.186	-64.121	0.189	-0.077
-467.172	800.000	-0.037	-0.136
-466.157	-144.033	-0.345	0.032
-465.143	41.465	-0.143	0.128
-464.128	68.595	0.243	0.248
-463.113	800.000	-0.068	-0.217
-462.099	104.146	0.321	0.376
-461.084	800.000	-0.068	0.205
-460.070	460.657	-0.008	-0.019
-459.055	-86.740	0.251	-0.076
-458.040	-200.000	-0.030	-0.169
-457.026	-96.057	-0.311	-0.082
-456.011	-200.000	0.007	0.082
-454.997	366.950	0.055	0.110
-453.982	779.417	0.078	-0.212
-452.968	-78.443	0.145	-0.049
-451.953	110.845	-0.172	-0.206
-450.938	34.540	0.140	-0.121
-449.924	50.991	0.210	-0.198
-448.909	-112.387	-0.349	-0.069
-447.895	-124.639	-0.361	0.056
-446.880	-200.000	0.005	0.079
-445.865	-200.000	-0.028	-0.178
-444.851	190.638	-0.095	0.142
-443.836	20.981	0.145	0.117
-442.822	268.404	0.023	-0.041
-441.807	-27.012	-0.229	-0.133
-440.792	42.171	0.222	-0.201
-439.778	-200.000	-0.139	0.000
-438.763	73.387	0.211	-0.219
-437.749	-15.451	0.256	0.162
-436.734	-66.473	0.125	0.049
-435.719	30.604	-0.209	0.178
-434.705	93.771	0.134	0.151
-433.690	-69.656	0.388	0.148
-432.676	328.859	-0.037	0.070
-431.661	800.000	0.061	0.207
-430.646	138.326	0.092	0.120
-429.632	-58.394	0.239	-0.103
-428.617	644.349	-0.028	0.072
-427.603	-65.291	-0.164	-0.066
-426.588	800.000	0.031	0.089
-425.573	-200.000	-0.214	0.000
-424.559	132.969	0.100	-0.128
-423.544	340.844	0.028	-0.054
-422.530	-43.645	0.315	-0.158
-421.515	-25.886	-0.150	-0.088
-420.500	-200.000	-0.286	0.000
-419.486	14.925	-0.115	0.089
-418.471	494.083	-0.105	0.239
-417.457	-15.176	0.055	-0.035
-416.442	159.032	-0.069	-0.095
-415.428	89.257	-0.215	-0.238
-414.413	-80.018	0.109	-0.036
-413.398	387.578	-0.026	0.053
-412.384	17.775	0.161	0.127
-411.369	-46.792	-0.267	-0.130
-410.355	-197.865	0.131	0.001
-409.340	800.000	0.117	0.390
-408.325	800.000	0.054	-0.189
-407.311	-91.823	0.317	-0.089
-406.296	79.696	-0.119	-0.127
-405.282	-99.534	0.221	-0.055
-404.267	422.999	0.087	0.185
-403.252	-125.291	-0.168	-0.025
-402.238	-157.800	0.343	0.020
-401.223	687.658	-0.052	-0.135
-400.209	-140.889	-0.284	-0.029
-399.194	-22.823	0.232	-0.139
-398.179	-105.970	-0.124	0.028
-397.165	358.105	0.099	0.196
-396.150	439.197	-0.076	-0.166
-395.136	800.000	0.040	-0.159
-394.121	148.643	-0.039	-0.052
-393.106	-84.639	-0.101	-0.032
-392.092	-200.000	0.033	0.270
-391.077	38.754	-0.148	-0.131
-390.063	24.253	0.239	-0.196
-389.048	-150.866	-0.182	0.014
-388.033	-149.372	0.288	0.023
-387.019	767.709	-0.125	-0.338
-386.004	598.879	0.037	-0.091
-384.990	459.859	0.140	-0.308
-383.975	241.503	-0.154	-0.256
-382.960	-98.623	0.231	0.058
-381.946	187.960	-0.109	0.162
-380.931	55.158	-0.062	0.059
-379.917	-135.453	-0.237	0.028
-378.902	-26.060	0.154	0.090
-377.888	-33.666	0.302	-0.165
-376.873	9.140	0.208	-0.155
-375.858	10.463	0.015	-0.012
-374.844	-135.294	0.230	-0.027
-373.829	61.175	0.202	-0.199
-372.815	-139.140	-0.268	-0.029
-371.800	-1.674	-0.220	0.153
-370.785	-86.324	0.301	0.092
-369.771	784.521	-0.064	0.173
-368.756	800.000	-0.032	-0.092
-367.742	174.833	-0.205	0.294
-366.727	-25.456	-0.117	0.068
-365.712	189.272	-0.308	0.458
-364.698	261.150	0.135	0.231
-363.683	78.949	0.137	-0.145
-362.669	-194.509	0.348	-0.003
-361.654	10.068	-0.159	-0.119
-360.639	231.142	0.070	-0.114
-359.625	-200.000	0.004	0.103
-358.610	119.767	-0.101	0.124
-357.596	-200.000	-0.036	0.305
-356.581	-200.000	-0.014	0.245
-355.566	-96.728	0.197	0.051
-354.552	-54.181	0.129	0.058
-353.537	154.537	-0.176	0.240
-352.523	-97.215	-0.232	0.060
-351.508	-12.740	0.147	-0.095
-350.493	-52.949	0.268	0.122
-349.479	-200.000	0.008	0.042
-348.464	25.193	-0.225	-0.185
-347.450	-111.650	0.217	0.044
-346.435	-165.878	-0.152	0.006
-345.420	-127.603	-0.008	-0.001
-344.406	-51.922	-0.340	0.157
-343.391	-7.599	-0.130	0.087
-342.377	236.236	-0.022	0.036
-341.362	116.869	0.093	0.114
-340.348	144.144	0.115	-0.152
-339.333	119.136	-0.037	-0.045
-338.318	-3.898	0.106	0.073
-337.304	273.667	-0.128	-0.224
-336.289	800.000	-0.106	-0.379
-335.275	800.000	0.079	0.323
-334.260	128.114	-0.225	0.283
-333.245	-120.860	0.191	-0.032
-332.231	800.000	-0.012	-0.043
-331.216	210.618	0.087	-0.135
-330.202	-200.000	0.016	0.141
-329.187	-112.055	0.278	-0.055
-328.172	550.035	0.142	0.336
-327.158	-132.908	-0.388	-0.049
-326.143	73.610	0.194	0.201
-325.129	-200.000	-0.010	0.060
-324.114	96.923	0.165	0.188
-323.099	14.655	-0.089	0.069
-322.085	-200.000	-0.002	0.157
-321.070	-44.772	-0.134	-0.066
-320.056	11.584	0.239	-0.182
-319.041	473.125	-0.048	0.107
-318.026	258.014	0.088	-0.150
-317.012	-146.770	-0.161	-0.014
-315.997	58.707	0.100	0.097
-314.983	521.157	0.070	-0.162
-313.968	-200.000	-0.067	-0.358
-312.953	-5.146	-0.179	0.122
-311.939	-200.000	0.003	-0.089
-310.924	10.900	0.324	-0.244
-309.910	-200.000	-0.048	-0.250
-308.895	-94.291	0.138	-0.037
-307.880	80.212	0.137	-0.145
-306.866	-101.064	0.191	0.046
-305.851	316.374	-0.082	0.152
-304.837	-200.000	0.004	-0.323
-303.822	347.552	-0.105	0.205
-302.807	114.700	-0.151	-0.182
-301.793	67.440	-0.172	0.174
-300.778	-23.383	0.051	-0.031
-299.764	118.305	0.012	0.015
-298.749	243.677	-0.159	-0.264
-297.735	-149.323	-0.251	0.020
-296.720	-103.257	-0.259	0.061
-295.705	17.300	0.185	0.145
-294.691	-154.391	-0.205	-0.014
-293.676	800.000	-0.063	0.268
-292.662	-122.236	0.346	-0.056
-291.647	16.859	0.104	-0.081
-290.632	800.000	0.068	0.212
-289.618	-20.911	0.192	-0.116
-288.603	57.055	-0.151	-0.146
-287.589	-200.000	-0.029	0.259
-286.574	73.345	0.083	0.086
-285.559	-68.949	0.197	-0.075
-284.545	-41.079	-0.142	0.072
-283.530	-6.014	0.031	0.021
-282.516	-200.000	-0.037	-0.212
-281.501	-88.871	0.275	0.081
-280.486	-2.702	-0.103	0.072
-279.472	-38.264	0.163	0.085
-278.457	14.355	-0.082	0.064
-277.443	-75.844	0.133	0.047
-276.428	92.429	0.125	0.139
-275.413	395.022	0.146	0.300
-274.399	57.378	0.123	-0.119
-273.384	-200.000	0.029	0.145
-272.370	-106.343	-0.199	0.044
-271.355	-123.553	0.211	-0.033
-270.340	-117.761	0.049	0.009
-269.326	520.477	-0.120	-0.278
-268.311	754.436	0.084	-0.225
-267.297	107.865	0.059	-0.069
-266.282	136.702	-0.099	-0.127
-265.267	-200.000	-0.019	-0.384
-264.253	69.780	-0.087	0.088
-263.238	-96.984	-0.304	-0.079
-262.224	-21.931	0.142	0.085
-261.209	-200.000	0.005	-0.079
-260.195	800.000	0.024	0.091
-259.180	19.884	-0.204	0.162
-258.165	219.256	-0.079	0.125
-257.151	-52.152	-0.197	-0.090
-256.136	53.525	0.244	-0.231
-255.122	122.522	0.063	0.077
-254.107	25.041	-0.363	0.298
-253.092	800.000	0.046	0.127
-252.078	70.247	-0.133	0.136
-251.063	341.808	0.081	0.156
-250.049	800.000	0.108	0.385
-249.034	-131.953	-0.171	0.022
-248.019	213.253	-0.151	-0.236
-247.005	800.000	0.129	-0.359
-245.990	-124.865	0.397	-0.060
-244.976	-88.258	0.136	0.040
-243.961	-200.000	-0.020	0.123
-242.946	45.279	-0.171	-0.156
-241.932	-200.000	0.043	-0.222
-240.917	-200.000	-0.005	0.313
-239.903	-200.000	-0.008	0.283
-238.888	-200.000	-0.002	0.081
-237.873	800.000	-0.057	-0.192
-236.859	-104.892	-0.313	-0.071
-235.844	15.430	-0.103	-0.080
-234.830	59.418	0.158	-0.153
-233.815	229.267	0.168	0.270
-232.800	-98.596	-0.174	0.044
-231.786	18.562	0.125	0.099
-230.771	-112.420	-0.449	0.088
-229.757	-69.067	0.331	-0.126
-228.742	35.347	-0.225	0.195
-227.727	-59.315	-0.242	0.103
-226.713	742.917	0.188	0.499
-225.698	-13.037	0.114	0.073
-224.684	-92.737	-0.065	-0.018
-223.669	-3.153	0.262	0.180
-222.655	-105.718	-0.052	-0.011
-221.640	729.202	-0.095	-0.251
-220.625	-200.000	-0.016	0.084
-219.611	-68.082	-0.110	-0.042
-218.596	-10.574	0.099	0.065
-217.582	-200.000	-0.048	0.251
-216.567	-139.600	0.088	0.009
-215.552	190.108	0.120	-0.178
-214.538	145.015	-0.084	-0.111
-213.523	28.698	0.058	-0.048
-212.509	-41.322	-0.252	-0.128
-211.494	-70.080	-0.134	0.050
-210.479	-86.673	-0.117	-0.035
-209.465	396.474	0.086	-0.176
-208.450	314.908	-0.138	-0.257
-207.436	259.441	-0.191	-0.325
-206.421	-23.446	0.070	-0.041
-205.406	800.000	0.066	0.214
-204.392	-87.602	0.152	0.045
-203.377	82.350	-0.097	-0.103
-202.363	323.017	-0.141	-0.266
-201.348	-200.000	0.028	0.135
-200.333	78.026	0.050	-0.053
-199.319	15.323	0.302	0.233
-198.304	-142.701	-0.335	0.032
-197.290	-200.000	-0.022	-0.140
-196.275	-200.000	0.022	-0.196
-195.260	-32.573	0.029	-0.016
-194.246	-57.034	-0.080	0.035
-193.231	-200.000	0.056	0.250
-192.217	110.148	-0.089	0.105
-191.202	529.222	0.029	-0.068
-190.187	-169.119	0.667	0.024
-189.173	148.834	-0.196	0.261
-188.158	-60.973	0.415	0.173
-187.144	3.447	0.063	-0.045
-186.129	-142.603	-0.170	-0.016
-185.114	-143.965	-0.090	0.008
-184.100	-200.000	0.060	0.290
-183.085	659.062	0.092	0.233
-182.071	38.320	0.234	-0.205
-181.056	-37.436	0.039	0.021
-180.042	-90.751	-0.093	0.026
-179.027	355.334	0.069	-0.136
-178.012	-74.290	-0.282	-0.100
-176.998	-110.248	0.133	-0.027
-175.983	-39.655	-0.157	-0.081
-174.969	-200.000	0.029	0.254
-173.954	-200.000	-0.053	-0.281
-172.939	800.000	0.164	-0.460
-171.925	197.662	0.139	-0.209
-170.910	101.539	0.076	-0.088
-169.896	193.635	-0.179	0.267
-168.881	113.615	0.114	-0.136
-167.866	-130.336	-0.109	0.015
-166.852	-62.572	0.282	0.115
-165.837	171.210	-0.006	0.008
-164.823	-145.726	0.320	0.028
-163.808	220.964	-0.037	0.058
-162.793	11.272	0.081	-0.061
-161.779	-96.218	0.112	-0.029
-160.764	-200.000	0.022	0.352
-159.750	800.000	0.049	0.205
-158.735	-56.512	0.105	0.046
-157.720	59.090	-0.069	-0.067
-156.706	800.000	0.121	-0.330
-155.691	-200.000	0.008	0.203
-154.677	-200.000	-0.040	0.243
-153.662	-128.680	0.334	0.046
-152.647	683.232	0.019	-0.049
-151.633	7.206	0.110	-0.080
-150.618	-75.563	0.185	0.065
-149.604	99.779	-0.167	0.190
-148.589	-200.000	-0.048	0.263
-147.574	100.709	-0.107	0.123
-146.560	486.199	0.054	-0.122
-145.545	26.741	-0.208	0.171
-144.531	-2.958	-0.308	0.211
-143.516	287.899	-0.098	0.174
-142.502	-112.824	-0.118	-0.023
-141.487	-106.905	0.282	0.061
-140.472	-95.665	-0.248	0.065
-139.458	-120.472	-0.121	0.020
-138.443	38.376	0.198	0.173
-137.429	196.029	-0.148	-0.221
-136.414	-111.077	-0.625	-0.126
-135.399	-200.000	0.023	-0.137
-134.385	1.500	0.277	0.195
-133.370	-200.000	-0.011	-0.120
-132.356	-200.000	-0.010	0.251
-131.341	281.644	-0.083	-0.146
-130.326	37.119	-0.117	0.101
-129.312	184.461	-0.084	-0.122
-128.297	250.838	0.124	0.208
-127.283	-162.235	0.110	0.005
-126.268	-200.000	0.048	-0.210
-125.253	-200.000	0.065	0.414
-124.239	-44.639	-0.355	0.174
-123.224	-175.798	-0.172	0.005
-122.210	-200.000	0.003	-0.300
-121.195	-200.000	-0.010	-0.180
-120.180	-113.436	0.043	0.008
