DTS Sentinel unit serial number:	SN413079Multiplexer serial number:	ORYXHardware model number:	OX4-SRSoftware version number:	ORYX F/W v4.00 Oryx Data Collector v3.7.2.0data status	okinstallation	princeton_trtdifferential loss correction	single-endedforward channel	channel 3reverse channel	N/Adate	2019/09/13time	19:12:35forward acquisition time	60.00reverse acquisition time	0.00gamma	496.2192k internal	0.2324k external	0.2324temperature offset calibration	1.0095default loss term (dB/km)	0.3790temperature slope calibration	1.0000multiplexer offset coefficient	1.0000multiplexer slope coefficient	1.0000fibre end	0.00T internal ref (°C)	31.44T ext. ref 1 (°C)	3.82T ext. ref 2 (°C)	24.79length (m)	temperature (°C)	Stokes	anti-Stokes-747.200	-34.802	-0.256	0.141
-746.185	-200.000	-0.005	0.144
-745.171	-18.711	0.147	0.092
-744.156	-36.781	-0.178	0.097
-743.142	607.334	0.040	-0.102
-742.127	-200.000	-0.016	-0.173
-741.112	-151.565	0.143	0.011
-740.098	-76.881	-0.189	0.067
-739.083	-200.000	-0.052	0.281
-738.069	-200.000	-0.030	0.423
-737.054	91.700	-0.201	0.228
-736.039	740.074	-0.010	-0.026
-735.025	800.000	-0.062	0.235
-734.010	-79.591	-0.406	-0.138
-732.996	-24.132	-0.426	-0.257
-731.981	-164.525	-0.360	-0.017
-730.966	-40.357	0.230	-0.120
-729.952	122.432	-0.142	-0.179
-728.937	-26.086	-0.045	-0.027
-727.923	-200.000	0.022	0.237
-726.908	-200.000	0.020	-0.182
-725.894	-200.000	-0.023	-0.157
-724.879	-127.812	0.071	0.010
-723.864	5.990	-0.060	0.045
-722.850	92.804	0.172	-0.196
-721.835	-139.864	0.019	0.002
-720.821	800.000	0.136	-0.431
-719.806	357.424	-0.137	-0.276
-718.791	374.626	0.166	-0.340
-717.777	-200.000	-0.018	-0.125
-716.762	389.812	-0.123	-0.257
-715.748	-108.635	0.086	0.019
-714.733	800.000	-0.089	0.284
-713.718	-200.000	-0.028	-0.223
-712.704	53.745	-0.108	-0.104
-711.689	-200.000	-0.051	0.261
-710.675	-200.000	-0.049	0.371
-709.660	486.470	-0.047	-0.107
-708.645	486.677	0.096	-0.220
-707.631	-149.023	0.263	0.021
-706.616	-114.861	-0.304	-0.058
-705.602	618.397	0.116	-0.293
-704.587	797.344	0.082	0.228
-703.572	47.023	-0.081	-0.076
-702.558	3.545	-0.282	-0.207
-701.543	-200.000	0.007	-0.262
-700.529	9.461	-0.170	0.130
-699.514	-200.000	-0.010	-0.056
-698.499	-200.000	-0.002	0.012
-697.485	-134.693	-0.079	-0.010
-696.470	-136.868	0.360	0.042
-695.456	800.000	0.040	0.115
-694.441	-17.926	-0.342	-0.216
-693.426	46.794	0.141	0.132
-692.412	-158.211	-0.189	-0.011
-691.397	53.948	-0.316	-0.306
-690.383	132.294	-0.106	-0.138
-689.368	-200.000	-0.021	0.100
-688.354	-88.154	-0.275	-0.083
-687.339	-75.338	-0.199	-0.071
-686.324	25.960	0.045	-0.038
-685.310	-200.000	-0.051	0.396
-684.295	140.964	0.176	0.235
-683.281	95.385	0.189	-0.217
-682.266	-135.088	-0.180	0.022
-681.251	450.189	-0.092	-0.205
-680.237	-187.158	0.131	-0.002
-679.222	328.027	-0.174	0.336
-678.208	800.000	0.069	-0.221
-677.193	251.716	0.049	-0.084
-676.178	108.573	0.172	-0.207
-675.164	83.679	-0.226	-0.248
-674.149	-200.000	0.015	0.253
-673.135	-200.000	-0.446	0.002
-672.120	55.706	-0.027	0.026
-671.105	-200.000	0.018	-0.316
-670.091	-127.084	-0.380	-0.056
-669.076	-200.000	-0.020	-0.173
-668.062	182.689	0.142	-0.210
-667.047	-22.417	0.390	-0.238
-666.032	-38.005	0.355	-0.190
-665.018	-160.156	0.047	-0.003
-664.003	538.128	0.071	-0.169
-662.989	17.377	-0.292	0.233
-661.974	-76.704	-0.208	-0.073
-660.959	502.726	-0.167	-0.388
-659.945	-137.240	-0.192	-0.022
-658.930	-133.645	-0.273	-0.034
-657.916	-72.384	-0.252	-0.094
-656.901	-13.894	-0.208	0.135
-655.886	800.000	-0.028	0.080
-654.872	-200.000	-0.037	-0.225
-653.857	-185.842	0.137	0.002
-652.843	663.086	0.074	-0.191
-651.828	30.611	-0.225	0.193
-650.814	-28.456	0.224	0.130
-649.799	11.984	-0.172	0.133
-648.784	355.912	0.027	-0.054
-647.770	800.000	-0.060	-0.217
-646.755	-7.590	-0.381	-0.259
-645.741	800.000	-0.072	-0.292
-644.726	28.090	-0.167	0.142
-643.711	-10.050	0.145	-0.097
-642.697	-137.977	0.182	-0.020
-641.682	-107.636	0.042	0.009
-640.668	-200.000	-0.002	0.047
-639.653	-47.976	-0.318	-0.154
-638.638	-181.774	-0.395	-0.008
-637.624	-13.940	0.192	0.125
-636.609	-200.000	-0.009	0.130
-635.595	185.480	0.045	-0.067
-634.580	-156.113	0.432	0.027
-633.565	67.796	-0.145	-0.149
-632.551	87.801	-0.217	-0.241
-631.536	-55.312	-0.204	-0.092
-630.522	-57.490	-0.236	-0.104
-629.507	-93.626	-0.173	-0.048
-628.492	800.000	-0.021	-0.070
-627.478	-165.254	-0.331	0.015
-626.463	244.633	-0.061	0.102
-625.449	-111.242	0.215	-0.044
-624.434	-200.000	0.010	-0.086
-623.419	28.985	-0.206	0.175
-622.405	2.587	-0.202	0.147
-621.390	-86.302	0.186	0.058
-620.376	-58.394	0.144	-0.063
-619.361	800.000	0.045	-0.164
-618.346	29.306	0.132	-0.113
-617.332	-200.000	-0.044	0.498
-616.317	-128.305	0.278	-0.040
-615.303	303.744	0.024	-0.044
-614.288	-97.080	0.073	-0.019
-613.273	-111.685	-0.199	0.040
-612.259	84.513	0.054	-0.059
-611.244	-117.702	-0.352	-0.064
-610.230	-200.000	0.020	0.107
-609.215	169.765	0.085	0.123
-608.201	-10.595	0.208	-0.138
-607.186	-200.000	-0.021	0.198
-606.171	-77.110	0.276	-0.096
-605.157	800.000	-0.103	0.323
-604.142	295.485	0.147	0.270
-603.128	-102.343	-0.348	-0.084
-602.113	54.240	-0.061	-0.059
-601.098	-97.579	0.318	-0.083
-600.084	-151.172	0.139	-0.010
-599.069	269.115	-0.151	0.266
-598.055	-200.000	0.048	0.350
-597.040	225.281	0.182	-0.296
-596.025	4.251	0.089	0.065
-595.011	323.821	0.093	0.178
-593.996	299.454	0.125	-0.230
-592.982	800.000	0.085	-0.251
-591.967	597.222	-0.138	-0.344
-590.952	800.000	-0.040	0.146
-589.938	90.911	-0.112	-0.126
-588.923	-184.796	-0.289	-0.005
-587.909	432.217	0.144	-0.312
-586.894	-200.000	-0.059	-0.287
-585.879	800.000	0.065	0.252
-584.865	26.993	0.147	0.124
-583.850	-77.232	0.208	0.073
-582.836	-91.229	0.268	-0.077
-581.821	-200.000	0.010	-0.266
-580.806	-92.580	0.060	0.017
-579.792	98.789	-0.092	-0.107
-578.777	670.800	-0.098	0.255
-577.763	-170.736	-0.049	-0.002
-576.748	-87.137	0.217	-0.066
-575.733	150.317	-0.177	-0.241
-574.719	183.928	-0.098	-0.146
-573.704	1.920	-0.215	0.155
-572.690	-52.427	-0.185	-0.086
-571.675	-52.384	-0.070	-0.032
-570.661	34.852	0.145	-0.127
-569.646	-200.000	0.015	-0.088
-568.631	103.887	0.248	0.292
-567.617	-41.119	-0.139	0.072
-566.602	800.000	0.136	0.449
-565.588	-200.000	-0.045	-0.286
-564.573	248.459	0.071	-0.121
-563.558	-200.000	-0.045	0.247
-562.544	-130.139	-0.138	0.019
-561.529	800.000	0.058	0.200
-560.515	189.000	-0.191	-0.286
-559.500	305.118	0.115	-0.214
-558.485	-162.493	-0.242	0.012
-557.471	-22.802	0.101	0.061
-556.456	-106.896	0.075	0.017
-555.442	-131.679	-0.324	-0.043
-554.427	256.388	0.023	0.039
-553.412	-23.999	0.167	0.100
-552.398	66.890	0.159	-0.162
-551.383	800.000	-0.031	0.123
-550.369	-164.087	0.378	-0.018
-549.354	800.000	0.129	0.377
-548.339	-100.874	-0.326	0.080
-547.325	-200.000	0.017	0.097
-546.310	-27.813	-0.295	0.171
-545.296	-179.671	0.132	-0.003
-544.281	5.670	0.235	-0.174
-543.266	-88.121	-0.186	-0.056
-542.252	160.773	-0.056	0.078
-541.237	376.732	-0.086	0.175
-540.223	-200.000	0.005	0.112
-539.208	49.251	0.333	0.314
-538.193	-200.000	0.013	0.134
-537.179	-95.430	-0.051	0.014
-536.164	39.828	0.074	-0.066
-535.150	159.714	0.140	-0.195
-534.135	240.144	-0.082	-0.137
-533.121	-200.000	0.004	0.096
-532.106	359.378	0.070	0.140
-531.091	55.418	-0.311	0.301
-530.077	780.701	0.104	-0.284
-529.062	11.826	0.115	-0.088
-528.048	-40.745	0.053	0.027
-527.033	102.979	-0.139	-0.163
-526.018	-118.257	-0.222	-0.039
-525.004	-149.224	0.361	0.029
-523.989	800.000	0.036	-0.145
-522.975	-96.396	0.337	-0.089
-521.960	-89.967	0.221	-0.064
-520.945	-119.850	-0.057	-0.010
-519.931	468.656	0.049	0.111
-518.916	-200.000	-0.058	0.386
-517.902	1.826	-0.049	-0.035
-516.887	-13.399	-0.166	-0.107
-515.872	-200.000	0.017	-0.182
-514.858	229.712	-0.059	-0.096
-513.843	800.000	0.030	0.084
-512.829	464.724	0.117	0.261
-511.814	800.000	0.040	0.172
-510.799	-138.505	-0.111	0.012
-509.785	-2.581	-0.064	-0.045
-508.770	-14.731	0.211	0.136
-507.756	405.279	0.046	-0.098
-506.741	-200.000	-0.014	0.183
-505.726	-3.957	0.139	-0.096
-504.712	-53.434	-0.432	0.198
-503.697	-160.713	0.106	0.006
-502.683	-53.569	0.423	0.194
-501.668	800.000	-0.037	-0.112
-500.653	800.000	0.025	0.105
-499.639	-6.234	-0.099	-0.067
-498.624	497.980	0.032	0.074
-497.610	-61.301	-0.042	-0.018
-496.595	-200.000	0.001	-0.308
-495.581	-42.092	0.243	0.124
-494.566	-200.000	-0.057	-0.265
-493.551	-119.798	0.090	-0.015
-492.537	-159.255	-0.136	0.008
-491.522	-133.083	-0.181	0.023
-490.508	126.509	0.280	0.355
-489.493	-138.080	0.315	0.035
-488.478	-12.002	0.134	0.087
-487.464	800.000	0.058	0.217
-486.449	-70.808	-0.066	-0.025
-485.435	89.610	-0.095	0.106
-484.420	-200.000	0.036	-0.261
-483.405	-96.117	-0.470	0.125
-482.391	32.600	0.098	0.085
-481.376	-169.692	0.131	0.005
-480.362	-123.330	-0.309	0.049
-479.347	-200.000	0.016	0.118
-478.332	-2.961	0.109	-0.076
-477.318	-124.204	-0.547	0.086
-476.303	-51.964	0.204	0.095
-475.289	800.000	-0.098	-0.298
-474.274	-49.800	-0.169	0.080
-473.259	800.000	0.045	-0.127
-472.245	164.778	-0.038	0.054
-471.230	172.491	-0.209	-0.300
-470.216	-59.269	-0.286	-0.123
-469.201	43.603	-0.091	-0.083
-468.186	-7.761	-0.052	-0.035
-467.172	-165.058	0.137	-0.006
-466.157	-200.000	0.027	0.162
-465.143	-115.361	-0.099	-0.019
-464.128	-78.350	-0.241	0.082
-463.113	74.709	0.152	-0.159
-462.099	426.471	-0.090	0.193
-461.084	16.087	-0.102	-0.080
-460.070	-36.440	0.166	0.089
-459.055	198.832	0.068	0.104
-458.040	-130.381	0.121	0.016
-457.026	800.000	0.054	0.152
-456.011	128.412	-0.175	0.222
-454.997	-200.000	-0.033	0.168
-453.982	-44.328	-0.265	0.133
-452.968	-133.036	-0.108	0.014
-451.953	800.000	0.130	0.371
-450.938	263.363	-0.071	0.124
-449.924	-200.000	0.053	0.361
-448.909	800.000	0.052	-0.163
-447.895	-200.000	0.000	0.090
-446.880	28.829	0.213	0.180
-445.865	800.000	-0.048	-0.149
-444.851	112.107	-0.206	-0.248
-443.836	177.096	-0.216	-0.314
-442.822	-117.300	0.271	-0.049
-441.807	-112.950	-0.322	-0.064
-440.792	421.798	0.051	-0.109
-439.778	-42.827	0.150	0.076
-438.763	-83.782	-0.057	0.018
-437.749	81.001	0.181	-0.194
-436.734	-75.289	0.418	0.149
-435.719	-90.608	0.382	0.110
-434.705	-200.000	-0.049	0.249
-433.690	58.882	-0.128	-0.126
-432.676	-200.000	0.030	-0.217
-431.661	-71.183	0.161	-0.060
-430.646	-200.000	-0.043	0.294
-429.632	194.531	0.098	0.149
-428.617	800.000	0.061	-0.185
-427.603	-112.415	-0.102	0.020
-426.588	-200.000	0.037	-0.171
-425.573	-79.445	-0.342	-0.115
-424.559	-200.000	-0.022	-0.235
-423.544	169.232	0.078	-0.111
-422.530	24.762	0.284	-0.234
-421.515	-200.000	-0.033	-0.255
-420.500	174.295	0.365	-0.525
-419.486	-200.000	-0.059	-0.282
-418.471	2.940	-0.145	0.105
-417.457	-200.000	0.036	-0.221
-416.442	-74.549	0.184	0.066
-415.428	-200.000	-0.026	-0.143
-414.413	-8.056	0.143	-0.096
-413.398	301.720	-0.186	0.342
-412.384	-31.086	-0.154	0.086
-411.369	-165.687	-0.129	0.006
-410.355	800.000	-0.035	0.124
-409.340	361.487	0.132	-0.263
-408.325	-61.423	0.120	-0.050
-407.311	39.926	0.166	-0.149
-406.296	-111.141	0.131	0.027
-405.282	-200.000	0.058	-0.329
-404.267	-35.414	-0.099	-0.053
-403.252	23.380	-0.264	-0.216
-402.238	114.356	-0.118	0.143
-401.223	-163.805	0.106	-0.005
-400.209	-10.148	-0.075	0.050
-399.194	22.184	-0.096	-0.078
-398.179	23.053	0.131	0.107
-397.165	800.000	0.110	0.317
-396.150	270.123	0.222	0.389
-395.136	141.186	0.216	0.284
-394.121	-14.460	0.192	-0.123
-393.106	-62.588	-0.244	-0.101
-392.092	15.780	-0.119	0.093
-391.077	62.536	-0.140	-0.140
-390.063	-27.920	-0.163	-0.094
-389.048	-200.000	-0.025	0.207
-388.033	-4.267	0.220	0.151
-387.019	-200.000	-0.080	0.355
-386.004	639.597	0.104	0.263
-384.990	515.356	-0.040	0.092
-383.975	38.300	0.055	-0.049
-382.960	241.404	-0.080	-0.133
-381.946	-88.242	-0.149	0.044
-380.931	200.188	0.160	0.244
-379.917	-196.535	0.290	-0.002
-378.902	-113.413	-0.119	-0.023
-377.888	-200.000	-0.069	-0.307
-376.873	800.000	0.060	-0.254
-375.858	-1.745	-0.148	0.104
-374.844	-16.868	-0.433	0.272
-373.829	-200.000	-0.036	-0.184
-372.815	-200.000	-0.026	-0.247
-371.800	800.000	0.039	-0.134
-370.785	-108.653	0.362	0.077
-369.771	-143.110	0.219	0.021
-368.756	-31.858	-0.102	0.057
-367.742	-134.406	-0.516	0.063
-366.727	-96.466	0.242	-0.064
-365.712	341.564	-0.141	-0.275
-364.698	-77.897	-0.340	0.117
-363.683	67.788	-0.212	0.215
-362.669	-129.436	0.325	-0.045
-361.654	-112.394	-0.046	-0.009
-360.639	-135.781	-0.291	-0.034
-359.625	800.000	0.028	-0.112
-358.610	576.565	0.060	-0.145
-357.596	675.684	-0.069	0.177
-356.581	520.571	-0.004	-0.010
-355.566	-64.220	0.222	0.090
-354.552	111.986	0.106	-0.128
-353.537	23.030	0.358	0.292
-352.523	-152.151	0.124	-0.009
-351.508	8.911	-0.112	-0.084
-350.493	-102.389	0.333	-0.079
-349.479	-200.000	0.010	0.046
-348.464	-200.000	-0.040	0.215
-347.450	490.699	-0.006	-0.014
-346.435	64.900	-0.320	-0.321
-345.420	-58.707	0.171	-0.074
-344.406	800.000	-0.075	-0.207
-343.391	101.946	-0.045	-0.053
-342.377	-93.682	0.348	0.095
-341.362	-24.361	-0.246	-0.146
-340.348	1.854	0.038	0.027
-339.333	-200.000	0.001	-0.241
-338.318	-14.969	0.429	-0.273
-337.304	-200.000	-0.040	-0.518
-336.289	-29.312	-0.167	-0.095
-335.275	-62.083	0.459	-0.190
-334.260	182.960	-0.223	-0.327
-333.245	57.615	-0.184	-0.179
-332.231	-16.207	0.278	0.175
-331.216	32.419	0.085	0.073
-330.202	-79.668	-0.215	0.072
-329.187	-38.471	-0.112	-0.059
-328.172	-99.346	-0.098	-0.025
-327.158	-34.156	-0.439	0.239
-326.143	-69.804	-0.071	-0.027
-325.129	-10.291	0.209	-0.138
-324.114	215.225	0.199	-0.314
-323.099	-90.969	-0.148	0.042
-322.085	-200.000	0.013	0.068
-321.070	800.000	0.076	-0.320
-320.056	258.656	0.048	0.083
-319.041	-68.749	-0.280	-0.108
-318.026	161.521	-0.043	0.059
-317.012	14.769	-0.159	-0.123
-315.997	-200.000	-0.006	-0.162
-314.983	36.247	0.106	-0.093
-313.968	-85.408	0.041	0.013
-312.953	374.676	0.060	0.121
-311.939	377.669	0.133	0.270
-310.924	21.188	0.325	-0.262
-309.910	210.579	0.266	-0.414
-308.895	6.938	-0.224	-0.166
-307.880	-95.816	0.083	-0.022
-306.866	-78.116	0.129	0.044
-305.851	76.927	0.169	-0.178
-304.837	576.310	0.185	-0.447
-303.822	156.875	0.163	0.223
-302.807	-77.878	-0.104	-0.035
-301.793	-143.798	-0.361	-0.034
-300.778	91.912	-0.074	-0.082
-299.764	-120.507	0.090	0.015
-298.749	-77.370	-0.281	-0.097
-297.735	800.000	0.121	0.390
-296.720	396.589	0.101	0.209
-295.705	-200.000	-0.003	-0.122
-294.691	-200.000	0.004	-0.025
-293.676	-14.891	0.021	-0.013
-292.662	800.000	-0.057	0.194
-291.647	-67.412	-0.349	0.136
-290.632	-60.171	-0.103	-0.043
-289.618	277.584	0.177	-0.312
-288.603	12.153	-0.115	-0.088
-287.589	31.389	0.187	0.159
-286.574	-200.000	0.102	0.447
-285.559	800.000	-0.056	-0.186
-284.545	-200.000	-0.017	0.354
-283.530	-78.864	-0.150	0.051
-282.516	144.943	0.331	-0.438
-281.501	101.558	0.173	-0.200
-280.486	241.666	-0.045	0.074
-279.472	-129.681	0.044	-0.006
-278.457	38.399	-0.271	0.239
-277.443	-2.306	-0.106	0.074
-276.428	-29.794	0.176	0.099
-275.413	-56.533	-0.360	-0.158
-274.399	326.099	-0.034	-0.065
-273.384	-89.374	-0.172	-0.050
-272.370	7.216	-0.080	-0.060
-271.355	273.968	0.052	0.091
-270.340	-200.000	-0.006	0.266
-269.326	87.476	-0.105	0.115
-268.311	-37.910	0.172	-0.091
-267.297	85.013	-0.112	-0.122
-266.282	356.729	-0.063	0.124
-265.267	-19.811	-0.199	-0.122
-264.253	-50.130	0.286	-0.134
-263.238	-60.990	-0.289	0.121
-262.224	-200.000	-0.018	0.176
-261.209	-50.790	-0.298	0.139
-260.195	-107.745	0.157	-0.034
-259.180	-200.000	-0.005	-0.124
-258.165	-162.402	-0.242	-0.012
-257.151	-23.802	0.374	-0.222
-256.136	174.090	0.121	0.173
-255.122	-200.000	-0.029	0.128
-254.107	259.748	0.066	-0.113
-253.092	252.987	-0.017	-0.029
-252.078	-200.000	0.033	0.294
-251.063	45.475	0.046	0.042
-250.049	7.154	0.291	-0.215
-249.034	-48.788	-0.185	0.088
-248.019	619.867	-0.140	0.348
-247.005	-93.962	0.182	-0.050
-245.990	-200.000	-0.015	0.113
-244.976	800.000	-0.050	-0.163
-243.961	237.347	0.169	0.278
-242.946	-61.620	-0.095	-0.040
-241.932	110.062	-0.143	0.170
-240.917	-38.086	0.173	0.091
-239.903	-19.660	-0.311	0.190
-238.888	800.000	-0.087	-0.341
-237.873	-15.913	-0.307	0.193
-236.859	26.165	-0.139	0.115
-235.844	800.000	-0.018	0.056
-234.830	-72.168	0.269	-0.099
-233.815	156.110	0.141	0.192
-232.800	-129.436	0.253	0.035
-231.786	-200.000	-0.036	0.207
-230.771	103.629	0.259	0.300
-229.757	800.000	-0.015	-0.057
-228.742	-200.000	-0.025	-0.226
-227.727	-34.078	-0.063	0.034
-226.713	-78.018	-0.302	0.103
-225.698	-149.358	0.371	0.029
-224.684	59.475	-0.083	-0.081
-223.669	48.798	0.170	0.158
-222.655	-37.892	-0.193	0.101
-221.640	-137.542	-0.061	-0.007
-220.625	10.571	-0.042	-0.031
-219.611	458.195	0.129	-0.283
-218.596	694.151	-0.039	-0.101
-217.582	-47.106	0.253	-0.122
-216.567	221.943	0.122	0.194
-215.552	-6.214	-0.235	0.159
-214.538	186.530	0.266	0.391
-213.523	-106.921	0.109	-0.024
-212.509	-90.013	-0.194	-0.056
-211.494	-118.653	0.395	0.069
-210.479	-33.253	0.203	-0.111
-209.465	-200.000	-0.030	-0.218
-208.450	-200.000	0.008	0.233
-207.436	-200.000	0.013	0.294
-206.421	800.000	-0.044	0.125
-205.406	3.263	-0.043	-0.031
-204.392	-67.141	0.190	-0.074
-203.377	-2.162	0.114	-0.079
-202.363	161.003	0.088	-0.122
-201.348	-63.650	0.085	0.035
-200.333	777.982	-0.034	0.092
-199.319	-36.978	-0.045	-0.024
-198.304	5.411	-0.355	-0.259
-197.290	-171.104	0.165	-0.006
-196.275	-155.537	0.115	-0.007
-195.260	483.776	0.036	0.082
-194.246	-93.855	0.090	0.024
-193.231	94.399	-0.122	0.137
-192.217	-81.322	0.303	0.099
-191.202	62.203	0.191	0.188
-190.187	187.828	0.198	0.292
-189.173	-200.000	0.005	0.372
-188.158	-147.449	-0.197	0.016
-187.144	-115.014	0.121	0.023
-186.129	-28.456	-0.385	-0.219
-185.114	800.000	-0.058	-0.243
-184.100	207.502	-0.050	-0.076
-183.085	44.801	-0.247	0.225
-182.071	-118.315	0.197	0.035
-181.056	-198.855	-0.249	-0.001
-180.042	136.256	-0.060	-0.077
-179.027	800.000	-0.018	0.074
-178.012	-200.000	0.009	-0.196
-176.998	-31.418	0.163	-0.091
-175.983	86.660	-0.241	-0.263
-174.969	-83.467	-0.177	0.056
-173.954	135.443	0.153	0.197
-172.939	-200.000	-0.052	-0.236
-171.925	-200.000	0.031	0.309
-170.910	155.518	-0.130	0.177
-169.896	-71.777	0.285	0.105
-168.881	346.695	0.156	0.303
-167.866	-200.000	0.074	0.393
-166.852	49.981	-0.258	-0.240
-165.837	-82.997	-0.089	0.028
-164.823	-94.848	0.215	0.058
-163.808	449.104	0.034	0.073
-162.793	243.578	0.084	0.139
-161.779	79.507	-0.317	-0.336
-160.764	-200.000	-0.069	-0.332
-159.750	-200.000	0.020	-0.104
-158.735	217.442	-0.219	-0.344
-157.720	-49.205	0.182	0.086
-156.706	-200.000	0.013	-0.179
-155.691	222.842	-0.056	0.090
-154.677	6.577	-0.352	-0.258
-153.662	228.913	0.071	-0.114
-152.647	320.441	-0.119	0.223
-151.633	-49.974	-0.166	0.078
-150.618	329.124	0.056	0.106
-149.604	-200.000	0.011	0.069
-148.589	245.463	-0.121	-0.201
-147.574	9.223	-0.203	-0.151
-146.560	-114.106	0.225	0.043
-145.545	-102.552	0.219	-0.052
-144.531	266.737	0.123	-0.212
-143.516	196.848	0.044	0.066
-142.502	-12.085	-0.296	-0.191
-141.487	294.758	-0.118	0.212
-140.472	237.791	-0.099	-0.161
-139.458	334.315	0.057	0.109
-138.443	-54.122	-0.206	0.092
-137.429	322.591	-0.130	0.244
-136.414	-181.416	-0.377	-0.007
-135.399	-24.339	0.062	0.036
-134.385	-118.737	0.174	-0.030
-133.370	330.711	0.034	0.065
-132.356	-189.085	0.099	0.001
-131.341	-32.096	-0.464	-0.256
-130.326	-142.034	0.095	-0.009
-129.312	-143.347	0.150	-0.014
-128.297	-33.016	0.285	0.156
-127.283	125.684	0.204	-0.254
-126.268	800.000	-0.042	0.171
-125.253	-144.550	-0.155	-0.014
-124.239	204.959	0.024	-0.037
-123.224	-103.799	0.087	-0.020
-122.210	155.952	-0.050	-0.068
