DTS Sentinel unit serial number:	SN413079Multiplexer serial number:	ORYXHardware model number:	OX4-SRSoftware version number:	ORYX F/W v4.00 Oryx Data Collector v3.7.2.0data status	okinstallation	princeton_trtdifferential loss correction	single-endedforward channel	channel 3reverse channel	N/Adate	2019/09/15time	11:36:35forward acquisition time	60.00reverse acquisition time	0.00gamma	496.2192k internal	0.2306k external	0.2306temperature offset calibration	0.9974default loss term (dB/km)	0.3790temperature slope calibration	1.0000multiplexer offset coefficient	1.0000multiplexer slope coefficient	1.0000fibre end	0.00T internal ref (°C)	34.31T ext. ref 1 (°C)	5.00T ext. ref 2 (°C)	29.85length (m)	temperature (°C)	Stokes	anti-Stokes-747.200	196.580	0.191	0.296
-746.185	476.725	-0.130	0.299
-745.171	-200.000	0.019	0.137
-744.156	800.000	0.058	0.180
-743.142	800.000	0.065	0.282
-742.127	800.000	-0.115	0.359
-741.112	-66.120	-0.152	-0.062
-740.098	62.980	-0.272	-0.277
-739.083	134.307	-0.040	-0.053
-738.069	413.356	-0.058	0.126
-737.054	-191.038	-0.156	0.002
-736.039	167.035	-0.155	-0.223
-735.025	195.890	0.146	0.227
-734.010	63.909	0.030	0.031
-732.996	-110.535	-0.190	0.040
-731.981	-52.448	-0.375	-0.176
-730.966	-82.526	0.046	0.015
-729.952	800.000	0.095	0.320
-728.937	-6.924	-0.082	-0.057
-727.923	-73.553	0.172	-0.064
-726.908	102.584	0.073	0.087
-725.894	111.261	0.050	-0.061
-724.879	80.439	0.104	-0.114
-723.864	800.000	-0.121	0.458
-722.850	-23.523	-0.109	-0.067
-721.835	-114.849	-0.066	-0.013
-720.821	41.768	0.348	-0.320
-719.806	-200.000	-0.052	-0.262
-718.791	-54.122	0.186	-0.086
-717.777	-46.700	-0.174	0.087
-716.762	341.204	-0.148	0.293
-715.748	193.487	-0.179	-0.275
-714.733	800.000	0.038	0.131
-713.718	-110.930	0.140	-0.029
-712.704	-51.145	0.115	-0.055
-711.689	800.000	0.028	-0.099
-710.675	578.379	0.060	0.150
-709.660	-93.309	-0.083	-0.023
-708.645	105.944	0.160	0.193
-707.631	47.944	0.371	-0.352
-706.616	9.431	-0.185	-0.142
-705.602	131.701	-0.102	0.134
-704.587	696.822	0.018	0.049
-703.572	-200.000	0.043	-0.196
-702.558	126.907	0.078	-0.101
-701.543	63.193	-0.153	0.156
-700.529	79.716	0.153	-0.167
-699.514	-34.920	0.343	-0.190
-698.499	-200.000	0.018	-0.269
-697.485	313.612	0.111	0.212
-696.470	-132.244	-0.303	0.040
-695.456	-115.161	-0.082	-0.016
-694.441	-31.685	0.086	0.049
-693.426	-6.841	0.093	-0.064
-692.412	163.874	-0.047	-0.066
-691.397	-200.000	-0.011	0.150
-690.383	-1.740	-0.094	0.067
-689.368	-200.000	0.038	-0.193
-688.354	-40.059	-0.263	-0.139
-687.339	34.072	-0.237	0.210
-686.324	800.000	-0.020	-0.078
-685.310	-144.002	0.164	-0.016
-684.295	-122.472	0.101	-0.017
-683.281	144.936	-0.103	-0.140
-682.266	89.042	-0.121	0.137
-681.251	-23.376	-0.116	0.071
-680.237	800.000	-0.035	0.100
-679.222	678.867	-0.113	-0.299
-678.208	77.915	0.112	0.121
-677.193	800.000	-0.024	0.075
-676.178	-53.338	-0.446	0.208
-675.164	60.319	0.098	0.098
-674.149	180.559	0.199	0.296
-673.135	800.000	-0.025	-0.092
-672.120	800.000	0.009	0.035
-671.105	-80.438	-0.181	-0.061
-670.091	800.000	-0.063	-0.270
-669.076	54.555	0.136	0.133
-668.062	74.686	0.160	0.171
-667.047	-113.535	0.153	0.030
-666.032	800.000	0.078	0.300
-665.018	17.459	0.070	0.056
-664.003	375.818	0.167	-0.344
-662.989	46.560	0.121	-0.114
-661.974	-6.052	-0.190	0.132
-660.959	-175.005	0.280	0.008
-659.945	428.046	0.074	0.163
-658.930	-48.709	-0.184	0.089
-657.916	-121.667	0.365	-0.061
-656.901	170.461	0.136	0.197
-655.886	-200.000	-0.010	0.096
-654.872	628.064	-0.068	-0.173
-653.857	-116.061	-0.054	0.010
-652.843	-200.000	0.012	-0.156
-651.828	-200.000	-0.022	-0.112
-650.814	-128.444	0.188	-0.027
-649.799	-61.337	0.148	-0.063
-648.784	590.907	-0.081	-0.203
-647.770	410.240	-0.052	-0.112
-646.755	800.000	0.034	-0.113
-645.741	-44.674	-0.251	-0.127
-644.726	-200.000	-0.016	-0.259
-643.711	14.227	-0.276	0.218
-642.697	-70.343	-0.265	0.102
-641.682	146.291	-0.115	-0.157
-640.668	240.352	0.097	0.164
-639.653	421.469	-0.114	0.247
-638.638	290.538	-0.127	-0.234
-637.624	63.527	0.145	-0.148
-636.609	371.637	-0.175	0.360
-635.595	-91.684	0.156	-0.045
-634.580	-59.385	0.176	-0.077
-633.565	-75.930	-0.037	0.013
-632.551	6.936	-0.344	0.259
-631.536	800.000	0.167	-0.501
-630.522	576.395	0.054	0.133
-629.507	-200.000	-0.014	0.341
-628.492	12.847	0.189	-0.148
-627.478	-200.000	-0.036	-0.183
-626.463	-110.001	-0.074	0.016
-625.449	28.235	0.171	0.146
-624.434	51.439	0.196	0.189
-623.419	-36.023	-0.157	0.086
-622.405	-10.267	0.304	0.204
-621.390	4.424	0.417	0.309
-620.376	-200.000	0.008	0.107
-619.361	-200.000	0.011	-0.077
-618.346	-7.258	0.145	-0.100
-617.332	-200.000	-0.008	-0.130
-616.317	556.765	-0.010	-0.025
-615.303	2.161	-0.154	0.113
-614.288	19.488	0.020	0.017
-613.273	-194.594	0.262	0.002
-612.259	-52.121	0.115	0.054
-611.244	-155.449	0.402	0.026
-610.230	76.427	0.028	-0.030
-609.215	-193.752	-0.206	-0.002
-608.201	-200.000	0.040	-0.341
-607.186	9.686	0.069	-0.053
-606.171	-153.581	-0.165	-0.012
-605.157	800.000	-0.082	-0.312
-604.142	-87.040	-0.283	-0.087
-603.128	242.880	-0.134	0.227
-602.113	-200.000	0.014	0.220
-601.098	49.762	-0.135	-0.129
-600.084	-33.239	0.130	-0.073
-599.069	21.583	-0.045	-0.037
-598.055	-131.647	0.180	0.024
-597.040	-144.078	0.299	0.028
-596.025	-200.000	0.044	-0.223
-595.011	800.000	0.046	-0.182
-593.996	-41.519	-0.093	-0.048
-592.982	263.403	0.062	0.110
-591.967	-54.181	-0.200	-0.092
-590.952	-8.339	-0.250	0.170
-589.938	-104.393	-0.270	-0.063
-588.923	162.212	0.104	0.148
-587.909	153.038	-0.180	0.248
-586.894	-51.864	0.118	-0.055
-585.879	-109.787	-0.235	-0.050
-584.865	-4.035	-0.119	-0.083
-583.850	-77.822	-0.331	0.116
-582.836	-200.000	0.011	0.314
-581.821	11.739	0.310	0.240
-580.806	202.037	-0.142	-0.222
-579.792	-49.952	-0.254	0.122
-578.777	121.914	0.035	0.044
-577.763	57.574	0.027	-0.026
-576.748	-70.391	0.258	0.099
-575.733	-143.525	0.162	0.016
-574.719	224.871	0.055	0.090
-573.704	52.491	0.156	-0.151
-572.690	166.669	-0.047	-0.067
-571.675	-0.254	-0.300	-0.216
-570.661	800.000	-0.002	0.007
-569.646	-141.468	-0.036	-0.004
-568.631	-160.906	0.221	0.012
-567.617	-70.185	-0.295	0.113
-566.602	12.185	-0.098	-0.077
-565.588	218.294	-0.083	-0.134
-564.573	53.515	0.257	-0.249
-563.558	-143.373	0.231	0.022
-562.544	-124.912	-0.168	0.026
-561.529	-200.000	0.027	0.127
-560.515	6.001	-0.128	-0.096
-559.500	-178.684	-0.207	0.005
-558.485	-53.659	0.090	-0.042
-557.471	-200.000	0.034	-0.244
-556.456	800.000	0.123	-0.407
-555.442	-83.081	0.306	0.099
-554.427	-200.000	0.031	-0.245
-553.412	413.653	-0.133	-0.285
-552.398	-96.132	0.196	0.053
-551.383	177.990	-0.078	0.115
-550.369	-20.098	0.193	-0.120
-549.354	-42.682	0.079	-0.040
-548.339	322.835	0.010	0.019
-547.325	-78.404	-0.213	-0.074
-546.310	79.232	0.215	-0.232
-545.296	187.244	0.045	0.067
-544.281	0.939	0.067	-0.049
-543.266	-171.172	-0.237	0.008
-542.252	-54.493	0.200	0.091
-541.237	-131.570	-0.297	-0.039
-540.223	-49.824	0.310	0.148
-539.208	800.000	0.057	-0.237
-538.193	-33.318	-0.045	-0.025
-537.179	-46.220	0.045	0.022
-536.164	-59.919	-0.186	0.080
-535.150	-24.138	-0.121	-0.073
-534.135	-86.590	-0.311	0.096
-533.121	800.000	-0.071	0.211
-532.106	-117.091	0.199	-0.037
-531.091	198.266	0.198	0.306
-530.077	54.983	-0.100	0.097
-529.062	-9.390	0.088	-0.059
-528.048	-200.000	0.026	-0.204
-527.033	561.180	0.055	0.134
-526.018	-17.148	0.222	0.141
-525.004	-200.000	-0.048	-0.263
-523.989	146.688	-0.183	0.247
-522.975	800.000	0.069	-0.233
-521.960	800.000	-0.021	0.071
-520.945	645.467	-0.136	0.349
-519.931	90.632	0.028	-0.031
-518.916	81.908	-0.213	-0.233
-517.902	-61.165	0.063	0.027
-516.887	-25.578	0.077	-0.046
-515.872	-45.969	-0.085	0.042
-514.858	-160.989	-0.209	-0.011
-513.843	800.000	0.115	-0.394
-512.829	53.392	0.046	0.045
-511.814	-200.000	0.008	0.057
-510.799	-200.000	-0.026	0.123
-509.785	-77.734	0.153	-0.053
-508.770	146.241	0.106	0.144
-507.756	-200.000	-0.030	-0.500
-506.741	-49.645	0.114	-0.055
-505.726	146.298	0.148	0.200
-504.712	3.764	-0.144	0.106
-503.697	-200.000	-0.030	-0.299
-502.683	562.299	0.137	-0.335
-501.668	800.000	-0.032	-0.138
-500.653	-58.066	-0.155	0.068
-499.639	-87.938	0.324	-0.098
-498.624	160.977	-0.146	-0.205
-497.610	348.791	0.004	-0.008
-496.595	-8.820	-0.055	0.037
-495.581	-121.879	-0.065	0.011
-494.566	-38.761	0.158	0.084
-493.551	723.714	-0.122	0.327
-492.537	-77.893	-0.409	0.142
-491.522	-17.823	-0.016	-0.010
-490.508	-116.953	0.044	-0.008
-489.493	-104.817	-0.198	-0.046
-488.478	61.469	-0.142	-0.142
-487.464	86.694	0.122	0.136
-486.449	153.156	0.046	-0.064
-485.435	-67.623	-0.412	-0.162
-484.420	-170.375	0.346	0.012
-483.405	-164.429	0.168	-0.008
-482.391	100.236	0.094	0.110
-481.376	7.495	0.257	0.194
-480.362	-95.286	-0.322	0.087
-479.347	9.819	0.131	0.100
-478.332	-200.000	0.050	-0.515
-477.318	-28.632	-0.173	0.100
-476.303	-112.531	0.343	-0.069
-475.289	-88.729	-0.073	0.022
-474.274	-42.775	-0.248	-0.127
-473.259	12.465	-0.235	0.182
-472.245	173.386	0.142	0.206
-471.230	64.154	-0.217	0.220
-470.216	258.814	0.100	-0.173
-469.201	-200.000	-0.031	-0.217
-468.186	14.135	-0.049	0.039
-467.172	-119.436	-0.092	-0.016
-466.157	-126.240	0.088	0.013
-465.143	-111.920	0.260	0.053
-464.128	601.495	-0.014	0.036
-463.113	26.732	-0.169	0.143
-462.099	-134.755	0.190	-0.023
-461.084	-90.799	-0.478	0.139
-460.070	-200.000	-0.012	0.483
-459.055	-110.288	-0.180	-0.038
-458.040	800.000	-0.072	0.246
-457.026	123.502	-0.235	0.296
-456.011	-200.000	0.027	0.254
-454.997	-56.046	-0.240	-0.108
-453.982	-200.000	-0.058	0.285
-452.968	-200.000	0.046	0.225
-451.953	44.538	0.280	-0.259
-450.938	-157.504	-0.264	0.016
-449.924	-102.824	0.288	0.069
-448.909	40.272	0.080	0.072
-447.895	66.487	-0.137	-0.141
-446.880	800.000	-0.044	-0.137
-445.865	-200.000	-0.079	-0.424
-444.851	294.852	0.098	0.180
-443.836	58.145	-0.207	0.204
-442.822	529.460	-0.068	0.162
-441.807	-200.000	0.017	0.174
-440.792	-84.207	0.243	-0.077
-439.778	367.440	0.083	0.168
-438.763	120.231	-0.067	0.084
-437.749	-39.136	0.090	-0.048
-436.734	-125.425	0.090	-0.014
-435.719	336.933	0.135	0.264
-434.705	567.965	0.130	0.316
-433.690	28.820	-0.321	0.274
-432.676	-200.000	0.002	0.096
-431.661	800.000	-0.064	0.242
-430.646	-200.000	0.033	0.184
-429.632	-70.117	0.202	0.077
-428.617	198.909	0.164	0.252
-427.603	-125.177	-0.194	0.030
-426.588	-145.099	0.125	-0.011
-425.573	102.993	0.049	-0.057
-424.559	-200.000	0.033	-0.236
-423.544	-171.976	0.485	-0.016
-422.530	-95.043	0.288	-0.078
-421.515	200.803	0.051	-0.079
-420.500	20.076	-0.144	-0.117
-419.486	194.278	0.036	-0.054
-418.471	-137.868	0.357	0.040
-417.457	594.337	-0.045	0.113
-416.442	-200.000	-0.055	-0.354
-415.428	163.746	0.099	-0.141
-414.413	-47.485	0.027	0.013
-413.398	-159.088	0.347	-0.020
-412.384	305.807	-0.128	-0.240
-411.369	-94.329	0.155	0.043
-410.355	61.905	0.092	-0.092
-409.340	688.759	0.013	0.035
-408.325	111.237	-0.061	0.074
-407.311	800.000	-0.045	0.174
-406.296	-200.000	-0.014	-0.246
-405.282	-22.829	-0.284	0.172
-404.267	800.000	0.035	0.102
-403.252	-200.000	-0.037	-0.207
-402.238	800.000	-0.025	-0.086
-401.223	-54.762	-0.033	0.015
-400.209	-200.000	-0.017	0.192
-399.194	174.989	-0.002	-0.003
-398.179	-200.000	-0.004	0.251
-397.165	-34.745	0.038	0.021
-396.150	264.840	-0.104	-0.182
-395.136	770.314	0.073	-0.199
-394.121	585.520	0.172	0.424
-393.106	143.522	0.111	-0.148
-392.092	-5.862	0.122	-0.084
-391.077	-37.890	0.106	0.057
-390.063	51.829	0.186	-0.178
-389.048	7.015	-0.153	-0.114
-388.033	189.324	-0.047	0.071
-387.019	-42.091	0.252	0.129
-386.004	-95.058	0.156	0.042
-384.990	-200.000	-0.013	0.294
-383.975	-35.419	-0.133	0.073
-382.960	131.324	-0.089	0.115
-381.946	328.926	-0.036	0.070
-380.931	-200.000	0.037	0.330
-379.917	-200.000	0.021	-0.293
-378.902	201.880	-0.106	-0.165
-377.888	800.000	0.044	0.192
-376.873	-18.917	-0.299	0.187
-375.858	25.462	0.144	-0.120
-374.844	41.950	0.162	0.147
-373.829	143.506	-0.181	0.242
-372.815	-200.000	-0.072	0.402
-371.800	-200.000	-0.052	0.270
-370.785	-200.000	0.050	0.224
-369.771	-156.687	0.172	-0.011
-368.756	26.108	0.124	-0.104
-367.742	81.281	0.049	-0.053
-366.727	-200.000	-0.020	0.091
-365.712	571.554	0.058	-0.141
-364.698	371.359	0.080	-0.162
-363.683	-128.622	-0.176	-0.025
-362.669	800.000	-0.031	0.103
-361.654	-78.469	0.455	-0.156
-360.639	-200.000	-0.042	-0.218
-359.625	-133.282	-0.233	0.029
-358.610	800.000	-0.076	-0.243
-357.596	-157.121	-0.233	-0.014
-356.581	800.000	-0.109	-0.354
-355.566	-200.000	-0.028	-0.166
-354.552	-81.517	0.088	0.029
-353.537	125.829	0.218	0.276
-352.523	-34.796	-0.114	0.062
-351.508	800.000	-0.054	0.162
-350.493	-200.000	-0.032	0.300
-349.479	753.695	-0.134	-0.364
-348.464	-80.875	-0.246	-0.082
-347.450	-200.000	0.023	0.374
-346.435	800.000	-0.033	-0.108
-345.420	-27.512	0.169	-0.099
-344.406	-56.663	-0.155	-0.069
-343.391	-16.289	-0.248	-0.158
-342.377	497.245	-0.069	-0.160
-341.362	-172.880	-0.147	-0.005
-340.348	-200.000	-0.010	-0.146
-339.333	147.326	-0.254	0.343
-338.318	321.369	-0.241	0.459
-337.304	-200.000	-0.020	-0.263
-336.289	522.856	0.083	-0.195
-335.275	800.000	-0.013	0.050
-334.260	-12.293	0.187	-0.122
-333.245	83.954	0.087	0.095
-332.231	10.550	-0.150	0.115
-331.216	-132.799	0.148	0.019
-330.202	72.309	0.196	0.204
-329.187	82.384	-0.065	-0.070
-328.172	-22.930	-0.265	-0.160
-327.158	465.893	0.123	0.275
-326.143	53.788	0.081	-0.078
-325.129	-100.276	-0.271	0.067
-324.114	-2.707	0.116	-0.081
-323.099	-110.365	-0.249	-0.052
-322.085	-93.284	-0.147	0.041
-321.070	-116.012	-0.170	0.032
-320.056	260.948	0.173	-0.299
-319.041	-6.476	0.128	-0.087
-318.026	139.196	0.089	-0.117
-317.012	183.212	0.138	0.204
-315.997	8.306	0.186	-0.140
-314.983	-61.448	-0.114	-0.048
-313.968	-200.000	0.026	-0.304
-312.953	-35.032	-0.293	-0.160
-311.939	237.695	-0.134	0.222
-310.924	-106.320	-0.154	-0.035
-309.910	85.980	0.113	-0.125
-308.895	-69.921	-0.132	0.050
-307.880	-83.506	0.340	-0.109
-306.866	-155.796	-0.195	-0.012
-305.851	-85.687	-0.312	0.097
-304.837	-79.137	-0.316	-0.107
-303.822	-116.717	0.524	-0.096
-302.807	263.847	-0.057	0.099
-301.793	-200.000	-0.027	0.162
-300.778	15.014	-0.229	-0.179
-299.764	38.028	-0.120	-0.107
-298.749	-4.493	0.140	0.097
-297.735	-200.000	-0.011	0.236
-296.720	523.572	0.228	0.535
-295.705	218.921	0.128	0.204
-294.691	-17.463	-0.301	0.189
-293.676	268.284	0.071	-0.124
-292.662	38.504	-0.281	-0.251
-291.647	104.155	-0.161	0.189
-290.632	2.900	-0.094	0.068
-289.618	89.720	0.234	-0.261
-288.603	-164.157	-0.177	-0.008
-287.589	800.000	-0.061	0.201
-286.574	525.751	0.104	-0.245
-285.559	-200.000	-0.001	-0.111
-284.545	122.046	-0.126	-0.157
-283.530	800.000	0.045	-0.131
-282.516	-53.923	-0.259	0.118
-281.501	-200.000	0.033	-0.372
-280.486	-162.777	-0.170	-0.008
-279.472	-200.000	-0.015	0.140
-278.457	-165.774	0.272	-0.012
-277.443	310.266	0.136	-0.253
-276.428	-61.443	0.146	-0.061
-275.413	800.000	0.146	0.412
-274.399	-200.000	-0.024	-0.225
-273.384	-177.517	-0.033	0.001
-272.370	-8.999	0.203	0.136
-271.355	-12.358	0.140	-0.092
-270.340	162.111	-0.085	0.118
-269.326	55.300	0.050	0.048
-268.311	-12.199	0.136	-0.089
-267.297	198.188	-0.107	0.163
-266.282	215.899	0.053	0.084
-265.267	-44.899	0.338	-0.168
-264.253	261.073	0.147	-0.254
-263.238	28.309	0.098	-0.082
-262.224	-200.000	-0.247	0.001
-261.209	-106.051	0.259	0.058
-260.195	212.477	-0.170	0.268
-259.180	-200.000	0.006	-0.340
-258.165	691.983	0.153	-0.401
-257.151	800.000	-0.034	0.134
-256.136	17.583	-0.123	-0.098
-255.122	92.770	0.071	-0.080
-254.107	-138.827	-0.329	-0.036
-253.092	-185.614	-0.436	0.007
-252.078	-24.598	0.304	0.180
-251.063	20.290	0.211	-0.170
-250.049	-109.824	-0.169	0.035
-249.034	241.644	0.133	0.222
-248.019	-121.597	0.119	0.020
-247.005	-90.271	0.391	0.113
-245.990	0.804	0.198	-0.142
-244.976	-50.371	-0.189	0.089
-243.961	-108.877	0.257	-0.055
-242.946	-97.683	0.279	0.072
-241.932	-200.000	0.028	0.179
-240.917	-98.452	-0.279	0.071
-239.903	270.612	-0.079	-0.139
-238.888	96.854	-0.249	0.285
-237.873	-59.907	-0.291	0.124
-236.859	-55.924	-0.038	-0.017
-235.844	800.000	0.061	0.188
-234.830	-1.753	0.188	0.132
-233.815	800.000	0.044	0.165
-232.800	-145.764	0.148	-0.013
-231.786	-28.301	0.118	-0.068
-230.771	167.866	0.122	-0.174
-229.757	11.876	0.083	0.063
-228.742	133.327	-0.265	-0.342
-227.727	138.112	0.043	0.057
-226.713	-73.007	-0.239	0.087
-225.698	-57.637	-0.370	0.162
-224.684	196.315	-0.071	-0.107
-223.669	54.300	0.308	-0.295
-222.655	-200.000	-0.069	-0.321
-221.640	27.211	0.094	0.079
-220.625	-72.972	0.295	-0.108
-219.611	-200.000	-0.060	-0.308
-218.596	-91.739	0.054	0.015
-217.582	-139.085	0.292	0.031
-216.567	-148.107	-0.294	0.024
-215.552	-161.695	0.178	-0.009
-214.538	41.107	-0.155	-0.140
-213.523	-48.912	0.194	-0.093
-212.509	6.588	-0.315	-0.233
-211.494	194.317	0.114	0.172
-210.479	-200.000	-0.045	0.310
-209.465	-200.000	-0.001	0.229
-208.450	-12.946	-0.253	0.164
-207.436	-6.425	0.291	-0.198
-206.421	51.091	0.084	-0.079
-205.406	-144.787	-0.060	-0.005
-204.392	52.667	-0.223	0.212
-203.377	58.371	-0.042	-0.041
-202.363	395.428	0.107	-0.223
-201.348	-200.000	0.045	-0.203
-200.333	-143.665	0.101	0.010
-199.319	-106.722	0.036	0.008
-198.304	-85.586	-0.017	-0.005
-197.290	-200.000	-0.067	-0.347
-196.275	-200.000	-0.002	0.062
-195.260	557.635	-0.081	0.195
-194.246	724.224	0.104	-0.275
-193.231	190.368	0.130	-0.195
-192.217	57.392	-0.169	0.164
-191.202	81.370	0.148	0.159
-190.187	-174.064	-0.226	0.007
-189.173	-200.000	-0.025	-0.143
-188.158	-139.902	-0.150	-0.016
-187.144	-200.000	0.000	-0.111
-186.129	541.673	-0.051	-0.122
-185.114	642.543	-0.074	0.188
-184.100	632.531	-0.130	0.328
-183.085	-50.520	-0.074	-0.035
-182.071	800.000	-0.025	-0.081
-181.056	-48.947	0.274	-0.131
-180.042	-55.393	-0.115	-0.051
-179.027	800.000	0.042	-0.123
-178.012	-82.426	0.332	-0.107
-176.998	-115.769	-0.373	0.069
-175.983	800.000	-0.032	0.107
-174.969	-200.000	0.012	0.345
-173.954	-200.000	-0.040	-0.306
-172.939	75.692	-0.057	-0.060
-171.925	51.261	0.171	0.162
-170.910	-200.000	0.023	0.209
-169.896	800.000	0.056	0.165
-168.881	-68.411	0.266	0.103
-167.866	73.555	0.160	-0.167
-166.852	800.000	-0.069	0.273
-165.837	3.978	-0.314	-0.228
-164.823	103.427	-0.071	0.083
-163.808	-86.903	-0.270	-0.082
-162.793	-115.976	-0.241	0.045
-161.779	-163.799	0.441	0.021
-160.764	-65.587	-0.368	-0.147
-159.750	800.000	0.030	0.128
-158.735	-66.023	0.227	-0.090
-157.720	422.896	-0.050	0.108
-156.706	-200.000	0.022	-0.343
-155.691	-33.704	0.393	0.215
-154.677	-23.690	-0.322	-0.192
-153.662	13.065	0.337	-0.259
-152.647	-26.991	0.177	-0.103
-151.633	61.767	0.046	-0.046
-150.618	-127.920	0.434	0.062
-149.604	37.235	-0.357	-0.314
-148.589	101.679	-0.152	-0.176
-147.574	800.000	-0.154	-0.464
-146.560	-200.000	-0.047	0.287
-145.545	800.000	-0.051	-0.160
-144.531	-200.000	0.008	0.139
-143.516	-118.323	0.200	-0.035
-142.502	-97.618	-0.299	-0.077
-141.487	-89.216	-0.218	0.064
-140.472	248.884	0.129	-0.217
-139.458	-100.813	-0.186	-0.046
-138.443	-81.368	0.135	0.044
-137.429	-97.946	-0.267	0.068
-136.414	-46.412	-0.123	0.060
-135.399	-200.000	-0.040	-0.245
-134.385	489.870	0.114	0.258
-133.370	-41.562	-0.199	0.102
-132.356	265.708	-0.108	0.187
-131.341	82.001	-0.212	-0.228
-130.326	-200.000	0.004	-0.162
-129.312	-116.574	-0.441	-0.081
-128.297	-62.586	0.149	-0.061
-127.283	-56.017	-0.393	0.174
-126.268	-50.332	0.325	-0.153
-125.253	-200.000	0.002	-0.053
-124.239	800.000	-0.068	0.226
-123.224	-51.844	0.175	-0.081
-122.210	-200.000	0.002	0.276
-121.195	172.802	0.118	0.169
-120.180	-41.259	0.199	0.102
