DTS Sentinel unit serial number:	SN413079Multiplexer serial number:	ORYXHardware model number:	OX4-SRSoftware version number:	ORYX F/W v4.00 Oryx Data Collector v3.7.2.0data status	okinstallation	princeton_trtdifferential loss correction	single-endedforward channel	channel 3reverse channel	N/Adate	2019/09/17time	07:16:35forward acquisition time	60.00reverse acquisition time	0.00gamma	496.2192k internal	0.2335k external	0.2335temperature offset calibration	0.9945default loss term (dB/km)	0.3790temperature slope calibration	1.0000multiplexer offset coefficient	1.0000multiplexer slope coefficient	1.0000fibre end	0.00T internal ref (°C)	27.25T ext. ref 1 (°C)	0.13T ext. ref 2 (°C)	21.33length (m)	temperature (°C)	Stokes	anti-Stokes-747.200	237.275	0.208	0.347
-746.185	-41.180	-0.195	0.101
-745.171	-141.707	0.089	-0.009
-744.156	66.166	-0.143	0.146
-743.142	-94.001	-0.162	-0.045
-742.127	20.934	0.256	-0.209
-741.112	35.714	0.079	0.070
-740.098	123.169	0.062	0.078
-739.083	434.311	-0.065	0.142
-738.069	-200.000	-0.048	0.259
-737.054	14.657	-0.270	0.212
-736.039	57.902	-0.179	-0.176
-735.025	-139.183	0.226	-0.025
-734.010	328.727	0.172	-0.332
-732.996	-164.340	-0.395	0.018
-731.981	217.580	-0.148	0.236
-730.966	319.892	-0.068	0.129
-729.952	103.668	0.039	-0.047
-728.937	-19.084	0.386	-0.241
-727.923	-114.224	0.391	0.076
-726.908	-200.000	-0.002	-0.163
-725.894	-144.365	0.144	0.013
-724.879	388.959	0.157	-0.327
-723.864	-126.976	-0.226	0.033
-722.850	-4.699	-0.009	-0.006
-721.835	244.297	-0.084	-0.141
-720.821	197.567	0.078	0.119
-719.806	-83.996	-0.119	-0.038
-718.791	-200.000	-0.057	-0.261
-717.777	185.442	-0.077	-0.114
-716.762	303.989	0.189	-0.351
-715.748	211.816	0.083	-0.131
-714.733	-62.793	0.179	-0.074
-713.718	-200.000	0.077	-0.350
-712.704	-1.149	-0.135	-0.096
-711.689	-114.895	0.034	0.007
-710.675	-132.520	0.227	0.029
-709.660	-79.063	-0.122	-0.042
-708.645	-200.000	0.016	-0.341
-707.631	-43.412	-0.465	-0.236
-706.616	-160.534	-0.264	-0.014
-705.602	-77.070	-0.164	-0.057
-704.587	592.536	-0.058	-0.143
-703.572	119.221	-0.135	-0.168
-702.558	-159.281	-0.368	0.021
-701.543	61.604	0.113	-0.113
-700.529	147.162	-0.134	0.181
-699.514	55.920	-0.141	0.137
-698.499	-200.000	-0.037	-0.203
-697.485	-74.902	0.186	-0.067
-696.470	-200.000	-0.016	-0.258
-695.456	-110.652	0.429	-0.089
-694.441	-106.799	0.218	-0.049
-693.426	13.087	-0.097	-0.075
-692.412	-124.272	-0.326	0.051
-691.397	-168.541	0.475	0.018
-690.383	-163.269	-0.319	-0.015
-689.368	232.409	-0.171	-0.281
-688.354	-105.203	0.033	-0.007
-687.339	769.191	-0.013	-0.036
-686.324	87.487	-0.146	-0.162
-685.310	-184.528	-0.271	-0.004
-684.295	-57.651	0.419	0.184
-683.281	-17.408	-0.133	-0.084
-682.266	-200.000	0.061	-0.416
-681.251	-200.000	-0.059	-0.377
-680.237	-154.382	0.074	-0.005
-679.222	3.268	0.124	0.090
-678.208	30.451	-0.097	0.083
-677.193	110.685	-0.140	0.169
-676.178	800.000	-0.046	-0.151
-675.164	97.077	0.083	0.095
-674.149	-84.180	-0.388	0.123
-673.135	-17.377	-0.066	-0.042
-672.120	-41.565	-0.157	-0.081
-671.105	777.910	0.092	0.252
-670.091	800.000	0.101	0.367
-669.076	367.958	0.162	-0.327
-668.062	-200.000	0.028	0.279
-667.047	-69.304	0.097	-0.037
-666.032	-73.573	0.071	-0.026
-665.018	800.000	0.068	0.246
-664.003	-148.403	-0.216	-0.018
-662.989	147.299	0.162	0.218
-661.974	-32.077	0.347	0.194
-660.959	-5.691	0.218	0.150
-659.945	-113.264	-0.156	0.031
-658.930	-150.018	-0.324	0.025
-657.916	53.491	-0.216	-0.207
-656.901	-200.000	0.007	-0.107
-655.886	356.786	-0.040	-0.080
-654.872	-68.153	0.381	-0.149
-653.857	79.905	0.202	-0.217
-652.843	28.280	-0.129	-0.109
-651.828	35.050	-0.134	0.117
-650.814	-138.424	-0.139	0.015
-649.799	-57.550	-0.382	0.168
-648.784	800.000	-0.082	0.288
-647.770	-200.000	0.038	0.377
-646.755	126.214	-0.140	-0.177
-645.741	-66.233	-0.334	0.133
-644.726	501.705	-0.009	0.021
-643.711	283.872	-0.050	0.090
-642.697	-47.135	0.326	0.159
-641.682	-95.053	0.201	-0.054
-640.668	82.493	-0.161	-0.175
-639.653	-129.984	-0.050	-0.007
-638.638	-93.349	-0.285	-0.079
-637.624	176.651	0.040	0.059
-636.609	275.169	0.133	-0.235
-635.595	2.759	-0.179	0.130
-634.580	-136.618	0.214	-0.025
-633.565	443.039	-0.117	-0.257
-632.551	636.200	-0.036	-0.090
-631.536	-200.000	-0.006	-0.116
-630.522	-200.000	0.020	-0.153
-629.507	-200.000	0.002	-0.064
-628.492	57.044	-0.190	0.185
-627.478	-40.780	0.161	0.083
-626.463	687.520	-0.070	0.184
-625.449	-40.565	0.105	0.055
-624.434	-164.911	0.333	0.015
-623.419	800.000	0.055	-0.235
-622.405	52.942	0.071	0.068
-621.390	29.304	0.062	-0.053
-620.376	119.399	0.174	-0.215
-619.361	722.886	-0.156	-0.415
-618.346	256.504	0.005	0.009
-617.332	-146.870	-0.152	-0.013
-616.317	-60.723	0.045	-0.019
-615.303	-200.000	-0.061	-0.310
-614.288	-146.685	0.313	0.027
-613.273	-26.837	0.048	0.028
-612.259	266.155	-0.060	-0.105
-611.244	-14.789	-0.124	-0.079
-610.230	-61.123	0.200	0.084
-609.215	-128.570	-0.203	0.029
-608.201	800.000	-0.088	-0.258
-607.186	-200.000	0.020	-0.328
-606.171	258.363	0.031	0.053
-605.157	800.000	-0.055	0.179
-604.142	70.657	0.099	-0.102
-603.128	-115.541	0.212	0.040
-602.113	4.166	-0.134	0.098
-601.098	-200.000	-0.013	0.114
-600.084	182.352	-0.075	0.110
-599.069	81.824	-0.273	0.296
-598.055	-200.000	-0.043	-0.258
-597.040	-74.762	0.373	0.134
-596.025	25.059	0.107	0.089
-595.011	249.339	0.131	0.222
-593.996	195.448	-0.130	0.198
-592.982	-143.641	0.212	-0.020
-591.967	800.000	-0.069	-0.272
-590.952	-116.845	-0.116	-0.021
-589.938	-101.363	0.412	-0.100
-588.923	49.768	0.015	-0.014
-587.909	-200.000	-0.002	0.027
-586.894	390.550	-0.190	-0.393
-585.879	-200.000	-0.020	0.133
-584.865	-200.000	-0.004	-0.337
-583.850	-67.433	-0.235	0.092
-582.836	-81.529	-0.219	0.072
-581.821	-200.000	0.006	0.035
-580.806	-9.418	0.242	0.162
-579.792	-200.000	-0.024	0.125
-578.777	800.000	0.057	-0.175
-577.763	-120.843	0.186	-0.031
-576.748	-40.125	-0.299	-0.156
-575.733	-155.461	0.112	-0.007
-574.719	169.978	-0.060	0.086
-573.704	-200.000	-0.010	-0.231
-572.690	277.109	-0.050	-0.088
-571.675	-134.629	-0.230	-0.028
-570.661	48.385	0.106	0.099
-569.646	-200.000	0.009	0.197
-568.631	800.000	0.095	0.292
-567.617	62.139	-0.118	0.117
-566.602	-62.744	0.333	-0.138
-565.588	94.239	0.101	0.114
-564.573	456.042	0.033	-0.074
-563.558	573.788	0.039	-0.094
-562.544	89.600	-0.110	0.122
-561.529	-121.306	-0.151	-0.025
-560.515	-12.825	-0.068	-0.044
-559.500	121.554	0.227	0.282
-558.485	243.576	-0.126	-0.211
-557.471	800.000	-0.049	0.203
-556.456	100.389	0.150	0.174
-555.442	-2.514	-0.198	-0.138
-554.427	-11.083	0.213	0.140
-553.412	-93.952	0.141	-0.039
-552.398	62.406	-0.080	0.079
-551.383	-200.000	0.035	-0.281
-550.369	180.338	0.233	0.341
-549.354	-200.000	-0.138	0.000
-548.339	208.083	0.095	-0.148
-547.325	-197.147	0.248	-0.002
-546.310	-52.307	0.223	-0.103
-545.296	352.390	0.202	-0.399
-544.281	-200.000	0.041	0.218
-543.266	-116.505	-0.207	0.038
-542.252	-142.878	0.235	-0.023
-541.237	-101.860	0.385	0.093
-540.223	161.404	0.055	0.077
-539.208	64.653	-0.122	0.122
-538.193	-141.942	0.326	0.032
-537.179	130.287	-0.115	0.147
-536.164	-118.068	-0.036	-0.006
-535.150	800.000	0.054	-0.234
-534.135	-130.450	-0.125	-0.017
-533.121	-75.710	-0.398	-0.141
-532.106	55.720	0.068	-0.066
-531.091	-162.894	0.229	-0.011
-530.077	41.567	-0.099	-0.090
-529.062	151.991	-0.128	0.174
-528.048	173.627	0.121	0.174
-527.033	190.035	0.027	-0.041
-526.018	-200.000	-0.046	0.442
-525.004	395.412	-0.022	0.045
-523.989	800.000	-0.158	0.504
-522.975	-200.000	0.047	0.287
-521.960	83.055	-0.134	0.146
-520.945	65.000	0.065	-0.065
-519.931	-200.000	-0.002	-0.188
-518.916	303.992	-0.116	-0.214
-517.902	-49.313	0.056	-0.026
-516.887	-4.506	-0.092	-0.063
-515.872	263.363	0.196	-0.339
-514.858	-13.731	-0.199	0.128
-513.843	-76.567	0.173	-0.061
-512.829	509.771	-0.046	0.106
-511.814	-106.923	-0.189	0.042
-510.799	207.932	-0.177	0.275
-509.785	800.000	-0.136	-0.415
-508.770	141.600	-0.077	0.102
-507.756	393.407	-0.107	-0.221
-506.741	-81.007	-0.205	-0.067
-505.726	68.023	0.073	-0.074
-504.712	96.552	0.242	-0.276
-503.697	800.000	-0.179	0.580
-502.683	-148.638	-0.277	0.022
-501.668	5.589	0.162	0.119
-500.653	800.000	0.048	-0.180
-499.639	137.351	0.144	0.187
-498.624	-200.000	-0.017	-0.259
-497.610	222.927	0.274	-0.440
-496.595	495.110	0.122	-0.280
-495.581	-78.147	-0.365	0.125
-494.566	-153.904	0.239	0.016
-493.551	800.000	-0.045	0.164
-492.537	800.000	0.085	-0.260
-491.522	-50.265	-0.265	0.125
-490.508	256.376	0.011	-0.018
-489.493	133.588	0.098	-0.126
-488.478	-71.753	0.143	0.053
-487.464	-91.283	-0.368	0.105
-486.449	800.000	0.098	0.412
-485.435	440.669	0.138	0.299
-484.420	63.037	-0.252	0.251
-483.405	-19.494	-0.095	0.058
-482.391	-34.917	0.440	-0.239
-481.376	-118.639	0.048	-0.008
-480.362	9.770	-0.038	0.029
-479.347	123.763	0.154	-0.192
-478.332	347.389	0.108	-0.212
-477.318	-122.370	0.202	-0.033
-476.303	-118.485	-0.099	-0.017
-475.289	12.883	-0.280	0.216
-474.274	65.384	-0.209	0.210
-473.259	14.286	0.193	-0.150
-472.245	-0.483	-0.292	-0.206
-471.230	-143.860	-0.203	-0.019
-470.216	14.890	0.206	-0.160
-469.201	174.520	-0.186	-0.268
-468.186	-200.000	-0.030	0.372
-467.172	-143.295	0.055	-0.005
-466.157	654.647	-0.049	0.125
-465.143	-160.983	0.320	-0.017
-464.128	-67.495	0.329	-0.128
-463.113	250.296	-0.254	0.428
-462.099	50.630	0.270	-0.254
-461.084	-159.649	0.309	0.017
-460.070	-133.932	-0.248	-0.031
-459.055	298.772	-0.116	-0.212
-458.040	60.952	0.025	-0.024
-457.026	38.649	-0.066	-0.058
-456.011	-160.288	-0.018	-0.001
-454.997	65.079	0.092	0.092
-453.982	800.000	0.035	0.109
-452.968	-124.976	-0.241	-0.037
-451.953	-200.000	-0.010	0.074
-450.938	-200.000	0.005	0.147
-449.924	753.249	-0.060	-0.161
-448.909	219.914	0.058	-0.092
-447.895	394.228	0.031	0.064
-446.880	7.461	-0.374	-0.278
-445.865	4.841	0.185	0.135
-444.851	264.055	0.057	-0.098
-443.836	-16.781	-0.031	-0.019
-442.822	-111.082	-0.027	-0.005
-441.807	-200.000	0.071	0.393
-440.792	755.436	-0.044	-0.119
-439.778	59.902	0.332	-0.325
-438.763	67.025	0.081	0.082
-437.749	351.432	0.079	-0.155
-436.734	395.425	0.055	0.113
-435.719	23.951	-0.129	-0.105
-434.705	105.428	-0.041	0.048
-433.690	-184.683	-0.320	0.005
-432.676	-200.000	-0.011	-0.101
-431.661	-200.000	-0.012	0.053
-430.646	-33.567	0.110	-0.060
-429.632	85.772	-0.145	0.158
-428.617	-171.482	0.191	0.006
-427.603	591.612	-0.035	-0.086
-426.588	-105.320	0.398	-0.090
-425.573	642.494	-0.133	-0.337
-424.559	15.094	0.058	0.045
-423.544	158.872	0.157	0.217
-422.530	356.761	-0.047	-0.094
-421.515	548.614	0.055	-0.130
-420.500	-151.231	0.353	-0.026
-419.486	-189.034	-0.179	0.002
-418.471	-96.091	-0.198	-0.052
-417.457	5.620	-0.192	0.140
-416.442	25.012	-0.216	-0.178
-415.428	-182.664	-0.088	-0.002
-414.413	-22.275	-0.082	0.049
-413.398	-31.016	0.272	0.152
-412.384	-200.000	-0.038	0.174
-411.369	37.705	-0.255	0.224
-410.355	3.264	-0.319	-0.230
-409.340	5.886	0.215	0.158
-408.325	-41.363	-0.113	0.058
-407.311	107.973	0.186	-0.220
-406.296	33.427	-0.282	0.243
-405.282	800.000	0.029	0.083
-404.267	-73.893	-0.577	0.208
-403.252	-200.000	-0.006	-0.136
-402.238	349.971	0.073	-0.143
-401.223	-130.418	0.199	0.027
-400.209	-80.348	0.293	0.097
-399.194	377.294	-0.077	0.157
-398.179	78.206	-0.030	0.032
-397.165	-200.000	0.030	-0.137
-396.150	-200.000	-0.020	0.171
-395.136	779.929	0.042	-0.115
-394.121	23.778	-0.088	0.071
-393.106	-166.508	-0.173	0.007
-392.092	-64.813	0.440	0.177
-391.077	36.744	-0.262	0.229
-390.063	129.594	-0.223	0.283
-389.048	-200.000	-0.002	0.390
-388.033	120.721	-0.310	0.382
-387.019	264.042	0.133	0.228
-386.004	127.783	0.101	-0.128
-384.990	-95.448	-0.395	-0.105
-383.975	-200.000	-0.012	-0.277
-382.960	296.524	-0.099	0.179
-381.946	-5.163	-0.193	-0.132
-380.931	-200.000	-0.042	-0.242
-379.917	-161.424	-0.455	0.023
-378.902	20.809	0.107	0.086
-377.888	800.000	0.115	-0.396
-376.873	15.639	0.045	-0.035
-375.858	108.886	0.105	-0.124
-374.844	657.287	-0.122	-0.310
-373.829	-153.804	-0.124	0.008
-372.815	327.209	0.072	-0.137
-371.800	-150.659	-0.211	0.016
-370.785	-81.330	0.210	0.069
-369.771	-200.000	0.060	0.341
-368.756	253.187	-0.163	0.275
-367.742	-83.157	0.231	0.074
-366.727	-70.190	0.114	0.043
-365.712	-200.000	0.008	-0.281
-364.698	221.182	0.145	0.231
-363.683	31.980	-0.140	-0.119
-362.669	102.439	-0.248	-0.287
-361.654	35.846	-0.059	-0.051
-360.639	-200.000	-0.013	-0.129
-359.625	232.205	0.136	-0.222
-358.610	-10.122	0.209	0.137
-357.596	800.000	0.029	0.116
-356.581	43.417	-0.158	0.143
-355.566	234.447	-0.056	-0.091
-354.552	-200.000	-0.007	-0.100
-353.537	80.177	-0.057	-0.060
-352.523	-187.030	0.178	0.002
-351.508	-95.117	0.084	-0.022
-350.493	-88.890	-0.123	-0.036
-349.479	800.000	-0.039	-0.127
-348.464	-2.940	0.165	0.114
-347.450	-11.371	0.107	-0.070
-346.435	-6.229	-0.281	-0.190
-345.420	15.299	0.293	0.227
-344.406	36.617	0.080	-0.070
-343.391	84.857	0.121	-0.131
-342.377	800.000	0.036	0.118
-341.362	31.332	0.059	-0.050
-340.348	-200.000	0.025	0.157
-339.333	18.562	0.133	-0.105
-338.318	-23.230	0.168	0.100
-337.304	800.000	-0.056	0.213
-336.289	-101.502	-0.349	-0.084
-335.275	-200.000	0.084	0.486
-334.260	-41.569	-0.237	0.120
-333.245	-200.000	-0.001	0.229
-332.231	-200.000	0.004	0.018
-331.216	-23.411	0.300	-0.178
-330.202	-200.000	0.003	-0.134
-329.187	111.925	0.097	0.116
-328.172	-36.344	0.211	-0.112
-327.158	200.298	-0.169	-0.257
-326.143	-83.467	0.210	-0.066
-325.129	-37.018	-0.256	-0.135
-324.114	98.595	-0.236	-0.269
-323.099	-9.329	-0.242	-0.160
-322.085	69.769	-0.042	0.043
-321.070	201.402	-0.138	0.210
-320.056	-200.000	-0.031	0.291
-319.041	-131.032	0.265	-0.035
-318.026	187.846	-0.171	-0.252
-317.012	-3.079	-0.250	0.172
-315.997	-200.000	0.019	-0.256
-314.983	47.432	0.086	-0.079
-313.968	138.781	0.148	0.192
-312.953	-3.719	0.130	-0.089
-311.939	-39.788	0.092	-0.048
-310.924	-125.126	-0.223	-0.034
-309.910	-102.870	-0.094	-0.022
-308.895	-64.338	-0.297	-0.119
-307.880	-104.715	0.234	0.053
-306.866	776.301	0.059	0.160
-305.851	-56.758	-0.118	-0.052
-304.837	4.806	0.132	0.096
-303.822	-200.000	-0.016	0.075
-302.807	800.000	0.057	-0.209
-301.793	35.599	-0.022	-0.019
-300.778	-200.000	0.012	0.163
-299.764	133.353	-0.283	-0.361
-298.749	35.980	-0.265	0.231
-297.735	-200.000	0.053	-0.402
-296.720	-152.717	-0.064	-0.005
-295.705	786.158	0.049	-0.133
-294.691	23.047	0.192	-0.156
-293.676	-113.341	-0.183	-0.036
-292.662	56.906	-0.056	-0.054
-291.647	113.646	0.206	-0.247
-290.632	8.817	-0.077	0.058
-289.618	-84.166	-0.335	-0.105
-288.603	-86.439	0.075	0.023
-287.589	-16.317	0.132	-0.082
-286.574	800.000	-0.141	-0.388
-285.559	-28.215	0.229	-0.131
-284.545	415.659	0.093	-0.195
-283.530	-200.000	-0.055	-0.341
-282.516	-200.000	-0.001	0.019
-281.501	-89.385	0.294	0.086
-280.486	800.000	-0.044	0.172
-279.472	267.278	-0.200	0.345
-278.457	-80.953	0.152	0.050
-277.443	800.000	-0.079	-0.217
-276.428	19.477	-0.168	-0.133
-275.413	-23.802	-0.228	0.135
-274.399	24.386	0.105	0.086
-273.384	430.963	0.089	0.189
-272.370	-140.983	-0.275	0.028
-271.355	-81.063	-0.065	-0.021
-270.340	184.877	0.069	0.101
-269.326	-129.431	0.434	0.059
-268.311	406.284	0.060	-0.124
-267.297	-58.711	-0.307	-0.131
-266.282	149.682	0.117	-0.157
-265.267	-102.052	0.195	0.046
-264.253	800.000	0.016	0.047
-263.238	-200.000	0.021	0.128
-262.224	254.138	-0.083	-0.140
-261.209	593.016	0.088	0.213
-260.195	130.675	-0.186	0.235
-259.180	605.601	-0.059	-0.144
-258.165	13.060	-0.313	-0.239
-257.151	721.634	0.088	0.232
-256.136	-69.971	0.205	0.077
-255.122	-200.000	-0.008	-0.044
-254.107	13.415	0.166	-0.127
-253.092	-131.837	-0.091	-0.012
-252.078	179.393	0.262	0.378
-251.063	-56.782	0.182	0.079
-250.049	16.860	0.264	0.206
-249.034	-200.000	-0.027	0.148
-248.019	57.513	0.107	-0.103
-247.005	-39.387	0.122	0.063
-245.990	-108.046	-0.194	0.041
-244.976	-53.288	0.078	0.035
-243.961	-200.000	-0.002	-0.181
-242.946	-52.201	-0.267	-0.122
-241.932	19.831	0.201	0.160
-240.917	246.321	0.067	0.111
-239.903	328.576	-0.132	0.250
-238.888	31.322	0.128	0.108
-237.873	-200.000	-0.002	-0.206
-236.859	593.427	-0.114	0.277
-235.844	-200.000	0.012	0.158
-234.830	-7.884	-0.157	-0.105
-233.815	-67.328	-0.318	0.123
-232.800	-29.040	0.203	-0.115
-231.786	800.000	0.058	0.196
-230.771	410.330	0.105	0.220
-229.757	129.015	0.107	-0.135
-228.742	722.812	0.037	-0.098
-227.727	-200.000	-0.003	0.095
-226.713	-200.000	0.024	0.163
-225.698	188.634	0.142	0.209
-224.684	-10.334	0.188	0.123
-223.669	-183.664	0.365	-0.006
-222.655	81.233	-0.164	0.175
-221.640	-197.575	0.552	0.003
-220.625	-200.000	-0.029	-0.290
-219.611	-95.484	0.172	-0.045
-218.596	14.859	-0.071	-0.055
-217.582	800.000	-0.071	-0.219
-216.567	328.719	0.206	-0.390
-215.552	-90.474	-0.133	-0.038
-214.538	800.000	0.028	-0.115
-213.523	-200.000	-0.031	-0.221
-212.509	124.804	0.095	0.118
-211.494	-54.119	0.297	-0.133
-210.479	-200.000	0.009	-0.347
-209.465	-200.000	-0.048	0.210
-208.450	606.299	0.005	0.012
-207.436	-200.000	-0.029	0.269
-206.421	25.233	-0.218	0.178
-205.406	800.000	-0.109	0.342
-204.392	-1.137	-0.134	0.093
-203.377	-200.000	0.016	0.339
-202.363	28.246	0.245	-0.204
-201.348	-100.123	-0.251	0.061
-200.333	198.716	0.200	0.301
-199.319	-200.000	-0.029	0.141
-198.304	787.788	0.075	-0.202
-197.290	800.000	-0.077	-0.329
-196.275	-65.274	0.099	0.039
-195.260	-87.352	0.162	-0.048
-194.246	11.079	0.070	-0.053
-193.231	-2.438	-0.103	-0.071
-192.217	-35.835	-0.171	0.091
-191.202	422.597	-0.169	0.357
-190.187	183.976	-0.017	0.025
-189.173	-200.000	-0.002	-0.190
-188.158	32.113	-0.097	-0.082
-187.144	-88.519	-0.244	-0.072
-186.129	-130.284	-0.363	-0.048
-185.114	126.745	0.281	-0.350
-184.100	-122.171	-0.114	-0.018
-183.085	800.000	0.037	0.125
-182.071	-120.406	-0.399	-0.067
-181.056	309.176	0.173	-0.318
-180.042	105.503	-0.176	0.204
-179.027	-200.000	0.009	-0.252
-178.012	287.584	0.112	0.199
-176.998	-77.013	0.441	0.151
-175.983	-14.719	-0.265	0.167
-174.969	-28.675	-0.078	-0.044
-173.954	-200.000	0.002	0.479
-172.939	-24.315	0.185	-0.108
-171.925	32.072	0.162	0.137
-170.910	61.066	0.144	-0.140
-169.896	-81.395	0.359	-0.116
-168.881	-141.099	0.027	-0.003
-167.866	800.000	-0.022	0.089
-166.852	-57.208	-0.128	-0.056
-165.837	204.699	0.098	-0.149
-164.823	369.191	-0.075	-0.149
-163.808	258.730	0.150	0.254
-162.793	-7.233	0.217	-0.144
-161.779	-200.000	-0.014	-0.106
-160.764	15.767	-0.259	-0.200
-159.750	-51.794	-0.170	-0.078
-158.735	-178.769	0.142	-0.003
-157.720	237.325	-0.200	-0.325
-156.706	-86.079	-0.262	-0.079
-155.691	-50.963	-0.386	0.178
-154.677	-123.866	-0.171	0.027
-153.662	285.451	0.238	0.422
-152.647	-31.018	0.197	-0.109
-151.633	-174.979	0.067	0.002
-150.618	723.510	-0.101	0.265
-149.604	-78.469	-0.338	-0.114
-148.589	22.685	0.235	0.189
-147.574	800.000	0.034	-0.141
-146.560	-200.000	-0.020	-0.120
-145.545	-200.000	-0.005	0.073
-144.531	177.948	-0.130	-0.185
-143.516	-166.938	-0.242	-0.010
-142.502	181.375	-0.141	-0.203
-141.487	38.874	-0.213	0.186
-140.472	800.000	0.010	-0.030
-139.458	-79.848	0.242	-0.080
-138.443	78.229	0.133	0.139
-137.429	295.732	-0.036	0.064
-136.414	69.008	0.097	0.097
-135.399	29.935	-0.049	-0.041
-134.385	800.000	-0.046	-0.153
-133.370	53.020	-0.176	-0.165
-132.356	444.131	0.064	-0.138
-131.341	-200.000	0.041	-0.199
-130.326	288.550	0.072	0.127
-129.312	352.750	-0.126	0.246
-128.297	-200.000	-0.024	0.164
-127.283	-104.092	0.182	0.042
-126.268	190.405	-0.199	0.293
-125.253	272.710	0.095	-0.164
-124.239	-57.462	-0.338	0.146
-123.224	69.173	0.188	-0.190
-122.210	153.408	-0.060	-0.080
-121.195	-200.000	0.014	0.139
