DTS Sentinel unit serial number:	SN413079Multiplexer serial number:	ORYXHardware model number:	OX4-SRSoftware version number:	ORYX F/W v4.00 Oryx Data Collector v3.7.2.0data status	okinstallation	princeton_trtdifferential loss correction	single-endedforward channel	channel 3reverse channel	N/Adate	2019/09/13time	21:12:35forward acquisition time	60.00reverse acquisition time	0.00gamma	496.2192k internal	0.2333k external	0.2333temperature offset calibration	1.0057default loss term (dB/km)	0.3790temperature slope calibration	1.0000multiplexer offset coefficient	1.0000multiplexer slope coefficient	1.0000fibre end	0.00T internal ref (°C)	28.50T ext. ref 1 (°C)	3.16T ext. ref 2 (°C)	23.04length (m)	temperature (°C)	Stokes	anti-Stokes-747.200	800.000	-0.027	0.111
-746.185	-58.971	-0.232	0.101
-745.171	283.681	-0.202	0.365
-744.156	800.000	-0.104	0.339
-743.142	800.000	-0.114	0.472
-742.127	800.000	0.067	0.224
-741.112	73.416	-0.142	0.149
-740.098	59.566	-0.223	0.221
-739.083	11.550	0.052	-0.040
-738.069	-24.626	-0.158	0.095
-737.054	800.000	0.040	-0.164
-736.039	-55.764	-0.173	0.078
-735.025	800.000	-0.134	0.375
-734.010	-200.000	0.008	-0.244
-732.996	-55.509	-0.326	-0.147
-731.981	98.635	0.247	0.286
-730.966	-200.000	0.010	-0.057
-729.952	-56.204	-0.505	0.226
-728.937	800.000	-0.036	-0.137
-727.923	-92.179	0.193	-0.055
-726.908	-200.000	-0.000	-0.215
-725.894	427.235	-0.128	0.277
-724.879	800.000	-0.025	0.108
-723.864	-65.599	-0.168	0.068
-722.850	-200.000	-0.005	0.161
-721.835	-59.260	-0.238	-0.103
-720.821	-200.000	-0.021	0.213
-719.806	-1.736	0.480	0.340
-718.791	-131.042	0.130	-0.017
-717.777	-109.886	0.209	0.044
-716.762	26.474	-0.279	0.234
-715.748	-200.000	0.003	0.094
-714.733	82.154	-0.287	-0.313
-713.718	287.087	0.106	-0.193
-712.704	800.000	-0.084	-0.334
-711.689	-42.694	-0.169	-0.086
-710.675	89.122	0.112	0.126
-709.660	-86.184	-0.309	-0.096
-708.645	96.256	-0.130	0.149
-707.631	-80.777	-0.351	-0.117
-706.616	800.000	0.091	-0.260
-705.602	-122.300	0.064	-0.010
-704.587	-200.000	0.014	0.154
-703.572	207.247	0.126	0.197
-702.558	69.203	-0.224	0.232
-701.543	-51.865	-0.053	0.025
-700.529	93.753	0.191	0.217
-699.514	-3.585	0.189	-0.132
-698.499	-83.487	0.263	-0.085
-697.485	-81.004	-0.116	0.038
-696.470	-58.802	-0.079	-0.034
-695.456	538.188	-0.133	-0.317
-694.441	-200.000	0.033	-0.460
-693.426	-41.087	-0.187	-0.097
-692.412	-41.892	0.207	-0.107
-691.397	518.777	0.081	0.189
-690.383	315.292	0.062	-0.117
-689.368	322.737	0.100	-0.192
-688.354	-200.000	0.042	0.508
-687.339	-127.802	0.141	0.020
-686.324	120.649	0.198	-0.246
-685.310	-100.012	0.306	-0.077
-684.295	800.000	-0.077	-0.294
-683.281	-200.000	-0.028	-0.255
-682.266	-177.371	-0.275	0.007
-681.251	-17.807	-0.114	0.072
-680.237	-97.923	0.202	0.052
-679.222	42.238	0.087	0.080
-678.208	97.484	0.180	-0.208
-677.193	-200.000	0.010	0.197
-676.178	-43.935	-0.387	-0.195
-675.164	-9.589	0.291	-0.194
-674.149	800.000	-0.085	-0.292
-673.135	800.000	0.021	-0.082
-672.120	800.000	0.127	-0.363
-671.105	335.899	0.164	-0.319
-670.091	-200.000	-0.019	0.152
-669.076	-114.549	-0.209	0.040
-668.062	-32.659	0.031	-0.017
-667.047	-200.000	0.007	0.286
-666.032	0.485	-0.355	0.254
-665.018	-200.000	0.018	0.329
-664.003	-155.025	-0.389	0.026
-662.989	-15.411	-0.248	0.159
-661.974	-27.471	-0.208	0.121
-660.959	-200.000	-0.034	0.158
-659.945	-168.620	-0.116	0.004
-658.930	-45.808	-0.427	0.211
-657.916	267.210	0.205	-0.359
-656.901	-166.780	0.267	0.011
-655.886	-10.738	-0.124	0.082
-654.872	91.310	0.162	0.182
-653.857	-26.361	0.334	0.196
-652.843	-53.300	-0.414	0.190
-651.828	617.524	-0.055	-0.138
-650.814	317.912	-0.071	-0.135
-649.799	-200.000	0.004	0.102
-648.784	-75.492	0.191	0.068
-647.770	-108.270	-0.268	0.058
-646.755	-123.843	-0.363	-0.057
-645.741	479.558	0.045	-0.102
-644.726	573.592	0.064	-0.157
-643.711	56.248	0.126	-0.122
-642.697	504.546	0.032	-0.075
-641.682	800.000	0.129	-0.399
-640.668	-29.490	0.152	0.087
-639.653	-59.123	-0.229	0.099
-638.638	-18.635	0.108	0.067
-637.624	182.898	0.228	0.336
-636.609	-7.686	-0.139	-0.094
-635.595	-5.231	-0.166	0.114
-634.580	11.330	0.272	-0.209
-633.565	58.399	-0.108	0.106
-632.551	133.399	-0.169	0.218
-631.536	116.108	0.157	-0.193
-630.522	411.040	-0.200	-0.425
-629.507	-47.728	0.187	-0.091
-628.492	-200.000	-0.001	0.027
-627.478	53.409	0.132	-0.127
-626.463	-22.046	-0.098	0.060
-625.449	97.027	-0.056	-0.065
-624.434	800.000	0.051	0.164
-623.419	-105.255	0.134	-0.031
-622.405	-163.786	-0.861	-0.040
-621.390	696.477	-0.060	-0.158
-620.376	720.986	-0.077	-0.206
-619.361	800.000	0.021	0.080
-618.346	-181.211	0.130	0.003
-617.332	-56.499	0.066	0.029
-616.317	171.497	-0.051	0.074
-615.303	243.515	-0.192	-0.322
-614.288	-53.754	-0.176	-0.080
-613.273	180.257	-0.104	0.152
-612.259	-200.000	0.006	-0.084
-611.244	295.891	0.098	0.179
-610.230	-58.230	0.107	-0.047
-609.215	-125.750	-0.147	0.022
-608.201	-200.000	0.001	0.115
-607.186	8.186	-0.100	-0.075
-606.171	169.428	-0.197	0.281
-605.157	-102.048	-0.234	0.056
-604.142	-152.668	-0.417	0.030
-603.128	-37.809	-0.289	0.154
-602.113	-73.850	0.190	0.069
-601.098	-57.398	0.177	0.078
-600.084	758.083	-0.086	0.233
-599.069	58.398	-0.069	0.068
-598.055	142.389	-0.170	0.226
-597.040	-1.904	-0.073	-0.051
-596.025	292.650	0.127	-0.231
-595.011	-136.573	-0.297	0.034
-593.996	-200.000	0.015	-0.140
-592.982	434.283	-0.180	-0.391
-591.967	-92.111	0.312	-0.088
-590.952	127.966	0.233	-0.296
-589.938	-200.000	-0.018	-0.157
-588.923	34.323	-0.183	-0.159
-587.909	31.258	-0.371	0.319
-586.894	414.224	0.030	0.063
-585.879	132.217	0.190	0.244
-584.865	129.125	-0.198	-0.253
-583.850	-200.000	-0.026	-0.147
-582.836	-54.890	-0.496	-0.223
-581.821	800.000	-0.119	0.329
-580.806	-51.604	0.295	-0.138
-579.792	-58.245	0.380	-0.165
-578.777	800.000	0.040	-0.144
-577.763	-200.000	-0.020	0.103
-576.748	71.044	0.038	-0.039
-575.733	-95.855	0.335	0.089
-574.719	-200.000	-0.008	-0.058
-573.704	-26.850	-0.358	0.209
-572.690	116.500	0.078	-0.095
-571.675	16.987	0.117	-0.093
-570.661	-191.752	0.077	-0.001
-569.646	17.876	-0.123	-0.098
-568.631	237.423	0.068	-0.113
-567.617	-200.000	-0.017	0.076
-566.602	44.816	-0.356	0.327
-565.588	-200.000	0.044	-0.237
-564.573	437.170	-0.105	0.228
-563.558	-126.717	0.203	0.030
-562.544	-200.000	-0.083	-0.424
-561.529	142.043	0.025	-0.033
-560.515	-200.000	-0.029	0.230
-559.500	-69.774	-0.180	0.069
-558.485	-88.547	-0.344	-0.102
-557.471	800.000	0.025	-0.100
-556.456	39.800	-0.227	-0.204
-555.442	43.484	-0.068	0.062
-554.427	-160.467	0.238	0.013
-553.412	31.793	-0.133	0.114
-552.398	262.280	-0.137	-0.237
-551.383	17.447	0.240	-0.191
-550.369	142.968	-0.176	0.233
-549.354	689.549	0.096	0.250
-548.339	-62.576	0.036	-0.015
-547.325	89.914	0.062	0.069
-546.310	-200.000	0.001	0.115
-545.296	738.113	0.136	-0.365
-544.281	-200.000	-0.017	-0.144
-543.266	184.036	0.103	-0.153
-542.252	-74.036	-0.195	0.071
-541.237	480.810	-0.079	0.179
-540.223	-22.423	0.096	0.058
-539.208	-60.275	0.065	-0.028
-538.193	-23.248	-0.096	-0.058
-537.179	-200.000	0.049	-0.218
-536.164	-200.000	0.019	-0.136
-535.150	109.431	-0.161	-0.192
-534.135	800.000	0.143	-0.490
-533.121	211.264	-0.227	-0.355
-532.106	-200.000	0.005	-0.168
-531.091	800.000	-0.023	-0.086
-530.077	185.839	0.176	0.261
-529.062	-189.640	-0.085	-0.001
-528.048	-146.688	0.277	-0.024
-527.033	61.085	0.161	-0.159
-526.018	7.906	0.098	0.073
-525.004	-200.000	-0.036	-0.183
-523.989	71.009	-0.194	-0.201
-522.975	-95.566	-0.487	-0.130
-521.960	-128.687	0.143	-0.020
-520.945	-153.671	-0.090	-0.006
-519.931	124.269	-0.076	0.095
-518.916	190.381	0.046	-0.068
-517.902	-98.597	-0.290	-0.074
-516.887	-122.718	-0.375	-0.060
-515.872	29.572	-0.198	-0.168
-514.858	-130.254	0.298	-0.040
-513.843	-200.000	0.003	-0.172
-512.829	-147.853	0.097	0.008
-511.814	592.756	0.076	-0.187
-510.799	-119.505	0.400	0.069
-509.785	800.000	-0.096	0.322
-508.770	658.015	-0.068	-0.173
-507.756	-53.664	0.087	-0.040
-506.741	-36.189	-0.184	0.099
-505.726	41.951	0.032	-0.029
-504.712	43.133	-0.198	-0.180
-503.697	-200.000	0.011	-0.147
-502.683	119.446	-0.130	-0.160
-501.668	-4.783	0.260	0.179
-500.653	-105.851	-0.205	0.046
-499.639	-160.644	0.212	0.011
-498.624	-200.000	0.027	-0.221
-497.610	8.422	-0.367	0.275
-496.595	235.943	0.020	0.032
-495.581	-101.428	-0.366	0.089
-494.566	290.175	0.257	-0.465
-493.551	-146.430	0.394	-0.034
-492.537	58.215	0.180	0.175
-491.522	12.605	-0.250	-0.192
-490.508	-25.401	0.400	0.235
-489.493	-28.812	0.164	0.094
-488.478	800.000	-0.076	0.289
-487.464	615.709	-0.072	-0.179
-486.449	-117.782	-0.395	-0.071
-485.435	-200.000	-0.008	0.111
-484.420	-18.883	0.201	-0.124
-483.405	-56.016	-0.251	-0.111
-482.391	800.000	0.088	0.249
-481.376	-200.000	-0.012	0.167
-480.362	26.289	0.197	0.164
-479.347	-100.765	0.339	-0.083
-478.332	-200.000	0.040	0.294
-477.318	-143.809	0.256	-0.024
-476.303	-135.043	-0.263	-0.032
-475.289	85.525	-0.110	-0.121
-474.274	-200.000	-0.013	0.101
-473.259	21.115	-0.201	0.162
-472.245	-174.400	-0.402	-0.012
-471.230	800.000	0.045	-0.149
-470.216	-200.000	0.032	-0.165
-469.201	-95.521	0.052	0.014
-468.186	800.000	-0.025	0.099
-467.172	-84.776	-0.261	-0.082
-466.157	-50.092	0.349	0.164
-465.143	-29.443	-0.127	0.072
-464.128	24.108	0.101	0.083
-463.113	136.303	0.060	-0.078
-462.099	-200.000	0.000	0.213
-461.084	112.080	-0.254	-0.305
-460.070	115.840	0.085	-0.104
-459.055	-200.000	0.104	-0.518
-458.040	-200.000	-0.021	-0.163
-457.026	-141.207	-0.306	0.031
-456.011	800.000	-0.087	-0.257
-454.997	143.593	-0.197	0.260
-453.982	800.000	-0.029	0.098
-452.968	-38.743	0.150	0.079
-451.953	765.138	-0.063	0.170
-450.938	800.000	0.039	0.127
-449.924	268.690	-0.047	-0.083
-448.909	-127.550	-0.130	-0.019
-447.895	-151.753	-0.315	0.023
-446.880	652.004	0.059	-0.151
-445.865	18.920	0.126	-0.100
-444.851	291.720	-0.182	-0.329
-443.836	800.000	-0.032	-0.131
-442.822	523.409	0.041	0.096
-441.807	-65.226	0.234	0.094
-440.792	257.906	-0.050	-0.085
-439.778	-42.568	0.201	-0.102
-438.763	691.485	0.065	-0.170
-437.749	-200.000	0.000	0.167
-436.734	-130.779	0.139	-0.019
-435.719	-86.043	-0.483	-0.148
-434.705	-103.394	0.366	-0.086
-433.690	-200.000	0.060	-0.318
-432.676	12.965	0.019	-0.014
-431.661	53.609	-0.241	0.229
-430.646	800.000	0.081	0.262
-429.632	-200.000	0.031	0.275
-428.617	800.000	0.010	0.030
-427.603	-23.455	0.124	-0.074
-426.588	-143.789	-0.178	0.017
-425.573	10.222	0.152	0.115
-424.559	158.132	0.053	0.074
-423.544	48.910	-0.095	-0.089
-422.530	90.215	0.138	-0.154
-421.515	-200.000	0.003	-0.036
-420.500	-158.392	-0.365	0.021
-419.486	-200.000	-0.004	-0.241
-418.471	399.125	0.166	-0.345
-417.457	-200.000	0.038	-0.229
-416.442	-97.701	0.122	-0.031
-415.428	-200.000	-0.058	-0.319
-414.413	525.218	0.081	-0.190
-413.398	-200.000	0.057	0.290
-412.384	101.212	-0.095	-0.109
-411.369	-200.000	0.027	-0.144
-410.355	-38.199	-0.106	-0.056
-409.340	-87.771	0.063	-0.019
-408.325	-120.795	0.100	0.017
-407.311	0.696	0.268	0.190
-406.296	-110.153	-0.075	-0.015
-405.282	-11.674	0.133	0.087
-404.267	800.000	-0.030	-0.088
-403.252	-123.215	0.107	-0.017
-402.238	-156.650	0.121	-0.007
-401.223	-200.000	0.008	-0.159
-400.209	800.000	-0.007	-0.025
-399.194	114.491	-0.049	-0.060
-398.179	800.000	0.042	-0.123
-397.165	-49.343	-0.180	0.085
-396.150	72.829	0.190	0.197
-395.136	-127.898	0.185	-0.026
-394.121	-200.000	-0.031	0.181
-393.106	-41.405	0.230	0.118
-392.092	69.374	0.108	-0.110
-391.077	109.735	0.048	0.058
-390.063	211.110	0.114	-0.179
-389.048	-77.459	-0.054	0.019
-388.033	798.164	-0.044	0.122
-387.019	-72.358	0.310	0.114
-386.004	-188.982	-0.284	0.003
-384.990	387.140	0.015	0.031
-383.975	-38.926	0.111	-0.058
-382.960	-65.570	0.318	-0.127
-381.946	759.895	0.187	0.502
-380.931	800.000	0.061	-0.207
-379.917	800.000	-0.068	0.220
-378.902	-169.101	0.131	-0.005
-377.888	-92.455	0.122	-0.034
-376.873	800.000	-0.023	0.069
-375.858	731.212	0.028	-0.074
-374.844	72.498	0.203	0.210
-373.829	-131.814	-0.261	-0.034
-372.815	274.119	-0.217	-0.381
-371.800	792.813	0.035	0.097
-370.785	82.481	0.387	0.417
-369.771	97.396	-0.285	0.324
-368.756	-136.196	0.189	0.022
-367.742	119.116	-0.111	-0.136
-366.727	-73.510	0.252	0.091
-365.712	-16.857	0.127	-0.079
-364.698	100.034	-0.208	-0.239
-363.683	33.214	-0.197	-0.169
-362.669	8.846	0.129	0.096
-361.654	-200.000	-0.006	-0.056
-360.639	-86.963	0.566	-0.171
-359.625	800.000	0.054	0.191
-358.610	-200.000	0.032	0.230
-357.596	-200.000	-0.034	0.195
-356.581	52.538	-0.175	0.165
-355.566	800.000	-0.024	-0.097
-354.552	244.717	0.097	-0.162
-353.537	-135.753	-0.315	-0.037
-352.523	25.439	-0.101	0.083
-351.508	-70.775	0.320	-0.120
-350.493	800.000	-0.067	-0.193
-349.479	-109.187	0.284	0.060
-348.464	-200.000	0.004	0.100
-347.450	-64.785	-0.121	0.049
-346.435	-81.098	-0.153	0.050
-345.420	-138.641	-0.334	-0.036
-344.406	-200.000	0.011	-0.370
-343.391	-189.748	-0.221	0.003
-342.377	800.000	0.026	0.072
-341.362	-128.026	0.241	0.034
-340.348	-200.000	-0.028	0.160
-339.333	-106.187	-0.164	0.036
-338.318	-100.523	-0.048	0.012
-337.304	-30.789	0.105	0.059
-336.289	-200.000	-0.013	-0.179
-335.275	301.640	-0.146	0.267
-334.260	800.000	0.045	-0.127
-333.245	84.665	0.077	-0.083
-332.231	-166.063	-0.332	0.014
-331.216	-7.216	-0.411	0.276
-330.202	4.411	0.163	0.118
-329.187	302.134	0.108	0.198
-328.172	547.349	0.100	0.238
-327.158	-6.161	0.073	0.049
-326.143	-21.462	-0.304	0.183
-325.129	-70.957	-0.127	-0.047
-324.114	20.916	0.194	-0.156
-323.099	-45.887	0.216	0.106
-322.085	800.000	0.110	0.323
-321.070	-200.000	-0.028	0.143
-320.056	-97.057	0.239	-0.062
-319.041	60.747	0.075	-0.074
-318.026	800.000	0.043	-0.164
-317.012	587.859	-0.028	0.068
-315.997	-68.446	-0.169	0.065
-314.983	306.768	-0.064	0.118
-313.968	18.225	0.294	0.232
-312.953	800.000	0.032	0.096
-311.939	6.911	-0.265	-0.196
-310.924	-68.028	0.338	0.130
-309.910	-200.000	0.007	0.072
-308.895	-136.114	-0.126	-0.015
-307.880	-113.115	-0.304	0.059
-306.866	634.570	0.084	0.211
-305.851	-50.146	0.105	-0.049
-304.837	-200.000	-0.004	0.267
-303.822	-162.697	-0.213	-0.010
-302.807	-153.708	0.282	-0.019
-301.793	738.363	0.146	-0.386
-300.778	-58.646	0.047	-0.020
-299.764	25.828	0.200	-0.165
-298.749	-200.000	-0.026	0.178
-297.735	-200.000	0.027	0.293
-296.720	-200.000	0.004	0.298
-295.705	-127.767	0.229	0.033
-294.691	-12.535	0.258	0.166
-293.676	645.135	-0.141	0.355
-292.662	800.000	0.075	-0.264
-291.647	-10.047	0.070	-0.046
-290.632	310.403	-0.039	-0.072
-289.618	-18.672	0.237	-0.146
-288.603	-19.980	-0.232	-0.141
-287.589	-129.609	-0.254	-0.035
-286.574	366.926	0.118	0.236
-285.559	-30.135	0.104	-0.059
-284.545	-200.000	-0.060	0.472
-283.530	187.039	-0.081	-0.120
-282.516	56.315	-0.136	0.130
-281.501	-40.610	0.293	0.150
-280.486	491.608	0.041	-0.092
-279.472	33.847	0.053	-0.045
-278.457	-8.157	0.204	0.136
-277.443	18.645	0.160	0.126
-276.428	523.722	0.014	-0.032
-275.413	-132.936	0.185	-0.023
-274.399	-200.000	-0.005	0.215
-273.384	-45.605	-0.276	0.135
-272.370	-144.807	0.615	0.056
-271.355	-51.107	-0.280	0.130
-270.340	83.357	-0.107	-0.115
-269.326	628.919	0.044	-0.110
-268.311	92.988	-0.211	0.235
-267.297	-19.862	-0.067	0.041
-266.282	-200.000	-0.002	0.121
-265.267	-78.767	0.180	-0.061
-264.253	229.708	0.107	-0.173
-263.238	260.068	0.021	0.035
-262.224	-200.000	-0.046	0.396
-261.209	138.207	-0.361	0.467
-260.195	-100.429	-0.227	-0.055
-259.180	249.870	-0.159	0.267
-258.165	-49.108	-0.117	0.055
-257.151	68.448	-0.171	0.173
-256.136	800.000	0.010	-0.040
-255.122	-52.617	0.290	0.132
-254.107	-97.605	0.342	0.087
-253.092	-116.952	-0.256	-0.046
-252.078	133.399	-0.177	-0.226
-251.063	363.023	-0.143	0.283
-250.049	-17.217	0.138	-0.086
-249.034	-200.000	-0.059	-0.267
-248.019	39.745	-0.015	-0.013
-247.005	-200.000	0.014	-0.281
-245.990	-28.356	0.169	0.096
-244.976	-200.000	0.041	0.320
-243.961	-62.132	0.178	-0.073
-242.946	800.000	0.045	-0.183
-241.932	800.000	0.057	0.164
-240.917	-111.780	0.286	-0.057
-239.903	-200.000	-0.050	-0.259
-238.888	108.672	0.179	0.211
-237.873	-78.355	-0.049	0.016
-236.859	23.080	-0.115	0.093
-235.844	20.364	0.202	0.161
-234.830	-62.486	-0.081	-0.033
-233.815	171.580	0.112	-0.158
-232.800	91.856	0.177	0.196
-231.786	800.000	0.075	0.234
-230.771	-22.483	-0.151	0.090
-229.757	-103.453	-0.105	0.024
-228.742	800.000	-0.109	0.394
-227.727	-75.172	0.456	0.161
-226.713	-200.000	-0.054	0.350
-225.698	-44.143	0.200	-0.099
-224.684	364.919	-0.075	0.149
-223.669	30.748	0.175	0.148
-222.655	196.975	0.219	0.329
-221.640	-200.000	-0.083	0.401
-220.625	-200.000	0.011	-0.089
-219.611	59.392	0.234	0.227
-218.596	20.796	-0.034	0.027
-217.582	-103.576	-0.044	-0.010
-216.567	-92.087	-0.230	-0.064
-215.552	675.456	-0.017	-0.042
-214.538	-30.534	0.096	-0.054
-213.523	52.733	-0.151	-0.142
-212.509	-123.562	-0.196	0.031
-211.494	354.018	-0.022	-0.043
-210.479	-20.091	0.045	0.027
-209.465	800.000	-0.055	-0.168
-208.450	-200.000	0.036	-0.157
-207.436	-34.747	-0.059	-0.032
-206.421	800.000	0.051	-0.162
-205.406	-31.902	0.166	-0.091
-204.392	800.000	-0.042	0.153
-203.377	-77.943	0.180	0.061
-202.363	93.269	0.077	-0.086
-201.348	-29.400	-0.187	-0.105
-200.333	-54.464	0.084	-0.038
-199.319	482.685	0.007	-0.017
-198.304	-14.001	-0.087	0.055
-197.290	-89.682	0.221	0.064
-196.275	254.322	0.053	0.090
-195.260	527.476	-0.039	0.091
-194.246	-48.451	-0.222	0.105
-193.231	-158.526	0.107	0.006
-192.217	133.574	0.101	0.128
-191.202	-147.114	0.122	-0.010
-190.187	308.521	0.077	-0.142
-189.173	-200.000	-0.027	-0.126
-188.158	-30.690	0.218	-0.122
-187.144	408.860	0.161	0.336
-186.129	253.674	0.180	0.303
-185.114	11.568	0.236	-0.178
-184.100	302.199	-0.137	-0.250
-183.085	258.857	-0.220	-0.373
-182.071	-198.087	-0.317	0.002
-181.056	-200.000	-0.037	0.213
-180.042	210.805	0.177	-0.274
-179.027	131.721	0.112	-0.142
-178.012	-200.000	-0.007	0.036
-176.998	-5.905	0.198	-0.133
-175.983	-118.513	-0.137	0.024
-174.969	96.596	-0.190	-0.214
-173.954	-61.735	-0.249	-0.103
-172.939	-58.705	0.059	0.025
-171.925	109.164	-0.178	-0.210
-170.910	800.000	-0.066	-0.261
-169.896	218.643	0.146	-0.230
-168.881	57.969	-0.051	0.050
-167.866	-200.000	-0.000	-0.146
-166.852	800.000	0.041	-0.156
-165.837	800.000	0.084	-0.244
-164.823	-1.907	0.350	0.242
-163.808	800.000	-0.008	-0.025
-162.793	129.827	-0.137	-0.173
-161.779	6.615	-0.133	-0.097
-160.764	800.000	0.033	-0.116
-159.750	800.000	0.037	0.112
-158.735	615.394	-0.064	0.158
-157.720	-10.713	-0.218	-0.142
-156.706	-200.000	0.010	0.475
-155.691	800.000	-0.041	0.120
-154.677	-35.627	0.081	-0.043
-153.662	-15.433	-0.218	-0.137
-152.647	246.232	-0.151	0.250
-151.633	-200.000	0.015	-0.140
-150.618	-0.667	0.280	-0.195
-149.604	-200.000	-0.073	0.319
-148.589	-43.997	-0.148	-0.073
-147.574	157.716	0.317	0.431
-146.560	135.365	0.077	0.098
-145.545	-90.458	-0.331	-0.094
-144.531	-9.016	-0.033	0.022
-143.516	-128.447	0.213	0.030
-142.502	317.962	0.069	-0.129
-141.487	-36.540	-0.145	0.076
-140.472	162.424	0.122	0.168
-139.458	-30.459	-0.109	0.061
-138.443	-50.238	0.224	0.104
-137.429	-36.559	0.174	0.092
-136.414	-56.904	-0.144	0.063
-135.399	72.502	-0.083	-0.085
-134.385	-167.458	-0.453	-0.018
-133.370	748.823	0.033	0.087
-132.356	-97.033	0.313	0.080
-131.341	-44.754	-0.310	0.152
-130.326	-200.000	-0.030	0.374
-129.312	308.298	-0.098	-0.180
-128.297	-120.495	-0.445	-0.074
-127.283	203.772	0.129	0.196
-126.268	-200.000	0.044	0.337
-125.253	78.445	-0.077	0.080
-124.239	64.435	0.136	0.134
-123.224	-200.000	-0.034	-0.425
-122.210	-200.000	0.058	0.304
-121.195	-122.235	-0.064	0.010
