DTS Sentinel unit serial number:	SN413079Multiplexer serial number:	ORYXHardware model number:	OX4-SRSoftware version number:	ORYX F/W v4.00 Oryx Data Collector v3.7.2.0data status	okinstallation	princeton_trtdifferential loss correction	single-endedforward channel	channel 3reverse channel	N/Adate	2019/09/14time	14:40:35forward acquisition time	60.00reverse acquisition time	0.00gamma	496.2192k internal	0.2292k external	0.2292temperature offset calibration	1.0052default loss term (dB/km)	0.3790temperature slope calibration	1.0000multiplexer offset coefficient	1.0000multiplexer slope coefficient	1.0000fibre end	0.00T internal ref (°C)	39.25T ext. ref 1 (°C)	4.97T ext. ref 2 (°C)	34.57length (m)	temperature (°C)	Stokes	anti-Stokes-747.200	182.413	-0.051	-0.077
-746.185	-26.938	0.090	0.054
-745.171	-173.380	-0.195	-0.006
-744.156	-190.659	-0.148	0.002
-743.142	94.935	0.181	0.211
-742.127	-12.903	-0.125	0.083
-741.112	-101.143	-0.163	-0.041
-740.098	-34.584	0.190	0.106
-739.083	-200.000	0.045	0.294
-738.069	110.410	-0.176	0.217
-737.054	-93.859	-0.163	0.046
-736.039	27.853	-0.136	-0.117
-735.025	-3.352	0.127	0.091
-734.010	-12.202	-0.185	-0.124
-732.996	-4.422	-0.109	0.077
-731.981	418.981	0.071	0.155
-730.966	160.273	0.071	0.101
-729.952	1.971	-0.359	-0.265
-728.937	-107.301	-0.238	-0.054
-727.923	40.921	-0.206	-0.191
-726.908	-135.053	-0.210	0.026
-725.894	-37.811	-0.190	-0.104
-724.879	-123.891	-0.299	-0.048
-723.864	-158.371	-0.320	-0.019
-722.850	-101.570	0.249	0.062
-721.835	-80.454	-0.049	0.017
-720.821	66.653	0.079	0.082
-719.806	-57.353	0.219	0.098
-718.791	-84.273	-0.148	0.048
-717.777	88.965	-0.283	-0.322
-716.762	390.754	-0.139	-0.294
-715.748	-50.079	-0.124	0.060
-714.733	-45.410	-0.123	-0.063
-713.718	-200.000	-0.028	-0.415
-712.704	665.510	0.119	-0.313
-711.689	-94.619	-0.230	-0.064
-710.675	-139.327	0.293	-0.032
-709.660	160.818	-0.164	-0.234
-708.645	469.340	-0.215	-0.494
-707.631	231.779	0.256	0.428
-706.616	-41.719	0.147	-0.077
-705.602	-14.370	-0.332	-0.219
-704.587	-7.167	0.271	-0.188
-703.572	622.546	-0.060	0.154
-702.558	27.232	-0.082	-0.070
-701.543	33.259	-0.132	-0.117
-700.529	-152.814	-0.165	-0.012
-699.514	288.803	-0.099	0.183
-698.499	-200.000	0.021	0.195
-697.485	47.988	-0.154	0.147
-696.470	-55.594	0.179	0.082
-695.456	82.290	0.157	0.173
-694.441	223.641	-0.192	0.317
-693.426	336.740	0.145	0.288
-692.412	-135.421	0.232	-0.028
-691.397	35.496	0.168	0.150
-690.383	-86.393	-0.514	0.161
-689.368	138.991	-0.099	-0.133
-688.354	100.311	-0.088	0.105
-687.339	-139.362	0.204	-0.022
-686.324	613.155	-0.100	0.256
-685.310	-120.839	-0.034	0.006
-684.295	-200.000	-0.042	-0.210
-683.281	374.342	0.038	0.078
-682.266	123.854	-0.197	-0.252
-681.251	456.516	-0.173	-0.392
-680.237	-200.000	-0.003	-0.123
-679.222	73.211	0.233	0.249
-678.208	149.910	-0.026	-0.036
-677.193	275.549	-0.029	0.053
-676.178	-145.256	0.194	-0.018
-675.164	86.470	0.063	-0.071
-674.149	-46.769	0.189	-0.094
-673.135	800.000	-0.114	0.472
-672.120	-142.035	-0.130	-0.013
-671.105	70.093	-0.145	-0.152
-670.091	-200.000	0.005	0.045
-669.076	-144.265	0.172	-0.016
-668.062	-36.109	0.183	-0.101
-667.047	-121.195	-0.238	0.041
-666.032	238.396	0.121	0.205
-665.018	-23.421	0.145	0.089
-664.003	-59.677	-0.203	0.089
-662.989	800.000	-0.026	-0.107
-661.974	-66.444	0.109	-0.044
-660.959	-200.000	-0.028	0.289
-659.945	-46.960	-0.383	0.191
-658.930	137.976	0.187	0.250
-657.916	300.439	0.085	0.159
-656.901	800.000	-0.056	0.185
-655.886	24.931	-0.123	0.104
-654.872	-200.000	0.027	0.144
-653.857	15.467	0.193	-0.154
-652.843	-149.764	-0.448	0.036
-651.828	-200.000	-0.015	-0.113
-650.814	-115.254	-0.114	0.022
-649.799	8.455	0.031	0.024
-648.784	306.269	0.058	-0.109
-647.770	800.000	-0.061	0.187
-646.755	6.984	0.069	-0.053
-645.741	-200.000	0.015	-0.156
-644.726	-61.495	0.435	-0.186
-643.711	800.000	-0.040	0.125
-642.697	800.000	-0.051	-0.199
-641.682	-200.000	0.027	-0.124
-640.668	-200.000	-0.041	-0.197
-639.653	800.000	0.061	0.218
-638.638	123.739	-0.061	0.077
-637.624	444.681	0.016	-0.035
-636.609	50.628	0.083	-0.080
-635.595	-151.456	-0.190	-0.014
-634.580	-200.000	-0.002	0.141
-633.565	-16.771	0.224	0.144
-632.551	743.190	-0.086	-0.236
-631.536	-12.232	-0.338	-0.226
-630.522	208.133	-0.064	-0.103
-629.507	769.674	0.085	-0.236
-628.492	184.892	-0.102	-0.155
-627.478	-153.473	-0.177	0.012
-626.463	-200.000	0.015	0.338
-625.449	15.926	0.112	-0.090
-624.434	-74.450	0.112	-0.041
-623.419	-127.816	0.104	0.015
-622.405	800.000	0.047	-0.186
-621.390	209.017	0.054	-0.086
-620.376	-79.480	0.063	0.022
-619.361	148.063	-0.227	-0.312
-618.346	237.247	0.165	-0.278
-617.332	-13.312	0.018	0.012
-616.317	-110.497	-0.172	0.036
-615.303	512.669	-0.061	-0.144
-614.288	-60.565	0.113	-0.049
-613.273	76.009	0.164	-0.176
-612.259	-61.221	0.183	0.079
-611.244	204.872	-0.124	0.195
-610.230	-75.859	-0.147	-0.053
-609.215	162.521	-0.114	-0.163
-608.201	108.200	-0.338	-0.411
-607.186	-98.478	-0.145	0.038
-606.171	-114.692	0.085	0.017
-605.157	35.032	0.130	-0.116
-604.142	39.774	0.169	-0.155
-603.128	93.950	-0.237	-0.273
-602.113	232.828	0.137	0.229
-601.098	85.090	0.242	-0.270
-600.084	139.638	-0.173	-0.232
-599.069	-0.344	-0.090	0.065
-598.055	-34.905	0.201	-0.112
-597.040	-68.141	-0.392	0.155
-596.025	561.789	0.075	0.185
-595.011	790.343	-0.129	0.360
-593.996	-86.142	0.218	-0.068
-592.982	-200.000	0.019	0.098
-591.967	89.215	-0.181	-0.206
-590.952	216.838	-0.085	0.138
-589.938	42.648	-0.139	0.129
-588.923	24.526	0.189	0.159
-587.909	601.919	-0.074	-0.188
-586.894	-59.797	-0.346	0.151
-585.879	61.609	-0.109	0.110
-584.865	-66.435	0.148	-0.060
-583.850	-61.897	-0.227	0.097
-582.836	142.454	-0.005	-0.007
-581.821	-200.000	0.032	-0.308
-580.806	-46.694	0.465	-0.232
-579.792	-127.872	0.214	0.031
-578.777	28.523	0.134	0.115
-577.763	-118.710	0.343	-0.061
-576.748	54.508	-0.110	0.107
-575.733	-138.592	0.020	0.002
-574.719	218.876	-0.055	-0.089
-573.704	61.117	-0.077	0.078
-572.690	333.774	-0.045	0.088
-571.675	-13.457	0.245	-0.161
-570.661	-75.016	-0.308	0.112
-569.646	299.168	0.119	0.222
-568.631	32.476	0.249	0.219
-567.617	-200.000	-0.034	0.264
-566.602	17.810	-0.054	0.043
-565.588	439.750	-0.025	-0.055
-564.573	-200.000	0.040	-0.232
-563.558	172.127	0.085	-0.124
-562.544	-161.793	0.124	0.006
-561.529	-53.194	-0.113	0.053
-560.515	205.896	-0.294	-0.464
-559.500	-97.705	0.129	0.034
-558.485	46.678	-0.255	-0.241
-557.471	51.950	-0.278	-0.269
-556.456	-43.576	0.364	-0.186
-555.442	-14.549	0.270	-0.176
-554.427	606.105	0.081	0.204
-553.412	800.000	-0.023	0.066
-552.398	-147.420	-0.250	-0.021
-551.383	800.000	-0.039	-0.153
-550.369	268.009	0.021	-0.037
-549.354	105.585	-0.083	0.099
-548.339	-192.389	-0.159	0.002
-547.325	-200.000	0.034	-0.272
-546.310	-57.412	0.302	-0.135
-545.296	67.740	-0.188	0.195
-544.281	10.043	0.160	0.123
-543.266	800.000	0.090	0.290
-542.252	395.238	0.040	0.084
-541.237	385.711	0.102	-0.214
-540.223	-38.392	0.226	-0.122
-539.208	-11.950	0.157	-0.105
-538.193	20.075	0.266	0.218
-537.179	778.474	0.138	-0.384
-536.164	29.416	0.013	-0.011
-535.150	203.715	0.152	-0.238
-534.135	-200.000	0.046	0.267
-533.121	95.070	-0.250	-0.289
-532.106	740.055	0.041	0.112
-531.091	44.905	0.077	0.072
-530.077	-200.000	0.020	0.189
-529.062	-101.298	0.185	0.046
-528.048	179.512	0.177	0.263
-527.033	-133.061	0.197	-0.025
-526.018	-17.350	-0.270	-0.172
-525.004	-200.000	-0.064	0.446
-523.989	177.841	0.209	-0.310
-522.975	-134.007	0.190	-0.024
-521.960	140.054	0.103	0.138
-520.945	-8.931	-0.233	-0.159
-519.931	-134.168	0.130	0.016
-518.916	-54.007	-0.251	0.116
-517.902	161.266	0.031	-0.044
-516.887	-111.412	-0.215	0.044
-515.872	-161.289	-0.360	-0.019
-514.858	3.534	-0.244	0.180
-513.843	800.000	0.018	-0.077
-512.829	-200.000	0.005	-0.060
-511.814	-150.059	-0.171	-0.013
-510.799	-200.000	0.001	-0.155
-509.785	-20.162	-0.270	-0.169
-508.770	285.345	0.095	0.173
-507.756	150.408	0.123	-0.169
-506.741	-200.000	-0.041	-0.375
-505.726	-102.669	-0.168	-0.041
-504.712	-129.302	-0.257	0.036
-503.697	-200.000	-0.013	0.106
-502.683	-151.567	-0.267	0.020
-501.668	265.263	-0.252	-0.445
-500.653	216.768	-0.102	-0.164
-499.639	-57.739	0.193	0.086
-498.624	621.744	-0.059	0.151
-497.610	387.645	-0.115	-0.242
-496.595	79.552	0.137	-0.149
-495.581	-11.115	-0.318	-0.213
-494.566	-200.000	0.019	0.172
-493.551	7.136	-0.133	-0.101
-492.537	593.275	-0.133	0.332
-491.522	800.000	0.034	-0.123
-490.508	-15.211	-0.338	0.219
-489.493	37.142	-0.119	-0.107
-488.478	20.032	0.049	-0.040
-487.464	-200.000	-0.014	-0.152
-486.449	180.274	0.163	-0.242
-485.435	127.489	0.138	0.178
-484.420	48.506	-0.291	-0.276
-483.405	160.030	-0.056	0.078
-482.391	-98.486	0.155	0.040
-481.376	-74.946	-0.096	0.035
-480.362	-200.000	0.041	0.635
-479.347	-146.241	0.315	-0.028
-478.332	-49.690	-0.070	0.034
-477.318	43.148	0.272	0.251
-476.303	-119.044	0.275	-0.049
-475.289	-150.783	0.245	0.019
-474.274	536.276	-0.051	0.123
-473.259	-77.783	-0.284	0.099
-472.245	-118.017	0.030	0.005
-471.230	79.952	0.150	-0.163
-470.216	-54.846	0.203	-0.093
-469.201	118.528	0.060	0.075
-468.186	-200.000	-0.023	-0.413
-467.172	418.622	-0.089	-0.192
-466.157	-198.868	-0.162	-0.001
-465.143	-163.658	0.159	0.008
-464.128	800.000	0.017	-0.051
-463.113	-128.368	0.141	-0.020
-462.099	-61.336	0.223	-0.095
-461.084	617.677	-0.104	-0.263
-460.070	199.647	-0.183	0.284
-459.055	-44.966	-0.136	0.068
-458.040	149.241	0.101	-0.139
-457.026	-59.830	0.197	0.085
-456.011	38.158	-0.097	0.088
-454.997	33.850	0.120	0.106
-453.982	71.105	-0.191	0.200
-452.968	800.000	-0.068	0.251
-451.953	-138.218	-0.409	0.046
-450.938	-200.000	-0.038	0.172
-449.924	-66.561	0.192	0.077
-448.909	114.066	0.079	0.098
-447.895	-129.631	-0.263	-0.037
-446.880	9.236	0.153	-0.117
-445.865	205.566	-0.155	-0.243
-444.851	-31.762	0.216	-0.122
-443.836	192.234	-0.121	-0.184
-442.822	-63.708	0.218	-0.090
-441.807	87.952	0.133	-0.150
-440.792	-52.473	0.201	0.094
-439.778	-52.137	-0.063	0.030
-438.763	1.346	-0.146	-0.106
-437.749	800.000	-0.041	-0.116
-436.734	-118.036	0.256	-0.046
-435.719	382.413	0.025	-0.052
-434.705	-200.000	0.021	-0.192
-433.690	-85.490	0.122	-0.038
-432.676	800.000	-0.111	-0.338
-431.661	-110.174	0.168	0.035
-430.646	-19.357	0.396	0.248
-429.632	-101.607	-0.147	-0.036
-428.617	-200.000	-0.009	-0.147
-427.603	-130.048	-0.133	-0.018
-426.588	-115.927	-0.188	0.035
-425.573	593.589	-0.099	0.248
-424.559	-173.987	0.234	-0.007
-423.544	-105.457	0.167	-0.038
-422.530	-44.836	-0.085	-0.043
-421.515	-36.703	-0.114	0.062
-420.500	-200.000	0.034	0.439
-419.486	107.405	-0.093	-0.112
-418.471	-51.409	-0.139	0.066
-417.457	78.206	-0.017	-0.018
-416.442	-87.884	0.305	-0.093
-415.428	-200.000	-0.012	-0.458
-414.413	-200.000	0.040	0.350
-413.398	155.031	-0.101	0.140
-412.384	-200.000	-0.017	-0.331
-411.369	-3.223	0.205	-0.144
-410.355	800.000	-0.050	0.216
-409.340	-38.988	-0.136	-0.072
-408.325	83.684	0.275	0.303
-407.311	480.164	0.076	0.173
-406.296	11.122	0.085	-0.066
-405.282	-89.364	-0.278	0.083
-404.267	157.552	-0.144	0.202
-403.252	800.000	0.154	0.467
-402.238	-200.000	0.005	-0.245
-401.223	800.000	-0.044	0.126
-400.209	-140.787	0.332	0.035
-399.194	-145.895	-0.210	-0.019
-398.179	91.961	-0.235	-0.267
-397.165	214.796	0.022	0.036
-396.150	17.859	0.222	0.179
-395.136	-16.829	0.448	0.286
-394.121	800.000	-0.041	-0.153
-393.106	800.000	-0.057	-0.245
-392.092	-172.531	0.301	-0.010
-391.077	-33.020	0.200	0.112
-390.063	119.122	0.177	0.221
-389.048	-200.000	-0.031	-0.228
-388.033	126.867	0.304	-0.388
-387.019	8.006	0.218	-0.165
-386.004	-21.329	-0.236	0.145
-384.990	-200.000	0.047	0.518
-383.975	800.000	0.071	-0.223
-382.960	800.000	0.074	0.244
-381.946	-200.000	0.047	-0.276
-380.931	12.549	0.124	0.096
-379.917	-23.223	0.057	0.034
-378.902	800.000	0.050	0.148
-377.888	-90.613	-0.297	0.087
-376.873	207.331	-0.055	-0.087
-375.858	-163.790	-0.379	-0.018
-374.844	297.504	0.073	-0.136
-373.829	-58.039	0.138	-0.061
-372.815	-200.000	-0.024	0.195
-371.800	167.463	0.180	0.258
-370.785	-200.000	0.082	0.427
-369.771	-168.532	-0.359	0.014
-368.756	281.776	0.092	-0.167
-367.742	341.918	-0.107	0.210
-366.727	49.685	0.214	0.203
-365.712	-27.687	-0.077	-0.045
-364.698	800.000	-0.103	0.319
-363.683	-153.196	0.337	0.024
-362.669	-75.439	-0.332	0.119
-361.654	-83.589	0.097	-0.031
-360.639	-151.866	0.123	-0.009
-359.625	-149.742	0.236	-0.019
-358.610	800.000	-0.064	0.248
-357.596	800.000	-0.062	0.233
-356.581	800.000	0.083	0.314
-355.566	-79.742	0.303	0.103
-354.552	18.162	-0.133	-0.107
-353.537	-114.167	-0.103	0.020
-352.523	-200.000	0.021	-0.216
-351.508	-36.281	0.238	-0.130
-350.493	-200.000	0.045	-0.242
-349.479	-102.421	-0.163	-0.039
-348.464	-200.000	0.038	0.257
-347.450	92.667	0.088	0.100
-346.435	-200.000	0.000	0.109
-345.420	-135.443	-0.100	-0.012
-344.406	321.510	0.062	-0.119
-343.391	-22.575	-0.142	-0.087
-342.377	769.062	-0.036	0.100
-341.362	163.979	0.139	-0.198
-340.348	-117.012	-0.088	-0.016
-339.333	106.872	0.178	-0.213
-338.318	81.326	0.106	-0.115
-337.304	-57.783	-0.289	0.127
-336.289	-55.201	0.228	0.103
-335.275	206.539	0.144	0.226
-334.260	-72.864	0.046	0.017
-333.245	41.222	0.292	0.266
-332.231	-200.000	-0.024	-0.179
-331.216	42.811	0.192	0.176
-330.202	-62.260	-0.302	0.127
-329.187	438.915	-0.048	0.105
-328.172	330.190	0.060	-0.116
-327.158	-200.000	-0.017	0.231
-326.143	-58.261	0.179	-0.078
-325.129	-200.000	0.015	0.194
-324.114	688.515	-0.055	-0.144
-323.099	578.661	-0.043	0.106
-322.085	-101.803	-0.122	-0.030
-321.070	-114.780	-0.137	-0.026
-320.056	800.000	-0.032	-0.100
-319.041	-106.710	0.068	0.015
-318.026	29.527	0.448	-0.383
-317.012	247.803	-0.057	0.097
-315.997	87.881	-0.255	0.285
-314.983	81.557	-0.123	-0.134
-313.968	167.176	-0.125	-0.179
-312.953	117.689	0.204	-0.253
-311.939	-8.266	-0.183	-0.124
-310.924	-148.772	-0.446	0.036
-309.910	84.074	0.132	0.145
-308.895	493.757	0.139	0.321
-307.880	50.877	-0.143	0.136
-306.866	-131.596	-0.450	-0.060
-305.851	800.000	0.055	-0.165
-304.837	800.000	0.022	0.080
-303.822	-58.487	-0.084	0.036
-302.807	64.990	-0.109	-0.110
-301.793	119.738	-0.118	0.147
-300.778	-173.895	-0.394	-0.012
-299.764	231.800	-0.075	-0.124
-298.749	124.343	0.050	0.063
-297.735	362.079	-0.042	-0.084
-296.720	-200.000	0.013	-0.192
-295.705	-58.844	-0.163	-0.071
-294.691	11.853	-0.199	-0.154
-293.676	-76.074	-0.162	0.058
-292.662	-119.094	0.311	0.055
-291.647	-115.128	0.395	-0.075
-290.632	-64.753	0.214	-0.087
-289.618	-152.425	0.220	0.016
-288.603	64.922	0.250	0.254
-287.589	-62.522	0.092	-0.038
-286.574	-49.662	0.175	-0.084
-285.559	373.276	0.169	-0.345
-284.545	10.932	-0.230	-0.177
-283.530	-14.141	-0.049	0.032
-282.516	461.036	-0.073	-0.164
-281.501	800.000	-0.068	0.240
-280.486	-131.228	-0.223	0.030
-279.472	-145.536	0.077	-0.007
-278.457	800.000	-0.059	0.228
-277.443	100.161	0.181	-0.211
-276.428	456.759	-0.163	0.363
-275.413	-95.207	-0.031	-0.008
-274.399	-145.550	-0.219	0.020
-273.384	754.722	-0.079	-0.215
-272.370	61.383	0.080	0.080
-271.355	-192.447	0.143	-0.001
-270.340	40.511	0.234	-0.212
-269.326	800.000	-0.027	-0.113
-268.311	800.000	-0.115	-0.441
-267.297	74.325	0.110	0.116
-266.282	-135.331	-0.203	-0.024
-265.267	-87.543	0.451	-0.137
-264.253	-200.000	-0.033	0.216
-263.238	-200.000	-0.010	-0.059
-262.224	-200.000	0.001	0.137
-261.209	-200.000	-0.107	0.521
-260.195	-161.723	-0.261	0.013
-259.180	-111.057	-0.233	-0.048
-258.165	-200.000	0.007	-0.160
-257.151	-95.646	-0.368	0.099
-256.136	-86.422	-0.153	0.047
-255.122	-16.597	0.192	-0.122
-254.107	690.806	0.057	-0.150
-253.092	-25.505	0.226	-0.134
-252.078	281.025	-0.237	0.426
-251.063	163.257	0.067	-0.095
-250.049	-140.145	0.311	0.033
-249.034	-96.353	-0.189	0.050
-248.019	81.104	-0.080	0.087
-247.005	-100.345	-0.226	0.056
-245.990	-106.927	0.309	-0.069
-244.976	497.035	-0.065	-0.150
-243.961	138.362	0.053	0.070
-242.946	162.813	-0.091	-0.128
-241.932	16.260	-0.243	0.192
-240.917	-135.238	0.174	-0.021
-239.903	-200.000	-0.067	-0.463
-238.888	-91.566	-0.131	0.037
-237.873	94.500	0.174	-0.198
-236.859	318.180	0.091	-0.173
-235.844	40.740	0.077	0.070
-234.830	-152.834	-0.321	0.023
-233.815	-200.000	-0.010	0.091
-232.800	-114.061	0.272	-0.053
-231.786	352.196	0.079	0.157
-230.771	604.325	0.088	0.219
-229.757	-90.734	-0.013	-0.004
-228.742	800.000	-0.124	0.392
-227.727	-200.000	-0.047	-0.244
-226.713	-169.809	-0.354	-0.013
-225.698	-122.212	0.049	-0.008
-224.684	-104.171	-0.148	0.034
-223.669	-200.000	-0.048	0.253
-222.655	236.833	-0.028	0.046
-221.640	91.938	-0.179	0.202
-220.625	-162.151	0.121	-0.006
-219.611	-200.000	-0.031	-0.282
-218.596	-121.087	-0.301	-0.051
-217.582	-109.613	0.286	0.060
-216.567	-61.315	0.119	-0.050
-215.552	73.661	0.277	-0.291
-214.538	-36.047	0.222	0.120
-213.523	-159.718	0.312	0.017
-212.509	-200.000	-0.049	0.220
-211.494	118.235	-0.196	0.242
-210.479	30.046	0.223	0.190
-209.465	-200.000	-0.004	0.155
-208.450	-200.000	0.038	0.346
-207.436	-9.897	-0.117	-0.078
-206.421	237.123	0.226	-0.375
-205.406	-115.319	-0.111	-0.021
-204.392	-99.834	0.185	-0.046
-203.377	1.162	0.168	-0.121
-202.363	-13.413	0.132	0.086
-201.348	800.000	0.084	0.245
-200.333	-29.862	-0.282	0.161
-199.319	271.694	-0.099	0.176
-198.304	253.915	-0.068	0.117
-197.290	800.000	-0.052	0.151
-196.275	58.876	-0.254	0.250
-195.260	-200.000	-0.013	-0.216
-194.246	17.459	-0.269	0.214
-193.231	800.000	0.063	-0.261
-192.217	19.727	0.078	-0.063
-191.202	279.885	-0.060	-0.108
-190.187	-80.313	-0.201	0.067
-189.173	301.993	-0.012	-0.023
-188.158	-94.178	-0.163	0.045
-187.144	-50.981	0.249	-0.117
-186.129	40.027	0.170	-0.153
-185.114	-119.643	-0.145	-0.025
-184.100	77.199	0.167	-0.177
-183.085	185.248	0.075	0.112
-182.071	-6.149	0.123	0.084
-181.056	503.042	-0.035	0.082
-180.042	138.429	0.108	0.142
-179.027	-75.862	-0.192	0.068
-178.012	-142.990	-0.099	0.010
-176.998	-105.369	0.062	0.014
-175.983	216.314	0.136	0.216
-174.969	-97.481	0.071	-0.018
-173.954	4.272	0.073	0.053
-172.939	-195.300	-0.234	-0.002
-171.925	-101.701	-0.219	0.053
-170.910	-79.768	-0.254	0.086
-169.896	18.460	0.044	-0.035
-168.881	-85.536	-0.125	0.039
-167.866	-200.000	0.006	0.200
-166.852	-80.039	0.122	0.041
-165.837	-129.225	0.185	-0.026
-164.823	75.360	-0.203	0.214
-163.808	-56.406	-0.160	0.071
-162.793	766.952	0.132	0.358
-161.779	-150.361	-0.181	-0.014
-160.764	19.870	0.108	0.087
-159.750	-79.396	0.037	0.013
-158.735	16.271	-0.350	-0.276
-157.720	380.667	0.126	0.259
-156.706	-2.862	-0.103	0.072
-155.691	-143.752	0.246	-0.023
-154.677	-76.030	-0.383	-0.135
-153.662	-200.000	0.026	-0.302
-152.647	-15.201	-0.293	-0.187
-151.633	-32.926	-0.290	0.161
-150.618	198.039	-0.061	-0.093
-149.604	107.437	-0.092	-0.110
-148.589	324.033	0.074	-0.142
-147.574	-200.000	-0.104	0.000
-146.560	-24.851	-0.149	-0.089
-145.545	-83.032	0.414	0.133
-144.531	673.731	-0.069	0.178
-143.516	-155.957	0.449	0.028
-142.502	-141.505	-0.157	-0.016
-141.487	800.000	-0.019	-0.083
-140.472	166.175	0.100	-0.142
-139.458	712.223	0.070	-0.187
-138.443	356.867	0.086	0.171
-137.429	-200.000	-0.016	0.122
-136.414	700.336	-0.096	0.251
-135.399	-200.000	-0.004	0.634
-134.385	124.685	-0.119	0.149
-133.370	136.018	-0.102	0.132
-132.356	800.000	0.099	0.320
-131.341	442.577	0.120	-0.264
-130.326	800.000	-0.075	-0.259
-129.312	422.322	0.047	-0.102
-128.297	-16.866	-0.285	0.180
-127.283	-23.629	0.213	0.127
-126.268	24.835	-0.177	-0.147
-125.253	-172.436	-0.108	-0.003
-124.239	-27.329	0.100	0.058
-123.224	800.000	0.042	0.121
-122.210	204.476	0.153	0.236
-121.195	-178.697	0.305	-0.007
