DTS Sentinel unit serial number:	SN413079Multiplexer serial number:	ORYXHardware model number:	OX4-SRSoftware version number:	ORYX F/W v4.00 Oryx Data Collector v3.7.2.0data status	okinstallation	princeton_trtdifferential loss correction	single-endedforward channel	channel 3reverse channel	N/Adate	2019/09/15time	17:24:35forward acquisition time	60.00reverse acquisition time	0.00gamma	496.2192k internal	0.2286k external	0.2286temperature offset calibration	0.9929default loss term (dB/km)	0.3790temperature slope calibration	1.0000multiplexer offset coefficient	1.0000multiplexer slope coefficient	1.0000fibre end	0.00T internal ref (°C)	44.78T ext. ref 1 (°C)	6.10T ext. ref 2 (°C)	40.07length (m)	temperature (°C)	Stokes	anti-Stokes-747.200	-139.245	-0.233	-0.026
-746.185	-200.000	-0.012	0.088
-745.171	-25.331	0.206	-0.125
-744.156	800.000	0.044	0.133
-743.142	-167.605	0.165	0.007
-742.127	702.242	-0.173	0.467
-741.112	251.099	0.047	0.082
-740.098	-121.608	-0.260	-0.044
-739.083	-200.000	-0.002	-0.196
-738.069	191.625	0.283	0.438
-737.054	-117.181	0.016	-0.003
-736.039	-50.596	-0.169	0.082
-735.025	128.514	0.148	-0.193
-734.010	184.664	-0.104	-0.158
-732.996	2.365	-0.094	0.070
-731.981	-200.000	-0.013	0.315
-730.966	-200.000	-0.007	-0.150
-729.952	281.614	-0.068	-0.125
-728.937	-97.316	0.591	0.158
-727.923	-105.214	0.205	-0.048
-726.908	11.548	-0.204	0.161
-725.894	-200.000	-0.010	-0.327
-724.879	-126.179	-0.139	0.021
-723.864	-200.000	-0.013	-0.223
-722.850	-200.000	0.022	-0.239
-721.835	800.000	0.084	-0.341
-720.821	800.000	0.072	-0.273
-719.806	-95.859	-0.481	-0.131
-718.791	-33.795	-0.343	0.194
-717.777	-113.551	-0.121	0.024
-716.762	-200.000	0.005	-0.218
-715.748	2.130	0.171	-0.127
-714.733	800.000	0.071	0.216
-713.718	-135.580	0.195	0.024
-712.704	-36.243	0.034	0.019
-711.689	-88.300	0.195	-0.060
-710.675	3.663	0.033	-0.025
-709.660	-78.229	-0.325	0.114
-708.645	-76.781	0.300	0.107
-707.631	-74.492	-0.252	-0.093
-706.616	84.193	-0.114	-0.128
-705.602	-68.153	-0.242	0.097
-704.587	-200.000	-0.072	0.347
-703.572	10.349	-0.047	0.037
-702.558	-177.912	0.219	-0.005
-701.543	-44.642	-0.141	0.072
-700.529	87.817	0.072	0.081
-699.514	84.383	0.119	-0.133
-698.499	51.078	-0.041	0.040
-697.485	-200.000	-0.025	0.531
-696.470	763.066	0.088	-0.246
-695.456	-60.164	-0.238	-0.104
-694.441	800.000	0.021	-0.089
-693.426	-200.000	0.012	-0.123
-692.412	-200.000	0.002	-0.124
-691.397	81.277	-0.276	-0.306
-690.383	800.000	0.071	-0.265
-689.368	299.189	-0.033	-0.062
-688.354	-141.262	0.265	-0.028
-687.339	121.481	0.086	0.109
-686.324	-88.118	-0.196	-0.060
-685.310	-120.093	-0.334	0.059
-684.295	13.670	0.094	0.075
-683.281	128.133	0.231	-0.300
-682.266	-141.875	-0.313	0.032
-681.251	-83.127	-0.122	-0.040
-680.237	-114.142	0.078	-0.015
-679.222	-200.000	-0.010	0.224
-678.208	-200.000	-0.042	-0.220
-677.193	800.000	-0.051	-0.208
-676.178	88.330	0.077	0.088
-675.164	-49.475	-0.071	0.035
-674.149	147.248	-0.072	0.100
-673.135	-82.006	-0.231	0.077
-672.120	-123.304	-0.333	-0.054
-671.105	46.338	-0.130	0.124
-670.091	195.934	-0.061	-0.096
-669.076	28.162	0.238	-0.205
-668.062	196.485	0.064	0.099
-667.047	800.000	-0.108	0.345
-666.032	321.096	-0.058	0.114
-665.018	-103.132	-0.155	-0.038
-664.003	-200.000	-0.029	-0.347
-662.989	800.000	0.082	0.275
-661.974	64.340	-0.128	0.132
-660.959	-200.000	-0.001	-0.239
-659.945	-200.000	-0.016	0.119
-658.930	-34.330	-0.106	0.059
-657.916	-71.506	0.338	-0.129
-656.901	-88.674	0.385	0.117
-655.886	-24.827	0.180	-0.110
-654.872	23.885	0.382	0.322
-653.857	492.410	0.033	-0.078
-652.843	-27.351	0.118	-0.070
-651.828	-86.802	-0.047	0.015
-650.814	247.929	0.006	-0.011
-649.799	-13.167	0.177	0.117
-648.784	800.000	-0.009	0.032
-647.770	-18.928	-0.203	0.129
-646.755	-33.361	0.217	0.123
-645.741	77.536	0.190	0.207
-644.726	420.879	0.046	-0.100
-643.711	237.391	0.192	0.325
-642.697	-200.000	0.022	-0.372
-641.682	800.000	0.103	-0.343
-640.668	-38.614	-0.293	0.158
-639.653	403.716	-0.231	-0.497
-638.638	171.946	-0.095	-0.140
-637.624	98.507	0.136	0.161
-636.609	52.365	-0.137	0.133
-635.595	267.613	0.072	-0.128
-634.580	-200.000	0.023	0.113
-633.565	200.468	-0.043	-0.068
-632.551	142.360	0.212	-0.287
-631.536	5.451	-0.129	-0.097
-630.522	-200.000	-0.018	-0.128
-629.507	99.152	-0.265	0.313
-628.492	-56.196	0.497	0.226
-627.478	342.374	-0.056	-0.113
-626.463	-18.040	0.068	0.043
-625.449	800.000	-0.033	-0.126
-624.434	-200.000	-0.365	0.001
-623.419	28.676	0.187	0.161
-622.405	-107.975	0.205	0.046
-621.390	-148.935	0.163	-0.013
-620.376	481.687	-0.091	-0.212
-619.361	-24.930	-0.183	0.111
-618.346	-85.878	-0.135	-0.043
-617.332	303.391	-0.117	-0.222
-616.317	-36.690	0.084	0.046
-615.303	-200.000	0.018	0.198
-614.288	13.744	-0.097	-0.077
-613.273	33.473	0.077	-0.069
-612.259	171.732	-0.033	0.048
-611.244	-44.740	-0.275	0.140
-610.230	-200.000	-0.023	0.130
-609.215	-58.609	-0.362	-0.160
-608.201	-200.000	0.011	-0.070
-607.186	82.764	-0.141	0.157
-606.171	-20.610	-0.199	0.125
-605.157	479.558	0.128	0.296
-604.142	-104.585	-0.204	0.048
-603.128	320.047	0.010	-0.019
-602.113	-200.000	-0.041	0.185
-601.098	361.124	-0.046	0.093
-600.084	639.927	-0.075	0.196
-599.069	-54.382	-0.152	-0.070
-598.055	7.852	0.356	0.273
-597.040	-200.000	0.043	-0.308
-596.025	111.555	0.112	0.138
-595.011	387.709	-0.120	-0.254
-593.996	-200.000	0.019	-0.167
-592.982	-200.000	-0.060	-0.518
-591.967	-22.920	0.166	0.102
-590.952	-113.478	-0.228	-0.045
-589.938	40.711	0.205	-0.188
-588.923	-75.726	0.211	-0.076
-587.909	-63.107	-0.056	0.024
-586.894	2.982	0.113	-0.084
-585.879	-4.091	-0.328	0.231
-584.865	-200.000	-0.056	0.286
-583.850	70.859	-0.054	-0.057
-582.836	20.472	-0.033	0.027
-581.821	-139.082	-0.255	-0.028
-580.806	299.326	0.149	0.279
-579.792	-95.170	-0.128	-0.035
-578.777	-3.865	-0.098	-0.069
-577.763	217.708	0.210	-0.341
-576.748	305.450	0.146	0.278
-575.733	338.150	-0.144	-0.287
-574.719	89.405	0.054	0.061
-573.704	107.652	-0.202	-0.245
-572.690	-68.602	-0.060	-0.024
-571.675	-121.407	0.082	-0.014
-570.661	-67.228	0.070	-0.028
-569.646	245.174	0.124	-0.212
-568.631	-200.000	-0.012	-0.069
-567.617	256.220	-0.101	0.176
-566.602	-200.000	-0.049	0.349
-565.588	-71.011	0.132	0.051
-564.573	38.170	0.231	0.209
-563.558	-62.943	0.166	-0.070
-562.544	-115.603	0.040	-0.008
-561.529	-137.535	0.101	-0.012
-560.515	-12.035	0.218	0.146
-559.500	235.952	0.107	0.181
-558.485	-200.000	0.028	-0.159
-557.471	-102.467	-0.145	-0.035
-556.456	-9.126	0.215	-0.146
-555.442	-54.778	-0.207	0.095
-554.427	754.472	-0.036	-0.099
-553.412	-200.000	0.025	0.150
-552.398	135.040	-0.057	0.075
-551.383	-13.452	0.171	0.113
-550.369	-122.205	-0.173	-0.029
-549.354	27.793	0.151	0.130
-548.339	66.116	0.013	-0.014
-547.325	234.251	-0.253	0.424
-546.310	-64.585	-0.243	-0.101
-545.296	-161.988	0.308	-0.016
-544.281	19.277	0.138	0.113
-543.266	-155.053	-0.245	0.016
-542.252	-200.000	-0.039	0.182
-541.237	380.832	0.110	-0.230
-540.223	-200.000	0.033	-0.226
-539.208	-200.000	-0.030	0.139
-538.193	800.000	-0.087	0.337
-537.179	-200.000	-0.021	0.167
-536.164	-115.911	0.177	-0.034
-535.150	800.000	0.113	0.415
-534.135	146.441	0.089	0.121
-533.121	-200.000	0.014	-0.096
-532.106	-200.000	0.023	-0.165
-531.091	-53.311	-0.190	-0.088
-530.077	-16.807	0.084	0.054
-529.062	-20.208	-0.153	0.096
-528.048	93.863	-0.025	0.029
-527.033	800.000	0.095	-0.330
-526.018	-200.000	-0.009	0.074
-525.004	-200.000	0.025	0.145
-523.989	-128.243	-0.421	-0.061
-522.975	-113.164	0.094	-0.019
-521.960	-174.659	0.144	-0.004
-520.945	-54.182	-0.306	0.141
-519.931	-200.000	-0.005	-0.244
-518.916	-87.555	0.130	-0.040
-517.902	143.188	0.174	0.235
-516.887	253.574	-0.024	0.041
-515.872	-195.226	-0.114	0.001
-514.858	-149.181	0.105	0.009
-513.843	-200.000	0.030	-0.209
-512.829	-3.315	0.174	-0.123
-511.814	800.000	-0.032	0.129
-510.799	-200.000	-0.004	-0.360
-509.785	-200.000	0.055	0.276
-508.770	114.677	0.124	-0.153
-507.756	141.929	-0.144	-0.194
-506.741	-98.032	-0.265	0.069
-505.726	-117.899	-0.397	-0.072
-504.712	214.455	0.172	-0.277
-503.697	-46.014	0.232	0.116
-502.683	645.377	0.111	-0.288
-501.668	-56.900	-0.061	0.027
-500.653	-76.713	0.138	-0.049
-499.639	115.025	0.131	-0.162
-498.624	-200.000	0.007	-0.072
-497.610	86.074	0.067	-0.075
-496.595	-100.098	0.265	0.067
-495.581	-59.610	-0.140	0.061
-494.566	-83.742	0.204	0.066
-493.551	800.000	0.029	0.110
-492.537	-4.561	-0.219	0.154
-491.522	131.731	-0.160	-0.210
-490.508	-200.000	0.035	-0.225
-489.493	-15.351	0.053	-0.035
-488.478	64.490	-0.170	0.174
-487.464	800.000	-0.130	0.366
-486.449	-71.841	-0.312	-0.118
-485.435	-54.650	-0.280	-0.129
-484.420	50.541	0.304	-0.292
-483.405	-107.561	0.246	-0.055
-482.391	202.418	-0.086	-0.135
-481.376	-103.234	0.131	0.032
-480.362	-149.208	-0.271	-0.022
-479.347	-200.000	0.015	-0.096
-478.332	-200.000	-0.068	-0.330
-477.318	-169.166	0.350	0.013
-476.303	-15.228	-0.141	0.092
-475.289	800.000	-0.161	0.500
-474.274	51.134	-0.170	0.163
-473.259	-133.562	-0.448	-0.057
-472.245	41.136	0.214	0.196
-471.230	-174.594	-0.088	-0.003
-470.216	676.941	-0.075	0.198
-469.201	-5.660	0.344	0.239
-468.186	-148.611	-0.116	0.010
-467.172	93.925	0.108	0.125
-466.157	28.163	-0.182	-0.156
-465.143	192.535	-0.080	-0.123
-464.128	-41.399	0.124	-0.065
-463.113	-171.508	0.103	0.003
-462.099	-107.173	0.016	-0.003
-461.084	-69.246	0.296	-0.116
-460.070	-72.543	-0.296	-0.111
-459.055	-200.000	0.073	-0.326
-458.040	279.947	-0.149	-0.269
-457.026	27.768	0.145	0.124
-456.011	23.587	-0.085	-0.071
-454.997	225.491	-0.088	0.145
-453.982	435.937	0.096	0.213
-452.968	800.000	-0.079	-0.242
-451.953	208.002	-0.070	-0.112
-450.938	800.000	0.029	-0.083
-449.924	-47.834	0.242	-0.119
-448.909	-72.467	-0.147	0.055
-447.895	-200.000	0.024	0.218
-446.880	-146.076	-0.120	-0.011
-445.865	-70.543	-0.069	0.026
-444.851	50.028	0.159	-0.152
-443.836	-145.998	0.338	0.030
-442.822	639.696	0.050	0.129
-441.807	5.866	-0.138	-0.103
-440.792	-200.000	-0.002	-0.035
-439.778	253.523	-0.104	0.180
-438.763	-24.271	0.293	-0.177
-437.749	164.234	-0.158	0.225
-436.734	3.933	-0.207	-0.153
-435.719	-200.000	0.024	-0.209
-434.705	-200.000	-0.012	-0.187
-433.690	-56.852	-0.160	-0.072
-432.676	105.606	0.137	-0.164
-431.661	665.865	0.078	0.203
-430.646	-13.473	0.144	-0.095
-429.632	-200.000	0.051	0.273
-428.617	800.000	-0.059	-0.232
-427.603	103.804	0.024	-0.029
-426.588	-88.239	0.225	0.068
-425.573	-200.000	-0.010	-0.209
-424.559	-84.954	0.148	0.047
-423.544	-61.824	-0.035	-0.015
-422.530	-65.463	-0.155	0.063
-421.515	-99.378	-0.329	-0.084
-420.500	-200.000	0.030	0.238
-419.486	7.446	-0.237	0.180
-418.471	39.464	-0.236	0.214
-417.457	-8.329	0.362	-0.246
-416.442	-200.000	0.042	-0.350
-415.428	-44.715	0.333	0.169
-414.413	33.910	0.121	0.107
-413.398	199.149	-0.101	0.157
-412.384	105.223	-0.063	0.076
-411.369	37.316	-0.089	0.080
-410.355	9.155	-0.163	0.125
-409.340	-33.829	-0.146	0.082
-408.325	179.420	0.060	-0.089
-407.311	-200.000	-0.018	-0.179
-406.296	-157.093	-0.362	-0.022
-405.282	47.765	0.187	-0.176
-404.267	800.000	0.082	0.244
-403.252	-200.000	-0.007	-0.100
-402.238	-66.487	-0.173	0.069
-401.223	800.000	0.024	0.090
-400.209	-200.000	0.000	-0.013
-399.194	-9.382	0.336	0.227
-398.179	9.781	0.152	-0.117
-397.165	118.326	-0.198	0.247
-396.150	-130.969	-0.121	-0.016
-395.136	-69.590	0.240	0.093
-394.121	-96.039	-0.160	-0.043
-393.106	-200.000	-0.014	0.239
-392.092	-200.000	0.025	0.363
-391.077	-200.000	0.016	0.198
-390.063	58.667	-0.139	-0.138
-389.048	-13.689	-0.111	-0.073
-388.033	-200.000	0.010	-0.064
-387.019	-104.346	0.109	0.026
-386.004	-200.000	0.017	0.248
-384.990	-200.000	-0.029	0.145
-383.975	497.125	0.081	0.189
-382.960	20.122	-0.201	-0.164
-381.946	-28.383	0.272	0.159
-380.931	-136.364	-0.374	-0.044
-379.917	-99.624	-0.374	-0.095
-378.902	-179.755	-0.245	-0.005
-377.888	-69.845	0.363	0.140
-376.873	168.962	0.054	0.077
-375.858	-51.718	-0.134	-0.063
-374.844	632.329	0.139	0.355
-373.829	800.000	0.085	0.337
-372.815	364.250	-0.114	-0.233
-371.800	-187.831	-0.091	-0.001
-370.785	-98.177	-0.430	0.112
-369.771	-171.400	-0.104	-0.004
-368.756	-200.000	-0.006	-0.105
-367.742	2.079	-0.228	-0.167
-366.727	-26.734	-0.055	0.033
-365.712	-200.000	-0.015	-0.174
-364.698	110.654	-0.175	0.213
-363.683	468.620	0.027	0.061
-362.669	-200.000	-0.003	0.037
-361.654	-126.837	-0.130	0.019
-360.639	-164.060	0.189	-0.009
-359.625	-184.505	-0.137	-0.002
-358.610	-108.089	0.168	0.037
-357.596	800.000	-0.008	0.028
-356.581	-110.295	-0.199	0.042
-355.566	-200.000	0.033	0.201
-354.552	-149.002	0.084	0.007
-353.537	-165.989	0.139	0.006
-352.523	-110.442	-0.071	-0.015
-351.508	-114.953	-0.067	0.013
-350.493	-173.015	0.466	0.015
-349.479	-111.249	-0.167	-0.034
-348.464	800.000	-0.122	-0.401
-347.450	86.005	-0.159	-0.177
-346.435	-200.000	-0.014	-0.200
-345.420	11.731	0.218	-0.169
-344.406	-99.503	-0.134	-0.034
-343.391	-46.839	-0.163	0.081
-342.377	-200.000	-0.023	-0.335
-341.362	-153.727	0.147	0.010
-340.348	147.368	0.217	-0.295
-339.333	-34.560	0.359	0.199
-338.318	20.117	-0.397	-0.324
-337.304	-30.842	0.099	0.057
-336.289	-153.043	0.191	0.014
-335.275	83.274	0.113	-0.124
-334.260	18.395	-0.124	-0.100
-333.245	800.000	0.051	0.188
-332.231	31.464	-0.135	-0.117
-331.216	136.786	-0.118	0.156
-330.202	-153.790	0.042	0.003
-329.187	7.668	-0.078	-0.059
-328.172	-77.014	-0.177	-0.062
-327.158	-100.892	-0.324	-0.080
-326.143	-111.846	0.334	-0.068
-325.129	732.054	-0.174	-0.469
-324.114	-24.920	-0.124	0.075
-323.099	176.390	0.095	0.139
-322.085	-200.000	-0.052	0.337
-321.070	-81.294	-0.185	-0.062
-320.056	46.278	0.164	-0.153
-319.041	-200.000	0.031	0.147
-318.026	-3.195	0.234	0.165
-317.012	-200.000	0.015	0.197
-315.997	-25.637	0.327	0.195
-314.983	154.722	0.056	-0.077
-313.968	-119.395	0.268	-0.047
-312.953	211.202	-0.132	-0.210
-311.939	173.788	0.051	-0.075
-310.924	65.001	0.183	-0.187
-309.910	16.466	0.119	-0.095
-308.895	-200.000	-0.030	-0.180
-307.880	582.663	-0.059	-0.145
-306.866	295.032	0.089	-0.164
-305.851	277.911	0.186	0.334
-304.837	800.000	-0.033	-0.132
-303.822	175.307	0.120	-0.175
-302.807	555.964	0.054	-0.131
-301.793	-4.880	0.218	0.151
-300.778	216.786	0.038	-0.061
-299.764	-126.405	-0.138	-0.021
-298.749	183.827	-0.113	0.169
-297.735	-83.936	-0.370	0.119
-296.720	-105.011	0.110	0.026
-295.705	301.589	0.113	0.211
-294.691	224.543	-0.094	-0.153
-293.676	-82.889	0.177	0.058
-292.662	91.191	0.237	0.268
-291.647	89.604	-0.138	0.156
-290.632	-81.472	-0.069	0.023
-289.618	800.000	0.077	-0.300
-288.603	725.072	0.089	-0.240
-287.589	37.499	-0.174	-0.156
-286.574	-133.372	-0.273	-0.035
-285.559	10.489	0.183	-0.141
-284.545	-149.994	0.242	0.019
-283.530	45.426	0.112	-0.104
-282.516	142.428	0.205	0.274
-281.501	-200.000	0.004	0.170
-280.486	-90.171	-0.120	0.035
-279.472	-200.000	0.010	-0.179
-278.457	-88.059	-0.186	0.056
-277.443	-32.188	0.074	-0.042
-276.428	-30.373	0.117	0.067
-275.413	-63.315	-0.052	0.022
-274.399	800.000	0.029	-0.100
-273.384	-200.000	0.041	0.387
-272.370	44.557	-0.036	0.033
-271.355	-124.393	0.167	-0.026
-270.340	-78.020	0.209	0.073
-269.326	26.194	-0.289	-0.243
-268.311	54.374	-0.141	0.136
-267.297	-26.549	-0.160	-0.095
-266.282	-200.000	-0.024	-0.204
-265.267	89.673	0.247	0.277
-264.253	-96.779	0.230	0.061
-263.238	-24.191	0.099	-0.060
-262.224	274.207	-0.098	-0.175
-261.209	343.706	-0.065	-0.128
-260.195	800.000	0.042	0.148
-259.180	116.808	0.187	0.231
-258.165	-14.006	-0.397	0.258
-257.151	-147.599	0.225	-0.019
-256.136	333.671	-0.033	0.064
-255.122	12.966	-0.317	-0.247
-254.107	-174.529	-0.166	-0.005
-253.092	221.200	-0.035	0.056
-252.078	177.522	-0.136	-0.199
-251.063	38.082	0.187	0.168
-250.049	800.000	-0.076	-0.283
-249.034	-9.797	-0.206	0.138
-248.019	53.561	0.234	0.226
-247.005	-3.353	0.072	0.051
-245.990	-7.997	-0.159	0.108
-244.976	76.007	0.159	-0.169
-243.961	-108.396	-0.308	-0.067
-242.946	800.000	0.067	0.255
-241.932	128.944	-0.170	-0.218
-240.917	-200.000	-0.015	0.163
-239.903	165.994	0.157	-0.223
-238.888	0.967	-0.064	0.047
-237.873	-200.000	-0.010	-0.075
-236.859	-3.961	0.056	0.039
-235.844	97.532	0.262	0.303
-234.830	154.926	-0.099	-0.137
-233.815	-58.158	0.065	0.029
-232.800	-200.000	-0.001	0.235
-231.786	146.781	-0.164	-0.222
-230.771	800.000	-0.029	0.111
-229.757	-110.977	-0.158	-0.033
-228.742	-108.971	-0.163	-0.035
-227.727	-54.059	-0.063	0.029
-226.713	-106.595	0.315	-0.070
-225.698	-53.561	-0.048	0.022
-224.684	-200.000	-0.055	-0.423
-223.669	660.076	-0.087	-0.226
-222.655	198.912	0.124	0.191
-221.640	2.982	0.211	0.154
-220.625	10.517	-0.195	0.149
-219.611	171.075	0.097	-0.139
-218.596	783.004	-0.091	-0.252
-217.582	-146.771	0.270	-0.023
-216.567	588.473	0.044	0.110
-215.552	242.426	-0.052	-0.088
-214.538	160.499	-0.105	-0.147
-213.523	-119.847	-0.191	-0.033
-212.509	-200.000	-0.005	-0.035
-211.494	-110.850	0.346	-0.072
-210.479	-181.745	0.281	-0.005
-209.465	-101.980	0.246	-0.060
-208.450	800.000	-0.052	-0.156
-207.436	232.499	0.156	-0.257
-206.421	800.000	0.043	0.139
-205.406	702.532	-0.050	0.132
-204.392	119.417	-0.073	-0.091
-203.377	507.564	0.046	-0.108
-202.363	18.785	0.157	0.126
-201.348	107.988	0.035	0.042
-200.333	653.731	-0.024	-0.061
-199.319	-200.000	0.007	0.164
-198.304	2.437	-0.092	0.067
-197.290	-120.375	0.210	-0.036
-196.275	-101.842	0.143	-0.035
-195.260	800.000	0.055	0.171
-194.246	-200.000	-0.011	-0.263
-193.231	-60.382	0.222	-0.095
-192.217	-200.000	-0.031	-0.192
-191.202	800.000	0.042	-0.144
-190.187	-40.305	-0.114	0.060
-189.173	-200.000	-0.063	0.279
-188.158	178.932	-0.081	0.118
-187.144	-200.000	0.010	0.085
-186.129	-86.560	0.190	0.058
-185.114	-22.244	0.186	-0.113
-184.100	58.854	0.133	-0.131
-183.085	83.387	-0.121	0.133
-182.071	-38.925	-0.245	-0.129
-181.056	-200.000	0.022	0.172
-180.042	-200.000	0.032	0.272
-179.027	800.000	0.097	-0.284
-178.012	170.226	-0.076	0.110
-176.998	-71.913	-0.143	0.053
-175.983	800.000	0.023	0.100
-174.969	-52.341	-0.087	-0.041
-173.954	106.164	-0.130	0.154
-172.939	-200.000	-0.180	0.000
-171.925	-129.440	0.223	-0.031
-170.910	175.839	0.075	0.110
-169.896	427.792	0.124	-0.268
-168.881	198.129	0.125	0.192
-167.866	-112.706	0.056	-0.011
-166.852	-28.579	0.159	-0.092
-165.837	-55.879	0.249	-0.112
-164.823	-200.000	0.008	0.131
-163.808	-18.734	-0.207	0.129
-162.793	-166.837	0.088	0.004
-161.779	-140.968	-0.077	-0.008
-160.764	17.816	0.070	-0.056
-159.750	352.998	0.133	0.264
-158.735	-74.702	0.286	0.103
-157.720	-200.000	0.014	0.106
-156.706	-82.608	-0.260	-0.084
-155.691	105.373	-0.040	-0.047
-154.677	138.478	-0.164	-0.216
-153.662	509.528	-0.091	-0.213
-152.647	800.000	0.035	-0.104
-151.633	-77.186	-0.349	0.122
-150.618	-16.439	0.066	0.042
-149.604	800.000	-0.036	0.111
-148.589	800.000	-0.007	-0.023
-147.574	187.126	-0.280	0.418
-146.560	64.000	0.114	0.115
-145.545	292.256	-0.012	-0.023
-144.531	38.466	0.088	0.079
-143.516	43.724	0.150	0.138
-142.502	372.981	-0.028	-0.056
-141.487	208.867	0.253	-0.397
-140.472	50.881	-0.075	-0.072
-139.458	-79.430	0.375	-0.127
-138.443	-39.113	0.071	0.037
-137.429	-92.443	-0.159	0.045
-136.414	-52.532	0.323	0.149
-135.399	569.947	0.085	0.208
-134.385	29.653	0.099	0.084
-133.370	414.821	-0.045	-0.097
-132.356	35.392	-0.160	0.141
-131.341	631.847	0.087	-0.220
-130.326	-123.482	0.427	-0.068
-129.312	-200.000	0.056	0.275
-128.297	-125.525	-0.145	0.022
-127.283	-113.018	0.273	0.054
-126.268	-131.223	0.201	-0.027
-125.253	-200.000	0.052	0.476
-124.239	25.825	-0.206	-0.172
-123.224	149.126	0.050	-0.068
-122.210	-73.533	0.275	-0.100
-121.195	374.571	-0.095	0.194
