DTS Sentinel unit serial number:	SN413079Multiplexer serial number:	ORYXHardware model number:	OX4-SRSoftware version number:	ORYX F/W v4.00 Oryx Data Collector v3.7.2.0data status	okinstallation	princeton_trtdifferential loss correction	single-endedforward channel	channel 3reverse channel	N/Adate	2019/09/18time	18:24:34forward acquisition time	60.00reverse acquisition time	0.00gamma	496.2192k internal	0.2294k external	0.2294temperature offset calibration	0.9997default loss term (dB/km)	0.3790temperature slope calibration	1.0000multiplexer offset coefficient	1.0000multiplexer slope coefficient	1.0000fibre end	0.00T internal ref (°C)	38.59T ext. ref 1 (°C)	0.93T ext. ref 2 (°C)	31.37length (m)	temperature (°C)	Stokes	anti-Stokes-747.200	-3.795	0.157	0.111
-746.185	154.403	0.191	0.268
-745.171	-65.158	-0.161	0.066
-744.156	-98.572	-0.209	-0.054
-743.142	474.480	-0.058	-0.133
-742.127	-28.667	0.486	0.286
-741.112	275.046	0.052	-0.094
-740.098	55.285	-0.186	-0.184
-739.083	233.395	0.234	-0.394
-738.069	253.812	-0.162	0.284
-737.054	-200.000	-0.096	-0.451
-736.039	8.158	0.342	-0.262
-735.025	-75.608	-0.095	0.035
-734.010	-153.273	0.207	0.015
-732.996	142.647	-0.097	0.131
-731.981	-78.032	-0.229	0.081
-730.966	247.407	0.119	-0.205
-729.952	70.932	-0.252	-0.267
-728.937	-88.793	-0.183	-0.056
-727.923	146.034	0.101	0.139
-726.908	757.079	0.110	-0.304
-725.894	-171.747	-0.377	-0.013
-724.879	288.293	0.109	-0.201
-723.864	-173.805	0.258	0.008
-722.850	-200.000	-0.012	-0.186
-721.835	-200.000	-0.003	-0.023
-720.821	-125.650	-0.221	0.034
-719.806	-200.000	0.008	0.343
-718.791	-108.452	-0.324	0.071
-717.777	-87.452	-0.320	0.099
-716.762	8.095	0.183	0.140
-715.748	87.308	-0.089	0.100
-714.733	-49.550	-0.184	0.090
-713.718	-200.000	-0.028	-0.326
-712.704	-118.748	0.162	0.029
-711.689	-19.644	0.138	0.087
-710.675	-115.650	-0.181	-0.035
-709.660	-200.000	0.015	-0.162
-708.645	-116.941	-0.212	-0.040
-707.631	306.782	0.106	0.202
-706.616	46.404	-0.156	0.148
-705.602	800.000	0.065	-0.237
-704.587	-15.500	0.194	-0.127
-703.572	-128.069	0.488	0.071
-702.558	156.650	-0.180	-0.254
-701.543	-15.776	0.298	-0.194
-700.529	-200.000	-0.036	-0.191
-699.514	424.309	-0.106	0.233
-698.499	266.594	0.139	-0.248
-697.485	443.486	0.096	-0.215
-696.470	-200.000	0.019	0.167
-695.456	37.735	-0.374	-0.340
-694.441	800.000	0.026	0.076
-693.426	800.000	0.060	0.232
-692.412	800.000	-0.110	-0.333
-691.397	-3.432	0.192	0.137
-690.383	195.802	-0.111	0.172
-689.368	769.823	0.019	-0.053
-688.354	-200.000	0.057	0.301
-687.339	149.633	-0.241	-0.333
-686.324	-123.497	-0.097	-0.016
-685.310	23.754	0.050	0.042
-684.295	800.000	0.110	-0.407
-683.281	-117.441	0.324	-0.060
-682.266	787.003	0.130	-0.363
-681.251	-150.322	-0.235	0.019
-680.237	-200.000	0.067	-0.337
-679.222	-96.496	-0.258	0.069
-678.208	-200.000	0.040	-0.238
-677.193	-200.000	-0.048	-0.415
-676.178	51.039	0.068	0.066
-675.164	660.745	-0.072	-0.190
-674.149	573.555	0.104	0.259
-673.135	4.969	0.145	0.109
-672.120	162.342	-0.086	-0.122
-671.105	95.978	-0.100	0.117
-670.091	49.393	0.136	0.130
-669.076	800.000	0.078	0.280
-668.062	388.814	-0.038	-0.079
-667.047	800.000	0.004	0.015
-666.032	18.620	0.106	0.087
-665.018	170.228	0.105	-0.153
-664.003	-200.000	0.084	-0.409
-662.989	402.333	-0.163	-0.349
-661.974	-134.418	-0.078	-0.010
-660.959	103.789	-0.268	-0.320
-659.945	-11.819	0.220	-0.147
-658.930	-13.637	-0.106	-0.070
-657.916	-160.968	0.444	0.024
-656.901	50.697	0.041	-0.039
-655.886	-88.651	-0.259	-0.079
-654.872	-56.010	-0.214	-0.097
-653.857	371.867	-0.228	-0.472
-652.843	203.064	-0.174	-0.274
-651.828	800.000	0.090	-0.276
-650.814	-57.007	-0.322	0.145
-649.799	-37.664	-0.278	-0.151
-648.784	-89.825	-0.191	0.057
-647.770	159.799	0.189	-0.269
-646.755	-74.511	-0.331	-0.122
-645.741	800.000	0.009	-0.038
-644.726	259.458	-0.217	0.382
-643.711	109.257	0.054	0.066
-642.697	-200.000	0.079	-0.435
-641.682	-8.235	0.098	-0.067
-640.668	25.240	-0.113	-0.095
-639.653	730.587	-0.055	0.149
-638.638	162.353	-0.298	-0.426
-637.624	800.000	-0.041	0.155
-636.609	-155.090	0.294	-0.020
-635.595	-200.000	-0.004	-0.186
-634.580	-187.776	-0.319	0.004
-633.565	-200.000	0.017	0.334
-632.551	322.770	-0.127	-0.246
-631.536	75.596	-0.260	-0.279
-630.522	176.986	0.138	-0.205
-629.507	-45.833	-0.094	0.047
-628.492	226.152	-0.046	0.076
-627.478	246.639	-0.088	-0.150
-626.463	-73.505	-0.078	0.029
-625.449	-20.788	-0.166	-0.104
-624.434	-65.639	-0.305	0.125
-623.419	83.573	-0.004	-0.005
-622.405	800.000	0.032	0.137
-621.390	-92.256	0.064	-0.018
-620.376	-87.766	0.084	0.026
-619.361	-49.279	0.200	-0.097
-618.346	-200.000	-0.039	-0.302
-617.332	-200.000	0.045	0.274
-616.317	617.847	-0.123	-0.314
-615.303	224.958	-0.243	-0.400
-614.288	184.944	-0.073	0.110
-613.273	120.117	-0.306	0.386
-612.259	149.625	0.154	0.213
-611.244	-30.907	0.035	-0.020
-610.230	752.983	0.075	0.206
-609.215	416.850	0.066	-0.143
-608.201	-53.340	-0.127	-0.059
-607.186	305.460	-0.104	-0.197
-606.171	-87.756	0.223	-0.068
-605.157	800.000	-0.099	-0.371
-604.142	-128.508	-0.363	-0.052
-603.128	-39.325	0.185	0.099
-602.113	384.465	0.057	-0.118
-601.098	-200.000	0.018	0.232
-600.084	-15.662	-0.017	-0.011
-599.069	276.320	0.014	-0.024
-598.055	-35.651	0.110	-0.061
-597.040	342.085	-0.064	-0.127
-596.025	-165.400	0.101	-0.004
-595.011	-111.381	-0.408	-0.085
-593.996	85.408	-0.205	-0.229
-592.982	-94.891	0.160	0.044
-591.967	-200.000	-0.020	-0.398
-590.952	-4.041	0.487	-0.343
-589.938	289.228	0.105	-0.193
-588.923	-137.702	-0.212	0.024
-587.909	35.867	0.217	0.194
-586.894	72.809	-0.281	-0.298
-585.879	-172.964	0.100	-0.003
-584.865	11.569	-0.351	-0.273
-583.850	-151.001	0.425	0.033
-582.836	-200.000	0.029	-0.259
-581.821	-200.000	0.017	-0.310
-580.806	800.000	-0.053	0.213
-579.792	249.638	0.103	-0.177
-578.777	-200.000	0.061	0.293
-577.763	-104.855	-0.061	0.014
-576.748	238.652	0.082	0.139
-575.733	800.000	0.057	-0.168
-574.719	27.126	-0.280	-0.239
-573.704	-52.328	-0.195	-0.092
-572.690	29.886	-0.070	-0.060
-571.675	-74.854	-0.182	-0.066
-570.661	559.002	-0.101	0.248
-569.646	176.704	-0.167	-0.247
-568.631	44.611	0.077	-0.072
-567.617	41.232	0.240	0.220
-566.602	-141.112	-0.296	0.031
-565.588	88.912	-0.045	-0.050
-564.573	-98.483	0.333	0.086
-563.558	-200.000	-0.007	0.041
-562.544	379.234	-0.169	0.351
-561.529	130.234	-0.068	-0.089
-560.515	-113.879	0.104	0.021
-559.500	122.240	-0.156	0.198
-558.485	800.000	0.012	-0.044
-557.471	-116.976	0.128	0.024
-556.456	-28.968	0.333	0.194
-555.442	183.109	-0.200	0.301
-554.427	28.208	-0.193	0.165
-553.412	-71.587	-0.146	-0.055
-552.398	666.150	0.046	-0.120
-551.383	-94.614	-0.323	-0.089
-550.369	-85.273	-0.198	0.063
-549.354	-122.290	-0.226	0.037
-548.339	180.009	0.092	-0.137
-547.325	157.763	0.248	-0.349
-546.310	-105.437	-0.243	0.056
-545.296	191.605	-0.073	0.111
-544.281	-200.000	0.009	0.179
-543.266	257.456	-0.092	0.161
-542.252	372.876	-0.163	0.336
-541.237	-200.000	0.024	-0.232
-540.223	800.000	-0.047	-0.160
-539.208	417.701	0.071	0.153
-538.193	-71.256	-0.165	-0.063
-537.179	19.125	0.200	-0.163
-536.164	-200.000	0.026	-0.254
-535.150	-101.354	-0.119	0.029
-534.135	-165.305	0.187	0.008
-533.121	-200.000	-0.004	-0.192
-532.106	-200.000	-0.019	-0.242
-531.091	-159.356	-0.211	0.012
-530.077	-160.850	0.094	-0.005
-529.062	92.986	0.172	-0.197
-528.048	198.762	-0.172	-0.267
-527.033	-200.000	-0.026	0.259
-526.018	71.208	0.076	-0.080
-525.004	-92.597	0.338	0.096
-523.989	-104.264	-0.106	0.025
-522.975	800.000	-0.107	0.342
-521.960	800.000	-0.037	-0.141
-520.945	-200.000	-0.054	-0.327
-519.931	397.193	0.080	-0.170
-518.916	-173.886	-0.301	0.009
-517.902	-84.787	-0.157	0.050
-516.887	-2.695	0.201	-0.143
-515.872	167.479	-0.190	0.274
-514.858	800.000	-0.116	0.348
-513.843	-104.350	-0.346	0.081
-512.829	-200.000	0.032	0.158
-511.814	146.736	0.118	0.160
-510.799	-46.560	-0.288	-0.143
-509.785	82.597	0.090	0.099
-508.770	-50.985	0.078	0.037
-507.756	765.181	-0.021	-0.057
-506.741	-20.389	0.135	-0.084
-505.726	90.749	-0.219	-0.249
-504.712	800.000	-0.061	-0.245
-503.697	-85.602	-0.143	0.045
-502.683	166.166	-0.045	0.065
-501.668	134.420	-0.060	-0.079
-500.653	-200.000	-0.004	0.203
-499.639	26.817	0.274	-0.233
-498.624	-200.000	0.049	-0.261
-497.610	-68.900	-0.274	0.107
-496.595	61.976	0.227	0.229
-495.581	-200.000	-0.029	0.184
-494.566	-80.350	-0.313	0.106
-493.551	681.390	-0.049	-0.129
-492.537	-40.314	-0.051	0.027
-491.522	13.115	0.215	-0.169
-490.508	-84.124	-0.145	0.047
-489.493	48.139	0.113	-0.107
-488.478	30.992	0.217	0.189
-487.464	-47.802	-0.088	-0.043
-486.449	189.203	0.078	-0.119
-485.435	15.256	0.321	0.254
-484.420	-200.000	0.026	-0.120
-483.405	-83.181	-0.427	-0.139
-482.391	56.627	0.182	0.179
-481.376	102.830	-0.089	0.106
-480.362	115.139	0.187	0.232
-479.347	-36.179	-0.271	-0.148
-478.332	448.356	-0.038	0.084
-477.318	-101.498	-0.179	0.044
-476.303	800.000	0.144	0.520
-475.289	196.776	0.137	-0.212
-474.274	-69.441	0.076	-0.029
-473.259	33.403	0.125	0.110
-472.245	-16.661	-0.211	-0.135
-471.230	2.172	0.258	-0.189
-470.216	-43.241	-0.312	0.160
-469.201	55.197	0.289	-0.283
-468.186	-41.117	0.466	-0.244
-467.172	-82.690	0.048	0.016
-466.157	20.274	0.276	0.225
-465.143	-200.000	-0.060	0.288
-464.128	343.311	0.149	0.296
-463.113	800.000	0.047	-0.202
-462.099	-109.574	-0.156	-0.033
-461.084	-165.460	0.100	-0.004
-460.070	525.569	-0.078	-0.186
-459.055	-147.654	0.085	-0.007
-458.040	-74.859	0.355	0.129
-457.026	-200.000	-0.021	0.104
-456.011	-94.401	-0.147	0.040
-454.997	-30.148	-0.258	-0.148
-453.982	-35.856	0.289	0.158
-452.968	30.112	0.225	-0.194
-451.953	-200.000	0.002	0.208
-450.938	-171.926	0.280	0.009
-449.924	-164.181	-0.088	0.004
-448.909	254.343	0.094	-0.163
-447.895	9.159	-0.053	-0.041
-446.880	49.908	-0.064	-0.061
-445.865	-200.000	-0.045	-0.300
-444.851	-200.000	-0.013	0.335
-443.836	-111.967	-0.227	-0.046
-442.822	-30.514	0.212	0.121
-441.807	-90.082	-0.058	-0.017
-440.792	284.799	-0.041	0.074
-439.778	-92.662	0.113	0.032
-438.763	-138.914	-0.381	0.042
-437.749	63.136	-0.174	0.176
-436.734	-58.243	-0.112	0.049
-435.719	-141.638	-0.492	0.050
-434.705	800.000	0.046	0.168
-433.690	-35.309	0.147	-0.081
-432.676	215.304	-0.224	-0.359
-431.661	-78.230	0.344	0.120
-430.646	-126.152	0.393	0.060
-429.632	-200.000	0.002	0.458
-428.617	79.732	0.131	0.142
-427.603	800.000	0.103	0.320
-426.588	-11.698	-0.120	0.080
-425.573	-79.001	0.281	0.097
-424.559	-200.000	-0.039	0.403
-423.544	3.344	0.163	0.120
-422.530	-200.000	0.134	0.000
-421.515	198.444	-0.099	-0.153
-420.500	286.865	-0.126	-0.229
-419.486	-200.000	-0.008	-0.204
-418.471	-168.381	0.291	0.011
-417.457	-59.880	0.204	-0.088
-416.442	-45.351	-0.362	-0.181
-415.428	-88.913	0.236	-0.071
-414.413	38.946	0.111	0.100
-413.398	800.000	0.116	0.337
-412.384	-158.702	-0.062	0.004
-411.369	-16.449	0.268	-0.172
-410.355	312.315	0.087	0.165
-409.340	406.247	0.079	0.169
-408.325	-154.100	-0.258	0.018
-407.311	-111.112	0.093	-0.019
-406.296	709.309	0.014	0.037
-405.282	800.000	0.088	-0.266
-404.267	132.620	0.030	0.040
-403.252	13.496	-0.211	-0.165
-402.238	-200.000	-0.013	-0.560
-401.223	99.813	-0.161	0.189
-400.209	129.309	0.069	-0.089
-399.194	364.604	0.076	0.155
-398.179	70.567	-0.221	-0.231
-397.165	-82.977	0.260	-0.085
-396.150	-200.000	0.023	0.144
-395.136	255.350	0.149	-0.258
-394.121	-138.518	-0.133	0.015
-393.106	244.507	-0.089	0.150
-392.092	-122.527	-0.127	-0.021
-391.077	162.979	0.069	0.098
-390.063	-200.000	0.043	0.273
-389.048	-112.754	-0.038	0.008
-388.033	-7.448	-0.141	0.096
-387.019	161.813	0.138	-0.195
-386.004	288.812	-0.134	-0.245
-384.990	-200.000	0.051	-0.266
-383.975	102.158	-0.136	0.161
-382.960	397.639	-0.203	0.427
-381.946	147.133	-0.052	0.070
-380.931	-160.504	0.126	0.007
-379.917	161.031	0.163	0.230
-378.902	368.278	0.023	0.046
-377.888	-19.206	-0.033	0.021
-376.873	-16.894	0.202	0.129
-375.858	86.777	-0.112	-0.124
-374.844	-21.796	-0.223	-0.137
-373.829	-119.246	0.065	0.011
-372.815	-8.539	-0.169	0.115
-371.800	-200.000	-0.001	0.239
-370.785	-21.930	0.095	0.058
-369.771	-129.884	-0.267	0.037
-368.756	215.796	-0.129	-0.207
-367.742	-93.692	0.225	0.063
-366.727	800.000	-0.033	0.118
-365.712	-25.684	0.074	-0.044
-364.698	-8.744	-0.085	0.057
-363.683	-200.000	-0.011	0.164
-362.669	-22.519	-0.369	0.225
-361.654	107.592	0.144	0.173
-360.639	-86.049	-0.311	0.097
-359.625	800.000	-0.014	0.048
-358.610	-155.768	-0.055	0.004
-357.596	-200.000	-0.006	-0.045
-356.581	125.941	0.288	0.366
-355.566	-200.000	0.027	-0.173
-354.552	-167.995	0.168	0.007
-353.537	-111.950	0.109	0.022
-352.523	-86.513	0.049	-0.015
-351.508	81.701	0.161	-0.175
-350.493	106.294	0.100	0.119
-349.479	72.055	-0.161	0.169
-348.464	-7.454	0.043	-0.029
-347.450	-98.296	0.338	-0.087
-346.435	-0.233	-0.404	-0.289
-345.420	1.546	-0.212	0.153
-344.406	-90.389	0.194	0.057
-343.391	800.000	0.035	-0.132
-342.377	800.000	0.022	0.081
-341.362	-4.259	0.210	0.146
-340.348	-19.868	0.235	-0.146
-339.333	-200.000	-0.025	-0.223
-338.318	-114.315	0.204	0.040
-337.304	369.167	-0.075	0.152
-336.289	53.022	0.066	0.063
-335.275	-51.814	-0.216	-0.101
-334.260	-13.574	0.084	-0.055
-333.245	-200.000	-0.011	-0.078
-332.231	-6.116	-0.312	-0.215
-331.216	-37.775	0.136	-0.073
-330.202	14.098	-0.136	-0.107
-329.187	-77.526	0.441	0.154
-328.172	475.722	0.053	-0.120
-327.158	388.065	0.189	-0.394
-326.143	-200.000	0.024	-0.145
-325.129	188.584	0.056	-0.084
-324.114	-200.000	0.001	-0.164
-323.099	-23.723	-0.118	0.071
-322.085	232.423	0.053	-0.088
-321.070	800.000	0.116	-0.351
-320.056	-200.000	0.034	0.233
-319.041	-79.654	0.230	0.078
-318.026	786.628	0.042	-0.117
-317.012	366.796	0.179	0.363
-315.997	-161.518	-0.117	0.006
-314.983	153.686	0.072	-0.100
-313.968	432.148	0.067	-0.146
-312.953	63.551	-0.007	0.007
-311.939	800.000	-0.136	0.401
-310.924	800.000	0.016	-0.061
-309.910	12.223	-0.177	-0.137
-308.895	53.865	-0.052	-0.051
-307.880	-71.609	-0.381	0.143
-306.866	-6.677	-0.053	0.037
-305.851	0.140	-0.213	-0.152
-304.837	800.000	0.033	0.118
-303.822	159.220	0.122	0.170
-302.807	11.594	0.310	0.239
-301.793	-0.964	0.126	0.090
-300.778	-24.392	-0.235	0.141
-299.764	326.317	-0.220	0.423
-298.749	-200.000	0.041	0.272
-297.735	25.911	0.210	0.176
-296.720	78.377	0.180	0.193
-295.705	-92.756	0.264	0.074
-294.691	-52.159	-0.104	0.049
-293.676	327.217	0.023	-0.045
-292.662	-89.356	0.124	0.037
-291.647	-26.599	0.093	-0.055
-290.632	679.966	0.091	-0.238
-289.618	81.194	-0.114	-0.123
-288.603	5.616	-0.105	0.078
-287.589	-51.770	-0.085	0.040
-286.574	-12.419	-0.282	0.185
-285.559	195.866	-0.080	0.122
-284.545	24.592	-0.203	0.169
-283.530	-20.497	-0.319	-0.197
-282.516	-42.862	-0.359	0.183
-281.501	-200.000	0.035	-0.181
-280.486	60.616	-0.200	0.199
-279.472	699.377	-0.088	-0.232
-278.457	-135.657	0.463	-0.055
-277.443	-150.340	-0.245	0.019
-276.428	65.334	-0.123	-0.124
-275.413	-44.460	-0.194	-0.098
-274.399	-171.456	0.027	0.001
-273.384	556.402	-0.054	-0.130
-272.370	619.027	0.128	0.323
-271.355	-9.814	0.201	-0.134
-270.340	34.844	0.104	0.091
-269.326	84.487	0.185	0.203
-268.311	-58.622	-0.234	-0.102
-267.297	150.180	0.061	0.082
-266.282	-200.000	-0.031	-0.140
-265.267	256.864	0.137	0.236
-264.253	114.801	0.051	-0.063
-263.238	-40.903	0.188	-0.098
-262.224	-88.824	0.254	-0.076
-261.209	-200.000	-0.006	-0.344
-260.195	-188.034	-0.377	-0.005
-259.180	190.165	0.116	0.175
-258.165	4.244	-0.462	-0.340
-257.151	284.937	-0.127	-0.229
-256.136	71.997	0.076	-0.079
-255.122	29.561	0.254	0.217
-254.107	73.694	0.072	0.076
-253.092	191.423	-0.174	-0.263
-252.078	800.000	0.025	-0.109
-251.063	-65.687	0.471	0.189
-250.049	800.000	0.051	-0.186
-249.034	800.000	0.067	0.213
-248.019	-116.447	0.210	-0.039
-247.005	-78.571	0.167	-0.057
-245.990	68.479	0.198	0.204
-244.976	-24.243	0.071	-0.043
-243.961	-200.000	-0.034	-0.247
-242.946	86.471	-0.080	-0.089
-241.932	-21.980	-0.334	0.204
-240.917	-150.685	-0.287	0.022
-239.903	2.961	-0.106	-0.078
-238.888	92.141	0.239	0.270
-237.873	-20.247	0.317	0.196
-236.859	642.929	-0.105	-0.268
-235.844	-200.000	0.002	-0.081
-234.830	-85.146	-0.174	-0.055
-233.815	-94.481	0.202	-0.055
-232.800	800.000	0.062	0.212
-231.786	800.000	-0.142	0.514
-230.771	766.838	-0.062	-0.169
-229.757	-200.000	0.058	-0.337
-228.742	-72.700	0.134	0.050
-227.727	178.751	0.144	0.211
-226.713	438.601	0.068	0.149
-225.698	-27.393	0.206	0.120
-224.684	48.239	-0.171	-0.160
-223.669	-65.777	0.452	0.181
-222.655	-76.411	0.033	-0.012
-221.640	-152.250	0.295	0.021
-220.625	-200.000	-0.029	0.132
-219.611	31.937	0.249	0.215
-218.596	-131.896	-0.207	0.027
-217.582	800.000	-0.009	-0.035
-216.567	-124.388	0.333	-0.052
-215.552	-66.523	-0.132	0.053
-214.538	800.000	0.097	-0.280
-213.523	-200.000	0.014	-0.342
-212.509	800.000	0.056	0.218
-211.494	-103.020	-0.275	-0.065
-210.479	39.244	-0.052	0.047
-209.465	417.492	-0.093	-0.199
-208.450	25.660	0.197	0.164
-207.436	-91.551	0.012	0.003
-206.421	60.244	-0.075	-0.075
-205.406	800.000	-0.014	-0.056
-204.392	336.858	-0.123	0.240
-203.377	-46.173	0.124	0.061
-202.363	-200.000	0.033	-0.191
-201.348	343.945	0.063	-0.124
-200.333	-143.139	0.477	-0.046
-199.319	291.810	0.021	-0.038
-198.304	30.027	-0.166	0.141
-197.290	4.723	0.133	0.098
-196.275	-200.000	0.004	-0.020
-195.260	105.167	0.018	-0.022
-194.246	-32.027	-0.296	-0.166
-193.231	339.499	-0.181	0.352
-192.217	738.851	0.078	0.211
-191.202	762.495	0.170	0.461
-190.187	-200.000	-0.001	0.034
-189.173	-0.709	0.289	-0.205
-188.158	800.000	0.030	-0.120
-187.144	98.747	-0.288	-0.332
-186.129	222.452	0.177	-0.285
-185.114	-121.699	-0.134	-0.022
-184.100	-24.235	-0.104	-0.062
-183.085	80.378	0.180	0.194
-182.071	-33.430	0.071	-0.039
-181.056	-200.000	0.074	0.330
-180.042	800.000	0.032	-0.120
-179.027	-79.531	0.132	-0.044
-178.012	-63.584	0.208	-0.085
-176.998	336.597	-0.064	-0.124
-175.983	800.000	0.084	-0.323
-174.969	800.000	0.057	0.166
-173.954	631.256	0.044	-0.111
-172.939	-106.719	0.308	-0.068
-171.925	88.174	-0.095	-0.105
-170.910	105.699	-0.033	-0.039
-169.896	26.565	-0.140	0.117
-168.881	249.337	-0.203	0.344
-167.866	-83.258	-0.281	0.090
-166.852	-200.000	0.012	0.099
-165.837	244.717	-0.134	0.225
-164.823	-54.444	0.430	0.195
-163.808	0.561	0.083	0.060
-162.793	142.521	-0.111	-0.147
-161.779	-179.446	-0.164	-0.004
-160.764	-156.505	-0.236	-0.015
-159.750	-40.079	0.249	0.129
-158.735	67.575	0.280	-0.286
-157.720	-88.393	-0.374	0.112
-156.706	-21.539	0.126	-0.077
-155.691	800.000	-0.052	-0.171
-154.677	183.783	0.011	0.017
-153.662	127.506	0.122	0.155
-152.647	-200.000	-0.010	-0.099
-151.633	800.000	-0.021	0.084
-150.618	-7.929	0.132	0.089
-149.604	63.018	-0.054	-0.054
-148.589	-108.505	0.388	-0.083
-147.574	800.000	0.063	0.205
-146.560	298.484	-0.166	-0.305
-145.545	195.444	-0.106	0.161
-144.531	1.741	0.084	-0.061
-143.516	242.041	-0.162	-0.270
-142.502	-92.149	-0.170	0.048
-141.487	443.288	0.054	-0.119
-140.472	36.749	0.304	-0.268
-139.458	57.447	-0.027	0.026
-138.443	-48.077	0.123	-0.059
-137.429	125.037	-0.196	-0.247
-136.414	-35.660	-0.237	-0.128
-135.399	-74.215	-0.180	-0.065
-134.385	133.204	-0.083	0.108
-133.370	-133.797	0.266	-0.033
-132.356	-75.297	-0.038	0.014
-131.341	-34.251	-0.296	0.162
-130.326	-200.000	-0.017	-0.154
-129.312	278.569	-0.066	0.118
-128.297	460.560	0.195	0.433
-127.283	-80.756	0.128	-0.042
-126.268	193.352	-0.092	-0.138
-125.253	-35.742	0.374	-0.202
-124.239	308.688	-0.076	0.141
-123.224	15.027	-0.133	0.104
-122.210	56.730	0.195	0.189
-121.195	-123.944	-0.308	0.048
-120.180	-146.028	0.634	-0.056
-119.166	74.492	-0.214	-0.225
