DTS Sentinel unit serial number:	SN413079Multiplexer serial number:	ORYXHardware model number:	OX4-SRSoftware version number:	ORYX F/W v4.00 Oryx Data Collector v3.7.2.0data status	okinstallation	princeton_trtdifferential loss correction	single-endedforward channel	channel 3reverse channel	N/Adate	2019/09/17time	02:52:35forward acquisition time	60.00reverse acquisition time	0.00gamma	496.2192k internal	0.2323k external	0.2323temperature offset calibration	0.9942default loss term (dB/km)	0.3790temperature slope calibration	1.0000multiplexer offset coefficient	1.0000multiplexer slope coefficient	1.0000fibre end	0.00T internal ref (°C)	29.89T ext. ref 1 (°C)	0.14T ext. ref 2 (°C)	24.88length (m)	temperature (°C)	Stokes	anti-Stokes-747.200	208.866	0.109	0.173
-746.185	326.345	-0.177	0.343
-745.171	-4.677	-0.356	0.248
-744.156	-47.651	0.227	0.111
-743.142	147.933	0.232	-0.317
-742.127	800.000	0.046	0.189
-741.112	-183.558	0.328	0.006
-740.098	37.248	-0.160	-0.143
-739.083	-200.000	-0.012	-0.197
-738.069	-200.000	-0.045	0.361
-737.054	493.986	-0.021	0.049
-736.039	-94.546	-0.327	0.090
-735.025	-136.506	0.196	0.023
-734.010	-63.116	-0.165	-0.069
-732.996	-55.356	-0.272	0.123
-731.981	699.414	0.035	-0.093
-730.966	-10.236	-0.045	0.030
-729.952	785.824	-0.037	0.103
-728.937	362.616	0.045	-0.091
-727.923	16.211	-0.263	0.209
-726.908	800.000	0.095	-0.398
-725.894	-15.906	0.134	-0.086
-724.879	194.583	-0.122	0.187
-723.864	522.276	-0.068	-0.160
-722.850	-1.698	0.118	-0.084
-721.835	-115.251	0.326	-0.062
-720.821	66.454	-0.074	0.076
-719.806	-33.235	-0.240	0.134
-718.791	-17.794	-0.071	-0.045
-717.777	109.140	0.150	-0.181
-716.762	39.350	-0.068	-0.061
-715.748	-97.681	-0.095	-0.025
-714.733	-200.000	-0.012	-0.101
-713.718	139.122	0.168	0.223
-712.704	115.367	0.194	0.239
-711.689	-200.000	-0.033	0.184
-710.675	7.650	0.248	-0.187
-709.660	-89.920	-0.657	-0.194
-708.645	236.172	0.045	-0.075
-707.631	155.919	0.096	-0.133
-706.616	-200.000	0.000	-0.105
-705.602	220.950	-0.283	-0.458
-704.587	-71.570	-0.322	0.121
-703.572	1.751	0.206	0.150
-702.558	800.000	-0.050	-0.143
-701.543	95.385	0.169	-0.194
-700.529	145.994	-0.098	0.132
-699.514	-46.459	0.223	-0.110
-698.499	110.641	0.284	0.344
-697.485	41.364	-0.033	0.030
-696.470	800.000	-0.074	-0.230
-695.456	103.997	0.154	0.182
-694.441	120.163	-0.220	-0.275
-693.426	-200.000	-0.013	0.077
-692.412	73.254	0.208	0.220
-691.397	163.037	0.256	-0.362
-690.383	-31.375	0.395	-0.224
-689.368	184.945	-0.076	-0.113
-688.354	-64.231	-0.181	0.074
-687.339	-4.488	0.247	0.172
-686.324	-53.552	-0.415	-0.191
-685.310	507.857	0.054	0.127
-684.295	62.228	0.171	0.172
-683.281	-108.218	-0.225	0.049
-682.266	-200.000	0.057	0.331
-681.251	122.102	0.083	0.104
-680.237	392.025	-0.078	0.162
-679.222	800.000	0.111	0.336
-678.208	-200.000	-0.050	-0.275
-677.193	158.291	0.170	0.238
-676.178	800.000	-0.021	0.081
-675.164	-101.401	0.339	0.083
-674.149	235.979	0.023	-0.038
-673.135	-192.757	-0.161	-0.001
-672.120	322.380	0.042	-0.080
-671.105	-200.000	-0.062	0.345
-670.091	326.724	0.103	0.199
-669.076	-71.435	-0.201	0.076
-668.062	-61.753	-0.220	-0.093
-667.047	-200.000	-0.003	0.122
-666.032	-200.000	0.043	-0.267
-665.018	-88.108	0.041	-0.012
-664.003	-133.127	-0.084	0.011
-662.989	251.246	0.178	0.304
-661.974	11.999	-0.296	0.229
-660.959	562.247	-0.024	0.058
-659.945	381.281	-0.078	-0.161
-658.930	-8.623	-0.359	-0.243
-657.916	-200.000	-0.020	-0.186
-656.901	620.356	-0.053	0.134
-655.886	242.889	-0.091	0.154
-654.872	-26.365	0.055	0.033
-653.857	-70.527	-0.195	-0.074
-652.843	598.928	0.103	-0.258
-651.828	800.000	0.083	-0.286
-650.814	79.496	0.123	-0.132
-649.799	-78.445	-0.353	0.122
-648.784	-166.127	-0.191	-0.008
-647.770	-106.814	-0.160	-0.036
-646.755	800.000	-0.069	-0.240
-645.741	-20.495	-0.257	-0.159
-644.726	-200.000	0.010	-0.311
-643.711	171.698	0.243	-0.351
-642.697	800.000	0.069	0.195
-641.682	800.000	0.133	-0.383
-640.668	227.465	-0.307	0.503
-639.653	-137.676	0.336	0.038
-638.638	-32.537	-0.284	0.159
-637.624	-200.000	-0.025	0.249
-636.609	-200.000	-0.004	-0.126
-635.595	-61.678	-0.087	-0.037
-634.580	-144.383	-0.235	0.022
-633.565	-200.000	0.018	-0.156
-632.551	-69.325	-0.048	-0.019
-631.536	-200.000	0.036	0.301
-630.522	-18.399	-0.052	0.033
-629.507	189.407	0.193	-0.291
-628.492	800.000	0.063	0.263
-627.478	0.519	0.051	0.037
-626.463	-191.282	0.346	0.004
-625.449	69.135	0.014	-0.015
-624.434	-63.310	-0.145	0.060
-623.419	-116.938	0.254	0.047
-622.405	-83.967	0.131	-0.042
-621.390	-185.500	0.141	0.002
-620.376	-167.904	-0.124	-0.005
-619.361	215.823	-0.208	-0.333
-618.346	24.460	-0.147	-0.122
-617.332	280.866	-0.104	0.186
-616.317	-87.089	0.240	0.073
-615.303	38.679	-0.210	0.188
-614.288	48.181	0.183	0.172
-613.273	-74.675	-0.127	0.046
-612.259	-170.226	-0.309	-0.011
-611.244	-190.515	0.144	0.002
-610.230	800.000	-0.064	-0.199
-609.215	12.567	-0.178	0.138
-608.201	-47.036	-0.052	-0.026
-607.186	800.000	-0.054	-0.167
-606.171	-200.000	0.040	-0.187
-605.157	-200.000	0.031	-0.207
-604.142	18.126	-0.154	-0.124
-603.128	-128.873	-0.135	-0.019
-602.113	-164.051	0.360	0.017
-601.098	-95.553	-0.035	-0.009
-600.084	-200.000	0.005	0.123
-599.069	-88.138	-0.033	-0.010
-598.055	-95.496	-0.430	0.116
-597.040	-102.064	-0.402	0.097
-596.025	-130.638	0.521	-0.070
-595.011	270.874	-0.087	-0.153
-593.996	-200.000	0.120	-0.565
-592.982	630.921	-0.180	-0.458
-591.967	800.000	0.030	-0.089
-590.952	42.276	0.252	-0.229
-589.938	-107.383	-0.299	-0.066
-588.923	-77.958	-0.350	0.121
-587.909	800.000	0.011	-0.038
-586.894	12.203	-0.095	0.074
-585.879	634.110	0.036	-0.091
-584.865	730.675	-0.096	-0.257
-583.850	-116.534	-0.075	-0.014
-582.836	-69.180	-0.181	-0.070
-581.821	-200.000	0.029	0.142
-580.806	-82.705	0.207	-0.067
-579.792	353.421	-0.046	0.091
-578.777	51.699	0.146	-0.139
-577.763	-60.318	0.117	0.050
-576.748	-200.000	0.038	-0.175
-575.733	-200.000	0.011	0.240
-574.719	-200.000	0.034	0.252
-573.704	17.863	-0.209	0.167
-572.690	384.004	-0.045	-0.092
-571.675	-25.426	-0.206	-0.122
-570.661	86.321	0.172	-0.190
-569.646	-200.000	-0.041	0.198
-568.631	223.192	-0.007	0.012
-567.617	294.753	0.036	-0.066
-566.602	38.892	-0.222	-0.198
-565.588	-26.547	-0.277	0.163
-564.573	-86.861	0.103	0.032
-563.558	70.948	0.220	0.228
-562.544	34.948	0.120	-0.105
-561.529	-200.000	0.010	0.488
-560.515	-108.144	0.116	0.025
-559.500	-71.085	-0.070	0.027
-558.485	129.067	-0.190	0.244
-557.471	36.463	-0.097	0.086
-556.456	-200.000	0.049	0.216
-555.442	-56.005	-0.127	0.057
-554.427	290.938	-0.054	0.099
-553.412	51.312	0.142	0.135
-552.398	-200.000	-0.047	0.242
-551.383	-92.910	0.297	-0.083
-550.369	-200.000	-0.024	0.150
-549.354	-101.183	0.272	0.067
-548.339	-75.903	0.134	0.048
-547.325	-125.161	0.317	0.049
-546.310	329.410	0.086	-0.165
-545.296	263.206	0.060	-0.104
-544.281	-139.043	-0.318	-0.034
-543.266	800.000	0.033	0.115
-542.252	-200.000	-0.056	-0.440
-541.237	35.292	-0.135	-0.119
-540.223	-96.222	0.117	0.031
-539.208	1.204	0.355	-0.255
-538.193	182.552	0.022	-0.033
-537.179	593.515	-0.165	0.408
-536.164	181.410	0.030	-0.044
-535.150	790.355	-0.088	-0.242
-534.135	-72.600	0.146	-0.054
-533.121	800.000	0.093	-0.332
-532.106	316.969	-0.011	-0.021
-531.091	-200.000	0.024	0.446
-530.077	-22.004	-0.172	0.105
-529.062	-200.000	-0.028	0.214
-528.048	15.140	-0.263	0.206
-527.033	-200.000	0.045	-0.409
-526.018	-200.000	-0.002	0.153
-525.004	686.516	0.087	0.228
-523.989	-103.269	0.205	-0.049
-522.975	800.000	0.018	-0.066
-521.960	158.005	-0.245	0.340
-520.945	15.256	0.151	-0.119
-519.931	-11.883	0.074	-0.048
-518.916	92.501	0.142	-0.160
-517.902	800.000	0.068	-0.205
-516.887	55.399	-0.051	-0.049
-515.872	-200.000	0.022	-0.172
-514.858	373.556	-0.141	0.287
-513.843	800.000	0.165	0.485
-512.829	-79.425	0.217	-0.073
-511.814	55.296	-0.201	0.194
-510.799	553.562	0.170	-0.409
-509.785	73.914	0.213	-0.223
-508.770	108.643	0.099	-0.118
-507.756	144.739	-0.199	-0.267
-506.741	-200.000	0.014	0.200
-505.726	54.004	-0.239	-0.230
-504.712	252.242	-0.208	0.354
-503.697	-35.201	0.068	0.037
-502.683	800.000	-0.072	-0.232
-501.668	108.661	0.041	0.048
-500.653	136.644	0.103	0.135
-499.639	280.450	0.080	-0.143
-498.624	800.000	-0.064	0.252
-497.610	-200.000	-0.016	-0.095
-496.595	800.000	0.034	-0.137
-495.581	485.946	0.126	0.287
-494.566	234.431	0.066	-0.110
-493.551	-200.000	0.007	0.180
-492.537	-96.803	0.037	0.010
-491.522	74.565	0.087	-0.091
-490.508	-34.881	0.217	-0.119
-489.493	347.086	-0.119	0.234
-488.478	-21.282	-0.276	0.168
-487.464	91.542	-0.044	0.049
-486.449	2.955	-0.267	-0.194
-485.435	159.388	0.136	-0.189
-484.420	-42.283	-0.023	-0.012
-483.405	105.552	0.097	-0.114
-482.391	234.870	0.083	-0.137
-481.376	133.572	-0.215	-0.278
-480.362	800.000	0.061	-0.227
-479.347	-39.726	0.182	-0.095
-478.332	23.781	-0.246	-0.203
-477.318	124.237	-0.342	-0.429
-476.303	196.540	-0.130	0.198
-475.289	-31.830	0.129	0.072
-474.274	127.092	-0.098	0.124
-473.259	800.000	-0.071	0.257
-472.245	359.165	0.157	-0.313
-471.230	102.299	0.080	-0.093
-470.216	800.000	0.019	-0.069
-469.201	800.000	0.012	0.047
-468.186	-200.000	-0.030	-0.265
-467.172	-127.983	0.404	0.058
-466.157	109.743	0.077	0.092
-465.143	-108.763	0.354	-0.076
-464.128	-127.812	-0.445	-0.064
-463.113	-20.272	0.266	-0.163
-462.099	110.497	-0.093	0.112
-461.084	-200.000	-0.037	0.312
-460.070	534.889	-0.057	0.136
-459.055	-64.362	0.079	-0.032
-458.040	-200.000	0.008	-0.110
-457.026	15.256	-0.306	0.240
-456.011	-142.160	0.180	0.018
-454.997	-118.041	-0.309	0.055
-453.982	19.891	0.204	-0.164
-452.968	-156.881	0.294	0.018
-451.953	-200.000	-0.084	0.563
-450.938	-200.000	-0.023	0.263
-449.924	-138.286	0.200	0.022
-448.909	-98.747	0.217	0.055
-447.895	-200.000	0.002	0.281
-446.880	-111.404	0.411	0.084
-445.865	4.748	-0.102	-0.075
-444.851	35.810	0.185	-0.163
-443.836	800.000	-0.090	0.285
-442.822	92.409	-0.046	0.052
-441.807	493.838	-0.042	0.095
-440.792	158.284	0.219	-0.303
-439.778	145.031	-0.183	0.244
-438.763	-144.393	-0.234	0.022
-437.749	-200.000	-0.031	0.175
-436.734	-66.322	0.146	0.058
-435.719	333.645	0.113	-0.219
-434.705	-131.407	0.114	-0.015
-433.690	407.499	0.103	-0.217
-432.676	800.000	0.037	0.149
-431.661	800.000	-0.036	0.129
-430.646	4.251	-0.151	-0.110
-429.632	-94.976	-0.173	-0.047
-428.617	800.000	-0.073	0.283
-427.603	-109.847	-0.200	-0.042
-426.588	273.820	0.116	0.204
-425.573	-8.225	-0.157	-0.105
-424.559	-200.000	-0.012	-0.293
-423.544	290.262	-0.099	0.179
-422.530	-73.758	0.175	-0.063
-421.515	800.000	0.078	-0.273
-420.500	-145.655	-0.262	0.023
-419.486	-94.853	0.089	-0.024
-418.471	800.000	-0.045	-0.128
-417.457	24.833	-0.271	-0.224
-416.442	255.878	0.114	-0.195
-415.428	800.000	0.051	-0.150
-414.413	-200.000	0.198	-0.001
-413.398	-118.622	0.256	0.045
-412.384	81.750	-0.119	0.129
-411.369	211.492	0.124	0.194
-410.355	-36.926	0.266	0.142
-409.340	63.074	0.119	0.119
-408.325	184.696	-0.101	-0.149
-407.311	707.098	-0.103	0.272
-406.296	92.376	-0.255	0.287
-405.282	-143.333	-0.192	0.018
-404.267	-200.000	-0.026	0.275
-403.252	385.542	-0.076	-0.155
-402.238	136.984	0.023	0.030
-401.223	-200.000	0.002	-0.081
-400.209	59.640	-0.160	-0.157
-399.194	5.150	0.239	0.176
-398.179	-200.000	0.043	-0.310
-397.165	3.737	-0.084	0.061
-396.150	69.306	0.191	-0.196
-395.136	653.881	-0.125	-0.319
-394.121	800.000	-0.056	-0.175
-393.106	-65.426	0.228	0.091
-392.092	703.049	0.089	0.234
-391.077	309.859	-0.074	-0.139
-390.063	800.000	-0.001	0.002
-389.048	42.559	-0.231	0.209
-388.033	-93.599	-0.317	0.087
-387.019	-96.889	-0.233	-0.061
-386.004	-83.495	0.102	-0.032
-384.990	203.215	-0.240	0.369
-383.975	-73.719	-0.169	-0.061
-382.960	375.816	0.055	-0.112
-381.946	-200.000	-0.028	-0.143
-380.931	225.371	0.162	-0.261
-379.917	110.361	-0.132	-0.158
-378.902	83.409	0.119	-0.129
-377.888	-81.812	0.294	0.096
-376.873	118.771	-0.187	-0.230
-375.858	-87.315	0.165	0.050
-374.844	154.658	0.160	-0.219
-373.829	-78.572	-0.149	-0.051
-372.815	-3.280	0.251	-0.174
-371.800	-138.052	-0.224	-0.025
-370.785	-28.675	0.109	0.063
-369.771	-89.692	0.324	0.094
-368.756	-17.831	-0.289	0.180
-367.742	28.020	0.269	-0.225
-366.727	59.579	0.138	-0.135
-365.712	-200.000	-0.004	-0.074
-364.698	61.148	-0.086	0.085
-363.683	503.132	-0.071	0.164
-362.669	-50.697	0.165	-0.077
-361.654	-10.988	0.040	-0.026
-360.639	-118.813	-0.198	0.035
-359.625	264.273	0.080	-0.138
-358.610	61.562	0.252	0.249
-357.596	-21.916	0.117	0.071
-356.581	-111.381	-0.260	0.053
-355.566	800.000	-0.070	0.248
-354.552	90.029	0.236	0.262
-353.537	28.262	-0.372	0.313
-352.523	-68.140	0.287	-0.111
-351.508	-107.204	-0.234	-0.051
-350.493	-38.611	-0.270	-0.142
-349.479	-88.397	-0.308	-0.092
-348.464	147.493	-0.121	0.162
-347.450	28.128	-0.202	-0.170
-346.435	-137.852	-0.204	0.023
-345.420	-200.000	-0.026	0.391
-344.406	800.000	-0.058	-0.207
-343.391	-96.829	0.275	0.072
-342.377	21.471	-0.105	-0.085
-341.362	272.534	-0.226	-0.396
-340.348	-120.751	0.261	-0.044
-339.333	110.705	0.105	-0.126
-338.318	270.445	0.128	0.224
-337.304	-145.137	-0.226	-0.020
-336.289	219.923	0.138	-0.220
-335.275	73.061	0.070	-0.072
-334.260	-200.000	0.014	-0.371
-333.245	-200.000	-0.027	-0.126
-332.231	5.263	-0.245	-0.179
-331.216	48.789	0.131	-0.122
-330.202	37.003	0.178	-0.157
-329.187	480.181	-0.162	0.365
-328.172	707.398	-0.059	0.156
-327.158	-148.092	0.257	-0.021
-326.143	233.150	-0.180	-0.295
-325.129	11.891	0.205	0.156
-324.114	323.688	0.107	0.203
-323.099	-200.000	-0.009	-0.255
-322.085	-110.515	0.163	0.034
-321.070	800.000	0.040	-0.158
-320.056	97.429	0.070	-0.080
-319.041	170.528	0.160	-0.228
-318.026	36.779	-0.170	0.149
-317.012	619.118	-0.068	-0.169
-315.997	510.372	0.072	0.166
-314.983	-122.180	0.429	0.070
-313.968	-200.000	-0.088	-0.386
-312.953	-200.000	-0.019	0.291
-311.939	-25.451	0.356	-0.209
-310.924	-125.835	0.349	0.052
-309.910	-200.000	0.031	0.239
-308.895	247.378	-0.098	0.164
-307.880	-69.274	-0.155	0.059
-306.866	-31.971	-0.216	-0.120
-305.851	64.120	-0.113	0.112
-304.837	44.109	0.329	0.299
-303.822	212.508	-0.095	-0.149
-302.807	800.000	-0.111	0.343
-301.793	800.000	-0.054	-0.147
-300.778	19.820	0.340	0.272
-299.764	148.770	0.114	-0.152
-298.749	-87.115	0.195	-0.059
-297.735	-41.459	-0.180	0.092
-296.720	195.224	-0.065	-0.099
-295.705	-165.467	0.089	-0.004
-294.691	-200.000	0.053	-0.282
-293.676	132.331	0.090	-0.115
-292.662	-24.848	-0.320	0.188
-291.647	17.656	-0.207	0.164
-290.632	-200.000	-0.013	0.331
-289.618	738.126	-0.078	-0.208
-288.603	64.300	0.117	-0.117
-287.589	71.807	-0.279	0.287
-286.574	-200.000	-0.006	0.236
-285.559	-175.832	0.235	0.006
-284.545	-105.016	0.329	0.075
-283.530	-200.000	0.010	-0.063
-282.516	800.000	-0.088	-0.333
-281.501	-37.912	-0.181	-0.095
-280.486	-200.000	0.004	0.238
-279.472	150.760	0.108	0.145
-278.457	-98.909	0.154	0.039
-277.443	-76.827	-0.294	0.102
-276.428	-96.106	0.323	-0.085
-275.413	-179.154	0.100	0.002
-274.399	-69.874	-0.072	0.027
-273.384	44.138	0.104	0.094
-272.370	-200.000	-0.026	-0.286
-271.355	-70.435	-0.094	0.035
-270.340	800.000	0.064	0.203
-269.326	-200.000	0.008	0.143
-268.311	-121.791	0.034	0.006
-267.297	116.851	0.048	-0.059
-266.282	-48.217	0.234	0.112
-265.267	-41.153	0.088	0.045
-264.253	228.702	-0.061	0.098
-263.238	186.068	0.088	-0.129
-262.224	-200.000	-0.014	-0.171
-261.209	-34.273	0.303	0.165
-260.195	800.000	-0.074	0.232
-259.180	800.000	0.116	-0.399
-258.165	325.185	0.069	0.130
-257.151	800.000	0.101	0.341
-256.136	-122.009	-0.400	0.065
-255.122	-7.270	-0.135	-0.091
-254.107	-200.000	0.027	-0.272
-253.092	-200.000	0.040	-0.247
-252.078	564.542	-0.088	0.211
-251.063	-15.401	0.151	-0.096
-250.049	-200.000	0.033	-0.249
-249.034	-169.303	-0.138	0.005
-248.019	-200.000	-0.073	0.319
-247.005	-17.516	0.106	0.066
-245.990	-129.045	-0.244	0.034
-244.976	-9.874	-0.166	-0.109
-243.961	-200.000	-0.024	-0.237
-242.946	-200.000	0.002	-0.064
-241.932	141.648	-0.075	0.098
-240.917	800.000	-0.035	-0.119
-239.903	-97.192	-0.079	0.020
-238.888	143.492	0.148	-0.195
-237.873	16.261	-0.079	0.062
-236.859	398.519	0.097	0.201
-235.844	-186.786	0.647	0.009
-234.830	-200.000	0.015	0.095
-233.815	6.799	-0.353	0.260
-232.800	-200.000	0.021	0.229
-231.786	349.784	0.117	-0.229
-230.771	-200.000	0.003	-0.136
-229.757	800.000	-0.031	-0.102
-228.742	-148.587	0.007	0.001
-227.727	773.397	-0.052	0.140
-226.713	800.000	-0.072	-0.251
-225.698	-200.000	0.095	0.449
-224.684	164.869	-0.114	-0.159
-223.669	135.057	-0.254	0.326
-222.655	-15.987	0.198	0.125
-221.640	-71.417	0.109	0.041
-220.625	-86.333	-0.142	0.043
-219.611	324.945	-0.089	0.168
-218.596	800.000	0.071	0.250
-217.582	125.641	-0.136	-0.169
-216.567	-35.280	0.023	-0.012
-215.552	-69.869	-0.368	-0.139
-214.538	-200.000	-0.012	-0.167
-213.523	660.581	0.197	0.503
-212.509	-119.418	-0.327	-0.056
-211.494	-200.000	0.035	-0.208
-210.479	-137.062	-0.270	0.031
-209.465	216.002	-0.244	-0.384
-208.450	-200.000	0.028	0.387
-207.436	-80.257	0.174	-0.058
-206.421	117.907	-0.044	0.054
-205.406	800.000	0.069	-0.255
-204.392	-38.498	-0.357	0.187
-203.377	-200.000	0.017	-0.199
-202.363	377.425	0.147	-0.297
-201.348	-92.518	-0.381	0.106
-200.333	18.140	0.348	0.275
-199.319	3.397	-0.280	0.202
-198.304	-11.845	-0.127	0.083
-197.290	448.123	0.079	0.172
-196.275	-0.167	-0.091	-0.064
-195.260	12.650	0.148	0.113
-194.246	-200.000	0.029	0.233
-193.231	-100.375	0.190	-0.047
-192.217	196.500	0.082	0.124
-191.202	375.440	-0.038	-0.077
-190.187	22.280	0.324	0.262
-189.173	187.319	-0.155	0.229
-188.158	-200.000	0.018	-0.167
-187.144	-200.000	-0.042	-0.200
-186.129	536.699	0.170	-0.398
-185.114	7.033	0.200	-0.148
-184.100	156.746	0.092	-0.126
-183.085	-127.620	-0.507	-0.073
-182.071	800.000	0.029	-0.110
-181.056	43.332	0.079	0.071
-180.042	-34.642	0.292	0.158
-179.027	-46.595	0.214	0.103
-178.012	240.728	-0.106	0.175
-176.998	57.157	-0.184	0.178
-175.983	9.075	-0.250	-0.186
-174.969	349.324	-0.188	0.366
-173.954	-200.000	0.024	-0.151
-172.939	-102.270	0.134	-0.032
-171.925	-14.245	-0.052	-0.033
-170.910	-122.759	0.220	0.035
-169.896	7.379	0.112	-0.083
-168.881	61.064	0.103	0.101
-167.866	-4.697	0.277	0.188
-166.852	-69.886	-0.320	-0.121
-165.837	-200.000	-0.036	0.241
-164.823	-67.908	0.179	-0.069
-163.808	-0.939	0.053	0.037
-162.793	153.297	0.076	-0.103
-161.779	-151.336	0.308	0.023
-160.764	142.066	-0.135	-0.177
-159.750	-200.000	0.017	0.160
-158.735	-200.000	0.013	0.165
-157.720	-179.381	0.470	0.010
-156.706	176.424	-0.125	-0.179
-155.691	-9.249	0.116	-0.077
-154.677	500.596	0.078	0.177
-153.662	-102.848	-0.167	0.039
-152.647	389.818	-0.162	-0.331
-151.633	42.887	-0.454	-0.408
-150.618	800.000	-0.106	-0.317
-149.604	565.366	-0.099	-0.237
-148.589	-200.000	-0.038	0.170
-147.574	-200.000	-0.058	0.450
-146.560	-24.378	0.423	0.249
-145.545	101.086	-0.070	-0.081
-144.531	-50.648	0.486	-0.226
-143.516	-171.969	-0.268	0.009
-142.502	58.101	-0.050	-0.048
-141.487	-29.464	0.249	0.141
-140.472	63.310	0.063	0.063
-139.458	-39.769	0.327	0.169
-138.443	-128.391	-0.192	-0.027
-137.429	-165.621	0.360	-0.015
-136.414	37.391	0.154	-0.135
-135.399	81.380	-0.072	-0.077
-134.385	132.822	-0.116	0.147
-133.370	800.000	-0.063	0.186
-132.356	-55.150	-0.379	-0.168
-131.341	-55.971	0.096	0.042
-130.326	-36.133	0.235	-0.125
-129.312	-85.370	-0.348	0.107
-128.297	38.732	0.111	-0.098
-127.283	6.634	-0.159	-0.117
-126.268	-51.296	-0.219	-0.101
-125.253	-135.874	-0.395	-0.046
-124.239	104.629	0.226	0.263
-123.224	800.000	0.074	-0.206
-122.210	222.216	0.207	-0.328
-121.195	55.893	0.253	0.242
-120.180	558.830	0.110	-0.262
