DTS Sentinel unit serial number:	SN413079Multiplexer serial number:	ORYXHardware model number:	OX4-SRSoftware version number:	ORYX F/W v4.00 Oryx Data Collector v3.7.2.0data status	okinstallation	princeton_trtdifferential loss correction	single-endedforward channel	channel 3reverse channel	N/Adate	2019/09/13time	19:24:35forward acquisition time	60.00reverse acquisition time	0.00gamma	496.2192k internal	0.2326k external	0.2326temperature offset calibration	1.0088default loss term (dB/km)	0.3790temperature slope calibration	1.0000multiplexer offset coefficient	1.0000multiplexer slope coefficient	1.0000fibre end	0.00T internal ref (°C)	30.94T ext. ref 1 (°C)	3.70T ext. ref 2 (°C)	24.42length (m)	temperature (°C)	Stokes	anti-Stokes-747.200	-126.758	-0.410	-0.061
-746.185	-200.000	-0.038	0.280
-745.171	-51.111	-0.111	0.052
-744.156	26.709	-0.111	-0.094
-743.142	47.280	0.183	0.172
-742.127	53.567	-0.219	0.212
-741.112	238.934	0.141	-0.237
-740.098	-152.036	0.529	0.039
-739.083	-12.051	0.165	-0.109
-738.069	53.021	-0.224	0.216
-737.054	-68.142	-0.304	0.119
-736.039	-46.194	0.297	-0.147
-735.025	-50.737	-0.049	-0.023
-734.010	-166.345	-0.286	0.012
-732.996	-35.162	0.159	-0.087
-731.981	-200.000	-0.001	-0.446
-730.966	164.285	0.113	-0.160
-729.952	274.348	-0.104	-0.185
-728.937	287.855	-0.097	-0.177
-727.923	-60.236	0.165	-0.071
-726.908	800.000	0.071	-0.199
-725.894	28.852	-0.166	-0.142
-724.879	48.767	-0.177	0.167
-723.864	-200.000	-0.042	-0.353
-722.850	800.000	-0.040	-0.153
-721.835	51.335	-0.123	0.117
-720.821	-200.000	-0.026	0.382
-719.806	685.044	0.061	0.161
-718.791	-92.390	-0.255	-0.072
-717.777	-200.000	0.007	-0.371
-716.762	-200.000	0.058	0.307
-715.748	800.000	0.043	-0.171
-714.733	-35.999	-0.370	0.201
-713.718	114.630	0.198	0.243
-712.704	-94.757	-0.281	-0.077
-711.689	-200.000	-0.015	-0.103
-710.675	-154.234	0.312	0.021
-709.660	-200.000	0.074	-0.443
-708.645	303.448	0.046	-0.086
-707.631	-31.293	0.127	-0.072
-706.616	-37.183	0.232	-0.125
-705.602	363.536	-0.122	0.247
-704.587	43.795	-0.322	0.297
-703.572	-37.164	0.134	0.072
-702.558	800.000	-0.074	-0.322
-701.543	-200.000	0.002	-0.299
-700.529	-5.452	0.269	-0.186
-699.514	-35.815	0.306	-0.167
-698.499	13.630	0.330	-0.258
-697.485	238.039	0.079	-0.132
-696.470	-75.490	0.308	-0.110
-695.456	324.914	0.102	0.196
-694.441	-42.094	0.105	-0.054
-693.426	-6.346	-0.033	0.023
-692.412	26.697	-0.294	0.248
-691.397	2.166	0.176	0.128
-690.383	-20.319	-0.330	-0.204
-689.368	291.805	-0.115	-0.210
-688.354	-4.805	0.385	-0.267
-687.339	-174.102	0.090	0.003
-686.324	-200.000	0.037	0.189
-685.310	174.742	0.190	-0.276
-684.295	-200.000	-0.008	-0.059
-683.281	143.498	0.220	-0.295
-682.266	-200.000	0.039	-0.429
-681.251	76.540	0.097	-0.104
-680.237	-40.817	-0.038	0.020
-679.222	461.981	-0.077	-0.173
-678.208	-25.389	-0.190	-0.113
-677.193	130.899	0.095	-0.122
-676.178	141.822	0.062	-0.082
-675.164	253.708	0.006	0.011
-674.149	-117.777	-0.259	-0.047
-673.135	-200.000	0.012	-0.067
-672.120	204.908	-0.165	-0.257
-671.105	127.534	0.211	0.270
-670.091	150.742	-0.021	0.029
-669.076	-101.784	0.168	0.041
-668.062	-200.000	0.072	-0.319
-667.047	-123.951	0.241	0.038
-666.032	151.274	-0.068	0.092
-665.018	-23.983	-0.278	-0.167
-664.003	-200.000	-0.012	0.156
-662.989	409.279	0.119	0.254
-661.974	-200.000	0.031	0.410
-660.959	116.816	-0.052	-0.065
-659.945	-87.007	0.440	0.135
-658.930	-200.000	0.015	-0.175
-657.916	-165.333	0.084	-0.004
-656.901	-200.000	0.010	-0.177
-655.886	-200.000	0.046	-0.341
-654.872	242.297	0.033	-0.056
-653.857	-200.000	0.007	-0.258
-652.843	524.917	0.096	-0.227
-651.828	-156.900	-0.178	0.011
-650.814	44.022	0.118	0.109
-649.799	-42.074	0.359	0.185
-648.784	-23.420	0.029	-0.017
-647.770	468.019	0.095	-0.215
-646.755	-59.757	0.358	-0.154
-645.741	-100.120	-0.089	0.022
-644.726	64.560	-0.101	-0.102
-643.711	-200.000	-0.009	0.176
-642.697	-0.437	0.173	-0.123
-641.682	-160.156	-0.085	-0.005
-640.668	-10.378	0.130	0.086
-639.653	662.448	-0.106	-0.276
-638.638	-85.878	-0.069	0.021
-637.624	-135.023	-0.382	-0.046
-636.609	800.000	0.068	0.227
-635.595	-96.603	-0.247	-0.065
-634.580	-200.000	0.042	-0.228
-633.565	-150.300	-0.164	0.013
-632.551	23.017	-0.278	-0.229
-631.536	-200.000	0.059	-0.266
-630.522	366.293	0.031	-0.062
-629.507	-200.000	-0.043	0.203
-628.492	-137.652	-0.050	0.006
-627.478	-187.154	0.207	-0.003
-626.463	-200.000	-0.001	-0.048
-625.449	44.649	0.154	-0.142
-624.434	-189.317	-0.098	0.001
-623.419	59.124	-0.160	-0.158
-622.405	-200.000	0.005	0.102
-621.390	7.525	-0.113	-0.085
-620.376	-200.000	-0.288	0.001
-619.361	-200.000	0.037	0.200
-618.346	-53.858	-0.357	0.163
-617.332	164.945	-0.181	0.257
-616.317	-32.005	-0.165	0.093
-615.303	-87.031	-0.211	-0.064
-614.288	-44.253	-0.165	-0.083
-613.273	800.000	-0.022	-0.076
-612.259	55.281	0.064	0.062
-611.244	45.821	0.102	-0.095
-610.230	22.269	-0.012	0.010
-609.215	-122.450	0.249	0.041
-608.201	58.393	-0.231	0.227
-607.186	-22.156	-0.207	0.126
-606.171	81.744	-0.190	-0.206
-605.157	-72.836	-0.118	-0.043
-604.142	-85.272	-0.296	0.093
-603.128	7.053	0.436	0.326
-602.113	800.000	-0.011	0.038
-601.098	17.057	-0.187	-0.149
-600.084	24.600	0.141	-0.117
-599.069	-200.000	0.009	-0.206
-598.055	-200.000	-0.017	0.170
-597.040	-102.378	-0.454	0.109
-596.025	-200.000	0.032	-0.202
-595.011	-146.099	0.123	-0.011
-593.996	7.209	0.197	0.147
-592.982	26.951	0.075	0.063
-591.967	38.332	0.081	-0.072
-590.952	-200.000	0.005	0.180
-589.938	104.026	-0.140	-0.165
-588.923	136.867	-0.077	-0.101
-587.909	800.000	-0.095	0.298
-586.894	-200.000	-0.029	0.259
-585.879	-81.965	0.133	0.044
-584.865	-46.077	-0.458	-0.226
-583.850	-200.000	0.017	0.218
-582.836	-194.228	-0.179	0.001
-581.821	-12.102	0.049	-0.032
-580.806	-200.000	-0.061	-0.309
-579.792	273.618	-0.080	-0.143
-578.777	-59.814	0.201	0.086
-577.763	-65.928	0.434	0.174
-576.748	-92.641	0.244	0.069
-575.733	-200.000	-0.005	0.056
-574.719	76.524	-0.264	0.281
-573.704	181.766	-0.256	0.378
-572.690	437.023	0.030	-0.064
-571.675	-107.781	0.104	-0.023
-570.661	-83.890	0.128	0.041
-569.646	800.000	-0.059	-0.208
-568.631	145.944	0.064	-0.085
-567.617	-33.360	0.114	0.063
-566.602	390.496	-0.066	-0.138
-565.588	-150.628	-0.130	0.010
-564.573	800.000	-0.099	0.321
-563.558	376.747	0.098	0.200
-562.544	118.998	-0.062	0.077
-561.529	-200.000	-0.034	0.239
-560.515	-102.950	-0.041	0.010
-559.500	-200.000	-0.017	0.171
-558.485	107.193	0.219	-0.261
-557.471	800.000	0.134	0.414
-556.456	-142.269	0.113	-0.011
-555.442	-109.224	-0.313	0.066
-554.427	219.779	-0.027	-0.043
-553.412	-116.278	0.140	-0.026
-552.398	-200.000	-0.003	0.024
-551.383	800.000	-0.071	0.208
-550.369	84.543	-0.197	0.216
-549.354	623.532	0.047	-0.118
-548.339	110.060	-0.152	-0.182
-547.325	100.607	-0.163	0.189
-546.310	-200.000	-0.037	-0.339
-545.296	391.184	-0.037	-0.076
-544.281	44.488	-0.078	0.071
-543.266	56.202	0.345	-0.335
-542.252	-153.347	-0.075	-0.005
-541.237	-113.942	0.198	0.039
-540.223	-200.000	0.019	-0.253
-539.208	-57.522	0.435	0.191
-538.193	-200.000	-0.009	-0.115
-537.179	-56.920	0.173	0.077
-536.164	-0.679	0.180	0.128
-535.150	-36.725	-0.049	-0.027
-534.135	187.713	-0.041	0.061
-533.121	235.852	-0.113	0.186
-532.106	547.930	0.077	-0.185
-531.091	800.000	0.024	-0.096
-530.077	240.996	0.051	-0.086
-529.062	-87.724	0.068	-0.021
-528.048	-200.000	0.004	-0.140
-527.033	23.652	0.132	-0.109
-526.018	610.348	0.046	0.114
-525.004	174.420	-0.074	-0.107
-523.989	80.137	-0.233	0.251
-522.975	-35.662	-0.211	-0.114
-521.960	-57.033	0.255	-0.112
-520.945	-92.904	0.132	-0.037
-519.931	-155.221	0.439	0.029
-518.916	-160.776	0.090	-0.005
-517.902	-92.783	-0.163	0.046
-516.887	166.535	0.313	0.443
-515.872	-157.146	-0.173	0.011
-514.858	20.320	-0.187	-0.151
-513.843	132.483	-0.103	-0.133
-512.829	800.000	-0.051	-0.205
-511.814	35.202	0.120	0.105
-510.799	190.109	0.182	0.274
-509.785	-140.929	-0.341	0.035
-508.770	70.345	0.092	0.095
-507.756	-93.713	0.174	-0.048
-506.741	-97.439	-0.289	-0.075
-505.726	-35.454	-0.181	0.098
-504.712	103.655	0.163	0.191
-503.697	186.559	-0.145	-0.215
-502.683	-96.643	-0.187	0.049
-501.668	-45.873	-0.174	-0.086
-500.653	-131.201	0.099	-0.013
-499.639	83.683	-0.081	0.088
-498.624	121.813	0.189	-0.236
-497.610	11.498	0.122	-0.093
-496.595	233.685	-0.121	0.200
-495.581	218.110	-0.226	-0.360
-494.566	-50.243	-0.232	-0.109
-493.551	257.094	0.100	-0.171
-492.537	-200.000	-0.005	0.197
-491.522	40.874	-0.149	0.134
-490.508	-200.000	0.044	0.237
-489.493	-26.531	0.123	-0.072
-488.478	-77.143	-0.433	-0.151
-487.464	-186.444	0.198	-0.003
-486.449	-74.721	0.169	-0.061
-485.435	-148.666	0.050	-0.004
-484.420	28.400	-0.255	0.216
-483.405	-200.000	-0.005	0.097
-482.391	-200.000	-0.016	-0.181
-481.376	343.705	-0.072	-0.142
-480.362	54.504	-0.227	-0.219
-479.347	-26.889	0.042	-0.025
-478.332	172.872	0.102	0.147
-477.318	-200.000	-0.033	-0.343
-476.303	-20.683	-0.217	0.133
-475.289	-46.097	0.170	0.084
-474.274	594.818	0.046	-0.113
-473.259	419.284	-0.019	0.041
-472.245	-69.006	-0.070	-0.027
-471.230	-104.708	0.280	-0.064
-470.216	40.233	-0.033	0.029
-469.201	-34.363	0.226	0.124
-468.186	800.000	0.020	0.069
-467.172	-63.386	0.334	-0.137
-466.157	417.566	0.118	-0.251
-465.143	31.915	0.054	0.046
-464.128	151.165	0.042	0.056
-463.113	800.000	-0.055	-0.154
-462.099	-83.619	0.147	0.047
-461.084	76.457	0.188	-0.198
-460.070	-112.841	0.130	0.026
-459.055	-94.571	0.163	0.044
-458.040	-34.266	0.048	-0.026
-457.026	145.042	-0.209	-0.279
-456.011	-114.386	-0.325	0.062
-454.997	-113.380	0.294	0.058
-453.982	35.214	-0.235	0.206
-452.968	800.000	0.069	0.265
-451.953	-24.183	0.288	0.171
-450.938	150.895	-0.055	-0.075
-449.924	289.830	-0.154	0.278
-448.909	112.095	0.169	0.204
-447.895	-162.766	0.311	-0.015
-446.880	-35.182	-0.421	0.229
-445.865	-146.523	0.215	0.019
-444.851	498.884	0.208	-0.477
-443.836	686.497	0.098	-0.255
-442.822	-200.000	-0.031	-0.285
-441.807	-4.984	-0.122	-0.084
-440.792	5.208	-0.170	-0.125
-439.778	40.954	0.143	0.129
-438.763	-72.723	-0.221	-0.081
-437.749	-94.662	0.125	-0.034
-436.734	-24.228	-0.172	0.102
-435.719	-116.529	-0.068	0.013
-434.705	-44.093	0.077	-0.038
-433.690	238.434	-0.261	-0.433
-432.676	-200.000	-0.009	-0.147
-431.661	-140.902	-0.477	-0.049
-430.646	16.691	-0.141	0.111
-429.632	-200.000	-0.090	0.402
-428.617	14.655	-0.238	-0.185
-427.603	-94.477	-0.070	-0.019
-426.588	-142.404	-0.336	-0.033
-425.573	-1.360	0.267	-0.187
-424.559	81.704	0.135	-0.146
-423.544	-200.000	-0.058	-0.378
-422.530	304.926	-0.069	0.128
-421.515	462.995	0.024	-0.053
-420.500	465.276	-0.169	-0.376
-419.486	-200.000	-0.048	-0.339
-418.471	800.000	0.061	0.189
-417.457	99.895	0.103	0.119
-416.442	-8.308	0.068	-0.045
-415.428	133.907	-0.224	0.289
-414.413	-77.806	-0.089	-0.031
-413.398	222.601	0.103	0.164
-412.384	-59.815	0.084	0.036
-411.369	-136.440	-0.271	-0.031
-410.355	-200.000	-0.021	0.302
-409.340	-43.297	0.244	-0.123
-408.325	-12.651	0.253	-0.164
-407.311	-162.181	0.229	0.011
-406.296	41.426	0.050	-0.045
-405.282	-200.000	0.001	0.183
-404.267	285.348	0.095	-0.170
-403.252	-29.569	0.225	0.128
-402.238	267.604	0.091	0.158
-401.223	-200.000	0.030	0.135
-400.209	800.000	-0.041	0.121
-399.194	-105.902	0.237	-0.053
-398.179	-65.106	0.156	0.063
-397.165	-110.012	-0.284	-0.059
-396.150	-19.199	-0.581	-0.359
-395.136	-46.052	-0.461	-0.226
-394.121	-168.546	-0.345	-0.013
-393.106	-193.689	0.154	0.001
-392.092	315.508	-0.257	0.482
-391.077	136.529	0.037	-0.048
-390.063	-17.107	0.355	0.223
-389.048	-142.106	-0.541	-0.053
-388.033	-200.000	0.048	-0.258
-387.019	582.422	-0.076	-0.184
-386.004	-115.768	0.190	-0.035
-384.990	121.353	0.155	-0.191
-383.975	800.000	0.042	-0.165
-382.960	800.000	-0.025	0.084
-381.946	240.361	-0.175	-0.290
-380.931	231.287	0.073	0.119
-379.917	308.076	-0.317	0.588
-378.902	-58.497	0.074	-0.032
-377.888	-142.555	0.303	0.030
-376.873	508.722	0.062	-0.143
-375.858	24.920	-0.100	0.082
-374.844	192.885	-0.222	-0.333
-373.829	-59.541	-0.073	0.031
-372.815	-2.022	0.057	-0.040
-371.800	83.791	0.273	0.297
-370.785	-200.000	-0.025	0.145
-369.771	22.813	0.117	0.095
-368.756	-115.998	0.292	0.054
-367.742	800.000	-0.044	-0.157
-366.727	-80.685	-0.180	0.060
-365.712	-14.401	0.083	0.053
-364.698	37.471	-0.157	-0.138
-363.683	800.000	-0.063	-0.243
-362.669	-200.000	-0.204	-0.000
-361.654	254.367	-0.075	0.128
-360.639	-13.254	0.155	-0.100
-359.625	-200.000	-0.010	0.078
-358.610	231.199	0.056	0.091
-357.596	-0.201	0.097	-0.069
-356.581	-64.130	0.090	-0.037
-355.566	-200.000	0.020	-0.104
-354.552	-4.609	0.320	0.220
-353.537	-131.227	0.392	0.052
-352.523	-200.000	0.018	-0.273
-351.508	-121.205	0.094	-0.016
-350.493	800.000	0.025	0.081
-349.479	-61.241	-0.243	-0.102
-348.464	-108.566	-0.278	-0.059
-347.450	306.669	0.067	0.123
-346.435	-173.954	-0.163	-0.005
-345.420	287.902	-0.076	-0.137
-344.406	160.445	0.244	-0.338
-343.391	-160.901	-0.219	-0.011
-342.377	-200.000	0.018	-0.137
-341.362	-96.062	0.254	-0.067
-340.348	800.000	0.033	0.128
-339.333	326.593	0.290	0.551
-338.318	-102.132	0.032	0.008
-337.304	-135.889	0.159	-0.019
-336.289	-65.936	0.304	0.120
-335.275	-200.000	-0.033	0.264
-334.260	-87.226	0.347	0.105
-333.245	96.771	0.108	-0.123
-332.231	-200.000	-0.012	0.204
-331.216	-72.480	0.329	0.121
-330.202	577.833	-0.099	0.239
-329.187	-142.594	0.173	-0.017
-328.172	593.551	0.049	-0.120
-327.158	-34.051	0.173	0.095
-326.143	-6.206	0.143	-0.097
-325.129	-177.113	-0.215	0.005
-324.114	-200.000	0.032	0.243
-323.099	83.183	-0.126	-0.136
-322.085	417.833	0.113	-0.239
-321.070	20.136	-0.269	0.216
-320.056	-81.270	-0.233	0.076
-319.041	495.138	0.074	0.168
-318.026	19.463	0.080	0.063
-317.012	-154.236	0.208	0.014
-315.997	72.772	-0.083	-0.086
-314.983	756.453	0.148	0.397
-313.968	-200.000	-0.013	0.094
-312.953	-152.300	-0.046	-0.003
-311.939	800.000	-0.021	0.086
-310.924	449.866	0.048	-0.104
-309.910	800.000	-0.115	-0.421
-308.895	-182.853	-0.165	0.003
-307.880	278.399	-0.047	-0.083
-306.866	449.352	-0.076	0.167
-305.851	800.000	0.034	0.109
-304.837	119.306	0.118	0.145
-303.822	532.900	-0.086	0.202
-302.807	-200.000	-0.045	0.210
-301.793	154.765	0.084	0.115
-300.778	-200.000	-0.015	0.124
-299.764	-41.520	-0.037	-0.019
-298.749	800.000	0.046	-0.148
-297.735	-23.095	0.357	-0.213
-296.720	-200.000	-0.070	0.357
-295.705	89.699	-0.283	-0.313
-294.691	-200.000	0.006	0.052
-293.676	138.333	-0.102	-0.132
-292.662	360.692	-0.185	-0.368
-291.647	-100.959	0.489	0.119
-290.632	800.000	-0.023	-0.087
-289.618	7.330	-0.110	0.081
-288.603	-103.341	0.202	0.047
-287.589	632.319	0.091	-0.230
-286.574	800.000	-0.019	0.073
-285.559	80.067	0.133	-0.142
-284.545	-58.767	0.157	-0.067
-283.530	800.000	0.049	-0.208
-282.516	19.108	-0.264	0.210
-281.501	800.000	-0.129	0.363
-280.486	800.000	0.018	0.074
-279.472	208.927	0.163	-0.253
-278.457	-160.513	0.322	0.017
-277.443	-102.951	-0.143	-0.034
-276.428	-65.788	-0.388	0.154
-275.413	432.346	0.053	-0.115
-274.399	11.955	0.231	-0.176
-273.384	22.827	-0.067	0.055
-272.370	-104.288	0.318	0.073
-271.355	-97.649	-0.081	0.021
-270.340	272.184	0.048	-0.084
-269.326	-200.000	-0.026	0.234
-268.311	540.403	-0.099	-0.233
-267.297	-49.344	-0.046	-0.022
-266.282	-22.165	-0.201	-0.121
-265.267	-200.000	-0.009	0.134
-264.253	-85.363	0.184	-0.057
-263.238	-54.639	0.163	-0.073
-262.224	219.712	-0.128	0.203
-261.209	-56.044	0.227	0.100
-260.195	-72.566	0.308	0.113
-259.180	-106.102	-0.122	-0.027
-258.165	-89.697	0.190	0.055
-257.151	-10.871	-0.309	0.202
-256.136	481.590	-0.162	0.363
-255.122	-110.944	-0.271	-0.055
-254.107	-43.642	-0.166	0.083
-253.092	154.039	-0.190	-0.258
-252.078	171.523	-0.112	0.159
-251.063	800.000	-0.061	0.182
-250.049	-200.000	0.014	0.129
-249.034	52.264	-0.049	0.046
-248.019	153.661	0.135	-0.183
-247.005	-200.000	-0.022	-0.149
-245.990	161.452	0.069	0.095
-244.976	32.091	-0.032	-0.027
-243.961	-66.217	-0.166	0.065
-242.946	-42.896	0.068	0.034
-241.932	-37.920	-0.144	0.075
-240.917	-21.187	-0.233	-0.141
-239.903	31.587	-0.187	-0.159
-238.888	38.103	-0.193	-0.170
-237.873	-40.417	-0.278	0.143
-236.859	29.709	-0.100	-0.084
-235.844	-200.000	-0.043	0.191
-234.830	775.574	-0.048	-0.131
-233.815	-200.000	0.011	0.175
-232.800	-200.000	0.065	-0.331
-231.786	121.575	-0.059	0.072
-230.771	-37.584	-0.118	-0.062
-229.757	-200.000	0.027	-0.192
-228.742	-33.914	-0.107	-0.058
-227.727	677.420	-0.123	-0.316
-226.713	-57.140	0.241	0.105
-225.698	-200.000	-0.119	0.606
-224.684	-200.000	-0.048	0.408
-223.669	449.986	0.139	-0.302
-222.655	64.271	0.187	-0.186
-221.640	-60.309	0.193	-0.081
-220.625	81.830	-0.297	0.318
-219.611	-88.849	0.109	0.032
-218.596	-200.000	0.018	0.106
-217.582	800.000	0.096	-0.362
-216.567	-8.168	0.098	-0.065
-215.552	-112.931	-0.050	-0.010
-214.538	800.000	0.057	-0.246
-213.523	800.000	0.070	-0.257
-212.509	116.849	0.173	-0.210
-211.494	-153.213	0.479	-0.033
-210.479	-182.065	0.121	-0.002
-209.465	183.425	-0.075	0.109
-208.450	-200.000	-0.011	0.092
-207.436	-147.895	0.018	0.001
-206.421	-200.000	0.006	0.082
-205.406	61.218	-0.172	-0.169
-204.392	-200.000	0.013	-0.062
-203.377	-82.870	-0.197	-0.063
-202.363	-200.000	-0.044	0.294
-201.348	-200.000	0.036	0.169
-200.333	69.892	0.264	-0.269
-199.319	-200.000	0.008	0.205
-198.304	-76.647	0.045	0.016
-197.290	357.822	-0.030	-0.060
-196.275	98.949	-0.113	-0.129
-195.260	14.365	-0.180	0.139
-194.246	-129.940	0.193	0.026
-193.231	776.824	0.074	-0.200
-192.217	104.342	0.075	0.087
-191.202	329.190	-0.141	0.267
-190.187	104.597	0.055	0.064
-189.173	800.000	0.027	0.092
-188.158	50.394	0.130	0.121
-187.144	-47.888	0.116	-0.055
-186.129	-13.559	0.169	0.108
-185.114	-124.088	-0.139	0.021
-184.100	160.231	0.146	-0.201
-183.085	-200.000	-0.003	-0.237
-182.071	800.000	0.065	-0.208
-181.056	-87.299	-0.063	0.019
-180.042	-200.000	-0.026	0.158
-179.027	55.835	-0.160	-0.153
-178.012	-40.268	-0.095	-0.049
-176.998	565.356	-0.029	0.069
-175.983	-13.380	0.160	0.102
-174.969	46.651	0.095	0.087
-173.954	358.163	0.091	-0.179
-172.939	-200.000	0.030	-0.217
-171.925	281.538	-0.189	-0.334
-170.910	-123.251	0.278	-0.044
-169.896	800.000	0.086	0.293
-168.881	800.000	-0.054	-0.169
-167.866	-21.723	0.183	-0.110
-166.852	-28.269	0.318	0.181
-165.837	42.422	-0.087	0.078
-164.823	585.149	0.038	0.091
-163.808	2.562	-0.360	0.257
-162.793	7.938	0.222	0.164
-161.779	1.055	-0.230	-0.163
-160.764	77.741	0.210	-0.221
-159.750	800.000	0.027	-0.085
-158.735	226.965	-0.057	-0.091
-157.720	800.000	0.063	-0.188
-156.706	43.586	0.174	-0.157
-155.691	78.364	-0.098	-0.103
-154.677	-200.000	-0.002	0.030
-153.662	800.000	0.110	0.387
-152.647	39.918	-0.174	0.154
-151.633	-81.763	0.235	-0.076
-150.618	-56.906	-0.331	-0.144
-149.604	800.000	0.098	0.371
-148.589	-79.457	0.137	-0.046
-147.574	18.316	0.134	-0.106
-146.560	104.863	0.249	-0.289
-145.545	119.226	0.058	-0.071
-144.531	-65.711	-0.245	-0.097
-143.516	239.319	0.035	0.057
-142.502	-136.753	-0.109	-0.012
-141.487	609.027	-0.031	-0.076
-140.472	-81.449	0.166	0.054
-139.458	-35.529	-0.085	-0.046
-138.443	224.671	0.064	-0.103
-137.429	-118.161	-0.154	-0.027
-136.414	-200.000	0.036	0.283
-135.399	-200.000	0.074	0.462
-134.385	-20.764	0.278	0.168
-133.370	451.174	-0.063	0.138
-132.356	800.000	-0.051	0.177
-131.341	19.427	0.145	0.115
-130.326	567.404	-0.044	-0.106
-129.312	-54.439	0.218	-0.097
-128.297	-46.567	0.208	0.100
-127.283	800.000	0.153	-0.567
-126.268	-41.220	0.103	0.052
-125.253	-80.197	-0.117	-0.038
-124.239	186.533	-0.060	0.087
-123.224	800.000	-0.076	-0.289
-122.210	-200.000	0.006	0.054
-121.195	419.203	0.071	0.149
