DTS Sentinel unit serial number:	SN413079Multiplexer serial number:	ORYXHardware model number:	OX4-SRSoftware version number:	ORYX F/W v4.00 Oryx Data Collector v3.7.2.0data status	okinstallation	princeton_trtdifferential loss correction	single-endedforward channel	channel 3reverse channel	N/Adate	2019/09/13time	17:28:35forward acquisition time	60.00reverse acquisition time	0.00gamma	496.2192k internal	0.2297k external	0.2297temperature offset calibration	1.0105default loss term (dB/km)	0.3790temperature slope calibration	1.0000multiplexer offset coefficient	1.0000multiplexer slope coefficient	1.0000fibre end	0.00T internal ref (°C)	36.12T ext. ref 1 (°C)	5.14T ext. ref 2 (°C)	30.16length (m)	temperature (°C)	Stokes	anti-Stokes-747.200	-200.000	0.026	0.169
-746.185	-200.000	-0.013	0.301
-745.171	-69.674	0.454	-0.177
-744.156	800.000	-0.050	0.223
-743.142	371.335	-0.065	-0.135
-742.127	-158.541	0.095	-0.006
-741.112	54.598	-0.120	-0.118
-740.098	-200.000	0.018	-0.161
-739.083	800.000	-0.009	0.030
-738.069	-200.000	-0.008	0.107
-737.054	-45.668	0.129	-0.065
-736.039	-3.265	-0.133	0.094
-735.025	76.639	-0.039	0.042
-734.010	-24.865	0.063	-0.038
-732.996	479.693	0.096	-0.222
-731.981	-200.000	0.008	-0.124
-730.966	461.245	0.132	0.300
-729.952	-141.106	-0.174	0.018
-728.937	-1.793	-0.293	-0.210
-727.923	85.656	-0.158	-0.177
-726.908	-18.524	0.238	-0.152
-725.894	-82.206	-0.347	-0.116
-724.879	-96.018	0.189	0.051
-723.864	800.000	0.074	0.211
-722.850	-15.577	0.205	0.133
-721.835	223.350	0.101	-0.166
-720.821	78.924	-0.146	0.159
-719.806	-58.099	-0.095	0.042
-718.791	-200.000	-0.017	-0.219
-717.777	241.520	0.092	0.158
-716.762	-46.972	-0.221	0.110
-715.748	625.861	0.100	-0.257
-714.733	493.758	-0.169	-0.396
-713.718	624.805	0.033	0.085
-712.704	-53.976	0.285	-0.132
-711.689	800.000	0.055	-0.212
-710.675	235.153	0.104	-0.174
-709.660	-200.000	-0.008	-0.064
-708.645	-107.460	-0.372	-0.083
-707.631	97.956	-0.117	0.137
-706.616	-131.996	-0.413	-0.055
-705.602	-27.525	0.164	-0.097
-704.587	-58.252	0.320	0.142
-703.572	46.941	0.155	-0.147
-702.558	286.716	0.092	-0.169
-701.543	91.312	0.113	0.129
-700.529	-131.038	0.292	-0.040
-699.514	-200.000	0.021	0.164
-698.499	54.708	-0.058	-0.057
-697.485	-14.891	-0.220	-0.144
-696.470	545.645	-0.072	0.176
-695.456	-79.808	-0.235	0.081
-694.441	-25.779	-0.115	-0.069
-693.426	800.000	0.071	-0.261
-692.412	-200.000	-0.023	-0.186
-691.397	579.780	-0.034	0.084
-690.383	-5.605	-0.344	-0.240
-689.368	-34.418	-0.089	-0.050
-688.354	-200.000	-0.011	0.388
-687.339	-15.387	-0.144	0.094
-686.324	-132.354	-0.216	-0.028
-685.310	8.014	0.293	-0.224
-684.295	-109.932	-0.330	-0.070
-683.281	800.000	-0.039	-0.113
-682.266	305.279	-0.057	0.109
-681.251	56.704	-0.128	-0.127
-680.237	245.081	-0.186	0.318
-679.222	800.000	-0.163	0.667
-678.208	268.721	0.030	-0.053
-677.193	0.781	-0.138	-0.100
-676.178	-200.000	0.150	-0.000
-675.164	85.429	0.171	0.192
-674.149	160.990	0.269	-0.382
-673.135	564.763	-0.080	-0.198
-672.120	-65.963	0.130	-0.053
-671.105	-114.008	0.388	-0.077
-670.091	-200.000	-0.088	-0.396
-669.076	252.315	-0.160	-0.277
-668.062	4.237	-0.168	-0.125
-667.047	327.486	0.143	-0.279
-666.032	-105.195	-0.254	-0.059
-665.018	25.513	0.191	-0.162
-664.003	-18.005	-0.280	0.179
-662.989	84.674	0.067	-0.075
-661.974	-101.661	-0.239	-0.059
-660.959	92.911	0.137	0.158
-659.945	188.976	0.137	0.208
-658.930	-21.572	0.338	0.210
-657.916	-200.000	0.067	0.359
-656.901	95.743	-0.094	0.110
-655.886	-86.548	-0.488	-0.152
-654.872	600.313	0.163	0.411
-653.857	-64.662	0.153	0.063
-652.843	248.448	-0.172	-0.296
-651.828	-160.229	-0.192	-0.011
-650.814	-79.894	-0.403	0.138
-649.799	441.503	0.033	0.073
-648.784	71.614	-0.158	-0.167
-647.770	800.000	0.096	0.396
-646.755	32.187	0.200	-0.176
-645.741	-200.000	0.047	0.218
-644.726	496.936	0.122	-0.285
-643.711	-200.000	-0.062	-0.334
-642.697	97.328	0.103	-0.121
-641.682	800.000	0.043	-0.184
-640.668	-61.226	-0.323	-0.138
-639.653	371.119	0.123	0.253
-638.638	-23.760	0.263	-0.160
-637.624	663.262	0.129	-0.338
-636.609	-109.197	-0.272	-0.059
-635.595	-200.000	0.388	0.001
-634.580	-200.000	0.076	-0.344
-633.565	800.000	-0.045	-0.157
-632.551	349.940	-0.156	-0.313
-631.536	-17.502	-0.261	-0.167
-630.522	-0.649	-0.033	0.024
-629.507	175.766	-0.154	0.227
-628.492	33.862	0.291	0.258
-627.478	-61.362	0.271	-0.116
-626.463	-200.000	-0.025	-0.337
-625.449	800.000	-0.075	-0.229
-624.434	-99.576	0.340	-0.087
-623.419	266.392	0.074	0.132
-622.405	-166.356	0.159	-0.007
-621.390	16.620	-0.219	-0.176
-620.376	800.000	0.042	0.187
-619.361	-200.000	-0.005	0.052
-618.346	-102.773	0.161	0.039
-617.332	-200.000	0.057	-0.360
-616.317	139.731	-0.334	-0.447
-615.303	-74.882	0.165	-0.060
-614.288	-56.277	-0.034	0.015
-613.273	249.959	-0.035	0.061
-612.259	787.558	0.013	0.035
-611.244	-36.325	0.299	-0.164
-610.230	441.373	-0.105	-0.233
-609.215	-45.476	0.081	-0.041
-608.201	-90.348	-0.144	-0.043
-607.186	-104.062	0.127	0.030
-606.171	-65.311	-0.292	0.119
-605.157	-105.874	-0.162	-0.037
-604.142	-84.255	-0.084	0.027
-603.128	14.479	0.054	-0.043
-602.113	-19.800	-0.186	0.117
-601.098	-118.419	-0.192	-0.035
-600.084	238.183	-0.100	-0.169
-599.069	-191.636	-0.184	0.002
-598.055	-200.000	-0.034	-0.332
-597.040	-42.758	-0.136	-0.070
-596.025	0.468	-0.340	0.247
-595.011	-5.982	-0.040	0.028
-593.996	800.000	-0.048	0.162
-592.982	-200.000	0.007	-0.255
-591.967	-25.458	-0.267	-0.160
-590.952	-54.424	0.125	-0.058
-589.938	-200.000	-0.034	-0.352
-588.923	800.000	-0.042	-0.165
-587.909	-200.000	0.008	-0.167
-586.894	800.000	0.073	-0.255
-585.879	104.656	0.042	-0.050
-584.865	-91.797	0.100	-0.029
-583.850	-55.870	-0.110	-0.050
-582.836	737.878	-0.067	0.182
-581.821	-175.495	-0.226	0.006
-580.806	-128.743	0.169	-0.024
-579.792	-200.000	0.027	0.198
-578.777	-89.529	0.093	0.028
-577.763	-107.630	-0.161	-0.036
-576.748	36.953	0.092	0.083
-575.733	-140.573	0.142	0.015
-574.719	6.855	-0.141	0.107
-573.704	-200.000	0.057	0.338
-572.690	92.422	-0.121	0.139
-571.675	-138.825	0.114	-0.013
-570.661	800.000	0.049	-0.158
-569.646	800.000	-0.068	0.210
-568.631	54.907	0.357	-0.349
-567.617	-62.629	0.272	-0.114
-566.602	800.000	-0.088	-0.366
-565.588	-34.319	0.191	-0.106
-564.573	800.000	0.071	0.291
-563.558	-200.000	-0.017	0.090
-562.544	160.682	-0.087	0.123
-561.529	-3.636	-0.182	-0.128
-560.515	-200.000	-0.022	-0.149
-559.500	315.530	0.088	0.168
-558.485	-95.101	-0.396	0.108
-557.471	-182.195	0.454	0.009
-556.456	151.173	-0.118	-0.163
-555.442	202.525	0.075	-0.117
-554.427	-200.000	-0.001	0.078
-553.412	800.000	-0.066	0.228
-552.398	132.197	-0.211	0.276
-551.383	10.652	-0.268	-0.207
-550.369	-126.718	-0.298	-0.045
-549.354	-95.257	-0.240	0.065
-548.339	15.227	0.082	0.065
-547.325	-113.921	0.126	-0.025
-546.310	-62.897	0.390	-0.163
-545.296	4.473	0.205	0.152
-544.281	800.000	-0.024	0.073
-543.266	800.000	-0.129	-0.465
-542.252	-32.781	-0.063	0.036
-541.237	308.705	0.042	-0.079
-540.223	-64.536	-0.214	0.088
-539.208	-200.000	0.038	0.232
-538.193	800.000	-0.052	-0.215
-537.179	-76.138	0.203	-0.073
-536.164	-200.000	0.029	-0.319
-535.150	86.303	-0.116	0.130
-534.135	-22.728	0.352	0.215
-533.121	154.426	-0.078	0.108
-532.106	-33.953	-0.303	-0.169
-531.091	-200.000	-0.003	-0.262
-530.077	241.498	-0.136	0.229
-529.062	370.571	-0.179	-0.367
-528.048	-13.063	0.070	0.046
-527.033	280.151	0.097	-0.175
-526.018	-15.395	-0.300	0.194
-525.004	-200.000	0.004	0.083
-523.989	225.931	-0.231	0.380
-522.975	-200.000	-0.016	-0.165
-521.960	-114.507	-0.219	-0.043
-520.945	-129.617	0.093	0.013
-519.931	89.474	0.125	0.141
-518.916	-200.000	0.000	0.079
-517.902	46.188	-0.049	0.046
-516.887	-65.306	-0.105	-0.043
-515.872	-76.489	-0.372	-0.132
-514.858	319.663	0.095	-0.183
-513.843	316.832	-0.052	-0.099
-512.829	-200.000	-0.001	0.058
-511.814	-5.845	0.176	-0.122
-510.799	75.165	-0.051	0.055
-509.785	253.023	0.156	-0.269
-508.770	-138.231	0.222	-0.025
-507.756	-75.561	-0.214	0.077
-506.741	-156.273	0.294	0.019
-505.726	87.667	-0.131	0.147
-504.712	-31.598	0.101	-0.057
-503.697	-119.552	0.153	0.027
-502.683	-103.851	0.268	0.063
-501.668	529.364	-0.051	0.122
-500.653	-109.208	-0.139	-0.030
-499.639	98.533	0.044	0.051
-498.624	-153.866	0.191	-0.013
-497.610	-38.180	0.097	-0.052
-496.595	99.246	-0.128	0.150
-495.581	292.153	0.089	-0.164
-494.566	-85.905	-0.118	-0.037
-493.551	176.549	0.103	-0.151
-492.537	-79.997	-0.379	0.129
-491.522	-200.000	0.009	0.243
-490.508	-200.000	0.030	-0.321
-489.493	800.000	0.045	0.151
-488.478	-200.000	0.015	-0.148
-487.464	-58.512	-0.107	-0.047
-486.449	49.146	0.116	0.110
-485.435	-200.000	-0.012	0.239
-484.420	-200.000	0.028	0.233
-483.405	800.000	-0.051	0.202
-482.391	-16.395	-0.352	0.226
-481.376	-12.863	0.151	0.099
-480.362	210.208	-0.077	-0.122
-479.347	-121.284	-0.098	0.017
-478.332	249.630	0.095	-0.163
-477.318	172.867	-0.166	-0.242
-476.303	-127.851	-0.247	0.036
-475.289	-141.331	0.175	-0.018
-474.274	-33.054	-0.130	0.073
-473.259	-146.099	0.046	-0.004
-472.245	288.599	0.078	-0.143
-471.230	17.786	0.273	0.219
-470.216	-124.465	-0.361	-0.057
-469.201	234.654	-0.216	-0.360
-468.186	-138.868	-0.161	0.018
-467.172	-16.275	-0.212	0.136
-466.157	-24.219	0.310	0.187
-465.143	-60.384	-0.044	-0.019
-464.128	-81.003	0.263	-0.088
-463.113	-146.790	-0.091	0.008
-462.099	559.637	0.030	-0.072
-461.084	-200.000	0.004	0.021
-460.070	800.000	-0.038	0.152
-459.055	-200.000	0.011	0.269
-458.040	85.329	0.111	0.123
-457.026	672.743	-0.041	-0.108
-456.011	769.270	0.036	0.099
-454.997	71.531	-0.117	-0.123
-453.982	-70.359	0.240	0.092
-452.968	-200.000	0.051	-0.293
-451.953	138.153	0.039	-0.052
-450.938	40.963	-0.175	-0.160
-449.924	800.000	0.085	0.268
-448.909	800.000	0.046	0.163
-447.895	77.679	0.283	-0.305
-446.880	668.565	-0.115	0.301
-445.865	-117.320	0.142	0.026
-444.851	-55.700	0.060	-0.027
-443.836	-34.579	-0.356	-0.197
-442.822	67.551	-0.042	0.043
-441.807	-200.000	-0.028	-0.216
-440.792	-200.000	-0.375	-0.001
-439.778	-19.750	0.063	0.040
-438.763	-110.771	0.109	-0.023
-437.749	439.808	-0.110	0.243
-436.734	-200.000	0.028	-0.410
-435.719	-129.177	-0.077	0.011
-434.705	-60.609	0.221	-0.095
-433.690	5.451	-0.323	-0.240
-432.676	-83.253	0.206	0.067
-431.661	128.347	0.093	-0.119
-430.646	-200.000	-0.040	0.201
-429.632	-200.000	-0.047	0.354
-428.617	90.878	-0.083	0.094
-427.603	93.623	-0.165	0.189
-426.588	-200.000	0.023	0.245
-425.573	-82.108	0.032	0.011
-424.559	-200.000	0.017	-0.125
-423.544	657.255	0.048	0.125
-422.530	-66.523	0.199	-0.080
-421.515	143.756	-0.246	-0.331
-420.500	-160.898	0.470	0.025
-419.486	145.508	-0.056	-0.076
-418.471	-140.628	0.321	-0.034
-417.457	-81.120	-0.533	0.178
-416.442	800.000	-0.056	-0.230
-415.428	94.342	0.361	0.413
-414.413	263.135	-0.153	0.268
-413.398	-200.000	-0.019	0.130
-412.384	-200.000	-0.024	-0.116
-411.369	-200.000	0.070	-0.399
-410.355	352.373	-0.031	-0.062
-409.340	-94.808	0.060	-0.016
-408.325	59.870	-0.112	-0.111
-407.311	25.078	0.196	0.164
-406.296	11.377	-0.269	0.208
-405.282	-98.164	0.278	0.072
-404.267	213.525	0.155	0.247
-403.252	26.979	0.208	0.176
-402.238	37.271	-0.085	0.076
-401.223	383.920	0.105	0.218
-400.209	75.502	-0.097	0.103
-399.194	564.959	0.011	-0.026
-398.179	800.000	-0.036	-0.108
-397.165	800.000	-0.019	-0.055
-396.150	-200.000	-0.017	-0.458
-395.136	576.223	0.066	-0.162
-394.121	-121.381	-0.080	-0.013
-393.106	199.268	-0.198	-0.305
-392.092	29.755	0.104	0.089
-391.077	-200.000	0.003	-0.055
-390.063	-81.819	0.334	-0.110
-389.048	-101.203	0.376	-0.093
-388.033	-30.960	-0.238	-0.135
-387.019	193.750	0.108	0.165
-386.004	5.930	-0.271	0.202
-384.990	-200.000	-0.021	-0.223
-383.975	286.252	0.054	0.098
-382.960	1.858	0.270	-0.196
-381.946	-200.000	-0.009	-0.218
-380.931	-195.172	0.158	0.001
-379.917	-46.277	0.153	0.076
-378.902	163.356	-0.139	0.196
-377.888	131.507	0.206	0.267
-376.873	369.969	-0.045	-0.092
-375.858	19.991	-0.260	0.211
-374.844	-138.257	-0.222	-0.025
-373.829	8.256	0.285	0.216
-372.815	800.000	0.027	-0.080
-371.800	800.000	-0.055	0.186
-370.785	47.060	-0.108	-0.101
-369.771	76.365	-0.138	-0.147
-368.756	-4.109	-0.283	-0.198
-367.742	209.053	0.171	0.269
-366.727	25.001	0.073	0.061
-365.712	-27.688	0.154	-0.090
-364.698	-4.374	0.210	0.146
-363.683	-138.103	0.245	0.027
-362.669	62.721	0.143	0.144
-361.654	-174.114	-0.093	-0.003
-360.639	-97.179	0.120	0.031
-359.625	133.670	0.073	0.096
-358.610	-124.854	-0.320	-0.050
-357.596	-29.083	0.240	-0.139
-356.581	-35.909	-0.277	-0.151
-355.566	-200.000	-0.064	0.467
-354.552	561.787	0.065	-0.159
-353.537	-200.000	-0.017	-0.079
-352.523	-37.133	0.261	0.141
-351.508	-126.759	0.338	0.050
-350.493	-125.201	0.165	0.025
-349.479	-200.000	0.004	-0.227
-348.464	-183.854	0.071	0.001
-347.450	-27.182	-0.241	0.141
-346.435	-200.000	-0.010	-0.116
-345.420	-106.528	0.311	0.070
-344.406	800.000	0.078	0.265
-343.391	704.050	0.046	0.122
-342.377	-37.299	-0.121	0.065
-341.362	-200.000	-0.018	0.103
-340.348	-200.000	0.030	0.141
-339.333	800.000	-0.057	-0.239
-338.318	22.903	0.241	0.199
-337.304	50.797	0.197	0.187
-336.289	26.473	-0.065	-0.055
-335.275	-5.587	0.282	0.194
-334.260	18.348	0.092	0.074
-333.245	23.152	0.112	0.093
-332.231	83.211	-0.120	0.131
-331.216	-118.215	0.275	0.049
-330.202	-86.997	-0.269	-0.082
-329.187	800.000	0.111	-0.351
-328.172	-70.131	-0.111	0.042
-327.158	-33.297	0.252	0.140
-326.143	-23.086	-0.082	-0.050
-325.129	-66.572	-0.238	-0.095
-324.114	44.179	0.064	0.059
-323.099	-200.000	0.003	0.196
-322.085	-200.000	-0.045	0.342
-321.070	66.081	-0.233	0.238
-320.056	-61.304	-0.295	0.125
-319.041	-89.079	-0.102	-0.030
-318.026	800.000	-0.063	0.224
-317.012	151.976	-0.156	0.213
-315.997	800.000	-0.052	-0.226
-314.983	44.484	-0.129	-0.119
-313.968	-113.208	0.324	0.064
-312.953	7.252	-0.176	-0.132
-311.939	44.554	-0.198	0.183
-310.924	-54.924	0.296	0.134
-309.910	199.762	-0.180	0.278
-308.895	-200.000	-0.001	-0.145
-307.880	742.055	-0.028	-0.074
-306.866	-91.810	0.137	-0.039
-305.851	-200.000	-0.012	-0.184
-304.837	800.000	0.057	0.184
-303.822	222.154	0.094	-0.151
-302.807	-200.000	0.007	-0.068
-301.793	33.208	-0.199	0.174
-300.778	-48.987	0.177	0.085
-299.764	-19.530	-0.328	-0.204
-298.749	800.000	-0.069	-0.279
-297.735	-200.000	-0.009	0.086
-296.720	-200.000	-0.019	-0.238
-295.705	764.288	-0.147	-0.401
-294.691	515.412	0.033	0.078
-293.676	-41.342	-0.092	0.048
-292.662	-200.000	0.005	-0.033
-291.647	700.094	0.021	0.054
-290.632	-200.000	-0.064	-0.381
-289.618	-83.256	-0.046	-0.015
-288.603	87.067	-0.111	-0.123
-287.589	-200.000	0.073	0.320
-286.574	-200.000	0.026	-0.258
-285.559	-139.543	0.259	-0.028
-284.545	-112.280	-0.173	-0.035
-283.530	-200.000	-0.034	0.582
-282.516	-4.055	-0.162	0.113
-281.501	21.177	0.215	0.175
-280.486	-200.000	0.079	-0.392
-279.472	43.564	-0.144	-0.132
-278.457	-13.908	-0.142	-0.092
-277.443	-14.362	0.163	-0.105
-276.428	-200.000	0.044	0.209
-275.413	463.831	0.020	0.044
-274.399	226.084	0.049	0.079
-273.384	-131.317	0.539	0.072
-272.370	-68.829	0.086	-0.033
-271.355	109.472	0.067	-0.081
-270.340	-200.000	-0.006	0.057
-269.326	800.000	-0.049	0.195
-268.311	-124.753	0.260	0.040
-267.297	-5.717	0.107	-0.073
-266.282	-89.762	-0.033	0.010
-265.267	-6.499	0.256	0.175
-264.253	446.991	-0.071	-0.157
-263.238	-39.136	0.375	0.198
-262.224	-51.460	-0.248	-0.116
-261.209	-144.222	-0.021	0.002
-260.195	-200.000	-0.074	-0.396
-259.180	79.226	0.266	-0.286
-258.165	-38.284	0.120	0.064
-257.151	-155.882	0.195	-0.012
-256.136	40.927	-0.164	0.148
-255.122	26.465	0.298	0.250
-254.107	-17.347	-0.114	-0.072
-253.092	-40.758	-0.031	-0.016
-252.078	111.126	0.096	0.115
-251.063	195.528	0.114	0.174
-250.049	-36.057	0.312	-0.169
-249.034	800.000	0.064	-0.201
-248.019	19.388	0.115	-0.093
-247.005	-200.000	-0.011	0.374
-245.990	189.985	0.127	-0.190
-244.976	800.000	-0.067	-0.188
-243.961	-6.870	0.128	0.087
-242.946	158.647	0.263	0.366
-241.932	-31.577	-0.365	0.205
-240.917	-11.845	-0.165	-0.108
-239.903	43.017	-0.141	0.129
-238.888	-200.000	0.021	-0.212
-237.873	800.000	0.085	0.328
-236.859	-42.417	0.109	-0.056
-235.844	-47.695	-0.181	-0.088
-234.830	800.000	-0.038	0.146
-233.815	378.786	0.058	0.119
-232.800	-29.696	-0.244	0.140
-231.786	96.111	-0.167	-0.191
-230.771	545.087	-0.085	0.203
-229.757	-111.640	0.400	-0.081
-228.742	-44.819	0.073	0.036
-227.727	-200.000	0.011	0.061
-226.713	75.351	-0.186	0.196
-225.698	434.875	0.117	0.256
-224.684	-21.863	-0.145	-0.088
-223.669	214.699	-0.106	-0.169
-222.655	63.613	0.160	0.161
-221.640	-111.376	0.418	0.085
-220.625	-51.511	0.250	-0.117
-219.611	312.134	-0.042	-0.079
-218.596	128.131	-0.189	-0.241
-217.582	-160.971	-0.238	0.013
-216.567	387.401	-0.042	0.086
-215.552	-84.790	-0.141	-0.044
-214.538	148.669	-0.124	0.167
-213.523	-67.575	-0.430	0.169
-212.509	-104.793	-0.079	-0.018
-211.494	57.282	0.147	0.144
-210.479	757.940	-0.100	-0.270
-209.465	800.000	-0.001	0.003
-208.450	-68.673	-0.210	0.081
-207.436	65.832	-0.081	-0.082
-206.421	148.896	-0.101	-0.137
-205.406	736.946	-0.066	0.176
-204.392	222.001	-0.127	0.205
-203.377	-170.176	0.145	0.005
-202.363	-55.424	0.099	0.045
-201.348	-25.294	0.162	-0.096
-200.333	-63.590	-0.073	0.030
-199.319	37.086	0.326	-0.288
-198.304	-200.000	-0.050	-0.267
-197.290	254.366	-0.144	-0.247
-196.275	800.000	-0.112	-0.359
-195.260	-49.525	-0.087	-0.042
-194.246	-200.000	0.003	0.031
-193.231	-200.000	-0.017	0.246
-192.217	-6.727	-0.281	0.191
-191.202	39.702	0.127	-0.114
-190.187	-140.859	-0.164	-0.017
-189.173	800.000	-0.143	0.605
-188.158	-134.173	-0.223	0.027
-187.144	-111.435	-0.205	0.042
-186.129	81.460	0.258	0.279
-185.114	-109.969	-0.163	0.034
-184.100	-200.000	-0.058	0.288
-183.085	-77.703	0.201	-0.070
-182.071	614.444	0.041	-0.102
-181.056	-48.157	-0.143	0.069
-180.042	152.235	0.160	-0.219
-179.027	112.739	-0.166	-0.201
-178.012	-179.684	-0.239	-0.005
-176.998	-200.000	0.029	0.210
-175.983	-73.409	-0.244	0.089
-174.969	-13.367	0.185	-0.120
-173.954	67.524	0.284	0.289
-172.939	-200.000	-0.040	0.410
-171.925	12.254	0.163	0.125
-170.910	12.369	0.105	-0.081
-169.896	-21.292	-0.163	-0.099
-168.881	-69.968	-0.380	0.145
-167.866	-56.806	0.336	0.148
-166.852	-32.625	-0.093	0.052
-165.837	-54.570	0.222	0.100
-164.823	-0.031	0.075	-0.053
-163.808	-102.197	0.242	0.058
-162.793	295.162	-0.047	0.085
-161.779	-54.663	0.057	-0.026
-160.764	88.346	-0.079	-0.087
-159.750	-145.634	-0.209	0.019
-158.735	-0.316	0.209	-0.148
-157.720	800.000	0.031	-0.092
-156.706	48.208	-0.091	-0.085
-155.691	585.535	-0.169	-0.415
-154.677	-97.653	-0.133	0.034
-153.662	-200.000	-0.045	0.327
-152.647	-129.935	-0.152	-0.021
-151.633	349.663	-0.088	-0.174
-150.618	697.967	0.022	-0.058
-149.604	113.572	0.208	-0.252
-148.589	-200.000	-0.020	0.196
-147.574	428.160	0.058	0.124
-146.560	-200.000	0.011	-0.304
-145.545	247.428	0.004	-0.007
-144.531	-86.149	-0.059	0.018
-143.516	-167.930	0.364	0.014
-142.502	609.945	0.156	-0.389
-141.487	-108.435	-0.162	0.035
-140.472	-39.481	-0.098	-0.051
-139.458	-49.174	-0.356	-0.170
-138.443	129.869	-0.235	-0.300
-137.429	230.312	-0.058	0.094
-136.414	-1.997	-0.162	-0.114
-135.399	-19.052	0.128	-0.080
-134.385	-199.808	-0.045	0.000
-133.370	-59.029	0.232	-0.100
-132.356	800.000	-0.017	0.054
-131.341	-112.794	0.151	0.030
-130.326	-99.369	0.084	0.021
-129.312	580.738	-0.080	0.195
-128.297	-121.568	-0.064	-0.011
-127.283	262.364	0.197	0.340
-126.268	-200.000	-0.021	-0.141
-125.253	160.592	0.103	-0.143
-124.239	120.153	-0.295	0.364
-123.224	352.340	-0.098	-0.195
-122.210	17.268	0.264	0.209
-121.195	-152.272	-0.116	0.008
