DTS Sentinel unit serial number:	SN413079Multiplexer serial number:	ORYXHardware model number:	OX4-SRSoftware version number:	ORYX F/W v4.00 Oryx Data Collector v3.7.2.0data status	okinstallation	princeton_trtdifferential loss correction	single-endedforward channel	channel 3reverse channel	N/Adate	2019/09/18time	11:12:34forward acquisition time	60.00reverse acquisition time	0.00gamma	496.2192k internal	0.2326k external	0.2326temperature offset calibration	0.9957default loss term (dB/km)	0.3790temperature slope calibration	1.0000multiplexer offset coefficient	1.0000multiplexer slope coefficient	1.0000fibre end	0.00T internal ref (°C)	29.69T ext. ref 1 (°C)	0.41T ext. ref 2 (°C)	26.57length (m)	temperature (°C)	Stokes	anti-Stokes-747.200	-183.682	0.334	-0.006
-746.185	-200.000	-0.050	0.235
-745.171	10.120	0.114	0.088
-744.156	290.159	-0.198	-0.362
-743.142	-157.972	0.424	0.025
-742.127	800.000	-0.066	0.198
-741.112	-25.566	-0.222	0.132
-740.098	-200.000	-0.000	0.257
-739.083	-23.534	-0.228	0.138
-738.069	29.016	-0.140	-0.119
-737.054	109.567	0.173	0.209
-736.039	800.000	-0.019	0.056
-735.025	-79.070	0.310	0.106
-734.010	-200.000	-0.018	-0.547
-732.996	-115.141	-0.175	0.033
-731.981	-107.572	0.164	-0.036
-730.966	-4.962	0.135	-0.093
-729.952	800.000	-0.100	-0.357
-728.937	6.839	-0.194	0.146
-727.923	242.445	0.080	-0.136
-726.908	6.034	-0.179	0.133
-725.894	422.117	-0.034	0.074
-724.879	159.035	-0.209	-0.293
-723.864	800.000	-0.007	0.027
-722.850	-105.839	-0.388	-0.088
-721.835	64.255	0.268	-0.272
-720.821	-32.158	-0.082	-0.046
-719.806	536.135	-0.007	-0.017
-718.791	33.585	0.180	-0.158
-717.777	-113.588	0.176	0.035
-716.762	-200.000	0.014	0.171
-715.748	696.117	0.116	0.307
-714.733	-200.000	0.005	-0.125
-713.718	-200.000	-0.026	0.236
-712.704	800.000	-0.024	0.073
-711.689	328.026	0.151	-0.292
-710.675	800.000	0.036	-0.124
-709.660	-102.003	0.121	-0.029
-708.645	-200.000	-0.042	0.413
-707.631	800.000	0.016	0.058
-706.616	-192.150	-0.279	0.003
-705.602	-200.000	0.010	-0.353
-704.587	-103.094	0.311	-0.074
-703.572	-29.200	-0.355	-0.205
-702.558	96.288	-0.166	0.191
-701.543	-78.661	0.273	0.094
-700.529	734.793	0.107	-0.289
-699.514	84.971	-0.031	-0.034
-698.499	-43.251	-0.159	-0.081
-697.485	324.399	0.226	-0.435
-696.470	-140.484	0.170	-0.018
-695.456	39.540	0.089	-0.080
-694.441	266.102	-0.071	0.125
-693.426	-77.496	-0.267	-0.093
-692.412	390.444	0.048	-0.101
-691.397	800.000	-0.137	-0.400
-690.383	-0.287	-0.122	-0.087
-689.368	-36.907	0.279	0.150
-688.354	73.836	0.218	0.230
-687.339	-200.000	0.009	-0.042
-686.324	364.688	-0.059	0.119
-685.310	-108.115	-0.172	-0.038
-684.295	-115.165	0.252	0.048
-683.281	800.000	0.088	-0.246
-682.266	63.803	-0.118	-0.120
-681.251	305.012	-0.140	0.261
-680.237	2.656	-0.129	-0.094
-679.222	800.000	0.053	-0.197
-678.208	-200.000	-0.031	-0.348
-677.193	4.694	0.128	-0.094
-676.178	-76.295	-0.273	-0.097
-675.164	-111.016	-0.172	-0.036
-674.149	800.000	0.077	0.289
-673.135	-134.876	0.249	0.030
-672.120	47.490	0.305	-0.286
-671.105	-140.624	0.182	-0.019
-670.091	-37.693	-0.159	0.085
-669.076	-57.440	0.312	0.138
-668.062	800.000	-0.027	-0.105
-667.047	-11.922	0.122	0.080
-666.032	-200.000	0.015	-0.361
-665.018	127.982	0.150	-0.192
-664.003	-112.249	-0.224	0.045
-662.989	16.293	0.136	-0.108
-661.974	-3.778	0.269	0.188
-660.959	46.109	-0.095	-0.089
-659.945	80.905	0.240	-0.260
-658.930	-111.843	-0.286	0.058
-657.916	-105.464	0.078	0.018
-656.901	2.534	0.105	0.076
-655.886	-47.071	-0.214	-0.105
-654.872	-174.140	-0.084	-0.002
-653.857	800.000	-0.076	-0.270
-652.843	36.971	-0.234	-0.208
-651.828	-200.000	0.005	0.333
-650.814	128.388	0.187	-0.239
-649.799	126.673	-0.209	-0.266
-648.784	-96.956	0.090	0.024
-647.770	-130.186	0.199	-0.027
-646.755	-54.948	0.113	-0.051
-645.741	16.776	-0.159	0.127
-644.726	-122.120	-0.210	-0.035
-643.711	468.620	-0.017	-0.038
-642.697	-114.085	-0.155	-0.030
-641.682	800.000	0.025	-0.088
-640.668	117.326	-0.292	-0.360
-639.653	119.648	0.023	0.028
-638.638	323.643	0.094	0.180
-637.624	-78.191	-0.427	0.147
-636.609	8.025	0.249	-0.188
-635.595	-200.000	0.027	0.159
-634.580	43.036	-0.315	-0.289
-633.565	-69.952	-0.194	-0.074
-632.551	-109.284	0.376	0.080
-631.536	-75.418	-0.163	-0.058
-630.522	13.285	-0.117	0.091
-629.507	-53.042	-0.059	-0.027
-628.492	-118.392	-0.423	0.075
-627.478	800.000	-0.027	0.095
-626.463	-3.488	-0.079	0.056
-625.449	102.221	0.118	-0.139
-624.434	155.594	0.056	0.077
-623.419	-81.305	-0.170	-0.056
-622.405	59.111	-0.127	-0.126
-621.390	-56.700	0.179	-0.079
-620.376	-161.984	-0.180	0.009
-619.361	4.932	0.214	-0.158
-618.346	-54.885	0.109	0.049
-617.332	800.000	-0.060	-0.183
-616.317	-184.086	0.253	-0.004
-615.303	49.938	-0.217	0.205
-614.288	175.996	-0.078	-0.114
-613.273	-200.000	-0.005	0.229
-612.259	-200.000	-0.007	0.169
-611.244	729.868	-0.112	-0.301
-610.230	67.001	0.130	-0.133
-609.215	-63.471	-0.125	-0.051
-608.201	-19.742	0.321	-0.199
-607.186	113.038	0.245	0.298
-606.171	-93.669	-0.147	0.041
-605.157	-63.811	-0.155	-0.064
-604.142	-200.000	-0.009	-0.158
-603.128	-93.323	-0.152	0.042
-602.113	-200.000	0.008	-0.127
-601.098	-136.187	0.173	-0.020
-600.084	152.221	-0.099	-0.136
-599.069	-47.480	0.293	-0.143
-598.055	177.453	-0.051	0.075
-597.040	142.552	0.126	-0.168
-596.025	244.022	0.041	0.068
-595.011	616.451	0.075	-0.189
-593.996	-77.721	-0.243	0.084
-592.982	11.179	0.022	-0.017
-591.967	800.000	0.083	-0.282
-590.952	800.000	-0.077	0.292
-589.938	-123.192	0.275	0.044
-588.923	90.667	-0.097	0.108
-587.909	8.709	0.154	0.116
-586.894	157.081	0.185	-0.256
-585.879	800.000	0.047	-0.133
-584.865	800.000	0.066	-0.291
-583.850	-13.174	-0.198	0.129
-582.836	442.384	0.045	0.099
-581.821	-161.191	0.120	0.006
-580.806	-200.000	-0.095	0.513
-579.792	438.954	-0.075	-0.164
-578.777	-17.603	-0.104	-0.066
-577.763	800.000	-0.158	-0.496
-576.748	75.179	-0.102	-0.108
-575.733	-37.399	-0.296	-0.159
-574.719	20.066	-0.115	-0.093
-573.704	16.849	-0.287	-0.228
-572.690	-200.000	0.018	-0.221
-571.675	800.000	0.060	0.198
-570.661	-57.378	-0.069	0.030
-569.646	800.000	-0.080	0.280
-568.631	-0.176	0.111	0.079
-567.617	619.719	-0.042	0.106
-566.602	-42.495	0.159	-0.081
-565.588	-159.345	-0.237	-0.013
-564.573	52.065	-0.153	-0.146
-563.558	-200.000	-0.025	-0.309
-562.544	800.000	0.095	0.361
-561.529	618.530	0.121	0.306
-560.515	-103.719	-0.291	-0.068
-559.500	-200.000	-0.037	-0.204
-558.485	-122.220	0.323	0.053
-557.471	-103.654	0.239	-0.056
-556.456	-30.302	-0.157	0.089
-555.442	115.327	-0.180	0.221
-554.427	-95.014	-0.128	-0.035
-553.412	-118.076	0.238	-0.043
-552.398	227.098	0.146	-0.237
-551.383	79.469	0.174	-0.186
-550.369	-200.000	0.006	-0.149
-549.354	-80.810	-0.196	0.065
-548.339	800.000	-0.110	-0.476
-547.325	173.538	0.201	0.290
-546.310	-10.900	-0.210	-0.139
-545.296	-14.957	0.182	0.117
-544.281	-200.000	0.011	0.155
-543.266	-105.216	0.315	0.072
-542.252	800.000	0.018	0.068
-541.237	-200.000	0.081	-0.639
-540.223	157.253	-0.125	-0.172
-539.208	-91.859	0.099	0.028
-538.193	99.464	0.343	0.397
-537.179	800.000	-0.092	0.304
-536.164	32.840	-0.087	0.076
-535.150	-152.081	-0.174	0.013
-534.135	-116.723	0.168	0.031
-533.121	197.906	0.107	0.164
-532.106	-74.304	-0.289	0.105
-531.091	-200.000	-0.365	-0.002
-530.077	527.341	-0.127	0.299
-529.062	34.124	-0.174	0.152
-528.048	-157.814	0.197	-0.012
-527.033	34.198	-0.105	-0.091
-526.018	450.713	0.057	-0.126
-525.004	266.419	0.146	0.256
-523.989	-200.000	0.008	0.125
-522.975	9.969	0.065	0.049
-521.960	-111.507	-0.227	-0.046
-520.945	-151.187	-0.350	-0.026
-519.931	-67.534	0.236	0.093
-518.916	-88.790	-0.182	-0.054
-517.902	79.405	-0.201	-0.215
-516.887	800.000	-0.031	-0.122
-515.872	-200.000	-0.021	0.266
-514.858	-146.060	-0.110	0.010
-513.843	-129.931	0.304	0.042
-512.829	800.000	0.055	0.202
-511.814	-200.000	-0.015	-0.095
-510.799	-146.517	0.485	0.042
-509.785	-50.748	0.223	-0.105
-508.770	-87.481	0.302	-0.091
-507.756	-1.720	0.226	-0.159
-506.741	229.450	0.201	-0.327
-505.726	-200.000	-0.031	-0.259
-504.712	405.226	-0.131	0.276
-503.697	76.063	-0.295	-0.311
-502.683	-200.000	0.038	-0.209
-501.668	-109.281	0.246	0.052
-500.653	314.625	-0.111	-0.209
-499.639	94.974	-0.139	0.158
-498.624	-31.825	-0.143	0.080
-497.610	-35.879	0.056	-0.030
-496.595	-27.243	0.305	0.177
-495.581	132.249	-0.222	0.285
-494.566	-59.408	-0.169	0.073
-493.551	800.000	0.016	-0.055
-492.537	163.873	-0.125	0.175
-491.522	-96.607	-0.185	-0.049
-490.508	-93.888	-0.059	-0.016
-489.493	-200.000	0.048	-0.382
-488.478	706.773	0.063	0.166
-487.464	-79.988	0.064	0.021
-486.449	116.886	0.046	0.057
-485.435	-190.918	-0.168	-0.002
-484.420	-64.893	0.317	-0.128
-483.405	6.627	-0.155	0.115
-482.391	-200.000	0.043	-0.414
-481.376	0.711	-0.170	0.121
-480.362	8.675	0.259	0.195
-479.347	-200.000	0.009	-0.200
-478.332	-200.000	0.034	-0.392
-477.318	-148.052	-0.292	-0.024
-476.303	179.100	-0.062	-0.091
-475.289	-122.413	-0.293	-0.048
-474.274	-18.888	-0.125	0.077
-473.259	-137.323	0.194	-0.022
-472.245	-61.806	0.317	0.133
-471.230	-200.000	-0.025	-0.185
-470.216	18.905	0.094	0.075
-469.201	110.831	0.245	-0.294
-468.186	562.623	0.074	0.180
-467.172	509.634	0.120	0.278
-466.157	35.478	0.395	0.346
-465.143	103.698	-0.109	-0.127
-464.128	800.000	0.080	-0.259
-463.113	78.723	-0.191	0.203
-462.099	-25.821	0.243	0.143
-461.084	-197.943	-0.402	0.002
-460.070	-200.000	0.023	-0.293
-459.055	-96.843	-0.085	-0.022
-458.040	-36.163	-0.423	0.228
-457.026	-134.646	0.293	-0.036
-456.011	186.711	0.128	-0.191
-454.997	-200.000	-0.094	-0.485
-453.982	62.119	0.126	-0.125
-452.968	222.746	0.297	-0.477
-451.953	260.256	-0.036	0.062
-450.938	800.000	-0.057	-0.216
-449.924	-28.318	0.506	-0.291
-448.909	-66.949	-0.257	-0.101
-447.895	-87.295	0.125	0.038
-446.880	-200.000	0.004	0.189
-445.865	78.565	0.197	0.210
-444.851	118.927	-0.145	-0.179
-443.836	-200.000	-0.020	0.131
-442.822	-200.000	0.023	0.253
-441.807	-98.483	-0.140	0.036
-440.792	342.238	-0.042	-0.082
-439.778	-55.509	0.072	-0.032
-438.763	-112.203	-0.063	-0.013
-437.749	800.000	-0.032	0.096
-436.734	-46.961	-0.154	-0.075
-435.719	292.034	0.185	-0.335
-434.705	-200.000	0.016	0.107
-433.690	389.300	0.049	0.101
-432.676	800.000	-0.022	0.071
-431.661	31.028	-0.192	0.164
-430.646	168.935	-0.141	-0.201
-429.632	0.899	-0.239	-0.171
-428.617	-56.351	-0.417	0.185
-427.603	-118.202	0.140	0.025
-426.588	114.093	0.202	0.245
-425.573	137.477	0.092	0.120
-424.559	-59.746	0.283	0.121
-423.544	729.744	0.031	0.084
-422.530	-16.872	0.054	0.034
-421.515	140.295	0.230	-0.302
-420.500	-72.336	0.160	0.059
-419.486	151.090	-0.127	0.172
-418.471	-64.800	-0.168	-0.068
-417.457	-20.366	-0.049	0.030
-416.442	144.310	-0.176	-0.234
-415.428	800.000	0.050	0.207
-414.413	497.262	0.081	0.185
-413.398	331.046	0.209	0.400
-412.384	179.602	-0.172	-0.251
-411.369	433.155	0.054	-0.116
-410.355	-200.000	-0.053	-0.268
-409.340	-200.000	-0.002	0.077
-408.325	-47.248	-0.229	-0.111
-407.311	-200.000	-0.009	0.091
-406.296	-141.938	-0.339	0.034
-405.282	-200.000	0.010	-0.115
-404.267	-200.000	-0.044	-0.375
-403.252	84.190	0.097	0.105
-402.238	-153.856	0.190	0.013
-401.223	-45.700	0.324	0.159
-400.209	221.464	-0.132	0.211
-399.194	113.164	0.245	0.295
-398.179	-175.704	0.172	0.005
-397.165	-47.193	-0.090	0.044
-396.150	-183.117	0.187	0.003
-395.136	517.706	0.063	-0.147
-394.121	800.000	0.112	-0.307
-393.106	-200.000	-0.027	-0.173
-392.092	169.357	0.234	0.332
-391.077	-200.000	0.056	0.346
-390.063	800.000	0.006	0.026
-389.048	217.719	-0.046	0.072
-388.033	-140.290	0.359	-0.037
-387.019	-128.661	0.376	-0.053
-386.004	-48.491	0.137	-0.066
-384.990	-131.384	-0.156	0.021
-383.975	141.955	0.052	-0.069
-382.960	-12.258	-0.122	-0.080
-381.946	-200.000	0.066	0.333
-380.931	800.000	-0.078	-0.215
-379.917	-200.000	0.011	-0.101
-378.902	303.018	0.171	0.315
-377.888	-55.710	-0.330	0.147
-376.873	-200.000	-0.011	-0.239
-375.858	-174.445	0.311	-0.009
-374.844	43.157	0.297	0.270
-373.829	49.314	-0.039	-0.037
-372.815	-139.298	-0.206	0.022
-371.800	83.228	-0.027	0.030
-370.785	31.748	0.211	0.181
-369.771	-60.173	-0.178	0.075
-368.756	-22.660	-0.129	0.077
-367.742	0.422	0.045	-0.032
-366.727	474.572	-0.015	-0.033
-365.712	0.522	-0.120	0.085
-364.698	-32.647	0.198	-0.110
-363.683	-41.505	-0.055	0.028
-362.669	589.344	0.092	0.225
-361.654	-161.243	-0.089	-0.005
-360.639	-111.409	0.081	-0.016
-359.625	6.920	-0.108	0.080
-358.610	-133.965	0.222	0.027
-357.596	-200.000	-0.010	-0.056
-356.581	71.496	0.180	-0.186
-355.566	7.792	-0.319	0.237
-354.552	-105.026	-0.162	0.037
-353.537	426.714	0.119	-0.254
-352.523	-20.651	-0.088	0.053
-351.508	45.884	0.113	0.104
-350.493	171.129	-0.175	-0.250
-349.479	-200.000	0.052	0.247
-348.464	-42.666	0.214	0.108
-347.450	-200.000	0.019	0.123
-346.435	-19.294	-0.396	-0.244
-345.420	728.623	-0.113	-0.300
-344.406	-145.934	0.321	0.028
-343.391	-200.000	0.001	-0.227
-342.377	-15.623	-0.179	-0.113
-341.362	-54.670	0.193	0.086
-340.348	-200.000	-0.012	0.149
-339.333	800.000	-0.061	0.171
-338.318	-160.426	0.085	-0.005
-337.304	-139.287	0.182	0.019
-336.289	800.000	0.098	0.284
-335.275	-110.692	0.281	-0.058
-334.260	84.561	-0.082	-0.089
-333.245	-200.000	-0.050	-0.222
-332.231	99.612	0.046	0.053
-331.216	800.000	0.091	-0.307
-330.202	-87.070	0.060	0.018
-329.187	-111.873	-0.166	0.033
-328.172	-8.280	-0.039	-0.026
-327.158	-168.930	-0.362	-0.013
-326.143	135.340	-0.191	0.246
-325.129	24.973	-0.338	0.279
-324.114	-200.000	0.001	-0.294
-323.099	116.558	-0.176	-0.214
-322.085	-142.976	-0.136	0.013
-321.070	800.000	0.030	-0.122
-320.056	62.756	-0.202	0.201
-319.041	11.951	-0.208	0.159
-318.026	-188.604	0.126	0.002
-317.012	288.666	0.032	0.058
-315.997	227.346	-0.161	0.259
-314.983	800.000	0.123	0.375
-313.968	-59.274	-0.180	0.077
-312.953	-10.936	0.344	-0.225
-311.939	147.768	-0.206	0.275
-310.924	55.564	0.108	0.104
-309.910	-109.623	0.108	-0.023
-308.895	-66.737	0.206	0.081
-307.880	-167.458	0.170	0.007
-306.866	800.000	0.070	0.283
-305.851	11.654	-0.157	0.120
-304.837	492.971	-0.243	0.553
-303.822	1.305	-0.064	0.046
-302.807	-148.663	0.367	-0.030
-301.793	-126.214	-0.096	0.014
-300.778	61.611	-0.086	0.085
-299.764	-200.000	-0.021	-0.445
-298.749	800.000	-0.036	-0.129
-297.735	800.000	0.088	0.245
-296.720	709.463	0.070	0.183
-295.705	-42.444	-0.148	0.075
-294.691	233.615	0.263	0.429
-293.676	-62.557	-0.106	0.044
-292.662	61.596	0.184	-0.181
-291.647	-200.000	-0.007	-0.051
-290.632	-108.230	0.277	-0.059
-289.618	108.396	-0.103	0.122
-288.603	-185.093	-0.164	0.003
-287.589	320.536	0.127	0.239
-286.574	-80.228	-0.126	-0.042
-285.559	-118.589	-0.224	0.039
-284.545	-174.958	-0.368	-0.010
-283.530	-100.271	-0.183	-0.045
-282.516	-72.953	-0.401	0.146
-281.501	230.307	-0.083	0.134
-280.486	-200.000	0.071	-0.430
-279.472	-200.000	0.041	-0.264
-278.457	-77.913	0.144	0.049
-277.443	6.722	0.281	0.207
-276.428	292.415	0.061	0.111
-275.413	449.654	0.111	-0.242
-274.399	-8.488	0.408	-0.272
-273.384	-200.000	-0.104	0.000
-272.370	239.142	-0.100	0.165
-271.355	-200.000	-0.004	0.150
-270.340	-200.000	-0.000	0.157
-269.326	134.811	-0.138	-0.178
-268.311	-189.778	-0.484	-0.005
-267.297	-200.000	-0.024	0.122
-266.282	193.640	0.165	0.247
-265.267	450.709	0.031	0.067
-264.253	9.946	-0.150	0.113
-263.238	5.982	-0.295	0.216
-262.224	-200.000	-0.025	-0.428
-261.209	-115.866	-0.215	-0.040
-260.195	336.841	-0.149	0.287
-259.180	800.000	0.021	0.087
-258.165	173.397	0.305	0.435
-257.151	115.567	-0.309	-0.373
-256.136	-133.484	0.155	0.019
-255.122	108.550	0.059	-0.070
-254.107	-16.893	0.129	0.080
-253.092	-13.757	0.187	-0.120
-252.078	109.318	0.056	0.067
-251.063	-200.000	-0.007	-0.190
-250.049	-109.956	0.294	0.061
-249.034	-79.409	0.170	-0.057
-248.019	-145.978	-0.181	-0.016
-247.005	-200.000	-0.002	-0.169
-245.990	109.289	0.271	0.321
-244.976	40.315	-0.032	0.028
-243.961	-140.767	-0.513	0.052
-242.946	55.415	0.126	-0.121
-241.932	34.720	-0.173	0.150
-240.917	356.955	0.108	-0.213
-239.903	-132.489	-0.136	-0.017
-238.888	-15.214	-0.158	-0.100
-237.873	71.442	0.040	0.041
-236.859	-153.810	-0.100	-0.007
-235.844	-200.000	0.086	-0.376
-234.830	-44.814	0.343	-0.169
-233.815	113.774	-0.032	0.039
-232.800	-0.090	0.292	0.206
-231.786	-34.358	0.192	0.104
-230.771	242.859	-0.191	0.316
-229.757	-200.000	0.011	0.051
-228.742	800.000	0.073	0.276
-227.727	-200.000	0.024	-0.242
-226.713	-104.301	-0.067	-0.015
-225.698	-2.100	0.350	-0.243
-224.684	800.000	0.046	-0.154
-223.669	323.804	0.107	-0.202
-222.655	278.965	-0.035	-0.061
-221.640	79.767	-0.039	0.041
-220.625	-156.440	0.139	-0.009
-219.611	-76.931	-0.217	-0.075
-218.596	-153.594	0.286	0.019
-217.582	-67.127	0.074	0.029
-216.567	547.035	0.120	-0.284
-215.552	207.506	0.118	-0.182
-214.538	-42.999	-0.233	0.117
-213.523	-200.000	-0.011	0.080
-212.509	376.850	-0.116	-0.235
-211.494	-156.201	-0.358	0.022
-210.479	-75.674	-0.175	-0.061
-209.465	-200.000	0.027	-0.501
-208.450	346.901	0.063	0.123
-207.436	-62.016	0.293	0.121
-206.421	-200.000	-0.015	0.167
-205.406	129.508	0.117	0.147
-204.392	27.753	-0.033	-0.027
-203.377	800.000	0.020	0.065
-202.363	390.502	-0.088	-0.180
-201.348	-200.000	-0.010	0.116
-200.333	-200.000	0.018	0.116
-199.319	-200.000	-0.061	0.293
-198.304	41.445	-0.413	0.369
-197.290	800.000	0.021	-0.071
-196.275	800.000	-0.103	-0.421
-195.260	228.153	0.112	0.180
-194.246	55.395	-0.128	0.122
-193.231	358.386	0.027	-0.053
-192.217	189.534	-0.281	0.416
-191.202	-68.913	-0.093	-0.035
-190.187	-200.000	-0.007	0.085
-189.173	-127.287	-0.037	0.005
-188.158	80.887	0.189	0.201
-187.144	-175.832	0.698	0.018
-186.129	-200.000	-0.031	-0.477
-185.114	800.000	-0.075	-0.207
-184.100	-82.043	-0.041	-0.013
-183.085	-91.455	0.195	0.055
-182.071	-200.000	-0.080	-0.477
-181.056	79.987	0.240	0.255
-180.042	-99.462	-0.410	0.102
-179.027	-150.872	-0.330	0.025
-178.012	0.991	0.073	0.052
-176.998	-68.169	0.192	0.074
-175.983	45.692	-0.286	-0.261
-174.969	-77.201	0.279	0.096
-173.954	19.151	-0.142	-0.112
-172.939	-148.829	-0.078	0.006
-171.925	108.724	-0.339	-0.400
-170.910	-200.000	-0.017	-0.138
-169.896	800.000	0.062	-0.250
-168.881	211.056	0.054	-0.083
-167.866	5.074	0.099	-0.072
-166.852	-23.785	0.160	0.095
-165.837	-42.108	-0.198	0.100
-164.823	-41.304	0.138	0.070
-163.808	-133.757	-0.335	-0.041
-162.793	-200.000	0.001	0.055
-161.779	31.817	-0.092	0.078
-160.764	145.942	-0.152	0.202
-159.750	-200.000	0.004	0.093
-158.735	-200.000	0.004	-0.082
-157.720	-200.000	0.027	0.291
-156.706	263.011	0.090	-0.154
-155.691	-51.183	0.302	0.139
-154.677	78.419	0.124	0.130
-153.662	-124.947	0.247	-0.037
-152.647	399.472	0.178	0.367
-151.633	-100.952	-0.066	0.016
-150.618	-87.054	-0.074	0.022
-149.604	800.000	0.109	-0.323
-148.589	-50.283	0.089	0.041
-147.574	239.473	-0.242	-0.396
-146.560	800.000	-0.085	-0.300
-145.545	800.000	-0.043	-0.124
-144.531	20.224	-0.120	0.096
-143.516	76.252	0.237	0.248
-142.502	432.148	-0.085	0.182
-141.487	237.198	-0.072	-0.118
-140.472	-200.000	0.061	-0.263
-139.458	-95.694	-0.301	-0.079
-138.443	-200.000	-0.045	0.311
-137.429	-0.749	0.200	-0.140
-136.414	800.000	-0.034	0.136
-135.399	-200.000	-0.009	-0.477
-134.385	96.115	0.168	-0.190
-133.370	243.272	-0.105	0.173
-132.356	26.251	-0.186	0.153
-131.341	-95.385	-0.151	0.040
-130.326	138.722	0.071	-0.092
-129.312	-200.000	-0.076	0.403
-128.297	14.585	-0.073	0.056
-127.283	-47.663	0.040	-0.019
-126.268	176.982	-0.341	0.489
-125.253	34.036	0.245	-0.211
-124.239	-70.366	0.219	-0.082
-123.224	-136.520	0.234	0.027
-122.210	-192.444	-0.389	0.004
-121.195	-200.000	0.006	0.166
