DTS Sentinel unit serial number:	SN413079Multiplexer serial number:	ORYXHardware model number:	OX4-SRSoftware version number:	ORYX F/W v4.00 Oryx Data Collector v3.7.2.0data status	okinstallation	princeton_trtdifferential loss correction	single-endedforward channel	channel 3reverse channel	N/Adate	2019/09/18time	11:28:35forward acquisition time	60.00reverse acquisition time	0.00gamma	496.2192k internal	0.2326k external	0.2326temperature offset calibration	0.9957default loss term (dB/km)	0.3790temperature slope calibration	1.0000multiplexer offset coefficient	1.0000multiplexer slope coefficient	1.0000fibre end	0.00T internal ref (°C)	30.36T ext. ref 1 (°C)	0.43T ext. ref 2 (°C)	28.19length (m)	temperature (°C)	Stokes	anti-Stokes-747.200	71.917	0.307	0.323
-746.185	-143.109	-0.423	0.041
-745.171	-200.000	-0.008	0.140
-744.156	-71.921	-0.388	0.146
-743.142	-50.728	0.189	-0.090
-742.127	1.922	-0.106	0.077
-741.112	-26.806	-0.210	-0.124
-740.098	-200.000	-0.006	0.030
-739.083	-27.168	0.173	0.101
-738.069	800.000	-0.074	0.320
-737.054	-36.373	0.295	-0.160
-736.039	800.000	-0.023	-0.102
-735.025	-200.000	0.010	-0.114
-734.010	-200.000	-0.056	-0.353
-732.996	5.634	0.065	0.049
-731.981	-88.680	0.272	0.082
-730.966	-116.162	-0.250	0.047
-729.952	632.898	0.169	-0.432
-728.937	485.743	-0.019	0.044
-727.923	-32.018	-0.341	-0.193
-726.908	171.530	-0.007	0.011
-725.894	9.512	0.057	-0.043
-724.879	-16.481	-0.393	-0.251
-723.864	208.165	0.067	-0.106
-722.850	143.424	-0.175	-0.235
-721.835	-105.258	-0.145	0.033
-720.821	130.574	0.192	0.248
-719.806	23.368	0.278	-0.230
-718.791	800.000	0.050	-0.222
-717.777	-173.227	-0.225	0.007
-716.762	47.050	-0.239	0.224
-715.748	-200.000	-0.005	0.107
-714.733	-179.864	0.411	0.009
-713.718	-22.713	0.373	0.227
-712.704	-157.009	0.214	0.013
-711.689	208.299	0.215	0.338
-710.675	-8.789	0.381	0.258
-709.660	91.181	0.067	-0.076
-708.645	326.867	-0.235	-0.454
-707.631	800.000	0.086	0.357
-706.616	-90.437	0.232	0.068
-705.602	34.626	-0.023	-0.020
-704.587	462.652	0.139	0.313
-703.572	-7.120	0.161	-0.110
-702.558	800.000	0.041	-0.168
-701.543	251.731	-0.239	-0.409
-700.529	-160.675	-0.300	-0.016
-699.514	-113.155	-0.275	0.055
-698.499	264.816	0.133	0.233
-697.485	509.751	0.133	0.312
-696.470	800.000	-0.102	0.319
-695.456	-145.674	-0.421	-0.038
-694.441	203.938	-0.189	0.294
-693.426	-131.702	-0.426	-0.056
-692.412	-188.368	-0.361	0.005
-691.397	800.000	0.152	-0.526
-690.383	-179.102	-0.236	0.005
-689.368	-6.067	0.310	-0.214
-688.354	-9.024	0.082	0.055
-687.339	172.242	-0.125	-0.181
-686.324	-200.000	-0.009	-0.238
-685.310	800.000	-0.053	0.214
-684.295	51.279	0.120	-0.115
-683.281	189.460	-0.179	-0.271
-682.266	-141.100	0.159	-0.016
-681.251	800.000	-0.088	-0.246
-680.237	-28.689	0.092	0.053
-679.222	51.479	-0.259	-0.248
-678.208	-162.779	-0.346	0.017
-677.193	99.042	0.103	-0.120
-676.178	-76.513	-0.525	-0.186
-675.164	-143.703	0.212	-0.020
-674.149	-112.830	-0.326	-0.065
-673.135	800.000	-0.034	-0.114
-672.120	-200.000	-0.008	-0.287
-671.105	342.111	0.112	0.220
-670.091	464.117	-0.083	-0.186
-669.076	-84.913	-0.181	0.057
-668.062	800.000	-0.044	-0.134
-667.047	186.211	-0.103	-0.154
-666.032	-200.000	0.004	0.092
-665.018	222.378	-0.058	0.094
-664.003	-101.222	0.354	0.087
-662.989	-200.000	0.002	-0.152
-661.974	125.513	-0.319	0.405
-660.959	-200.000	-0.013	0.069
-659.945	1.823	0.230	0.167
-658.930	-37.377	0.039	-0.021
-657.916	-200.000	-0.352	0.000
-656.901	-22.557	-0.316	-0.192
-655.886	-112.659	-0.320	0.064
-654.872	66.552	-0.236	-0.241
-653.857	347.966	0.179	-0.354
-652.843	800.000	0.056	0.234
-651.828	-72.787	0.113	-0.042
-650.814	35.312	-0.138	-0.122
-649.799	-151.440	-0.317	0.024
-648.784	-200.000	0.044	-0.221
-647.770	-15.869	0.104	0.067
-646.755	-70.112	-0.266	0.102
-645.741	-70.454	-0.114	0.043
-644.726	-30.446	-0.185	-0.105
-643.711	-140.772	-0.419	-0.043
-642.697	-200.000	-0.052	-0.394
-641.682	46.059	-0.036	0.033
-640.668	-22.458	0.205	0.124
-639.653	778.194	-0.016	-0.043
-638.638	-200.000	-0.037	-0.287
-637.624	800.000	-0.083	-0.362
-636.609	213.061	-0.193	0.306
-635.595	-43.174	-0.144	0.073
-634.580	-200.000	0.011	-0.051
-633.565	329.254	-0.177	-0.342
-632.551	145.756	-0.061	0.082
-631.536	-127.320	-0.043	0.006
-630.522	-59.889	-0.195	0.084
-629.507	35.919	0.125	-0.111
-628.492	120.638	-0.236	-0.294
-627.478	-22.945	0.287	-0.174
-626.463	800.000	-0.082	0.352
-625.449	-90.010	0.093	0.027
-624.434	121.938	-0.412	-0.516
-623.419	-6.669	0.108	-0.074
-622.405	4.322	-0.106	-0.078
-621.390	-200.000	-0.054	0.266
-620.376	-166.268	-0.342	0.015
-619.361	-156.016	-0.138	-0.009
-618.346	800.000	0.023	-0.091
-617.332	-200.000	-0.034	-0.272
-616.317	-200.000	0.024	0.147
-615.303	45.344	-0.173	-0.161
-614.288	718.247	-0.139	0.372
-613.273	-111.441	-0.085	0.017
-612.259	-165.793	-0.025	-0.001
-611.244	121.990	0.169	0.212
-610.230	-135.476	-0.161	0.019
-609.215	112.803	-0.105	0.128
-608.201	-200.000	-0.009	-0.121
-607.186	800.000	-0.072	-0.279
-606.171	-28.766	0.271	-0.157
-605.157	-104.580	0.018	0.004
-604.142	91.029	0.055	0.062
-603.128	800.000	-0.024	0.075
-602.113	-113.080	-0.297	-0.059
-601.098	212.769	0.196	0.310
-600.084	-200.000	0.018	-0.191
-599.069	-130.411	-0.173	-0.023
-598.055	108.808	-0.111	0.133
-597.040	-63.505	0.087	0.036
-596.025	14.762	-0.082	0.064
-595.011	107.141	-0.210	0.251
-593.996	152.112	0.157	0.215
-592.982	-200.000	-0.056	0.369
-591.967	380.348	0.071	-0.146
-590.952	-125.127	0.110	0.017
-589.938	128.316	0.216	0.276
-588.923	198.819	-0.078	-0.120
-587.909	-121.119	0.198	0.033
-586.894	78.360	0.175	0.187
-585.879	-48.254	-0.223	0.108
-584.865	-40.940	0.120	-0.062
-583.850	132.529	0.101	0.131
-582.836	456.374	0.083	-0.186
-581.821	-30.509	0.232	-0.132
-580.806	-98.719	0.400	0.102
-579.792	12.572	0.324	-0.251
-578.777	-56.228	-0.287	0.128
-577.763	492.121	-0.160	0.367
-576.748	-175.108	-0.276	0.008
-575.733	-104.577	-0.204	0.047
-574.719	-200.000	0.035	-0.421
-573.704	800.000	-0.078	-0.258
-572.690	178.282	-0.071	-0.104
-571.675	92.918	0.373	0.422
-570.661	129.371	0.053	-0.068
-569.646	245.320	-0.204	-0.343
-568.631	92.656	0.156	-0.177
-567.617	-98.200	-0.131	0.034
-566.602	-172.905	-0.158	-0.005
-565.588	-7.806	-0.025	-0.017
-564.573	-200.000	0.056	-0.000
-563.558	800.000	0.008	-0.024
-562.544	621.558	0.054	0.137
-561.529	237.386	-0.232	0.385
-560.515	122.771	-0.270	-0.339
-559.500	-4.236	0.101	-0.070
-558.485	800.000	0.140	0.543
-557.471	-132.588	0.235	0.030
-556.456	-200.000	-0.019	-0.225
-555.442	800.000	-0.117	-0.410
-554.427	-124.533	-0.183	0.028
-553.412	-20.143	-0.242	-0.149
-552.398	207.538	-0.022	0.035
-551.383	20.546	0.056	-0.045
-550.369	-62.062	-0.306	-0.128
-549.354	238.475	-0.057	0.094
-548.339	-115.534	0.083	-0.016
-547.325	-200.000	-0.009	0.185
-546.310	-120.551	0.123	-0.021
-545.296	-200.000	0.016	-0.071
-544.281	557.295	-0.042	0.102
-543.266	-200.000	0.089	-0.431
-542.252	-43.210	-0.160	-0.081
-541.237	59.946	-0.132	0.130
-540.223	-55.834	-0.155	0.069
-539.208	-6.989	-0.304	-0.207
-538.193	276.337	0.075	-0.133
-537.179	-87.656	-0.273	-0.082
-536.164	-87.711	-0.027	-0.008
-535.150	178.587	0.075	-0.110
-534.135	-146.660	0.128	-0.011
-533.121	-136.221	-0.178	-0.021
-532.106	-77.676	-0.398	-0.138
-531.091	4.796	0.203	-0.150
-530.077	45.949	0.111	0.102
-529.062	-37.861	0.152	0.081
-528.048	-200.000	-0.002	0.159
-527.033	9.644	0.261	0.198
-526.018	51.285	0.122	0.116
-525.004	50.880	-0.087	-0.082
-523.989	-200.000	-0.037	-0.341
-522.975	13.766	-0.211	-0.164
-521.960	271.055	-0.097	0.171
-520.945	-200.000	-0.000	0.178
-519.931	-195.675	0.494	-0.004
-518.916	301.219	0.090	-0.166
-517.902	-167.541	0.183	-0.007
-516.887	392.390	-0.078	-0.162
-515.872	-111.113	-0.028	0.006
-514.858	-200.000	-0.016	-0.232
-513.843	576.608	0.090	0.219
-512.829	-200.000	0.066	0.321
-511.814	26.502	0.164	-0.137
-510.799	38.212	-0.159	-0.141
-509.785	-27.024	-0.053	0.031
-508.770	163.023	0.306	-0.429
-507.756	259.712	-0.209	-0.361
-506.741	-158.974	-0.078	0.004
-505.726	-200.000	-0.022	0.307
-504.712	79.193	-0.124	-0.133
-503.697	-192.696	-0.273	0.003
-502.683	-200.000	0.037	0.176
-501.668	-61.175	0.159	0.067
-500.653	-122.523	0.341	-0.055
-499.639	223.771	-0.216	0.348
-498.624	95.653	0.218	0.248
-497.610	-35.333	0.093	0.051
-496.595	96.778	-0.156	-0.179
-495.581	57.538	-0.309	-0.301
-494.566	-158.889	0.047	-0.003
-493.551	-200.000	-0.023	-0.127
-492.537	-63.336	0.201	-0.083
-491.522	-56.532	-0.132	-0.058
-490.508	233.300	0.057	0.093
-489.493	68.515	-0.052	-0.053
-488.478	800.000	0.028	-0.098
-487.464	32.417	-0.305	-0.263
-486.449	375.791	0.078	0.160
-485.435	8.527	-0.317	0.238
-484.420	594.897	0.183	0.452
-483.405	71.431	-0.037	0.039
-482.391	-104.987	0.364	-0.083
-481.376	58.051	-0.024	-0.023
-480.362	-200.000	0.001	0.180
-479.347	-200.000	0.037	-0.182
-478.332	277.581	0.110	-0.195
-477.318	800.000	0.054	-0.234
-476.303	-5.214	-0.198	-0.136
-475.289	-151.462	0.254	-0.019
-474.274	39.105	0.130	0.116
-473.259	473.654	-0.047	-0.105
-472.245	-200.000	-0.021	-0.149
-471.230	-87.291	0.279	0.085
-470.216	-200.000	-0.000	0.129
-469.201	800.000	-0.029	-0.091
-468.186	-83.252	-0.312	0.100
-467.172	-90.273	0.296	-0.086
-466.157	800.000	0.073	0.201
-465.143	800.000	-0.068	-0.242
-464.128	800.000	-0.064	0.227
-463.113	264.310	-0.144	-0.250
-462.099	-129.073	0.258	0.036
-461.084	800.000	0.048	-0.159
-460.070	-67.055	-0.195	-0.077
-459.055	309.503	-0.121	-0.226
-458.040	-82.428	0.436	0.141
-457.026	-200.000	0.051	0.438
-456.011	800.000	0.031	0.119
-454.997	-120.142	-0.352	0.060
-453.982	69.140	0.278	0.285
-452.968	63.734	0.042	0.042
-451.953	26.832	0.092	0.077
-450.938	-200.000	-0.021	-0.130
-449.924	43.939	0.120	-0.110
-448.909	-70.128	0.222	-0.084
-447.895	-3.864	-0.330	0.229
-446.880	-200.000	-0.027	0.387
-445.865	50.234	0.104	-0.098
-444.851	-200.000	-0.037	-0.264
-443.836	800.000	-0.046	-0.127
-442.822	447.542	-0.146	0.321
-441.807	-53.875	0.034	-0.015
-440.792	-87.912	0.130	0.039
-439.778	-118.651	-0.102	-0.018
-438.763	-71.005	0.324	-0.122
-437.749	790.741	-0.080	0.220
-436.734	107.098	0.203	-0.241
-435.719	800.000	0.071	-0.262
-434.705	-182.185	-0.333	0.006
-433.690	-200.000	-0.049	0.289
-432.676	-104.308	0.345	-0.080
-431.661	800.000	0.069	0.238
-430.646	74.731	0.111	0.117
-429.632	-65.601	-0.187	-0.075
-428.617	20.913	0.160	-0.129
-427.603	-200.000	-0.022	-0.263
-426.588	-3.683	0.187	0.129
-425.573	368.895	-0.019	0.039
-424.559	-5.655	-0.043	0.030
-423.544	-16.165	-0.112	-0.071
-422.530	800.000	-0.048	0.164
-421.515	431.207	0.049	0.107
-420.500	61.308	0.150	-0.149
-419.486	653.475	-0.055	-0.142
-418.471	556.878	0.098	0.236
-417.457	-200.000	-0.001	0.093
-416.442	165.297	0.211	-0.297
-415.428	120.735	0.063	0.078
-414.413	-200.000	0.019	0.339
-413.398	-200.000	-0.065	0.460
-412.384	-83.288	-0.192	0.062
-411.369	-200.000	0.023	-0.116
-410.355	-66.400	0.168	-0.066
-409.340	636.110	0.069	0.175
-408.325	-149.550	-0.186	0.015
-407.311	184.962	-0.090	0.132
-406.296	66.809	-0.190	0.193
-405.282	-102.596	0.146	-0.035
-404.267	-200.000	0.039	0.221
-403.252	-45.600	-0.095	0.047
-402.238	-98.838	0.086	-0.022
-401.223	-52.238	0.341	0.157
-400.209	800.000	-0.188	0.516
-399.194	-137.645	-0.113	-0.013
-398.179	-115.609	-0.175	0.033
-397.165	15.450	-0.144	0.112
-396.150	-40.226	0.095	-0.049
-395.136	-88.772	-0.167	-0.049
-394.121	-113.499	-0.292	-0.057
-393.106	-33.632	0.028	-0.015
-392.092	-190.606	-0.345	0.004
-391.077	7.220	-0.301	0.224
-390.063	-62.772	0.187	0.077
-389.048	-88.377	0.013	0.004
-388.033	289.918	0.037	0.067
-387.019	-89.208	-0.248	0.073
-386.004	-63.859	-0.027	-0.011
-384.990	228.198	0.223	0.362
-383.975	75.248	0.033	-0.034
-382.960	-200.000	0.033	0.180
-381.946	176.530	-0.136	-0.197
-380.931	-103.132	0.114	0.027
-379.917	238.659	-0.183	0.302
-378.902	800.000	0.074	-0.280
-377.888	96.069	-0.219	-0.249
-376.873	108.124	-0.069	0.082
-375.858	-200.000	0.036	0.218
-374.844	-65.200	0.240	-0.096
-373.829	294.411	0.093	-0.169
-372.815	-200.000	-0.015	0.218
-371.800	-158.147	0.329	-0.019
-370.785	-127.121	-0.315	-0.046
-369.771	-54.105	0.090	-0.041
-368.756	29.439	0.121	0.102
-367.742	-137.408	-0.159	0.018
-366.727	141.129	0.269	0.354
-365.712	423.297	-0.073	0.155
-364.698	25.097	0.240	-0.198
-363.683	237.786	-0.133	0.219
-362.669	310.214	0.092	0.171
-361.654	-200.000	-0.003	-0.123
-360.639	304.950	-0.101	-0.187
-359.625	144.408	0.083	-0.110
-358.610	178.946	-0.194	0.281
-357.596	-43.089	-0.093	-0.047
-356.581	436.836	-0.116	0.250
-355.566	-39.375	0.390	0.203
-354.552	42.004	0.241	-0.217
-353.537	89.624	0.192	0.213
-352.523	-100.028	-0.164	-0.041
-351.508	-99.442	0.328	0.082
-350.493	161.406	-0.060	0.083
-349.479	517.339	0.040	-0.092
-348.464	-200.000	0.019	0.142
-347.450	-200.000	0.026	-0.130
-346.435	-167.319	0.056	-0.002
-345.420	-200.000	0.272	-0.000
-344.406	176.284	0.239	0.344
-343.391	-200.000	0.023	0.125
-342.377	-66.352	0.071	-0.028
-341.362	-200.000	0.023	-0.178
-340.348	-133.050	-0.257	-0.032
-339.333	206.397	0.084	-0.131
-338.318	232.061	0.176	-0.286
-337.304	-123.619	0.157	0.025
-336.289	274.022	0.136	-0.239
-335.275	-95.133	-0.467	-0.125
-334.260	-147.606	-0.219	-0.018
-333.245	-135.601	-0.097	0.011
-332.231	-118.667	0.364	-0.064
-331.216	34.234	-0.150	0.130
-330.202	-200.000	-0.006	-0.323
-329.187	97.076	0.037	-0.042
-328.172	-47.345	0.072	0.035
-327.158	758.952	-0.070	-0.187
-326.143	-147.866	-0.380	-0.031
-325.129	43.992	-0.224	-0.203
-324.114	800.000	0.073	-0.276
-323.099	-32.122	0.249	-0.138
-322.085	-44.127	-0.288	-0.143
-321.070	-200.000	0.049	0.350
-320.056	-42.232	0.143	0.072
-319.041	492.490	-0.063	0.144
-318.026	64.591	0.336	0.336
-317.012	-200.000	0.041	0.336
-315.997	-89.128	0.209	0.061
-314.983	-55.631	0.126	-0.056
-313.968	-148.711	-0.205	-0.016
-312.953	659.563	0.099	-0.252
-311.939	79.120	-0.112	-0.119
-310.924	25.852	0.245	-0.202
-309.910	213.460	-0.017	-0.027
-308.895	98.646	0.100	0.115
-307.880	-24.539	0.126	0.074
-306.866	41.730	-0.109	-0.098
-305.851	40.998	0.150	-0.134
-304.837	37.039	0.246	-0.216
-303.822	528.537	0.132	-0.308
-302.807	-200.000	-0.047	0.291
-301.793	-200.000	-0.010	-0.299
-300.778	-49.303	0.384	-0.182
-299.764	-154.448	-0.070	-0.005
-298.749	-39.498	-0.197	-0.102
-297.735	18.786	-0.328	-0.261
-296.720	264.671	-0.110	-0.190
-295.705	440.781	0.217	-0.470
-294.691	-108.190	-0.374	0.080
-293.676	-25.311	0.218	0.128
-292.662	187.482	0.101	-0.149
-291.647	-102.848	-0.085	0.020
-290.632	-114.678	-0.217	-0.041
-289.618	44.427	-0.169	0.153
-288.603	113.343	-0.177	0.212
-287.589	-152.300	-0.234	0.017
-286.574	87.029	0.273	-0.299
-285.559	246.306	0.083	-0.139
-284.545	18.386	0.143	0.113
-283.530	210.621	0.058	-0.090
-282.516	104.317	-0.117	0.137
-281.501	70.131	-0.113	-0.115
-280.486	-109.722	0.413	0.086
-279.472	800.000	-0.090	0.313
-278.457	-96.649	0.156	0.041
-277.443	426.622	-0.161	0.343
-276.428	800.000	-0.047	0.155
-275.413	-165.137	0.521	-0.023
-274.399	-145.816	-0.227	0.020
-273.384	-9.752	0.076	0.050
-272.370	-200.000	0.001	0.281
-271.355	-102.725	-0.235	0.055
-270.340	-68.944	-0.336	0.128
-269.326	-85.359	0.141	0.044
-268.311	-146.480	0.216	0.019
-267.297	-106.080	-0.113	0.025
-266.282	204.110	-0.113	0.174
-265.267	-26.466	0.064	0.037
-264.253	121.858	0.215	0.266
-263.238	-11.348	-0.124	0.081
-262.224	-28.969	0.401	0.228
-261.209	-146.942	0.347	0.029
-260.195	-98.649	0.166	0.042
-259.180	-200.000	0.019	-0.193
-258.165	47.004	-0.026	0.024
-257.151	-197.345	-0.458	-0.003
-256.136	37.723	0.123	-0.108
-255.122	-200.000	0.031	-0.234
-254.107	-19.885	0.292	-0.178
-253.092	270.994	-0.081	-0.141
-252.078	-122.120	0.272	-0.044
-251.063	-200.000	0.002	-0.270
-250.049	-63.091	-0.236	0.096
-249.034	-200.000	-0.024	0.133
-248.019	-125.646	0.338	-0.051
-247.005	406.705	0.211	-0.440
-245.990	557.285	0.062	0.149
-244.976	-196.437	0.128	0.001
-243.961	-200.000	-0.016	0.193
-242.946	-14.609	0.157	-0.100
-241.932	-18.159	0.405	-0.250
-240.917	-34.826	-0.170	-0.092
-239.903	800.000	0.047	-0.180
-238.888	669.964	-0.050	0.129
-237.873	226.631	0.142	-0.228
-236.859	93.796	-0.019	-0.021
-235.844	-108.235	0.162	-0.035
-234.830	-132.863	0.270	-0.034
-233.815	-74.927	-0.081	-0.029
-232.800	91.981	0.285	-0.317
-231.786	51.213	-0.278	-0.261
-230.771	102.241	-0.178	-0.206
-229.757	488.444	0.057	-0.129
-228.742	-30.260	0.390	-0.219
-227.727	-200.000	-0.034	0.271
-226.713	-52.453	-0.040	0.019
-225.698	-200.000	0.020	0.114
-224.684	181.059	-0.041	-0.060
-223.669	30.827	0.204	-0.173
-222.655	-192.970	-0.287	-0.003
-221.640	237.670	-0.184	0.302
-220.625	371.888	0.058	0.116
-219.611	-82.990	-0.198	0.063
-218.596	-200.000	-0.051	0.246
-217.582	680.232	-0.128	-0.329
-216.567	434.725	-0.115	0.247
-215.552	95.551	0.079	-0.089
-214.538	-200.000	-0.022	0.284
-213.523	-39.280	-0.028	0.015
-212.509	-200.000	0.022	-0.134
-211.494	98.715	0.206	0.235
-210.479	-200.000	0.032	0.311
-209.465	310.245	-0.081	-0.149
-208.450	800.000	-0.039	0.122
-207.436	121.952	0.158	0.194
-206.421	800.000	0.112	0.340
-205.406	193.157	0.074	-0.111
-204.392	800.000	-0.064	0.192
-203.377	57.944	-0.119	-0.115
-202.363	-200.000	-0.031	-0.197
-201.348	-6.514	0.235	0.158
-200.333	193.447	-0.124	0.185
-199.319	311.343	0.100	-0.186
-198.304	-76.465	0.155	0.054
-197.290	-86.794	-0.325	0.098
-196.275	-46.633	-0.080	-0.039
-195.260	366.950	-0.172	0.343
-194.246	-200.000	-0.060	-0.311
-193.231	-169.721	-0.074	0.003
-192.217	-151.893	0.595	0.043
-191.202	-200.000	0.039	-0.175
-190.187	168.331	0.042	0.059
-189.173	-12.321	-0.278	-0.179
-188.158	231.293	0.125	0.203
-187.144	-200.000	-0.010	-0.158
-186.129	800.000	-0.062	0.172
-185.114	-115.575	0.268	0.050
-184.100	-61.196	-0.144	-0.060
-183.085	332.592	0.129	-0.245
-182.071	-138.289	-0.322	0.035
-181.056	-200.000	-0.007	0.097
-180.042	-9.072	-0.276	-0.182
-179.027	-128.662	-0.522	0.073
-178.012	150.332	-0.153	-0.206
-176.998	-3.323	0.244	0.168
-175.983	-71.304	-0.257	0.095
-174.969	-42.408	0.212	0.107
-173.954	-4.817	-0.141	0.096
-172.939	-164.619	-0.561	0.025
-171.925	229.690	-0.122	-0.196
-170.910	-113.683	-0.311	0.060
-169.896	-200.000	0.278	0.000
-168.881	-2.082	0.096	-0.066
-167.866	-200.000	0.016	-0.236
-166.852	-70.715	-0.197	0.073
-165.837	-147.967	0.036	0.003
-164.823	800.000	-0.107	0.309
-163.808	78.621	0.222	-0.234
-162.793	-200.000	-0.405	0.001
-161.779	800.000	-0.032	0.118
-160.764	-200.000	0.037	0.201
-159.750	185.123	0.098	0.143
-158.735	-83.574	0.104	-0.033
-157.720	-104.932	0.311	0.070
-156.706	-4.668	0.297	-0.202
-155.691	-156.349	-0.407	-0.025
-154.677	-92.605	0.111	-0.031
-153.662	310.421	0.150	-0.276
-152.647	-200.000	-0.010	-0.229
-151.633	-150.537	0.089	-0.007
-150.618	-75.426	0.136	-0.048
-149.604	162.239	-0.066	0.092
-148.589	-150.285	0.124	0.009
-147.574	127.137	0.164	-0.205
-146.560	-7.231	0.124	-0.083
-145.545	38.816	-0.058	-0.051
-144.531	-149.401	-0.170	0.013
-143.516	-134.704	0.196	-0.023
-142.502	372.288	-0.164	0.329
-141.487	77.757	0.118	0.124
-140.472	-122.182	0.067	-0.011
-139.458	-110.056	0.025	-0.005
-138.443	-25.851	0.193	0.112
-137.429	-39.016	-0.042	-0.022
-136.414	-92.828	-0.283	0.078
-135.399	-200.000	0.016	0.148
-134.385	-26.923	-0.052	0.030
-133.370	-200.000	-0.002	-0.249
-132.356	-200.000	-0.096	0.430
-131.341	63.208	-0.104	0.103
-130.326	374.791	0.167	0.334
-129.312	-118.592	-0.217	0.038
-128.297	-90.134	-0.184	0.053
-127.283	31.193	-0.180	-0.152
-126.268	133.507	0.047	0.060
-125.253	188.592	0.167	0.246
-124.239	-135.021	-0.157	0.019
-123.224	-200.000	0.020	-0.159
-122.210	-145.024	0.077	0.007
