DTS Sentinel unit serial number:	SN413079Multiplexer serial number:	ORYXHardware model number:	OX4-SRSoftware version number:	ORYX F/W v4.00 Oryx Data Collector v3.7.2.0data status	okinstallation	princeton_trtdifferential loss correction	single-endedforward channel	channel 3reverse channel	N/Adate	2019/09/16time	07:04:35forward acquisition time	60.00reverse acquisition time	0.00gamma	496.2192k internal	0.2335k external	0.2335temperature offset calibration	0.9961default loss term (dB/km)	0.3790temperature slope calibration	1.0000multiplexer offset coefficient	1.0000multiplexer slope coefficient	1.0000fibre end	0.00T internal ref (°C)	27.37T ext. ref 1 (°C)	11.52T ext. ref 2 (°C)	21.89length (m)	temperature (°C)	Stokes	anti-Stokes-747.200	-47.231	0.197	0.096
-746.185	-200.000	-0.057	0.337
-745.171	94.411	0.191	0.218
-744.156	-200.000	-0.029	0.144
-743.142	-190.089	0.293	0.003
-742.127	-124.907	-0.140	0.022
-741.112	-200.000	-0.024	-0.211
-740.098	800.000	-0.088	0.286
-739.083	-7.729	0.266	0.180
-738.069	-39.069	-0.142	-0.075
-737.054	-48.549	-0.129	-0.063
-736.039	205.153	0.057	-0.089
-735.025	800.000	0.112	0.373
-734.010	-72.924	-0.365	-0.135
-732.996	-79.070	-0.264	-0.090
-731.981	-36.126	-0.180	0.098
-730.966	-138.379	-0.245	0.027
-729.952	-63.123	-0.061	-0.025
-728.937	-73.824	0.353	-0.129
-727.923	225.191	0.046	-0.075
-726.908	38.424	-0.192	-0.172
-725.894	800.000	-0.075	-0.269
-724.879	29.575	0.063	0.054
-723.864	134.113	0.057	0.074
-722.850	-96.325	0.323	0.086
-721.835	49.411	-0.067	-0.063
-720.821	82.803	0.085	0.093
-719.806	31.119	-0.167	0.144
-718.791	621.500	0.146	-0.368
-717.777	-53.876	0.102	0.047
-716.762	218.242	-0.090	0.144
-715.748	800.000	0.012	0.052
-714.733	-92.616	-0.310	0.087
-713.718	800.000	-0.070	0.222
-712.704	97.014	0.044	0.050
-711.689	-200.000	-0.027	0.247
-710.675	82.662	-0.041	-0.044
-709.660	-200.000	0.018	0.120
-708.645	-109.177	0.276	0.059
-707.631	-138.688	0.135	0.015
-706.616	-59.828	-0.380	0.163
-705.602	800.000	0.104	-0.301
-704.587	766.346	-0.098	-0.268
-703.572	-200.000	-0.025	-0.200
-702.558	-200.000	0.047	0.275
-701.543	-200.000	-0.002	0.019
-700.529	741.920	-0.118	-0.319
-699.514	-34.208	-0.250	-0.138
-698.499	-200.000	0.015	0.408
-697.485	7.914	-0.214	-0.161
-696.470	303.738	-0.111	-0.207
-695.456	-148.277	-0.449	-0.037
-694.441	800.000	0.048	0.135
-693.426	72.778	-0.212	-0.222
-692.412	93.386	-0.257	-0.292
-691.397	800.000	-0.036	0.114
-690.383	-167.293	-0.256	-0.010
-689.368	800.000	0.006	-0.020
-688.354	342.859	0.147	-0.289
-687.339	7.938	0.092	-0.069
-686.324	-0.991	-0.129	-0.091
-685.310	10.595	0.225	-0.172
-684.295	-200.000	-0.032	-0.261
-683.281	67.633	0.177	-0.182
-682.266	-142.026	-0.405	-0.040
-681.251	463.358	0.059	0.133
-680.237	-200.000	0.010	-0.130
-679.222	198.846	0.097	0.149
-678.208	132.892	-0.210	0.272
-677.193	-19.038	0.119	-0.074
-676.178	800.000	0.070	-0.218
-675.164	-200.000	-0.384	0.001
-674.149	-33.393	0.295	-0.164
-673.135	174.132	0.158	-0.229
-672.120	-23.827	-0.098	-0.059
-671.105	-83.265	-0.263	-0.085
-670.091	19.319	0.173	-0.139
-669.076	67.820	-0.110	-0.112
-668.062	-3.379	-0.117	-0.082
-667.047	49.992	-0.245	0.232
-666.032	29.940	-0.033	0.028
-665.018	-72.826	-0.191	-0.070
-664.003	355.151	-0.023	0.046
-662.989	44.175	0.254	0.233
-661.974	-147.677	0.384	-0.032
-660.959	140.074	0.122	0.161
-659.945	174.990	-0.178	-0.258
-658.930	-200.000	-0.017	0.083
-657.916	392.542	0.127	-0.264
-656.901	94.897	0.154	0.176
-655.886	-39.689	-0.358	-0.187
-654.872	-200.000	0.021	0.098
-653.857	147.722	-0.116	0.157
-652.843	-16.347	0.333	0.211
-651.828	-172.654	-0.265	0.008
-650.814	-69.626	-0.125	-0.048
-649.799	-80.685	0.192	0.064
-648.784	-99.736	-0.396	-0.099
-647.770	-200.000	0.076	-0.356
-646.755	-171.129	-0.312	-0.011
-645.741	-200.000	-0.051	0.275
-644.726	764.851	-0.090	0.244
-643.711	48.966	-0.187	0.176
-642.697	-200.000	0.001	-0.304
-641.682	121.837	-0.032	-0.040
-640.668	800.000	0.046	-0.170
-639.653	63.849	0.296	0.298
-638.638	800.000	-0.057	0.202
-637.624	-200.000	0.003	-0.187
-636.609	-200.000	0.021	-0.158
-635.595	-200.000	-0.004	-0.140
-634.580	-171.294	0.136	0.005
-633.565	169.088	0.342	-0.487
-632.551	-200.000	-0.056	-0.298
-631.536	-74.852	-0.147	0.053
-630.522	-137.716	-0.243	-0.027
-629.507	254.807	-0.146	-0.250
-628.492	-27.129	0.254	0.148
-627.478	-200.000	0.031	-0.155
-626.463	-58.899	0.263	-0.114
-625.449	-172.459	0.206	0.007
-624.434	501.121	-0.079	0.182
-623.419	-110.252	-0.233	-0.048
-622.405	-76.876	-0.132	-0.046
-621.390	-12.990	0.096	0.062
-620.376	-135.906	0.273	-0.032
-619.361	-66.725	0.131	0.052
-618.346	-200.000	0.062	0.517
-617.332	-130.421	0.253	0.034
-616.317	-52.237	-0.404	0.187
-615.303	-200.000	0.197	-0.001
-614.288	800.000	0.058	-0.191
-613.273	43.014	-0.128	-0.117
-612.259	800.000	-0.079	-0.244
-611.244	470.322	-0.048	-0.109
-610.230	206.770	0.128	-0.199
-609.215	1.908	-0.285	0.205
-608.201	295.635	0.069	0.126
-607.186	-136.357	-0.100	0.012
-606.171	-91.311	0.083	0.024
-605.157	-128.286	-0.285	0.041
-604.142	-149.105	-0.433	-0.035
-603.128	-184.347	0.064	0.001
-602.113	157.344	-0.082	0.113
-601.098	-86.824	-0.344	-0.105
-600.084	197.502	0.110	-0.168
-599.069	155.656	-0.273	0.376
-598.055	-28.232	-0.083	-0.048
-597.040	118.740	0.221	0.272
-596.025	370.724	0.102	0.207
-595.011	-200.000	0.048	-0.485
-593.996	3.954	-0.242	0.177
-592.982	507.078	0.165	0.382
-591.967	-48.878	0.256	-0.123
-590.952	-200.000	-0.002	-0.031
-589.938	80.884	0.136	0.147
-588.923	-93.543	-0.132	0.036
-587.909	-59.932	-0.356	0.152
-586.894	-200.000	-0.050	0.280
-585.879	276.692	0.154	0.273
-584.865	333.925	-0.051	-0.099
-583.850	-154.551	-0.272	-0.018
-582.836	-7.124	0.142	-0.096
-581.821	109.021	-0.282	-0.337
-580.806	-200.000	-0.069	0.308
-579.792	-27.407	-0.241	0.140
-578.777	483.940	-0.033	0.076
-577.763	114.008	-0.171	0.208
-576.748	86.218	-0.185	0.203
-575.733	-200.000	-0.017	0.302
-574.719	418.274	0.061	-0.131
-573.704	641.935	0.068	0.173
-572.690	139.514	0.116	-0.153
-571.675	22.805	0.278	-0.227
-570.661	40.467	0.180	0.161
-569.646	-1.926	0.049	0.035
-568.631	-137.887	0.076	-0.008
-567.617	138.763	-0.098	-0.128
-566.602	137.158	-0.158	-0.206
-565.588	-92.938	0.092	-0.026
-564.573	-84.484	-0.047	-0.015
-563.558	652.126	0.015	-0.038
-562.544	-177.529	0.129	0.003
-561.529	-39.285	0.081	0.042
-560.515	-15.889	0.366	-0.232
-559.500	240.944	0.007	-0.011
-558.485	-200.000	-0.015	-0.225
-557.471	-200.000	-0.013	-0.107
-556.456	-200.000	0.024	-0.164
-555.442	-108.168	-0.332	0.072
-554.427	64.294	0.036	-0.037
-553.412	193.599	-0.173	-0.261
-552.398	-200.000	-0.041	0.196
-551.383	-104.945	-0.076	0.017
-550.369	-200.000	0.011	0.190
-549.354	-77.584	0.078	-0.027
-548.339	-200.000	0.003	0.089
-547.325	117.199	-0.157	0.192
-546.310	169.128	0.142	-0.203
-545.296	-99.036	-0.158	0.040
-544.281	-200.000	-0.017	-0.210
-543.266	-200.000	0.042	-0.199
-542.252	800.000	-0.012	-0.048
-541.237	-122.255	0.249	0.041
-540.223	-65.759	-0.263	0.105
-539.208	124.364	-0.090	-0.113
-538.193	-42.743	0.216	-0.109
-537.179	-25.286	0.162	0.095
-536.164	435.881	0.153	-0.332
-535.150	-200.000	-0.009	0.065
-534.135	-64.311	0.144	-0.058
-533.121	-200.000	-0.048	-0.368
-532.106	321.311	0.043	-0.082
-531.091	14.655	-0.183	0.142
-530.077	800.000	0.089	0.293
-529.062	131.731	0.061	-0.078
-528.048	-98.842	0.308	0.078
-527.033	-70.041	0.129	0.049
-526.018	-9.250	0.369	-0.246
-525.004	-101.596	-0.118	0.029
-523.989	-200.000	-0.002	0.268
-522.975	-75.647	0.394	-0.139
-521.960	141.707	-0.008	0.011
-520.945	-150.902	0.242	0.018
-519.931	8.177	0.107	0.080
-518.916	116.175	0.147	-0.179
-517.902	-37.671	0.019	-0.010
-516.887	-13.126	0.057	-0.037
-515.872	-20.128	-0.185	-0.114
-514.858	-87.205	-0.102	-0.031
-513.843	800.000	0.019	0.076
-512.829	-180.871	0.186	-0.004
-511.814	478.444	-0.068	0.152
-510.799	-113.615	0.426	0.083
-509.785	174.031	0.057	0.081
-508.770	-33.828	0.237	-0.130
-507.756	-200.000	-0.010	-0.071
-506.741	-159.518	-0.336	-0.019
-505.726	-28.517	-0.139	0.080
-504.712	48.586	0.126	0.117
-503.697	13.784	0.329	-0.254
-502.683	-113.339	0.080	-0.016
-501.668	-141.309	0.134	0.014
-500.653	188.380	-0.047	-0.070
-499.639	129.602	0.034	-0.044
-498.624	-73.494	0.103	-0.037
-497.610	298.390	0.133	-0.244
-496.595	585.483	-0.038	-0.092
-495.581	-108.667	-0.299	0.064
-494.566	128.416	-0.077	-0.097
-493.551	-200.000	0.033	-0.321
-492.537	-104.822	-0.238	-0.054
-491.522	-55.583	0.193	0.086
-490.508	-127.586	-0.106	0.015
-489.493	800.000	0.054	0.191
-488.478	-13.323	0.252	-0.162
-487.464	204.873	-0.201	0.310
-486.449	-68.065	0.159	0.062
-485.435	-200.000	0.038	0.449
-484.420	-200.000	0.013	0.117
-483.405	-200.000	-0.046	-0.239
-482.391	-19.400	0.085	-0.053
-481.376	19.130	-0.210	-0.168
-480.362	-108.795	-0.102	0.022
-479.347	-116.909	-0.160	-0.029
-478.332	97.649	0.086	-0.098
-477.318	800.000	0.044	-0.163
-476.303	557.731	-0.100	0.240
-475.289	-135.593	-0.166	0.020
-474.274	-32.158	0.128	-0.071
-473.259	-200.000	-0.035	-0.251
-472.245	-200.000	-0.003	-0.024
-471.230	-136.815	0.141	-0.016
-470.216	13.405	0.165	0.127
-469.201	-137.513	-0.101	0.011
-468.186	-200.000	0.015	0.146
-467.172	133.193	0.105	-0.135
-466.157	800.000	-0.141	0.492
-465.143	274.247	0.130	0.229
-464.128	1.234	-0.108	-0.077
-463.113	-139.198	0.289	-0.031
-462.099	-200.000	0.015	-0.141
-461.084	252.263	-0.010	0.017
-460.070	76.788	0.266	-0.280
-459.055	-95.257	-0.410	0.110
-458.040	97.924	-0.178	-0.204
-457.026	-86.746	-0.306	-0.093
-456.011	670.607	0.185	0.476
-454.997	495.824	0.118	-0.270
-453.982	-118.143	-0.116	-0.021
-452.968	103.303	0.114	0.132
-451.953	-6.988	0.211	0.142
-450.938	-200.000	-0.027	0.389
-449.924	-5.803	-0.304	-0.207
-448.909	-141.806	-0.431	0.043
-447.895	-95.132	0.158	-0.042
-446.880	396.175	-0.097	0.200
-445.865	47.168	0.147	0.136
-444.851	-179.684	-0.214	0.005
-443.836	-11.768	-0.176	-0.115
-442.822	38.323	-0.103	-0.091
-441.807	-122.390	-0.267	0.043
-440.792	38.273	0.182	-0.161
-439.778	284.994	-0.146	-0.261
-438.763	227.877	0.026	-0.042
-437.749	-200.000	0.014	0.129
-436.734	-42.185	0.222	0.113
-435.719	800.000	-0.038	-0.105
-434.705	-36.024	-0.409	-0.219
-433.690	79.475	0.036	-0.038
-432.676	-139.683	-0.330	0.035
-431.661	-104.014	0.270	0.062
-430.646	-17.016	0.136	0.085
-429.632	139.435	0.234	0.306
-428.617	-66.562	0.256	-0.101
-427.603	6.864	0.179	-0.132
-426.588	-31.232	0.222	-0.124
-425.573	340.702	0.163	-0.317
-424.559	508.947	0.178	-0.411
-423.544	136.583	0.076	-0.098
-422.530	-200.000	-0.019	-0.181
-421.515	183.644	0.129	0.190
-420.500	8.011	0.148	0.110
-419.486	167.473	-0.101	-0.143
-418.471	-41.537	0.269	-0.137
-417.457	162.083	-0.018	0.025
-416.442	800.000	-0.085	0.263
-415.428	-200.000	0.073	0.382
-414.413	137.692	-0.063	0.082
-413.398	-35.409	-0.072	0.039
-412.384	-144.675	0.433	-0.040
-411.369	-153.979	0.152	-0.010
-410.355	800.000	0.049	0.152
-409.340	-115.154	0.158	0.030
-408.325	32.083	-0.048	-0.041
-407.311	-107.306	0.390	0.085
-406.296	11.537	-0.141	-0.107
-405.282	-56.325	0.060	0.027
-404.267	385.874	-0.147	-0.300
-403.252	7.884	-0.255	-0.189
-402.238	800.000	-0.045	-0.129
-401.223	40.751	-0.095	0.085
-400.209	-184.703	0.120	-0.002
-399.194	86.470	0.025	-0.027
-398.179	67.548	0.234	0.237
-397.165	-138.134	-0.186	-0.021
-396.150	-200.000	-0.024	-0.189
-395.136	800.000	-0.079	0.224
-394.121	89.658	-0.008	0.009
-393.106	-12.785	-0.118	-0.076
-392.092	620.329	-0.056	-0.139
-391.077	0.512	-0.279	-0.198
-390.063	-200.000	0.000	-0.383
-389.048	800.000	-0.075	-0.274
-388.033	43.857	0.109	0.098
-387.019	-200.000	0.023	-0.206
-386.004	85.015	0.241	0.262
-384.990	22.145	-0.102	-0.082
-383.975	-200.000	0.046	-0.420
-382.960	-131.491	-0.421	0.055
-381.946	14.703	0.148	0.115
-380.931	331.329	0.130	-0.248
-379.917	228.448	-0.231	0.373
-378.902	629.122	-0.046	0.115
-377.888	-200.000	0.024	0.337
-376.873	335.066	0.067	0.129
-375.858	-26.696	-0.190	0.110
-374.844	82.489	-0.115	0.124
-373.829	76.690	-0.143	-0.150
-372.815	-11.303	0.134	-0.088
-371.800	800.000	-0.058	-0.162
-370.785	800.000	0.057	0.192
-369.771	-90.303	0.519	0.149
-368.756	-93.775	-0.130	-0.035
-367.742	-200.000	-0.032	0.154
-366.727	-75.624	0.231	-0.081
-365.712	-37.786	-0.332	0.175
-364.698	100.536	0.257	0.295
-363.683	227.234	0.131	-0.210
-362.669	219.283	0.156	0.247
-361.654	-60.959	-0.155	-0.065
-360.639	138.246	0.250	0.324
-359.625	800.000	0.034	0.119
-358.610	-99.206	0.351	-0.088
-357.596	436.556	-0.033	0.072
-356.581	29.110	0.192	-0.161
-355.566	-164.879	0.281	0.012
-354.552	10.334	0.310	-0.233
-353.537	131.698	0.232	-0.295
-352.523	-32.857	0.191	-0.105
-351.508	134.190	-0.224	-0.287
-350.493	-64.340	0.092	0.037
-349.479	150.870	-0.126	-0.169
-348.464	219.801	0.068	0.108
-347.450	-200.000	-0.003	-0.037
-346.435	-122.888	0.432	0.069
-345.420	-176.982	-0.476	-0.012
-344.406	68.184	-0.080	-0.081
-343.391	-2.506	-0.178	0.123
-342.377	-14.606	-0.088	-0.056
-341.362	-95.569	0.118	0.031
-340.348	42.362	0.123	0.111
-339.333	191.260	-0.230	0.342
-338.318	197.989	0.055	0.084
-337.304	800.000	0.045	-0.171
-336.289	-175.392	-0.166	-0.004
-335.275	216.768	-0.262	0.412
-334.260	-86.552	-0.186	0.056
-333.245	-58.550	0.342	-0.147
-332.231	3.399	0.136	-0.098
-331.216	800.000	0.140	0.426
-330.202	-200.000	0.038	0.225
-329.187	-200.000	0.024	0.163
-328.172	800.000	0.064	0.270
-327.158	-176.354	-0.185	0.005
-326.143	800.000	-0.051	0.200
-325.129	-106.287	-0.310	-0.069
-324.114	-200.000	0.037	-0.601
-323.099	513.836	-0.095	0.218
-322.085	-200.000	-0.018	-0.255
-321.070	800.000	-0.048	-0.147
-320.056	75.976	0.167	0.175
-319.041	-56.310	-0.099	0.043
-318.026	-200.000	0.010	-0.396
-317.012	800.000	0.052	-0.194
-315.997	272.247	-0.034	-0.060
-314.983	39.512	-0.407	-0.360
-313.968	-90.625	-0.255	0.073
-312.953	31.519	0.399	-0.339
-311.939	-150.268	0.409	-0.031
-310.924	800.000	-0.051	-0.177
-309.910	-122.533	0.425	-0.068
-308.895	-200.000	0.005	0.375
-307.880	-42.993	0.053	0.026
-306.866	800.000	0.070	0.302
-305.851	630.926	0.125	-0.312
-304.837	-170.575	-0.182	0.006
-303.822	800.000	0.028	-0.120
-302.807	-0.932	0.141	0.099
-301.793	800.000	0.133	-0.485
-300.778	800.000	-0.066	-0.192
-299.764	800.000	-0.043	-0.125
-298.749	81.232	0.074	-0.078
-297.735	-94.031	-0.196	-0.053
-296.720	466.851	-0.009	0.020
-295.705	286.658	-0.125	-0.222
-294.691	547.583	0.114	0.269
-293.676	-200.000	-0.020	0.243
-292.662	146.109	-0.195	0.259
-291.647	-117.172	-0.166	0.030
-290.632	-200.000	-0.032	-0.390
-289.618	140.966	-0.208	-0.272
-288.603	-10.364	-0.193	-0.126
-287.589	112.100	-0.097	0.116
-286.574	590.914	0.028	0.069
-285.559	197.765	0.054	0.082
-284.545	-200.000	0.058	0.273
-283.530	-72.580	-0.201	0.073
-282.516	10.827	0.034	-0.025
-281.501	-200.000	-0.031	0.296
-280.486	154.941	-0.072	0.098
-279.472	-192.487	-0.085	-0.001
-278.457	-200.000	0.052	0.239
-277.443	380.873	0.104	-0.211
-276.428	383.469	-0.061	-0.125
-275.413	35.528	0.008	0.007
-274.399	-97.357	0.137	-0.035
-273.384	-139.150	-0.233	0.025
-272.370	-200.000	-0.012	-0.089
-271.355	-50.559	-0.110	0.051
-270.340	115.630	0.032	-0.038
-269.326	800.000	-0.035	-0.132
-268.311	246.698	-0.123	0.204
-267.297	800.000	-0.072	0.201
-266.282	800.000	-0.078	0.233
-265.267	120.509	0.107	-0.131
-264.253	-74.315	-0.314	-0.112
-263.238	-193.984	-0.241	-0.002
-262.224	-200.000	-0.049	0.257
-261.209	-4.049	0.147	-0.100
-260.195	-55.643	0.384	-0.169
-259.180	-49.091	0.202	0.095
-258.165	89.774	-0.056	0.062
-257.151	-200.000	0.030	-0.262
-256.136	105.576	-0.089	0.104
-255.122	96.199	-0.158	-0.178
-254.107	258.070	0.224	-0.379
-253.092	800.000	-0.052	0.197
-252.078	-200.000	-0.064	-0.393
-251.063	38.495	0.081	-0.071
-250.049	334.813	-0.009	-0.017
-249.034	38.284	-0.134	0.118
-248.019	37.531	0.185	-0.162
-247.005	-90.568	0.170	0.049
-245.990	-7.160	0.141	-0.094
-244.976	124.161	-0.053	-0.065
-243.961	800.000	0.062	-0.215
-242.946	-93.046	-0.131	0.036
-241.932	16.310	-0.384	0.298
-240.917	-200.000	-0.029	0.159
-239.903	67.817	0.110	0.111
-238.888	68.221	-0.133	-0.134
-237.873	-114.427	-0.223	-0.042
-236.859	-200.000	0.069	-0.352
-235.844	122.484	-0.199	0.245
-234.830	-52.368	0.194	0.088
-233.815	-200.000	0.001	-0.280
-232.800	4.224	-0.227	-0.163
-231.786	17.730	-0.308	0.242
-230.771	238.593	0.065	0.106
-229.757	-170.560	0.108	-0.004
-228.742	315.700	0.036	0.067
-227.727	-200.000	0.079	-0.426
-226.713	-200.000	0.010	-0.164
-225.698	-140.050	0.126	0.013
-224.684	314.061	-0.123	-0.227
-223.669	173.869	-0.135	0.193
-222.655	-37.149	-0.171	0.090
-221.640	333.618	0.152	0.290
-220.625	-200.000	0.029	0.196
-219.611	-61.297	0.108	-0.045
-218.596	-200.000	-0.012	-0.178
-217.582	-200.000	-0.013	-0.169
-216.567	-20.665	0.054	0.033
-215.552	484.873	-0.220	-0.493
-214.538	302.263	0.239	0.435
-213.523	800.000	-0.118	0.462
-212.509	-30.520	-0.064	-0.036
-211.494	-78.253	0.242	-0.082
-210.479	93.639	0.176	-0.196
-209.465	69.212	-0.186	0.188
-208.450	81.620	-0.313	0.334
-207.436	-163.974	0.071	-0.003
-206.421	36.090	0.098	0.084
-205.406	368.008	-0.155	-0.308
-204.392	528.478	-0.076	-0.176
-203.377	-71.549	0.420	0.155
-202.363	651.958	-0.205	0.516
-201.348	-18.127	0.379	-0.233
-200.333	-71.073	-0.099	0.036
-199.319	-101.493	-0.204	0.049
-198.304	-24.597	-0.230	-0.134
-197.290	146.925	0.108	-0.143
-196.275	-109.068	0.293	0.061
-195.260	48.878	-0.120	-0.111
-194.246	-84.830	0.160	0.049
-193.231	-152.379	-0.319	0.023
-192.217	-60.067	-0.185	-0.077
-191.202	-121.375	-0.034	-0.006
-190.187	-200.000	0.070	-0.307
-189.173	-188.122	-0.152	-0.002
-188.158	-200.000	0.011	0.063
-187.144	155.568	-0.029	-0.039
-186.129	20.815	0.123	-0.098
-185.114	14.224	-0.161	0.123
-184.100	-128.235	-0.194	0.027
-183.085	-200.000	0.087	0.427
-182.071	152.349	0.268	0.359
-181.056	-32.979	-0.466	0.254
-180.042	-200.000	0.005	0.126
-179.027	-200.000	-0.015	-0.104
-178.012	185.427	0.165	0.240
-176.998	100.954	0.119	0.136
-175.983	-200.000	0.032	-0.226
-174.969	-85.098	-0.225	0.069
-173.954	-200.000	0.003	0.196
-172.939	-200.000	0.049	0.285
-171.925	128.400	-0.099	0.124
-170.910	-41.434	0.199	0.101
-169.896	75.503	-0.141	0.146
-168.881	-73.587	0.151	-0.054
-167.866	173.916	-0.070	-0.099
-166.852	-140.330	0.078	-0.008
-165.837	-80.349	-0.302	-0.099
-164.823	-153.388	0.291	0.020
-163.808	-32.164	-0.509	-0.279
-162.793	392.409	0.072	0.148
-161.779	-97.763	0.032	-0.008
-160.764	-97.149	-0.052	0.013
-159.750	-55.833	-0.341	-0.149
-158.735	100.649	-0.108	-0.123
-157.720	-34.753	0.107	0.057
-156.706	-36.382	-0.222	0.117
-155.691	36.108	-0.106	0.092
-154.677	85.114	0.234	-0.251
-153.662	-200.000	0.071	0.425
-152.647	611.010	0.160	0.393
-151.633	800.000	-0.169	0.507
-150.618	-200.000	0.045	-0.243
-149.604	90.819	0.164	-0.180
-148.589	318.122	0.064	-0.118
-147.574	214.318	-0.144	0.224
-146.560	-70.348	-0.294	-0.109
-145.545	416.476	-0.078	-0.163
-144.531	-135.431	0.334	0.039
-143.516	573.170	0.111	0.265
-142.502	662.986	0.128	0.323
-141.487	-200.000	0.006	-0.063
-140.472	-200.000	-0.041	-0.219
-139.458	139.571	0.253	-0.327
-138.443	-57.528	-0.115	0.050
-137.429	-26.690	0.234	-0.134
-136.414	-200.000	-0.103	0.469
-135.399	206.336	0.173	0.264
-134.385	13.498	0.194	-0.148
-133.370	-9.195	0.237	-0.156
-132.356	-48.717	-0.245	-0.115
-131.341	-71.573	-0.189	-0.069
-130.326	-200.000	0.009	0.044
-129.312	-200.000	-0.015	-0.134
-128.297	124.209	-0.145	0.179
-127.283	-147.818	0.194	-0.016
-126.268	-86.088	-0.208	-0.063
-125.253	-66.238	0.175	-0.068
-124.239	-63.124	0.242	0.098
-123.224	-134.020	0.269	-0.033
-122.210	-3.252	0.210	-0.143
-121.195	-108.434	-0.011	0.002
