DTS Sentinel unit serial number:	SN413079Multiplexer serial number:	ORYXHardware model number:	OX4-SRSoftware version number:	ORYX F/W v4.00 Oryx Data Collector v3.7.2.0data status	okinstallation	princeton_trtdifferential loss correction	single-endedforward channel	channel 3reverse channel	N/Adate	2019/09/13time	14:56:35forward acquisition time	60.00reverse acquisition time	0.00gamma	496.2192k internal	0.2299k external	0.2299temperature offset calibration	1.0143default loss term (dB/km)	0.3790temperature slope calibration	1.0000multiplexer offset coefficient	1.0000multiplexer slope coefficient	1.0000fibre end	0.00T internal ref (°C)	35.64T ext. ref 1 (°C)	4.69T ext. ref 2 (°C)	31.23length (m)	temperature (°C)	Stokes	anti-Stokes-747.200	-95.329	0.318	-0.087
-746.185	270.207	0.261	0.468
-745.171	26.854	0.247	0.212
-744.156	-200.000	-0.004	0.494
-743.142	487.092	-0.136	-0.316
-742.127	142.578	-0.153	-0.207
-741.112	-171.925	-0.228	-0.008
-740.098	107.961	0.114	0.138
-739.083	635.518	-0.099	0.256
-738.069	536.958	0.049	-0.118
-737.054	37.758	-0.068	-0.062
-736.039	-18.944	0.139	0.088
-735.025	-200.000	-0.059	0.285
-734.010	-76.639	-0.259	0.093
-732.996	800.000	-0.050	-0.172
-731.981	122.324	0.198	0.253
-730.966	-41.481	-0.111	-0.058
-729.952	-200.000	-0.015	-0.249
-728.937	800.000	0.053	0.152
-727.923	-194.076	0.180	0.002
-726.908	-37.433	-0.589	-0.320
-725.894	-143.161	0.191	0.019
-724.879	34.153	0.233	-0.207
-723.864	47.274	-0.124	0.118
-722.850	-121.573	-0.255	-0.043
-721.835	51.985	-0.219	-0.212
-720.821	118.377	-0.057	-0.072
-719.806	-200.000	-0.004	0.078
-718.791	63.756	-0.313	-0.321
-717.777	-58.580	0.226	-0.100
-716.762	-65.650	-0.049	0.020
-715.748	-200.000	0.003	-0.207
-714.733	-83.092	0.488	-0.160
-713.718	570.093	0.078	-0.194
-712.704	243.025	0.074	-0.127
-711.689	150.070	-0.054	-0.075
-710.675	-109.518	-0.110	0.024
-709.660	-86.000	0.355	0.112
-708.645	-23.277	0.051	0.031
-707.631	-200.000	-0.005	-0.045
-706.616	241.341	0.116	0.198
-705.602	276.792	0.073	-0.133
-704.587	88.605	0.321	-0.364
-703.572	-95.925	-0.202	-0.055
-702.558	-106.485	0.471	-0.107
-701.543	113.263	-0.055	-0.068
-700.529	-200.000	-0.027	-0.196
-699.514	13.220	0.185	0.146
-698.499	160.883	0.085	-0.121
-697.485	-106.078	0.237	-0.054
-696.470	-173.353	0.115	-0.004
-695.456	44.532	0.229	-0.215
-694.441	-91.165	-0.403	-0.118
-693.426	356.149	0.024	-0.048
-692.412	-200.000	-0.043	-0.235
-691.397	-67.576	0.130	-0.052
-690.383	-200.000	-0.035	-0.187
-689.368	-200.000	0.061	0.361
-688.354	79.280	-0.179	0.195
-687.339	-82.744	-0.174	-0.057
-686.324	-33.402	-0.183	0.103
-685.310	34.647	0.224	0.200
-684.295	800.000	-0.101	0.346
-683.281	-68.643	0.057	0.022
-682.266	-200.000	0.026	-0.500
-681.251	1.029	-0.222	-0.162
-680.237	-21.605	0.188	0.117
-679.222	-10.297	0.093	-0.063
-678.208	43.344	-0.229	-0.213
-677.193	129.485	-0.245	-0.319
-676.178	-94.303	-0.254	-0.071
-675.164	800.000	-0.138	-0.394
-674.149	785.350	0.075	-0.208
-673.135	-49.949	0.053	0.025
-672.120	6.346	0.247	0.186
-671.105	386.708	-0.053	0.112
-670.091	-102.344	0.220	-0.054
-669.076	-56.867	-0.073	-0.033
-668.062	254.553	0.121	-0.211
-667.047	-59.365	-0.228	-0.100
-666.032	509.080	0.011	-0.025
-665.018	193.109	-0.117	-0.179
-664.003	-123.313	-0.351	-0.057
-662.989	0.993	0.144	-0.105
-661.974	-200.000	0.008	-0.207
-660.959	-137.238	-0.364	-0.042
-659.945	800.000	0.027	0.110
-658.930	800.000	0.038	0.164
-657.916	43.673	-0.266	-0.247
-656.901	-185.015	-0.290	0.005
-655.886	-8.635	-0.266	0.181
-654.872	-183.838	-0.312	0.005
-653.857	3.489	0.193	0.143
-652.843	-99.066	0.076	-0.020
-651.828	54.217	-0.028	-0.027
-650.814	-87.495	-0.075	-0.023
-649.799	391.895	-0.098	-0.206
-648.784	741.783	0.089	-0.242
-647.770	-104.852	0.230	0.054
-646.755	800.000	0.077	-0.283
-645.741	-42.169	-0.305	-0.158
-644.726	-87.860	-0.220	0.067
-643.711	-163.758	-0.262	0.012
-642.697	24.936	0.121	-0.102
-641.682	-200.000	0.002	0.057
-640.668	535.710	0.098	-0.236
-639.653	-200.000	0.018	-0.106
-638.638	295.180	0.057	0.107
-637.624	800.000	0.018	0.074
-636.609	-53.972	-0.094	0.043
-635.595	204.992	0.115	0.182
-634.580	-200.000	-0.018	-0.276
-633.565	-70.303	0.137	-0.053
-632.551	-200.000	0.035	-0.406
-631.536	158.741	0.050	0.071
-630.522	205.481	-0.170	-0.268
-629.507	800.000	-0.056	-0.195
-628.492	-200.000	-0.044	-0.348
-627.478	94.190	-0.099	-0.114
-626.463	521.933	-0.151	-0.361
-625.449	245.057	0.220	0.375
-624.434	4.020	-0.147	0.109
-623.419	800.000	-0.048	0.145
-622.405	506.732	0.056	-0.132
-621.390	-111.021	0.125	-0.026
-620.376	385.465	-0.066	-0.138
-619.361	-80.150	0.287	-0.098
-618.346	-200.000	0.053	-0.343
-617.332	11.446	0.139	-0.108
-616.317	-30.825	0.193	-0.111
-615.303	61.274	0.131	-0.133
-614.288	119.712	0.146	0.184
-613.273	7.505	0.101	0.076
-612.259	594.544	-0.085	-0.215
-611.244	-200.000	0.052	-0.260
-610.230	-200.000	0.007	-0.212
-609.215	-200.000	0.017	0.178
-608.201	800.000	-0.090	-0.324
-607.186	6.953	0.116	0.088
-606.171	260.985	-0.032	-0.056
-605.157	200.887	0.036	0.057
-604.142	-6.375	0.213	0.148
-603.128	100.473	0.105	-0.124
-602.113	-200.000	0.044	0.252
-601.098	52.146	0.299	0.290
-600.084	-21.048	-0.381	-0.237
-599.069	367.646	-0.132	-0.270
-598.055	800.000	0.024	0.096
-597.040	-200.000	0.015	-0.224
-596.025	20.858	0.097	0.080
-595.011	-148.452	0.036	0.003
-593.996	-102.583	-0.219	-0.053
-592.982	-154.762	0.077	-0.005
-591.967	-200.000	0.003	0.191
-590.952	-26.275	-0.218	0.130
-589.938	43.202	0.120	-0.111
-588.923	173.970	-0.068	-0.099
-587.909	-200.000	-0.013	0.375
-586.894	29.000	-0.176	0.151
-585.879	102.977	0.190	-0.225
-584.865	-92.492	-0.230	0.066
-583.850	-200.000	-0.023	0.358
-582.836	-50.391	0.110	-0.053
-581.821	-38.643	-0.130	0.070
-580.806	800.000	0.142	0.407
-579.792	58.493	0.133	0.133
-578.777	46.008	0.140	-0.132
-577.763	52.443	-0.235	0.228
-576.748	-29.100	-0.139	0.081
-575.733	800.000	0.068	-0.211
-574.719	-200.000	-0.011	0.301
-573.704	14.954	-0.057	-0.045
-572.690	675.032	-0.105	-0.276
-571.675	-45.208	-0.128	-0.065
-570.661	800.000	0.027	0.083
-569.646	-200.000	-0.030	-0.217
-568.631	-122.038	-0.151	-0.025
-567.617	-200.000	-0.010	0.098
-566.602	-150.069	0.173	-0.014
-565.588	-200.000	0.037	-0.273
-564.573	-83.763	-0.459	0.149
-563.558	-54.478	0.245	0.113
-562.544	-139.224	0.324	-0.035
-561.529	124.897	-0.168	-0.215
-560.515	26.213	-0.030	0.025
-559.500	175.842	-0.051	-0.075
-558.485	-133.849	0.081	0.010
-557.471	-80.341	0.342	-0.116
-556.456	-111.479	0.310	-0.064
-555.442	588.589	0.130	0.324
-554.427	-185.455	-0.182	-0.003
-553.412	-15.910	-0.209	0.135
-552.398	-45.157	0.278	0.140
-551.383	-200.000	-0.013	-0.212
-550.369	-200.000	0.014	-0.278
-549.354	26.344	0.117	0.099
-548.339	-123.377	0.057	0.009
-547.325	-200.000	0.021	-0.201
-546.310	-155.674	-0.293	-0.019
-545.296	-101.123	-0.273	-0.068
-544.281	-41.285	0.274	-0.143
-543.266	17.744	-0.260	0.210
-542.252	510.632	0.127	0.299
-541.237	-173.881	-0.252	-0.008
-540.223	191.200	-0.060	-0.091
-539.208	-155.987	-0.151	0.010
-538.193	640.032	0.033	0.085
-537.179	-200.000	-0.011	0.201
-536.164	-200.000	0.012	-0.123
-535.150	-8.012	0.082	-0.056
-534.135	-142.975	0.162	-0.016
-533.121	-200.000	-0.002	-0.080
-532.106	800.000	0.014	-0.047
-531.091	800.000	-0.039	-0.121
-530.077	-200.000	-0.052	-0.325
-529.062	-7.828	0.150	-0.102
-528.048	-200.000	0.030	-0.268
-527.033	-10.123	0.101	-0.068
-526.018	-200.000	0.003	0.102
-525.004	132.512	-0.323	-0.421
-523.989	213.659	-0.125	0.200
-522.975	96.193	-0.131	-0.152
-521.960	-53.232	-0.202	-0.094
-520.945	84.511	0.073	0.081
-519.931	789.593	0.051	-0.140
-518.916	-13.913	0.147	-0.096
-517.902	-31.213	-0.170	0.097
-516.887	41.100	-0.218	-0.199
-515.872	-15.025	0.367	0.238
-514.858	50.517	-0.135	-0.130
-513.843	-200.000	0.004	0.099
-512.829	-55.129	-0.112	0.051
-511.814	-200.000	0.010	0.143
-510.799	-14.268	0.109	-0.071
-509.785	-65.217	0.076	0.031
-508.770	-99.014	0.228	0.058
-507.756	417.627	0.101	-0.218
-506.741	286.119	0.267	0.487
-505.726	-200.000	0.010	-0.112
-504.712	-34.524	0.393	-0.217
-503.697	-200.000	-0.032	0.218
-502.683	-89.246	0.016	0.005
-501.668	-200.000	-0.027	-0.487
-500.653	-1.463	0.199	0.142
-499.639	-110.877	0.212	-0.044
-498.624	-92.456	-0.104	0.029
-497.610	-53.911	-0.228	0.105
-496.595	800.000	0.031	0.119
-495.581	159.891	0.032	-0.045
-494.566	-46.139	0.095	-0.047
-493.551	55.449	-0.074	-0.073
-492.537	34.597	-0.152	0.135
-491.522	20.804	-0.077	-0.063
-490.508	-35.339	0.125	-0.068
-489.493	-151.025	-0.049	-0.004
-488.478	800.000	-0.046	0.178
-487.464	-25.457	0.317	0.190
-486.449	-83.555	-0.058	-0.019
-485.435	-136.745	-0.187	-0.022
-484.420	78.375	0.153	-0.165
-483.405	800.000	0.030	0.115
-482.391	-16.092	-0.231	0.148
-481.376	-33.645	0.088	0.049
-480.362	752.464	0.037	-0.100
-479.347	-200.000	-0.013	0.295
-478.332	-23.138	0.331	-0.201
-477.318	-200.000	0.037	-0.194
-476.303	800.000	0.092	-0.283
-475.289	-200.000	-0.019	0.312
-474.274	-102.063	-0.137	0.033
-473.259	-119.892	-0.355	0.062
-472.245	-92.814	-0.204	-0.058
-471.230	34.806	-0.201	-0.177
-470.216	-200.000	0.015	0.212
-469.201	-137.781	0.058	0.007
-468.186	16.394	0.195	-0.156
-467.172	53.222	-0.320	0.309
-466.157	197.714	0.100	0.154
-465.143	324.847	-0.021	-0.040
-464.128	213.371	-0.077	0.123
-463.113	509.389	0.070	0.165
-462.099	67.747	-0.091	-0.094
-461.084	-56.345	-0.079	-0.035
-460.070	-57.000	-0.236	-0.105
-459.055	-100.094	-0.376	-0.094
-458.040	458.857	-0.140	-0.313
-457.026	77.083	0.053	-0.057
-456.011	-38.605	0.281	0.150
-454.997	-200.000	-0.011	-0.116
-453.982	-81.141	-0.283	0.094
-452.968	-56.255	-0.285	-0.128
-451.953	81.196	0.156	-0.170
-450.938	800.000	0.067	-0.201
-449.924	-100.207	0.072	-0.018
-448.909	35.862	-0.253	0.224
-447.895	-200.000	0.014	-0.156
-446.880	-200.000	0.013	-0.392
-445.865	100.283	0.040	0.047
-444.851	234.334	0.070	0.117
-443.836	171.807	-0.098	-0.142
-442.822	110.571	-0.193	-0.235
-441.807	-200.000	-0.038	0.283
-440.792	800.000	0.059	0.165
-439.778	-199.370	0.230	0.001
-438.763	177.314	0.222	-0.326
-437.749	-30.688	-0.210	-0.120
-436.734	379.136	0.075	-0.156
-435.719	-29.153	-0.067	0.038
-434.705	27.051	-0.296	0.250
-433.690	-200.000	-0.014	0.167
-432.676	-12.978	0.378	0.248
-431.661	-200.000	-0.025	0.274
-430.646	-41.870	-0.159	0.082
-429.632	77.427	-0.198	0.213
-428.617	67.632	-0.200	-0.206
-427.603	-31.257	-0.348	0.198
-426.588	14.387	0.092	-0.072
-425.573	-51.961	0.432	0.203
-424.559	174.240	0.197	-0.287
-423.544	-200.000	-0.020	0.231
-422.530	-200.000	-0.326	-0.000
-421.515	-106.698	0.119	-0.027
-420.500	-76.975	0.210	-0.074
-419.486	184.998	0.116	-0.174
-418.471	-63.315	0.073	-0.030
-417.457	-8.132	-0.081	0.055
-416.442	-112.176	0.178	0.036
-415.428	-60.152	-0.149	-0.064
-414.413	-15.478	0.241	-0.155
-413.398	117.357	-0.055	-0.068
-412.384	-200.000	0.039	0.195
-411.369	-7.481	0.069	-0.047
-410.355	-143.967	0.143	-0.014
-409.340	8.523	0.131	-0.099
-408.325	54.550	0.188	0.183
-407.311	-114.687	0.136	0.026
-406.296	331.113	-0.217	0.421
-405.282	-42.586	-0.219	0.112
-404.267	29.679	0.076	0.065
-403.252	-130.367	0.348	0.048
-402.238	-200.000	0.009	-0.084
-401.223	-200.000	-0.011	-0.101
-400.209	-87.419	0.194	-0.059
-399.194	89.714	0.192	-0.216
-398.179	370.548	-0.062	-0.127
-397.165	255.128	-0.194	0.334
-396.150	-200.000	-0.010	-0.096
-395.136	800.000	-0.126	0.417
-394.121	734.627	-0.021	0.058
-393.106	-21.472	0.247	0.152
-392.092	-92.652	0.143	0.040
-391.077	-200.000	-0.034	-0.196
-390.063	367.181	-0.099	0.200
-389.048	-151.184	-0.227	0.017
-388.033	121.401	0.019	0.023
-387.019	41.671	0.255	-0.233
-386.004	11.473	0.033	0.026
-384.990	-100.360	0.067	0.017
-383.975	800.000	-0.118	-0.347
-382.960	43.131	0.195	0.179
-381.946	-171.805	-0.140	0.005
-380.931	800.000	-0.044	0.128
-379.917	39.017	-0.174	-0.157
-378.902	735.906	0.115	0.310
-377.888	-200.000	-0.024	-0.202
-376.873	41.064	-0.236	-0.215
-375.858	-98.662	-0.166	0.043
-374.844	-184.306	0.208	0.003
-373.829	-200.000	-0.004	0.135
-372.815	231.272	0.088	0.145
-371.800	-106.640	-0.153	-0.034
-370.785	-200.000	-0.024	-0.127
-369.771	72.920	-0.144	0.152
-368.756	36.208	-0.129	0.115
-367.742	-21.942	-0.110	0.067
-366.727	492.005	-0.068	0.157
-365.712	-135.317	0.242	-0.029
-364.698	82.559	0.177	-0.193
-363.683	-200.000	-0.119	-0.553
-362.669	280.234	0.035	-0.064
-361.654	-200.000	-0.007	0.183
-360.639	89.069	-0.282	-0.315
-359.625	23.886	0.081	0.067
-358.610	-200.000	-0.005	0.175
-357.596	-200.000	0.057	-0.344
-356.581	-144.211	0.021	0.002
-355.566	-200.000	-0.008	0.191
-354.552	142.647	-0.024	-0.032
-353.537	-200.000	-0.013	0.272
-352.523	21.184	-0.209	-0.170
-351.508	-9.692	-0.259	0.173
-350.493	-200.000	-0.026	0.494
-349.479	-112.615	0.378	-0.076
-348.464	-200.000	-0.018	0.192
-347.450	-130.275	0.129	-0.018
-346.435	181.395	-0.005	-0.008
-345.420	-113.970	-0.174	0.034
-344.406	-77.801	-0.226	-0.079
-343.391	549.384	-0.166	-0.400
-342.377	240.821	-0.035	0.058
-341.362	-200.000	-0.016	0.144
-340.348	-65.875	0.347	-0.140
-339.333	800.000	0.057	0.181
-338.318	73.743	0.258	0.272
-337.304	-86.256	0.153	-0.047
-336.289	757.043	-0.057	-0.154
-335.275	800.000	-0.030	0.101
-334.260	-62.317	0.111	0.046
-333.245	-117.089	-0.290	0.053
-332.231	196.560	-0.205	-0.314
-331.216	-129.179	0.155	0.022
-330.202	107.757	-0.193	0.230
-329.187	133.677	0.040	-0.052
-328.172	800.000	0.046	0.157
-327.158	35.840	0.024	-0.021
-326.143	-83.851	0.242	0.077
-325.129	-200.000	0.079	0.396
-324.114	-140.243	-0.298	0.031
-323.099	-11.224	-0.221	-0.146
-322.085	-200.000	0.013	-0.437
-321.070	-92.862	-0.182	0.051
-320.056	-200.000	-0.003	-0.107
-319.041	-69.978	0.263	0.101
-318.026	-200.000	0.027	0.145
-317.012	55.560	-0.079	-0.077
-315.997	-37.911	0.217	0.116
-314.983	-26.199	0.270	-0.159
-313.968	396.326	0.282	0.591
-312.953	-58.896	-0.050	0.022
-311.939	127.536	-0.221	0.282
-310.924	800.000	0.113	0.447
-309.910	354.881	-0.046	0.092
-308.895	-184.409	0.226	-0.004
-307.880	-166.847	0.094	0.004
-306.866	-134.396	0.049	-0.006
-305.851	67.977	-0.248	0.254
-304.837	-32.881	0.319	0.178
-303.822	-80.931	-0.183	-0.061
-302.807	104.910	-0.213	-0.252
-301.793	168.305	0.080	-0.114
-300.778	46.728	0.198	-0.184
-299.764	677.015	-0.097	-0.253
-298.749	376.518	0.091	0.186
-297.735	800.000	-0.142	-0.453
-296.720	171.949	-0.140	-0.201
-295.705	145.132	-0.209	-0.280
-294.691	260.339	0.150	-0.260
-293.676	-200.000	-0.048	0.296
-292.662	-71.808	0.161	0.060
-291.647	240.597	-0.236	-0.395
-290.632	-104.634	-0.252	0.058
-289.618	-67.618	0.063	0.025
-288.603	-54.122	0.086	0.039
-287.589	78.466	0.148	0.158
-286.574	-200.000	-0.000	0.043
-285.559	800.000	0.020	-0.066
-284.545	203.716	-0.127	0.198
-283.530	-49.352	-0.348	-0.166
-282.516	-21.679	0.399	0.243
-281.501	-200.000	0.004	0.039
-280.486	-147.110	-0.264	0.023
-279.472	-108.214	-0.237	-0.051
-278.457	550.116	-0.046	0.110
-277.443	75.606	0.171	-0.181
-276.428	-30.758	-0.170	-0.096
-275.413	-200.000	0.035	-0.255
-274.399	800.000	-0.080	-0.300
-273.384	59.989	0.167	0.165
-272.370	-145.987	-0.410	-0.036
-271.355	253.797	0.162	-0.276
-270.340	78.306	0.136	0.146
-269.326	-132.615	0.386	0.050
-268.311	800.000	-0.022	0.067
-267.297	195.360	-0.174	0.265
-266.282	-200.000	0.040	0.213
-265.267	-51.665	-0.128	0.060
-264.253	7.642	0.113	-0.084
-263.238	-22.581	0.274	0.166
-262.224	-61.873	0.028	-0.012
-261.209	-97.959	0.381	0.098
-260.195	-51.439	0.114	-0.053
-259.180	558.711	0.023	0.055
-258.165	800.000	-0.037	0.106
-257.151	-34.924	0.167	0.092
-256.136	-200.000	0.007	0.199
-255.122	305.260	0.105	0.196
-254.107	800.000	0.056	-0.227
-253.092	-102.491	-0.310	0.074
-252.078	76.868	-0.071	-0.076
-251.063	-158.061	-0.036	0.002
-250.049	343.681	-0.120	0.236
-249.034	175.136	0.125	0.181
-248.019	356.006	0.087	-0.174
-247.005	156.532	-0.071	0.099
-245.990	-131.506	0.108	-0.014
-244.976	150.736	-0.063	0.086
-243.961	-200.000	0.021	0.235
-242.946	-175.222	-0.203	-0.006
-241.932	310.501	-0.130	-0.244
-240.917	-61.743	-0.168	-0.071
-239.903	-200.000	0.041	0.203
-238.888	23.903	0.217	0.179
-237.873	145.251	-0.288	-0.386
-236.859	-21.472	-0.135	-0.082
-235.844	-116.956	0.279	0.051
-234.830	453.371	0.055	0.123
-233.815	73.535	-0.141	-0.147
-232.800	-144.911	-0.107	-0.010
-231.786	-200.000	0.018	-0.083
-230.771	99.784	-0.057	-0.066
-229.757	-200.000	0.020	0.376
-228.742	37.565	-0.236	0.210
-227.727	800.000	-0.019	-0.057
-226.713	-200.000	-0.045	0.295
-225.698	-200.000	0.024	0.167
-224.684	37.169	0.254	-0.225
-223.669	-200.000	-0.029	-0.184
-222.655	166.057	0.114	0.161
-221.640	-200.000	0.013	0.074
-220.625	-27.943	-0.176	0.102
-219.611	135.866	-0.106	-0.138
-218.596	-125.677	-0.332	-0.050
-217.582	-200.000	0.037	0.225
-216.567	-200.000	-0.013	0.225
-215.552	-200.000	0.043	0.315
-214.538	-21.807	0.040	0.025
-213.523	170.658	0.069	-0.098
-212.509	-200.000	-0.028	0.329
-211.494	334.245	0.141	-0.273
-210.479	-46.053	-0.417	0.206
-209.465	800.000	-0.030	-0.124
-208.450	-52.094	0.194	0.090
-207.436	329.207	0.083	-0.160
-206.421	23.515	-0.222	-0.182
-205.406	800.000	0.090	-0.300
-204.392	-83.385	0.523	0.168
-203.377	234.138	0.070	0.115
-202.363	105.247	-0.146	-0.172
-201.348	351.368	-0.152	0.301
-200.333	-89.348	0.390	0.115
-199.319	-180.403	0.214	-0.004
-198.304	-35.547	-0.232	-0.126
-197.290	695.143	0.207	-0.543
-196.275	-200.000	0.009	0.178
-195.260	-46.885	-0.481	0.235
-194.246	-56.149	0.314	-0.140
-193.231	403.072	-0.110	-0.232
-192.217	385.100	-0.164	0.338
-191.202	305.102	0.138	-0.255
-190.187	-114.013	-0.126	-0.024
-189.173	-200.000	-0.027	0.171
-188.158	-81.818	0.151	0.049
-187.144	-26.649	-0.211	0.123
-186.129	-190.530	-0.375	0.004
-185.114	800.000	-0.085	-0.250
-184.100	-65.442	0.162	-0.065
-183.085	-115.283	0.094	0.018
-182.071	800.000	0.077	0.214
-181.056	-144.115	0.165	-0.015
-180.042	-16.274	-0.217	-0.138
-179.027	16.080	0.106	0.084
-178.012	-148.731	0.276	-0.022
-176.998	-146.787	-0.295	-0.025
-175.983	-68.200	0.175	-0.068
-174.969	202.913	-0.059	0.090
-173.954	-200.000	0.001	0.118
-172.939	-88.891	0.094	0.028
-171.925	129.474	0.124	-0.158
-170.910	-47.543	-0.229	-0.111
-169.896	800.000	0.124	0.373
-168.881	-22.781	0.321	-0.193
-167.866	-200.000	-0.029	-0.167
-166.852	-8.187	-0.134	0.090
-165.837	126.906	0.179	-0.226
-164.823	800.000	0.025	-0.089
-163.808	180.818	0.142	0.207
-162.793	-148.764	-0.468	0.038
-161.779	207.956	-0.065	0.102
-160.764	163.991	0.134	0.188
-159.750	800.000	0.088	-0.290
-158.735	800.000	0.086	0.267
-157.720	178.436	-0.101	-0.148
-156.706	-74.966	-0.150	-0.054
-155.691	2.902	-0.016	0.012
-154.677	369.226	-0.132	0.266
-153.662	-37.684	0.152	0.081
-152.647	72.025	-0.079	0.082
-151.633	94.993	-0.044	-0.050
-150.618	269.265	-0.172	0.301
-149.604	-120.718	0.361	0.061
-148.589	-200.000	-0.018	0.232
-147.574	794.499	-0.143	-0.391
-146.560	-41.539	0.147	0.075
-145.545	-200.000	-0.024	-0.208
-144.531	-177.131	-0.203	0.005
-143.516	36.871	-0.058	-0.051
-142.502	800.000	-0.094	-0.408
-141.487	-83.353	-0.232	0.074
-140.472	-51.883	-0.094	-0.044
-139.458	-110.686	0.047	0.010
-138.443	800.000	-0.054	-0.167
-137.429	-200.000	-0.022	0.287
-136.414	381.370	0.178	0.364
-135.399	-133.061	-0.399	0.050
-134.385	-121.035	-0.096	0.016
-133.370	144.366	-0.144	-0.192
-132.356	8.489	0.237	0.178
-131.341	-120.726	0.334	0.056
-130.326	43.716	0.212	-0.194
-129.312	670.190	-0.074	-0.192
-128.297	317.402	-0.056	0.106
-127.283	-5.576	-0.170	0.116
-126.268	130.332	0.211	-0.269
-125.253	64.153	0.136	-0.136
-124.239	-200.000	-0.067	-0.431
-123.224	99.375	0.133	-0.153
-122.210	743.118	0.111	0.297
-121.195	-176.482	-0.457	0.012
