DTS Sentinel unit serial number:	SN413079Multiplexer serial number:	ORYXHardware model number:	OX4-SRSoftware version number:	ORYX F/W v4.00 Oryx Data Collector v3.7.2.0data status	okinstallation	princeton_trtdifferential loss correction	single-endedforward channel	channel 3reverse channel	N/Adate	2019/09/16time	03:20:35forward acquisition time	60.00reverse acquisition time	0.00gamma	496.2192k internal	0.2334k external	0.2334temperature offset calibration	0.9954default loss term (dB/km)	0.3790temperature slope calibration	1.0000multiplexer offset coefficient	1.0000multiplexer slope coefficient	1.0000fibre end	0.00T internal ref (°C)	27.73T ext. ref 1 (°C)	10.51T ext. ref 2 (°C)	21.86length (m)	temperature (°C)	Stokes	anti-Stokes-747.200	-200.000	-0.122	-0.000
-746.185	-200.000	0.035	0.194
-745.171	153.483	-0.176	0.242
-744.156	51.876	-0.251	-0.240
-743.142	-12.103	-0.152	0.100
-742.127	156.795	0.096	0.133
-741.112	800.000	0.062	0.252
-740.098	92.753	-0.025	-0.029
-739.083	-200.000	0.035	0.194
-738.069	160.344	0.237	0.332
-737.054	21.482	0.310	-0.253
-736.039	-200.000	-0.017	-0.238
-735.025	800.000	-0.107	0.362
-734.010	800.000	-0.089	-0.375
-732.996	-200.000	0.065	-0.324
-731.981	101.027	0.139	-0.163
-730.966	-43.801	-0.347	-0.175
-729.952	505.372	-0.100	-0.233
-728.937	286.156	0.143	-0.259
-727.923	-200.000	-0.017	-0.193
-726.908	212.370	-0.081	-0.128
-725.894	-161.874	0.232	-0.012
-724.879	-130.777	0.214	0.029
-723.864	-136.628	-0.410	-0.048
-722.850	-200.000	-0.111	-0.536
-721.835	-115.231	-0.323	0.061
-720.821	-62.449	-0.116	0.048
-719.806	153.006	-0.333	-0.457
-718.791	344.839	0.142	-0.280
-717.777	700.453	-0.127	0.335
-716.762	245.097	0.217	-0.366
-715.748	168.223	-0.223	-0.319
-714.733	-156.060	-0.060	0.004
-713.718	-200.000	0.003	0.028
-712.704	-24.349	-0.127	0.076
-711.689	-79.302	-0.095	0.032
-710.675	-4.725	-0.215	-0.149
-709.660	-67.745	0.080	0.031
-708.645	-200.000	0.017	-0.186
-707.631	198.577	-0.100	-0.153
-706.616	-29.176	0.078	0.045
-705.602	-129.264	-0.237	-0.033
-704.587	800.000	-0.043	-0.131
-703.572	-200.000	-0.017	0.236
-702.558	88.596	0.358	-0.399
-701.543	-124.575	-0.032	-0.005
-700.529	-63.215	-0.398	-0.165
-699.514	-193.585	0.392	-0.003
-698.499	-11.697	-0.142	0.093
-697.485	-200.000	-0.076	0.521
-696.470	176.812	-0.173	-0.252
-695.456	32.966	-0.049	-0.042
-694.441	211.677	0.086	-0.135
-693.426	-200.000	0.066	0.314
-692.412	182.994	-0.171	-0.254
-691.397	459.749	0.250	-0.558
-690.383	-110.706	-0.183	-0.038
-689.368	-143.239	0.226	-0.022
-688.354	4.978	-0.172	-0.127
-687.339	-68.698	0.191	-0.074
-686.324	225.805	-0.088	-0.142
-685.310	459.830	0.123	0.274
-684.295	17.273	0.186	0.148
-683.281	-105.088	-0.231	-0.053
-682.266	-139.081	-0.251	-0.027
-681.251	-11.678	-0.053	0.035
-680.237	-43.885	0.094	-0.047
-679.222	5.921	0.126	0.093
-678.208	-58.585	-0.209	-0.091
-677.193	800.000	0.055	-0.152
-676.178	-169.352	-0.228	0.008
-675.164	800.000	-0.023	-0.099
-674.149	68.271	0.154	0.158
-673.135	-200.000	-0.051	-0.257
-672.120	158.751	0.083	-0.116
-671.105	-52.033	-0.238	0.111
-670.091	71.997	-0.218	-0.228
-669.076	-200.000	-0.019	-0.159
-668.062	324.946	0.148	0.283
-667.047	-42.102	0.363	0.186
-666.032	346.693	0.246	-0.485
-665.018	-200.000	0.043	0.240
-664.003	800.000	-0.026	0.106
-662.989	-200.000	-0.419	-0.002
-661.974	-117.919	-0.234	0.042
-660.959	301.966	0.101	0.187
-659.945	800.000	-0.089	0.250
-658.930	-139.628	-0.317	0.034
-657.916	281.905	-0.127	0.227
-656.901	278.288	0.116	-0.208
-655.886	116.930	-0.290	-0.356
-654.872	-200.000	0.041	-0.231
-653.857	-56.293	0.166	0.074
-652.843	-91.143	0.026	0.008
-651.828	-200.000	-0.001	-0.027
-650.814	-98.214	0.253	0.065
-649.799	279.007	0.042	0.076
-648.784	-7.516	-0.173	0.117
-647.770	-14.975	0.238	-0.153
-646.755	159.113	-0.132	-0.183
-645.741	-78.752	-0.110	-0.038
-644.726	-200.000	-0.027	0.348
-643.711	800.000	-0.047	0.144
-642.697	121.411	0.165	0.206
-641.682	-115.800	-0.130	0.024
-640.668	16.906	-0.253	0.201
-639.653	-37.866	-0.109	0.058
-638.638	97.283	0.191	0.219
-637.624	-77.609	-0.189	0.065
-636.609	-29.957	-0.128	-0.073
-635.595	-138.066	-0.100	0.011
-634.580	800.000	0.096	0.362
-633.565	-100.491	-0.191	-0.047
-632.551	39.242	0.139	-0.124
-631.536	-90.596	0.214	-0.062
-630.522	-139.012	-0.160	0.017
-629.507	369.711	-0.053	0.108
-628.492	400.265	0.068	-0.142
-627.478	-66.462	-0.125	-0.050
-626.463	-200.000	0.011	-0.191
-625.449	-59.447	0.172	0.074
-624.434	372.585	0.070	0.142
-623.419	-97.321	-0.262	-0.068
-622.405	59.350	-0.138	0.136
-621.390	215.955	0.170	0.270
-620.376	-46.509	0.047	-0.023
-619.361	-70.055	-0.226	0.086
-618.346	256.839	-0.053	-0.092
-617.332	-56.989	-0.399	-0.176
-616.317	264.402	-0.060	-0.105
-615.303	36.973	0.185	-0.163
-614.288	800.000	0.045	0.177
-613.273	-60.699	0.301	-0.127
-612.259	625.741	0.106	-0.267
-611.244	-200.000	-0.060	0.317
-610.230	-66.061	-0.214	0.085
-609.215	-200.000	-0.039	-0.280
-608.201	1.334	0.157	-0.113
-607.186	800.000	-0.006	0.019
-606.171	-8.994	0.081	-0.054
-605.157	7.729	-0.146	-0.109
-604.142	800.000	0.025	-0.083
-603.128	-99.879	0.332	0.083
-602.113	254.383	-0.196	-0.334
-601.098	-33.857	-0.115	-0.063
-600.084	-41.857	0.403	0.207
-599.069	115.892	-0.205	-0.251
-598.055	23.513	-0.353	-0.290
-597.040	-113.999	-0.188	0.036
-596.025	800.000	0.039	-0.120
-595.011	-109.329	-0.129	-0.027
-593.996	-136.793	0.123	-0.014
-592.982	321.511	0.105	0.199
-591.967	-15.024	0.138	-0.088
-590.952	800.000	0.059	0.236
-589.938	-45.432	0.237	0.117
-588.923	243.561	0.152	0.255
-587.909	-66.126	0.118	0.047
-586.894	-101.619	0.244	-0.059
-585.879	-200.000	0.065	0.387
-584.865	-7.400	0.113	0.076
-583.850	-1.240	0.285	-0.201
-582.836	161.183	-0.149	-0.208
-581.821	-107.412	-0.079	-0.017
-580.806	-200.000	0.029	-0.178
-579.792	-200.000	-0.070	0.338
-578.777	14.734	-0.120	-0.094
-577.763	370.055	-0.099	-0.201
-576.748	-120.217	0.346	-0.059
-575.733	-133.675	-0.165	-0.021
-574.719	308.167	-0.073	-0.135
-573.704	-200.000	-0.002	0.137
-572.690	-200.000	0.033	0.222
-571.675	-58.325	-0.068	-0.029
-570.661	-5.207	-0.062	0.043
-569.646	43.155	-0.217	-0.198
-568.631	335.884	-0.034	0.066
-567.617	-137.271	0.227	-0.026
-566.602	607.532	-0.074	-0.183
-565.588	-22.650	-0.061	-0.037
-564.573	165.007	-0.051	0.071
-563.558	800.000	-0.117	0.377
-562.544	251.784	0.096	-0.163
-561.529	-6.814	-0.080	0.054
-560.515	11.958	0.109	-0.083
-559.500	-66.408	0.101	0.040
-558.485	203.217	0.119	-0.183
-557.471	167.844	0.123	-0.174
-556.456	-200.000	-0.240	-0.001
-555.442	-148.785	-0.085	0.007
-554.427	-15.734	0.049	0.031
-553.412	-200.000	0.065	-0.305
-552.398	0.455	-0.127	-0.091
-551.383	800.000	-0.163	-0.493
-550.369	537.877	0.134	-0.318
-549.354	-87.281	0.182	0.055
-548.339	437.050	-0.086	-0.186
-547.325	-124.235	-0.110	0.017
-546.310	-138.270	0.097	-0.011
-545.296	-105.247	-0.154	-0.035
-544.281	5.350	-0.288	-0.212
-543.266	-9.475	0.236	-0.157
-542.252	-150.802	0.059	-0.004
-541.237	-134.656	-0.316	-0.038
-540.223	-51.042	-0.200	0.094
-539.208	-190.809	-0.137	-0.001
-538.193	800.000	0.013	-0.056
-537.179	-69.204	0.309	0.119
-536.164	99.821	-0.165	0.191
-535.150	-200.000	-0.001	0.292
-534.135	264.786	0.050	-0.088
-533.121	-200.000	-0.008	-0.152
-532.106	-41.393	-0.236	-0.121
-531.091	79.017	-0.156	-0.167
-530.077	-200.000	0.006	-0.093
-529.062	-18.665	0.145	-0.090
-528.048	-30.912	0.416	0.234
-527.033	492.203	-0.042	-0.096
-526.018	-200.000	0.011	0.330
-525.004	167.432	0.062	-0.088
-523.989	-98.558	0.107	-0.027
-522.975	216.430	0.146	-0.231
-521.960	7.923	0.150	-0.112
-520.945	-54.106	-0.065	0.030
-519.931	-57.772	-0.611	0.267
-518.916	-184.246	0.151	-0.002
-517.902	-200.000	-0.007	-0.097
-516.887	213.557	0.137	-0.216
-515.872	-5.687	-0.029	-0.020
-514.858	-155.659	0.025	-0.002
-513.843	65.410	-0.216	0.218
-512.829	-108.150	-0.295	-0.064
-511.814	83.381	0.018	-0.020
-510.799	27.530	-0.136	-0.114
-509.785	-39.074	-0.243	-0.127
-508.770	-141.574	0.168	-0.017
-507.756	134.659	-0.109	0.141
-506.741	-51.313	-0.232	-0.108
-505.726	-130.114	-0.204	0.028
-504.712	57.621	0.154	-0.150
-503.697	-32.666	-0.113	-0.062
-502.683	96.633	0.140	0.160
-501.668	348.684	0.204	0.401
-500.653	-186.679	0.219	-0.003
-499.639	-200.000	-0.008	-0.107
-498.624	-170.243	-0.100	-0.004
-497.610	113.590	-0.071	0.086
-496.595	800.000	0.043	0.122
-495.581	800.000	0.047	0.136
-494.566	-83.598	0.053	-0.017
-493.551	154.670	-0.103	-0.141
-492.537	-130.140	-0.375	0.051
-491.522	800.000	-0.110	-0.371
-490.508	144.415	0.112	-0.149
-489.493	-109.777	0.106	0.022
-488.478	-200.000	-0.025	0.138
-487.464	800.000	0.055	0.225
-486.449	-200.000	-0.012	0.192
-485.435	-78.696	-0.089	-0.030
-484.420	561.848	0.041	0.098
-483.405	45.370	-0.329	-0.302
-482.391	480.082	0.098	-0.221
-481.376	-111.661	-0.468	0.094
-480.362	-200.000	0.028	-0.185
-479.347	98.934	0.051	0.058
-478.332	6.001	-0.338	-0.249
-477.318	-200.000	-0.046	-0.448
-476.303	-200.000	0.006	-0.301
-475.289	357.362	0.060	-0.119
-474.274	81.676	0.222	-0.239
-473.259	-200.000	-0.005	-0.085
-472.245	-66.292	-0.060	-0.024
-471.230	-109.325	0.402	0.085
-470.216	-121.061	-0.116	0.019
-469.201	198.061	-0.126	0.191
-468.186	-80.551	0.140	0.046
-467.172	-22.964	-0.296	0.177
-466.157	800.000	0.060	-0.179
-465.143	-200.000	0.074	0.382
-464.128	-1.590	0.104	-0.073
-463.113	146.071	-0.097	0.129
-462.099	-200.000	0.012	0.301
-461.084	-174.383	-0.133	0.004
-460.070	-200.000	0.049	-0.500
-459.055	-200.000	0.036	-0.212
-458.040	-131.201	-0.276	-0.036
-457.026	74.180	0.166	0.173
-456.011	100.378	-0.314	0.363
-454.997	135.810	-0.052	0.068
-453.982	417.903	0.126	0.268
-452.968	-31.281	-0.084	0.047
-451.953	800.000	-0.094	0.398
-450.938	287.159	0.078	-0.140
-449.924	-85.415	0.184	0.057
-448.909	-44.058	0.111	-0.056
-447.895	65.532	-0.190	0.192
-446.880	-56.413	-0.206	0.091
-445.865	-112.789	-0.261	0.051
-444.851	-200.000	0.005	-0.144
-443.836	52.737	-0.057	0.054
-442.822	-148.866	0.160	0.013
-441.807	69.438	-0.083	0.084
-440.792	-200.000	-0.001	-0.088
-439.778	100.808	-0.191	-0.220
-438.763	407.723	-0.142	0.298
-437.749	-200.000	0.017	0.443
-436.734	-82.972	-0.355	0.114
-435.719	800.000	0.022	-0.068
-434.705	800.000	0.055	0.179
-433.690	-200.000	0.017	0.433
-432.676	-200.000	-0.042	0.236
-431.661	67.798	0.244	0.248
-430.646	598.358	-0.090	-0.221
-429.632	609.680	-0.092	0.228
-428.617	213.980	-0.089	-0.140
-427.603	800.000	-0.061	0.172
-426.588	48.830	0.035	0.033
-425.573	-200.000	-0.032	-0.422
-424.559	800.000	0.039	0.117
-423.544	800.000	0.061	-0.188
-422.530	3.324	0.127	-0.092
-421.515	1.423	-0.024	0.017
-420.500	-200.000	-0.019	-0.152
-419.486	106.375	-0.117	-0.138
-418.471	-61.591	0.201	-0.084
-417.457	209.755	0.077	0.120
-416.442	-7.824	-0.190	0.127
-415.428	144.281	-0.158	-0.210
-414.413	-31.926	0.069	-0.038
-413.398	174.685	0.071	-0.102
-412.384	-83.079	-0.214	0.068
-411.369	112.725	-0.209	0.252
-410.355	240.876	-0.078	0.129
-409.340	800.000	-0.028	-0.118
-408.325	-48.267	-0.074	-0.036
-407.311	-200.000	0.066	-0.386
-406.296	-200.000	0.020	-0.249
-405.282	109.714	0.038	0.046
-404.267	-100.537	-0.212	-0.052
-403.252	193.100	-0.053	0.079
-402.238	-107.000	0.187	0.041
-401.223	81.833	-0.111	0.120
-400.209	-8.095	-0.431	-0.288
-399.194	800.000	-0.051	-0.167
-398.179	28.497	0.209	-0.175
-397.165	-99.028	-0.306	-0.077
-396.150	272.118	-0.192	0.336
-395.136	-77.573	0.389	-0.134
-394.121	59.108	-0.323	-0.315
-393.106	166.393	-0.081	-0.113
-392.092	-147.779	0.303	-0.025
-391.077	-200.000	-0.004	0.026
-390.063	208.635	0.144	-0.224
-389.048	118.286	-0.277	-0.339
-388.033	223.029	-0.124	0.198
-387.019	53.464	-0.227	0.215
-386.004	-200.000	-0.038	0.229
-384.990	4.980	-0.110	-0.080
-383.975	-200.000	-0.022	0.373
-382.960	-72.863	-0.041	-0.015
-381.946	800.000	0.055	-0.189
-380.931	213.264	-0.090	-0.141
-379.917	91.118	0.219	-0.244
-378.902	413.383	-0.035	-0.074
-377.888	224.028	-0.036	-0.057
-376.873	-107.120	0.328	-0.072
-375.858	300.073	-0.078	-0.142
-374.844	283.649	-0.113	0.201
-373.829	-200.000	0.007	0.370
-372.815	-100.439	-0.110	0.027
-371.800	-156.624	-0.049	-0.003
-370.785	677.099	-0.030	0.077
-369.771	-25.272	0.139	0.081
-368.756	26.883	-0.145	-0.120
-367.742	356.932	-0.046	-0.092
-366.727	-141.768	-0.099	0.010
-365.712	-200.000	0.004	-0.042
-364.698	800.000	0.072	-0.229
-363.683	104.905	-0.217	0.253
-362.669	-200.000	-0.006	-0.074
-361.654	-130.464	0.186	0.025
-360.639	-19.581	-0.098	0.060
-359.625	-18.670	-0.132	0.082
-358.610	800.000	0.130	0.494
-357.596	-55.137	-0.126	-0.056
-356.581	-7.865	-0.092	-0.061
-355.566	-109.426	0.392	-0.082
-354.552	-157.450	-0.155	0.009
-353.537	68.637	-0.167	0.170
-352.523	-148.229	-0.250	-0.020
-351.508	-181.399	0.364	0.007
-350.493	-15.979	0.311	0.196
-349.479	-141.394	-0.231	-0.023
-348.464	-200.000	0.019	-0.185
-347.450	693.135	0.084	-0.217
-346.435	-46.754	-0.158	-0.076
-345.420	-200.000	-0.013	0.325
-344.406	150.876	0.107	0.144
-343.391	-79.099	-0.153	-0.051
-342.377	660.082	0.071	0.181
-341.362	159.143	0.328	0.452
-340.348	-102.233	0.189	-0.045
-339.333	-130.002	0.127	0.017
-338.318	394.775	-0.176	0.363
-337.304	-104.233	0.303	-0.070
-336.289	-44.887	0.157	-0.078
-335.275	-141.508	-0.279	-0.028
-334.260	47.268	0.068	0.063
-333.245	-4.949	0.253	0.173
-332.231	-200.000	-0.021	0.260
-331.216	-113.976	-0.198	0.038
-330.202	199.599	0.132	-0.201
-329.187	92.053	-0.126	0.140
-328.172	-51.849	0.110	-0.051
-327.158	43.461	0.162	0.147
-326.143	-91.636	-0.257	0.072
-325.129	157.347	0.135	0.185
-324.114	-163.541	-0.061	0.003
-323.099	188.543	0.060	-0.089
-322.085	-103.855	0.291	0.067
-321.070	53.370	0.061	-0.058
-320.056	-140.677	-0.263	-0.027
-319.041	-83.361	0.148	0.047
-318.026	-98.286	0.271	-0.069
-317.012	-111.735	-0.156	-0.031
-315.997	-0.480	0.234	0.165
-314.983	-98.846	-0.111	-0.028
-313.968	-63.866	0.054	-0.022
-312.953	50.105	0.180	0.168
-311.939	-37.880	0.123	0.064
-310.924	-97.836	-0.007	-0.002
-309.910	-200.000	-0.047	-0.223
-308.895	-200.000	0.031	-0.217
-307.880	-105.538	0.173	0.039
-306.866	153.072	0.058	-0.078
-305.851	-103.669	-0.250	-0.058
-304.837	800.000	0.060	-0.212
-303.822	433.933	0.070	0.149
-302.807	-200.000	0.015	-0.103
-301.793	-62.442	0.226	-0.093
-300.778	-170.724	0.236	-0.008
-299.764	-60.308	-0.205	0.086
-298.749	-105.082	0.139	-0.031
-297.735	264.286	0.065	-0.113
-296.720	34.508	0.133	-0.115
-295.705	800.000	-0.056	0.202
-294.691	-200.000	-0.012	-0.161
-293.676	800.000	0.054	-0.222
-292.662	-47.567	-0.064	0.031
-291.647	-200.000	-0.002	0.140
-290.632	141.499	0.396	0.518
-289.618	-85.936	0.235	-0.072
-288.603	-41.567	0.296	0.150
-287.589	800.000	-0.043	0.144
-286.574	-156.642	-0.106	0.006
-285.559	-100.074	0.337	-0.083
-284.545	-186.501	-0.239	0.003
-283.530	164.289	-0.122	-0.169
-282.516	755.423	0.172	0.460
-281.501	800.000	-0.031	0.113
-280.486	149.182	0.153	0.204
-279.472	333.796	0.091	0.174
-278.457	-89.561	-0.340	0.098
-277.443	-185.825	-0.244	0.004
-276.428	-156.646	0.158	-0.010
-275.413	-200.000	-0.059	0.320
-274.399	-200.000	0.003	0.199
-273.384	-87.029	-0.201	0.060
-272.370	493.099	0.041	0.092
-271.355	-200.000	-0.015	0.128
-270.340	800.000	0.036	-0.109
-269.326	-79.366	0.146	-0.049
-268.311	239.898	0.178	-0.293
-267.297	100.581	0.127	-0.146
-266.282	-200.000	0.026	0.348
-265.267	-200.000	0.024	0.151
-264.253	-0.807	0.190	-0.133
-263.238	800.000	0.026	-0.107
-262.224	3.949	-0.235	0.170
-261.209	185.439	-0.138	-0.202
-260.195	576.337	-0.063	-0.153
-259.180	329.635	-0.127	0.241
-258.165	302.728	0.111	0.202
-257.151	26.160	-0.081	-0.067
-256.136	-200.000	-0.050	-0.285
-255.122	-200.000	-0.005	0.135
-254.107	-59.894	-0.073	-0.031
-253.092	-92.223	-0.096	-0.027
-252.078	608.790	0.069	0.170
-251.063	131.087	0.185	-0.234
-250.049	-43.055	0.379	-0.189
-249.034	800.000	-0.020	-0.071
-248.019	-56.237	0.302	-0.132
-247.005	310.289	-0.249	0.460
-245.990	256.443	0.108	-0.183
-244.976	91.638	0.242	-0.268
-243.961	-200.000	-0.013	-0.239
-242.946	-95.068	-0.266	-0.071
-241.932	-95.688	0.343	-0.091
-240.917	-0.192	0.340	0.238
-239.903	46.524	-0.226	0.207
-238.888	-102.143	-0.190	0.045
-237.873	175.351	0.118	-0.168
-236.859	-127.025	-0.402	0.058
-235.844	-76.552	0.317	0.110
-234.830	158.088	0.113	0.155
-233.815	66.018	0.059	0.059
-232.800	800.000	0.104	-0.318
-231.786	25.025	0.247	-0.202
-230.771	-106.350	-0.199	0.044
-229.757	170.841	-0.192	-0.272
-228.742	-13.772	-0.144	0.092
-227.727	41.478	0.167	0.149
-226.713	-180.165	-0.048	-0.001
-225.698	-191.938	-0.259	0.002
-224.684	95.913	0.238	0.268
-223.669	16.509	0.110	0.085
-222.655	281.610	-0.115	-0.204
-221.640	-166.923	0.118	-0.005
-220.625	620.446	0.070	-0.173
-219.611	-94.349	0.135	-0.036
-218.596	-137.821	0.328	-0.036
-217.582	263.378	-0.028	0.049
-216.567	-200.000	-0.054	-0.237
-215.552	-200.000	0.014	0.379
-214.538	38.752	0.049	0.043
-213.523	-155.407	-0.144	0.009
-212.509	215.217	-0.099	-0.155
-211.494	210.278	-0.113	0.174
-210.479	-200.000	0.007	0.138
-209.465	85.242	-0.178	-0.192
-208.450	-200.000	0.037	0.232
-207.436	-200.000	-0.067	-0.289
-206.421	-81.559	0.263	-0.085
-205.406	31.636	0.310	-0.262
-204.392	116.641	0.223	-0.270
-203.377	274.956	-0.090	-0.157
-202.363	-5.794	0.156	0.105
-201.348	-105.155	-0.267	0.060
-200.333	99.273	-0.088	-0.101
-199.319	-200.000	0.045	-0.329
-198.304	-40.795	-0.327	-0.167
-197.290	-85.136	0.297	-0.092
-196.275	3.440	0.161	-0.115
-195.260	-84.559	0.111	0.035
-194.246	18.581	-0.164	0.129
-193.231	-147.808	-0.108	0.009
-192.217	800.000	0.107	-0.347
-191.202	66.000	-0.128	-0.128
-190.187	77.707	-0.089	0.093
-189.173	453.323	0.017	0.036
-188.158	800.000	-0.076	0.244
-187.144	-160.670	0.276	-0.014
-186.129	10.505	0.115	0.086
-185.114	-113.327	-0.086	-0.017
-184.100	-152.419	0.283	-0.020
-183.085	351.855	-0.107	0.208
-182.071	-152.355	0.055	0.004
-181.056	98.968	0.121	0.138
-180.042	317.031	-0.082	0.152
-179.027	-200.000	-0.034	-0.210
-178.012	59.357	-0.099	-0.096
-176.998	457.121	0.109	-0.237
-175.983	-90.002	0.170	-0.049
-174.969	-131.163	0.413	0.054
-173.954	800.000	0.029	0.082
-172.939	13.026	0.047	0.035
-171.925	-137.000	0.112	0.013
-170.910	51.393	-0.223	-0.208
-169.896	-67.672	-0.240	0.092
-168.881	-200.000	0.019	-0.149
-167.866	155.471	0.218	-0.295
-166.852	215.978	-0.128	0.200
-165.837	229.306	0.092	-0.148
-164.823	-200.000	0.007	-0.102
-163.808	38.561	0.352	0.308
-162.793	-200.000	-0.010	-0.295
-161.779	86.610	-0.133	-0.144
-160.764	-67.293	0.320	0.124
-159.750	-48.982	0.199	0.093
-158.735	-140.030	-0.275	-0.029
-157.720	-147.115	0.235	-0.020
-156.706	-200.000	-0.059	0.320
-155.691	-200.000	-0.054	0.252
-154.677	-117.515	-0.129	-0.023
-153.662	-83.732	0.290	0.091
-152.647	466.842	-0.032	-0.072
-151.633	11.559	-0.257	0.193
-150.618	771.772	-0.047	0.125
-149.604	-156.520	0.536	-0.033
-148.589	113.136	-0.180	0.214
-147.574	-200.000	-0.030	0.190
-146.560	-200.000	-0.049	-0.244
-145.545	-40.067	0.195	-0.100
-144.531	800.000	0.137	-0.558
-143.516	1.942	0.219	-0.155
-142.502	-200.000	-0.023	-0.319
-141.487	-83.764	-0.187	-0.059
-140.472	-138.523	0.453	0.049
-139.458	29.172	-0.274	-0.228
-138.443	-78.770	0.060	-0.020
-137.429	800.000	0.097	0.405
-136.414	-200.000	0.052	0.362
-135.399	800.000	0.065	-0.246
-134.385	800.000	0.025	-0.081
-133.370	800.000	-0.100	0.379
-132.356	110.545	-0.143	0.169
-131.341	-33.777	0.228	0.123
-130.326	106.836	0.175	0.204
-129.312	167.243	0.042	0.059
-128.297	-200.000	-0.057	0.254
-127.283	800.000	0.046	0.182
-126.268	-18.900	-0.124	0.075
-125.253	-200.000	0.044	0.197
-124.239	-111.494	0.102	0.020
-123.224	-25.286	-0.095	0.055
