DTS Sentinel unit serial number:	SN413079Multiplexer serial number:	ORYXHardware model number:	OX4-SRSoftware version number:	ORYX F/W v4.00 Oryx Data Collector v3.7.2.0data status	okinstallation	princeton_trtdifferential loss correction	single-endedforward channel	channel 3reverse channel	N/Adate	2019/09/17time	14:24:35forward acquisition time	60.00reverse acquisition time	0.00gamma	496.2192k internal	0.2299k external	0.2299temperature offset calibration	0.9955default loss term (dB/km)	0.3790temperature slope calibration	1.0000multiplexer offset coefficient	1.0000multiplexer slope coefficient	1.0000fibre end	0.00T internal ref (°C)	36.28T ext. ref 1 (°C)	0.41T ext. ref 2 (°C)	33.27length (m)	temperature (°C)	Stokes	anti-Stokes-747.200	-200.000	-0.054	0.480
-746.185	-200.000	0.102	0.529
-745.171	-200.000	0.060	0.349
-744.156	24.524	0.281	0.237
-743.142	-63.896	0.195	-0.081
-742.127	256.756	0.324	0.569
-741.112	-56.237	-0.278	-0.126
-740.098	-123.350	-0.049	0.008
-739.083	112.630	-0.120	-0.148
-738.069	-79.088	-0.215	0.075
-737.054	-200.000	-0.012	0.147
-736.039	99.411	-0.074	0.087
-735.025	-130.273	0.218	-0.030
-734.010	28.287	-0.100	-0.086
-732.996	-91.760	-0.126	-0.036
-731.981	10.719	0.210	0.164
-730.966	432.039	0.146	-0.323
-729.952	52.117	-0.049	0.047
-728.937	-148.895	-0.173	-0.014
-727.923	-96.604	-0.095	-0.025
-726.908	-25.505	-0.127	0.076
-725.894	-105.088	-0.279	0.065
-724.879	-100.939	0.155	0.039
-723.864	-64.868	-0.284	-0.117
-722.850	-116.855	-0.144	0.027
-721.835	-158.489	-0.666	-0.039
-720.821	-170.190	-0.267	0.010
-719.806	-78.980	-0.134	-0.046
-718.791	-0.393	-0.269	-0.195
-717.777	46.604	-0.123	0.116
-716.762	-106.803	-0.206	-0.047
-715.748	63.436	-0.077	-0.079
-714.733	-138.433	0.231	0.026
-713.718	80.043	-0.034	-0.037
-712.704	-166.847	-0.376	-0.016
-711.689	800.000	-0.091	0.355
-710.675	-68.240	-0.081	0.032
-709.660	-72.219	-0.240	-0.091
-708.645	157.248	-0.128	0.181
-707.631	-48.510	-0.114	-0.056
-706.616	-200.000	-0.008	-0.145
-705.602	381.893	0.057	-0.119
-704.587	-132.538	0.082	-0.011
-703.572	266.553	0.156	-0.277
-702.558	-105.656	-0.135	-0.031
-701.543	92.869	-0.260	-0.299
-700.529	-200.000	-0.005	0.050
-699.514	304.796	0.111	-0.211
-698.499	146.790	0.399	-0.546
-697.485	420.527	0.049	0.106
-696.470	-88.632	0.117	0.035
-695.456	800.000	0.055	-0.160
-694.441	106.328	-0.106	-0.128
-693.426	800.000	-0.087	-0.315
-692.412	-200.000	-0.019	0.171
-691.397	37.714	0.003	-0.003
-690.383	0.170	0.177	0.129
-689.368	160.489	0.132	0.187
-688.354	58.089	0.039	0.039
-687.339	-200.000	-0.042	-0.270
-686.324	-63.354	-0.349	-0.146
-685.310	173.043	-0.285	-0.418
-684.295	188.448	0.157	0.239
-683.281	101.215	-0.070	-0.083
-682.266	9.777	0.227	0.175
-681.251	-200.000	0.001	0.132
-680.237	-105.795	-0.089	-0.021
-679.222	800.000	-0.023	0.096
-678.208	-17.185	0.101	-0.065
-677.193	-94.211	-0.192	-0.054
-676.178	75.386	-0.242	-0.260
-675.164	800.000	-0.062	0.190
-674.149	800.000	-0.078	0.272
-673.135	86.182	0.158	0.177
-672.120	800.000	-0.081	-0.270
-671.105	-14.891	0.130	-0.085
-670.091	-110.856	0.238	0.050
-669.076	-98.925	0.180	0.047
-668.062	-48.025	-0.234	-0.115
-667.047	-125.226	0.136	0.021
-666.032	470.093	0.082	-0.188
-665.018	8.119	-0.382	0.292
-664.003	800.000	0.012	0.050
-662.989	75.382	-0.076	-0.082
-661.974	38.208	-0.088	0.079
-660.959	-133.403	-0.282	0.036
-659.945	-200.000	-0.006	-0.232
-658.930	-32.928	-0.192	0.108
-657.916	79.520	0.150	0.164
-656.901	-200.000	0.020	-0.120
-655.886	114.489	-0.105	-0.130
-654.872	520.624	-0.217	0.517
-653.857	-24.703	0.193	0.117
-652.843	168.879	-0.191	0.277
-651.828	-80.078	0.180	-0.061
-650.814	201.284	0.107	-0.168
-649.799	-146.944	-0.354	0.031
-648.784	800.000	0.072	-0.212
-647.770	800.000	-0.076	-0.256
-646.755	75.685	-0.304	0.327
-645.741	-99.928	-0.131	-0.033
-644.726	800.000	0.115	-0.369
-643.711	543.642	0.086	0.208
-642.697	-68.953	-0.328	-0.129
-641.682	-2.933	0.152	-0.108
-640.668	-10.088	-0.087	0.058
-639.653	800.000	-0.075	-0.227
-638.638	-118.521	0.285	-0.051
-637.624	-200.000	0.057	0.323
-636.609	188.931	0.052	0.079
-635.595	379.628	-0.069	-0.143
-634.580	-75.499	0.063	-0.023
-633.565	-73.335	-0.318	-0.118
-632.551	30.344	-0.158	-0.137
-631.536	427.378	-0.024	0.052
-630.522	-200.000	-0.004	-0.188
-629.507	65.019	-0.222	0.228
-628.492	-30.365	0.148	0.085
-627.478	-31.486	0.346	0.197
-626.463	-54.133	0.186	0.086
-625.449	-200.000	-0.021	-0.129
-624.434	800.000	0.063	0.271
-623.419	83.355	-0.203	0.224
-622.405	132.459	0.106	-0.139
-621.390	-200.000	0.029	-0.323
-620.376	-107.847	-0.056	0.012
-619.361	800.000	-0.070	-0.211
-618.346	714.728	0.036	-0.096
-617.332	-27.542	0.120	-0.071
-616.317	-33.762	-0.210	0.118
-615.303	-200.000	0.025	-0.185
-614.288	-93.806	0.095	0.027
-613.273	30.534	-0.172	0.149
-612.259	-200.000	0.002	0.060
-611.244	-96.362	0.306	-0.082
-610.230	237.806	-0.103	0.174
-609.215	-69.182	-0.268	-0.105
-608.201	122.262	-0.197	-0.249
-607.186	-14.822	0.239	-0.155
-606.171	-200.000	0.009	-0.270
-605.157	-152.784	-0.283	-0.020
-604.142	-52.294	-0.132	0.062
-603.128	-200.000	0.054	-0.305
-602.113	366.935	0.116	0.238
-601.098	584.503	-0.117	-0.293
-600.084	75.042	0.191	-0.204
-599.069	800.000	-0.043	-0.158
-598.055	91.641	-0.239	-0.273
-597.040	-89.349	0.169	-0.050
-596.025	800.000	-0.115	-0.368
-595.011	-58.715	-0.296	0.130
-593.996	-0.818	0.131	0.094
-592.982	-200.000	0.015	-0.110
-591.967	377.701	-0.075	0.155
-590.952	15.360	-0.102	-0.081
-589.938	-51.541	-0.050	-0.024
-588.923	28.068	0.181	-0.155
-587.909	122.912	0.175	0.222
-586.894	-117.902	-0.342	0.062
-585.879	11.722	0.088	0.069
-584.865	-46.486	-0.259	0.129
-583.850	-97.351	0.234	-0.062
-582.836	317.839	0.066	0.128
-581.821	-153.289	0.125	0.009
-580.806	-23.110	0.039	-0.024
-579.792	-168.015	-0.084	0.003
-578.777	800.000	-0.073	0.291
-577.763	-122.963	0.334	-0.055
-576.748	-62.888	0.153	0.064
-575.733	247.666	0.105	0.180
-574.719	-68.895	-0.307	0.120
-573.704	-36.640	0.034	0.019
-572.690	-50.737	-0.500	0.239
-571.675	206.009	-0.201	-0.316
-570.661	57.252	-0.091	0.090
-569.646	-116.046	-0.095	0.018
-568.631	195.807	0.135	-0.208
-567.617	21.258	-0.171	-0.141
-566.602	800.000	0.017	-0.048
-565.588	20.089	0.226	-0.184
-564.573	800.000	0.033	-0.122
-563.558	-200.000	0.019	-0.193
-562.544	-43.500	0.169	-0.087
-561.529	-73.157	0.156	-0.058
-560.515	-98.351	0.293	-0.076
-559.500	-200.000	0.095	-0.000
-558.485	50.625	0.189	-0.182
-557.471	800.000	-0.109	-0.341
-556.456	-95.989	0.173	0.047
-555.442	133.900	-0.155	-0.204
-554.427	800.000	-0.053	0.226
-553.412	302.262	-0.186	-0.349
-552.398	-39.325	0.057	0.030
-551.383	23.536	0.157	0.131
-550.369	112.840	0.117	-0.144
-549.354	91.484	-0.073	-0.083
-548.339	-76.657	0.371	-0.132
-547.325	800.000	-0.090	-0.266
-546.310	386.879	-0.081	-0.169
-545.296	-200.000	-0.034	0.157
-544.281	113.365	-0.067	0.082
-543.266	-168.101	0.304	0.012
-542.252	456.307	-0.054	-0.120
-541.237	-200.000	-0.028	-0.486
-540.223	144.202	-0.207	-0.280
-539.208	324.484	-0.067	0.130
-538.193	7.150	0.172	0.130
-537.179	-105.428	-0.607	0.140
-536.164	332.127	0.156	0.304
-535.150	97.935	-0.085	0.099
-534.135	76.642	0.100	0.107
-533.121	97.337	0.229	0.266
-532.106	185.610	-0.067	0.100
-531.091	-99.410	-0.068	-0.017
-530.077	800.000	0.116	-0.375
-529.062	47.396	0.091	0.086
-528.048	166.080	0.127	-0.181
-527.033	-114.014	0.175	0.034
-526.018	116.326	-0.208	0.258
-525.004	-128.333	-0.239	0.034
-523.989	-200.000	-0.026	0.197
-522.975	793.518	-0.065	-0.181
-521.960	-200.000	-0.035	-0.525
-520.945	-20.203	0.044	-0.027
-519.931	57.862	-0.128	0.127
-518.916	90.956	-0.225	-0.255
-517.902	11.935	-0.197	-0.153
-516.887	-200.000	-0.016	0.281
-515.872	-80.402	0.189	-0.064
-514.858	-0.227	0.222	0.160
-513.843	-7.731	0.119	-0.082
-512.829	161.687	-0.196	0.277
-511.814	185.456	0.063	-0.095
-510.799	-127.151	-0.307	-0.046
-509.785	203.624	0.088	0.138
-508.770	-38.490	-0.249	0.133
-507.756	-61.187	0.283	0.121
-506.741	287.423	0.156	-0.285
-505.726	-21.289	-0.124	0.076
-504.712	-52.298	-0.112	-0.053
-503.697	-25.316	-0.051	0.030
-502.683	-170.860	-0.028	-0.001
-501.668	35.394	-0.160	-0.142
-500.653	800.000	-0.042	-0.172
-499.639	-200.000	0.031	-0.409
-498.624	-200.000	0.035	0.157
-497.610	-70.725	0.254	0.097
-496.595	-200.000	0.031	-0.258
-495.581	-176.056	-0.095	-0.003
-494.566	42.096	0.360	-0.331
-493.551	-127.670	0.234	0.034
-492.537	-200.000	-0.010	-0.077
-491.522	-49.312	-0.168	0.081
-490.508	-1.413	-0.234	-0.167
-489.493	800.000	-0.091	-0.265
-488.478	-14.592	-0.294	0.191
-487.464	-17.212	0.174	0.111
-486.449	-158.007	0.281	0.017
-485.435	74.526	0.230	-0.244
-484.420	415.611	0.077	0.166
-483.405	-5.594	0.128	0.089
-482.391	368.464	-0.206	-0.421
-481.376	-75.989	-0.084	-0.030
-480.362	428.157	-0.024	0.052
-479.347	-136.324	0.225	-0.026
-478.332	330.190	-0.032	-0.062
-477.318	459.987	0.153	0.343
-476.303	180.144	0.089	0.132
-475.289	-200.000	0.016	-0.299
-474.274	-130.033	0.111	-0.015
-473.259	-176.849	0.244	-0.006
-472.245	-200.000	-0.043	0.349
-471.230	18.510	0.154	0.124
-470.216	-200.000	-0.042	0.200
-469.201	112.987	-0.175	0.214
-468.186	-11.416	0.161	-0.107
-467.172	-171.779	-0.288	-0.010
-466.157	257.940	0.135	0.235
-465.143	-81.839	-0.076	-0.025
-464.128	235.974	0.141	-0.235
-463.113	691.528	0.059	0.157
-462.099	104.023	-0.192	-0.228
-461.084	-7.978	-0.325	0.221
-460.070	-109.473	-0.283	0.060
-459.055	-135.298	-0.227	0.027
-458.040	471.682	0.078	-0.176
-457.026	134.131	-0.160	-0.209
-456.011	-73.501	-0.243	0.090
-454.997	-5.981	-0.032	-0.022
-453.982	-200.000	-0.014	0.114
-452.968	-200.000	0.012	0.127
-451.953	-15.511	0.173	0.111
-450.938	-4.215	0.151	-0.105
-449.924	251.211	-0.065	0.112
-448.909	-5.601	0.162	-0.112
-447.895	454.232	0.149	0.334
-446.880	-18.652	0.121	-0.076
-445.865	185.326	-0.063	0.094
-444.851	199.893	0.190	-0.294
-443.836	-43.922	0.067	-0.034
-442.822	6.619	-0.057	0.043
-441.807	-200.000	0.026	-0.340
-440.792	451.326	0.054	0.120
-439.778	231.398	0.125	0.207
-438.763	21.195	-0.127	-0.104
-437.749	14.253	0.058	-0.045
-436.734	-6.081	0.105	0.072
-435.719	297.228	-0.108	0.199
-434.705	65.561	-0.187	0.191
-433.690	-116.530	0.171	-0.032
-432.676	-89.182	0.042	-0.012
-431.661	-89.751	0.067	0.020
-430.646	-104.255	-0.371	0.087
-429.632	-24.342	0.165	0.099
-428.617	-83.857	-0.167	-0.054
-427.603	-200.000	0.019	-0.234
-426.588	56.707	-0.148	0.145
-425.573	-67.662	-0.164	0.065
-424.559	-3.045	0.169	0.119
-423.544	-66.183	-0.476	-0.191
-422.530	12.939	0.164	0.128
-421.515	-171.769	0.353	-0.012
-420.500	-70.576	0.132	-0.050
-419.486	54.395	-0.031	0.030
-418.471	6.874	0.255	-0.191
-417.457	-200.000	0.015	0.166
-416.442	305.361	0.035	0.066
-415.428	-33.978	-0.240	0.133
-414.413	-200.000	-0.005	0.194
-413.398	420.503	0.067	-0.145
-412.384	-200.000	-0.054	-0.297
-411.369	-200.000	0.012	-0.167
-410.355	-144.505	-0.232	0.022
-409.340	117.540	0.098	-0.121
-408.325	9.243	0.142	-0.108
-407.311	220.805	-0.126	-0.203
-406.296	-134.321	-0.239	0.030
-405.282	308.315	0.165	0.310
-404.267	800.000	-0.064	0.198
-403.252	-105.641	-0.252	0.058
-402.238	-200.000	0.001	0.099
-401.223	59.843	-0.160	0.159
-400.209	363.327	-0.121	-0.246
-399.194	-150.621	0.389	-0.030
-398.179	141.825	-0.101	-0.135
-397.165	-107.544	-0.192	0.042
-396.150	-28.768	-0.218	-0.126
-395.136	134.200	-0.197	-0.257
-394.121	-124.426	0.141	-0.022
-393.106	-200.000	0.000	0.042
-392.092	90.941	0.123	0.138
-391.077	17.638	-0.095	0.076
-390.063	-200.000	-0.007	0.123
-389.048	0.754	0.293	0.211
-388.033	629.524	0.165	0.419
-387.019	-123.119	-0.090	-0.014
-386.004	800.000	-0.028	0.122
-384.990	-141.339	0.211	-0.022
-383.975	346.057	-0.112	0.221
-382.960	-65.134	-0.143	0.058
-381.946	-46.056	0.213	0.105
-380.931	-146.731	-0.127	-0.011
-379.917	-164.939	0.148	0.007
-378.902	-83.741	0.325	0.104
-377.888	293.084	-0.102	0.187
-376.873	-88.483	-0.208	-0.062
-375.858	33.890	-0.136	-0.119
-374.844	-80.333	-0.363	0.122
-373.829	184.693	0.124	0.186
-372.815	245.434	-0.191	0.323
-371.800	9.362	0.081	0.062
-370.785	8.293	0.209	0.158
-369.771	-35.191	-0.173	-0.095
-368.756	-152.810	0.211	-0.015
-367.742	800.000	0.055	-0.177
-366.727	-200.000	0.036	-0.215
-365.712	185.137	0.084	0.126
-364.698	-88.539	0.177	-0.053
-363.683	281.422	-0.043	0.077
-362.669	389.277	0.132	0.275
-361.654	413.802	0.079	0.168
-360.639	113.265	-0.147	-0.180
-359.625	197.996	-0.045	0.070
-358.610	173.915	0.105	-0.152
-357.596	27.015	-0.181	-0.153
-356.581	-185.196	0.318	-0.005
-355.566	-23.914	0.137	-0.082
-354.552	-37.949	-0.208	0.111
-353.537	52.196	-0.216	0.207
-352.523	-41.858	0.149	0.077
-351.508	197.505	0.175	0.268
-350.493	-200.000	-0.027	0.127
-349.479	469.215	-0.140	0.317
-348.464	-200.000	-0.019	0.165
-347.450	491.275	0.085	0.195
-346.435	-133.150	-0.200	0.025
-345.420	-1.962	0.121	-0.086
-344.406	26.688	0.116	0.098
-343.391	-200.000	0.007	0.078
-342.377	-190.605	0.323	-0.003
-341.362	-28.030	-0.362	0.210
-340.348	-200.000	-0.029	0.388
-339.333	76.926	0.095	-0.101
-338.318	49.191	0.127	-0.120
-337.304	-7.015	0.307	0.209
-336.289	265.541	0.179	-0.314
-335.275	-154.573	-0.235	-0.016
-334.260	78.979	-0.323	-0.347
-333.245	-163.628	0.128	0.006
-332.231	-89.859	0.198	-0.058
-331.216	800.000	0.108	-0.425
-330.202	-119.214	-0.268	-0.047
-329.187	800.000	-0.039	-0.140
-328.172	-48.889	-0.195	-0.094
-327.158	800.000	-0.069	-0.242
-326.143	800.000	0.036	0.121
-325.129	120.163	-0.009	-0.011
-324.114	-200.000	-0.031	-0.276
-323.099	-112.913	-0.076	0.015
-322.085	-164.518	-0.099	0.005
-321.070	146.836	0.133	0.179
-320.056	-21.724	-0.386	0.236
-319.041	-200.000	-0.019	0.206
-318.026	-70.900	0.117	0.044
-317.012	-56.999	-0.340	-0.150
-315.997	-163.643	0.159	0.008
-314.983	58.581	0.169	0.166
-313.968	-108.817	0.276	0.059
-312.953	538.738	-0.033	-0.080
-311.939	307.813	0.084	-0.156
-310.924	-4.280	-0.130	0.090
-309.910	800.000	-0.055	0.154
-308.895	-200.000	-0.020	-0.223
-307.880	-96.121	0.251	0.067
-306.866	-88.992	0.267	-0.079
-305.851	43.951	0.042	0.039
-304.837	800.000	-0.034	0.101
-303.822	-90.112	0.251	-0.073
-302.807	82.996	-0.100	-0.110
-301.793	-168.702	-0.471	-0.018
-300.778	-200.000	-0.002	-0.127
-299.764	-200.000	0.005	-0.108
-298.749	490.101	0.129	-0.296
-297.735	-108.573	0.341	-0.073
-296.720	-117.129	0.475	0.087
-295.705	-180.071	0.073	-0.002
-294.691	47.379	-0.227	-0.212
-293.676	800.000	0.010	0.031
-292.662	-157.885	0.253	-0.015
-291.647	168.141	-0.063	0.090
-290.632	190.858	-0.158	-0.238
-289.618	190.078	-0.073	0.109
-288.603	-99.404	-0.373	0.094
-287.589	-200.000	-0.033	0.232
-286.574	-45.847	-0.266	0.131
-285.559	261.448	0.149	-0.259
-284.545	302.882	-0.098	0.182
-283.530	-82.119	-0.205	0.067
-282.516	5.532	0.179	0.132
-281.501	-200.000	0.024	0.157
-280.486	-200.000	0.046	0.427
-279.472	232.448	0.176	0.289
-278.457	111.024	-0.151	-0.182
-277.443	-200.000	0.007	0.040
-276.428	-48.289	-0.185	0.089
-275.413	537.950	0.077	0.184
-274.399	14.974	-0.204	0.160
-273.384	800.000	0.085	0.357
-272.370	386.429	0.131	-0.272
-271.355	80.414	0.068	0.074
-270.340	-94.037	0.140	0.038
-269.326	-31.270	-0.179	-0.101
-268.311	-66.873	0.183	0.072
-267.297	-81.466	0.215	0.071
-266.282	-88.283	-0.216	0.065
-265.267	338.629	0.084	0.164
-264.253	-63.763	0.205	0.084
-263.238	-147.816	0.226	-0.019
-262.224	800.000	0.124	-0.488
-261.209	-67.585	0.370	0.145
-260.195	622.724	0.093	-0.235
-259.180	-125.316	-0.259	0.040
-258.165	104.108	0.292	0.344
-257.151	98.540	-0.125	0.144
-256.136	-116.910	0.336	-0.062
-255.122	800.000	-0.042	0.126
-254.107	-48.850	-0.098	-0.047
-253.092	-200.000	-0.020	-0.173
-252.078	-200.000	-0.068	0.361
-251.063	800.000	-0.091	0.335
-250.049	108.517	-0.053	-0.063
-249.034	178.235	0.122	-0.178
-248.019	-71.564	0.102	-0.038
-247.005	-113.655	0.140	0.027
-245.990	235.244	-0.115	0.190
-244.976	-200.000	0.033	0.160
-243.961	-68.900	-0.252	-0.097
-242.946	436.762	0.103	0.225
-241.932	22.119	-0.045	0.037
-240.917	135.993	-0.128	-0.168
-239.903	-89.609	-0.328	0.096
-238.888	-111.372	0.233	-0.047
-237.873	25.699	0.156	0.130
-236.859	72.746	0.048	0.050
-235.844	-0.691	0.221	0.157
-234.830	373.338	-0.120	0.245
-233.815	67.134	-0.124	-0.127
-232.800	26.891	0.118	-0.099
-231.786	78.315	-0.032	-0.034
-230.771	-97.892	-0.327	-0.084
-229.757	800.000	-0.081	0.319
-228.742	275.335	0.194	0.343
-227.727	-123.572	-0.234	-0.037
-226.713	-99.047	-0.248	-0.063
-225.698	128.283	-0.186	-0.237
-224.684	-52.712	0.139	-0.064
-223.669	-30.393	0.218	0.124
-222.655	52.450	-0.043	-0.041
-221.640	165.508	0.219	-0.309
-220.625	18.000	-0.131	-0.105
-219.611	800.000	-0.076	-0.235
-218.596	-200.000	0.023	-0.298
-217.582	181.562	0.076	0.112
-216.567	424.143	0.086	0.185
-215.552	800.000	-0.100	0.338
-214.538	171.398	0.100	0.143
-213.523	-200.000	0.055	0.366
-212.509	45.251	-0.021	0.020
-211.494	-60.843	-0.070	0.030
-210.479	-84.693	0.271	-0.085
-209.465	294.212	-0.086	0.156
-208.450	-35.183	-0.146	-0.080
-207.436	-101.886	-0.389	-0.094
-206.421	-160.402	0.159	0.009
-205.406	-67.145	-0.369	-0.145
-204.392	-200.000	-0.030	-0.348
-203.377	-42.328	-0.068	0.035
-202.363	800.000	-0.060	-0.218
-201.348	-200.000	-0.014	0.197
-200.333	-120.231	-0.195	-0.033
-199.319	-47.689	0.248	-0.120
-198.304	-200.000	-0.011	0.387
-197.290	183.128	-0.052	-0.077
-196.275	228.474	-0.083	0.134
-195.260	173.671	0.114	-0.164
-194.246	-22.924	0.101	-0.061
-193.231	251.614	-0.188	-0.319
-192.217	-200.000	0.002	-0.232
-191.202	421.266	-0.062	0.132
-190.187	-200.000	-0.026	-0.272
-189.173	-34.660	0.239	0.131
-188.158	-200.000	-0.039	0.339
-187.144	-65.046	0.136	-0.055
-186.129	800.000	0.045	-0.152
-185.114	30.576	0.362	0.309
-184.100	-65.723	-0.244	-0.098
-183.085	-131.119	0.221	0.029
-182.071	-104.591	-0.302	0.070
-181.056	-66.745	0.228	-0.090
-180.042	224.075	0.059	-0.095
-179.027	800.000	0.165	-0.690
-178.012	-82.544	-0.204	-0.066
-176.998	111.039	-0.164	-0.197
-175.983	235.727	0.105	-0.173
-174.969	800.000	0.029	-0.114
-173.954	-141.620	0.027	0.003
-172.939	-200.000	0.013	-0.198
-171.925	-28.957	0.049	-0.028
-170.910	22.919	0.207	0.170
-169.896	2.612	-0.161	-0.117
-168.881	93.249	0.092	-0.104
-167.866	-64.420	0.341	0.138
-166.852	61.147	0.092	0.092
-165.837	19.934	-0.291	-0.234
-164.823	800.000	0.069	0.238
-163.808	0.417	0.097	-0.069
-162.793	170.293	-0.055	-0.078
-161.779	-179.746	-0.238	0.005
-160.764	18.157	0.147	0.117
-159.750	-73.033	-0.197	0.072
-158.735	-158.731	-0.424	-0.024
-157.720	-86.413	0.312	0.096
-156.706	-90.570	0.129	0.037
-155.691	271.089	0.065	-0.115
-154.677	100.027	0.118	0.137
-153.662	709.635	0.065	0.170
-152.647	96.792	0.117	0.134
-151.633	35.510	-0.241	0.211
-150.618	-145.476	0.040	0.004
-149.604	-96.249	-0.205	-0.054
-148.589	-182.704	-0.352	0.006
-147.574	-132.711	-0.129	-0.016
-146.560	-200.000	0.005	0.217
-145.545	-98.227	0.256	0.066
-144.531	153.412	0.145	0.198
-143.516	172.272	-0.079	-0.113
-142.502	362.836	0.162	-0.325
-141.487	1.877	0.158	-0.114
-140.472	-200.000	-0.009	0.048
-139.458	-120.948	-0.315	-0.053
-138.443	800.000	0.027	-0.103
-137.429	-22.390	-0.285	-0.172
-136.414	41.288	0.249	0.224
-135.399	-46.926	0.185	0.090
-134.385	80.050	-0.232	-0.248
-133.370	626.762	-0.026	-0.065
-132.356	648.162	0.081	-0.207
-131.341	63.963	-0.137	-0.137
-130.326	-112.972	0.388	-0.077
-129.312	105.402	0.077	0.090
-128.297	396.982	0.147	-0.306
-127.283	-200.000	-0.014	0.067
-126.268	800.000	-0.018	-0.051
-125.253	-35.861	-0.044	0.024
-124.239	-168.091	-0.134	0.005
-123.224	-136.483	-0.294	-0.034
-122.210	357.331	0.147	0.292
-121.195	-65.167	-0.251	0.101
-120.180	-200.000	0.021	-0.136
