DTS Sentinel unit serial number:	SN413079Multiplexer serial number:	ORYXHardware model number:	OX4-SRSoftware version number:	ORYX F/W v4.00 Oryx Data Collector v3.7.2.0data status	okinstallation	princeton_trtdifferential loss correction	single-endedforward channel	channel 3reverse channel	N/Adate	2019/09/19time	07:00:35forward acquisition time	60.00reverse acquisition time	0.00gamma	496.2192k internal	0.2348k external	0.2348temperature offset calibration	0.9984default loss term (dB/km)	0.3790temperature slope calibration	1.0000multiplexer offset coefficient	1.0000multiplexer slope coefficient	1.0000fibre end	0.00T internal ref (°C)	19.00T ext. ref 1 (°C)	0.56T ext. ref 2 (°C)	12.87length (m)	temperature (°C)	Stokes	anti-Stokes-747.200	108.720	0.119	-0.142
-746.185	35.412	-0.218	0.191
-745.171	214.598	-0.110	-0.174
-744.156	-149.130	-0.252	0.020
-743.142	234.514	0.159	-0.262
-742.127	368.531	-0.102	0.207
-741.112	-200.000	0.006	-0.253
-740.098	-200.000	-0.036	0.249
-739.083	128.204	0.231	0.293
-738.069	175.504	-0.225	0.326
-737.054	-117.257	-0.094	-0.017
-736.039	800.000	-0.110	-0.321
-735.025	-200.000	-0.007	-0.085
-734.010	-3.402	-0.315	0.219
-732.996	-55.110	-0.118	0.053
-731.981	40.535	-0.207	-0.186
-730.966	327.099	-0.139	-0.265
-729.952	-200.000	0.036	-0.261
-728.937	800.000	-0.077	-0.290
-727.923	-200.000	-0.007	0.169
-726.908	-200.000	-0.004	-0.074
-725.894	-129.360	0.115	-0.016
-724.879	30.091	-0.225	-0.192
-723.864	71.139	-0.164	0.170
-722.850	145.019	0.177	0.237
-721.835	131.143	-0.038	-0.048
-720.821	91.907	0.125	-0.140
-719.806	-53.535	-0.156	-0.071
-718.791	-121.668	-0.066	0.011
-717.777	-200.000	-0.020	-0.168
-716.762	169.583	-0.118	-0.168
-715.748	-48.502	-0.261	-0.125
-714.733	101.583	-0.037	-0.043
-713.718	-11.993	0.178	0.117
-712.704	328.890	-0.119	-0.228
-711.689	-59.627	-0.252	-0.108
-710.675	-41.870	0.310	-0.158
-709.660	-200.000	0.006	0.084
-708.645	447.164	0.102	0.224
-707.631	91.996	0.094	0.105
-706.616	-101.971	-0.345	0.083
-705.602	-112.167	-0.315	-0.063
-704.587	-200.000	-0.006	-0.227
-703.572	-67.964	-0.370	-0.144
-702.558	-21.581	0.198	0.121
-701.543	800.000	0.067	-0.253
-700.529	701.414	0.079	-0.208
-699.514	-36.601	-0.138	-0.074
-698.499	-78.517	0.424	0.145
-697.485	-28.104	0.201	-0.116
-696.470	-200.000	0.027	0.000
-695.456	410.099	-0.130	-0.275
-694.441	-90.826	0.055	-0.016
-693.426	128.293	-0.095	0.120
-692.412	106.844	0.118	-0.139
-691.397	800.000	-0.158	-0.481
-690.383	-11.311	0.208	-0.136
-689.368	151.245	0.139	0.189
-688.354	-45.788	-0.155	-0.076
-687.339	-172.139	-0.255	-0.008
-686.324	-200.000	-0.052	0.266
-685.310	-54.206	0.306	-0.139
-684.295	-200.000	0.007	-0.304
-683.281	-200.000	0.013	-0.208
-682.266	-200.000	0.056	-0.356
-681.251	-45.254	-0.183	0.090
-680.237	-106.189	0.415	0.093
-679.222	-46.742	0.266	-0.130
-678.208	107.577	-0.230	0.273
-677.193	-105.620	0.091	0.020
-676.178	-153.657	-0.182	0.013
-675.164	800.000	-0.056	0.243
-674.149	-48.852	0.179	0.085
-673.135	184.108	0.220	0.325
-672.120	106.670	-0.225	-0.266
-671.105	152.840	-0.108	-0.147
-670.091	143.774	0.057	0.075
-669.076	223.203	-0.128	-0.205
-668.062	220.639	0.133	-0.212
-667.047	50.667	-0.080	-0.075
-666.032	537.128	-0.050	-0.119
-665.018	800.000	0.044	-0.152
-664.003	-163.558	0.128	-0.006
-662.989	37.932	0.251	-0.222
-661.974	-104.984	-0.064	-0.014
-660.959	41.727	-0.284	-0.256
-659.945	-115.482	0.088	-0.016
-658.930	186.275	0.188	-0.278
-657.916	7.097	-0.253	-0.188
-656.901	728.369	0.006	0.017
-655.886	-112.585	0.270	0.054
-654.872	-39.530	-0.112	-0.059
-653.857	170.650	-0.109	-0.155
-652.843	800.000	0.106	-0.395
-651.828	-40.332	0.295	-0.153
-650.814	-200.000	0.094	-0.434
-649.799	-167.579	0.230	0.009
-648.784	-6.256	-0.181	-0.123
-647.770	800.000	0.071	-0.289
-646.755	-35.902	0.330	-0.178
-645.741	-111.049	-0.220	-0.045
-644.726	-121.454	-0.033	-0.005
-643.711	-2.958	-0.078	0.054
-642.697	15.584	-0.183	-0.143
-641.682	-200.000	0.015	-0.192
-640.668	-200.000	0.018	-0.286
-639.653	186.998	0.048	-0.072
-638.638	-43.680	-0.362	0.182
-637.624	-62.413	0.234	-0.097
-636.609	800.000	0.048	-0.138
-635.595	-93.913	0.089	0.024
-634.580	-21.170	-0.160	0.097
-633.565	-69.213	-0.357	-0.137
-632.551	-200.000	0.016	-0.494
-631.536	-200.000	0.015	-0.356
-630.522	36.254	-0.108	-0.095
-629.507	800.000	-0.051	-0.200
-628.492	-200.000	0.069	0.465
-627.478	226.332	-0.082	0.133
-626.463	58.732	-0.286	0.279
-625.449	-184.340	0.215	-0.004
-624.434	-137.127	-0.055	0.006
-623.419	123.797	-0.102	0.127
-622.405	-146.569	0.128	-0.011
-621.390	-200.000	0.555	-0.002
-620.376	800.000	-0.053	-0.166
-619.361	-200.000	-0.019	0.184
-618.346	23.569	0.133	-0.109
-617.332	452.169	0.035	0.078
-616.317	-1.268	-0.129	-0.091
-615.303	40.073	0.327	-0.292
-614.288	800.000	-0.072	-0.260
-613.273	-42.583	-0.272	0.138
-612.259	-145.104	-0.153	-0.014
-611.244	649.534	0.074	0.187
-610.230	-54.027	0.185	0.084
-609.215	800.000	-0.081	-0.286
-608.201	-39.073	0.168	0.088
-607.186	-200.000	0.024	-0.246
-606.171	73.219	-0.077	-0.080
-605.157	-72.371	0.249	-0.091
-604.142	-200.000	-0.026	0.279
-603.128	157.117	-0.173	-0.238
-602.113	-39.300	-0.161	0.084
-601.098	800.000	0.107	-0.310
-600.084	800.000	0.093	-0.328
-599.069	67.523	0.085	0.086
-598.055	-186.069	-0.089	0.001
-597.040	-37.165	-0.157	0.084
-596.025	-40.985	-0.285	0.146
-595.011	-74.527	-0.202	-0.072
-593.996	-200.000	0.065	-0.324
-592.982	-200.000	-0.012	-0.156
-591.967	212.854	0.145	0.228
-590.952	-60.294	-0.019	-0.008
-589.938	-16.622	-0.238	0.149
-588.923	90.616	0.028	0.031
-587.909	-96.024	0.186	-0.049
-586.894	-71.299	0.273	-0.102
-585.879	137.839	-0.078	0.102
-584.865	-73.183	0.055	-0.020
-583.850	-29.555	0.170	0.097
-582.836	-72.557	0.223	-0.082
-581.821	4.348	0.060	-0.044
-580.806	-66.687	-0.299	0.118
-579.792	75.080	-0.180	0.188
-578.777	800.000	-0.118	-0.343
-577.763	62.139	0.154	0.153
-576.748	-115.078	-0.156	0.029
-575.733	800.000	0.081	0.344
-574.719	800.000	-0.091	0.298
-573.704	-151.853	-0.300	0.022
-572.690	-95.380	-0.325	0.087
-571.675	49.961	0.066	0.062
-570.661	434.054	-0.131	-0.282
-569.646	1.904	0.036	-0.026
-568.631	114.095	0.023	-0.027
-567.617	669.643	0.095	0.243
-566.602	-46.907	0.259	0.125
-565.588	-200.000	-0.021	0.129
-564.573	72.083	0.089	-0.092
-563.558	314.548	-0.032	-0.060
-562.544	-200.000	0.038	0.243
-561.529	-80.189	-0.358	0.119
-560.515	-4.080	-0.015	-0.010
-559.500	-57.789	-0.506	0.220
-558.485	-200.000	0.034	-0.211
-557.471	-104.643	-0.151	0.035
-556.456	-109.589	-0.241	-0.050
-555.442	225.575	0.066	-0.107
-554.427	368.910	-0.135	0.270
-553.412	-149.952	-0.163	0.013
-552.398	-145.600	-0.352	0.031
-551.383	-64.020	0.051	0.021
-550.369	-24.895	-0.127	-0.075
-549.354	-133.225	0.217	-0.027
-548.339	84.166	0.218	0.236
-547.325	10.084	0.304	0.229
-546.310	800.000	0.050	0.158
-545.296	-128.034	-0.269	0.038
-544.281	-4.157	0.255	-0.175
-543.266	74.222	0.073	-0.076
-542.252	-143.102	0.258	0.025
-541.237	-131.185	0.181	0.024
-540.223	147.589	0.137	-0.183
-539.208	83.030	0.123	0.132
-538.193	17.351	-0.434	0.341
-537.179	-15.395	-0.058	-0.037
-536.164	29.028	-0.237	-0.199
-535.150	-200.000	0.034	-0.243
-534.135	39.446	-0.235	0.208
-533.121	339.801	0.047	0.090
-532.106	-200.000	-0.058	-0.355
-531.091	-171.182	-0.174	-0.006
-530.077	167.839	-0.252	0.355
-529.062	-200.000	0.002	-0.043
-528.048	521.893	-0.095	-0.222
-527.033	800.000	-0.044	-0.134
-526.018	800.000	-0.060	-0.251
-525.004	-200.000	-0.050	0.278
-523.989	539.961	-0.082	0.192
-522.975	35.157	-0.002	-0.002
-521.960	-62.214	-0.349	0.144
-520.945	-3.526	0.277	-0.191
-519.931	2.715	-0.202	0.145
-518.916	-200.000	-0.013	0.080
-517.902	-200.000	-0.002	-0.281
-516.887	-94.238	-0.309	-0.084
-515.872	362.523	0.044	-0.087
-514.858	51.975	-0.050	0.047
-513.843	800.000	0.191	-0.590
-512.829	-54.053	0.110	0.050
-511.814	325.252	0.161	-0.304
-510.799	-152.971	-0.090	-0.006
-509.785	183.783	0.187	0.273
-508.770	-161.376	0.143	-0.007
-507.756	80.348	0.202	0.215
-506.741	65.632	-0.194	-0.194
-505.726	22.202	-0.315	0.254
-504.712	235.910	0.085	-0.139
-503.697	-29.693	-0.335	-0.189
-502.683	136.258	0.044	0.057
-501.668	347.112	-0.220	0.428
-500.653	86.665	-0.150	0.164
-499.639	0.023	-0.203	0.143
-498.624	800.000	-0.070	0.211
-497.610	-183.339	-0.252	0.004
-496.595	-198.300	-0.253	0.001
-495.581	-200.000	-0.035	-0.337
-494.566	-200.000	0.026	0.245
-493.551	-200.000	0.003	-0.209
-492.537	-97.004	0.154	-0.040
-491.522	81.390	0.181	-0.194
-490.508	145.248	0.128	-0.170
-489.493	-200.000	-0.002	-0.080
-488.478	241.322	-0.090	0.148
-487.464	398.686	-0.143	-0.295
-486.449	415.230	-0.142	0.299
-485.435	415.307	-0.219	0.461
-484.420	122.618	-0.106	0.132
-483.405	-88.566	0.238	0.070
-482.391	-3.906	0.069	0.047
-481.376	149.270	0.158	-0.211
-480.362	-200.000	-0.010	-0.084
-479.347	-200.000	0.067	0.335
-478.332	156.269	-0.216	0.294
-477.318	-175.596	0.237	-0.006
-476.303	87.605	-0.034	0.037
-475.289	278.803	0.094	-0.165
-474.274	241.814	-0.176	-0.292
-473.259	506.152	-0.132	-0.303
-472.245	-200.000	0.026	0.143
-471.230	800.000	-0.097	0.323
-470.216	-40.266	-0.423	0.218
-469.201	6.012	0.094	0.069
-468.186	-96.508	0.132	-0.034
-467.172	-21.713	0.147	-0.088
-466.157	-40.710	0.162	0.083
-465.143	-200.000	-0.011	0.125
-464.128	420.852	-0.044	-0.094
-463.113	-200.000	-0.030	0.166
-462.099	88.439	0.050	0.055
-461.084	692.902	0.046	0.119
-460.070	21.613	0.237	0.190
-459.055	-26.467	-0.124	0.072
-458.040	669.125	-0.069	0.177
-457.026	-67.591	0.078	0.030
-456.011	52.835	-0.053	-0.050
-454.997	-82.428	0.291	0.093
-453.982	82.235	-0.261	-0.279
-452.968	22.137	0.484	0.390
-451.953	-34.285	-0.066	0.036
-450.938	226.210	-0.151	0.241
-449.924	107.166	0.025	-0.029
-448.909	225.248	-0.132	-0.211
-447.895	144.831	-0.136	-0.179
-446.880	149.260	0.066	-0.088
-445.865	312.545	0.131	0.243
-444.851	-5.036	-0.359	-0.244
-443.836	-200.000	-0.015	0.318
-442.822	154.718	-0.067	-0.091
-441.807	800.000	-0.170	-0.485
-440.792	-51.508	0.106	0.049
-439.778	42.707	-0.096	0.086
-438.763	-200.000	0.021	-0.241
-437.749	-43.653	-0.213	-0.106
-436.734	800.000	-0.030	-0.105
-435.719	-180.753	-0.611	0.012
-434.705	-62.901	-0.043	0.018
-433.690	106.208	0.188	0.219
-432.676	655.016	0.124	-0.315
-431.661	-19.780	-0.079	0.048
-430.646	289.507	0.039	-0.070
-429.632	12.557	0.068	0.052
-428.617	-125.966	-0.097	-0.014
-427.603	-26.256	0.118	-0.068
-426.588	585.330	-0.087	-0.211
-425.573	-135.241	0.034	0.004
-424.559	-200.000	0.057	0.447
-423.544	-10.088	-0.152	-0.099
-422.530	-200.000	-0.087	0.392
-421.515	-3.835	0.050	0.034
-420.500	790.865	-0.022	-0.060
-419.486	461.217	-0.185	0.408
-418.471	-124.534	0.130	-0.020
-417.457	800.000	-0.018	0.052
-416.442	800.000	0.083	0.293
-415.428	-123.633	-0.291	0.046
-414.413	-174.301	0.222	-0.006
-413.398	800.000	0.087	-0.373
-412.384	-23.902	0.236	-0.140
-411.369	-200.000	0.003	-0.170
-410.355	4.570	0.277	0.201
-409.340	-139.685	-0.174	0.018
-408.325	31.368	0.088	-0.074
-407.311	3.338	0.175	0.126
-406.296	32.028	0.059	0.050
-405.282	-151.415	0.075	-0.006
-404.267	-19.166	-0.205	0.126
-403.252	99.283	0.106	-0.121
-402.238	-40.132	-0.300	0.154
-401.223	-200.000	0.012	-0.359
-400.209	-200.000	-0.005	-0.108
-399.194	65.845	0.152	-0.152
-398.179	110.822	0.204	-0.242
-397.165	-49.776	0.114	-0.053
-396.150	23.650	0.178	0.144
-395.136	800.000	-0.035	0.129
-394.121	-93.570	0.102	-0.028
-393.106	540.441	0.025	-0.057
-392.092	150.905	0.254	0.340
-391.077	800.000	0.053	-0.199
-390.063	-200.000	-0.035	-0.204
-389.048	800.000	0.027	0.080
-388.033	-200.000	0.051	0.305
-387.019	-200.000	-0.006	-0.080
-386.004	-200.000	-0.029	0.240
-384.990	-200.000	-0.003	-0.049
-383.975	90.347	0.257	0.284
-382.960	134.076	-0.110	0.140
-381.946	694.064	-0.061	-0.158
-380.931	152.180	0.258	-0.347
-379.917	-96.134	0.216	-0.057
-378.902	-83.349	-0.176	0.055
-377.888	-200.000	0.006	-0.298
-376.873	55.721	0.165	-0.158
-375.858	-121.591	-0.319	-0.052
-374.844	-137.489	0.271	0.030
-373.829	-142.103	0.162	-0.016
-372.815	-99.185	-0.251	-0.063
-371.800	-64.013	-0.114	-0.046
-370.785	800.000	-0.066	0.271
-369.771	800.000	0.072	-0.241
-368.756	28.830	-0.244	-0.204
-367.742	-76.738	-0.284	0.098
-366.727	800.000	-0.081	-0.292
-365.712	800.000	0.026	-0.078
-364.698	-200.000	0.020	0.122
-363.683	-200.000	-0.037	-0.253
-362.669	-83.551	-0.110	-0.035
-361.654	-200.000	0.066	0.289
-360.639	11.373	0.085	-0.064
-359.625	7.480	-0.215	-0.158
-358.610	204.159	0.019	0.029
-357.596	-78.826	0.064	-0.022
-356.581	-183.967	0.124	0.002
-355.566	738.134	0.062	0.164
-354.552	68.308	-0.162	0.163
-353.537	-130.249	-0.456	0.061
-352.523	108.615	0.205	0.241
-351.508	-9.610	0.204	-0.134
-350.493	-25.412	-0.278	-0.162
-349.479	800.000	-0.071	0.195
-348.464	108.740	0.257	-0.302
-347.450	-110.621	0.269	0.055
-346.435	800.000	0.064	-0.221
-345.420	-135.021	0.179	0.021
-344.406	-36.941	0.145	-0.077
-343.391	666.117	-0.097	0.246
-342.377	505.471	0.219	-0.498
-341.362	-200.000	0.010	-0.070
-340.348	800.000	0.080	0.249
-339.333	-89.292	-0.420	0.122
-338.318	42.142	0.228	0.204
-337.304	-139.978	0.115	-0.012
-336.289	-90.176	-0.154	-0.044
-335.275	172.581	0.133	0.188
-334.260	800.000	0.117	0.471
-333.245	-200.000	0.003	0.026
-332.231	25.369	-0.046	0.038
-331.216	-49.847	-0.016	0.007
-330.202	22.163	0.078	0.062
-329.187	-159.840	0.082	-0.004
-328.172	800.000	0.064	-0.207
-327.158	-72.756	-0.424	-0.154
-326.143	16.152	-0.190	-0.147
-325.129	-98.658	-0.323	-0.081
-324.114	-56.528	0.314	-0.137
-323.099	-153.018	0.207	0.014
-322.085	-1.021	-0.226	-0.157
-321.070	-174.266	-0.544	0.015
-320.056	-54.249	-0.139	0.062
-319.041	0.147	0.109	-0.076
-318.026	284.754	0.035	-0.061
-317.012	-139.918	0.140	-0.014
-315.997	-200.000	0.012	0.092
-314.983	-200.000	0.013	0.146
-313.968	-1.660	0.168	0.116
-312.953	-70.137	-0.202	-0.075
-311.939	-200.000	0.056	-0.322
-310.924	-64.531	-0.122	-0.049
-309.910	-140.019	0.324	-0.034
-308.895	249.049	-0.005	0.008
-307.880	102.113	0.059	-0.067
-306.866	-13.127	0.328	0.210
-305.851	-86.547	-0.139	-0.042
-304.837	185.737	-0.144	0.210
-303.822	518.531	-0.072	-0.166
-302.807	61.304	0.109	0.107
-301.793	72.724	0.214	0.219
-300.778	137.189	0.078	0.100
-299.764	24.156	-0.408	-0.331
-298.749	50.846	0.203	0.189
-297.735	423.704	-0.127	-0.267
-296.720	-121.859	-0.273	0.044
-295.705	-127.242	0.381	0.055
-294.691	-200.000	0.025	0.368
-293.676	140.310	-0.132	0.171
-292.662	800.000	0.027	0.093
-291.647	-7.646	0.132	-0.088
-290.632	-63.016	-0.192	-0.078
-289.618	228.532	0.076	0.122
-288.603	4.162	-0.032	-0.023
-287.589	-46.201	0.259	0.125
-286.574	558.071	0.038	-0.090
-285.559	-5.749	-0.056	0.038
-284.545	398.656	-0.183	-0.376
-283.530	10.739	-0.053	0.039
-282.516	-143.564	-0.363	-0.034
-281.501	-94.808	0.065	0.017
-280.486	299.101	0.162	-0.293
-279.472	337.882	-0.189	-0.361
-278.457	455.161	0.196	-0.427
-277.443	-164.846	-0.053	0.002
-276.428	298.220	0.173	0.312
-275.413	-150.148	-0.177	0.013
-274.399	-200.000	-0.271	-0.001
-273.384	-29.262	0.191	-0.108
-272.370	284.271	-0.114	0.201
-271.355	800.000	0.042	0.178
-270.340	357.523	0.089	0.173
-269.326	-200.000	0.003	-0.239
-268.311	-93.596	0.310	-0.084
-267.297	-200.000	-0.039	0.195
-266.282	117.633	-0.169	-0.204
-265.267	213.813	-0.150	-0.233
-264.253	-170.105	0.212	-0.007
-263.238	-117.117	0.332	0.059
-262.224	380.977	-0.133	0.267
-261.209	-200.000	-0.026	0.243
-260.195	65.176	-0.151	-0.150
-259.180	-152.268	0.276	0.020
-258.165	-33.193	-0.220	0.120
-257.151	-20.480	-0.392	0.236
-256.136	800.000	0.041	0.176
-255.122	389.338	0.069	-0.139
-254.107	-0.499	-0.241	-0.168
-253.092	294.245	-0.159	-0.285
-252.078	-181.980	0.421	-0.008
-251.063	-172.334	0.165	0.005
-250.049	-200.000	-0.006	-0.213
-249.034	-112.132	0.363	-0.071
-248.019	-79.506	-0.283	-0.094
-247.005	-200.000	0.011	-0.058
-245.990	-11.858	0.222	-0.142
-244.976	-200.000	-0.023	-0.103
-243.961	-134.561	0.199	-0.024
-242.946	392.776	-0.059	0.119
-241.932	66.829	-0.139	0.138
-240.917	-72.924	0.436	-0.157
-239.903	456.250	0.091	0.199
-238.888	-200.000	-0.015	-0.183
-237.873	-1.414	-0.241	-0.167
-236.859	244.907	-0.161	0.265
-235.844	-150.383	-0.245	0.018
-234.830	109.608	-0.316	0.371
-233.815	0.234	0.140	0.098
-232.800	800.000	0.031	-0.098
-231.786	797.480	0.108	-0.290
-230.771	-62.544	0.143	-0.058
-229.757	75.486	0.121	-0.126
-228.742	5.105	0.162	0.117
-227.727	-130.354	-0.341	0.045
-226.713	219.708	-0.159	-0.249
-225.698	27.315	0.103	-0.085
-224.684	-200.000	0.033	-0.372
-223.669	141.676	-0.376	0.488
-222.655	800.000	-0.094	-0.271
-221.640	-171.132	0.281	-0.009
-220.625	-110.157	0.260	-0.053
-219.611	-46.290	-0.299	-0.144
-218.596	-200.000	-0.011	-0.530
-217.582	-124.409	-0.312	0.048
-216.567	-200.000	0.001	-0.209
-215.552	165.333	-0.020	0.027
-214.538	-200.000	0.039	0.322
-213.523	6.079	0.353	-0.256
-212.509	169.520	0.087	-0.121
-211.494	-120.594	0.346	-0.057
-210.479	59.787	0.314	0.303
-209.465	36.081	-0.070	-0.060
-208.450	-83.753	0.189	-0.059
-207.436	-33.027	0.238	-0.129
-206.421	-200.000	-0.010	0.116
-205.406	-142.740	0.218	0.021
-204.392	-72.279	-0.146	-0.053
-203.377	-80.404	0.323	0.105
-202.363	154.644	0.174	0.233
-201.348	182.126	-0.255	0.368
-200.333	-200.000	-0.024	0.184
-199.319	800.000	-0.007	-0.024
-198.304	464.714	0.016	0.034
-197.290	-200.000	0.007	0.163
-196.275	-200.000	0.006	-0.111
-195.260	175.145	-0.025	0.035
-194.246	800.000	0.039	0.119
-193.231	132.648	0.019	0.024
-192.217	61.852	0.139	0.135
-191.202	-93.237	0.242	-0.066
-190.187	-200.000	-0.051	0.588
-189.173	34.576	-0.261	0.223
-188.158	-106.713	0.337	0.073
-187.144	-1.899	0.277	-0.190
-186.129	35.345	-0.117	0.100
-185.114	-152.157	0.281	0.020
-184.100	-152.657	-0.119	0.008
-183.085	294.777	-0.055	0.098
-182.071	-200.000	0.000	-0.345
-181.056	-155.571	-0.105	0.007
-180.042	714.607	0.044	-0.115
-179.027	-200.000	0.011	0.237
-178.012	392.357	-0.018	0.037
-176.998	-163.369	0.244	-0.011
-175.983	34.591	0.271	0.232
-174.969	362.034	-0.203	0.397
-173.954	-22.254	0.054	-0.032
-172.939	-200.000	0.022	0.157
-171.925	158.179	-0.026	0.036
-170.910	324.709	-0.084	0.157
-169.896	441.153	0.082	-0.174
-168.881	31.196	-0.194	-0.163
-167.866	206.856	-0.122	0.186
-166.852	323.788	0.050	-0.093
-165.837	-97.230	0.400	-0.102
-164.823	-200.000	-0.337	0.002
-163.808	-87.028	0.213	-0.063
-162.793	-114.759	0.365	0.068
-161.779	-200.000	-0.014	-0.142
-160.764	-72.275	0.488	-0.176
-159.750	-200.000	-0.062	0.312
-158.735	-152.470	-0.139	-0.010
-157.720	29.598	-0.106	0.088
-156.706	-19.462	0.253	-0.153
-155.691	-200.000	0.016	-0.102
-154.677	-124.435	0.442	-0.067
-153.662	776.831	0.090	0.239
-152.647	719.063	0.018	-0.046
-151.633	31.041	0.144	0.121
-150.618	-200.000	0.005	0.083
-149.604	487.565	0.045	0.101
-148.589	303.794	0.142	-0.256
-147.574	-88.844	-0.165	0.048
-146.560	-136.003	0.127	0.015
-145.545	50.931	0.258	0.238
-144.531	146.639	0.138	-0.181
-143.516	-53.005	-0.213	0.095
-142.502	800.000	-0.031	-0.124
-141.487	744.974	0.108	0.283
-140.472	-94.804	-0.202	-0.054
-139.458	289.747	0.095	-0.168
-138.443	-200.000	-0.082	-0.358
-137.429	305.405	-0.030	0.054
-136.414	347.162	-0.089	0.171
-135.399	-152.358	0.124	0.009
-134.385	-200.000	-0.006	-0.383
-133.370	-153.190	0.239	0.016
-132.356	64.565	-0.130	0.127
-131.341	70.442	0.190	0.192
-130.326	-121.261	0.086	0.014
-129.312	-98.435	-0.312	0.078
-128.297	-10.557	0.183	-0.118
-127.283	-89.866	-0.122	0.035
-126.268	-200.000	-0.028	-0.229
-125.253	800.000	0.091	-0.297
-124.239	106.401	-0.203	-0.234
-123.224	70.373	0.196	-0.197
-122.210	-163.983	-0.332	0.015
-121.195	468.058	-0.072	0.157
