DTS Sentinel unit serial number:	SN413079Multiplexer serial number:	ORYXHardware model number:	OX4-SRSoftware version number:	ORYX F/W v4.00 Oryx Data Collector v3.7.2.0data status	okinstallation	princeton_trtdifferential loss correction	single-endedforward channel	channel 3reverse channel	N/Adate	2019/09/18time	19:08:34forward acquisition time	60.00reverse acquisition time	0.00gamma	496.2192k internal	0.2313k external	0.2313temperature offset calibration	1.0015default loss term (dB/km)	0.3790temperature slope calibration	1.0000multiplexer offset coefficient	1.0000multiplexer slope coefficient	1.0000fibre end	0.00T internal ref (°C)	35.16T ext. ref 1 (°C)	1.21T ext. ref 2 (°C)	24.18length (m)	temperature (°C)	Stokes	anti-Stokes-747.200	176.439	0.199	0.293
-746.185	-200.000	0.062	0.472
-745.171	-65.099	-0.309	-0.127
-744.156	149.137	0.261	0.358
-743.142	-162.999	-0.355	-0.017
-742.127	172.521	0.109	0.159
-741.112	-107.829	0.143	-0.032
-740.098	800.000	-0.085	-0.283
-739.083	800.000	0.100	0.301
-738.069	193.453	0.196	0.301
-737.054	-141.103	-0.362	-0.037
-736.039	129.078	-0.133	0.172
-735.025	-48.464	0.243	0.119
-734.010	737.276	-0.054	-0.148
-732.996	3.993	-0.278	-0.206
-731.981	-200.000	0.017	0.144
-730.966	259.191	0.118	0.207
-729.952	-200.000	0.001	-0.015
-728.937	-16.732	-0.241	0.154
-727.923	-52.367	-0.178	-0.084
-726.908	10.800	-0.196	0.152
-725.894	800.000	0.094	-0.387
-724.879	476.622	0.041	-0.093
-723.864	280.943	0.102	-0.185
-722.850	392.272	-0.064	-0.135
-721.835	-200.000	-0.003	0.081
-720.821	-92.981	-0.244	0.069
-719.806	298.518	-0.117	-0.218
-718.791	3.934	-0.129	-0.096
-717.777	-45.120	0.041	-0.021
-716.762	156.808	-0.103	0.144
-715.748	638.937	0.023	0.058
-714.733	-91.851	0.138	0.040
-713.718	-97.196	0.304	-0.080
-712.704	226.512	0.259	0.425
-711.689	-37.073	0.130	0.070
-710.675	197.232	0.215	-0.333
-709.660	404.064	-0.054	-0.115
-708.645	-159.026	-0.324	0.019
-707.631	-25.118	-0.209	-0.125
-706.616	282.394	0.146	-0.264
-705.602	-121.761	-0.116	-0.019
-704.587	221.191	-0.144	0.234
-703.572	694.275	-0.076	0.202
-702.558	-100.385	0.297	-0.074
-701.543	-80.676	0.091	-0.031
-700.529	57.756	0.177	0.175
-699.514	67.022	-0.081	0.084
-698.499	-77.271	0.184	-0.065
-697.485	61.000	0.059	-0.059
-696.470	754.229	-0.061	-0.168
-695.456	370.421	-0.080	0.164
-694.441	-200.000	0.010	0.365
-693.426	-145.936	-0.242	-0.022
-692.412	800.000	0.118	0.375
-691.397	162.436	-0.181	-0.257
-690.383	-44.484	0.409	-0.207
-689.368	-200.000	-0.034	0.209
-688.354	-7.379	0.111	0.076
-687.339	-186.336	-0.094	-0.001
-686.324	-82.218	-0.119	-0.039
-685.310	98.798	-0.143	0.167
-684.295	-74.637	0.243	0.089
-683.281	800.000	-0.045	-0.171
-682.266	-107.435	-0.280	0.062
-681.251	505.638	0.132	0.310
-680.237	19.921	0.077	-0.062
-679.222	346.167	-0.045	0.090
-678.208	-200.000	0.006	-0.113
-677.193	49.804	0.211	-0.201
-676.178	-200.000	-0.022	-0.201
-675.164	-99.892	0.249	0.063
-674.149	-137.359	0.342	-0.039
-673.135	-177.466	0.070	0.002
-672.120	92.639	0.188	-0.214
-671.105	343.749	0.068	0.135
-670.091	139.866	-0.050	-0.066
-669.076	176.525	0.075	0.111
-668.062	800.000	-0.058	0.189
-667.047	176.620	-0.064	0.094
-666.032	-71.869	-0.135	0.051
-665.018	94.440	0.295	-0.338
-664.003	-200.000	0.011	0.152
-662.989	-200.000	-0.006	-0.121
-661.974	102.563	-0.082	0.098
-660.959	177.165	-0.153	-0.225
-659.945	-126.029	0.184	0.028
-658.930	-97.737	0.186	0.049
-657.916	-200.000	0.021	-0.599
-656.901	-200.000	0.078	-0.355
-655.886	-94.337	0.358	0.099
-654.872	21.218	-0.306	0.251
-653.857	-175.674	-0.042	-0.001
-652.843	370.168	-0.082	-0.168
-651.828	422.401	-0.198	-0.429
-650.814	800.000	0.036	-0.127
-649.799	115.640	-0.167	0.206
-648.784	214.456	-0.073	-0.117
-647.770	157.048	-0.076	0.106
-646.755	105.907	0.113	-0.135
-645.741	19.726	0.190	0.154
-644.726	-105.512	-0.177	-0.041
-643.711	128.520	0.272	-0.349
-642.697	205.551	-0.130	-0.204
-641.682	317.481	-0.220	-0.421
-640.668	658.750	0.047	-0.122
-639.653	-128.849	-0.112	-0.016
-638.638	-200.000	0.003	-0.016
-637.624	-200.000	0.057	-0.345
-636.609	289.424	-0.088	0.162
-635.595	95.118	-0.221	-0.255
-634.580	29.612	-0.075	0.064
-633.565	9.665	-0.208	-0.159
-632.551	-87.064	0.130	0.040
-631.536	72.092	-0.191	-0.201
-630.522	84.908	0.213	-0.236
-629.507	-200.000	0.057	-0.426
-628.492	-90.941	-0.198	-0.057
-627.478	347.110	0.192	-0.382
-626.463	800.000	0.041	-0.180
-625.449	168.345	-0.146	0.210
-624.434	800.000	0.074	-0.244
-623.419	-99.117	-0.127	-0.032
-622.405	102.876	0.194	-0.229
-621.390	-143.372	-0.275	0.027
-620.376	-200.000	0.018	-0.215
-619.361	-59.768	-0.310	0.134
-618.346	-200.000	-0.015	-0.134
-617.332	-115.342	-0.133	0.025
-616.317	144.307	0.045	0.061
-615.303	-47.586	-0.225	-0.110
-614.288	-93.603	0.079	-0.022
-613.273	154.153	-0.240	0.332
-612.259	15.081	0.165	0.131
-611.244	65.896	0.041	0.042
-610.230	800.000	0.054	0.156
-609.215	-56.232	0.059	-0.026
-608.201	-147.531	-0.245	-0.021
-607.186	800.000	0.135	-0.438
-606.171	63.943	0.167	-0.169
-605.157	197.796	-0.067	0.103
-604.142	800.000	0.023	0.072
-603.128	-111.727	0.073	0.015
-602.113	-200.000	-0.027	0.247
-601.098	-200.000	-0.016	0.201
-600.084	-200.000	-0.001	-0.069
-599.069	-34.601	-0.075	-0.041
-598.055	-200.000	0.012	0.170
-597.040	131.900	-0.050	-0.064
-596.025	-65.046	0.289	-0.118
-595.011	753.724	0.077	0.211
-593.996	-102.093	0.293	0.071
-592.982	-111.520	0.257	0.053
-591.967	100.578	-0.101	-0.118
-590.952	111.684	-0.057	0.069
-589.938	483.328	0.074	0.170
-588.923	36.225	-0.081	-0.072
-587.909	183.723	-0.103	-0.154
-586.894	800.000	-0.098	-0.336
-585.879	-110.510	0.043	-0.009
-584.865	412.214	-0.192	0.412
-583.850	-100.495	0.086	0.021
-582.836	800.000	0.008	-0.024
-581.821	11.266	0.224	0.173
-580.806	228.161	0.178	0.292
-579.792	756.196	0.156	-0.424
-578.777	91.802	-0.184	-0.209
-577.763	800.000	0.056	0.216
-576.748	347.212	-0.103	-0.203
-575.733	-84.908	-0.066	-0.021
-574.719	-114.297	-0.145	0.028
-573.704	-62.398	0.270	-0.113
-572.690	587.306	0.067	-0.167
-571.675	93.124	0.228	-0.259
-570.661	-0.520	-0.182	-0.130
-569.646	332.589	0.018	-0.035
-568.631	-62.121	-0.439	-0.184
-567.617	-200.000	-0.017	-0.223
-566.602	800.000	-0.081	0.259
-565.588	-160.479	-0.276	-0.015
-564.573	-87.164	0.222	0.068
-563.558	-63.203	0.176	-0.073
-562.544	-41.470	0.194	-0.100
-561.529	175.229	-0.137	-0.199
-560.515	558.449	0.078	0.189
-559.500	563.276	0.041	-0.100
-558.485	-84.653	-0.241	-0.077
-557.471	145.434	-0.118	0.159
-556.456	-53.428	0.134	-0.062
-555.442	-200.000	0.034	0.227
-554.427	-200.000	0.009	0.418
-553.412	800.000	-0.046	0.139
-552.398	-34.203	0.065	-0.036
-551.383	430.675	0.070	-0.152
-550.369	106.643	-0.021	0.025
-549.354	-57.735	-0.109	-0.048
-548.339	-93.477	0.259	-0.072
-547.325	140.602	0.086	0.114
-546.310	-117.412	-0.123	-0.022
-545.296	800.000	0.030	-0.115
-544.281	-79.718	-0.132	-0.045
-543.266	305.917	-0.110	0.206
-542.252	-50.783	0.246	0.116
-541.237	591.917	0.087	-0.215
-540.223	-200.000	0.122	-0.542
-539.208	274.567	0.132	-0.235
-538.193	340.165	-0.074	0.145
-537.179	-152.387	0.169	-0.012
-536.164	-106.168	-0.269	-0.061
-535.150	-9.278	-0.146	0.098
-534.135	-200.000	0.007	-0.081
-533.121	-200.000	0.008	0.287
-532.106	176.931	0.060	-0.087
-531.091	736.600	0.104	-0.281
-530.077	45.841	-0.080	0.074
-529.062	-155.644	-0.144	0.009
-528.048	219.921	0.116	-0.187
-527.033	707.267	0.151	-0.400
-526.018	40.455	-0.084	-0.076
-525.004	33.694	-0.153	0.134
-523.989	-173.382	0.334	-0.010
-522.975	164.387	0.112	0.158
-521.960	184.367	-0.038	-0.056
-520.945	202.952	0.170	0.264
-519.931	239.555	0.096	0.161
-518.916	173.795	-0.216	-0.313
-517.902	43.757	0.269	0.247
-516.887	38.273	0.083	0.074
-515.872	72.127	-0.088	0.092
-514.858	-200.000	-0.063	0.308
-513.843	97.323	-0.249	0.288
-512.829	-162.749	-0.281	-0.014
-511.814	-200.000	0.030	-0.250
-510.799	-151.034	-0.119	0.009
-509.785	322.999	0.112	0.214
-508.770	-162.485	-0.119	0.006
-507.756	-69.221	0.263	-0.102
-506.741	151.726	-0.095	0.131
-505.726	77.892	-0.123	-0.132
-504.712	-200.000	-0.267	0.000
-503.697	635.383	0.112	0.286
-502.683	800.000	0.039	0.163
-501.668	-200.000	0.020	0.181
-500.653	-41.416	0.117	0.060
-499.639	-11.433	0.206	0.136
-498.624	-42.030	-0.016	-0.008
-497.610	81.047	0.147	0.159
-496.595	118.720	0.159	-0.197
-495.581	800.000	0.005	-0.020
-494.566	124.845	0.295	-0.373
-493.551	41.125	0.304	-0.276
-492.537	-171.321	-0.036	-0.001
-491.522	-35.363	0.041	-0.022
-490.508	800.000	0.050	-0.168
-489.493	-200.000	-0.051	-0.247
-488.478	352.532	0.118	-0.234
-487.464	-60.255	-0.176	0.075
-486.449	505.693	0.010	-0.023
-485.435	12.469	-0.141	-0.109
-484.420	24.203	-0.166	0.138
-483.405	800.000	-0.087	0.310
-482.391	-82.804	0.391	-0.127
-481.376	633.797	0.084	-0.213
-480.362	-97.863	-0.074	-0.019
-479.347	-200.000	-0.032	0.208
-478.332	-95.254	-0.057	0.016
-477.318	-1.127	0.178	-0.126
-476.303	625.405	-0.057	0.143
-475.289	125.820	-0.066	0.084
-474.274	-98.607	-0.099	0.025
-473.259	232.844	-0.058	-0.096
-472.245	75.255	0.146	0.155
-471.230	-68.723	-0.297	-0.115
-470.216	-116.985	0.198	0.036
-469.201	-200.000	-0.015	-0.166
-468.186	-55.982	0.140	0.062
-467.172	-52.549	-0.256	-0.118
-466.157	-139.147	-0.160	0.017
-465.143	112.019	0.096	-0.116
-464.128	-200.000	-0.050	-0.452
-463.113	-200.000	-0.003	0.026
-462.099	800.000	-0.155	-0.504
-461.084	-78.723	-0.417	-0.143
-460.070	-18.722	0.245	0.153
-459.055	800.000	-0.067	-0.199
-458.040	171.644	-0.195	-0.281
-457.026	632.513	-0.069	-0.176
-456.011	167.810	0.186	0.265
-454.997	-77.668	0.177	0.061
-453.982	-3.577	-0.379	-0.264
-452.968	-200.000	-0.015	-0.071
-451.953	-64.393	0.261	-0.107
-450.938	353.751	-0.072	0.144
-449.924	48.671	-0.213	-0.200
-448.909	-198.108	-0.243	-0.001
-447.895	-200.000	0.075	-0.396
-446.880	-200.000	0.023	0.117
-445.865	-200.000	0.053	0.371
-444.851	-200.000	-0.006	-0.285
-443.836	-65.689	-0.084	0.034
-442.822	-200.000	-0.006	-0.117
-441.807	-180.045	0.326	0.007
-440.792	182.390	0.205	-0.303
-439.778	-59.012	-0.162	-0.070
-438.763	-200.000	0.015	-0.067
-437.749	-68.810	-0.195	0.075
-436.734	800.000	-0.046	0.145
-435.719	-56.188	0.361	-0.161
-434.705	-102.917	-0.182	-0.043
-433.690	85.275	-0.309	0.340
-432.676	-200.000	0.017	-0.137
-431.661	8.894	-0.023	-0.017
-430.646	325.932	0.087	0.167
-429.632	-48.317	0.191	0.092
-428.617	-148.704	0.033	0.003
-427.603	61.634	0.359	0.358
-426.588	-200.000	0.005	-0.113
-425.573	-200.000	-0.030	-0.305
-424.559	-39.497	-0.202	-0.106
-423.544	663.869	-0.034	-0.089
-422.530	-78.987	0.141	0.048
-421.515	-88.688	-0.142	-0.042
-420.500	-195.551	-0.095	-0.001
-419.486	272.490	-0.071	-0.125
-418.471	-200.000	-0.003	-0.069
-417.457	-200.000	0.013	0.194
-416.442	-132.337	0.221	0.029
-415.428	196.775	0.152	0.232
-414.413	-200.000	-0.003	0.032
-413.398	1.623	-0.149	0.108
-412.384	800.000	0.033	0.097
-411.369	-152.626	-0.100	-0.007
-410.355	-124.183	-0.243	0.038
-409.340	800.000	0.037	-0.132
-408.325	457.545	0.051	0.113
-407.311	-75.082	0.316	0.113
-406.296	-72.885	0.155	0.057
-405.282	677.485	0.067	0.173
-404.267	-200.000	0.010	-0.214
-403.252	800.000	0.018	0.059
-402.238	-55.712	-0.113	0.051
-401.223	800.000	-0.116	0.344
-400.209	-200.000	0.002	-0.216
-399.194	16.634	0.094	-0.074
-398.179	-200.000	0.054	0.266
-397.165	800.000	0.024	0.071
-396.150	-77.477	-0.144	0.050
-395.136	44.456	0.154	-0.141
-394.121	-36.267	0.312	-0.169
-393.106	265.646	-0.186	-0.325
-392.092	-12.831	-0.247	0.161
-391.077	279.447	0.060	0.106
-390.063	-200.000	-0.018	0.575
-389.048	137.440	-0.195	-0.255
-388.033	461.727	-0.206	0.460
-387.019	-200.000	0.043	0.495
-386.004	616.202	0.021	-0.053
-384.990	58.674	0.080	0.079
-383.975	208.106	-0.035	-0.055
-382.960	-99.847	0.284	0.071
-381.946	794.949	-0.111	0.305
-380.931	-200.000	-0.024	0.146
-379.917	-48.782	-0.162	0.078
-378.902	-67.956	-0.152	0.059
-377.888	-115.011	-0.463	0.088
-376.873	-200.000	0.015	-0.123
-375.858	110.765	-0.180	-0.216
-374.844	-200.000	-0.006	-0.104
-373.829	800.000	-0.110	0.425
-372.815	471.480	-0.068	0.154
-371.800	-200.000	-0.036	0.220
-370.785	-200.000	0.014	-0.168
-369.771	133.253	-0.191	0.247
-368.756	519.387	0.116	0.271
-367.742	50.841	0.159	-0.151
-366.727	-154.012	0.236	-0.016
-365.712	-200.000	0.057	-0.252
-364.698	277.380	-0.183	-0.325
-363.683	-200.000	-0.001	0.338
-362.669	-70.815	-0.097	-0.037
-361.654	800.000	0.067	-0.201
-360.639	-184.794	-0.179	-0.003
-359.625	114.323	0.023	0.028
-358.610	800.000	-0.040	0.142
-357.596	-27.098	0.320	-0.186
-356.581	800.000	0.045	0.181
-355.566	-37.812	0.241	0.128
-354.552	-100.654	0.161	-0.040
-353.537	75.433	0.067	0.070
-352.523	-98.147	-0.340	-0.087
-351.508	-170.694	0.298	0.010
-350.493	120.392	0.145	0.180
-349.479	-153.402	-0.341	-0.024
-348.464	-145.091	-0.325	0.029
-347.450	-200.000	-0.003	0.113
-346.435	119.704	0.049	-0.061
-345.420	110.164	-0.124	-0.149
-344.406	800.000	0.107	0.414
-343.391	754.103	-0.106	-0.287
-342.377	-100.353	-0.161	-0.040
-341.362	-200.000	-0.004	0.162
-340.348	800.000	0.078	-0.330
-339.333	-25.811	0.255	0.150
-338.318	268.575	0.057	0.100
-337.304	-111.248	0.371	-0.076
-336.289	35.866	-0.243	-0.213
-335.275	-41.721	0.208	0.107
-334.260	-134.447	0.274	0.033
-333.245	59.467	-0.229	-0.225
-332.231	-170.311	-0.472	0.017
-331.216	107.482	0.233	-0.276
-330.202	-200.000	0.004	0.242
-329.187	-102.572	-0.143	0.034
-328.172	800.000	-0.041	-0.140
-327.158	92.576	0.042	-0.047
-326.143	262.745	0.047	-0.081
-325.129	800.000	-0.117	0.328
-324.114	127.296	-0.133	0.169
-323.099	-133.867	0.045	0.006
-322.085	-86.652	-0.029	0.009
-321.070	-129.127	0.148	-0.021
-320.056	45.492	-0.147	-0.135
-319.041	-40.007	0.145	-0.075
-318.026	-71.047	0.324	-0.121
-317.012	-200.000	0.009	0.379
-315.997	-16.468	0.365	0.231
-314.983	212.821	-0.212	-0.334
-313.968	-114.348	-0.107	0.021
-312.953	-200.000	-0.012	-0.055
-311.939	-31.159	-0.128	-0.072
-310.924	-145.752	0.136	0.012
-309.910	-101.138	0.208	-0.051
-308.895	85.149	-0.101	-0.110
-307.880	271.337	0.131	0.230
-306.866	-135.811	0.259	0.030
-305.851	-200.000	0.021	-0.242
-304.837	406.932	-0.064	0.134
-303.822	56.770	-0.190	0.185
-302.807	800.000	0.066	0.215
-301.793	243.438	-0.105	0.175
-300.778	-63.068	0.213	0.088
-299.764	800.000	0.049	-0.141
-298.749	309.096	0.093	0.174
-297.735	-200.000	-0.091	0.437
-296.720	-200.000	-0.007	-0.285
-295.705	-85.979	-0.342	0.105
-294.691	-56.455	-0.365	0.161
-293.676	-80.061	-0.040	0.013
-292.662	800.000	-0.029	-0.096
-291.647	-95.432	-0.179	-0.048
-290.632	58.137	-0.023	0.022
-289.618	345.965	0.159	-0.312
-288.603	85.448	0.143	-0.157
-287.589	-72.647	-0.186	-0.068
-286.574	470.631	-0.101	-0.226
-285.559	59.908	-0.098	0.097
-284.545	123.024	0.247	0.309
-283.530	-97.358	-0.334	-0.087
-282.516	157.084	0.253	0.349
-281.501	800.000	-0.039	0.123
-280.486	-103.779	0.200	-0.047
-279.472	478.705	-0.145	0.326
-278.457	-200.000	0.024	0.268
-277.443	-200.000	-0.008	-0.199
-276.428	445.419	-0.092	0.200
-275.413	-200.000	-0.064	0.346
-274.399	412.127	0.068	-0.144
-273.384	-131.264	-0.143	-0.019
-272.370	800.000	0.120	-0.342
-271.355	140.318	-0.305	0.401
-270.340	-91.116	-0.250	-0.071
-269.326	-45.546	-0.126	-0.062
-268.311	144.631	0.184	0.244
-267.297	800.000	0.040	0.162
-266.282	-71.935	-0.108	0.040
-265.267	49.133	0.036	0.034
-264.253	-55.020	0.209	-0.094
-263.238	-124.130	0.227	0.035
-262.224	83.845	0.063	-0.069
-261.209	208.709	-0.038	0.059
-260.195	-200.000	0.001	-0.191
-259.180	-200.000	-0.009	-0.144
-258.165	258.082	-0.130	0.223
-257.151	10.117	0.195	0.147
-256.136	-117.350	-0.042	-0.008
-255.122	-200.000	-0.044	-0.273
-254.107	228.708	-0.118	0.191
-253.092	-47.300	-0.081	-0.039
-252.078	16.057	0.286	0.224
-251.063	163.142	-0.099	0.139
-250.049	-31.336	0.182	-0.102
-249.034	187.941	-0.176	-0.261
-248.019	-125.162	0.161	-0.025
-247.005	-200.000	-0.031	-0.178
-245.990	-92.698	0.192	-0.053
-244.976	509.608	0.091	0.210
-243.961	-80.983	-0.100	-0.033
-242.946	-200.000	0.011	0.119
-241.932	-29.277	0.091	-0.052
-240.917	-97.568	-0.277	0.071
-239.903	5.895	0.338	-0.249
-238.888	13.573	-0.249	-0.192
-237.873	-200.000	0.012	0.098
-236.859	-200.000	-0.075	-0.349
-235.844	-37.448	-0.184	0.097
-234.830	-112.516	0.576	0.114
-233.815	95.888	-0.151	0.171
-232.800	44.360	-0.133	-0.121
-231.786	-200.000	-0.001	-0.323
-230.771	-200.000	-0.035	0.300
-229.757	-131.595	-0.249	0.033
-228.742	800.000	0.120	0.347
-227.727	25.699	-0.129	0.107
-226.713	800.000	0.030	-0.114
-225.698	316.568	0.172	0.323
-224.684	-200.000	0.031	0.206
-223.669	800.000	0.061	-0.175
-222.655	202.573	-0.191	0.294
-221.640	-122.616	-0.135	0.022
-220.625	-173.075	-0.069	-0.002
-219.611	131.383	-0.155	0.198
-218.596	-178.843	0.379	0.009
-217.582	228.184	-0.087	-0.140
-216.567	35.472	-0.087	-0.076
-215.552	-3.496	-0.166	-0.115
-214.538	800.000	-0.050	-0.136
-213.523	-200.000	-0.041	-0.184
-212.509	36.217	0.260	0.227
-211.494	-121.145	0.076	0.013
-210.479	64.797	0.224	0.224
-209.465	140.349	-0.082	-0.108
-208.450	309.782	0.149	-0.278
-207.436	-179.595	-0.135	-0.003
-206.421	-138.737	-0.254	0.028
-205.406	-200.000	-0.026	-0.169
-204.392	5.187	-0.034	0.025
-203.377	37.005	0.133	-0.117
-202.363	-200.000	0.052	-0.253
-201.348	-115.050	0.413	-0.078
-200.333	800.000	0.093	-0.267
-199.319	415.499	0.110	0.234
-198.304	-24.357	0.175	-0.104
-197.290	280.320	-0.142	-0.251
-196.275	83.227	0.074	0.080
-195.260	-110.279	0.145	-0.030
-194.246	-200.000	0.005	0.128
-193.231	800.000	0.107	-0.405
-192.217	105.173	-0.088	0.103
-191.202	22.827	0.145	0.118
-190.187	463.022	-0.085	-0.188
-189.173	-200.000	-0.009	0.215
-188.158	131.033	-0.229	0.292
-187.144	-101.563	0.227	-0.055
-186.129	287.577	0.056	-0.100
-185.114	21.250	0.214	-0.173
-184.100	403.572	0.049	0.101
-183.085	134.711	0.062	-0.079
-182.071	800.000	-0.083	0.291
-181.056	-200.000	0.019	0.206
-180.042	384.556	0.070	0.144
-179.027	506.364	-0.102	0.235
-178.012	-6.245	-0.256	0.174
-176.998	179.710	0.164	0.238
-175.983	800.000	-0.107	-0.394
-174.969	358.733	-0.109	0.216
-173.954	-78.488	0.141	0.048
-172.939	49.836	0.065	0.061
-171.925	-122.021	0.052	-0.008
-170.910	-70.055	-0.073	0.027
-169.896	-39.892	0.093	-0.048
-168.881	-44.562	-0.074	0.037
-167.866	5.011	0.272	0.198
-166.852	-200.000	-0.008	-0.034
-165.837	-145.474	-0.125	-0.011
-164.823	5.787	0.079	0.058
-163.808	-40.012	-0.009	-0.004
-162.793	-67.201	0.222	0.087
-161.779	-104.356	-0.420	-0.096
-160.764	-200.000	0.030	0.170
-159.750	32.330	0.215	-0.184
-158.735	24.819	-0.102	-0.084
-157.720	364.739	0.062	0.124
-156.706	92.108	0.143	0.160
-155.691	-186.160	-0.305	0.004
-154.677	800.000	-0.054	0.176
-153.662	481.915	0.080	0.180
-152.647	-200.000	-0.008	-0.186
-151.633	110.141	-0.016	0.019
-150.618	800.000	-0.060	0.258
-149.604	-177.154	0.146	-0.004
-148.589	-69.683	0.187	-0.071
-147.574	648.834	0.059	0.150
-146.560	661.295	0.107	-0.273
-145.545	-128.375	-0.103	0.015
-144.531	-70.388	0.389	0.146
-143.516	-142.619	0.251	-0.024
-142.502	180.200	-0.113	0.164
-141.487	574.729	-0.124	0.299
-140.472	-50.307	-0.104	-0.049
-139.458	-113.617	-0.271	0.052
-138.443	-22.726	-0.187	0.112
-137.429	180.346	0.063	-0.091
-136.414	-82.815	0.126	0.040
-135.399	25.910	-0.236	-0.195
-134.385	-43.698	0.127	-0.063
-133.370	40.682	-0.136	0.122
-132.356	-138.202	0.410	0.045
-131.341	71.749	-0.200	0.206
-130.326	-200.000	-0.027	0.125
-129.312	800.000	-0.043	-0.181
-128.297	-200.000	-0.017	0.092
-127.283	-125.759	0.143	0.021
-126.268	128.237	0.099	0.125
-125.253	161.559	-0.088	-0.122
-124.239	-104.795	0.089	0.020
-123.224	-27.564	-0.166	-0.096
-122.210	-200.000	-0.035	-0.286
