DTS Sentinel unit serial number:	SN413079Multiplexer serial number:	ORYXHardware model number:	OX4-SRSoftware version number:	ORYX F/W v4.00 Oryx Data Collector v3.7.2.0data status	okinstallation	princeton_trtdifferential loss correction	single-endedforward channel	channel 3reverse channel	N/Adate	2019/09/15time	02:00:35forward acquisition time	60.00reverse acquisition time	0.00gamma	496.2192k internal	0.2322k external	0.2322temperature offset calibration	0.9967default loss term (dB/km)	0.3790temperature slope calibration	1.0000multiplexer offset coefficient	1.0000multiplexer slope coefficient	1.0000fibre end	0.00T internal ref (°C)	31.75T ext. ref 1 (°C)	4.54T ext. ref 2 (°C)	26.50length (m)	temperature (°C)	Stokes	anti-Stokes-747.200	69.611	-0.117	-0.122
-746.185	-11.065	-0.188	0.125
-745.171	800.000	-0.017	-0.066
-744.156	-33.273	-0.299	0.167
-743.142	-18.617	0.018	-0.011
-742.127	-200.000	0.005	0.085
-741.112	259.852	0.070	-0.121
-740.098	250.962	-0.170	0.292
-739.083	109.486	0.239	0.289
-738.069	193.590	0.043	0.066
-737.054	800.000	0.046	0.182
-736.039	64.346	-0.190	-0.193
-735.025	365.634	0.034	0.069
-734.010	800.000	-0.076	-0.273
-732.996	-200.000	0.053	0.334
-731.981	91.267	0.321	0.363
-730.966	83.590	-0.033	-0.036
-729.952	800.000	-0.056	-0.230
-728.937	53.042	-0.087	-0.084
-727.923	83.366	-0.260	0.286
-726.908	143.221	-0.247	0.332
-725.894	494.690	-0.131	-0.304
-724.879	-79.282	0.079	0.027
-723.864	19.393	-0.234	-0.190
-722.850	-150.567	-0.340	-0.026
-721.835	-138.641	0.042	0.005
-720.821	-109.306	-0.118	0.025
-719.806	800.000	-0.047	-0.161
-718.791	-34.175	-0.099	-0.055
-717.777	473.676	-0.214	-0.488
-716.762	-151.984	-0.236	-0.017
-715.748	-85.963	0.253	0.079
-714.733	800.000	0.062	0.252
-713.718	-200.000	-0.025	-0.135
-712.704	-77.321	0.499	0.175
-711.689	226.610	-0.215	-0.353
-710.675	-200.000	0.011	-0.197
-709.660	756.156	0.029	-0.080
-708.645	319.968	0.041	-0.079
-707.631	-93.074	-0.292	-0.082
-706.616	211.691	0.092	0.147
-705.602	317.770	-0.149	0.284
-704.587	-200.000	-0.028	0.315
-703.572	-16.417	-0.080	-0.051
-702.558	56.302	0.280	-0.275
-701.543	800.000	-0.031	0.103
-700.529	-149.041	-0.013	0.001
-699.514	-200.000	0.019	0.278
-698.499	-155.923	0.088	0.006
-697.485	410.857	-0.041	0.089
-696.470	123.711	0.163	0.207
-695.456	240.296	0.123	-0.207
-694.441	107.979	-0.163	-0.195
-693.426	308.422	-0.067	-0.127
-692.412	-125.855	-0.156	-0.024
-691.397	-108.893	0.148	-0.032
-690.383	380.545	0.153	-0.316
-689.368	-200.000	-0.081	-0.386
-688.354	800.000	0.087	-0.326
-687.339	-200.000	0.028	-0.214
-686.324	-92.598	0.201	0.057
-685.310	-200.000	0.022	-0.120
-684.295	-200.000	0.021	-0.101
-683.281	-200.000	0.107	-0.000
-682.266	-200.000	0.017	-0.108
-681.251	-65.177	0.138	-0.056
-680.237	800.000	0.030	0.083
-679.222	-200.000	0.036	0.168
-678.208	287.879	-0.148	-0.270
-677.193	800.000	-0.065	-0.261
-676.178	800.000	-0.048	-0.161
-675.164	476.626	-0.053	0.121
-674.149	-200.000	-0.134	0.001
-673.135	800.000	0.053	0.190
-672.120	800.000	-0.074	-0.301
-671.105	-44.541	-0.130	0.066
-670.091	800.000	-0.072	-0.221
-669.076	127.916	-0.217	0.277
-668.062	186.518	-0.111	0.167
-667.047	7.879	0.317	0.239
-666.032	209.006	0.057	-0.089
-665.018	800.000	-0.070	-0.268
-664.003	-200.000	0.010	-0.055
-662.989	-200.000	-0.057	-0.311
-661.974	-200.000	0.014	-0.329
-660.959	-200.000	0.028	-0.202
-659.945	800.000	0.061	-0.228
-658.930	145.101	0.175	-0.236
-657.916	-200.000	-0.001	0.473
-656.901	-66.844	-0.341	0.136
-655.886	19.031	-0.220	-0.178
-654.872	-76.170	0.173	0.061
-653.857	-167.900	0.091	-0.004
-652.843	139.894	-0.060	-0.079
-651.828	-131.740	0.059	0.008
-650.814	-4.862	-0.195	-0.135
-649.799	89.974	-0.258	-0.291
-648.784	-200.000	-0.017	-0.138
-647.770	11.841	0.394	0.305
-646.755	12.906	0.114	0.089
-645.741	-10.457	0.214	-0.143
-644.726	285.373	-0.007	-0.013
-643.711	-63.625	0.203	-0.084
-642.697	215.952	-0.060	-0.096
-641.682	44.191	0.049	-0.045
-640.668	-152.334	-0.157	-0.011
-639.653	-126.557	0.248	-0.037
-638.638	-91.175	-0.198	-0.057
-637.624	-161.084	0.124	-0.007
-636.609	59.306	-0.213	-0.211
-635.595	-10.426	0.120	-0.080
-634.580	-121.468	0.198	0.033
-633.565	-26.835	0.108	-0.063
-632.551	277.005	-0.094	0.168
-631.536	-57.407	-0.263	0.116
-630.522	207.609	0.057	-0.090
-629.507	-131.015	0.157	0.021
-628.492	352.595	0.055	-0.109
-627.478	800.000	-0.014	-0.054
-626.463	-130.029	-0.377	0.052
-625.449	8.074	-0.143	-0.108
-624.434	235.284	0.083	0.137
-623.419	-200.000	-0.051	-0.241
-622.405	507.326	0.059	0.137
-621.390	-5.040	-0.160	-0.111
-620.376	800.000	0.059	-0.202
-619.361	-1.325	0.124	-0.088
-618.346	-46.691	0.166	-0.082
-617.332	-71.157	0.163	0.062
-616.317	-5.562	0.286	0.198
-615.303	-78.055	-0.305	-0.106
-614.288	383.312	-0.092	-0.191
-613.273	-200.000	-0.010	0.209
-612.259	269.801	-0.256	-0.452
-611.244	171.567	0.117	0.169
-610.230	-200.000	0.017	-0.192
-609.215	-200.000	0.006	-0.059
-608.201	423.389	-0.089	0.192
-607.186	-38.502	0.204	0.108
-606.171	-55.390	0.111	0.050
-605.157	-157.756	0.038	-0.002
-604.142	422.311	-0.064	-0.138
-603.128	-120.829	-0.154	-0.026
-602.113	51.432	0.492	-0.470
-601.098	14.743	0.122	0.096
-600.084	157.297	0.136	-0.189
-599.069	-51.606	-0.124	-0.058
-598.055	187.343	0.182	0.273
-597.040	99.955	0.259	-0.301
-596.025	89.597	0.215	0.241
-595.011	-200.000	-0.038	-0.174
-593.996	-200.000	-0.050	0.263
-592.982	-200.000	0.012	0.139
-591.967	-200.000	-0.052	0.288
-590.952	233.739	0.092	0.153
-589.938	-12.397	0.236	0.155
-588.923	33.626	-0.218	-0.190
-587.909	-200.000	0.004	-0.153
-586.894	-156.097	-0.211	-0.013
-585.879	-150.312	0.293	-0.023
-584.865	-200.000	0.016	0.157
-583.850	-79.028	-0.291	0.100
-582.836	333.677	0.044	0.085
-581.821	229.389	0.057	-0.093
-580.806	-65.153	0.368	0.149
-579.792	599.256	0.033	0.083
-578.777	179.533	0.125	0.183
-577.763	49.866	0.118	-0.112
-576.748	268.806	-0.052	0.092
-575.733	24.200	-0.058	0.048
-574.719	20.889	-0.407	-0.331
-573.704	-43.123	0.144	0.073
-572.690	800.000	0.137	-0.404
-571.675	442.572	-0.148	-0.325
-570.661	-118.271	0.250	-0.045
-569.646	47.407	0.120	-0.113
-568.631	238.826	-0.046	0.077
-567.617	234.776	0.135	-0.223
-566.602	-35.357	-0.287	-0.157
-565.588	408.532	0.177	-0.375
-564.573	226.400	0.077	0.125
-563.558	32.531	0.108	0.093
-562.544	-200.000	-0.058	-0.269
-561.529	-12.233	-0.200	0.131
-560.515	-141.378	-0.082	-0.008
-559.500	29.027	-0.100	0.085
-558.485	-120.887	-0.309	-0.052
-557.471	-134.153	-0.352	-0.044
-556.456	-200.000	0.020	0.109
-555.442	8.044	-0.320	0.241
-554.427	-0.286	-0.318	-0.227
-553.412	61.986	0.249	0.249
-552.398	-200.000	-0.011	0.088
-551.383	254.466	0.163	-0.280
-550.369	-200.000	0.025	0.153
-549.354	202.441	0.085	0.131
-548.339	-73.214	-0.141	-0.052
-547.325	0.580	-0.133	-0.095
-546.310	313.763	0.115	0.217
-545.296	3.770	-0.090	-0.066
-544.281	112.917	0.047	0.057
-543.266	190.094	-0.154	0.231
-542.252	-126.647	-0.110	-0.016
-541.237	-200.000	-0.042	0.248
-540.223	-168.388	0.319	0.012
-539.208	90.599	0.224	-0.252
-538.193	-81.948	-0.189	-0.062
-537.179	-92.174	0.040	0.011
-536.164	800.000	0.032	0.102
-535.150	35.524	-0.019	-0.017
-534.135	-200.000	0.006	0.088
-533.121	79.833	0.177	-0.190
-532.106	-50.453	0.283	-0.134
-531.091	227.025	0.092	0.151
-530.077	800.000	-0.058	0.170
-529.062	587.798	-0.085	0.210
-528.048	800.000	-0.047	0.157
-527.033	121.871	0.068	0.085
-526.018	754.708	0.047	-0.127
-525.004	33.340	0.311	0.270
-523.989	198.190	-0.076	0.117
-522.975	-126.208	0.076	0.011
-521.960	800.000	0.172	-0.550
-520.945	-98.544	0.312	-0.080
-519.931	-107.973	0.168	0.037
-518.916	36.614	-0.193	-0.171
-517.902	-3.660	0.142	-0.099
-516.887	57.033	0.199	-0.194
-515.872	-145.269	0.038	-0.003
-514.858	45.663	0.054	0.050
-513.843	112.798	-0.201	0.243
-512.829	800.000	-0.149	0.439
-511.814	-153.600	-0.158	0.011
-510.799	-99.880	0.244	0.061
-509.785	735.589	-0.063	-0.170
-508.770	273.312	-0.246	-0.435
-507.756	-43.771	0.197	0.099
-506.741	620.169	0.086	0.217
-505.726	171.641	-0.146	-0.209
-504.712	800.000	-0.011	-0.041
-503.697	-126.117	-0.194	-0.029
-502.683	-123.702	0.092	-0.015
-501.668	-200.000	0.024	-0.365
-500.653	-141.987	-0.153	0.015
-499.639	761.405	-0.069	0.186
-498.624	-90.000	0.246	0.072
-497.610	-200.000	-0.034	-0.197
-496.595	611.954	0.113	0.283
-495.581	-137.789	-0.173	0.019
-494.566	-20.852	0.161	-0.099
-493.551	82.612	0.128	-0.139
-492.537	48.924	-0.217	-0.203
-491.522	183.456	0.147	-0.217
-490.508	-58.669	0.220	0.096
-489.493	800.000	0.049	0.170
-488.478	590.323	0.110	0.271
-487.464	-200.000	0.028	0.201
-486.449	-5.718	-0.064	0.044
-485.435	-98.866	-0.086	0.022
-484.420	62.173	-0.102	0.102
-483.405	-200.000	0.030	0.212
-482.391	170.462	0.084	-0.120
-481.376	800.000	-0.066	-0.253
-480.362	800.000	-0.062	-0.176
-479.347	-54.566	-0.276	-0.125
-478.332	179.153	-0.061	0.089
-477.318	-200.000	0.013	0.423
-476.303	-36.376	-0.316	0.170
-475.289	800.000	0.122	0.370
-474.274	-118.581	0.236	0.042
-473.259	-75.888	-0.183	0.065
-472.245	-45.728	0.190	-0.094
-471.230	-60.681	0.251	-0.106
-470.216	-154.925	-0.108	0.007
-469.201	-121.084	-0.135	-0.023
-468.186	-28.513	-0.105	0.060
-467.172	-200.000	0.011	0.182
-466.157	800.000	0.069	-0.215
-465.143	-179.264	-0.034	-0.001
-464.128	-28.752	0.079	-0.046
-463.113	800.000	-0.100	0.339
-462.099	227.885	0.048	-0.078
-461.084	-78.282	-0.101	0.035
-460.070	-38.575	-0.101	-0.053
-459.055	-165.868	-0.153	-0.007
-458.040	-200.000	-0.007	0.397
-457.026	-84.895	-0.073	0.023
-456.011	36.920	-0.230	0.203
-454.997	25.275	0.098	0.082
-453.982	-110.593	-0.091	-0.019
-452.968	-200.000	-0.004	-0.035
-451.953	-34.969	0.176	0.096
-450.938	251.832	0.111	-0.190
-449.924	433.708	0.036	0.078
-448.909	-48.987	-0.182	0.087
-447.895	99.153	0.144	-0.166
-446.880	239.956	-0.208	0.346
-445.865	-19.444	0.233	0.144
-444.851	151.599	0.212	-0.288
-443.836	800.000	0.064	-0.255
-442.822	-200.000	-0.005	-0.151
-441.807	23.421	-0.150	0.123
-440.792	212.769	-0.129	0.203
-439.778	80.766	0.158	0.170
-438.763	123.769	0.141	-0.177
-437.749	42.256	0.213	0.193
-436.734	-83.213	0.083	0.027
-435.719	670.284	-0.052	-0.135
-434.705	311.286	-0.080	-0.149
-433.690	201.506	0.211	-0.324
-432.676	800.000	0.067	0.239
-431.661	109.590	-0.132	0.158
-430.646	-162.714	-0.345	0.017
-429.632	373.628	-0.038	-0.076
-428.617	-200.000	-0.000	0.022
-427.603	-133.774	-0.378	-0.047
-426.588	-200.000	-0.057	-0.354
-425.573	800.000	-0.081	0.284
-424.559	-91.047	0.278	-0.080
-423.544	292.228	0.039	0.071
-422.530	100.809	-0.004	0.005
-421.515	195.545	0.139	-0.211
-420.500	49.943	-0.252	0.237
-419.486	208.518	0.306	-0.477
-418.471	15.464	0.074	0.058
-417.457	-77.451	0.175	0.061
-416.442	-132.929	0.166	-0.021
-415.428	132.519	-0.124	0.160
-414.413	-45.502	-0.230	0.114
-413.398	-38.989	0.166	-0.087
-412.384	800.000	-0.038	-0.140
-411.369	94.935	-0.079	0.089
-410.355	-200.000	-0.073	0.445
-409.340	76.402	0.270	-0.285
-408.325	-179.436	0.128	0.003
-407.311	143.174	-0.259	0.343
-406.296	-143.747	-0.349	-0.033
-405.282	10.520	0.309	0.235
-404.267	-4.015	-0.159	-0.110
-403.252	2.097	0.301	-0.217
-402.238	-200.000	0.026	-0.179
-401.223	251.076	0.102	0.172
-400.209	-114.085	-0.351	-0.068
-399.194	-60.931	-0.141	0.059
-398.179	65.401	0.098	-0.099
-397.165	800.000	-0.124	-0.398
-396.150	-139.779	-0.332	-0.035
-395.136	-111.471	0.083	0.017
-394.121	35.007	-0.145	0.127
-393.106	-74.135	-0.081	-0.029
-392.092	-16.072	-0.148	-0.094
-391.077	-37.090	-0.567	-0.302
-390.063	-200.000	0.036	0.307
-389.048	-105.709	0.131	-0.030
-388.033	-83.179	0.241	-0.077
-387.019	78.011	0.195	0.208
-386.004	-97.914	-0.251	0.064
-384.990	79.770	-0.189	0.203
-383.975	265.629	-0.143	-0.248
-382.960	-55.785	0.148	0.066
-381.946	519.388	0.118	0.275
-380.931	-46.979	0.242	-0.118
-379.917	159.088	-0.088	0.122
-378.902	117.430	-0.092	-0.112
-377.888	240.533	-0.086	0.144
-376.873	38.767	0.141	0.125
-375.858	-139.262	0.328	-0.035
-374.844	-61.781	0.444	-0.185
-373.829	109.146	-0.043	-0.051
-372.815	-68.128	-0.082	0.032
-371.800	800.000	0.050	0.161
-370.785	-81.097	-0.225	-0.074
-369.771	134.138	0.162	0.209
-368.756	-46.172	-0.202	-0.099
-367.742	79.153	0.177	-0.189
-366.727	109.231	0.105	0.125
-365.712	800.000	-0.041	0.160
-364.698	85.233	-0.206	-0.225
-363.683	800.000	0.078	0.277
-362.669	-132.536	0.234	0.030
-361.654	146.056	0.048	0.064
-360.639	-143.388	-0.453	-0.043
-359.625	149.287	0.034	-0.046
-358.610	-200.000	-0.032	-0.180
-357.596	-12.369	0.413	0.269
-356.581	-200.000	-0.056	0.389
-355.566	-99.492	-0.185	-0.046
-354.552	-42.672	0.095	-0.048
-353.537	382.717	0.104	-0.212
-352.523	59.542	-0.082	0.081
-351.508	800.000	0.038	0.128
-350.493	-35.731	-0.165	-0.089
-349.479	115.907	0.213	0.260
-348.464	234.239	0.182	-0.298
-347.450	27.149	0.153	-0.128
-346.435	-11.577	-0.418	-0.273
-345.420	-15.184	-0.216	0.138
-344.406	800.000	-0.074	-0.276
-343.391	77.698	0.184	-0.194
-342.377	70.360	-0.241	0.248
-341.362	649.242	-0.103	0.262
-340.348	-31.704	-0.235	0.131
-339.333	-200.000	0.041	-0.417
-338.318	-76.654	-0.275	-0.096
-337.304	-200.000	0.038	-0.215
-336.289	-200.000	-0.064	0.307
-335.275	-200.000	-0.031	0.262
-334.260	-66.398	-0.149	-0.059
-333.245	81.249	0.107	-0.115
-332.231	-200.000	0.009	-0.196
-331.216	800.000	0.108	0.425
-330.202	46.493	-0.186	0.172
-329.187	-98.572	-0.131	0.033
-328.172	-40.439	-0.262	-0.135
-327.158	123.099	0.128	0.159
-326.143	800.000	0.053	-0.199
-325.129	219.988	-0.100	0.160
-324.114	800.000	0.044	0.143
-323.099	800.000	0.054	-0.191
-322.085	-200.000	0.049	0.267
-321.070	-183.627	-0.236	-0.004
-320.056	326.974	0.124	0.237
-319.041	92.995	-0.097	-0.109
-318.026	86.861	0.191	-0.210
-317.012	-31.613	0.196	-0.110
-315.997	800.000	0.113	-0.467
-314.983	-62.364	0.151	-0.062
-313.968	-57.983	-0.219	0.095
-312.953	-112.353	0.271	0.054
-311.939	-120.713	-0.152	-0.025
-310.924	800.000	0.059	0.210
-309.910	-105.118	0.229	0.052
-308.895	-200.000	-0.003	0.292
-307.880	434.403	-0.077	-0.167
-306.866	-67.076	0.153	0.060
-305.851	-63.696	-0.293	0.119
-304.837	800.000	-0.115	0.343
-303.822	102.336	0.176	0.204
-302.807	-116.240	0.084	-0.015
-301.793	-88.987	-0.262	0.077
-300.778	127.618	0.050	-0.063
-299.764	-200.000	0.020	-0.114
-298.749	-142.673	0.200	-0.019
-297.735	520.028	-0.139	-0.324
-296.720	-26.458	-0.303	0.176
-295.705	4.846	-0.214	-0.156
-294.691	-78.664	-0.225	-0.076
-293.676	309.021	0.113	0.210
-292.662	-114.818	0.177	0.033
-291.647	-107.850	-0.136	0.029
-290.632	-200.000	-0.048	-0.275
-289.618	800.000	0.107	0.397
-288.603	-45.774	0.118	-0.058
-287.589	800.000	-0.040	-0.139
-286.574	800.000	0.067	-0.264
-285.559	600.952	-0.075	-0.184
-284.545	-195.871	-0.312	0.002
-283.530	-200.000	-0.006	0.070
-282.516	222.390	0.205	0.327
-281.501	-200.000	0.014	0.307
-280.486	-76.283	0.119	0.042
-279.472	171.854	-0.228	-0.325
-278.457	-200.000	0.008	0.125
-277.443	-200.000	-0.070	-0.305
-276.428	-200.000	-0.007	-0.155
-275.413	184.568	-0.304	-0.447
-274.399	515.356	0.031	-0.072
-273.384	-108.052	-0.103	0.022
-272.370	800.000	-0.024	-0.073
-271.355	662.232	-0.116	0.297
-270.340	800.000	0.133	-0.527
-269.326	-30.528	-0.179	-0.101
-268.311	-23.289	-0.289	-0.172
-267.297	-80.700	0.392	-0.129
-266.282	281.715	-0.059	0.106
-265.267	800.000	-0.061	-0.218
-264.253	-2.244	0.246	-0.171
-263.238	800.000	-0.038	0.117
-262.224	147.350	-0.142	-0.189
-261.209	-101.765	-0.182	0.044
-260.195	161.211	0.022	0.031
-259.180	-200.000	-0.017	0.169
-258.165	204.517	0.160	0.246
-257.151	-126.619	-0.162	0.024
-256.136	800.000	-0.056	0.182
-255.122	800.000	-0.062	0.194
-254.107	543.986	0.023	0.056
-253.092	-200.000	-0.013	0.178
-252.078	-80.816	-0.352	0.116
-251.063	300.772	0.173	0.316
-250.049	-200.000	0.023	-0.261
-249.034	35.192	0.053	0.046
-248.019	-14.277	-0.141	-0.090
-247.005	-110.983	-0.189	0.038
-245.990	-89.485	-0.370	-0.108
-244.976	-200.000	-0.022	-0.416
-243.961	800.000	-0.044	0.187
-242.946	-200.000	0.110	0.481
-241.932	-61.618	-0.066	0.027
-240.917	314.872	0.116	0.216
-239.903	-200.000	-0.021	0.158
-238.888	-200.000	0.035	0.425
-237.873	-33.809	-0.303	0.166
-236.859	-76.905	0.302	-0.105
-235.844	-200.000	-0.052	-0.325
-234.830	-124.975	-0.087	-0.013
-233.815	0.901	0.361	0.256
-232.800	-127.103	-0.194	0.028
-231.786	133.210	0.150	-0.192
-230.771	-200.000	-0.052	0.352
-229.757	800.000	0.044	-0.183
-228.742	247.650	-0.186	-0.312
-227.727	1.679	0.129	-0.092
-226.713	655.505	0.060	-0.151
-225.698	-160.292	-0.172	0.009
-224.684	2.095	0.086	0.062
-223.669	360.040	0.093	-0.185
-222.655	-75.061	-0.224	-0.079
-221.640	-82.518	0.298	0.096
-220.625	-200.000	0.036	0.178
-219.611	-128.039	0.223	-0.032
-218.596	52.788	-0.101	0.095
-217.582	-162.747	-0.071	-0.003
-216.567	-170.404	0.240	0.008
-215.552	617.691	-0.050	0.125
-214.538	50.209	0.201	0.188
-213.523	800.000	-0.084	-0.288
-212.509	-57.017	-0.109	0.048
-211.494	-156.129	-0.269	-0.017
-210.479	-89.983	0.202	-0.058
-209.465	-123.257	0.284	-0.045
-208.450	800.000	-0.056	-0.234
-207.436	-185.100	-0.142	0.002
-206.421	0.581	0.278	-0.196
-205.406	293.413	0.139	-0.252
-204.392	93.098	0.071	-0.079
-203.377	11.713	-0.274	0.208
-202.363	-161.203	0.113	0.006
-201.348	-85.355	-0.246	0.076
-200.333	-200.000	0.025	-0.118
-199.319	137.800	-0.138	-0.179
-198.304	-190.171	-0.093	-0.001
-197.290	294.688	-0.091	0.165
-196.275	800.000	0.054	0.164
-195.260	-81.755	-0.132	-0.043
-194.246	502.014	-0.104	0.238
-193.231	-167.331	0.212	0.008
-192.217	-200.000	-0.023	-0.350
-191.202	50.839	-0.163	-0.153
-190.187	-115.833	0.380	0.070
-189.173	205.604	0.116	0.178
-188.158	-68.051	0.199	-0.077
-187.144	-200.000	-0.022	-0.219
-186.129	98.273	0.245	-0.279
-185.114	-200.000	-0.024	-0.182
-184.100	-200.000	0.013	-0.341
-183.085	681.897	-0.125	0.322
-182.071	-117.268	-0.235	0.042
-181.056	42.477	0.180	-0.162
-180.042	184.501	-0.038	0.056
-179.027	175.070	0.059	0.084
-178.012	36.147	-0.188	0.164
-176.998	-200.000	-0.042	-0.257
-175.983	-158.754	0.262	0.015
-174.969	-113.581	0.048	0.009
-173.954	41.539	-0.246	0.220
-172.939	-59.194	-0.138	0.059
-171.925	-39.134	-0.172	-0.089
-170.910	-200.000	0.015	0.133
-169.896	800.000	0.047	-0.149
-168.881	-23.215	0.221	0.132
-167.866	-66.533	0.196	0.077
-166.852	-200.000	0.038	-0.378
-165.837	-13.481	-0.328	-0.210
-164.823	-200.000	0.046	0.366
-163.808	143.137	0.115	0.151
-162.793	115.867	0.166	0.200
-161.779	800.000	-0.020	-0.071
-160.764	800.000	0.055	-0.206
-159.750	440.891	-0.097	0.210
-158.735	-150.983	0.376	-0.028
-157.720	-13.457	-0.088	0.056
-156.706	11.063	0.062	-0.047
-155.691	597.318	-0.101	0.248
-154.677	51.100	0.092	0.087
-153.662	800.000	-0.055	-0.222
-152.647	212.473	-0.083	-0.130
-151.633	-200.000	0.016	0.283
-150.618	-165.017	0.229	0.010
-149.604	310.998	-0.193	0.357
-148.589	-108.579	0.328	0.070
-147.574	-191.094	-0.161	0.002
-146.560	-9.445	-0.163	0.107
-145.545	800.000	-0.082	-0.231
-144.531	111.260	0.062	-0.073
-143.516	66.018	0.155	-0.156
-142.502	-200.000	0.010	0.106
-141.487	-165.764	-0.105	0.004
-140.472	-89.435	0.125	0.036
-139.458	66.932	0.077	0.077
-138.443	641.705	-0.020	0.050
-137.429	800.000	0.090	0.386
-136.414	54.828	-0.329	0.313
-135.399	-200.000	-0.029	0.263
-134.385	-17.306	-0.173	-0.108
-133.370	52.570	0.248	-0.234
-132.356	-4.329	0.217	-0.148
-131.341	85.110	0.080	-0.087
-130.326	331.088	-0.127	0.242
-129.312	800.000	0.037	-0.118
-128.297	-74.294	0.276	-0.098
-127.283	800.000	0.100	-0.369
-126.268	636.617	-0.143	0.359
-125.253	-79.693	-0.448	0.149
-124.239	-107.765	0.117	-0.025
-123.224	-141.655	-0.115	-0.011
-122.210	800.000	0.125	0.361
-121.195	114.124	0.271	0.325
