DTS Sentinel unit serial number:	SN413079Multiplexer serial number:	ORYXHardware model number:	OX4-SRSoftware version number:	ORYX F/W v4.00 Oryx Data Collector v3.7.2.0data status	okinstallation	princeton_trtdifferential loss correction	single-endedforward channel	channel 3reverse channel	N/Adate	2019/09/17time	12:12:35forward acquisition time	60.00reverse acquisition time	0.00gamma	496.2192k internal	0.2320k external	0.2320temperature offset calibration	0.9961default loss term (dB/km)	0.3790temperature slope calibration	1.0000multiplexer offset coefficient	1.0000multiplexer slope coefficient	1.0000fibre end	0.00T internal ref (°C)	31.37T ext. ref 1 (°C)	0.45T ext. ref 2 (°C)	27.95length (m)	temperature (°C)	Stokes	anti-Stokes-747.200	186.841	-0.105	0.158
-746.185	1.741	-0.187	0.136
-745.171	-200.000	-0.050	0.261
-744.156	800.000	0.040	0.140
-743.142	-200.000	-0.019	-0.361
-742.127	-84.841	-0.452	0.144
-741.112	59.555	-0.131	0.131
-740.098	-115.967	0.376	0.071
-739.083	23.584	0.072	0.060
-738.069	137.588	0.056	0.074
-737.054	800.000	-0.026	0.097
-736.039	176.413	-0.162	-0.239
-735.025	149.858	-0.126	0.173
-734.010	-27.365	-0.071	0.042
-732.996	323.836	-0.119	-0.229
-731.981	-57.736	-0.256	0.113
-730.966	521.541	-0.077	0.184
-729.952	-105.278	0.067	0.015
-728.937	258.932	-0.251	-0.437
-727.923	-96.876	-0.336	0.089
-726.908	-200.000	-0.004	0.096
-725.894	-118.793	-0.204	-0.036
-724.879	-140.107	-0.309	0.033
-723.864	-93.007	-0.067	0.019
-722.850	-173.423	0.376	0.012
-721.835	800.000	0.048	-0.168
-720.821	-82.842	0.188	-0.061
-719.806	800.000	-0.036	0.105
-718.791	133.637	-0.175	0.229
-717.777	253.374	-0.059	0.102
-716.762	5.920	0.243	0.182
-715.748	-200.000	-0.007	-0.065
-714.733	-200.000	0.000	-0.056
-713.718	-200.000	0.047	0.213
-712.704	512.507	-0.124	-0.293
-711.689	263.776	-0.156	-0.274
-710.675	125.449	0.296	-0.377
-709.660	-141.462	0.283	-0.029
-708.645	-39.116	0.141	-0.075
-707.631	149.124	0.054	0.073
-706.616	-142.439	-0.149	0.015
-705.602	10.560	-0.176	-0.136
-704.587	800.000	0.081	0.248
-703.572	-100.559	-0.311	0.078
-702.558	353.720	-0.068	-0.136
-701.543	313.447	0.172	-0.326
-700.529	-53.737	0.327	0.151
-699.514	-134.966	0.294	0.036
-698.499	-113.803	0.114	-0.022
-697.485	-40.502	-0.180	-0.094
-696.470	-140.225	-0.257	0.027
-695.456	-60.756	0.214	0.092
-694.441	261.272	-0.124	-0.216
-693.426	-200.000	-0.001	0.067
-692.412	50.869	0.177	-0.169
-691.397	397.409	-0.018	0.039
-690.383	-200.000	0.073	-0.472
-689.368	556.913	0.027	-0.065
-688.354	677.439	-0.058	0.152
-687.339	-200.000	0.031	-0.299
-686.324	687.986	0.056	-0.147
-685.310	-45.887	-0.099	-0.050
-684.295	-200.000	0.016	0.202
-683.281	-200.000	-0.014	0.085
-682.266	-85.785	0.252	-0.079
-681.251	-200.000	0.020	-0.333
-680.237	-60.837	0.161	-0.069
-679.222	465.598	-0.122	0.276
-678.208	1.699	-0.243	0.176
-677.193	-200.000	0.022	0.106
-676.178	-139.515	0.280	-0.030
-675.164	800.000	-0.030	0.125
-674.149	-97.513	0.290	-0.076
-673.135	66.419	-0.331	-0.339
-672.120	-200.000	0.004	-0.041
-671.105	-200.000	0.032	0.176
-670.091	800.000	0.044	-0.169
-669.076	52.555	-0.051	-0.049
-668.062	-200.000	0.009	0.077
-667.047	417.167	-0.022	0.047
-666.032	133.116	-0.135	-0.175
-665.018	-200.000	0.010	0.111
-664.003	-200.000	-0.009	-0.131
-662.989	800.000	-0.039	0.126
-661.974	36.651	-0.378	-0.336
-660.959	800.000	-0.093	-0.348
-659.945	-126.072	-0.090	0.014
-658.930	206.123	0.113	0.178
-657.916	-200.000	0.050	-0.276
-656.901	93.672	-0.099	0.113
-655.886	32.938	0.096	0.084
-654.872	14.669	0.192	0.151
-653.857	75.086	0.207	-0.220
-652.843	-45.759	0.085	0.043
-651.828	-144.119	0.345	-0.033
-650.814	-114.789	-0.204	0.039
-649.799	-98.073	0.207	0.054
-648.784	-138.714	0.156	0.017
-647.770	465.153	0.031	-0.071
-646.755	-200.000	0.052	-0.342
-645.741	-46.541	-0.278	0.137
-644.726	-5.071	0.082	0.057
-643.711	-200.000	-0.056	0.260
-642.697	-118.677	0.103	-0.018
-641.682	-136.799	0.338	-0.039
-640.668	-15.125	0.099	-0.064
-639.653	-109.734	0.063	0.013
-638.638	-54.779	0.174	0.079
-637.624	-84.354	0.215	0.068
-636.609	-49.140	0.242	0.117
-635.595	332.777	0.109	-0.212
-634.580	-31.965	0.244	-0.138
-633.565	-115.827	-0.257	0.048
-632.551	-200.000	-0.005	-0.202
-631.536	800.000	0.122	-0.361
-630.522	16.045	0.353	-0.280
-629.507	726.210	-0.088	0.236
-628.492	98.807	-0.086	-0.100
-627.478	-88.814	-0.053	-0.016
-626.463	246.038	0.217	0.368
-625.449	588.071	0.088	-0.219
-624.434	800.000	0.025	-0.104
-623.419	800.000	0.051	-0.150
-622.405	-80.091	0.069	0.023
-621.390	-200.000	0.003	-0.131
-620.376	-16.280	-0.175	0.112
-619.361	52.167	0.169	-0.162
-618.346	-112.686	-0.281	-0.056
-617.332	-200.000	-0.034	-0.222
-616.317	-82.175	0.132	-0.043
-615.303	-200.000	-0.001	0.125
-614.288	-200.000	-0.017	0.089
-613.273	-93.763	0.321	-0.089
-612.259	-200.000	0.022	-0.121
-611.244	-33.845	0.151	-0.083
-610.230	-76.609	-0.013	-0.005
-609.215	245.286	-0.118	-0.199
-608.201	-200.000	0.045	-0.225
-607.186	-80.803	-0.253	0.084
-606.171	-20.994	0.180	-0.111
-605.157	-200.000	0.009	-0.227
-604.142	355.631	-0.147	-0.294
-603.128	-190.104	-0.352	0.004
-602.113	82.997	-0.233	-0.255
-601.098	262.218	0.131	0.228
-600.084	73.697	-0.081	-0.085
-599.069	29.069	-0.104	0.088
-598.055	-102.553	-0.347	-0.083
-597.040	-139.729	-0.438	-0.047
-596.025	800.000	0.066	0.289
-595.011	26.131	-0.123	0.103
-593.996	-24.340	0.109	-0.066
-592.982	-200.000	0.006	-0.110
-591.967	-27.715	0.328	0.191
-590.952	237.302	-0.147	-0.245
-589.938	800.000	-0.061	0.179
-588.923	-31.954	-0.066	0.037
-587.909	-78.791	-0.309	0.106
-586.894	347.711	-0.172	-0.341
-585.879	-82.042	0.349	-0.115
-584.865	-200.000	0.010	0.159
-583.850	261.330	0.190	-0.331
-582.836	-48.961	-0.180	0.086
-581.821	-200.000	-0.018	0.211
-580.806	-8.487	0.456	0.308
-579.792	800.000	-0.065	-0.222
-578.777	252.104	0.054	0.092
-577.763	-57.949	-0.384	-0.168
-576.748	-200.000	0.016	-0.156
-575.733	781.201	0.194	-0.534
-574.719	800.000	-0.029	-0.089
-573.704	-114.376	-0.252	0.049
-572.690	800.000	-0.072	0.249
-571.675	-161.324	-0.228	0.012
-570.661	-102.083	0.324	-0.078
-569.646	-105.560	-0.157	0.036
-568.631	322.479	-0.196	-0.375
-567.617	-186.182	-0.183	-0.003
-566.602	341.429	0.044	-0.087
-565.588	800.000	0.037	0.118
-564.573	800.000	0.064	-0.192
-563.558	157.531	0.096	-0.133
-562.544	-81.079	0.181	0.060
-561.529	-177.283	-0.155	-0.004
-560.515	-168.594	-0.037	0.001
-559.500	-158.192	0.154	-0.009
-558.485	10.017	0.029	0.022
-557.471	467.636	-0.085	-0.192
-556.456	-67.170	-0.221	-0.088
-555.442	-170.586	0.558	-0.019
-554.427	21.995	0.165	0.135
-553.412	-200.000	-0.016	-0.174
-552.398	-14.602	-0.132	-0.085
-551.383	-124.331	-0.188	0.030
-550.369	252.777	0.047	-0.081
-549.354	28.107	0.254	0.215
-548.339	105.226	0.411	-0.487
-547.325	61.282	-0.088	-0.088
-546.310	281.068	-0.021	0.038
-545.296	-155.748	0.254	0.016
-544.281	800.000	-0.038	-0.159
-543.266	61.767	-0.124	0.124
-542.252	-200.000	-0.036	0.264
-541.237	800.000	0.093	-0.385
-540.223	800.000	-0.050	-0.189
-539.208	124.916	-0.067	-0.084
-538.193	-200.000	0.043	0.349
-537.179	-124.343	-0.261	-0.041
-536.164	266.740	-0.115	-0.201
-535.150	-16.015	0.212	-0.135
-534.135	-200.000	0.016	-0.258
-533.121	-200.000	-0.009	-0.090
-532.106	198.958	-0.101	-0.156
-531.091	-200.000	-0.036	-0.225
-530.077	-109.419	0.137	0.029
-529.062	287.076	0.083	-0.150
-528.048	800.000	-0.060	0.245
-527.033	127.251	0.159	0.202
-526.018	245.222	0.201	0.339
-525.004	269.576	-0.135	0.237
-523.989	-110.072	-0.280	-0.059
-522.975	-148.964	0.134	0.011
-521.960	-86.382	-0.426	0.131
-520.945	-200.000	0.026	-0.241
-519.931	-149.833	-0.099	0.008
-518.916	-200.000	-0.064	-0.286
-517.902	13.104	-0.292	-0.227
-516.887	47.616	-0.152	0.142
-515.872	47.265	-0.062	-0.058
-514.858	-200.000	-0.009	-0.073
-513.843	800.000	0.088	-0.315
-512.829	-168.325	-0.104	-0.004
-511.814	-27.192	-0.270	-0.158
-510.799	800.000	0.043	0.120
-509.785	2.291	0.297	0.215
-508.770	-106.495	0.177	0.040
-507.756	-34.102	-0.226	0.125
-506.741	-200.000	0.005	-0.110
-505.726	33.894	0.174	-0.152
-504.712	-132.233	0.248	0.032
-503.697	40.014	0.186	0.167
-502.683	66.539	-0.082	0.084
-501.668	213.126	0.088	0.140
-500.653	-126.267	0.052	0.008
-499.639	800.000	-0.053	-0.201
-498.624	390.058	0.007	0.014
-497.610	46.216	-0.174	0.162
-496.595	800.000	0.045	0.162
-495.581	595.827	-0.148	-0.368
-494.566	70.747	-0.285	-0.296
-493.551	-76.370	-0.286	0.101
-492.537	113.442	0.188	-0.228
-491.522	16.378	0.181	0.143
-490.508	116.270	0.095	0.117
-489.493	31.820	-0.134	-0.116
-488.478	-145.212	0.105	0.009
-487.464	9.016	-0.282	0.213
-486.449	-150.439	0.226	0.017
-485.435	800.000	0.052	0.211
-484.420	-186.485	0.218	-0.003
-483.405	550.731	-0.068	0.164
-482.391	68.117	-0.122	0.125
-481.376	-167.472	0.105	-0.004
-480.362	-23.936	-0.416	-0.249
-479.347	-46.919	-0.145	-0.071
-478.332	-24.275	0.175	0.104
-477.318	-66.642	0.268	-0.106
-476.303	-33.972	0.096	-0.053
-475.289	-172.287	-0.248	0.008
-474.274	334.463	0.082	0.159
-473.259	-200.000	-0.043	-0.281
-472.245	58.158	-0.096	-0.094
-471.230	125.012	0.129	0.163
-470.216	-106.976	0.227	0.050
-469.201	41.167	0.161	-0.146
-468.186	76.045	0.279	-0.295
-467.172	751.048	0.099	-0.267
-466.157	-68.264	-0.273	-0.106
-465.143	-117.553	-0.124	0.022
-464.128	49.531	-0.058	-0.054
-463.113	-200.000	0.035	-0.309
-462.099	6.592	-0.157	0.117
-461.084	8.859	-0.440	-0.332
-460.070	44.363	0.137	-0.125
-459.055	154.528	0.218	0.300
-458.040	-57.709	0.146	0.064
-457.026	63.450	-0.059	-0.059
-456.011	-69.590	0.084	0.032
-454.997	-117.271	0.026	0.005
-453.982	-200.000	0.065	0.291
-452.968	-32.172	0.056	0.031
-451.953	-16.828	-0.098	0.062
-450.938	-45.746	-0.168	-0.083
-449.924	-48.066	0.335	-0.162
-448.909	-51.878	0.165	0.077
-447.895	-9.736	0.148	0.099
-446.880	-68.847	-0.266	-0.103
-445.865	-50.444	0.043	-0.020
-444.851	-108.100	0.252	-0.055
-443.836	638.248	-0.067	0.169
-442.822	536.109	0.023	-0.054
-441.807	227.136	-0.020	-0.033
-440.792	-140.069	0.442	0.047
-439.778	-146.031	-0.314	-0.028
-438.763	-18.743	0.136	-0.085
-437.749	-200.000	-0.035	0.270
-436.734	-67.727	-0.057	-0.022
-435.719	-48.420	0.182	0.088
-434.705	800.000	0.083	0.239
-433.690	-200.000	-0.031	-0.169
-432.676	188.233	-0.127	-0.190
-431.661	34.668	-0.249	0.217
-430.646	9.275	-0.264	0.199
-429.632	-200.000	-0.040	0.497
-428.617	225.590	0.104	-0.168
-427.603	-83.361	0.264	0.085
-426.588	145.650	-0.179	-0.239
-425.573	642.811	-0.145	-0.370
-424.559	27.980	-0.258	0.217
-423.544	-93.092	0.049	-0.014
-422.530	-6.589	0.146	-0.099
-421.515	-200.000	-0.021	0.181
-420.500	-96.053	-0.202	-0.054
-419.486	50.407	0.117	-0.111
-418.471	158.310	0.133	0.184
-417.457	-46.994	0.282	-0.138
-416.442	-19.091	-0.038	0.024
-415.428	219.835	0.051	-0.082
-414.413	-94.024	0.418	-0.115
-413.398	113.688	0.040	-0.049
-412.384	-73.343	-0.252	0.092
-411.369	274.923	0.177	-0.314
-410.355	-200.000	0.004	-0.256
-409.340	-200.000	0.029	-0.167
-408.325	800.000	0.043	0.132
-407.311	440.726	-0.145	0.316
-406.296	-200.000	-0.017	-0.295
-405.282	49.814	-0.232	-0.218
-404.267	-33.344	0.247	0.136
-403.252	-53.205	0.592	-0.271
-402.238	-200.000	-0.014	-0.213
-401.223	16.264	0.072	0.057
-400.209	-200.000	-0.050	-0.322
-399.194	-122.893	-0.296	0.048
-398.179	-104.524	0.233	0.054
-397.165	-68.569	-0.329	-0.127
-396.150	-68.936	0.377	-0.145
-395.136	-151.350	-0.168	0.012
-394.121	-102.955	0.102	0.024
-393.106	-41.199	0.161	0.083
-392.092	-200.000	-0.023	0.173
-391.077	-54.798	0.181	0.082
-390.063	-200.000	0.014	0.144
-389.048	-200.000	-0.031	-0.174
-388.033	800.000	0.138	0.408
-387.019	64.181	-0.257	0.258
-386.004	13.193	0.398	-0.307
-384.990	-19.554	0.119	0.074
-383.975	800.000	0.060	-0.248
-382.960	-80.864	0.283	0.094
-381.946	-75.994	-0.089	0.031
-380.931	116.625	0.163	0.199
-379.917	-200.000	0.015	0.309
-378.902	-97.425	-0.397	-0.103
-377.888	-172.427	-0.250	-0.008
-376.873	800.000	-0.011	0.046
-375.858	225.558	-0.096	-0.155
-374.844	248.236	-0.210	0.353
-373.829	117.789	0.328	0.403
-372.815	14.572	0.309	0.240
-371.800	-21.973	-0.128	0.078
-370.785	-58.191	-0.279	-0.121
-369.771	800.000	-0.126	-0.353
-368.756	373.678	0.111	-0.224
-367.742	-200.000	0.002	0.047
-366.727	-200.000	-0.025	0.182
-365.712	110.456	0.084	0.101
-364.698	-200.000	0.006	-0.073
-363.683	28.570	0.324	0.273
-362.669	-67.439	-0.045	0.018
-361.654	19.490	-0.147	-0.118
-360.639	612.540	-0.066	0.165
-359.625	-200.000	-0.013	-0.149
-358.610	-200.000	0.058	-0.266
-357.596	169.471	-0.087	0.123
-356.581	63.679	-0.174	0.174
-355.566	-150.286	-0.176	-0.014
-354.552	-139.088	-0.350	-0.038
-353.537	-80.009	-0.225	-0.075
-352.523	-104.191	-0.258	-0.060
-351.508	-122.539	-0.359	0.058
-350.493	-72.422	0.307	0.113
-349.479	543.731	0.001	-0.002
-348.464	-50.575	0.175	-0.082
-347.450	-11.464	0.285	-0.187
-346.435	98.808	-0.032	-0.037
-345.420	-29.783	-0.180	0.102
-344.406	-10.266	0.273	0.181
-343.391	-187.618	-0.084	-0.001
-342.377	800.000	0.099	-0.429
-341.362	-163.226	-0.095	-0.005
-340.348	-40.472	-0.019	-0.010
-339.333	800.000	-0.057	-0.192
-338.318	-23.434	-0.252	0.151
-337.304	44.403	0.130	0.119
-336.289	546.099	-0.090	0.213
-335.275	-200.000	-0.059	0.265
-334.260	0.076	-0.267	0.189
-333.245	201.492	0.194	0.297
-332.231	800.000	-0.074	0.211
-331.216	-200.000	-0.004	0.245
-330.202	800.000	-0.054	-0.179
-329.187	761.596	-0.046	-0.124
-328.172	90.105	-0.187	0.208
-327.158	47.007	-0.128	0.119
-326.143	800.000	-0.062	0.219
-325.129	55.063	0.249	-0.240
-324.114	241.440	0.145	-0.241
-323.099	-54.270	-0.477	-0.215
-322.085	287.134	-0.089	-0.160
-321.070	559.227	0.069	-0.166
-320.056	-125.722	-0.278	0.042
-319.041	-137.804	0.320	0.036
-318.026	1.768	0.081	0.058
-317.012	489.377	0.032	0.073
-315.997	322.655	-0.160	-0.302
-314.983	317.501	-0.069	0.131
-313.968	-55.160	0.342	-0.153
-312.953	-109.992	0.257	-0.053
-311.939	-41.971	0.254	-0.129
-310.924	138.146	-0.138	0.180
-309.910	800.000	0.096	0.325
-308.895	-200.000	-0.048	0.259
-307.880	-98.980	-0.071	0.018
-306.866	-200.000	-0.003	-0.117
-305.851	-173.763	-0.376	0.011
-304.837	800.000	-0.054	0.170
-303.822	-148.495	0.193	0.016
-302.807	-140.145	0.484	-0.050
-301.793	-10.081	-0.482	0.318
-300.778	410.704	-0.171	0.360
-299.764	444.461	-0.118	0.257
-298.749	-200.000	0.052	0.280
-297.735	163.913	-0.151	-0.212
-296.720	225.357	0.061	-0.098
-295.705	-162.813	-0.257	0.012
-294.691	44.054	0.230	-0.210
-293.676	-50.590	0.073	-0.034
-292.662	-200.000	0.025	-0.162
-291.647	-27.739	-0.097	-0.056
-290.632	-84.940	0.108	0.034
-289.618	800.000	0.055	0.154
-288.603	51.602	-0.362	-0.342
-287.589	535.982	-0.106	0.249
-286.574	-108.463	-0.421	0.090
-285.559	-93.326	0.347	0.096
-284.545	-104.724	0.052	-0.012
-283.530	-83.647	-0.042	-0.013
-282.516	-148.611	-0.103	-0.008
-281.501	2.672	-0.237	-0.171
-280.486	213.780	-0.090	-0.141
-279.472	-75.344	-0.201	0.071
-278.457	-72.845	0.388	0.142
-277.443	-54.846	-0.540	0.242
-276.428	-152.970	-0.132	0.009
-275.413	50.196	-0.099	-0.093
-274.399	255.709	0.017	-0.029
-273.384	-200.000	-0.115	0.000
-272.370	77.379	0.219	0.231
-271.355	-71.263	-0.050	-0.019
-270.340	-21.310	0.338	0.205
-269.326	481.042	-0.168	-0.378
-268.311	108.277	-0.085	0.101
-267.297	800.000	0.050	0.149
-266.282	-200.000	-0.070	-0.448
-265.267	800.000	0.102	-0.308
-264.253	4.781	-0.221	-0.161
-263.238	800.000	-0.033	-0.094
-262.224	800.000	0.016	0.059
-261.209	17.028	-0.213	0.167
-260.195	4.475	0.132	-0.096
-259.180	60.652	-0.130	0.128
-258.165	561.832	0.145	0.349
-257.151	-200.000	-0.005	0.253
-256.136	-122.970	-0.338	-0.054
-255.122	-159.715	0.173	-0.009
-254.107	-80.372	-0.161	0.053
-253.092	-12.202	0.204	-0.132
-252.078	250.154	-0.139	-0.234
-251.063	-200.000	0.028	0.212
-250.049	297.337	-0.084	0.154
-249.034	-200.000	-0.013	-0.263
-248.019	-200.000	-0.058	0.382
-247.005	-38.437	0.126	-0.066
-245.990	-156.918	-0.252	-0.015
-244.976	-200.000	-0.058	0.309
-243.961	-97.203	0.380	0.098
-242.946	-200.000	0.023	0.120
-241.932	-49.045	0.367	0.174
-240.917	-200.000	-0.027	0.209
-239.903	241.974	-0.137	0.228
-238.888	281.811	0.021	-0.037
-237.873	-200.000	-0.023	0.190
-236.859	11.175	0.273	0.207
-235.844	105.475	0.244	-0.286
-234.830	-194.352	-0.296	0.002
-233.815	-123.402	-0.116	-0.018
-232.800	527.691	0.025	-0.059
-231.786	-135.703	-0.311	-0.037
-230.771	-200.000	-0.022	-0.095
-229.757	-27.428	0.127	0.073
-228.742	-200.000	-0.004	-0.034
-227.727	-3.261	0.237	-0.164
-226.713	23.514	0.222	0.181
-225.698	-85.488	-0.222	0.069
-224.684	800.000	0.091	-0.311
-223.669	-200.000	0.019	0.184
-222.655	-200.000	0.010	0.047
-221.640	-83.592	-0.261	0.083
-220.625	-141.631	-0.232	-0.023
-219.611	-129.913	-0.154	-0.021
-218.596	-38.198	-0.257	0.135
-217.582	178.619	-0.137	0.198
-216.567	-7.025	0.205	-0.138
-215.552	-200.000	0.061	-0.406
-214.538	-200.000	-0.007	-0.187
-213.523	-4.352	-0.207	-0.142
-212.509	9.914	0.165	-0.124
-211.494	-52.132	0.314	-0.144
-210.479	-200.000	0.050	0.329
-209.465	-200.000	-0.008	0.280
-208.450	219.151	0.084	-0.132
-207.436	800.000	-0.029	0.098
-206.421	234.845	0.078	0.128
-205.406	-114.078	0.321	0.061
-204.392	800.000	0.072	-0.198
-203.377	-200.000	0.025	0.132
-202.363	127.319	-0.271	0.341
-201.348	498.101	-0.021	0.047
-200.333	-200.000	-0.008	0.109
-199.319	46.112	0.374	0.343
-198.304	254.645	0.168	0.284
-197.290	-200.000	0.029	0.335
-196.275	-75.691	-0.258	-0.091
-195.260	-123.365	0.131	0.021
-194.246	235.592	0.065	-0.106
-193.231	397.139	-0.052	-0.108
-192.217	-133.855	0.248	0.031
-191.202	37.809	0.160	-0.141
-190.187	-173.929	-0.137	0.004
-189.173	-14.357	0.081	0.051
-188.158	-157.033	0.346	-0.021
-187.144	-200.000	-0.029	0.138
-186.129	800.000	0.065	0.204
-185.114	-28.059	-0.047	0.027
-184.100	552.075	-0.050	0.119
-183.085	-200.000	-0.048	0.256
-182.071	-167.850	-0.069	-0.003
-181.056	800.000	0.019	0.057
-180.042	673.774	-0.088	0.225
-179.027	35.501	-0.152	-0.132
-178.012	97.486	-0.169	0.192
-176.998	-200.000	-0.016	-0.125
-175.983	158.689	-0.115	0.158
-174.969	-200.000	-0.007	-0.111
-173.954	-4.767	0.303	0.207
-172.939	-105.320	-0.241	-0.054
-171.925	-200.000	-0.018	0.312
-170.910	0.585	0.121	0.086
-169.896	-200.000	0.045	-0.302
-168.881	-190.798	0.093	0.001
-167.866	129.508	-0.102	-0.129
-166.852	118.098	-0.078	-0.095
-165.837	183.722	0.185	-0.271
-164.823	-46.885	-0.157	-0.076
-163.808	19.480	0.302	0.240
-162.793	-41.165	0.223	0.114
-161.779	800.000	0.044	-0.141
-160.764	14.821	-0.355	0.274
-159.750	108.292	-0.095	0.112
-158.735	-200.000	-0.008	0.207
-157.720	72.203	-0.174	-0.179
-156.706	-90.625	0.201	0.057
-155.691	-200.000	-0.053	0.308
-154.677	-163.007	0.197	-0.009
-153.662	-141.919	-0.418	0.041
-152.647	219.283	0.070	0.110
-151.633	-50.368	0.137	-0.064
-150.618	377.446	0.154	-0.310
-149.604	-53.896	-0.347	0.156
-148.589	-70.548	0.255	0.095
-147.574	17.329	0.204	-0.160
-146.560	230.711	0.132	0.213
-145.545	289.851	-0.139	0.248
-144.531	-10.441	0.235	-0.154
-143.516	-59.615	-0.136	0.058
-142.502	-158.065	0.214	0.012
-141.487	89.843	0.093	0.103
-140.472	-7.908	0.191	0.128
-139.458	-43.191	-0.206	-0.103
-138.443	800.000	-0.057	0.165
-137.429	-200.000	0.010	0.111
-136.414	39.089	0.395	-0.349
-135.399	-200.000	-0.010	0.134
-134.385	52.901	-0.135	0.128
-133.370	-182.637	0.264	0.005
-132.356	-70.397	0.102	0.038
-131.341	-134.377	-0.255	-0.031
-130.326	-70.825	0.103	-0.038
-129.312	800.000	-0.058	-0.169
-128.297	-151.788	0.339	0.025
-127.283	45.869	-0.095	0.087
-126.268	-34.618	0.194	-0.105
-125.253	65.621	0.121	0.121
-124.239	-94.374	-0.218	-0.059
-123.224	-150.830	-0.109	0.008
-122.210	-58.091	0.229	0.098
