DTS Sentinel unit serial number:	SN413079Multiplexer serial number:	ORYXHardware model number:	OX4-SRSoftware version number:	ORYX F/W v4.00 Oryx Data Collector v3.7.2.0data status	okinstallation	princeton_trtdifferential loss correction	single-endedforward channel	channel 3reverse channel	N/Adate	2019/09/18time	17:36:34forward acquisition time	60.00reverse acquisition time	0.00gamma	496.2192k internal	0.2292k external	0.2292temperature offset calibration	0.9990default loss term (dB/km)	0.3790temperature slope calibration	1.0000multiplexer offset coefficient	1.0000multiplexer slope coefficient	1.0000fibre end	0.00T internal ref (°C)	40.25T ext. ref 1 (°C)	0.89T ext. ref 2 (°C)	35.44length (m)	temperature (°C)	Stokes	anti-Stokes-747.200	-132.426	0.021	0.003
-746.185	-200.000	-0.006	0.102
-745.171	299.962	0.164	0.309
-744.156	-200.000	0.035	0.481
-743.142	186.567	0.067	0.103
-742.127	-35.747	0.119	0.066
-741.112	-200.000	-0.019	0.194
-740.098	167.079	-0.138	0.201
-739.083	545.471	-0.095	0.233
-738.069	-200.000	-0.009	0.248
-737.054	-67.566	-0.253	0.101
-736.039	-122.253	-0.310	-0.052
-735.025	-134.030	0.280	0.035
-734.010	-200.000	-0.019	-0.097
-732.996	312.980	-0.111	0.214
-731.981	-119.917	-0.184	0.032
-730.966	-53.588	0.050	0.023
-729.952	-91.090	-0.441	0.130
-728.937	-79.383	-0.102	-0.035
-727.923	50.969	-0.134	0.130
-726.908	-116.277	-0.090	0.017
-725.894	-200.000	-0.076	-0.359
-724.879	445.263	0.039	-0.088
-723.864	800.000	0.171	-0.565
-722.850	-33.549	-0.284	-0.160
-721.835	-200.000	0.009	-0.259
-720.821	-136.595	0.367	0.043
-719.806	800.000	0.045	-0.154
-718.791	800.000	-0.044	-0.135
-717.777	276.211	-0.100	-0.182
-716.762	82.322	0.060	-0.067
-715.748	-82.641	-0.185	0.061
-714.733	-200.000	-0.001	-0.077
-713.718	800.000	-0.093	0.400
-712.704	379.183	-0.078	0.163
-711.689	-1.853	0.063	0.046
-710.675	-200.000	-0.012	-0.313
-709.660	-200.000	0.052	-0.314
-708.645	-31.453	-0.333	-0.192
-707.631	164.172	0.083	0.120
-706.616	570.316	0.093	-0.231
-705.602	-39.187	-0.247	0.132
-704.587	-148.911	0.397	-0.033
-703.572	218.987	-0.034	0.055
-702.558	155.910	0.150	-0.212
-701.543	-200.000	-0.101	-0.520
-700.529	-200.000	-0.024	-0.168
-699.514	800.000	-0.131	-0.443
-698.499	-57.474	-0.039	-0.018
-697.485	-200.000	-0.031	-0.186
-696.470	544.847	-0.110	-0.269
-695.456	-133.992	0.133	0.017
-694.441	236.213	-0.049	-0.083
-693.426	184.839	0.133	0.201
-692.412	28.921	-0.149	0.129
-691.397	-179.913	0.198	-0.004
-690.383	1.774	0.172	-0.127
-689.368	-87.113	0.148	0.046
-688.354	311.878	-0.135	-0.258
-687.339	379.612	0.089	-0.186
-686.324	-56.374	0.145	0.066
-685.310	-177.391	0.117	0.003
-684.295	800.000	-0.063	0.179
-683.281	608.048	0.106	-0.271
-682.266	-53.142	0.340	-0.159
-681.251	-40.786	0.177	0.093
-680.237	-139.423	-0.069	-0.008
-679.222	-200.000	-0.059	0.281
-678.208	428.288	-0.111	-0.244
-677.193	19.987	-0.165	-0.136
-676.178	-146.658	0.169	0.015
-675.164	734.675	-0.022	0.060
-674.149	16.892	-0.034	-0.028
-673.135	499.143	0.199	-0.469
-672.120	107.712	0.180	-0.219
-671.105	-200.000	0.021	0.258
-670.091	-43.678	-0.420	0.216
-669.076	-197.165	-0.323	-0.002
-668.062	-82.840	-0.103	0.034
-667.047	-81.423	0.173	-0.058
-666.032	-42.854	-0.259	0.134
-665.018	-200.000	-0.003	0.156
-664.003	-5.671	0.294	0.206
-662.989	-12.918	-0.204	0.135
-661.974	-109.134	-0.245	-0.053
-660.959	11.297	0.128	0.100
-659.945	-5.538	0.059	0.041
-658.930	-100.385	-0.139	0.035
-657.916	83.859	0.152	-0.169
-656.901	26.280	0.164	0.140
-655.886	417.222	0.117	0.254
-654.872	109.323	-0.201	-0.245
-653.857	-15.539	-0.377	-0.246
-652.843	191.297	-0.192	0.294
-651.828	17.618	0.052	-0.042
-650.814	136.979	0.319	-0.425
-649.799	-23.625	0.306	-0.187
-648.784	800.000	0.051	0.179
-647.770	64.585	0.243	0.250
-646.755	618.316	-0.087	0.223
-645.741	-83.190	0.179	0.059
-644.726	800.000	0.018	-0.050
-643.711	-65.228	-0.204	-0.084
-642.697	-68.697	0.350	0.138
-641.682	121.693	-0.103	-0.130
-640.668	42.278	-0.093	-0.086
-639.653	-200.000	-0.017	-0.093
-638.638	-176.475	0.046	-0.001
-637.624	800.000	0.058	0.236
-636.609	-80.886	-0.108	-0.036
-635.595	549.392	-0.124	-0.303
-634.580	40.158	0.154	-0.141
-633.565	-79.280	0.219	-0.075
-632.551	676.569	0.075	-0.198
-631.536	-200.000	0.046	0.504
-630.522	6.570	0.162	0.123
-629.507	454.744	0.148	0.335
-628.492	-73.944	0.128	0.047
-627.478	25.898	-0.295	-0.251
-626.463	262.541	0.067	0.119
-625.449	240.949	-0.231	0.393
-624.434	-94.291	-0.393	0.110
-623.419	117.031	-0.146	-0.183
-622.405	-200.000	0.054	-0.290
-621.390	-150.807	0.405	-0.031
-620.376	108.840	-0.099	-0.120
-619.361	-22.724	-0.203	0.125
-618.346	343.380	-0.092	0.184
-617.332	232.153	0.035	0.059
-616.317	-81.371	-0.429	-0.144
-615.303	-136.550	-0.091	-0.011
-614.288	69.699	0.186	-0.195
-613.273	77.662	-0.141	-0.153
-612.259	-182.678	0.018	-0.000
-611.244	800.000	-0.007	0.030
-610.230	800.000	-0.083	-0.358
-609.215	234.455	-0.046	-0.077
-608.201	178.364	0.101	0.150
-607.186	-200.000	-0.038	-0.273
-606.171	-56.783	-0.357	0.161
-605.157	-125.754	-0.174	0.027
-604.142	-129.408	-0.132	-0.019
-603.128	-200.000	-0.034	0.293
-602.113	800.000	0.061	-0.226
-601.098	-8.639	0.117	0.080
-600.084	-200.000	0.071	-0.365
-599.069	-21.885	-0.279	0.173
-598.055	726.613	0.118	0.319
-597.040	-200.000	0.006	0.716
-596.025	143.140	-0.050	-0.068
-595.011	-48.766	-0.150	-0.073
-593.996	-109.332	-0.151	-0.033
-592.982	800.000	0.093	0.266
-591.967	768.557	0.173	-0.480
-590.952	64.001	0.231	-0.236
-589.938	145.501	-0.084	-0.114
-588.923	-16.017	-0.221	-0.143
-587.909	341.903	-0.065	0.130
-586.894	-82.322	0.208	0.069
-585.879	194.043	0.039	-0.061
-584.865	223.022	-0.209	-0.343
-583.850	-71.836	0.145	-0.055
-582.836	-46.215	0.297	0.149
-581.821	213.880	-0.130	-0.209
-580.806	210.125	0.150	0.240
-579.792	-200.000	-0.019	-0.303
-578.777	800.000	0.037	0.157
-577.763	-106.857	0.124	0.028
-576.748	80.879	0.123	0.135
-575.733	-97.754	0.077	0.020
-574.719	74.965	-0.078	0.084
-573.704	124.453	0.277	0.354
-572.690	-53.681	-0.059	-0.027
-571.675	10.650	0.276	0.214
-570.661	-12.891	0.343	0.227
-569.646	-193.125	-0.430	-0.004
-568.631	476.452	-0.078	-0.179
-567.617	76.754	-0.090	-0.098
-566.602	800.000	0.031	-0.132
-565.588	11.248	0.192	0.149
-564.573	271.459	-0.077	0.138
-563.558	523.480	0.160	-0.382
-562.544	-200.000	-0.004	0.070
-561.529	-120.066	0.138	0.024
-560.515	22.376	0.179	0.149
-559.500	-131.470	0.393	0.053
-558.485	-21.130	0.122	-0.076
-557.471	140.750	0.052	0.070
-556.456	-200.000	0.046	-0.307
-555.442	-200.000	-0.035	-0.189
-554.427	315.583	-0.128	0.245
-553.412	-53.264	0.253	0.118
-552.398	800.000	-0.053	0.161
-551.383	-200.000	-0.010	0.164
-550.369	-170.453	0.372	0.013
-549.354	10.300	-0.296	-0.229
-548.339	800.000	-0.110	-0.324
-547.325	573.362	-0.058	0.144
-546.310	19.835	0.076	0.063
-545.296	-82.907	0.203	0.067
-544.281	783.048	0.093	-0.259
-543.266	36.097	-0.222	-0.198
-542.252	-3.648	-0.199	-0.141
-541.237	-200.000	0.022	0.129
-540.223	-200.000	-0.007	0.080
-539.208	800.000	0.021	0.090
-538.193	-19.728	0.106	-0.067
-537.179	531.424	0.073	0.175
-536.164	114.469	-0.087	-0.107
-535.150	-163.332	0.051	0.002
-534.135	88.816	0.166	-0.188
-533.121	-47.629	-0.234	-0.115
-532.106	-48.582	-0.385	-0.188
-531.091	-200.000	0.004	0.155
-530.077	-120.382	0.061	0.011
-529.062	-146.715	0.046	-0.004
-528.048	-200.000	0.014	0.090
-527.033	-200.000	0.004	-0.158
-526.018	-99.862	-0.193	-0.049
-525.004	800.000	0.073	0.213
-523.989	574.201	0.081	-0.200
-522.975	800.000	-0.088	0.308
-521.960	-67.783	-0.495	-0.197
-520.945	-125.195	-0.159	0.025
-519.931	734.981	-0.124	-0.338
-518.916	-125.697	0.086	0.013
-517.902	-20.416	-0.100	-0.062
-516.887	-200.000	-0.033	0.184
-515.872	-29.914	-0.183	0.106
-514.858	21.806	-0.292	-0.242
-513.843	596.377	0.078	-0.195
-512.829	800.000	0.058	-0.193
-511.814	-142.860	-0.177	0.017
-510.799	323.015	-0.046	0.089
-509.785	-134.811	0.145	-0.018
-508.770	-200.000	-0.012	-0.128
-507.756	-40.520	-0.273	-0.144
-506.741	27.830	-0.131	-0.112
-505.726	48.164	0.449	-0.426
-504.712	800.000	0.052	-0.163
-503.697	3.432	0.020	0.015
-502.683	179.222	-0.218	-0.324
-501.668	166.619	0.049	-0.070
-500.653	80.496	0.173	0.189
-499.639	-145.091	-0.526	0.048
-498.624	571.731	-0.109	0.270
-497.610	-30.749	-0.116	-0.066
-496.595	13.944	0.235	0.186
-495.581	119.736	0.317	-0.399
-494.566	-143.794	-0.116	0.011
-493.551	26.951	-0.183	-0.156
-492.537	800.000	-0.004	-0.016
-491.522	186.123	-0.152	0.229
-490.508	800.000	-0.026	-0.079
-489.493	494.782	0.112	-0.260
-488.478	-175.248	0.277	-0.008
-487.464	-75.552	-0.254	0.092
-486.449	-152.549	0.088	-0.006
-485.435	-126.468	0.219	-0.033
-484.420	-25.787	0.097	0.058
-483.405	-39.276	0.195	-0.104
-482.391	-100.243	-0.249	0.063
-481.376	-7.542	0.270	-0.185
-480.362	-200.000	-0.043	-0.375
-479.347	800.000	-0.028	-0.110
-478.332	78.280	0.156	0.169
-477.318	-141.860	0.151	-0.015
-476.303	-61.039	-0.289	0.124
-475.289	230.893	0.093	0.154
-474.274	-160.042	-0.097	-0.005
-473.259	800.000	-0.078	-0.275
-472.245	-146.027	0.259	-0.023
-471.230	-200.000	-0.059	0.319
-470.216	-20.607	-0.202	-0.126
-469.201	-200.000	-0.020	-0.238
-468.186	800.000	-0.061	-0.241
-467.172	725.537	-0.069	-0.186
-466.157	-86.016	0.336	0.105
-465.143	-129.923	0.110	0.015
-464.128	-105.124	0.262	-0.061
-463.113	126.215	0.152	0.194
-462.099	-11.031	0.186	0.124
-461.084	-142.851	-0.216	-0.021
-460.070	107.159	0.125	0.151
-459.055	-20.390	0.603	-0.375
-458.040	143.174	0.132	-0.178
-457.026	728.866	0.066	0.178
-456.011	-17.850	0.286	-0.182
-454.997	96.593	0.065	-0.075
-453.982	-200.000	0.010	-0.231
-452.968	-200.000	-0.006	-0.169
-451.953	144.336	-0.039	-0.053
-450.938	-200.000	0.019	0.359
-449.924	-93.854	-0.436	-0.121
-448.909	-67.984	-0.098	0.039
-447.895	-165.558	0.071	-0.003
-446.880	-93.231	-0.213	-0.060
-445.865	-72.229	0.301	-0.113
-444.851	-200.000	-0.001	-0.255
-443.836	800.000	0.011	-0.033
-442.822	-200.000	-0.017	-0.112
-441.807	46.251	-0.126	-0.118
-440.792	-7.798	0.116	-0.079
-439.778	-200.000	0.019	0.120
-438.763	94.481	0.200	-0.230
-437.749	-29.556	-0.115	0.067
-436.734	690.025	-0.021	0.056
-435.719	117.733	-0.193	0.241
-434.705	1.054	0.035	0.025
-433.690	800.000	0.027	0.114
-432.676	-0.649	0.106	-0.076
-431.661	-32.284	0.226	-0.128
-430.646	-139.717	0.239	-0.026
-429.632	138.822	0.039	-0.052
-428.617	-97.709	0.204	-0.054
-427.603	-19.105	0.222	-0.139
-426.588	-103.763	0.061	0.014
-425.573	715.006	-0.119	0.320
-424.559	49.190	-0.228	0.217
-423.544	608.562	0.105	-0.266
-422.530	-200.000	0.005	0.322
-421.515	800.000	-0.020	0.065
-420.500	-3.146	0.375	0.264
-419.486	603.040	-0.058	0.145
-418.471	-130.354	-0.255	-0.035
-417.457	-115.719	-0.185	-0.035
-416.442	312.570	0.127	-0.241
-415.428	-30.345	-0.056	-0.032
-414.413	-200.000	-0.005	-0.126
-413.398	-200.000	-0.051	0.333
-412.384	-109.954	-0.254	-0.054
-411.369	-200.000	0.004	0.075
-410.355	247.210	-0.078	0.132
-409.340	-78.566	-0.145	0.050
-408.325	-200.000	0.002	-0.096
-407.311	-127.083	-0.249	0.037
-406.296	27.346	-0.175	-0.149
-405.282	-200.000	-0.064	0.286
-404.267	109.514	0.150	0.181
-403.252	319.150	-0.086	-0.164
-402.238	528.938	-0.027	-0.064
-401.223	800.000	0.071	0.291
-400.209	-68.914	-0.107	0.042
-399.194	-190.178	0.109	-0.001
-398.179	29.781	0.234	0.201
-397.165	380.538	-0.072	0.148
-396.150	-113.119	0.273	-0.054
-395.136	-24.033	0.196	-0.118
-394.121	61.887	-0.183	0.184
-393.106	-84.028	0.300	0.096
-392.092	-35.774	0.102	-0.056
-391.077	-141.120	0.247	0.025
-390.063	-51.365	0.125	0.059
-389.048	384.471	-0.043	0.090
-388.033	228.769	-0.074	0.122
-387.019	110.064	-0.127	0.153
-386.004	68.776	0.059	0.061
-384.990	757.373	-0.120	0.327
-383.975	-200.000	0.018	-0.331
-382.960	302.284	-0.172	-0.321
-381.946	-176.317	-0.073	0.002
-380.931	61.618	-0.270	-0.271
-379.917	-98.659	-0.290	-0.075
-378.902	-57.538	-0.148	0.066
-377.888	-65.323	-0.215	-0.087
-376.873	-119.656	0.121	0.021
-375.858	-200.000	-0.051	-0.479
-374.844	800.000	0.048	0.189
-373.829	-200.000	-0.006	0.191
-372.815	-83.525	0.182	0.059
-371.800	469.076	-0.061	0.138
-370.785	-49.197	-0.173	0.083
-369.771	-0.373	-0.056	0.040
-368.756	342.722	0.074	-0.146
-367.742	-76.092	-0.118	-0.042
-366.727	41.971	-0.140	-0.128
-365.712	197.433	0.105	-0.161
-364.698	257.615	0.156	0.270
-363.683	-152.438	-0.260	-0.019
-362.669	-108.643	-0.298	-0.064
-361.654	-200.000	0.013	-0.083
-360.639	-59.478	-0.145	0.063
-359.625	-72.449	-0.082	0.031
-358.610	-200.000	0.003	-0.204
-357.596	-101.785	0.130	-0.032
-356.581	-200.000	0.054	0.367
-355.566	-0.733	0.100	-0.071
-354.552	-200.000	0.156	-0.000
-353.537	-200.000	-0.078	0.465
-352.523	-45.302	-0.218	-0.109
-351.508	-106.892	0.197	0.044
-350.493	131.097	-0.249	0.322
-349.479	183.192	-0.156	0.232
-348.464	209.353	-0.040	-0.064
-347.450	292.531	0.088	-0.161
-346.435	-6.660	0.282	-0.193
-345.420	-49.261	-0.141	0.068
-344.406	100.860	-0.202	0.236
-343.391	-129.389	0.284	0.040
-342.377	112.453	0.268	-0.327
-341.362	-200.000	-0.005	-0.119
-340.348	-35.150	-0.148	0.081
-339.333	279.840	0.149	-0.268
-338.318	-200.000	0.042	-0.356
-337.304	-200.000	0.169	-0.000
-336.289	-105.847	-0.231	0.053
-335.275	271.119	0.019	0.034
-334.260	-144.105	-0.188	0.018
-333.245	-94.739	-0.166	0.046
-332.231	281.352	-0.083	0.149
-331.216	-88.703	0.105	0.031
-330.202	46.114	0.227	-0.211
-329.187	86.030	0.166	0.184
-328.172	-200.000	-0.039	-0.208
-327.158	-200.000	0.019	0.128
-326.143	629.862	0.126	0.320
-325.129	-0.568	-0.151	0.108
-324.114	-79.401	0.217	0.074
-323.099	255.313	-0.025	0.044
-322.085	-116.601	0.101	-0.019
-321.070	-74.323	-0.161	-0.058
-320.056	-140.898	-0.419	-0.043
-319.041	205.218	0.061	-0.095
-318.026	-94.209	0.434	0.120
-317.012	-45.945	0.217	0.108
-315.997	76.801	0.254	-0.272
-314.983	-79.206	0.220	0.075
-313.968	-135.331	-0.130	0.016
-312.953	77.161	-0.110	0.117
-311.939	210.141	0.219	0.347
-310.924	-200.000	-0.004	0.153
-309.910	-200.000	0.075	0.407
-308.895	109.394	0.025	-0.030
-307.880	-161.608	-0.310	0.016
-306.866	-200.000	0.016	0.099
-305.851	-139.367	0.117	-0.013
-304.837	379.907	-0.124	0.256
-303.822	1.432	-0.172	-0.125
-302.807	-142.690	-0.084	0.008
-301.793	800.000	-0.073	0.259
-300.778	-85.455	0.155	-0.049
-299.764	-147.609	-0.284	-0.024
-298.749	60.978	0.145	-0.144
-297.735	-37.667	-0.102	0.055
-296.720	-27.098	0.075	-0.044
-295.705	571.972	0.034	0.083
-294.691	-200.000	0.025	-0.319
-293.676	-129.741	0.089	-0.012
-292.662	-200.000	-0.164	0.000
-291.647	-134.386	0.309	0.038
-290.632	-41.458	0.111	-0.058
-289.618	-7.703	-0.391	-0.266
-288.603	-77.529	-0.288	0.100
-287.589	189.692	0.171	0.258
-286.574	125.243	-0.228	0.289
-285.559	30.226	-0.080	-0.068
-284.545	-41.189	0.112	0.058
-283.530	-122.267	-0.178	-0.029
-282.516	-165.804	-0.432	-0.019
-281.501	-200.000	0.007	-0.365
-280.486	-200.000	0.067	0.317
-279.472	-200.000	-0.330	-0.002
-278.457	0.300	-0.367	0.263
-277.443	-200.000	0.043	0.410
-276.428	800.000	-0.036	0.113
-275.413	-200.000	-0.045	-0.222
-274.399	209.580	-0.132	0.209
-273.384	-10.448	-0.386	0.257
-272.370	-54.592	-0.160	0.073
-271.355	-200.000	0.038	-0.427
-270.340	144.285	-0.147	-0.197
-269.326	160.713	-0.268	-0.376
-268.311	-64.422	0.209	0.085
-267.297	-200.000	0.025	-0.125
-266.282	-48.249	0.057	0.028
-265.267	247.547	0.066	0.111
-264.253	-14.473	0.124	0.080
-263.238	133.523	0.109	0.142
-262.224	-200.000	0.004	0.064
-261.209	20.038	-0.170	-0.138
-260.195	-52.949	0.200	0.093
-259.180	429.085	0.151	-0.328
-258.165	519.626	-0.145	-0.341
-257.151	800.000	-0.062	-0.214
-256.136	30.337	-0.220	-0.188
-255.122	-90.565	-0.268	0.078
-254.107	-145.133	0.210	-0.019
-253.092	-23.372	0.298	-0.180
-252.078	-30.149	0.106	-0.061
-251.063	-87.483	0.194	0.059
-250.049	-93.044	0.405	0.113
-249.034	478.057	-0.133	-0.303
-248.019	73.784	0.117	0.123
-247.005	800.000	-0.212	0.630
-245.990	-200.000	0.057	0.273
-244.976	-39.068	0.150	0.079
-243.961	90.247	0.062	-0.070
-242.946	800.000	-0.032	0.141
-241.932	132.792	-0.201	0.260
-240.917	-200.000	0.005	0.152
-239.903	669.916	0.055	0.142
-238.888	507.054	0.053	-0.123
-237.873	-200.000	0.001	0.278
-236.859	-200.000	-0.002	-0.043
-235.844	-200.000	0.024	-0.125
-234.830	43.265	-0.046	-0.042
-233.815	800.000	0.047	-0.177
-232.800	37.760	0.181	-0.161
-231.786	800.000	-0.049	-0.136
-230.771	-63.602	0.332	0.137
-229.757	111.967	-0.164	0.199
-228.742	-40.769	0.093	0.048
-227.727	212.881	-0.092	-0.146
-226.713	-12.920	0.087	-0.057
-225.698	-149.135	0.140	0.011
-224.684	225.106	-0.097	-0.157
-223.669	636.910	0.037	-0.094
-222.655	103.521	0.281	0.331
-221.640	-83.342	0.277	0.089
-220.625	451.308	0.064	-0.143
-219.611	800.000	-0.038	-0.157
-218.596	79.934	0.145	-0.157
-217.582	-200.000	0.034	0.273
-216.567	-200.000	-0.038	0.201
-215.552	-200.000	-0.006	0.083
-214.538	-200.000	-0.084	0.371
-213.523	800.000	0.028	-0.109
-212.509	-35.361	-0.063	-0.034
-211.494	-200.000	0.012	0.092
-210.479	35.309	0.310	0.272
-209.465	-89.153	0.217	-0.064
-208.450	-200.000	0.005	-0.077
-207.436	-200.000	-0.060	-0.278
-206.421	-200.000	-0.046	0.236
-205.406	-200.000	0.006	-0.129
-204.392	-200.000	0.064	0.355
-203.377	369.409	0.096	0.195
-202.363	154.847	-0.117	-0.162
-201.348	152.947	0.144	-0.197
-200.333	800.000	0.108	0.454
-199.319	-17.475	-0.348	-0.219
-198.304	498.682	-0.109	-0.251
-197.290	-200.000	0.005	0.030
-196.275	149.938	0.111	-0.151
-195.260	-97.014	0.180	0.047
-194.246	-80.368	-0.056	-0.019
-193.231	-153.324	-0.185	0.013
-192.217	10.083	0.208	0.158
-191.202	150.224	0.189	0.256
-190.187	-144.011	0.134	0.013
-189.173	-75.069	0.253	-0.091
-188.158	-200.000	-0.019	-0.103
-187.144	-19.590	-0.191	-0.118
-186.129	4.419	-0.334	0.245
-185.114	49.135	-0.220	0.207
-184.100	-120.664	0.040	-0.007
-183.085	98.032	-0.197	-0.227
-182.071	-37.138	-0.108	-0.058
-181.056	-49.364	0.119	0.057
-180.042	600.700	-0.141	0.350
-179.027	-89.272	0.199	-0.059
-178.012	33.361	0.334	-0.290
-176.998	-200.000	0.026	0.187
-175.983	-200.000	-0.038	0.225
-174.969	-200.000	-0.000	-0.182
-173.954	-26.590	-0.381	-0.223
-172.939	-53.193	-0.531	-0.244
-171.925	-76.499	-0.331	-0.117
-170.910	582.109	0.152	0.372
-169.896	800.000	-0.070	-0.232
-168.881	-170.126	-0.355	-0.013
-167.866	112.795	0.067	-0.081
-166.852	58.404	0.160	-0.157
-165.837	2.522	0.369	-0.267
-164.823	237.886	0.017	-0.028
-163.808	-200.000	-0.021	-0.365
-162.793	-200.000	-0.000	0.137
-161.779	-115.376	-0.382	-0.072
-160.764	174.676	-0.029	0.042
-159.750	99.595	0.177	0.205
-158.735	-159.293	-0.138	-0.008
-157.720	-39.453	-0.150	0.079
-156.706	-96.852	-0.341	-0.090
-155.691	800.000	0.055	-0.204
-154.677	-114.042	0.090	0.017
-153.662	28.394	0.306	-0.259
-152.647	438.248	-0.121	0.264
-151.633	800.000	0.063	0.188
-150.618	-200.000	0.031	-0.332
-149.604	128.647	0.159	-0.203
-148.589	97.239	0.122	0.140
-147.574	-200.000	-0.030	0.218
-146.560	114.745	0.205	-0.250
-145.545	732.931	0.078	0.208
-144.531	-112.304	0.211	-0.042
-143.516	-200.000	0.028	-0.161
-142.502	-115.130	0.316	0.060
-141.487	238.080	-0.238	-0.394
-140.472	319.692	-0.102	-0.193
-139.458	-33.971	0.162	-0.089
-138.443	-26.497	-0.134	-0.079
-137.429	-4.848	0.226	0.156
-136.414	800.000	-0.045	0.185
-135.399	-200.000	-0.005	0.033
-134.385	800.000	-0.054	-0.155
-133.370	-153.942	-0.069	0.005
-132.356	280.892	0.092	0.165
-131.341	-100.692	-0.172	-0.042
-130.326	-77.130	0.288	-0.100
-129.312	-83.486	0.327	-0.105
-128.297	178.276	-0.088	-0.129
-127.283	72.977	0.077	0.080
-126.268	800.000	0.085	0.257
-125.253	-200.000	-0.025	-0.215
-124.239	-180.948	-0.214	-0.004
-123.224	287.720	0.157	0.284
-122.210	-60.743	0.116	-0.049
