DTS Sentinel unit serial number:	SN413079Multiplexer serial number:	ORYXHardware model number:	OX4-SRSoftware version number:	ORYX F/W v4.00 Oryx Data Collector v3.7.2.0data status	okinstallation	princeton_trtdifferential loss correction	single-endedforward channel	channel 3reverse channel	N/Adate	2019/09/17time	07:44:35forward acquisition time	60.00reverse acquisition time	0.00gamma	496.2192k internal	0.2335k external	0.2335temperature offset calibration	0.9943default loss term (dB/km)	0.3790temperature slope calibration	1.0000multiplexer offset coefficient	1.0000multiplexer slope coefficient	1.0000fibre end	0.00T internal ref (°C)	27.16T ext. ref 1 (°C)	0.12T ext. ref 2 (°C)	22.00length (m)	temperature (°C)	Stokes	anti-Stokes-747.200	-59.407	-0.105	-0.045
-746.185	-200.000	0.028	0.160
-745.171	-61.116	0.191	0.081
-744.156	-68.568	-0.120	-0.047
-743.142	149.349	-0.075	-0.102
-742.127	-200.000	0.025	0.133
-741.112	295.260	0.049	-0.090
-740.098	604.857	-0.123	0.309
-739.083	-53.586	0.212	0.097
-738.069	800.000	-0.120	0.386
-737.054	18.845	-0.226	0.182
-736.039	-200.000	-0.006	0.055
-735.025	-135.652	-0.207	-0.025
-734.010	-1.712	0.042	-0.030
-732.996	11.276	-0.201	0.155
-731.981	-200.000	-0.001	-0.099
-730.966	66.873	-0.055	0.056
-729.952	-200.000	-0.001	0.189
-728.937	-68.660	0.261	0.101
-727.923	-108.498	-0.314	-0.068
-726.908	800.000	0.034	0.120
-725.894	-144.333	-0.227	-0.021
-724.879	305.889	-0.057	0.106
-723.864	625.661	-0.112	-0.283
-722.850	-34.930	-0.136	-0.075
-721.835	-200.000	-0.022	-0.164
-720.821	114.024	-0.041	-0.050
-719.806	72.011	0.346	0.362
-718.791	240.128	-0.283	-0.473
-717.777	-97.367	-0.164	0.043
-716.762	35.426	0.273	-0.241
-715.748	-98.324	-0.046	-0.012
-714.733	26.606	-0.178	0.149
-713.718	454.025	0.127	-0.282
-712.704	438.207	-0.114	0.250
-711.689	-108.917	-0.278	-0.060
-710.675	210.070	0.287	-0.452
-709.660	-200.000	-0.043	-0.329
-708.645	-32.702	-0.139	-0.077
-707.631	-123.031	-0.240	-0.039
-706.616	-7.359	0.087	-0.059
-705.602	-37.291	-0.243	-0.130
-704.587	-200.000	0.041	-0.244
-703.572	-124.542	-0.404	-0.063
-702.558	-200.000	0.011	-0.065
-701.543	800.000	-0.030	-0.115
-700.529	232.551	-0.218	0.359
-699.514	103.798	0.164	-0.193
-698.499	-9.658	-0.174	-0.116
-697.485	732.988	-0.043	-0.115
-696.470	161.038	0.241	-0.338
-695.456	381.434	-0.091	-0.187
-694.441	619.986	0.143	0.361
-693.426	-200.000	-0.009	0.230
-692.412	-127.646	-0.443	-0.064
-691.397	71.517	0.029	0.030
-690.383	368.263	-0.106	0.215
-689.368	-200.000	0.032	0.274
-688.354	558.293	-0.084	-0.203
-687.339	117.804	-0.196	-0.241
-686.324	116.925	0.223	-0.275
-685.310	-27.701	-0.172	0.100
-684.295	197.759	0.172	-0.263
-683.281	-200.000	-0.026	-0.167
-682.266	-50.005	-0.249	0.119
-681.251	112.368	-0.155	-0.188
-680.237	-13.746	-0.545	-0.353
-679.222	-200.000	-0.015	-0.171
-678.208	-95.748	0.154	0.041
-677.193	-180.381	0.215	0.004
-676.178	177.173	-0.106	0.154
-675.164	-200.000	0.048	-0.439
-674.149	800.000	-0.029	-0.112
-673.135	-97.920	-0.212	0.055
-672.120	-81.978	0.173	0.057
-671.105	-200.000	-0.003	-0.323
-670.091	-200.000	-0.043	-0.224
-669.076	-124.670	0.375	-0.058
-668.062	-97.269	0.207	0.054
-667.047	-88.534	-0.093	0.028
-666.032	-137.449	0.078	0.009
-665.018	217.910	-0.090	-0.144
-664.003	475.045	0.161	-0.365
-662.989	800.000	0.048	-0.197
-661.974	82.011	0.106	0.115
-660.959	-1.441	-0.347	-0.245
-659.945	49.141	-0.133	0.125
-658.930	203.803	-0.136	-0.210
-657.916	-45.254	0.215	-0.107
-656.901	-84.890	-0.269	-0.084
-655.886	-85.906	0.141	0.044
-654.872	-85.057	0.082	0.026
-653.857	-46.863	0.084	-0.041
-652.843	-61.343	-0.381	0.161
-651.828	-200.000	-0.012	-0.180
-650.814	475.232	0.075	-0.171
-649.799	-196.597	-0.232	0.002
-648.784	-200.000	0.212	-0.000
-647.770	-54.986	-0.163	0.073
-646.755	663.158	-0.086	0.222
-645.741	-200.000	0.038	0.170
-644.726	35.750	-0.121	-0.107
-643.711	-9.059	0.323	-0.216
-642.697	-115.908	-0.114	0.021
-641.682	39.846	-0.222	-0.199
-640.668	31.713	-0.011	0.010
-639.653	47.901	-0.074	-0.069
-638.638	128.857	-0.250	-0.318
-637.624	98.636	-0.091	-0.105
-636.609	-114.855	-0.380	-0.072
-635.595	251.784	-0.090	0.153
-634.580	70.287	0.139	-0.144
-633.565	108.215	-0.105	0.125
-632.551	123.277	0.088	-0.110
-631.536	71.379	-0.079	0.082
-630.522	22.570	0.261	-0.213
-629.507	800.000	-0.046	0.197
-628.492	24.850	-0.106	0.088
-627.478	-200.000	0.005	0.225
-626.463	-17.828	0.044	0.028
-625.449	-22.805	0.203	0.123
-624.434	800.000	-0.052	-0.158
-623.419	5.381	0.081	-0.059
-622.405	-200.000	-0.029	0.213
-621.390	-174.971	-0.263	0.007
-620.376	-174.153	-0.200	0.006
-619.361	405.742	-0.086	0.181
-618.346	11.208	-0.203	0.155
-617.332	-173.630	0.261	-0.008
-616.317	-2.690	-0.100	0.070
-615.303	-141.804	0.398	0.040
-614.288	362.449	-0.060	0.121
-613.273	-119.268	-0.121	0.021
-612.259	-155.024	0.117	-0.008
-611.244	-184.068	-0.343	-0.006
-610.230	460.108	0.031	0.068
-609.215	84.702	0.290	0.317
-608.201	60.195	0.147	-0.145
-607.186	25.502	0.259	0.215
-606.171	-17.392	-0.241	0.152
-605.157	-68.064	0.296	-0.115
-604.142	293.532	-0.118	0.216
-603.128	-107.793	0.108	-0.024
-602.113	-200.000	0.029	-0.167
-601.098	-200.000	-0.004	0.025
-600.084	-200.000	-0.002	0.071
-599.069	389.063	-0.172	-0.356
-598.055	-200.000	-0.007	0.247
-597.040	-95.618	0.219	-0.059
-596.025	800.000	-0.050	0.153
-595.011	-16.433	0.152	0.097
-593.996	88.468	-0.055	0.061
-592.982	680.427	-0.090	0.233
-591.967	50.038	0.124	0.117
-590.952	98.816	0.104	0.119
-589.938	-200.000	-0.004	0.060
-588.923	203.673	-0.087	0.134
-587.909	47.271	0.033	-0.031
-586.894	800.000	0.021	0.091
-585.879	-200.000	-0.012	-0.326
-584.865	-94.503	0.069	0.019
-583.850	144.776	-0.065	0.086
-582.836	123.999	0.186	-0.233
-581.821	575.068	0.135	0.330
-580.806	800.000	0.038	0.136
-579.792	418.945	0.153	0.327
-578.777	-200.000	-0.046	-0.321
-577.763	-199.626	-0.050	-0.000
-576.748	-114.991	0.077	0.015
-575.733	-144.011	-0.204	-0.019
-574.719	800.000	0.038	-0.157
-573.704	26.902	-0.039	-0.033
-572.690	29.422	0.240	0.204
-571.675	-200.000	0.027	-0.137
-570.661	800.000	-0.117	-0.398
-569.646	158.629	-0.226	0.313
-568.631	-200.000	0.024	-0.147
-567.617	4.125	0.350	-0.255
-566.602	-84.549	-0.152	0.048
-565.588	-41.893	-0.212	0.109
-564.573	-179.541	-0.507	0.011
-563.558	-86.837	0.119	0.036
-562.544	-200.000	0.009	0.134
-561.529	-114.296	-0.044	0.009
-560.515	-6.150	-0.081	-0.055
-559.500	65.379	-0.088	0.089
-558.485	-53.293	-0.390	0.178
-557.471	800.000	-0.052	-0.181
-556.456	-165.281	0.495	0.022
-555.442	-151.596	0.206	0.015
-554.427	-200.000	0.010	-0.049
-553.412	800.000	-0.013	0.040
-552.398	-200.000	0.010	-0.060
-551.383	-45.397	-0.209	-0.104
-550.369	-67.281	-0.042	0.017
-549.354	-200.000	-0.018	0.293
-548.339	4.822	0.014	-0.010
-547.325	-48.382	-0.383	-0.184
-546.310	671.828	0.098	-0.253
-545.296	-52.752	-0.377	0.173
-544.281	358.316	-0.062	-0.123
-543.266	46.376	-0.138	0.128
-542.252	11.275	-0.157	-0.120
-541.237	89.880	0.183	0.204
-540.223	-200.000	-0.023	0.225
-539.208	148.414	-0.153	-0.206
-538.193	135.150	-0.363	-0.470
-537.179	412.156	0.175	0.370
-536.164	800.000	-0.102	0.417
-535.150	-200.000	0.020	-0.301
-534.135	-2.621	0.203	0.142
-533.121	-60.022	0.147	0.063
-532.106	68.564	0.240	0.245
-531.091	218.318	-0.045	0.072
-530.077	139.253	0.140	0.184
-529.062	-200.000	0.012	-0.322
-528.048	800.000	-0.069	-0.277
-527.033	-75.767	-0.367	-0.130
-526.018	-12.557	-0.098	-0.064
-525.004	-85.719	0.250	-0.077
-523.989	800.000	-0.135	-0.483
-522.975	-2.026	0.241	0.169
-521.960	426.980	-0.132	-0.284
-520.945	53.095	0.269	0.256
-519.931	5.883	0.068	-0.050
-518.916	-105.677	-0.213	-0.048
-517.902	170.066	0.062	0.089
-516.887	-34.970	-0.068	-0.037
-515.872	-125.900	-0.100	0.015
-514.858	142.341	0.045	-0.060
-513.843	21.333	0.421	0.341
-512.829	139.413	0.098	0.128
-511.814	-24.181	-0.261	-0.155
-510.799	-74.599	0.149	0.053
-509.785	800.000	0.083	0.292
-508.770	378.523	-0.045	-0.091
-507.756	-200.000	-0.030	0.219
-506.741	-200.000	-0.088	-0.692
-505.726	800.000	-0.109	0.352
-504.712	61.861	0.070	0.070
-503.697	135.729	-0.208	0.269
-502.683	120.701	0.223	0.276
-501.668	86.711	0.123	0.135
-500.653	120.654	-0.250	0.309
-499.639	51.236	-0.154	-0.146
-498.624	-98.734	0.052	0.013
-497.610	-96.984	0.225	0.059
-496.595	800.000	0.033	0.092
-495.581	-91.660	0.067	-0.019
-494.566	79.851	0.204	0.219
-493.551	570.846	0.058	-0.141
-492.537	-200.000	-0.017	-0.381
-491.522	-112.112	-0.542	-0.108
-490.508	-40.326	0.185	0.096
-489.493	-9.786	0.210	-0.139
-488.478	-200.000	0.021	-0.247
-487.464	800.000	0.074	-0.301
-486.449	-46.695	0.236	-0.115
-485.435	502.524	0.045	0.104
-484.420	49.373	0.182	0.170
-483.405	-33.791	0.461	0.252
-482.391	-200.000	-0.013	0.118
-481.376	556.436	0.019	-0.045
-480.362	573.200	0.012	-0.030
-479.347	676.866	-0.047	-0.121
-478.332	-127.561	0.278	0.040
-477.318	-127.449	-0.241	-0.035
-476.303	3.547	-0.119	-0.087
-475.289	125.614	0.077	-0.097
-474.274	-200.000	0.033	0.242
-473.259	21.561	0.393	-0.318
-472.245	-67.656	-0.322	-0.125
-471.230	207.302	0.163	0.253
-470.216	-77.453	-0.112	-0.039
-469.201	238.339	-0.102	0.168
-468.186	800.000	-0.072	-0.270
-467.172	90.916	-0.108	-0.120
-466.157	94.895	-0.053	0.060
-465.143	-145.804	0.269	-0.024
-464.128	215.598	0.188	-0.297
-463.113	-15.530	-0.290	-0.184
-462.099	-84.093	0.247	-0.078
-461.084	800.000	0.027	-0.095
-460.070	11.233	-0.027	-0.020
-459.055	120.430	-0.134	-0.165
-458.040	-87.594	-0.209	0.063
-457.026	17.370	0.330	-0.260
-456.011	497.027	0.119	-0.271
-454.997	121.604	-0.092	-0.114
-453.982	-74.543	0.100	0.036
-452.968	-62.207	-0.221	0.091
-451.953	462.533	0.194	0.430
-450.938	167.116	-0.024	0.034
-449.924	654.469	-0.054	-0.137
-448.909	-200.000	0.016	-0.094
-447.895	-200.000	-0.002	-0.146
-446.880	-0.346	-0.219	-0.154
-445.865	-164.331	0.066	0.003
-444.851	348.696	-0.108	-0.212
-443.836	438.898	0.055	0.119
-442.822	-107.506	-0.236	-0.051
-441.807	35.512	-0.151	0.132
-440.792	742.510	0.148	0.394
-439.778	101.581	0.260	-0.301
-438.763	-91.031	0.240	0.069
-437.749	-121.382	0.291	-0.048
-436.734	-91.261	-0.172	0.049
-435.719	217.334	0.101	0.159
-434.705	-200.000	-0.008	-0.055
-433.690	471.498	-0.236	0.527
-432.676	-138.509	0.174	-0.019
-431.661	17.717	0.251	0.199
-430.646	27.479	0.152	0.127
-429.632	9.815	-0.233	0.175
-428.617	-131.580	-0.133	0.017
-427.603	800.000	0.041	-0.143
-426.588	-95.128	-0.415	0.111
-425.573	-49.216	-0.447	-0.212
-424.559	528.836	0.083	0.195
-423.544	-87.934	0.271	0.081
-422.530	800.000	0.037	0.160
-421.515	-39.492	-0.278	-0.145
-420.500	185.730	0.140	0.207
-419.486	800.000	-0.104	0.310
-418.471	74.163	0.138	0.144
-417.457	386.532	-0.131	-0.269
-416.442	-200.000	-0.029	-0.358
-415.428	-115.698	0.399	-0.074
-414.413	705.570	0.036	0.094
-413.398	-29.532	0.056	0.032
-412.384	-200.000	-0.069	-0.303
-411.369	-200.000	0.018	0.236
-410.355	100.609	0.260	0.300
-409.340	800.000	-0.058	0.195
-408.325	289.193	0.030	-0.053
-407.311	450.478	-0.027	0.060
-406.296	-110.088	-0.121	0.025
-405.282	-14.172	0.184	-0.118
-404.267	264.600	-0.116	0.201
-403.252	-135.038	0.092	0.011
-402.238	-200.000	-0.013	-0.133
-401.223	800.000	-0.039	0.137
-400.209	-44.652	0.121	0.060
-399.194	786.424	-0.061	0.167
-398.179	-65.481	-0.045	-0.018
-397.165	-200.000	0.037	-0.168
-396.150	-193.540	0.410	-0.003
-395.136	-113.982	-0.082	0.016
-394.121	242.036	-0.115	-0.191
-393.106	-85.968	0.447	0.137
-392.092	-38.536	-0.118	-0.062
-391.077	-40.973	0.117	0.060
-390.063	800.000	0.092	0.379
-389.048	124.044	-0.252	0.314
-388.033	296.929	-0.059	0.107
-387.019	-200.000	0.035	0.291
-386.004	-127.577	0.233	0.033
-384.990	390.905	-0.091	0.188
-383.975	403.055	-0.078	-0.163
-382.960	-59.015	-0.218	0.093
-381.946	262.797	0.133	0.228
-380.931	-5.632	-0.216	-0.147
-379.917	-200.000	-0.086	-0.477
-378.902	-200.000	-0.320	-0.001
-377.888	-200.000	-0.023	-0.277
-376.873	-39.302	-0.178	-0.092
-375.858	-7.628	-0.302	0.202
-374.844	-200.000	-0.061	0.435
-373.829	573.352	-0.134	-0.323
-372.815	-177.487	-0.096	-0.002
-371.800	800.000	0.078	0.326
-370.785	-200.000	-0.033	-0.242
-369.771	-36.796	0.122	0.065
-368.756	792.353	-0.043	-0.116
-367.742	176.756	-0.023	-0.033
-366.727	114.964	-0.198	-0.239
-365.712	-87.302	0.044	0.013
-364.698	800.000	0.131	0.432
-363.683	785.867	-0.012	0.034
-362.669	-94.562	-0.492	0.133
-361.654	-101.504	0.251	0.060
-360.639	-92.507	0.324	-0.090
-359.625	800.000	-0.041	0.152
-358.610	-4.896	0.236	0.161
-357.596	177.358	-0.113	0.164
-356.581	-96.305	0.329	-0.086
-355.566	-2.980	0.105	0.073
-354.552	-110.285	-0.121	0.025
-353.537	-200.000	-0.016	0.413
-352.523	-200.000	-0.012	-0.279
-351.508	724.216	0.059	-0.155
-350.493	144.063	0.029	0.039
-349.479	56.164	-0.392	-0.377
-348.464	-200.000	-0.041	-0.281
-347.450	-111.919	-0.244	-0.049
-346.435	416.389	0.140	-0.295
-345.420	800.000	-0.050	-0.170
-344.406	-151.497	0.313	-0.023
-343.391	285.076	-0.171	0.305
-342.377	-14.553	-0.027	-0.017
-341.362	-200.000	-0.009	0.144
-340.348	-200.000	-0.013	-0.104
-339.333	-200.000	0.049	0.251
-338.318	-107.901	-0.086	-0.019
-337.304	-56.231	0.194	-0.085
-336.289	339.537	-0.028	-0.055
-335.275	-200.000	0.069	0.489
-334.260	-200.000	-0.001	0.142
-333.245	536.806	-0.158	0.371
-332.231	115.576	0.157	0.189
-331.216	-43.273	0.302	-0.151
-330.202	-56.551	-0.135	-0.059
-329.187	306.268	0.245	0.450
-328.172	800.000	0.041	-0.118
-327.158	-58.024	-0.174	-0.075
-326.143	21.254	-0.290	-0.233
-325.129	440.811	-0.105	-0.227
-324.114	-94.287	0.348	0.094
-323.099	198.457	0.107	-0.161
-322.085	800.000	-0.036	0.136
-321.070	-88.666	0.198	0.058
-320.056	557.535	0.081	-0.193
-319.041	-200.000	0.073	-0.388
-318.026	363.557	0.093	-0.185
-317.012	211.220	0.137	-0.213
-315.997	-200.000	-0.011	0.199
-314.983	-2.641	0.327	0.226
-313.968	-36.875	-0.345	-0.183
-312.953	800.000	-0.085	0.330
-311.939	-85.442	-0.029	0.009
-310.924	544.864	-0.064	-0.151
-309.910	-27.648	-0.256	-0.147
-308.895	-71.752	0.409	-0.151
-307.880	-200.000	0.010	-0.206
-306.866	138.717	-0.105	-0.136
-305.851	-200.000	0.033	-0.199
-304.837	130.432	-0.086	0.109
-303.822	411.227	0.067	-0.141
-302.807	148.720	0.328	-0.438
-301.793	-147.019	-0.342	0.029
-300.778	541.769	-0.135	-0.318
-299.764	-80.471	-0.196	-0.064
-298.749	-200.000	0.005	0.052
-297.735	-124.922	-0.101	-0.015
-296.720	800.000	-0.049	-0.142
-295.705	-127.602	0.106	-0.015
-294.691	278.603	0.157	-0.277
-293.676	-81.551	0.147	-0.048
-292.662	44.018	-0.143	-0.129
-291.647	21.383	0.083	0.067
-290.632	-174.780	0.168	-0.005
-289.618	423.147	-0.081	0.171
-288.603	689.017	0.069	-0.179
-287.589	-154.073	0.251	0.017
-286.574	-40.521	0.019	0.010
-285.559	-80.528	-0.425	-0.140
-284.545	543.076	0.077	-0.180
-283.530	51.450	-0.122	0.115
-282.516	141.092	0.102	0.133
-281.501	-112.764	-0.143	0.028
-280.486	-162.087	0.043	-0.002
-279.472	191.638	-0.153	0.227
-278.457	-151.416	-0.056	-0.004
-277.443	-74.217	0.284	-0.101
-276.428	-99.347	-0.346	0.086
-275.413	499.676	-0.081	-0.185
-274.399	-119.177	0.113	-0.019
-273.384	800.000	0.039	-0.161
-272.370	55.443	0.168	0.161
-271.355	-200.000	0.033	0.305
-270.340	-200.000	0.045	-0.201
-269.326	800.000	0.058	-0.226
-268.311	287.567	0.093	0.165
-267.297	-76.445	0.103	-0.036
-266.282	-200.000	-0.007	-0.066
-265.267	124.772	0.143	0.177
-264.253	297.237	-0.142	-0.258
-263.238	-131.128	0.212	-0.028
-262.224	145.187	-0.114	-0.150
-261.209	179.471	-0.155	-0.223
-260.195	-150.740	-0.120	-0.009
-259.180	-49.680	0.059	0.028
-258.165	-116.868	-0.431	-0.078
-257.151	-50.769	0.334	-0.155
-256.136	206.558	0.207	0.318
-255.122	800.000	-0.011	0.041
-254.107	-43.337	-0.397	-0.198
-253.092	-31.792	0.303	-0.168
-252.078	-107.118	-0.116	-0.025
-251.063	-125.779	0.128	0.019
-250.049	36.255	-0.263	-0.228
-249.034	409.251	-0.034	-0.072
-248.019	484.941	-0.162	-0.364
-247.005	74.428	-0.077	0.079
-245.990	-5.323	0.333	-0.226
-244.976	185.689	0.155	-0.227
-243.961	-177.656	-0.326	0.008
-242.946	-200.000	0.033	-0.220
-241.932	-130.547	0.480	0.064
-240.917	772.438	0.038	-0.101
-239.903	14.177	-0.140	0.108
-238.888	800.000	-0.025	0.081
-237.873	742.074	-0.072	0.191
-236.859	-99.311	-0.125	-0.031
-235.844	84.600	-0.145	0.156
-234.830	-56.301	0.318	0.139
-233.815	-200.000	-0.027	-0.209
-232.800	133.428	0.039	-0.050
-231.786	-57.292	-0.093	-0.040
-230.771	-13.891	0.259	-0.165
-229.757	374.554	-0.135	0.271
-228.742	383.716	-0.132	-0.268
-227.727	-79.224	0.291	0.097
-226.713	-107.599	-0.229	0.049
-225.698	551.899	-0.188	-0.443
-224.684	-200.000	-0.001	-0.122
-223.669	151.890	-0.038	-0.051
-222.655	-200.000	0.035	0.502
-221.640	-200.000	-0.030	-0.152
-220.625	99.545	0.074	0.084
-219.611	-153.990	0.090	0.006
-218.596	-125.412	0.041	-0.006
-217.582	-200.000	0.006	0.036
-216.567	288.932	-0.183	-0.326
-215.552	153.544	0.122	-0.165
-214.538	-61.880	0.040	0.017
-213.523	-62.663	-0.127	0.052
-212.509	-91.436	0.186	-0.052
-211.494	-188.599	-0.591	-0.007
-210.479	235.453	0.134	-0.217
-209.465	-51.939	0.264	-0.121
-208.450	25.200	0.192	-0.157
-207.436	-115.541	-0.146	0.027
-206.421	3.841	0.205	0.147
-205.406	386.808	-0.092	0.187
-204.392	-131.520	-0.266	0.034
-203.377	74.152	-0.219	-0.226
-202.363	-200.000	-0.002	-0.106
-201.348	-200.000	0.042	-0.331
-200.333	74.558	-0.071	0.074
-199.319	800.000	0.104	0.337
-198.304	75.469	-0.241	-0.250
-197.290	-132.087	0.332	0.042
-196.275	-86.089	0.223	-0.068
-195.260	-161.435	-0.376	-0.019
-194.246	-37.737	0.143	0.075
-193.231	94.222	-0.098	-0.109
-192.217	553.789	-0.069	0.162
-191.202	-6.716	0.364	0.244
-190.187	800.000	-0.057	-0.206
-189.173	63.795	-0.057	-0.056
-188.158	-36.970	-0.162	0.085
-187.144	-200.000	-0.066	0.285
-186.129	-105.223	-0.115	0.026
-185.114	483.304	0.103	0.230
-184.100	-27.640	0.169	-0.097
-183.085	-168.805	-0.283	-0.010
-182.071	800.000	0.022	0.070
-181.056	-116.782	0.136	0.025
-180.042	800.000	0.024	-0.098
-179.027	136.404	0.082	-0.105
-178.012	-102.709	-0.295	-0.069
-176.998	-83.008	-0.240	-0.076
-175.983	147.813	-0.040	-0.053
-174.969	-174.218	-0.164	0.005
-173.954	-200.000	0.018	0.157
-172.939	800.000	-0.091	0.294
-171.925	-67.318	0.290	0.112
-170.910	362.944	0.107	0.211
-169.896	162.355	-0.039	0.053
-168.881	-0.622	0.165	0.115
-167.866	58.921	-0.124	0.120
-166.852	-59.677	0.188	0.079
-165.837	293.943	0.059	0.106
-164.823	-23.689	-0.180	-0.106
-163.808	-129.196	0.248	-0.034
-162.793	-200.000	0.013	-0.146
-161.779	-92.288	-0.299	-0.083
-160.764	-200.000	-0.015	-0.281
-159.750	44.959	-0.079	-0.072
-158.735	140.462	0.158	0.205
-157.720	-200.000	0.037	0.223
-156.706	-200.000	0.015	-0.244
-155.691	-68.450	0.252	0.096
-154.677	-200.000	0.063	0.273
-153.662	-33.428	-0.188	0.102
-152.647	261.428	0.184	0.313
-151.633	662.694	-0.065	-0.164
-150.618	-2.498	0.252	-0.173
-149.604	-27.443	0.178	-0.102
-148.589	308.501	0.046	-0.085
-147.574	-7.682	-0.317	0.210
-146.560	160.484	-0.120	0.164
-145.545	-200.000	-0.002	0.169
-144.531	800.000	-0.079	0.262
-143.516	111.379	-0.034	0.041
-142.502	-165.654	-0.103	-0.004
-141.487	-65.818	-0.008	-0.003
-140.472	59.365	0.105	0.101
-139.458	33.106	-0.078	-0.066
-138.443	-149.719	-0.259	-0.020
-137.429	-24.848	0.255	-0.149
-136.414	-80.457	0.275	-0.090
-135.399	-200.000	-0.022	-0.237
-134.385	-43.041	-0.277	0.138
-133.370	13.865	-0.188	-0.143
-132.356	-72.725	-0.146	0.053
-131.341	164.149	0.044	-0.061
-130.326	114.226	0.080	-0.096
-129.312	-83.963	0.269	-0.084
-128.297	-200.000	0.035	-0.301
-127.283	13.083	-0.246	0.187
-126.268	-8.742	0.125	-0.082
-125.253	-158.086	0.118	-0.007
-124.239	-21.234	-0.205	0.123
-123.224	-149.960	0.193	0.015
-122.210	800.000	-0.043	0.182
