DTS Sentinel unit serial number:	SN413079Multiplexer serial number:	ORYXHardware model number:	OX4-SRSoftware version number:	ORYX F/W v4.00 Oryx Data Collector v3.7.2.0data status	okinstallation	princeton_trtdifferential loss correction	single-endedforward channel	channel 3reverse channel	N/Adate	2019/09/18time	16:32:35forward acquisition time	60.00reverse acquisition time	0.00gamma	496.2192k internal	0.2292k external	0.2292temperature offset calibration	0.9985default loss term (dB/km)	0.3790temperature slope calibration	1.0000multiplexer offset coefficient	1.0000multiplexer slope coefficient	1.0000fibre end	0.00T internal ref (°C)	39.31T ext. ref 1 (°C)	0.83T ext. ref 2 (°C)	36.51length (m)	temperature (°C)	Stokes	anti-Stokes-747.200	-96.870	0.226	-0.061
-746.185	-200.000	-0.050	0.278
-745.171	-46.766	-0.365	0.183
-744.156	800.000	0.130	0.503
-743.142	-12.896	-0.240	-0.160
-742.127	159.454	0.030	0.043
-741.112	-144.006	0.327	-0.031
-740.098	620.131	-0.070	0.180
-739.083	-0.968	-0.042	0.030
-738.069	262.513	-0.026	-0.046
-737.054	-99.632	-0.251	0.065
-736.039	-147.324	-0.119	0.010
-735.025	-200.000	-0.028	-0.128
-734.010	148.464	-0.190	0.262
-732.996	222.022	0.173	-0.285
-731.981	-50.081	-0.270	-0.131
-730.966	284.015	-0.152	0.280
-729.952	750.803	0.075	-0.208
-728.937	-13.674	-0.141	-0.093
-727.923	-200.000	-0.007	-0.147
-726.908	445.102	0.087	-0.196
-725.894	-26.529	-0.176	-0.106
-724.879	305.814	0.171	-0.324
-723.864	205.857	-0.118	0.188
-722.850	241.538	-0.087	-0.148
-721.835	-93.462	-0.137	-0.039
-720.821	-104.808	-0.390	-0.092
-719.806	-126.115	-0.220	0.034
-718.791	-104.586	-0.160	0.038
-717.777	71.443	-0.234	-0.249
-716.762	57.332	-0.255	-0.254
-715.748	800.000	-0.072	0.234
-714.733	60.401	0.118	0.120
-713.718	-200.000	-0.003	0.065
-712.704	80.060	-0.385	0.423
-711.689	14.155	-0.016	-0.013
-710.675	700.814	-0.085	-0.228
-709.660	-200.000	-0.021	0.200
-708.645	-76.712	0.080	-0.029
-707.631	-74.362	-0.131	0.048
-706.616	92.302	0.169	0.195
-705.602	270.928	-0.076	-0.137
-704.587	-60.886	-0.267	-0.115
-703.572	-152.100	-0.371	0.028
-702.558	-93.524	0.151	-0.043
-701.543	800.000	-0.071	-0.283
-700.529	317.402	-0.009	0.017
-699.514	58.632	0.238	-0.239
-698.499	-200.000	-0.011	0.310
-697.485	7.146	-0.107	-0.081
-696.470	166.608	-0.069	-0.099
-695.456	-177.333	0.141	0.004
-694.441	-50.872	-0.218	0.105
-693.426	-51.040	0.199	-0.096
-692.412	800.000	-0.045	-0.150
-691.397	800.000	-0.091	-0.362
-690.383	-174.922	0.382	-0.011
-689.368	239.756	0.180	0.306
-688.354	-162.657	0.291	0.015
-687.339	23.953	0.316	0.266
-686.324	384.793	0.077	-0.161
-685.310	-145.597	0.311	0.028
-684.295	-81.248	-0.080	-0.027
-683.281	-82.716	0.252	0.083
-682.266	-52.886	-0.118	0.056
-681.251	-37.483	-0.263	0.143
-680.237	-92.919	-0.321	-0.092
-679.222	7.638	-0.309	0.236
-678.208	43.498	0.061	0.057
-677.193	800.000	-0.054	-0.204
-676.178	14.979	-0.096	0.077
-675.164	67.542	0.022	-0.023
-674.149	-200.000	0.048	-0.385
-673.135	-86.327	-0.246	0.077
-672.120	-200.000	-0.058	0.347
-671.105	-93.474	0.167	0.047
-670.091	-200.000	-0.077	-0.393
-669.076	-132.029	-0.223	0.030
-668.062	315.998	-0.029	-0.056
-667.047	-190.704	0.342	-0.004
-666.032	192.037	-0.150	-0.231
-665.018	19.407	-0.254	-0.209
-664.003	800.000	0.016	0.070
-662.989	-53.374	0.170	-0.080
-661.974	262.106	-0.074	0.130
-660.959	202.159	-0.136	0.214
-659.945	-16.300	-0.111	-0.072
-658.930	-200.000	-0.009	0.222
-657.916	143.216	0.032	-0.044
-656.901	533.279	-0.072	-0.174
-655.886	80.324	0.104	-0.115
-654.872	-103.276	-0.054	0.013
-653.857	130.661	0.110	-0.144
-652.843	130.487	0.142	0.185
-651.828	-78.306	-0.180	0.063
-650.814	-200.000	0.010	-0.107
-649.799	188.314	-0.110	0.168
-648.784	165.878	-0.147	0.212
-647.770	-37.353	0.109	-0.059
-646.755	-67.129	-0.168	-0.068
-645.741	-63.954	-0.135	-0.056
-644.726	27.527	-0.098	0.084
-643.711	229.366	-0.297	-0.495
-642.697	119.062	0.079	0.100
-641.682	185.047	0.042	0.064
-640.668	-38.231	0.134	0.073
-639.653	800.000	0.049	-0.185
-638.638	-133.678	-0.159	-0.020
-637.624	-105.974	0.258	0.059
-636.609	-74.461	0.025	-0.009
-635.595	-200.000	0.036	-0.290
-634.580	-186.868	0.135	0.002
-633.565	-200.000	0.028	-0.223
-632.551	33.017	-0.171	-0.151
-631.536	203.304	0.073	0.114
-630.522	-33.546	-0.245	-0.138
-629.507	98.781	0.151	0.178
-628.492	-200.000	0.015	-0.239
-627.478	452.732	-0.086	-0.193
-626.463	-49.294	-0.296	0.144
-625.449	546.607	-0.113	0.276
-624.434	-86.386	0.062	0.019
-623.419	96.602	0.186	-0.217
-622.405	64.939	-0.041	0.042
-621.390	448.982	0.029	-0.065
-620.376	13.543	-0.164	0.130
-619.361	800.000	0.154	0.436
-618.346	-27.627	0.250	-0.148
-617.332	-89.439	0.085	0.025
-616.317	0.885	0.037	-0.027
-615.303	-200.000	0.024	0.163
-614.288	-65.545	-0.225	-0.092
-613.273	-14.685	-0.128	0.084
-612.259	-140.477	0.141	-0.015
-611.244	-9.387	-0.056	-0.038
-610.230	-200.000	-0.046	-0.369
-609.215	-200.000	-0.012	0.176
-608.201	-200.000	0.032	-0.188
-607.186	-189.972	0.108	0.001
-606.171	61.131	0.138	0.139
-605.157	-133.715	0.136	0.017
-604.142	40.644	-0.086	-0.079
-603.128	14.417	0.121	-0.096
-602.113	181.857	-0.165	0.247
-601.098	355.000	0.068	-0.138
-600.084	34.359	0.090	-0.080
-599.069	42.996	-0.144	0.134
-598.055	-200.000	0.010	0.379
-597.040	-3.648	0.199	-0.141
-596.025	252.190	-0.128	-0.221
-595.011	132.680	0.140	0.183
-593.996	732.408	0.082	-0.223
-592.982	-84.201	-0.270	-0.087
-591.967	-50.578	-0.095	0.046
-590.952	-97.665	0.266	-0.070
-589.938	132.473	0.124	0.163
-588.923	-200.000	-0.053	0.254
-587.909	-200.000	0.016	0.223
-586.894	-200.000	0.021	-0.334
-585.879	700.852	-0.032	0.085
-584.865	58.956	-0.149	0.149
-583.850	102.646	0.074	-0.088
-582.836	-9.254	-0.090	0.061
-581.821	-200.000	-0.058	0.324
-580.806	-200.000	-0.023	-0.261
-579.792	-68.862	0.069	0.027
-578.777	51.906	0.066	-0.064
-577.763	-79.579	0.192	-0.066
-576.748	58.297	-0.164	-0.163
-575.733	-123.942	-0.248	0.040
-574.719	78.195	-0.190	0.207
-573.704	-200.000	0.001	-0.023
-572.690	-105.549	0.339	-0.078
-571.675	-74.813	0.091	0.033
-570.661	104.358	0.064	0.076
-569.646	41.167	0.273	0.251
-568.631	-113.120	0.167	0.033
-567.617	695.322	-0.059	-0.156
-566.602	72.511	-0.225	-0.238
-565.588	5.780	-0.109	-0.082
-564.573	188.037	-0.094	0.143
-563.558	287.162	-0.103	-0.189
-562.544	-200.000	-0.032	0.287
-561.529	-200.000	-0.007	0.158
-560.515	-112.917	0.288	-0.058
-559.500	-123.197	-0.221	0.036
-558.485	19.686	-0.233	0.190
-557.471	105.661	0.300	0.360
-556.456	-200.000	-0.002	-0.012
-555.442	79.164	0.237	0.257
-554.427	-200.000	-0.034	0.431
-553.412	220.511	0.103	-0.167
-552.398	-200.000	0.024	-0.350
-551.383	-40.979	-0.364	0.191
-550.369	492.487	0.158	-0.368
-549.354	-200.000	0.029	-0.278
-548.339	135.819	-0.145	0.192
-547.325	722.838	0.048	-0.129
-546.310	-139.913	-0.426	-0.046
-545.296	-161.901	-0.173	-0.009
-544.281	23.865	0.152	0.127
-543.266	-116.236	0.150	0.028
-542.252	-200.000	0.011	0.248
-541.237	26.077	-0.198	-0.168
-540.223	-98.307	0.129	0.034
-539.208	-200.000	-0.018	-0.108
-538.193	-124.243	-0.473	-0.075
-537.179	800.000	-0.034	-0.103
-536.164	14.197	0.073	-0.057
-535.150	34.359	-0.161	0.143
-534.135	-77.273	-0.174	0.062
-533.121	-200.000	0.034	-0.175
-532.106	-200.000	-0.043	0.224
-531.091	-10.728	-0.236	0.158
-530.077	800.000	-0.037	-0.122
-529.062	-65.237	-0.244	0.100
-528.048	5.205	0.083	-0.062
-527.033	-99.175	0.215	-0.055
-526.018	-176.254	0.149	-0.004
-525.004	-124.704	-0.100	-0.016
-523.989	-126.429	-0.095	-0.014
-522.975	66.640	0.185	0.191
-521.960	29.896	-0.187	-0.161
-520.945	216.983	-0.086	0.139
-519.931	-34.818	0.164	0.091
-518.916	-162.451	-0.160	-0.008
-517.902	602.437	0.143	0.362
-516.887	192.866	-0.248	0.380
-515.872	800.000	0.045	0.128
-514.858	800.000	0.133	0.414
-513.843	116.643	0.085	0.105
-512.829	-149.123	-0.241	-0.020
-511.814	380.381	-0.175	0.364
-510.799	12.534	0.227	-0.177
-509.785	-140.940	0.190	0.020
-508.770	-54.055	0.203	-0.094
-507.756	158.951	-0.097	0.136
-506.741	800.000	-0.022	0.066
-505.726	76.813	-0.091	-0.098
-504.712	26.818	-0.151	0.128
-503.697	800.000	0.062	-0.245
-502.683	-99.526	0.162	-0.041
-501.668	800.000	-0.041	0.131
-500.653	-134.187	-0.249	0.031
-499.639	-78.076	-0.202	0.070
-498.624	-200.000	0.010	0.055
-497.610	-200.000	0.027	-0.303
-496.595	72.916	0.025	0.027
-495.581	321.182	-0.172	-0.331
-494.566	-178.235	-0.336	0.008
-493.551	800.000	-0.068	-0.226
-492.537	-36.382	-0.192	-0.105
-491.522	800.000	-0.078	0.238
-490.508	-99.543	-0.159	-0.040
-489.493	-19.149	0.245	0.154
-488.478	800.000	0.047	0.160
-487.464	-47.463	-0.115	0.056
-486.449	800.000	0.079	0.284
-485.435	-109.091	0.166	-0.036
-484.420	26.099	0.162	-0.137
-483.405	743.024	-0.032	-0.087
-482.391	-200.000	-0.007	-0.213
-481.376	-17.959	-0.110	0.070
-480.362	-123.235	-0.374	-0.061
-479.347	-200.000	-0.006	0.045
-478.332	69.167	-0.186	-0.194
-477.318	-200.000	0.005	-0.124
-476.303	115.665	0.163	0.202
-475.289	-40.214	-0.078	0.041
-474.274	235.689	-0.166	0.277
-473.259	173.449	0.083	0.121
-472.245	-52.425	0.369	-0.173
-471.230	-119.498	0.225	-0.040
-470.216	-156.551	0.271	-0.017
-469.201	-200.000	-0.055	-0.261
-468.186	800.000	0.028	-0.107
-467.172	70.065	-0.220	-0.230
-466.157	255.694	0.185	0.321
-465.143	69.865	0.082	0.086
-464.128	50.359	-0.185	-0.177
-463.113	480.805	-0.039	-0.089
-462.099	-90.894	-0.072	0.021
-461.084	-200.000	-0.014	0.222
-460.070	800.000	0.036	-0.120
-459.055	-200.000	-0.042	-0.447
-458.040	367.867	0.187	-0.381
-457.026	-51.983	-0.166	0.078
-456.011	-200.000	0.020	0.253
-454.997	-43.810	0.043	-0.022
-453.982	-25.084	-0.150	-0.090
-452.968	123.826	-0.098	0.125
-451.953	800.000	0.052	-0.208
-450.938	8.890	-0.376	-0.287
-449.924	-200.000	-0.020	-0.131
-448.909	313.072	-0.266	0.506
-447.895	-200.000	0.038	0.240
-446.880	782.571	-0.127	0.350
-445.865	70.580	0.132	-0.138
-444.851	102.636	-0.095	-0.113
-443.836	-200.000	0.003	-0.338
-442.822	407.700	-0.068	-0.146
-441.807	136.703	0.268	-0.353
-440.792	800.000	-0.102	0.424
-439.778	90.080	-0.161	0.182
-438.763	137.721	0.222	0.295
-437.749	-97.138	0.355	0.094
-436.734	65.344	-0.121	-0.123
-435.719	800.000	-0.012	-0.048
-434.705	32.101	0.033	-0.028
-433.690	-200.000	0.001	0.022
-432.676	800.000	0.055	0.243
-431.661	-110.482	-0.192	0.040
-430.646	50.607	0.081	0.077
-429.632	58.505	-0.078	0.078
-428.617	-166.332	-0.283	0.012
-427.603	-82.077	-0.086	-0.028
-426.588	157.658	0.084	-0.117
-425.573	216.837	0.200	-0.321
-424.559	63.630	0.189	-0.192
-423.544	-37.118	-0.279	-0.151
-422.530	-154.332	-0.233	-0.016
-421.515	-139.019	-0.268	0.029
-420.500	55.049	0.282	-0.275
-419.486	13.409	0.284	-0.222
-418.471	23.445	0.217	-0.180
-417.457	41.428	-0.161	-0.147
-416.442	-18.871	0.203	0.128
-415.428	249.821	0.033	0.056
-414.413	-200.000	-0.028	-0.261
-413.398	117.508	-0.175	0.218
-412.384	-17.694	0.047	-0.030
-411.369	61.606	0.203	-0.204
-410.355	-50.281	-0.187	0.089
-409.340	-50.542	-0.078	-0.037
-408.325	-170.395	-0.057	-0.002
-407.311	678.880	-0.159	0.418
-406.296	-113.441	-0.272	-0.054
-405.282	275.710	-0.015	0.027
-404.267	-66.832	0.347	-0.139
-403.252	725.147	-0.133	-0.359
-402.238	-122.623	0.604	0.099
-401.223	531.851	-0.080	0.190
-400.209	-25.193	0.242	0.145
-399.194	91.239	-0.168	0.190
-398.179	233.316	0.161	-0.267
-397.165	8.592	-0.132	-0.100
-396.150	-84.753	-0.170	-0.054
-395.136	-163.771	-0.213	0.010
-394.121	-126.104	-0.213	0.032
-393.106	-4.601	-0.151	0.105
-392.092	-91.575	-0.051	-0.015
-391.077	108.266	0.107	-0.129
-390.063	800.000	0.035	-0.148
-389.048	90.528	0.168	-0.190
-388.033	-200.000	0.017	-0.149
-387.019	9.672	-0.377	-0.288
-386.004	587.189	0.041	-0.102
-384.990	14.604	0.184	0.145
-383.975	-200.000	0.047	0.207
-382.960	-134.095	-0.313	-0.039
-381.946	-27.859	-0.270	0.158
-380.931	-97.057	-0.051	-0.013
-379.917	-23.346	0.399	-0.242
-378.902	-64.895	0.246	-0.101
-377.888	800.000	0.054	-0.188
-376.873	-90.212	-0.302	0.089
-375.858	343.976	-0.179	-0.354
-374.844	690.079	0.171	0.451
-373.829	800.000	0.050	-0.177
-372.815	270.666	-0.109	0.193
-371.800	321.879	-0.112	-0.214
-370.785	98.706	0.143	0.167
-369.771	-116.648	0.025	-0.005
-368.756	-200.000	0.018	0.311
-367.742	-81.428	-0.396	-0.131
-366.727	-43.134	0.212	-0.108
-365.712	-163.069	-0.081	-0.004
-364.698	29.310	-0.170	-0.145
-363.683	800.000	-0.060	-0.198
-362.669	800.000	-0.057	-0.230
-361.654	-83.488	-0.408	-0.132
-360.639	-200.000	-0.016	-0.128
-359.625	800.000	-0.036	-0.123
-358.610	85.864	0.266	0.295
-357.596	6.413	0.262	-0.196
-356.581	-63.461	0.260	-0.108
-355.566	-52.858	0.397	0.185
-354.552	-32.691	0.309	-0.173
-353.537	-44.205	-0.124	-0.063
-352.523	46.748	-0.089	0.083
-351.508	-200.000	0.012	0.180
-350.493	244.540	0.098	-0.166
-349.479	-20.611	0.301	0.186
-348.464	-200.000	0.032	0.203
-347.450	313.727	0.026	-0.049
-346.435	81.267	0.127	0.139
-345.420	175.889	-0.164	0.240
-344.406	-136.508	-0.490	-0.057
-343.391	68.144	-0.201	-0.207
-342.377	-58.846	0.206	0.090
-341.362	-30.347	0.189	0.108
-340.348	-200.000	-0.009	0.292
-339.333	405.570	0.080	0.171
-338.318	253.020	0.074	-0.127
-337.304	-22.992	0.369	0.224
-336.289	-19.447	-0.092	0.058
-335.275	19.088	0.076	0.061
-334.260	38.530	0.064	-0.057
-333.245	-186.749	0.066	0.001
-332.231	800.000	-0.032	-0.113
-331.216	-56.309	-0.124	0.055
-330.202	123.817	0.135	0.170
-329.187	-121.711	0.256	0.043
-328.172	-165.719	-0.443	-0.019
-327.158	68.581	-0.179	-0.185
-326.143	-200.000	0.017	-0.122
-325.129	800.000	-0.111	0.310
-324.114	-51.422	0.141	0.066
-323.099	99.794	-0.095	-0.111
-322.085	-200.000	-0.007	-0.143
-321.070	-74.530	0.053	-0.019
-320.056	360.878	0.019	0.039
-319.041	-130.382	-0.295	-0.040
-318.026	-200.000	-0.061	0.349
-317.012	287.695	-0.124	0.225
-315.997	107.090	-0.217	0.260
-314.983	-200.000	-0.049	0.359
-313.968	-109.445	-0.335	0.071
-312.953	800.000	0.026	-0.091
-311.939	132.336	0.127	0.165
-310.924	-200.000	-0.010	-0.179
-309.910	1.303	-0.101	0.073
-308.895	-200.000	0.003	0.074
-307.880	-200.000	0.042	-0.242
-306.866	-137.303	-0.163	-0.019
-305.851	-104.729	-0.181	-0.042
-304.837	-83.694	0.149	-0.048
-303.822	-200.000	0.000	0.204
-302.807	800.000	-0.053	-0.159
-301.793	-44.118	-0.196	-0.099
-300.778	152.613	0.154	0.211
-299.764	-103.155	0.082	-0.019
-298.749	459.599	-0.096	0.214
-297.735	15.088	0.464	-0.366
-296.720	351.657	0.216	0.430
-295.705	-70.250	0.242	-0.092
-294.691	-200.000	0.015	0.141
-293.676	45.816	0.027	-0.025
-292.662	-11.584	-0.182	0.120
-291.647	98.239	-0.107	-0.124
-290.632	-200.000	0.023	-0.257
-289.618	148.830	0.152	-0.207
-288.603	76.849	0.161	-0.172
-287.589	800.000	0.060	0.170
-286.574	-200.000	0.001	0.020
-285.559	192.837	-0.011	-0.017
-284.545	124.793	-0.173	-0.219
-283.530	-122.623	0.320	-0.052
-282.516	-200.000	0.043	-0.193
-281.501	-200.000	-0.022	-0.115
-280.486	-200.000	0.016	-0.101
-279.472	-166.653	-0.242	-0.010
-278.457	735.478	0.083	-0.224
-277.443	-200.000	-0.016	0.231
-276.428	105.378	-0.039	0.046
-275.413	-97.702	0.350	0.091
-274.399	-95.817	-0.175	-0.047
-273.384	-152.644	0.089	-0.006
-272.370	-75.754	0.326	0.116
-271.355	-133.198	-0.142	0.018
-270.340	-200.000	-0.017	-0.194
-269.326	49.188	-0.130	-0.123
-268.311	65.647	0.109	-0.111
-267.297	-200.000	0.034	-0.302
-266.282	2.953	0.237	-0.173
-265.267	215.663	-0.040	0.063
-264.253	-20.390	0.104	-0.064
-263.238	-104.619	0.178	0.041
-262.224	274.913	-0.086	0.153
-261.209	-101.586	-0.230	0.056
-260.195	-11.090	0.252	0.167
-259.180	475.280	-0.145	-0.328
-258.165	237.485	-0.134	0.223
-257.151	-185.827	0.070	-0.001
-256.136	-123.227	0.359	0.058
-255.122	310.910	0.128	0.241
-254.107	800.000	0.099	0.361
-253.092	-41.525	0.174	-0.090
-252.078	223.382	-0.013	-0.021
-251.063	246.911	0.131	-0.222
-250.049	-200.000	0.023	0.245
-249.034	108.876	-0.127	-0.152
-248.019	143.930	-0.165	-0.220
-247.005	-135.604	0.323	-0.039
-245.990	15.558	0.244	-0.192
-244.976	175.807	-0.054	-0.079
-243.961	-6.802	0.277	-0.189
-242.946	-88.536	-0.184	0.055
-241.932	-200.000	0.003	0.037
-240.917	132.482	0.222	0.287
-239.903	-200.000	0.004	-0.048
-238.888	-156.687	0.122	0.008
-237.873	-132.401	0.117	-0.015
-236.859	-126.336	0.079	-0.012
-235.844	-200.000	-0.024	0.143
-234.830	120.414	-0.100	-0.124
-233.815	-32.460	-0.207	0.116
-232.800	-109.781	0.106	-0.022
-231.786	-200.000	-0.039	0.324
-230.771	22.713	-0.131	0.107
-229.757	-200.000	0.004	0.106
-228.742	157.317	0.212	-0.295
-227.727	-88.425	-0.500	-0.150
-226.713	-36.649	0.155	0.084
-225.698	-66.920	0.119	-0.047
-224.684	74.207	0.201	0.212
-223.669	-49.877	-0.339	-0.162
-222.655	800.000	0.094	-0.319
-221.640	-41.119	0.141	-0.073
-220.625	800.000	0.031	0.089
-219.611	-96.076	0.207	0.055
-218.596	-35.585	0.162	0.088
-217.582	-113.736	0.188	0.037
-216.567	144.365	0.121	0.161
-215.552	576.419	0.031	-0.075
-214.538	406.797	-0.068	-0.144
-213.523	-126.001	0.362	0.055
-212.509	56.315	0.325	0.316
-211.494	-153.409	-0.287	-0.020
-210.479	-143.500	-0.349	0.033
-209.465	-200.000	0.002	0.177
-208.450	118.055	-0.057	0.070
-207.436	-108.668	0.205	-0.044
-206.421	467.176	0.034	0.076
-205.406	-40.796	0.082	0.042
-204.392	74.577	0.127	-0.134
-203.377	143.726	-0.148	-0.198
-202.363	118.876	-0.062	0.076
-201.348	-200.000	-0.008	0.301
-200.333	800.000	0.116	0.420
-199.319	158.780	0.058	0.081
-198.304	50.136	0.150	-0.142
-197.290	268.035	0.013	-0.023
-196.275	800.000	-0.084	-0.255
-195.260	-122.895	-0.368	0.059
-194.246	599.461	-0.037	-0.092
-193.231	800.000	-0.023	0.091
-192.217	-200.000	-0.021	0.130
-191.202	-47.856	0.155	0.075
-190.187	800.000	-0.034	-0.144
-189.173	192.336	0.126	-0.190
-188.158	-8.680	-0.120	-0.081
-187.144	179.153	-0.309	0.452
-186.129	97.069	-0.064	0.073
-185.114	-51.777	0.257	-0.120
-184.100	-200.000	0.008	0.057
-183.085	1.802	-0.098	-0.071
-182.071	423.299	0.140	0.302
-181.056	-168.384	0.044	0.002
-180.042	-200.000	0.035	0.184
-179.027	14.046	-0.182	0.142
-178.012	66.479	-0.212	-0.215
-176.998	29.836	-0.127	-0.109
-175.983	800.000	0.081	0.274
-174.969	34.249	0.120	0.104
-173.954	-20.154	0.146	0.090
-172.939	-173.722	-0.207	-0.006
-171.925	-109.613	0.285	-0.060
-170.910	761.982	0.052	0.142
-169.896	800.000	-0.059	-0.190
-168.881	800.000	0.160	-0.480
-167.866	-151.889	0.188	-0.014
-166.852	17.034	-0.084	0.066
-165.837	22.314	-0.254	-0.208
-164.823	-149.625	0.206	-0.016
-163.808	665.017	-0.132	-0.341
-162.793	-200.000	-0.029	-0.265
-161.779	-200.000	-0.011	-0.057
-160.764	-200.000	0.022	-0.283
-159.750	-146.718	0.207	-0.018
-158.735	134.562	-0.182	0.237
-157.720	-174.978	0.307	0.009
-156.706	-182.213	-0.156	-0.003
-155.691	-98.611	0.130	-0.033
-154.677	457.544	-0.050	0.111
-153.662	77.126	0.175	-0.186
-152.647	-33.156	-0.225	-0.125
-151.633	-102.634	-0.165	0.039
-150.618	150.985	0.135	0.183
-149.604	-121.716	0.372	0.062
-148.589	-8.246	0.336	-0.226
-147.574	800.000	-0.078	-0.318
-146.560	-200.000	0.002	-0.346
-145.545	-49.739	-0.105	0.050
-144.531	48.924	-0.293	0.275
-143.516	596.868	-0.067	0.166
-142.502	732.015	-0.175	0.469
-141.487	52.951	0.179	-0.171
-140.472	-200.000	0.335	0.001
-139.458	-102.810	0.132	0.031
-138.443	-200.000	0.011	-0.180
-137.429	53.017	0.027	-0.026
-136.414	-177.272	0.016	-0.000
-135.399	311.440	0.029	-0.054
-134.385	-28.291	0.194	-0.112
-133.370	-8.781	0.106	-0.071
-132.356	73.026	-0.165	0.173
-131.341	519.891	-0.036	0.085
-130.326	131.125	0.233	-0.298
-129.312	-147.073	-0.184	0.016
-128.297	-130.871	-0.146	0.019
-127.283	-200.000	0.054	-0.259
-126.268	-200.000	-0.004	0.029
-125.253	45.915	-0.242	-0.224
-124.239	-200.000	-0.054	0.503
-123.224	92.057	-0.158	0.178
-122.210	-200.000	-0.015	0.168
-121.195	800.000	0.091	0.273
