DTS Sentinel unit serial number:	SN413079Multiplexer serial number:	ORYXHardware model number:	OX4-SRSoftware version number:	ORYX F/W v4.00 Oryx Data Collector v3.7.2.0data status	okinstallation	princeton_trtdifferential loss correction	single-endedforward channel	channel 3reverse channel	N/Adate	2019/09/11time	23:50:11forward acquisition time	60.00reverse acquisition time	0.00gamma	496.2192k internal	0.2318k external	0.2318temperature offset calibration	1.0061default loss term (dB/km)	0.3790temperature slope calibration	1.0000multiplexer offset coefficient	1.0000multiplexer slope coefficient	1.0000fibre end	0.00T internal ref (°C)	33.89T ext. ref 1 (°C)	1.98T ext. ref 2 (°C)	27.58length (m)	temperature (°C)	Stokes	anti-Stokes-747.200	71.242	-0.288	0.303
-746.185	-85.220	0.429	0.136
-745.171	-3.644	-0.018	0.013
-744.156	471.050	-0.088	0.200
-743.142	800.000	-0.121	0.337
-742.127	800.000	-0.089	0.277
-741.112	170.598	0.249	0.362
-740.098	110.854	-0.090	0.109
-739.083	-200.000	0.037	0.312
-738.069	-22.645	0.158	0.097
-737.054	-200.000	-0.069	-0.395
-736.039	38.441	-0.144	0.130
-735.025	-68.659	0.262	0.103
-734.010	-200.000	0.015	0.109
-732.996	-200.000	-0.074	-0.382
-731.981	55.951	-0.141	-0.138
-730.966	304.098	-0.175	-0.328
-729.952	-200.000	0.010	-0.052
-728.937	-18.774	0.111	0.070
-727.923	-99.561	0.109	-0.028
-726.908	-23.953	-0.112	-0.068
-725.894	-200.000	0.018	0.127
-724.879	264.194	-0.112	0.196
-723.864	-82.624	-0.169	0.055
-722.850	-57.255	-0.280	0.125
-721.835	-107.599	-0.247	0.055
-720.821	-149.182	-0.423	-0.034
-719.806	259.106	-0.165	-0.288
-718.791	-114.838	0.295	-0.057
-717.777	177.350	-0.091	0.133
-716.762	352.782	0.112	0.225
-715.748	226.989	-0.147	-0.242
-714.733	-200.000	-0.009	0.117
-713.718	-113.246	-0.214	-0.043
-712.704	82.541	0.120	0.132
-711.689	-40.546	0.327	0.172
-710.675	-3.571	-0.088	0.062
-709.660	592.979	-0.131	0.328
-708.645	800.000	0.004	-0.013
-707.631	543.834	0.082	0.199
-706.616	410.772	-0.039	-0.085
-705.602	142.631	0.105	0.140
-704.587	61.831	0.376	-0.378
-703.572	-134.749	0.124	-0.015
-702.558	50.597	-0.141	0.135
-701.543	32.581	0.121	-0.106
-700.529	-200.000	0.003	0.081
-699.514	-98.049	0.207	-0.054
-698.499	34.832	-0.152	-0.134
-697.485	722.944	0.041	-0.110
-696.470	-41.065	0.234	-0.122
-695.456	-153.710	-0.461	-0.032
-694.441	487.204	0.056	0.130
-693.426	-200.000	-0.029	0.220
-692.412	-200.000	0.061	0.342
-691.397	800.000	0.072	0.202
-690.383	-30.651	0.260	-0.149
-689.368	119.181	-0.129	0.161
-688.354	373.698	0.113	-0.232
-687.339	96.354	-0.060	0.069
-686.324	337.818	0.175	-0.343
-685.310	-165.376	-0.063	-0.003
-684.295	-43.073	0.255	0.131
-683.281	244.131	-0.035	-0.059
-682.266	50.730	-0.218	0.209
-681.251	303.503	-0.066	-0.123
-680.237	-200.000	0.030	-0.238
-679.222	172.161	-0.100	0.146
-678.208	-200.000	0.011	0.179
-677.193	313.283	0.022	-0.041
-676.178	-53.948	-0.105	0.048
-675.164	-117.426	0.300	-0.055
-674.149	62.389	-0.188	-0.190
-673.135	-100.977	0.307	-0.076
-672.120	-97.452	0.158	0.041
-671.105	-160.878	-0.421	-0.022
-670.091	-56.927	-0.172	-0.077
-669.076	-200.000	0.058	-0.346
-668.062	-109.231	-0.444	-0.095
-667.047	328.209	-0.073	0.142
-666.032	-164.199	0.382	-0.018
-665.018	222.224	0.133	-0.216
-664.003	724.917	-0.093	0.250
-662.989	209.928	0.140	-0.222
-661.974	314.743	0.277	0.526
-660.959	241.212	0.080	0.135
-659.945	79.292	0.025	0.027
-658.930	-200.000	-0.030	-0.186
-657.916	-200.000	-0.022	-0.129
-656.901	800.000	-0.017	-0.065
-655.886	-10.799	-0.079	-0.053
-654.872	161.471	0.163	0.229
-653.857	412.125	0.049	0.105
-652.843	-98.849	-0.027	0.007
-651.828	91.741	-0.151	-0.172
-650.814	69.642	-0.029	0.030
-649.799	-200.000	0.015	-0.348
-648.784	-105.331	0.338	0.078
-647.770	-9.373	-0.185	-0.125
-646.755	541.668	0.033	-0.080
-645.741	-98.447	0.171	0.044
-644.726	-137.936	-0.055	-0.006
-643.711	10.555	-0.085	-0.065
-642.697	-100.305	0.204	-0.051
-641.682	800.000	0.059	0.235
-640.668	11.102	0.261	0.201
-639.653	103.916	-0.101	-0.120
-638.638	800.000	-0.071	0.220
-637.624	-54.018	-0.029	-0.013
-636.609	-38.506	0.013	0.007
-635.595	45.819	0.251	-0.234
-634.580	-153.937	-0.168	-0.012
-633.565	-28.247	0.140	0.081
-632.551	222.901	0.231	-0.376
-631.536	99.387	-0.221	0.257
-630.522	130.511	0.260	0.336
-629.507	-30.041	-0.192	-0.110
-628.492	-200.000	0.027	-0.287
-627.478	-44.175	-0.151	0.076
-626.463	794.061	-0.091	-0.253
-625.449	213.790	-0.099	-0.157
-624.434	-109.316	-0.092	-0.020
-623.419	163.419	0.135	-0.192
-622.405	226.314	-0.215	0.351
-621.390	-105.363	0.254	0.058
-620.376	-200.000	-0.026	0.195
-619.361	-200.000	-0.014	-0.151
-618.346	463.259	0.069	0.155
-617.332	-42.990	-0.400	0.204
-616.317	-3.737	-0.206	-0.144
-615.303	63.112	-0.102	-0.103
-614.288	-200.000	0.056	0.283
-613.273	55.271	0.312	-0.304
-612.259	194.930	0.031	0.047
-611.244	-85.484	0.285	-0.089
-610.230	198.450	0.106	-0.163
-609.215	105.026	-0.192	0.228
-608.201	-63.223	0.213	0.088
-607.186	220.728	-0.050	-0.081
-606.171	800.000	0.076	0.256
-605.157	-200.000	-0.007	0.178
-604.142	-200.000	-0.008	0.042
-603.128	-33.263	-0.119	0.066
-602.113	-104.405	0.227	0.053
-601.098	800.000	0.090	0.263
-600.084	-10.759	0.086	-0.057
-599.069	6.907	0.171	0.128
-598.055	-109.333	0.360	0.077
-597.040	-21.654	0.217	-0.133
-596.025	800.000	0.036	-0.139
-595.011	569.965	0.229	-0.560
-593.996	-149.576	-0.258	0.020
-592.982	-32.348	0.298	0.167
-591.967	174.712	0.079	0.115
-590.952	-200.000	-0.004	-0.031
-589.938	800.000	0.023	-0.099
-588.923	-200.000	-0.006	0.149
-587.909	-110.262	-0.256	-0.054
-586.894	-200.000	-0.015	0.073
-585.879	-200.000	-0.023	-0.244
-584.865	-139.786	-0.339	-0.036
-583.850	-194.951	-0.481	0.004
-582.836	32.846	0.317	0.276
-581.821	-46.726	-0.320	-0.158
-580.806	402.673	-0.102	-0.217
-579.792	800.000	-0.039	0.125
-578.777	-70.650	-0.205	-0.078
-577.763	800.000	0.090	-0.252
-576.748	-80.933	0.289	0.096
-575.733	62.230	-0.061	-0.061
-574.719	800.000	-0.071	-0.254
-573.704	-66.950	-0.160	0.063
-572.690	64.400	0.160	-0.162
-571.675	224.906	0.106	0.172
-570.661	-200.000	-0.052	0.323
-569.646	-200.000	0.022	-0.569
-568.631	-15.470	0.234	-0.150
-567.617	-81.305	-0.271	-0.090
-566.602	473.430	-0.073	-0.165
-565.588	-2.659	-0.220	0.155
-564.573	605.625	0.127	0.319
-563.558	-200.000	0.013	0.099
-562.544	-200.000	0.063	-0.356
-561.529	-200.000	0.037	-0.309
-560.515	-148.981	0.050	0.004
-559.500	-130.946	-0.152	0.020
-558.485	-58.997	0.235	-0.102
-557.471	800.000	0.106	-0.348
-556.456	-106.130	0.113	-0.026
-555.442	-4.128	0.062	-0.043
-554.427	37.658	0.254	0.226
-553.412	-106.886	0.117	-0.026
-552.398	731.355	-0.131	-0.351
-551.383	512.752	-0.013	-0.029
-550.369	-200.000	-0.009	0.069
-549.354	403.043	0.084	-0.178
-548.339	-200.000	0.004	-0.023
-547.325	800.000	-0.119	-0.376
-546.310	-70.228	0.151	0.058
-545.296	217.468	-0.076	-0.122
-544.281	-34.120	-0.255	-0.141
-543.266	51.930	0.083	0.079
-542.252	183.393	0.080	0.118
-541.237	254.009	-0.194	0.333
-540.223	800.000	0.078	0.322
-539.208	-27.210	-0.413	-0.242
-538.193	-145.392	-0.297	-0.027
-537.179	39.236	-0.224	0.201
-536.164	84.002	0.060	-0.066
-535.150	128.836	0.130	0.166
-534.135	-200.000	-0.063	0.471
-533.121	800.000	0.130	0.381
-532.106	49.779	0.116	-0.110
-531.091	800.000	-0.037	-0.154
-530.077	-200.000	-0.005	-0.084
-529.062	-32.360	-0.178	0.100
-528.048	-97.768	0.058	0.015
-527.033	-75.370	-0.143	0.051
-526.018	-70.598	-0.216	0.082
-525.004	86.083	-0.305	-0.337
-523.989	800.000	0.120	-0.482
-522.975	-174.820	-0.099	-0.003
-521.960	-146.111	-0.233	0.021
-520.945	-7.891	-0.226	-0.153
-519.931	313.829	-0.144	-0.271
-518.916	116.680	-0.199	0.245
-517.902	-180.073	-0.244	0.005
-516.887	-90.263	0.024	0.007
-515.872	7.199	-0.052	-0.039
-514.858	232.812	0.130	0.214
-513.843	-22.688	-0.117	-0.071
-512.829	265.495	-0.192	0.336
-511.814	231.950	0.066	0.109
-510.799	-200.000	-0.050	-0.258
-509.785	-200.000	0.034	-0.272
-508.770	-200.000	-0.041	-0.207
-507.756	-14.045	-0.345	-0.223
-506.741	-43.328	-0.117	-0.059
-505.726	800.000	0.023	-0.065
-504.712	20.217	-0.019	0.015
-503.697	125.670	-0.094	0.119
-502.683	15.183	-0.180	-0.141
-501.668	800.000	0.028	-0.105
-500.653	-200.000	-0.023	0.186
-499.639	-42.064	-0.103	0.053
-498.624	517.046	-0.073	-0.171
-497.610	-112.079	0.340	-0.069
-496.595	2.696	0.203	0.148
-495.581	5.191	0.072	0.053
-494.566	-16.399	-0.025	0.016
-493.551	-95.025	0.334	0.090
-492.537	-60.247	-0.133	-0.057
-491.522	-46.412	0.106	-0.052
-490.508	80.324	-0.033	0.036
-489.493	370.493	-0.106	-0.215
-488.478	-200.000	0.027	-0.149
-487.464	120.397	0.120	0.149
-486.449	5.757	0.236	0.175
-485.435	-173.122	0.150	0.005
-484.420	-200.000	0.016	0.109
-483.405	-112.628	0.052	0.010
-482.391	-126.218	-0.259	0.039
-481.376	-44.873	-0.085	0.042
-480.362	-33.082	-0.198	0.110
-479.347	-46.301	0.217	0.107
-478.332	-32.249	0.286	-0.160
-477.318	800.000	0.016	-0.066
-476.303	647.686	0.114	-0.291
-475.289	-23.276	0.451	0.271
-474.274	499.412	0.123	-0.283
-473.259	127.179	0.072	0.091
-472.245	800.000	-0.067	-0.261
-471.230	-200.000	0.000	0.146
-470.216	113.235	0.102	0.124
-469.201	800.000	-0.041	0.140
-468.186	5.648	0.229	0.170
-467.172	-64.820	0.257	-0.104
-466.157	-127.945	-0.062	-0.009
-465.143	-200.000	0.031	-0.156
-464.128	800.000	0.103	-0.289
-463.113	-169.528	0.118	-0.004
-462.099	-33.823	0.178	0.098
-461.084	68.477	-0.108	0.111
-460.070	-174.137	-0.081	-0.002
-459.055	-200.000	-0.007	-0.332
-458.040	-139.620	-0.157	-0.017
-457.026	14.393	0.103	-0.080
-456.011	-69.466	0.184	0.071
-454.997	-134.880	0.100	0.012
-453.982	-200.000	-0.018	0.150
-452.968	800.000	0.051	-0.210
-451.953	-93.152	0.102	-0.028
-450.938	157.398	-0.066	0.091
-449.924	128.160	0.033	-0.042
-448.909	-200.000	-0.025	0.236
-447.895	624.520	0.109	-0.275
-446.880	-200.000	0.006	0.059
-445.865	280.680	0.063	0.113
-444.851	-107.118	0.129	0.028
-443.836	-200.000	-0.384	-0.000
-442.822	800.000	0.047	0.144
-441.807	-54.498	0.220	0.100
-440.792	21.614	-0.095	0.077
-439.778	-64.834	0.302	0.122
-438.763	316.524	0.113	-0.213
-437.749	-185.664	-0.088	-0.001
-436.734	-113.621	-0.220	0.043
-435.719	-181.671	-0.515	0.010
-434.705	-162.648	0.112	-0.005
-433.690	246.876	-0.142	0.240
-432.676	-158.173	0.081	-0.005
-431.661	-101.058	-0.036	-0.009
-430.646	-10.268	-0.044	-0.029
-429.632	-200.000	-0.006	-0.118
-428.617	24.985	0.077	-0.064
-427.603	-97.803	0.260	0.067
-426.588	192.570	0.151	0.228
-425.573	276.296	-0.003	-0.005
-424.559	800.000	-0.052	0.227
-423.544	-27.027	0.269	0.157
-422.530	82.938	0.129	0.141
-421.515	800.000	0.049	-0.142
-420.500	176.799	-0.198	-0.287
-419.486	-11.334	-0.211	0.139
-418.471	332.799	-0.106	0.205
-417.457	-66.559	-0.154	-0.061
-416.442	-121.573	0.350	-0.058
-415.428	-173.290	0.210	0.006
-414.413	455.093	-0.050	-0.110
-413.398	50.937	-0.069	-0.065
-412.384	170.560	-0.116	-0.167
-411.369	800.000	-0.026	-0.099
-410.355	132.173	0.081	0.104
-409.340	-93.459	-0.099	-0.027
-408.325	-122.103	-0.124	-0.020
-407.311	45.530	0.142	0.131
-406.296	-200.000	-0.001	-0.220
-405.282	-66.802	0.241	0.095
-404.267	-121.020	-0.297	0.050
-403.252	620.590	0.074	-0.186
-402.238	264.401	0.105	0.183
-401.223	-200.000	-0.039	-0.189
-400.209	173.892	-0.225	0.324
-399.194	-64.108	0.228	0.093
-398.179	800.000	0.068	0.258
-397.165	24.587	0.202	0.167
-396.150	80.564	-0.094	0.101
-395.136	31.962	0.323	0.278
-394.121	-10.509	0.158	0.104
-393.106	-200.000	0.047	-0.360
-392.092	-13.251	-0.324	-0.210
-391.077	149.612	-0.182	-0.247
-390.063	-200.000	-0.005	-0.174
-389.048	-96.377	0.275	-0.073
-388.033	-116.938	-0.193	0.035
-387.019	86.697	0.069	-0.077
-386.004	44.548	0.378	-0.347
-384.990	-58.673	0.438	0.189
-383.975	169.298	-0.091	-0.130
-382.960	800.000	0.038	0.145
-381.946	-74.551	-0.406	0.146
-380.931	-200.000	0.025	-0.288
-379.917	-3.389	0.139	0.097
-378.902	-147.578	0.136	-0.011
-377.888	-25.746	-0.060	-0.036
-376.873	-47.701	0.062	-0.030
-375.858	67.167	-0.261	0.266
-374.844	786.620	0.099	-0.272
-373.829	-124.160	0.195	-0.031
-372.815	21.466	-0.232	0.188
-371.800	-48.180	0.033	-0.016
-370.785	800.000	0.061	0.241
-369.771	-71.664	-0.204	0.076
-368.756	47.239	0.105	0.097
-367.742	-200.000	0.009	0.054
-366.727	-32.574	-0.373	-0.207
-365.712	-76.080	-0.297	-0.105
-364.698	-200.000	0.026	-0.192
-363.683	-119.192	-0.176	0.031
-362.669	-200.000	-0.002	-0.282
-361.654	17.716	0.345	0.274
-360.639	197.874	-0.074	0.113
-359.625	-200.000	-0.005	-0.106
-358.610	84.527	0.172	-0.188
-357.596	-200.000	0.000	0.236
-356.581	-63.150	0.279	-0.115
-355.566	-200.000	0.042	0.249
-354.552	778.348	0.055	0.150
-353.537	-200.000	-0.021	-0.106
-352.523	6.242	-0.224	-0.166
-351.508	-200.000	0.037	0.168
-350.493	331.250	-0.219	0.421
-349.479	28.867	-0.109	-0.092
-348.464	435.806	0.061	-0.132
-347.450	-200.000	-0.040	0.257
-346.435	800.000	-0.020	0.079
-345.420	-38.556	0.253	-0.133
-344.406	24.627	0.131	0.108
-343.391	-194.714	0.096	0.001
-342.377	-200.000	0.044	-0.258
-341.362	265.484	-0.093	0.161
-340.348	-62.856	-0.434	-0.179
-339.333	-200.000	0.062	-0.368
-338.318	-150.513	0.200	-0.015
-337.304	-96.611	0.297	-0.078
-336.289	178.609	-0.223	-0.324
-335.275	-200.000	0.037	0.182
-334.260	-32.968	-0.107	0.059
-333.245	-166.212	-0.370	0.016
-332.231	-114.368	-0.087	0.017
-331.216	-124.479	0.182	0.028
-330.202	800.000	0.089	0.313
-329.187	-75.768	-0.239	-0.084
-328.172	-200.000	0.059	0.276
-327.158	800.000	-0.030	0.085
-326.143	355.470	0.078	0.155
-325.129	800.000	0.045	0.194
-324.114	210.582	0.030	0.047
-323.099	23.045	-0.189	-0.154
-322.085	-200.000	0.035	0.233
-321.070	-28.006	0.335	0.193
-320.056	-184.014	0.232	0.004
-319.041	305.352	-0.186	0.345
-318.026	800.000	0.011	-0.044
-317.012	685.119	0.150	0.390
-315.997	-200.000	-0.025	0.167
-314.983	800.000	0.065	0.213
-313.968	-22.523	-0.289	-0.174
-312.953	-119.511	-0.199	0.034
-311.939	10.211	-0.182	0.138
-310.924	244.467	-0.140	-0.233
-309.910	-161.899	-0.359	-0.018
-308.895	690.539	-0.040	-0.105
-307.880	229.656	-0.159	0.258
-306.866	-6.545	-0.126	0.085
-305.851	-17.496	-0.188	-0.118
-304.837	210.186	-0.036	-0.057
-303.822	-163.288	-0.258	-0.012
-302.807	368.781	-0.125	0.252
-301.793	-16.105	0.177	0.112
-300.778	137.730	-0.213	-0.277
-299.764	370.648	-0.071	-0.142
-298.749	452.721	0.127	0.279
-297.735	-173.308	-0.068	-0.002
-296.720	-200.000	-0.002	-0.077
-295.705	113.092	0.232	-0.279
-294.691	13.104	-0.217	-0.167
-293.676	-10.587	0.220	-0.145
-292.662	142.803	-0.130	-0.171
-291.647	28.384	-0.223	-0.187
-290.632	-83.396	0.466	-0.148
-289.618	-200.000	-0.006	0.159
-288.603	431.682	0.112	0.241
-287.589	94.529	-0.311	0.352
-286.574	-63.967	-0.218	0.088
-285.559	101.708	0.263	-0.305
-284.545	327.312	0.206	-0.393
-283.530	800.000	0.085	0.295
-282.516	-129.395	-0.046	0.006
-281.501	-200.000	-0.011	-0.162
-280.486	-171.141	-0.123	-0.004
-279.472	-180.193	0.354	-0.007
-278.457	513.823	-0.143	0.331
-277.443	-200.000	-0.022	0.099
-276.428	212.820	-0.288	-0.452
-275.413	-85.973	0.264	0.081
-274.399	-9.151	-0.291	-0.193
-273.384	-200.000	-0.009	0.140
-272.370	7.196	0.262	-0.194
-271.355	-43.333	-0.159	-0.080
-270.340	433.188	0.086	-0.186
-269.326	97.183	-0.058	-0.066
-268.311	-70.827	0.054	0.020
-267.297	-85.072	-0.046	-0.014
-266.282	-59.569	-0.256	-0.109
-265.267	-9.856	0.245	0.162
-264.253	-108.125	0.175	-0.038
-263.238	254.291	0.069	0.118
-262.224	728.123	0.135	0.357
-261.209	492.378	0.077	0.176
-260.195	43.994	0.137	-0.125
-259.180	655.078	-0.084	-0.214
-258.165	574.281	-0.064	-0.155
-257.151	185.580	0.040	-0.059
-256.136	17.748	-0.168	0.133
-255.122	800.000	-0.022	-0.078
-254.107	-71.624	-0.174	-0.065
-253.092	18.921	-0.040	0.031
-252.078	-86.090	0.358	0.110
-251.063	160.960	-0.076	0.106
-250.049	717.027	0.079	-0.208
-249.034	17.089	-0.125	0.098
-248.019	-162.712	-0.274	0.013
-247.005	500.862	-0.137	0.314
-245.990	-200.000	0.006	0.054
-244.976	-133.505	0.442	-0.055
-243.961	633.967	-0.154	-0.388
-242.946	-25.270	-0.274	-0.161
-241.932	401.850	0.070	0.145
-240.917	78.457	0.073	0.077
-239.903	-129.709	-0.077	-0.011
-238.888	455.258	-0.094	0.207
-237.873	800.000	-0.065	0.220
-236.859	-81.957	-0.353	-0.115
-235.844	800.000	-0.138	0.429
-234.830	106.986	0.168	0.198
-233.815	-71.272	-0.214	-0.080
-232.800	236.587	-0.027	0.045
-231.786	9.825	-0.077	0.058
-230.771	-44.506	-0.245	-0.121
-229.757	13.953	0.089	-0.069
-228.742	-72.701	-0.158	-0.058
-227.727	800.000	0.041	-0.126
-226.713	35.608	0.169	-0.147
-225.698	-122.503	-0.156	-0.025
-224.684	467.603	-0.117	-0.260
-223.669	220.553	-0.127	0.203
-222.655	515.389	-0.056	0.129
-221.640	19.601	-0.281	0.224
-220.625	800.000	-0.034	-0.134
-219.611	400.323	-0.118	-0.245
-218.596	-84.651	0.166	0.052
-217.582	197.828	-0.081	-0.123
-216.567	-144.433	0.105	0.010
-215.552	578.582	-0.094	0.229
-214.538	-29.376	0.391	0.222
-213.523	-200.000	0.009	0.157
-212.509	-200.000	-0.013	-0.188
-211.494	-40.632	0.395	-0.203
-210.479	800.000	0.036	0.136
-209.465	-104.560	-0.054	-0.012
-208.450	293.127	-0.042	0.075
-207.436	800.000	0.102	0.299
-206.421	-88.711	-0.067	-0.020
-205.406	800.000	-0.074	0.257
-204.392	-164.224	-0.344	-0.016
-203.377	-20.312	0.448	-0.273
-202.363	112.953	0.095	-0.114
-201.348	563.611	0.031	-0.075
-200.333	-176.188	-0.240	0.006
-199.319	-175.563	-0.160	0.004
-198.304	168.640	-0.113	0.160
-197.290	-74.198	-0.083	-0.030
-196.275	330.643	0.196	-0.373
-195.260	177.620	-0.132	0.191
-194.246	-49.923	0.164	0.077
-193.231	20.138	0.120	-0.096
-192.217	355.920	0.158	0.312
-191.202	-200.000	-0.077	0.427
-190.187	-58.391	-0.271	-0.117
-189.173	541.882	0.080	-0.188
-188.158	-106.713	-0.183	0.040
-187.144	617.031	-0.027	-0.068
-186.129	219.170	0.063	-0.100
-185.114	-112.323	-0.073	-0.015
-184.100	-200.000	0.004	0.135
-183.085	-200.000	0.014	0.117
-182.071	99.553	0.057	-0.066
-181.056	800.000	0.030	0.097
-180.042	-96.947	-0.197	0.051
-179.027	-177.374	-0.146	0.004
-178.012	-19.965	0.331	-0.202
-176.998	240.860	-0.039	-0.064
-175.983	408.845	-0.118	0.248
-174.969	-200.000	0.023	-0.159
-173.954	414.241	0.094	-0.199
-172.939	165.023	0.113	0.158
-171.925	-200.000	-0.055	0.273
-170.910	85.755	0.282	-0.307
-169.896	-167.829	-0.023	0.001
-168.881	396.506	0.115	0.238
-167.866	168.472	0.187	-0.263
-166.852	-45.328	-0.206	0.101
-165.837	16.332	0.128	-0.100
-164.823	-27.440	-0.140	-0.080
-163.808	-178.823	-0.119	0.003
-162.793	9.514	-0.407	-0.305
-161.779	-66.716	-0.157	-0.061
-160.764	-71.315	-0.149	-0.055
-159.750	270.731	0.158	0.276
-158.735	-53.717	0.123	0.055
-157.720	353.065	0.067	-0.131
-156.706	153.797	-0.136	-0.184
-155.691	65.727	0.316	0.316
-154.677	-117.680	0.331	0.059
-153.662	281.264	0.115	0.204
-152.647	-37.603	0.442	-0.233
-151.633	38.796	0.253	0.223
-150.618	34.426	0.144	0.125
-149.604	-200.000	-0.015	-0.306
-148.589	7.287	0.359	0.265
-147.574	-78.341	-0.223	0.076
-146.560	38.194	0.191	-0.168
-145.545	354.094	0.107	-0.210
-144.531	-47.654	-0.299	0.144
-143.516	-115.702	0.274	-0.051
-142.502	61.065	0.153	-0.150
-141.487	321.794	0.093	-0.176
-140.472	13.310	0.032	0.024
-139.458	101.529	-0.133	-0.153
-138.443	521.070	0.054	-0.125
-137.429	-30.519	0.086	0.048
-136.414	109.354	0.166	-0.197
-135.399	33.919	0.127	0.109
-134.385	-140.657	0.035	-0.004
-133.370	-168.633	-0.099	0.004
-132.356	398.206	-0.196	0.404
-131.341	-200.000	-0.049	0.268
-130.326	-19.512	0.135	0.083
-129.312	-56.429	-0.139	0.061
-128.297	-156.943	-0.176	-0.011
-127.283	-200.000	-0.021	0.120
-126.268	198.796	-0.190	0.287
-125.253	-200.000	-0.055	0.254
-124.239	-90.400	-0.287	0.082
-123.224	6.703	-0.158	-0.116
-122.210	-129.709	0.174	-0.024
-121.195	-200.000	0.008	-0.088
