DTS Sentinel unit serial number:	SN413079Multiplexer serial number:	ORYXHardware model number:	OX4-SRSoftware version number:	ORYX F/W v4.00 Oryx Data Collector v3.7.2.0data status	okinstallation	princeton_trtdifferential loss correction	single-endedforward channel	channel 3reverse channel	N/Adate	2019/09/17time	12:40:35forward acquisition time	60.00reverse acquisition time	0.00gamma	496.2192k internal	0.2316k external	0.2316temperature offset calibration	0.9957default loss term (dB/km)	0.3790temperature slope calibration	1.0000multiplexer offset coefficient	1.0000multiplexer slope coefficient	1.0000fibre end	0.00T internal ref (°C)	32.34T ext. ref 1 (°C)	0.42T ext. ref 2 (°C)	30.20length (m)	temperature (°C)	Stokes	anti-Stokes-747.200	436.826	-0.092	-0.204
-746.185	-200.000	0.001	0.056
-745.171	21.500	0.307	-0.253
-744.156	-155.076	0.124	0.008
-743.142	-200.000	-0.023	-0.129
-742.127	-200.000	0.079	0.368
-741.112	176.533	0.143	0.210
-740.098	68.422	0.163	-0.170
-739.083	138.504	0.227	-0.302
-738.069	32.518	-0.247	0.217
-737.054	84.813	-0.136	0.151
-736.039	-200.000	0.011	0.361
-735.025	800.000	-0.120	0.340
-734.010	-1.527	0.225	0.161
-732.996	418.099	-0.187	-0.404
-731.981	112.282	0.235	-0.288
-730.966	20.728	0.170	-0.139
-729.952	103.897	-0.059	-0.070
-728.937	44.817	-0.296	-0.276
-727.923	545.238	0.162	0.391
-726.908	800.000	0.106	0.317
-725.894	-200.000	-0.005	0.074
-724.879	-200.000	0.011	0.217
-723.864	76.314	-0.148	0.159
-722.850	-75.507	-0.410	0.148
-721.835	-200.000	0.036	-0.198
-720.821	800.000	0.133	-0.457
-719.806	800.000	0.120	-0.390
-718.791	800.000	-0.069	-0.282
-717.777	-200.000	0.010	-0.472
-716.762	-200.000	0.037	-0.434
-715.748	-39.327	-0.277	-0.147
-714.733	470.298	0.040	0.090
-713.718	16.675	0.176	0.141
-712.704	-200.000	-0.008	0.173
-711.689	800.000	0.070	0.198
-710.675	-93.293	0.284	0.080
-709.660	-48.540	-0.236	0.115
-708.645	-17.042	0.104	-0.066
-707.631	-143.578	0.257	0.025
-706.616	-185.561	-0.133	-0.002
-705.602	-128.387	0.214	-0.031
-704.587	667.785	0.100	-0.263
-703.572	800.000	0.121	-0.373
-702.558	-124.838	-0.442	0.069
-701.543	189.075	-0.069	-0.105
-700.529	800.000	-0.087	0.246
-699.514	-129.904	0.112	-0.015
-698.499	-200.000	-0.011	0.222
-697.485	284.837	-0.099	-0.181
-696.470	-200.000	-0.045	0.268
-695.456	-103.483	-0.059	-0.014
-694.441	438.745	-0.093	0.205
-693.426	343.345	-0.052	0.103
-692.412	-200.000	-0.023	-0.206
-691.397	-38.423	-0.189	-0.101
-690.383	-200.000	0.010	0.071
-689.368	42.541	-0.361	0.332
-688.354	316.944	-0.127	0.243
-687.339	187.407	0.138	-0.208
-686.324	620.142	-0.140	0.355
-685.310	-200.000	0.038	-0.225
-684.295	-9.995	0.243	0.163
-683.281	52.780	-0.242	-0.234
-682.266	-111.595	0.320	-0.066
-681.251	100.466	0.123	-0.145
-680.237	138.887	0.219	0.290
-679.222	800.000	0.006	0.022
-678.208	12.595	0.311	-0.243
-677.193	138.872	-0.173	0.229
-676.178	-40.945	-0.190	0.099
-675.164	-200.000	-0.009	-0.596
-674.149	605.428	0.093	0.234
-673.135	-200.000	-0.005	-0.091
-672.120	250.048	-0.079	0.136
-671.105	-200.000	0.037	-0.231
-670.091	56.823	-0.144	0.142
-669.076	-7.877	-0.124	0.084
-668.062	800.000	0.036	0.120
-667.047	-114.452	-0.364	0.071
-666.032	86.331	0.248	0.275
-665.018	-111.961	-0.142	0.029
-664.003	50.395	-0.129	-0.123
-662.989	40.221	0.207	-0.188
-661.974	-99.725	0.111	0.028
-660.959	-200.000	-0.101	-0.515
-659.945	396.785	-0.055	-0.116
-658.930	800.000	-0.037	0.126
-657.916	-35.668	0.056	0.030
-656.901	200.217	0.131	0.203
-655.886	-56.948	0.156	-0.070
-654.872	800.000	0.059	0.225
-653.857	383.856	0.126	0.261
-652.843	-119.816	-0.169	-0.029
-651.828	800.000	0.051	-0.218
-650.814	47.575	-0.148	-0.139
-649.799	203.947	0.189	-0.295
-648.784	-200.000	0.014	-0.413
-647.770	-140.743	0.340	-0.035
-646.755	-92.742	-0.086	-0.024
-645.741	94.502	0.073	0.084
-644.726	-53.390	-0.240	-0.111
-643.711	-3.434	0.082	0.057
-642.697	-200.000	0.019	-0.216
-641.682	-25.095	0.221	-0.132
-640.668	-93.559	-0.332	0.093
-639.653	115.485	-0.159	0.197
-638.638	-141.742	0.129	-0.013
-637.624	-114.467	0.371	-0.072
-636.609	800.000	0.052	-0.177
-635.595	-12.872	-0.160	-0.105
-634.580	-200.000	0.031	-0.184
-633.565	77.156	0.111	-0.119
-632.551	-140.586	-0.613	-0.064
-631.536	122.914	-0.094	-0.119
-630.522	-200.000	0.047	0.293
-629.507	-4.439	0.093	-0.065
-628.492	-102.109	-0.178	-0.043
-627.478	118.381	-0.158	0.196
-626.463	-55.255	0.196	0.089
-625.449	190.684	-0.072	-0.110
-624.434	800.000	-0.042	0.119
-623.419	-81.508	0.173	-0.058
-622.405	48.077	-0.130	-0.123
-621.390	-107.887	0.240	-0.053
-620.376	800.000	-0.016	0.070
-619.361	25.693	-0.023	0.019
-618.346	89.821	-0.046	-0.051
-617.332	-58.226	-0.106	0.047
-616.317	-98.083	-0.516	0.134
-615.303	79.077	0.080	-0.086
-614.288	-200.000	0.017	-0.506
-613.273	21.215	0.069	-0.056
-612.259	-137.070	-0.273	0.031
-611.244	800.000	-0.040	-0.148
-610.230	-46.295	-0.154	0.076
-609.215	800.000	0.028	-0.107
-608.201	17.271	-0.227	0.182
-607.186	148.080	-0.114	-0.155
-606.171	18.309	0.115	-0.093
-605.157	70.842	-0.114	0.119
-604.142	-41.505	-0.097	-0.051
-603.128	-88.900	-0.059	0.018
-602.113	228.412	0.200	-0.328
-601.098	299.699	0.022	-0.041
-600.084	419.319	0.091	0.197
-599.069	243.841	0.113	0.191
-598.055	-200.000	-0.020	-0.147
-597.040	234.007	0.095	-0.158
-596.025	800.000	-0.043	-0.136
-595.011	179.442	0.116	0.172
-593.996	-200.000	0.017	0.276
-592.982	0.352	-0.428	-0.308
-591.967	242.635	-0.119	0.201
-590.952	15.553	-0.333	-0.264
-589.938	88.090	0.118	0.132
-588.923	-50.699	-0.145	-0.069
-587.909	-88.697	-0.317	-0.095
-586.894	800.000	0.028	0.095
-585.879	800.000	0.021	0.091
-584.865	3.251	0.036	0.026
-583.850	123.758	-0.212	0.268
-582.836	-200.000	0.094	0.422
-581.821	222.879	-0.035	0.056
-580.806	485.930	-0.143	-0.329
-579.792	800.000	0.046	0.142
-578.777	-97.357	0.089	0.023
-577.763	-148.082	0.191	0.016
-576.748	-188.164	-0.216	-0.003
-575.733	112.703	0.155	-0.189
-574.719	-200.000	0.017	-0.133
-573.704	-200.000	-0.051	0.265
-572.690	223.929	-0.096	0.156
-571.675	58.482	0.279	0.276
-570.661	-65.828	-0.097	0.039
-569.646	12.249	0.303	0.235
-568.631	776.396	0.089	0.245
-567.617	-200.000	-0.003	-0.079
-566.602	-84.398	-0.311	-0.099
-565.588	-120.573	-0.053	0.009
-564.573	72.490	0.142	-0.149
-563.558	-200.000	-0.029	-0.369
-562.544	-200.000	0.014	0.093
-561.529	-131.277	0.311	0.042
-560.515	579.262	0.025	-0.061
-559.500	-200.000	0.073	0.374
-558.485	38.657	0.404	0.363
-557.471	800.000	0.016	0.060
-556.456	36.784	0.218	-0.193
-555.442	-200.000	0.001	-0.121
-554.427	800.000	0.086	0.317
-553.412	43.928	-0.220	0.203
-552.398	220.144	-0.086	-0.139
-551.383	-107.218	-0.276	-0.061
-550.369	-200.000	-0.035	0.385
-549.354	140.667	-0.016	0.022
-548.339	63.421	-0.181	0.183
-547.325	-38.319	-0.117	-0.062
-546.310	-6.836	-0.156	0.107
-545.296	-101.791	-0.248	-0.060
-544.281	509.654	-0.017	-0.039
-543.266	474.041	0.164	0.372
-542.252	-84.993	0.136	0.043
-541.237	-200.000	-0.009	0.218
-540.223	-68.536	-0.445	0.173
-539.208	800.000	-0.027	-0.079
-538.193	-200.000	-0.058	0.331
-537.179	199.951	-0.238	0.367
-536.164	-19.335	-0.104	0.065
-535.150	-66.123	-0.290	-0.116
-534.135	737.043	-0.068	-0.182
-533.121	-34.147	-0.191	-0.105
-532.106	482.844	-0.175	-0.399
-531.091	-87.486	0.271	-0.082
-530.077	64.268	0.108	0.109
-529.062	-55.240	0.125	0.057
-528.048	38.284	-0.083	0.074
-527.033	-62.763	0.042	0.017
-526.018	112.358	0.274	0.332
-525.004	19.990	0.033	0.027
-523.989	165.492	-0.029	-0.042
-522.975	-152.542	0.224	0.016
-521.960	80.082	0.234	0.253
-520.945	-147.807	-0.124	-0.010
-519.931	-38.710	-0.234	-0.124
-518.916	255.760	0.022	0.038
-517.902	40.974	-0.036	0.033
-516.887	-66.640	0.276	-0.110
-515.872	-18.797	-0.464	-0.290
-514.858	709.346	0.044	0.117
-513.843	103.848	-0.203	0.239
-512.829	-200.000	-0.108	0.486
-511.814	31.815	-0.154	0.133
-510.799	29.993	-0.390	-0.333
-509.785	99.200	-0.191	0.222
-508.770	-200.000	-0.054	-0.357
-507.756	800.000	-0.108	-0.356
-506.741	72.800	0.181	0.190
-505.726	800.000	-0.060	-0.228
-504.712	-200.000	0.010	-0.238
-503.697	-79.873	-0.361	0.122
-502.683	-200.000	0.002	-0.432
-501.668	-91.332	-0.165	-0.047
-500.653	177.308	-0.053	0.078
-499.639	800.000	0.070	0.224
-498.624	298.826	0.141	-0.261
-497.610	321.827	-0.139	0.265
-496.595	159.557	0.104	-0.145
-495.581	-71.664	-0.179	0.067
-494.566	87.999	-0.121	-0.135
-493.551	178.011	0.114	0.167
-492.537	-163.475	0.228	-0.011
-491.522	-200.000	-0.019	0.086
-490.508	-200.000	-0.007	0.127
-489.493	33.067	-0.139	0.121
-488.478	800.000	-0.042	-0.166
-487.464	316.901	-0.032	-0.060
-486.449	47.536	-0.140	-0.131
-485.435	-38.487	0.222	-0.117
-484.420	-137.737	-0.366	0.041
-483.405	47.965	0.263	0.246
-482.391	-22.110	0.059	0.036
-481.376	152.945	-0.247	-0.339
-480.362	300.717	0.176	0.327
-479.347	-125.486	0.123	0.019
-478.332	691.945	0.082	0.215
-477.318	-166.021	0.338	0.014
-476.303	370.459	-0.109	0.221
-475.289	-142.610	0.317	-0.031
-474.274	800.000	0.046	-0.143
-473.259	-18.532	0.218	-0.136
-472.245	-61.054	-0.133	-0.056
-471.230	757.524	-0.062	0.168
-470.216	187.524	0.155	-0.232
-469.201	-40.960	-0.415	-0.215
-468.186	-137.399	-0.248	0.028
-467.172	800.000	-0.072	-0.211
-466.157	29.431	0.124	-0.106
-465.143	436.433	0.043	-0.094
-464.128	800.000	0.042	0.140
-463.113	-200.000	0.076	0.343
-462.099	800.000	-0.069	-0.292
-461.084	800.000	-0.077	-0.268
-460.070	-76.786	0.133	0.047
-459.055	-4.197	0.150	0.104
-458.040	-145.796	-0.276	0.025
-457.026	-53.512	0.279	-0.128
-456.011	-28.867	-0.193	-0.111
-454.997	800.000	-0.128	0.441
-453.982	-200.000	0.035	0.307
-452.968	-118.350	-0.166	-0.029
-451.953	1.401	0.180	0.130
-450.938	49.674	-0.237	-0.224
-449.924	667.671	0.136	-0.353
-448.909	29.359	0.233	0.198
-447.895	206.575	-0.084	-0.131
-446.880	-167.521	-0.251	-0.010
-445.865	-101.343	0.142	-0.035
-444.851	-17.357	-0.055	0.035
-443.836	-1.540	-0.318	-0.224
-442.822	-200.000	0.032	0.224
-441.807	-85.504	-0.216	-0.067
-440.792	87.329	0.168	0.186
-439.778	-162.019	-0.266	-0.013
-438.763	-200.000	0.028	-0.271
-437.749	113.930	-0.165	-0.200
-436.734	288.871	0.055	0.099
-435.719	800.000	0.109	-0.366
-434.705	-58.691	0.297	-0.129
-433.690	-29.664	-0.401	-0.229
-432.676	340.182	0.199	0.389
-431.661	-200.000	0.029	-0.236
-430.646	-200.000	-0.031	-0.227
-429.632	-28.025	-0.101	-0.059
-428.617	-200.000	0.026	-0.284
-427.603	181.688	-0.126	-0.185
-426.588	-120.252	-0.237	-0.040
-425.573	-72.642	-0.447	0.165
-424.559	96.083	0.173	-0.197
-423.544	-57.212	0.301	-0.132
-422.530	129.347	-0.167	-0.213
-421.515	-99.974	0.189	0.047
-420.500	419.335	0.078	0.168
-419.486	88.442	-0.162	0.180
-418.471	44.954	-0.135	0.124
-417.457	-38.764	0.385	0.203
-416.442	408.815	0.085	-0.179
-415.428	108.046	-0.187	-0.223
-414.413	-200.000	0.019	0.371
-413.398	-4.517	0.035	0.024
-412.384	104.005	0.210	-0.247
-411.369	-54.711	0.188	-0.085
-410.355	110.993	0.081	-0.097
-409.340	-96.652	0.428	0.113
-408.325	-68.920	0.202	0.078
-407.311	94.582	0.069	-0.078
-406.296	-79.155	-0.385	0.131
-405.282	-69.840	0.156	-0.059
-404.267	-47.342	0.108	-0.052
-403.252	-138.119	0.054	-0.006
-402.238	159.312	-0.168	-0.234
-401.223	-66.766	0.121	-0.048
-400.209	297.493	0.187	0.342
-399.194	33.083	0.253	-0.219
-398.179	-200.000	0.001	-0.221
-397.165	-200.000	-0.010	0.361
-396.150	-166.069	-0.113	0.005
-395.136	-109.577	0.154	0.032
-394.121	192.178	0.117	-0.176
-393.106	-37.818	-0.288	0.153
-392.092	-64.727	-0.248	-0.100
-391.077	116.289	0.105	0.129
-390.063	-76.985	-0.293	-0.102
-389.048	-200.000	0.030	-0.368
-388.033	11.938	-0.137	0.105
-387.019	-68.459	-0.212	-0.082
-386.004	-200.000	-0.052	-0.511
-384.990	-200.000	0.022	-0.512
-383.975	-200.000	0.013	-0.265
-382.960	-200.000	0.013	0.315
-381.946	152.667	0.099	0.136
-380.931	800.000	0.065	0.243
-379.917	-141.142	-0.118	0.012
-378.902	-200.000	0.011	-0.332
-377.888	-71.987	0.541	-0.201
-376.873	327.012	-0.144	0.277
-375.858	328.227	-0.112	-0.214
-374.844	800.000	0.084	0.362
-373.829	-120.512	-0.288	0.049
-372.815	-70.323	0.144	-0.055
-371.800	-36.659	-0.190	0.102
-370.785	-50.596	-0.106	-0.050
-369.771	800.000	0.018	0.050
-368.756	-192.476	0.021	-0.000
-367.742	800.000	-0.053	-0.179
-366.727	31.465	0.081	-0.070
-365.712	-82.440	-0.129	-0.042
-364.698	-200.000	-0.005	0.280
-363.683	207.015	0.078	0.121
-362.669	-96.143	0.141	0.037
-361.654	-200.000	0.023	0.114
-360.639	-105.074	-0.428	0.098
-359.625	-10.260	0.068	0.045
-358.610	800.000	-0.088	-0.323
-357.596	-200.000	-0.018	0.164
-356.581	-5.400	0.308	0.211
-355.566	-122.536	-0.110	0.018
-354.552	-200.000	0.026	0.533
-353.537	-200.000	0.001	0.038
-352.523	-106.368	0.295	-0.066
-351.508	-86.955	-0.165	0.050
-350.493	-200.000	-0.001	-0.181
-349.479	37.152	-0.144	-0.127
-348.464	-200.000	-0.070	-0.367
-347.450	715.574	0.140	-0.369
-346.435	-104.611	-0.235	-0.054
-345.420	-141.087	-0.102	0.010
-344.406	361.760	0.037	0.074
-343.391	-44.858	0.041	-0.020
-342.377	-57.935	0.179	-0.078
-341.362	-25.366	-0.106	0.063
-340.348	-119.752	0.578	-0.099
-339.333	-107.400	0.136	-0.030
-338.318	115.564	-0.274	-0.334
-337.304	-200.000	0.068	-0.339
-336.289	39.734	0.146	0.130
-335.275	-93.902	0.279	0.077
-334.260	-200.000	-0.059	0.813
-333.245	403.207	-0.144	0.302
-332.231	363.847	0.129	-0.259
-331.216	-14.608	0.178	0.114
-330.202	-77.069	0.234	-0.081
-329.187	72.705	0.249	0.259
-328.172	23.384	-0.055	-0.045
-327.158	6.248	-0.258	0.191
-326.143	105.563	0.173	0.204
-325.129	413.994	0.073	-0.155
-324.114	-70.811	-0.108	0.041
-323.099	800.000	-0.090	-0.365
-322.085	286.611	0.107	0.193
-321.070	471.019	0.071	0.159
-320.056	-200.000	-0.013	-0.361
-319.041	520.866	-0.082	0.191
-318.026	800.000	0.044	0.147
-317.012	-200.000	0.015	-0.178
-315.997	-200.000	0.023	0.216
-314.983	129.378	0.122	0.155
-313.968	317.109	0.141	-0.266
-312.953	-162.363	-0.019	0.001
-311.939	18.509	-0.066	0.053
-310.924	800.000	-0.051	0.219
-309.910	98.690	-0.169	0.195
-308.895	-158.565	-0.195	0.011
-307.880	-200.000	-0.004	-0.092
-306.866	-200.000	0.005	-0.268
-305.851	155.364	0.066	-0.091
-304.837	94.722	0.046	0.052
-303.822	88.917	0.226	0.250
-302.807	-50.371	0.144	0.068
-301.793	-200.000	0.034	0.214
-300.778	-108.352	0.063	0.014
-299.764	-200.000	0.008	-0.108
-298.749	262.361	-0.222	0.383
-297.735	800.000	0.072	0.275
-296.720	108.470	-0.152	-0.180
-295.705	544.345	0.057	0.137
-294.691	29.653	0.133	0.112
-293.676	37.789	-0.123	-0.109
-292.662	98.767	0.075	-0.086
-291.647	-128.794	-0.287	0.040
-290.632	546.179	-0.032	0.076
-289.618	455.619	-0.067	-0.149
-288.603	800.000	-0.012	-0.043
-287.589	-200.000	-0.031	0.159
-286.574	-41.652	-0.222	-0.113
-285.559	800.000	0.026	-0.098
-284.545	-22.639	-0.093	-0.056
-283.530	-72.703	0.117	-0.043
-282.516	0.564	-0.065	-0.047
-281.501	-200.000	0.066	0.409
-280.486	346.497	0.132	-0.259
-279.472	-85.762	-0.305	0.094
-278.457	-16.530	-0.217	0.137
-277.443	83.476	-0.109	-0.118
-276.428	192.616	0.138	-0.207
-275.413	151.841	-0.132	0.179
-274.399	-140.547	-0.125	0.013
-273.384	-10.340	0.263	0.173
-272.370	136.269	-0.145	-0.188
-271.355	-44.276	-0.067	0.033
-270.340	323.451	0.043	-0.082
-269.326	-200.000	0.025	-0.139
-268.311	203.295	0.180	-0.277
-267.297	-21.939	0.206	0.125
-266.282	-120.096	0.253	0.043
-265.267	328.995	0.012	0.022
-264.253	800.000	0.017	0.050
-263.238	161.615	0.224	0.312
-262.224	800.000	-0.007	-0.025
-261.209	-60.531	-0.147	0.062
-260.195	-200.000	-0.023	-0.247
-259.180	-67.791	0.064	0.025
-258.165	157.458	-0.162	-0.223
-257.151	448.964	-0.029	0.064
-256.136	-112.475	0.321	-0.064
-255.122	65.920	-0.298	-0.300
-254.107	10.632	-0.123	-0.093
-253.092	-112.605	-0.203	-0.040
-252.078	-92.558	0.211	-0.059
-251.063	-62.659	-0.135	-0.056
-250.049	800.000	-0.082	0.325
-249.034	-14.772	0.056	-0.036
-248.019	120.017	0.086	-0.106
-247.005	338.687	-0.089	-0.171
-245.990	690.880	0.100	-0.259
-244.976	118.831	0.043	-0.053
-243.961	-83.318	-0.255	-0.081
-242.946	-42.721	0.273	-0.138
-241.932	59.273	-0.098	-0.095
-240.917	-190.201	0.387	0.004
-239.903	-99.632	0.484	-0.121
-238.888	-113.031	0.079	0.016
-237.873	800.000	0.129	-0.407
-236.859	602.234	0.111	-0.274
-235.844	-200.000	0.007	0.275
-234.830	-85.234	0.276	-0.086
-233.815	-80.619	-0.110	0.036
-232.800	437.904	0.018	-0.038
-231.786	259.743	0.086	0.147
-230.771	175.019	-0.066	-0.095
-229.757	-200.000	-0.024	-0.140
-228.742	209.451	0.042	-0.066
-227.727	44.045	-0.219	0.199
-226.713	97.724	0.138	-0.157
-225.698	-123.144	0.134	-0.021
-224.684	64.880	-0.118	-0.118
-223.669	800.000	0.039	-0.119
-222.655	183.779	-0.167	0.245
-221.640	-200.000	-0.038	0.537
-220.625	365.704	0.074	0.147
-219.611	800.000	-0.084	-0.253
-218.596	-152.229	0.185	-0.013
-217.582	-76.001	0.208	0.073
-216.567	492.640	0.094	0.213
-215.552	-61.263	0.350	-0.146
-214.538	-200.000	0.006	0.084
-213.523	-200.000	0.048	0.268
-212.509	65.770	0.163	-0.164
-211.494	434.525	-0.124	0.267
-210.479	137.755	0.110	-0.142
-209.465	800.000	0.042	-0.143
-208.450	732.269	-0.035	-0.094
-207.436	-3.349	0.206	0.143
-206.421	800.000	0.034	0.113
-205.406	-7.518	-0.277	-0.186
-204.392	-8.278	0.132	0.088
-203.377	411.130	0.147	0.309
-202.363	79.493	0.191	0.203
-201.348	-156.754	0.107	0.007
-200.333	-200.000	0.066	-0.332
-199.319	-94.784	0.094	0.025
-198.304	-23.306	-0.050	-0.030
-197.290	-82.209	-0.421	0.136
-196.275	12.823	0.209	0.160
-195.260	800.000	0.049	0.214
-194.246	800.000	-0.011	-0.036
-193.231	-200.000	-0.045	-0.258
-192.217	166.765	-0.044	-0.061
-191.202	-200.000	0.068	-0.375
-190.187	16.307	-0.301	-0.235
-189.173	739.957	-0.068	0.182
-188.158	-200.000	0.014	0.599
-187.144	-150.581	-0.292	0.022
-186.129	-162.838	0.054	0.003
-185.114	800.000	0.123	0.374
-184.100	-200.000	0.025	-0.258
-183.085	-200.000	-0.029	0.342
-182.071	-168.986	0.358	-0.013
-181.056	-200.000	0.012	-0.128
-180.042	-114.822	-0.226	0.043
-179.027	-139.014	-0.100	0.011
-178.012	-112.605	0.188	-0.037
-176.998	329.619	-0.072	0.137
-175.983	-65.454	0.084	0.034
-174.969	-18.498	0.169	0.105
-173.954	15.347	-0.158	-0.123
-172.939	800.000	0.102	-0.280
-171.925	91.486	0.224	0.249
-170.910	-200.000	0.029	0.282
-169.896	-200.000	-0.078	0.344
-168.881	-56.910	-0.069	-0.030
-167.866	221.120	-0.106	-0.168
-166.852	-200.000	0.021	-0.141
-165.837	-64.477	-0.078	-0.031
-164.823	-200.000	0.044	0.242
-163.808	-104.385	-0.233	0.054
-162.793	-200.000	0.477	-0.001
-161.779	264.246	0.134	0.231
-160.764	-136.346	0.134	0.015
-159.750	686.598	0.035	-0.091
-158.735	-47.164	-0.101	0.049
-157.720	418.386	0.099	0.210
-156.706	7.969	0.246	0.183
-155.691	40.417	-0.222	-0.197
-154.677	-40.386	0.283	-0.146
-153.662	-113.733	-0.107	0.021
-152.647	194.607	0.032	0.048
-151.633	70.758	0.127	-0.130
-150.618	-25.707	0.182	-0.106
-149.604	-108.184	0.126	-0.027
-148.589	-100.659	-0.307	0.075
-147.574	800.000	-0.056	-0.155
-146.560	-200.000	0.002	0.244
-145.545	28.222	0.274	-0.229
-144.531	-51.239	0.360	-0.167
-143.516	-41.719	-0.250	-0.127
-142.502	-81.478	0.058	0.019
-141.487	-200.000	-0.004	-0.150
-140.472	-84.678	0.489	0.152
-139.458	-82.144	-0.105	0.034
-138.443	156.218	-0.068	-0.093
-137.429	-83.820	-0.024	-0.007
-136.414	-57.208	-0.273	-0.119
-135.399	248.989	0.107	0.179
-134.385	626.435	-0.013	-0.033
-133.370	441.098	0.071	-0.155
-132.356	106.240	-0.023	0.027
-131.341	19.015	0.191	-0.152
-130.326	-200.000	0.077	0.399
-129.312	-200.000	0.056	0.258
-128.297	-200.000	-0.014	0.297
-127.283	-57.007	-0.216	-0.094
-126.268	-200.000	-0.028	0.130
-125.253	-76.096	-0.278	0.097
-124.239	-200.000	0.012	-0.102
-123.224	67.796	-0.083	0.083
-122.210	800.000	-0.042	0.136
-121.195	-163.216	-0.362	0.017
