DTS Sentinel unit serial number:	SN413079Multiplexer serial number:	ORYXHardware model number:	OX4-SRSoftware version number:	ORYX F/W v4.00 Oryx Data Collector v3.7.2.0data status	okinstallation	princeton_trtdifferential loss correction	single-endedforward channel	channel 3reverse channel	N/Adate	2019/09/12time	18:01:03forward acquisition time	15.00reverse acquisition time	0.00gamma	496.2192k internal	0.2318k external	0.2318temperature offset calibration	1.0099default loss term (dB/km)	0.3790temperature slope calibration	1.0000multiplexer offset coefficient	1.0000multiplexer slope coefficient	1.0000fibre end	0.00T internal ref (°C)	33.81T ext. ref 1 (°C)	2.90T ext. ref 2 (°C)	28.24length (m)	temperature (°C)	Stokes	anti-Stokes-747.200	-31.430	0.342	-0.194
-746.185	630.527	-0.151	0.388
-745.171	111.888	0.445	-0.544
-744.156	-128.933	-0.934	0.133
-743.142	-200.000	-0.068	-0.333
-742.127	91.469	-0.454	0.516
-741.112	305.824	0.142	0.266
-740.098	19.499	-0.646	-0.525
-739.083	31.374	0.672	-0.584
-738.069	-164.589	0.972	-0.045
-737.054	800.000	-0.040	-0.136
-736.039	423.294	-0.153	-0.333
-735.025	26.662	-0.391	-0.331
-734.010	-97.367	-0.416	0.110
-732.996	-81.803	0.603	0.200
-731.981	800.000	-0.086	0.336
-730.966	-95.319	0.410	-0.112
-729.952	159.313	0.035	0.049
-728.937	-125.526	-0.854	0.131
-727.923	0.918	0.379	0.275
-726.908	154.027	0.283	0.392
-725.894	-61.912	0.473	0.200
-724.879	800.000	-0.222	0.656
-723.864	35.204	-0.482	-0.427
-722.850	562.575	0.045	0.110
-721.835	46.785	-0.594	0.558
-720.821	-150.100	-0.642	-0.050
-719.806	-117.564	-0.141	0.026
-718.791	800.000	-0.181	0.520
-717.777	20.960	0.546	-0.447
-716.762	800.000	-0.172	-0.641
-715.748	-200.000	-0.003	0.080
-714.733	-200.000	0.007	0.087
-713.718	140.714	-0.154	0.206
-712.704	-43.767	0.650	-0.331
-711.689	-54.090	-0.283	0.130
-710.675	449.617	0.222	0.495
-709.660	707.296	-0.178	-0.476
-708.645	-64.455	0.554	-0.227
-707.631	-200.000	0.010	-0.245
-706.616	-87.970	-0.290	0.088
-705.602	-129.620	1.214	-0.169
-704.587	346.298	0.078	-0.154
-703.572	70.993	0.056	0.059
-702.558	740.175	-0.238	0.647
-701.543	800.000	-0.141	-0.433
-700.529	-50.312	0.700	-0.334
-699.514	-113.659	0.329	0.065
-698.499	-70.726	0.540	-0.206
-697.485	-184.301	-0.525	0.009
-696.470	-14.985	0.607	-0.393
-695.456	-200.000	-0.010	0.164
-694.441	-135.419	0.177	0.021
-693.426	800.000	-0.138	-0.433
-692.412	-200.000	0.054	0.337
-691.397	159.581	0.615	0.864
-690.383	78.479	0.277	0.299
-689.368	430.782	-0.360	0.787
-688.354	-200.000	-0.065	0.473
-687.339	-200.000	-0.048	1.166
-686.324	32.875	-0.393	0.344
-685.310	-57.635	-0.371	0.164
-684.295	358.354	0.205	-0.413
-683.281	-116.506	-0.309	0.058
-682.266	-200.000	0.004	0.363
-681.251	-138.775	-0.262	-0.029
-680.237	-96.076	-0.476	-0.128
-679.222	800.000	0.261	-0.796
-678.208	180.546	-0.225	0.333
-677.193	75.197	-0.374	-0.398
-676.178	-200.000	-0.023	-0.222
-675.164	-200.000	-0.020	0.142
-674.149	232.461	0.463	-0.768
-673.135	800.000	0.165	-0.591
-672.120	800.000	-0.379	-1.064
-671.105	147.408	0.235	0.319
-670.091	-69.764	0.441	0.170
-669.076	-9.664	0.272	-0.183
-668.062	-121.254	0.306	0.052
-667.047	-200.000	-0.123	-0.672
-666.032	54.044	0.134	-0.130
-665.018	-149.467	0.809	-0.065
-664.003	-200.000	0.012	-0.368
-662.989	714.637	-0.240	0.643
-661.974	263.742	0.241	0.424
-660.959	800.000	-0.019	0.078
-659.945	225.755	0.279	0.457
-658.930	-197.959	-0.655	0.004
-657.916	42.068	-0.368	0.337
-656.901	127.613	-0.311	0.399
-655.886	285.344	-0.211	-0.384
-654.872	30.399	-0.458	-0.395
-653.857	-50.783	-1.172	-0.556
-652.843	-200.000	0.072	0.498
-651.828	695.102	-0.166	-0.438
-650.814	-5.706	0.083	-0.058
-649.799	163.299	-0.157	-0.223
-648.784	296.408	-0.342	0.631
-647.770	-60.700	0.371	-0.158
-646.755	31.925	-0.225	0.196
-645.741	-161.571	0.861	-0.045
-644.726	800.000	0.144	0.506
-643.711	165.947	0.387	0.553
-642.697	5.589	0.234	-0.174
-641.682	294.120	0.132	0.243
-640.668	163.981	0.326	-0.463
-639.653	-65.192	-0.504	-0.205
-638.638	-174.174	-0.340	-0.010
-637.624	86.674	-0.406	-0.451
-636.609	543.512	0.298	-0.718
-635.595	-64.630	0.745	-0.304
-634.580	339.742	-0.160	0.315
-633.565	800.000	-0.202	0.872
-632.551	-146.717	0.769	0.067
-631.536	-199.523	0.570	0.003
-630.522	-145.976	0.478	0.043
-629.507	53.972	0.551	-0.534
-628.492	-200.000	-0.004	-0.138
-627.478	108.035	-0.304	-0.365
-626.463	800.000	0.081	-0.320
-625.449	-21.722	-0.738	-0.453
-624.434	-156.632	-0.245	-0.015
-623.419	-156.933	-0.727	-0.045
-622.405	-200.000	-0.087	-1.175
-621.390	800.000	0.096	-0.320
-620.376	-157.663	0.631	0.038
-619.361	800.000	0.130	-0.453
-618.346	-200.000	0.191	1.046
-617.332	-200.000	-0.032	0.282
-616.317	666.328	-0.387	1.007
-615.303	-200.000	0.011	-0.211
-614.288	-187.180	-0.394	-0.005
-613.273	39.152	-0.582	0.524
-612.259	800.000	0.174	0.491
-611.244	646.351	0.249	-0.642
-610.230	-39.804	-0.962	0.506
-609.215	102.934	0.538	0.635
-608.201	126.055	-0.108	0.137
-607.186	176.932	0.081	-0.119
-606.171	-200.000	-0.076	0.487
-605.157	53.127	-0.540	-0.521
-604.142	-38.113	-0.593	0.317
-603.128	-58.331	-0.837	-0.366
-602.113	-161.655	-0.598	-0.031
-601.098	-116.495	1.159	-0.215
-600.084	477.361	-0.320	-0.728
-599.069	800.000	0.141	0.536
-598.055	761.326	0.033	0.091
-597.040	327.040	0.258	0.499
-596.025	-200.000	0.013	-1.104
-595.011	-200.000	0.130	-0.612
-593.996	-200.000	0.004	0.165
-592.982	-52.409	0.518	-0.241
-591.967	54.018	-0.323	-0.312
-590.952	116.080	0.191	0.235
-589.938	29.936	0.305	0.262
-588.923	-200.000	-0.020	0.323
-587.909	265.528	0.596	1.045
-586.894	62.237	-0.634	-0.636
-585.879	371.917	0.461	0.941
-584.865	-157.762	0.189	-0.011
-583.850	-200.000	-0.050	-0.365
-582.836	-200.000	-0.035	-0.206
-581.821	-116.120	0.700	0.131
-580.806	166.768	0.237	-0.339
-579.792	-34.638	-0.290	-0.160
-578.777	-200.000	0.008	-0.189
-577.763	146.922	0.401	0.543
-576.748	251.947	-0.180	-0.309
-575.733	306.955	-0.327	-0.612
-574.719	-111.207	1.051	0.216
-573.704	-159.806	0.712	0.039
-572.690	724.762	-0.112	0.301
-571.675	-200.000	-0.018	-0.691
-570.661	296.694	-0.338	-0.622
-569.646	127.185	-0.535	-0.683
-568.631	-200.000	0.068	0.918
-567.617	26.551	-0.188	-0.158
-566.602	-83.963	0.349	-0.111
-565.588	-11.467	0.946	-0.626
-564.573	-200.000	0.061	-0.370
-563.558	-137.036	-0.699	-0.080
-562.544	-200.000	-0.008	0.625
-561.529	-25.133	-0.318	-0.190
-560.515	-72.853	0.282	-0.104
-559.500	-94.274	-0.311	-0.086
-558.485	-200.000	-0.034	0.168
-557.471	-200.000	0.009	-0.804
-556.456	-39.638	0.870	-0.458
-555.442	256.821	0.173	-0.298
-554.427	105.497	0.376	-0.446
-553.412	-144.990	0.511	-0.047
-552.398	142.704	-0.067	0.089
-551.383	123.996	-0.111	-0.140
-550.369	-141.809	0.726	0.073
-549.354	25.775	-0.359	-0.301
-548.339	-83.895	0.236	-0.075
-547.325	548.898	-0.390	0.939
-546.310	294.417	-0.248	-0.456
-545.296	465.722	0.072	-0.162
-544.281	-108.436	-0.253	-0.055
-543.266	-64.608	-0.705	-0.287
-542.252	-99.755	-1.252	-0.315
-541.237	-120.812	0.361	-0.061
-540.223	224.730	0.478	0.776
-539.208	-64.558	-0.789	-0.322
-538.193	-10.168	0.285	-0.190
-537.179	800.000	-0.129	-0.376
-536.164	100.609	0.587	0.684
-535.150	43.898	-0.253	0.233
-534.135	800.000	-0.192	0.596
-533.121	7.723	-0.388	0.291
-532.106	-200.000	-0.071	-0.417
-531.091	37.896	0.264	-0.235
-530.077	-154.421	1.207	0.081
-529.062	-98.666	-0.941	-0.241
-528.048	-200.000	-0.088	0.719
-527.033	800.000	-0.235	0.749
-526.018	-200.000	0.039	0.797
-525.004	-18.785	0.396	-0.248
-523.989	62.224	-0.255	0.255
-522.975	-200.000	0.074	0.376
-521.960	18.168	-0.725	-0.581
-520.945	-183.987	0.288	-0.005
-519.931	257.543	0.163	-0.281
-518.916	-82.606	-0.384	0.125
-517.902	4.609	0.564	0.416
-516.887	69.479	-0.754	0.778
-515.872	-200.000	0.079	0.394
-514.858	145.883	-0.159	-0.214
-513.843	800.000	0.034	-0.097
-512.829	-200.000	-0.037	0.256
-511.814	-183.948	0.160	-0.003
-510.799	351.559	-0.142	-0.282
-509.785	-143.608	0.761	0.073
-508.770	800.000	0.133	0.461
-507.756	74.756	-0.722	0.761
-506.741	36.741	-0.204	-0.180
-505.726	-200.000	-0.099	-0.560
-504.712	730.185	-0.233	0.623
-503.697	545.417	0.121	0.291
-502.683	-78.719	0.233	-0.080
-501.668	-129.998	1.023	-0.140
-500.653	-200.000	-0.049	-0.280
-499.639	-150.913	-0.456	-0.035
-498.624	-14.825	0.228	-0.147
-497.610	8.546	-0.407	-0.307
-496.595	123.358	0.075	-0.094
-495.581	-200.000	-0.068	0.609
-494.566	-151.851	0.818	0.060
-493.551	-200.000	0.063	-0.577
-492.537	-200.000	0.034	0.263
-491.522	-138.737	0.601	0.066
-490.508	23.895	-0.572	-0.473
-489.493	800.000	0.186	0.524
-488.478	-129.399	-0.213	-0.030
-487.464	195.914	-0.351	0.534
-486.449	65.554	-0.303	-0.307
-485.435	800.000	-0.097	-0.399
-484.420	-200.000	-0.025	-0.437
-483.405	800.000	0.218	0.616
-482.391	91.551	-0.377	0.424
-481.376	-72.671	-0.954	0.352
-480.362	800.000	0.180	0.724
-479.347	-70.578	-0.434	-0.164
-478.332	1.854	0.571	-0.412
-477.318	800.000	0.247	-0.689
-476.303	-121.698	-0.663	0.110
-475.289	-57.478	-0.410	-0.180
-474.274	416.696	0.075	0.160
-473.259	-173.736	0.221	-0.007
-472.245	800.000	-0.111	-0.472
-471.230	26.752	-0.734	-0.615
-470.216	-171.100	-0.280	0.010
-469.201	78.591	0.186	-0.199
-468.186	288.727	0.100	0.182
-467.172	-28.169	-0.283	0.163
-466.157	-5.849	0.584	-0.400
-465.143	-200.000	-0.081	-0.527
-464.128	106.838	0.166	-0.197
-463.113	27.884	0.772	-0.651
-462.099	-200.000	0.019	1.069
-461.084	368.075	-0.087	0.176
-460.070	-27.131	-0.168	0.098
-459.055	800.000	0.279	-0.790
-458.040	175.713	0.801	-1.163
-457.026	66.298	-0.353	-0.359
-456.011	-200.000	0.000	-0.390
-454.997	-110.244	0.389	-0.081
-453.982	-71.679	-0.326	0.122
-452.968	-200.000	0.087	-0.491
-451.953	-130.547	-0.136	0.018
-450.938	32.899	-0.373	-0.323
-449.924	93.536	0.097	-0.110
-448.909	-200.000	-0.078	-0.582
-447.895	-113.249	-0.508	-0.100
-446.880	-54.106	-0.850	-0.387
-445.865	-161.523	0.947	0.049
-444.851	-14.877	0.232	0.149
-443.836	-200.000	-0.044	-0.361
-442.822	-160.628	0.583	-0.031
-441.807	501.845	-0.215	0.497
-440.792	-200.000	0.024	0.530
-439.778	-89.214	0.778	-0.230
-438.763	-57.202	-0.729	-0.321
-437.749	8.450	0.247	0.186
-436.734	49.165	0.569	0.535
-435.719	14.189	0.175	-0.137
-434.705	-200.000	0.062	-0.347
-433.690	306.562	0.190	-0.354
-432.676	488.421	-0.276	0.630
-431.661	439.115	-0.409	-0.892
-430.646	-200.000	0.142	-0.947
-429.632	-95.505	0.489	0.131
-428.617	83.489	-0.222	0.242
-427.603	-158.320	0.146	0.009
-426.588	265.069	0.196	0.341
-425.573	39.624	0.261	0.234
-424.559	-200.000	-0.150	-0.759
-423.544	-47.013	0.127	-0.062
-422.530	-76.922	-0.647	-0.226
-421.515	-162.949	-0.373	0.018
-420.500	-200.000	0.098	0.659
-419.486	747.083	0.084	-0.227
-418.471	800.000	-0.087	-0.332
-417.457	800.000	0.136	-0.403
-416.442	51.048	-0.429	-0.407
-415.428	-28.309	-0.685	-0.395
-414.413	108.852	0.405	0.484
-413.398	-150.780	0.674	-0.051
-412.384	360.491	-0.103	-0.206
-411.369	-53.934	-0.721	-0.328
-410.355	-4.663	-0.704	0.485
-409.340	-200.000	-0.180	1.140
-408.325	-44.230	0.217	-0.109
-407.311	32.236	0.237	-0.204
-406.296	800.000	-0.160	0.687
-405.282	800.000	0.136	-0.465
-404.267	-54.131	-0.253	-0.115
-403.252	-18.286	-0.546	-0.341
-402.238	-200.000	0.063	0.445
-401.223	222.811	-0.374	-0.602
-400.209	-200.000	-0.023	0.789
-399.194	423.402	0.239	0.513
-398.179	-44.719	0.771	-0.384
-397.165	-17.827	-1.070	0.670
-396.150	-60.558	-0.562	-0.238
-395.136	305.676	0.304	-0.564
-394.121	-116.773	0.062	0.011
-393.106	-118.522	-1.162	-0.205
-392.092	-168.609	-0.803	0.030
-391.077	104.914	0.633	0.745
-390.063	258.421	0.307	0.527
-389.048	752.433	0.087	0.235
-388.033	-166.438	-0.447	0.019
-387.019	-109.517	-0.241	-0.051
-386.004	188.901	0.470	-0.702
-384.990	-200.000	-0.157	-0.809
-383.975	-40.389	-0.270	0.140
-382.960	501.376	0.327	0.753
-381.946	526.351	-0.142	0.334
-380.931	65.803	-0.246	0.249
-379.917	3.758	-1.140	-0.831
-378.902	146.751	-0.366	-0.491
-377.888	241.914	-0.206	-0.344
-376.873	33.331	-0.229	0.198
-375.858	-157.747	0.706	-0.042
-374.844	-200.000	0.001	0.114
-373.829	794.471	-0.074	-0.203
-372.815	25.970	0.384	0.319
-371.800	-170.876	-0.798	0.027
-370.785	-19.695	0.382	-0.235
-369.771	800.000	-0.147	-0.530
-368.756	319.996	-0.164	0.310
-367.742	-116.674	0.038	-0.007
-366.727	59.791	-0.577	0.568
-365.712	-31.632	-0.476	0.267
-364.698	113.322	-0.142	0.172
-363.683	-200.000	-0.099	0.519
-362.669	336.616	0.078	0.151
-361.654	-142.859	0.468	0.045
-360.639	-200.000	-0.010	0.520
-359.625	-87.204	0.636	0.193
-358.610	-98.516	-0.149	-0.038
-357.596	-200.000	-0.121	0.593
-356.581	79.651	0.297	-0.318
-355.566	421.226	-0.282	-0.603
-354.552	-59.549	-0.552	0.236
-353.537	800.000	-0.090	0.305
-352.523	-200.000	0.086	-0.547
-351.508	-109.643	-0.417	0.088
-350.493	-39.933	0.364	-0.189
-349.479	-57.644	0.533	0.233
-348.464	-73.913	1.120	-0.405
-347.450	-200.000	0.003	0.334
-346.435	-200.000	-0.068	-0.413
-345.420	-200.000	-0.005	0.605
-344.406	54.407	0.423	-0.406
-343.391	-153.617	-0.853	0.059
-342.377	400.911	0.195	-0.409
-341.362	800.000	-0.075	-0.260
-340.348	-18.001	0.511	-0.319
-339.333	598.624	0.338	-0.834
-338.318	14.401	0.194	-0.151
-337.304	18.096	-0.392	0.311
-336.289	104.157	-0.102	-0.120
-335.275	-84.523	0.399	-0.125
-334.260	53.486	-0.231	-0.220
-333.245	800.000	-0.327	0.953
-332.231	56.603	0.273	0.265
-331.216	-107.504	-0.971	-0.212
-330.202	-63.782	0.235	-0.096
-329.187	94.872	0.385	-0.436
-328.172	800.000	0.204	-0.864
-327.158	183.063	0.164	0.241
-326.143	36.657	0.231	0.203
-325.129	-200.000	0.005	0.386
-324.114	800.000	0.050	-0.173
-323.099	-101.822	0.480	0.116
-322.085	-90.476	-0.229	-0.066
-321.070	46.245	0.444	-0.410
-320.056	67.020	-0.394	-0.399
-319.041	273.094	0.099	-0.175
-318.026	79.764	-0.312	-0.333
-317.012	-14.088	0.326	-0.209
-315.997	-9.076	-0.672	0.448
-314.983	800.000	0.134	0.571
-313.968	800.000	0.308	-0.882
-312.953	308.412	-0.337	-0.627
-311.939	17.331	0.563	-0.445
-310.924	164.061	-0.076	0.107
-309.910	67.393	-0.499	0.506
-308.895	-14.377	-0.185	0.119
-307.880	-103.667	-0.267	-0.062
-306.866	30.783	0.676	0.576
-305.851	-200.000	0.002	-0.082
-304.837	-200.000	-0.117	0.932
-303.822	-200.000	0.011	0.409
-302.807	-5.613	0.374	0.255
-301.793	4.137	0.134	0.098
-300.778	-58.511	-0.372	0.160
-299.764	-129.502	0.527	0.073
-298.749	265.436	-0.050	0.086
-297.735	-34.413	0.563	0.307
-296.720	187.878	-0.235	-0.350
-295.705	-200.000	0.025	0.264
-294.691	638.499	-0.421	1.064
-293.676	131.700	0.096	-0.123
-292.662	-140.214	-0.450	-0.047
-291.647	141.917	-0.490	-0.645
-290.632	323.807	0.276	-0.524
-289.618	-200.000	0.008	0.668
-288.603	-34.562	-0.349	-0.190
-287.589	800.000	0.148	0.530
-286.574	-200.000	-0.217	1.315
-285.559	-95.757	0.614	0.163
-284.545	800.000	-0.084	-0.278
-283.530	80.595	0.482	-0.517
-282.516	-200.000	0.026	-0.310
-281.501	800.000	-0.240	0.690
-280.486	-126.032	-0.433	-0.065
-279.472	225.979	-0.341	0.550
-278.457	-26.853	-0.049	0.028
-277.443	251.615	0.612	1.036
-276.428	-200.000	-0.098	0.871
-275.413	-200.000	0.130	-0.592
-274.399	0.446	0.139	-0.099
-273.384	110.586	0.534	-0.638
-272.370	-19.906	-0.423	-0.259
-271.355	188.812	-0.274	-0.408
-270.340	-87.643	0.763	-0.229
-269.326	-83.020	-0.660	0.211
-268.311	-200.000	-0.054	0.994
-267.297	-138.563	0.340	-0.037
-266.282	-23.357	-0.700	-0.418
-265.267	58.759	0.777	-0.758
-264.253	-200.000	-0.148	-0.664
-263.238	393.564	0.180	0.372
-262.224	361.278	-0.144	0.286
-261.209	-51.866	0.367	-0.169
-260.195	22.552	-0.236	-0.191
-259.180	-12.125	-0.889	0.578
-258.165	44.116	-0.548	-0.499
-257.151	-152.136	-0.532	-0.038
-256.136	196.303	0.440	-0.665
-255.122	142.502	0.545	-0.718
-254.107	-79.391	0.638	0.214
-253.092	783.602	-0.115	0.312
-252.078	-106.487	0.797	-0.176
-251.063	17.980	1.121	0.887
-250.049	-71.282	-0.557	-0.207
-249.034	-136.570	0.254	0.029
-248.019	-162.040	-0.368	-0.018
-247.005	-170.776	0.380	0.013
-245.990	55.393	0.258	-0.248
-244.976	438.636	-0.377	0.816
-243.961	36.037	-0.382	0.333
-242.946	-187.206	-0.491	-0.007
-241.932	-127.490	-0.621	0.089
-240.917	-75.285	-0.774	-0.274
-239.903	2.837	0.469	0.338
-238.888	104.810	-0.485	-0.567
-237.873	147.969	0.418	0.560
-236.859	29.724	0.374	0.316
-235.844	-13.207	-0.532	-0.343
-234.830	-43.977	0.245	0.122
-233.815	800.000	-0.175	0.566
-232.800	-125.086	0.878	-0.134
-231.786	-32.236	0.021	0.012
-230.771	800.000	-0.242	1.024
-229.757	1.425	-0.284	0.202
-228.742	293.310	-0.233	-0.422
-227.727	85.224	0.420	0.457
-226.713	-200.000	-0.192	0.944
-225.698	85.701	0.386	0.421
-224.684	-200.000	0.038	0.537
-223.669	800.000	-0.061	0.246
-222.655	800.000	-0.163	0.619
-221.640	-53.098	0.381	-0.174
-220.625	-18.531	-0.128	0.079
-219.611	164.401	-0.360	-0.503
-218.596	-91.139	0.324	0.092
-217.582	-200.000	0.181	-0.815
-216.567	-200.000	-0.026	-0.404
-215.552	452.363	-0.143	0.314
-214.538	-104.556	-0.993	0.227
-213.523	-38.407	-0.629	0.330
-212.509	-200.000	0.014	0.573
-211.494	281.280	0.418	0.743
-210.479	-133.453	-0.778	-0.097
-209.465	800.000	0.199	0.629
-208.450	167.801	0.307	-0.432
-207.436	51.295	-0.092	-0.086
-206.421	-200.000	0.227	-1.038
-205.406	-200.000	0.018	0.323
-204.392	7.693	0.390	0.290
-203.377	16.088	0.544	-0.425
-202.363	-60.606	0.622	-0.261
-201.348	661.619	-0.194	0.496
-200.333	-22.367	-0.353	-0.212
-199.319	-200.000	-0.011	0.987
-198.304	-154.470	1.041	-0.069
-197.290	108.833	0.257	-0.304
-196.275	800.000	0.235	0.812
-195.260	272.640	0.173	-0.302
-194.246	-133.974	-0.771	0.095
-193.231	-200.000	-0.034	0.315
-192.217	261.033	0.472	0.809
-191.202	-103.342	-0.584	-0.136
-190.187	800.000	-0.103	-0.416
-189.173	-54.906	0.191	-0.086
-188.158	41.686	0.375	-0.336
-187.144	800.000	0.221	-0.901
-186.129	11.046	-0.697	-0.528
-185.114	-100.620	0.399	0.098
-184.100	-121.052	0.831	0.138
-183.085	15.982	-0.343	0.268
-182.071	-200.000	0.051	-0.467
-181.056	515.980	-0.052	0.121
-180.042	-73.818	0.206	-0.074
-179.027	-68.478	1.183	0.454
-178.012	101.309	-0.452	0.521
-176.998	800.000	0.117	0.372
-175.983	68.887	-0.336	0.342
-174.969	-18.359	-0.312	-0.193
-173.954	-39.530	-0.147	-0.076
-172.939	-200.000	0.071	-1.162
-171.925	91.870	0.232	0.258
-170.910	-95.386	-0.574	0.153
-169.896	113.784	0.199	0.239
-168.881	775.945	0.197	-0.532
-167.866	-200.000	-0.083	0.473
-166.852	209.396	0.133	0.206
-165.837	37.984	0.423	-0.372
-164.823	339.273	0.456	-0.879
-163.808	-200.000	0.000	0.475
-162.793	190.780	0.251	0.374
-161.779	-200.000	0.062	0.368
-160.764	3.897	0.188	-0.136
-159.750	-83.710	-0.252	-0.080
-158.735	329.894	0.337	-0.642
-157.720	-73.722	-1.359	-0.489
-156.706	-112.201	-0.576	0.114
-155.691	-27.608	0.783	-0.450
-154.677	377.061	0.233	-0.470
-153.662	140.121	-0.198	0.258
-152.647	-126.332	-0.473	-0.070
-151.633	-26.953	0.348	0.201
-150.618	-166.108	0.338	0.014
-149.604	800.000	-0.153	0.485
-148.589	78.768	0.576	0.610
-147.574	43.893	0.627	0.568
-146.560	-196.030	-0.444	0.003
-145.545	-200.000	-0.111	-0.606
-144.531	-73.120	0.519	0.188
-143.516	-200.000	0.046	0.227
-142.502	-158.973	0.288	-0.016
-141.487	-200.000	0.108	-0.509
-140.472	-8.595	0.226	0.150
-139.458	35.178	0.204	0.177
-138.443	-200.000	-0.015	-0.495
-137.429	57.178	0.267	-0.257
-136.414	132.907	0.350	-0.446
-135.399	-99.074	-0.962	0.241
-134.385	-66.707	0.250	-0.098
-133.370	417.260	0.326	0.689
-132.356	-200.000	-0.215	0.967
-131.341	745.765	-0.008	-0.022
-130.326	6.280	0.561	0.411
-129.312	238.960	0.105	0.173
-128.297	-162.803	0.604	0.029
-127.283	800.000	-0.513	-1.419
-126.268	-93.389	1.529	-0.419
-125.253	-2.725	-0.475	-0.328
-124.239	-65.715	0.681	0.269
-123.224	-139.876	0.358	-0.037
-122.210	34.103	-0.443	-0.382
-121.195	-200.000	-0.090	0.394
