DTS Sentinel unit serial number:	SN413079Multiplexer serial number:	ORYXHardware model number:	OX4-SRSoftware version number:	ORYX F/W v4.00 Oryx Data Collector v3.7.2.0data status	okinstallation	princeton_trtdifferential loss correction	single-endedforward channel	channel 3reverse channel	N/Adate	2019/09/14time	01:52:35forward acquisition time	60.00reverse acquisition time	0.00gamma	496.2192k internal	0.2339k external	0.2339temperature offset calibration	1.0058default loss term (dB/km)	0.3790temperature slope calibration	1.0000multiplexer offset coefficient	1.0000multiplexer slope coefficient	1.0000fibre end	0.00T internal ref (°C)	26.45T ext. ref 1 (°C)	3.21T ext. ref 2 (°C)	21.51length (m)	temperature (°C)	Stokes	anti-Stokes-747.200	-56.898	-0.126	0.056
-746.185	-47.517	-0.200	0.098
-745.171	-152.419	-0.206	0.015
-744.156	-5.083	-0.248	-0.171
-743.142	1.740	-0.222	0.160
-742.127	-200.000	0.011	0.179
-741.112	-168.719	0.154	0.006
-740.098	-200.000	0.011	0.090
-739.083	704.920	0.063	0.167
-738.069	584.862	0.070	0.172
-737.054	399.342	-0.050	-0.105
-736.039	-36.763	0.244	0.131
-735.025	41.178	0.253	0.230
-734.010	-6.390	-0.077	-0.053
-732.996	6.501	-0.180	-0.134
-731.981	64.946	-0.277	-0.281
-730.966	-200.000	0.062	-0.348
-729.952	-49.863	-0.216	0.103
-728.937	-42.045	0.025	-0.013
-727.923	155.485	-0.050	-0.069
-726.908	60.662	-0.059	-0.058
-725.894	-200.000	0.001	0.070
-724.879	-200.000	0.005	0.108
-723.864	-200.000	-0.020	-0.238
-722.850	-76.857	0.386	0.135
-721.835	63.114	0.213	-0.214
-720.821	-90.958	-0.112	0.032
-719.806	-119.977	-0.204	0.035
-718.791	-36.967	-0.299	-0.161
-717.777	145.803	-0.097	-0.131
-716.762	18.228	-0.079	-0.063
-715.748	242.894	-0.022	-0.036
-714.733	53.323	-0.092	-0.088
-713.718	28.298	0.054	-0.046
-712.704	33.970	0.131	0.114
-711.689	-200.000	-0.008	0.284
-710.675	332.410	-0.100	0.193
-709.660	800.000	-0.077	0.266
-708.645	-200.000	0.004	-0.143
-707.631	800.000	-0.093	0.393
-706.616	159.706	0.090	0.125
-705.602	76.832	0.056	0.060
-704.587	-11.311	-0.183	0.121
-703.572	-94.814	-0.232	0.063
-702.558	480.949	-0.063	-0.144
-701.543	-81.584	0.162	0.053
-700.529	77.475	-0.324	0.345
-699.514	64.923	0.076	-0.077
-698.499	-200.000	0.018	-0.248
-697.485	-200.000	0.049	-0.278
-696.470	62.840	-0.269	0.269
-695.456	32.131	0.164	0.142
-694.441	-200.000	0.007	-0.064
-693.426	-15.489	0.207	-0.132
-692.412	-200.000	0.004	-0.126
-691.397	-200.000	0.134	-0.000
-690.383	68.749	-0.089	-0.091
-689.368	378.067	0.151	-0.310
-688.354	-146.185	-0.153	-0.013
-687.339	-23.499	-0.388	0.233
-686.324	-200.000	-0.027	0.126
-685.310	473.858	0.052	0.117
-684.295	-121.342	0.115	-0.019
-683.281	-85.074	0.109	0.034
-682.266	-182.441	0.342	-0.006
-681.251	86.105	-0.151	0.166
-680.237	-120.003	-0.224	-0.038
-679.222	-131.124	0.129	0.017
-678.208	47.058	0.317	-0.295
-677.193	8.144	-0.322	0.242
-676.178	800.000	0.086	-0.338
-675.164	800.000	-0.023	-0.080
-674.149	88.587	0.026	0.029
-673.135	-98.141	0.255	-0.066
-672.120	-87.759	-0.041	0.012
-671.105	-178.716	-0.218	0.005
-670.091	293.629	0.182	0.333
-669.076	-183.510	-0.305	0.005
-668.062	-103.664	0.125	0.029
-667.047	800.000	-0.039	0.114
-666.032	-67.360	-0.100	-0.039
-665.018	26.794	0.126	-0.105
-664.003	15.677	-0.081	-0.064
-662.989	-72.175	-0.164	0.061
-661.974	-78.357	-0.440	-0.151
-660.959	132.846	0.045	0.059
-659.945	-101.631	-0.192	-0.047
-658.930	51.903	-0.193	-0.184
-657.916	800.000	-0.083	-0.280
-656.901	13.910	0.229	-0.178
-655.886	-200.000	0.035	0.297
-654.872	-0.253	0.242	0.172
-653.857	-46.377	-0.116	-0.057
-652.843	9.595	-0.080	0.061
-651.828	-112.816	-0.090	-0.018
-650.814	-11.749	0.200	0.131
-649.799	121.108	-0.107	-0.133
-648.784	-200.000	0.009	-0.112
-647.770	800.000	0.079	0.284
-646.755	271.498	-0.045	0.079
-645.741	12.554	0.133	-0.103
-644.726	266.922	-0.034	-0.059
-643.711	618.053	0.052	0.130
-642.697	21.733	-0.253	-0.206
-641.682	-65.538	0.097	0.039
-640.668	-130.635	0.166	0.022
-639.653	12.969	0.199	0.153
-638.638	213.305	-0.130	0.206
-637.624	9.884	-0.103	-0.078
-636.609	-16.213	-0.112	-0.071
-635.595	-153.933	-0.193	-0.013
-634.580	-8.468	-0.379	0.255
-633.565	7.734	0.153	0.115
-632.551	-200.000	0.023	-0.187
-631.536	216.728	0.200	-0.318
-630.522	14.724	-0.063	0.049
-629.507	-200.000	-0.008	0.048
-628.492	-0.500	0.106	-0.075
-627.478	18.127	-0.311	-0.247
-626.463	-115.544	0.120	-0.023
-625.449	78.610	-0.166	-0.177
-624.434	-131.190	0.120	0.016
-623.419	74.299	0.063	0.066
-622.405	-167.640	0.301	0.012
-621.390	800.000	0.081	-0.229
-620.376	19.505	0.160	0.129
-619.361	231.596	-0.077	-0.127
-618.346	-200.000	-0.029	0.308
-617.332	586.829	-0.096	-0.236
-616.317	-132.572	-0.117	-0.015
-615.303	800.000	0.071	-0.200
-614.288	51.474	-0.199	0.189
-613.273	112.699	-0.164	-0.198
-612.259	800.000	-0.015	0.053
-611.244	41.978	-0.244	-0.221
-610.230	-62.832	-0.090	-0.037
-609.215	68.587	-0.096	0.098
-608.201	800.000	0.044	0.152
-607.186	468.043	-0.086	0.194
-606.171	485.613	-0.039	0.089
-605.157	345.679	-0.090	-0.176
-604.142	23.318	-0.203	0.166
-603.128	800.000	-0.116	0.327
-602.113	800.000	-0.061	-0.199
-601.098	-190.346	-0.250	0.003
-600.084	47.234	0.163	-0.151
-599.069	83.657	-0.244	0.265
-598.055	-53.359	0.217	0.099
-597.040	283.173	0.094	0.169
-596.025	311.670	0.140	-0.262
-595.011	-200.000	-0.158	0.001
-593.996	-71.738	-0.234	0.087
-592.982	20.812	0.164	-0.133
-591.967	-52.202	-0.404	0.187
-590.952	9.053	0.107	-0.080
-589.938	288.184	0.125	-0.225
-588.923	-123.019	-0.294	0.047
-587.909	-181.880	-0.223	0.004
-586.894	99.573	0.181	0.209
-585.879	-102.420	-0.185	0.044
-584.865	553.955	-0.096	0.231
-583.850	211.420	0.234	-0.367
-582.836	1.000	0.173	-0.124
-581.821	-200.000	0.004	-0.162
-580.806	-113.524	0.358	0.070
-579.792	-105.626	0.198	-0.045
-578.777	-200.000	0.007	0.056
-577.763	-163.726	0.312	-0.015
-576.748	-162.587	-0.244	-0.012
-575.733	-194.213	-0.211	0.002
-574.719	108.356	-0.240	0.286
-573.704	-34.826	-0.157	-0.085
-572.690	-129.728	0.141	-0.019
-571.675	800.000	-0.016	-0.060
-570.661	800.000	-0.118	-0.414
-569.646	-91.824	0.187	-0.053
-568.631	101.960	-0.101	-0.117
-567.617	71.711	0.083	-0.085
-566.602	61.074	0.138	0.137
-565.588	-41.652	0.248	-0.127
-564.573	38.081	-0.163	0.144
-563.558	57.399	0.153	-0.149
-562.544	120.714	0.158	0.196
-561.529	77.267	0.198	-0.210
-560.515	-200.000	-0.008	0.052
-559.500	-161.526	-0.190	0.010
-558.485	-200.000	-0.017	-0.105
-557.471	800.000	0.043	-0.144
-556.456	-173.627	-0.038	-0.001
-555.442	-200.000	-0.042	0.314
-554.427	48.810	-0.308	0.288
-553.412	-65.665	-0.212	0.084
-552.398	-29.759	0.248	0.141
-551.383	-36.696	0.257	-0.138
-550.369	-124.907	0.068	0.010
-549.354	800.000	0.075	-0.310
-548.339	-200.000	0.016	-0.246
-547.325	-64.558	-0.164	-0.066
-546.310	170.086	0.142	-0.202
-545.296	26.763	-0.148	-0.123
-544.281	800.000	-0.050	0.187
-543.266	7.126	-0.127	-0.094
-542.252	-200.000	-0.035	-0.159
-541.237	262.200	-0.058	-0.100
-540.223	237.148	0.057	0.094
-539.208	-57.083	-0.184	-0.081
-538.193	800.000	-0.060	-0.174
-537.179	-200.000	0.041	-0.222
-536.164	69.014	0.144	0.147
-535.150	-200.000	0.016	0.096
-534.135	800.000	-0.081	-0.332
-533.121	39.240	0.079	-0.070
-532.106	-58.076	-0.186	-0.081
-531.091	-117.474	0.218	0.039
-530.077	-0.628	-0.069	0.049
-529.062	-180.555	0.292	-0.006
-528.048	347.862	-0.081	-0.159
-527.033	-124.036	0.202	-0.032
-526.018	-18.304	0.263	-0.163
-525.004	800.000	0.090	0.297
-523.989	800.000	0.084	0.275
-522.975	203.003	-0.176	-0.270
-521.960	-200.000	-0.005	-0.279
-520.945	314.891	-0.112	-0.209
-519.931	-200.000	0.016	0.131
-518.916	-200.000	0.027	-0.197
-517.902	47.590	0.316	-0.293
-516.887	800.000	-0.017	0.048
-515.872	144.675	-0.130	-0.173
-514.858	-200.000	-0.020	0.095
-513.843	714.798	-0.140	-0.368
-512.829	-55.216	-0.148	-0.066
-511.814	97.545	0.078	0.089
-510.799	-200.000	-0.004	-0.105
-509.785	-106.427	0.555	0.123
-508.770	421.977	-0.093	0.198
-507.756	76.711	0.280	0.295
-506.741	145.994	0.129	0.172
-505.726	-200.000	0.006	-0.440
-504.712	-33.604	-0.271	-0.149
-503.697	402.671	-0.071	0.149
-502.683	780.412	0.074	-0.200
-501.668	-37.088	-0.092	0.049
-500.653	213.762	0.053	-0.083
-499.639	-136.990	-0.316	-0.036
-498.624	-135.372	-0.091	0.011
-497.610	13.118	-0.044	-0.034
-496.595	65.836	0.123	0.124
-495.581	-103.488	-0.140	-0.033
-494.566	477.987	0.045	-0.101
-493.551	476.794	0.113	-0.254
-492.537	-58.332	0.128	0.055
-491.522	-127.626	0.089	0.013
-490.508	-31.118	-0.106	0.059
-489.493	385.389	0.067	0.138
-488.478	159.947	-0.327	-0.453
-487.464	-62.696	-0.080	-0.033
-486.449	179.515	0.124	0.180
-485.435	-29.648	-0.141	-0.080
-484.420	-133.311	0.064	-0.008
-483.405	19.387	-0.236	0.188
-482.391	49.926	0.019	0.018
-481.376	722.621	-0.040	-0.106
-480.362	24.593	-0.228	0.187
-479.347	-106.247	-0.272	-0.060
-478.332	529.837	0.136	-0.318
-477.318	-74.157	-0.110	-0.039
-476.303	-25.606	-0.438	0.256
-475.289	-147.175	-0.347	0.029
-474.274	52.860	0.126	-0.120
-473.259	-153.346	0.170	0.012
-472.245	286.635	-0.158	-0.283
-471.230	-121.744	0.315	0.052
-470.216	-11.040	0.135	-0.088
-469.201	16.204	0.233	-0.182
-468.186	111.947	0.197	-0.236
-467.172	113.455	0.186	-0.224
-466.157	-67.032	-0.214	0.084
-465.143	-5.024	0.326	-0.223
-464.128	-200.000	-0.004	0.049
-463.113	133.455	0.166	-0.212
-462.099	9.963	-0.030	0.022
-461.084	-200.000	0.049	-0.315
-460.070	151.767	-0.100	0.136
-459.055	407.546	0.109	0.228
-458.040	148.804	0.203	0.272
-457.026	-69.997	-0.093	-0.035
-456.011	-25.936	0.214	0.125
-454.997	16.783	-0.211	0.165
-453.982	-141.717	-0.212	0.021
-452.968	109.335	-0.100	0.119
-451.953	-153.815	0.042	-0.003
-450.938	-58.458	0.242	0.104
-449.924	-12.918	0.167	0.108
-448.909	-78.700	0.236	-0.080
-447.895	-152.746	0.130	0.009
-446.880	322.400	-0.021	-0.040
-445.865	-163.882	-0.261	-0.012
-444.851	-200.000	-0.021	-0.220
-443.836	-28.834	-0.260	-0.148
-442.822	337.611	-0.123	0.237
-441.807	13.690	0.139	0.107
-440.792	-35.550	-0.122	0.066
-439.778	85.094	-0.111	0.121
-438.763	-119.747	-0.207	0.035
-437.749	358.633	-0.111	-0.220
-436.734	-200.000	-0.037	-0.425
-435.719	800.000	0.100	0.390
-434.705	800.000	0.084	-0.349
-433.690	-60.697	-0.196	0.082
-432.676	-62.977	0.148	0.060
-431.661	-114.867	0.178	0.034
-430.646	-200.000	0.038	-0.371
-429.632	-43.155	0.055	0.027
-428.617	-200.000	0.008	0.150
-427.603	800.000	0.103	0.391
-426.588	177.645	-0.150	0.217
-425.573	-63.005	-0.253	0.104
-424.559	-109.853	0.373	0.078
-423.544	462.018	0.184	0.406
-422.530	800.000	0.029	-0.105
-421.515	-10.423	-0.270	0.177
-420.500	-200.000	0.027	0.330
-419.486	-46.567	-0.349	-0.169
-418.471	800.000	-0.052	0.157
-417.457	32.254	-0.363	0.310
-416.442	-134.454	0.273	0.033
-415.428	74.676	-0.121	-0.126
-414.413	-189.606	-0.151	-0.002
-413.398	41.728	0.125	-0.112
-412.384	-86.401	-0.241	-0.073
-411.369	-23.318	-0.116	-0.069
-410.355	-200.000	0.006	0.355
-409.340	47.831	0.211	-0.195
-408.325	54.535	0.324	-0.309
-407.311	-170.329	-0.479	-0.017
-406.296	219.884	-0.071	-0.112
-405.282	20.813	0.316	0.253
-404.267	-145.433	0.225	0.020
-403.252	-51.526	0.414	0.192
-402.238	787.999	-0.065	0.177
-401.223	-200.000	0.012	-0.107
-400.209	13.321	0.098	-0.075
-399.194	-30.483	0.074	-0.042
-398.179	-21.357	-0.206	-0.124
-397.165	70.045	0.130	-0.133
-396.150	110.277	0.215	0.256
-395.136	-47.770	0.184	0.088
-394.121	170.487	0.155	0.220
-393.106	-47.040	0.059	0.029
-392.092	-129.629	-0.108	-0.015
-391.077	-200.000	-0.004	0.277
-390.063	61.337	-0.176	0.173
-389.048	-200.000	0.019	0.230
-388.033	-151.872	0.302	0.022
-387.019	247.721	0.167	0.279
-386.004	-54.503	-0.259	-0.116
-384.990	-39.875	-0.165	-0.085
-383.975	658.108	-0.088	0.223
-382.960	344.033	-0.124	0.241
-381.946	-35.642	-0.285	0.153
-380.931	422.619	-0.052	0.110
-379.917	-71.600	-0.199	-0.074
-378.902	264.363	0.067	-0.115
-377.888	96.785	-0.116	-0.132
-376.873	-98.766	0.379	0.095
-375.858	-94.693	0.261	0.070
-374.844	-166.815	-0.362	-0.015
-373.829	-98.268	0.286	0.073
-372.815	800.000	0.111	-0.403
-371.800	-23.272	0.100	0.059
-370.785	-200.000	-0.016	-0.198
-369.771	-200.000	0.041	-0.216
-368.756	-200.000	0.003	0.184
-367.742	18.746	-0.040	-0.032
-366.727	550.198	0.021	-0.050
-365.712	-23.085	0.046	0.027
-364.698	6.567	-0.237	0.174
-363.683	-200.000	0.006	0.336
-362.669	-200.000	0.029	-0.254
-361.654	70.330	-0.121	0.123
-360.639	-200.000	0.052	-0.281
-359.625	-110.399	0.086	-0.018
-358.610	164.843	0.018	0.026
-357.596	-200.000	0.026	0.155
-356.581	786.645	0.084	0.229
-355.566	800.000	0.068	-0.290
-354.552	19.260	0.250	-0.199
-353.537	35.401	0.032	0.027
-352.523	-163.084	0.173	0.008
-351.508	-8.737	-0.223	0.148
-350.493	171.327	-0.153	0.216
-349.479	-200.000	-0.034	0.329
-348.464	-2.579	0.363	-0.251
-347.450	-137.538	0.327	-0.036
-346.435	-10.041	-0.147	0.096
-345.420	551.188	-0.101	-0.239
-344.406	-57.508	-0.126	-0.055
-343.391	43.832	0.099	-0.090
-342.377	9.737	-0.264	-0.197
-341.362	-200.000	0.011	0.110
-340.348	-117.552	0.129	-0.023
-339.333	582.012	-0.093	-0.224
-338.318	-200.000	-0.007	-0.217
-337.304	-200.000	-0.010	-0.086
-336.289	-38.236	0.211	-0.111
-335.275	299.090	0.233	-0.423
-334.260	-67.463	-0.160	-0.062
-333.245	800.000	-0.065	-0.226
-332.231	-200.000	-0.040	-0.284
-331.216	-155.746	-0.222	-0.014
-330.202	-142.004	0.103	-0.010
-329.187	-69.130	0.152	0.058
-328.172	-23.658	-0.135	-0.080
-327.158	-200.000	0.040	0.216
-326.143	-145.917	0.220	0.019
-325.129	340.392	-0.102	-0.196
-324.114	75.892	0.235	-0.245
-323.099	800.000	0.104	-0.421
-322.085	-200.000	-0.074	-0.373
-321.070	108.009	0.051	0.060
-320.056	-200.000	0.078	0.376
-319.041	234.895	0.074	0.121
-318.026	800.000	-0.107	-0.321
-317.012	-53.613	-0.175	-0.079
-315.997	-200.000	-0.044	-0.258
-314.983	800.000	-0.163	0.452
-313.968	684.526	0.032	-0.082
-312.953	-200.000	0.007	-0.098
-311.939	165.653	-0.066	0.092
-310.924	-200.000	0.109	-0.503
-309.910	-27.541	0.187	-0.107
-308.895	63.942	0.192	-0.191
-307.880	-27.151	0.176	-0.101
-306.866	398.271	-0.068	0.140
-305.851	18.265	-0.217	-0.171
-304.837	-89.209	-0.308	-0.090
-303.822	-99.102	-0.185	0.046
-302.807	28.924	0.185	0.155
-301.793	-96.175	-0.140	0.037
-300.778	-59.601	0.315	-0.133
-299.764	-4.982	-0.495	0.336
-298.749	294.750	0.292	0.527
-297.735	-40.736	-0.171	-0.087
-296.720	-200.000	-0.060	0.489
-295.705	201.867	0.202	0.308
-294.691	-137.767	-0.280	0.031
-293.676	99.333	-0.148	-0.169
-292.662	-6.110	0.196	0.132
-291.647	6.999	-0.238	0.175
-290.632	-18.517	-0.251	-0.154
-289.618	82.486	0.138	0.147
-288.603	-34.062	0.199	-0.108
-287.589	800.000	0.052	0.189
-286.574	370.231	0.075	-0.151
-285.559	800.000	-0.031	0.085
-284.545	-200.000	0.047	0.237
-283.530	97.928	0.121	0.137
-282.516	127.889	0.105	0.131
-281.501	-82.289	-0.346	-0.111
-280.486	166.894	-0.104	0.146
-279.472	-200.000	-0.077	-0.431
-278.457	-200.000	-0.027	-0.149
-277.443	147.994	0.078	-0.104
-276.428	-105.631	0.272	0.061
-275.413	74.936	-0.065	0.068
-274.399	-89.709	-0.217	-0.063
-273.384	169.470	0.173	-0.243
-272.370	-78.895	0.082	0.028
-271.355	162.013	-0.265	0.365
-270.340	77.237	-0.229	-0.240
-269.326	-14.886	0.534	-0.337
-268.311	17.185	-0.114	0.089
-267.297	800.000	-0.057	0.175
-266.282	-110.540	-0.237	0.048
-265.267	173.024	0.123	-0.175
-264.253	8.348	-0.224	-0.166
-263.238	386.416	0.031	-0.064
-262.224	-100.564	0.139	-0.034
-261.209	77.247	0.236	0.247
-260.195	10.543	0.222	0.167
-259.180	-38.625	0.045	-0.023
-258.165	224.380	-0.050	-0.080
-257.151	800.000	0.069	0.192
-256.136	-56.773	-0.219	-0.095
-255.122	512.405	-0.082	-0.187
-254.107	-134.247	0.118	-0.014
-253.092	-147.793	0.435	-0.036
-252.078	363.126	-0.077	0.151
-251.063	-85.941	-0.133	-0.041
-250.049	-41.832	-0.210	-0.106
-249.034	800.000	0.090	0.344
-248.019	-81.725	-0.306	0.099
-247.005	136.334	0.102	-0.131
-245.990	-89.907	0.260	0.075
-244.976	-200.000	-0.008	0.072
-243.961	407.687	-0.117	0.244
-242.946	63.075	0.093	-0.092
-241.932	242.004	0.087	0.143
-240.917	-52.049	-0.182	0.083
-239.903	-100.991	-0.435	-0.105
-238.888	359.366	-0.030	0.060
-237.873	800.000	-0.025	-0.099
-236.859	-122.442	-0.270	-0.043
-235.844	-62.151	0.261	0.107
-234.830	259.860	-0.222	0.377
-233.815	52.952	-0.184	-0.173
-232.800	-99.318	-0.074	0.018
-231.786	-157.291	0.423	-0.025
-230.771	-200.000	0.034	0.280
-229.757	800.000	-0.091	0.252
-228.742	800.000	0.020	-0.067
-227.727	800.000	0.076	0.210
-226.713	800.000	0.074	0.215
-225.698	117.853	-0.128	-0.155
-224.684	-200.000	-0.014	0.090
-223.669	18.675	-0.120	-0.094
-222.655	-39.482	-0.197	0.102
-221.640	159.625	0.097	0.133
-220.625	-200.000	-0.017	0.417
-219.611	-200.000	-0.026	0.311
-218.596	243.651	-0.148	-0.243
-217.582	443.538	0.051	0.110
-216.567	113.839	-0.153	-0.182
-215.552	-168.331	-0.410	-0.016
-214.538	1.578	0.247	0.174
-213.523	68.085	0.071	0.071
-212.509	-109.827	0.054	-0.011
-211.494	800.000	-0.061	0.208
-210.479	534.872	-0.062	-0.145
-209.465	-55.221	-0.072	0.032
-208.450	187.657	0.179	-0.262
-207.436	-200.000	-0.036	-0.262
-206.421	418.694	0.110	-0.232
-205.406	-23.940	-0.054	-0.032
-204.392	487.564	0.056	-0.127
-203.377	261.761	0.038	-0.065
-202.363	176.636	0.201	0.287
-201.348	800.000	-0.112	-0.477
-200.333	-200.000	0.048	0.230
-199.319	-200.000	-0.029	0.251
-198.304	-200.000	-0.025	-0.251
-197.290	-93.574	0.542	0.147
-196.275	795.301	-0.092	0.249
-195.260	-200.000	-0.069	0.311
-194.246	800.000	-0.131	-0.410
-193.231	800.000	-0.028	0.111
-192.217	7.340	-0.116	0.085
-191.202	-17.487	0.249	0.154
-190.187	219.692	0.125	0.196
-189.173	327.870	-0.134	0.252
-188.158	207.287	0.098	0.150
-187.144	-9.694	-0.223	-0.146
-186.129	-200.000	0.006	-0.085
-185.114	-75.086	0.308	0.108
-184.100	211.293	0.071	0.109
-183.085	-30.713	0.195	-0.108
-182.071	-2.609	0.039	-0.026
-181.056	112.710	-0.107	-0.127
-180.042	236.348	-0.134	0.217
-179.027	800.000	0.072	0.200
-178.012	-63.979	0.271	0.108
-176.998	-200.000	0.096	0.429
-175.983	-200.000	-0.026	-0.197
-174.969	-84.855	-0.217	-0.067
-173.954	26.907	-0.024	0.020
-172.939	41.810	-0.204	-0.182
-171.925	101.236	-0.122	0.139
-170.910	-91.602	-0.460	0.128
-169.896	-6.051	0.238	0.160
-168.881	14.070	-0.029	0.022
-167.866	143.440	-0.224	0.293
-166.852	-132.832	-0.139	0.017
-165.837	-92.260	0.237	0.065
-164.823	-200.000	0.277	-0.001
-163.808	800.000	-0.084	-0.285
-162.793	-200.000	-0.001	0.089
-161.779	417.091	0.086	0.180
-160.764	625.798	0.018	-0.045
-159.750	-89.762	0.579	-0.166
-158.735	-39.726	0.165	0.085
-157.720	-113.123	-0.073	0.014
-156.706	503.625	0.146	-0.331
-155.691	163.096	-0.108	0.149
-154.677	-26.399	0.168	-0.096
-153.662	-81.258	0.080	0.026
-152.647	-20.397	0.068	0.041
-151.633	134.007	-0.092	0.117
-150.618	82.132	-0.138	0.147
-149.604	-200.000	-0.025	0.228
-148.589	-130.103	0.180	-0.024
-147.574	-162.375	0.096	0.005
-146.560	800.000	0.142	-0.439
-145.545	-160.379	0.012	-0.001
-144.531	315.930	0.109	0.202
-143.516	377.537	0.064	0.127
-142.502	-105.786	-0.152	0.034
-141.487	-92.472	0.289	-0.080
-140.472	800.000	-0.029	0.092
-139.458	-200.000	0.024	0.135
-138.443	237.616	-0.064	-0.104
-137.429	157.691	0.175	-0.237
-136.414	-200.000	-0.014	-0.118
-135.399	-30.550	-0.254	-0.141
-134.385	-200.000	0.010	-0.251
-133.370	800.000	-0.180	-0.589
-132.356	542.371	-0.167	-0.391
-131.341	-200.000	0.010	-0.184
-130.326	-129.211	0.286	0.039
-129.312	5.171	-0.336	-0.243
-128.297	396.645	-0.004	-0.007
-127.283	-64.350	-0.143	0.057
-126.268	-79.949	-0.226	-0.074
-125.253	432.650	0.067	0.143
-124.239	-49.510	0.048	-0.022
-123.224	-87.855	-0.195	0.057
-122.210	78.057	-0.263	-0.275
-121.195	-65.021	0.225	0.089
-120.180	-177.643	-0.146	0.003
