DTS Sentinel unit serial number:	SN413079Multiplexer serial number:	ORYXHardware model number:	OX4-SRSoftware version number:	ORYX F/W v4.00 Oryx Data Collector v3.7.2.0data status	okinstallation	princeton_trtdifferential loss correction	single-endedforward channel	channel 3reverse channel	N/Adate	2019/09/11time	11:34:10forward acquisition time	60.00reverse acquisition time	0.00gamma	496.2192k internal	0.2294k external	0.2294temperature offset calibration	0.9937default loss term (dB/km)	0.3790temperature slope calibration	1.0000multiplexer offset coefficient	1.0000multiplexer slope coefficient	1.0000fibre end	0.00T internal ref (°C)	38.20T ext. ref 1 (°C)	0.19T ext. ref 2 (°C)	35.93length (m)	temperature (°C)	Stokes	anti-Stokes-747.200	-124.853	-0.250	0.039
-746.185	800.000	-0.070	0.232
-745.171	-78.093	0.141	0.050
-744.156	-48.414	0.077	0.038
-743.142	-79.596	0.241	-0.083
-742.127	-200.000	0.028	0.353
-741.112	-6.556	0.223	-0.155
-740.098	87.925	0.161	0.182
-739.083	50.737	0.163	-0.158
-738.069	-200.000	0.004	-0.058
-737.054	-159.817	0.331	0.019
-736.039	-169.695	-0.053	0.002
-735.025	343.548	0.039	0.078
-734.010	22.541	-0.322	-0.269
-732.996	125.107	0.140	-0.180
-731.981	-193.946	-0.151	-0.001
-730.966	16.870	0.169	-0.137
-729.952	331.102	0.149	-0.294
-728.937	-175.005	-0.163	-0.005
-727.923	-146.503	-0.541	-0.048
-726.908	-91.441	0.103	-0.030
-725.894	-151.697	-0.117	0.009
-724.879	333.859	-0.085	-0.169
-723.864	-200.000	-0.033	-0.257
-722.850	347.827	-0.074	-0.150
-721.835	800.000	-0.121	0.367
-720.821	3.911	-0.172	-0.128
-719.806	-45.446	-0.063	-0.032
-718.791	-127.894	-0.192	-0.028
-717.777	-76.215	-0.084	0.030
-716.762	-200.000	0.024	0.309
-715.748	-171.499	0.304	-0.010
-714.733	-37.792	-0.207	0.112
-713.718	140.601	0.088	-0.118
-712.704	13.670	-0.075	0.060
-711.689	800.000	0.024	-0.069
-710.675	-200.000	-0.033	-0.349
-709.660	-16.133	-0.236	-0.153
-708.645	-33.450	0.284	0.161
-707.631	-3.105	-0.141	0.100
-706.616	-68.790	0.212	-0.084
-705.602	364.696	-0.158	-0.324
-704.587	117.592	0.158	-0.198
-703.572	-200.000	-0.000	-0.022
-702.558	239.272	-0.116	0.196
-701.543	-73.222	-0.245	0.092
-700.529	56.150	0.052	-0.051
-699.514	23.417	-0.264	0.221
-698.499	25.742	0.129	0.109
-697.485	135.211	0.191	-0.254
-696.470	244.499	0.078	-0.133
-695.456	-91.617	-0.098	-0.029
-694.441	800.000	0.038	-0.142
-693.426	133.201	0.110	-0.145
-692.412	-33.635	0.261	0.147
-691.397	84.115	0.277	0.309
-690.383	315.507	-0.067	-0.130
-689.368	-151.398	-0.253	0.019
-688.354	800.000	-0.087	0.273
-687.339	-36.865	-0.287	0.157
-686.324	293.997	-0.218	-0.407
-685.310	302.457	0.067	-0.127
-684.295	-103.420	-0.177	-0.042
-683.281	98.380	-0.168	-0.197
-682.266	-9.527	-0.048	-0.033
-681.251	-200.000	0.020	0.127
-680.237	-200.000	-0.031	0.283
-679.222	800.000	-0.083	0.275
-678.208	-172.633	-0.247	-0.008
-677.193	35.940	0.255	0.229
-676.178	800.000	-0.038	-0.146
-675.164	-53.186	-0.316	0.148
-674.149	114.995	0.125	0.156
-673.135	-105.433	-0.086	-0.020
-672.120	-53.478	0.163	0.076
-671.105	246.825	0.034	0.058
-670.091	-136.479	-0.283	0.033
-669.076	-117.638	0.087	0.016
-668.062	-81.590	0.246	-0.082
-667.047	25.547	0.055	-0.047
-666.032	-200.000	-0.009	-0.278
-665.018	-97.761	-0.521	-0.138
-664.003	688.630	0.049	0.131
-662.989	-158.512	0.339	-0.020
-661.974	118.010	0.087	0.109
-660.959	-54.879	-0.386	-0.177
-659.945	-52.359	0.337	0.159
-658.930	270.471	-0.121	0.216
-657.916	-200.000	-0.017	0.115
-656.901	-50.638	0.135	-0.065
-655.886	800.000	-0.012	-0.046
-654.872	521.110	-0.070	0.167
-653.857	295.756	0.173	0.322
-652.843	-200.000	0.025	-0.234
-651.828	-133.523	-0.063	0.008
-650.814	472.389	0.025	-0.058
-649.799	389.663	-0.067	0.141
-648.784	-59.123	0.026	-0.011
-647.770	68.347	0.206	0.215
-646.755	59.597	0.182	0.183
-645.741	91.790	-0.134	-0.153
-644.726	-200.000	-0.002	-0.140
-643.711	100.859	-0.101	0.120
-642.697	-56.461	-0.322	0.146
-641.682	800.000	0.035	-0.106
-640.668	718.679	0.031	-0.085
-639.653	57.367	-0.056	0.056
-638.638	-9.198	0.197	-0.134
-637.624	-38.774	-0.177	-0.095
-636.609	-177.741	0.273	0.007
-635.595	-163.870	0.226	0.011
-634.580	404.314	-0.144	0.308
-633.565	800.000	0.059	-0.181
-632.551	236.516	-0.014	-0.023
-631.536	-25.781	-0.236	0.141
-630.522	599.438	-0.037	-0.095
-629.507	-50.208	-0.240	-0.116
-628.492	-114.557	-0.089	0.017
-627.478	-200.000	0.015	0.179
-626.463	300.418	0.107	0.201
-625.449	-117.807	-0.109	-0.020
-624.434	-200.000	-0.061	-0.276
-623.419	77.293	0.200	0.216
-622.405	45.068	-0.301	-0.282
-621.390	-34.307	0.301	0.168
-620.376	-102.917	-0.047	0.011
-619.361	-14.176	-0.296	-0.194
-618.346	800.000	-0.052	0.152
-617.332	-96.847	0.205	0.055
-616.317	20.183	-0.031	-0.025
-615.303	-200.000	-0.022	-0.375
-614.288	-105.628	0.277	0.064
-613.273	284.898	-0.173	0.318
-612.259	-30.956	-0.123	-0.071
-611.244	-16.093	0.089	0.058
-610.230	800.000	-0.056	-0.159
-609.215	-100.925	-0.218	-0.054
-608.201	-200.000	0.018	0.336
-607.186	70.085	-0.157	0.164
-606.171	305.381	-0.057	-0.107
-605.157	16.144	0.120	0.096
-604.142	306.959	-0.055	-0.104
-603.128	89.357	0.312	-0.354
-602.113	-66.682	-0.219	-0.088
-601.098	-200.000	-0.046	0.305
-600.084	-101.366	0.290	-0.072
-599.069	800.000	-0.057	0.161
-598.055	-200.000	-0.058	0.337
-597.040	464.458	-0.035	0.079
-596.025	-95.786	0.154	-0.042
-595.011	150.070	0.125	-0.173
-593.996	-7.497	-0.298	-0.205
-592.982	-200.000	-0.051	0.279
-591.967	594.729	0.022	0.056
-590.952	-200.000	-0.060	-0.291
-589.938	-80.542	-0.300	0.101
-588.923	1.171	-0.156	-0.113
-587.909	529.449	0.119	-0.286
-586.894	-62.978	0.107	0.045
-585.879	448.634	0.158	0.353
-584.865	-59.772	-0.014	0.006
-583.850	-200.000	0.004	-0.093
-582.836	800.000	-0.070	0.243
-581.821	800.000	-0.047	0.179
-580.806	-140.232	0.329	-0.035
-579.792	800.000	0.054	0.226
-578.777	-200.000	-0.016	0.376
-577.763	-200.000	0.029	-0.165
-576.748	800.000	0.066	-0.240
-575.733	-42.684	0.263	0.136
-574.719	160.411	0.034	0.048
-573.704	92.161	0.413	-0.473
-572.690	-100.783	-0.145	-0.036
-571.675	67.778	-0.242	-0.252
-570.661	-40.451	-0.252	-0.133
-569.646	125.185	0.051	0.065
-568.631	61.961	0.301	0.305
-567.617	-21.754	0.113	-0.070
-566.602	19.840	0.139	-0.113
-565.588	148.581	-0.020	0.028
-564.573	-69.535	0.208	-0.081
-563.558	139.588	0.027	-0.036
-562.544	174.851	0.082	-0.121
-561.529	800.000	0.086	-0.246
-560.515	800.000	-0.026	0.102
-559.500	-23.511	0.114	0.069
-558.485	-97.985	0.352	0.092
-557.471	70.911	-0.114	-0.120
-556.456	-200.000	-0.010	-0.314
-555.442	-76.238	-0.193	-0.069
-554.427	-111.835	-0.040	-0.008
-553.412	-39.058	-0.054	-0.029
-552.398	800.000	0.066	-0.224
-551.383	-70.946	0.266	-0.102
-550.369	-92.091	-0.084	0.024
-549.354	-105.879	0.213	0.049
-548.339	208.989	-0.181	-0.288
-547.325	132.250	0.060	0.078
-546.310	-200.000	-0.278	-0.001
-545.296	-25.820	-0.088	0.053
-544.281	-134.519	0.080	0.010
-543.266	182.541	-0.132	-0.197
-542.252	15.715	0.219	0.175
-541.237	-77.232	-0.087	0.031
-540.223	800.000	-0.037	-0.145
-539.208	213.848	-0.291	0.468
-538.193	299.389	0.064	0.120
-537.179	-135.522	0.215	0.026
-536.164	-109.510	-0.071	-0.015
-535.150	184.628	-0.088	0.132
-534.135	52.011	-0.156	-0.150
-533.121	-91.168	-0.224	-0.065
-532.106	800.000	-0.056	-0.167
-531.091	-4.044	-0.165	-0.116
-530.077	-61.861	-0.293	0.124
-529.062	365.544	0.166	0.340
-528.048	214.654	0.018	-0.029
-527.033	-200.000	-0.023	-0.385
-526.018	-98.653	-0.243	-0.063
-525.004	-51.864	0.163	0.077
-523.989	-200.000	-0.055	-0.305
-522.975	800.000	0.018	-0.075
-521.960	-200.000	-0.006	0.116
-520.945	-73.717	-0.146	0.054
-519.931	342.278	-0.091	-0.180
-518.916	800.000	-0.069	-0.210
-517.902	-11.375	-0.255	0.170
-516.887	-200.000	-0.023	-0.125
-515.872	74.930	0.062	0.066
-514.858	89.348	-0.066	0.074
-513.843	237.840	-0.021	0.036
-512.829	-200.000	-0.011	0.168
-511.814	194.018	0.043	-0.067
-510.799	129.472	-0.273	0.353
-509.785	-123.369	-0.068	0.011
-508.770	800.000	-0.118	0.348
-507.756	1.799	0.126	0.092
-506.741	55.945	-0.228	-0.224
-505.726	-81.368	0.292	-0.098
-504.712	51.246	0.100	0.097
-503.697	4.448	0.179	0.133
-502.683	-69.493	0.154	0.060
-501.668	9.886	0.190	0.146
-500.653	-200.000	0.000	-0.118
-499.639	219.378	0.095	0.153
-498.624	-66.014	-0.459	0.186
-497.610	159.852	0.105	-0.149
-496.595	16.943	-0.246	0.197
-495.581	80.313	0.122	0.133
-494.566	800.000	-0.068	-0.209
-493.551	-25.895	0.137	-0.082
-492.537	800.000	-0.090	0.253
-491.522	-200.000	-0.053	0.317
-490.508	-67.223	0.156	0.062
-489.493	109.665	0.039	0.047
-488.478	-9.702	-0.274	0.185
-487.464	-147.764	0.080	0.007
-486.449	-159.778	0.450	0.025
-485.435	665.653	-0.082	-0.214
-484.420	-200.000	-0.027	-0.198
-483.405	-80.522	-0.183	-0.062
-482.391	-46.726	-0.037	0.018
-481.376	-116.086	0.320	0.060
-480.362	-58.393	0.064	0.028
-479.347	-102.134	-0.241	0.059
-478.332	181.586	0.120	0.178
-477.318	221.281	-0.084	0.136
-476.303	324.754	0.094	-0.182
-475.289	-103.209	-0.083	-0.020
-474.274	65.145	0.061	-0.063
-473.259	-70.638	0.343	-0.131
-472.245	-23.708	-0.158	-0.096
-471.230	561.978	0.003	0.008
-470.216	117.005	0.057	0.071
-469.201	327.382	-0.032	0.061
-468.186	-200.000	0.002	0.019
-467.172	-65.033	-0.178	-0.073
-466.157	800.000	-0.044	0.148
-465.143	800.000	-0.091	-0.259
-464.128	-200.000	-0.015	-0.084
-463.113	-110.305	0.172	0.036
-462.099	800.000	0.063	-0.239
-461.084	800.000	0.101	0.295
-460.070	800.000	-0.080	-0.315
-459.055	256.859	0.045	0.078
-458.040	800.000	0.055	-0.242
-457.026	407.397	-0.094	-0.201
-456.011	-63.814	0.468	-0.194
-454.997	385.966	-0.117	-0.245
-453.982	10.182	0.052	0.040
-452.968	176.764	0.099	-0.146
-451.953	-180.977	0.185	0.004
-450.938	-113.224	-0.106	0.021
-449.924	-64.592	0.210	0.086
-448.909	-124.317	-0.053	0.008
-447.895	-141.018	-0.078	-0.008
-446.880	117.546	-0.061	-0.076
-445.865	800.000	-0.045	-0.167
-444.851	-21.762	-0.373	-0.229
-443.836	223.238	0.072	0.117
-442.822	-143.372	0.174	0.017
-441.807	30.864	-0.091	0.079
-440.792	413.665	-0.071	-0.153
-439.778	290.561	-0.060	-0.110
-438.763	-200.000	0.021	-0.181
-437.749	460.304	0.185	0.416
-436.734	-200.000	-0.022	-0.207
-435.719	79.047	0.178	-0.192
-434.705	-193.146	-0.072	-0.001
-433.690	800.000	-0.109	0.437
-432.676	-200.000	-0.013	0.196
-431.661	-12.168	0.133	0.088
-430.646	-49.246	-0.228	0.110
-429.632	366.994	-0.084	-0.171
-428.617	271.977	-0.068	0.122
-427.603	-18.164	0.360	0.228
-426.588	-118.202	-0.077	-0.014
-425.573	227.106	0.126	0.207
-424.559	-200.000	0.021	0.126
-423.544	-149.313	-0.135	0.011
-422.530	51.336	0.145	-0.139
-421.515	-69.318	-0.130	0.050
-420.500	800.000	-0.060	0.224
-419.486	-70.825	-0.067	0.025
-418.471	-142.638	0.278	-0.027
-417.457	800.000	0.111	0.321
-416.442	548.800	0.133	-0.322
-415.428	-20.492	-0.176	-0.109
-414.413	-21.045	0.077	-0.048
-413.398	-105.217	-0.358	-0.083
-412.384	-66.838	-0.206	0.082
-411.369	-200.000	-0.007	-0.040
-410.355	-78.447	0.082	-0.028
-409.340	800.000	-0.013	0.055
-408.325	-99.019	0.301	0.077
-407.311	-67.971	-0.136	0.054
-406.296	52.807	0.034	-0.033
-405.282	-109.537	-0.129	-0.027
-404.267	63.304	0.066	0.067
-403.252	-89.287	0.191	0.057
-402.238	331.875	-0.191	0.372
-401.223	-53.824	-0.247	-0.114
-400.209	-113.687	-0.330	-0.065
-399.194	105.146	0.052	0.062
-398.179	683.512	-0.065	0.171
-397.165	-142.518	-0.061	-0.006
-396.150	-200.000	0.009	-0.145
-395.136	-65.846	-0.132	0.053
-394.121	-200.000	-0.005	0.060
-393.106	119.486	0.083	0.103
-392.092	8.653	-0.208	-0.158
-391.077	176.377	-0.143	-0.209
-390.063	-110.498	0.229	0.048
-389.048	-30.750	-0.090	-0.051
-388.033	-153.452	0.164	-0.011
-387.019	-200.000	0.011	0.384
-386.004	-128.046	-0.216	0.031
-384.990	476.131	0.093	-0.212
-383.975	-15.537	-0.181	0.116
-382.960	137.925	0.179	0.237
-381.946	62.379	0.113	0.114
-380.931	-21.255	-0.077	-0.047
-379.917	-143.206	0.386	-0.037
-378.902	25.052	0.123	0.103
-377.888	-83.254	0.299	-0.097
-376.873	800.000	-0.027	-0.094
-375.858	110.708	0.156	0.190
-374.844	-53.857	-0.041	-0.019
-373.829	266.433	0.037	-0.066
-372.815	-200.000	0.056	-0.358
-371.800	70.726	-0.277	0.289
-370.785	-48.450	0.225	0.109
-369.771	363.736	-0.047	0.095
-368.756	-152.573	-0.014	-0.001
-367.742	28.177	-0.046	0.039
-366.727	800.000	-0.085	-0.314
-365.712	-68.633	-0.129	-0.050
-364.698	-40.977	0.064	-0.033
-363.683	7.793	0.191	-0.144
-362.669	-98.197	-0.351	0.091
-361.654	-200.000	0.014	-0.133
-360.639	49.683	-0.082	-0.078
-359.625	-200.000	-0.045	0.663
-358.610	-62.584	0.184	0.077
-357.596	-200.000	-0.017	0.210
-356.581	13.106	-0.113	0.088
-355.566	-93.722	-0.156	-0.043
-354.552	78.954	0.145	-0.156
-353.537	702.039	0.062	-0.165
-352.523	-138.472	0.082	0.009
-351.508	-123.852	0.226	0.036
-350.493	-134.225	0.626	0.078
-349.479	-22.935	-0.210	0.127
-348.464	-200.000	0.242	-0.001
-347.450	379.077	-0.053	-0.108
-346.435	-117.736	-0.386	0.070
-345.420	-155.603	0.066	0.004
-344.406	-200.000	0.027	-0.246
-343.391	-58.668	-0.270	0.118
-342.377	-200.000	-0.089	-0.437
-341.362	-200.000	-0.012	-0.053
-340.348	669.710	-0.101	0.263
-339.333	-200.000	-0.028	0.135
-338.318	5.848	0.356	0.265
-337.304	-117.581	0.306	0.056
-336.289	-90.763	-0.327	0.095
-335.275	64.671	0.175	-0.178
-334.260	302.920	0.099	-0.184
-333.245	-49.340	-0.125	-0.060
-332.231	-120.773	0.015	-0.002
-331.216	-73.190	0.195	-0.072
-330.202	-94.362	-0.208	-0.057
-329.187	800.000	0.088	-0.354
-328.172	59.348	-0.111	0.110
-327.158	-101.916	0.236	0.057
-326.143	96.464	0.143	-0.165
-325.129	-100.472	0.116	-0.029
-324.114	41.634	0.119	0.108
-323.099	73.782	-0.220	0.232
-322.085	-156.375	-0.159	0.010
-321.070	61.797	-0.125	-0.126
-320.056	800.000	-0.030	-0.097
-319.041	-119.954	0.355	-0.061
-318.026	-26.111	0.224	-0.133
-317.012	800.000	-0.064	-0.201
-315.997	141.430	-0.200	0.267
-314.983	-22.391	-0.287	-0.175
-313.968	-113.534	-0.059	-0.012
-312.953	757.087	0.103	0.281
-311.939	-142.136	0.190	-0.019
-310.924	-138.594	0.201	-0.022
-309.910	549.886	-0.048	-0.116
-308.895	361.305	-0.096	-0.193
-307.880	41.846	0.449	0.409
-306.866	-109.172	-0.053	0.011
-305.851	293.119	0.073	0.135
-304.837	-187.739	0.139	-0.002
-303.822	800.000	-0.101	-0.329
-302.807	666.738	0.088	-0.228
-301.793	-36.224	-0.237	-0.129
-300.778	124.569	-0.316	-0.399
-299.764	-33.711	0.138	0.077
-298.749	115.844	-0.181	0.222
-297.735	-133.446	-0.142	0.018
-296.720	444.571	0.129	0.284
-295.705	300.108	0.058	-0.108
-294.691	-63.246	0.106	0.044
-293.676	692.967	-0.107	0.282
-292.662	2.161	0.138	-0.100
-291.647	146.976	0.172	0.232
-290.632	-50.607	0.160	0.076
-289.618	27.106	0.311	0.263
-288.603	-20.868	-0.213	0.131
-287.589	88.883	-0.025	-0.028
-286.574	-200.000	0.023	-0.114
-285.559	16.829	0.182	0.144
-284.545	92.797	-0.256	0.290
-283.530	-93.397	-0.196	0.055
-282.516	106.653	0.159	-0.190
-281.501	277.094	0.078	0.140
-280.486	800.000	0.064	0.214
-279.472	-200.000	0.011	-0.051
-278.457	68.953	0.266	-0.274
-277.443	-57.145	0.278	0.123
-276.428	366.647	0.034	0.069
-275.413	28.258	-0.126	0.107
-274.399	-14.263	-0.156	-0.101
-273.384	-60.358	0.024	0.010
-272.370	564.170	-0.043	0.104
-271.355	-200.000	-0.111	-0.518
-270.340	-77.750	0.174	-0.061
-269.326	800.000	0.037	-0.133
-268.311	-49.343	-0.165	0.079
-267.297	-200.000	0.020	-0.181
-266.282	-200.000	-0.017	0.088
-265.267	30.127	-0.159	-0.136
-264.253	52.815	-0.129	0.124
-263.238	207.291	-0.118	-0.185
-262.224	-43.662	0.147	0.074
-261.209	-6.630	0.167	0.114
-260.195	-200.000	0.000	0.100
-259.180	-107.385	0.308	0.068
-258.165	800.000	-0.016	-0.052
-257.151	-93.797	-0.298	0.082
-256.136	-95.105	0.219	-0.059
-255.122	180.703	0.076	-0.112
-254.107	-32.790	0.165	0.092
-253.092	335.271	0.026	-0.051
-252.078	-2.714	0.117	0.082
-251.063	441.160	0.017	-0.037
-250.049	605.714	0.128	-0.319
-249.034	-113.889	-0.364	0.071
-248.019	16.855	0.194	0.154
-247.005	258.094	-0.037	-0.064
-245.990	-63.241	-0.045	-0.019
-244.976	568.022	-0.196	-0.477
-243.961	-200.000	-0.013	0.216
-242.946	-115.042	-0.113	0.022
-241.932	776.511	-0.095	-0.261
-240.917	800.000	0.033	-0.130
-239.903	-3.917	0.239	-0.166
-238.888	-91.431	-0.136	-0.039
-237.873	326.756	-0.037	0.071
-236.859	305.394	0.066	-0.123
-235.844	85.711	-0.236	-0.260
-234.830	-171.432	-0.194	-0.006
-233.815	349.083	0.122	-0.241
-232.800	252.252	-0.146	-0.249
-231.786	-81.294	0.311	0.103
-230.771	800.000	0.054	0.196
-229.757	-118.526	0.149	-0.026
-228.742	-200.000	0.007	0.226
-227.727	312.409	0.083	-0.157
-226.713	-200.000	0.006	-0.101
-225.698	-37.949	-0.080	-0.042
-224.684	-200.000	0.010	0.085
-223.669	169.988	-0.226	-0.323
-222.655	-101.306	-0.252	0.062
-221.640	160.609	-0.202	0.282
-220.625	-78.274	-0.277	-0.095
-219.611	16.558	0.062	0.049
-218.596	-142.911	-0.155	-0.015
-217.582	-95.049	-0.227	-0.061
-216.567	-200.000	0.019	0.108
-215.552	-108.535	0.276	0.060
-214.538	-0.224	0.200	0.142
-213.523	-70.869	-0.182	-0.069
-212.509	195.223	0.102	-0.155
-211.494	71.783	0.191	0.199
-210.479	-58.529	0.277	-0.121
-209.465	-41.031	-0.279	-0.144
-208.450	24.710	0.261	-0.216
-207.436	15.417	-0.081	-0.064
-206.421	-80.526	0.368	0.123
-205.406	-4.956	-0.072	-0.050
-204.392	267.190	0.195	0.342
-203.377	736.143	-0.120	0.323
-202.363	800.000	-0.092	0.317
-201.348	-124.331	0.072	-0.011
-200.333	-148.340	-0.381	0.031
-199.319	-167.588	-0.118	0.005
-198.304	-157.409	-0.200	0.012
-197.290	-200.000	-0.072	-0.396
-196.275	800.000	0.021	0.075
-195.260	-80.271	-0.212	-0.071
-194.246	-111.136	0.054	0.011
-193.231	-41.932	0.109	0.056
-192.217	-200.000	0.019	-0.452
-191.202	-159.339	0.305	-0.017
-190.187	-200.000	0.017	0.083
-189.173	-154.614	0.413	0.028
-188.158	96.146	-0.088	0.101
-187.144	93.681	-0.046	-0.052
-186.129	117.549	-0.230	0.283
-185.114	800.000	0.019	0.053
-184.100	-200.000	0.039	-0.283
-183.085	-200.000	-0.029	0.185
-182.071	-94.100	0.232	-0.064
-181.056	-138.051	0.058	-0.006
-180.042	51.547	0.220	0.210
-179.027	-117.460	-0.251	-0.045
-178.012	352.992	0.065	-0.128
-176.998	-178.529	-0.363	0.008
-175.983	-117.682	-0.154	0.028
-174.969	87.778	0.152	-0.168
-173.954	-80.374	-0.142	0.048
-172.939	14.328	-0.192	0.150
-171.925	-200.000	0.021	0.272
-170.910	17.048	0.284	0.225
-169.896	-22.550	-0.228	0.138
-168.881	-101.275	-0.458	0.112
-167.866	-136.561	0.190	0.022
-166.852	-132.700	0.212	-0.027
-165.837	-62.117	0.401	-0.168
-164.823	88.389	-0.271	-0.301
-163.808	622.683	-0.177	-0.445
-162.793	161.780	-0.176	-0.247
-161.779	28.155	-0.256	0.216
-160.764	115.936	-0.153	0.187
-159.750	-200.000	0.012	-0.290
-158.735	433.887	-0.093	0.202
-157.720	364.070	-0.096	0.193
-156.706	-60.786	-0.281	0.119
-155.691	-164.088	0.492	-0.023
-154.677	168.858	-0.064	0.091
-153.662	-200.000	-0.048	-0.349
-152.647	685.550	0.038	-0.099
-151.633	-39.726	-0.058	-0.030
-150.618	-134.265	-0.364	0.045
-149.604	8.868	0.126	0.095
-148.589	624.221	-0.071	0.179
-147.574	-200.000	0.005	0.047
-146.560	800.000	-0.086	-0.312
-145.545	-46.566	-0.136	-0.067
-144.531	-125.278	-0.098	-0.015
-143.516	-82.698	0.085	-0.028
-142.502	-56.061	0.339	-0.151
-141.487	-154.198	-0.177	-0.012
-140.472	50.893	0.058	-0.055
-139.458	-200.000	-0.022	0.298
-138.443	-76.754	0.191	0.067
-137.429	-22.773	0.281	-0.170
-136.414	119.567	0.205	0.254
-135.399	-200.000	-0.029	0.130
-134.385	59.761	-0.097	-0.095
-133.370	-200.000	-0.013	0.116
-132.356	34.807	-0.184	-0.161
-131.341	469.707	0.105	-0.235
-130.326	3.184	0.084	-0.061
-129.312	-200.000	0.015	0.193
-128.297	-200.000	0.037	0.164
-127.283	800.000	-0.005	-0.014
-126.268	-103.535	-0.102	-0.024
-125.253	-139.191	-0.297	-0.032
-124.239	157.397	0.179	0.247
-123.224	-200.000	0.022	0.230
-122.210	133.990	0.211	0.273
-121.195	-87.480	-0.209	0.063
