DTS Sentinel unit serial number:	SN413079Multiplexer serial number:	ORYXHardware model number:	OX4-SRSoftware version number:	ORYX F/W v4.00 Oryx Data Collector v3.7.2.0data status	okinstallation	princeton_trtdifferential loss correction	single-endedforward channel	channel 3reverse channel	N/Adate	2019/09/15time	11:04:35forward acquisition time	60.00reverse acquisition time	0.00gamma	496.2192k internal	0.2307k external	0.2307temperature offset calibration	0.9976default loss term (dB/km)	0.3790temperature slope calibration	1.0000multiplexer offset coefficient	1.0000multiplexer slope coefficient	1.0000fibre end	0.00T internal ref (°C)	34.27T ext. ref 1 (°C)	5.05T ext. ref 2 (°C)	29.64length (m)	temperature (°C)	Stokes	anti-Stokes-747.200	123.272	-0.099	-0.126
-746.185	-200.000	-0.039	0.313
-745.171	-118.963	0.352	0.063
-744.156	-165.640	0.430	0.019
-743.142	-200.000	-0.025	0.230
-742.127	163.395	0.143	0.205
-741.112	-120.984	-0.181	0.031
-740.098	-23.641	-0.294	0.179
-739.083	5.766	0.135	-0.102
-738.069	800.000	-0.066	0.288
-737.054	-200.000	-0.017	0.132
-736.039	-83.031	-0.388	-0.127
-735.025	-200.000	-0.024	0.132
-734.010	-122.539	-0.154	-0.025
-732.996	-19.977	-0.421	-0.264
-731.981	64.373	-0.364	-0.373
-730.966	113.208	0.073	-0.089
-729.952	-107.033	-0.294	-0.066
-728.937	522.976	-0.038	-0.091
-727.923	800.000	0.016	0.045
-726.908	-91.700	0.284	0.082
-725.894	88.039	-0.132	-0.149
-724.879	-46.141	-0.178	-0.089
-723.864	175.366	0.102	-0.150
-722.850	-200.000	-0.022	-0.171
-721.835	98.516	-0.026	-0.030
-720.821	-190.497	0.327	-0.004
-719.806	-97.354	-0.493	-0.131
-718.791	-91.922	-0.007	0.002
-717.777	-200.000	0.002	-0.032
-716.762	204.230	0.204	0.321
-715.748	-20.417	0.080	0.050
-714.733	-151.059	0.066	-0.005
-713.718	761.707	-0.050	0.137
-712.704	-200.000	-0.012	-0.070
-711.689	-40.574	0.103	-0.054
-710.675	-200.000	-0.037	-0.172
-709.660	141.627	-0.089	-0.119
-708.645	558.964	-0.112	-0.274
-707.631	800.000	-0.149	0.493
-706.616	800.000	-0.042	-0.129
-705.602	-200.000	0.007	-0.176
-704.587	753.752	0.065	-0.179
-703.572	41.224	0.244	0.224
-702.558	-10.377	-0.240	-0.162
-701.543	-28.978	-0.061	-0.036
-700.529	-46.370	0.173	0.086
-699.514	-163.572	-0.303	0.015
-698.499	-200.000	0.058	-0.276
-697.485	370.365	-0.216	-0.444
-696.470	-93.451	-0.140	-0.039
-695.456	63.511	0.084	-0.085
-694.441	-174.323	0.315	-0.009
-693.426	-93.465	-0.040	0.011
-692.412	46.253	-0.185	-0.174
-691.397	-65.978	-0.312	0.126
-690.383	800.000	-0.046	0.162
-689.368	800.000	0.024	-0.088
-688.354	150.291	0.090	0.124
-687.339	800.000	-0.020	0.088
-686.324	-200.000	-0.033	-0.183
-685.310	216.428	0.107	-0.173
-684.295	45.873	-0.378	0.355
-683.281	-37.375	0.217	-0.118
-682.266	800.000	0.041	0.127
-681.251	-200.000	0.004	-0.287
-680.237	43.819	-0.032	-0.030
-679.222	26.341	0.253	0.214
-678.208	212.830	0.158	-0.254
-677.193	344.085	-0.188	0.374
-676.178	-200.000	0.000	0.145
-675.164	-200.000	0.017	0.210
-674.149	271.246	-0.141	-0.253
-673.135	-133.703	-0.137	0.017
-672.120	-49.427	-0.186	0.090
-671.105	-200.000	0.041	-0.271
-670.091	-122.371	0.298	0.049
-669.076	-53.764	-0.144	0.067
-668.062	-16.463	-0.325	0.209
-667.047	-12.382	-0.165	0.110
-666.032	-57.667	-0.312	0.139
-665.018	-200.000	0.076	-0.397
-664.003	-111.292	0.231	-0.048
-662.989	29.917	-0.286	-0.247
-661.974	-116.191	-0.509	-0.096
-660.959	-84.369	0.196	-0.063
-659.945	117.548	0.369	0.460
-658.930	-41.390	-0.124	-0.065
-657.916	301.954	-0.149	-0.280
-656.901	-55.330	0.395	-0.180
-655.886	-96.163	-0.244	0.066
-654.872	800.000	0.066	-0.214
-653.857	548.871	0.047	-0.115
-652.843	-45.005	0.243	0.122
-651.828	-43.850	-0.103	-0.053
-650.814	-136.078	-0.402	-0.048
-649.799	68.967	-0.086	-0.089
-648.784	137.329	-0.054	-0.071
-647.770	-42.797	0.229	0.118
-646.755	282.191	-0.152	0.276
-645.741	-112.777	0.158	-0.032
-644.726	-200.000	0.054	-0.425
-643.711	-159.278	-0.486	-0.028
-642.697	101.645	-0.055	0.065
-641.682	97.104	0.151	-0.176
-640.668	-14.613	0.352	0.229
-639.653	-175.948	0.238	-0.006
-638.638	236.925	0.042	0.071
-637.624	-200.000	-0.012	-0.166
-636.609	24.814	0.230	0.193
-635.595	217.722	-0.040	-0.065
-634.580	283.534	-0.023	-0.042
-633.565	-153.984	-0.169	0.012
-632.551	-60.013	-0.086	-0.037
-631.536	-80.086	0.128	0.044
-630.522	800.000	-0.064	-0.204
-629.507	-39.424	0.029	-0.016
-628.492	-74.591	0.184	-0.067
-627.478	-38.670	-0.153	0.082
-626.463	-36.258	0.205	0.112
-625.449	443.524	0.251	-0.556
-624.434	298.631	-0.022	0.042
-623.419	50.439	-0.253	-0.242
-622.405	-173.542	-0.234	-0.007
-621.390	199.583	0.135	0.210
-620.376	19.027	-0.084	0.068
-619.361	-200.000	-0.204	0.000
-618.346	-135.212	0.171	0.021
-617.332	-9.125	0.282	0.191
-616.317	-84.121	0.343	-0.110
-615.303	113.913	-0.124	0.153
-614.288	-8.145	0.335	0.228
-613.273	-52.951	0.198	-0.092
-612.259	-43.597	-0.126	0.064
-611.244	-102.828	-0.348	0.084
-610.230	496.124	-0.083	0.192
-609.215	-92.044	0.105	0.030
-608.201	-102.615	-0.085	-0.020
-607.186	-64.709	0.018	0.007
-606.171	217.300	-0.048	-0.078
-605.157	145.670	0.065	0.088
-604.142	-200.000	-0.035	0.242
-603.128	309.308	0.150	0.284
-602.113	800.000	0.052	-0.215
-601.098	-33.407	-0.453	0.253
-600.084	150.587	0.117	-0.161
-599.069	99.355	0.134	-0.157
-598.055	-24.407	-0.343	-0.207
-597.040	-159.905	0.157	0.009
-596.025	15.324	0.101	0.080
-595.011	7.654	0.105	-0.080
-593.996	-115.526	0.122	-0.023
-592.982	219.794	-0.061	-0.100
-591.967	-200.000	0.032	-0.174
-590.952	-5.172	-0.231	-0.160
-589.938	768.694	-0.053	-0.146
-588.923	-167.343	-0.280	0.011
-587.909	40.212	0.063	-0.057
-586.894	-136.845	0.266	0.031
-585.879	137.526	-0.130	-0.172
-584.865	-153.227	0.160	-0.011
-583.850	-67.621	-0.220	-0.087
-582.836	-200.000	-0.014	-0.281
-581.821	-188.607	-0.273	-0.003
-580.806	-200.000	0.015	-0.179
-579.792	-200.000	-0.021	0.254
-578.777	79.614	-0.256	-0.277
-577.763	87.726	0.258	-0.289
-576.748	800.000	0.076	-0.217
-575.733	-75.601	0.233	-0.084
-574.719	-65.678	0.083	-0.034
-573.704	-8.899	0.082	-0.055
-572.690	-8.820	-0.189	-0.128
-571.675	-22.494	-0.054	0.033
-570.661	800.000	-0.122	0.349
-569.646	800.000	0.072	0.256
-568.631	18.882	-0.068	0.055
-567.617	526.968	-0.079	-0.189
-566.602	354.986	0.029	-0.059
-565.588	219.745	0.219	0.354
-564.573	-200.000	-0.078	0.387
-563.558	800.000	0.047	0.131
-562.544	-200.000	-0.000	0.107
-561.529	-200.000	0.031	0.169
-560.515	54.784	-0.080	0.078
-559.500	93.038	-0.143	0.163
-558.485	18.798	0.373	0.302
-557.471	206.476	-0.127	0.200
-556.456	-85.946	-0.364	-0.114
-555.442	138.992	0.170	0.226
-554.427	-91.646	-0.023	0.007
-553.412	-21.543	0.147	0.090
-552.398	-10.102	-0.211	-0.142
-551.383	-200.000	-0.032	-0.269
-550.369	800.000	-0.045	0.133
-549.354	-200.000	0.006	0.237
-548.339	-41.583	-0.260	0.135
-547.325	93.770	0.018	-0.021
-546.310	-141.189	-0.402	-0.041
-545.296	800.000	0.028	-0.107
-544.281	132.879	0.157	0.205
-543.266	24.166	0.168	0.140
-542.252	18.999	0.156	0.126
-541.237	16.670	-0.159	-0.127
-540.223	29.233	0.222	0.190
-539.208	-200.000	-0.029	-0.225
-538.193	-200.000	0.013	-0.304
-537.179	-102.002	0.104	0.025
-536.164	800.000	-0.063	0.208
-535.150	78.152	-0.077	0.083
-534.135	800.000	0.049	0.148
-533.121	45.945	-0.167	-0.156
-532.106	64.886	-0.185	-0.188
-531.091	30.926	-0.128	-0.111
-530.077	249.967	0.026	0.045
-529.062	257.630	-0.247	0.429
-528.048	-167.747	0.140	0.006
-527.033	583.396	-0.148	0.367
-526.018	-35.050	0.261	0.144
-525.004	-7.714	-0.163	-0.111
-523.989	-146.852	0.108	-0.009
-522.975	-3.621	-0.142	0.100
-521.960	-164.276	-0.159	0.007
-520.945	-22.726	-0.045	0.028
-519.931	-143.140	0.131	0.013
-518.916	-200.000	-0.017	-0.220
-517.902	-14.723	-0.101	0.065
-516.887	-133.404	0.461	-0.058
-515.872	800.000	0.075	-0.281
-514.858	-13.772	0.121	-0.079
-513.843	-200.000	0.008	0.065
-512.829	179.157	-0.182	-0.268
-511.814	-52.674	0.076	0.035
-510.799	52.596	0.152	0.147
-509.785	-200.000	-0.046	-0.222
-508.770	-53.700	0.152	0.070
-507.756	52.804	-0.416	0.401
-506.741	-96.518	0.310	-0.082
-505.726	-105.956	0.139	-0.031
-504.712	35.776	-0.064	0.057
-503.697	-200.000	-0.025	-0.174
-502.683	-39.648	0.193	-0.102
-501.668	393.604	0.026	0.055
-500.653	-21.645	0.155	-0.095
-499.639	-131.527	-0.443	-0.059
-498.624	-75.732	-0.124	-0.044
-497.610	8.225	-0.357	-0.270
-496.595	-64.924	-0.104	-0.042
-495.581	-67.000	0.448	0.178
-494.566	-1.964	0.123	-0.087
-493.551	-200.000	-0.012	-0.223
-492.537	44.118	0.111	-0.103
-491.522	-161.222	0.463	0.024
-490.508	-200.000	0.004	0.091
-489.493	-34.044	-0.044	0.024
-488.478	800.000	0.028	-0.122
-487.464	237.183	0.214	-0.358
-486.449	208.661	-0.235	0.370
-485.435	-36.739	0.088	-0.047
-484.420	-112.971	0.221	0.044
-483.405	-113.112	0.304	0.060
-482.391	-200.000	-0.016	0.101
-481.376	237.757	-0.060	0.101
-480.362	-200.000	0.055	0.296
-479.347	-82.410	-0.140	-0.046
-478.332	-83.443	0.161	-0.052
-477.318	-200.000	0.336	0.001
-476.303	-49.234	-0.175	-0.084
-475.289	-113.024	0.256	-0.051
-474.274	37.390	0.251	-0.224
-473.259	338.051	0.189	0.369
-472.245	113.033	-0.152	0.186
-471.230	80.998	-0.193	-0.209
-470.216	-115.207	0.301	0.057
-469.201	218.297	0.202	-0.324
-468.186	-200.000	-0.022	-0.230
-467.172	-198.715	0.337	0.002
-466.157	-200.000	0.063	0.293
-465.143	-101.966	0.084	-0.020
-464.128	-2.840	-0.090	0.063
-463.113	338.032	0.103	0.201
-462.099	-74.533	0.137	0.050
-461.084	-200.000	-0.022	-0.167
-460.070	93.503	-0.022	-0.025
-459.055	800.000	-0.061	0.246
-458.040	800.000	0.043	0.174
-457.026	219.883	0.042	-0.068
-456.011	-29.197	-0.088	0.051
-454.997	21.343	0.103	-0.084
-453.982	-10.372	0.252	0.168
-452.968	-193.799	0.275	0.002
-451.953	632.740	0.109	0.277
-450.938	559.101	0.090	0.219
-449.924	-96.857	-0.137	0.036
-448.909	-200.000	-0.011	0.068
-447.895	800.000	0.045	0.134
-446.880	-139.841	-0.037	-0.004
-445.865	50.840	0.178	0.170
-444.851	-131.310	-0.170	0.023
-443.836	-121.838	-0.241	0.040
-442.822	132.666	0.079	0.103
-441.807	-15.994	0.076	0.049
-440.792	-29.853	0.195	-0.112
-439.778	-47.121	-0.432	0.212
-438.763	800.000	-0.035	-0.118
-437.749	-200.000	-0.085	0.383
-436.734	-162.850	-0.208	0.010
-435.719	128.937	-0.252	0.322
-434.705	-125.691	0.200	-0.030
-433.690	218.340	0.072	0.116
-432.676	-66.084	-0.287	0.115
-431.661	112.861	0.084	0.103
-430.646	800.000	0.098	0.311
-429.632	-127.782	0.190	-0.028
-428.617	-200.000	0.003	0.153
-427.603	-200.000	0.008	-0.046
-426.588	-6.723	0.105	0.072
-425.573	9.214	0.160	-0.122
-424.559	-200.000	-0.022	-0.247
-423.544	-200.000	0.030	0.208
-422.530	-90.121	-0.119	0.035
-421.515	189.965	-0.103	-0.155
-420.500	-83.796	0.322	0.103
-419.486	267.235	-0.099	0.173
-418.471	-16.463	0.202	-0.128
-417.457	789.459	0.089	0.246
-416.442	40.662	-0.162	0.147
-415.428	-171.837	-0.023	-0.001
-414.413	50.157	-0.188	0.178
-413.398	800.000	-0.025	-0.070
-412.384	177.285	-0.123	-0.180
-411.369	-65.138	-0.124	-0.050
-410.355	-71.704	0.118	0.044
-409.340	-18.321	-0.229	-0.144
-408.325	100.062	-0.065	-0.076
-407.311	-90.111	0.292	0.085
-406.296	-126.886	0.080	0.012
-405.282	525.534	0.068	0.161
-404.267	16.315	-0.135	0.107
-403.252	-43.245	0.333	-0.169
-402.238	-36.871	-0.098	0.053
-401.223	116.819	0.108	-0.134
-400.209	-43.531	-0.020	0.010
-399.194	800.000	0.031	0.134
-398.179	-109.411	-0.149	-0.032
-397.165	800.000	-0.080	-0.329
-396.150	-200.000	0.034	-0.373
-395.136	-143.317	-0.231	-0.022
-394.121	90.780	-0.135	0.152
-393.106	-152.467	0.198	0.014
-392.092	34.641	0.238	-0.209
-391.077	-7.002	-0.117	-0.080
-390.063	163.108	-0.157	0.221
-389.048	-140.819	-0.267	0.028
-388.033	6.315	-0.123	-0.092
-387.019	-59.382	0.248	-0.107
-386.004	-200.000	-0.012	0.186
-384.990	800.000	0.080	0.291
-383.975	800.000	-0.038	0.114
-382.960	149.555	-0.026	-0.036
-381.946	107.145	-0.064	0.077
-380.931	14.696	0.060	0.047
-379.917	-96.547	-0.468	-0.124
-378.902	-142.403	-0.180	-0.018
-377.888	-93.549	-0.401	0.111
-376.873	-155.900	-0.286	0.018
-375.858	-200.000	0.014	0.267
-374.844	800.000	-0.058	0.196
-373.829	-200.000	0.001	0.071
-372.815	115.007	-0.268	-0.327
-371.800	800.000	0.054	0.193
-370.785	396.876	0.129	-0.271
-369.771	232.623	-0.075	0.124
-368.756	507.252	-0.100	-0.233
-367.742	-168.619	-0.073	0.003
-366.727	-36.446	0.061	0.033
-365.712	-34.133	-0.351	0.193
-364.698	63.552	-0.120	-0.121
-363.683	-200.000	0.027	0.157
-362.669	64.324	-0.159	0.160
-361.654	201.387	-0.082	-0.127
-360.639	66.619	0.215	-0.219
-359.625	-84.793	0.057	0.018
-358.610	-200.000	-0.008	-0.310
-357.596	-71.077	-0.055	0.021
-356.581	-79.804	-0.100	-0.034
-355.566	-42.408	-0.155	0.079
-354.552	8.213	-0.043	0.033
-353.537	299.283	-0.172	0.317
-352.523	-9.583	0.129	0.086
-351.508	-111.052	-0.095	-0.020
-350.493	139.732	-0.187	0.247
-349.479	277.475	0.186	-0.331
-348.464	559.848	0.087	0.210
-347.450	-37.960	-0.141	0.075
-346.435	69.411	-0.221	-0.228
-345.420	132.913	0.057	0.074
-344.406	111.069	-0.033	0.040
-343.391	128.063	-0.137	-0.174
-342.377	56.675	-0.239	-0.233
-341.362	-78.093	-0.093	-0.032
-340.348	-200.000	-0.028	-0.179
-339.333	-50.423	-0.163	-0.077
-338.318	-14.963	0.177	-0.113
-337.304	-128.067	-0.316	0.045
-336.289	-200.000	-0.002	-0.149
-335.275	-100.996	0.202	-0.050
-334.260	54.210	-0.343	-0.330
-333.245	-200.000	0.095	0.000
-332.231	85.819	0.181	0.199
-331.216	-127.261	0.381	0.056
-330.202	190.449	-0.105	0.158
-329.187	-58.446	0.467	0.203
-328.172	800.000	0.069	-0.239
-327.158	-135.741	-0.177	0.021
-326.143	23.526	0.302	-0.249
-325.129	-171.031	0.154	-0.005
-324.114	-0.948	0.085	0.060
-323.099	-21.320	-0.263	-0.161
-322.085	11.242	-0.157	-0.120
-321.070	-23.363	-0.196	0.118
-320.056	691.812	0.073	-0.192
-319.041	55.945	0.197	0.191
-318.026	-200.000	0.020	0.277
-317.012	-116.309	0.089	0.017
-315.997	98.345	0.089	0.103
-314.983	476.288	0.084	-0.189
-313.968	-27.918	-0.126	-0.073
-312.953	-200.000	0.012	-0.078
-311.939	415.292	0.059	0.125
-310.924	323.322	-0.084	0.159
-309.910	713.010	-0.062	0.164
-308.895	-6.066	0.093	0.064
-307.880	-200.000	0.008	-0.054
-306.866	-200.000	-0.009	-0.196
-305.851	505.740	0.067	0.154
-304.837	-200.000	-0.002	-0.204
-303.822	-200.000	-0.028	-0.274
-302.807	-200.000	0.000	0.510
-301.793	131.014	-0.295	-0.378
-300.778	144.503	0.088	-0.118
-299.764	800.000	0.078	-0.271
-298.749	-140.694	0.130	-0.013
-297.735	-200.000	0.027	0.244
-296.720	4.342	0.241	-0.177
-295.705	395.537	0.184	0.383
-294.691	308.930	-0.255	0.477
-293.676	-115.456	0.314	-0.059
-292.662	-179.314	-0.112	0.002
-291.647	278.078	0.081	-0.144
-290.632	273.488	0.097	-0.172
-289.618	237.031	-0.064	0.107
-288.603	104.511	-0.134	-0.158
-287.589	21.236	-0.125	0.102
-286.574	22.273	-0.214	0.174
-285.559	147.455	0.091	-0.123
-284.545	800.000	-0.032	0.135
-283.530	59.166	0.198	-0.195
-282.516	-93.658	0.299	0.083
-281.501	-135.164	-0.173	-0.021
-280.486	-35.912	-0.310	-0.168
-279.472	-91.167	-0.256	0.073
-278.457	800.000	-0.087	-0.322
-277.443	-46.601	-0.236	0.116
-276.428	-98.277	-0.092	-0.023
-275.413	-168.343	-0.305	-0.012
-274.399	95.285	0.026	0.030
-273.384	208.237	-0.191	0.298
-272.370	269.645	0.182	0.319
-271.355	448.694	0.082	-0.181
-270.340	-200.000	0.082	-0.365
-269.326	200.806	0.182	-0.279
-268.311	-26.362	0.194	0.114
-267.297	-71.774	-0.053	-0.020
-266.282	-7.644	0.249	0.168
-265.267	-113.745	0.212	-0.041
-264.253	-200.000	-0.016	-0.118
-263.238	552.470	-0.059	-0.142
-262.224	542.308	-0.056	-0.133
-261.209	-2.897	0.164	0.114
-260.195	800.000	-0.050	-0.169
-259.180	-127.729	0.208	-0.030
-258.165	-15.808	0.204	-0.130
-257.151	800.000	-0.062	-0.182
-256.136	28.884	-0.284	0.240
-255.122	72.163	0.223	-0.232
-254.107	-49.543	0.277	0.132
-253.092	27.904	-0.163	-0.137
-252.078	99.055	-0.124	-0.143
-251.063	-200.000	0.040	-0.201
-250.049	-45.083	-0.272	-0.135
-249.034	-200.000	0.296	0.000
-248.019	52.969	0.097	-0.093
-247.005	51.765	-0.056	0.054
-245.990	43.088	-0.153	0.139
-244.976	272.808	0.154	0.272
-243.961	191.954	-0.250	-0.375
-242.946	800.000	0.059	-0.237
-241.932	607.769	0.066	0.164
-240.917	-42.090	0.215	0.110
-239.903	123.023	0.140	0.175
-238.888	-64.959	-0.398	0.160
-237.873	43.690	0.278	0.254
-236.859	329.391	-0.050	0.096
-235.844	645.707	-0.013	0.033
-234.830	13.653	0.291	-0.226
-233.815	352.420	0.193	-0.381
-232.800	-70.583	0.251	0.094
-231.786	-200.000	0.004	0.273
-230.771	37.058	-0.105	0.093
-229.757	-161.617	-0.210	-0.011
-228.742	250.997	0.009	0.016
-227.727	211.487	0.038	0.060
-226.713	-52.985	-0.161	-0.074
-225.698	-133.710	0.462	0.058
-224.684	800.000	0.055	-0.216
-223.669	-165.429	0.186	0.008
-222.655	800.000	-0.045	0.140
-221.640	66.793	0.067	0.068
-220.625	-200.000	-0.044	-0.235
-219.611	-59.645	0.188	-0.080
-218.596	-10.909	-0.050	-0.033
-217.582	39.480	0.142	-0.127
-216.567	-200.000	0.014	0.262
-215.552	-61.451	-0.445	0.186
-214.538	-151.552	-0.205	-0.015
-213.523	18.628	-0.131	-0.104
-212.509	167.784	-0.107	-0.152
-211.494	-80.697	0.360	-0.119
-210.479	-11.046	0.332	-0.218
-209.465	-200.000	0.035	-0.243
-208.450	123.938	-0.052	-0.065
-207.436	633.739	-0.046	-0.116
-206.421	180.518	0.036	-0.052
-205.406	-14.819	-0.289	-0.185
-204.392	12.023	-0.143	0.110
-203.377	-27.310	-0.055	-0.032
-202.363	261.161	-0.169	0.291
-201.348	-58.615	-0.175	-0.076
-200.333	70.346	0.023	0.024
-199.319	-200.000	-0.019	-0.099
-198.304	-85.553	-0.135	0.042
-197.290	579.851	0.070	-0.171
-196.275	34.641	-0.137	-0.119
-195.260	24.500	0.045	0.037
-194.246	24.398	-0.189	-0.155
-193.231	800.000	0.079	0.226
-192.217	-3.987	-0.230	0.159
-191.202	-200.000	0.060	-0.386
-190.187	224.595	-0.081	0.130
-189.173	205.654	0.007	0.011
-188.158	112.324	-0.247	-0.297
-187.144	307.544	0.091	-0.170
-186.129	-159.131	0.449	-0.025
-185.114	-46.654	0.123	0.060
-184.100	800.000	0.071	-0.291
-183.085	-40.694	-0.033	-0.017
-182.071	168.180	0.121	-0.171
-181.056	800.000	-0.105	-0.366
-180.042	281.884	0.041	-0.073
-179.027	-121.676	-0.238	0.039
-178.012	106.209	-0.149	0.176
-176.998	324.633	0.159	0.302
-175.983	-200.000	-0.010	0.328
-174.969	53.717	0.247	-0.236
-173.954	-158.317	0.246	-0.014
-172.939	134.748	-0.085	-0.110
-171.925	329.579	-0.154	0.295
-170.910	341.523	0.199	0.387
-169.896	-35.384	-0.347	-0.188
-168.881	-67.937	-0.307	0.119
-167.866	-139.750	0.327	-0.035
-166.852	128.830	-0.050	-0.063
-165.837	-116.812	-0.323	0.059
-164.823	122.987	0.185	-0.231
-163.808	501.347	-0.056	0.128
-162.793	800.000	0.067	0.224
-161.779	-200.000	0.013	-0.207
-160.764	12.876	-0.228	-0.175
-159.750	-52.108	-0.170	-0.078
-158.735	-81.417	0.087	-0.028
-157.720	800.000	0.046	0.126
-156.706	-5.193	0.161	0.110
-155.691	12.131	-0.047	0.036
-154.677	69.225	-0.189	0.193
-153.662	-67.059	-0.176	-0.069
-152.647	708.910	-0.150	-0.393
-151.633	800.000	-0.060	-0.193
-150.618	63.757	0.204	0.204
-149.604	-49.728	0.162	-0.077
-148.589	82.327	0.062	0.067
-147.574	800.000	0.041	-0.139
-146.560	-200.000	-0.008	-0.380
-145.545	771.433	-0.038	-0.102
-144.531	-200.000	0.026	0.141
-143.516	-200.000	-0.033	0.238
-142.502	356.778	-0.070	0.139
-141.487	17.073	0.033	-0.026
-140.472	800.000	-0.095	-0.356
-139.458	800.000	-0.031	-0.121
-138.443	-131.569	0.153	0.020
-137.429	-111.101	0.244	-0.050
-136.414	-76.246	-0.126	0.044
-135.399	139.768	-0.100	0.131
-134.385	12.684	-0.126	0.097
-133.370	-57.801	-0.205	-0.089
-132.356	-74.714	-0.123	0.044
-131.341	800.000	0.019	-0.073
-130.326	-150.509	-0.057	-0.004
-129.312	69.208	0.173	0.177
-128.297	-162.356	0.077	0.004
-127.283	666.770	-0.078	0.200
-126.268	-200.000	0.005	0.104
-125.253	-65.503	-0.256	-0.102
-124.239	54.736	-0.288	-0.275
-123.224	-130.469	-0.139	-0.019
-122.210	318.347	-0.063	-0.118
-121.195	92.264	-0.081	-0.090
