DTS Sentinel unit serial number:	SN413079Multiplexer serial number:	ORYXHardware model number:	OX4-SRSoftware version number:	ORYX F/W v4.00 Oryx Data Collector v3.7.2.0data status	okinstallation	princeton_trtdifferential loss correction	single-endedforward channel	channel 3reverse channel	N/Adate	2019/09/11time	09:30:11forward acquisition time	60.00reverse acquisition time	0.00gamma	496.2192k internal	0.2305k external	0.2305temperature offset calibration	0.9938default loss term (dB/km)	0.3790temperature slope calibration	1.0000multiplexer offset coefficient	1.0000multiplexer slope coefficient	1.0000fibre end	0.00T internal ref (°C)	34.69T ext. ref 1 (°C)	0.12T ext. ref 2 (°C)	31.30length (m)	temperature (°C)	Stokes	anti-Stokes-747.200	399.123	-0.155	0.330
-746.185	-200.000	0.008	-0.134
-745.171	5.029	0.307	0.230
-744.156	413.521	-0.054	-0.118
-743.142	108.735	0.154	-0.187
-742.127	800.000	-0.041	0.172
-741.112	36.461	0.173	-0.155
-740.098	800.000	0.027	0.090
-739.083	-191.376	0.111	0.001
-738.069	609.618	-0.144	0.365
-737.054	52.981	-0.183	0.178
-736.039	-84.634	-0.177	0.057
-735.025	302.964	-0.088	-0.166
-734.010	-200.000	0.005	-0.145
-732.996	-8.047	-0.113	-0.077
-731.981	450.800	-0.008	0.017
-730.966	-50.550	-0.262	0.126
-729.952	-200.000	0.066	0.309
-728.937	800.000	-0.066	-0.200
-727.923	111.146	-0.313	0.383
-726.908	800.000	-0.043	-0.161
-725.894	-200.000	-0.021	-0.120
-724.879	37.986	-0.217	-0.196
-723.864	-63.606	-0.237	-0.099
-722.850	141.522	-0.087	-0.118
-721.835	-4.243	0.146	0.103
-720.821	-40.433	-0.125	-0.066
-719.806	-200.000	-0.021	0.134
-718.791	137.399	-0.120	0.159
-717.777	48.689	0.213	0.203
-716.762	108.951	-0.196	-0.238
-715.748	-46.153	0.130	-0.065
-714.733	32.009	-0.163	-0.143
-713.718	-65.857	0.154	0.062
-712.704	-69.163	-0.076	-0.030
-711.689	-7.676	-0.097	-0.067
-710.675	466.149	0.155	-0.354
-709.660	224.560	-0.068	0.112
-708.645	-134.268	-0.150	-0.019
-707.631	-128.191	-0.356	-0.052
-706.616	92.351	-0.301	0.345
-705.602	-62.739	0.260	-0.109
-704.587	5.010	-0.279	-0.209
-703.572	-74.785	0.353	0.129
-702.558	-124.423	-0.537	-0.085
-701.543	-36.019	0.182	-0.100
-700.529	374.743	-0.101	0.209
-699.514	-195.469	-0.212	0.002
-698.499	13.042	-0.217	-0.171
-697.485	331.040	-0.075	0.147
-696.470	-32.548	0.222	0.126
-695.456	280.833	0.080	-0.145
-694.441	-100.857	0.264	0.066
-693.426	697.600	-0.079	0.212
-692.412	-100.059	0.257	0.065
-691.397	-200.000	0.003	-0.152
-690.383	800.000	0.024	0.105
-689.368	800.000	-0.109	-0.355
-688.354	-168.346	-0.130	-0.005
-687.339	354.632	-0.210	-0.424
-686.324	47.471	-0.086	-0.081
-685.310	56.650	-0.148	0.147
-684.295	29.316	-0.138	-0.119
-683.281	-158.383	0.342	0.020
-682.266	104.910	-0.103	-0.124
-681.251	98.179	-0.097	-0.114
-680.237	-130.431	-0.284	-0.039
-679.222	800.000	0.068	0.302
-678.208	-77.523	-0.508	0.179
-677.193	133.264	0.122	-0.160
-676.178	2.647	0.346	0.254
-675.164	669.932	-0.085	0.223
-674.149	342.833	0.143	0.284
-673.135	229.141	0.233	0.386
-672.120	190.393	-0.037	-0.057
-671.105	-89.716	0.166	-0.049
-670.091	81.153	-0.103	0.113
-669.076	82.258	0.126	-0.139
-668.062	689.322	-0.078	-0.206
-667.047	778.090	-0.024	-0.065
-666.032	407.362	-0.185	0.396
-665.018	-39.940	0.366	0.194
-664.003	-73.451	-0.127	0.047
-662.989	9.743	0.127	-0.098
-661.974	115.511	-0.083	-0.103
-660.959	519.367	-0.239	-0.569
-659.945	-16.153	-0.253	-0.163
-658.930	-200.000	-0.004	-0.142
-657.916	134.370	-0.039	0.051
-656.901	116.302	0.132	-0.165
-655.886	800.000	-0.036	0.149
-654.872	253.635	-0.073	0.126
-653.857	-96.406	0.068	-0.018
-652.843	800.000	-0.087	-0.339
-651.828	613.014	-0.033	0.084
-650.814	-68.983	0.287	-0.112
-649.799	77.435	0.216	0.233
-648.784	800.000	-0.033	0.145
-647.770	-133.261	-0.288	-0.037
-646.755	236.813	-0.124	0.208
-645.741	0.623	-0.319	0.231
-644.726	-176.750	-0.111	-0.003
-643.711	68.097	0.233	-0.242
-642.697	421.466	-0.072	-0.156
-641.682	171.656	-0.085	0.124
-640.668	-39.867	0.091	-0.048
-639.653	-129.032	0.119	0.017
-638.638	89.044	0.124	-0.140
-637.624	30.771	-0.305	0.265
-636.609	324.911	-0.107	0.206
-635.595	-200.000	0.002	-0.251
-634.580	800.000	-0.032	0.130
-633.565	800.000	-0.070	0.281
-632.551	151.089	0.260	-0.358
-631.536	13.106	0.214	0.168
-630.522	-38.842	-0.205	-0.109
-629.507	60.835	0.145	0.145
-628.492	770.269	-0.086	-0.237
-627.478	80.653	0.109	-0.119
-626.463	-98.644	-0.447	-0.116
-625.449	-200.000	-0.016	-0.208
-624.434	385.159	-0.200	-0.417
-623.419	90.721	0.241	0.273
-622.405	94.745	0.090	0.104
-621.390	119.545	-0.079	0.099
-620.376	181.257	0.077	-0.115
-619.361	-173.052	0.292	-0.009
-618.346	-86.450	-0.266	-0.083
-617.332	226.061	0.195	-0.321
-616.317	-16.356	0.477	0.307
-615.303	88.673	0.037	-0.042
-614.288	-106.239	0.243	0.055
-613.273	-43.270	0.331	0.170
-612.259	-37.014	0.113	-0.062
-611.244	-165.080	0.214	0.010
-610.230	-49.499	-0.156	-0.075
-609.215	800.000	0.036	0.127
-608.201	-41.886	0.156	0.081
-607.186	-200.000	-0.009	0.140
-606.171	-200.000	-0.025	0.120
-605.157	800.000	0.045	0.171
-604.142	-124.832	-0.173	-0.027
-603.128	584.970	0.104	0.258
-602.113	-200.000	-0.051	-0.333
-601.098	-115.270	-0.209	0.040
-600.084	-87.445	0.126	0.039
-599.069	138.012	-0.112	-0.149
-598.055	-111.176	0.293	-0.061
-597.040	46.966	0.134	0.126
-596.025	57.510	-0.133	-0.131
-595.011	225.562	0.152	-0.249
-593.996	235.893	-0.066	0.111
-592.982	66.008	-0.245	0.251
-591.967	-187.525	0.301	-0.004
-590.952	-27.773	0.097	-0.057
-589.938	5.171	0.114	0.085
-588.923	370.279	0.050	0.103
-587.909	-57.087	0.335	0.149
-586.894	-91.990	-0.109	0.031
-585.879	800.000	0.069	-0.252
-584.865	-126.908	-0.314	0.047
-583.850	532.428	-0.016	0.038
-582.836	184.717	0.045	0.067
-581.821	-186.447	-0.157	-0.002
-580.806	800.000	0.036	-0.109
-579.792	-91.815	-0.243	-0.070
-578.777	171.728	0.166	-0.241
-577.763	-106.855	0.204	0.046
-576.748	-9.985	-0.201	0.135
-575.733	74.098	-0.165	0.175
-574.719	-129.917	0.085	-0.012
-573.704	143.289	0.219	-0.295
-572.690	-46.325	-0.211	0.105
-571.675	-200.000	-0.008	-0.119
-570.661	-98.931	-0.127	0.032
-569.646	39.780	-0.202	-0.183
-568.631	1.683	-0.260	-0.189
-567.617	617.496	0.139	-0.352
-566.602	118.729	-0.078	-0.097
-565.588	800.000	0.090	0.312
-564.573	-26.054	0.125	0.074
-563.558	32.801	0.118	0.104
-562.544	-200.000	-0.001	0.108
-561.529	542.626	-0.084	-0.202
-560.515	-80.975	-0.270	0.090
-559.500	140.355	0.100	-0.133
-558.485	89.906	0.115	-0.129
-557.471	579.832	-0.107	0.265
-556.456	131.806	-0.045	0.058
-555.442	60.692	-0.099	-0.099
-554.427	-127.626	0.254	-0.037
-553.412	90.960	0.289	0.328
-552.398	-6.394	-0.182	0.125
-551.383	-153.088	0.160	0.011
-550.369	23.575	-0.195	0.162
-549.354	-128.763	0.033	0.005
-548.339	103.867	0.213	-0.252
-547.325	-107.477	0.019	0.004
-546.310	-21.996	-0.064	-0.039
-545.296	-200.000	-0.023	-0.131
-544.281	349.241	-0.034	0.068
-543.266	-200.000	0.004	-0.104
-542.252	-60.356	0.309	-0.133
-541.237	162.823	0.245	-0.347
-540.223	405.246	-0.251	-0.534
-539.208	724.898	-0.132	0.355
-538.193	-200.000	0.007	0.229
-537.179	-200.000	0.026	-0.303
-536.164	234.878	0.140	-0.233
-535.150	131.588	-0.041	0.054
-534.135	800.000	-0.098	-0.290
-533.121	-200.000	0.020	0.320
-532.106	4.246	0.193	-0.143
-531.091	800.000	-0.067	0.259
-530.077	-76.486	-0.032	-0.011
-529.062	-200.000	-0.002	-0.033
-528.048	-161.302	-0.208	-0.011
-527.033	235.877	0.150	-0.251
-526.018	-105.718	0.143	-0.033
-525.004	-162.662	0.076	-0.004
-523.989	21.304	-0.206	-0.169
-522.975	-138.578	0.175	0.019
-521.960	-55.995	-0.202	-0.091
-520.945	-25.624	-0.124	-0.074
-519.931	-200.000	0.028	0.159
-518.916	-140.727	-0.082	0.009
-517.902	-200.000	0.034	-0.190
-516.887	782.848	-0.039	-0.109
-515.872	145.273	0.171	0.231
-514.858	-34.322	0.403	-0.223
-513.843	278.761	-0.112	-0.201
-512.829	595.362	0.027	-0.067
-511.814	37.799	-0.099	0.089
-510.799	65.632	0.201	0.205
-509.785	-122.214	-0.232	-0.038
-508.770	-8.943	0.205	0.139
-507.756	254.454	0.162	-0.280
-506.741	-21.750	-0.399	-0.245
-505.726	0.758	-0.199	0.144
-504.712	-200.000	-0.010	0.272
-503.697	-113.355	-0.185	-0.037
-502.683	-5.307	-0.097	0.067
-501.668	668.169	0.105	0.275
-500.653	-200.000	-0.054	0.267
-499.639	69.182	-0.098	-0.102
-498.624	-183.030	0.138	0.002
-497.610	78.326	-0.053	-0.057
-496.595	-79.002	0.210	0.072
-495.581	-200.000	0.000	0.092
-494.566	-103.436	-0.345	-0.082
-493.551	42.742	-0.216	0.199
-492.537	-76.054	-0.062	-0.022
-491.522	-6.838	0.059	-0.040
-490.508	-169.676	0.148	-0.005
-489.493	-100.806	-0.018	-0.004
-488.478	-200.000	0.024	0.265
-487.464	-126.823	-0.252	-0.037
-486.449	58.777	0.035	-0.034
-485.435	-109.882	0.190	-0.040
-484.420	-18.303	-0.104	-0.065
-483.405	-200.000	-0.023	0.144
-482.391	-180.504	-0.483	0.010
-481.376	168.481	-0.147	-0.211
-480.362	-77.695	0.235	-0.082
-479.347	-83.897	-0.424	-0.136
-478.332	-183.734	0.132	-0.002
-477.318	-128.281	0.197	0.028
-476.303	-200.000	0.005	0.175
-475.289	93.410	0.179	-0.204
-474.274	239.307	0.065	-0.109
-473.259	625.864	0.018	-0.046
-472.245	-200.000	0.009	-0.216
-471.230	-79.324	0.365	-0.124
-470.216	-121.728	0.295	-0.049
-469.201	171.610	-0.127	0.184
-468.186	254.955	0.127	0.219
-467.172	50.002	0.209	0.198
-466.157	-200.000	0.058	0.272
-465.143	-84.094	-0.178	-0.057
-464.128	87.194	-0.284	0.316
-463.113	81.584	0.060	0.065
-462.099	-127.968	-0.058	-0.008
-461.084	-183.936	0.269	0.005
-460.070	275.205	-0.067	0.119
-459.055	800.000	0.068	0.212
-458.040	-32.177	0.122	-0.069
-457.026	-117.708	0.459	-0.083
-456.011	-117.829	0.179	-0.032
-454.997	78.098	-0.246	-0.265
-453.982	-49.522	-0.187	-0.090
-452.968	-200.000	0.033	-0.250
-451.953	448.919	0.047	0.104
-450.938	-172.118	0.290	-0.009
-449.924	3.328	-0.064	-0.047
-448.909	-0.653	0.083	0.059
-447.895	800.000	0.005	-0.019
-446.880	101.055	0.234	-0.274
-445.865	-153.733	-0.198	-0.014
-444.851	-200.000	0.017	0.077
-443.836	-55.000	0.259	-0.117
-442.822	800.000	-0.080	-0.239
-441.807	-94.614	-0.331	0.091
-440.792	148.275	0.084	0.114
-439.778	265.115	0.148	-0.260
-438.763	-54.440	-0.058	0.027
-437.749	800.000	-0.123	0.386
-436.734	-36.314	-0.080	-0.043
-435.719	-200.000	-0.053	-0.262
-434.705	553.856	0.046	0.112
-433.690	-200.000	-0.009	0.343
-432.676	-127.305	0.034	-0.005
-431.661	-98.056	-0.294	-0.076
-430.646	-143.498	0.365	0.035
-429.632	-163.434	0.129	0.006
-428.617	-135.221	-0.439	-0.053
-427.603	-51.703	0.074	0.035
-426.588	113.447	0.140	0.171
-425.573	544.764	0.057	-0.136
-424.559	508.832	-0.074	0.173
-423.544	337.442	-0.117	0.228
-422.530	123.142	-0.067	0.085
-421.515	-147.297	-0.149	0.013
-420.500	-102.634	-0.078	0.019
-419.486	310.576	0.060	0.113
-418.471	81.739	-0.199	0.216
-417.457	58.114	0.114	0.112
-416.442	-142.674	0.173	-0.017
-415.428	19.724	-0.359	-0.291
-414.413	325.314	0.031	-0.060
-413.398	-113.828	-0.183	0.036
-412.384	299.201	-0.121	-0.223
-411.369	176.746	0.122	-0.179
-410.355	800.000	0.057	0.178
-409.340	-200.000	0.037	-0.299
-408.325	344.364	0.052	0.102
-407.311	235.114	0.115	-0.191
-406.296	800.000	0.072	-0.302
-405.282	-67.262	-0.176	0.070
-404.267	140.251	-0.133	0.177
-403.252	-200.000	-0.020	0.329
-402.238	-45.431	-0.266	-0.132
-401.223	-61.259	0.344	-0.145
-400.209	-132.481	0.524	-0.068
-399.194	-42.620	-0.219	-0.112
-398.179	82.528	-0.081	-0.088
-397.165	38.740	0.062	-0.056
-396.150	-134.482	-0.340	-0.042
-395.136	-9.447	-0.329	-0.221
-394.121	-200.000	-0.011	-0.249
-393.106	-123.613	0.431	0.069
-392.092	-155.507	0.303	-0.020
-391.077	89.470	-0.246	0.276
-390.063	65.051	0.340	-0.345
-389.048	187.589	0.167	-0.251
-388.033	-200.000	0.063	0.409
-387.019	6.322	-0.299	0.222
-386.004	332.535	0.092	0.178
-384.990	-11.336	-0.339	-0.224
-383.975	-158.832	-0.086	-0.005
-382.960	800.000	-0.091	-0.302
-381.946	-67.727	0.295	0.116
-380.931	-123.208	-0.373	-0.060
-379.917	-148.015	0.262	-0.022
-378.902	800.000	-0.072	-0.271
-377.888	-85.201	0.189	-0.059
-376.873	376.819	-0.091	0.186
-375.858	175.813	0.279	0.406
-374.844	90.615	0.321	0.361
-373.829	5.990	-0.135	0.100
-372.815	67.135	0.149	-0.153
-371.800	-160.336	-0.135	-0.007
-370.785	-200.000	0.004	-0.077
-369.771	-200.000	-0.055	-0.288
-368.756	-61.081	0.045	0.019
-367.742	-62.405	0.300	-0.125
-366.727	246.877	-0.041	0.069
-365.712	48.317	0.275	-0.258
-364.698	-200.000	-0.047	0.296
-363.683	33.663	-0.120	-0.105
-362.669	5.606	-0.278	0.206
-361.654	-82.528	-0.252	0.082
-360.639	21.168	0.346	0.281
-359.625	-163.602	-0.353	0.017
-358.610	-200.000	-0.034	-0.260
-357.596	-128.988	-0.232	-0.033
-356.581	88.005	0.101	0.112
-355.566	59.536	-0.113	-0.111
-354.552	-98.878	0.080	0.020
-353.537	318.511	-0.016	-0.030
-352.523	-57.660	-0.399	0.175
-351.508	-37.914	-0.262	-0.139
-350.493	-200.000	-0.003	-0.141
-349.479	-11.259	-0.274	-0.181
-348.464	-123.390	-0.131	0.021
-347.450	41.939	-0.298	0.271
-346.435	-23.864	-0.210	0.126
-345.420	171.824	-0.097	0.139
-344.406	319.950	0.164	0.312
-343.391	155.045	0.161	0.222
-342.377	-137.244	-0.288	0.033
-341.362	573.382	0.052	-0.127
-340.348	800.000	0.056	0.177
-339.333	-106.054	0.207	0.047
-338.318	137.289	0.162	0.212
-337.304	333.628	-0.173	-0.336
-336.289	-93.810	-0.348	0.096
-335.275	-200.000	-0.024	-0.274
-334.260	307.560	-0.166	-0.311
-333.245	269.696	-0.034	-0.061
-332.231	18.973	0.299	-0.240
-331.216	-200.000	0.001	0.061
-330.202	28.743	0.091	0.077
-329.187	37.250	-0.122	-0.108
-328.172	-200.000	0.004	-0.432
-327.158	-45.059	0.140	-0.070
-326.143	800.000	0.088	0.328
-325.129	58.217	0.069	-0.068
-324.114	14.450	-0.343	-0.268
-323.099	-153.311	0.176	0.012
-322.085	6.118	-0.063	0.047
-321.070	-137.147	0.176	-0.020
-320.056	776.510	0.094	-0.257
-319.041	26.366	-0.094	0.079
-318.026	161.609	-0.024	0.033
-317.012	160.536	0.114	-0.159
-315.997	18.305	0.211	0.169
-314.983	800.000	0.048	0.145
-313.968	215.898	-0.104	0.166
-312.953	800.000	-0.079	-0.333
-311.939	749.756	-0.143	0.385
-310.924	78.629	0.189	0.202
-309.910	-7.102	0.418	-0.284
-308.895	-87.368	-0.212	-0.064
-307.880	-34.201	-0.129	0.071
-306.866	-98.981	-0.107	-0.027
-305.851	800.000	-0.073	0.316
-304.837	800.000	0.016	-0.061
-303.822	-36.644	-0.067	0.036
-302.807	-96.987	0.031	-0.008
-301.793	135.923	0.081	0.105
-300.778	145.935	-0.244	0.328
-299.764	-122.528	-0.309	0.050
-298.749	-131.109	0.044	-0.006
-297.735	-27.762	-0.043	-0.025
-296.720	-200.000	-0.026	-0.150
-295.705	800.000	-0.100	-0.367
-294.691	-157.848	-0.101	-0.006
-293.676	-132.237	-0.436	-0.056
-292.662	800.000	-0.069	-0.283
-291.647	-200.000	0.019	-0.267
-290.632	-55.971	-0.249	-0.111
-289.618	-74.309	0.072	0.026
-288.603	-200.000	0.005	-0.051
-287.589	113.169	0.117	0.142
-286.574	51.568	-0.151	0.143
-285.559	-42.553	0.270	0.137
-284.545	-41.806	-0.211	-0.108
-283.530	541.190	-0.054	-0.127
-282.516	-200.000	-0.041	-0.191
-281.501	-85.728	0.236	0.073
-280.486	800.000	-0.059	0.223
-279.472	-200.000	0.008	-0.125
-278.457	-200.000	-0.013	0.061
-277.443	-200.000	-0.130	-0.581
-276.428	401.087	0.048	0.102
-275.413	-58.341	0.376	-0.163
-274.399	-160.547	-0.271	-0.014
-273.384	-165.141	0.249	-0.011
-272.370	-53.277	0.108	0.049
-271.355	-34.264	-0.134	-0.073
-270.340	60.399	0.191	0.189
-269.326	119.120	-0.054	-0.066
-268.311	-79.140	0.236	-0.080
-267.297	121.180	-0.163	-0.203
-266.282	458.087	-0.076	0.168
-265.267	133.667	-0.048	-0.062
-264.253	-200.000	-0.063	0.285
-263.238	-200.000	0.023	0.138
-262.224	-56.600	-0.041	-0.018
-261.209	-15.876	0.296	0.188
-260.195	-31.494	-0.115	-0.065
-259.180	174.003	0.088	-0.127
-258.165	-200.000	-0.032	0.250
-257.151	-38.842	0.289	0.152
-256.136	-73.791	0.178	0.065
-255.122	45.047	-0.179	0.165
-254.107	297.479	0.159	-0.291
-253.092	138.589	0.074	0.096
-252.078	328.391	0.142	0.273
-251.063	126.016	0.165	-0.208
-250.049	-100.342	-0.194	0.048
-249.034	152.769	0.103	0.141
-248.019	147.707	0.196	0.263
-247.005	-38.698	0.318	-0.168
-245.990	432.055	0.060	-0.130
-244.976	800.000	-0.091	-0.358
-243.961	-200.000	-0.021	0.109
-242.946	800.000	0.061	0.219
-241.932	330.338	-0.134	-0.258
-240.917	370.085	0.157	-0.318
-239.903	-200.000	0.007	-0.170
-238.888	-200.000	-0.022	0.147
-237.873	325.686	0.195	0.372
-236.859	-114.607	-0.141	-0.027
-235.844	-139.342	0.149	0.016
-234.830	-25.580	-0.212	0.125
-233.815	268.198	0.090	0.158
-232.800	-200.000	0.027	0.378
-231.786	-63.223	0.281	0.115
-230.771	-145.568	-0.155	-0.014
-229.757	-200.000	-0.007	0.256
-228.742	177.553	0.016	-0.024
-227.727	-8.270	-0.158	0.106
-226.713	800.000	0.113	-0.317
-225.698	-110.243	-0.040	-0.008
-224.684	800.000	0.089	-0.295
-223.669	272.605	0.052	-0.092
-222.655	-200.000	0.032	-0.296
-221.640	-154.804	-0.025	-0.002
-220.625	184.792	-0.152	0.224
-219.611	18.627	-0.137	-0.109
-218.596	-185.291	-0.113	0.002
-217.582	329.168	0.088	0.168
-216.567	-84.942	-0.245	-0.077
-215.552	800.000	0.082	-0.306
-214.538	-104.033	0.152	-0.035
-213.523	28.445	-0.263	-0.222
-212.509	-147.880	-0.358	-0.030
-211.494	77.439	0.243	-0.258
-210.479	235.444	-0.080	0.132
-209.465	383.721	0.183	0.375
-208.450	138.437	-0.201	0.263
-207.436	102.830	-0.157	-0.183
-206.421	439.047	0.154	-0.335
-205.406	42.336	-0.016	0.015
-204.392	-6.715	0.198	0.135
-203.377	800.000	0.026	-0.089
-202.363	-200.000	0.205	-0.001
-201.348	-109.509	0.130	0.027
-200.333	-14.595	0.097	0.062
-199.319	36.180	0.122	0.107
-198.304	90.873	-0.107	-0.119
-197.290	800.000	-0.088	-0.315
-196.275	-67.435	-0.197	0.077
-195.260	-200.000	0.018	-0.100
-194.246	-200.000	-0.014	0.462
-193.231	-173.362	0.301	-0.009
-192.217	-200.000	0.008	0.177
-191.202	-200.000	-0.003	-0.152
-190.187	-81.322	-0.542	0.178
-189.173	221.257	0.205	0.328
-188.158	-147.498	0.256	0.021
-187.144	-83.617	-0.116	-0.037
-186.129	-54.210	-0.187	-0.085
-185.114	-98.237	-0.284	0.073
-184.100	199.863	0.299	-0.457
-183.085	-40.641	-0.325	0.168
-182.071	15.029	0.243	0.190
-181.056	0.933	-0.175	0.125
-180.042	131.557	-0.108	0.139
-179.027	125.724	-0.109	0.138
-178.012	800.000	-0.066	0.185
-176.998	-71.367	0.096	-0.036
-175.983	-23.321	-0.526	0.315
-174.969	-30.400	-0.068	0.038
-173.954	-27.088	0.202	0.117
-172.939	-34.396	-0.202	0.110
-171.925	-200.000	-0.004	0.082
-170.910	-142.672	0.190	-0.018
-169.896	-63.224	-0.148	-0.061
-168.881	800.000	-0.037	0.151
-167.866	-84.862	0.111	0.035
-166.852	800.000	0.077	0.258
-165.837	309.301	-0.182	-0.338
-164.823	-80.945	-0.115	-0.038
-163.808	77.453	0.225	0.238
-162.793	396.349	-0.007	0.014
-161.779	-53.551	0.278	0.126
-160.764	493.810	-0.075	-0.171
-159.750	54.421	0.104	-0.100
-158.735	-200.000	-0.037	0.286
-157.720	-185.751	0.206	0.003
-156.706	246.965	-0.112	-0.188
-155.691	520.245	0.037	0.087
-154.677	8.494	0.178	-0.133
-153.662	-63.648	0.180	-0.073
-152.647	179.986	-0.059	-0.086
-151.633	800.000	-0.049	0.143
-150.618	-27.835	-0.160	-0.092
-149.604	-134.204	-0.142	-0.017
-148.589	-133.116	-0.243	0.031
-147.574	-19.415	0.322	0.199
-146.560	480.679	-0.047	0.106
-145.545	800.000	-0.117	-0.324
-144.531	8.017	-0.225	-0.168
-143.516	800.000	0.021	-0.061
-142.502	800.000	0.040	-0.115
-141.487	456.407	-0.102	0.225
-140.472	-200.000	0.026	0.148
-139.458	127.007	-0.236	0.297
-138.443	-173.864	-0.360	-0.011
-137.429	-93.705	-0.195	-0.053
-136.414	-200.000	-0.003	0.118
-135.399	-81.186	0.363	0.119
-134.385	-77.397	-0.155	0.053
-133.370	-34.356	-0.410	-0.224
-132.356	-165.062	0.240	-0.011
-131.341	99.738	0.206	-0.237
-130.326	192.901	-0.121	0.181
-129.312	-31.708	0.396	0.221
-128.297	217.250	-0.100	0.158
-127.283	-109.101	0.270	-0.057
-126.268	-105.855	0.364	-0.082
-125.253	497.707	-0.051	-0.117
-124.239	74.823	-0.203	0.212
-123.224	-104.974	-0.231	0.053
-122.210	150.364	0.091	-0.123
-121.195	571.776	0.024	0.057
