DTS Sentinel unit serial number:	SN413079Multiplexer serial number:	ORYXHardware model number:	OX4-SRSoftware version number:	ORYX F/W v4.00 Oryx Data Collector v3.7.2.0data status	okinstallation	princeton_trtdifferential loss correction	single-endedforward channel	channel 3reverse channel	N/Adate	2019/09/17time	00:32:35forward acquisition time	60.00reverse acquisition time	0.00gamma	496.2192k internal	0.2325k external	0.2325temperature offset calibration	0.9941default loss term (dB/km)	0.3790temperature slope calibration	1.0000multiplexer offset coefficient	1.0000multiplexer slope coefficient	1.0000fibre end	0.00T internal ref (°C)	29.45T ext. ref 1 (°C)	0.09T ext. ref 2 (°C)	23.86length (m)	temperature (°C)	Stokes	anti-Stokes-747.200	-33.918	-0.119	-0.066
-746.185	207.180	-0.234	0.368
-745.171	-200.000	-0.009	0.049
-744.156	-200.000	0.048	0.407
-743.142	-200.000	0.011	0.268
-742.127	202.285	-0.055	-0.085
-741.112	-40.501	-0.255	0.133
-740.098	-142.095	-0.184	0.018
-739.083	-200.000	-0.011	0.368
-738.069	268.260	-0.221	0.390
-737.054	-131.717	0.201	0.027
-736.039	800.000	-0.030	0.118
-735.025	-166.387	-0.082	0.003
-734.010	-75.065	0.130	-0.047
-732.996	-134.387	-0.110	-0.014
-731.981	294.392	0.021	-0.038
-730.966	10.145	0.223	0.171
-729.952	343.011	0.117	-0.232
-728.937	-117.455	-0.238	-0.043
-727.923	-54.023	-0.214	-0.098
-726.908	-114.275	-0.171	0.033
-725.894	-65.062	-0.170	0.069
-724.879	800.000	0.079	-0.238
-723.864	-120.555	0.063	0.011
-722.850	-104.591	0.316	0.073
-721.835	72.064	0.043	0.045
-720.821	-113.185	-0.204	-0.041
-719.806	45.239	0.069	0.064
-718.791	-35.278	-0.284	0.156
-717.777	-32.633	0.255	-0.143
-716.762	20.317	-0.450	0.366
-715.748	471.354	0.106	-0.240
-714.733	-200.000	0.044	-0.220
-713.718	-113.857	-0.095	-0.019
-712.704	255.832	0.121	-0.208
-711.689	-200.000	-0.004	0.061
-710.675	495.321	0.016	-0.036
-709.660	-200.000	0.002	-0.176
-708.645	-53.881	-0.323	0.148
-707.631	-200.000	-0.007	0.148
-706.616	146.646	-0.139	0.189
-705.602	-34.731	0.279	0.154
-704.587	125.164	-0.100	-0.127
-703.572	-50.406	-0.186	0.089
-702.558	800.000	-0.067	0.195
-701.543	-119.164	-0.116	0.020
-700.529	165.807	0.096	-0.136
-699.514	-200.000	0.005	-0.205
-698.499	-200.000	0.084	-0.379
-697.485	-163.990	-0.200	0.009
-696.470	103.508	0.127	-0.151
-695.456	-14.904	0.113	0.073
-694.441	14.810	-0.125	-0.099
-693.426	-165.063	-0.136	0.006
-692.412	63.356	-0.218	0.220
-691.397	-42.586	-0.646	0.331
-690.383	217.227	-0.222	-0.357
-689.368	-65.353	-0.077	0.031
-688.354	-33.574	-0.264	-0.147
-687.339	-71.143	-0.307	-0.116
-686.324	-200.000	0.003	0.200
-685.310	37.770	0.050	-0.045
-684.295	-28.636	-0.088	0.051
-683.281	800.000	-0.144	-0.530
-682.266	174.363	-0.144	0.209
-681.251	52.437	0.176	0.169
-680.237	-200.000	0.030	-0.393
-679.222	-200.000	0.022	0.117
-678.208	800.000	0.069	-0.283
-677.193	296.300	-0.187	0.345
-676.178	800.000	-0.095	-0.289
-675.164	800.000	0.070	0.294
-674.149	800.000	0.022	-0.088
-673.135	18.928	0.242	-0.195
-672.120	-58.096	-0.297	0.130
-671.105	337.279	0.116	-0.227
-670.091	78.550	-0.110	-0.118
-669.076	141.562	0.091	-0.121
-668.062	-164.915	0.061	0.003
-667.047	460.287	0.160	-0.358
-666.032	15.177	-0.256	-0.202
-665.018	-200.000	-0.001	-0.111
-664.003	-185.378	0.025	-0.000
-662.989	284.446	0.049	0.088
-661.974	800.000	-0.038	0.129
-660.959	355.451	0.061	0.122
-659.945	-200.000	-0.092	0.409
-658.930	-130.933	-0.329	0.044
-657.916	-200.000	0.070	-0.471
-656.901	350.897	-0.051	-0.102
-655.886	-200.000	-0.011	0.106
-654.872	-118.050	-0.329	-0.059
-653.857	-75.976	-0.235	-0.083
-652.843	-43.282	-0.292	-0.148
-651.828	-131.669	0.125	-0.017
-650.814	-11.087	0.144	-0.095
-649.799	-90.458	-0.117	0.034
-648.784	35.618	-0.141	0.124
-647.770	-82.909	0.218	0.071
-646.755	-57.284	-0.198	-0.088
-645.741	-44.860	-0.442	-0.222
-644.726	-200.000	-0.016	-0.263
-643.711	-200.000	-0.016	-0.129
-642.697	-83.222	0.217	0.070
-641.682	-53.331	-0.200	0.092
-640.668	57.875	-0.130	-0.128
-639.653	-41.584	-0.149	-0.077
-638.638	-60.678	-0.134	0.057
-637.624	-94.194	-0.346	0.095
-636.609	156.708	-0.053	-0.074
-635.595	-12.495	0.213	-0.140
-634.580	-5.903	-0.184	0.127
-633.565	-200.000	-0.028	0.138
-632.551	800.000	-0.038	0.139
-631.536	-13.814	-0.313	-0.203
-630.522	23.701	-0.083	0.069
-629.507	-42.745	0.280	-0.143
-628.492	170.591	0.097	0.139
-627.478	800.000	-0.067	-0.212
-626.463	-121.949	-0.366	-0.060
-625.449	-200.000	0.012	0.216
-624.434	-94.906	-0.146	-0.040
-623.419	-200.000	0.007	-0.285
-622.405	-200.000	0.025	-0.164
-621.390	237.598	0.091	0.152
-620.376	18.080	-0.055	-0.044
-619.361	-20.080	-0.162	0.100
-618.346	-200.000	-0.012	-0.263
-617.332	77.795	-0.154	-0.165
-616.317	-69.649	-0.197	0.076
-615.303	156.086	0.207	-0.287
-614.288	-150.056	-0.240	0.019
-613.273	-28.693	-0.184	0.106
-612.259	182.543	0.121	-0.179
-611.244	-94.585	-0.348	0.095
-610.230	-200.000	-0.044	0.445
-609.215	3.945	-0.246	-0.181
-608.201	-138.400	-0.165	-0.018
-607.186	181.898	-0.133	0.197
-606.171	-135.208	-0.181	0.022
-605.157	-200.000	0.015	-0.189
-604.142	705.648	0.076	-0.202
-603.128	-64.337	-0.166	0.068
-602.113	-89.858	-0.148	-0.043
-601.098	108.930	0.230	-0.275
-600.084	174.002	-0.128	0.186
-599.069	-142.707	-0.370	0.036
-598.055	100.048	-0.173	-0.202
-597.040	800.000	0.046	0.141
-596.025	57.114	0.254	-0.249
-595.011	113.130	0.033	0.040
-593.996	287.109	0.144	0.261
-592.982	-87.163	-0.158	0.048
-591.967	91.028	0.064	-0.072
-590.952	-83.630	0.133	-0.043
-589.938	-94.113	-0.054	0.015
-588.923	-39.625	-0.152	0.080
-587.909	800.000	-0.133	-0.369
-586.894	3.745	-0.137	0.100
-585.879	-39.739	0.018	-0.009
-584.865	284.385	-0.093	0.167
-583.850	-162.437	-0.326	0.016
-582.836	-36.825	0.121	0.065
-581.821	158.536	-0.186	0.259
-580.806	-121.283	-0.182	0.030
-579.792	-200.000	0.040	0.189
-578.777	347.240	-0.030	0.059
-577.763	139.978	0.337	-0.445
-576.748	32.086	0.164	-0.141
-575.733	20.693	-0.272	0.220
-574.719	129.899	0.214	-0.275
-573.704	124.911	0.189	0.238
-572.690	524.144	-0.113	-0.267
-571.675	192.327	0.113	0.171
-570.661	-153.883	0.136	-0.009
-569.646	148.879	0.078	-0.106
-568.631	213.010	0.094	0.150
-567.617	-46.845	0.259	0.127
-566.602	405.218	0.047	-0.100
-565.588	356.067	-0.142	0.283
-564.573	334.712	0.173	0.337
-563.558	-200.000	0.027	-0.240
-562.544	-200.000	0.001	-0.158
-561.529	-12.130	-0.119	-0.078
-560.515	-154.128	0.075	0.005
-559.500	333.142	0.111	0.214
-558.485	-76.836	-0.337	-0.118
-557.471	-200.000	0.009	0.099
-556.456	32.164	0.105	0.090
-555.442	34.971	-0.228	0.200
-554.427	-63.230	0.304	0.126
-553.412	186.181	0.093	-0.139
-552.398	800.000	-0.023	0.093
-551.383	353.935	-0.062	-0.124
-550.369	49.936	0.147	0.139
-549.354	408.969	-0.178	-0.378
-548.339	-79.637	-0.146	-0.049
-547.325	-28.828	0.303	-0.174
-546.310	-155.711	-0.260	-0.017
-545.296	-200.000	-0.003	-0.021
-544.281	219.127	0.143	-0.230
-543.266	-137.453	0.212	0.024
-542.252	-123.130	0.314	-0.050
-541.237	82.674	0.058	-0.063
-540.223	109.906	0.086	-0.103
-539.208	-79.193	-0.160	-0.054
-538.193	-140.141	0.115	-0.012
-537.179	800.000	0.048	-0.167
-536.164	-30.423	0.429	0.244
-535.150	342.407	0.105	0.206
-534.135	-164.821	-0.219	0.010
-533.121	76.211	0.028	-0.029
-532.106	-200.000	-0.013	-0.105
-531.091	-73.567	-0.174	-0.064
-530.077	-200.000	-0.008	-0.089
-529.062	38.972	0.183	0.164
-528.048	-112.707	0.142	-0.028
-527.033	65.849	-0.206	0.209
-526.018	188.796	0.146	0.219
-525.004	-110.491	0.234	0.049
-523.989	800.000	0.076	-0.215
-522.975	-200.000	-0.070	-0.311
-521.960	252.143	-0.067	0.115
-520.945	-200.000	0.026	0.454
-519.931	-200.000	0.011	0.202
-518.916	-2.259	-0.099	-0.069
-517.902	-127.027	0.265	-0.039
-516.887	328.341	-0.066	-0.128
-515.872	73.620	0.202	0.212
-514.858	-180.146	0.146	-0.003
-513.843	305.159	0.094	-0.174
-512.829	-195.192	0.154	-0.001
-511.814	46.705	0.172	0.160
-510.799	-178.027	-0.230	-0.005
-509.785	54.766	0.180	0.174
-508.770	-200.000	-0.038	0.226
-507.756	800.000	0.047	-0.130
-506.741	-200.000	-0.009	-0.171
-505.726	-200.000	0.032	-0.149
-504.712	9.322	-0.192	-0.145
-503.697	-200.000	0.016	0.261
-502.683	-200.000	-0.040	0.530
-501.668	82.086	-0.058	-0.063
-500.653	-200.000	-0.019	-0.211
-499.639	-200.000	0.034	-0.223
-498.624	271.371	-0.109	-0.191
-497.610	428.137	-0.083	-0.178
-496.595	70.333	0.265	0.273
-495.581	-47.478	0.140	-0.068
-494.566	18.659	-0.222	-0.178
-493.551	-104.330	-0.291	-0.067
-492.537	121.295	0.154	0.192
-491.522	1.761	-0.134	-0.096
-490.508	41.351	0.180	-0.163
-489.493	113.399	0.100	-0.121
-488.478	-120.205	-0.127	0.022
-487.464	234.542	0.216	-0.356
-486.449	800.000	0.054	-0.163
-485.435	-80.366	0.266	0.089
-484.420	-200.000	0.023	-0.162
-483.405	-200.000	-0.019	-0.139
-482.391	-52.785	-0.099	0.046
-481.376	-44.203	-0.147	0.074
-480.362	327.393	-0.107	0.206
-479.347	-158.918	0.098	-0.006
-478.332	-200.000	-0.017	0.084
-477.318	-12.715	-0.065	-0.042
-476.303	188.363	0.092	-0.138
-475.289	331.887	0.077	0.149
-474.274	-101.661	-0.195	0.047
-473.259	-200.000	0.047	0.476
-472.245	800.000	0.048	0.186
-471.230	-200.000	0.084	0.409
-470.216	9.538	0.201	-0.152
-469.201	-200.000	-0.001	0.169
-468.186	51.669	0.161	-0.153
-467.172	67.014	-0.025	-0.025
-466.157	800.000	-0.157	-0.550
-465.143	-96.945	-0.138	0.036
-464.128	168.853	-0.036	0.051
-463.113	494.220	-0.047	-0.108
-462.099	108.194	0.189	-0.224
-461.084	228.797	0.101	0.165
-460.070	59.647	0.114	-0.112
-459.055	-63.677	-0.243	0.099
-458.040	-108.780	-0.246	-0.053
-457.026	-73.339	0.216	-0.079
-456.011	-124.777	0.038	0.006
-454.997	-41.114	0.211	-0.109
-453.982	800.000	-0.003	-0.013
-452.968	-0.728	-0.052	0.037
-451.953	-31.217	0.233	0.131
-450.938	169.990	0.144	0.206
-449.924	162.844	-0.145	-0.204
-448.909	637.448	-0.074	-0.187
-447.895	15.120	0.203	0.159
-446.880	111.535	-0.040	0.048
-445.865	800.000	-0.075	-0.314
-444.851	475.852	-0.128	-0.288
-443.836	-19.647	0.045	-0.028
-442.822	-58.978	0.154	0.066
-441.807	381.852	0.191	-0.390
-440.792	-32.210	0.174	0.097
-439.778	-2.298	-0.162	-0.113
-438.763	-98.834	-0.195	-0.049
-437.749	-27.293	0.251	0.146
-436.734	452.642	0.153	-0.338
-435.719	106.682	0.052	0.062
-434.705	800.000	0.077	0.236
-433.690	41.775	0.319	-0.288
-432.676	-31.593	-0.390	-0.219
-431.661	437.640	-0.119	0.258
-430.646	365.675	-0.185	0.372
-429.632	80.409	-0.085	0.091
-428.617	-119.319	0.116	0.020
-427.603	-200.000	0.021	0.163
-426.588	63.358	-0.113	0.112
-425.573	165.792	0.059	-0.083
-424.559	504.840	-0.070	-0.161
-423.544	-200.000	-0.035	-0.199
-422.530	544.370	0.058	0.138
-421.515	800.000	-0.022	-0.075
-420.500	339.776	0.093	-0.181
-419.486	-146.869	-0.335	-0.029
-418.471	-12.371	0.122	0.079
-417.457	-200.000	-0.074	0.409
-416.442	-200.000	-0.017	0.235
-415.428	-76.833	0.165	-0.058
-414.413	36.915	0.085	-0.075
-413.398	103.990	0.146	0.171
-412.384	-200.000	0.061	0.305
-411.369	-25.557	-0.214	0.126
-410.355	-128.202	-0.116	0.017
-409.340	-150.574	0.285	0.022
-408.325	171.883	-0.105	0.150
-407.311	172.127	0.100	0.143
-406.296	-136.548	-0.344	0.040
-405.282	-200.000	-0.026	-0.268
-404.267	-62.162	-0.403	0.167
-403.252	-13.204	-0.122	0.079
-402.238	-79.203	0.244	0.082
-401.223	-158.900	-0.183	-0.010
-400.209	-200.000	-0.044	0.326
-399.194	-200.000	-0.012	0.121
-398.179	-195.082	-0.321	0.002
-397.165	-14.166	0.199	-0.128
-396.150	25.213	-0.305	-0.252
-395.136	-99.620	0.429	0.107
-394.121	55.023	0.265	0.255
-393.106	-200.000	0.015	0.411
-392.092	246.900	-0.084	-0.141
-391.077	63.448	-0.133	-0.133
-390.063	-15.143	-0.303	-0.193
-389.048	-98.739	-0.153	0.039
-388.033	20.069	-0.226	0.181
-387.019	450.343	0.059	0.131
-386.004	-190.977	-0.180	-0.002
-384.990	-3.096	0.201	-0.140
-383.975	104.897	-0.176	-0.207
-382.960	-93.784	-0.323	-0.089
-381.946	-12.019	-0.062	-0.041
-380.931	-116.711	0.146	0.027
-379.917	-59.832	0.077	-0.033
-378.902	-44.581	0.532	-0.265
-377.888	333.554	0.082	0.158
-376.873	-6.535	-0.081	-0.055
-375.858	-87.712	0.202	-0.061
-374.844	65.557	0.029	0.029
-373.829	-40.958	-0.219	0.112
-372.815	80.778	-0.069	-0.074
-371.800	-200.000	-0.014	0.106
-370.785	-200.000	0.018	-0.105
-369.771	-200.000	0.004	0.053
-368.756	655.838	-0.037	-0.093
-367.742	412.843	0.160	0.339
-366.727	-200.000	-0.002	-0.068
-365.712	-200.000	-0.002	-0.049
-364.698	133.470	0.205	0.264
-363.683	-62.232	-0.092	-0.038
-362.669	-200.000	-0.041	-0.450
-361.654	159.934	0.183	0.253
-360.639	77.120	-0.076	0.080
-359.625	502.624	0.135	0.309
-358.610	800.000	-0.045	0.166
-357.596	-138.121	0.305	0.034
-356.581	392.957	0.063	0.130
-355.566	-200.000	0.028	-0.152
-354.552	800.000	-0.024	0.091
-353.537	-4.124	0.156	0.107
-352.523	-85.161	0.172	0.054
-351.508	-200.000	-0.026	-0.164
-350.493	-4.708	0.091	0.062
-349.479	-66.744	-0.177	0.070
-348.464	8.552	-0.217	-0.163
-347.450	110.279	0.043	0.051
-346.435	93.693	-0.273	0.307
-345.420	800.000	-0.080	-0.271
-344.406	800.000	0.125	-0.351
-343.391	395.750	-0.061	0.126
-342.377	84.055	-0.324	0.352
-341.362	-200.000	0.003	0.141
-340.348	-136.087	0.125	-0.015
-339.333	-19.035	0.231	0.142
-338.318	-200.000	0.011	0.261
-337.304	65.247	0.110	0.111
-336.289	167.475	-0.078	0.110
-335.275	-150.969	-0.226	0.017
-334.260	-200.000	0.028	0.413
-333.245	-143.035	-0.339	0.033
-332.231	-200.000	-0.034	-0.170
-331.216	-127.691	0.194	0.028
-330.202	129.756	0.222	0.282
-329.187	-165.581	-0.211	0.009
-328.172	-99.552	0.339	-0.085
-327.158	-63.367	-0.345	0.141
-326.143	800.000	0.040	-0.162
-325.129	400.864	0.109	-0.227
-324.114	-110.766	-0.102	0.021
-323.099	600.035	0.177	-0.435
-322.085	47.514	-0.017	-0.015
-321.070	-200.000	0.017	-0.115
-320.056	-17.761	0.152	0.095
-319.041	206.859	-0.144	0.222
-318.026	180.792	-0.037	0.054
-317.012	-10.780	0.174	0.114
-315.997	-179.855	-0.224	0.005
-314.983	444.427	-0.153	0.333
-313.968	800.000	-0.033	0.135
-312.953	-46.676	-0.394	0.191
-311.939	528.799	0.186	-0.435
-310.924	299.083	0.075	-0.137
-309.910	-145.420	-0.323	-0.029
-308.895	323.197	-0.104	-0.196
-307.880	23.170	-0.108	0.088
-306.866	-47.148	-0.132	0.064
-305.851	14.682	-0.185	-0.143
-304.837	199.933	0.138	0.210
-303.822	58.302	-0.148	-0.144
-302.807	39.133	0.218	-0.193
-301.793	-200.000	-0.055	0.256
-300.778	-200.000	-0.023	-0.331
-299.764	260.162	-0.180	-0.309
-298.749	-109.552	0.200	0.042
-297.735	-5.429	0.241	0.164
-296.720	-200.000	0.004	0.195
-295.705	-82.104	0.132	-0.043
-294.691	800.000	0.127	-0.434
-293.676	800.000	0.033	0.113
-292.662	800.000	-0.012	0.047
-291.647	137.494	0.097	-0.126
-290.632	-200.000	0.004	0.043
-289.618	668.934	0.104	0.267
-288.603	800.000	-0.056	0.212
-287.589	355.379	-0.114	0.224
-286.574	-66.504	0.190	0.075
-285.559	494.393	-0.132	0.300
-284.545	-200.000	-0.067	0.311
-283.530	45.531	0.037	-0.033
-282.516	-200.000	-0.032	-0.239
-281.501	108.600	-0.110	-0.131
-280.486	175.704	0.255	0.366
-279.472	-152.383	-0.212	0.015
-278.457	251.110	-0.081	-0.136
-277.443	94.464	0.334	-0.376
-276.428	-200.000	0.006	0.168
-275.413	-91.677	-0.163	0.046
-274.399	81.412	0.375	-0.401
-273.384	170.081	-0.149	0.211
-272.370	-45.979	0.146	0.071
-271.355	800.000	0.055	-0.217
-270.340	279.153	-0.188	0.331
-269.326	466.213	0.118	0.261
-268.311	-62.696	0.243	0.100
-267.297	105.436	0.173	0.202
-266.282	88.568	0.117	-0.129
-265.267	105.460	0.003	0.003
-264.253	-200.000	0.040	0.181
-263.238	54.345	0.123	0.118
-262.224	159.316	-0.193	0.266
-261.209	800.000	0.109	0.299
-260.195	-149.330	0.323	-0.025
-259.180	-35.888	0.016	0.008
-258.165	-68.819	0.492	-0.188
-257.151	-200.000	0.002	-0.010
-256.136	219.008	0.209	-0.331
-255.122	800.000	0.074	-0.213
-254.107	-86.067	0.411	-0.126
-253.092	-51.382	-0.167	-0.077
-252.078	111.316	0.187	-0.223
-251.063	-200.000	-0.004	0.109
-250.049	-61.539	0.381	-0.158
-249.034	-92.956	-0.241	0.067
-248.019	-56.789	-0.122	-0.053
-247.005	39.078	0.083	0.074
-245.990	-200.000	0.004	-0.156
-244.976	257.869	-0.189	-0.321
-243.961	-200.000	-0.032	0.230
-242.946	800.000	0.174	-0.528
-241.932	26.523	-0.232	-0.192
-240.917	-147.971	0.085	0.007
-239.903	439.311	0.114	0.245
-238.888	104.241	0.201	0.234
-237.873	676.889	-0.137	0.353
-236.859	-174.862	-0.143	-0.004
-235.844	-200.000	0.030	-0.248
-234.830	635.399	-0.073	0.184
-233.815	646.529	-0.139	-0.351
-232.800	584.744	-0.025	-0.061
-231.786	229.467	-0.062	0.100
-230.771	800.000	0.016	0.052
-229.757	51.804	-0.157	-0.147
-228.742	-181.545	-0.261	-0.005
-227.727	-200.000	0.013	-0.278
-226.713	-69.830	0.127	0.048
-225.698	-200.000	0.007	-0.196
-224.684	-200.000	0.020	0.351
-223.669	-38.478	0.049	-0.025
-222.655	-8.325	-0.136	0.090
-221.640	20.323	-0.095	0.076
-220.625	800.000	-0.071	0.200
-219.611	-200.000	0.026	0.267
-218.596	289.839	0.027	0.048
-217.582	113.272	0.114	0.137
-216.567	-200.000	-0.020	-0.095
-215.552	-18.347	-0.084	0.052
-214.538	-194.401	-0.040	0.000
-213.523	265.205	-0.153	0.264
-212.509	232.363	0.051	-0.083
-211.494	61.990	0.198	0.195
-210.479	61.308	0.124	-0.122
-209.465	-200.000	-0.085	-0.464
-208.450	-103.467	0.281	-0.065
-207.436	-134.897	-0.383	-0.046
-206.421	-200.000	-0.020	-0.315
-205.406	-65.551	0.258	0.102
-204.392	476.701	-0.110	-0.246
-203.377	704.128	0.076	0.197
-202.363	219.931	0.161	0.255
-201.348	-32.154	-0.215	-0.119
-200.333	9.394	-0.135	0.101
-199.319	-200.000	-0.246	0.001
-198.304	-200.000	0.015	0.161
-197.290	511.088	0.044	0.100
-196.275	-158.446	0.223	0.013
-195.260	-39.401	-0.219	0.113
-194.246	-200.000	0.023	-0.137
-193.231	749.589	0.065	0.174
-192.217	-69.990	0.221	-0.083
-191.202	262.923	0.146	-0.250
-190.187	230.703	-0.090	0.146
-189.173	-173.088	0.106	-0.003
-188.158	61.909	-0.157	0.155
-187.144	136.707	0.149	-0.192
-186.129	48.465	0.134	-0.124
-185.114	391.672	-0.091	-0.186
-184.100	72.868	0.130	-0.134
-183.085	189.992	0.264	-0.391
-182.071	-144.310	0.145	0.013
-181.056	-200.000	-0.014	0.104
-180.042	-18.805	0.257	-0.158
-179.027	-114.368	0.120	0.023
-178.012	587.095	-0.051	0.124
-176.998	-200.000	-0.011	-0.098
-175.983	-60.634	0.073	0.031
-174.969	-135.537	-0.270	-0.032
-173.954	-7.296	-0.120	-0.080
-172.939	-155.519	0.150	0.010
-171.925	367.484	0.050	0.099
-170.910	179.351	0.191	-0.277
-169.896	-27.915	0.146	-0.083
-168.881	-78.009	-0.217	-0.074
-167.866	75.492	-0.156	-0.162
-166.852	-200.000	-0.002	-0.125
-165.837	-166.018	-0.077	-0.003
-164.823	-40.766	-0.281	-0.144
-163.808	-101.409	-0.053	0.013
-162.793	-76.769	-0.063	0.022
-161.779	-69.928	-0.162	-0.061
-160.764	-26.676	-0.171	-0.098
-159.750	-15.928	0.171	-0.107
-158.735	541.364	0.126	-0.296
-157.720	-15.017	0.056	0.035
-156.706	66.031	-0.167	0.167
-155.691	-34.611	-0.098	-0.053
-154.677	-39.302	-0.326	-0.169
-153.662	-200.000	-0.016	0.260
-152.647	-54.945	0.255	0.113
-151.633	-26.772	0.195	-0.112
-150.618	268.317	-0.135	-0.233
-149.604	45.627	0.176	0.160
-148.589	-58.270	-0.085	-0.037
-147.574	21.315	0.180	0.144
-146.560	-3.493	0.089	0.061
-145.545	-69.812	-0.174	0.065
-144.531	-200.000	0.000	0.165
-143.516	-20.555	-0.185	0.112
-142.502	-85.022	0.083	0.026
-141.487	366.671	0.147	0.292
-140.472	-7.981	0.059	0.039
-139.458	368.615	-0.055	-0.109
-138.443	-3.032	-0.219	0.150
-137.429	158.424	-0.105	-0.144
-136.414	-200.000	0.025	-0.141
-135.399	-76.607	0.194	-0.067
-134.385	-200.000	-0.033	-0.161
-133.370	-200.000	-0.011	0.105
-132.356	-9.065	-0.242	-0.160
-131.341	71.467	0.124	-0.126
-130.326	-42.835	0.200	0.100
-129.312	800.000	-0.130	-0.384
-128.297	143.948	0.065	-0.085
-127.283	-47.592	0.120	-0.057
-126.268	193.828	0.051	0.077
-125.253	-99.758	-0.086	0.021
-124.239	-60.486	-0.113	-0.047
-123.224	-200.000	0.074	0.339
-122.210	123.180	0.082	0.101
-121.195	800.000	0.093	0.322
