DTS Sentinel unit serial number:	SN413079Multiplexer serial number:	ORYXHardware model number:	OX4-SRSoftware version number:	ORYX F/W v4.00 Oryx Data Collector v3.7.2.0data status	okinstallation	princeton_trtdifferential loss correction	single-endedforward channel	channel 3reverse channel	N/Adate	2019/09/14time	10:08:35forward acquisition time	60.00reverse acquisition time	0.00gamma	496.2192k internal	0.2311k external	0.2311temperature offset calibration	1.0050default loss term (dB/km)	0.3790temperature slope calibration	1.0000multiplexer offset coefficient	1.0000multiplexer slope coefficient	1.0000fibre end	0.00T internal ref (°C)	33.56T ext. ref 1 (°C)	4.05T ext. ref 2 (°C)	32.01length (m)	temperature (°C)	Stokes	anti-Stokes-747.200	800.000	0.075	-0.217
-746.185	-200.000	-0.097	0.525
-745.171	233.749	0.038	-0.064
-744.156	124.297	0.049	0.063
-743.142	-99.335	-0.527	-0.135
-742.127	177.321	0.122	0.180
-741.112	-69.197	-0.047	-0.018
-740.098	1.204	-0.256	0.186
-739.083	47.702	-0.183	-0.174
-738.069	-200.000	0.056	0.449
-737.054	-109.045	-0.184	-0.040
-736.039	523.339	-0.120	0.287
-735.025	72.825	0.130	0.138
-734.010	-147.840	-0.157	-0.013
-732.996	273.266	-0.122	0.220
-731.981	-8.043	0.095	-0.065
-730.966	-200.000	0.004	-0.147
-729.952	800.000	0.082	-0.282
-728.937	19.022	0.149	-0.122
-727.923	40.101	-0.082	0.075
-726.908	-121.367	0.409	0.069
-725.894	-131.985	-0.218	-0.029
-724.879	221.783	0.066	-0.107
-723.864	-86.174	-0.045	0.014
-722.850	193.940	-0.162	0.248
-721.835	112.887	0.282	0.346
-720.821	800.000	0.005	-0.018
-719.806	-124.337	-0.361	0.057
-718.791	33.314	-0.057	-0.050
-717.777	346.941	-0.057	0.113
-716.762	-200.000	-0.037	0.262
-715.748	-200.000	-0.006	0.189
-714.733	-9.119	0.105	0.071
-713.718	-27.348	-0.087	0.051
-712.704	-123.983	-0.263	0.042
-711.689	35.554	-0.155	0.138
-710.675	-200.000	-0.002	0.037
-709.660	800.000	0.066	-0.232
-708.645	-200.000	0.023	-0.118
-707.631	40.330	-0.206	-0.188
-706.616	413.450	0.199	0.430
-705.602	-200.000	0.010	-0.242
-704.587	-9.655	-0.252	0.170
-703.572	-92.883	0.141	0.040
-702.558	-200.000	0.046	-0.388
-701.543	176.187	-0.167	-0.246
-700.529	-110.424	-0.169	-0.036
-699.514	-200.000	0.012	0.358
-698.499	65.657	-0.200	-0.206
-697.485	-200.000	-0.039	-0.224
-696.470	85.527	-0.018	0.020
-695.456	-200.000	0.016	-0.106
-694.441	-70.077	-0.076	-0.029
-693.426	-200.000	-0.010	0.128
-692.412	-150.761	0.248	0.019
-691.397	129.966	0.060	-0.078
-690.383	-200.000	-0.028	0.138
-689.368	-106.510	-0.217	0.049
-688.354	-34.810	0.270	0.150
-687.339	-3.359	-0.297	-0.210
-686.324	-28.017	0.111	0.065
-685.310	71.561	0.253	-0.266
-684.295	-200.000	0.052	-0.238
-683.281	-89.710	0.064	0.019
-682.266	-121.117	-0.164	-0.028
-681.251	-109.501	-0.093	0.020
-680.237	-200.000	-0.055	-0.324
-679.222	-200.000	-0.030	0.205
-678.208	-50.446	-0.292	0.139
-677.193	134.808	-0.169	0.222
-676.178	-45.253	0.224	-0.113
-675.164	800.000	-0.195	0.638
-674.149	44.362	-0.063	0.059
-673.135	-200.000	-0.040	0.200
-672.120	226.035	0.054	-0.088
-671.105	800.000	0.047	-0.203
-670.091	-47.997	-0.309	0.151
-669.076	-26.368	-0.216	0.128
-668.062	-129.646	-0.318	-0.044
-667.047	-200.000	-0.030	-0.361
-666.032	210.983	-0.111	0.176
-665.018	311.137	-0.103	-0.195
-664.003	-32.677	-0.376	0.212
-662.989	-19.409	-0.125	0.078
-661.974	800.000	-0.017	-0.075
-660.959	-102.363	0.179	-0.043
-659.945	-11.694	0.164	0.109
-658.930	-11.386	-0.392	0.261
-657.916	-200.000	-0.004	0.084
-656.901	-33.351	0.159	-0.089
-655.886	107.277	0.213	0.256
-654.872	-171.304	-0.315	0.011
-653.857	6.193	-0.185	0.139
-652.843	-56.322	0.043	-0.019
-651.828	-63.864	0.109	0.045
-650.814	-57.930	-0.015	0.007
-649.799	-80.126	-0.103	-0.035
-648.784	-169.568	-0.221	-0.008
-647.770	800.000	-0.036	0.112
-646.755	-200.000	0.506	-0.000
-645.741	1.713	-0.027	0.020
-644.726	176.511	-0.121	-0.178
-643.711	-200.000	0.026	0.154
-642.697	505.737	-0.106	0.248
-641.682	101.797	-0.185	-0.218
-640.668	-56.965	0.184	-0.082
-639.653	-96.683	-0.209	-0.056
-638.638	-139.877	0.072	-0.008
-637.624	-97.826	-0.170	-0.045
-636.609	-200.000	0.003	-0.103
-635.595	-4.611	-0.179	0.125
-634.580	-182.356	-0.348	-0.007
-633.565	-110.347	-0.139	-0.029
-632.551	-7.122	0.092	0.063
-631.536	-51.562	-0.288	-0.136
-630.522	-87.956	-0.270	0.082
-629.507	454.113	0.089	0.199
-628.492	52.358	0.088	-0.085
-627.478	-133.855	-0.322	-0.040
-626.463	-47.723	-0.133	-0.065
-625.449	-148.821	0.333	0.027
-624.434	73.381	-0.333	-0.352
-623.419	-186.044	-0.325	0.005
-622.405	-98.212	-0.250	0.065
-621.390	113.930	0.143	-0.176
-620.376	800.000	-0.068	-0.294
-619.361	800.000	0.063	0.268
-618.346	-10.232	0.055	-0.037
-617.332	399.019	-0.136	0.288
-616.317	-75.796	0.461	-0.165
-615.303	-58.356	0.204	0.090
-614.288	-132.568	0.271	-0.035
-613.273	161.537	-0.107	-0.151
-612.259	-71.755	-0.279	0.105
-611.244	-181.571	-0.124	-0.002
-610.230	648.422	-0.048	-0.125
-609.215	-141.936	-0.051	0.005
-608.201	113.209	0.168	-0.206
-607.186	193.151	0.056	-0.085
-606.171	252.846	-0.069	0.118
-605.157	90.212	-0.070	-0.079
-604.142	30.011	0.230	-0.198
-603.128	-83.017	-0.275	-0.089
-602.113	-200.000	0.042	-0.201
-601.098	193.965	-0.036	-0.054
-600.084	-135.765	0.343	-0.041
-599.069	16.082	0.130	0.103
-598.055	-200.000	0.043	-0.330
-597.040	197.013	-0.147	-0.226
-596.025	800.000	0.064	0.201
-595.011	-93.046	0.147	0.041
-593.996	-45.762	-0.359	-0.179
-592.982	-172.964	0.439	-0.014
-591.967	-80.773	-0.281	-0.094
-590.952	-32.984	0.188	0.106
-589.938	-124.766	-0.361	-0.056
-588.923	124.600	-0.138	0.175
-587.909	277.096	-0.215	-0.385
-586.894	800.000	-0.067	-0.203
-585.879	9.624	-0.191	0.146
-584.865	553.091	0.092	-0.224
-583.850	-28.611	0.263	0.153
-582.836	-108.015	-0.166	0.036
-581.821	-200.000	0.003	-0.204
-580.806	-67.917	-0.153	0.060
-579.792	171.496	-0.258	-0.374
-578.777	466.067	0.054	-0.123
-577.763	50.644	-0.264	-0.252
-576.748	99.163	0.058	-0.068
-575.733	-46.849	0.231	0.114
-574.719	800.000	0.092	-0.328
-573.704	-47.579	-0.093	-0.046
-572.690	-146.886	0.090	-0.008
-571.675	107.312	-0.131	0.158
-570.661	800.000	-0.081	-0.340
-569.646	94.888	-0.277	0.318
-568.631	-35.352	-0.305	0.167
-567.617	-27.773	-0.151	-0.088
-566.602	-38.882	-0.143	-0.076
-565.588	73.123	0.225	-0.237
-564.573	782.718	-0.091	0.252
-563.558	-5.261	-0.155	-0.107
-562.544	-26.321	-0.269	0.159
-561.529	-200.000	0.016	-0.205
-560.515	368.691	0.134	0.273
-559.500	115.271	-0.059	0.073
-558.485	65.717	0.121	0.123
-557.471	99.295	-0.235	-0.274
-556.456	13.431	-0.205	-0.160
-555.442	800.000	-0.037	0.147
-554.427	15.574	0.067	0.053
-553.412	800.000	0.029	0.082
-552.398	-78.824	-0.139	-0.048
-551.383	-12.603	0.110	-0.072
-550.369	318.227	0.085	0.163
-549.354	-7.956	-0.196	-0.133
-548.339	-66.221	0.108	-0.043
-547.325	259.524	0.042	0.073
-546.310	1.218	-0.148	0.107
-545.296	706.464	-0.052	-0.137
-544.281	-183.493	0.549	0.010
-543.266	-200.000	0.040	0.350
-542.252	12.035	-0.220	0.170
-541.237	-125.901	0.141	0.021
-540.223	36.200	0.364	0.323
-539.208	-82.378	-0.104	0.034
-538.193	169.146	0.059	0.084
-537.179	-47.171	-0.406	0.199
-536.164	-9.700	0.245	0.164
-535.150	102.980	0.136	0.161
-534.135	185.794	-0.124	0.185
-533.121	800.000	0.075	-0.262
-532.106	317.067	0.109	-0.208
-531.091	3.780	0.210	-0.155
-530.077	-200.000	-0.029	-0.325
-529.062	-120.566	0.174	0.030
-528.048	-62.822	0.186	0.077
-527.033	-77.872	-0.259	-0.090
-526.018	-200.000	-0.028	0.350
-525.004	259.416	-0.140	-0.243
-523.989	-142.251	-0.175	-0.017
-522.975	800.000	-0.162	0.457
-521.960	271.055	-0.146	-0.259
-520.945	-16.496	-0.165	0.105
-519.931	-146.907	0.330	0.029
-518.916	141.013	0.121	0.161
-517.902	-200.000	-0.076	0.524
-516.887	-96.081	0.343	-0.092
-515.872	117.059	-0.261	0.323
-514.858	-93.910	-0.279	-0.077
-513.843	302.749	0.215	-0.400
-512.829	121.560	0.066	0.083
-511.814	-16.738	-0.147	0.094
-510.799	107.436	0.153	-0.183
-509.785	140.937	0.168	-0.223
-508.770	-8.732	0.099	-0.067
-507.756	334.149	-0.061	0.118
-506.741	-200.000	0.018	-0.165
-505.726	-93.040	0.160	0.045
-504.712	-200.000	-0.037	-0.357
-503.697	137.691	-0.045	0.060
-502.683	-71.241	0.062	0.023
-501.668	20.732	-0.166	0.135
-500.653	-44.142	0.152	-0.077
-499.639	-200.000	0.029	-0.256
-498.624	-103.845	-0.410	0.096
-497.610	356.704	0.034	0.067
-496.595	-200.000	-0.031	0.141
-495.581	-51.500	0.437	-0.205
-494.566	-115.669	-0.226	-0.043
-493.551	320.687	-0.171	0.327
-492.537	-200.000	0.012	0.090
-491.522	-200.000	-0.120	-0.562
-490.508	45.013	-0.208	-0.192
-489.493	-200.000	-0.012	-0.130
-488.478	-140.654	0.447	-0.047
-487.464	327.139	-0.166	-0.320
-486.449	90.086	-0.236	-0.265
-485.435	-186.180	0.096	-0.001
-484.420	3.164	-0.238	-0.174
-483.405	-133.373	0.193	-0.024
-482.391	-110.825	0.382	0.079
-481.376	8.128	0.206	0.155
-480.362	-1.854	-0.090	-0.064
-479.347	219.181	0.123	-0.198
-478.332	-7.769	-0.266	-0.180
-477.318	-200.000	-0.043	-0.267
-476.303	-200.000	-0.012	0.220
-475.289	115.870	0.059	-0.072
-474.274	-200.000	0.002	0.099
-473.259	665.273	-0.075	-0.194
-472.245	-136.887	-0.256	0.030
-471.230	77.124	0.159	-0.169
-470.216	-76.054	0.034	0.012
-469.201	27.479	-0.064	-0.054
-468.186	72.179	0.203	0.213
-467.172	-9.169	-0.080	-0.054
-466.157	-126.915	0.159	0.023
-465.143	-110.816	-0.247	0.051
-464.128	800.000	-0.042	-0.170
-463.113	800.000	0.079	-0.326
-462.099	625.866	-0.067	-0.169
-461.084	800.000	0.058	-0.182
-460.070	270.160	-0.154	0.272
-459.055	-48.485	0.028	-0.014
-458.040	-59.388	-0.144	0.062
-457.026	19.535	-0.147	0.119
-456.011	79.325	0.040	-0.043
-454.997	-69.771	0.292	-0.112
-453.982	253.679	-0.060	-0.102
-452.968	-200.000	-0.016	0.158
-451.953	162.687	0.165	0.233
-450.938	-101.468	-0.404	-0.099
-449.924	550.390	-0.104	0.249
-448.909	800.000	-0.066	-0.219
-447.895	232.118	-0.153	0.253
-446.880	-104.682	-0.170	0.039
-445.865	111.867	-0.157	-0.190
-444.851	15.051	0.231	-0.182
-443.836	800.000	-0.064	-0.197
-442.822	254.669	-0.025	-0.042
-441.807	36.088	0.274	-0.242
-440.792	104.261	-0.122	-0.144
-439.778	134.145	-0.199	0.259
-438.763	428.492	0.119	0.258
-437.749	105.801	0.193	0.229
-436.734	30.728	-0.162	-0.139
-435.719	-200.000	-0.056	0.293
-434.705	-158.697	-0.225	-0.013
-433.690	-200.000	-0.058	0.359
-432.676	780.361	0.039	0.107
-431.661	-103.230	-0.196	-0.046
-430.646	-200.000	0.063	-0.303
-429.632	-97.570	-0.301	0.078
-428.617	550.746	-0.143	-0.344
-427.603	800.000	0.087	-0.286
-426.588	84.841	-0.203	-0.223
-425.573	313.154	-0.091	-0.171
-424.559	800.000	-0.066	0.234
-423.544	-10.793	0.135	-0.089
-422.530	162.862	-0.079	0.111
-421.515	-67.693	-0.118	-0.046
-420.500	90.743	-0.100	-0.112
-419.486	73.297	-0.114	0.119
-418.471	-80.073	-0.260	-0.087
-417.457	-96.390	0.271	-0.072
-416.442	3.814	0.145	-0.106
-415.428	-55.711	0.454	0.204
-414.413	249.010	-0.099	0.168
-413.398	-200.000	0.006	-0.047
-412.384	34.588	-0.262	0.230
-411.369	41.420	0.242	0.219
-410.355	103.580	0.266	0.313
-409.340	37.583	-0.168	0.149
-408.325	24.558	0.243	0.201
-407.311	800.000	0.051	0.211
-406.296	-112.012	0.349	-0.070
-405.282	11.390	-0.146	0.112
-404.267	95.157	-0.130	-0.149
-403.252	-200.000	-0.043	-0.418
-402.238	26.681	0.285	0.239
-401.223	-200.000	0.019	-0.235
-400.209	101.130	-0.083	0.097
-399.194	800.000	0.052	-0.157
-398.179	178.138	0.060	0.087
-397.165	800.000	0.089	0.360
-396.150	676.784	0.075	-0.196
-395.136	-200.000	-0.040	0.370
-394.121	72.858	-0.090	-0.094
-393.106	125.689	-0.254	-0.321
-392.092	800.000	-0.032	-0.128
-391.077	8.334	-0.104	-0.078
-390.063	267.979	0.152	0.266
-389.048	-200.000	0.007	0.171
-388.033	-128.263	-0.204	-0.029
-387.019	25.376	0.326	-0.272
-386.004	-139.344	0.315	0.034
-384.990	-34.526	-0.237	0.130
-383.975	-54.078	-0.257	-0.117
-382.960	-200.000	0.030	0.199
-381.946	246.897	-0.148	-0.250
-380.931	448.810	0.021	-0.045
-379.917	286.000	-0.036	0.066
-378.902	-200.000	0.033	0.191
-377.888	800.000	0.069	0.236
-376.873	156.954	0.183	-0.253
-375.858	-54.069	0.062	0.028
-374.844	338.279	-0.067	-0.130
-373.829	-174.960	-0.241	0.007
-372.815	-110.769	-0.373	0.077
-371.800	-200.000	0.003	0.181
-370.785	-200.000	0.046	0.237
-369.771	-88.023	0.220	0.066
-368.756	-5.707	0.197	-0.135
-367.742	-64.098	-0.203	0.083
-366.727	-171.985	-0.525	-0.017
-365.712	-76.477	-0.081	0.029
-364.698	800.000	-0.061	-0.177
-363.683	-28.208	-0.340	0.196
-362.669	800.000	-0.043	-0.183
-361.654	-93.552	-0.215	-0.060
-360.639	72.872	-0.175	0.182
-359.625	-200.000	-0.017	0.168
-358.610	-50.521	0.186	0.088
-357.596	226.647	0.135	0.219
-356.581	328.672	-0.076	-0.146
-355.566	54.950	0.146	-0.141
-354.552	-200.000	0.030	0.171
-353.537	-139.162	0.391	-0.042
-352.523	603.944	0.144	-0.359
-351.508	27.273	0.164	-0.138
-350.493	-61.884	-0.049	-0.020
-349.479	121.972	0.179	0.224
-348.464	80.698	-0.096	0.104
-347.450	-85.242	-0.509	-0.159
-346.435	-137.878	0.378	-0.042
-345.420	42.222	0.142	-0.129
-344.406	-85.990	0.183	0.057
-343.391	58.118	0.091	0.089
-342.377	-56.323	-0.079	-0.035
-341.362	-89.344	-0.083	-0.024
-340.348	800.000	-0.048	0.137
-339.333	800.000	0.009	-0.031
-338.318	-29.547	-0.339	-0.194
-337.304	-117.163	-0.230	-0.042
-336.289	93.244	0.027	0.031
-335.275	-87.368	0.425	0.129
-334.260	-36.093	-0.044	0.024
-333.245	-115.113	0.248	-0.047
-332.231	400.670	0.078	0.164
-331.216	-57.524	-0.037	0.016
-330.202	458.140	0.086	0.190
-329.187	-200.000	0.041	-0.315
-328.172	359.891	-0.058	-0.116
-327.158	800.000	0.143	0.609
-326.143	-93.436	-0.201	0.056
-325.129	411.158	0.045	-0.094
-324.114	-109.771	0.507	0.106
-323.099	112.204	-0.172	-0.208
-322.085	800.000	-0.031	0.107
-321.070	-122.549	-0.094	-0.015
-320.056	-200.000	0.025	-0.158
-319.041	-76.659	-0.158	-0.055
-318.026	-73.415	0.154	0.056
-317.012	-200.000	0.003	0.139
-315.997	800.000	0.061	-0.187
-314.983	-45.756	-0.278	-0.137
-313.968	-85.982	0.198	0.061
-312.953	800.000	-0.070	-0.305
-311.939	-169.390	0.141	-0.005
-310.924	733.546	0.080	0.213
-309.910	-19.190	0.194	0.120
-308.895	113.549	0.123	0.149
-307.880	-39.216	-0.150	-0.079
-306.866	-94.201	0.281	0.077
-305.851	19.956	0.170	-0.137
-304.837	288.896	-0.110	-0.199
-303.822	-200.000	0.031	-0.161
-302.807	502.363	0.084	-0.194
-301.793	-138.868	0.026	-0.003
-300.778	-32.607	-0.255	0.142
-299.764	-200.000	-0.019	-0.152
-298.749	-200.000	0.014	-0.297
-297.735	118.286	-0.369	0.454
-296.720	356.528	0.026	0.051
-295.705	-92.396	0.222	0.062
-294.691	20.756	-0.120	-0.097
-293.676	-13.712	-0.230	-0.149
-292.662	64.385	-0.370	0.372
-291.647	800.000	0.149	0.423
-290.632	195.448	-0.095	0.144
-289.618	77.946	0.288	0.306
-288.603	172.614	0.169	0.243
-287.589	5.513	0.145	0.107
-286.574	800.000	0.059	-0.178
-285.559	-200.000	0.087	-0.573
-284.545	82.568	0.097	-0.105
-283.530	51.107	0.246	0.233
-282.516	800.000	0.021	0.071
-281.501	-93.387	-0.120	0.033
-280.486	-166.105	0.040	-0.002
-279.472	289.105	-0.109	0.197
-278.457	-57.291	0.216	0.095
-277.443	295.675	0.107	0.195
-276.428	-147.254	0.501	-0.042
-275.413	265.308	0.111	0.193
-274.399	280.218	-0.122	0.217
-273.384	11.968	0.207	0.159
-272.370	800.000	-0.074	0.294
-271.355	-127.583	-0.116	-0.017
-270.340	-103.066	-0.346	-0.082
-269.326	13.669	-0.119	-0.092
-268.311	-67.426	0.053	-0.021
-267.297	359.925	-0.058	0.116
-266.282	252.579	-0.063	-0.107
-265.267	-106.321	-0.316	-0.070
-264.253	-38.261	-0.195	-0.103
-263.238	-200.000	-0.022	-0.130
-262.224	-200.000	-0.006	-0.112
-261.209	-18.664	0.070	0.043
-260.195	208.177	-0.148	0.230
-259.180	-2.863	-0.190	0.132
-258.165	154.928	0.231	-0.316
-257.151	-184.940	0.142	0.002
-256.136	235.855	-0.216	0.355
-255.122	-200.000	0.013	0.161
-254.107	-159.729	0.636	-0.035
-253.092	-29.118	0.193	0.110
-252.078	-122.338	0.218	-0.035
-251.063	210.911	0.225	0.352
-250.049	-153.642	0.023	-0.002
-249.034	800.000	0.046	-0.187
-248.019	669.725	-0.022	-0.056
-247.005	48.102	0.057	-0.053
-245.990	-32.626	0.326	-0.181
-244.976	421.096	0.092	0.197
-243.961	-89.538	0.210	-0.061
-242.946	77.487	-0.380	0.403
-241.932	-86.642	-0.312	0.095
-240.917	-176.518	-0.144	-0.004
-239.903	-200.000	0.017	0.176
-238.888	-133.234	0.317	-0.040
-237.873	-45.899	0.266	-0.131
-236.859	155.730	0.093	0.128
-235.844	-15.198	-0.119	0.076
-234.830	-45.792	-0.112	0.055
-233.815	-74.728	0.517	0.185
-232.800	800.000	0.081	-0.225
-231.786	403.960	0.045	-0.094
-230.771	-97.612	-0.048	0.012
-229.757	120.965	0.030	-0.037
-228.742	-64.957	0.382	0.154
-227.727	800.000	0.052	0.165
-226.713	800.000	0.012	-0.045
-225.698	7.156	0.304	-0.225
-224.684	-200.000	0.002	-0.319
-223.669	278.802	0.216	0.383
-222.655	19.271	-0.054	-0.043
-221.640	800.000	-0.027	-0.096
-220.625	-13.872	-0.064	-0.041
-219.611	31.051	-0.133	0.114
-218.596	-95.476	-0.436	0.116
-217.582	199.867	0.149	-0.227
-216.567	92.713	0.247	0.277
-215.552	212.410	0.049	-0.077
-214.538	55.364	0.118	0.113
-213.523	66.239	0.124	-0.125
-212.509	112.146	0.031	0.037
-211.494	800.000	-0.121	0.397
-210.479	-29.673	-0.293	0.167
-209.465	250.213	0.097	-0.164
-208.450	-116.022	-0.320	-0.059
-207.436	-200.000	0.028	-0.290
-206.421	-60.785	-0.209	-0.088
-205.406	705.414	-0.016	0.041
-204.392	-200.000	-0.035	0.302
-203.377	75.338	-0.143	-0.150
-202.363	278.455	0.071	-0.126
-201.348	164.119	-0.105	0.147
-200.333	-56.148	-0.118	0.052
-199.319	-8.132	0.172	0.115
-198.304	14.699	-0.100	0.078
-197.290	193.245	0.202	0.303
-196.275	193.415	-0.021	0.032
-195.260	-11.561	0.166	-0.109
-194.246	800.000	0.072	0.257
-193.231	176.776	-0.163	0.235
-192.217	-200.000	0.024	0.191
-191.202	-164.911	0.208	-0.009
-190.187	-58.997	0.181	0.078
-189.173	-51.189	-0.343	-0.159
-188.158	364.040	0.236	-0.472
-187.144	182.923	-0.068	-0.100
-186.129	-60.549	0.539	-0.227
-185.114	678.571	-0.096	-0.248
-184.100	-10.293	0.260	-0.171
-183.085	-200.000	0.025	-0.422
-182.071	159.525	0.164	-0.226
-181.056	11.171	0.094	-0.072
-180.042	-148.352	-0.265	0.022
-179.027	11.722	-0.037	0.028
-178.012	-50.580	0.322	-0.151
-176.998	-51.728	-0.099	-0.046
-175.983	57.092	0.262	0.254
-174.969	800.000	-0.063	0.178
-173.954	8.445	0.179	0.134
-172.939	-137.582	0.095	0.011
-171.925	-67.149	-0.208	0.081
-170.910	307.732	0.069	-0.128
-169.896	267.120	0.162	-0.281
-168.881	-24.676	0.259	0.153
-167.866	-75.559	0.209	0.074
-166.852	626.292	-0.027	0.067
-165.837	-200.000	0.003	0.093
-164.823	44.250	-0.152	-0.138
-163.808	-113.440	-0.093	-0.018
-162.793	-152.774	-0.304	-0.021
-161.779	-169.480	0.282	-0.010
-160.764	-200.000	-0.027	0.222
-159.750	31.616	-0.102	0.087
-158.735	-180.382	-0.341	-0.007
-157.720	62.202	0.093	-0.092
-156.706	107.184	-0.212	0.250
-155.691	28.291	0.090	-0.075
-154.677	78.001	0.121	0.128
-153.662	-72.476	0.254	0.093
-152.647	316.308	0.131	0.245
-151.633	96.901	0.053	-0.060
-150.618	-74.400	-0.226	-0.081
-149.604	800.000	0.144	0.407
-148.589	-57.080	0.295	-0.129
-147.574	8.751	-0.082	-0.061
-146.560	-200.000	0.012	-0.161
-145.545	98.111	0.177	0.202
-144.531	-78.104	-0.197	-0.067
-143.516	156.917	0.194	-0.265
-142.502	779.890	0.013	-0.034
-141.487	-100.035	-0.166	0.041
-140.472	-94.906	-0.370	0.099
-139.458	-44.612	0.179	0.089
-138.443	-200.000	-0.048	0.387
-137.429	-58.061	-0.110	-0.047
-136.414	-200.000	-0.065	-0.289
-135.399	275.873	-0.098	-0.172
-134.385	46.536	0.107	-0.099
-133.370	-53.665	-0.150	0.068
-132.356	800.000	0.029	-0.124
-131.341	-106.753	0.249	0.055
-130.326	798.536	-0.140	0.382
-129.312	-200.000	0.006	-0.160
-128.297	117.950	-0.123	-0.151
-127.283	800.000	0.060	-0.180
-126.268	381.910	0.145	0.295
-125.253	-127.630	-0.236	0.034
-124.239	-200.000	0.016	0.154
-123.224	274.964	-0.192	0.337
-122.210	730.430	0.097	0.258
-121.195	800.000	0.036	-0.108
-120.180	71.225	-0.139	0.143
