DTS Sentinel unit serial number:	SN413079Multiplexer serial number:	ORYXHardware model number:	OX4-SRSoftware version number:	ORYX F/W v4.00 Oryx Data Collector v3.7.2.0data status	okinstallation	princeton_trtdifferential loss correction	single-endedforward channel	channel 3reverse channel	N/Adate	2019/09/17time	04:04:35forward acquisition time	60.00reverse acquisition time	0.00gamma	496.2192k internal	0.2323k external	0.2323temperature offset calibration	0.9940default loss term (dB/km)	0.3790temperature slope calibration	1.0000multiplexer offset coefficient	1.0000multiplexer slope coefficient	1.0000fibre end	0.00T internal ref (°C)	29.87T ext. ref 1 (°C)	0.12T ext. ref 2 (°C)	24.38length (m)	temperature (°C)	Stokes	anti-Stokes-747.200	465.790	-0.105	-0.237
-746.185	-10.711	0.093	0.062
-745.171	-47.803	-0.252	0.123
-744.156	6.345	0.210	-0.157
-743.142	12.080	0.289	-0.225
-742.127	-200.000	0.008	0.291
-741.112	124.094	-0.103	-0.130
-740.098	800.000	0.100	0.381
-739.083	-85.924	0.223	0.070
-738.069	800.000	0.088	0.248
-737.054	770.938	-0.021	-0.058
-736.039	800.000	-0.101	-0.347
-735.025	766.990	0.070	0.192
-734.010	213.383	0.314	0.501
-732.996	-50.185	0.107	0.051
-731.981	-141.515	0.288	0.029
-730.966	130.231	-0.230	-0.297
-729.952	-200.000	0.059	0.308
-728.937	72.977	-0.136	-0.143
-727.923	188.290	-0.122	-0.184
-726.908	318.093	0.116	-0.221
-725.894	-10.931	-0.188	-0.125
-724.879	-13.633	0.125	0.082
-723.864	32.236	-0.083	-0.072
-722.850	-50.938	-0.116	-0.055
-721.835	-73.202	0.179	-0.066
-720.821	-52.996	-0.205	0.095
-719.806	59.688	0.167	-0.166
-718.791	39.427	0.206	-0.186
-717.777	99.034	0.067	-0.078
-716.762	-200.000	0.014	-0.209
-715.748	-200.000	-0.043	-0.278
-714.733	121.165	0.056	-0.070
-713.718	-106.610	0.389	0.087
-712.704	-72.429	0.176	-0.066
-711.689	208.052	0.112	-0.176
-710.675	-114.869	0.287	0.055
-709.660	-200.000	0.012	0.217
-708.645	-18.613	0.266	-0.167
-707.631	180.419	0.044	-0.064
-706.616	-102.050	-0.106	-0.026
-705.602	54.888	0.196	-0.191
-704.587	-88.902	0.245	0.073
-703.572	79.595	-0.109	0.118
-702.558	582.437	0.071	-0.175
-701.543	22.689	-0.153	-0.126
-700.529	165.885	0.107	0.152
-699.514	-172.871	-0.136	0.004
-698.499	800.000	0.027	-0.102
-697.485	-48.222	0.255	0.124
-696.470	-110.918	0.152	0.032
-695.456	-200.000	-0.068	-0.321
-694.441	800.000	-0.031	0.095
-693.426	-156.020	0.346	0.022
-692.412	-96.425	0.171	-0.045
-691.397	800.000	0.124	-0.467
-690.383	30.038	-0.097	-0.084
-689.368	18.971	-0.083	-0.067
-688.354	93.754	0.163	-0.187
-687.339	72.714	0.065	-0.069
-686.324	116.597	0.043	-0.054
-685.310	-124.049	-0.026	0.004
-684.295	-113.294	-0.247	-0.049
-683.281	-121.309	-0.171	-0.029
-682.266	11.936	-0.111	-0.086
-681.251	-149.251	0.090	0.007
-680.237	155.704	0.318	-0.442
-679.222	-200.000	0.017	0.089
-678.208	-10.455	-0.063	-0.042
-677.193	-77.626	-0.036	-0.012
-676.178	-98.701	0.100	0.026
-675.164	84.670	0.068	-0.074
-674.149	112.643	0.059	0.072
-673.135	125.037	-0.089	-0.113
-672.120	154.213	-0.136	-0.188
-671.105	6.193	0.038	0.028
-670.091	11.819	0.030	-0.023
-669.076	-200.000	-0.002	0.184
-668.062	162.380	0.292	-0.412
-667.047	-80.635	-0.197	0.066
-666.032	12.065	-0.120	-0.093
-665.018	800.000	0.104	-0.346
-664.003	-65.042	-0.199	-0.081
-662.989	11.534	0.181	-0.140
-661.974	-40.959	-0.204	-0.106
-660.959	-6.117	0.142	0.098
-659.945	-37.541	-0.210	-0.113
-658.930	710.350	-0.096	-0.255
-657.916	800.000	-0.069	-0.193
-656.901	48.066	-0.058	-0.055
-655.886	390.292	-0.131	-0.274
-654.872	137.447	-0.097	0.127
-653.857	-87.439	-0.166	0.050
-652.843	-82.383	0.109	-0.036
-651.828	-68.997	-0.077	0.030
-650.814	112.898	-0.091	-0.110
-649.799	-96.524	0.189	0.050
-648.784	28.398	0.298	0.253
-647.770	-55.304	-0.161	-0.073
-646.755	33.978	-0.116	-0.102
-645.741	-200.000	-0.040	0.186
-644.726	800.000	-0.050	0.149
-643.711	-200.000	-0.011	0.252
-642.697	76.824	-0.126	0.134
-641.682	18.229	0.088	0.070
-640.668	-91.565	0.179	-0.051
-639.653	11.127	0.116	-0.089
-638.638	-200.000	0.060	-0.297
-637.624	-90.055	0.337	-0.099
-636.609	-200.000	0.049	-0.359
-635.595	800.000	-0.042	0.121
-634.580	-56.411	-0.251	0.112
-633.565	138.725	0.173	-0.228
-632.551	-122.345	0.279	0.046
-631.536	123.709	-0.177	-0.224
-630.522	-40.741	-0.271	-0.141
-629.507	800.000	-0.020	-0.075
-628.492	800.000	0.117	-0.349
-627.478	414.017	0.117	-0.250
-626.463	146.805	0.110	0.148
-625.449	96.183	-0.118	-0.136
-624.434	-59.409	-0.230	-0.100
-623.419	233.980	0.192	0.318
-622.405	800.000	0.009	0.037
-621.390	800.000	0.055	-0.169
-620.376	16.011	-0.129	-0.102
-619.361	690.338	0.034	-0.090
-618.346	5.907	0.200	-0.149
-617.332	-200.000	0.058	-0.425
-616.317	-21.685	0.206	-0.126
-615.303	159.405	-0.171	-0.238
-614.288	105.333	-0.137	-0.163
-613.273	356.692	0.063	-0.127
-612.259	-200.000	0.096	0.000
-611.244	-92.281	0.198	-0.056
-610.230	-70.291	-0.308	-0.118
-609.215	-200.000	0.005	0.204
-608.201	-163.606	-0.079	-0.004
-607.186	800.000	0.053	0.205
-606.171	-30.273	-0.095	0.054
-605.157	-200.000	-0.000	0.242
-604.142	35.078	-0.321	0.282
-603.128	-15.348	-0.218	-0.140
-602.113	-200.000	0.019	-0.123
-601.098	236.144	0.153	0.254
-600.084	-97.181	0.434	-0.114
-599.069	-200.000	0.020	0.171
-598.055	31.637	-0.127	-0.110
-597.040	276.631	0.161	-0.287
-596.025	-73.180	-0.356	-0.131
-595.011	5.271	0.094	-0.070
-593.996	-200.000	0.026	-0.479
-592.982	-112.866	-0.251	0.050
-591.967	111.124	-0.177	0.214
-590.952	110.609	0.113	-0.137
-589.938	800.000	0.020	-0.081
-588.923	-84.949	-0.287	-0.091
-587.909	173.854	-0.250	-0.363
-586.894	210.748	0.053	-0.084
-585.879	66.335	-0.067	-0.068
-584.865	315.085	-0.065	-0.124
-583.850	-200.000	-0.041	0.246
-582.836	-97.443	0.197	-0.052
-581.821	408.474	0.064	0.135
-580.806	-200.000	0.040	0.184
-579.792	34.944	-0.319	-0.280
-578.777	800.000	0.056	0.230
-577.763	140.196	0.170	0.225
-576.748	-200.000	-0.001	0.011
-575.733	-20.492	-0.292	-0.180
-574.719	-119.032	-0.423	-0.074
-573.704	-82.241	0.236	-0.077
-572.690	259.293	-0.063	-0.109
-571.675	-99.103	-0.223	0.057
-570.661	220.540	0.156	-0.251
-569.646	113.639	0.275	0.336
-568.631	-50.448	-0.447	0.211
-567.617	-112.866	-0.062	0.012
-566.602	-1.320	-0.086	-0.061
-565.588	132.989	0.056	0.072
-564.573	-61.898	0.173	-0.073
-563.558	12.010	0.130	-0.100
-562.544	453.665	-0.145	-0.322
-561.529	-52.183	-0.161	-0.075
-560.515	-200.000	-0.026	-0.156
-559.500	-68.576	-0.288	-0.112
-558.485	-153.350	-0.180	0.013
-557.471	-200.000	0.001	0.017
-556.456	-200.000	-0.005	-0.241
-555.442	30.943	0.148	0.127
-554.427	730.432	-0.202	0.540
-553.412	-80.118	0.191	0.064
-552.398	-200.000	-0.086	-0.388
-551.383	-9.555	0.166	-0.111
-550.369	602.513	0.152	-0.378
-549.354	156.827	0.011	0.015
-548.339	-200.000	0.037	-0.189
-547.325	-174.168	0.240	-0.007
-546.310	-137.662	-0.273	-0.031
-545.296	-134.330	0.121	-0.015
-544.281	-95.132	-0.200	0.054
-543.266	457.933	-0.228	0.507
-542.252	143.387	-0.145	0.193
-541.237	-83.950	0.210	0.067
-540.223	-200.000	0.006	-0.097
-539.208	-97.530	-0.282	-0.073
-538.193	-200.000	0.016	-0.111
-537.179	501.819	0.040	0.093
-536.164	-200.000	0.001	0.094
-535.150	34.101	0.052	0.045
-534.135	363.099	0.038	0.076
-533.121	101.939	-0.231	0.270
-532.106	-42.835	-0.122	0.062
-531.091	106.395	0.195	0.232
-530.077	-200.000	-0.052	0.260
-529.062	-43.192	-0.053	0.027
-528.048	-97.010	0.258	0.068
-527.033	131.022	-0.146	0.188
-526.018	92.560	-0.097	0.110
-525.004	541.104	-0.057	0.135
-523.989	800.000	0.060	0.209
-522.975	643.937	-0.067	-0.171
-521.960	-200.000	0.043	0.288
-520.945	-143.006	0.036	0.004
-519.931	-200.000	-0.005	0.105
-518.916	226.132	-0.107	0.174
-517.902	-200.000	-0.031	-0.178
-516.887	-67.284	-0.320	0.126
-515.872	166.523	-0.103	0.146
-514.858	31.798	-0.129	0.111
-513.843	-57.897	-0.119	0.052
-512.829	-95.806	0.133	-0.035
-511.814	800.000	0.065	-0.206
-510.799	-159.382	-0.145	0.008
-509.785	61.662	-0.189	-0.188
-508.770	-17.171	0.136	-0.086
-507.756	-52.811	-0.112	-0.052
-506.741	32.489	-0.165	-0.143
-505.726	-102.232	0.091	-0.022
-504.712	153.317	0.172	0.235
-503.697	363.074	-0.225	-0.452
-502.683	-64.992	-0.153	0.062
-501.668	-200.000	-0.011	0.175
-500.653	-26.539	-0.119	0.070
-499.639	-200.000	0.036	0.308
-498.624	-193.240	-0.501	0.004
-497.610	-74.508	-0.116	-0.042
-496.595	5.038	0.221	-0.163
-495.581	-81.113	-0.138	-0.046
-494.566	373.960	-0.132	-0.269
-493.551	800.000	-0.041	-0.155
-492.537	-150.645	0.366	-0.028
-491.522	-200.000	-0.033	-0.237
-490.508	324.821	0.098	0.187
-489.493	45.063	-0.040	0.037
-488.478	-51.642	-0.204	-0.095
-487.464	27.363	0.167	0.140
-486.449	228.655	-0.060	0.097
-485.435	-32.025	0.162	-0.091
-484.420	-46.819	-0.328	0.160
-483.405	-200.000	-0.038	-0.270
-482.391	598.686	0.077	-0.190
-481.376	-200.000	-0.045	0.339
-480.362	-200.000	0.000	0.193
-479.347	-200.000	0.032	-0.374
-478.332	719.360	-0.097	-0.257
-477.318	7.325	0.179	0.134
-476.303	-121.039	0.723	0.121
-475.289	76.874	0.208	0.221
-474.274	800.000	-0.028	0.077
-473.259	-11.856	0.082	0.054
-472.245	88.714	-0.073	0.081
-471.230	73.654	0.316	0.330
-470.216	-157.646	-0.238	0.014
-469.201	136.276	0.117	-0.153
-468.186	800.000	-0.090	-0.251
-467.172	12.990	0.351	0.271
-466.157	-78.102	0.398	0.137
-465.143	21.842	0.150	-0.122
-464.128	-200.000	0.008	0.181
-463.113	9.167	-0.106	0.080
-462.099	-33.125	-0.072	-0.040
-461.084	-136.160	-0.248	0.029
-460.070	-106.273	0.182	0.041
-459.055	439.431	-0.093	0.203
-458.040	-200.000	0.056	0.274
-457.026	-62.533	-0.205	-0.085
-456.011	-200.000	0.007	0.175
-454.997	-200.000	0.017	0.149
-453.982	-35.559	-0.326	-0.177
-452.968	400.110	-0.105	-0.220
-451.953	7.855	0.248	-0.186
-450.938	-55.741	-0.331	-0.148
-449.924	-184.414	0.348	-0.006
-448.909	337.167	-0.074	-0.143
-447.895	-6.751	0.208	-0.141
-446.880	-200.000	0.003	-0.246
-445.865	26.125	-0.107	-0.089
-444.851	-200.000	0.030	0.165
-443.836	180.020	-0.140	-0.204
-442.822	175.129	0.037	-0.053
-441.807	-74.173	-0.322	0.116
-440.792	-49.532	0.103	0.049
-439.778	24.526	0.126	0.104
-438.763	83.121	0.076	-0.083
-437.749	-200.000	-0.024	-0.256
-436.734	-74.072	-0.605	-0.219
-435.719	694.460	-0.123	0.322
-434.705	-200.000	-0.028	-0.290
-433.690	-10.125	0.354	-0.235
-432.676	-200.000	0.014	-0.079
-431.661	185.185	0.038	-0.056
-430.646	278.608	0.086	-0.152
-429.632	-200.000	-0.051	-0.485
-428.617	-200.000	-0.003	0.114
-427.603	800.000	-0.077	-0.327
-426.588	448.898	-0.167	-0.368
-425.573	800.000	0.060	0.260
-424.559	-200.000	0.032	-0.353
-423.544	78.052	0.282	-0.299
-422.530	-134.701	-0.400	-0.049
-421.515	-200.000	-0.028	-0.134
-420.500	537.613	0.012	0.029
-419.486	260.134	-0.097	0.167
-418.471	-200.000	0.012	0.133
-417.457	165.212	0.099	0.139
-416.442	-66.637	0.112	-0.044
-415.428	-28.176	-0.231	-0.133
-414.413	-138.272	-0.345	0.038
-413.398	-118.336	0.284	-0.050
-412.384	-200.000	0.039	0.231
-411.369	692.858	-0.080	0.210
-410.355	-200.000	0.004	0.170
-409.340	-180.323	-0.315	-0.007
-408.325	800.000	-0.089	0.253
-407.311	-96.150	0.154	0.041
-406.296	-21.903	-0.320	-0.194
-405.282	34.934	0.083	-0.072
-404.267	-115.105	0.116	-0.022
-403.252	351.744	0.060	-0.118
-402.238	59.026	-0.069	-0.068
-401.223	-200.000	-0.002	0.143
-400.209	-120.409	-0.130	0.022
-399.194	-57.987	0.167	-0.073
-398.179	-54.385	0.303	-0.137
-397.165	580.969	-0.042	0.102
-396.150	-189.305	0.272	0.003
-395.136	-200.000	-0.023	0.290
-394.121	161.987	0.067	-0.094
-393.106	737.824	-0.106	-0.282
-392.092	177.876	0.177	-0.257
-391.077	-32.730	0.396	-0.219
-390.063	126.705	-0.130	-0.164
-389.048	-4.925	-0.262	-0.180
-388.033	39.059	-0.170	0.152
-387.019	-101.642	0.150	-0.036
-386.004	149.088	0.094	-0.127
-384.990	-200.000	0.001	0.060
-383.975	-48.335	0.230	-0.110
-382.960	-200.000	0.012	-0.343
-381.946	-7.584	-0.159	0.107
-380.931	538.542	-0.046	0.108
-379.917	-52.835	0.301	0.138
-378.902	-96.860	-0.028	0.007
-377.888	-102.196	0.077	0.018
-376.873	-200.000	0.075	0.390
-375.858	-61.734	0.077	-0.032
-374.844	154.201	-0.119	0.162
-373.829	-115.825	0.357	-0.066
-372.815	-200.000	0.024	0.234
-371.800	-156.658	0.310	0.019
-370.785	119.710	0.251	-0.310
-369.771	205.243	0.187	0.289
-368.756	263.675	0.216	0.374
-367.742	77.614	-0.292	0.309
-366.727	-54.355	0.120	0.054
-365.712	-60.340	-0.352	-0.149
-364.698	-200.000	0.020	0.194
-363.683	179.533	0.086	0.126
-362.669	62.423	-0.221	0.219
-361.654	800.000	-0.051	0.176
-360.639	-200.000	-0.011	0.164
-359.625	3.704	-0.357	0.259
-358.610	111.629	0.289	0.347
-357.596	-1.371	-0.013	0.009
-356.581	-88.544	0.100	-0.030
-355.566	128.428	0.238	0.302
-354.552	330.682	-0.050	0.095
-353.537	-145.964	0.242	0.021
-352.523	800.000	0.040	0.164
-351.508	-21.911	-0.137	0.083
-350.493	-200.000	0.057	0.321
-349.479	-33.930	-0.188	-0.103
-348.464	-14.131	0.019	0.012
-347.450	225.142	0.105	0.169
-346.435	-0.261	-0.250	0.177
-345.420	-24.763	-0.181	-0.107
-344.406	800.000	-0.112	-0.391
-343.391	800.000	-0.013	0.050
-342.377	278.135	0.102	0.181
-341.362	-171.746	0.366	0.012
-340.348	671.841	-0.112	-0.289
-339.333	4.691	0.061	-0.045
-338.318	800.000	-0.069	-0.223
-337.304	800.000	0.058	-0.242
-336.289	-3.693	-0.063	0.044
-335.275	143.529	0.067	0.089
-334.260	306.447	-0.252	-0.466
-333.245	-100.858	-0.049	0.012
-332.231	-8.599	0.361	-0.241
-331.216	800.000	-0.013	-0.054
-330.202	-27.465	0.128	0.074
-329.187	-155.110	-0.134	0.009
-328.172	800.000	-0.042	-0.122
-327.158	54.442	0.244	0.233
-326.143	-200.000	-0.011	-0.166
-325.129	-27.416	0.389	-0.225
-324.114	164.181	0.122	0.171
-323.099	-70.208	-0.252	0.095
-322.085	-47.430	-0.157	-0.076
-321.070	447.400	-0.037	0.081
-320.056	-134.414	0.122	-0.015
-319.041	144.752	0.189	0.250
-318.026	111.372	0.041	-0.049
-317.012	-5.057	-0.048	0.033
-315.997	800.000	0.100	0.292
-314.983	-43.382	-0.211	0.106
-313.968	6.060	0.291	0.214
-312.953	25.923	0.166	0.137
-311.939	1.538	0.153	0.109
-310.924	40.715	0.042	0.038
-309.910	-200.000	-0.005	0.101
-308.895	112.359	-0.113	0.136
-307.880	-200.000	-0.007	0.048
-306.866	-200.000	0.025	0.181
-305.851	359.515	0.057	-0.114
-304.837	-200.000	0.046	0.218
-303.822	-104.962	-0.156	0.035
-302.807	23.924	0.237	-0.194
-301.793	-19.274	-0.209	0.129
-300.778	75.593	-0.064	0.068
-299.764	-200.000	-0.017	-0.114
-298.749	-134.080	0.267	-0.033
-297.735	-115.135	-0.076	-0.014
-296.720	-200.000	0.064	-0.286
-295.705	800.000	-0.052	-0.223
-294.691	40.889	-0.279	0.250
-293.676	344.208	-0.099	0.193
-292.662	-200.000	0.011	-0.264
-291.647	258.185	-0.096	-0.165
-290.632	-6.153	-0.320	-0.217
-289.618	-103.123	0.138	-0.032
-288.603	587.461	0.139	0.339
-287.589	-200.000	-0.002	-0.015
-286.574	-200.000	-0.023	0.415
-285.559	-107.124	0.177	0.039
-284.545	387.714	-0.108	0.222
-283.530	-200.000	0.029	0.289
-282.516	250.946	-0.222	-0.374
-281.501	85.568	0.070	0.076
-280.486	-147.943	0.215	0.018
-279.472	-64.840	-0.170	-0.068
-278.457	274.778	-0.124	0.218
-277.443	-7.717	-0.087	-0.058
-276.428	74.368	-0.071	0.073
-275.413	-200.000	-0.001	-0.244
-274.399	498.441	0.075	0.172
-273.384	-200.000	-0.053	-0.234
-272.370	495.813	-0.131	-0.299
-271.355	57.047	0.054	-0.052
-270.340	176.112	-0.255	0.366
-269.326	-97.951	-0.081	-0.021
-268.311	87.673	0.123	-0.135
-267.297	-104.087	0.202	0.047
-266.282	161.474	-0.135	0.187
-265.267	-98.293	-0.310	-0.079
-264.253	-60.857	0.220	0.092
-263.238	800.000	0.073	0.270
-262.224	183.337	-0.291	0.426
-261.209	-122.969	-0.138	-0.022
-260.195	-40.031	-0.100	0.052
-259.180	-129.217	0.292	-0.040
-258.165	-28.734	0.209	0.119
-257.151	62.203	-0.285	-0.282
-256.136	330.233	0.031	-0.058
-255.122	217.302	-0.179	0.282
-254.107	-39.842	0.213	0.110
-253.092	358.476	-0.111	0.220
-252.078	-50.040	0.292	-0.137
-251.063	276.321	0.068	-0.119
-250.049	-11.711	0.149	-0.097
-249.034	-52.397	0.397	0.182
-248.019	690.050	-0.084	-0.217
-247.005	179.302	0.176	-0.255
-245.990	800.000	0.038	-0.130
-244.976	312.964	0.143	0.266
-243.961	-22.929	0.146	0.087
-242.946	690.772	-0.082	-0.214
-241.932	800.000	0.029	-0.086
-240.917	347.116	-0.104	-0.203
-239.903	226.073	0.037	-0.060
-238.888	25.864	0.135	0.112
-237.873	-180.339	-0.155	0.003
-236.859	-100.657	0.269	-0.066
-235.844	800.000	0.062	-0.253
-234.830	678.853	0.025	-0.063
-233.815	144.963	-0.071	0.095
-232.800	800.000	0.029	-0.110
-231.786	-51.132	-0.253	-0.117
-230.771	800.000	0.048	-0.163
-229.757	-200.000	0.026	0.149
-228.742	-89.220	0.213	0.062
-227.727	-200.000	0.049	0.391
-226.713	-200.000	0.022	0.228
-225.698	-11.515	0.229	-0.149
-224.684	44.096	0.264	-0.240
-223.669	-200.000	0.008	0.058
-222.655	800.000	0.044	-0.152
-221.640	-200.000	-0.022	0.327
-220.625	800.000	-0.090	0.305
-219.611	-200.000	0.001	0.008
-218.596	74.217	-0.186	-0.194
-217.582	-171.746	-0.062	0.002
-216.567	10.757	0.182	-0.137
-215.552	426.255	0.164	0.350
-214.538	-47.040	0.112	-0.054
-213.523	46.095	-0.363	0.332
-212.509	366.086	0.090	-0.180
-211.494	31.899	0.177	0.151
-210.479	344.343	-0.036	-0.071
-209.465	800.000	0.030	-0.126
-208.450	-172.860	-0.276	-0.008
-207.436	24.038	-0.085	0.069
-206.421	-135.703	-0.426	0.050
-205.406	-119.534	-0.280	0.048
-204.392	154.460	0.022	-0.030
-203.377	741.616	-0.045	-0.119
-202.363	291.265	-0.117	0.210
-201.348	302.974	-0.104	-0.190
-200.333	800.000	-0.066	-0.191
-199.319	-86.895	0.473	-0.143
-198.304	800.000	-0.097	0.350
-197.290	545.238	-0.093	-0.220
-196.275	33.601	0.096	0.083
-195.260	-200.000	-0.040	-0.359
-194.246	-142.147	0.155	-0.015
-193.231	-170.370	-0.238	0.008
-192.217	-50.689	-0.265	0.123
-191.202	93.985	0.174	-0.194
-190.187	800.000	-0.047	0.178
-189.173	-200.000	-0.053	-0.300
-188.158	468.766	-0.081	-0.180
-187.144	53.516	0.073	-0.069
-186.129	-165.230	-0.186	0.008
-185.114	-200.000	0.018	0.096
-184.100	662.568	0.020	-0.052
-183.085	-145.216	0.186	-0.017
-182.071	0.363	0.125	-0.088
-181.056	-87.729	-0.086	0.026
-180.042	42.517	0.112	0.101
-179.027	282.922	-0.035	0.061
-178.012	-200.000	0.068	0.302
-176.998	800.000	0.083	0.256
-175.983	461.202	-0.088	0.194
-174.969	-16.135	0.337	-0.211
-173.954	-101.373	-0.059	-0.014
-172.939	-200.000	-0.005	-0.078
-171.925	325.726	-0.232	-0.439
-170.910	280.865	0.150	-0.265
-169.896	482.923	0.131	-0.293
-168.881	-200.000	-0.030	-0.152
-167.866	89.792	0.108	0.119
-166.852	24.400	0.141	0.115
-165.837	-35.934	-0.207	0.111
-164.823	-200.000	-0.023	0.123
-163.808	66.656	-0.083	0.083
-162.793	800.000	-0.046	0.136
-161.779	218.316	-0.127	-0.201
-160.764	-110.101	0.036	0.007
-159.750	105.127	-0.022	0.025
-158.735	27.161	-0.077	0.064
-157.720	800.000	0.069	0.298
-156.706	-200.000	-0.021	0.353
-155.691	-88.908	0.201	-0.059
-154.677	173.169	0.167	-0.237
-153.662	-52.242	0.158	0.072
-152.647	-200.000	-0.030	-0.162
-151.633	441.059	0.118	0.255
-150.618	-39.070	-0.373	-0.193
-149.604	209.914	0.183	0.283
-148.589	-109.429	-0.228	-0.048
-147.574	-51.618	-0.166	-0.076
-146.560	10.871	-0.198	0.149
-145.545	86.294	0.072	0.079
-144.531	-59.529	-0.100	0.042
-143.516	10.775	0.188	0.142
-142.502	-2.918	0.202	-0.139
-141.487	-200.000	0.006	0.324
-140.472	722.418	-0.067	0.177
-139.458	-27.020	-0.109	-0.063
-138.443	12.251	-0.123	0.094
-137.429	24.074	-0.093	0.076
-136.414	-123.797	-0.035	0.005
-135.399	-8.318	0.100	0.066
-134.385	14.680	-0.374	-0.288
-133.370	-12.856	0.239	-0.154
-132.356	-46.558	-0.420	0.203
-131.341	-129.048	0.205	-0.028
-130.326	156.213	0.178	0.242
-129.312	23.306	0.167	0.135
-128.297	-200.000	-0.010	-0.141
-127.283	91.379	0.053	0.059
-126.268	24.523	-0.195	0.159
-125.253	-200.000	-0.032	-0.160
-124.239	-100.535	-0.158	-0.039
-123.224	-56.515	0.271	-0.118
-122.210	435.996	0.141	0.303
-121.195	30.695	0.191	0.161
-120.180	31.957	0.205	0.174
