DTS Sentinel unit serial number:	SN413079Multiplexer serial number:	ORYXHardware model number:	OX4-SRSoftware version number:	ORYX F/W v4.00 Oryx Data Collector v3.7.2.0data status	okinstallation	princeton_trtdifferential loss correction	single-endedforward channel	channel 3reverse channel	N/Adate	2019/09/14time	23:12:35forward acquisition time	60.00reverse acquisition time	0.00gamma	496.2192k internal	0.2319k external	0.2319temperature offset calibration	0.9988default loss term (dB/km)	0.3790temperature slope calibration	1.0000multiplexer offset coefficient	1.0000multiplexer slope coefficient	1.0000fibre end	0.00T internal ref (°C)	32.44T ext. ref 1 (°C)	4.66T ext. ref 2 (°C)	27.37length (m)	temperature (°C)	Stokes	anti-Stokes-747.200	-61.950	-0.390	-0.165
-746.185	107.552	-0.047	-0.057
-745.171	11.594	-0.102	0.079
-744.156	800.000	-0.008	-0.034
-743.142	-131.103	0.113	0.015
-742.127	-21.497	-0.289	-0.178
-741.112	310.800	0.137	-0.259
-740.098	-200.000	0.004	0.099
-739.083	-200.000	-0.028	0.317
-738.069	-200.000	0.014	0.220
-737.054	-200.000	-0.020	0.172
-736.039	180.531	-0.220	-0.326
-735.025	-52.763	-0.158	-0.074
-734.010	-200.000	0.048	-0.228
-732.996	-16.187	-0.344	-0.221
-731.981	131.576	-0.133	0.173
-730.966	14.824	0.116	0.091
-729.952	97.409	-0.243	-0.282
-728.937	800.000	0.094	-0.308
-727.923	800.000	0.053	-0.232
-726.908	-32.800	0.127	0.071
-725.894	-115.896	-0.135	-0.026
-724.879	275.902	-0.105	-0.188
-723.864	-0.259	-0.018	0.013
-722.850	-22.879	-0.402	0.245
-721.835	800.000	0.004	0.013
-720.821	-31.419	-0.117	-0.066
-719.806	308.942	0.128	-0.242
-718.791	-200.000	0.015	-0.196
-717.777	101.285	0.130	0.152
-716.762	-170.443	-0.126	0.004
-715.748	-3.500	0.099	-0.070
-714.733	197.475	-0.336	0.518
-713.718	-38.745	-0.079	0.042
-712.704	52.898	0.167	0.162
-711.689	-36.946	0.160	-0.087
-710.675	130.534	-0.031	-0.040
-709.660	-200.000	-0.050	0.466
-708.645	26.723	-0.080	-0.068
-707.631	-200.000	-0.022	-0.108
-706.616	-127.652	-0.568	0.083
-705.602	63.325	0.393	-0.398
-704.587	-199.484	0.143	0.001
-703.572	220.190	-0.175	0.283
-702.558	1.902	0.218	-0.159
-701.543	7.692	-0.058	-0.044
-700.529	8.935	-0.208	-0.159
-699.514	111.057	0.213	-0.259
-698.499	-200.000	0.014	-0.284
-697.485	-200.000	0.001	-0.193
-696.470	6.983	-0.141	0.106
-695.456	-76.420	0.173	-0.061
-694.441	-133.977	0.363	-0.045
-693.426	50.362	-0.258	0.246
-692.412	800.000	-0.021	0.089
-691.397	241.642	-0.098	-0.165
-690.383	-200.000	0.002	-0.464
-689.368	-160.855	-0.108	0.006
-688.354	-200.000	0.024	-0.108
-687.339	-200.000	-0.012	-0.132
-686.324	-134.274	0.419	-0.052
-685.310	-83.045	0.335	-0.109
-684.295	-95.800	0.300	-0.081
-683.281	-112.691	-0.270	0.054
-682.266	-86.320	-0.413	0.128
-681.251	-72.161	-0.197	0.074
-680.237	-200.000	0.004	0.156
-679.222	159.300	0.072	0.101
-678.208	259.210	0.029	0.050
-677.193	-200.000	-0.022	-0.150
-676.178	-115.742	-0.133	-0.025
-675.164	-99.021	0.369	-0.095
-674.149	-100.113	0.205	-0.051
-673.135	15.744	-0.152	0.121
-672.120	726.023	0.036	-0.098
-671.105	-75.569	-0.164	0.059
-670.091	-200.000	-0.025	-0.406
-669.076	-73.679	-0.214	0.079
-668.062	-102.130	-0.063	-0.015
-667.047	-145.743	0.108	-0.010
-666.032	125.960	0.044	0.056
-665.018	-75.952	-0.363	-0.129
-664.003	-101.448	0.115	0.028
-662.989	-104.625	-0.236	0.055
-661.974	15.099	-0.130	0.103
-660.959	-200.000	0.038	-0.289
-659.945	-156.225	-0.224	-0.014
-658.930	-200.000	0.030	-0.293
-657.916	-108.759	0.118	0.026
-656.901	429.607	-0.141	-0.307
-655.886	-84.099	0.221	-0.071
-654.872	180.058	-0.157	-0.232
-653.857	330.235	-0.052	-0.101
-652.843	-142.716	-0.101	-0.010
-651.828	-127.307	0.184	-0.027
-650.814	-156.598	-0.296	0.019
-649.799	-200.000	0.057	0.324
-648.784	-67.973	-0.484	0.190
-647.770	67.853	-0.366	0.378
-646.755	800.000	0.044	0.149
-645.741	-83.946	-0.129	-0.041
-644.726	156.397	-0.081	-0.112
-643.711	-149.028	0.297	0.024
-642.697	-200.000	-0.018	-0.402
-641.682	-35.466	-0.234	0.128
-640.668	-117.646	0.135	0.024
-639.653	-57.362	0.127	-0.056
-638.638	-200.000	-0.049	-0.319
-637.624	-115.432	-0.208	-0.040
-636.609	-200.000	0.006	0.115
-635.595	6.042	-0.140	-0.104
-634.580	31.363	-0.194	-0.168
-633.565	800.000	-0.032	-0.135
-632.551	-185.902	0.270	-0.004
-631.536	-92.544	-0.243	-0.069
-630.522	23.604	-0.194	-0.161
-629.507	-200.000	0.002	-0.187
-628.492	-200.000	0.050	0.500
-627.478	800.000	0.049	0.141
-626.463	9.745	0.034	-0.026
-625.449	252.827	-0.050	-0.086
-624.434	86.823	0.162	-0.180
-623.419	102.074	-0.053	-0.063
-622.405	-200.000	0.011	-0.360
-621.390	-200.000	0.027	-0.271
-620.376	-64.332	0.049	-0.020
-619.361	-200.000	-0.021	0.496
-618.346	11.895	-0.244	0.189
-617.332	343.693	0.061	0.120
-616.317	-146.876	0.206	-0.018
-615.303	59.663	0.359	-0.356
-614.288	-200.000	-0.010	0.093
-613.273	442.867	0.121	-0.266
-612.259	259.668	0.096	-0.168
-611.244	-200.000	0.035	0.202
-610.230	-102.694	0.277	0.067
-609.215	-22.705	-0.381	0.232
-608.201	-132.083	-0.311	0.041
-607.186	-200.000	0.016	-0.161
-606.171	-162.361	-0.113	-0.006
-605.157	-200.000	-0.023	-0.312
-604.142	-200.000	0.006	-0.451
-603.128	-125.271	0.245	-0.038
-602.113	282.539	-0.157	-0.283
-601.098	-28.716	-0.220	0.128
-600.084	-101.858	-0.069	-0.017
-599.069	-32.226	-0.125	0.070
-598.055	-200.000	0.028	-0.131
-597.040	-200.000	-0.070	-0.493
-596.025	33.228	-0.211	-0.184
-595.011	-68.405	-0.280	-0.109
-593.996	-60.198	-0.053	-0.023
-592.982	-108.516	-0.354	0.077
-591.967	800.000	0.055	0.191
-590.952	-95.278	-0.157	0.042
-589.938	-153.376	0.262	0.018
-588.923	-140.267	-0.175	0.018
-587.909	-95.680	-0.168	0.045
-586.894	-200.000	0.030	-0.391
-585.879	-83.703	0.176	0.056
-584.865	-107.063	-0.241	0.053
-583.850	620.515	0.093	0.236
-582.836	-110.276	0.264	-0.055
-581.821	-167.943	0.063	0.002
-580.806	-134.215	-0.530	0.066
-579.792	-200.000	0.030	0.168
-578.777	-200.000	-0.039	0.175
-577.763	800.000	0.022	0.070
-576.748	-28.323	0.372	0.216
-575.733	34.310	-0.059	-0.052
-574.719	27.777	-0.181	-0.153
-573.704	77.971	0.237	0.254
-572.690	-200.000	0.018	-0.108
-571.675	-200.000	-0.080	0.473
-570.661	-130.454	-0.050	0.007
-569.646	-117.562	-0.257	0.047
-568.631	-19.534	0.340	0.211
-567.617	800.000	0.063	-0.272
-566.602	-98.191	0.048	-0.012
-565.588	-101.058	-0.388	-0.096
-564.573	259.798	0.129	0.223
-563.558	96.926	0.180	-0.207
-562.544	64.606	0.047	0.047
-561.529	396.020	-0.061	0.128
-560.515	21.462	-0.226	0.185
-559.500	-0.238	-0.056	0.040
-558.485	-151.616	-0.182	0.014
-557.471	-135.085	0.029	0.004
-556.456	59.192	-0.181	-0.179
-555.442	-122.205	0.295	0.048
-554.427	-54.418	0.324	0.147
-553.412	-200.000	-0.024	-0.430
-552.398	681.929	0.060	-0.157
-551.383	69.668	-0.205	-0.212
-550.369	34.013	0.099	0.087
-549.354	43.284	-0.129	-0.118
-548.339	668.979	0.103	0.268
-547.325	42.360	0.147	0.134
-546.310	-3.032	-0.117	0.082
-545.296	-39.028	-0.108	0.057
-544.281	400.758	-0.045	-0.095
-543.266	202.649	-0.127	0.196
-542.252	478.599	0.026	0.058
-541.237	-200.000	0.008	0.107
-540.223	-107.583	0.166	-0.036
-539.208	-36.843	0.260	0.140
-538.193	-80.594	-0.261	0.087
-537.179	-200.000	-0.028	0.480
-536.164	-24.760	-0.196	0.117
-535.150	800.000	0.092	0.344
-534.135	-200.000	0.059	0.409
-533.121	-200.000	-0.005	-0.138
-532.106	800.000	-0.029	0.084
-531.091	746.204	-0.096	0.259
-530.077	148.499	0.099	0.134
-529.062	-200.000	0.033	0.175
-528.048	142.413	0.045	-0.059
-527.033	-114.696	-0.285	0.055
-526.018	41.249	0.253	-0.229
-525.004	637.723	-0.070	-0.179
-523.989	-61.094	-0.089	0.038
-522.975	-14.246	-0.265	0.171
-521.960	360.266	0.096	-0.192
-520.945	604.810	-0.022	0.055
-519.931	307.155	0.143	0.267
-518.916	-118.852	-0.253	0.045
-517.902	-84.497	0.400	0.127
-516.887	-42.047	0.124	-0.064
-515.872	-200.000	0.014	0.079
-514.858	-37.231	0.041	-0.022
-513.843	800.000	0.106	-0.434
-512.829	98.587	0.191	-0.221
-511.814	-58.203	0.238	0.104
-510.799	34.262	0.112	-0.098
-509.785	82.744	0.198	-0.215
-508.770	-54.052	0.277	-0.126
-507.756	684.238	0.075	-0.196
-506.741	166.725	0.042	0.060
-505.726	-200.000	0.066	-0.372
-504.712	10.293	-0.129	0.098
-503.697	-9.785	0.325	-0.217
-502.683	-19.716	-0.386	0.239
-501.668	-200.000	-0.029	0.150
-500.653	223.176	-0.128	0.208
-499.639	-71.493	0.334	0.125
-498.624	-86.215	0.117	0.036
-497.610	-149.739	0.213	-0.017
-496.595	247.310	0.067	-0.114
-495.581	-193.995	-0.177	-0.001
-494.566	-119.891	0.278	0.048
-493.551	138.247	-0.150	0.198
-492.537	-15.499	0.145	-0.093
-491.522	-36.817	0.126	0.068
-490.508	-27.806	0.045	-0.026
-489.493	200.074	-0.211	0.324
-488.478	800.000	0.176	0.533
-487.464	41.312	-0.125	0.114
-486.449	-98.309	-0.209	0.054
-485.435	-180.497	-0.336	-0.007
-484.420	-200.000	-0.005	0.022
-483.405	-200.000	0.021	0.151
-482.391	-75.776	0.106	0.038
-481.376	12.777	-0.192	-0.149
-480.362	22.683	0.182	0.149
-479.347	-200.000	-0.018	0.405
-478.332	800.000	-0.115	-0.463
-477.318	800.000	0.051	0.152
-476.303	116.146	0.084	0.103
-475.289	800.000	0.061	0.198
-474.274	-200.000	0.020	0.333
-473.259	38.115	-0.307	0.274
-472.245	54.012	-0.066	0.063
-471.230	-158.004	-0.053	-0.003
-470.216	420.971	0.101	0.216
-469.201	170.805	-0.309	0.444
-468.186	514.257	0.075	-0.176
-467.172	-101.149	-0.038	-0.009
-466.157	-26.791	0.115	-0.067
-465.143	-1.104	-0.128	-0.091
-464.128	-145.094	-0.345	0.031
-463.113	-142.382	0.305	-0.030
-462.099	73.038	0.113	-0.118
-461.084	-200.000	0.014	0.295
-460.070	-39.356	0.182	-0.096
-459.055	-13.991	0.167	0.108
-458.040	84.450	-0.228	-0.249
-457.026	800.000	-0.021	-0.062
-456.011	800.000	-0.168	-0.553
-454.997	-4.687	-0.153	-0.106
-453.982	-51.202	0.332	-0.156
-452.968	331.246	-0.173	-0.333
-451.953	13.476	-0.170	0.132
-450.938	572.801	-0.063	-0.155
-449.924	34.404	-0.132	-0.115
-448.909	-200.000	0.011	0.112
-447.895	-200.000	0.006	0.247
-446.880	-135.787	0.204	-0.024
-445.865	-200.000	-0.024	-0.235
-444.851	345.951	-0.090	-0.176
-443.836	-34.309	-0.249	0.137
-442.822	-55.489	0.053	-0.024
-441.807	-200.000	-0.044	0.234
-440.792	130.981	-0.144	0.184
-439.778	-200.000	0.051	0.288
-438.763	-56.608	-0.055	-0.024
-437.749	96.659	-0.055	-0.063
-436.734	800.000	-0.082	0.312
-435.719	-200.000	-0.030	0.172
-434.705	131.099	0.100	0.128
-433.690	-78.294	-0.426	0.146
-432.676	-66.125	0.167	0.067
-431.661	55.358	0.130	-0.126
-430.646	-73.403	0.162	0.059
-429.632	-52.539	-0.103	-0.047
-428.617	216.073	0.147	-0.233
-427.603	-1.944	-0.125	-0.088
-426.588	-29.581	-0.065	0.037
-425.573	348.370	-0.167	-0.329
-424.559	-97.160	0.116	-0.030
-423.544	-65.900	0.037	-0.015
-422.530	-139.107	-0.284	-0.031
-421.515	800.000	-0.045	-0.141
-420.500	-38.708	-0.131	-0.069
-419.486	-60.178	0.346	0.147
-418.471	222.450	0.089	0.144
-417.457	-100.006	-0.188	0.047
-416.442	-44.048	0.168	-0.085
-415.428	-200.000	0.047	-0.332
-414.413	-89.972	-0.169	-0.049
-413.398	-12.678	0.278	0.181
-412.384	32.070	-0.127	0.109
-411.369	-200.000	0.036	-0.257
-410.355	83.545	-0.059	0.064
-409.340	250.192	0.105	0.177
-408.325	609.386	0.067	0.166
-407.311	800.000	0.051	-0.173
-406.296	618.538	-0.105	-0.262
-405.282	263.386	0.088	-0.153
-404.267	-28.942	-0.135	0.077
-403.252	-171.825	0.346	-0.011
-402.238	-200.000	-0.006	-0.359
-401.223	511.201	0.118	-0.274
-400.209	-11.325	-0.199	-0.130
-399.194	-200.000	0.052	-0.260
-398.179	583.559	0.109	0.267
-397.165	-51.316	0.146	0.068
-396.150	-130.815	-0.083	0.011
-395.136	83.618	0.101	-0.109
-394.121	-5.684	0.032	0.022
-393.106	299.005	0.176	-0.323
-392.092	-54.828	-0.220	-0.099
-391.077	447.838	-0.031	0.068
-390.063	-129.768	-0.237	0.032
-389.048	721.235	0.202	0.537
-388.033	655.018	-0.104	0.267
-387.019	-200.000	0.023	-0.108
-386.004	-69.325	0.169	-0.065
-384.990	-127.993	0.186	0.027
-383.975	120.793	0.023	0.028
-382.960	-63.898	0.246	0.100
-381.946	-168.021	0.312	0.012
-380.931	-6.702	-0.147	-0.100
-379.917	-92.597	-0.130	0.036
-378.902	-104.029	0.104	0.024
-377.888	-200.000	0.007	-0.268
-376.873	-200.000	-0.014	0.088
-375.858	184.971	0.222	0.329
-374.844	42.545	-0.177	0.161
-373.829	-200.000	0.054	0.324
-372.815	164.515	0.079	0.111
-371.800	800.000	-0.126	-0.376
-370.785	12.529	-0.050	0.038
-369.771	126.125	-0.010	0.012
-368.756	66.106	-0.035	-0.035
-367.742	182.677	0.217	-0.319
-366.727	54.662	0.135	-0.129
-365.712	408.037	0.170	-0.359
-364.698	-110.721	0.198	-0.041
-363.683	-94.718	-0.249	-0.067
-362.669	-200.000	-0.003	0.176
-361.654	40.580	0.222	0.199
-360.639	85.533	-0.217	0.237
-359.625	-181.148	-0.194	-0.004
-358.610	-200.000	0.034	0.180
-357.596	78.165	0.211	0.224
-356.581	96.989	-0.205	0.235
-355.566	-14.624	0.204	-0.130
-354.552	-200.000	0.009	-0.129
-353.537	-144.985	-0.015	0.001
-352.523	-159.745	0.233	-0.013
-351.508	42.063	0.141	0.127
-350.493	116.252	0.189	0.230
-349.479	-64.213	0.359	0.146
-348.464	-161.591	-0.419	-0.021
-347.450	-200.000	0.040	-0.204
-346.435	-116.252	-0.375	-0.069
-345.420	-99.797	-0.134	0.033
-344.406	800.000	-0.054	0.204
-343.391	-124.399	-0.075	0.012
-342.377	-41.574	-0.124	-0.064
-341.362	72.369	0.177	0.184
-340.348	64.731	-0.273	0.274
-339.333	-26.543	-0.240	0.140
-338.318	-8.474	0.107	0.071
-337.304	-149.034	0.204	0.016
-336.289	-40.805	-0.053	-0.027
-335.275	207.548	0.030	0.047
-334.260	231.383	0.120	-0.195
-333.245	549.239	-0.054	-0.129
-332.231	108.377	0.209	0.248
-331.216	365.926	0.136	-0.272
-330.202	-97.969	-0.113	-0.029
-329.187	-9.223	-0.244	0.162
-328.172	8.451	0.178	-0.133
-327.158	-106.671	-0.409	0.091
-326.143	-70.074	0.227	0.086
-325.129	-136.957	0.118	-0.013
-324.114	4.565	-0.016	-0.012
-323.099	-200.000	0.005	0.196
-322.085	-92.603	0.101	-0.028
-321.070	800.000	-0.013	0.038
-320.056	48.249	-0.123	-0.114
-319.041	-44.137	0.246	-0.123
-318.026	-200.000	-0.057	-0.327
-317.012	383.380	-0.057	-0.117
-315.997	466.404	-0.099	0.221
-314.983	-200.000	0.020	-0.148
-313.968	-200.000	0.007	-0.069
-312.953	-118.085	-0.312	0.055
-311.939	562.150	-0.029	0.070
-310.924	116.982	0.098	-0.120
-309.910	155.779	0.163	0.224
-308.895	67.850	-0.097	-0.099
-307.880	-172.004	-0.194	-0.006
-306.866	-105.045	0.110	-0.025
-305.851	-120.737	-0.398	-0.067
-304.837	800.000	0.036	0.157
-303.822	271.070	-0.206	0.360
-302.807	-85.649	0.035	-0.011
-301.793	800.000	-0.095	0.265
-300.778	115.949	0.181	0.221
-299.764	-66.317	-0.335	-0.132
-298.749	18.934	0.111	-0.088
-297.735	-31.190	-0.153	0.086
-296.720	-48.660	0.086	0.041
-295.705	192.752	0.242	0.363
-294.691	-43.499	-0.090	0.045
-293.676	-9.358	-0.405	0.269
-292.662	-56.253	-0.167	-0.074
-291.647	-103.923	0.211	-0.049
-290.632	-200.000	0.013	0.143
-289.618	-200.000	0.024	0.446
-288.603	242.403	-0.051	-0.084
-287.589	-110.970	-0.336	-0.069
-286.574	107.764	0.062	0.074
-285.559	800.000	-0.067	-0.204
-284.545	283.584	0.238	0.424
-283.530	6.028	0.105	-0.077
-282.516	-77.388	0.335	-0.116
-281.501	109.697	0.119	-0.142
-280.486	800.000	0.064	0.207
-279.472	-37.825	-0.217	-0.115
-278.457	-27.525	0.110	-0.064
-277.443	-128.270	-0.213	0.030
-276.428	135.761	-0.114	-0.148
-275.413	8.116	-0.136	0.102
-274.399	-24.504	-0.085	0.050
-273.384	-200.000	0.029	0.257
-272.370	-121.023	0.193	-0.032
-271.355	209.952	0.180	-0.280
-270.340	-200.000	0.041	-0.294
-269.326	44.416	0.200	0.182
-268.311	800.000	0.042	0.160
-267.297	-38.330	0.075	0.039
-266.282	-200.000	0.006	-0.103
-265.267	-123.957	-0.139	-0.022
-264.253	-150.650	-0.066	-0.005
-263.238	-72.498	0.246	-0.090
-262.224	-145.606	0.252	-0.022
-261.209	-87.859	-0.181	0.054
-260.195	531.900	0.036	0.084
-259.180	529.296	-0.106	-0.247
-258.165	-200.000	0.001	-0.101
-257.151	-145.827	0.279	-0.025
-256.136	-95.573	-0.393	-0.105
-255.122	-121.884	-0.189	0.031
-254.107	800.000	-0.032	0.122
-253.092	243.683	0.100	0.167
-252.078	451.385	-0.075	-0.164
-251.063	178.707	0.189	-0.274
-250.049	-157.372	-0.345	0.021
-249.034	48.510	0.050	0.046
-248.019	192.917	-0.043	0.065
-247.005	-64.822	0.274	-0.110
-245.990	-36.378	-0.164	0.088
-244.976	268.530	-0.106	0.184
-243.961	-200.000	-0.001	0.409
-242.946	-200.000	0.017	0.186
-241.932	-135.238	0.297	0.035
-240.917	60.156	0.174	0.171
-239.903	147.957	0.112	-0.149
-238.888	12.575	0.254	-0.194
-237.873	-199.732	-0.409	-0.002
-236.859	-0.961	-0.104	0.073
-235.844	-16.529	0.132	-0.083
-234.830	-98.145	-0.100	0.026
-233.815	256.314	-0.061	-0.103
-232.800	-38.552	0.340	0.178
-231.786	503.208	-0.037	0.084
-230.771	800.000	0.020	-0.087
-229.757	-9.920	0.202	-0.133
-228.742	14.225	-0.071	-0.055
-227.727	230.481	0.031	-0.051
-226.713	-200.000	-0.010	0.045
-225.698	105.572	0.065	-0.076
-224.684	265.993	-0.048	-0.082
-223.669	205.643	0.028	-0.044
-222.655	-10.075	0.099	-0.065
-221.640	-14.505	-0.227	0.145
-220.625	-108.375	0.416	-0.089
-219.611	-135.159	0.163	-0.019
-218.596	476.190	-0.084	0.188
-217.582	-144.345	0.019	0.002
-216.567	19.548	-0.159	-0.127
-215.552	262.489	0.134	0.230
-214.538	65.281	0.284	-0.285
-213.523	-108.292	-0.067	-0.014
-212.509	-26.598	-0.114	-0.066
-211.494	-126.873	-0.153	0.022
-210.479	274.082	0.162	-0.284
-209.465	-59.413	-0.096	-0.041
-208.450	-5.339	-0.090	0.062
-207.436	20.687	0.053	-0.042
-206.421	800.000	-0.119	-0.371
-205.406	-56.247	-0.153	0.067
-204.392	30.052	0.035	0.030
-203.377	800.000	0.041	0.172
-202.363	-147.576	-0.048	-0.004
-201.348	-163.336	0.282	0.013
-200.333	696.822	-0.036	-0.093
-199.319	-87.008	-0.124	-0.037
-198.304	308.575	0.134	-0.248
-197.290	-132.597	0.550	0.070
-196.275	37.525	0.165	-0.145
-195.260	-105.055	-0.067	0.015
-194.246	-200.000	0.008	-0.249
-193.231	-200.000	0.021	-0.165
-192.217	296.495	0.120	-0.218
-191.202	642.390	0.080	-0.202
-190.187	63.020	-0.256	-0.254
-189.173	97.784	-0.294	-0.335
-188.158	-200.000	0.057	0.361
-187.144	-74.949	0.279	-0.099
-186.129	-18.197	0.157	-0.097
-185.114	60.069	-0.081	-0.079
-184.100	42.512	0.053	0.048
-183.085	217.167	-0.204	-0.321
-182.071	288.308	0.075	-0.135
-181.056	-200.000	-0.055	-0.378
-180.042	-141.430	0.262	-0.026
-179.027	-126.976	0.135	0.020
-178.012	-67.954	-0.263	-0.102
-176.998	35.085	-0.215	-0.186
-175.983	-65.893	-0.067	0.027
-174.969	77.663	0.033	0.035
-173.954	-83.012	-0.232	0.074
-172.939	-195.670	0.333	0.002
-171.925	-61.389	-0.165	0.069
-170.910	-200.000	-0.022	-0.202
-169.896	65.186	-0.187	-0.187
-168.881	-200.000	-0.047	-0.284
-167.866	-5.665	0.100	-0.068
-166.852	421.926	0.052	-0.110
-165.837	-200.000	0.012	0.159
-164.823	142.471	-0.205	0.269
-163.808	203.179	0.052	0.079
-162.793	-52.584	-0.204	-0.093
-161.779	-165.060	-0.190	-0.008
-160.764	-94.972	-0.195	-0.052
-159.750	24.815	-0.282	-0.231
-158.735	-200.000	0.023	-0.284
-157.720	707.424	0.148	0.387
-156.706	-147.317	0.240	-0.020
-155.691	54.250	0.285	-0.271
-154.677	2.797	0.160	-0.115
-153.662	3.688	-0.072	0.052
-152.647	36.770	0.246	-0.215
-151.633	74.334	0.238	-0.248
-150.618	-200.000	0.010	-0.455
-149.604	800.000	-0.056	-0.199
-148.589	5.535	0.347	0.253
-147.574	213.753	-0.200	0.312
-146.560	-96.588	0.153	-0.040
-145.545	-15.966	0.119	-0.075
-144.531	78.007	0.132	-0.139
-143.516	70.787	-0.037	-0.038
-142.502	-162.497	-0.613	-0.030
-141.487	-200.000	0.070	-0.358
-140.472	625.723	-0.114	-0.285
-139.458	-200.000	-0.009	-0.314
-138.443	-200.000	-0.028	0.366
-137.429	-53.185	-0.301	0.137
-136.414	-60.802	0.153	0.064
-135.399	-11.903	0.173	-0.112
-134.385	-200.000	0.074	0.321
-133.370	78.954	-0.080	-0.084
-132.356	-35.266	-0.135	-0.072
-131.341	255.183	-0.034	-0.058
-130.326	-200.000	-0.036	0.328
-129.312	-200.000	-0.023	0.280
-128.297	316.755	-0.123	0.230
-127.283	-153.031	0.330	0.023
-126.268	-61.258	0.151	-0.063
-125.253	202.784	0.065	-0.099
-124.239	76.013	-0.194	0.203
-123.224	-190.695	-0.313	-0.003
-122.210	-115.905	0.167	-0.031
