DTS Sentinel unit serial number:	SN413079Multiplexer serial number:	ORYXHardware model number:	OX4-SRSoftware version number:	ORYX F/W v4.00 Oryx Data Collector v3.7.2.0data status	okinstallation	princeton_trtdifferential loss correction	single-endedforward channel	channel 3reverse channel	N/Adate	2019/09/13time	16:04:34forward acquisition time	60.00reverse acquisition time	0.00gamma	496.2192k internal	0.2305k external	0.2305temperature offset calibration	1.0141default loss term (dB/km)	0.3790temperature slope calibration	1.0000multiplexer offset coefficient	1.0000multiplexer slope coefficient	1.0000fibre end	0.00T internal ref (°C)	34.69T ext. ref 1 (°C)	4.84T ext. ref 2 (°C)	31.51length (m)	temperature (°C)	Stokes	anti-Stokes-747.200	18.284	0.238	0.194
-746.185	-91.655	0.244	0.071
-745.171	38.074	0.098	0.088
-744.156	33.890	-0.181	0.160
-743.142	800.000	0.022	-0.094
-742.127	-7.314	0.123	0.085
-741.112	-53.369	-0.505	-0.236
-740.098	-80.042	-0.142	-0.048
-739.083	84.955	-0.126	0.140
-738.069	-91.267	0.231	0.067
-737.054	35.648	-0.099	-0.089
-736.039	37.354	-0.254	-0.229
-735.025	40.580	-0.027	-0.024
-734.010	800.000	-0.052	-0.164
-732.996	576.177	-0.138	-0.344
-731.981	-200.000	-0.045	-0.222
-730.966	800.000	-0.046	-0.183
-729.952	800.000	0.048	-0.195
-728.937	-104.284	-0.134	0.032
-727.923	227.284	0.191	0.315
-726.908	-43.432	0.086	-0.044
-725.894	391.225	0.076	0.161
-724.879	800.000	0.058	0.200
-723.864	-164.726	-0.294	0.013
-722.850	25.499	-0.212	0.179
-721.835	53.125	0.092	-0.089
-720.821	-109.384	-0.154	-0.033
-719.806	800.000	0.072	0.238
-718.791	-200.000	-0.036	0.212
-717.777	54.240	0.057	0.056
-716.762	800.000	0.099	-0.279
-715.748	-19.475	0.308	-0.194
-714.733	257.630	0.068	-0.119
-713.718	159.155	-0.279	-0.395
-712.704	-109.115	0.136	-0.029
-711.689	-131.578	0.062	0.008
-710.675	622.203	0.082	0.211
-709.660	-8.853	0.133	0.090
-708.645	-51.845	-0.199	0.094
-707.631	75.253	-0.334	0.358
-706.616	-104.559	-0.166	-0.039
-705.602	72.621	-0.133	0.141
-704.587	-6.089	-0.107	-0.074
-703.572	-200.000	0.023	-0.119
-702.558	-111.415	-0.374	-0.077
-701.543	-105.100	-0.301	0.070
-700.529	-148.875	-0.150	0.012
-699.514	-6.437	0.155	-0.107
-698.499	-58.898	-0.109	0.048
-697.485	-138.408	-0.366	-0.041
-696.470	-199.951	-0.289	0.001
-695.456	-68.453	-0.127	0.050
-694.441	396.069	0.091	-0.193
-693.426	-14.285	-0.175	-0.114
-692.412	22.393	0.086	-0.072
-691.397	-73.514	0.258	-0.096
-690.383	-182.572	-0.127	0.002
-689.368	70.633	0.017	0.018
-688.354	-200.000	0.002	-0.167
-687.339	-200.000	0.058	0.270
-686.324	127.611	0.230	0.297
-685.310	94.262	-0.071	-0.082
-684.295	-82.906	0.352	-0.115
-683.281	-71.157	0.114	-0.043
-682.266	-200.000	-0.052	-0.355
-681.251	800.000	-0.058	-0.184
-680.237	48.765	0.159	-0.151
-679.222	-5.505	-0.142	-0.099
-678.208	-200.000	0.051	-0.334
-677.193	-200.000	-0.033	-0.160
-676.178	-46.330	0.091	0.045
-675.164	676.672	-0.080	0.212
-674.149	72.344	-0.105	-0.112
-673.135	169.261	-0.159	-0.230
-672.120	-119.809	0.400	-0.070
-671.105	291.980	0.122	-0.225
-670.091	800.000	-0.018	-0.065
-669.076	-200.000	0.020	0.134
-668.062	-37.291	-0.179	-0.097
-667.047	279.430	0.064	0.116
-666.032	800.000	0.062	-0.182
-665.018	-200.000	-0.005	-0.151
-664.003	128.279	0.167	-0.215
-662.989	430.046	0.171	0.376
-661.974	-41.596	0.264	0.138
-660.959	226.210	0.102	-0.168
-659.945	-200.000	0.020	-0.142
-658.930	90.267	0.021	0.023
-657.916	-93.354	-0.108	-0.030
-656.901	-6.830	0.295	-0.203
-655.886	314.054	-0.123	0.234
-654.872	-101.331	0.120	-0.030
-653.857	-72.172	0.326	-0.123
-652.843	-74.464	0.377	-0.138
-651.828	-60.340	-0.214	0.092
-650.814	-200.000	0.011	0.184
-649.799	363.373	0.145	-0.296
-648.784	-130.447	0.237	0.032
-647.770	650.479	-0.108	-0.281
-646.755	800.000	-0.059	-0.224
-645.741	-48.941	-0.395	0.192
-644.726	800.000	0.055	-0.162
-643.711	-200.000	-0.008	-0.475
-642.697	800.000	-0.048	-0.191
-641.682	-30.966	-0.119	0.068
-640.668	800.000	-0.098	-0.330
-639.653	214.654	-0.079	-0.127
-638.638	447.589	-0.089	-0.199
-637.624	-65.888	0.244	-0.099
-636.609	-155.115	0.203	-0.013
-635.595	167.483	0.031	0.045
-634.580	-200.000	0.038	0.323
-633.565	-200.000	0.011	-0.375
-632.551	-200.000	-0.010	-0.164
-631.536	-140.034	0.274	-0.029
-630.522	-200.000	-0.030	0.292
-629.507	-200.000	0.102	0.518
-628.492	-38.693	-0.132	0.071
-627.478	233.136	-0.145	0.241
-626.463	-93.309	-0.197	0.055
-625.449	56.893	-0.079	-0.078
-624.434	-186.946	0.295	0.004
-623.419	-200.000	-0.015	0.294
-622.405	-200.000	0.009	-0.455
-621.390	107.287	-0.175	-0.211
-620.376	-81.862	0.096	0.032
-619.361	-69.439	0.338	-0.131
-618.346	133.624	0.151	0.198
-617.332	-200.000	-0.033	0.301
-616.317	-106.773	-0.261	-0.059
-615.303	30.140	0.256	0.221
-614.288	-116.424	0.123	0.023
-613.273	322.464	0.119	-0.229
-612.259	-133.581	0.146	-0.019
-611.244	139.247	0.063	-0.084
-610.230	-200.000	0.007	-0.181
-609.215	-200.000	0.004	0.159
-608.201	-200.000	-0.019	-0.180
-607.186	25.541	-0.058	0.048
-606.171	-200.000	0.035	-0.538
-605.157	800.000	0.024	-0.069
-604.142	-49.616	0.271	0.130
-603.128	305.227	0.145	-0.274
-602.113	-24.511	-0.414	-0.250
-601.098	-200.000	-0.023	-0.175
-600.084	210.437	-0.040	-0.064
-599.069	-7.176	-0.198	-0.136
-598.055	-45.605	-0.168	0.084
-597.040	30.089	-0.174	-0.150
-596.025	-146.521	0.084	0.007
-595.011	-49.058	-0.297	-0.144
-593.996	41.795	0.286	0.262
-592.982	-200.000	0.007	-0.270
-591.967	-91.022	-0.102	0.030
-590.952	800.000	0.047	-0.186
-589.938	800.000	0.049	-0.156
-588.923	-142.525	-0.163	-0.016
-587.909	-200.000	-0.005	-0.136
-586.894	3.969	-0.170	-0.126
-585.879	44.966	0.128	-0.120
-584.865	-87.020	0.256	0.079
-583.850	-102.782	0.061	-0.015
-582.836	800.000	0.081	0.232
-581.821	-129.195	0.200	0.028
-580.806	6.721	-0.219	0.165
-579.792	-167.451	0.062	-0.003
-578.777	44.834	0.087	-0.081
-577.763	800.000	-0.080	0.244
-576.748	162.321	-0.248	0.351
-575.733	800.000	-0.102	-0.383
-574.719	-87.178	0.085	-0.026
-573.704	116.155	-0.197	0.244
-572.690	36.216	0.169	0.150
-571.675	-67.179	-0.092	-0.036
-570.661	-37.220	0.019	-0.010
-569.646	-65.104	-0.228	-0.093
-568.631	-45.208	-0.106	-0.053
-567.617	-25.371	0.319	0.191
-566.602	-200.000	-0.008	-0.200
-565.588	121.848	0.257	0.324
-564.573	-200.000	0.023	-0.115
-563.558	800.000	0.101	-0.315
-562.544	15.682	-0.103	0.082
-561.529	3.001	0.280	-0.205
-560.515	-2.030	0.181	-0.129
-559.500	-200.000	0.053	-0.317
-558.485	-82.073	-0.453	-0.150
-557.471	-44.222	-0.013	0.006
-556.456	-73.062	-0.194	0.072
-555.442	-200.000	-0.006	-0.069
-554.427	133.432	0.041	0.054
-553.412	8.763	-0.131	-0.100
-552.398	26.428	-0.112	-0.094
-551.383	55.975	0.173	-0.170
-550.369	-97.038	-0.311	0.082
-549.354	380.038	0.085	-0.176
-548.339	-109.249	0.206	-0.044
-547.325	-70.232	0.141	0.054
-546.310	184.893	0.211	-0.315
-545.296	-3.403	0.148	-0.104
-544.281	49.594	-0.273	-0.259
-543.266	28.868	0.082	-0.071
-542.252	130.917	0.149	-0.193
-541.237	-200.000	-0.015	0.083
-540.223	-97.183	-0.020	0.005
-539.208	-37.192	0.014	0.008
-538.193	-200.000	0.053	0.234
-537.179	187.646	-0.203	-0.306
-536.164	754.026	0.036	0.099
-535.150	223.222	-0.174	-0.283
-534.135	63.580	-0.233	-0.236
-533.121	800.000	0.053	-0.156
-532.106	800.000	0.074	0.223
-531.091	-59.613	-0.135	0.058
-530.077	-84.690	-0.107	-0.034
-529.062	-146.248	-0.226	-0.020
-528.048	-35.244	0.380	0.209
-527.033	-166.703	0.291	0.012
-526.018	-93.586	0.060	-0.017
-525.004	-7.363	0.136	-0.093
-523.989	184.546	0.150	0.225
-522.975	-139.492	-0.081	-0.009
-521.960	60.691	-0.138	-0.138
-520.945	117.031	0.152	-0.188
-519.931	-124.921	-0.316	0.049
-518.916	-200.000	0.024	0.125
-517.902	93.970	-0.107	-0.123
-516.887	-43.078	-0.117	0.060
-515.872	-200.000	-0.025	-0.472
-514.858	800.000	0.037	0.117
-513.843	253.653	-0.081	-0.140
-512.829	698.626	-0.180	0.478
-511.814	-153.856	-0.038	0.003
-510.799	230.000	-0.155	0.256
-509.785	80.678	0.162	-0.176
-508.770	283.280	0.066	0.120
-507.756	253.336	0.039	-0.067
-506.741	-200.000	-0.054	0.407
-505.726	-113.919	0.453	0.089
-504.712	-87.263	-0.365	-0.112
-503.697	10.571	0.121	0.093
-502.683	-162.265	0.424	-0.021
-501.668	-64.461	-0.138	-0.057
-500.653	538.119	0.029	-0.069
-499.639	674.491	0.103	-0.269
-498.624	318.254	-0.089	0.170
-497.610	299.716	0.108	-0.201
-496.595	-6.702	0.384	0.264
-495.581	-157.197	0.294	-0.018
-494.566	-109.986	0.198	0.042
-493.551	-185.723	0.324	-0.005
-492.537	343.140	0.071	-0.141
-491.522	-26.469	0.393	0.232
-490.508	-83.983	0.181	-0.058
-489.493	29.834	0.167	-0.143
-488.478	-150.007	-0.578	0.045
-487.464	-136.019	0.124	-0.015
-486.449	-200.000	-0.027	-0.365
-485.435	366.552	-0.290	-0.590
-484.420	-200.000	-0.056	-0.254
-483.405	165.248	-0.113	0.160
-482.391	-83.174	0.196	-0.064
-481.376	336.299	-0.047	0.093
-480.362	44.334	0.253	0.234
-479.347	-200.000	-0.001	-0.315
-478.332	23.556	0.024	0.020
-477.318	42.782	-0.076	0.070
-476.303	-59.630	0.191	0.083
-475.289	-155.575	-0.103	0.007
-474.274	235.372	-0.046	0.076
-473.259	-10.061	-0.086	0.058
-472.245	800.000	-0.048	-0.175
-471.230	292.974	-0.058	0.107
-470.216	-172.316	0.226	0.007
-469.201	85.952	0.188	-0.209
-468.186	-2.400	0.305	0.215
-467.172	-57.996	0.364	-0.160
-466.157	-200.000	0.031	0.232
-465.143	-49.074	-0.197	0.095
-464.128	6.499	-0.188	0.140
-463.113	23.591	-0.166	0.138
-462.099	-79.342	-0.027	0.009
-461.084	-110.461	0.226	-0.047
-460.070	-200.000	0.018	0.132
-459.055	173.572	-0.145	0.211
-458.040	629.567	-0.060	-0.154
-457.026	-200.000	0.031	-0.167
-456.011	4.707	-0.057	-0.042
-454.997	-64.265	0.209	0.086
-453.982	-57.606	0.086	0.038
-452.968	800.000	0.076	0.223
-451.953	-138.831	0.173	0.019
-450.938	475.121	-0.055	0.125
-449.924	388.747	0.079	0.165
-448.909	160.981	-0.190	-0.268
-447.895	800.000	0.100	0.302
-446.880	-66.427	0.184	-0.074
-445.865	130.317	-0.181	0.233
-444.851	79.669	0.235	0.254
-443.836	-171.964	-0.190	0.006
-442.822	-101.127	-0.206	0.051
-441.807	-104.287	0.186	0.043
-440.792	120.958	-0.093	0.116
-439.778	186.203	-0.029	0.044
-438.763	-40.889	0.159	0.083
-437.749	-45.473	-0.321	-0.160
-436.734	-17.690	-0.022	0.014
-435.719	332.909	-0.051	0.100
-434.705	85.474	-0.363	-0.401
-433.690	108.558	0.287	0.345
-432.676	-43.531	0.071	-0.036
-431.661	-196.932	0.159	-0.001
-430.646	-200.000	0.035	-0.225
-429.632	95.804	0.069	-0.079
-428.617	11.558	-0.142	0.109
-427.603	-64.973	-0.092	0.037
-426.588	-75.383	0.034	-0.012
-425.573	-200.000	-0.078	-0.446
-424.559	-103.016	0.352	-0.084
-423.544	-171.763	-0.355	-0.012
-422.530	800.000	-0.029	-0.115
-421.515	476.525	0.113	-0.257
-420.500	-200.000	-0.004	0.039
-419.486	-200.000	0.008	-0.041
-418.471	-113.370	0.126	0.025
-417.457	388.822	0.082	-0.170
-416.442	-94.668	-0.054	0.015
-415.428	800.000	-0.106	0.330
-414.413	-89.189	0.222	-0.066
-413.398	138.222	-0.205	0.271
-412.384	-200.000	-0.031	0.268
-411.369	-143.799	0.387	-0.037
-410.355	46.434	-0.178	-0.166
-409.340	-200.000	0.017	-0.174
-408.325	-200.000	-0.513	0.001
-407.311	-200.000	0.022	-0.154
-406.296	-97.609	-0.299	0.078
-405.282	-104.759	-0.451	0.104
-404.267	48.629	-0.059	0.055
-403.252	-13.102	0.081	0.053
-402.238	-200.000	-0.017	0.075
-401.223	-200.000	0.016	0.291
-400.209	-2.213	0.164	0.116
-399.194	-200.000	-0.030	-0.185
-398.179	-200.000	-0.010	0.106
-397.165	800.000	0.033	0.098
-396.150	-200.000	0.011	0.088
-395.136	-109.402	-0.160	-0.034
-394.121	800.000	-0.074	-0.300
-393.106	-111.997	0.188	-0.038
-392.092	-71.093	-0.191	0.072
-391.077	-200.000	0.085	0.417
-390.063	-56.331	-0.069	0.031
-389.048	-103.029	0.093	-0.022
-388.033	467.014	-0.138	0.310
-387.019	59.361	0.191	0.189
-386.004	-110.396	0.131	-0.027
-384.990	-200.000	-0.019	-0.281
-383.975	7.684	0.148	0.111
-382.960	-152.953	-0.260	-0.018
-381.946	131.031	-0.058	0.074
-380.931	6.256	-0.119	0.089
-379.917	-200.000	0.054	-0.381
-378.902	214.358	-0.234	0.372
-377.888	800.000	-0.142	-0.482
-376.873	131.418	-0.053	0.069
-375.858	-40.517	-0.059	0.031
-374.844	-97.642	-0.071	-0.018
-373.829	-53.969	-0.110	-0.050
-372.815	-200.000	-0.012	-0.100
-371.800	-200.000	0.001	0.174
-370.785	-158.769	-0.204	-0.012
-369.771	11.916	0.238	0.184
-368.756	-4.529	0.409	0.283
-367.742	-47.603	-0.269	0.131
-366.727	-51.768	0.113	-0.053
-365.712	90.153	0.168	-0.188
-364.698	15.563	0.073	-0.057
-363.683	800.000	0.014	0.057
-362.669	-200.000	0.067	0.365
-361.654	-120.968	-0.218	-0.037
-360.639	-179.892	-0.290	-0.006
-359.625	550.655	-0.022	0.054
-358.610	-83.911	0.056	-0.018
-357.596	-33.462	-0.287	0.159
-356.581	-140.005	0.151	0.016
-355.566	-98.875	-0.321	0.082
-354.552	-200.000	0.034	-0.178
-353.537	-158.419	0.102	0.006
-352.523	800.000	-0.068	-0.250
-351.508	800.000	0.156	0.434
-350.493	800.000	-0.058	0.196
-349.479	-200.000	0.017	-0.172
-348.464	330.913	-0.116	0.224
-347.450	-26.539	-0.056	-0.033
-346.435	-47.117	-0.252	0.123
-345.420	-149.218	0.102	0.008
-344.406	-13.733	-0.064	0.042
-343.391	33.420	0.225	0.196
-342.377	-90.123	-0.242	-0.071
-341.362	800.000	-0.020	-0.084
-340.348	-50.054	0.219	0.104
-339.333	-118.366	0.091	0.016
-338.318	295.669	-0.149	0.273
-337.304	-200.000	-0.009	-0.201
-336.289	400.074	-0.141	-0.296
-335.275	300.231	-0.037	0.068
-334.260	32.689	-0.153	-0.133
-333.245	-84.836	0.217	-0.068
-332.231	-40.142	-0.178	0.093
-331.216	-13.025	0.096	-0.063
-330.202	-35.954	-0.164	-0.089
-329.187	-60.691	0.271	0.115
-328.172	79.136	-0.155	-0.166
-327.158	-84.432	-0.280	-0.089
-326.143	184.151	0.105	0.155
-325.129	-162.988	-0.254	-0.012
-324.114	151.509	-0.135	-0.184
-323.099	-200.000	0.010	-0.126
-322.085	-200.000	-0.017	-0.207
-321.070	-25.117	-0.305	-0.181
-320.056	-200.000	0.006	-0.086
-319.041	-133.396	0.182	-0.023
-318.026	337.946	-0.112	0.218
-317.012	-200.000	0.022	0.126
-315.997	72.291	0.152	-0.158
-314.983	800.000	-0.101	0.335
-313.968	-96.354	-0.207	-0.055
-312.953	-58.215	-0.110	0.048
-311.939	-200.000	-0.023	-0.109
-310.924	-78.411	-0.221	-0.076
-309.910	-200.000	0.012	0.164
-308.895	-200.000	-0.034	0.341
-307.880	-100.093	-0.186	-0.046
-306.866	-105.021	-0.102	-0.023
-305.851	-85.271	0.297	-0.093
-304.837	-89.834	0.163	0.048
-303.822	-106.311	0.225	-0.050
-302.807	167.990	-0.281	0.400
-301.793	536.496	-0.078	-0.184
-300.778	413.986	0.181	0.386
-299.764	26.052	-0.051	0.043
-298.749	-98.836	0.064	-0.016
-297.735	-67.859	-0.326	-0.127
-296.720	193.380	-0.064	-0.097
-295.705	-200.000	0.017	0.180
-294.691	800.000	-0.086	0.275
-293.676	800.000	-0.037	-0.151
-292.662	-200.000	-0.006	0.158
-291.647	21.907	0.145	-0.118
-290.632	-1.742	0.228	0.161
-289.618	-200.000	0.030	0.216
-288.603	-200.000	0.005	0.457
-287.589	-143.809	-0.239	-0.023
-286.574	-70.977	0.214	-0.081
-285.559	800.000	0.101	0.375
-284.545	-200.000	0.013	-0.087
-283.530	593.081	0.065	-0.160
-282.516	14.823	0.119	0.093
-281.501	361.825	-0.043	-0.086
-280.486	442.514	-0.030	-0.065
-279.472	-200.000	-0.045	0.202
-278.457	125.419	0.092	-0.116
-277.443	-200.000	-0.046	-0.290
-276.428	-200.000	0.010	0.374
-275.413	101.514	0.151	-0.176
-274.399	-165.508	-0.129	0.006
-273.384	-200.000	0.005	-0.031
-272.370	41.368	0.125	-0.113
-271.355	-45.306	0.135	0.067
-270.340	24.134	0.182	-0.150
-269.326	286.677	0.053	0.096
-268.311	-94.823	0.070	-0.019
-267.297	333.357	0.081	-0.157
-266.282	-200.000	0.010	-0.207
-265.267	731.395	-0.075	-0.200
-264.253	38.876	0.162	-0.145
-263.238	241.884	0.213	-0.355
-262.224	-128.142	0.080	0.011
-261.209	-160.806	-0.146	-0.008
-260.195	-135.626	0.093	-0.011
-259.180	800.000	-0.117	0.329
-258.165	-56.741	0.132	-0.058
-257.151	148.596	-0.061	0.083
-256.136	1.574	0.196	-0.141
-255.122	523.155	0.070	-0.164
-254.107	3.627	-0.173	-0.126
-253.092	230.111	0.033	0.054
-252.078	800.000	-0.151	-0.438
-251.063	-181.724	0.277	0.005
-250.049	-51.851	-0.337	-0.157
-249.034	109.962	0.120	0.144
-248.019	450.004	-0.088	-0.194
-247.005	154.491	-0.180	0.247
-245.990	800.000	0.057	0.162
-244.976	433.855	-0.101	0.219
-243.961	-200.000	-0.007	0.030
-242.946	-200.000	-0.019	-0.382
-241.932	449.155	-0.065	-0.142
-240.917	-47.872	0.183	0.088
-239.903	180.885	0.184	0.270
-238.888	-48.445	0.066	0.032
-237.873	571.012	0.068	-0.165
-236.859	-128.497	-0.407	0.058
-235.844	-200.000	0.014	0.093
-234.830	800.000	0.009	-0.038
-233.815	-16.408	-0.149	-0.094
-232.800	46.775	-0.253	0.235
-231.786	-200.000	-0.040	0.241
-230.771	-200.000	-0.115	-0.000
-229.757	-171.152	-0.395	0.013
-228.742	-26.975	0.161	0.094
-227.727	-200.000	0.020	0.183
-226.713	47.070	0.126	0.117
-225.698	59.218	-0.167	0.164
-224.684	-200.000	-0.002	0.013
-223.669	-200.000	0.048	0.310
-222.655	-200.000	-0.011	0.299
-221.640	-61.093	0.103	-0.043
-220.625	-98.646	-0.045	-0.011
-219.611	100.493	0.290	0.336
-218.596	6.490	-0.201	-0.149
-217.582	-11.896	0.156	0.102
-216.567	-11.131	0.014	0.009
-215.552	800.000	-0.072	0.203
-214.538	281.308	-0.048	-0.086
-213.523	24.529	-0.200	-0.165
-212.509	-136.290	0.013	-0.001
-211.494	800.000	0.104	-0.322
-210.479	-184.160	0.350	-0.006
-209.465	611.519	0.104	0.259
-208.450	55.729	0.333	0.321
-207.436	118.143	0.136	-0.167
-206.421	-53.700	0.318	-0.145
-205.406	-200.000	-0.005	0.164
-204.392	105.028	-0.214	0.252
-203.377	-200.000	0.014	0.203
-202.363	-200.000	-0.004	-0.069
-201.348	180.799	-0.014	-0.020
-200.333	6.255	0.110	0.081
-199.319	49.123	0.021	0.020
-198.304	157.406	0.198	0.273
-197.290	-200.000	-0.029	-0.128
-196.275	156.916	-0.050	-0.068
-195.260	-96.378	-0.318	-0.084
-194.246	-161.873	-0.111	0.006
-193.231	186.508	-0.098	0.145
-192.217	561.753	-0.063	0.151
-191.202	-200.000	-0.001	0.476
-190.187	-16.777	0.060	-0.038
-189.173	64.157	-0.116	0.117
-188.158	559.408	0.061	-0.146
-187.144	-85.151	-0.317	0.099
-186.129	-0.271	-0.099	-0.070
-185.114	-200.000	-0.016	0.112
-184.100	99.758	0.036	-0.041
-183.085	-17.353	0.221	-0.138
-182.071	-97.746	-0.126	-0.032
-181.056	-17.372	-0.273	0.171
-180.042	166.366	0.081	0.114
-179.027	47.688	-0.134	-0.124
-178.012	800.000	0.023	-0.064
-176.998	-33.042	-0.148	0.082
-175.983	-200.000	-0.010	-0.188
-174.969	-98.496	0.427	0.109
-173.954	-200.000	0.009	-0.260
-172.939	-119.039	0.067	-0.012
-171.925	204.468	-0.143	0.221
-170.910	-200.000	0.017	-0.126
-169.896	77.172	0.076	-0.081
-168.881	108.697	0.231	-0.275
-167.866	-31.821	-0.270	0.151
-166.852	800.000	-0.025	0.074
-165.837	271.135	-0.026	-0.046
-164.823	31.838	0.213	0.182
-163.808	-147.779	-0.034	0.003
-162.793	-40.045	0.159	-0.082
-161.779	417.624	-0.141	-0.300
-160.764	-153.312	0.278	-0.019
-159.750	-200.000	-0.020	0.196
-158.735	800.000	-0.188	-0.677
-157.720	-100.179	-0.272	-0.067
-156.706	160.148	0.123	0.170
-155.691	-112.952	0.066	-0.013
-154.677	164.035	0.216	0.302
-153.662	-46.582	0.103	-0.050
-152.647	800.000	-0.073	0.296
-151.633	170.949	-0.185	0.264
-150.618	-39.624	-0.053	0.028
-149.604	16.515	0.173	0.136
-148.589	-200.000	0.004	0.195
-147.574	-105.573	0.181	0.041
-146.560	98.426	0.163	-0.186
-145.545	-200.000	-0.011	-0.177
-144.531	-42.373	0.098	0.050
-143.516	474.055	0.253	0.567
-142.502	-200.000	0.011	0.210
-141.487	-132.943	0.397	-0.050
-140.472	272.905	-0.186	0.326
-139.458	-110.238	0.270	-0.056
-138.443	-29.398	-0.336	0.191
-137.429	134.687	-0.070	0.090
-136.414	-68.046	-0.161	0.062
-135.399	800.000	-0.098	-0.319
-134.385	-200.000	0.011	-0.106
-133.370	8.333	-0.093	-0.069
-132.356	-101.436	-0.217	0.053
-131.341	26.747	0.170	0.142
-130.326	338.277	-0.105	-0.204
-129.312	-83.609	0.221	0.070
-128.297	239.277	0.082	0.136
-127.283	800.000	-0.044	-0.147
-126.268	-115.037	0.365	-0.069
-125.253	-3.737	0.170	0.117
-124.239	754.901	-0.066	0.177
-123.224	-114.202	0.157	-0.030
-122.210	15.902	0.031	0.024
