DTS Sentinel unit serial number:	SN413079Multiplexer serial number:	ORYXHardware model number:	OX4-SRSoftware version number:	ORYX F/W v4.00 Oryx Data Collector v3.7.2.0data status	okinstallation	princeton_trtdifferential loss correction	single-endedforward channel	channel 3reverse channel	N/Adate	2019/09/14time	08:44:34forward acquisition time	60.00reverse acquisition time	0.00gamma	496.2192k internal	0.2326k external	0.2326temperature offset calibration	1.0054default loss term (dB/km)	0.3790temperature slope calibration	1.0000multiplexer offset coefficient	1.0000multiplexer slope coefficient	1.0000fibre end	0.00T internal ref (°C)	29.06T ext. ref 1 (°C)	3.67T ext. ref 2 (°C)	26.65length (m)	temperature (°C)	Stokes	anti-Stokes-747.200	337.241	0.145	-0.285
-746.185	-105.914	0.180	0.041
-745.171	-141.934	-0.287	-0.029
-744.156	-200.000	0.024	-0.317
-743.142	-88.605	0.261	-0.078
-742.127	537.718	0.152	0.364
-741.112	302.820	-0.076	-0.142
-740.098	-130.382	-0.312	0.043
-739.083	313.292	-0.128	0.242
-738.069	-150.659	-0.178	0.014
-737.054	655.339	0.140	-0.363
-736.039	-88.856	-0.152	0.045
-735.025	-200.000	-0.037	0.276
-734.010	419.969	0.083	-0.179
-732.996	42.590	-0.082	-0.075
-731.981	-47.588	0.075	-0.037
-730.966	-19.293	-0.221	0.138
-729.952	-161.030	-0.021	0.001
-728.937	-200.000	0.036	0.197
-727.923	-177.977	-0.361	-0.009
-726.908	304.384	-0.075	-0.140
-725.894	118.275	0.308	-0.383
-724.879	-164.016	-0.194	0.009
-723.864	-3.437	0.218	0.153
-722.850	-200.000	0.052	-0.260
-721.835	800.000	-0.118	0.331
-720.821	-59.538	-0.224	0.097
-719.806	-112.405	-0.193	0.039
-718.791	-200.000	-0.023	0.138
-717.777	151.627	-0.024	-0.033
-716.762	298.854	0.294	-0.545
-715.748	-61.244	0.225	-0.095
-714.733	-150.785	-0.232	-0.018
-713.718	-26.782	-0.186	-0.110
-712.704	-84.603	-0.198	0.063
-711.689	-15.822	0.063	0.041
-710.675	203.909	-0.070	0.110
-709.660	-174.850	-0.149	-0.004
-708.645	-37.713	-0.276	-0.148
-707.631	1.604	-0.072	-0.052
-706.616	-31.574	0.132	-0.075
-705.602	-15.650	0.216	-0.139
-704.587	66.431	-0.243	-0.249
-703.572	-142.867	-0.292	-0.029
-702.558	-196.574	-0.073	0.000
-701.543	68.732	-0.049	-0.051
-700.529	156.665	0.202	0.281
-699.514	-11.367	-0.149	0.099
-698.499	104.825	-0.125	-0.148
-697.485	-200.000	0.027	-0.163
-696.470	800.000	0.054	-0.236
-695.456	-80.258	-0.172	0.058
-694.441	-66.764	-0.107	-0.043
-693.426	-153.410	-0.135	0.009
-692.412	-0.025	-0.294	0.211
-691.397	-109.490	-0.157	-0.033
-690.383	-48.629	0.113	-0.055
-689.368	-56.030	0.053	0.024
-688.354	24.570	-0.256	0.213
-687.339	104.408	0.107	-0.126
-686.324	-92.245	0.340	0.097
-685.310	-100.050	-0.117	-0.029
-684.295	-52.122	-0.130	-0.061
-683.281	72.647	0.035	-0.037
-682.266	-200.000	0.036	-0.303
-681.251	60.581	-0.135	0.134
-680.237	55.135	-0.154	0.150
-679.222	-200.000	0.037	-0.261
-678.208	289.063	-0.048	0.087
-677.193	-200.000	0.005	0.206
-676.178	150.534	-0.099	-0.135
-675.164	800.000	-0.040	-0.160
-674.149	-175.112	0.129	0.004
-673.135	-200.000	-0.007	0.242
-672.120	45.666	0.184	-0.171
-671.105	-86.395	-0.307	0.095
-670.091	-194.259	-0.175	-0.001
-669.076	95.246	-0.274	0.314
-668.062	-37.728	-0.173	0.093
-667.047	-200.000	0.018	-0.172
-666.032	-200.000	-0.000	0.057
-665.018	310.939	0.086	-0.161
-664.003	800.000	0.049	0.144
-662.989	-200.000	0.024	-0.271
-661.974	-200.000	-0.040	-0.186
-660.959	-200.000	0.017	-0.167
-659.945	451.093	0.024	0.054
-658.930	-88.879	0.079	-0.024
-657.916	-76.718	-0.261	-0.092
-656.901	176.047	-0.092	0.134
-655.886	118.392	-0.085	0.106
-654.872	263.254	-0.046	-0.080
-653.857	-64.899	0.242	-0.099
-652.843	-157.685	0.301	-0.018
-651.828	800.000	0.031	-0.111
-650.814	-167.815	0.133	-0.005
-649.799	113.152	-0.015	-0.019
-648.784	45.345	-0.134	-0.124
-647.770	76.674	-0.266	0.284
-646.755	-67.075	-0.347	0.138
-645.741	-19.041	-0.146	-0.091
-644.726	517.882	-0.135	-0.317
-643.711	-18.465	-0.107	0.067
-642.697	-129.739	0.165	-0.023
-641.682	161.287	-0.105	0.147
-640.668	-72.925	-0.077	-0.029
-639.653	-51.383	-0.151	-0.071
-638.638	-100.409	0.096	0.024
-637.624	800.000	-0.063	-0.207
-636.609	-200.000	0.002	-0.212
-635.595	23.930	0.056	-0.046
-634.580	-157.631	-0.268	0.016
-633.565	-11.439	-0.203	0.134
-632.551	53.970	-0.034	0.033
-631.536	-200.000	0.220	-0.000
-630.522	551.426	-0.065	-0.156
-629.507	-27.940	0.219	0.127
-628.492	-200.000	-0.035	0.171
-627.478	-196.639	0.162	0.001
-626.463	44.739	-0.190	-0.176
-625.449	-117.866	-0.196	-0.035
-624.434	-115.247	-0.398	0.076
-623.419	101.274	0.057	0.067
-622.405	-151.952	-0.219	0.016
-621.390	-148.839	0.271	-0.022
-620.376	76.602	-0.269	0.286
-619.361	-37.435	0.201	-0.108
-618.346	76.561	-0.194	-0.207
-617.332	-90.779	0.125	0.036
-616.317	800.000	-0.010	-0.045
-615.303	-200.000	-0.015	0.150
-614.288	-200.000	0.044	0.241
-613.273	-141.461	0.078	0.008
-612.259	-95.070	0.105	-0.028
-611.244	-200.000	-0.027	-0.212
-610.230	-120.614	-0.281	0.048
-609.215	-124.924	-0.051	0.008
-608.201	512.099	-0.012	0.029
-607.186	21.337	-0.302	-0.246
-606.171	-95.859	-0.262	0.070
-605.157	385.310	-0.070	0.144
-604.142	800.000	0.023	-0.068
-603.128	48.643	0.058	-0.055
-602.113	165.336	-0.131	0.186
-601.098	-12.842	-0.118	0.077
-600.084	136.865	0.254	-0.332
-599.069	-27.946	0.229	-0.133
-598.055	146.128	0.068	-0.091
-597.040	800.000	0.124	0.517
-596.025	-116.169	0.367	0.068
-595.011	119.766	0.078	0.097
-593.996	800.000	-0.058	-0.209
-592.982	-55.227	-0.269	-0.121
-591.967	356.434	0.119	-0.238
-590.952	143.857	0.054	-0.072
-589.938	-200.000	0.038	0.231
-588.923	-200.000	-0.024	-0.302
-587.909	46.191	0.123	-0.114
-586.894	42.267	-0.282	-0.257
-585.879	360.307	0.090	-0.181
-584.865	-88.354	0.148	0.044
-583.850	-146.420	-0.082	-0.007
-582.836	97.199	0.075	-0.086
-581.821	108.148	-0.068	0.082
-580.806	242.232	-0.031	-0.052
-579.792	24.149	-0.231	-0.191
-578.777	263.761	-0.179	-0.312
-577.763	-59.887	0.109	0.047
-576.748	-200.000	0.008	-0.054
-575.733	-88.708	-0.180	-0.054
-574.719	70.915	0.188	0.195
-573.704	-100.941	0.331	0.081
-572.690	-200.000	-0.042	0.187
-571.675	-200.000	0.008	-0.182
-570.661	800.000	0.086	0.241
-569.646	-9.977	0.177	-0.118
-568.631	800.000	0.038	0.127
-567.617	-200.000	0.063	-0.467
-566.602	-51.450	0.153	-0.072
-565.588	-200.000	-0.006	0.389
-564.573	-200.000	0.005	0.091
-563.558	67.502	0.025	0.026
-562.544	800.000	-0.072	0.286
-561.529	123.652	-0.028	0.036
-560.515	15.372	-0.108	-0.085
-559.500	-200.000	-0.041	0.298
-558.485	-99.507	0.143	0.036
-557.471	-49.241	0.181	-0.086
-556.456	800.000	-0.027	0.080
-555.442	-200.000	-0.010	0.280
-554.427	519.995	0.049	-0.115
-553.412	-97.322	0.127	-0.033
-552.398	-137.552	0.098	0.011
-551.383	479.102	-0.020	0.045
-550.369	413.579	-0.062	0.133
-549.354	-182.583	-0.231	-0.004
-548.339	72.054	0.135	0.141
-547.325	229.305	0.183	0.299
-546.310	76.225	-0.084	-0.089
-545.296	391.490	0.130	-0.271
-544.281	800.000	-0.053	-0.213
-543.266	598.742	-0.045	-0.111
-542.252	-146.098	-0.058	0.005
-541.237	-136.179	0.169	0.020
-540.223	18.548	-0.185	0.148
-539.208	800.000	0.093	-0.389
-538.193	-97.402	0.183	-0.048
-537.179	204.325	-0.115	0.178
-536.164	282.220	-0.090	0.161
-535.150	585.316	0.132	0.326
-534.135	323.644	0.094	0.179
-533.121	-98.326	0.065	-0.017
-532.106	800.000	0.085	-0.246
-531.091	800.000	-0.059	-0.195
-530.077	44.902	0.091	-0.084
-529.062	800.000	0.017	0.065
-528.048	-12.421	-0.149	-0.097
-527.033	577.211	0.033	-0.080
-526.018	16.721	0.144	-0.114
-525.004	-85.895	-0.327	0.101
-523.989	3.260	0.095	0.069
-522.975	-164.910	0.257	0.011
-521.960	110.479	0.136	0.163
-520.945	-80.927	0.253	0.084
-519.931	-187.895	-0.084	0.001
-518.916	-38.094	0.219	0.116
-517.902	430.603	-0.198	-0.429
-516.887	800.000	0.048	0.196
-515.872	-200.000	0.012	-0.126
-514.858	-120.132	-0.137	0.024
-513.843	-98.589	-0.203	-0.052
-512.829	-200.000	-0.017	0.479
-511.814	151.019	-0.149	0.203
-510.799	-91.480	-0.046	-0.013
-509.785	-106.967	0.124	0.027
-508.770	321.270	0.076	-0.144
-507.756	-164.947	-0.507	-0.023
-506.741	-200.000	-0.054	-0.329
-505.726	-200.000	-0.005	-0.293
-504.712	-108.048	-0.355	0.077
-503.697	-200.000	0.045	-0.226
-502.683	-114.455	0.079	0.015
-501.668	800.000	0.159	-0.493
-500.653	-200.000	-0.012	-0.164
-499.639	-148.212	0.321	-0.026
-498.624	-162.751	-0.332	-0.016
-497.610	24.912	0.226	0.187
-496.595	210.223	-0.140	0.220
-495.581	687.810	0.103	-0.270
-494.566	285.289	-0.085	0.153
-493.551	-167.388	0.117	-0.005
-492.537	-72.311	0.228	0.084
-491.522	-89.534	0.233	-0.068
-490.508	-64.558	-0.102	-0.041
-489.493	-200.000	-0.087	0.490
-488.478	-200.000	-0.041	0.209
-487.464	248.408	0.127	-0.214
-486.449	17.129	-0.051	0.041
-485.435	511.932	0.138	0.321
-484.420	127.056	-0.285	0.360
-483.405	-200.000	0.018	0.368
-482.391	-9.190	0.056	0.037
-481.376	-44.177	-0.215	0.108
-480.362	303.509	0.065	0.121
-479.347	-71.364	0.295	-0.110
-478.332	324.274	0.050	0.096
-477.318	139.993	-0.219	-0.289
-476.303	-44.266	-0.104	0.052
-475.289	726.483	-0.122	0.325
-474.274	-50.993	0.079	-0.037
-473.259	12.607	-0.136	0.105
-472.245	-147.732	0.366	-0.031
-471.230	81.476	-0.152	0.165
-470.216	214.255	-0.141	0.223
-469.201	-111.527	-0.105	-0.021
-468.186	68.804	0.211	-0.216
-467.172	258.315	-0.094	0.162
-466.157	35.885	0.090	0.079
-465.143	800.000	-0.040	-0.162
-464.128	633.165	-0.027	-0.067
-463.113	177.371	-0.081	-0.118
-462.099	41.207	-0.243	-0.219
-461.084	-68.826	-0.237	-0.091
-460.070	-95.314	-0.311	0.084
-459.055	-22.754	0.270	0.162
-458.040	-71.668	0.199	0.074
-457.026	-200.000	-0.038	-0.178
-456.011	-83.589	-0.295	0.094
-454.997	-171.781	-0.165	0.005
-453.982	-200.000	0.001	-0.121
-452.968	188.567	-0.028	0.042
-451.953	352.451	0.069	-0.137
-450.938	-200.000	-0.017	-0.092
-449.924	-41.836	0.197	0.101
-448.909	-95.969	0.282	0.075
-447.895	415.908	-0.142	0.301
-446.880	-200.000	0.071	-0.450
-445.865	716.920	-0.154	-0.407
-444.851	1.845	-0.284	-0.204
-443.836	-21.047	-0.051	-0.031
-442.822	-95.565	-0.246	-0.066
-441.807	297.678	-0.132	-0.242
-440.792	138.631	0.084	-0.110
-439.778	800.000	-0.094	0.357
-438.763	-16.058	0.433	0.274
-437.749	-69.966	-0.175	0.067
-436.734	800.000	-0.093	-0.370
-435.719	28.568	0.317	0.267
-434.705	800.000	-0.119	-0.474
-433.690	45.924	0.274	-0.253
-432.676	-6.216	-0.147	0.100
-431.661	-51.870	0.108	0.050
-430.646	-54.439	-0.263	-0.119
-429.632	-200.000	-0.018	0.213
-428.617	69.320	0.155	0.158
-427.603	-25.557	-0.157	0.093
-426.588	-30.559	0.267	0.151
-425.573	502.945	-0.094	0.216
-424.559	-152.221	0.306	-0.022
-423.544	-122.371	0.419	-0.068
-422.530	-24.088	0.312	-0.185
-421.515	309.645	-0.116	-0.216
-420.500	347.492	0.018	-0.034
-419.486	46.638	0.168	0.155
-418.471	222.236	0.139	0.222
-417.457	-200.000	-0.029	-0.362
-416.442	-58.987	-0.285	-0.123
-415.428	379.338	0.035	-0.070
-414.413	282.261	-0.100	-0.178
-413.398	-32.543	-0.132	-0.073
-412.384	-200.000	0.020	0.440
-411.369	-21.813	0.063	0.038
-410.355	225.040	0.067	-0.109
-409.340	38.665	-0.037	-0.033
-408.325	-40.904	0.196	0.101
-407.311	-83.656	0.036	-0.011
-406.296	-200.000	0.014	0.346
-405.282	-11.369	0.087	0.057
-404.267	-200.000	0.029	-0.144
-403.252	800.000	-0.070	-0.278
-402.238	108.879	-0.051	-0.060
-401.223	-200.000	-0.077	0.366
-400.209	-89.057	0.118	-0.035
-399.194	-200.000	0.035	0.225
-398.179	-156.676	-0.174	0.011
-397.165	114.059	0.168	-0.204
-396.150	800.000	-0.154	0.616
-395.136	67.067	0.178	-0.180
-394.121	148.397	-0.108	0.145
-393.106	-200.000	0.073	-0.405
-392.092	-107.399	-0.095	0.021
-391.077	36.634	0.202	-0.177
-390.063	533.180	-0.100	-0.235
-389.048	-35.736	0.238	0.128
-388.033	-4.980	0.182	0.124
-387.019	49.889	0.185	0.173
-386.004	-200.000	-0.039	-0.222
-384.990	800.000	0.036	0.105
-383.975	800.000	-0.030	-0.129
-382.960	49.263	0.048	-0.045
-381.946	-144.989	-0.271	-0.025
-380.931	-200.000	-0.017	0.153
-379.917	-117.981	-0.136	-0.024
-378.902	-23.815	-0.131	0.078
-377.888	-158.433	0.275	-0.016
-376.873	40.296	0.103	0.092
-375.858	800.000	0.048	0.160
-374.844	-21.856	0.211	-0.127
-373.829	-132.846	-0.342	-0.043
-372.815	-93.577	0.157	0.043
-371.800	-200.000	0.034	0.166
-370.785	-104.264	0.174	-0.040
-369.771	-200.000	-0.014	-0.126
-368.756	-200.000	0.007	-0.107
-367.742	-158.818	0.156	-0.009
-366.727	100.067	0.255	-0.294
-365.712	30.887	0.300	-0.255
-364.698	-81.902	0.237	-0.077
-363.683	311.335	0.183	0.341
-362.669	-98.827	0.168	-0.042
-361.654	10.137	-0.351	0.265
-360.639	-14.574	0.099	-0.064
-359.625	644.684	0.153	-0.389
-358.610	-52.511	0.475	-0.218
-357.596	-107.863	-0.200	0.043
-356.581	-76.605	-0.169	-0.059
-355.566	800.000	0.085	0.236
-354.552	-94.818	0.180	0.049
-353.537	800.000	-0.049	0.183
-352.523	-48.750	0.169	-0.080
-351.508	-78.968	0.157	-0.053
-350.493	22.471	-0.216	0.175
-349.479	-82.965	0.129	-0.041
-348.464	-44.445	-0.363	-0.180
-347.450	56.076	0.148	0.142
-346.435	-137.371	-0.250	-0.028
-345.420	480.473	0.092	0.206
-344.406	800.000	0.073	-0.240
-343.391	800.000	-0.137	0.415
-342.377	-43.414	0.053	0.026
-341.362	800.000	0.024	-0.082
-340.348	-17.797	-0.180	-0.112
-339.333	706.697	-0.094	0.247
-338.318	-200.000	0.024	0.154
-337.304	-5.214	-0.031	-0.021
-336.289	-200.000	0.033	-0.179
-335.275	-84.055	0.273	-0.086
-334.260	800.000	-0.069	0.224
-333.245	-163.762	-0.406	-0.019
-332.231	-200.000	-0.038	0.252
-331.216	451.514	-0.166	0.365
-330.202	264.094	-0.107	-0.184
-329.187	-200.000	-0.001	0.134
-328.172	319.703	-0.098	0.184
-327.158	275.812	-0.113	0.200
-326.143	-4.483	0.360	-0.247
-325.129	669.119	-0.100	-0.257
-324.114	-200.000	-0.005	0.036
-323.099	182.702	0.046	0.068
-322.085	-200.000	0.158	0.000
-321.070	254.804	-0.052	0.088
-320.056	119.970	0.042	-0.051
-319.041	-191.977	0.221	0.002
-318.026	530.645	-0.092	-0.216
-317.012	38.288	-0.325	0.287
-315.997	533.945	0.055	0.128
-314.983	-150.632	0.211	-0.016
-313.968	30.199	0.231	0.196
-312.953	141.479	0.050	-0.066
-311.939	-9.182	-0.178	0.118
-310.924	-100.598	-0.268	-0.066
-309.910	-200.000	-0.037	0.201
-308.895	65.438	0.107	-0.108
-307.880	343.705	-0.119	-0.232
-306.866	800.000	-0.051	0.215
-305.851	-168.507	-0.041	0.002
-304.837	-78.358	0.174	0.059
-303.822	-81.537	-0.303	-0.099
-302.807	-87.196	0.329	0.099
-301.793	-200.000	0.006	0.215
-300.778	-200.000	0.035	-0.153
-299.764	746.299	-0.058	-0.155
-298.749	-8.792	-0.229	-0.152
-297.735	98.625	-0.122	-0.140
-296.720	129.038	0.146	0.184
-295.705	-200.000	-0.014	0.369
-294.691	800.000	-0.057	-0.243
-293.676	-18.169	0.128	0.079
-292.662	-64.913	-0.113	0.045
-291.647	240.725	-0.120	0.199
-290.632	501.881	0.013	0.030
-289.618	-114.648	0.226	0.043
-288.603	156.949	0.040	-0.055
-287.589	-155.227	-0.107	-0.007
-286.574	-9.919	-0.287	-0.189
-285.559	218.252	0.124	0.196
-284.545	800.000	-0.081	0.294
-283.530	-35.391	-0.255	-0.138
-282.516	-110.360	0.416	0.086
-281.501	-80.699	-0.111	-0.037
-280.486	-177.201	-0.411	0.010
-279.472	-149.839	-0.009	-0.001
-278.457	-200.000	0.002	0.274
-277.443	179.393	0.245	0.355
-276.428	708.325	0.169	0.443
-275.413	5.005	-0.203	0.148
-274.399	800.000	-0.078	-0.254
-273.384	45.723	0.189	-0.173
-272.370	419.593	-0.088	0.187
-271.355	-39.857	-0.184	-0.095
-270.340	-3.118	-0.181	0.125
-269.326	101.574	0.323	0.373
-268.311	421.619	-0.040	0.085
-267.297	245.138	-0.095	0.157
-266.282	-119.176	0.243	0.042
-265.267	683.017	-0.097	-0.251
-264.253	-169.996	-0.167	-0.006
-263.238	92.037	0.109	-0.121
-262.224	-200.000	0.025	-0.290
-261.209	-200.000	0.005	-0.330
-260.195	262.503	-0.195	0.335
-259.180	272.879	0.064	0.112
-258.165	273.477	-0.151	-0.263
-257.151	533.656	-0.066	0.155
-256.136	-25.351	0.122	-0.071
-255.122	-26.013	-0.300	-0.175
-254.107	-166.066	0.199	-0.008
-253.092	-200.000	0.003	-0.050
-252.078	-200.000	-0.069	-0.308
-251.063	-155.732	-0.167	0.011
-250.049	581.726	-0.122	-0.296
-249.034	-5.389	0.186	0.126
-248.019	145.357	-0.246	0.325
-247.005	-150.020	-0.047	-0.004
-245.990	452.058	-0.071	-0.156
-244.976	0.838	0.078	0.055
-243.961	-200.000	-0.026	-0.316
-242.946	-126.932	-0.101	0.015
-241.932	601.610	-0.090	-0.221
-240.917	-109.015	-0.069	0.014
-239.903	-61.846	0.154	0.064
-238.888	-200.000	-0.022	-0.142
-237.873	216.945	-0.198	-0.312
-236.859	-8.787	0.253	0.168
-235.844	-116.146	0.334	0.061
-234.830	800.000	-0.021	0.087
-233.815	39.285	0.077	0.068
-232.800	-200.000	0.030	0.377
-231.786	764.376	-0.096	0.259
-230.771	169.063	-0.108	-0.152
-229.757	-4.416	-0.329	-0.225
-228.742	800.000	-0.097	-0.395
-227.727	138.463	0.294	-0.381
-226.713	-50.089	-0.352	0.165
-225.698	71.358	-0.175	0.179
-224.684	-130.850	-0.065	0.009
-223.669	-143.483	0.361	-0.034
-222.655	29.785	0.158	-0.133
-221.640	-76.226	-0.202	-0.071
-220.625	-46.866	0.069	0.034
-219.611	47.348	0.056	0.051
-218.596	-200.000	-0.009	-0.045
-217.582	799.658	-0.040	-0.110
-216.567	33.364	0.014	0.012
-215.552	-200.000	-0.037	-0.204
-214.538	-79.529	0.359	-0.120
-213.523	800.000	0.128	-0.414
-212.509	172.150	-0.165	-0.235
-211.494	-200.000	0.007	-0.298
-210.479	-200.000	-0.035	0.270
-209.465	-15.613	0.087	-0.055
-208.450	570.235	-0.100	0.241
-207.436	-68.537	0.034	0.013
-206.421	-108.748	-0.236	0.050
-205.406	350.380	-0.086	0.169
-204.392	203.918	0.071	0.108
-203.377	162.312	-0.093	0.128
-202.363	66.937	-0.256	-0.258
-201.348	43.593	0.205	0.185
-200.333	1.537	-0.058	-0.041
-199.319	-92.112	0.066	-0.018
-198.304	-5.795	-0.092	0.062
-197.290	-137.977	0.365	-0.040
-196.275	-132.719	0.203	-0.026
-195.260	61.470	0.080	0.078
-194.246	-26.643	-0.216	0.125
-193.231	-81.874	-0.237	0.077
-192.217	-59.685	0.196	-0.083
-191.202	9.591	0.115	-0.086
-190.187	367.353	0.082	-0.164
-189.173	-0.029	-0.231	0.163
-188.158	-151.071	0.045	0.003
-187.144	710.761	0.125	0.326
-186.129	-69.447	0.074	0.028
-185.114	-200.000	0.024	0.150
-184.100	-23.688	0.118	-0.070
-183.085	-109.654	0.300	0.062
-182.071	-50.542	-0.373	0.174
-181.056	-148.637	0.146	0.012
-180.042	-200.000	0.080	0.000
-179.027	-76.213	-0.402	-0.140
-178.012	-200.000	0.024	-0.334
-176.998	88.529	-0.081	0.088
-175.983	-6.022	-0.136	0.092
-174.969	356.709	-0.224	-0.441
-173.954	-93.010	0.196	-0.054
-172.939	70.770	0.179	-0.183
-171.925	-131.943	0.269	-0.035
-170.910	-169.595	0.440	0.016
-169.896	-200.000	-0.014	-0.081
-168.881	-200.000	-0.049	0.296
-167.866	-19.582	-0.226	-0.138
-166.852	72.524	-0.143	0.147
-165.837	-177.503	0.304	0.007
-164.823	-135.188	-0.193	0.023
-163.808	-69.336	-0.221	-0.084
-162.793	-200.000	0.042	-0.240
-161.779	-62.333	-0.078	0.032
-160.764	-39.572	0.197	-0.102
-159.750	191.208	-0.120	-0.178
-158.735	-200.000	-0.007	-0.162
-157.720	17.572	0.075	-0.059
-156.706	-186.145	0.264	-0.004
-155.691	-66.684	0.105	-0.041
-154.677	-81.503	0.071	0.023
-153.662	18.533	0.160	0.126
-152.647	158.106	-0.167	-0.228
-151.633	-200.000	-0.019	0.118
-150.618	-85.253	0.216	0.066
-149.604	124.870	0.090	-0.112
-148.589	-60.787	-0.308	-0.129
-147.574	111.040	0.048	-0.056
-146.560	-116.674	0.435	0.079
-145.545	454.720	-0.115	0.252
-144.531	89.881	-0.030	0.033
-143.516	-200.000	0.048	-0.227
-142.502	485.957	-0.228	-0.512
-141.487	-200.000	-0.059	0.268
-140.472	-58.254	-0.063	-0.027
-139.458	-128.872	0.240	0.033
-138.443	-200.000	0.018	0.084
-137.429	171.986	-0.086	0.122
-136.414	-130.502	-0.495	0.066
-135.399	-76.359	0.147	-0.051
-134.385	96.908	-0.175	0.198
-133.370	260.530	0.232	0.395
-132.356	68.304	-0.128	-0.129
-131.341	-92.638	0.157	-0.043
-130.326	-65.946	-0.425	0.167
-129.312	301.172	0.168	-0.306
-128.297	-176.799	-0.043	0.001
-127.283	459.565	-0.119	-0.260
-126.268	-200.000	-0.010	-0.148
-125.253	-200.000	-0.003	0.410
-124.239	-200.000	-0.044	0.217
-123.224	-79.935	0.062	0.021
-122.210	56.771	0.141	-0.135
