DTS Sentinel unit serial number:	SN413079Multiplexer serial number:	ORYXHardware model number:	OX4-SRSoftware version number:	ORYX F/W v4.00 Oryx Data Collector v3.7.2.0data status	okinstallation	princeton_trtdifferential loss correction	single-endedforward channel	channel 3reverse channel	N/Adate	2019/09/12time	07:34:10forward acquisition time	60.00reverse acquisition time	0.00gamma	496.2192k internal	0.2316k external	0.2316temperature offset calibration	1.0032default loss term (dB/km)	0.3790temperature slope calibration	1.0000multiplexer offset coefficient	1.0000multiplexer slope coefficient	1.0000fibre end	0.00T internal ref (°C)	32.56T ext. ref 1 (°C)	1.63T ext. ref 2 (°C)	29.16length (m)	temperature (°C)	Stokes	anti-Stokes-747.200	-159.887	-0.381	-0.021
-746.185	191.586	-0.110	0.168
-745.171	357.341	0.085	0.171
-744.156	44.531	-0.188	0.175
-743.142	124.889	-0.031	0.040
-742.127	100.762	-0.047	0.056
-741.112	-79.932	-0.296	-0.101
-740.098	800.000	-0.097	0.306
-739.083	56.794	0.161	0.159
-738.069	170.561	-0.181	0.262
-737.054	-76.651	-0.056	0.020
-736.039	2.402	-0.240	-0.176
-735.025	-74.876	0.489	-0.178
-734.010	-44.108	-0.411	-0.209
-732.996	800.000	-0.088	-0.254
-731.981	11.323	0.323	0.250
-730.966	102.014	-0.132	-0.156
-729.952	56.057	-0.154	-0.152
-728.937	63.558	0.055	0.056
-727.923	-56.098	-0.172	-0.078
-726.908	160.235	0.133	0.188
-725.894	-199.879	-0.287	0.001
-724.879	-71.651	-0.131	-0.050
-723.864	-200.000	-0.028	0.149
-722.850	190.895	0.099	0.151
-721.835	-200.000	0.012	0.194
-720.821	378.517	-0.082	0.171
-719.806	29.018	0.173	0.149
-718.791	173.292	0.208	-0.303
-717.777	89.628	-0.077	-0.087
-716.762	-16.297	0.218	-0.140
-715.748	-200.000	0.009	-0.094
-714.733	117.027	0.114	0.142
-713.718	279.378	-0.233	0.420
-712.704	-51.257	-0.292	0.138
-711.689	-125.146	-0.116	-0.018
-710.675	-99.246	0.250	0.064
-709.660	87.181	-0.108	-0.120
-708.645	323.252	0.119	0.230
-707.631	-117.742	0.283	0.051
-706.616	15.854	-0.131	-0.105
-705.602	-200.000	0.022	0.202
-704.587	-27.890	-0.107	0.063
-703.572	125.796	0.141	-0.180
-702.558	-133.820	-0.098	0.012
-701.543	12.681	0.133	-0.104
-700.529	-16.473	0.202	-0.129
-699.514	137.911	-0.222	-0.294
-698.499	-77.412	0.305	-0.107
-697.485	-115.306	0.401	0.077
-696.470	228.552	0.085	-0.141
-695.456	800.000	0.042	0.165
-694.441	-127.909	-0.367	0.053
-693.426	-38.172	0.096	-0.052
-692.412	-91.841	-0.242	-0.069
-691.397	140.178	-0.107	0.143
-690.383	-200.000	0.032	-0.211
-689.368	357.857	0.079	-0.159
-688.354	800.000	-0.126	-0.547
-687.339	-98.932	-0.033	0.008
-686.324	-200.000	0.032	-0.141
-685.310	-200.000	0.039	0.210
-684.295	185.049	0.208	0.312
-683.281	800.000	0.017	-0.051
-682.266	451.854	0.090	-0.200
-681.251	-159.003	-0.122	-0.007
-680.237	-107.746	0.100	-0.022
-679.222	500.274	0.126	-0.294
-678.208	-200.000	-0.014	-0.458
-677.193	-200.000	-0.001	-0.148
-676.178	-11.189	-0.252	-0.168
-675.164	374.333	-0.079	-0.163
-674.149	-68.500	0.243	0.095
-673.135	-111.407	-0.392	-0.081
-672.120	-156.192	-0.064	-0.004
-671.105	-8.781	-0.157	-0.106
-670.091	182.634	-0.266	0.397
-669.076	-43.647	0.170	0.086
-668.062	219.006	0.102	0.165
-667.047	8.814	-0.172	-0.131
-666.032	-91.923	-0.016	0.005
-665.018	-200.000	0.015	0.395
-664.003	-200.000	0.022	0.459
-662.989	50.422	-0.243	0.232
-661.974	1.689	0.083	0.060
-660.959	-200.000	-0.043	0.260
-659.945	219.927	0.049	-0.079
-658.930	-34.720	0.070	0.039
-657.916	-107.695	0.245	-0.054
-656.901	351.497	-0.067	-0.133
-655.886	141.560	-0.233	0.311
-654.872	23.583	-0.085	0.070
-653.857	-200.000	0.029	-0.230
-652.843	2.864	0.233	0.171
-651.828	-79.369	0.208	0.071
-650.814	-46.164	-0.111	0.055
-649.799	-200.000	0.018	0.189
-648.784	-84.701	0.145	-0.046
-647.770	800.000	0.031	0.132
-646.755	420.807	-0.077	-0.166
-645.741	183.984	-0.054	0.080
-644.726	-200.000	-0.008	-0.134
-643.711	-65.925	0.087	-0.035
-642.697	392.226	0.098	0.204
-641.682	-141.533	0.292	-0.030
-640.668	-200.000	-0.088	-0.393
-639.653	109.599	-0.180	0.217
-638.638	292.239	0.225	0.413
-637.624	-200.000	-0.006	-0.069
-636.609	-114.755	0.079	-0.015
-635.595	-200.000	-0.006	0.140
-634.580	-30.711	0.191	0.109
-633.565	-147.726	-0.143	-0.012
-632.551	191.078	0.183	-0.278
-631.536	-12.627	-0.239	0.157
-630.522	82.344	-0.214	-0.234
-629.507	-200.000	-0.030	-0.265
-628.492	-46.218	0.151	0.075
-627.478	120.974	-0.091	0.114
-626.463	-200.000	0.002	0.665
-625.449	-9.365	-0.396	0.267
-624.434	26.335	0.136	-0.115
-623.419	-200.000	-0.023	0.169
-622.405	4.396	-0.160	-0.119
-621.390	-97.539	-0.157	0.041
-620.376	-123.024	0.382	0.062
-619.361	-200.000	-0.048	0.366
-618.346	333.904	-0.168	-0.328
-617.332	-40.322	0.156	-0.082
-616.317	-44.167	-0.156	-0.079
-615.303	-120.505	0.234	0.040
-614.288	197.608	0.194	-0.299
-613.273	-107.444	-0.266	-0.059
-612.259	337.127	-0.059	-0.115
-611.244	-91.601	-0.416	-0.119
-610.230	-14.567	0.212	-0.137
-609.215	-200.000	-0.004	-0.241
-608.201	381.667	0.086	-0.178
-607.186	-138.938	0.188	0.021
-606.171	-200.000	-0.053	-0.304
-605.157	-200.000	-0.009	0.123
-604.142	132.967	0.204	-0.265
-603.128	73.902	-0.221	-0.234
-602.113	-0.023	0.203	-0.146
-601.098	25.963	-0.287	0.241
-600.084	4.979	0.238	-0.176
-599.069	-200.000	-0.093	0.000
-598.055	-72.849	0.318	0.118
-597.040	-55.332	-0.175	0.079
-596.025	66.789	-0.076	-0.078
-595.011	223.043	0.099	0.160
-593.996	-63.867	0.148	0.061
-592.982	144.317	-0.110	-0.147
-591.967	-91.042	-0.227	-0.066
-590.952	-126.692	0.239	0.036
-589.938	790.489	-0.075	0.207
-588.923	-116.983	0.247	-0.045
-587.909	84.484	-0.182	-0.201
-586.894	-36.610	-0.089	-0.048
-585.879	800.000	-0.021	0.063
-584.865	-86.802	-0.155	-0.048
-583.850	-144.146	0.159	0.015
-582.836	28.094	0.221	-0.188
-581.821	10.623	-0.120	0.092
-580.806	0.754	0.159	-0.115
-579.792	89.864	0.162	-0.182
-578.777	-30.604	-0.377	-0.215
-577.763	64.715	-0.096	-0.097
-576.748	-200.000	-0.050	0.239
-575.733	106.127	-0.129	-0.154
-574.719	-142.646	0.084	-0.008
-573.704	-200.000	0.031	0.169
-572.690	43.505	-0.165	0.152
-571.675	-200.000	0.019	0.102
-570.661	107.501	-0.075	0.090
-569.646	131.853	0.079	0.102
-568.631	-19.596	0.366	-0.228
-567.617	663.049	0.082	-0.214
-566.602	-200.000	-0.006	-0.042
-565.588	-90.552	0.070	0.020
-564.573	-136.904	-0.067	0.008
-563.558	-16.752	0.080	-0.051
-562.544	163.474	0.217	0.306
-561.529	-66.418	-0.074	-0.030
-560.515	-22.129	-0.275	-0.168
-559.500	300.668	-0.148	0.274
-558.485	-52.219	-0.295	-0.137
-557.471	-1.630	-0.105	-0.074
-556.456	35.906	-0.209	-0.185
-555.442	-153.897	-0.274	0.019
-554.427	192.365	-0.124	-0.188
-553.412	159.756	0.151	-0.211
-552.398	28.210	0.183	-0.156
-551.383	272.630	-0.118	-0.210
-550.369	-200.000	-0.009	-0.158
-549.354	-41.785	-0.240	-0.124
-548.339	130.358	-0.184	-0.237
-547.325	-14.296	0.411	-0.266
-546.310	-31.885	0.140	0.079
-545.296	-153.394	0.265	0.019
-544.281	-89.707	0.152	-0.045
-543.266	800.000	0.020	-0.064
-542.252	-70.335	-0.174	-0.066
-541.237	-137.574	0.142	0.016
-540.223	198.706	0.037	-0.057
-539.208	220.417	-0.056	-0.089
-538.193	-38.830	-0.198	0.105
-537.179	-182.336	-0.078	0.001
-536.164	800.000	0.035	0.111
-535.150	-200.000	-0.037	0.336
-534.135	-146.001	0.141	0.013
-533.121	-148.745	0.270	-0.022
-532.106	136.800	-0.123	0.161
-531.091	-94.211	-0.164	-0.045
-530.077	599.975	-0.028	-0.070
-529.062	-40.279	0.234	0.122
-528.048	181.618	-0.084	0.124
-527.033	-16.058	-0.119	-0.076
-526.018	133.277	-0.180	0.234
-525.004	35.986	-0.132	0.117
-523.989	-200.000	-0.014	0.248
-522.975	800.000	0.085	0.289
-521.960	81.290	0.224	-0.243
-520.945	-124.064	-0.035	0.005
-519.931	-98.530	-0.140	0.036
-518.916	-148.246	0.305	-0.025
-517.902	136.131	0.137	-0.179
-516.887	-200.000	0.013	-0.081
-515.872	540.233	-0.053	0.126
-514.858	800.000	-0.024	-0.075
-513.843	-18.717	-0.308	-0.193
-512.829	542.062	0.068	0.162
-511.814	-200.000	-0.034	-0.165
-510.799	-200.000	0.034	0.199
-509.785	115.846	0.206	-0.253
-508.770	-117.246	0.384	0.070
-507.756	800.000	0.116	0.359
-506.741	-59.336	0.184	-0.079
-505.726	800.000	-0.118	0.494
-504.712	21.493	0.373	-0.305
-503.697	-79.899	0.161	0.054
-502.683	117.529	-0.209	0.258
-501.668	107.764	-0.090	0.107
-500.653	-200.000	0.007	-0.065
-499.639	800.000	-0.079	0.319
-498.624	-200.000	0.013	0.092
-497.610	-46.815	0.509	0.250
-496.595	432.986	-0.097	0.212
-495.581	179.443	0.216	0.317
-494.566	-200.000	0.002	0.062
-493.551	-88.585	0.159	0.048
-492.537	-150.994	0.161	-0.012
-491.522	404.403	-0.067	0.142
-490.508	582.038	0.164	0.403
-489.493	122.807	0.294	0.369
-488.478	-61.379	-0.195	0.082
-487.464	-47.410	-0.129	-0.063
-486.449	36.766	0.090	-0.080
-485.435	-133.307	0.221	-0.028
-484.420	195.447	-0.161	0.246
-483.405	5.392	0.140	0.103
-482.391	170.357	-0.078	0.112
-481.376	204.879	-0.068	0.106
-480.362	16.769	-0.046	0.037
-479.347	-164.856	-0.259	0.012
-478.332	459.383	0.054	0.120
-477.318	195.419	-0.212	0.323
-476.303	-129.770	-0.313	-0.043
-475.289	141.284	-0.121	-0.160
-474.274	-35.266	-0.304	-0.166
-473.259	14.757	0.269	-0.211
-472.245	-156.295	0.192	-0.012
-471.230	100.786	0.154	-0.180
-470.216	73.864	-0.195	-0.205
-469.201	-27.162	-0.150	0.088
-468.186	-200.000	-0.013	0.142
-467.172	14.272	0.366	-0.286
-466.157	-102.164	-0.336	0.081
-465.143	107.347	0.015	-0.018
-464.128	-85.418	-0.527	-0.164
-463.113	143.765	-0.252	0.337
-462.099	-200.000	-0.003	0.294
-461.084	-161.646	0.059	0.003
-460.070	-12.696	-0.248	-0.162
-459.055	-200.000	-0.031	-0.166
-458.040	-200.000	-0.051	-0.284
-457.026	40.306	0.180	-0.162
-456.011	476.920	0.162	0.367
-454.997	-200.000	-0.071	-0.335
-453.982	800.000	0.043	-0.128
-452.968	-200.000	-0.019	0.234
-451.953	800.000	-0.082	-0.252
-450.938	-16.173	-0.292	0.186
-449.924	2.435	0.189	-0.137
-448.909	127.285	-0.111	0.141
-447.895	-102.399	-0.136	0.033
-446.880	-81.792	-0.081	-0.027
-445.865	4.471	-0.068	0.050
-444.851	9.179	0.145	-0.110
-443.836	250.842	0.094	0.159
-442.822	169.967	0.050	-0.071
-441.807	371.053	-0.140	-0.283
-440.792	-200.000	-0.008	-0.108
-439.778	-191.016	-0.424	0.004
-438.763	102.709	0.197	-0.231
-437.749	800.000	-0.065	-0.196
-436.734	-23.996	-0.180	-0.108
-435.719	-109.285	-0.169	-0.036
-434.705	259.743	0.091	-0.157
-433.690	11.694	-0.071	-0.055
-432.676	133.804	0.174	0.226
-431.661	800.000	0.040	0.154
-430.646	53.420	-0.018	-0.017
-429.632	-107.264	-0.264	-0.058
-428.617	-112.362	-0.167	0.033
-427.603	134.211	-0.074	0.096
-426.588	154.652	0.161	-0.222
-425.573	-78.602	0.142	-0.049
-424.559	-200.000	-0.013	0.112
-423.544	29.151	-0.111	-0.094
-422.530	-11.966	-0.129	0.085
-421.515	-120.630	0.421	0.071
-420.500	-43.275	-0.370	0.187
-419.486	46.165	0.206	-0.191
-418.471	138.116	0.173	0.226
-417.457	-200.000	-0.044	0.198
-416.442	107.557	-0.164	-0.195
-415.428	800.000	-0.052	-0.174
-414.413	77.940	0.135	-0.144
-413.398	-72.821	-0.144	0.053
-412.384	-51.193	0.296	-0.139
-411.369	485.748	-0.067	0.152
-410.355	-66.193	-0.069	-0.028
-409.340	417.318	0.024	-0.052
-408.325	-114.138	-0.324	-0.063
-407.311	279.414	-0.122	-0.218
-406.296	162.646	0.057	0.080
-405.282	248.007	0.107	-0.181
-404.267	-111.475	-0.304	0.062
-403.252	66.853	0.073	-0.074
-402.238	494.486	0.135	0.309
-401.223	800.000	-0.017	-0.058
-400.209	-64.363	0.191	-0.078
-399.194	386.613	0.079	-0.163
-398.179	-106.862	0.233	0.052
-397.165	774.222	0.092	0.252
-396.150	800.000	0.083	0.248
-395.136	83.875	0.164	0.179
-394.121	-200.000	-0.012	-0.065
-393.106	442.953	0.139	0.305
-392.092	-28.384	0.088	-0.051
-391.077	-81.067	-0.442	-0.146
-390.063	800.000	-0.140	0.398
-389.048	211.509	-0.116	0.183
-388.033	-85.853	0.191	-0.059
-387.019	-200.000	0.010	-0.288
-386.004	103.792	0.087	-0.102
-384.990	-200.000	-0.000	0.146
-383.975	-200.000	-0.039	-0.216
-382.960	98.971	-0.164	0.189
-381.946	114.354	-0.055	0.067
-380.931	30.114	-0.121	0.103
-379.917	29.743	0.079	-0.067
-378.902	800.000	-0.070	0.205
-377.888	800.000	0.046	-0.183
-376.873	232.154	-0.157	-0.258
-375.858	164.848	-0.102	0.143
-374.844	259.279	0.127	0.219
-373.829	365.099	0.128	-0.258
-372.815	-200.000	0.004	0.183
-371.800	405.599	0.136	0.286
-370.785	155.228	-0.101	-0.139
-369.771	-200.000	0.013	-0.141
-368.756	161.240	0.262	-0.366
-367.742	-34.898	0.373	0.203
-366.727	7.885	-0.326	0.244
-365.712	-200.000	0.066	-0.483
-364.698	545.904	-0.050	-0.120
-363.683	-0.043	0.037	0.027
-362.669	-200.000	0.020	-0.132
-361.654	-117.673	-0.110	-0.020
-360.639	-118.572	0.209	-0.037
-359.625	-132.834	0.175	-0.022
-358.610	308.065	-0.127	-0.236
-357.596	-2.240	-0.487	-0.341
-356.581	-168.791	-0.300	-0.011
-355.566	19.005	0.257	-0.205
-354.552	118.228	0.218	-0.268
-353.537	217.852	0.057	0.090
-352.523	-82.467	-0.208	-0.067
-351.508	-133.780	-0.400	0.050
-350.493	-57.613	0.346	0.151
-349.479	-200.000	-0.057	-0.261
-348.464	236.546	0.109	0.180
-347.450	-15.311	0.282	-0.180
-346.435	579.800	0.035	0.085
-345.420	33.642	0.150	-0.130
-344.406	-200.000	0.201	0.000
-343.391	38.388	-0.070	-0.063
-342.377	10.598	-0.270	-0.205
-341.362	-22.638	-0.138	-0.083
-340.348	307.329	0.125	0.232
-339.333	-200.000	0.006	0.054
-338.318	-91.604	0.153	-0.043
-337.304	800.000	0.092	-0.354
-336.289	314.074	-0.116	-0.217
-335.275	35.665	0.151	-0.133
-334.260	89.225	0.033	0.036
-333.245	-35.282	-0.335	0.182
-332.231	-200.000	0.033	-0.156
-331.216	-83.526	-0.321	-0.102
-330.202	-113.484	0.218	0.043
-329.187	315.729	0.095	0.178
-328.172	-72.348	-0.127	0.047
-327.158	743.126	0.068	-0.183
-326.143	-58.625	0.154	0.066
-325.129	99.714	-0.135	0.156
-324.114	-72.411	-0.097	0.036
-323.099	277.079	0.077	-0.136
-322.085	-41.637	-0.212	-0.109
-321.070	-57.431	-0.339	-0.148
-320.056	619.789	-0.097	-0.243
-319.041	-108.717	0.133	0.028
-318.026	704.350	-0.011	-0.029
-317.012	-200.000	0.025	0.177
-315.997	800.000	-0.084	0.235
-314.983	-45.888	-0.321	-0.158
-313.968	-116.881	-0.086	-0.016
-312.953	-200.000	0.001	-0.682
-311.939	-73.588	0.205	-0.074
-310.924	43.092	0.160	-0.146
-309.910	-200.000	-0.025	-0.209
-308.895	-200.000	0.005	0.051
-307.880	262.314	0.091	0.158
-306.866	-88.957	0.196	-0.058
-305.851	-200.000	0.021	-0.098
-304.837	800.000	0.087	-0.245
-303.822	-88.373	0.200	0.059
-302.807	-40.230	-0.062	0.032
-301.793	-87.018	0.114	-0.034
-300.778	-99.959	0.046	-0.012
-299.764	-133.436	-0.569	0.071
-298.749	-24.097	-0.022	0.013
-297.735	-200.000	-0.076	-0.343
-296.720	-22.049	0.363	-0.219
-295.705	-200.000	0.033	-0.190
-294.691	310.983	-0.090	0.167
-293.676	45.140	-0.245	0.224
-292.662	53.324	-0.276	0.263
-291.647	-2.060	-0.015	0.010
-290.632	800.000	0.068	0.277
-289.618	93.626	-0.249	-0.280
-288.603	-68.938	0.113	-0.043
-287.589	2.356	-0.120	-0.086
-286.574	-200.000	0.042	-0.189
-285.559	-45.227	0.358	-0.177
-284.545	290.642	-0.110	0.199
-283.530	97.663	0.266	0.304
-282.516	-104.215	-0.397	0.092
-281.501	708.500	-0.105	0.276
-280.486	218.016	0.100	0.159
-279.472	23.645	-0.068	-0.056
-278.457	100.575	0.227	-0.262
-277.443	-32.662	0.076	0.042
-276.428	14.745	0.214	-0.166
-275.413	404.509	0.143	0.300
-274.399	-143.341	-0.177	-0.017
-273.384	60.636	0.248	0.245
-272.370	151.916	-0.187	-0.253
-271.355	639.560	-0.048	-0.122
-270.340	-157.487	-0.167	0.010
-269.326	-103.142	-0.241	0.057
-268.311	-126.340	0.175	0.026
-267.297	-200.000	0.028	0.269
-266.282	253.634	0.212	0.361
-265.267	132.867	0.055	-0.070
-264.253	-59.519	0.154	0.066
-263.238	282.892	0.065	0.117
-262.224	-63.661	0.355	-0.145
-261.209	-34.761	-0.147	-0.080
-260.195	43.084	0.167	-0.151
-259.180	-44.245	0.181	-0.090
-258.165	-131.884	-0.366	-0.048
-257.151	408.137	-0.116	-0.243
-256.136	-91.803	0.212	-0.060
-255.122	-73.184	-0.172	-0.063
-254.107	159.136	-0.279	-0.386
-253.092	381.042	-0.062	-0.127
-252.078	-60.343	0.209	-0.088
-251.063	-98.822	0.368	0.093
-250.049	213.740	-0.135	-0.213
-249.034	98.744	0.039	0.044
-248.019	44.328	0.091	0.083
-247.005	800.000	-0.087	-0.311
-245.990	-200.000	0.006	-0.161
-244.976	630.103	-0.192	0.483
-243.961	337.161	0.071	0.137
-242.946	60.467	0.190	-0.187
-241.932	-200.000	-0.017	-0.098
-240.917	-200.000	0.037	-0.211
-239.903	-200.000	-0.022	0.192
-238.888	245.784	-0.143	0.240
-237.873	-20.995	0.136	-0.083
-236.859	-200.000	-0.067	-0.339
-235.844	19.823	-0.183	0.146
-234.830	41.739	-0.076	-0.068
-233.815	-115.709	0.301	-0.056
-232.800	-200.000	0.015	-0.070
-231.786	-102.708	0.313	-0.074
-230.771	-85.909	0.199	0.061
-229.757	-1.179	-0.188	0.132
-228.742	61.999	-0.074	-0.073
-227.727	-4.464	0.133	-0.091
-226.713	-150.817	-0.063	-0.005
-225.698	-22.690	0.103	-0.062
-224.684	-200.000	-0.066	0.509
-223.669	87.975	0.157	-0.173
-222.655	139.695	-0.036	0.048
-221.640	-200.000	0.017	0.111
-220.625	7.097	0.245	0.181
-219.611	-120.429	-0.393	0.066
-218.596	-200.000	0.003	0.245
-217.582	-132.485	0.216	0.028
-216.567	-151.724	0.193	0.014
-215.552	-200.000	0.023	0.188
-214.538	-200.000	0.010	0.111
-213.523	-142.748	0.185	0.018
-212.509	-200.000	0.022	0.110
-211.494	-90.075	-0.212	0.061
-210.479	674.911	0.151	-0.388
-209.465	-200.000	-0.001	-0.028
-208.450	161.816	-0.176	0.245
-207.436	800.000	0.060	-0.182
-206.421	56.732	0.072	0.070
-205.406	-156.636	0.185	-0.011
-204.392	-140.850	-0.311	-0.032
-203.377	-200.000	0.003	0.082
-202.363	-66.244	0.069	0.027
-201.348	800.000	0.061	-0.234
-200.333	-52.340	-0.464	0.213
-199.319	6.194	-0.265	0.195
-198.304	-69.094	0.468	0.179
-197.290	-62.100	-0.195	0.081
-196.275	51.880	-0.246	-0.232
-195.260	800.000	0.086	0.345
-194.246	-86.631	-0.252	-0.076
-193.231	-32.939	-0.275	-0.151
-192.217	323.772	0.160	0.303
-191.202	422.230	-0.126	0.268
-190.187	-200.000	-0.029	-0.144
-189.173	800.000	-0.098	0.400
-188.158	-200.000	0.041	-0.193
-187.144	-20.991	-0.304	0.185
-186.129	-31.260	-0.152	0.085
-185.114	-200.000	0.016	0.076
-184.100	31.413	-0.220	0.187
-183.085	-2.149	0.246	0.171
-182.071	751.426	0.006	0.016
-181.056	-38.231	-0.108	-0.057
-180.042	-78.833	0.056	-0.019
-179.027	-68.809	0.116	-0.045
-178.012	-92.585	0.106	0.029
-176.998	559.755	0.098	-0.235
-175.983	-6.879	-0.170	0.114
-174.969	-148.757	0.316	0.025
-173.954	-40.979	0.489	0.250
-172.939	78.588	0.059	-0.062
-171.925	-200.000	0.088	-0.000
-170.910	-65.601	0.065	0.026
-169.896	-200.000	0.061	0.374
-168.881	-200.000	-0.002	0.041
-167.866	58.615	0.120	-0.117
-166.852	-66.859	0.541	-0.212
-165.837	-135.874	0.208	-0.024
-164.823	-108.255	0.259	0.056
-163.808	-24.671	-0.451	0.265
-162.793	800.000	0.044	0.140
-161.779	-1.916	-0.489	0.341
-160.764	-200.000	-0.026	0.195
-159.750	292.460	0.105	0.189
-158.735	-167.476	-0.286	0.011
-157.720	-98.424	-0.129	0.033
-156.706	89.817	-0.218	0.241
-155.691	-50.021	0.294	-0.138
-154.677	-11.691	-0.072	-0.047
-153.662	239.541	0.080	0.133
-152.647	-56.233	-0.111	-0.049
-151.633	800.000	0.067	-0.226
-150.618	-52.627	0.396	-0.181
-149.604	-60.463	0.125	-0.053
-148.589	800.000	-0.035	-0.101
-147.574	250.544	-0.092	-0.154
-146.560	116.796	-0.180	0.218
-145.545	-7.682	-0.237	0.158
-144.531	-67.038	-0.245	-0.096
-143.516	181.837	-0.156	0.228
-142.502	-200.000	0.034	0.174
-141.487	-119.562	-0.158	-0.027
-140.472	419.558	-0.037	0.078
-139.458	27.424	-0.174	-0.144
-138.443	325.155	0.154	-0.291
-137.429	402.813	-0.032	-0.067
-136.414	-99.771	0.206	0.051
-135.399	374.531	-0.118	-0.238
-134.385	-4.602	0.193	0.132
-133.370	593.327	-0.039	0.095
-132.356	-78.205	0.261	-0.089
-131.341	1.047	0.184	-0.130
-130.326	-127.608	-0.168	0.024
-129.312	131.469	0.081	0.102
-128.297	800.000	0.038	-0.121
-127.283	-104.416	-0.151	0.035
-126.268	-7.250	0.074	0.049
-125.253	-141.437	0.212	0.021
-124.239	-115.602	0.241	0.045
-123.224	244.481	-0.106	0.176
-122.210	191.148	-0.077	0.115
-121.195	-109.122	0.258	-0.054
