DTS Sentinel unit serial number:	SN413079Multiplexer serial number:	ORYXHardware model number:	OX4-SRSoftware version number:	ORYX F/W v4.00 Oryx Data Collector v3.7.2.0data status	okinstallation	princeton_trtdifferential loss correction	single-endedforward channel	channel 3reverse channel	N/Adate	2019/09/15time	18:00:35forward acquisition time	60.00reverse acquisition time	0.00gamma	496.2192k internal	0.2286k external	0.2286temperature offset calibration	0.9928default loss term (dB/km)	0.3790temperature slope calibration	1.0000multiplexer offset coefficient	1.0000multiplexer slope coefficient	1.0000fibre end	0.00T internal ref (°C)	44.75T ext. ref 1 (°C)	6.45T ext. ref 2 (°C)	39.19length (m)	temperature (°C)	Stokes	anti-Stokes-747.200	-50.432	0.222	0.108
-746.185	149.082	-0.170	0.236
-745.171	-96.412	0.103	-0.028
-744.156	54.180	-0.029	0.028
-743.142	-111.519	-0.047	-0.010
-742.127	39.022	-0.021	0.019
-741.112	156.783	-0.137	-0.194
-740.098	-200.000	-0.006	0.270
-739.083	800.000	-0.156	0.587
-738.069	-29.435	-0.273	0.160
-737.054	-105.927	-0.122	-0.028
-736.039	-87.114	0.192	-0.060
-735.025	-200.000	-0.019	0.180
-734.010	17.240	0.055	-0.045
-732.996	800.000	0.081	-0.284
-731.981	-40.957	-0.171	-0.090
-730.966	-200.000	0.207	-0.001
-729.952	-116.563	0.029	0.005
-728.937	111.061	0.081	0.100
-727.923	284.478	0.087	-0.161
-726.908	1.416	0.017	-0.013
-725.894	-59.733	-0.147	0.065
-724.879	-128.164	0.502	-0.074
-723.864	235.520	-0.020	-0.034
-722.850	-79.335	-0.346	-0.120
-721.835	-72.929	-0.157	0.059
-720.821	101.715	-0.096	-0.114
-719.806	5.542	-0.370	-0.280
-718.791	-100.554	0.094	0.024
-717.777	12.685	-0.069	0.055
-716.762	-200.000	0.014	-0.093
-715.748	-200.000	-0.075	-0.493
-714.733	242.238	0.074	-0.126
-713.718	-200.000	-0.014	-0.221
-712.704	369.269	0.163	-0.337
-711.689	174.775	0.148	-0.219
-710.675	561.541	0.053	-0.132
-709.660	-200.000	0.001	0.126
-708.645	-100.833	-0.304	-0.077
-707.631	598.549	0.060	0.152
-706.616	-56.615	-0.153	0.070
-705.602	183.094	-0.095	0.144
-704.587	-45.969	0.258	0.131
-703.572	136.602	0.174	-0.233
-702.558	279.960	-0.106	-0.194
-701.543	-39.425	-0.217	0.116
-700.529	-72.719	-0.179	0.068
-699.514	-90.119	0.203	0.061
-698.499	-39.710	0.130	0.070
-697.485	-108.713	-0.105	0.023
-696.470	-86.119	-0.138	-0.044
-695.456	-141.122	-0.128	-0.013
-694.441	-74.343	-0.111	0.041
-693.426	-0.725	0.198	-0.144
-692.412	-152.541	-0.118	-0.009
-691.397	-200.000	-0.006	0.163
-690.383	301.415	-0.013	0.024
-689.368	-93.523	0.317	-0.090
-688.354	-127.508	0.141	-0.021
-687.339	292.667	-0.107	-0.201
-686.324	-167.082	-0.109	0.005
-685.310	19.232	-0.003	0.002
-684.295	-8.929	0.179	-0.123
-683.281	-164.500	-0.341	-0.016
-682.266	800.000	-0.033	-0.115
-681.251	-176.682	-0.369	-0.010
-680.237	-110.752	-0.380	-0.080
-679.222	127.121	-0.073	0.095
-678.208	1.278	0.201	-0.147
-677.193	-200.000	-0.010	-0.215
-676.178	573.533	0.080	-0.199
-675.164	-200.000	0.000	-0.055
-674.149	237.354	-0.102	0.173
-673.135	800.000	0.102	-0.307
-672.120	800.000	-0.107	-0.310
-671.105	34.590	-0.273	-0.244
-670.091	90.899	0.051	0.059
-669.076	101.673	-0.194	-0.232
-668.062	242.380	0.148	-0.253
-667.047	69.054	0.128	-0.135
-666.032	98.449	-0.224	0.264
-665.018	800.000	0.068	0.233
-664.003	-4.626	-0.121	-0.085
-662.989	75.341	-0.076	0.082
-661.974	800.000	0.076	-0.338
-660.959	403.672	-0.144	-0.310
-659.945	339.425	0.219	-0.437
-658.930	-168.488	0.084	-0.003
-657.916	97.416	0.228	0.268
-656.901	-200.000	0.007	0.105
-655.886	800.000	-0.085	-0.313
-654.872	800.000	0.065	-0.212
-653.857	-65.373	-0.155	0.064
-652.843	-104.077	-0.162	-0.039
-651.828	83.593	-0.065	0.072
-650.814	-73.062	-0.298	0.112
-649.799	54.275	-0.150	-0.147
-648.784	-83.526	-0.164	0.054
-647.770	60.195	0.094	-0.095
-646.755	401.757	-0.165	-0.355
-645.741	135.640	0.065	-0.087
-644.726	-142.235	0.126	-0.013
-643.711	200.463	-0.102	0.161
-642.697	-133.856	-0.315	-0.040
-641.682	-194.377	0.134	-0.001
-640.668	118.648	-0.208	-0.263
-639.653	79.793	-0.181	-0.198
-638.638	-140.468	0.265	-0.028
-637.624	800.000	-0.046	-0.204
-636.609	73.846	0.099	-0.106
-635.595	-112.628	-0.325	-0.066
-634.580	28.434	-0.100	0.086
-633.565	-200.000	0.028	0.208
-632.551	47.895	0.226	0.216
-631.536	-102.614	0.114	-0.028
-630.522	297.626	-0.225	-0.423
-629.507	741.399	0.102	0.281
-628.492	-81.659	-0.142	-0.047
-627.478	-62.619	-0.395	0.167
-626.463	-98.006	-0.146	0.039
-625.449	34.187	-0.179	0.159
-624.434	800.000	0.024	0.081
-623.419	-200.000	0.052	-0.235
-622.405	-200.000	-0.002	-0.175
-621.390	159.910	-0.093	0.133
-620.376	39.967	-0.300	0.275
-619.361	-100.799	0.356	-0.089
-618.346	239.055	0.176	-0.300
-617.332	-45.405	-0.172	0.087
-616.317	-126.165	0.132	-0.020
-615.303	-35.712	-0.244	-0.135
-614.288	-69.324	0.180	0.071
-613.273	37.759	0.185	-0.167
-612.259	-78.592	0.277	0.097
-611.244	361.412	0.027	-0.055
-610.230	16.118	0.220	-0.177
-609.215	129.827	0.115	0.150
-608.201	178.844	0.063	0.094
-607.186	4.195	0.239	0.178
-606.171	-108.636	-0.070	-0.015
-605.157	-88.319	-0.314	-0.096
-604.142	192.783	-0.185	0.286
-603.128	-12.972	-0.115	0.076
-602.113	-103.144	0.296	-0.071
-601.098	36.465	0.094	-0.084
-600.084	788.084	0.071	0.200
-599.069	-200.000	-0.012	0.128
-598.055	96.392	-0.106	0.124
-597.040	-200.000	-0.015	-0.336
-596.025	57.150	0.229	-0.228
-595.011	113.119	0.048	0.059
-593.996	-98.067	-0.084	-0.022
-592.982	293.912	0.118	-0.219
-591.967	-41.393	-0.089	0.047
-590.952	406.665	-0.048	0.103
-589.938	-200.000	0.031	0.374
-588.923	-91.941	0.145	0.042
-587.909	-108.365	0.043	-0.009
-586.894	17.816	-0.267	-0.217
-585.879	-85.169	-0.297	-0.095
-584.865	-92.536	0.255	-0.073
-583.850	-69.708	0.043	-0.017
-582.836	800.000	-0.030	-0.086
-581.821	495.311	-0.132	0.309
-580.806	-200.000	-0.039	0.235
-579.792	13.477	0.208	-0.165
-578.777	360.350	0.077	-0.158
-577.763	-120.456	-0.296	-0.051
-576.748	-200.000	-0.059	-0.327
-575.733	-71.497	-0.438	0.167
-574.719	-130.596	0.391	-0.054
-573.704	-200.000	-0.009	-0.353
-572.690	-200.000	0.008	-0.095
-571.675	-200.000	0.018	-0.137
-570.661	-200.000	-0.069	0.313
-569.646	360.152	-0.154	-0.313
-568.631	55.882	-0.368	-0.363
-567.617	536.235	0.064	-0.154
-566.602	800.000	-0.066	-0.221
-565.588	-84.984	0.274	-0.088
-564.573	221.537	-0.039	-0.063
-563.558	-76.273	-0.203	-0.073
-562.544	-200.000	-0.005	0.402
-561.529	-127.189	-0.262	0.039
-560.515	-94.554	-0.281	-0.078
-559.500	308.593	0.090	-0.171
-558.485	-128.190	-0.238	0.035
-557.471	-200.000	-0.044	-0.196
-556.456	89.136	-0.214	-0.243
-555.442	-70.002	0.198	0.077
-554.427	7.190	-0.174	-0.132
-553.412	550.459	0.104	-0.254
-552.398	-52.776	-0.174	-0.082
-551.383	800.000	-0.062	-0.233
-550.369	-200.000	-0.002	-0.089
-549.354	800.000	-0.007	0.026
-548.339	800.000	0.053	-0.194
-547.325	-87.694	-0.255	0.078
-546.310	-144.317	0.151	0.014
-545.296	-23.006	-0.166	0.102
-544.281	800.000	0.030	0.103
-543.266	118.209	0.096	0.121
-542.252	-54.964	-0.204	0.094
-541.237	800.000	-0.077	0.333
-540.223	800.000	-0.019	-0.067
-539.208	248.982	0.039	0.068
-538.193	-45.271	0.117	0.059
-537.179	-25.873	-0.380	-0.228
-536.164	120.447	0.109	0.138
-535.150	-39.221	-0.046	0.025
-534.135	171.904	0.121	0.177
-533.121	-115.431	-0.299	0.057
-532.106	67.784	0.151	0.157
-531.091	179.184	-0.079	-0.118
-530.077	219.573	-0.063	0.103
-529.062	736.576	-0.151	0.412
-528.048	-200.000	0.025	0.183
-527.033	800.000	0.058	0.199
-526.018	-98.341	-0.368	-0.096
-525.004	57.768	0.169	-0.168
-523.989	-151.662	-0.141	-0.011
-522.975	368.913	0.038	-0.078
-521.960	-124.815	-0.390	-0.061
-520.945	-164.199	0.073	0.003
-519.931	-90.289	0.213	-0.063
-518.916	-99.163	0.205	0.053
-517.902	-200.000	0.048	0.259
-516.887	31.456	-0.058	0.051
-515.872	63.974	0.183	-0.187
-514.858	162.870	-0.178	-0.254
-513.843	-200.000	0.005	0.104
-512.829	800.000	0.121	0.488
-511.814	-78.354	-0.112	-0.039
-510.799	-200.000	-0.059	-0.304
-509.785	339.681	0.107	-0.212
-508.770	65.312	0.217	-0.223
-507.756	2.898	0.170	0.126
-506.741	70.103	0.103	0.108
-505.726	-70.401	0.262	0.101
-504.712	382.769	0.047	-0.099
-503.697	-0.763	-0.304	-0.219
-502.683	-118.144	0.098	0.018
-501.668	-111.073	-0.475	-0.099
-500.653	27.071	-0.034	0.029
-499.639	2.578	-0.162	-0.119
-498.624	114.480	0.265	-0.327
-497.610	-10.097	-0.196	0.133
-496.595	-200.000	0.037	0.169
-495.581	-167.493	-0.195	0.008
-494.566	-121.013	0.275	0.047
-493.551	35.546	0.211	0.188
-492.537	-139.739	-0.250	-0.027
-491.522	800.000	-0.020	0.079
-490.508	-200.000	0.010	-0.296
-489.493	-65.960	-0.115	0.047
-488.478	-200.000	-0.064	-0.290
-487.464	367.905	0.058	0.118
-486.449	34.260	-0.163	0.145
-485.435	-200.000	-0.017	-0.122
-484.420	9.230	0.148	0.114
-483.405	-91.976	0.130	-0.037
-482.391	14.969	0.110	-0.087
-481.376	326.784	-0.015	0.029
-480.362	-200.000	-0.024	-0.389
-479.347	-0.900	-0.106	-0.076
-478.332	539.485	0.144	0.349
-477.318	800.000	-0.063	0.178
-476.303	118.523	0.147	-0.184
-475.289	-200.000	-0.014	0.121
-474.274	-200.000	-0.021	0.128
-473.259	-125.442	-0.300	0.046
-472.245	800.000	-0.069	0.247
-471.230	-181.535	0.108	-0.002
-470.216	273.456	0.053	-0.096
-469.201	-5.331	-0.131	0.092
-468.186	-72.856	0.355	0.133
-467.172	19.425	0.210	0.171
-466.157	-60.149	-0.183	-0.079
-465.143	54.366	-0.111	0.109
-464.128	-200.000	0.018	0.155
-463.113	-24.970	-0.236	0.142
-462.099	108.537	0.204	0.247
-461.084	-75.026	-0.305	0.111
-460.070	-184.758	0.128	0.002
-459.055	-121.056	0.402	-0.068
-458.040	-200.000	-0.045	-0.313
-457.026	116.303	0.099	0.123
-456.011	-13.225	0.232	0.153
-454.997	-28.045	-0.140	-0.082
-453.982	90.379	-0.131	-0.149
-452.968	800.000	-0.077	-0.259
-451.953	62.447	0.105	0.106
-450.938	114.613	0.101	0.125
-449.924	-10.450	-0.367	0.247
-448.909	-200.000	-0.012	0.166
-447.895	-84.856	-0.240	-0.076
-446.880	286.197	0.098	-0.180
-445.865	-200.000	-0.362	-0.001
-444.851	-36.625	0.191	0.104
-443.836	54.432	-0.195	-0.191
-442.822	800.000	0.021	-0.065
-441.807	-148.214	0.290	0.024
-440.792	204.559	-0.136	-0.213
-439.778	86.648	-0.062	0.069
-438.763	43.486	0.274	-0.254
-437.749	-200.000	-0.023	-0.159
-436.734	573.085	0.197	-0.487
-435.719	-200.000	-0.044	-0.309
-434.705	-26.756	0.205	-0.121
-433.690	-126.533	0.256	0.039
-432.676	754.713	-0.060	0.164
-431.661	-200.000	0.003	-0.053
-430.646	800.000	-0.038	0.124
-429.632	14.197	-0.161	-0.127
-428.617	203.287	-0.078	0.122
-427.603	800.000	0.040	0.168
-426.588	-55.916	0.123	0.056
-425.573	38.323	-0.241	-0.218
-424.559	593.382	0.086	-0.216
-423.544	-200.000	0.000	-0.090
-422.530	-200.000	-0.028	0.182
-421.515	-200.000	0.032	-0.149
-420.500	-96.321	-0.363	-0.098
-419.486	-14.137	-0.306	0.200
-418.471	232.890	0.162	0.270
-417.457	259.106	-0.010	-0.018
-416.442	694.629	0.035	-0.094
-415.428	-200.000	0.013	0.128
-414.413	800.000	0.066	0.200
-413.398	65.376	-0.105	0.108
-412.384	-48.241	-0.049	-0.024
-411.369	-105.310	-0.256	0.059
-410.355	-200.000	0.036	0.219
-409.340	271.098	-0.086	0.153
-408.325	462.235	0.071	-0.160
-407.311	-34.763	0.353	0.195
-406.296	-102.999	-0.311	0.075
-405.282	160.356	-0.031	0.043
-404.267	233.866	0.274	-0.457
-403.252	-1.257	0.032	-0.023
-402.238	204.495	-0.239	0.375
-401.223	-184.439	0.098	0.002
-400.209	12.566	0.363	-0.284
-399.194	186.231	0.196	0.295
-398.179	-32.740	-0.241	0.135
-397.165	629.267	0.074	0.188
-396.150	-124.552	0.246	0.039
-395.136	10.796	-0.283	0.219
-394.121	240.666	-0.151	0.255
-393.106	-155.722	-0.217	-0.014
-392.092	125.466	0.223	-0.285
-391.077	78.249	0.125	-0.135
-390.063	-15.750	0.143	-0.092
-389.048	-129.258	0.227	-0.032
-388.033	518.796	0.106	0.251
-387.019	-200.000	-0.015	0.080
-386.004	238.418	0.214	0.360
-384.990	118.239	-0.037	0.046
-383.975	148.227	0.129	-0.177
-382.960	9.325	-0.260	-0.199
-381.946	-200.000	-0.002	-0.138
-380.931	800.000	-0.047	0.135
-379.917	-200.000	-0.047	-0.263
-378.902	16.072	-0.132	0.105
-377.888	-82.780	0.344	0.113
-376.873	800.000	-0.043	0.137
-375.858	-167.519	-0.281	0.011
-374.844	-160.020	0.196	0.011
-373.829	-200.000	-0.026	0.304
-372.815	430.973	-0.043	-0.094
-371.800	24.076	-0.141	0.117
-370.785	-73.868	-0.101	0.037
-369.771	-64.928	-0.467	-0.191
-368.756	147.429	0.110	-0.149
-367.742	-200.000	0.014	0.135
-366.727	-17.097	0.275	-0.176
-365.712	373.358	0.072	-0.148
-364.698	0.364	0.073	-0.053
-363.683	-30.216	-0.297	0.171
-362.669	-200.000	-0.074	0.380
-361.654	-184.735	-0.152	0.002
-360.639	-81.009	-0.155	0.052
-359.625	20.806	-0.146	0.120
-358.610	-134.060	-0.279	-0.035
-357.596	-60.374	0.325	-0.140
-356.581	66.493	0.246	-0.253
-355.566	-61.759	0.376	-0.159
-354.552	-23.341	0.119	0.072
-353.537	142.579	-0.148	-0.198
-352.523	68.685	-0.095	0.098
-351.508	514.843	0.166	-0.392
-350.493	-112.523	0.170	0.034
-349.479	-17.788	0.197	0.125
-348.464	-8.775	0.320	0.217
-347.450	45.399	0.116	0.108
-346.435	-200.000	0.038	0.311
-345.420	10.842	0.317	-0.245
-344.406	354.394	0.136	0.272
-343.391	-142.092	-0.075	0.007
-342.377	30.904	0.342	0.296
-341.362	-200.000	0.020	-0.118
-340.348	495.213	0.134	-0.312
-339.333	-200.000	0.094	-0.482
-338.318	-200.000	0.013	0.133
-337.304	-92.116	0.256	0.073
-336.289	516.408	-0.154	-0.365
-335.275	-200.000	-0.038	-0.252
-334.260	-49.262	-0.279	0.134
-333.245	-200.000	0.011	0.172
-332.231	549.475	0.104	-0.252
-331.216	527.743	-0.034	0.080
-330.202	-200.000	-0.003	-0.063
-329.187	152.171	0.217	-0.299
-328.172	-142.405	-0.254	0.025
-327.158	147.786	-0.108	0.147
-326.143	41.892	0.099	-0.091
-325.129	371.858	0.137	0.280
-324.114	-41.390	-0.197	0.102
-323.099	-100.446	-0.214	0.053
-322.085	35.110	0.039	0.035
-321.070	800.000	0.045	-0.150
-320.056	186.141	0.140	0.210
-319.041	800.000	-0.024	0.084
-318.026	-21.934	-0.346	0.212
-317.012	346.247	0.092	-0.183
-315.997	-82.895	0.290	0.095
-314.983	396.572	0.134	0.283
-313.968	-200.000	0.003	0.468
-312.953	153.591	0.210	0.290
-311.939	-200.000	-0.249	0.001
-310.924	-73.914	-0.087	0.032
-309.910	10.013	-0.469	-0.359
-308.895	-130.154	0.269	0.037
-307.880	556.300	0.084	0.203
-306.866	258.989	-0.120	0.209
-305.851	-200.000	0.021	-0.302
-304.837	38.943	0.135	-0.122
-303.822	202.901	-0.151	-0.235
-302.807	-82.455	0.348	0.114
-301.793	-82.503	-0.618	0.202
-300.778	-30.233	-0.122	0.070
-299.764	155.696	-0.206	0.287
-298.749	-68.794	-0.125	-0.049
-297.735	-37.103	0.135	-0.073
-296.720	27.670	0.063	0.053
-295.705	-68.776	-0.072	0.028
-294.691	16.027	0.370	0.294
-293.676	149.069	0.155	0.211
-292.662	-64.529	0.122	0.050
-291.647	800.000	-0.005	0.018
-290.632	-152.331	-0.270	-0.020
-289.618	-200.000	-0.004	-0.139
-288.603	-200.000	-0.045	0.233
-287.589	227.742	-0.041	0.067
-286.574	-40.113	-0.205	0.108
-285.559	-45.791	0.169	0.084
-284.545	38.175	-0.268	-0.240
-283.530	800.000	-0.025	0.078
-282.516	53.280	0.345	0.333
-281.501	-191.770	0.270	-0.003
-280.486	-155.503	0.300	0.020
-279.472	109.717	0.095	-0.115
-278.457	-200.000	0.012	-0.116
-277.443	270.732	0.060	0.106
-276.428	276.719	-0.207	0.371
-275.413	40.912	0.212	0.193
-274.399	-167.091	0.251	0.010
-273.384	-74.089	-0.245	0.089
-272.370	-130.697	-0.122	-0.017
-271.355	-90.529	-0.181	0.053
-270.340	-169.821	-0.219	0.008
-269.326	-93.241	-0.179	-0.050
-268.311	-200.000	-0.002	0.282
-267.297	-114.172	-0.306	0.060
-266.282	-31.129	0.135	0.077
-265.267	65.333	0.179	-0.182
-264.253	800.000	-0.036	-0.116
-263.238	-64.084	-0.102	0.042
-262.224	-101.362	-0.223	-0.055
-261.209	286.415	-0.092	-0.167
-260.195	43.340	-0.085	0.078
-259.180	800.000	-0.025	-0.099
-258.165	800.000	0.042	-0.142
-257.151	-200.000	0.015	0.148
-256.136	142.013	0.105	0.141
-255.122	-77.836	0.409	-0.142
-254.107	3.693	0.188	-0.138
-253.092	-157.365	-0.120	0.007
-252.078	-200.000	-0.003	-0.274
-251.063	800.000	0.021	0.064
-250.049	-103.547	0.199	0.047
-249.034	-200.000	0.006	-0.176
-248.019	-29.461	0.352	-0.203
-247.005	800.000	-0.082	-0.333
-245.990	800.000	0.034	0.109
-244.976	-200.000	-0.023	-0.242
-243.961	703.915	0.103	-0.274
-242.946	66.272	-0.051	0.052
-241.932	716.215	-0.059	-0.157
-240.917	418.465	0.105	-0.225
-239.903	20.350	0.058	-0.047
-238.888	-200.000	-0.045	-0.303
-237.873	800.000	-0.092	0.263
-236.859	60.351	0.283	0.281
-235.844	800.000	0.063	0.207
-234.830	327.799	0.109	0.210
-233.815	194.566	-0.054	0.083
-232.800	223.487	-0.061	0.099
-231.786	-200.000	-0.021	-0.203
-230.771	-108.968	0.190	0.041
-229.757	800.000	0.009	-0.032
-228.742	-200.000	0.031	0.247
-227.727	-138.599	-0.122	-0.013
-226.713	-54.458	0.501	0.228
-225.698	800.000	0.068	0.208
-224.684	33.301	0.094	0.082
-223.669	-153.784	-0.360	-0.025
-222.655	-154.326	0.140	-0.009
-221.640	-100.277	0.077	-0.019
-220.625	186.424	-0.027	0.040
-219.611	-147.194	0.188	0.016
-218.596	-40.591	-0.102	0.053
-217.582	800.000	-0.141	-0.485
-216.567	800.000	0.087	-0.337
-215.552	800.000	0.090	-0.304
-214.538	-145.483	0.164	-0.015
-213.523	617.502	0.151	-0.381
-212.509	420.669	0.118	-0.253
-211.494	20.994	-0.092	-0.075
-210.479	311.501	0.082	-0.155
-209.465	6.324	0.058	0.043
-208.450	-103.729	-0.287	-0.067
-207.436	-8.582	-0.199	0.134
-206.421	14.652	-0.211	-0.166
-205.406	-52.543	-0.265	0.123
-204.392	-54.990	0.092	0.042
-203.377	-77.161	-0.041	-0.014
-202.363	136.223	-0.089	-0.117
-201.348	32.274	-0.123	0.106
-200.333	-164.318	-0.116	0.005
-199.319	-66.198	-0.303	0.121
-198.304	-200.000	0.001	0.366
-197.290	-156.721	-0.140	-0.009
-196.275	-138.847	0.324	-0.035
-195.260	-36.689	-0.168	0.090
-194.246	-105.517	0.338	-0.077
-193.231	87.601	0.271	0.302
-192.217	-109.656	-0.239	-0.051
-191.202	-76.406	0.166	0.059
-190.187	-22.808	0.185	-0.112
-189.173	-6.607	0.245	0.167
-188.158	-34.950	-0.269	-0.147
-187.144	-19.593	-0.191	0.119
-186.129	22.395	0.335	0.275
-185.114	50.304	0.248	-0.236
-184.100	-130.498	0.142	0.019
-183.085	-200.000	-0.052	0.261
-182.071	17.699	-0.309	-0.247
-181.056	589.147	-0.103	-0.254
-180.042	-88.366	0.035	0.011
-179.027	163.175	0.037	0.052
-178.012	-43.415	-0.348	-0.176
-176.998	425.871	-0.129	-0.280
-175.983	-200.000	0.099	0.449
-174.969	-61.194	0.146	0.062
-173.954	-66.867	-0.135	0.053
-172.939	-71.385	0.108	-0.041
-171.925	-200.000	-0.013	0.083
-170.910	-200.000	-0.032	0.313
-169.896	217.751	0.097	-0.155
-168.881	39.902	-0.057	0.051
-167.866	-113.556	0.167	-0.033
-166.852	137.567	-0.180	0.236
-165.837	746.471	0.064	0.172
-164.823	-76.996	0.281	-0.098
-163.808	-59.375	-0.015	-0.007
-162.793	-150.770	0.184	0.014
-161.779	-81.525	0.195	0.064
-160.764	-108.960	-0.320	-0.068
-159.750	-107.593	0.061	0.013
-158.735	219.889	0.038	-0.061
-157.720	-200.000	-0.053	-0.380
-156.706	-200.000	0.017	0.204
-155.691	-148.285	0.169	0.014
-154.677	800.000	0.109	-0.356
-153.662	78.949	0.114	-0.123
-152.647	-138.088	-0.120	-0.013
-151.633	34.066	0.315	0.275
-150.618	521.388	0.085	0.199
-149.604	422.606	-0.117	0.251
-148.589	-41.558	0.070	0.036
-147.574	82.685	0.295	-0.322
-146.560	-12.500	0.246	-0.161
-145.545	-73.116	-0.254	-0.093
-144.531	53.973	0.159	-0.153
-143.516	-105.794	-0.183	0.042
-142.502	4.952	-0.239	0.176
-141.487	28.354	-0.153	-0.130
-140.472	-80.137	0.179	-0.060
-139.458	-14.562	0.158	-0.102
-138.443	-171.129	0.072	-0.002
-137.429	23.635	-0.166	-0.137
-136.414	245.583	0.164	0.277
-135.399	-63.760	-0.147	0.060
-134.385	-139.716	0.285	-0.030
-133.370	-67.497	-0.124	-0.049
-132.356	23.528	-0.181	-0.149
-131.341	-152.426	-0.134	-0.010
-130.326	27.102	-0.337	0.283
-129.312	658.703	0.139	0.359
-128.297	435.806	-0.095	-0.206
-127.283	-96.872	0.224	0.059
-126.268	58.397	-0.152	0.149
-125.253	182.047	0.075	0.110
-124.239	-91.104	-0.111	0.032
-123.224	615.217	0.175	0.439
-122.210	292.780	-0.079	0.144
-121.195	-200.000	-0.002	0.206
-120.180	-5.267	0.088	-0.060
