DTS Sentinel unit serial number:	SN413079Multiplexer serial number:	ORYXHardware model number:	OX4-SRSoftware version number:	ORYX F/W v4.00 Oryx Data Collector v3.7.2.0data status	okinstallation	princeton_trtdifferential loss correction	single-endedforward channel	channel 3reverse channel	N/Adate	2019/09/14time	15:48:35forward acquisition time	60.00reverse acquisition time	0.00gamma	496.2192k internal	0.2294k external	0.2294temperature offset calibration	1.0048default loss term (dB/km)	0.3790temperature slope calibration	1.0000multiplexer offset coefficient	1.0000multiplexer slope coefficient	1.0000fibre end	0.00T internal ref (°C)	38.75T ext. ref 1 (°C)	5.11T ext. ref 2 (°C)	34.05length (m)	temperature (°C)	Stokes	anti-Stokes-747.200	-160.636	0.250	-0.014
-746.185	98.877	-0.057	-0.067
-745.171	71.511	0.115	-0.122
-744.156	99.166	0.032	-0.038
-743.142	86.514	-0.070	-0.079
-742.127	800.000	-0.023	0.079
-741.112	215.986	-0.064	-0.104
-740.098	-64.595	-0.227	0.094
-739.083	-18.470	-0.107	0.068
-738.069	109.063	-0.364	0.445
-737.054	-2.150	0.307	-0.220
-736.039	156.141	-0.113	0.159
-735.025	-151.794	0.468	-0.035
-734.010	800.000	0.033	-0.143
-732.996	28.584	-0.229	0.198
-731.981	-85.370	-0.127	-0.041
-730.966	-125.562	0.222	-0.035
-729.952	800.000	0.087	0.353
-728.937	-125.239	0.417	0.065
-727.923	41.275	0.263	0.243
-726.908	241.049	-0.105	-0.179
-725.894	65.561	-0.053	0.055
-724.879	800.000	-0.035	-0.113
-723.864	169.007	-0.068	0.099
-722.850	50.450	-0.128	0.124
-721.835	312.986	0.118	-0.227
-720.821	-80.413	-0.205	0.070
-719.806	-200.000	-0.067	-0.303
-718.791	64.157	-0.139	-0.143
-717.777	-50.870	-0.251	0.121
-716.762	5.197	-0.224	-0.168
-715.748	418.445	-0.124	-0.272
-714.733	317.533	0.083	0.161
-713.718	-66.381	-0.274	0.111
-712.704	-200.000	-0.058	-0.278
-711.689	84.502	-0.075	0.084
-710.675	66.196	0.337	-0.350
-709.660	54.105	-0.105	-0.103
-708.645	800.000	-0.062	-0.262
-707.631	-89.472	-0.210	0.063
-706.616	800.000	0.168	-0.493
-705.602	-200.000	-0.042	-0.508
-704.587	-188.503	-0.317	0.004
-703.572	-200.000	0.024	-0.155
-702.558	163.225	0.126	-0.181
-701.543	79.906	0.132	0.145
-700.529	99.153	0.188	-0.222
-699.514	373.476	0.169	-0.351
-698.499	124.549	0.137	0.176
-697.485	-74.607	-0.146	-0.054
-696.470	168.703	-0.039	-0.056
-695.456	800.000	-0.031	-0.093
-694.441	-200.000	0.044	-0.396
-693.426	-78.753	0.147	-0.051
-692.412	524.199	0.024	-0.056
-691.397	800.000	-0.099	-0.321
-690.383	-33.029	-0.376	0.213
-689.368	150.374	0.198	0.274
-688.354	-83.888	0.137	-0.044
-687.339	-77.531	-0.061	0.022
-686.324	800.000	-0.050	-0.149
-685.310	238.516	0.035	0.059
-684.295	-97.462	0.034	0.009
-683.281	269.017	-0.115	0.205
-682.266	28.264	-0.154	0.132
-681.251	2.849	-0.120	-0.089
-680.237	237.672	0.148	-0.250
-679.222	203.851	0.069	-0.109
-678.208	64.338	-0.273	-0.281
-677.193	-200.000	0.049	0.289
-676.178	-200.000	0.002	-0.221
-675.164	-146.062	-0.330	0.030
-674.149	32.116	0.241	0.212
-673.135	-200.000	-0.014	-0.322
-672.120	-115.993	-0.198	-0.038
-671.105	-200.000	0.029	-0.369
-670.091	571.993	-0.075	-0.186
-669.076	-71.431	0.324	-0.124
-668.062	760.672	-0.064	-0.176
-667.047	-74.142	0.220	0.081
-666.032	185.588	-0.098	0.149
-665.018	-200.000	0.008	-0.264
-664.003	289.772	-0.049	0.091
-662.989	-101.441	0.346	-0.086
-661.974	-7.393	0.146	-0.101
-660.959	603.794	-0.122	-0.310
-659.945	800.000	0.034	-0.122
-658.930	31.347	-0.339	-0.296
-657.916	324.251	0.188	0.366
-656.901	-81.331	-0.138	-0.046
-655.886	-23.133	0.481	-0.295
-654.872	-200.000	-0.041	-0.348
-653.857	-20.723	0.454	-0.284
-652.843	-200.000	-0.001	-0.101
-651.828	490.864	0.095	-0.222
-650.814	468.402	0.020	-0.045
-649.799	-200.000	0.066	0.311
-648.784	800.000	-0.104	-0.394
-647.770	60.916	-0.253	-0.256
-646.755	-200.000	-0.016	-0.345
-645.741	-200.000	-0.005	-0.276
-644.726	284.255	0.111	0.204
-643.711	-15.323	0.401	-0.261
-642.697	-200.000	0.020	-0.127
-641.682	223.346	-0.071	-0.117
-640.668	-122.852	0.116	-0.019
-639.653	800.000	0.031	-0.120
-638.638	-107.506	0.315	-0.070
-637.624	6.405	0.233	0.177
-636.609	17.839	-0.182	-0.147
-635.595	-6.112	-0.456	-0.317
-634.580	131.911	0.166	0.217
-633.565	-23.631	0.185	0.113
-632.551	-36.343	0.058	-0.032
-631.536	-168.216	0.287	0.011
-630.522	-102.319	0.289	0.071
-629.507	-51.066	0.368	-0.176
-628.492	-105.170	-0.193	-0.045
-627.478	-161.963	-0.331	-0.017
-626.463	-72.957	0.144	0.054
-625.449	14.676	-0.062	-0.049
-624.434	800.000	-0.085	-0.277
-623.419	-200.000	0.056	-0.429
-622.405	-123.706	0.067	-0.011
-621.390	-200.000	-0.028	-0.416
-620.376	445.440	-0.097	0.217
-619.361	259.418	0.116	0.204
-618.346	17.369	-0.338	0.273
-617.332	111.259	-0.071	0.087
-616.317	-146.772	0.247	-0.022
-615.303	-161.892	-0.084	0.004
-614.288	49.521	0.076	-0.073
-613.273	-85.299	-0.009	-0.003
-612.259	-200.000	-0.018	-0.187
-611.244	-41.790	0.040	-0.021
-610.230	-200.000	-0.021	0.103
-609.215	-200.000	-0.025	0.235
-608.201	352.682	-0.031	-0.063
-607.186	-159.801	0.329	0.018
-606.171	800.000	0.042	0.124
-605.157	-42.280	-0.309	-0.160
-604.142	23.944	0.145	-0.122
-603.128	290.434	-0.136	-0.252
-602.113	-40.743	-0.265	0.139
-601.098	800.000	-0.037	-0.137
-600.084	157.525	-0.051	0.072
-599.069	378.299	0.070	0.146
-598.055	-114.253	0.291	-0.057
-597.040	84.714	0.310	-0.345
-596.025	-200.000	-0.012	-0.140
-595.011	148.691	0.208	0.285
-593.996	800.000	-0.067	0.205
-592.982	43.238	-0.073	0.068
-591.967	12.557	-0.256	0.200
-590.952	-200.000	-0.017	-0.123
-589.938	426.315	0.141	-0.310
-588.923	223.721	0.032	0.052
-587.909	-200.000	0.007	0.132
-586.894	-108.314	-0.128	-0.028
-585.879	103.024	-0.168	0.200
-584.865	71.694	-0.155	0.164
-583.850	735.543	-0.118	0.323
-582.836	583.114	-0.069	-0.172
-581.821	-156.014	-0.061	0.004
-580.806	112.818	-0.117	0.144
-579.792	800.000	0.028	-0.110
-578.777	29.640	0.148	-0.128
-577.763	-81.411	-0.274	0.092
-576.748	353.863	0.074	0.150
-575.733	-93.398	0.074	-0.021
-574.719	-122.358	0.195	0.032
-573.704	-200.000	0.024	0.282
-572.690	-200.000	-0.020	0.108
-571.675	-200.000	-0.084	-0.379
-570.661	-158.501	0.161	-0.009
-569.646	-167.121	-0.081	0.003
-568.631	63.565	-0.110	-0.112
-567.617	56.138	0.081	-0.079
-566.602	76.677	0.144	-0.155
-565.588	-193.740	0.182	-0.002
-564.573	-200.000	-0.018	-0.138
-563.558	-79.768	-0.130	-0.045
-562.544	-183.283	-0.185	0.003
-561.529	7.435	-0.063	-0.048
-560.515	-4.733	0.278	-0.195
-559.500	102.669	-0.174	-0.207
-558.485	-70.764	-0.123	-0.047
-557.471	203.518	0.133	-0.209
-556.456	81.558	-0.102	-0.112
-555.442	-75.129	-0.439	-0.159
-554.427	-87.483	-0.371	0.114
-553.412	220.703	-0.050	0.081
-552.398	-112.520	0.248	0.050
-551.383	-200.000	-0.005	-0.024
-550.369	70.783	0.288	0.302
-549.354	315.297	0.082	-0.156
-548.339	-96.370	-0.245	0.066
-547.325	-7.367	0.160	0.110
-546.310	-3.074	0.160	-0.113
-545.296	-200.000	0.032	-0.160
-544.281	-105.427	0.178	-0.041
-543.266	-99.236	0.111	-0.029
-542.252	-125.784	-0.393	0.060
-541.237	-29.723	-0.116	0.067
-540.223	-49.956	-0.162	0.078
-539.208	-154.374	-0.378	-0.026
-538.193	243.870	0.101	-0.172
-537.179	800.000	-0.073	-0.229
-536.164	-60.437	-0.152	0.066
-535.150	-48.485	-0.145	0.071
-534.135	-63.450	0.120	-0.050
-533.121	796.888	-0.078	-0.219
-532.106	492.103	-0.181	-0.420
-531.091	24.508	0.188	0.158
-530.077	-163.811	0.428	0.020
-529.062	-86.766	-0.171	0.053
-528.048	-200.000	-0.027	0.140
-527.033	-51.656	-0.101	-0.048
-526.018	-54.241	-0.264	-0.122
-525.004	3.205	-0.126	0.093
-523.989	-102.512	-0.095	-0.023
-522.975	30.288	-0.241	-0.209
-521.960	2.254	-0.195	0.143
-520.945	751.235	0.054	-0.149
-519.931	-77.872	-0.232	-0.081
-518.916	56.060	-0.115	0.113
-517.902	608.388	0.082	0.208
-516.887	648.753	-0.100	0.259
-515.872	-41.097	-0.172	-0.090
-514.858	-56.674	-0.157	-0.071
-513.843	-34.432	-0.211	0.117
-512.829	-200.000	-0.005	0.147
-511.814	-155.903	0.305	-0.020
-510.799	411.624	-0.098	-0.210
-509.785	-200.000	-0.022	0.157
-508.770	127.502	0.015	0.019
-507.756	-152.348	0.284	-0.021
-506.741	196.146	0.081	-0.124
-505.726	-200.000	0.003	0.093
-504.712	-119.015	-0.224	-0.040
-503.697	129.803	-0.026	0.034
-502.683	-200.000	-0.005	0.075
-501.668	-110.288	0.241	0.051
-500.653	-52.106	0.135	-0.063
-499.639	26.135	-0.292	0.247
-498.624	465.164	-0.055	0.124
-497.610	22.892	0.120	-0.099
-496.595	59.209	0.134	-0.133
-495.581	-33.133	-0.116	-0.065
-494.566	101.037	0.093	0.109
-493.551	800.000	-0.065	-0.202
-492.537	-54.729	-0.138	-0.063
-491.522	566.386	0.060	-0.147
-490.508	53.250	-0.181	0.176
-489.493	88.043	-0.065	0.073
-488.478	800.000	-0.088	0.284
-487.464	-167.723	0.562	-0.023
-486.449	7.056	-0.194	0.146
-485.435	-28.848	-0.478	-0.278
-484.420	238.336	0.163	-0.274
-483.405	800.000	-0.041	-0.145
-482.391	204.533	0.101	0.158
-481.376	800.000	0.023	-0.092
-480.362	-4.821	0.285	0.199
-479.347	-74.246	0.071	-0.026
-478.332	-200.000	0.037	0.294
-477.318	-200.000	-0.003	0.317
-476.303	-46.977	-0.144	0.071
-475.289	-200.000	0.031	0.179
-474.274	581.166	0.066	-0.163
-473.259	-89.451	-0.193	0.058
-472.245	233.968	-0.065	-0.108
-471.230	-105.494	-0.173	-0.040
-470.216	715.261	-0.053	-0.141
-469.201	38.967	-0.211	0.191
-468.186	-110.597	-0.527	-0.110
-467.172	800.000	0.058	0.227
-466.157	-149.059	0.191	-0.016
-465.143	-101.492	-0.301	-0.074
-464.128	11.977	-0.136	0.106
-463.113	-200.000	-0.014	-0.267
-462.099	41.069	-0.142	0.129
-461.084	-111.644	0.115	-0.024
-460.070	-24.560	-0.120	0.072
-459.055	-28.940	0.266	0.154
-458.040	-200.000	0.038	0.296
-457.026	-157.411	0.211	-0.013
-456.011	205.843	0.198	-0.312
-454.997	-73.237	0.455	-0.168
-453.982	-139.566	0.380	0.041
-452.968	57.127	-0.098	0.097
-451.953	-91.727	0.208	0.060
-450.938	4.660	-0.342	0.254
-449.924	576.007	-0.106	-0.263
-448.909	-14.198	-0.124	0.081
-447.895	-200.000	0.030	0.338
-446.880	108.621	-0.267	-0.322
-445.865	-200.000	0.017	-0.260
-444.851	-114.069	-0.044	-0.009
-443.836	-51.349	-0.351	-0.166
-442.822	-8.801	0.112	-0.076
-441.807	-60.036	-0.247	-0.107
-440.792	413.445	-0.022	0.048
-439.778	178.958	0.123	0.182
-438.763	61.916	0.096	0.096
-437.749	85.719	-0.147	-0.163
-436.734	76.463	0.057	-0.061
-435.719	197.742	0.090	-0.139
-434.705	-200.000	0.020	0.176
-433.690	-128.438	0.324	0.046
-432.676	-102.548	-0.354	-0.085
-431.661	-200.000	-0.027	0.143
-430.646	-81.970	0.161	0.053
-429.632	324.319	0.077	-0.148
-428.617	-185.547	0.201	-0.003
-427.603	-200.000	0.007	-0.150
-426.588	-200.000	-0.007	-0.173
-425.573	-63.304	0.148	-0.062
-424.559	156.376	0.209	0.291
-423.544	-98.856	-0.287	-0.074
-422.530	-49.112	-0.044	0.021
-421.515	321.465	-0.050	0.095
-420.500	70.999	-0.270	-0.282
-419.486	800.000	0.065	0.208
-418.471	-200.000	0.016	-0.221
-417.457	116.050	-0.149	0.184
-416.442	191.636	-0.071	0.109
-415.428	-62.574	-0.106	-0.045
-414.413	-153.735	0.236	0.016
-413.398	42.040	-0.215	0.197
-412.384	-16.090	0.208	0.134
-411.369	800.000	0.025	-0.100
-410.355	-200.000	-0.026	0.162
-409.340	-23.318	-0.196	0.119
-408.325	-28.227	-0.092	0.054
-407.311	-90.800	-0.249	-0.072
-406.296	650.191	-0.039	0.102
-405.282	-9.177	-0.154	-0.104
-404.267	24.382	-0.192	0.160
-403.252	129.255	0.153	0.197
-402.238	-200.000	0.007	0.080
-401.223	-200.000	0.007	0.072
-400.209	33.867	0.187	0.164
-399.194	116.581	-0.020	-0.024
-398.179	477.469	0.048	0.109
-397.165	-168.704	-0.274	-0.010
-396.150	318.609	0.190	-0.362
-395.136	800.000	-0.053	-0.205
-394.121	-23.330	-0.242	0.147
-393.106	800.000	-0.042	-0.132
-392.092	282.563	0.088	-0.160
-391.077	-200.000	0.002	0.169
-390.063	-3.844	0.196	0.137
-389.048	-200.000	-0.024	-0.205
-388.033	35.887	0.216	0.192
-387.019	247.525	0.033	0.057
-386.004	-200.000	0.026	0.118
-384.990	800.000	0.069	-0.215
-383.975	-74.015	-0.096	-0.035
-382.960	-69.454	-0.183	0.071
-381.946	-50.441	0.263	-0.125
-380.931	210.022	0.108	-0.172
-379.917	-200.000	-0.027	0.137
-378.902	69.159	0.229	-0.237
-377.888	800.000	-0.017	0.048
-376.873	242.263	-0.165	-0.278
-375.858	800.000	0.047	-0.186
-374.844	-182.991	-0.235	-0.004
-373.829	140.136	-0.025	-0.033
-372.815	-42.204	0.322	0.166
-371.800	50.672	0.102	0.097
-370.785	49.413	0.377	-0.358
-369.771	67.914	0.232	-0.239
-368.756	63.040	0.136	-0.137
-367.742	-15.091	0.175	0.113
-366.727	-175.361	0.175	-0.005
-365.712	-26.745	-0.295	0.174
-364.698	-57.622	0.258	0.114
-363.683	-122.924	0.187	-0.030
-362.669	44.945	0.016	0.014
-361.654	-168.263	0.176	0.007
-360.639	-25.427	0.053	0.031
-359.625	22.277	0.146	0.120
-358.610	31.297	0.050	-0.043
-357.596	-41.959	0.239	0.123
-356.581	404.984	-0.210	0.446
-355.566	-73.155	-0.145	0.054
-354.552	121.293	0.168	-0.211
-353.537	-2.016	-0.158	-0.112
-352.523	-110.872	0.528	0.110
-351.508	-8.102	-0.177	0.120
-350.493	368.919	0.248	-0.505
-349.479	-200.000	-0.011	-0.149
-348.464	33.652	0.162	0.141
-347.450	-52.705	0.207	-0.096
-346.435	-200.000	-0.096	-0.465
-345.420	-114.366	0.157	-0.030
-344.406	547.644	-0.073	0.175
-343.391	800.000	-0.127	-0.449
-342.377	303.456	0.130	-0.242
-341.362	394.112	-0.064	-0.135
-340.348	213.683	0.220	0.350
-339.333	-100.681	-0.156	-0.039
-338.318	-28.937	0.347	-0.201
-337.304	12.005	-0.263	-0.203
-336.289	-200.000	-0.045	-0.298
-335.275	-85.049	0.258	0.081
-334.260	-177.594	-0.167	-0.004
-333.245	77.515	0.212	0.227
-332.231	126.620	0.163	-0.208
-331.216	-34.691	0.097	0.053
-330.202	-200.000	0.004	-0.049
-329.187	-36.809	0.142	0.077
-328.172	404.502	-0.042	0.088
-327.158	-72.926	-0.239	-0.088
-326.143	-72.643	-0.374	-0.139
-325.129	-82.813	-0.403	-0.131
-324.114	800.000	-0.035	0.150
-323.099	288.349	0.156	0.283
-322.085	-104.311	0.210	-0.049
-321.070	-200.000	-0.018	0.203
-320.056	-61.911	-0.091	0.038
-319.041	-11.436	0.193	-0.128
-318.026	-200.000	0.001	-0.076
-317.012	800.000	-0.034	0.096
-315.997	-200.000	0.026	-0.303
-314.983	396.728	-0.063	-0.133
-313.968	800.000	-0.059	0.206
-312.953	76.714	0.286	-0.306
-311.939	-49.760	-0.248	-0.119
-310.924	-200.000	0.019	-0.486
-309.910	-29.326	-0.082	0.047
-308.895	-94.163	0.177	0.049
-307.880	89.012	-0.182	-0.204
-306.866	-200.000	-0.102	0.490
-305.851	-200.000	-0.035	-0.157
-304.837	72.790	0.291	-0.305
-303.822	605.571	-0.126	0.316
-302.807	-97.916	-0.242	-0.063
-301.793	-96.446	0.166	-0.044
-300.778	-76.615	-0.223	-0.079
-299.764	-133.245	0.382	-0.048
-298.749	60.992	0.200	0.199
-297.735	-149.225	-0.125	0.010
-296.720	-140.421	-0.143	-0.015
-295.705	-24.716	0.088	-0.053
-294.691	9.036	-0.197	-0.149
-293.676	120.959	-0.067	0.083
-292.662	-129.719	0.182	-0.025
-291.647	8.693	0.243	0.184
-290.632	-200.000	0.001	-0.078
-289.618	38.935	-0.282	-0.253
-288.603	-88.366	0.148	0.044
-287.589	800.000	-0.029	0.120
-286.574	800.000	-0.065	-0.240
-285.559	34.520	0.388	-0.340
-284.545	-2.745	-0.160	0.112
-283.530	13.201	0.128	0.100
-282.516	125.192	-0.175	0.221
-281.501	-6.619	0.280	-0.191
-280.486	-200.000	-0.020	0.127
-279.472	66.947	0.048	0.049
-278.457	99.925	-0.197	-0.229
-277.443	-127.195	0.241	-0.035
-276.428	32.707	0.135	-0.118
-275.413	13.095	-0.121	-0.094
-274.399	800.000	-0.016	0.057
-273.384	155.998	0.185	0.257
-272.370	-200.000	-0.005	0.267
-271.355	-21.347	-0.360	-0.221
-270.340	57.951	0.163	-0.160
-269.326	-131.203	-0.365	-0.049
-268.311	-63.720	0.333	0.137
-267.297	800.000	-0.048	0.188
-266.282	-134.233	-0.169	-0.021
-265.267	124.582	0.047	0.059
-264.253	-96.807	-0.278	-0.073
-263.238	745.481	-0.087	0.234
-262.224	115.336	0.167	-0.204
-261.209	800.000	0.079	-0.334
-260.195	-200.000	-0.011	-0.115
-259.180	81.912	-0.100	0.108
-258.165	301.490	0.165	0.305
-257.151	4.535	0.225	0.166
-256.136	224.639	0.222	0.361
-255.122	-200.000	-0.013	0.332
-254.107	273.368	0.123	-0.217
-253.092	-200.000	-0.020	-0.178
-252.078	-52.874	0.210	0.097
-251.063	-200.000	-0.005	-0.157
-250.049	-200.000	0.009	0.242
-249.034	-63.307	0.085	0.035
-248.019	414.050	0.109	-0.234
-247.005	-200.000	-0.036	0.316
-245.990	800.000	0.051	0.205
-244.976	231.457	0.151	0.248
-243.961	10.954	0.388	0.297
-242.946	-69.996	-0.087	0.033
-241.932	-128.181	0.227	-0.033
-240.917	3.002	0.384	0.280
-239.903	-76.694	-0.216	0.076
-238.888	560.123	-0.121	0.292
-237.873	-200.000	0.012	0.170
-236.859	287.524	-0.113	0.205
-235.844	784.868	-0.069	0.191
-234.830	314.175	-0.058	0.110
-233.815	2.712	-0.274	-0.199
-232.800	-200.000	-0.137	-0.000
-231.786	-46.649	-0.412	0.202
-230.771	-7.269	0.264	0.180
-229.757	-71.006	-0.249	0.094
-228.742	-75.413	-0.293	-0.104
-227.727	-54.442	0.005	0.002
-226.713	-43.150	0.085	0.043
-225.698	-141.738	-0.137	-0.014
-224.684	800.000	0.018	0.072
-223.669	-26.073	-0.072	0.043
-222.655	-88.844	0.048	0.014
-221.640	11.885	-0.081	0.063
-220.625	-36.228	0.119	-0.064
-219.611	29.835	-0.085	-0.072
-218.596	277.057	-0.031	0.055
-217.582	176.113	0.037	-0.053
-216.567	-146.359	-0.239	0.021
-215.552	231.997	0.107	0.175
-214.538	-200.000	-0.018	-0.089
-213.523	-174.344	0.317	-0.009
-212.509	315.726	0.043	0.080
-211.494	800.000	-0.010	-0.029
-210.479	-63.311	0.182	0.075
-209.465	800.000	0.034	-0.127
-208.450	27.456	-0.216	0.182
-207.436	-29.129	-0.214	0.123
-206.421	65.951	0.165	0.167
-205.406	18.269	-0.017	-0.013
-204.392	-69.755	0.256	-0.098
-203.377	800.000	0.164	0.457
-202.363	446.122	-0.084	-0.185
-201.348	246.460	-0.082	-0.138
-200.333	800.000	0.059	0.173
-199.319	-119.514	0.328	0.057
-198.304	-200.000	-0.015	0.268
-197.290	-21.278	-0.244	0.150
-196.275	-200.000	-0.016	-0.072
-195.260	800.000	-0.044	0.176
-194.246	-69.436	0.444	0.171
-193.231	273.433	0.070	0.124
-192.217	317.024	0.028	-0.053
-191.202	736.457	0.134	-0.360
-190.187	-107.894	0.287	-0.063
-189.173	62.907	0.199	-0.199
-188.158	-12.734	0.300	-0.196
-187.144	-102.836	-0.239	-0.057
-186.129	44.442	-0.179	0.164
-185.114	-200.000	0.030	0.272
-184.100	234.989	0.070	0.115
-183.085	-200.000	-0.010	-0.065
-182.071	-48.526	0.044	0.021
-181.056	-147.191	-0.292	-0.025
-180.042	-200.000	0.070	-0.316
-179.027	98.381	0.068	0.079
-178.012	-122.270	-0.293	-0.048
-176.998	-134.567	-0.305	0.037
-175.983	89.422	-0.214	0.239
-174.969	-200.000	-0.014	0.313
-173.954	-118.862	0.252	0.044
-172.939	11.020	-0.232	-0.177
-171.925	-200.000	-0.005	0.026
-170.910	-121.425	-0.252	0.042
-169.896	39.418	-0.076	0.068
-168.881	243.929	-0.123	0.207
-167.866	-31.919	0.118	-0.066
-166.852	-97.594	-0.223	-0.058
-165.837	439.164	0.148	0.323
-164.823	106.531	-0.139	0.165
-163.808	-160.115	-0.151	0.008
-162.793	-200.000	-0.030	-0.321
-161.779	-24.778	0.144	0.086
-160.764	149.338	-0.062	-0.084
-159.750	167.348	-0.153	0.218
-158.735	576.765	-0.157	-0.384
-157.720	-18.349	-0.234	0.146
-156.706	-166.584	0.097	0.004
-155.691	-85.406	0.271	-0.084
-154.677	-196.273	0.176	0.001
-153.662	-75.275	-0.162	-0.058
-152.647	115.562	-0.256	0.313
-151.633	109.053	-0.085	0.101
-150.618	-200.000	-0.049	-0.451
-149.604	-200.000	0.004	0.129
-148.589	-119.140	-0.234	0.041
-147.574	-200.000	-0.002	-0.061
-146.560	-108.609	-0.340	-0.073
-145.545	173.717	-0.071	-0.103
-144.531	-3.492	0.180	0.125
-143.516	9.289	0.245	0.185
-142.502	349.885	0.051	0.101
-141.487	160.248	-0.181	0.252
-140.472	12.530	0.168	0.129
-139.458	6.257	0.281	-0.208
-138.443	-123.763	0.259	0.041
-137.429	-177.108	0.139	0.003
-136.414	49.982	0.128	-0.121
-135.399	-33.202	0.146	-0.081
-134.385	220.637	0.078	0.125
-133.370	-107.435	-0.277	-0.061
-132.356	-139.585	0.268	-0.029
-131.341	-37.398	0.335	-0.179
-130.326	-60.280	-0.036	0.015
-129.312	-138.644	0.225	-0.025
-128.297	500.829	0.105	0.241
-127.283	-200.000	-0.022	0.294
-126.268	361.284	0.083	-0.167
-125.253	-142.907	-0.334	0.032
-124.239	33.834	-0.076	0.066
-123.224	358.785	0.017	0.034
-122.210	633.719	0.103	0.260
-121.195	-200.000	-0.021	-0.166
