DTS Sentinel unit serial number:	SN413079Multiplexer serial number:	ORYXHardware model number:	OX4-SRSoftware version number:	ORYX F/W v4.00 Oryx Data Collector v3.7.2.0data status	okinstallation	princeton_trtdifferential loss correction	single-endedforward channel	channel 3reverse channel	N/Adate	2019/09/11time	07:34:10forward acquisition time	60.00reverse acquisition time	0.00gamma	496.2192k internal	0.2324k external	0.2324temperature offset calibration	0.9905default loss term (dB/km)	0.3790temperature slope calibration	1.0000multiplexer offset coefficient	1.0000multiplexer slope coefficient	1.0000fibre end	0.00T internal ref (°C)	31.20T ext. ref 1 (°C)	-0.05T ext. ref 2 (°C)	27.64length (m)	temperature (°C)	Stokes	anti-Stokes-747.200	-103.669	0.056	0.013
-746.185	49.223	-0.216	0.205
-745.171	155.492	-0.037	0.051
-744.156	-70.924	-0.177	-0.067
-743.142	345.807	-0.176	0.350
-742.127	-200.000	0.016	0.155
-741.112	-200.000	-0.008	-0.139
-740.098	800.000	-0.043	0.185
-739.083	-1.245	0.195	-0.139
-738.069	-20.980	-0.033	-0.020
-737.054	-82.016	-0.211	-0.070
-736.039	231.990	-0.043	-0.071
-735.025	-65.301	-0.202	-0.082
-734.010	-90.918	0.258	-0.075
-732.996	-200.000	-0.011	0.225
-731.981	800.000	-0.055	-0.206
-730.966	74.054	-0.288	-0.305
-729.952	-28.777	0.232	0.135
-728.937	206.111	0.080	0.125
-727.923	800.000	0.092	-0.335
-726.908	-200.000	0.074	-0.328
-725.894	-113.854	0.121	0.024
-724.879	132.244	0.111	0.145
-723.864	-200.000	-0.012	-0.088
-722.850	68.120	-0.053	0.055
-721.835	-85.168	0.347	0.109
-720.821	-94.537	-0.114	0.031
-719.806	-123.386	-0.328	0.053
-718.791	-13.459	-0.400	-0.262
-717.777	-117.573	-0.196	0.036
-716.762	800.000	0.084	0.253
-715.748	-114.558	0.076	-0.015
-714.733	157.006	-0.027	0.038
-713.718	-200.000	0.014	-0.339
-712.704	-88.646	0.131	-0.039
-711.689	-91.649	0.338	-0.097
-710.675	800.000	0.018	0.068
-709.660	-175.522	-0.148	0.004
-708.645	-64.926	-0.158	-0.064
-707.631	800.000	0.041	-0.177
-706.616	-134.644	0.434	0.053
-705.602	19.832	-0.069	0.056
-704.587	-200.000	-0.019	0.318
-703.572	-200.000	-0.024	0.116
-702.558	800.000	-0.049	0.165
-701.543	-200.000	-0.022	0.235
-700.529	-58.296	-0.269	-0.118
-699.514	-200.000	-0.017	0.113
-698.499	84.318	-0.096	0.105
-697.485	-34.304	-0.158	-0.087
-696.470	-200.000	-0.023	-0.193
-695.456	65.305	0.108	0.111
-694.441	-121.435	-0.213	-0.036
-693.426	-53.425	-0.436	-0.201
-692.412	-200.000	0.026	0.332
-691.397	800.000	0.073	-0.295
-690.383	-200.000	-0.006	-0.080
-689.368	800.000	-0.066	-0.232
-688.354	-42.548	0.177	0.091
-687.339	-98.908	-0.224	-0.057
-686.324	-200.000	0.000	-0.196
-685.310	689.346	-0.043	-0.112
-684.295	-186.427	-0.178	0.003
-683.281	414.509	-0.086	-0.184
-682.266	-0.467	-0.232	0.166
-681.251	800.000	0.054	0.165
-680.237	-137.231	0.300	-0.034
-679.222	35.886	0.247	-0.219
-678.208	-45.124	0.284	0.142
-677.193	-34.535	-0.038	0.021
-676.178	-63.008	0.221	-0.092
-675.164	-56.243	0.142	0.063
-674.149	84.675	-0.095	0.105
-673.135	800.000	0.025	0.077
-672.120	-84.450	-0.170	0.054
-671.105	-53.881	0.270	0.124
-670.091	760.699	-0.062	-0.169
-669.076	-146.887	0.224	-0.019
-668.062	-159.638	-0.038	0.002
-667.047	-78.530	0.065	0.022
-666.032	800.000	0.049	-0.191
-665.018	-88.561	0.151	-0.045
-664.003	800.000	0.040	0.171
-662.989	172.658	-0.073	0.106
-661.974	-70.018	-0.012	-0.005
-660.959	-63.548	-0.253	-0.105
-659.945	397.515	0.081	0.171
-658.930	-54.191	0.242	0.111
-657.916	74.149	-0.202	0.214
-656.901	-200.000	-0.047	0.311
-655.886	49.852	-0.037	-0.036
-654.872	-61.166	-0.174	-0.074
-653.857	344.547	-0.069	0.135
-652.843	95.092	0.124	0.142
-651.828	-200.000	-0.020	-0.111
-650.814	-85.128	0.209	-0.066
-649.799	-147.640	-0.122	0.010
-648.784	530.644	-0.029	0.069
-647.770	641.767	-0.063	-0.162
-646.755	142.527	-0.070	-0.093
-645.741	-200.000	-0.020	0.338
-644.726	-200.000	0.025	0.171
-643.711	-75.092	-0.291	0.105
-642.697	74.769	-0.183	0.194
-641.682	52.004	0.136	0.131
-640.668	9.611	-0.141	0.108
-639.653	-16.493	0.137	0.087
-638.638	176.209	-0.076	0.111
-637.624	602.608	-0.217	0.543
-636.609	178.138	0.091	0.133
-635.595	-76.505	-0.245	0.087
-634.580	-167.626	-0.187	0.007
-633.565	503.215	0.064	0.149
-632.551	206.003	-0.205	0.321
-631.536	274.597	0.092	-0.164
-630.522	-83.159	-0.027	-0.009
-629.507	-108.420	0.198	-0.043
-628.492	-109.079	-0.238	-0.051
-627.478	222.781	0.069	0.111
-626.463	250.583	-0.067	0.114
-625.449	461.013	0.093	0.208
-624.434	-14.727	0.132	-0.085
-623.419	68.722	-0.113	0.116
-622.405	-132.878	-0.123	0.016
-621.390	800.000	-0.043	0.145
-620.376	-26.213	-0.304	0.179
-619.361	358.524	0.073	-0.146
-618.346	-200.000	-0.290	-0.000
-617.332	18.845	-0.190	0.153
-616.317	-24.294	0.325	-0.195
-615.303	-200.000	0.016	-0.237
-614.288	-127.790	-0.167	0.024
-613.273	-200.000	0.010	0.314
-612.259	95.325	-0.098	-0.112
-611.244	-200.000	0.079	-0.403
-610.230	87.752	0.286	0.318
-609.215	280.605	-0.161	0.288
-608.201	-156.361	-0.148	-0.009
-607.186	-178.317	-0.137	-0.003
-606.171	-200.000	0.002	-0.167
-605.157	132.768	0.051	0.066
-604.142	-53.000	-0.153	0.071
-603.128	23.095	0.134	-0.110
-602.113	800.000	0.052	0.153
-601.098	217.790	0.139	-0.222
-600.084	-86.347	-0.271	0.084
-599.069	-51.333	-0.185	0.087
-598.055	-11.144	0.050	0.033
-597.040	-200.000	0.012	0.138
-596.025	-200.000	-0.009	0.066
-595.011	82.498	0.138	-0.151
-593.996	-200.000	-0.008	-0.166
-592.982	20.372	0.097	-0.079
-591.967	-163.050	-0.499	0.024
-590.952	62.266	-0.061	0.061
-589.938	-53.133	-0.216	-0.100
-588.923	15.888	-0.183	0.144
-587.909	20.808	0.244	-0.198
-586.894	-23.547	-0.249	0.150
-585.879	-200.000	0.064	-0.314
-584.865	-200.000	0.004	-0.365
-583.850	75.305	-0.192	-0.203
-582.836	-21.889	0.265	-0.162
-581.821	-86.484	-0.104	0.032
-580.806	443.600	0.200	0.440
-579.792	-0.142	0.144	-0.103
-578.777	-157.923	-0.133	0.008
-577.763	-40.226	0.121	-0.063
-576.748	47.179	-0.236	-0.221
-575.733	-189.290	-0.117	0.001
-574.719	104.578	-0.113	-0.133
-573.704	-64.942	0.268	0.108
-572.690	-172.337	-0.221	-0.007
-571.675	800.000	0.017	-0.062
-570.661	-200.000	0.019	0.183
-569.646	-93.918	0.129	-0.036
-568.631	-200.000	0.011	-0.092
-567.617	-200.000	-0.005	0.200
-566.602	-149.958	0.181	0.014
-565.588	-5.138	-0.071	-0.049
-564.573	-0.881	-0.283	-0.201
-563.558	-200.000	0.005	-0.061
-562.544	-169.633	0.291	0.011
-561.529	-76.413	-0.292	0.103
-560.515	800.000	0.084	0.342
-559.500	-200.000	0.033	-0.255
-558.485	37.563	0.102	0.090
-557.471	-30.503	-0.204	-0.116
-556.456	-109.391	0.153	0.032
-555.442	-200.000	0.011	0.235
-554.427	504.132	-0.101	0.235
-553.412	13.315	-0.130	-0.101
-552.398	-200.000	0.098	-0.560
-551.383	-94.886	0.157	-0.043
-550.369	-200.000	0.011	-0.259
-549.354	-1.115	0.226	0.160
-548.339	293.684	0.146	0.267
-547.325	-10.450	0.135	-0.090
-546.310	-200.000	-0.021	0.199
-545.296	800.000	-0.058	-0.170
-544.281	403.204	0.151	-0.318
-543.266	-1.828	-0.179	-0.126
-542.252	-45.773	0.215	-0.106
-541.237	582.083	-0.017	-0.043
-540.223	366.644	0.064	0.130
-539.208	-118.096	-0.146	-0.026
-538.193	-77.861	-0.041	-0.014
-537.179	216.716	0.070	0.112
-536.164	6.850	0.127	-0.095
-535.150	-136.012	-0.092	-0.011
-534.135	-200.000	-0.022	0.363
-533.121	229.187	0.018	0.030
-532.106	-200.000	-0.064	-0.351
-531.091	-200.000	-0.083	-0.409
-530.077	16.272	0.108	-0.086
-529.062	131.034	-0.113	0.146
-528.048	-166.396	0.199	0.008
-527.033	800.000	0.079	-0.243
-526.018	68.128	0.109	0.112
-525.004	15.154	0.203	-0.160
-523.989	-40.363	-0.175	0.091
-522.975	-200.000	-0.237	0.001
-521.960	800.000	-0.106	0.460
-520.945	118.955	0.217	0.268
-519.931	181.479	0.103	0.152
-518.916	-28.835	0.208	-0.120
-517.902	-121.416	0.257	-0.043
-516.887	75.847	-0.173	-0.183
-515.872	-200.000	0.016	-0.290
-514.858	342.480	-0.057	-0.113
-513.843	-123.089	-0.294	-0.047
-512.829	217.707	-0.242	0.386
-511.814	-101.884	-0.185	-0.045
-510.799	800.000	0.128	0.368
-509.785	-102.494	0.126	-0.030
-508.770	-200.000	0.010	0.200
-507.756	110.445	-0.170	-0.204
-506.741	-25.212	0.098	0.058
-505.726	800.000	0.071	-0.214
-504.712	-106.997	-0.061	0.013
-503.697	-200.000	0.027	-0.194
-502.683	90.325	0.123	-0.137
-501.668	800.000	-0.063	-0.225
-500.653	-107.572	-0.197	0.043
-499.639	73.390	-0.264	0.276
-498.624	-200.000	-0.001	-0.395
-497.610	-200.000	-0.008	-0.057
-496.595	-81.311	-0.089	-0.029
-495.581	-140.825	0.053	-0.005
-494.566	86.140	-0.220	-0.242
-493.551	40.206	-0.387	-0.348
-492.537	326.718	0.105	-0.201
-491.522	266.692	0.113	-0.197
-490.508	274.669	-0.102	0.181
-489.493	154.268	0.185	0.254
-488.478	104.150	-0.267	0.314
-487.464	-9.069	-0.178	-0.119
-486.449	-89.500	0.272	0.080
-485.435	-105.855	-0.175	-0.040
-484.420	-34.593	-0.140	-0.077
-483.405	-76.185	0.111	-0.039
-482.391	13.006	0.343	-0.265
-481.376	-144.955	-0.204	-0.019
-480.362	-200.000	0.039	0.224
-479.347	481.233	-0.163	0.369
-478.332	47.354	-0.231	0.215
-477.318	-48.439	-0.082	0.040
-476.303	-69.941	-0.190	0.072
-475.289	241.702	-0.153	-0.255
-474.274	219.560	0.149	0.238
-473.259	-143.504	0.126	-0.012
-472.245	131.227	-0.184	0.236
-471.230	-73.196	0.144	-0.053
-470.216	21.466	-0.378	-0.307
-469.201	-179.073	0.115	0.003
-468.186	-101.174	-0.235	0.057
-467.172	-78.678	-0.245	-0.084
-466.157	-95.313	0.231	-0.062
-465.143	387.769	0.183	-0.378
-464.128	-105.824	0.108	-0.024
-463.113	95.923	0.034	0.039
-462.099	330.123	-0.186	-0.358
-461.084	-125.699	0.309	-0.047
-460.070	-65.083	-0.453	-0.182
-459.055	-200.000	-0.001	-0.014
-458.040	-74.936	0.302	-0.108
-457.026	-96.309	0.165	0.044
-456.011	76.816	0.182	0.193
-454.997	149.148	-0.122	-0.165
-453.982	800.000	-0.078	0.274
-452.968	800.000	-0.102	0.286
-451.953	-50.455	-0.067	-0.032
-450.938	32.863	-0.164	-0.141
-449.924	-0.640	-0.099	0.070
-448.909	-95.668	-0.354	-0.095
-447.895	-74.598	0.363	-0.130
-446.880	800.000	-0.070	0.209
-445.865	52.575	0.147	-0.140
-444.851	-104.095	0.226	-0.052
-443.836	-200.000	0.013	-0.288
-442.822	370.276	-0.207	0.418
-441.807	74.814	-0.103	0.108
-440.792	-86.114	0.218	-0.067
-439.778	37.318	0.092	-0.081
-438.763	-31.424	0.084	-0.047
-437.749	24.734	0.399	0.330
-436.734	-52.016	0.263	-0.122
-435.719	121.961	-0.130	-0.162
-434.705	-107.978	-0.098	-0.021
-433.690	-200.000	-0.212	0.001
-432.676	-115.186	0.095	0.018
-431.661	5.850	0.211	0.156
-430.646	-89.973	-0.387	0.113
-429.632	67.368	-0.138	-0.140
-428.617	-116.207	-0.177	0.033
-427.603	20.363	0.025	0.020
-426.588	655.728	-0.077	-0.197
-425.573	-103.577	0.247	-0.058
-424.559	-30.919	0.212	0.119
-423.544	800.000	-0.074	0.305
-422.530	-118.526	-0.291	-0.051
-421.515	114.171	0.059	-0.071
-420.500	-13.715	0.354	-0.228
-419.486	-200.000	-0.005	-0.081
-418.471	23.394	-0.188	0.154
-417.457	-200.000	0.031	0.379
-416.442	-103.807	0.040	0.009
-415.428	-95.616	-0.171	0.046
-414.413	23.046	0.283	-0.231
-413.398	-200.000	0.215	0.001
-412.384	227.893	-0.094	0.153
-411.369	-123.276	0.226	0.036
-410.355	279.899	0.098	-0.175
-409.340	113.411	-0.045	-0.055
-408.325	-89.501	-0.101	0.030
-407.311	-131.043	0.111	0.015
-406.296	1.785	-0.180	0.129
-405.282	-200.000	-0.004	0.129
-404.267	-25.256	0.144	-0.085
-403.252	-14.642	-0.164	-0.105
-402.238	-200.000	0.014	0.086
-401.223	-200.000	0.003	0.054
-400.209	27.122	0.119	0.100
-399.194	-200.000	0.026	0.218
-398.179	-2.043	0.098	-0.069
-397.165	49.806	0.137	-0.129
-396.150	9.216	0.358	0.270
-395.136	-68.289	-0.091	0.035
-394.121	-124.441	-0.061	-0.009
-393.106	115.505	-0.055	-0.067
-392.092	-192.508	0.187	-0.002
-391.077	-65.728	-0.139	-0.055
-390.063	-53.699	0.189	-0.086
-389.048	15.720	0.255	0.200
-388.033	169.877	-0.154	0.219
-387.019	-137.401	0.045	0.005
-386.004	72.382	0.246	0.255
-384.990	756.912	-0.087	-0.234
-383.975	-83.549	-0.310	0.099
-382.960	-73.539	0.272	0.099
-381.946	165.490	0.042	0.058
-380.931	39.112	-0.085	0.076
-379.917	10.554	0.286	-0.217
-378.902	-147.253	-0.337	-0.029
-377.888	40.843	0.088	-0.079
-376.873	-200.000	0.007	0.060
-375.858	-200.000	-0.010	-0.226
-374.844	-112.279	-0.222	-0.044
-373.829	57.667	0.114	0.111
-372.815	-200.000	-0.035	0.199
-371.800	-115.430	0.287	0.054
-370.785	-163.094	0.251	0.012
-369.771	-10.122	-0.061	-0.040
-368.756	541.593	0.122	0.290
-367.742	-52.679	-0.097	-0.044
-366.727	24.243	0.371	-0.304
-365.712	-4.931	-0.311	-0.213
-364.698	636.789	0.095	0.240
-363.683	-35.676	-0.062	-0.033
-362.669	-69.057	0.218	0.084
-361.654	-49.074	0.404	0.192
-360.639	-200.000	0.021	-0.127
-359.625	-47.845	-0.153	0.074
-358.610	-200.000	0.055	-0.263
-357.596	-4.276	0.235	-0.161
-356.581	122.967	0.075	-0.094
-355.566	498.333	-0.030	0.068
-354.552	-73.131	0.028	0.010
-353.537	-59.691	-0.231	-0.098
-352.523	737.573	0.107	0.285
-351.508	131.303	0.142	0.182
-350.493	-48.143	0.171	-0.082
-349.479	37.154	-0.226	-0.199
-348.464	-200.000	0.007	-0.105
-347.450	499.207	0.107	-0.246
-346.435	81.883	0.232	-0.249
-345.420	79.913	-0.179	-0.191
-344.406	193.509	0.083	-0.124
-343.391	12.395	-0.294	0.225
-342.377	-129.285	-0.109	0.015
-341.362	800.000	0.029	0.105
-340.348	-39.913	-0.331	0.171
-339.333	-144.098	0.200	-0.019
-338.318	-129.017	0.265	-0.037
-337.304	-99.122	-0.180	-0.045
-336.289	-73.375	0.160	0.058
-335.275	10.502	0.103	-0.078
-334.260	-50.933	0.204	0.095
-333.245	-157.114	-0.300	0.018
-332.231	437.117	-0.028	-0.060
-331.216	-32.830	0.214	-0.118
-330.202	25.904	0.319	-0.264
-329.187	44.643	-0.079	-0.072
-328.172	-68.788	-0.393	-0.151
-327.158	-107.618	-0.561	-0.122
-326.143	102.491	-0.175	0.203
-325.129	26.494	0.050	0.041
-324.114	89.440	0.154	-0.170
-323.099	-66.536	-0.089	-0.035
-322.085	233.043	-0.122	0.199
-321.070	273.706	-0.119	0.209
-320.056	-45.756	-0.383	-0.188
-319.041	252.708	-0.033	-0.055
-318.026	137.721	0.041	0.054
-317.012	293.657	0.116	0.209
-315.997	-21.251	0.161	-0.098
-314.983	194.827	-0.040	0.061
-313.968	109.360	-0.175	-0.208
-312.953	-82.069	0.166	0.054
-311.939	2.706	0.243	0.175
-310.924	800.000	-0.051	-0.164
-309.910	21.523	0.077	0.062
-308.895	-50.335	0.203	-0.095
-307.880	-200.000	0.001	0.305
-306.866	-120.421	-0.136	-0.023
-305.851	50.022	0.138	0.129
-304.837	-159.734	0.105	-0.006
-303.822	346.713	-0.085	-0.166
-302.807	-200.000	0.016	0.287
-301.793	-76.985	-0.259	0.090
-300.778	800.000	-0.113	0.448
-299.764	10.835	0.020	0.015
-298.749	129.499	-0.128	-0.162
-297.735	96.061	0.159	-0.180
-296.720	59.337	0.168	0.164
-295.705	-200.000	0.006	0.058
-294.691	42.261	-0.193	0.174
-293.676	47.206	-0.201	0.186
-292.662	800.000	-0.041	-0.132
-291.647	-115.374	-0.251	0.047
-290.632	-122.929	0.082	-0.013
-289.618	-91.427	-0.154	-0.044
-288.603	31.139	0.276	-0.234
-287.589	-151.916	0.167	-0.012
-286.574	-62.668	-0.381	-0.157
-285.559	763.478	-0.029	-0.079
-284.545	112.660	-0.407	0.489
-283.530	92.899	0.207	-0.232
-282.516	228.224	0.146	-0.236
-281.501	663.747	0.042	0.106
-280.486	800.000	0.121	-0.486
-279.472	-200.000	-0.006	0.115
-278.457	800.000	-0.090	0.290
-277.443	-200.000	-0.018	0.381
-276.428	-131.440	-0.356	-0.047
-275.413	-200.000	0.011	0.081
-274.399	180.805	-0.161	0.234
-273.384	-138.501	-0.240	0.026
-272.370	198.164	0.062	-0.094
-271.355	649.098	-0.106	0.268
-270.340	-113.574	-0.124	-0.024
-269.326	461.434	-0.189	-0.417
-268.311	-200.000	0.035	0.280
-267.297	31.224	-0.135	-0.114
-266.282	-200.000	0.027	0.219
-265.267	-200.000	0.018	-0.158
-264.253	800.000	0.049	-0.149
-263.238	407.446	0.098	-0.205
-262.224	65.984	-0.205	0.206
-261.209	52.060	0.135	0.127
-260.195	47.538	-0.255	0.236
-259.180	22.749	0.171	0.138
-258.165	-200.000	0.006	0.213
-257.151	800.000	-0.048	-0.144
-256.136	-36.730	0.077	-0.041
-255.122	481.419	-0.075	-0.168
-254.107	-200.000	0.041	-0.213
-253.092	-23.611	0.270	-0.160
-252.078	-40.077	0.306	0.158
-251.063	-82.401	-0.267	-0.086
-250.049	-102.814	0.240	-0.057
-249.034	-30.320	0.200	-0.113
-248.019	800.000	0.109	-0.366
-247.005	-73.412	-0.280	-0.101
-245.990	704.164	-0.186	-0.485
-244.976	127.945	0.227	-0.285
-243.961	-12.550	0.051	-0.033
-242.946	-87.941	0.189	-0.056
-241.932	-34.493	0.273	0.148
-240.917	-88.770	0.129	0.038
-239.903	91.580	-0.137	-0.153
-238.888	-13.888	0.173	0.111
-237.873	737.011	0.126	0.333
-236.859	-200.000	-0.085	-0.396
-235.844	113.042	-0.067	-0.080
-234.830	800.000	0.077	0.273
-233.815	-200.000	-0.146	-0.001
-232.800	-200.000	-0.029	0.184
-231.786	-35.049	-0.133	0.072
-230.771	-200.000	-0.006	-0.064
-229.757	-5.908	-0.113	0.076
-228.742	-160.032	-0.230	-0.012
-227.727	272.601	-0.046	0.080
-226.713	-123.458	0.341	-0.054
-225.698	98.543	0.227	0.259
-224.684	44.257	0.105	0.095
-223.669	-86.190	0.230	-0.070
-222.655	-200.000	-0.002	0.090
-221.640	-24.878	0.189	-0.111
-220.625	9.626	0.186	0.139
-219.611	15.523	0.217	0.169
-218.596	31.016	0.310	0.263
-217.582	-200.000	-0.027	0.216
-216.567	800.000	0.064	0.186
-215.552	-200.000	0.012	-0.442
-214.538	74.641	-0.089	-0.093
-213.523	424.015	0.014	0.029
-212.509	-200.000	-0.020	-0.197
-211.494	-85.949	-0.109	0.033
-210.479	-15.060	-0.126	-0.080
-209.465	-200.000	-0.027	0.209
-208.450	-84.561	0.134	0.042
-207.436	-200.000	0.008	-0.177
-206.421	-38.781	0.123	0.064
-205.406	10.543	0.499	-0.376
-204.392	-137.076	-0.204	-0.023
-203.377	-200.000	-0.011	-0.321
-202.363	141.566	0.094	-0.123
-201.348	274.785	-0.113	-0.197
-200.333	-113.444	0.108	-0.021
-199.319	-38.871	-0.232	0.121
-198.304	556.491	-0.035	-0.083
-197.290	-200.000	0.047	0.323
-196.275	14.656	-0.224	0.173
-195.260	-163.861	0.428	0.020
-194.246	351.591	-0.151	0.296
-193.231	800.000	0.007	-0.020
-192.217	-34.759	0.223	-0.120
-191.202	-56.367	0.115	-0.050
-190.187	-109.880	0.313	-0.065
-189.173	-109.743	0.139	0.029
-188.158	9.633	-0.190	-0.142
-187.144	-156.279	0.361	-0.022
-186.129	-101.243	-0.123	-0.030
-185.114	334.963	0.180	0.345
-184.100	-200.000	-0.024	0.119
-183.085	-35.846	0.088	-0.047
-182.071	1.823	0.294	0.209
-181.056	-24.360	-0.049	0.029
-180.042	800.000	0.022	-0.076
-179.027	-47.183	0.154	-0.074
-178.012	-200.000	-0.011	-0.224
-176.998	-44.303	0.083	-0.041
-175.983	51.463	-0.141	0.133
-174.969	-200.000	-0.006	-0.208
-173.954	-200.000	-0.065	-0.330
-172.939	163.949	-0.072	0.100
-171.925	-200.000	0.053	-0.280
-170.910	800.000	0.064	-0.191
-169.896	571.630	-0.020	0.048
-168.881	-200.000	0.008	-0.045
-167.866	-67.252	-0.108	0.042
-166.852	-126.170	-0.297	0.044
-165.837	-100.397	0.156	-0.038
-164.823	-200.000	-0.005	-0.162
-163.808	-97.390	0.334	0.086
-162.793	646.852	-0.122	-0.309
-161.779	475.072	-0.118	-0.262
-160.764	-200.000	-0.040	-0.235
-159.750	636.618	0.139	0.347
-158.735	43.001	-0.236	0.212
-157.720	201.291	-0.130	0.198
-156.706	-35.589	-0.214	-0.114
-155.691	94.309	0.085	-0.096
-154.677	5.659	-0.146	-0.106
-153.662	352.293	0.094	0.184
-152.647	800.000	0.123	0.358
-151.633	-167.552	0.123	-0.005
-150.618	16.426	0.146	0.114
-149.604	-49.698	0.237	-0.111
-148.589	-101.242	-0.183	0.044
-147.574	-154.827	0.265	-0.017
-146.560	-50.466	-0.148	0.069
-145.545	232.655	0.170	0.276
-144.531	-79.714	-0.028	-0.009
-143.516	800.000	-0.094	0.379
-142.502	-1.624	0.159	0.111
-141.487	-77.044	0.026	0.009
-140.472	-6.824	0.144	-0.096
-139.458	-7.267	0.131	-0.088
-138.443	201.217	0.071	0.108
-137.429	0.405	0.095	0.067
-136.414	606.651	-0.073	-0.180
-135.399	-60.642	-0.152	0.064
-134.385	-109.508	0.262	0.055
-133.370	-200.000	0.005	-0.266
-132.356	-183.739	-0.386	-0.006
-131.341	-28.080	0.322	0.183
-130.326	-73.351	0.200	-0.072
-129.312	-28.086	0.098	0.056
-128.297	220.309	-0.152	-0.240
-127.283	386.271	-0.140	0.284
-126.268	-190.422	-0.087	0.001
-125.253	91.140	0.195	0.216
-124.239	111.092	-0.179	0.213
-123.224	-16.259	-0.129	-0.080
-122.210	-43.980	-0.356	0.176
-121.195	-200.000	0.001	0.016
