DTS Sentinel unit serial number:	SN413079Multiplexer serial number:	ORYXHardware model number:	OX4-SRSoftware version number:	ORYX F/W v4.00 Oryx Data Collector v3.7.2.0data status	okinstallation	princeton_trtdifferential loss correction	single-endedforward channel	channel 3reverse channel	N/Adate	2019/09/16time	07:32:35forward acquisition time	60.00reverse acquisition time	0.00gamma	496.2192k internal	0.2333k external	0.2333temperature offset calibration	0.9958default loss term (dB/km)	0.3790temperature slope calibration	1.0000multiplexer offset coefficient	1.0000multiplexer slope coefficient	1.0000fibre end	0.00T internal ref (°C)	27.64T ext. ref 1 (°C)	11.64T ext. ref 2 (°C)	24.05length (m)	temperature (°C)	Stokes	anti-Stokes-747.200	-56.537	-0.180	-0.080
-746.185	83.127	-0.094	0.103
-745.171	-5.698	-0.114	0.079
-744.156	-113.629	0.062	0.012
-743.142	-200.000	-0.024	0.125
-742.127	800.000	-0.032	-0.127
-741.112	-200.000	0.036	0.246
-740.098	-73.689	0.110	-0.040
-739.083	60.253	0.144	-0.143
-738.069	727.112	-0.118	0.317
-737.054	-79.943	-0.279	0.094
-736.039	-78.473	-0.338	0.117
-735.025	800.000	0.041	0.131
-734.010	-97.262	-0.209	-0.055
-732.996	681.869	0.052	-0.136
-731.981	-86.163	-0.290	0.090
-730.966	50.732	-0.042	0.040
-729.952	-11.221	0.348	-0.231
-728.937	-120.865	-0.141	-0.024
-727.923	-31.092	-0.225	-0.128
-726.908	-5.545	-0.119	0.082
-725.894	-188.633	-0.404	-0.005
-724.879	-200.000	-0.063	0.293
-723.864	-40.360	0.268	0.140
-722.850	-83.344	-0.199	0.064
-721.835	16.367	-0.134	0.106
-720.821	-84.980	0.275	-0.087
-719.806	39.015	0.110	-0.099
-718.791	-41.952	-0.180	0.092
-717.777	800.000	-0.095	-0.340
-716.762	800.000	-0.069	-0.256
-715.748	77.416	-0.288	-0.308
-714.733	-19.472	0.305	-0.190
-713.718	-94.832	0.072	0.020
-712.704	-200.000	0.045	-0.231
-711.689	21.313	-0.233	-0.190
-710.675	-164.253	0.247	-0.011
-709.660	-75.795	0.135	0.048
-708.645	-200.000	-0.068	0.476
-707.631	-60.061	0.200	0.086
-706.616	38.047	0.148	-0.132
-705.602	9.725	-0.137	-0.104
-704.587	-163.159	-0.212	0.010
-703.572	27.762	0.099	-0.084
-702.558	62.218	-0.079	-0.079
-701.543	650.542	-0.069	0.178
-700.529	800.000	-0.079	-0.293
-699.514	-68.986	0.108	0.042
-698.499	-191.230	0.248	0.003
-697.485	-54.297	-0.392	-0.179
-696.470	31.434	-0.109	0.094
-695.456	800.000	-0.090	-0.314
-694.441	8.495	-0.308	0.232
-693.426	-43.295	-0.164	-0.083
-692.412	32.681	-0.231	-0.200
-691.397	2.512	-0.275	-0.200
-690.383	-46.154	-0.153	-0.076
-689.368	205.888	0.148	0.231
-688.354	-18.575	0.014	0.009
-687.339	116.849	0.085	0.105
-686.324	142.159	0.043	0.057
-685.310	-125.993	-0.167	-0.025
-684.295	-48.621	-0.065	0.031
-683.281	-62.962	0.030	-0.013
-682.266	-155.922	-0.305	0.019
-681.251	-33.742	-0.070	-0.039
-680.237	-38.873	0.138	0.073
-679.222	-93.297	-0.051	-0.014
-678.208	23.717	-0.134	0.110
-677.193	-151.656	0.237	0.018
-676.178	-13.979	-0.110	0.071
-675.164	44.649	0.124	0.115
-674.149	800.000	0.109	-0.386
-673.135	671.996	0.021	-0.055
-672.120	-81.842	0.235	0.077
-671.105	589.078	0.052	0.128
-670.091	36.527	-0.051	0.045
-669.076	524.669	-0.033	-0.078
-668.062	-200.000	-0.014	-0.227
-667.047	45.786	-0.190	0.176
-666.032	-67.877	-0.056	-0.022
-665.018	-101.263	0.216	0.053
-664.003	-81.753	-0.088	0.029
-662.989	552.559	0.086	-0.208
-661.974	-2.326	-0.115	-0.081
-660.959	-164.552	-0.464	0.021
-659.945	-120.096	-0.519	0.089
-658.930	-67.175	-0.171	0.067
-657.916	-200.000	0.101	0.521
-656.901	82.722	-0.112	-0.122
-655.886	-124.393	-0.245	-0.038
-654.872	-200.000	-0.041	-0.228
-653.857	-176.624	-0.082	0.002
-652.843	321.327	0.066	0.125
-651.828	-60.430	-0.184	0.078
-650.814	800.000	0.122	-0.408
-649.799	-137.378	-0.226	-0.026
-648.784	-172.046	0.152	0.005
-647.770	228.791	-0.084	0.138
-646.755	-17.122	-0.216	0.136
-645.741	232.790	-0.163	-0.268
-644.726	28.827	-0.214	0.182
-643.711	-200.000	0.050	0.289
-642.697	46.852	0.179	0.167
-641.682	115.610	-0.242	-0.297
-640.668	464.153	0.171	-0.382
-639.653	-113.098	0.227	0.045
-638.638	-147.265	0.082	-0.007
-637.624	15.932	0.043	0.034
-636.609	-200.000	-0.024	0.265
-635.595	-147.611	0.485	0.041
-634.580	-98.846	0.099	0.025
-633.565	-200.000	0.018	0.156
-632.551	800.000	0.074	0.278
-631.536	-200.000	-0.001	0.007
-630.522	-200.000	-0.059	-0.351
-629.507	-46.501	0.210	0.103
-628.492	595.591	0.076	-0.188
-627.478	-112.007	-0.056	-0.011
-626.463	125.614	0.108	-0.136
-625.449	800.000	-0.064	0.262
-624.434	121.404	-0.117	0.146
-623.419	151.008	-0.131	-0.178
-622.405	800.000	0.129	-0.424
-621.390	-83.801	-0.313	0.100
-620.376	-200.000	-0.033	0.289
-619.361	-200.000	0.040	0.279
-618.346	-200.000	0.023	0.245
-617.332	261.779	0.217	-0.377
-616.317	38.540	0.079	-0.071
-615.303	-31.988	0.314	-0.176
-614.288	565.226	0.108	0.261
-613.273	38.192	-0.066	0.059
-612.259	-200.000	-0.055	-0.318
-611.244	-45.027	0.167	0.083
-610.230	800.000	-0.039	-0.115
-609.215	15.381	0.179	0.141
-608.201	-72.513	-0.071	0.026
-607.186	25.085	-0.233	0.193
-606.171	-200.000	0.030	-0.328
-605.157	-161.881	-0.134	-0.007
-604.142	88.738	0.227	-0.252
-603.128	-104.081	0.224	-0.052
-602.113	-26.067	-0.158	-0.093
-601.098	-176.505	0.271	0.007
-600.084	-10.352	-0.133	-0.088
-599.069	-105.213	-0.431	0.098
-598.055	12.442	-0.182	0.140
-597.040	-200.000	0.014	-0.173
-596.025	59.104	0.132	0.130
-595.011	-79.378	0.328	-0.111
-593.996	145.175	0.256	0.342
-592.982	-175.259	-0.023	0.001
-591.967	-17.620	0.206	0.130
-590.952	-9.149	-0.149	0.100
-589.938	-200.000	-0.013	-0.239
-588.923	-69.013	-0.108	0.042
-587.909	-64.655	0.340	0.138
-586.894	345.082	0.091	0.179
-585.879	517.093	0.025	-0.058
-584.865	-130.425	-0.222	0.030
-583.850	536.920	0.078	0.186
-582.836	800.000	0.064	0.266
-581.821	251.632	0.097	0.165
-580.806	800.000	0.045	0.173
-579.792	-36.129	0.163	0.088
-578.777	-22.250	0.100	0.060
-577.763	26.376	0.050	0.042
-576.748	296.100	-0.036	-0.066
-575.733	-200.000	-0.082	-0.620
-574.719	-200.000	0.282	0.000
-573.704	-53.754	0.160	0.073
-572.690	-29.629	0.166	-0.095
-571.675	237.930	0.081	0.135
-570.661	-77.632	0.124	0.043
-569.646	-51.373	0.057	0.026
-568.631	-169.702	0.316	-0.011
-567.617	405.056	0.090	0.190
-566.602	-200.000	-0.026	-0.186
-565.588	-90.608	-0.182	-0.053
-564.573	-81.741	-0.071	-0.023
-563.558	-127.008	0.278	-0.041
-562.544	28.778	-0.153	-0.129
-561.529	800.000	-0.063	-0.225
-560.515	-200.000	-0.009	-0.154
-559.500	-158.402	-0.143	-0.008
-558.485	800.000	0.037	-0.114
-557.471	-192.947	-0.310	-0.003
-556.456	71.871	0.191	0.198
-555.442	39.416	0.188	0.168
-554.427	-24.141	-0.091	0.054
-553.412	71.981	0.040	-0.041
-552.398	-147.489	0.141	0.012
-551.383	1.249	0.109	-0.078
-550.369	248.212	0.032	-0.053
-549.354	46.999	0.125	0.116
-548.339	-200.000	-0.011	-0.189
-547.325	153.319	0.045	-0.061
-546.310	75.739	0.095	-0.100
-545.296	145.757	0.104	-0.138
-544.281	183.147	-0.081	-0.120
-543.266	26.053	0.293	-0.244
-542.252	56.809	0.052	0.051
-541.237	800.000	-0.097	0.346
-540.223	800.000	-0.057	0.158
-539.208	-200.000	-0.001	-0.048
-538.193	7.424	-0.454	-0.339
-537.179	-200.000	0.026	-0.492
-536.164	-189.067	-0.134	-0.002
-535.150	-200.000	0.007	-0.139
-534.135	105.113	-0.090	-0.107
-533.121	-170.532	0.206	0.007
-532.106	76.113	0.152	-0.160
-531.091	165.102	-0.208	-0.293
-530.077	-37.936	-0.204	0.108
-529.062	-84.813	0.035	0.011
-528.048	78.731	0.236	-0.251
-527.033	122.383	-0.082	0.102
-526.018	304.393	0.057	0.105
-525.004	-200.000	0.010	0.145
-523.989	599.838	-0.063	-0.156
-522.975	-143.321	-0.243	-0.023
-521.960	208.524	-0.085	0.133
-520.945	-200.000	0.042	0.246
-519.931	-200.000	-0.011	0.064
-518.916	122.823	-0.266	0.332
-517.902	33.437	-0.092	-0.079
-516.887	-87.052	-0.343	0.104
-515.872	-200.000	0.012	-0.153
-514.858	800.000	0.103	0.414
-513.843	-200.000	0.003	0.199
-512.829	502.078	0.089	-0.205
-511.814	-200.000	0.040	-0.221
-510.799	-136.284	0.255	0.030
-509.785	245.798	-0.208	-0.350
-508.770	-89.788	0.248	-0.072
-507.756	71.423	-0.186	-0.192
-506.741	-19.023	-0.094	-0.058
-505.726	81.404	-0.162	-0.174
-504.712	800.000	-0.082	-0.269
-503.697	800.000	-0.020	-0.085
-502.683	800.000	-0.057	-0.156
-501.668	-17.614	-0.197	0.124
-500.653	16.810	-0.206	-0.162
-499.639	176.100	0.095	0.138
-498.624	-140.823	-0.328	0.034
-497.610	-200.000	0.053	0.305
-496.595	-55.468	-0.112	-0.050
-495.581	213.739	-0.005	0.007
-494.566	-26.088	-0.208	-0.122
-493.551	173.508	0.131	-0.188
-492.537	5.962	-0.036	-0.027
-491.522	379.669	-0.122	-0.249
-490.508	-102.555	0.079	0.019
-489.493	-200.000	-0.010	0.146
-488.478	-19.768	-0.323	-0.199
-487.464	78.744	-0.165	0.176
-486.449	232.754	0.110	-0.181
-485.435	-31.222	0.193	-0.108
-484.420	687.974	-0.048	0.126
-483.405	-0.913	0.065	0.046
-482.391	303.991	0.093	-0.171
-481.376	213.746	0.090	0.142
-480.362	-135.247	-0.141	-0.017
-479.347	30.267	0.173	-0.147
-478.332	-136.804	-0.174	0.020
-477.318	800.000	0.060	0.172
-476.303	-168.100	-0.244	-0.009
-475.289	708.912	-0.156	-0.410
-474.274	15.153	-0.550	-0.429
-473.259	27.910	-0.203	-0.170
-472.245	800.000	-0.134	0.381
-471.230	-104.076	0.249	0.058
-470.216	29.603	-0.160	0.135
-469.201	-200.000	-0.028	0.147
-468.186	206.418	0.102	0.157
-467.172	-76.698	-0.293	-0.102
-466.157	213.586	0.140	-0.221
-465.143	-200.000	-0.036	0.314
-464.128	305.274	-0.077	-0.143
-463.113	787.941	-0.060	0.163
-462.099	358.400	-0.056	-0.112
-461.084	6.566	0.136	-0.100
-460.070	110.570	0.132	0.157
-459.055	-120.233	-0.087	-0.015
-458.040	123.854	0.140	0.175
-457.026	15.270	0.060	-0.046
-456.011	-200.000	-0.025	-0.309
-454.997	-159.370	0.374	0.021
-453.982	-11.455	-0.219	-0.143
-452.968	303.779	0.121	0.224
-451.953	-77.014	0.293	0.102
-450.938	-15.582	0.204	-0.129
-449.924	-167.935	-0.292	-0.011
-448.909	800.000	0.051	-0.212
-447.895	-200.000	0.039	-0.430
-446.880	164.110	-0.210	0.294
-445.865	-16.370	0.209	-0.132
-444.851	296.267	0.074	0.135
-443.836	332.185	0.110	-0.210
-442.822	800.000	-0.103	-0.289
-441.807	740.548	0.117	-0.312
-440.792	315.913	-0.151	0.282
-439.778	-29.787	-0.263	-0.149
-438.763	22.245	0.301	0.244
-437.749	-200.000	-0.040	0.254
-436.734	180.968	0.110	-0.161
-435.719	-200.000	0.021	0.124
-434.705	96.208	0.131	0.149
-433.690	-9.894	-0.300	-0.198
-432.676	-182.845	0.242	0.004
-431.661	109.404	0.164	-0.195
-430.646	6.299	0.331	0.244
-429.632	20.467	-0.184	-0.147
-428.617	-200.000	0.003	-0.101
-427.603	84.501	-0.127	-0.138
-426.588	-72.211	-0.263	0.097
-425.573	-8.017	-0.110	0.073
-424.559	-200.000	0.002	0.032
-423.544	800.000	-0.056	0.155
-422.530	800.000	0.071	-0.299
-421.515	-55.975	0.265	0.117
-420.500	189.154	0.153	0.227
-419.486	24.980	0.169	-0.139
-418.471	800.000	-0.110	-0.403
-417.457	-129.675	-0.322	0.044
-416.442	276.416	0.090	0.159
-415.428	-93.922	0.329	-0.090
-414.413	800.000	0.042	-0.125
-413.398	148.783	-0.143	-0.191
-412.384	-135.884	-0.146	0.017
-411.369	106.997	-0.170	0.200
-410.355	-95.892	-0.374	-0.099
-409.340	-200.000	-0.017	-0.200
-408.325	417.827	0.189	-0.400
-407.311	-41.935	-0.080	-0.040
-406.296	106.414	-0.178	0.209
-405.282	-177.355	-0.163	-0.004
-404.267	-34.027	0.077	-0.042
-403.252	-67.298	0.147	0.057
-402.238	324.019	-0.115	-0.217
-401.223	-44.753	0.240	-0.119
-400.209	-99.647	-0.129	-0.032
-399.194	-123.730	0.150	0.023
-398.179	-4.993	0.109	0.074
-397.165	-63.467	-0.057	0.023
-396.150	-200.000	0.014	-0.302
-395.136	135.331	0.170	0.220
-394.121	-4.120	-0.137	0.094
-393.106	-143.232	0.187	0.018
-392.092	640.368	0.066	0.166
-391.077	800.000	-0.008	0.029
-390.063	-55.422	0.102	-0.045
-389.048	800.000	0.089	-0.251
-388.033	314.036	-0.094	0.175
-387.019	800.000	-0.106	0.312
-386.004	141.012	-0.035	0.046
-384.990	-145.981	0.186	0.016
-383.975	-200.000	0.002	-0.021
-382.960	-9.616	0.351	0.232
-381.946	-18.836	0.138	-0.085
-380.931	-151.130	0.151	-0.011
-379.917	-200.000	-0.042	0.207
-378.902	-200.000	0.039	-0.253
-377.888	-200.000	-0.001	-0.082
-376.873	800.000	-0.119	0.433
-375.858	-200.000	0.021	0.310
-374.844	-200.000	0.007	0.122
-373.829	53.641	-0.329	-0.313
-372.815	-14.611	-0.212	0.135
-371.800	800.000	0.016	0.054
-370.785	-200.000	-0.014	0.166
-369.771	800.000	0.040	-0.153
-368.756	-2.131	-0.080	-0.056
-367.742	-60.712	-0.076	-0.032
-366.727	-165.477	-0.150	-0.007
-365.712	50.362	0.171	-0.160
-364.698	-200.000	-0.010	0.256
-363.683	111.163	-0.195	-0.232
-362.669	176.128	-0.105	0.151
-361.654	-112.892	0.246	-0.048
-360.639	81.592	-0.105	0.113
-359.625	375.989	-0.095	0.193
-358.610	800.000	0.062	0.190
-357.596	-113.696	0.179	-0.035
-356.581	-200.000	0.036	0.167
-355.566	149.448	0.180	-0.242
-354.552	215.110	0.051	-0.079
-353.537	281.892	0.059	0.105
-352.523	-8.077	0.283	-0.189
-351.508	51.887	0.174	-0.164
-350.493	-132.248	0.087	-0.011
-349.479	-200.000	-0.089	0.473
-348.464	-50.301	-0.116	0.054
-347.450	-50.142	-0.165	-0.077
-346.435	737.206	0.101	0.268
-345.420	-67.409	-0.243	0.094
-344.406	-84.165	0.138	0.043
-343.391	117.255	-0.019	-0.023
-342.377	-65.086	0.332	-0.133
-341.362	81.012	0.292	-0.312
-340.348	-79.565	-0.239	0.080
-339.333	711.948	0.089	0.233
-338.318	89.595	0.261	0.289
-337.304	-5.900	-0.241	0.163
-336.289	76.502	0.325	-0.341
-335.275	-110.707	0.093	0.019
-334.260	-30.474	0.119	0.067
-333.245	415.127	0.070	0.147
-332.231	71.484	0.225	0.232
-331.216	153.397	-0.063	0.085
-330.202	-116.688	-0.114	0.021
-329.187	-20.679	-0.321	-0.195
-328.172	-200.000	-0.029	0.301
-327.158	174.679	0.085	-0.122
-326.143	-147.809	-0.158	-0.013
-325.129	123.890	-0.118	-0.147
-324.114	202.948	-0.125	-0.191
-323.099	42.507	0.058	0.052
-322.085	370.205	-0.173	-0.346
-321.070	48.709	0.211	0.195
-320.056	-200.000	-0.013	0.370
-319.041	800.000	0.048	0.192
-318.026	355.317	-0.031	0.061
-317.012	-89.545	-0.110	0.032
-315.997	-200.000	0.002	0.327
-314.983	496.295	0.079	-0.180
-313.968	241.702	-0.127	0.210
-312.953	533.476	0.090	0.210
-311.939	90.089	0.242	-0.267
-310.924	800.000	-0.010	-0.040
-309.910	82.609	0.245	0.263
-308.895	800.000	-0.119	-0.431
-307.880	45.547	-0.074	0.067
-306.866	-100.918	-0.238	-0.058
-305.851	-200.000	-0.044	0.191
-304.837	731.484	0.041	-0.108
-303.822	-200.000	0.009	-0.159
-302.807	215.391	0.116	-0.182
-301.793	-28.758	-0.061	-0.035
-300.778	445.150	-0.163	0.355
-299.764	40.568	-0.180	-0.160
-298.749	313.597	-0.054	0.101
-297.735	-5.029	0.190	-0.129
-296.720	-17.920	-0.089	-0.055
-295.705	-200.000	-0.023	0.129
-294.691	800.000	-0.066	-0.182
-293.676	-66.597	-0.127	0.050
-292.662	129.101	0.119	-0.150
-291.647	53.705	0.022	-0.021
-290.632	174.542	0.136	0.194
-289.618	-68.729	0.276	-0.105
-288.603	800.000	0.175	0.482
-287.589	-200.000	-0.035	0.159
-286.574	-93.229	0.143	-0.039
-285.559	-109.517	0.272	-0.057
-284.545	25.239	-0.213	-0.175
-283.530	-200.000	0.049	-0.237
-282.516	15.991	-0.133	0.104
-281.501	800.000	0.044	0.167
-280.486	800.000	-0.069	-0.222
-279.472	-200.000	0.046	0.315
-278.457	-200.000	0.015	0.066
-277.443	769.520	-0.052	-0.139
-276.428	-154.711	0.039	0.003
-275.413	-20.492	0.143	0.087
-274.399	-200.000	0.066	0.376
-273.384	-200.000	0.002	-0.014
-272.370	-200.000	0.027	0.190
-271.355	68.876	0.115	0.117
-270.340	-200.000	-0.024	0.124
-269.326	800.000	-0.131	-0.447
-268.311	-200.000	-0.020	-0.108
-267.297	162.763	-0.036	-0.049
-266.282	-200.000	-0.008	0.214
-265.267	7.139	-0.291	-0.214
-264.253	-168.064	-0.181	-0.007
-263.238	-29.880	-0.190	-0.107
-262.224	46.373	0.024	0.022
-261.209	800.000	-0.026	0.103
-260.195	10.295	-0.141	0.106
-259.180	-72.652	0.201	-0.073
-258.165	92.363	-0.151	-0.168
-257.151	-10.288	0.051	0.033
-256.136	505.837	0.022	-0.049
-255.122	190.792	-0.084	-0.125
-254.107	57.929	0.105	-0.101
-253.092	-200.000	0.009	0.264
-252.078	-37.168	0.241	0.127
-251.063	43.776	0.101	-0.091
-250.049	800.000	0.068	0.220
-249.034	-125.490	-0.073	0.011
-248.019	-105.526	-0.149	0.033
-247.005	-200.000	-0.003	0.019
-245.990	628.293	0.049	0.122
-244.976	-200.000	0.020	-0.097
-243.961	260.068	-0.104	-0.177
-242.946	-78.639	-0.094	-0.032
-241.932	-30.773	-0.338	-0.188
-240.917	10.802	0.089	0.067
-239.903	97.814	-0.100	-0.113
-238.888	-64.835	-0.294	-0.117
-237.873	-200.000	-0.012	-0.127
-236.859	-64.847	-0.246	0.098
-235.844	24.175	-0.253	0.206
-234.830	395.246	-0.192	0.394
-233.815	83.538	0.200	-0.215
-232.800	-200.000	-0.053	-0.350
-231.786	-43.454	0.098	0.049
-230.771	-60.300	0.162	0.068
-229.757	-77.257	-0.168	0.058
-228.742	136.514	0.240	0.309
-227.727	454.657	-0.045	0.098
-226.713	-200.000	0.095	0.434
-225.698	-180.387	0.363	0.007
-224.684	-200.000	-0.014	-0.359
-223.669	-200.000	0.018	0.212
-222.655	-200.000	-0.035	-0.282
-221.640	-122.026	-0.180	-0.029
-220.625	-200.000	-0.051	0.251
-219.611	377.690	-0.133	0.268
-218.596	800.000	-0.062	0.191
-217.582	-178.848	0.253	0.006
-216.567	-55.166	0.069	-0.031
-215.552	16.071	0.460	-0.357
-214.538	800.000	0.051	-0.197
-213.523	10.066	0.119	-0.089
-212.509	-200.000	0.014	-0.238
-211.494	133.623	-0.093	0.118
-210.479	800.000	0.068	-0.221
-209.465	-21.196	-0.434	0.261
-208.450	338.445	-0.150	0.287
-207.436	-200.000	-0.001	0.155
-206.421	21.275	-0.572	-0.457
-205.406	102.411	0.250	-0.288
-204.392	-53.214	-0.400	0.181
-203.377	374.152	-0.108	-0.216
-202.363	-108.977	0.067	-0.014
-201.348	-26.758	-0.135	-0.078
-200.333	-65.162	0.259	0.103
-199.319	-2.735	0.232	-0.160
-198.304	800.000	0.134	-0.419
-197.290	800.000	-0.012	0.039
-196.275	-177.465	-0.106	0.003
-195.260	141.467	-0.224	0.292
-194.246	-74.800	0.015	-0.005
-193.231	122.641	-0.289	-0.356
-192.217	96.698	-0.051	0.057
-191.202	16.106	-0.034	0.026
-190.187	800.000	-0.049	0.149
-189.173	227.466	-0.208	0.333
-188.158	-178.094	0.222	-0.005
-187.144	560.487	0.126	-0.301
-186.129	402.079	0.135	0.278
-185.114	-200.000	0.014	-0.259
-184.100	105.612	-0.099	-0.115
-183.085	27.949	0.255	-0.212
-182.071	24.122	-0.128	0.104
-181.056	800.000	-0.082	0.256
-180.042	-18.507	0.204	-0.126
-179.027	-200.000	-0.020	-0.122
-178.012	-200.000	-0.013	-0.106
-176.998	25.956	-0.048	0.039
-175.983	582.535	-0.082	0.198
-174.969	8.062	0.065	-0.048
-173.954	177.709	-0.282	0.405
-172.939	800.000	-0.104	-0.308
-171.925	-200.000	0.012	0.155
-170.910	-21.074	0.248	0.149
-169.896	631.212	0.053	-0.132
-168.881	150.416	0.085	0.114
-167.866	-200.000	-0.055	0.409
-166.852	222.583	0.136	0.216
-165.837	-41.127	0.070	-0.036
-164.823	-58.831	0.030	-0.013
-163.808	-100.660	-0.203	0.049
-162.793	800.000	-0.048	-0.182
-161.779	-159.295	-0.306	-0.017
-160.764	800.000	-0.088	0.281
-159.750	97.638	0.161	-0.181
-158.735	31.777	-0.155	-0.131
-157.720	-200.000	0.037	-0.353
-156.706	-200.000	-0.043	0.519
-155.691	-200.000	0.004	0.356
-154.677	83.694	-0.040	0.043
-153.662	-55.137	0.222	0.098
-152.647	-56.105	-0.130	0.057
-151.633	41.443	-0.214	-0.190
-150.618	800.000	0.046	0.172
-149.604	800.000	-0.056	-0.214
-148.589	-29.010	0.121	-0.068
-147.574	631.164	0.066	-0.165
-146.560	-200.000	0.006	0.262
-145.545	-200.000	-0.050	0.220
-144.531	523.131	-0.091	-0.210
-143.516	367.162	-0.076	0.151
-142.502	30.282	-0.045	0.038
-141.487	-200.000	0.005	0.291
-140.472	105.313	-0.311	-0.361
-139.458	516.274	0.071	-0.164
-138.443	523.560	-0.173	0.398
-137.429	29.517	0.345	0.288
-136.414	68.635	0.161	0.162
-135.399	-107.141	-0.248	0.054
-134.385	538.422	0.126	0.295
-133.370	800.000	0.006	-0.018
-132.356	-200.000	0.003	0.081
-131.341	-200.000	0.163	0.000
-130.326	-200.000	0.000	-0.311
-129.312	-200.000	-0.022	-0.235
-128.297	303.973	0.113	0.205
-127.283	-200.000	0.013	-0.147
-126.268	451.788	-0.097	0.210
-125.253	-59.673	-0.214	-0.090
-124.239	-166.354	0.179	-0.007
-123.224	-135.611	0.064	0.007
-122.210	383.318	0.096	-0.194
-121.195	-153.354	-0.194	0.013
-120.180	368.128	0.308	-0.611
