DTS Sentinel unit serial number:	SN413079Multiplexer serial number:	ORYXHardware model number:	OX4-SRSoftware version number:	ORYX F/W v4.00 Oryx Data Collector v3.7.2.0data status	okinstallation	princeton_trtdifferential loss correction	single-endedforward channel	channel 3reverse channel	N/Adate	2019/09/15time	06:52:35forward acquisition time	60.00reverse acquisition time	0.00gamma	496.2192k internal	0.2325k external	0.2325temperature offset calibration	0.9976default loss term (dB/km)	0.3790temperature slope calibration	1.0000multiplexer offset coefficient	1.0000multiplexer slope coefficient	1.0000fibre end	0.00T internal ref (°C)	30.50T ext. ref 1 (°C)	4.80T ext. ref 2 (°C)	25.51length (m)	temperature (°C)	Stokes	anti-Stokes-747.200	-91.905	0.146	-0.042
-746.185	-119.486	-0.179	-0.031
-745.171	37.485	0.072	0.065
-744.156	48.541	0.236	0.223
-743.142	-200.000	-0.007	0.081
-742.127	-200.000	0.001	0.217
-741.112	3.772	0.098	0.072
-740.098	483.104	-0.062	0.142
-739.083	-35.799	0.313	-0.171
-738.069	457.921	-0.062	-0.139
-737.054	-77.575	-0.187	0.065
-736.039	800.000	0.043	-0.146
-735.025	-115.377	-0.289	-0.055
-734.010	4.170	-0.283	0.209
-732.996	36.318	-0.173	-0.154
-731.981	-200.000	-0.023	-0.275
-730.966	-17.178	-0.303	-0.193
-729.952	76.469	0.237	0.253
-728.937	60.342	-0.063	-0.063
-727.923	142.948	0.065	0.087
-726.908	54.443	0.130	-0.126
-725.894	488.558	-0.183	-0.421
-724.879	-200.000	-0.011	0.111
-723.864	53.820	-0.381	-0.369
-722.850	-77.073	-0.098	-0.035
-721.835	-200.000	0.008	0.117
-720.821	-20.308	0.184	-0.115
-719.806	459.523	0.144	-0.322
-718.791	-8.932	-0.252	-0.170
-717.777	-53.918	-0.094	0.043
-716.762	5.002	0.220	0.163
-715.748	-12.329	-0.123	-0.081
-714.733	146.492	-0.177	0.239
-713.718	-8.150	0.104	0.071
-712.704	-150.826	0.198	0.015
-711.689	137.570	-0.241	-0.318
-710.675	23.523	0.196	-0.163
-709.660	-24.940	-0.171	-0.102
-708.645	207.942	-0.089	0.139
-707.631	-200.000	-0.026	0.230
-706.616	19.559	0.102	-0.082
-705.602	-17.831	0.241	0.153
-704.587	-111.926	-0.239	0.049
-703.572	-13.103	-0.173	-0.114
-702.558	-138.929	0.195	-0.021
-701.543	-119.395	-0.416	0.073
-700.529	-172.197	-0.106	-0.003
-699.514	6.597	0.283	-0.212
-698.499	96.258	0.230	0.265
-697.485	-32.423	-0.121	0.068
-696.470	256.021	0.066	-0.115
-695.456	-200.000	-0.032	-0.320
-694.441	120.806	-0.096	0.121
-693.426	-60.562	0.188	0.080
-692.412	-36.201	-0.192	0.104
-691.397	337.876	0.146	-0.286
-690.383	230.677	0.182	0.300
-689.368	-69.233	-0.264	0.102
-688.354	-42.346	-0.277	-0.143
-687.339	192.119	-0.157	0.239
-686.324	-45.040	-0.322	0.161
-685.310	-200.000	0.024	0.355
-684.295	175.869	0.106	-0.155
-683.281	800.000	-0.089	0.342
-682.266	-200.000	0.032	-0.265
-681.251	-78.672	-0.355	0.122
-680.237	30.078	0.093	0.079
-679.222	-55.516	-0.224	-0.101
-678.208	-69.512	-0.157	0.061
-677.193	-200.000	0.012	-0.061
-676.178	-200.000	-0.004	-0.345
-675.164	-125.589	-0.151	-0.023
-674.149	217.385	-0.203	-0.325
-673.135	-46.522	-0.300	0.148
-672.120	-200.000	0.024	0.232
-671.105	-104.052	-0.206	0.048
-670.091	171.982	-0.220	0.318
-669.076	-39.470	-0.369	-0.195
-668.062	-141.954	-0.458	0.046
-667.047	-200.000	0.027	0.182
-666.032	-105.261	0.115	0.026
-665.018	-137.720	-0.176	0.020
-664.003	-34.713	-0.113	0.062
-662.989	-99.837	0.165	0.042
-661.974	57.912	-0.269	-0.264
-660.959	-100.363	-0.314	0.078
-659.945	75.311	0.163	-0.173
-658.930	-4.865	-0.076	-0.053
-657.916	-27.624	-0.033	0.019
-656.901	800.000	-0.063	0.215
-655.886	-14.662	-0.198	0.128
-654.872	21.380	-0.172	0.140
-653.857	263.515	0.077	-0.135
-652.843	22.613	0.195	-0.160
-651.828	41.179	0.084	-0.077
-650.814	13.322	0.113	0.088
-649.799	-53.195	-0.080	-0.037
-648.784	-22.177	-0.038	0.023
-647.770	-200.000	0.008	0.327
-646.755	-200.000	0.026	-0.337
-645.741	800.000	-0.103	-0.351
-644.726	-200.000	0.005	-0.083
-643.711	-107.058	-0.205	-0.045
-642.697	56.959	0.187	0.183
-641.682	-142.183	0.312	0.031
-640.668	800.000	-0.049	-0.167
-639.653	-200.000	0.008	0.096
-638.638	-200.000	-0.020	0.352
-637.624	-200.000	-0.053	0.000
-636.609	-160.809	0.236	-0.013
-635.595	378.108	0.086	-0.177
-634.580	390.121	0.041	0.086
-633.565	-200.000	0.011	0.072
-632.551	-152.434	0.093	0.007
-631.536	429.828	0.193	-0.420
-630.522	-132.411	0.206	0.027
-629.507	66.017	-0.240	-0.245
-628.492	252.948	-0.154	-0.264
-627.478	306.757	-0.112	0.209
-626.463	800.000	0.013	-0.041
-625.449	391.770	0.087	-0.182
-624.434	-98.860	-0.259	0.066
-623.419	730.780	0.089	0.238
-622.405	-200.000	0.034	-0.198
-621.390	66.181	-0.250	-0.255
-620.376	-180.819	-0.288	-0.006
-619.361	28.787	-0.259	0.221
-618.346	47.538	-0.136	-0.127
-617.332	-40.879	-0.134	-0.070
-616.317	612.351	0.135	-0.338
-615.303	71.901	-0.117	-0.123
-614.288	-146.674	-0.118	0.010
-613.273	10.571	0.204	0.156
-612.259	35.398	-0.039	0.035
-611.244	-7.881	-0.188	0.127
-610.230	31.466	-0.149	-0.129
-609.215	-139.969	-0.172	0.018
-608.201	10.611	-0.228	0.174
-607.186	-200.000	-0.019	0.153
-606.171	223.539	0.090	-0.146
-605.157	-55.718	-0.121	-0.054
-604.142	-8.589	-0.229	-0.154
-603.128	800.000	0.087	0.366
-602.113	740.986	0.029	-0.078
-601.098	800.000	-0.061	-0.186
-600.084	-149.648	0.222	-0.018
-599.069	8.961	0.197	-0.149
-598.055	74.374	-0.070	-0.074
-597.040	-124.986	0.266	0.041
-596.025	-200.000	0.001	-0.035
-595.011	23.711	-0.267	-0.221
-593.996	-52.611	-0.205	0.095
-592.982	-76.305	-0.174	-0.061
-591.967	84.163	0.073	0.080
-590.952	-200.000	0.023	0.227
-589.938	-55.187	0.240	0.108
-588.923	144.051	-0.124	-0.166
-587.909	-167.984	0.082	-0.003
-586.894	134.424	0.054	-0.070
-585.879	-101.225	-0.118	-0.029
-584.865	-2.589	-0.234	0.164
-583.850	-200.000	-0.042	-0.394
-582.836	40.465	0.101	-0.091
-581.821	75.762	0.379	-0.401
-580.806	-126.063	0.061	-0.009
-579.792	316.852	0.090	0.170
-578.777	2.266	-0.107	-0.078
-577.763	-5.244	-0.227	-0.157
-576.748	626.338	-0.043	0.109
-575.733	-127.515	0.232	0.034
-574.719	755.885	-0.073	0.199
-573.704	-66.437	0.212	0.085
-572.690	50.350	-0.358	-0.339
-571.675	-129.342	0.220	-0.031
-570.661	-200.000	0.039	0.254
-569.646	219.528	0.111	-0.177
-568.631	-165.350	0.172	-0.008
-567.617	527.879	0.044	0.104
-566.602	516.715	0.044	-0.103
-565.588	75.577	-0.263	0.278
-564.573	-50.998	0.164	0.077
-563.558	800.000	0.097	0.342
-562.544	288.081	0.145	-0.264
-561.529	-8.000	0.175	-0.118
-560.515	149.440	-0.060	0.081
-559.500	179.527	0.385	-0.565
-558.485	1.313	-0.229	0.165
-557.471	-102.556	0.465	0.111
-556.456	-24.407	0.381	-0.228
-555.442	-9.747	-0.088	-0.059
-554.427	-85.676	0.112	-0.035
-553.412	-179.073	0.222	-0.005
-552.398	-44.397	0.165	-0.083
-551.383	244.039	-0.077	0.130
-550.369	-200.000	-0.004	0.149
-549.354	335.092	0.071	-0.138
-548.339	-160.704	-0.416	-0.022
-547.325	282.139	0.142	-0.254
-546.310	-104.623	0.307	0.071
-545.296	-143.943	-0.327	-0.031
-544.281	-60.088	-0.251	-0.107
-543.266	-35.788	-0.148	-0.080
-542.252	-148.509	-0.058	-0.005
-541.237	-200.000	-0.051	0.235
-540.223	86.025	-0.152	-0.167
-539.208	51.143	0.138	0.131
-538.193	800.000	0.135	-0.401
-537.179	-109.541	-0.166	-0.035
-536.164	372.949	0.186	0.379
-535.150	55.685	0.308	0.299
-534.135	-42.154	0.311	0.159
-533.121	-43.528	0.517	0.261
-532.106	-133.296	-0.116	0.015
-531.091	-200.000	-0.009	0.336
-530.077	440.938	0.023	0.051
-529.062	53.430	-0.142	0.136
-528.048	354.061	-0.034	-0.068
-527.033	200.889	-0.087	-0.134
-526.018	-101.622	0.260	-0.063
-525.004	22.104	0.165	-0.135
-523.989	-127.789	-0.242	0.035
-522.975	-200.000	-0.042	-0.205
-521.960	-5.536	0.081	0.056
-520.945	-148.792	0.296	-0.024
-519.931	-17.088	-0.156	-0.098
-518.916	226.352	0.170	0.276
-517.902	-47.478	-0.083	0.040
-516.887	81.600	-0.258	-0.279
-515.872	409.490	-0.036	0.076
-514.858	-25.724	-0.131	-0.077
-513.843	-119.538	0.291	-0.050
-512.829	-200.000	0.052	0.275
-511.814	41.467	0.118	-0.107
-510.799	124.290	0.201	0.253
-509.785	118.060	-0.151	-0.186
-508.770	-200.000	0.035	-0.312
-507.756	-131.179	0.193	0.026
-506.741	-145.801	-0.101	0.009
-505.726	-200.000	-0.005	-0.246
-504.712	330.790	0.060	0.115
-503.697	134.138	-0.139	0.180
-502.683	-9.326	-0.252	-0.169
-501.668	-47.593	-0.123	0.060
-500.653	-64.883	-0.025	0.010
-499.639	250.538	-0.139	-0.237
-498.624	-15.181	0.175	0.112
-497.610	-45.995	0.139	0.068
-496.595	118.642	-0.160	-0.197
-495.581	126.622	-0.084	-0.107
-494.566	-200.000	0.004	0.127
-493.551	-76.575	0.310	-0.109
-492.537	86.840	0.243	0.268
-491.522	800.000	-0.092	-0.361
-490.508	-106.972	-0.266	0.059
-489.493	-100.063	0.388	-0.097
-488.478	-114.815	-0.344	-0.066
-487.464	800.000	0.013	0.039
-486.449	-99.987	-0.247	0.062
-485.435	626.226	-0.100	0.252
-484.420	196.896	-0.209	-0.319
-483.405	-200.000	0.074	0.524
-482.391	638.189	0.046	-0.117
-481.376	215.686	-0.129	0.205
-480.362	-200.000	-0.012	0.228
-479.347	55.457	-0.097	-0.094
-478.332	-200.000	-0.008	-0.321
-477.318	435.187	-0.127	-0.276
-476.303	-200.000	-0.016	-0.169
-475.289	-50.159	-0.036	0.017
-474.274	340.752	-0.079	0.154
-473.259	-83.905	-0.353	-0.112
-472.245	156.140	0.108	0.149
-471.230	-200.000	0.062	-0.502
-470.216	800.000	0.044	0.167
-469.201	45.205	0.129	0.119
-468.186	-200.000	0.036	-0.200
-467.172	-97.704	0.314	-0.081
-466.157	-200.000	-0.004	-0.316
-465.143	800.000	0.057	0.163
-464.128	141.054	0.063	-0.083
-463.113	148.112	0.168	-0.226
-462.099	569.567	-0.147	-0.358
-461.084	66.695	0.256	0.260
-460.070	-96.923	-0.160	-0.042
-459.055	243.660	-0.229	0.383
-458.040	-200.000	-0.000	0.027
-457.026	754.479	0.074	-0.198
-456.011	-200.000	-0.012	-0.075
-454.997	220.132	-0.224	-0.359
-453.982	-31.609	-0.222	0.124
-452.968	-45.521	-0.279	-0.138
-451.953	-200.000	-0.047	0.248
-450.938	-102.071	-0.078	-0.019
-449.924	325.901	-0.056	-0.107
-448.909	-200.000	0.025	-0.146
-447.895	-66.366	0.171	0.068
-446.880	-200.000	0.000	-0.175
-445.865	-200.000	0.001	-0.020
-444.851	8.109	-0.166	0.124
-443.836	123.144	-0.096	-0.120
-442.822	190.985	-0.145	0.218
-441.807	-49.655	0.178	0.085
-440.792	-200.000	0.020	-0.147
-439.778	-138.681	-0.213	0.023
-438.763	-200.000	-0.035	-0.170
-437.749	-200.000	0.040	-0.242
-436.734	-200.000	0.031	0.249
-435.719	-54.375	0.294	0.133
-434.705	4.969	-0.230	-0.169
-433.690	-109.380	-0.302	0.064
-432.676	273.205	-0.197	0.347
-431.661	-20.624	0.214	-0.131
-430.646	-200.000	0.083	0.377
-429.632	11.056	0.159	-0.121
-428.617	112.306	0.172	-0.207
-427.603	-200.000	-0.041	-0.186
-426.588	3.271	-0.154	-0.112
-425.573	165.155	0.208	-0.293
-424.559	-200.000	-0.028	0.125
-423.544	68.885	0.099	-0.101
-422.530	-29.750	0.167	-0.095
-421.515	-200.000	-0.040	0.242
-420.500	196.328	0.033	0.050
-419.486	-200.000	0.002	0.183
-418.471	-200.000	-0.012	0.356
-417.457	290.458	-0.140	0.253
-416.442	320.548	-0.139	-0.264
-415.428	-200.000	-0.035	0.237
-414.413	306.677	-0.177	-0.328
-413.398	-200.000	0.017	0.211
-412.384	125.465	0.265	0.333
-411.369	800.000	-0.056	-0.242
-410.355	-28.251	0.126	0.073
-409.340	42.489	-0.173	0.157
-408.325	181.626	-0.252	0.369
-407.311	-89.706	0.397	0.116
-406.296	145.552	-0.031	0.041
-405.282	-102.797	-0.021	-0.005
-404.267	86.050	-0.186	0.204
-403.252	-200.000	0.018	-0.164
-402.238	484.690	-0.056	-0.127
-401.223	800.000	0.030	0.123
-400.209	-193.516	0.107	-0.001
-399.194	191.073	-0.207	0.310
-398.179	122.972	-0.168	0.210
-397.165	-83.446	-0.330	-0.105
-396.150	-34.866	0.111	-0.060
-395.136	-44.319	0.266	0.132
-394.121	-200.000	-0.056	0.298
-393.106	-57.853	0.308	0.134
-392.092	15.673	0.339	0.265
-391.077	-78.114	0.097	0.033
-390.063	111.237	-0.150	-0.179
-389.048	-200.000	-0.024	0.221
-388.033	-121.927	0.185	-0.030
-387.019	247.255	-0.192	0.323
-386.004	-97.741	-0.109	0.028
-384.990	432.523	-0.075	0.162
-383.975	-161.486	0.315	0.016
-382.960	-200.000	-0.020	0.121
-381.946	533.720	0.147	-0.346
-380.931	800.000	-0.075	0.263
-379.917	251.196	0.044	-0.074
-378.902	800.000	0.060	-0.224
-377.888	336.627	-0.091	-0.176
-376.873	-53.298	0.170	0.077
-375.858	429.978	-0.058	-0.124
-374.844	-19.188	0.171	0.105
-373.829	-200.000	-0.012	-0.125
-372.815	-129.794	-0.379	0.052
-371.800	-155.332	-0.101	-0.007
-370.785	-51.605	0.228	-0.106
-369.771	-130.155	0.204	0.028
-368.756	-50.830	0.033	0.015
-367.742	-121.961	0.267	-0.044
-366.727	592.577	0.037	-0.090
-365.712	-64.688	-0.306	-0.123
-364.698	-200.000	-0.018	-0.087
-363.683	230.643	-0.061	0.098
-362.669	800.000	-0.042	0.179
-361.654	800.000	0.025	0.074
-360.639	-200.000	0.025	0.140
-359.625	377.412	-0.057	-0.116
-358.610	800.000	-0.072	-0.243
-357.596	-67.105	-0.102	0.040
-356.581	690.767	0.080	0.208
-355.566	313.079	0.063	0.118
-354.552	-58.960	-0.289	0.124
-353.537	-88.597	-0.234	-0.069
-352.523	800.000	-0.038	0.140
-351.508	170.957	0.036	-0.051
-350.493	48.032	-0.176	-0.163
-349.479	-92.216	-0.288	-0.081
-348.464	-82.933	-0.322	0.103
-347.450	317.785	-0.056	0.105
-346.435	-200.000	-0.031	-0.487
-345.420	-22.814	0.493	0.296
-344.406	221.708	-0.091	-0.145
-343.391	800.000	0.029	0.111
-342.377	-106.654	-0.345	-0.076
-341.362	716.838	0.075	-0.199
-340.348	641.089	-0.043	-0.110
-339.333	-68.381	-0.408	0.157
-338.318	-71.745	0.261	0.097
-337.304	164.806	0.056	0.079
-336.289	-107.186	0.113	0.025
-335.275	800.000	0.033	0.138
-334.260	800.000	0.056	0.217
-333.245	800.000	-0.040	0.147
-332.231	352.718	-0.119	0.234
-331.216	800.000	-0.027	0.110
-330.202	800.000	-0.008	-0.026
-329.187	-46.662	-0.282	0.137
-328.172	-70.850	-0.210	0.078
-327.158	-8.281	0.404	-0.270
-326.143	-48.430	-0.059	0.028
-325.129	-81.530	-0.126	-0.041
-324.114	29.621	0.081	-0.068
-323.099	800.000	0.029	-0.102
-322.085	-200.000	-0.016	-0.235
-321.070	-29.879	-0.227	-0.129
-320.056	-55.979	-0.141	-0.062
-319.041	-200.000	0.000	0.448
-318.026	23.547	0.163	-0.133
-317.012	93.408	0.147	0.165
-315.997	-121.519	-0.191	-0.032
-314.983	287.119	-0.013	0.023
-313.968	-200.000	-0.004	-0.112
-312.953	-200.000	-0.003	0.068
-311.939	417.875	0.020	0.043
-310.924	-84.386	-0.163	0.051
-309.910	-200.000	0.056	-0.297
-308.895	-138.600	-0.414	0.045
-307.880	-74.500	0.184	-0.066
-306.866	-32.101	-0.150	0.083
-305.851	-200.000	0.002	0.034
-304.837	-200.000	0.022	-0.238
-303.822	-48.750	-0.101	0.048
-302.807	-107.540	-0.410	-0.089
-301.793	-200.000	0.064	-0.312
-300.778	29.674	-0.089	0.075
-299.764	69.494	-0.191	0.195
-298.749	132.654	0.136	-0.174
-297.735	202.903	0.139	0.214
-296.720	-200.000	0.005	-0.035
-295.705	74.626	-0.084	0.087
-294.691	111.629	0.356	-0.425
-293.676	37.595	-0.205	0.180
-292.662	291.964	-0.146	0.263
-291.647	-78.365	0.103	0.035
-290.632	-106.881	-0.093	-0.020
-289.618	-74.087	-0.155	0.056
-288.603	800.000	0.084	0.240
-287.589	424.434	0.136	-0.290
-286.574	800.000	0.033	0.113
-285.559	-200.000	-0.012	0.066
-284.545	-200.000	-0.024	-0.171
-283.530	105.671	-0.042	0.049
-282.516	800.000	-0.029	0.108
-281.501	32.113	-0.251	-0.215
-280.486	-200.000	-0.049	0.367
-279.472	-94.174	-0.361	0.098
-278.457	-48.882	0.389	-0.185
-277.443	374.713	-0.082	0.166
-276.428	-200.000	-0.049	0.253
-275.413	15.521	0.361	-0.281
-274.399	800.000	-0.054	-0.192
-273.384	800.000	0.106	0.406
-272.370	313.335	0.052	0.097
-271.355	800.000	-0.032	-0.100
-270.340	-119.562	0.101	-0.017
-269.326	-116.635	-0.071	-0.013
-268.311	-1.718	0.108	0.075
-267.297	-23.873	-0.031	0.018
-266.282	-200.000	-0.003	0.083
-265.267	-200.000	0.004	-0.025
-264.253	52.174	0.100	-0.095
-263.238	-126.553	-0.083	0.012
-262.224	50.567	-0.232	-0.218
-261.209	549.238	-0.064	0.152
-260.195	-114.898	0.196	-0.037
-259.180	-137.750	-0.234	0.026
-258.165	-179.410	0.597	0.013
-257.151	-46.849	0.331	0.160
-256.136	199.761	-0.114	0.173
-255.122	-18.780	-0.114	-0.070
-254.107	800.000	-0.105	-0.395
-253.092	30.134	-0.274	0.231
-252.078	40.942	-0.173	0.155
-251.063	127.124	0.009	0.012
-250.049	-200.000	0.033	0.502
-249.034	19.815	0.166	0.132
-248.019	396.241	0.029	-0.061
-247.005	-121.166	0.320	-0.053
-245.990	-56.717	-0.141	0.062
-244.976	-200.000	-0.041	0.352
-243.961	-200.000	-0.010	-0.076
-242.946	-200.000	-0.003	0.140
-241.932	-142.034	0.300	-0.030
-240.917	-109.556	-0.389	0.081
-239.903	800.000	-0.014	0.055
-238.888	10.324	-0.176	0.132
-237.873	119.952	0.069	-0.085
-236.859	-200.000	-0.033	-0.341
-235.844	-173.901	-0.202	0.006
-234.830	-46.723	0.188	-0.091
-233.815	203.185	-0.099	-0.152
-232.800	281.851	-0.046	0.082
-231.786	-200.000	0.055	0.453
-230.771	-67.922	-0.176	-0.068
-229.757	249.202	0.164	0.275
-228.742	688.665	0.105	0.273
-227.727	-200.000	-0.003	-0.230
-226.713	72.409	-0.184	0.190
-225.698	93.650	-0.124	0.139
-224.684	-117.145	0.135	-0.024
-223.669	800.000	0.066	-0.239
-222.655	430.435	-0.078	-0.167
-221.640	-119.804	-0.073	0.012
-220.625	799.299	0.052	0.142
-219.611	-79.463	0.080	0.027
-218.596	-200.000	0.009	0.071
-217.582	-82.750	0.158	-0.051
-216.567	-200.000	0.004	0.071
-215.552	185.532	-0.191	-0.280
-214.538	800.000	0.065	-0.220
-213.523	-12.494	0.094	-0.061
-212.509	-200.000	0.048	-0.309
-211.494	-42.548	-0.097	0.049
-210.479	-185.030	-0.217	-0.003
-209.465	66.011	0.104	0.104
-208.450	510.766	-0.018	-0.041
-207.436	-200.000	0.083	0.360
-206.421	-179.443	0.173	0.004
-205.406	304.254	-0.066	0.121
-204.392	800.000	0.055	0.198
-203.377	24.211	0.338	-0.276
-202.363	131.484	-0.095	-0.121
-201.348	-200.000	0.101	0.448
-200.333	11.725	-0.249	0.189
-199.319	82.558	0.051	0.054
-198.304	-200.000	-0.006	-0.173
-197.290	95.780	0.216	-0.244
-196.275	-200.000	-0.039	-0.248
-195.260	243.816	-0.110	0.182
-194.246	-173.183	0.141	-0.004
-193.231	-103.548	-0.135	-0.031
-192.217	26.773	-0.054	-0.045
-191.202	703.182	0.132	-0.343
-190.187	21.871	0.354	-0.285
-189.173	84.893	0.062	-0.067
-188.158	107.767	0.048	-0.056
-187.144	114.195	-0.139	-0.167
-186.129	64.211	0.348	-0.346
-185.114	800.000	-0.074	-0.306
-184.100	73.836	-0.073	0.076
-183.085	-200.000	-0.017	-0.193
-182.071	-200.000	0.019	0.142
-181.056	-7.837	0.140	0.093
-180.042	800.000	-0.151	-0.452
-179.027	-84.477	0.244	0.076
-178.012	-10.908	0.333	0.217
-176.998	-200.000	-0.001	0.223
-175.983	-66.188	-0.314	0.124
-174.969	198.093	-0.047	0.072
-173.954	-33.094	0.241	-0.132
-172.939	-94.846	0.254	-0.068
-171.925	43.108	0.117	-0.105
-170.910	-97.049	0.216	0.056
-169.896	30.611	-0.121	-0.102
-168.881	634.495	0.119	-0.298
-167.866	-92.240	0.045	0.013
-166.852	71.200	-0.165	0.169
-165.837	106.744	0.083	0.097
-164.823	203.406	0.065	0.098
-163.808	544.549	0.063	0.148
-162.793	-200.000	0.004	0.042
-161.779	-200.000	-0.008	0.171
-160.764	235.590	-0.101	-0.164
-159.750	-3.323	-0.085	0.058
-158.735	-96.412	0.098	-0.026
-157.720	-200.000	-0.003	-0.228
-156.706	170.319	-0.033	-0.047
-155.691	426.455	-0.058	0.123
-154.677	457.971	0.026	-0.058
-153.662	-14.569	-0.081	0.051
-152.647	-97.800	0.224	0.057
-151.633	-18.826	0.424	0.261
-150.618	-200.000	-0.051	0.227
-149.604	629.260	0.048	-0.120
-148.589	-200.000	-0.013	-0.310
-147.574	-42.930	0.255	0.128
-146.560	-200.000	-0.060	0.421
-145.545	800.000	0.071	0.226
-144.531	739.426	-0.071	-0.187
-143.516	209.314	0.071	0.110
-142.502	-200.000	0.045	0.241
-141.487	-94.357	-0.039	0.011
-140.472	-200.000	0.012	-0.160
-139.458	614.296	0.121	-0.298
-138.443	272.132	0.160	0.278
-137.429	353.846	0.106	0.207
-136.414	-8.041	-0.354	0.235
-135.399	800.000	0.042	-0.156
-134.385	-25.556	-0.330	-0.192
-133.370	800.000	0.083	-0.277
-132.356	-200.000	0.046	-0.323
-131.341	-32.325	0.023	0.013
-130.326	-200.000	-0.009	0.273
-129.312	-154.262	0.315	0.021
-128.297	-19.025	0.286	-0.175
-127.283	-66.688	-0.236	-0.092
-126.268	-23.673	-0.085	0.050
-125.253	-186.527	-0.387	-0.005
-124.239	-106.451	-0.003	-0.001
-123.224	-200.000	-0.057	0.299
-122.210	-23.775	0.107	-0.063
