DTS Sentinel unit serial number:	SN413079Multiplexer serial number:	ORYXHardware model number:	OX4-SRSoftware version number:	ORYX F/W v4.00 Oryx Data Collector v3.7.2.0data status	okinstallation	princeton_trtdifferential loss correction	single-endedforward channel	channel 3reverse channel	N/Adate	2019/09/17time	17:24:35forward acquisition time	60.00reverse acquisition time	0.00gamma	496.2192k internal	0.2290k external	0.2290temperature offset calibration	0.9949default loss term (dB/km)	0.3790temperature slope calibration	1.0000multiplexer offset coefficient	1.0000multiplexer slope coefficient	1.0000fibre end	0.00T internal ref (°C)	43.06T ext. ref 1 (°C)	0.34T ext. ref 2 (°C)	38.99length (m)	temperature (°C)	Stokes	anti-Stokes-747.200	74.352	-0.133	0.143
-746.185	-200.000	0.097	0.451
-745.171	92.842	0.126	-0.145
-744.156	800.000	0.076	0.267
-743.142	-200.000	0.016	0.141
-742.127	800.000	-0.039	0.123
-741.112	-39.348	-0.149	0.080
-740.098	-171.274	-0.125	0.004
-739.083	-4.768	0.279	0.197
-738.069	17.788	0.264	0.215
-737.054	226.362	0.139	-0.230
-736.039	-99.562	-0.398	-0.102
-735.025	800.000	0.104	-0.341
-734.010	196.789	0.120	-0.187
-732.996	281.859	-0.036	-0.065
-731.981	748.774	-0.103	-0.284
-730.966	-124.353	-0.132	0.021
-729.952	154.531	-0.070	-0.099
-728.937	153.517	0.045	-0.063
-727.923	325.032	-0.091	0.178
-726.908	-49.159	-0.223	0.109
-725.894	172.979	-0.092	-0.136
-724.879	-144.311	-0.175	-0.017
-723.864	628.487	0.046	0.118
-722.850	724.501	0.063	0.172
-721.835	-56.068	0.075	-0.034
-720.821	-16.021	-0.264	0.172
-719.806	-67.996	-0.052	-0.021
-718.791	-76.591	-0.299	-0.108
-717.777	-128.549	-0.239	-0.035
-716.762	-71.403	-0.392	-0.150
-715.748	213.964	-0.164	-0.265
-714.733	6.229	0.075	0.057
-713.718	-171.756	0.049	-0.002
-712.704	-67.058	-0.461	0.186
-711.689	16.932	-0.290	0.235
-710.675	-57.332	-0.200	-0.090
-709.660	323.190	-0.118	0.231
-708.645	-21.476	0.113	0.071
-707.631	-153.748	0.395	-0.028
-706.616	271.885	-0.130	-0.234
-705.602	-45.545	-0.071	0.036
-704.587	-99.446	0.078	-0.020
-703.572	-90.202	-0.241	0.072
-702.558	182.492	-0.130	-0.197
-701.543	347.459	0.101	-0.204
-700.529	27.110	0.268	0.230
-699.514	99.286	0.156	-0.184
-698.499	-88.760	-0.297	0.090
-697.485	-200.000	0.021	0.165
-696.470	102.683	-0.153	-0.183
-695.456	74.947	-0.124	0.133
-694.441	-35.965	-0.039	-0.021
-693.426	800.000	0.021	0.079
-692.412	-110.689	0.043	0.009
-691.397	482.014	0.186	0.432
-690.383	-61.821	-0.161	0.069
-689.368	59.953	-0.332	0.336
-688.354	307.518	-0.092	0.175
-687.339	800.000	0.121	0.388
-686.324	427.107	0.061	-0.135
-685.310	800.000	0.069	0.297
-684.295	81.570	-0.017	0.018
-683.281	-77.195	-0.134	-0.048
-682.266	51.959	-0.090	0.088
-681.251	800.000	-0.042	-0.168
-680.237	-111.877	-0.048	-0.010
-679.222	7.002	-0.276	0.210
-678.208	-39.396	-0.296	0.158
-677.193	26.497	-0.243	-0.207
-676.178	-79.795	0.149	0.051
-675.164	-20.396	-0.163	-0.102
-674.149	663.389	-0.063	-0.166
-673.135	70.700	-0.125	-0.132
-672.120	749.173	-0.069	0.190
-671.105	-23.046	-0.116	0.072
-670.091	-200.000	0.018	-0.132
-669.076	-102.911	-0.302	0.073
-668.062	-65.517	-0.260	-0.107
-667.047	-174.286	-0.135	-0.004
-666.032	-133.691	-0.131	0.017
-665.018	800.000	0.040	0.170
-664.003	800.000	-0.059	-0.241
-662.989	108.788	-0.215	-0.262
-661.974	378.185	-0.052	-0.110
-660.959	-102.151	0.100	0.025
-659.945	-0.322	0.088	-0.064
-658.930	151.504	0.182	0.253
-657.916	205.796	0.040	0.063
-656.901	-200.000	-0.037	-0.379
-655.886	800.000	0.051	-0.174
-654.872	-93.300	0.045	-0.013
-653.857	-200.000	-0.041	0.352
-652.843	-133.859	-0.217	0.028
-651.828	-35.457	0.125	0.070
-650.814	-200.000	0.004	-0.208
-649.799	-200.000	-0.003	-0.127
-648.784	800.000	0.089	-0.295
-647.770	266.459	-0.077	0.137
-646.755	-100.546	-0.385	-0.097
-645.741	-200.000	-0.040	0.269
-644.726	-34.721	0.191	-0.107
-643.711	-7.402	0.013	-0.009
-642.697	-97.910	0.203	0.053
-641.682	-47.510	-0.026	0.013
-640.668	208.530	-0.073	-0.116
-639.653	-99.409	-0.180	-0.046
-638.638	497.961	0.068	-0.160
-637.624	12.025	-0.474	-0.372
-636.609	-129.842	0.293	0.041
-635.595	119.378	0.185	0.234
-634.580	226.297	-0.134	-0.222
-633.565	329.072	0.076	-0.149
-632.551	-26.920	-0.048	0.028
-631.536	96.498	0.101	-0.118
-630.522	-146.198	0.182	0.016
-629.507	30.981	0.223	0.195
-628.492	-200.000	-0.039	-0.190
-627.478	-69.332	-0.217	0.085
-626.463	40.250	-0.026	0.024
-625.449	-96.290	-0.078	-0.021
-624.434	41.421	0.247	-0.228
-623.419	-110.089	-0.208	-0.044
-622.405	-200.000	-0.019	0.143
-621.390	555.762	-0.083	0.205
-620.376	99.842	-0.198	0.234
-619.361	97.048	0.235	-0.275
-618.346	800.000	-0.014	-0.055
-617.332	602.971	-0.150	-0.381
-616.317	-40.423	-0.081	0.043
-615.303	415.581	0.103	0.224
-614.288	-167.204	-0.226	-0.009
-613.273	96.412	0.255	0.298
-612.259	-200.000	-0.045	0.481
-611.244	-74.694	-0.191	0.070
-610.230	-155.969	-0.158	-0.010
-609.215	-39.625	-0.199	-0.106
-608.201	-59.308	-0.143	-0.063
-607.186	-0.097	-0.237	-0.172
-606.171	314.648	-0.124	-0.238
-605.157	-2.234	0.036	0.025
-604.142	800.000	0.063	-0.275
-603.128	-118.510	-0.246	0.044
-602.113	-89.694	-0.264	0.079
-601.098	68.091	-0.124	0.129
-600.084	337.640	-0.088	0.175
-599.069	-82.566	0.420	-0.139
-598.055	77.129	-0.361	0.391
-597.040	-78.663	0.301	-0.105
-596.025	800.000	-0.105	-0.313
-595.011	14.622	-0.199	-0.158
-593.996	-133.211	-0.350	-0.045
-592.982	259.095	-0.111	0.195
-591.967	649.804	-0.092	-0.239
-590.952	-200.000	-0.021	0.185
-589.938	-46.947	0.230	-0.115
-588.923	800.000	-0.086	-0.367
-587.909	-120.175	0.045	0.008
-586.894	-200.000	0.002	-0.098
-585.879	106.750	0.148	-0.178
-584.865	-200.000	-0.028	0.219
-583.850	-29.236	0.204	0.119
-582.836	506.975	0.065	0.153
-581.821	-69.755	0.201	-0.078
-580.806	-184.576	-0.367	0.006
-579.792	-123.583	0.214	0.035
-578.777	330.364	-0.159	-0.311
-577.763	-63.811	0.263	-0.110
-576.748	-200.000	-0.037	0.291
-575.733	87.999	-0.206	0.233
-574.719	-200.000	-0.003	0.200
-573.704	206.619	-0.121	0.192
-572.690	146.577	-0.162	-0.222
-571.675	137.306	0.156	0.207
-570.661	22.758	-0.261	-0.217
-569.646	-79.653	0.294	-0.101
-568.631	800.000	-0.008	0.027
-567.617	-200.000	0.014	-0.105
-566.602	-50.520	0.039	-0.019
-565.588	38.684	0.328	-0.298
-564.573	33.534	-0.205	-0.182
-563.558	72.231	0.213	0.225
-562.544	-200.000	-0.029	-0.155
-561.529	-200.000	-0.070	0.318
-560.515	-35.257	0.085	-0.047
-559.500	150.542	0.184	-0.254
-558.485	-12.582	-0.049	-0.033
-557.471	25.790	0.221	0.187
-556.456	183.242	-0.167	0.251
-555.442	-119.176	-0.388	-0.069
-554.427	41.115	0.159	-0.146
-553.412	140.825	0.089	-0.120
-552.398	-126.877	-0.306	0.046
-551.383	169.124	0.122	0.176
-550.369	104.861	-0.170	0.204
-549.354	172.864	0.185	0.271
-548.339	-100.769	-0.246	0.061
-547.325	77.901	0.188	0.204
-546.310	406.902	0.085	-0.183
-545.296	-200.000	-0.024	-0.275
-544.281	-200.000	0.024	0.206
-543.266	140.878	0.068	-0.092
-542.252	-58.884	-0.219	0.096
-541.237	-200.000	-0.081	-0.380
-540.223	524.023	0.095	0.228
-539.208	-12.231	0.110	-0.073
-538.193	227.890	0.090	-0.150
-537.179	147.128	0.145	0.198
-536.164	-95.701	-0.424	0.115
-535.150	-162.326	0.032	0.002
-534.135	-143.794	0.247	-0.024
-533.121	17.012	-0.151	0.122
-532.106	-200.000	-0.002	-0.166
-531.091	-55.331	-0.103	-0.047
-530.077	800.000	0.087	-0.256
-529.062	-200.000	-0.032	0.181
-528.048	-137.352	-0.118	0.014
-527.033	-116.206	-0.307	-0.058
-526.018	56.739	-0.199	-0.197
-525.004	-138.914	-0.110	0.012
-523.989	-62.855	0.131	0.055
-522.975	304.062	0.073	0.137
-521.960	-85.858	-0.235	-0.074
-520.945	-133.059	-0.089	0.011
-519.931	-200.000	-0.008	-0.141
-518.916	159.499	-0.130	-0.184
-517.902	-186.150	0.173	-0.003
-516.887	-71.326	0.143	0.054
-515.872	-127.152	0.236	0.035
-514.858	249.981	0.157	-0.270
-513.843	-137.171	0.037	0.004
-512.829	-146.128	-0.259	0.023
-511.814	768.840	0.052	-0.144
-510.799	-54.556	-0.062	-0.028
-509.785	-49.953	-0.138	-0.067
-508.770	223.171	0.176	0.288
-507.756	-193.594	0.234	0.002
-506.741	49.551	0.179	-0.171
-505.726	-161.782	0.101	-0.005
-504.712	-36.278	0.145	-0.079
-503.697	-77.033	-0.465	0.165
-502.683	-200.000	-0.018	-0.262
-501.668	-74.150	0.234	0.086
-500.653	-173.880	0.321	-0.010
-499.639	-200.000	-0.012	0.263
-498.624	800.000	-0.039	-0.161
-497.610	198.318	0.030	0.047
-496.595	-200.000	-0.032	-0.412
-495.581	-170.147	0.151	0.005
-494.566	-120.476	-0.084	-0.015
-493.551	-200.000	-0.034	0.178
-492.537	-200.000	0.001	-0.169
-491.522	266.089	0.135	0.238
-490.508	-51.109	0.236	-0.112
-489.493	124.109	0.090	0.115
-488.478	-175.455	0.316	-0.009
-487.464	-72.227	0.136	-0.051
-486.449	-200.000	-0.049	0.243
-485.435	-25.818	0.051	-0.031
-484.420	-200.000	0.032	0.278
-483.405	-139.574	-0.112	0.012
-482.391	800.000	-0.088	0.284
-481.376	120.386	0.196	0.247
-480.362	800.000	-0.035	-0.122
-479.347	85.201	0.149	-0.166
-478.332	-105.856	0.190	-0.043
-477.318	-200.000	0.006	0.151
-476.303	-200.000	-0.033	-0.167
-475.289	-177.996	0.440	0.011
-474.274	-200.000	0.007	0.207
-473.259	-22.901	-0.092	0.056
-472.245	242.588	-0.068	-0.116
-471.230	214.158	-0.062	-0.099
-470.216	-200.000	0.003	-0.149
-469.201	-200.000	0.020	0.098
-468.186	15.982	-0.128	-0.102
-467.172	-166.434	-0.195	0.008
-466.157	-163.178	0.237	-0.012
-465.143	-200.000	-0.007	0.338
-464.128	282.398	0.015	-0.028
-463.113	800.000	0.099	-0.369
-462.099	-23.578	-0.097	0.059
-461.084	-200.000	-0.020	-0.317
-460.070	-95.268	-0.321	-0.087
-459.055	-172.324	-0.159	0.005
-458.040	4.311	-0.087	0.064
-457.026	-200.000	0.012	-0.149
-456.011	614.844	-0.096	-0.243
-454.997	42.165	-0.290	0.267
-453.982	800.000	-0.048	0.142
-452.968	171.911	0.149	0.216
-451.953	-200.000	-0.012	-0.344
-450.938	166.055	-0.109	-0.156
-449.924	-200.000	0.029	0.429
-448.909	-200.000	-0.014	0.102
-447.895	800.000	0.090	0.339
-446.880	474.289	0.129	0.294
-445.865	171.967	0.125	0.182
-444.851	-200.000	0.057	-0.376
-443.836	-200.000	-0.009	-0.061
-442.822	-52.835	0.063	-0.030
-441.807	556.739	-0.111	-0.271
-440.792	-37.850	-0.161	-0.087
-439.778	114.392	0.212	-0.261
-438.763	-200.000	-0.277	-0.000
-437.749	354.161	0.068	0.136
-436.734	800.000	-0.003	0.009
-435.719	191.360	-0.090	0.137
-434.705	74.775	0.248	0.264
-433.690	127.493	0.055	0.071
-432.676	-19.174	0.251	0.158
-431.661	-52.909	-0.093	0.043
-430.646	-191.824	-0.265	0.003
-429.632	454.744	-0.095	0.212
-428.617	206.360	-0.043	0.068
-427.603	339.217	-0.064	0.127
-426.588	20.379	0.137	0.112
-425.573	77.447	-0.148	0.159
-424.559	-200.000	-0.035	-0.198
-423.544	-29.630	0.371	-0.214
-422.530	297.615	0.052	0.096
-421.515	347.667	0.132	0.263
-420.500	800.000	-0.093	0.306
-419.486	-102.818	-0.481	-0.116
-418.471	8.431	-0.195	-0.148
-417.457	-22.048	0.249	0.153
-416.442	152.052	-0.083	-0.115
-415.428	-150.445	-0.485	-0.038
-414.413	-200.000	0.007	-0.058
-413.398	-89.875	-0.453	-0.134
-412.384	-200.000	0.038	0.171
-411.369	-200.000	-0.006	0.311
-410.355	-129.090	0.137	0.019
-409.340	-135.907	-0.095	0.011
-408.325	137.097	0.029	-0.038
-407.311	-79.173	0.149	-0.051
-406.296	-54.487	-0.121	0.055
-405.282	-200.000	-0.012	0.073
-404.267	800.000	0.086	0.258
-403.252	-37.737	-0.222	-0.119
-402.238	-16.334	0.202	-0.129
-401.223	-200.000	-0.018	0.196
-400.209	-160.650	-0.286	0.015
-399.194	-200.000	-0.072	0.398
-398.179	-18.329	0.198	0.125
-397.165	-27.899	-0.228	-0.134
-396.150	-93.607	-0.216	-0.060
-395.136	-200.000	0.033	-0.301
-394.121	474.284	0.096	-0.220
-393.106	60.680	-0.039	0.039
-392.092	644.708	0.115	0.298
-391.077	-200.000	-0.010	0.298
-390.063	-158.109	0.186	-0.011
-389.048	114.415	-0.021	0.026
-388.033	-49.833	-0.039	0.018
-387.019	-95.262	0.046	-0.013
-386.004	800.000	-0.042	0.124
-384.990	-73.469	0.125	0.046
-383.975	-200.000	-0.019	-0.128
-382.960	-12.454	0.064	0.042
-381.946	-61.010	0.122	-0.052
-380.931	489.475	0.125	0.288
-379.917	-76.750	0.340	-0.120
-378.902	128.580	-0.252	0.324
-377.888	177.705	0.123	0.181
-376.873	-73.652	-0.166	-0.061
-375.858	-66.561	-0.035	0.014
-374.844	-134.714	0.257	0.032
-373.829	-48.877	0.303	-0.147
-372.815	188.468	-0.139	-0.210
-371.800	-200.000	-0.051	0.297
-370.785	-200.000	-0.013	-0.153
-369.771	-45.362	0.116	-0.058
-368.756	-165.776	0.198	-0.009
-367.742	800.000	0.035	0.111
-366.727	-56.379	-0.188	0.084
-365.712	-135.624	0.335	0.040
-364.698	168.311	-0.150	-0.216
-363.683	-137.357	-0.272	0.031
-362.669	485.534	0.101	-0.233
-361.654	-200.000	-0.046	-0.332
-360.639	-38.229	-0.056	-0.030
-359.625	261.644	-0.142	-0.248
-358.610	-85.245	-0.337	-0.106
-357.596	-150.282	0.381	-0.030
-356.581	800.000	0.014	0.058
-355.566	6.788	0.173	-0.130
-354.552	800.000	-0.075	-0.253
-353.537	-189.165	0.132	0.002
-352.523	-2.811	-0.189	-0.133
-351.508	-12.479	-0.131	0.086
-350.493	-75.582	0.223	-0.080
-349.479	800.000	0.078	0.313
-348.464	99.234	0.157	0.183
-347.450	-93.800	0.247	-0.069
-346.435	-54.303	0.073	-0.033
-345.420	16.933	0.203	-0.162
-344.406	800.000	0.069	-0.199
-343.391	-200.000	0.016	-0.190
-342.377	162.068	-0.054	0.076
-341.362	800.000	0.061	-0.196
-340.348	74.556	0.055	0.059
-339.333	-200.000	-0.027	0.128
-338.318	-200.000	0.012	0.214
-337.304	-200.000	-0.025	0.124
-336.289	-8.183	0.227	-0.154
-335.275	-15.187	-0.218	0.141
-334.260	-200.000	-0.108	0.493
-333.245	800.000	0.072	0.275
-332.231	502.331	-0.126	-0.293
-331.216	30.685	0.304	0.262
-330.202	-176.255	0.197	0.005
-329.187	128.496	0.134	-0.172
-328.172	-200.000	-0.014	-0.083
-327.158	154.176	-0.036	-0.050
-326.143	649.426	-0.097	0.251
-325.129	76.592	-0.119	-0.128
-324.114	-48.014	-0.373	0.182
-323.099	366.448	0.068	-0.138
-322.085	83.080	-0.136	-0.149
-321.070	-136.389	-0.383	-0.045
-320.056	551.186	-0.045	-0.108
-319.041	270.102	0.121	-0.214
-318.026	98.112	0.268	-0.311
-317.012	-77.566	0.215	0.075
-315.997	-13.958	0.262	0.171
-314.983	-200.000	-0.006	-0.254
-313.968	-200.000	0.048	-0.355
-312.953	800.000	0.075	-0.265
-311.939	800.000	0.069	0.199
-310.924	800.000	-0.102	-0.299
-309.910	156.532	-0.218	0.303
-308.895	-4.112	-0.087	-0.061
-307.880	232.235	0.109	-0.180
-306.866	-200.000	0.003	-0.285
-305.851	-189.634	0.192	-0.002
-304.837	667.548	0.050	-0.130
-303.822	-136.107	0.202	-0.024
-302.807	-17.711	-0.042	-0.026
-301.793	189.241	0.082	-0.124
-300.778	-200.000	-0.016	-0.091
-299.764	-56.736	-0.149	-0.066
-298.749	-123.962	0.184	-0.029
-297.735	-81.711	0.170	-0.056
-296.720	-143.896	0.090	0.009
-295.705	-200.000	0.094	0.415
-294.691	71.147	-0.170	-0.178
-293.676	356.813	0.160	0.321
-292.662	800.000	0.052	0.186
-291.647	-200.000	0.009	-0.161
-290.632	354.109	-0.017	0.035
-289.618	84.212	0.039	0.043
-288.603	-52.311	-0.214	-0.100
-287.589	-200.000	-0.018	0.105
-286.574	-200.000	0.056	-0.263
-285.559	-111.747	-0.175	0.036
-284.545	-34.905	-0.165	0.090
-283.530	-145.956	0.095	-0.008
-282.516	-44.871	0.157	0.079
-281.501	81.299	0.213	0.232
-280.486	77.052	0.209	-0.223
-279.472	-151.746	-0.220	0.016
-278.457	-32.634	0.248	-0.139
-277.443	-41.606	0.133	0.069
-276.428	73.678	0.191	0.201
-275.413	-200.000	-0.017	-0.252
-274.399	800.000	-0.129	0.486
-273.384	-174.355	0.327	-0.009
-272.370	14.193	-0.258	0.202
-271.355	36.708	-0.030	-0.027
-270.340	140.890	0.106	0.140
-269.326	157.432	-0.201	-0.280
-268.311	65.729	-0.069	0.070
-267.297	-200.000	0.041	0.454
-266.282	114.689	0.082	0.101
-265.267	178.651	0.162	0.238
-264.253	800.000	0.087	0.374
-263.238	-137.796	-0.359	-0.040
-262.224	-75.810	-0.095	0.034
-261.209	-38.383	0.250	0.133
-260.195	800.000	0.039	-0.112
-259.180	-50.736	0.076	0.036
-258.165	-115.281	0.437	-0.083
-257.151	108.756	-0.288	-0.345
-256.136	-132.187	0.148	0.019
-255.122	-145.948	-0.311	0.028
-254.107	-91.541	0.484	-0.139
-253.092	-77.725	0.144	-0.050
-252.078	154.021	-0.061	0.084
-251.063	231.377	0.106	0.174
-250.049	702.067	-0.069	0.184
-249.034	800.000	-0.086	0.285
-248.019	-125.313	-0.172	0.026
-247.005	515.627	-0.064	-0.150
-245.990	-132.186	-0.103	-0.013
-244.976	11.597	0.220	0.169
-243.961	-192.303	0.183	0.002
-242.946	280.290	0.117	0.210
-241.932	800.000	-0.061	-0.197
-240.917	-121.513	-0.147	0.024
-239.903	800.000	0.078	-0.293
-238.888	-154.982	-0.317	0.021
-237.873	372.558	0.094	-0.192
-236.859	-200.000	0.001	0.220
-235.844	800.000	-0.030	0.117
-234.830	442.014	-0.098	-0.214
-233.815	-200.000	-0.035	-0.190
-232.800	-23.385	0.149	-0.090
-231.786	-200.000	0.034	-0.346
-230.771	91.781	-0.245	0.277
-229.757	-36.331	-0.214	0.116
-228.742	189.036	-0.064	0.097
-227.727	-77.349	0.265	0.093
-226.713	-200.000	-0.025	-0.414
-225.698	-200.000	-0.033	-0.154
-224.684	630.835	0.098	-0.248
-223.669	39.795	-0.265	0.239
-222.655	-4.042	0.252	-0.176
-221.640	-81.585	-0.201	-0.066
-220.625	-200.000	0.015	0.145
-219.611	-3.756	0.131	-0.091
-218.596	-200.000	-0.027	0.213
-217.582	145.091	-0.019	0.025
-216.567	800.000	0.046	-0.196
-215.552	-24.827	0.037	0.022
-214.538	-56.544	-0.292	0.130
-213.523	-84.000	0.174	-0.056
-212.509	-143.951	0.212	-0.020
-211.494	-200.000	-0.030	0.204
-210.479	-152.065	-0.171	0.012
-209.465	800.000	-0.068	0.206
-208.450	-78.230	-0.049	0.017
-207.436	-200.000	-0.005	-0.072
-206.421	404.777	0.140	0.296
-205.406	800.000	0.060	-0.210
-204.392	800.000	0.059	-0.165
-203.377	-200.000	-0.039	0.301
-202.363	-50.819	-0.282	0.133
-201.348	719.294	-0.013	-0.035
-200.333	-200.000	-0.001	0.154
-199.319	-200.000	0.025	-0.214
-198.304	166.840	0.294	-0.418
-197.290	147.214	-0.140	0.189
-196.275	-66.143	-0.330	0.132
-195.260	463.694	-0.129	-0.289
-194.246	-200.000	0.075	0.419
-193.231	259.785	0.121	-0.210
-192.217	45.913	0.126	-0.117
-191.202	138.405	-0.192	0.253
-190.187	-41.576	-0.348	-0.179
-189.173	312.750	-0.084	0.158
-188.158	47.874	0.020	-0.018
-187.144	206.957	0.066	0.104
-186.129	-152.897	-0.291	0.021
-185.114	-45.690	-0.233	-0.115
-184.100	325.662	0.131	-0.252
-183.085	-200.000	-0.031	0.203
-182.071	-0.946	0.036	-0.026
-181.056	800.000	-0.045	-0.152
-180.042	171.440	-0.123	-0.176
-179.027	-136.010	-0.378	-0.045
-178.012	-200.000	0.044	-0.329
-176.998	-67.170	0.197	-0.078
-175.983	-71.316	0.318	-0.120
-174.969	458.191	-0.172	0.383
-173.954	55.385	-0.212	-0.206
-172.939	-175.121	-0.204	-0.006
-171.925	-9.396	0.131	-0.088
-170.910	-200.000	-0.024	-0.147
-169.896	-192.167	0.217	0.002
-168.881	-139.616	0.270	-0.029
-167.866	476.933	-0.114	-0.258
-166.852	144.300	-0.188	-0.252
-165.837	12.592	0.225	0.174
-164.823	53.573	0.179	-0.172
-163.808	743.660	0.099	-0.265
-162.793	108.963	0.170	0.204
-161.779	-71.373	-0.110	0.041
-160.764	-101.519	-0.201	-0.049
-159.750	288.891	-0.137	0.249
-158.735	-61.729	-0.114	-0.048
-157.720	-41.633	0.095	-0.049
-156.706	344.710	-0.158	0.312
-155.691	419.599	0.086	0.184
-154.677	-137.548	0.136	0.015
-153.662	-200.000	0.123	0.569
-152.647	42.777	0.184	0.168
-151.633	531.419	-0.129	-0.305
-150.618	-200.000	-0.398	0.002
-149.604	800.000	0.041	0.165
-148.589	-51.740	-0.279	0.130
-147.574	-47.197	0.174	-0.085
-146.560	-10.156	-0.249	-0.166
-145.545	-58.885	-0.204	0.088
-144.531	39.806	-0.153	0.138
-143.516	-80.606	0.218	-0.073
-142.502	-9.409	0.153	-0.102
-141.487	32.139	-0.165	0.143
-140.472	-200.000	0.015	0.351
-139.458	88.391	-0.014	-0.015
-138.443	800.000	-0.049	-0.172
-137.429	-93.224	-0.142	0.039
-136.414	118.611	0.101	0.124
-135.399	-137.849	0.069	-0.008
-134.385	-74.384	-0.279	-0.101
-133.370	-128.812	0.406	0.057
-132.356	88.115	-0.086	-0.095
-131.341	646.266	0.095	-0.244
-130.326	176.104	0.157	0.228
-129.312	193.297	0.057	0.086
-128.297	-200.000	-0.032	-0.345
-127.283	185.738	0.131	0.195
-126.268	-97.281	0.294	0.077
-125.253	141.307	0.179	0.238
-124.239	-170.031	0.253	0.009
-123.224	-130.715	-0.292	-0.039
