DTS Sentinel unit serial number:	SN413079Multiplexer serial number:	ORYXHardware model number:	OX4-SRSoftware version number:	ORYX F/W v4.00 Oryx Data Collector v3.7.2.0data status	okinstallation	princeton_trtdifferential loss correction	single-endedforward channel	channel 3reverse channel	N/Adate	2019/09/18time	22:56:35forward acquisition time	60.00reverse acquisition time	0.00gamma	496.2192k internal	0.2345k external	0.2345temperature offset calibration	0.9990default loss term (dB/km)	0.3790temperature slope calibration	1.0000multiplexer offset coefficient	1.0000multiplexer slope coefficient	1.0000fibre end	0.00T internal ref (°C)	24.06T ext. ref 1 (°C)	0.80T ext. ref 2 (°C)	17.97length (m)	temperature (°C)	Stokes	anti-Stokes-747.200	-58.960	0.231	-0.100
-746.185	-185.685	-0.318	0.005
-745.171	800.000	0.066	0.256
-744.156	-142.060	-0.278	-0.028
-743.142	-3.488	0.070	-0.048
-742.127	551.971	-0.074	0.178
-741.112	141.268	0.211	-0.280
-740.098	655.122	-0.188	0.483
-739.083	-90.157	0.108	0.032
-738.069	-75.992	-0.283	0.100
-737.054	187.277	-0.059	0.088
-736.039	-200.000	0.015	-0.103
-735.025	-104.120	0.815	-0.190
-734.010	-200.000	-0.032	0.163
-732.996	-0.918	-0.066	0.047
-731.981	41.927	0.108	-0.098
-730.966	-12.802	-0.280	-0.182
-729.952	-200.000	0.044	-0.413
-728.937	-200.000	-0.025	-0.220
-727.923	-200.000	-0.026	0.149
-726.908	368.248	-0.137	-0.278
-725.894	-200.000	0.064	-0.317
-724.879	-138.487	0.086	0.009
-723.864	-109.406	-0.132	0.028
-722.850	-200.000	0.026	-0.114
-721.835	-52.154	-0.116	-0.054
-720.821	-200.000	0.068	0.328
-719.806	25.201	0.071	0.059
-718.791	800.000	-0.104	-0.322
-717.777	-200.000	0.063	0.326
-716.762	-21.626	-0.380	-0.231
-715.748	78.818	-0.056	0.060
-714.733	103.906	-0.130	0.153
-713.718	255.562	-0.052	-0.090
-712.704	507.866	0.036	-0.083
-711.689	-106.900	0.101	0.022
-710.675	-200.000	-0.029	-0.351
-709.660	165.171	0.106	0.149
-708.645	-200.000	-0.007	-0.128
-707.631	-200.000	0.002	-0.126
-706.616	-93.219	-0.405	-0.113
-705.602	405.300	0.057	-0.119
-704.587	-200.000	-0.000	0.272
-703.572	664.263	0.019	-0.050
-702.558	800.000	0.017	-0.051
-701.543	-200.000	0.026	-0.162
-700.529	-107.099	-0.199	-0.044
-699.514	323.971	-0.020	0.038
-698.499	-118.162	0.315	0.056
-697.485	-102.297	0.155	0.037
-696.470	83.873	0.197	-0.215
-695.456	178.310	-0.210	0.306
-694.441	195.024	0.080	0.122
-693.426	-115.608	0.137	0.026
-692.412	-62.697	-0.239	-0.099
-691.397	131.853	0.187	0.240
-690.383	28.711	-0.045	0.038
-689.368	-54.822	-0.204	-0.092
-688.354	-200.000	0.070	-0.543
-687.339	800.000	0.013	-0.047
-686.324	-87.689	-0.272	-0.082
-685.310	45.919	-0.133	0.123
-684.295	95.775	0.175	-0.199
-683.281	206.745	0.013	0.020
-682.266	-40.380	-0.525	-0.272
-681.251	-58.965	0.236	0.102
-680.237	-19.555	0.110	0.068
-679.222	-200.000	-0.052	-0.244
-678.208	-200.000	-0.032	-0.185
-677.193	-15.142	0.338	0.216
-676.178	427.370	-0.018	-0.039
-675.164	227.530	-0.112	0.182
-674.149	-101.967	0.092	0.022
-673.135	6.651	0.225	0.167
-672.120	193.025	-0.127	-0.191
-671.105	-91.736	0.281	0.080
-670.091	-18.400	-0.253	-0.158
-669.076	196.800	0.306	-0.466
-668.062	-200.000	0.039	0.322
-667.047	-200.000	-0.034	-0.304
-666.032	-72.581	-0.082	0.030
-665.018	470.946	-0.198	0.444
-664.003	-88.731	0.232	0.069
-662.989	800.000	0.203	0.562
-661.974	800.000	-0.068	0.260
-660.959	-9.795	0.039	0.026
-659.945	-200.000	-0.069	0.346
-658.930	800.000	-0.088	-0.313
-657.916	-200.000	0.004	-0.218
-656.901	149.362	-0.237	-0.320
-655.886	269.270	0.275	0.482
-654.872	121.442	-0.057	0.071
-653.857	800.000	-0.158	-0.524
-652.843	92.898	-0.138	-0.156
-651.828	106.282	-0.109	-0.128
-650.814	-94.036	0.126	0.034
-649.799	177.780	0.188	-0.274
-648.784	10.223	-0.200	0.152
-647.770	128.857	-0.201	0.255
-646.755	181.218	0.136	0.199
-645.741	323.928	0.121	0.230
-644.726	-122.927	0.195	0.031
-643.711	-60.633	0.088	-0.037
-642.697	-197.991	-0.193	-0.001
-641.682	-200.000	0.004	0.182
-640.668	-200.000	0.031	0.217
-639.653	-181.203	-0.388	0.008
-638.638	30.082	0.109	-0.093
-637.624	-102.743	-0.127	0.030
-636.609	78.232	-0.229	0.244
-635.595	50.813	0.212	-0.200
-634.580	800.000	-0.144	0.473
-633.565	379.965	-0.106	0.217
-632.551	704.250	-0.079	-0.207
-631.536	-5.023	0.154	0.106
-630.522	-43.768	-0.192	-0.096
-629.507	484.589	-0.077	0.174
-628.492	800.000	-0.149	-0.460
-627.478	103.134	-0.283	-0.330
-626.463	-175.776	-0.157	0.004
-625.449	-33.522	0.252	0.139
-624.434	-62.337	-0.174	0.072
-623.419	61.785	-0.181	-0.180
-622.405	-125.975	-0.436	0.065
-621.390	-200.000	0.044	0.469
-620.376	203.687	-0.091	-0.140
-619.361	-200.000	-0.000	-0.260
-618.346	-99.401	-0.253	-0.064
-617.332	800.000	0.042	0.183
-616.317	-116.627	0.140	0.026
-615.303	800.000	-0.052	0.192
-614.288	800.000	0.150	-0.424
-613.273	-112.270	-0.216	-0.043
-612.259	800.000	0.047	0.189
-611.244	297.782	-0.050	0.092
-610.230	-4.177	-0.186	0.128
-609.215	24.990	-0.042	0.035
-608.201	191.931	-0.107	0.161
-607.186	127.896	0.130	-0.165
-606.171	800.000	0.098	-0.328
-605.157	138.660	-0.042	-0.055
-604.142	-71.173	-0.219	-0.082
-603.128	563.592	0.051	-0.122
-602.113	406.918	-0.082	0.172
-601.098	266.458	-0.123	0.214
-600.084	-59.392	-0.227	-0.097
-599.069	468.014	-0.030	-0.068
-598.055	-11.030	0.126	-0.083
-597.040	133.370	-0.072	0.093
-596.025	19.383	-0.215	-0.172
-595.011	512.106	-0.121	0.280
-593.996	20.302	-0.186	-0.149
-592.982	230.547	0.060	-0.097
-591.967	800.000	-0.060	0.203
-590.952	-7.626	-0.142	0.095
-589.938	-200.000	-0.003	-0.073
-588.923	-170.994	0.387	-0.013
-587.909	-152.488	0.190	0.014
-586.894	33.044	-0.083	0.072
-585.879	-200.000	0.032	0.178
-584.865	-2.460	0.045	-0.031
-583.850	1.479	-0.269	0.192
-582.836	-99.592	0.214	-0.053
-581.821	-130.460	-0.432	0.058
-580.806	-29.246	0.290	0.165
-579.792	-151.903	0.074	0.005
-578.777	289.649	0.116	-0.209
-577.763	-200.000	0.028	0.396
-576.748	-188.064	0.015	-0.000
-575.733	84.844	-0.261	-0.284
-574.719	114.903	0.085	0.103
-573.704	-200.000	-0.036	-0.267
-572.690	-76.677	-0.157	0.055
-571.675	-200.000	-0.013	-0.141
-570.661	-200.000	0.034	0.323
-569.646	-107.596	0.086	0.019
-568.631	800.000	0.023	-0.085
-567.617	-129.295	0.121	-0.017
-566.602	800.000	0.028	-0.111
-565.588	-96.351	0.109	0.029
-564.573	84.131	-0.098	0.106
-563.558	-174.721	0.196	0.006
-562.544	-200.000	0.031	-0.248
-561.529	800.000	-0.057	-0.166
-560.515	-131.588	0.166	-0.022
-559.500	242.093	-0.125	0.207
-558.485	297.665	0.180	0.328
-557.471	-81.584	-0.142	-0.046
-556.456	-108.176	0.250	0.054
-555.442	-200.000	0.016	0.142
-554.427	-97.140	-0.270	-0.070
-553.412	800.000	0.062	0.230
-552.398	-46.842	-0.258	-0.125
-551.383	-4.139	0.112	-0.077
-550.369	6.990	0.049	0.036
-549.354	-133.496	0.380	0.047
-548.339	-127.006	0.088	0.013
-547.325	-173.023	0.021	0.001
-546.310	-135.355	0.115	0.014
-545.296	-58.718	-0.131	0.056
-544.281	-100.379	0.207	0.051
-543.266	-81.523	-0.346	-0.113
-542.252	-155.527	-0.150	0.010
-541.237	62.811	0.165	0.163
-540.223	66.013	-0.147	-0.148
-539.208	-200.000	0.019	0.344
-538.193	114.943	-0.151	-0.183
-537.179	-62.451	0.163	-0.067
-536.164	-200.000	0.026	-0.229
-535.150	-7.748	-0.094	-0.063
-534.135	396.597	0.124	-0.257
-533.121	-150.809	-0.490	-0.037
-532.106	146.543	-0.127	0.169
-531.091	789.809	-0.022	0.059
-530.077	-200.000	-0.034	0.413
-529.062	-200.000	0.005	-0.031
-528.048	301.905	0.112	0.206
-527.033	-33.034	0.149	-0.082
-526.018	170.404	-0.235	0.334
-525.004	-66.505	-0.122	0.048
-523.989	-134.773	0.088	-0.011
-522.975	-70.335	-0.136	-0.051
-521.960	-64.771	-0.053	0.021
-520.945	-115.805	0.135	0.025
-519.931	-105.561	0.191	-0.043
-518.916	800.000	0.073	0.212
-517.902	-87.178	0.178	-0.054
-516.887	-200.000	0.029	-0.277
-515.872	-200.000	0.018	-0.211
-514.858	-200.000	0.025	-0.184
-513.843	624.555	-0.057	-0.143
-512.829	-200.000	0.023	-0.150
-511.814	-180.863	0.124	0.002
-510.799	67.335	0.197	0.199
-509.785	350.115	-0.009	-0.017
-508.770	-163.949	0.190	0.009
-507.756	46.771	0.246	0.226
-506.741	-140.197	-0.112	-0.012
-505.726	-30.770	0.177	-0.099
-504.712	-163.644	-0.107	-0.005
-503.697	-200.000	-0.013	0.257
-502.683	-111.076	0.195	-0.040
-501.668	-200.000	0.016	-0.263
-500.653	99.646	0.044	0.050
-499.639	-200.000	-0.074	-0.403
-498.624	196.892	0.105	-0.159
-497.610	113.094	0.101	-0.122
-496.595	-127.962	-0.210	-0.030
-495.581	79.946	0.044	0.046
-494.566	-26.293	0.112	0.065
-493.551	-107.609	-0.256	-0.056
-492.537	120.930	-0.257	0.316
-491.522	-72.102	-0.311	-0.115
-490.508	757.445	-0.036	-0.095
-489.493	-200.000	0.054	0.245
-488.478	18.280	0.134	0.106
-487.464	298.169	0.074	-0.134
-486.449	-28.089	0.197	-0.113
-485.435	-9.068	-0.254	0.168
-484.420	-200.000	-0.007	-0.258
-483.405	-200.000	-0.022	-0.318
-482.391	155.283	0.064	-0.087
-481.376	-53.407	0.184	-0.084
-480.362	-66.894	-0.269	0.105
-479.347	112.904	-0.314	-0.377
-478.332	-16.051	0.333	-0.210
-477.318	-158.038	-0.206	0.012
-476.303	-38.132	0.119	-0.062
-475.289	223.193	0.046	0.073
-474.274	800.000	-0.031	0.123
-473.259	268.497	-0.166	0.289
-472.245	-200.000	-0.056	0.264
-471.230	-200.000	0.074	-0.383
-470.216	-109.685	-0.101	0.021
-469.201	-68.887	0.389	-0.149
-468.186	46.355	-0.162	0.148
-467.172	17.558	-0.146	-0.115
-466.157	-200.000	-0.001	-0.188
-465.143	213.472	0.073	0.115
-464.128	-2.557	0.164	-0.114
-463.113	-200.000	-0.006	0.135
-462.099	542.258	-0.074	-0.175
-461.084	-200.000	0.031	0.217
-460.070	-200.000	-0.027	-0.234
-459.055	-107.094	0.440	-0.096
-458.040	800.000	0.068	0.228
-457.026	193.770	-0.186	-0.278
-456.011	-129.117	0.185	-0.026
-454.997	595.105	-0.087	0.212
-453.982	-76.995	0.114	0.039
-452.968	159.017	-0.116	-0.159
-451.953	475.740	0.035	0.078
-450.938	-99.014	-0.121	0.030
-449.924	800.000	-0.096	-0.327
-448.909	30.277	0.240	0.203
-447.895	-200.000	-0.054	-0.239
-446.880	-200.000	0.002	0.057
-445.865	800.000	-0.067	-0.253
-444.851	61.691	-0.139	0.137
-443.836	674.675	0.079	-0.203
-442.822	-200.000	-0.013	-0.069
-441.807	287.861	-0.142	0.254
-440.792	-129.139	0.257	0.036
-439.778	-50.033	-0.240	-0.113
-438.763	-87.172	-0.096	-0.029
-437.749	-73.363	0.201	-0.073
-436.734	800.000	0.053	0.208
-435.719	27.998	-0.103	0.086
-434.705	265.484	-0.184	0.318
-433.690	-77.985	0.182	-0.062
-432.676	-109.696	0.231	-0.048
-431.661	800.000	0.058	0.210
-430.646	-8.924	0.197	0.131
-429.632	684.603	0.061	-0.158
-428.617	-84.651	0.165	0.051
-427.603	-155.162	-0.392	-0.025
-426.588	-200.000	0.067	-0.297
-425.573	-200.000	0.126	-0.000
-424.559	-200.000	0.108	-0.568
-423.544	800.000	0.049	-0.146
-422.530	137.506	-0.051	-0.066
-421.515	467.374	0.031	-0.068
-420.500	800.000	-0.033	-0.122
-419.486	-200.000	0.017	0.414
-418.471	800.000	0.027	0.088
-417.457	800.000	-0.071	-0.264
-416.442	198.423	0.169	-0.255
-415.428	800.000	-0.056	-0.177
-414.413	-142.400	0.066	-0.006
-413.398	91.144	0.209	-0.232
-412.384	-94.844	-0.144	0.039
-411.369	-116.312	0.205	0.038
-410.355	92.469	0.155	-0.172
-409.340	42.471	-0.143	-0.129
-408.325	-89.341	-0.177	-0.051
-407.311	425.723	-0.039	-0.084
-406.296	-200.000	0.008	0.342
-405.282	91.142	0.151	0.168
-404.267	-87.179	-0.075	-0.023
-403.252	-9.294	-0.091	-0.060
-402.238	-84.076	-0.211	-0.066
-401.223	7.934	0.038	-0.028
-400.209	-51.714	0.292	-0.134
-399.194	-64.922	-0.247	0.099
-398.179	-79.063	0.106	0.035
-397.165	-14.941	0.305	-0.193
-396.150	184.007	0.059	-0.087
-395.136	568.129	-0.160	0.385
-394.121	467.971	0.051	-0.113
-393.106	123.378	-0.041	-0.051
-392.092	-81.670	0.120	-0.039
-391.077	-93.196	0.485	-0.133
-390.063	152.493	0.075	0.101
-389.048	-151.573	0.204	0.015
-388.033	-93.969	-0.370	-0.100
-387.019	178.697	-0.118	-0.170
-386.004	48.585	0.063	0.058
-384.990	-121.550	-0.100	-0.016
-383.975	-157.679	0.162	-0.010
-382.960	154.488	0.082	-0.111
-381.946	-145.446	-0.665	0.059
-380.931	209.114	0.092	-0.142
-379.917	411.833	-0.125	-0.262
-378.902	800.000	0.119	0.380
-377.888	262.521	0.094	0.161
-376.873	-123.626	0.207	-0.032
-375.858	393.549	-0.069	-0.141
-374.844	2.040	0.168	0.119
-373.829	213.569	0.089	-0.138
-372.815	-200.000	0.147	-0.000
-371.800	-83.826	-0.182	0.057
-370.785	-93.316	0.151	0.041
-369.771	126.178	0.248	0.309
-368.756	-200.000	-0.034	-0.179
-367.742	800.000	0.056	-0.193
-366.727	-200.000	-0.024	-0.127
-365.712	-136.104	0.033	0.004
-364.698	800.000	-0.041	-0.139
-363.683	-138.202	0.306	-0.033
-362.669	800.000	-0.077	0.307
-361.654	105.098	0.113	-0.132
-360.639	800.000	0.046	-0.136
-359.625	-200.000	0.008	-0.148
-358.610	-80.956	0.205	-0.067
-357.596	-129.730	0.094	0.013
-356.581	-36.182	-0.024	-0.013
-355.566	-124.186	0.280	-0.043
-354.552	155.707	-0.076	-0.103
-353.537	-121.809	-0.092	0.015
-352.523	800.000	0.069	0.202
-351.508	23.891	-0.130	-0.106
-350.493	320.050	-0.097	0.181
-349.479	-0.623	0.148	-0.103
-348.464	189.867	0.134	0.198
-347.450	-61.335	-0.209	-0.087
-346.435	-200.000	-0.002	0.012
-345.420	800.000	0.104	-0.379
-344.406	226.836	-0.243	0.388
-343.391	-200.000	0.024	-0.221
-342.377	-160.039	-0.369	-0.020
-341.362	-33.320	0.177	0.097
-340.348	800.000	-0.066	-0.191
-339.333	318.647	-0.108	0.202
-338.318	-200.000	0.005	-0.024
-337.304	112.767	0.087	0.104
-336.289	-29.560	0.143	-0.080
-335.275	800.000	0.012	-0.044
-334.260	24.365	-0.202	-0.164
-333.245	-117.213	-0.091	-0.016
-332.231	3.122	0.094	0.068
-331.216	-84.435	0.233	-0.073
-330.202	81.151	0.194	-0.207
-329.187	176.508	0.205	-0.293
-328.172	-200.000	0.015	0.280
-327.158	51.414	0.093	0.087
-326.143	155.088	-0.170	-0.230
-325.129	-200.000	0.051	0.476
-324.114	-14.871	0.104	0.066
-323.099	61.493	-0.250	0.245
-322.085	800.000	-0.030	0.112
-321.070	437.285	-0.106	-0.228
-320.056	-100.929	-0.122	-0.029
-319.041	131.568	-0.071	0.090
-318.026	-62.691	0.183	0.075
-317.012	-47.405	0.177	0.085
-315.997	-200.000	-0.007	0.111
-314.983	-27.593	0.260	-0.149
-313.968	756.387	-0.201	-0.535
-312.953	97.191	0.129	0.146
-311.939	232.707	-0.052	-0.084
-310.924	-64.034	-0.169	0.068
-309.910	76.962	0.054	0.057
-308.895	0.760	-0.239	0.168
-307.880	613.711	0.057	-0.141
-306.866	800.000	-0.041	0.160
-305.851	-136.758	0.306	-0.035
-304.837	800.000	-0.076	-0.252
-303.822	-9.669	-0.324	0.213
-302.807	-200.000	-0.013	0.141
-301.793	226.961	0.041	-0.065
-300.778	-35.488	0.050	-0.027
-299.764	-135.133	0.027	0.003
-298.749	-90.027	-0.273	-0.078
-297.735	-80.491	-0.053	-0.017
-296.720	-200.000	0.003	-0.193
-295.705	-113.159	0.264	0.051
-294.691	-79.141	0.063	0.021
-293.676	27.161	0.079	-0.065
-292.662	159.744	0.233	-0.319
-291.647	-62.807	0.141	0.057
-290.632	-200.000	-0.023	-0.144
-289.618	-200.000	0.026	0.118
-288.603	111.465	0.231	0.273
-287.589	800.000	0.018	-0.062
-286.574	86.499	-0.057	0.062
-285.559	-15.801	0.268	-0.168
-284.545	180.708	0.101	-0.145
-283.530	-200.000	0.014	0.209
-282.516	-200.000	0.005	0.142
-281.501	53.782	0.271	0.255
-280.486	759.399	-0.053	0.141
-279.472	636.743	-0.168	0.420
-278.457	619.931	-0.018	-0.043
-277.443	-52.049	0.137	-0.062
-276.428	-71.768	-0.223	-0.082
-275.413	-41.251	0.211	0.107
-274.399	-106.848	-0.168	-0.037
-273.384	672.357	-0.067	-0.172
-272.370	147.467	-0.205	-0.272
-271.355	8.299	0.182	-0.134
-270.340	198.988	-0.158	-0.237
-269.326	117.734	-0.096	-0.115
-268.311	149.734	-0.269	-0.358
-267.297	87.710	0.116	-0.126
-266.282	-139.791	-0.207	-0.022
-265.267	-200.000	0.039	-0.393
-264.253	49.124	-0.217	-0.200
-263.238	-179.537	-0.251	0.005
-262.224	800.000	-0.090	-0.300
-261.209	-45.654	0.278	-0.135
-260.195	-137.274	-0.277	-0.031
-259.180	-200.000	-0.045	0.238
-258.165	-22.902	0.278	0.165
-257.151	229.111	-0.065	0.105
-256.136	-84.605	0.135	0.042
-255.122	-200.000	0.044	-0.234
-254.107	-200.000	-0.051	-0.482
-253.092	-200.000	-0.022	-0.136
-252.078	-15.900	-0.111	0.069
-251.063	-64.761	0.018	0.007
-250.049	-200.000	-0.070	0.398
-249.034	-47.384	0.159	0.076
-248.019	117.046	-0.192	-0.231
-247.005	217.908	0.167	0.261
-245.990	598.423	0.190	-0.463
-244.976	192.889	-0.243	-0.361
-243.961	-128.924	0.394	0.054
-242.946	91.607	0.128	-0.141
-241.932	-4.816	-0.193	-0.131
-240.917	519.450	0.047	0.108
-239.903	-11.925	-0.306	0.197
-238.888	-78.634	-0.080	-0.027
-237.873	-86.114	-0.230	0.070
-236.859	74.564	0.171	0.176
-235.844	358.755	0.054	0.105
-234.830	-135.746	-0.348	-0.040
-233.815	-200.000	0.035	0.166
-232.800	-200.000	-0.042	0.243
-231.786	694.892	-0.115	0.295
-230.771	800.000	0.052	0.161
-229.757	800.000	0.105	0.359
-228.742	-200.000	0.034	0.241
-227.727	303.006	-0.324	0.589
-226.713	-109.387	-0.104	0.022
-225.698	-32.100	-0.140	-0.077
-224.684	215.077	-0.108	0.168
-223.669	-136.011	-0.283	-0.033
-222.655	-96.878	0.233	-0.060
-221.640	159.441	0.160	-0.218
-220.625	-35.099	0.135	-0.072
-219.611	-200.000	0.034	-0.185
-218.596	-200.000	-0.024	0.312
-217.582	800.000	0.016	-0.049
-216.567	-21.887	-0.277	0.165
-215.552	75.208	0.356	0.367
-214.538	90.505	0.162	0.178
-213.523	-125.669	-0.134	-0.020
-212.509	331.717	-0.163	-0.308
-211.494	730.840	-0.035	-0.093
-210.479	-44.960	0.545	0.266
-209.465	87.861	-0.249	0.270
-208.450	295.110	0.139	0.249
-207.436	-200.000	0.013	0.109
-206.421	-100.985	0.105	-0.025
-205.406	800.000	0.037	-0.119
-204.392	-40.667	-0.353	-0.179
-203.377	23.509	0.249	0.201
-202.363	97.341	0.292	-0.329
-201.348	286.636	0.099	0.175
-200.333	-200.000	-0.068	0.529
-199.319	-14.799	0.375	0.236
-198.304	244.080	-0.165	0.272
-197.290	49.977	-0.177	0.163
-196.275	-113.897	0.160	0.030
-195.260	-178.520	-0.424	0.010
-194.246	-200.000	-0.006	0.042
-193.231	-33.372	-0.125	0.068
-192.217	-43.023	0.167	-0.083
-191.202	-58.393	0.087	-0.037
-190.187	-200.000	-0.005	0.104
-189.173	-92.375	-0.204	-0.056
-188.158	646.223	0.067	-0.169
-187.144	-200.000	0.018	-0.152
-186.129	258.194	-0.016	-0.027
-185.114	-200.000	0.018	-0.368
-184.100	71.450	0.122	0.124
-183.085	-200.000	0.038	0.196
-182.071	160.792	0.059	-0.081
-181.056	800.000	-0.068	-0.237
-180.042	800.000	-0.035	-0.147
-179.027	-85.167	0.130	0.040
-178.012	8.770	0.174	-0.129
-176.998	-70.914	-0.185	0.068
-175.983	196.167	-0.145	-0.216
-174.969	800.000	-0.093	-0.325
-173.954	40.695	-0.162	0.143
-172.939	-38.846	0.306	0.158
-171.925	-119.161	0.075	0.013
-170.910	649.910	0.038	0.095
-169.896	-86.083	-0.329	0.099
-168.881	121.548	0.185	-0.226
-167.866	-130.475	-0.394	-0.052
-166.852	-130.563	-0.097	-0.013
-165.837	-165.150	0.064	-0.003
-164.823	57.524	-0.112	0.107
-163.808	42.337	0.236	-0.210
-162.793	-118.134	0.268	-0.047
-161.779	238.095	-0.047	0.077
-160.764	800.000	-0.062	0.244
-159.750	53.276	0.143	0.134
-158.735	106.064	0.154	0.179
-157.720	-35.098	-0.184	-0.098
-156.706	314.946	0.143	0.263
-155.691	48.471	-0.083	-0.076
-154.677	-74.229	-0.212	0.075
-153.662	800.000	-0.103	0.408
-152.647	800.000	0.146	0.439
-151.633	-200.000	-0.007	-0.134
-150.618	307.965	-0.190	-0.346
-149.604	387.548	0.170	0.344
-148.589	266.737	-0.044	-0.075
-147.574	86.440	0.108	0.116
-146.560	142.045	0.173	-0.224
-145.545	-151.441	0.027	0.002
-144.531	-200.000	0.048	0.384
-143.516	-33.679	-0.434	-0.234
-142.502	383.580	0.109	0.219
-141.487	76.934	0.117	-0.121
-140.472	435.037	0.037	0.079
-139.458	534.198	-0.054	0.124
-138.443	800.000	-0.047	0.176
-137.429	-200.000	-0.027	0.268
-136.414	-93.470	0.400	-0.108
-135.399	-95.672	0.173	0.045
-134.385	40.306	0.093	0.082
-133.370	-105.706	-0.386	-0.085
-132.356	-200.000	0.040	0.227
-131.341	96.367	-0.240	0.268
-130.326	92.199	0.157	-0.173
-129.312	-51.015	0.319	-0.146
-128.297	-200.000	0.004	0.276
-127.283	-200.000	-0.043	0.358
-126.268	-30.312	0.049	-0.027
-125.253	-61.265	-0.102	0.042
-124.239	85.380	0.204	0.218
-123.224	-109.811	-0.212	0.043
-122.210	413.502	-0.206	0.428
