DTS Sentinel unit serial number:	SN413079Multiplexer serial number:	ORYXHardware model number:	OX4-SRSoftware version number:	ORYX F/W v4.00 Oryx Data Collector v3.7.2.0data status	okinstallation	princeton_trtdifferential loss correction	single-endedforward channel	channel 3reverse channel	N/Adate	2019/09/13time	23:32:35forward acquisition time	60.00reverse acquisition time	0.00gamma	496.2192k internal	0.2340k external	0.2340temperature offset calibration	1.0061default loss term (dB/km)	0.3790temperature slope calibration	1.0000multiplexer offset coefficient	1.0000multiplexer slope coefficient	1.0000fibre end	0.00T internal ref (°C)	26.81T ext. ref 1 (°C)	3.17T ext. ref 2 (°C)	21.01length (m)	temperature (°C)	Stokes	anti-Stokes-747.200	95.346	0.085	0.098
-746.185	439.405	-0.070	0.152
-745.171	307.014	0.084	0.157
-744.156	-16.626	-0.274	0.174
-743.142	12.687	-0.263	-0.203
-742.127	-104.311	0.173	-0.040
-741.112	-32.384	0.187	-0.104
-740.098	197.159	-0.104	-0.159
-739.083	388.935	0.128	-0.265
-738.069	107.059	-0.115	0.136
-737.054	358.641	-0.178	-0.357
-736.039	-200.000	-0.068	-0.374
-735.025	-46.207	-0.377	-0.186
-734.010	-200.000	-0.011	-0.103
-732.996	401.447	-0.065	-0.137
-731.981	-147.007	-0.216	-0.019
-730.966	-200.000	0.043	0.198
-729.952	-200.000	0.003	-0.026
-728.937	-136.920	-0.445	-0.051
-727.923	-15.118	-0.159	-0.102
-726.908	92.745	0.143	-0.162
-725.894	138.134	-0.155	-0.204
-724.879	132.717	0.080	0.103
-723.864	-200.000	0.020	0.368
-722.850	-169.070	0.384	-0.014
-721.835	-41.150	0.102	-0.053
-720.821	-93.753	-0.416	-0.115
-719.806	24.022	-0.119	0.099
-718.791	-167.351	-0.117	-0.005
-717.777	798.862	0.128	-0.354
-716.762	61.347	-0.304	-0.303
-715.748	119.746	-0.122	-0.151
-714.733	344.568	0.165	-0.323
-713.718	22.395	0.134	0.109
-712.704	-131.920	0.274	0.036
-711.689	-200.000	-0.005	-0.240
-710.675	-126.612	-0.477	-0.071
-709.660	33.286	0.122	-0.106
-708.645	-15.616	-0.310	0.198
-707.631	47.380	0.261	0.244
-706.616	-88.537	-0.175	-0.052
-705.602	-200.000	-0.025	0.170
-704.587	-86.039	-0.191	0.059
-703.572	270.947	-0.202	-0.355
-702.558	253.913	-0.107	-0.183
-701.543	800.000	-0.080	0.295
-700.529	-54.932	0.325	0.147
-699.514	-67.194	-0.612	-0.241
-698.499	-90.859	-0.373	-0.108
-697.485	29.813	-0.303	-0.259
-696.470	800.000	0.109	-0.380
-695.456	1.554	0.235	0.169
-694.441	-153.651	0.195	-0.013
-693.426	-141.708	-0.392	-0.039
-692.412	800.000	-0.077	0.248
-691.397	230.178	-0.183	-0.299
-690.383	-200.000	-0.044	-0.250
-689.368	800.000	0.108	0.337
-688.354	110.418	-0.161	-0.194
-687.339	701.802	0.140	-0.368
-686.324	-200.000	0.031	0.153
-685.310	-200.000	-0.015	-0.207
-684.295	-87.672	-0.258	-0.078
-683.281	111.003	0.116	0.140
-682.266	-71.616	-0.333	-0.124
-681.251	174.821	0.142	-0.206
-680.237	764.449	0.072	-0.194
-679.222	-74.870	-0.054	0.019
-678.208	-59.033	-0.510	-0.220
-677.193	331.403	0.035	-0.067
-676.178	253.454	0.174	-0.298
-675.164	115.253	0.122	-0.150
-674.149	137.725	0.188	0.246
-673.135	-85.856	-0.257	-0.080
-672.120	220.501	0.176	-0.282
-671.105	-17.438	-0.145	0.091
-670.091	-76.609	-0.071	-0.025
-669.076	128.714	-0.186	-0.237
-668.062	400.208	-0.069	-0.145
-667.047	250.306	0.134	0.228
-666.032	-13.318	0.064	-0.041
-665.018	366.345	-0.101	-0.203
-664.003	208.506	0.131	0.204
-662.989	66.512	0.292	0.297
-661.974	800.000	-0.085	-0.236
-660.959	-127.587	-0.161	0.023
-659.945	-200.000	-0.039	-0.289
-658.930	37.539	-0.299	-0.265
-657.916	40.412	-0.315	-0.283
-656.901	327.221	0.070	0.134
-655.886	-200.000	-0.019	-0.313
-654.872	-127.038	0.100	-0.015
-653.857	409.549	-0.131	0.277
-652.843	-44.626	-0.203	0.101
-651.828	-200.000	0.009	0.110
-650.814	-130.103	-0.431	-0.059
-649.799	18.610	0.327	-0.261
-648.784	89.140	-0.207	-0.231
-647.770	387.178	0.099	0.205
-646.755	-102.556	-0.059	-0.014
-645.741	-105.541	0.298	-0.067
-644.726	-63.520	0.095	-0.039
-643.711	-132.454	0.405	0.052
-642.697	-172.432	0.145	-0.005
-641.682	124.393	0.092	0.116
-640.668	254.714	-0.035	0.060
-639.653	58.996	-0.293	-0.287
-638.638	178.922	-0.125	0.182
-637.624	347.597	0.184	0.362
-636.609	-39.554	-0.117	-0.061
-635.595	310.710	-0.064	0.120
-634.580	-84.019	-0.124	0.039
-633.565	-17.706	0.157	-0.099
-632.551	-87.326	-0.494	-0.150
-631.536	89.029	-0.235	0.261
-630.522	-57.189	0.342	-0.150
-629.507	203.008	-0.011	0.016
-628.492	-200.000	-0.016	0.245
-627.478	-63.840	0.256	0.104
-626.463	-49.967	0.146	-0.069
-625.449	-42.747	-0.173	-0.088
-624.434	800.000	0.098	0.272
-623.419	661.745	0.074	0.192
-622.405	-54.541	0.165	0.074
-621.390	288.281	-0.134	-0.242
-620.376	516.185	0.043	0.100
-619.361	543.574	-0.120	0.285
-618.346	118.126	0.124	-0.153
-617.332	-44.825	-0.280	-0.139
-616.317	492.567	0.057	-0.130
-615.303	-200.000	0.005	0.100
-614.288	-200.000	0.010	-0.226
-613.273	28.693	0.196	-0.166
-612.259	88.399	0.183	0.202
-611.244	490.757	0.088	-0.202
-610.230	800.000	-0.015	0.042
-609.215	0.331	-0.377	-0.268
-608.201	-200.000	0.026	-0.182
-607.186	149.125	0.203	-0.274
-606.171	107.761	-0.075	0.089
-605.157	-13.385	0.165	0.107
-604.142	45.632	-0.044	0.041
-603.128	-200.000	0.003	0.092
-602.113	-200.000	0.032	-0.172
-601.098	-200.000	0.046	0.233
-600.084	-172.728	0.289	-0.009
-599.069	-136.618	-0.079	-0.009
-598.055	82.347	-0.051	-0.056
-597.040	-98.517	-0.237	-0.060
-596.025	55.605	0.220	0.213
-595.011	196.386	0.107	-0.162
-593.996	414.588	-0.209	0.444
-592.982	-173.286	-0.329	0.010
-591.967	-37.716	-0.293	-0.155
-590.952	-73.137	0.375	-0.137
-589.938	-200.000	0.001	0.133
-588.923	800.000	0.118	-0.333
-587.909	-105.658	0.222	-0.050
-586.894	162.072	-0.396	-0.553
-585.879	800.000	0.041	-0.151
-584.865	-200.000	-0.005	0.124
-583.850	-84.999	0.174	-0.054
-582.836	-156.913	-0.079	-0.005
-581.821	194.171	-0.146	-0.221
-580.806	171.939	-0.014	-0.021
-579.792	-94.280	-0.070	-0.019
-578.777	-83.400	0.230	0.073
-577.763	-2.710	-0.043	0.030
-576.748	-114.547	0.184	0.035
-575.733	-61.575	0.166	0.069
-574.719	-200.000	0.004	-0.241
-573.704	160.892	0.253	0.352
-572.690	-52.775	-0.336	0.154
-571.675	4.238	-0.098	0.071
-570.661	-113.102	0.302	-0.059
-569.646	-149.809	-0.178	-0.014
-568.631	112.877	-0.043	0.052
-567.617	229.174	0.080	0.130
-566.602	609.989	-0.094	-0.234
-565.588	4.568	-0.335	-0.245
-564.573	-200.000	0.002	0.103
-563.558	111.451	-0.099	0.119
-562.544	39.447	-0.062	-0.055
-561.529	-26.562	0.041	-0.024
-560.515	46.825	0.042	-0.039
-559.500	76.731	-0.168	0.177
-558.485	-135.551	-0.323	-0.038
-557.471	44.299	-0.295	-0.269
-556.456	800.000	0.064	0.211
-555.442	800.000	-0.114	-0.412
-554.427	-95.033	-0.164	-0.044
-553.412	438.037	-0.154	-0.334
-552.398	-148.309	0.149	0.012
-551.383	-48.054	0.080	-0.039
-550.369	78.915	0.051	0.054
-549.354	-145.604	-0.042	0.004
-548.339	-65.901	-0.108	0.043
-547.325	-8.617	0.241	0.161
-546.310	-91.355	-0.116	-0.033
-545.296	-165.521	-0.202	-0.009
-544.281	-114.892	0.112	-0.021
-543.266	134.954	0.053	0.069
-542.252	-200.000	-0.016	-0.231
-541.237	-200.000	-0.008	0.344
-540.223	-116.198	0.127	-0.023
-539.208	-105.016	-0.154	-0.035
-538.193	357.654	-0.201	-0.399
-537.179	-200.000	0.006	-0.271
-536.164	60.477	0.256	-0.252
-535.150	-43.464	-0.147	0.074
-534.135	-200.000	-0.003	0.180
-533.121	43.780	0.317	0.288
-532.106	800.000	0.064	0.215
-531.091	50.409	-0.313	0.294
-530.077	-200.000	0.061	0.324
-529.062	622.423	0.066	-0.166
-528.048	800.000	0.037	-0.118
-527.033	800.000	-0.061	0.170
-526.018	-16.845	0.140	0.088
-525.004	-3.017	0.322	-0.223
-523.989	175.530	-0.139	-0.201
-522.975	59.342	0.066	0.065
-521.960	-32.296	-0.330	-0.183
-520.945	-200.000	-0.009	0.282
-519.931	382.617	0.070	-0.143
-518.916	800.000	0.081	-0.234
-517.902	59.004	-0.226	-0.221
-516.887	11.450	0.068	0.052
-515.872	570.463	-0.199	0.480
-514.858	171.547	-0.069	-0.098
-513.843	-41.454	0.164	-0.084
-512.829	-172.539	-0.174	-0.005
-511.814	-4.663	0.118	0.081
-510.799	-81.684	-0.185	0.060
-509.785	184.289	0.188	-0.277
-508.770	171.888	-0.120	-0.171
-507.756	800.000	0.061	-0.253
-506.741	83.198	-0.127	0.137
-505.726	-191.126	0.010	-0.000
-504.712	-200.000	-0.039	0.341
-503.697	-159.797	0.143	-0.008
-502.683	-155.113	0.230	-0.015
-501.668	132.320	-0.040	-0.051
-500.653	-200.000	-0.056	-0.304
-499.639	800.000	0.058	-0.177
-498.624	354.209	-0.033	0.066
-497.610	-60.991	-0.181	-0.076
-496.595	-200.000	0.006	-0.029
-495.581	-200.000	-0.006	-0.259
-494.566	463.014	0.094	-0.208
-493.551	108.973	0.113	-0.134
-492.537	-175.394	0.203	0.006
-491.522	-9.762	-0.185	0.123
-490.508	-200.000	0.026	-0.116
-489.493	800.000	-0.175	0.538
-488.478	-200.000	-0.003	0.060
-487.464	800.000	-0.023	-0.087
-486.449	-200.000	-0.025	-0.145
-485.435	-200.000	0.014	-0.291
-484.420	83.137	0.064	-0.069
-483.405	63.613	-0.145	0.144
-482.391	542.821	0.184	0.435
-481.376	800.000	-0.033	-0.139
-480.362	-200.000	0.001	-0.079
-479.347	525.073	-0.169	-0.395
-478.332	18.532	0.212	-0.168
-477.318	1.766	-0.118	-0.084
-476.303	-200.000	-0.009	0.128
-475.289	78.706	-0.177	-0.188
-474.274	222.371	0.036	0.057
-473.259	800.000	-0.013	-0.050
-472.245	54.040	-0.060	-0.057
-471.230	-76.903	0.302	0.105
-470.216	-106.339	0.056	0.012
-469.201	-200.000	-0.026	0.262
-468.186	472.464	-0.171	0.381
-467.172	-200.000	0.042	-0.234
-466.157	-69.413	0.126	-0.048
-465.143	-200.000	0.028	-0.137
-464.128	-200.000	-0.019	0.189
-463.113	181.317	0.076	0.111
-462.099	-110.909	0.140	0.029
-461.084	-200.000	-0.019	-0.135
-460.070	-13.091	0.038	-0.025
-459.055	239.617	-0.100	-0.165
-458.040	-55.138	-0.078	-0.035
-457.026	37.392	-0.297	-0.261
-456.011	-66.169	0.486	0.192
-454.997	753.081	-0.165	-0.442
-453.982	34.174	0.217	0.187
-452.968	146.476	-0.205	0.273
-451.953	-200.000	0.042	0.213
-450.938	-92.595	0.246	0.068
-449.924	-59.013	0.232	-0.099
-448.909	-81.528	-0.206	-0.067
-447.895	800.000	-0.155	-0.439
-446.880	26.758	-0.173	-0.144
-445.865	31.387	0.071	0.061
-444.851	-21.209	-0.236	0.143
-443.836	30.691	-0.252	-0.213
-442.822	107.937	-0.125	-0.147
-441.807	-200.000	-0.040	0.192
-440.792	800.000	-0.082	-0.287
-439.778	-200.000	0.001	-0.003
-438.763	-192.333	0.195	0.002
-437.749	-200.000	-0.024	0.184
-436.734	-2.042	-0.147	0.102
-435.719	-93.822	0.241	0.066
-434.705	-135.138	-0.345	0.041
-433.690	-58.089	-0.110	-0.047
-432.676	166.774	0.058	-0.082
-431.661	1.041	0.063	-0.045
-430.646	0.406	-0.122	-0.086
-429.632	424.115	0.079	0.169
-428.617	-189.196	-0.109	-0.001
-427.603	-3.583	-0.050	0.034
-426.588	-37.624	0.218	0.115
-425.573	800.000	-0.050	0.174
-424.559	-130.065	0.237	0.032
-423.544	800.000	-0.116	-0.384
-422.530	800.000	-0.037	-0.149
-421.515	411.354	0.035	-0.074
-420.500	-200.000	0.004	0.286
-419.486	115.116	-0.109	0.131
-418.471	-27.564	0.213	0.122
-417.457	64.704	-0.273	-0.273
-416.442	-168.008	0.082	0.003
-415.428	564.329	0.052	0.124
-414.413	-6.743	0.094	0.063
-413.398	-50.222	-0.064	0.030
-412.384	-200.000	0.002	0.122
-411.369	-175.705	-0.489	-0.013
-410.355	800.000	0.014	0.057
-409.340	-200.000	-0.006	-0.139
-408.325	553.822	0.079	0.189
-407.311	580.672	-0.146	0.353
-406.296	-140.501	0.205	0.021
-405.282	800.000	0.026	-0.088
-404.267	800.000	0.014	-0.050
-403.252	-53.114	0.043	0.019
-402.238	7.085	0.311	0.230
-401.223	-14.204	-0.271	0.173
-400.209	-4.770	-0.150	-0.102
-399.194	-200.000	-0.008	-0.136
-398.179	-200.000	-0.035	0.280
-397.165	-69.963	-0.129	-0.049
-396.150	800.000	-0.016	-0.046
-395.136	-136.272	0.117	-0.013
-394.121	659.852	-0.031	0.079
-393.106	-49.369	0.086	-0.040
-392.092	90.531	-0.151	0.168
-391.077	105.768	-0.404	-0.473
-390.063	75.156	0.186	0.194
-389.048	-32.547	0.108	-0.060
-388.033	-147.144	-0.049	-0.004
-387.019	357.191	0.078	-0.153
-386.004	11.949	-0.333	0.253
-384.990	9.992	0.193	-0.145
-383.975	-98.313	-0.051	-0.013
-382.960	91.159	-0.057	-0.064
-381.946	-77.494	-0.290	-0.099
-380.931	800.000	-0.099	0.281
-379.917	181.803	0.031	-0.046
-378.902	-200.000	0.013	-0.063
-377.888	-143.886	0.256	-0.024
-376.873	275.021	-0.053	0.093
-375.858	47.596	-0.112	-0.103
-374.844	337.987	-0.148	0.284
-373.829	800.000	0.083	-0.279
-372.815	192.481	-0.211	-0.315
-371.800	-200.000	-0.007	-0.274
-370.785	800.000	-0.056	-0.238
-369.771	215.622	-0.144	0.226
-368.756	-40.435	0.122	0.062
-367.742	-200.000	0.001	0.303
-366.727	39.235	0.199	-0.176
-365.712	60.448	0.107	0.104
-364.698	-43.181	-0.307	-0.154
-363.683	2.675	-0.135	0.097
-362.669	-191.805	0.093	0.001
-361.654	800.000	-0.042	0.172
-360.639	269.826	0.041	0.072
-359.625	-11.412	-0.153	0.100
-358.610	800.000	-0.052	0.164
-357.596	-17.524	0.086	0.053
-356.581	-166.703	-0.164	0.007
-355.566	800.000	0.067	0.207
-354.552	-81.795	0.094	-0.031
-353.537	-60.206	0.259	-0.109
-352.523	-138.792	-0.201	0.022
-351.508	-200.000	0.019	0.133
-350.493	-56.268	0.055	-0.024
-349.479	-21.946	0.133	0.080
-348.464	-120.954	-0.222	0.037
-347.450	129.505	-0.230	-0.291
-346.435	-146.340	0.151	0.013
-345.420	500.365	-0.063	-0.143
-344.406	1.828	0.051	0.036
-343.391	-119.147	0.214	0.037
-342.377	54.936	0.146	0.139
-341.362	450.530	0.194	0.422
-340.348	-200.000	0.048	-0.224
-339.333	-41.370	-0.255	-0.129
-338.318	800.000	0.079	0.238
-337.304	800.000	0.046	0.181
-336.289	-71.801	-0.160	-0.059
-335.275	92.745	0.152	-0.169
-334.260	-8.933	0.122	-0.081
-333.245	800.000	-0.092	0.371
-332.231	-200.000	-0.096	0.448
-331.216	-80.153	0.105	-0.035
-330.202	-145.580	0.050	0.004
-329.187	108.557	-0.035	0.041
-328.172	-96.335	-0.349	-0.091
-327.158	-147.306	0.234	0.020
-326.143	-200.000	0.167	0.000
-325.129	800.000	0.046	-0.133
-324.114	-87.298	0.381	0.114
-323.099	-1.693	-0.392	-0.272
-322.085	-200.000	-0.105	-0.479
-321.070	-200.000	0.016	-0.223
-320.056	78.871	0.230	0.243
-319.041	-112.647	-0.185	0.036
-318.026	127.376	0.323	0.404
-317.012	-47.102	-0.114	0.055
-315.997	218.552	-0.080	-0.127
-314.983	-50.058	0.137	-0.064
-313.968	800.000	-0.063	0.235
-312.953	-200.000	0.038	0.241
-311.939	-191.421	0.254	0.003
-310.924	479.737	-0.170	-0.380
-309.910	800.000	-0.064	-0.258
-308.895	56.616	0.163	0.156
-307.880	-55.686	0.143	-0.063
-306.866	311.226	-0.153	0.283
-305.851	91.852	0.074	-0.082
-304.837	-114.593	0.236	0.045
-303.822	35.159	0.073	0.063
-302.807	-166.002	0.186	-0.008
-301.793	-200.000	0.009	0.221
-300.778	71.220	-0.241	-0.247
-299.764	-46.533	-0.131	0.063
-298.749	-138.333	0.081	0.009
-297.735	31.563	0.087	-0.074
-296.720	386.030	-0.035	-0.071
-295.705	800.000	-0.043	0.132
-294.691	119.199	0.093	-0.114
-293.676	-135.156	-0.331	-0.039
-292.662	66.373	0.093	-0.093
-291.647	800.000	0.069	-0.219
-290.632	119.663	0.080	0.098
-289.618	-200.000	-0.002	-0.064
-288.603	-22.766	0.225	0.134
-287.589	-75.480	0.222	-0.078
-286.574	57.262	-0.214	-0.206
-285.559	268.019	-0.089	0.153
-284.545	-200.000	0.054	0.234
-283.530	13.904	-0.039	-0.030
-282.516	-65.828	-0.183	0.072
-281.501	-86.892	-0.114	0.034
-280.486	89.927	0.215	-0.236
-279.472	150.039	0.199	0.266
-278.457	-17.614	0.291	0.180
-277.443	-147.215	-0.126	0.011
-276.428	718.056	-0.059	-0.154
-275.413	-56.214	-0.327	-0.143
-274.399	38.510	0.235	-0.206
-273.384	435.417	0.173	0.370
-272.370	-34.014	-0.033	-0.018
-271.355	-200.000	0.040	0.176
-270.340	-70.336	-0.150	0.056
-269.326	-120.612	0.139	0.023
-268.311	-41.554	0.323	-0.163
-267.297	-45.454	-0.284	-0.138
-266.282	173.926	0.222	0.315
-265.267	-117.267	-0.240	-0.043
-264.253	47.954	0.176	0.162
-263.238	46.218	-0.095	-0.087
-262.224	-159.745	0.058	0.003
-261.209	173.918	0.121	0.172
-260.195	800.000	0.050	0.160
-259.180	-200.000	0.009	-0.214
-258.165	130.967	-0.151	0.190
-257.151	69.782	-0.171	-0.174
-256.136	-17.573	0.093	-0.058
-255.122	579.111	0.068	-0.165
-254.107	-63.642	0.273	-0.110
-253.092	-79.301	0.267	-0.089
-252.078	15.389	0.102	-0.079
-251.063	800.000	0.060	-0.230
-250.049	-73.722	0.541	0.194
-249.034	-200.000	-0.038	0.201
-248.019	114.861	0.096	0.115
-247.005	800.000	0.049	0.145
-245.990	200.955	-0.127	-0.192
-244.976	-135.337	0.305	-0.036
-243.961	-9.209	-0.328	0.215
-242.946	800.000	-0.111	0.303
-241.932	79.117	0.163	-0.172
-240.917	800.000	-0.060	-0.201
-239.903	293.752	0.011	-0.019
-238.888	41.262	0.247	0.220
-237.873	-72.434	-0.089	0.032
-236.859	120.695	0.174	-0.212
-235.844	181.279	0.034	-0.049
-234.830	800.000	0.049	-0.151
-233.815	37.901	0.158	-0.138
-232.800	-86.934	0.346	-0.104
-231.786	-50.013	0.442	0.206
-230.771	-186.243	0.240	0.003
-229.757	-92.531	0.423	0.117
-228.742	-95.413	-0.130	-0.034
-227.727	-200.000	-0.042	-0.325
-226.713	-51.603	-0.167	-0.077
-225.698	127.270	-0.057	0.072
-224.684	-154.144	-0.073	-0.005
-223.669	-168.213	-0.048	0.002
-222.655	-160.378	0.073	-0.004
-221.640	800.000	0.076	0.229
-220.625	-28.580	-0.060	0.034
-219.611	800.000	-0.074	0.218
-218.596	18.228	-0.037	0.029
-217.582	-65.371	0.125	-0.049
-216.567	113.287	0.134	0.160
-215.552	-21.339	-0.244	0.147
-214.538	-141.347	0.470	-0.047
-213.523	-200.000	-0.068	0.332
-212.509	132.490	-0.015	-0.019
-211.494	-36.888	0.301	0.159
-210.479	-176.654	0.235	-0.006
-209.465	-69.716	0.408	0.153
-208.450	87.165	0.145	-0.158
-207.436	-200.000	0.002	-0.282
-206.421	-200.000	0.006	-0.105
-205.406	-12.483	-0.432	-0.277
-204.392	-200.000	0.004	0.088
-203.377	-115.802	-0.124	0.023
-202.363	-82.428	0.262	-0.084
-201.348	-200.000	-0.023	0.161
-200.333	5.020	-0.232	0.168
-199.319	-63.284	-0.229	0.093
-198.304	-121.985	-0.422	0.068
-197.290	119.346	-0.213	0.258
-196.275	-200.000	0.010	-0.245
-195.260	205.439	0.142	-0.216
-194.246	-43.908	0.272	-0.134
-193.231	143.116	-0.038	-0.049
-192.217	129.592	-0.077	0.096
-191.202	-51.803	-0.229	0.105
-190.187	55.057	-0.190	-0.180
-189.173	-79.955	0.092	-0.030
-188.158	358.094	0.164	0.320
-187.144	164.831	0.155	-0.215
-186.129	469.508	-0.100	-0.221
-185.114	-67.428	-0.237	0.091
-184.100	-50.042	0.200	-0.093
-183.085	-200.000	0.016	0.134
-182.071	-15.594	0.173	-0.109
-181.056	-85.317	-0.388	-0.119
-180.042	1.591	-0.182	0.129
-179.027	140.448	0.204	0.264
-178.012	-21.196	-0.155	0.093
-176.998	-181.152	0.127	-0.002
-175.983	25.683	0.029	-0.023
-174.969	-138.752	-0.357	-0.038
-173.954	-40.490	-0.246	-0.125
-172.939	-43.928	0.276	-0.136
-171.925	126.522	0.053	0.066
-170.910	166.795	-0.197	0.273
-169.896	-108.049	-0.142	0.030
-168.881	-200.000	-0.020	0.144
-167.866	431.630	-0.127	-0.271
-166.852	132.153	-0.103	0.130
-165.837	-96.448	0.173	-0.045
-164.823	-93.864	0.067	-0.018
-163.808	800.000	-0.085	0.239
-162.793	284.429	-0.107	0.189
-161.779	578.409	0.017	0.041
-160.764	-200.000	0.007	0.111
-159.750	-112.308	-0.317	0.062
-158.735	16.836	0.016	0.012
-157.720	65.142	0.191	-0.189
-156.706	-103.659	-0.535	0.123
-155.691	81.336	-0.122	0.129
-154.677	-50.028	-0.286	0.133
-153.662	49.532	-0.293	0.270
-152.647	-200.000	-0.032	-0.140
-151.633	-200.000	-0.007	-0.344
-150.618	-34.630	0.223	0.120
-149.604	-110.621	0.203	0.041
-148.589	317.088	0.078	0.144
-147.574	-97.303	0.168	-0.043
-146.560	-200.000	0.006	-0.104
-145.545	234.982	-0.184	-0.298
-144.531	800.000	-0.054	-0.181
-143.516	56.028	-0.202	0.192
-142.502	341.321	0.060	0.115
-141.487	-29.147	0.091	0.051
-140.472	-115.036	-0.128	0.024
-139.458	-26.828	-0.402	0.230
-138.443	-63.304	-0.136	-0.055
-137.429	-82.876	0.413	-0.131
-136.414	121.254	-0.157	0.192
-135.399	4.542	0.142	0.102
-134.385	19.178	-0.120	-0.094
-133.370	10.595	0.453	-0.338
-132.356	126.844	-0.175	-0.217
-131.341	-63.199	-0.194	-0.078
-130.326	-200.000	-0.014	0.108
-129.312	-101.917	0.118	0.028
-128.297	-200.000	0.020	0.202
-127.283	-200.000	0.011	-0.095
-126.268	-200.000	0.028	0.165
-125.253	-23.125	0.312	0.184
-124.239	-112.856	0.171	0.033
-123.224	-200.000	-0.001	0.077
-122.210	89.067	0.070	0.076
-121.195	6.120	0.344	0.249
