DTS Sentinel unit serial number:	SN413079Multiplexer serial number:	ORYXHardware model number:	OX4-SRSoftware version number:	ORYX F/W v4.00 Oryx Data Collector v3.7.2.0data status	okinstallation	princeton_trtdifferential loss correction	single-endedforward channel	channel 3reverse channel	N/Adate	2019/09/11time	11:18:11forward acquisition time	60.00reverse acquisition time	0.00gamma	496.2192k internal	0.2295k external	0.2295temperature offset calibration	0.9936default loss term (dB/km)	0.3790temperature slope calibration	1.0000multiplexer offset coefficient	1.0000multiplexer slope coefficient	1.0000fibre end	0.00T internal ref (°C)	37.69T ext. ref 1 (°C)	0.16T ext. ref 2 (°C)	34.38length (m)	temperature (°C)	Stokes	anti-Stokes-747.200	800.000	0.039	-0.129
-746.185	-119.973	0.223	0.039
-745.171	-77.451	0.247	0.088
-744.156	389.764	0.124	0.263
-743.142	15.118	0.214	0.172
-742.127	205.688	0.087	0.138
-741.112	-200.000	0.012	-0.157
-740.098	86.051	-0.305	0.343
-739.083	-200.000	-0.016	-0.087
-738.069	259.443	-0.128	0.225
-737.054	-200.000	-0.083	-0.409
-736.039	-200.000	0.023	-0.161
-735.025	388.144	0.115	0.243
-734.010	315.935	-0.250	-0.482
-732.996	39.082	-0.163	0.149
-731.981	-42.404	0.222	-0.116
-730.966	54.137	-0.339	-0.333
-729.952	800.000	-0.096	-0.423
-728.937	800.000	0.076	0.239
-727.923	-200.000	0.000	0.443
-726.908	118.383	-0.043	-0.054
-725.894	633.170	0.141	-0.364
-724.879	-88.042	0.128	-0.039
-723.864	-147.544	-0.140	-0.012
-722.850	-1.702	-0.199	-0.143
-721.835	73.247	0.124	-0.132
-720.821	-146.273	0.258	-0.023
-719.806	-198.011	-0.112	-0.001
-718.791	179.451	0.103	0.154
-717.777	-142.392	0.279	-0.028
-716.762	447.065	-0.026	0.059
-715.748	-179.117	0.321	0.007
-714.733	-8.435	-0.092	0.063
-713.718	-5.882	-0.251	0.175
-712.704	800.000	0.039	0.140
-711.689	-64.642	0.156	-0.064
-710.675	-200.000	0.184	-0.000
-709.660	3.037	0.233	-0.173
-708.645	341.669	-0.141	0.281
-707.631	800.000	-0.111	0.489
-706.616	-3.643	0.240	-0.170
-705.602	-47.067	0.056	-0.028
-704.587	-102.514	-0.115	-0.028
-703.572	46.437	-0.138	-0.131
-702.558	175.002	-0.046	-0.067
-701.543	-120.178	0.098	-0.017
-700.529	-200.000	0.068	0.349
-699.514	-200.000	0.004	0.091
-698.499	-60.179	-0.178	-0.078
-697.485	-136.944	0.044	-0.005
-696.470	2.259	-0.214	0.158
-695.456	-53.078	0.376	0.176
-694.441	360.881	-0.087	0.178
-693.426	18.607	0.238	0.194
-692.412	-150.105	0.221	-0.017
-691.397	106.244	-0.350	0.423
-690.383	397.038	-0.140	-0.299
-689.368	-76.532	0.192	0.069
-688.354	-189.386	0.150	0.002
-687.339	469.393	-0.103	-0.236
-686.324	-200.000	-0.002	0.088
-685.310	800.000	-0.059	-0.215
-684.295	-200.000	0.002	0.050
-683.281	800.000	-0.025	-0.072
-682.266	364.777	0.052	-0.106
-681.251	27.166	-0.178	0.153
-680.237	-148.303	0.226	0.019
-679.222	-117.514	-0.334	0.061
-678.208	272.600	0.051	0.091
-677.193	-54.059	0.018	0.008
-676.178	208.757	0.157	-0.250
-675.164	-151.650	-0.166	0.013
-674.149	800.000	-0.020	0.074
-673.135	-200.000	-0.049	-0.290
-672.120	108.275	0.273	-0.332
-671.105	800.000	-0.054	-0.200
-670.091	79.847	0.194	0.213
-669.076	376.513	0.118	0.246
-668.062	118.995	-0.125	0.158
-667.047	-15.646	0.108	-0.071
-666.032	44.448	-0.186	-0.174
-665.018	0.304	0.150	-0.109
-664.003	14.139	-0.245	-0.195
-662.989	98.002	-0.184	0.216
-661.974	800.000	-0.032	-0.122
-660.959	-90.319	0.025	-0.007
-659.945	-26.937	-0.308	-0.183
-658.930	45.644	-0.244	-0.230
-657.916	-27.565	0.206	0.122
-656.901	224.219	0.233	-0.384
-655.886	-200.000	0.024	0.201
-654.872	401.997	0.095	-0.202
-653.857	200.967	-0.076	-0.118
-652.843	595.022	0.029	0.073
-651.828	-62.936	-0.370	0.156
-650.814	90.348	-0.068	-0.078
-649.799	-200.000	0.022	0.204
-648.784	-7.204	-0.122	-0.084
-647.770	-61.840	0.135	-0.057
-646.755	-200.000	0.015	-0.066
-645.741	379.006	-0.106	-0.221
-644.726	-68.756	-0.246	0.097
-643.711	17.272	-0.158	0.127
-642.697	-82.800	-0.088	-0.029
-641.682	40.274	-0.106	-0.097
-640.668	-70.237	0.107	0.041
-639.653	237.220	-0.093	0.156
-638.638	23.062	0.172	-0.144
-637.624	223.175	-0.207	0.339
-636.609	-35.606	-0.212	0.117
-635.595	-200.000	0.015	-0.253
-634.580	-11.303	-0.163	-0.109
-633.565	78.175	-0.137	-0.149
-632.551	-104.687	0.176	0.041
-631.536	91.462	-0.198	0.227
-630.522	800.000	-0.053	-0.233
-629.507	-71.334	0.056	-0.021
-628.492	22.348	0.036	-0.030
-627.478	-106.521	0.077	-0.017
-626.463	61.462	-0.214	0.216
-625.449	-28.981	-0.124	0.073
-624.434	-178.038	0.309	0.007
-623.419	-53.976	0.036	-0.017
-622.405	231.026	0.054	0.090
-621.390	37.705	-0.305	-0.276
-620.376	52.987	0.096	0.093
-619.361	148.911	0.174	0.239
-618.346	194.467	0.064	-0.098
-617.332	-200.000	-0.003	-0.043
-616.317	-200.000	-0.023	-0.218
-615.303	-151.561	0.199	0.015
-614.288	-79.147	0.300	-0.103
-613.273	-146.800	-0.255	0.022
-612.259	-22.391	0.129	-0.079
-611.244	-200.000	-0.048	-0.287
-610.230	-131.349	0.066	-0.009
-609.215	-200.000	0.077	-0.347
-608.201	753.653	-0.060	-0.166
-607.186	-158.155	-0.304	-0.018
-606.171	-200.000	0.012	-0.314
-605.157	-200.000	0.008	-0.254
-604.142	-143.091	0.233	0.023
-603.128	-200.000	-0.019	-0.234
-602.113	502.428	0.011	-0.025
-601.098	-27.258	-0.322	0.191
-600.084	-82.580	-0.176	-0.058
-599.069	78.042	0.216	0.234
-598.055	453.644	-0.015	-0.034
-597.040	-157.000	-0.327	0.020
-596.025	625.795	-0.073	0.187
-595.011	-43.041	-0.173	-0.089
-593.996	-12.312	-0.064	-0.042
-592.982	492.610	-0.108	-0.252
-591.967	-53.342	0.261	-0.121
-590.952	-32.640	0.050	0.028
-589.938	-200.000	-0.001	0.283
-588.923	800.000	-0.051	-0.183
-587.909	-200.000	-0.012	-0.070
-586.894	180.059	0.085	0.126
-585.879	-166.786	0.033	0.001
-584.865	32.580	0.130	0.114
-583.850	-33.919	0.166	-0.093
-582.836	-200.000	0.033	0.302
-581.821	-92.370	0.143	0.041
-580.806	800.000	-0.053	-0.176
-579.792	-108.605	-0.352	0.077
-578.777	-200.000	0.032	-0.248
-577.763	-200.000	0.004	0.191
-576.748	3.678	0.174	0.129
-575.733	-171.882	-0.315	0.010
-574.719	-150.712	-0.230	0.018
-573.704	800.000	0.041	0.120
-572.690	43.214	-0.106	-0.098
-571.675	-162.352	0.457	-0.023
-570.661	114.616	-0.140	-0.173
-569.646	52.570	-0.174	-0.169
-568.631	187.465	0.100	0.152
-567.617	-49.321	0.215	0.104
-566.602	50.207	0.236	0.226
-565.588	136.377	0.075	0.100
-564.573	249.282	0.011	-0.019
-563.558	-77.872	0.157	-0.055
-562.544	184.987	-0.031	-0.046
-561.529	-194.364	-0.210	-0.002
-560.515	-17.633	-0.160	-0.102
-559.500	-200.000	-0.013	0.180
-558.485	418.147	-0.064	-0.138
-557.471	356.365	0.169	-0.342
-556.456	216.354	0.148	-0.239
-555.442	-84.465	0.169	-0.054
-554.427	-12.174	0.063	0.042
-553.412	129.509	0.181	-0.235
-552.398	621.959	0.038	0.096
-551.383	54.005	0.230	0.224
-550.369	-181.261	-0.081	-0.002
-549.354	-200.000	0.004	-0.163
-548.339	-200.000	-0.036	-0.481
-547.325	-65.964	-0.218	-0.088
-546.310	-33.456	0.092	0.052
-545.296	-91.023	0.226	0.066
-544.281	290.666	-0.126	-0.232
-543.266	175.806	0.082	-0.121
-542.252	-182.679	-0.144	-0.003
-541.237	-91.384	-0.210	-0.061
-540.223	133.345	-0.099	-0.129
-539.208	-200.000	0.029	-0.177
-538.193	-200.000	-0.013	-0.243
-537.179	800.000	-0.055	0.154
-536.164	36.871	0.166	0.148
-535.150	-62.506	-0.136	-0.057
-534.135	-149.602	-0.374	-0.030
-533.121	-56.519	-0.049	0.022
-532.106	6.683	-0.313	0.236
-531.091	-52.351	0.064	-0.030
-530.077	-200.000	-0.004	-0.044
-529.062	-200.000	0.071	-0.335
-528.048	800.000	-0.018	0.053
-527.033	303.124	-0.061	-0.114
-526.018	-96.619	0.246	0.066
-525.004	-104.484	-0.372	0.087
-523.989	-29.214	-0.074	0.043
-522.975	74.416	0.299	-0.318
-521.960	800.000	0.120	-0.348
-520.945	-200.000	0.040	0.200
-519.931	-200.000	0.006	-0.248
-518.916	130.307	0.047	-0.061
-517.902	161.942	0.072	-0.102
-516.887	117.267	0.116	0.144
-515.872	-11.787	0.121	0.080
-514.858	-117.211	0.365	0.067
-513.843	-27.177	0.054	-0.032
-512.829	-159.455	0.253	0.014
-511.814	-40.639	0.086	-0.045
-510.799	-50.803	-0.143	0.068
-509.785	-49.577	0.237	0.114
-508.770	-14.795	-0.073	0.048
-507.756	166.717	0.035	-0.051
-506.741	-34.676	0.223	0.124
-505.726	226.748	0.150	0.247
-504.712	-52.742	-0.132	0.061
-503.697	-200.000	0.023	0.435
-502.683	800.000	-0.056	0.176
-501.668	271.287	-0.086	0.153
-500.653	97.704	0.123	0.143
-499.639	221.911	-0.100	-0.163
-498.624	115.669	-0.090	0.112
-497.610	-2.946	-0.166	-0.117
-496.595	-49.759	-0.075	-0.036
-495.581	87.979	-0.141	-0.159
-494.566	107.550	-0.148	0.178
-493.551	-51.825	0.069	-0.033
-492.537	552.687	0.050	-0.121
-491.522	3.610	-0.062	-0.046
-490.508	-143.193	0.122	0.012
-489.493	-147.590	-0.172	-0.015
-488.478	21.260	0.217	-0.179
-487.464	170.677	0.124	0.179
-486.449	-52.078	-0.305	-0.143
-485.435	-72.587	-0.268	0.100
-484.420	-70.050	0.270	0.104
-483.405	-110.757	0.196	-0.041
-482.391	-162.561	-0.138	0.007
-481.376	-6.429	0.164	0.113
-480.362	94.339	0.246	0.283
-479.347	-200.000	0.019	-0.325
-478.332	23.076	0.203	-0.169
-477.318	-103.099	-0.106	0.025
-476.303	397.124	-0.090	-0.189
-475.289	101.126	0.096	-0.113
-474.274	82.507	-0.164	-0.180
-473.259	-200.000	0.011	0.221
-472.245	-18.769	0.297	-0.187
-471.230	-200.000	0.005	0.164
-470.216	437.145	-0.094	-0.207
-469.201	-200.000	-0.002	0.342
-468.186	681.001	0.063	0.166
-467.172	30.443	-0.043	0.037
-466.157	-200.000	-0.010	-0.237
-465.143	-55.669	0.146	-0.066
-464.128	800.000	-0.114	-0.392
-463.113	283.662	-0.117	-0.213
-462.099	-96.767	-0.054	-0.014
-461.084	-160.188	-0.160	0.009
-460.070	-72.921	-0.116	-0.043
-459.055	-200.000	-0.013	0.113
-458.040	-25.211	-0.145	0.087
-457.026	-200.000	0.002	0.019
-456.011	800.000	-0.150	0.476
-454.997	-200.000	0.023	-0.135
-453.982	376.788	-0.228	-0.470
-452.968	-200.000	0.028	0.188
-451.953	-93.628	-0.098	-0.027
-450.938	248.471	0.192	-0.329
-449.924	18.568	-0.120	-0.097
-448.909	-200.000	-0.002	-0.314
-447.895	346.046	-0.057	-0.112
-446.880	-144.847	-0.093	0.009
-445.865	-76.536	0.286	-0.101
-444.851	-200.000	-0.007	0.036
-443.836	28.873	0.213	0.183
-442.822	610.753	0.096	-0.241
-441.807	381.125	-0.038	-0.079
-440.792	-200.000	-0.057	-0.330
-439.778	186.074	-0.037	-0.055
-438.763	-34.381	-0.208	0.115
-437.749	159.906	0.096	0.135
-436.734	800.000	0.018	0.070
-435.719	-200.000	0.047	0.391
-434.705	44.092	-0.119	-0.110
-433.690	-136.099	-0.138	0.016
-432.676	53.353	0.202	-0.196
-431.661	800.000	0.069	0.203
-430.646	99.991	-0.103	0.120
-429.632	142.406	0.150	-0.201
-428.617	-75.923	0.202	-0.072
-427.603	9.195	0.125	0.096
-426.588	-200.000	0.009	-0.165
-425.573	-200.000	0.024	-0.170
-424.559	-78.735	-0.397	0.137
-423.544	31.302	0.147	0.127
-422.530	-81.602	0.256	-0.085
-421.515	-30.528	-0.088	-0.051
-420.500	-119.260	0.310	-0.055
-419.486	102.733	0.130	0.154
-418.471	-22.500	0.278	-0.170
-417.457	121.531	0.109	0.137
-416.442	-22.976	0.092	0.056
-415.428	-85.105	-0.125	0.040
-414.413	156.519	0.072	-0.101
-413.398	-153.762	-0.269	-0.019
-412.384	-151.901	0.171	-0.013
-411.369	58.175	-0.314	0.311
-410.355	482.948	0.050	-0.115
-409.340	800.000	0.032	-0.088
-408.325	-200.000	-0.005	-0.251
-407.311	232.983	-0.237	0.394
-406.296	388.447	0.114	-0.238
-405.282	-200.000	-0.014	0.139
-404.267	800.000	0.009	0.026
-403.252	-81.356	0.273	-0.091
-402.238	16.559	0.154	-0.123
-401.223	411.206	0.062	-0.132
-400.209	-25.030	-0.199	-0.119
-399.194	29.132	-0.220	-0.188
-398.179	44.307	-0.128	0.118
-397.165	-83.888	0.102	0.033
-396.150	-107.724	-0.181	0.040
-395.136	-200.000	-0.046	0.210
-394.121	-200.000	0.088	0.572
-393.106	71.849	-0.129	0.135
-392.092	-81.203	0.429	-0.143
-391.077	-31.128	0.385	0.219
-390.063	11.239	-0.150	-0.116
-389.048	-200.000	0.020	0.179
-388.033	210.551	0.169	0.267
-387.019	-142.821	-0.025	0.002
-386.004	-165.962	0.364	-0.016
-384.990	81.673	0.213	-0.232
-383.975	800.000	-0.102	-0.381
-382.960	278.612	-0.123	0.220
-381.946	-71.845	-0.097	-0.036
-380.931	-63.140	-0.527	0.219
-379.917	-41.977	-0.101	0.052
-378.902	-52.137	-0.119	-0.056
-377.888	-200.000	0.011	0.133
-376.873	48.445	-0.078	-0.074
-375.858	-66.679	-0.214	0.085
-374.844	-57.091	0.137	-0.061
-373.829	-200.000	-0.004	0.435
-372.815	81.917	-0.194	-0.212
-371.800	11.202	-0.118	-0.091
-370.785	-45.488	-0.130	0.065
-369.771	255.883	-0.069	-0.119
-368.756	198.700	-0.064	-0.098
-367.742	-97.398	0.328	0.086
-366.727	-111.151	-0.249	0.051
-365.712	800.000	0.067	-0.234
-364.698	-200.000	-0.026	-0.133
-363.683	5.358	0.288	-0.214
-362.669	-200.000	0.002	0.283
-361.654	-139.418	-0.212	-0.023
-360.639	-200.000	-0.053	-0.399
-359.625	61.019	0.167	0.167
-358.610	140.253	0.126	-0.167
-357.596	-95.039	-0.177	0.048
-356.581	140.194	-0.127	-0.169
-355.566	479.696	0.017	-0.039
-354.552	-133.889	-0.151	-0.019
-353.537	-108.510	-0.218	-0.047
-352.523	-36.181	-0.082	-0.044
-351.508	185.080	0.129	-0.193
-350.493	-82.741	-0.189	-0.061
-349.479	292.202	-0.025	0.046
-348.464	-200.000	0.012	0.092
-347.450	70.719	0.226	0.235
-346.435	66.186	-0.042	-0.043
-345.420	-111.049	0.433	-0.089
-344.406	305.570	-0.194	0.363
-343.391	-79.414	0.248	0.084
-342.377	65.781	0.203	-0.207
-341.362	56.694	-0.081	-0.079
-340.348	800.000	0.124	-0.371
-339.333	-107.438	0.109	-0.024
-338.318	215.334	-0.109	-0.175
-337.304	-15.481	-0.178	0.115
-336.289	-200.000	-0.007	0.217
-335.275	17.544	0.373	-0.298
-334.260	-40.031	0.159	-0.083
-333.245	-200.000	-0.198	-0.001
-332.231	-83.169	-0.218	-0.071
-331.216	-95.211	0.308	0.083
-330.202	310.335	-0.081	0.153
-329.187	-200.000	0.035	0.353
-328.172	-44.513	-0.188	0.095
-327.158	-75.188	-0.221	0.079
-326.143	6.064	0.146	0.108
-325.129	-176.046	0.547	0.015
-324.114	-200.000	-0.033	0.252
-323.099	800.000	0.048	0.206
-322.085	-14.005	0.216	-0.141
-321.070	186.701	-0.132	-0.197
-320.056	322.619	-0.074	0.142
-319.041	266.379	0.093	0.163
-318.026	503.799	-0.076	-0.177
-317.012	580.389	0.109	-0.269
-315.997	70.324	0.214	0.223
-314.983	-127.949	-0.459	0.066
-313.968	-13.883	0.084	0.054
-312.953	109.725	-0.241	0.290
-311.939	242.963	0.111	0.187
-310.924	720.907	0.004	-0.010
-309.910	-0.628	0.425	-0.303
-308.895	141.376	0.166	0.221
-307.880	-93.407	0.065	-0.018
-306.866	19.498	0.235	0.190
-305.851	278.724	-0.123	0.220
-304.837	-200.000	0.035	0.181
-303.822	164.045	-0.082	-0.116
-302.807	-135.033	0.237	-0.029
-301.793	-36.616	-0.539	-0.291
-300.778	-200.000	0.023	0.108
-299.764	-200.000	-0.233	0.001
-298.749	-94.862	-0.216	0.059
-297.735	511.445	-0.096	0.225
-296.720	246.649	0.048	-0.082
-295.705	16.754	0.124	0.098
-294.691	-196.946	0.273	0.002
-293.676	461.064	0.091	0.203
-292.662	666.970	-0.129	-0.336
-291.647	800.000	-0.070	0.252
-290.632	-200.000	0.037	0.250
-289.618	-97.548	0.058	-0.015
-288.603	415.512	-0.056	0.119
-287.589	-200.000	-0.004	-0.179
-286.574	349.194	0.087	-0.173
-285.559	-95.729	0.133	0.036
-284.545	-200.000	-0.002	-0.038
-283.530	-200.000	-0.018	-0.168
-282.516	-45.436	0.091	-0.046
-281.501	-200.000	-0.025	-0.375
-280.486	175.185	-0.087	-0.126
-279.472	158.386	-0.125	-0.174
-278.457	-200.000	-0.004	-0.271
-277.443	84.954	-0.134	-0.147
-276.428	-64.898	0.312	0.127
-275.413	-66.262	0.316	0.126
-274.399	800.000	0.016	-0.066
-273.384	800.000	0.013	0.044
-272.370	185.588	0.144	0.214
-271.355	-200.000	0.002	0.091
-270.340	397.670	-0.144	0.303
-269.326	-200.000	-0.111	-0.000
-268.311	-175.869	-0.182	-0.005
-267.297	-200.000	0.064	-0.319
-266.282	-189.242	0.126	0.001
-265.267	165.606	0.169	-0.240
-264.253	56.251	0.167	0.163
-263.238	299.584	0.077	0.142
-262.224	800.000	-0.062	0.270
-261.209	-118.190	-0.387	-0.069
-260.195	183.759	-0.051	0.076
-259.180	-94.025	-0.138	-0.038
-258.165	-10.914	-0.198	0.131
-257.151	800.000	0.128	-0.420
-256.136	43.446	-0.071	0.065
-255.122	10.710	-0.239	0.183
-254.107	255.455	0.067	-0.115
-253.092	-50.116	-0.170	0.081
-252.078	-200.000	-0.007	0.045
-251.063	238.016	-0.089	0.148
-250.049	800.000	-0.057	-0.173
-249.034	800.000	-0.063	0.221
-248.019	302.380	-0.105	-0.194
-247.005	-196.990	-0.374	0.002
-245.990	-126.203	0.254	-0.038
-244.976	-200.000	0.024	0.423
-243.961	-200.000	0.020	-0.196
-242.946	47.387	0.077	0.072
-241.932	508.314	-0.094	-0.220
-240.917	-147.854	0.192	-0.016
-239.903	-200.000	0.023	0.205
-238.888	800.000	-0.149	0.443
-237.873	-90.463	-0.129	-0.038
-236.859	247.608	-0.164	-0.278
-235.844	-200.000	-0.009	0.135
-234.830	-68.019	0.338	0.132
-233.815	65.501	0.043	-0.044
-232.800	68.413	0.165	-0.170
-231.786	64.153	-0.088	0.089
-230.771	-29.907	-0.275	0.157
-229.757	20.168	0.143	0.116
-228.742	-117.724	0.246	-0.044
-227.727	435.226	0.082	0.178
-226.713	233.145	-0.256	0.422
-225.698	278.724	-0.054	0.096
-224.684	-20.845	0.013	0.008
-223.669	800.000	0.035	-0.107
-222.655	212.548	0.061	0.097
-221.640	800.000	-0.076	-0.246
-220.625	800.000	0.076	-0.220
-219.611	-200.000	0.004	0.131
-218.596	533.713	-0.066	-0.158
-217.582	-155.330	-0.157	-0.010
-216.567	-100.414	-0.116	-0.029
-215.552	-200.000	0.088	0.478
-214.538	-150.951	0.289	0.022
-213.523	181.566	0.070	-0.103
-212.509	-200.000	0.029	-0.127
-211.494	-200.000	0.035	0.232
-210.479	151.387	-0.057	-0.078
-209.465	-62.556	0.336	0.140
-208.450	-33.691	0.158	0.087
-207.436	-50.388	0.228	-0.108
-206.421	800.000	0.099	-0.384
-205.406	-200.000	-0.024	0.110
-204.392	-131.726	-0.096	-0.013
-203.377	-134.329	0.127	0.016
-202.363	-114.445	-0.392	-0.075
-201.348	-140.085	0.165	0.017
-200.333	474.735	0.131	-0.295
-199.319	388.503	0.097	-0.200
-198.304	-200.000	-0.043	0.528
-197.290	196.680	-0.103	-0.157
-196.275	77.348	0.178	-0.189
-195.260	177.576	-0.155	0.227
-194.246	-118.544	-0.051	0.009
-193.231	-200.000	-0.007	-0.118
-192.217	-200.000	0.039	0.334
-191.202	164.152	0.056	-0.079
-190.187	57.270	-0.092	-0.090
-189.173	-200.000	-0.034	-0.327
-188.158	-200.000	0.008	0.139
-187.144	-200.000	-0.002	-0.188
-186.129	-100.927	0.180	0.044
-185.114	-83.714	-0.059	0.019
-184.100	445.430	-0.186	0.409
-183.085	146.270	0.049	-0.065
-182.071	219.575	-0.082	0.131
-181.056	355.364	0.118	0.235
-180.042	-200.000	0.104	0.001
-179.027	250.276	-0.200	0.340
-178.012	800.000	-0.142	-0.407
-176.998	-200.000	0.016	-0.219
-175.983	153.986	0.220	0.302
-174.969	20.883	-0.295	0.239
-173.954	97.075	0.123	-0.142
-172.939	-26.568	-0.100	-0.058
-171.925	95.274	0.140	0.159
-170.910	387.306	-0.150	0.310
-169.896	-200.000	0.005	-0.124
-168.881	-200.000	0.021	-0.185
-167.866	800.000	0.036	0.100
-166.852	289.110	-0.081	0.146
-165.837	-141.795	0.143	0.014
-164.823	23.017	-0.173	-0.142
-163.808	-5.213	0.083	0.057
-162.793	10.949	-0.163	0.124
-161.779	248.577	0.156	0.263
-160.764	639.455	0.159	0.405
-159.750	72.254	-0.128	0.133
-158.735	8.769	-0.270	0.203
-157.720	-56.962	0.194	0.086
-156.706	-3.794	-0.477	0.331
-155.691	117.952	-0.054	0.066
-154.677	-23.423	-0.129	-0.078
-153.662	-8.198	0.188	-0.127
-152.647	-200.000	-0.012	0.123
-151.633	-20.530	-0.396	-0.243
-150.618	127.202	0.055	0.070
-149.604	103.785	-0.131	0.154
-148.589	-200.000	-0.020	0.091
-147.574	672.468	0.117	0.304
-146.560	-95.678	-0.247	0.066
-145.545	455.513	0.086	0.190
-144.531	-106.255	0.121	0.027
-143.516	-200.000	-0.015	0.192
-142.502	18.921	-0.106	-0.085
-141.487	800.000	-0.062	-0.200
-140.472	-10.514	-0.156	0.103
-139.458	-51.041	0.071	-0.033
-138.443	-73.657	-0.044	0.016
-137.429	3.753	-0.088	0.064
-136.414	-145.188	0.182	-0.016
-135.399	202.305	0.070	0.108
-134.385	800.000	0.083	-0.315
-133.370	-78.470	-0.098	0.034
-132.356	41.306	0.093	-0.083
-131.341	-75.534	-0.033	-0.012
-130.326	-91.140	0.128	-0.037
-129.312	-81.649	-0.113	0.037
-128.297	-200.000	0.003	-0.040
-127.283	87.857	-0.262	0.290
-126.268	62.950	0.205	0.205
-125.253	12.750	0.131	0.101
-124.239	-72.075	0.166	-0.062
-123.224	355.053	-0.122	-0.243
-122.210	-125.540	-0.086	-0.013
-121.195	131.418	-0.291	-0.374
