DTS Sentinel unit serial number:	SN413079Multiplexer serial number:	ORYXHardware model number:	OX4-SRSoftware version number:	ORYX F/W v4.00 Oryx Data Collector v3.7.2.0data status	okinstallation	princeton_trtdifferential loss correction	single-endedforward channel	channel 3reverse channel	N/Adate	2019/09/13time	10:52:35forward acquisition time	60.00reverse acquisition time	0.00gamma	496.2192k internal	0.2319k external	0.2319temperature offset calibration	1.0145default loss term (dB/km)	0.3790temperature slope calibration	1.0000multiplexer offset coefficient	1.0000multiplexer slope coefficient	1.0000fibre end	0.00T internal ref (°C)	31.69T ext. ref 1 (°C)	4.61T ext. ref 2 (°C)	28.35length (m)	temperature (°C)	Stokes	anti-Stokes-747.200	161.502	-0.097	0.137
-746.185	-174.963	-0.228	-0.006
-745.171	-43.579	-0.178	-0.091
-744.156	-200.000	0.057	0.321
-743.142	800.000	0.073	0.221
-742.127	-46.058	0.154	-0.077
-741.112	-200.000	0.016	-0.105
-740.098	31.764	-0.202	0.176
-739.083	29.366	0.098	-0.084
-738.069	152.028	-0.339	0.468
-737.054	-4.689	-0.085	0.060
-736.039	-55.232	-0.134	-0.061
-735.025	-85.788	0.081	-0.025
-734.010	-200.000	-0.036	0.179
-732.996	86.092	0.117	0.130
-731.981	215.449	0.044	0.070
-730.966	-200.000	-0.071	-0.355
-729.952	584.074	-0.117	0.290
-728.937	105.373	-0.055	0.066
-727.923	212.508	0.101	-0.161
-726.908	-149.456	-0.163	0.013
-725.894	-200.000	0.003	0.103
-724.879	497.771	-0.051	0.119
-723.864	757.880	0.167	-0.457
-722.850	-35.070	-0.115	-0.063
-721.835	-200.000	0.003	-0.019
-720.821	-200.000	-0.195	0.000
-719.806	285.742	0.219	-0.399
-718.791	51.504	-0.201	-0.193
-717.777	261.423	-0.121	-0.212
-716.762	-136.398	-0.266	-0.031
-715.748	24.681	0.069	0.057
-714.733	-28.724	-0.288	0.167
-713.718	-200.000	0.009	0.175
-712.704	-177.106	0.210	-0.005
-711.689	337.216	0.072	0.141
-710.675	423.609	-0.079	-0.171
-709.660	-4.555	-0.224	0.156
-708.645	36.678	0.185	-0.165
-707.631	-200.000	0.030	-0.250
-706.616	-141.692	-0.097	-0.010
-705.602	800.000	0.053	-0.221
-704.587	-128.112	0.339	0.049
-703.572	-113.576	0.207	0.041
-702.558	38.941	0.109	0.098
-701.543	-49.380	-0.073	-0.035
-700.529	134.530	-0.200	0.262
-699.514	-122.396	0.217	0.036
-698.499	42.612	-0.146	-0.134
-697.485	53.437	0.284	-0.275
-696.470	125.772	0.066	0.084
-695.456	-4.973	-0.178	0.123
-694.441	208.508	-0.162	0.255
-693.426	-92.442	-0.323	-0.092
-692.412	-43.762	0.093	0.047
-691.397	603.730	0.084	-0.211
-690.383	-32.961	-0.191	-0.107
-689.368	747.288	-0.051	0.138
-688.354	-139.038	-0.108	-0.012
-687.339	88.007	-0.097	-0.109
-686.324	-11.770	-0.295	-0.195
-685.310	-143.676	-0.084	0.008
-684.295	-160.401	0.077	0.004
-683.281	-34.918	-0.143	-0.079
-682.266	-140.725	-0.156	-0.016
-681.251	154.780	0.249	-0.345
-680.237	118.604	0.014	-0.018
-679.222	-76.790	-0.172	0.061
-678.208	-132.531	-0.057	0.007
-677.193	-200.000	-0.008	0.065
-676.178	29.464	-0.089	0.076
-675.164	-200.000	0.011	0.093
-674.149	-12.468	-0.232	-0.153
-673.135	-51.305	0.184	0.087
-672.120	80.270	-0.167	-0.181
-671.105	-200.000	0.001	-0.631
-670.091	258.838	-0.204	-0.354
-669.076	-61.247	-0.237	0.101
-668.062	97.047	-0.128	0.148
-667.047	-43.209	-0.284	0.145
-666.032	478.415	-0.052	0.119
-665.018	-135.211	-0.297	-0.036
-664.003	95.281	-0.129	-0.148
-662.989	24.903	-0.229	-0.191
-661.974	-127.028	-0.119	0.018
-660.959	-200.000	0.060	-0.406
-659.945	36.519	0.141	-0.126
-658.930	-5.289	-0.330	0.228
-657.916	50.893	0.126	-0.121
-656.901	-200.000	-0.022	-0.264
-655.886	-200.000	0.049	0.219
-654.872	-87.410	-0.242	0.074
-653.857	-77.599	-0.101	0.035
-652.843	48.524	-0.261	-0.246
-651.828	-128.853	0.128	-0.018
-650.814	105.365	0.059	0.071
-649.799	-100.889	-0.172	-0.043
-648.784	-80.780	0.477	-0.160
-647.770	214.717	0.135	-0.216
-646.755	-200.000	-0.052	0.252
-645.741	-97.940	-0.191	0.050
-644.726	-52.689	-0.070	0.033
-643.711	113.374	0.137	0.168
-642.697	-141.013	0.207	-0.021
-641.682	-116.982	0.315	-0.058
-640.668	800.000	-0.137	0.422
-639.653	427.998	0.034	0.073
-638.638	800.000	0.033	0.113
-637.624	-12.072	0.107	0.071
-636.609	-108.656	0.322	-0.070
-635.595	245.830	0.164	-0.278
-634.580	-103.127	0.154	0.037
-633.565	800.000	-0.048	-0.212
-632.551	-89.087	0.050	0.015
-631.536	56.889	-0.072	0.071
-630.522	-200.000	-0.024	0.113
-629.507	-200.000	0.023	-0.122
-628.492	780.403	0.112	0.309
-627.478	800.000	0.081	-0.229
-626.463	800.000	-0.052	0.168
-625.449	-200.000	0.032	0.184
-624.434	-166.073	-0.296	-0.013
-623.419	244.267	-0.050	-0.085
-622.405	-200.000	-0.006	-0.033
-621.390	800.000	-0.129	0.374
-620.376	-108.497	0.179	-0.039
-619.361	-200.000	-0.056	-0.350
-618.346	-143.505	-0.263	-0.025
-617.332	-85.036	-0.105	-0.033
-616.317	-200.000	0.001	0.130
-615.303	800.000	0.055	0.156
-614.288	-143.387	-0.141	-0.014
-613.273	800.000	-0.075	-0.320
-612.259	77.861	0.144	-0.154
-611.244	-44.070	-0.165	0.083
-610.230	475.464	0.095	-0.217
-609.215	94.335	0.188	0.215
-608.201	27.968	0.009	0.008
-607.186	-24.294	-0.200	0.120
-606.171	434.066	0.057	0.124
-605.157	24.560	-0.036	0.030
-604.142	-49.355	-0.183	0.088
-603.128	-61.316	-0.191	-0.081
-602.113	800.000	0.032	-0.103
-601.098	141.193	-0.208	-0.276
-600.084	-7.216	-0.174	0.119
-599.069	-200.000	0.010	-0.243
-598.055	-125.070	-0.347	-0.054
-597.040	257.587	-0.270	0.467
-596.025	330.130	0.062	-0.120
-595.011	73.807	-0.269	0.284
-593.996	316.207	0.077	0.146
-592.982	-95.266	-0.354	-0.096
-591.967	140.498	0.114	0.151
-590.952	646.955	-0.036	-0.093
-589.938	-200.000	-0.039	0.383
-588.923	209.674	0.145	0.229
-587.909	-165.618	-0.447	-0.020
-586.894	-200.000	-0.030	-0.170
-585.879	-200.000	-0.008	0.044
-584.865	194.244	-0.080	0.122
-583.850	-88.728	0.283	-0.085
-582.836	-200.000	-0.017	0.138
-581.821	396.007	0.083	-0.175
-580.806	73.036	0.091	-0.096
-579.792	-67.817	-0.163	0.064
-578.777	20.378	0.112	0.091
-577.763	26.820	-0.290	-0.244
-576.748	800.000	-0.072	-0.253
-575.733	209.411	0.223	-0.352
-574.719	204.588	-0.230	-0.358
-573.704	-69.633	0.288	-0.111
-572.690	232.626	0.028	0.046
-571.675	-200.000	-0.010	0.091
-570.661	221.740	-0.019	0.031
-569.646	-200.000	-0.030	-0.268
-568.631	237.533	0.271	-0.452
-567.617	800.000	-0.037	0.104
-566.602	510.589	0.064	-0.150
-565.588	-200.000	-0.019	-0.155
-564.573	-94.119	-0.216	-0.059
-563.558	-200.000	-0.012	0.128
-562.544	130.203	-0.183	0.236
-561.529	18.703	0.101	0.081
-560.515	800.000	-0.075	-0.292
-559.500	567.419	0.051	-0.125
-558.485	123.885	-0.088	-0.111
-557.471	551.979	0.015	-0.037
-556.456	-149.230	-0.125	-0.010
-555.442	90.464	-0.171	-0.193
-554.427	66.719	0.051	0.052
-553.412	-200.000	0.014	0.065
-552.398	-57.944	0.033	0.014
-551.383	-65.902	0.031	-0.012
-550.369	-158.421	0.510	0.030
-549.354	-46.902	0.338	-0.166
-548.339	-200.000	0.010	-0.122
-547.325	800.000	-0.035	-0.136
-546.310	281.228	-0.096	-0.173
-545.296	3.199	0.085	0.062
-544.281	-5.115	0.181	0.125
-543.266	-200.000	0.015	-0.257
-542.252	515.169	0.141	0.330
-541.237	543.490	-0.116	-0.278
-540.223	515.230	-0.078	-0.182
-539.208	770.164	-0.026	0.071
-538.193	-92.766	-0.157	0.044
-537.179	-33.581	0.104	0.058
-536.164	61.273	0.050	-0.050
-535.150	48.113	-0.215	0.202
-534.135	53.705	0.117	-0.113
-533.121	-99.978	0.346	0.087
-532.106	-200.000	-0.037	-0.259
-531.091	16.419	0.033	0.026
-530.077	-200.000	-0.021	0.349
-529.062	-105.316	-0.214	-0.049
-528.048	-158.635	0.138	-0.008
-527.033	-200.000	-0.025	-0.178
-526.018	-68.377	0.171	0.067
-525.004	-3.014	0.207	-0.145
-523.989	-200.000	0.015	-0.068
-522.975	152.463	-0.295	0.404
-521.960	-1.235	0.217	-0.154
-520.945	800.000	0.016	-0.066
-519.931	-171.955	0.397	0.013
-518.916	-112.204	-0.302	0.061
-517.902	-109.287	-0.082	0.017
-516.887	-167.958	0.176	-0.007
-515.872	800.000	-0.021	0.065
-514.858	-7.280	0.132	-0.089
-513.843	70.076	0.136	-0.141
-512.829	478.054	-0.047	-0.106
-511.814	107.060	0.077	0.092
-510.799	64.239	0.360	-0.363
-509.785	312.507	-0.092	-0.173
-508.770	-52.737	-0.122	-0.056
-507.756	425.836	-0.149	0.322
-506.741	-200.000	0.043	0.335
-505.726	-200.000	0.005	0.051
-504.712	-59.678	-0.206	0.088
-503.697	-95.423	0.213	-0.057
-502.683	-52.649	0.113	0.052
-501.668	-200.000	0.014	0.427
-500.653	-116.369	-0.155	-0.029
-499.639	317.246	0.115	-0.218
-498.624	-88.943	-0.058	0.017
-497.610	800.000	-0.041	0.176
-496.595	175.690	-0.272	0.395
-495.581	121.070	-0.256	0.319
-494.566	-25.761	-0.221	-0.130
-493.551	-70.413	-0.576	-0.219
-492.537	-163.255	0.239	-0.011
-491.522	-18.904	0.113	-0.071
-490.508	800.000	-0.082	0.255
-489.493	15.307	0.124	0.098
-488.478	-200.000	-0.068	-0.368
-487.464	-200.000	-0.011	0.134
-486.449	-117.488	-0.324	0.059
-485.435	-200.000	-0.004	-0.304
-484.420	-178.532	-0.522	-0.012
-483.405	-163.549	0.242	0.011
-482.391	-6.029	0.100	-0.068
-481.376	-200.000	0.026	-0.265
-480.362	-21.518	0.009	0.006
-479.347	-77.624	0.243	0.084
-478.332	800.000	0.045	-0.165
-477.318	143.230	-0.119	0.158
-476.303	-200.000	-0.013	0.161
-475.289	11.026	-0.314	-0.241
-474.274	544.731	-0.048	0.116
-473.259	189.897	-0.127	0.191
-472.245	-16.392	0.065	-0.041
-471.230	800.000	-0.057	0.188
-470.216	279.370	0.050	0.090
-469.201	-98.648	0.469	0.120
-468.186	88.929	-0.130	0.144
-467.172	-153.654	0.240	-0.017
-466.157	-24.297	-0.404	-0.241
-465.143	31.327	0.019	-0.016
-464.128	-200.000	0.002	0.028
-463.113	-200.000	0.001	-0.142
-462.099	-69.125	-0.073	0.028
-461.084	-75.053	0.185	-0.066
-460.070	-131.884	-0.172	-0.022
-459.055	800.000	-0.039	0.135
-458.040	-155.242	-0.276	0.018
-457.026	-74.464	0.457	-0.165
-456.011	-43.648	-0.034	-0.017
-454.997	-200.000	-0.065	-0.311
-453.982	-167.577	0.608	0.024
-452.968	-21.907	0.040	0.025
-451.953	34.191	0.128	-0.112
-450.938	397.209	0.110	-0.231
-449.924	67.062	0.235	-0.240
-448.909	800.000	0.040	-0.164
-447.895	53.272	0.137	0.131
-446.880	9.239	0.364	0.275
-445.865	154.199	-0.066	-0.091
-444.851	115.046	0.252	0.308
-443.836	800.000	0.009	-0.029
-442.822	-200.000	0.031	-0.255
-441.807	267.421	0.164	-0.287
-440.792	90.784	0.219	-0.246
-439.778	-55.808	-0.227	-0.101
-438.763	9.132	0.119	0.090
-437.749	-200.000	0.008	-0.051
-436.734	396.878	0.083	-0.172
-435.719	535.843	0.116	0.275
-434.705	-140.224	0.264	0.028
-433.690	214.803	0.149	-0.236
-432.676	-96.946	-0.301	0.079
-431.661	-35.258	0.179	0.097
-430.646	-81.336	-0.150	0.049
-429.632	-110.146	0.147	-0.031
-428.617	800.000	0.080	0.342
-427.603	800.000	0.058	0.183
-426.588	-74.052	-0.289	0.105
-425.573	-64.276	-0.215	0.088
-424.559	100.419	0.074	-0.086
-423.544	-200.000	-0.238	-0.001
-422.530	73.733	0.090	0.094
-421.515	-55.385	-0.476	-0.214
-420.500	800.000	-0.034	0.110
-419.486	67.030	0.087	-0.088
-418.471	-132.423	-0.122	-0.016
-417.457	-1.589	0.158	-0.111
-416.442	116.476	-0.064	-0.078
-415.428	111.119	0.155	-0.187
-414.413	159.361	-0.205	0.285
-413.398	-109.199	0.084	-0.018
-412.384	-200.000	0.026	0.526
-411.369	-34.422	-0.297	-0.163
-410.355	76.214	0.061	0.064
-409.340	707.367	0.025	-0.067
-408.325	315.959	-0.115	0.216
-407.311	-33.653	0.246	-0.135
-406.296	-200.000	-0.011	-0.081
-405.282	-200.000	0.012	0.176
-404.267	732.546	0.112	-0.299
-403.252	-200.000	-0.078	-0.548
-402.238	127.268	0.142	-0.180
-401.223	120.350	0.172	-0.214
-400.209	-45.668	0.193	0.095
-399.194	-181.126	0.116	-0.002
-398.179	-89.643	-0.046	0.013
-397.165	491.598	-0.066	0.150
-396.150	-142.041	-0.263	0.026
-395.136	35.852	0.147	0.129
-394.121	15.146	-0.314	0.246
-393.106	169.314	-0.054	-0.077
-392.092	257.858	-0.181	0.311
-391.077	-179.573	-0.181	-0.004
-390.063	-69.965	-0.174	-0.066
-389.048	-200.000	0.012	-0.285
-388.033	800.000	0.088	0.256
-387.019	-80.707	0.141	-0.047
-386.004	-100.732	-0.057	0.014
-384.990	-112.656	0.093	0.018
-383.975	-34.874	-0.239	-0.130
-382.960	25.175	-0.177	0.146
-381.946	424.033	-0.042	0.089
-380.931	800.000	0.130	-0.384
-379.917	-77.795	-0.170	-0.059
-378.902	800.000	-0.063	0.208
-377.888	-135.549	0.183	-0.022
-376.873	-113.339	0.133	-0.026
-375.858	-200.000	0.012	-0.198
-374.844	95.340	0.175	0.199
-373.829	800.000	-0.059	0.167
-372.815	92.590	-0.116	-0.130
-371.800	-120.182	0.306	0.052
-370.785	-53.388	-0.300	0.137
-369.771	31.657	0.193	-0.165
-368.756	-80.019	-0.220	0.074
-367.742	800.000	-0.026	-0.085
-366.727	-187.779	-0.233	0.003
-365.712	-47.269	-0.148	0.072
-364.698	-151.169	0.096	-0.007
-363.683	226.248	-0.202	0.326
-362.669	-148.293	0.402	-0.033
-361.654	-44.552	0.184	0.092
-360.639	52.361	-0.165	0.157
-359.625	-62.276	0.053	-0.022
-358.610	-79.786	-0.151	-0.051
-357.596	800.000	0.079	-0.254
-356.581	-200.000	0.061	-0.521
-355.566	-49.797	0.151	-0.072
-354.552	800.000	-0.060	0.189
-353.537	-106.580	-0.155	0.034
-352.523	65.482	0.201	0.202
-351.508	-54.813	-0.122	-0.055
-350.493	-49.933	0.179	0.085
-349.479	-200.000	0.011	0.374
-348.464	-43.226	0.343	0.173
-347.450	103.581	0.162	0.190
-346.435	800.000	-0.022	0.073
-345.420	91.934	0.069	-0.077
-344.406	-106.638	0.311	0.069
-343.391	-10.276	-0.330	0.218
-342.377	34.294	-0.257	-0.223
-341.362	255.603	-0.157	-0.268
-340.348	-200.000	-0.001	-0.154
-339.333	-200.000	0.020	0.279
-338.318	260.616	-0.148	0.254
-337.304	-37.756	0.207	-0.110
-336.289	45.390	0.186	-0.170
-335.275	238.818	0.145	0.240
-334.260	800.000	0.059	-0.226
-333.245	-200.000	0.020	-0.317
-332.231	-71.756	-0.147	-0.055
-331.216	441.587	-0.055	0.121
-330.202	406.336	-0.128	0.269
-329.187	800.000	-0.048	0.134
-328.172	-77.201	-0.292	-0.101
-327.158	22.976	0.035	0.029
-326.143	-82.895	-0.035	0.011
-325.129	-164.637	0.246	-0.011
-324.114	-3.814	-0.270	0.186
-323.099	-41.929	0.237	-0.121
-322.085	133.932	0.158	-0.204
-321.070	-200.000	0.025	-0.266
-320.056	-200.000	-0.003	0.147
-319.041	-92.299	-0.399	0.112
-318.026	672.529	0.043	0.110
-317.012	-57.534	0.202	0.088
-315.997	210.070	-0.122	-0.191
-314.983	427.898	-0.096	-0.207
-313.968	500.553	-0.024	0.055
-312.953	384.678	0.076	0.156
-311.939	-166.740	0.124	-0.005
-310.924	14.065	-0.226	0.175
-309.910	220.599	0.147	0.234
-308.895	50.200	0.081	-0.076
-307.880	146.941	-0.243	-0.325
-306.866	115.964	-0.086	0.105
-305.851	60.360	-0.098	-0.097
-304.837	422.478	-0.018	0.039
-303.822	242.410	-0.091	0.151
-302.807	-108.736	-0.098	0.021
-301.793	69.830	-0.056	0.057
-300.778	-69.793	0.263	0.100
-299.764	349.984	-0.036	0.070
-298.749	-23.655	0.240	0.143
-297.735	137.152	-0.161	0.210
-296.720	-172.789	0.223	-0.007
-295.705	800.000	-0.086	0.258
-294.691	11.786	-0.083	0.064
-293.676	47.285	-0.179	0.166
-292.662	-78.348	-0.103	-0.035
-291.647	-12.934	0.284	-0.184
-290.632	188.179	-0.114	0.170
-289.618	110.210	0.045	0.053
-288.603	39.404	0.032	0.028
-287.589	-14.599	0.133	0.085
-286.574	-200.000	-0.045	-0.353
-285.559	-29.040	-0.120	0.069
-284.545	-111.055	-0.110	-0.023
-283.530	340.315	0.040	0.078
-282.516	-200.000	0.009	0.041
-281.501	152.470	0.176	-0.238
-280.486	-200.000	0.001	0.099
-279.472	-200.000	-0.046	-0.216
-278.457	-42.138	-0.131	-0.066
-277.443	-50.120	0.128	0.060
-276.428	-65.754	0.413	-0.164
-275.413	153.438	-0.099	0.135
-274.399	158.648	-0.113	0.155
-273.384	-103.245	-0.082	0.019
-272.370	579.253	0.080	-0.195
-271.355	49.712	0.158	0.148
-270.340	-131.287	-0.116	-0.015
-269.326	-200.000	0.027	0.136
-268.311	-44.993	0.069	-0.034
-267.297	22.709	0.347	-0.282
-266.282	-41.597	0.070	-0.036
-265.267	69.705	0.079	0.081
-264.253	400.874	-0.071	-0.148
-263.238	-110.145	-0.293	0.061
-262.224	393.724	0.075	0.154
-261.209	800.000	0.057	-0.217
-260.195	800.000	0.125	-0.477
-259.180	-200.000	0.039	0.202
-258.165	-200.000	0.015	0.166
-257.151	17.785	0.198	0.156
-256.136	-114.235	-0.208	0.040
-255.122	800.000	-0.043	0.177
-254.107	-111.852	0.624	0.125
-253.092	-167.789	-0.131	-0.005
-252.078	-54.912	-0.124	-0.056
-251.063	-27.702	-0.132	-0.076
-250.049	-104.078	-0.169	-0.039
-249.034	-47.255	-0.393	-0.190
-248.019	88.444	-0.093	-0.103
-247.005	72.641	-0.116	0.120
-245.990	-200.000	0.035	-0.174
-244.976	109.914	0.112	-0.133
-243.961	309.373	-0.060	0.110
-242.946	73.764	0.206	0.214
-241.932	69.447	0.108	0.111
-240.917	-200.000	0.028	-0.187
-239.903	386.655	-0.231	-0.473
-238.888	800.000	-0.104	-0.412
-237.873	408.416	0.097	-0.203
-236.859	800.000	0.083	0.302
-235.844	-100.365	0.088	-0.022
-234.830	-93.498	0.229	-0.063
-233.815	-200.000	0.049	0.226
-232.800	-134.618	0.324	-0.039
-231.786	-200.000	-0.031	-0.295
-230.771	242.833	-0.147	-0.244
-229.757	142.024	0.257	-0.337
-228.742	-36.183	0.259	0.139
-227.727	43.967	-0.346	0.314
-226.713	-20.579	0.164	0.100
-225.698	17.246	-0.323	0.254
-224.684	-200.000	0.045	0.285
-223.669	-200.000	0.001	0.132
-222.655	-76.140	0.132	0.046
-221.640	-80.038	0.286	-0.095
-220.625	413.505	0.057	-0.119
-219.611	-18.847	-0.043	-0.027
-218.596	32.393	-0.114	-0.097
-217.582	-18.627	0.206	-0.127
-216.567	800.000	0.035	-0.108
-215.552	105.624	-0.178	0.209
-214.538	-0.555	-0.153	0.108
-213.523	-114.450	-0.199	0.038
-212.509	-78.880	0.169	-0.057
-211.494	31.763	-0.204	0.174
-210.479	-200.000	-0.035	-0.290
-209.465	-180.932	0.184	-0.004
-208.450	-50.253	-0.108	-0.051
-207.436	800.000	-0.078	0.281
-206.421	70.423	-0.207	0.212
-205.406	-53.354	-0.419	-0.190
-204.392	368.304	-0.091	0.183
-203.377	-42.217	0.021	0.011
-202.363	-105.665	-0.069	-0.015
-201.348	178.677	-0.183	0.265
-200.333	280.081	0.087	0.155
-199.319	-200.000	-0.033	-0.226
-198.304	332.709	-0.095	0.181
-197.290	-18.434	-0.076	0.047
-196.275	-200.000	0.023	0.120
-195.260	40.904	0.070	0.063
-194.246	132.147	0.055	0.070
-193.231	557.117	-0.061	-0.147
-192.217	800.000	0.076	0.230
-191.202	-16.241	0.230	-0.144
-190.187	24.208	-0.058	0.048
-189.173	-200.000	0.011	0.169
-188.158	5.760	-0.440	-0.322
-187.144	-118.606	0.272	0.048
-186.129	-149.345	-0.415	0.033
-185.114	626.353	0.045	0.114
-184.100	-148.348	0.201	0.016
-183.085	-200.000	0.089	-0.386
-182.071	10.238	0.221	-0.166
-181.056	-200.000	0.019	0.275
-180.042	-40.524	0.373	-0.192
-179.027	-42.594	-0.191	0.096
-178.012	-47.176	-0.206	-0.100
-176.998	-102.846	0.325	-0.076
-175.983	-200.000	0.026	-0.328
-174.969	-194.365	-0.219	-0.002
-173.954	359.596	0.082	0.161
-172.939	-30.288	-0.220	-0.123
-171.925	630.198	-0.136	0.341
-170.910	230.161	-0.175	-0.284
-169.896	38.189	0.305	0.268
-168.881	-34.952	-0.263	0.142
-167.866	-115.493	0.272	-0.051
-166.852	-32.928	0.183	-0.101
-165.837	-200.000	0.029	-0.137
-164.823	-127.955	-0.101	0.014
-163.808	789.227	0.116	0.316
-162.793	800.000	0.059	-0.197
-161.779	189.684	-0.044	0.065
-160.764	-145.177	-0.246	-0.022
-159.750	320.813	0.042	0.080
-158.735	-25.758	0.353	-0.206
-157.720	88.487	0.120	0.131
-156.706	56.079	-0.155	0.149
-155.691	240.153	-0.022	-0.036
-154.677	-38.331	-0.231	0.121
-153.662	-87.839	-0.247	-0.074
-152.647	-88.110	-0.171	0.051
-151.633	800.000	-0.057	0.169
-150.618	393.078	0.108	-0.223
-149.604	-120.240	0.236	0.040
-148.589	-200.000	-0.017	-0.364
-147.574	-200.000	0.033	0.231
-146.560	24.285	0.058	0.047
-145.545	578.930	0.202	-0.489
-144.531	-162.530	0.147	0.007
-143.516	-121.888	0.052	0.009
-142.502	-7.330	0.230	0.154
-141.487	-200.000	0.041	0.199
-140.472	20.609	-0.219	-0.175
-139.458	-200.000	-0.059	-0.381
-138.443	-200.000	0.007	-0.117
-137.429	376.451	-0.040	0.081
-136.414	-38.720	-0.063	-0.033
-135.399	-200.000	0.025	-0.130
-134.385	148.300	0.199	0.265
-133.370	393.775	0.051	-0.104
-132.356	800.000	0.031	-0.131
-131.341	13.338	0.174	-0.134
-130.326	58.645	0.200	0.194
-129.312	-200.000	0.007	0.057
-128.297	-77.073	0.133	0.046
-127.283	5.658	0.185	-0.135
-126.268	800.000	-0.081	-0.276
-125.253	-200.000	-0.031	-0.213
-124.239	147.229	-0.263	-0.349
-123.224	800.000	0.054	0.171
-122.210	-110.231	0.281	0.058
-121.195	-200.000	-0.040	0.261
