DTS Sentinel unit serial number:	SN413079Multiplexer serial number:	ORYXHardware model number:	OX4-SRSoftware version number:	ORYX F/W v4.00 Oryx Data Collector v3.7.2.0data status	okinstallation	princeton_trtdifferential loss correction	single-endedforward channel	channel 3reverse channel	N/Adate	2019/09/12time	13:38:10forward acquisition time	60.00reverse acquisition time	0.00gamma	496.2192k internal	0.2292k external	0.2292temperature offset calibration	1.0045default loss term (dB/km)	0.3790temperature slope calibration	1.0000multiplexer offset coefficient	1.0000multiplexer slope coefficient	1.0000fibre end	0.00T internal ref (°C)	41.06T ext. ref 1 (°C)	2.15T ext. ref 2 (°C)	35.68length (m)	temperature (°C)	Stokes	anti-Stokes-747.200	205.362	0.082	0.131
-746.185	24.711	0.195	0.165
-745.171	-94.390	0.510	-0.143
-744.156	72.033	-0.140	0.149
-743.142	-200.000	-0.055	-0.351
-742.127	-176.631	-0.241	0.006
-741.112	-200.000	0.004	-0.033
-740.098	94.744	0.193	0.224
-739.083	-63.196	-0.153	0.064
-738.069	-13.411	-0.155	0.103
-737.054	-45.659	0.128	-0.065
-736.039	-4.103	0.176	-0.124
-735.025	63.094	0.221	-0.227
-734.010	693.698	0.035	0.093
-732.996	167.981	-0.049	0.071
-731.981	-135.846	0.559	0.068
-730.966	-200.000	-0.026	-0.184
-729.952	-46.175	-0.169	0.085
-728.937	103.772	-0.204	0.245
-727.923	11.934	-0.223	0.175
-726.908	123.329	0.154	-0.198
-725.894	186.249	-0.041	-0.062
-724.879	250.407	-0.135	0.235
-723.864	800.000	0.036	0.104
-722.850	800.000	-0.063	-0.242
-721.835	800.000	-0.046	-0.163
-720.821	-64.801	0.554	-0.229
-719.806	-140.928	0.094	0.010
-718.791	-60.713	-0.185	0.080
-717.777	-88.343	-0.161	-0.049
-716.762	-98.328	-0.220	0.058
-715.748	-38.951	-0.132	-0.071
-714.733	-200.000	-0.004	0.053
-713.718	800.000	0.143	0.429
-712.704	-141.870	0.263	-0.027
-711.689	583.298	-0.065	0.162
-710.675	213.589	-0.124	-0.200
-709.660	-49.890	-0.134	0.065
-708.645	800.000	-0.092	0.348
-707.631	-200.000	-0.009	0.141
-706.616	63.379	-0.176	0.180
-705.602	-68.121	0.159	-0.063
-704.587	-119.215	0.240	-0.043
-703.572	-119.634	0.367	0.065
-702.558	279.225	0.099	-0.181
-701.543	-150.352	0.186	0.015
-700.529	627.603	0.051	0.131
-699.514	380.778	0.051	0.107
-698.499	800.000	-0.087	0.279
-697.485	800.000	0.051	0.204
-696.470	121.642	0.123	-0.156
-695.456	91.090	0.166	-0.190
-694.441	781.869	-0.125	0.350
-693.426	114.284	0.114	-0.142
-692.412	-200.000	0.002	-0.074
-691.397	39.005	-0.147	-0.134
-690.383	363.748	0.039	-0.079
-689.368	-48.820	-0.138	-0.068
-688.354	800.000	-0.086	0.352
-687.339	254.996	-0.112	-0.196
-686.324	-26.388	0.226	-0.135
-685.310	-56.933	-0.101	0.045
-684.295	-84.980	0.305	-0.098
-683.281	47.801	0.312	0.298
-682.266	93.678	-0.166	-0.192
-681.251	-200.000	-0.036	0.233
-680.237	39.023	-0.055	-0.050
-679.222	800.000	-0.079	0.279
-678.208	-200.000	0.002	0.080
-677.193	29.645	0.224	0.194
-676.178	-200.000	-0.017	-0.112
-675.164	-151.590	0.312	0.024
-674.149	451.202	-0.055	-0.124
-673.135	-133.853	0.337	-0.043
-672.120	-200.000	-0.005	0.081
-671.105	-200.000	-0.018	0.231
-670.091	540.897	-0.129	-0.315
-669.076	88.861	-0.265	-0.301
-668.062	-81.973	-0.350	-0.117
-667.047	-159.451	-0.169	0.010
-666.032	-80.207	0.181	-0.062
-665.018	800.000	-0.030	-0.121
-664.003	-27.717	0.165	-0.098
-662.989	-200.000	0.058	-0.337
-661.974	800.000	-0.034	-0.116
-660.959	304.687	0.053	0.100
-659.945	-84.197	-0.176	-0.057
-658.930	181.271	-0.148	-0.222
-657.916	-200.000	0.004	-0.114
-656.901	-200.000	0.055	-0.320
-655.886	-119.200	-0.209	0.037
-654.872	18.556	0.128	0.104
-653.857	800.000	0.119	0.450
-652.843	195.147	-0.123	-0.190
-651.828	-200.000	-0.028	-0.153
-650.814	96.106	0.130	0.151
-649.799	-200.000	-0.062	0.337
-648.784	-116.285	-0.222	0.042
-647.770	176.901	-0.131	-0.194
-646.755	-59.453	0.112	-0.049
-645.741	-155.784	0.256	0.017
-644.726	-95.502	0.194	0.053
-643.711	800.000	0.062	-0.259
-642.697	-103.984	0.156	-0.037
-641.682	-200.000	-0.005	-0.066
-640.668	-200.000	0.032	0.268
-639.653	800.000	-0.099	-0.316
-638.638	-116.626	-0.345	0.065
-637.624	222.266	0.121	0.198
-636.609	59.284	-0.286	0.287
-635.595	-200.000	-0.003	0.066
-634.580	-200.000	-0.061	-0.276
-633.565	-58.019	-0.021	0.009
-632.551	222.389	-0.085	-0.140
-631.536	-8.539	0.242	-0.166
-630.522	-9.501	-0.137	0.093
-629.507	800.000	0.086	0.291
-628.492	-103.824	-0.392	-0.093
-627.478	-0.791	0.390	-0.282
-626.463	-124.836	0.160	0.025
-625.449	2.204	-0.240	-0.177
-624.434	624.371	0.171	-0.440
-623.419	-180.513	0.264	-0.006
-622.405	103.052	0.122	0.145
-621.390	-200.000	0.002	0.017
-620.376	320.285	0.027	0.052
-619.361	-70.904	0.188	-0.072
-618.346	16.208	-0.232	0.186
-617.332	-102.108	-0.303	-0.074
-616.317	-123.740	-0.127	-0.021
-615.303	800.000	-0.026	0.088
-614.288	800.000	0.071	-0.217
-613.273	-35.724	0.151	0.083
-612.259	-126.809	0.278	-0.042
-611.244	177.626	0.055	0.082
-610.230	-119.032	-0.072	0.013
-609.215	800.000	-0.069	0.204
-608.201	109.871	-0.046	-0.057
-607.186	800.000	0.063	-0.199
-606.171	-93.432	-0.123	-0.035
-605.157	-14.809	-0.161	0.105
-604.142	164.831	0.048	-0.069
-603.128	482.966	-0.017	0.038
-602.113	-28.608	-0.085	-0.050
-601.098	-200.000	-0.040	0.317
-600.084	-200.000	-0.059	0.397
-599.069	-200.000	0.022	0.205
-598.055	800.000	0.112	-0.397
-597.040	-105.609	0.438	0.101
-596.025	154.634	0.158	0.221
-595.011	44.085	-0.220	0.205
-593.996	365.090	-0.090	-0.185
-592.982	643.183	-0.114	0.295
-591.967	380.864	-0.096	-0.201
-590.952	-22.084	0.076	0.047
-589.938	194.683	-0.196	-0.302
-588.923	184.343	-0.150	-0.226
-587.909	93.153	0.254	-0.292
-586.894	110.675	0.078	-0.095
-585.879	-117.155	-0.334	0.062
-584.865	800.000	-0.084	-0.361
-583.850	49.188	0.143	-0.137
-582.836	-62.472	0.178	0.075
-581.821	-19.941	0.161	0.101
-580.806	228.198	-0.210	-0.348
-579.792	-167.997	-0.096	0.004
-578.777	135.025	-0.173	-0.229
-577.763	-200.000	0.022	0.125
-576.748	-62.285	0.104	0.044
-575.733	797.064	-0.018	-0.051
-574.719	-88.452	-0.215	-0.065
-573.704	106.831	-0.026	0.032
-572.690	156.718	-0.193	0.271
-571.675	48.881	0.193	-0.184
-570.661	-200.000	0.004	0.550
-569.646	-200.000	0.014	-0.153
-568.631	-119.353	0.147	0.026
-567.617	-200.000	-0.001	0.117
-566.602	-106.627	-0.205	-0.046
-565.588	-200.000	0.013	-0.182
-564.573	800.000	-0.046	0.135
-563.558	407.231	0.151	-0.325
-562.544	108.405	-0.108	-0.131
-561.529	-200.000	0.042	-0.230
-560.515	63.523	-0.111	-0.113
-559.500	101.704	0.080	-0.094
-558.485	11.124	0.222	0.173
-557.471	-200.000	0.021	-0.175
-556.456	-57.394	0.075	0.034
-555.442	-93.815	0.196	-0.055
-554.427	614.881	-0.048	-0.121
-553.412	-15.767	-0.174	-0.113
-552.398	-50.789	-0.164	0.078
-551.383	195.643	-0.106	-0.164
-550.369	800.000	-0.039	0.141
-549.354	-200.000	-0.032	0.193
-548.339	-200.000	-0.034	0.196
-547.325	60.463	-0.039	0.039
-546.310	327.895	-0.131	-0.255
-545.296	-156.402	-0.431	-0.027
-544.281	-63.761	-0.059	0.025
-543.266	-200.000	0.002	-0.029
-542.252	644.588	0.036	0.093
-541.237	-53.053	-0.301	-0.141
-540.223	-200.000	0.034	0.211
-539.208	64.802	-0.150	-0.154
-538.193	8.252	-0.152	0.116
-537.179	-29.285	0.168	-0.098
-536.164	157.470	-0.071	-0.099
-535.150	-81.118	-0.097	-0.033
-534.135	-18.584	-0.126	-0.080
-533.121	72.158	-0.274	0.290
-532.106	-200.000	0.073	0.416
-531.091	-200.000	0.044	-0.214
-530.077	655.360	-0.114	-0.297
-529.062	-67.768	-0.209	-0.083
-528.048	-52.391	0.146	0.068
-527.033	-67.884	0.160	0.063
-526.018	-85.490	0.042	0.013
-525.004	-5.317	0.262	0.183
-523.989	-71.319	-0.239	-0.091
-522.975	-200.000	0.011	0.121
-521.960	-4.592	0.229	-0.161
-520.945	-175.779	0.160	-0.004
-519.931	8.975	0.148	0.113
-518.916	-92.355	0.323	0.092
-517.902	57.988	0.152	-0.151
-516.887	-90.322	-0.094	0.028
-515.872	393.451	0.073	-0.154
-514.858	-162.372	0.495	-0.025
-513.843	349.436	-0.100	-0.200
-512.829	800.000	-0.039	0.111
-511.814	173.535	-0.096	0.140
-510.799	800.000	-0.043	0.138
-509.785	188.510	0.149	-0.226
-508.770	8.196	0.343	0.261
-507.756	-105.125	-0.161	0.037
-506.741	-200.000	0.040	0.187
-505.726	-113.710	-0.214	0.042
-504.712	103.116	0.325	0.386
-503.697	75.048	-0.155	-0.166
-502.683	800.000	-0.041	-0.181
-501.668	800.000	0.065	-0.251
-500.653	391.809	-0.068	-0.143
-499.639	388.260	0.091	0.190
-498.624	800.000	0.082	-0.321
-497.610	-20.352	0.312	0.195
-496.595	-200.000	0.013	0.159
-495.581	124.221	-0.217	-0.277
-494.566	-200.000	-0.033	-0.237
-493.551	427.894	-0.170	-0.372
-492.537	59.466	-0.237	0.237
-491.522	423.898	-0.019	0.042
-490.508	51.622	0.230	-0.222
-489.493	136.646	0.156	-0.207
-488.478	81.661	-0.080	-0.088
-487.464	69.201	-0.225	-0.234
-486.449	112.317	0.110	-0.135
-485.435	-200.000	0.024	-0.381
-484.420	284.153	-0.108	0.196
-483.405	104.236	0.069	0.082
-482.391	-197.226	0.200	0.001
-481.376	94.364	-0.181	-0.208
-480.362	84.009	0.201	0.222
-479.347	-144.395	0.225	0.021
-478.332	81.564	0.292	-0.320
-477.318	562.313	0.029	-0.072
-476.303	-80.141	-0.204	0.069
-475.289	77.434	0.288	0.311
-474.274	-200.000	-0.015	-0.234
-473.259	-64.071	-0.294	-0.121
-472.245	235.122	-0.097	-0.162
-471.230	-200.000	0.006	-0.295
-470.216	-114.681	0.077	0.015
-469.201	656.788	0.022	-0.058
-468.186	-200.000	0.004	0.091
-467.172	-169.052	0.147	-0.006
-466.157	-200.000	0.028	-0.297
-465.143	-89.838	-0.060	-0.018
-464.128	-109.975	0.256	0.054
-463.113	-102.612	0.351	0.085
-462.099	-119.367	0.133	0.023
-461.084	-200.000	-0.027	-0.163
-460.070	-87.746	-0.178	0.054
-459.055	33.276	-0.210	-0.184
-458.040	-200.000	0.006	-0.279
-457.026	-200.000	0.037	0.235
-456.011	100.541	-0.084	0.099
-454.997	139.890	0.227	-0.303
-453.982	-72.690	0.267	0.099
-452.968	-200.000	0.017	0.157
-451.953	-200.000	0.034	-0.213
-450.938	-69.254	-0.211	-0.082
-449.924	43.434	0.141	-0.130
-448.909	439.190	0.066	-0.146
-447.895	-122.107	-0.116	-0.019
-446.880	-38.403	-0.040	0.022
-445.865	-110.015	0.159	-0.034
-444.851	-62.459	0.428	0.180
-443.836	66.236	-0.062	0.064
-442.822	-153.745	-0.304	0.021
-441.807	21.956	0.290	0.240
-440.792	-44.284	0.208	0.106
-439.778	151.137	-0.032	-0.045
-438.763	31.919	0.075	-0.065
-437.749	800.000	-0.078	-0.265
-436.734	58.866	-0.132	-0.131
-435.719	69.213	0.209	-0.217
-434.705	-200.000	0.022	0.247
-433.690	671.034	0.014	0.036
-432.676	-64.827	-0.247	-0.101
-431.661	-6.547	0.175	0.120
-430.646	-200.000	-0.009	-0.144
-429.632	800.000	-0.074	0.279
-428.617	-50.601	-0.157	0.075
-427.603	800.000	-0.046	0.159
-426.588	648.632	-0.031	0.079
-425.573	-88.273	-0.188	0.057
-424.559	800.000	0.073	0.274
-423.544	800.000	-0.049	0.142
-422.530	103.703	0.213	-0.252
-421.515	320.477	0.142	0.273
-420.500	470.699	-0.081	-0.184
-419.486	8.754	-0.116	-0.088
-418.471	-200.000	0.008	0.294
-417.457	-94.509	-0.097	-0.027
-416.442	-200.000	-0.009	0.217
-415.428	-125.048	0.149	0.023
-414.413	-200.000	0.024	0.242
-413.398	-200.000	-0.009	0.210
-412.384	-167.317	0.122	-0.005
-411.369	-74.353	0.357	-0.130
-410.355	218.224	0.088	-0.141
-409.340	171.654	-0.049	0.070
-408.325	244.194	-0.093	0.158
-407.311	800.000	0.032	-0.113
-406.296	71.899	-0.076	-0.079
-405.282	737.733	-0.065	-0.177
-404.267	-136.987	0.351	-0.041
-403.252	-95.160	0.126	-0.034
-402.238	-46.792	-0.366	-0.181
-401.223	800.000	0.111	0.314
-400.209	800.000	-0.034	-0.105
-399.194	-109.966	-0.344	0.073
-398.179	-11.444	0.284	-0.189
-397.165	-102.364	-0.218	0.053
-396.150	1.102	0.250	-0.181
-395.136	-15.553	-0.053	-0.034
-394.121	-112.025	-0.105	-0.021
-393.106	800.000	-0.121	0.355
-392.092	-21.032	-0.106	0.065
-391.077	166.432	0.197	0.281
-390.063	1.777	0.306	-0.222
-389.048	-126.411	0.286	-0.043
-388.033	114.474	-0.203	0.249
-387.019	800.000	-0.119	0.395
-386.004	333.750	0.078	0.153
-384.990	800.000	-0.057	0.193
-383.975	311.378	0.117	-0.221
-382.960	-95.178	-0.283	0.077
-381.946	216.088	-0.070	0.112
-380.931	32.718	-0.159	0.139
-379.917	66.917	-0.052	0.054
-378.902	69.512	-0.195	0.203
-377.888	-173.908	0.042	-0.001
-376.873	99.533	0.102	0.119
-375.858	-35.331	0.171	0.094
-374.844	240.657	0.055	0.093
-373.829	109.286	-0.104	0.126
-372.815	-200.000	0.020	-0.239
-371.800	141.294	-0.333	-0.445
-370.785	-42.600	0.074	0.038
-369.771	-56.670	-0.172	0.077
-368.756	-108.673	-0.191	0.041
-367.742	119.430	-0.172	-0.214
-366.727	-200.000	-0.038	-0.185
-365.712	113.137	0.105	-0.129
-364.698	133.796	-0.104	0.136
-363.683	-42.191	-0.073	-0.038
-362.669	18.708	-0.289	-0.233
-361.654	800.000	-0.027	0.104
-360.639	800.000	-0.064	0.199
-359.625	-80.300	0.135	-0.045
-358.610	-200.000	-0.033	-0.332
-357.596	21.939	0.178	-0.146
-356.581	-172.176	-0.116	-0.004
-355.566	-74.939	-0.070	-0.025
-354.552	-200.000	0.028	0.283
-353.537	-169.160	-0.272	-0.010
-352.523	800.000	0.021	-0.093
-351.508	-200.000	-0.029	-0.136
-350.493	-200.000	0.041	0.408
-349.479	563.751	0.106	0.259
-348.464	-39.244	0.275	-0.146
-347.450	25.554	0.011	0.009
-346.435	800.000	0.068	0.219
-345.420	83.350	-0.170	0.186
-344.406	-200.000	-0.018	0.131
-343.391	132.178	0.095	-0.123
-342.377	202.823	-0.027	-0.043
-341.362	-200.000	-0.016	-0.259
-340.348	143.187	0.340	-0.455
-339.333	800.000	-0.081	0.288
-338.318	-200.000	0.001	-0.138
-337.304	435.712	-0.090	0.198
-336.289	-153.537	-0.112	0.008
-335.275	411.980	0.137	-0.293
-334.260	-71.757	0.129	0.048
-333.245	-15.739	-0.050	0.032
-332.231	-81.532	-0.096	0.032
-331.216	209.899	0.253	0.400
-330.202	-78.106	-0.130	0.045
-329.187	800.000	0.160	0.505
-328.172	-200.000	-0.027	0.253
-327.158	-105.529	-0.166	0.038
-326.143	34.975	0.143	-0.126
-325.129	403.245	0.067	0.143
-324.114	-171.421	0.158	0.005
-323.099	-200.000	-0.003	0.086
-322.085	-166.512	0.089	-0.004
-321.070	-61.535	-0.321	-0.136
-320.056	8.917	-0.220	-0.167
-319.041	-13.715	0.121	0.079
-318.026	-17.439	-0.386	-0.244
-317.012	212.832	0.119	0.190
-315.997	-28.959	0.367	-0.212
-314.983	224.197	0.223	-0.363
-313.968	772.188	0.130	0.358
-312.953	33.712	-0.143	-0.125
-311.939	-200.000	-0.021	0.149
-310.924	22.252	-0.327	0.269
-309.910	-89.660	-0.146	0.043
-308.895	-200.000	0.010	0.094
-307.880	-99.979	-0.131	-0.033
-306.866	-200.000	-0.061	-0.313
-305.851	-149.247	0.382	-0.031
-304.837	-110.683	-0.082	-0.017
-303.822	-27.510	0.060	0.035
-302.807	800.000	0.066	-0.219
-301.793	800.000	0.026	-0.093
-300.778	-169.507	-0.252	-0.009
-299.764	226.683	-0.059	-0.097
-298.749	-154.853	0.376	-0.025
-297.735	-53.997	-0.109	0.050
-296.720	4.547	-0.265	-0.196
-295.705	73.566	0.036	0.038
-294.691	2.082	-0.113	-0.082
-293.676	-31.098	0.159	0.090
-292.662	-200.000	-0.012	-0.158
-291.647	638.507	0.061	-0.156
-290.632	-31.191	-0.218	-0.124
-289.618	7.623	0.027	-0.021
-288.603	800.000	-0.056	0.162
-287.589	147.944	0.081	0.110
-286.574	-144.522	-0.109	-0.010
-285.559	-57.287	-0.374	0.166
-284.545	18.189	0.250	0.201
-283.530	-200.000	-0.024	0.143
-282.516	-200.000	0.009	-0.090
-281.501	-16.935	0.130	0.083
-280.486	51.601	0.217	0.207
-279.472	97.871	-0.115	-0.133
-278.457	350.166	0.035	0.069
-277.443	-128.904	-0.246	0.035
-276.428	-153.900	0.178	0.012
-275.413	800.000	-0.030	0.105
-274.399	46.509	0.221	0.206
-273.384	210.023	-0.255	0.402
-272.370	-45.631	-0.127	0.063
-271.355	-154.161	-0.288	-0.020
-270.340	-108.712	0.599	0.129
-269.326	-200.000	0.047	0.220
-268.311	-200.000	-0.042	0.385
-267.297	467.149	0.144	0.325
-266.282	198.245	0.108	-0.167
-265.267	-101.421	-0.250	0.061
-264.253	-200.000	-0.008	0.097
-263.238	-27.240	0.153	-0.090
-262.224	-131.500	-0.215	0.029
-261.209	-136.026	0.059	-0.007
-260.195	-200.000	-0.010	0.108
-259.180	-200.000	0.059	-0.386
-258.165	-49.479	-0.117	0.056
-257.151	225.892	-0.157	-0.256
-256.136	85.445	0.049	0.054
-255.122	-200.000	-0.030	0.164
-254.107	-68.336	0.197	0.077
-253.092	800.000	0.008	-0.023
-252.078	323.872	-0.094	0.179
-251.063	475.310	-0.058	0.132
-250.049	59.629	-0.033	-0.033
-249.034	547.097	0.026	0.063
-248.019	-29.217	-0.093	-0.053
-247.005	-68.354	0.281	-0.110
-245.990	518.571	0.109	0.257
-244.976	-5.430	0.153	0.105
-243.961	-40.650	0.315	-0.164
-242.946	22.357	-0.236	-0.194
-241.932	-62.500	0.165	0.069
-240.917	43.546	-0.113	-0.104
-239.903	207.334	0.128	0.200
-238.888	252.118	0.039	0.067
-237.873	-121.205	0.139	0.023
-236.859	-58.086	-0.102	-0.045
-235.844	-33.464	-0.159	-0.088
-234.830	121.500	-0.195	-0.244
-233.815	183.229	-0.088	0.130
-232.800	-86.601	-0.060	-0.018
-231.786	173.387	0.078	-0.113
-230.771	438.216	0.109	-0.239
-229.757	258.401	0.099	-0.171
-228.742	331.949	0.169	-0.328
-227.727	-35.046	-0.230	-0.126
-226.713	800.000	0.035	-0.128
-225.698	-7.603	-0.038	0.026
-224.684	-200.000	0.044	0.000
-223.669	-72.926	-0.145	-0.054
-222.655	-111.997	-0.185	0.037
-221.640	92.081	0.123	0.139
-220.625	638.890	0.074	0.190
-219.611	-0.422	0.272	0.193
-218.596	-33.439	-0.232	-0.129
-217.582	-96.683	0.208	0.055
-216.567	-62.736	0.257	0.107
-215.552	516.302	-0.089	-0.208
-214.538	548.962	0.063	0.152
-213.523	-74.682	0.135	-0.049
-212.509	-200.000	0.025	0.283
-211.494	1.642	-0.215	-0.155
-210.479	15.598	-0.061	0.048
-209.465	185.885	-0.166	0.247
-208.450	-107.040	0.215	-0.048
-207.436	309.739	-0.045	0.084
-206.421	800.000	-0.057	-0.175
-205.406	-200.000	-0.034	-0.171
-204.392	44.001	-0.192	0.176
-203.377	800.000	0.013	-0.038
-202.363	800.000	0.081	-0.326
-201.348	198.999	0.199	-0.306
-200.333	-200.000	-0.053	-0.317
-199.319	-27.258	-0.340	-0.198
-198.304	800.000	-0.027	-0.117
-197.290	100.067	0.108	0.126
-196.275	-57.106	-0.269	0.119
-195.260	600.104	0.008	-0.020
-194.246	109.648	0.148	0.178
-193.231	74.498	-0.094	0.099
-192.217	205.794	0.206	-0.322
-191.202	800.000	-0.063	-0.193
-190.187	92.932	0.078	0.088
-189.173	308.170	-0.154	-0.288
-188.158	-110.057	-0.194	-0.041
-187.144	-26.525	0.091	0.053
-186.129	-130.434	-0.188	0.025
-185.114	-60.228	-0.112	0.048
-184.100	-156.623	-0.072	-0.004
-183.085	41.141	-0.125	0.113
-182.071	-200.000	0.073	0.393
-181.056	-138.612	0.067	-0.007
-180.042	-200.000	0.004	0.345
-179.027	-140.780	0.413	-0.043
-178.012	-200.000	0.028	0.271
-176.998	800.000	-0.046	0.170
-175.983	734.680	0.175	-0.470
-174.969	800.000	0.052	0.224
-173.954	800.000	0.018	0.059
-172.939	74.023	0.095	0.100
-171.925	0.296	0.369	0.264
-170.910	-82.912	-0.255	0.082
-169.896	25.804	0.150	-0.125
-168.881	3.713	-0.194	-0.142
-167.866	-90.151	0.108	-0.031
-166.852	280.395	0.120	-0.215
-165.837	-69.572	-0.241	-0.092
-164.823	-200.000	-0.007	0.281
-163.808	486.851	0.015	-0.034
-162.793	-15.858	-0.569	-0.363
-161.779	85.703	0.177	0.194
-160.764	337.578	0.196	0.380
-159.750	-161.540	-0.190	0.010
-158.735	123.523	0.003	0.004
-157.720	153.576	-0.169	0.232
-156.706	-200.000	-0.051	0.224
-155.691	-156.204	-0.156	-0.010
-154.677	257.779	-0.116	-0.199
-153.662	185.964	-0.150	-0.223
-152.647	-200.000	0.033	0.253
-151.633	-84.631	-0.096	-0.030
-150.618	-40.987	0.147	0.076
-149.604	800.000	-0.026	0.091
-148.589	114.939	-0.205	-0.251
-147.574	800.000	0.093	-0.328
-146.560	800.000	-0.093	-0.284
-145.545	3.628	-0.318	-0.232
-144.531	603.941	0.129	0.320
-143.516	-15.331	-0.268	-0.171
-142.502	120.110	0.072	0.089
-141.487	-200.000	0.465	-0.001
-140.472	25.092	0.173	-0.144
-139.458	-14.166	-0.121	-0.078
-138.443	3.582	0.224	0.163
-137.429	800.000	-0.078	0.297
-136.414	-62.329	-0.134	0.056
-135.399	-89.698	-0.229	0.067
-134.385	21.984	-0.072	-0.059
-133.370	5.978	-0.096	-0.071
-132.356	-78.606	0.232	-0.079
-131.341	-200.000	0.019	0.086
-130.326	-200.000	-0.032	0.259
-129.312	800.000	-0.106	-0.305
-128.297	18.701	-0.206	0.165
-127.283	417.143	-0.039	0.084
-126.268	-97.539	0.245	0.064
-125.253	-29.448	0.200	-0.114
-124.239	-116.325	0.136	0.025
-123.224	-200.000	-0.014	0.077
-122.210	646.607	0.089	0.227
-121.195	-9.704	0.158	-0.105
