DTS Sentinel unit serial number:	SN413079Multiplexer serial number:	ORYXHardware model number:	OX4-SRSoftware version number:	ORYX F/W v4.00 Oryx Data Collector v3.7.2.0data status	okinstallation	princeton_trtdifferential loss correction	single-endedforward channel	channel 3reverse channel	N/Adate	2019/09/15time	04:04:35forward acquisition time	60.00reverse acquisition time	0.00gamma	496.2192k internal	0.2322k external	0.2322temperature offset calibration	0.9968default loss term (dB/km)	0.3790temperature slope calibration	1.0000multiplexer offset coefficient	1.0000multiplexer slope coefficient	1.0000fibre end	0.00T internal ref (°C)	30.94T ext. ref 1 (°C)	4.61T ext. ref 2 (°C)	25.85length (m)	temperature (°C)	Stokes	anti-Stokes-747.200	148.988	0.112	0.153
-746.185	-119.752	0.142	0.025
-745.171	800.000	-0.050	-0.186
-744.156	-26.852	-0.403	0.238
-743.142	-200.000	0.001	0.113
-742.127	-131.727	-0.161	-0.021
-741.112	-180.936	-0.314	-0.006
-740.098	229.514	-0.064	0.106
-739.083	-85.833	-0.202	-0.063
-738.069	-200.000	0.063	0.314
-737.054	-53.141	0.320	-0.149
-736.039	-200.000	-0.011	-0.221
-735.025	36.896	0.078	-0.070
-734.010	-182.479	0.278	-0.005
-732.996	-175.600	-0.245	-0.007
-731.981	-104.941	-0.206	0.048
-730.966	81.752	0.092	-0.101
-729.952	-44.157	-0.233	-0.118
-728.937	-200.000	0.022	-0.219
-727.923	577.123	-0.015	-0.038
-726.908	88.864	-0.058	-0.066
-725.894	-74.424	-0.179	-0.065
-724.879	-200.000	-0.065	0.291
-723.864	-139.303	-0.319	0.035
-722.850	-133.090	-0.298	-0.038
-721.835	-137.593	-0.304	0.035
-720.821	-19.441	-0.180	-0.113
-719.806	538.138	-0.092	0.220
-718.791	54.155	-0.263	-0.255
-717.777	800.000	0.053	-0.221
-716.762	174.935	0.159	-0.233
-715.748	-12.152	-0.106	0.070
-714.733	-139.005	-0.267	0.029
-713.718	105.489	-0.130	-0.155
-712.704	647.447	-0.022	-0.056
-711.689	-68.659	0.395	0.154
-710.675	-132.184	-0.392	-0.051
-709.660	800.000	-0.080	-0.290
-708.645	800.000	-0.087	0.261
-707.631	-130.225	-0.121	0.017
-706.616	-200.000	-0.034	0.162
-705.602	800.000	-0.029	0.085
-704.587	308.500	-0.075	-0.141
-703.572	-200.000	-0.004	0.027
-702.558	9.720	0.294	-0.225
-701.543	-53.287	-0.227	0.105
-700.529	-170.039	0.144	0.005
-699.514	-98.739	0.267	-0.069
-698.499	-15.092	0.046	-0.030
-697.485	441.580	-0.048	-0.106
-696.470	115.960	0.214	0.265
-695.456	297.294	-0.120	0.222
-694.441	11.056	-0.217	-0.167
-693.426	330.133	-0.055	-0.106
-692.412	-200.000	-0.016	-0.154
-691.397	-94.133	0.077	-0.021
-690.383	-81.247	-0.372	-0.124
-689.368	20.479	0.127	0.103
-688.354	376.128	-0.162	-0.333
-687.339	295.471	0.075	0.138
-686.324	-2.153	0.120	0.085
-685.310	92.277	0.352	0.399
-684.295	-28.097	0.065	-0.038
-683.281	-200.000	-0.091	0.430
-682.266	-6.217	-0.279	-0.192
-681.251	-72.489	-0.153	0.057
-680.237	-200.000	0.033	-0.393
-679.222	-181.712	0.284	0.006
-678.208	161.767	0.053	0.074
-677.193	21.542	-0.081	-0.067
-676.178	197.091	0.046	0.070
-675.164	-200.000	-0.005	0.034
-674.149	147.608	0.128	-0.173
-673.135	122.899	0.196	-0.247
-672.120	14.891	-0.186	-0.147
-671.105	71.120	0.173	-0.181
-670.091	212.370	-0.147	-0.234
-669.076	-96.493	0.108	0.029
-668.062	37.398	-0.033	0.029
-667.047	800.000	0.045	0.151
-666.032	112.219	-0.177	0.215
-665.018	800.000	0.033	-0.097
-664.003	-64.324	-0.171	0.070
-662.989	198.690	0.147	0.226
-661.974	-134.939	-0.089	-0.011
-660.959	227.637	0.062	-0.102
-659.945	72.143	-0.121	-0.127
-658.930	-128.799	0.322	-0.046
-657.916	285.324	-0.052	-0.094
-656.901	33.263	-0.096	0.084
-655.886	79.166	0.220	-0.238
-654.872	-200.000	-0.031	0.446
-653.857	-200.000	0.017	0.416
-652.843	133.206	-0.121	0.157
-651.828	-42.494	0.343	0.176
-650.814	-92.935	0.197	0.055
-649.799	-200.000	0.027	0.175
-648.784	800.000	-0.065	-0.249
-647.770	789.181	-0.094	-0.260
-646.755	31.107	-0.268	-0.231
-645.741	-66.911	0.224	-0.089
-644.726	-113.239	-0.241	0.048
-643.711	108.712	0.072	-0.086
-642.697	725.375	0.094	-0.252
-641.682	169.309	-0.182	0.261
-640.668	-21.920	-0.243	0.148
-639.653	254.904	0.012	0.021
-638.638	-48.643	0.174	0.084
-637.624	147.047	-0.189	-0.255
-636.609	54.227	-0.033	-0.032
-635.595	-99.775	0.201	0.051
-634.580	-107.335	0.078	-0.017
-633.565	-200.000	0.137	0.000
-632.551	180.477	0.113	-0.167
-631.536	200.924	-0.106	-0.164
-630.522	-30.109	0.128	-0.073
-629.507	-5.579	0.158	0.109
-628.492	39.087	-0.164	0.148
-627.478	-124.778	-0.350	-0.054
-626.463	-48.128	0.247	0.120
-625.449	-112.124	0.030	-0.006
-624.434	188.357	0.155	0.233
-623.419	162.216	0.163	-0.230
-622.405	-146.277	-0.348	-0.031
-621.390	-42.839	-0.035	0.018
-620.376	-200.000	0.005	0.124
-619.361	-68.526	-0.117	-0.046
-618.346	-200.000	-0.010	0.233
-617.332	340.073	0.097	-0.191
-616.317	-200.000	-0.042	0.270
-615.303	-200.000	0.019	-0.135
-614.288	577.316	-0.062	-0.152
-613.273	121.726	0.186	0.234
-612.259	-200.000	0.097	-0.471
-611.244	234.321	-0.264	-0.437
-610.230	-200.000	-0.003	0.050
-609.215	-29.079	-0.171	0.098
-608.201	-165.637	0.173	-0.008
-607.186	800.000	0.056	0.175
-606.171	318.157	0.099	-0.188
-605.157	21.021	0.441	-0.359
-604.142	82.305	0.236	0.257
-603.128	568.362	0.122	0.297
-602.113	-200.000	0.053	-0.251
-601.098	205.119	-0.083	-0.129
-600.084	-112.168	-0.212	0.043
-599.069	121.919	0.161	0.201
-598.055	800.000	-0.125	-0.521
-597.040	363.102	0.060	0.122
-596.025	36.758	0.037	-0.033
-595.011	-13.960	0.158	-0.102
-593.996	-72.630	-0.280	0.104
-592.982	-48.852	-0.267	-0.129
-591.967	203.837	-0.153	0.237
-590.952	-122.875	-0.303	-0.049
-589.938	-200.000	-0.032	-0.182
-588.923	-200.000	-0.045	-0.312
-587.909	106.694	0.073	-0.087
-586.894	611.244	-0.071	0.178
-585.879	-133.826	0.184	0.023
-584.865	-146.797	-0.351	0.030
-583.850	220.268	-0.065	0.105
-582.836	23.592	-0.158	0.130
-581.821	164.912	0.134	-0.190
-580.806	-97.512	0.268	-0.070
-579.792	-124.309	-0.236	0.037
-578.777	800.000	-0.024	0.078
-577.763	254.529	-0.085	0.146
-576.748	-114.528	-0.304	-0.058
-575.733	-200.000	-0.010	-0.060
-574.719	1.544	0.223	-0.161
-573.704	800.000	-0.016	0.046
-572.690	800.000	-0.046	-0.157
-571.675	-75.329	-0.334	0.119
-570.661	482.870	-0.046	-0.105
-569.646	-81.571	0.286	0.094
-568.631	-22.429	-0.265	-0.161
-567.617	407.167	-0.062	-0.132
-566.602	-15.872	0.320	-0.205
-565.588	59.099	-0.173	-0.171
-564.573	763.984	-0.045	0.121
-563.558	800.000	0.109	0.362
-562.544	55.020	-0.131	-0.127
-561.529	341.514	-0.127	-0.248
-560.515	-74.296	0.155	-0.056
-559.500	800.000	0.056	0.189
-558.485	344.060	-0.067	-0.132
-557.471	-86.348	0.202	-0.062
-556.456	-59.117	-0.097	-0.042
-555.442	-25.704	0.245	0.145
-554.427	139.483	0.100	-0.132
-553.412	-77.122	-0.399	0.140
-552.398	-75.462	-0.186	0.066
-551.383	-175.301	-0.112	-0.003
-550.369	-200.000	-0.011	-0.107
-549.354	-4.677	0.205	-0.142
-548.339	-115.252	-0.098	0.019
-547.325	634.613	0.131	0.334
-546.310	131.338	-0.159	0.204
-545.296	-200.000	-0.014	0.083
-544.281	800.000	-0.020	-0.059
-543.266	134.631	-0.083	-0.108
-542.252	-124.189	-0.269	0.042
-541.237	-76.939	-0.231	0.081
-540.223	3.344	0.200	-0.146
-539.208	-200.000	-0.000	-0.340
-538.193	-200.000	-0.006	-0.090
-537.179	-78.787	0.442	-0.151
-536.164	-200.000	-0.020	0.195
-535.150	-200.000	-0.050	0.242
-534.135	-200.000	0.009	-0.061
-533.121	148.606	0.102	0.139
-532.106	36.665	-0.246	0.217
-531.091	189.125	-0.101	0.151
-530.077	397.569	0.043	-0.090
-529.062	542.805	-0.106	-0.252
-528.048	-200.000	-0.015	0.091
-527.033	-79.431	0.249	0.084
-526.018	5.881	-0.151	-0.112
-525.004	-200.000	-0.220	0.001
-523.989	-55.201	-0.089	-0.040
-522.975	-67.032	-0.244	0.096
-521.960	-200.000	-0.027	0.323
-520.945	800.000	-0.067	-0.265
-519.931	-200.000	-0.031	0.306
-518.916	88.640	0.049	0.054
-517.902	362.015	-0.083	-0.168
-516.887	-29.606	0.257	0.147
-515.872	92.788	-0.356	0.403
-514.858	235.977	0.074	0.123
-513.843	657.335	0.094	-0.242
-512.829	-84.658	0.238	-0.075
-511.814	661.852	0.105	-0.271
-510.799	70.479	-0.114	-0.118
-509.785	-200.000	0.011	-0.083
-508.770	-14.009	0.201	-0.130
-507.756	476.081	0.013	-0.030
-506.741	32.860	-0.229	0.198
-505.726	-130.854	0.182	0.024
-504.712	535.768	0.050	-0.119
-503.697	-51.220	-0.176	-0.083
-502.683	-79.440	0.218	0.074
-501.668	155.748	-0.057	0.078
-500.653	14.000	0.300	-0.234
-499.639	295.644	0.132	-0.242
-498.624	309.420	-0.065	0.121
-497.610	-200.000	0.012	0.175
-496.595	-3.611	-0.200	0.139
-495.581	-112.317	0.167	-0.033
-494.566	71.934	0.087	-0.090
-493.551	-184.167	-0.260	-0.004
-492.537	194.908	-0.056	0.084
-491.522	-90.360	0.311	0.090
-490.508	475.415	0.002	0.004
-489.493	306.460	-0.092	-0.172
-488.478	259.881	0.233	0.403
-487.464	800.000	0.035	0.121
-486.449	-18.824	-0.224	-0.140
-485.435	-200.000	-0.008	-0.197
-484.420	6.589	0.276	-0.206
-483.405	73.854	-0.209	-0.220
-482.391	800.000	0.079	-0.272
-481.376	-185.894	-0.421	-0.006
-480.362	-62.604	-0.055	0.023
-479.347	-96.016	0.049	0.013
-478.332	800.000	-0.023	0.095
-477.318	82.845	-0.120	0.130
-476.303	800.000	0.080	-0.223
-475.289	800.000	-0.061	0.181
-474.274	-83.118	-0.120	-0.039
-473.259	-140.644	-0.158	-0.016
-472.245	-22.120	-0.063	0.038
-471.230	43.304	0.074	-0.067
-470.216	-200.000	0.018	0.098
-469.201	800.000	-0.025	0.082
-468.186	38.359	-0.120	0.107
-467.172	-200.000	0.010	0.252
-466.157	-106.812	-0.304	-0.067
-465.143	-42.091	-0.338	0.173
-464.128	639.534	-0.102	-0.258
-463.113	800.000	0.059	0.223
-462.099	-194.433	0.090	-0.001
-461.084	-153.956	0.194	-0.013
-460.070	73.176	0.283	0.295
-459.055	800.000	0.053	-0.222
-458.040	399.745	0.071	-0.148
-457.026	-138.817	-0.357	-0.039
-456.011	230.193	0.068	0.111
-454.997	109.861	-0.095	0.113
-453.982	800.000	0.013	0.054
-452.968	140.457	-0.069	0.091
-451.953	800.000	-0.067	0.211
-450.938	-44.318	-0.120	-0.060
-449.924	-76.211	0.176	0.062
-448.909	-44.859	-0.161	0.080
-447.895	-56.247	0.055	0.025
-446.880	-149.789	-0.239	-0.019
-445.865	21.654	0.228	-0.185
-444.851	-8.301	-0.192	-0.129
-443.836	-200.000	0.029	-0.151
-442.822	147.075	-0.040	-0.054
-441.807	-132.431	-0.143	0.018
-440.792	-164.368	0.405	0.019
-439.778	88.943	-0.162	0.180
-438.763	-99.059	0.345	-0.087
-437.749	-200.000	-0.002	-0.027
-436.734	16.706	0.115	-0.091
-435.719	47.730	-0.230	-0.214
-434.705	32.395	-0.209	-0.180
-433.690	238.680	0.188	-0.311
-432.676	-94.404	0.216	0.059
-431.661	68.037	-0.112	-0.114
-430.646	-14.111	-0.512	0.330
-429.632	323.452	0.166	-0.316
-428.617	-61.612	0.287	-0.120
-427.603	-193.184	-0.170	0.002
-426.588	77.859	0.016	-0.017
-425.573	-178.101	0.150	-0.004
-424.559	-4.955	0.293	-0.201
-423.544	127.629	-0.071	-0.090
-422.530	428.524	-0.112	0.241
-421.515	134.209	-0.199	-0.257
-420.500	116.612	0.035	0.043
-419.486	-99.905	0.075	0.019
-418.471	387.456	0.173	0.356
-417.457	204.849	0.165	0.256
-416.442	-110.141	0.160	-0.033
-415.428	-57.477	0.216	-0.095
-414.413	-200.000	0.010	-0.172
-413.398	-133.825	0.202	-0.025
-412.384	-102.165	0.304	-0.073
-411.369	85.629	-0.025	0.028
-410.355	-42.026	0.212	-0.108
-409.340	199.371	0.137	0.210
-408.325	-97.258	-0.462	-0.120
-407.311	395.970	0.139	-0.289
-406.296	11.101	-0.287	-0.219
-405.282	322.494	-0.051	0.096
-404.267	60.897	0.126	0.125
-403.252	192.232	0.066	-0.099
-402.238	316.105	0.061	-0.115
-401.223	-129.487	-0.119	0.016
-400.209	-4.923	0.279	0.192
-399.194	-35.577	-0.037	0.020
-398.179	65.658	-0.114	0.115
-397.165	-67.733	-0.270	-0.105
-396.150	800.000	0.075	-0.269
-395.136	800.000	-0.099	-0.325
-394.121	244.181	-0.217	-0.364
-393.106	74.413	0.016	0.016
-392.092	800.000	0.061	-0.259
-391.077	-200.000	-0.024	-0.233
-390.063	-200.000	-0.032	0.174
-389.048	-33.365	-0.086	0.047
-388.033	-200.000	0.094	0.432
-387.019	241.921	0.241	0.401
-386.004	800.000	0.138	0.440
-384.990	-154.804	0.094	-0.006
-383.975	-32.936	0.251	0.139
-382.960	-13.646	0.144	-0.093
-381.946	-200.000	-0.009	0.319
-380.931	-146.377	0.097	0.008
-379.917	-61.120	0.066	0.028
-378.902	268.194	-0.082	-0.144
-377.888	-200.000	-0.037	-0.288
-376.873	45.386	-0.106	-0.097
-375.858	-120.974	0.143	0.024
-374.844	-16.943	0.119	0.075
-373.829	533.720	0.029	0.069
-372.815	449.289	0.063	0.138
-371.800	-182.980	0.185	-0.003
-370.785	-49.241	-0.217	0.103
-369.771	800.000	0.024	0.102
-368.756	-145.055	-0.067	-0.006
-367.742	800.000	0.027	-0.105
-366.727	53.040	0.147	0.140
-365.712	-45.479	-0.168	-0.083
-364.698	468.661	0.166	-0.370
-363.683	-52.762	0.255	-0.117
-362.669	800.000	0.087	0.258
-361.654	-77.843	0.163	-0.056
-360.639	21.736	0.163	0.132
-359.625	-186.238	-0.145	-0.002
-358.610	-200.000	-0.003	0.151
-357.596	800.000	-0.027	0.113
-356.581	-54.225	0.083	0.038
-355.566	227.611	0.136	0.221
-354.552	600.712	0.093	-0.230
-353.537	-200.000	-0.002	-0.222
-352.523	758.781	-0.094	0.252
-351.508	-200.000	0.057	-0.253
-350.493	-200.000	-0.005	-0.256
-349.479	83.924	0.098	-0.106
-348.464	-114.710	0.102	-0.019
-347.450	0.267	-0.188	-0.134
-346.435	-67.256	-0.114	0.045
-345.420	-86.639	0.191	-0.058
-344.406	-200.000	-0.037	-0.174
-343.391	-200.000	0.015	-0.237
-342.377	800.000	0.026	0.075
-341.362	-100.499	0.129	0.032
-340.348	-78.034	0.168	0.058
-339.333	-106.255	-0.254	0.056
-338.318	-200.000	0.042	0.334
-337.304	28.499	0.170	0.143
-336.289	-15.276	-0.140	0.089
-335.275	191.215	0.145	0.217
-334.260	-112.920	0.191	0.038
-333.245	800.000	-0.057	0.237
-332.231	723.645	0.144	0.380
-331.216	-200.000	0.017	0.114
-330.202	-75.088	-0.137	-0.049
-329.187	724.074	0.038	-0.101
-328.172	162.524	0.195	0.272
-327.158	76.509	0.221	-0.233
-326.143	525.054	0.063	-0.148
-325.129	-14.252	0.166	0.107
-324.114	-32.800	-0.266	-0.147
-323.099	800.000	0.042	-0.116
-322.085	-147.614	0.213	0.018
-321.070	-57.698	0.366	0.159
-320.056	-200.000	0.063	0.400
-319.041	-92.705	-0.123	0.034
-318.026	-200.000	0.003	0.041
-317.012	-115.926	0.136	0.025
-315.997	104.917	-0.154	-0.180
-314.983	-200.000	-0.043	0.387
-313.968	53.379	-0.146	-0.139
-312.953	-59.055	-0.203	-0.087
-311.939	108.851	0.084	0.100
-310.924	-200.000	0.021	0.259
-309.910	-148.400	0.637	0.052
-308.895	-113.086	-0.305	-0.060
-307.880	19.732	-0.126	-0.101
-306.866	488.851	0.050	0.113
-305.851	352.489	-0.056	-0.110
-304.837	-200.000	-0.063	0.289
-303.822	716.195	-0.094	0.246
-302.807	118.428	-0.153	0.187
-301.793	-200.000	0.038	-0.271
-300.778	26.257	0.168	-0.139
-299.764	29.501	-0.033	0.028
-298.749	11.749	0.361	0.275
-297.735	-112.798	0.074	0.015
-296.720	105.673	-0.036	-0.043
-295.705	74.379	-0.180	0.188
-294.691	-140.986	-0.329	0.033
-293.676	-11.808	0.320	-0.209
-292.662	195.287	0.035	0.053
-291.647	-14.831	0.086	-0.055
-290.632	-200.000	-0.041	0.264
-289.618	-134.626	0.321	-0.039
-288.603	800.000	0.049	-0.163
-287.589	-100.637	-0.420	0.103
-286.574	-200.000	0.005	-0.122
-285.559	507.105	0.074	0.171
-284.545	-200.000	0.001	0.078
-283.530	-48.571	0.370	-0.177
-282.516	-112.754	0.202	0.040
-281.501	212.954	-0.079	0.124
-280.486	321.109	-0.075	0.141
-279.472	75.478	-0.082	-0.086
-278.457	800.000	-0.080	0.288
-277.443	7.717	-0.168	0.125
-276.428	-127.867	0.068	0.010
-275.413	-93.682	-0.208	0.057
-274.399	-95.168	-0.100	0.027
-273.384	518.796	0.010	-0.024
-272.370	526.456	0.053	0.124
-271.355	95.012	-0.255	0.287
-270.340	414.194	-0.106	-0.223
-269.326	18.834	-0.218	-0.173
-268.311	-39.923	0.084	-0.043
-267.297	-105.201	0.238	-0.054
-266.282	-65.930	0.189	-0.075
-265.267	-37.984	-0.345	-0.182
-264.253	19.096	-0.252	-0.201
-263.238	-80.135	-0.096	-0.032
-262.224	-200.000	-0.038	0.194
-261.209	202.656	-0.184	-0.281
-260.195	51.843	-0.214	0.202
-259.180	-28.825	0.061	0.035
-258.165	-73.328	0.097	-0.035
-257.151	800.000	0.089	0.255
-256.136	-33.060	0.169	0.093
-255.122	244.975	0.054	0.090
-254.107	-76.163	0.097	0.034
-253.092	9.119	0.253	-0.190
-252.078	-200.000	-0.028	0.277
-251.063	-63.672	-0.443	-0.180
-250.049	800.000	0.035	-0.127
-249.034	79.499	-0.109	0.116
-248.019	-200.000	0.005	0.160
-247.005	80.406	0.153	-0.163
-245.990	-8.120	-0.269	0.180
-244.976	91.025	0.188	0.209
-243.961	-139.018	0.261	-0.028
-242.946	62.466	-0.183	-0.181
-241.932	-200.000	0.033	-0.178
-240.917	255.930	-0.138	0.235
-239.903	658.760	-0.098	0.250
-238.888	-140.031	0.327	0.034
-237.873	-70.603	-0.328	0.123
-236.859	-147.021	0.028	0.002
-235.844	81.966	0.058	0.062
-234.830	18.483	0.252	0.200
-233.815	-200.000	0.003	-0.115
-232.800	800.000	-0.030	-0.129
-231.786	528.610	0.083	0.193
-230.771	-20.167	0.078	-0.048
-229.757	236.105	0.083	-0.136
-228.742	-113.867	-0.052	0.010
-227.727	800.000	0.023	0.066
-226.713	-200.000	-0.027	-0.343
-225.698	-193.685	0.086	0.001
-224.684	-112.431	-0.104	-0.021
-223.669	-125.915	-0.255	-0.038
-222.655	-84.892	-0.086	0.027
-221.640	-194.262	0.279	-0.002
-220.625	800.000	-0.075	0.228
-219.611	-65.175	0.174	-0.069
-218.596	800.000	0.038	0.156
-217.582	-126.461	0.138	-0.020
-216.567	-200.000	0.015	0.155
-215.552	148.494	-0.173	-0.231
-214.538	800.000	-0.048	0.133
-213.523	175.818	0.144	0.207
-212.509	234.229	-0.146	-0.239
-211.494	-79.843	-0.291	-0.097
-210.479	-62.382	0.130	-0.054
-209.465	151.042	-0.120	-0.162
-208.450	38.921	0.265	-0.234
-207.436	800.000	0.137	-0.487
-206.421	-200.000	0.003	-0.218
-205.406	800.000	-0.058	0.231
-204.392	-200.000	0.016	0.158
-203.377	260.969	-0.148	-0.253
-202.363	-200.000	-0.026	-0.218
-201.348	800.000	0.082	-0.332
-200.333	62.664	-0.101	0.100
-199.319	67.834	0.104	-0.105
-198.304	348.019	0.128	0.250
-197.290	-102.721	0.186	-0.044
-196.275	-18.571	-0.259	-0.160
-195.260	800.000	0.060	0.257
-194.246	800.000	0.058	0.179
-193.231	-141.757	0.418	0.042
-192.217	-12.636	-0.279	0.180
-191.202	-178.734	0.198	-0.004
-190.187	-48.025	0.105	-0.050
-189.173	129.003	-0.220	-0.277
-188.158	-158.494	-0.314	-0.018
-187.144	-79.881	-0.203	-0.067
-186.129	-152.092	-0.082	-0.006
-185.114	3.915	0.214	-0.154
-184.100	800.000	0.103	-0.293
-183.085	-39.074	-0.130	-0.067
-182.071	-2.140	-0.043	0.030
-181.056	-200.000	0.046	0.220
-180.042	-86.992	-0.188	0.057
-179.027	256.945	0.092	0.156
-178.012	545.202	0.127	0.299
-176.998	-51.396	0.152	-0.070
-175.983	-43.263	-0.303	-0.152
-174.969	800.000	-0.048	0.178
-173.954	285.094	-0.116	0.207
-172.939	-46.666	-0.184	0.089
-171.925	150.160	-0.126	0.170
-170.910	-200.000	0.009	0.203
-169.896	-79.986	0.192	0.064
-168.881	-96.614	0.280	-0.073
-167.866	-200.000	0.038	-0.292
-166.852	-51.547	-0.214	-0.099
-165.837	-200.000	-0.048	0.245
-164.823	664.491	0.093	-0.237
-163.808	498.873	0.039	-0.088
-162.793	-77.141	-0.124	0.043
-161.779	88.610	-0.189	0.207
-160.764	-200.000	-0.047	-0.271
-159.750	-168.052	-0.400	-0.015
-158.735	21.217	-0.252	-0.202
-157.720	-22.520	0.123	-0.074
-156.706	279.785	-0.127	0.223
-155.691	-200.000	0.002	-0.279
-154.677	63.770	0.205	0.204
-153.662	-200.000	-0.065	0.355
-152.647	-8.270	0.129	0.086
-151.633	-200.000	0.021	0.106
-150.618	197.975	0.138	0.208
-149.604	-200.000	0.020	-0.142
-148.589	-71.515	0.144	0.053
-147.574	-80.095	0.231	0.077
-146.560	384.342	0.015	-0.031
-145.545	800.000	-0.051	-0.160
-144.531	17.740	-0.054	0.043
-143.516	-200.000	0.008	-0.056
-142.502	-200.000	0.087	0.383
-141.487	-37.341	0.132	0.069
-140.472	-137.291	0.299	0.033
-139.458	197.701	0.199	-0.300
-138.443	23.683	0.137	0.111
-137.429	-200.000	-0.002	-0.042
-136.414	24.508	0.216	0.177
-135.399	-200.000	0.009	0.140
-134.385	-103.950	0.194	-0.045
-133.370	187.382	-0.082	-0.121
-132.356	-126.068	-0.086	-0.013
-131.341	70.063	0.132	0.135
-130.326	800.000	0.013	-0.054
-129.312	338.121	0.124	0.239
-128.297	30.376	0.161	0.135
-127.283	-103.140	0.235	0.055
-126.268	800.000	-0.021	0.089
-125.253	-133.425	0.156	0.019
-124.239	800.000	0.086	-0.259
-123.224	436.656	0.152	-0.326
-122.210	-149.507	0.051	0.004
-121.195	-200.000	0.016	-0.180
