DTS Sentinel unit serial number:	SN413079Multiplexer serial number:	ORYXHardware model number:	OX4-SRSoftware version number:	ORYX F/W v4.00 Oryx Data Collector v3.7.2.0data status	okinstallation	princeton_trtdifferential loss correction	single-endedforward channel	channel 3reverse channel	N/Adate	2019/09/14time	16:36:35forward acquisition time	60.00reverse acquisition time	0.00gamma	496.2192k internal	0.2295k external	0.2295temperature offset calibration	1.0037default loss term (dB/km)	0.3790temperature slope calibration	1.0000multiplexer offset coefficient	1.0000multiplexer slope coefficient	1.0000fibre end	0.00T internal ref (°C)	38.00T ext. ref 1 (°C)	5.04T ext. ref 2 (°C)	33.88length (m)	temperature (°C)	Stokes	anti-Stokes-747.200	800.000	-0.102	-0.325
-746.185	-200.000	-0.107	0.736
-745.171	474.128	0.108	-0.249
-744.156	117.984	-0.022	-0.027
-743.142	59.857	0.082	-0.083
-742.127	-200.000	0.020	0.109
-741.112	-59.264	-0.211	0.093
-740.098	-200.000	0.003	-0.323
-739.083	-116.721	0.167	-0.031
-738.069	82.270	-0.156	0.173
-737.054	-70.069	-0.214	-0.083
-736.039	-7.287	-0.181	-0.126
-735.025	91.197	0.117	0.135
-734.010	20.538	-0.250	0.207
-732.996	241.595	-0.086	0.147
-731.981	746.110	0.038	-0.105
-730.966	800.000	-0.040	0.115
-729.952	-147.221	-0.276	0.024
-728.937	82.467	-0.264	0.293
-727.923	792.836	0.097	-0.272
-726.908	653.257	-0.094	0.247
-725.894	-200.000	-0.032	-0.214
-724.879	166.092	-0.247	-0.358
-723.864	-123.852	-0.057	0.009
-722.850	-200.000	-0.063	-0.304
-721.835	35.947	-0.016	-0.014
-720.821	800.000	-0.076	-0.291
-719.806	-200.000	0.059	-0.304
-718.791	-108.342	-0.248	0.055
-717.777	259.326	0.068	0.119
-716.762	60.192	-0.058	0.059
-715.748	-132.579	-0.230	0.030
-714.733	-56.179	-0.254	-0.115
-713.718	-200.000	0.050	-0.234
-712.704	-8.056	-0.355	-0.244
-711.689	45.740	-0.184	-0.174
-710.675	35.255	0.254	-0.227
-709.660	484.231	-0.060	0.140
-708.645	16.720	-0.118	-0.095
-707.631	-106.914	-0.342	0.077
-706.616	800.000	-0.016	0.069
-705.602	-23.654	-0.106	-0.065
-704.587	-200.000	0.029	-0.290
-703.572	-113.517	-0.077	-0.015
-702.558	-53.711	0.048	0.022
-701.543	-104.730	-0.152	0.036
-700.529	-128.522	-0.334	0.048
-699.514	-87.109	-0.128	0.040
-698.499	800.000	0.102	-0.310
-697.485	280.202	0.069	-0.125
-696.470	25.790	-0.359	0.305
-695.456	-75.036	-0.305	-0.111
-694.441	99.881	-0.062	-0.074
-693.426	30.418	-0.073	-0.063
-692.412	-200.000	-0.001	0.186
-691.397	82.249	-0.056	-0.062
-690.383	-73.448	-0.345	0.128
-689.368	-58.032	-0.188	-0.084
-688.354	-77.855	0.268	-0.094
-687.339	-49.424	-0.033	-0.016
-686.324	-150.048	-0.377	0.030
-685.310	-70.909	0.208	0.080
-684.295	23.683	0.091	0.077
-683.281	103.563	-0.227	-0.272
-682.266	334.781	0.047	0.093
-681.251	575.738	0.129	0.321
-680.237	-172.482	0.139	-0.005
-679.222	42.208	0.044	0.041
-678.208	69.405	0.127	-0.133
-677.193	800.000	0.035	0.141
-676.178	-138.700	-0.357	0.040
-675.164	92.920	0.131	0.151
-674.149	-48.476	-0.084	0.041
-673.135	-200.000	0.035	0.443
-672.120	106.220	0.078	0.094
-671.105	-200.000	0.045	-0.331
-670.091	118.289	-0.169	0.213
-669.076	-58.964	-0.327	0.144
-668.062	-136.178	0.107	-0.013
-667.047	-200.000	-0.016	0.180
-666.032	-49.361	-0.340	-0.165
-665.018	-56.542	-0.125	0.057
-664.003	227.056	-0.171	-0.283
-662.989	275.538	0.112	-0.203
-661.974	-200.000	0.054	0.304
-660.959	85.150	-0.081	-0.090
-659.945	381.742	-0.089	-0.187
-658.930	128.862	0.326	-0.424
-657.916	529.915	0.072	-0.172
-656.901	10.590	0.331	0.257
-655.886	-58.455	-0.099	-0.044
-654.872	-48.073	-0.281	0.138
-653.857	-141.466	-0.138	0.014
-652.843	-86.900	0.171	0.053
-651.828	-124.679	-0.275	-0.043
-650.814	800.000	-0.037	0.106
-649.799	-166.896	0.239	-0.010
-648.784	-200.000	0.008	0.061
-647.770	800.000	-0.040	0.118
-646.755	-13.519	-0.321	0.212
-645.741	-200.000	-0.016	0.156
-644.726	-129.134	-0.428	-0.061
-643.711	-179.093	-0.134	0.003
-642.697	96.034	0.128	-0.148
-641.682	-200.000	-0.028	0.501
-640.668	352.163	0.105	-0.212
-639.653	-39.817	0.204	-0.108
-638.638	-60.051	-0.276	-0.120
-637.624	376.571	-0.044	0.091
-636.609	-142.895	-0.402	0.040
-635.595	230.161	-0.114	0.189
-634.580	-165.718	-0.353	-0.016
-633.565	800.000	0.077	0.222
-632.551	-200.000	-0.005	-0.023
-631.536	35.970	-0.253	-0.227
-630.522	-52.010	-0.624	0.295
-629.507	-200.000	-0.031	0.285
-628.492	102.760	-0.018	0.022
-627.478	-83.040	-0.301	-0.099
-626.463	456.313	0.177	-0.400
-625.449	-114.073	0.277	0.055
-624.434	203.901	-0.146	-0.230
-623.419	-44.010	-0.283	-0.145
-622.405	170.109	-0.165	-0.240
-621.390	-77.093	-0.234	0.083
-620.376	367.735	-0.091	0.187
-619.361	-200.000	0.002	-0.023
-618.346	76.901	-0.167	-0.180
-617.332	800.000	-0.079	-0.249
-616.317	-200.000	-0.007	-0.254
-615.303	115.429	0.177	-0.220
-614.288	43.737	0.286	-0.267
-613.273	178.340	0.111	-0.165
-612.259	-26.518	-0.425	0.253
-611.244	13.824	-0.317	-0.251
-610.230	165.365	-0.115	0.166
-609.215	800.000	-0.064	-0.209
-608.201	-148.443	0.105	0.009
-607.186	-31.468	-0.096	0.055
-606.171	89.697	0.184	-0.209
-605.157	-158.540	0.280	0.016
-604.142	-200.000	-0.046	-0.216
-603.128	-200.000	-0.031	0.178
-602.113	-200.000	-0.005	-0.090
-601.098	-200.000	0.004	-0.064
-600.084	368.583	0.058	0.119
-599.069	258.001	-0.168	-0.294
-598.055	-168.354	0.251	0.010
-597.040	440.279	0.103	0.228
-596.025	-200.000	0.014	0.180
-595.011	13.555	-0.165	-0.130
-593.996	-69.154	0.154	-0.060
-592.982	-89.930	0.084	0.025
-591.967	-200.000	-0.023	-0.373
-590.952	-18.129	0.277	-0.176
-589.938	-183.513	-0.187	0.003
-588.923	65.171	0.215	-0.221
-587.909	301.579	0.066	-0.124
-586.894	-19.735	0.115	0.072
-585.879	-179.090	-0.268	0.006
-584.865	-200.000	0.011	-0.130
-583.850	-115.384	0.157	0.030
-582.836	800.000	0.045	-0.174
-581.821	136.855	-0.125	-0.166
-580.806	-49.420	-0.176	-0.085
-579.792	-2.456	0.281	0.200
-578.777	525.378	0.155	-0.371
-577.763	-70.146	0.142	-0.055
-576.748	63.936	0.095	0.097
-575.733	-1.972	-0.326	0.233
-574.719	176.106	0.150	-0.221
-573.704	-26.428	0.044	0.026
-572.690	63.706	0.114	-0.116
-571.675	-181.143	0.292	-0.006
-570.661	377.197	0.088	0.183
-569.646	-200.000	-0.021	0.205
-568.631	-63.156	-0.099	-0.041
-567.617	-90.796	0.232	-0.068
-566.602	800.000	-0.050	-0.183
-565.588	18.155	0.204	-0.165
-564.573	390.666	0.061	-0.129
-563.558	-56.687	-0.141	-0.063
-562.544	-164.411	0.052	-0.002
-561.529	60.812	-0.117	-0.118
-560.515	-59.674	0.211	0.092
-559.500	-132.078	-0.402	-0.053
-558.485	-152.810	0.277	0.020
-557.471	-140.522	-0.076	0.008
-556.456	3.286	-0.165	-0.122
-555.442	-46.543	0.061	0.030
-554.427	-200.000	-0.031	-0.159
-553.412	-200.000	-0.004	-0.049
-552.398	87.466	0.222	-0.250
-551.383	419.648	-0.149	0.324
-550.369	-65.364	0.222	-0.091
-549.354	-200.000	-0.004	0.094
-548.339	-88.497	-0.409	0.124
-547.325	-71.690	-0.190	-0.072
-546.310	61.558	0.262	-0.264
-545.296	800.000	-0.063	-0.190
-544.281	800.000	-0.073	-0.270
-543.266	800.000	-0.075	-0.294
-542.252	448.061	-0.079	0.176
-541.237	-19.362	-0.242	-0.152
-540.223	800.000	-0.066	-0.187
-539.208	16.018	-0.194	-0.155
-538.193	-111.546	-0.199	-0.041
-537.179	-200.000	0.004	-0.082
-536.164	-55.762	0.144	0.065
-535.150	-105.778	0.091	-0.021
-534.135	-133.105	-0.151	0.019
-533.121	800.000	0.038	-0.112
-532.106	-200.000	0.002	-0.372
-531.091	-5.884	-0.345	0.239
-530.077	-97.614	-0.452	0.119
-529.062	183.615	-0.148	-0.222
-528.048	252.544	-0.137	-0.237
-527.033	98.616	-0.180	0.211
-526.018	-196.478	-0.294	0.002
-525.004	-173.871	0.291	-0.009
-523.989	-200.000	-0.020	0.230
-522.975	-113.926	0.113	0.022
-521.960	64.206	-0.190	-0.194
-520.945	426.332	-0.115	-0.250
-519.931	-200.000	0.020	0.171
-518.916	164.093	-0.071	-0.101
-517.902	-82.712	0.329	0.108
-516.887	-200.000	-0.011	0.260
-515.872	144.470	0.081	0.109
-514.858	800.000	0.087	-0.283
-513.843	201.245	0.160	-0.249
-512.829	-35.914	-0.141	0.077
-511.814	-200.000	0.034	-0.231
-510.799	800.000	0.080	0.310
-509.785	-32.995	-0.104	0.059
-508.770	558.012	0.036	-0.088
-507.756	-29.273	-0.317	-0.184
-506.741	-129.478	-0.219	-0.031
-505.726	-57.470	-0.193	0.086
-504.712	-59.667	0.158	0.068
-503.697	800.000	-0.049	-0.173
-502.683	61.233	-0.011	0.011
-501.668	102.443	0.171	-0.203
-500.653	-50.901	-0.052	-0.025
-499.639	55.146	0.149	0.146
-498.624	203.551	-0.094	0.147
-497.610	117.164	-0.129	0.160
-496.595	-200.000	-0.009	-0.224
-495.581	-29.215	-0.443	-0.257
-494.566	102.946	0.159	-0.189
-493.551	26.227	0.054	-0.045
-492.537	-200.000	-0.022	-0.164
-491.522	-200.000	0.031	0.332
-490.508	625.178	-0.111	0.283
-489.493	800.000	-0.113	0.384
-488.478	-115.057	-0.079	0.015
-487.464	-35.252	0.251	0.138
-486.449	113.251	-0.126	0.155
-485.435	-93.031	0.076	0.021
-484.420	-90.573	-0.212	0.062
-483.405	-26.112	0.228	-0.136
-482.391	800.000	-0.057	-0.168
-481.376	800.000	0.078	-0.344
-480.362	-117.766	-0.340	-0.062
-479.347	209.092	-0.188	0.297
-478.332	-32.544	0.368	0.208
-477.318	-124.873	-0.023	0.004
-476.303	89.139	0.205	0.231
-475.289	-16.815	0.266	0.170
-474.274	591.046	0.012	-0.031
-473.259	-200.000	-0.009	0.254
-472.245	5.974	0.168	-0.126
-471.230	-70.286	-0.078	0.030
-470.216	5.155	0.146	-0.109
-469.201	-102.172	0.213	0.052
-468.186	-3.234	-0.302	-0.213
-467.172	316.032	0.204	-0.390
-466.157	-24.275	-0.169	-0.102
-465.143	-82.975	0.284	-0.093
-464.128	98.315	0.122	-0.142
-463.113	-67.517	0.126	0.050
-462.099	-143.706	-0.253	0.024
-461.084	299.400	-0.141	0.262
-460.070	-200.000	-0.021	-0.150
-459.055	-200.000	-0.013	0.068
-458.040	-19.933	-0.188	0.117
-457.026	394.045	0.055	-0.116
-456.011	239.071	-0.197	0.331
-454.997	320.684	0.164	-0.314
-453.982	800.000	0.094	-0.345
-452.968	-184.632	0.195	-0.003
-451.953	-84.516	-0.142	-0.045
-450.938	37.894	0.094	0.084
-449.924	-122.774	-0.049	0.008
-448.909	-18.241	0.266	-0.168
-447.895	-200.000	0.025	-0.259
-446.880	-29.210	0.504	0.292
-445.865	30.673	-0.131	0.113
-444.851	3.184	-0.284	0.209
-443.836	86.189	0.117	-0.130
-442.822	-85.802	0.111	0.035
-441.807	25.226	-0.062	-0.052
-440.792	800.000	-0.029	0.126
-439.778	30.903	0.282	-0.244
-438.763	-200.000	0.035	-0.268
-437.749	-77.578	-0.240	0.084
-436.734	-66.143	-0.331	-0.133
-435.719	193.604	0.056	0.086
-434.705	65.409	0.076	-0.077
-433.690	-200.000	0.041	-0.394
-432.676	800.000	0.084	0.270
-431.661	230.787	0.081	0.134
-430.646	-73.399	-0.207	0.076
-429.632	-39.766	-0.141	0.074
-428.617	-200.000	0.030	0.197
-427.603	-96.533	-0.123	-0.033
-426.588	800.000	-0.045	-0.158
-425.573	-109.853	0.155	-0.033
-424.559	-20.607	-0.056	-0.034
-423.544	-100.906	0.470	0.117
-422.530	735.265	-0.115	0.310
-421.515	-200.000	0.003	-0.147
-420.500	0.283	-0.292	0.211
-419.486	-163.416	-0.135	-0.006
-418.471	-83.682	-0.110	-0.035
-417.457	-50.480	0.152	-0.072
-416.442	164.726	-0.139	-0.198
-415.428	110.674	-0.347	0.421
-414.413	176.927	-0.222	-0.326
-413.398	506.003	0.172	-0.403
-412.384	27.038	0.054	0.045
-411.369	278.356	-0.095	0.171
-410.355	-55.422	0.609	-0.276
-409.340	191.201	-0.211	-0.321
-408.325	562.147	0.083	0.203
-407.311	-189.772	0.178	-0.002
-406.296	229.281	-0.031	-0.051
-405.282	-200.000	0.027	0.416
-404.267	-126.062	-0.231	-0.035
-403.252	-200.000	-0.002	-0.249
-402.238	-200.000	0.080	0.433
-401.223	62.791	0.132	0.133
-400.209	-12.748	0.075	-0.049
-399.194	-38.613	-0.092	0.049
-398.179	641.626	0.121	0.311
-397.165	47.356	0.275	0.258
-396.150	35.223	0.140	0.124
-395.136	-188.717	-0.242	0.003
-394.121	304.534	-0.015	0.028
-393.106	800.000	0.076	-0.261
-392.092	7.317	0.206	0.155
-391.077	800.000	0.046	0.173
-390.063	234.894	-0.071	-0.118
-389.048	-142.882	-0.162	0.016
-388.033	130.932	-0.153	0.199
-387.019	-200.000	-0.015	0.093
-386.004	-200.000	-0.037	-0.303
-384.990	-70.557	0.069	-0.026
-383.975	-200.000	-0.008	0.115
-382.960	-84.261	0.077	-0.024
-381.946	-135.283	0.411	-0.050
-380.931	80.649	-0.172	-0.187
-379.917	-96.042	0.025	0.007
-378.902	-151.278	-0.253	0.019
-377.888	49.529	-0.056	-0.053
-376.873	-92.244	0.190	0.054
-375.858	-200.000	0.030	0.318
-374.844	-95.094	0.165	-0.045
-373.829	-28.632	-0.283	-0.164
-372.815	-200.000	0.037	-0.286
-371.800	10.795	-0.216	0.166
-370.785	800.000	0.016	-0.050
-369.771	408.228	0.062	-0.133
-368.756	-131.411	0.100	0.013
-367.742	-61.928	-0.330	-0.139
-366.727	-200.000	0.003	-0.047
-365.712	-200.000	0.067	0.330
-364.698	93.392	0.300	0.342
-363.683	55.939	0.094	0.092
-362.669	-50.205	0.169	-0.081
-361.654	107.634	0.364	-0.436
-360.639	-7.852	-0.046	0.031
-359.625	-200.000	-0.043	-0.275
-358.610	19.556	-0.173	-0.140
-357.596	-37.603	0.250	-0.134
-356.581	800.000	-0.099	0.372
-355.566	5.683	0.257	-0.191
-354.552	-11.145	-0.035	-0.023
-353.537	800.000	0.103	0.292
-352.523	60.102	-0.167	0.166
-351.508	-200.000	-0.004	0.144
-350.493	-3.946	0.168	-0.117
-349.479	69.487	-0.121	-0.125
-348.464	-109.261	0.063	-0.013
-347.450	10.352	0.218	0.167
-346.435	800.000	-0.057	0.217
-345.420	415.913	0.079	0.170
-344.406	-93.393	-0.156	-0.043
-343.391	-124.995	-0.090	0.014
-342.377	-200.000	-0.024	0.187
-341.362	574.142	-0.121	-0.298
-340.348	38.742	-0.084	-0.076
-339.333	800.000	-0.023	-0.072
-338.318	-153.140	0.315	-0.022
-337.304	683.542	-0.088	0.231
-336.289	-200.000	0.025	0.152
-335.275	-200.000	-0.285	0.000
-334.260	53.971	-0.173	0.167
-333.245	-95.255	0.230	-0.062
-332.231	-200.000	-0.026	0.178
-331.216	599.753	0.045	-0.112
-330.202	-107.428	-0.150	-0.033
-329.187	-38.034	-0.195	0.104
-328.172	-119.666	-0.216	-0.037
-327.158	-129.352	-0.166	-0.023
-326.143	279.743	0.114	0.204
-325.129	800.000	0.045	-0.185
-324.114	-110.840	0.335	-0.069
-323.099	26.240	-0.092	-0.077
-322.085	-75.513	0.223	-0.080
-321.070	18.703	0.142	-0.114
-320.056	-200.000	0.038	0.208
-319.041	-112.265	-0.306	0.062
-318.026	800.000	0.052	0.192
-317.012	-151.912	-0.411	0.030
-315.997	297.495	0.114	-0.211
-314.983	481.102	0.061	0.140
-313.968	44.951	0.345	-0.320
-312.953	-99.882	-0.232	-0.058
-311.939	-12.866	-0.121	-0.079
-310.924	-200.000	0.051	0.235
-309.910	421.286	0.211	-0.454
-308.895	83.066	0.142	-0.155
-307.880	-136.886	0.361	-0.042
-306.866	-200.000	0.005	-0.343
-305.851	114.694	0.206	0.252
-304.837	800.000	0.099	0.349
-303.822	-22.814	-0.259	0.157
-302.807	24.243	0.273	-0.226
-301.793	-71.085	0.176	0.067
-300.778	-29.600	-0.241	-0.138
-299.764	-99.950	0.180	-0.045
-298.749	-67.723	0.266	-0.105
-297.735	32.035	0.100	-0.087
-296.720	-139.228	0.125	-0.014
-295.705	-48.031	-0.283	-0.138
-294.691	-77.488	-0.190	0.066
-293.676	-78.417	0.192	0.066
-292.662	-200.000	-0.043	0.347
-291.647	-200.000	-0.007	0.109
-290.632	14.878	0.110	-0.086
-289.618	800.000	0.067	-0.234
-288.603	31.092	0.089	0.077
-287.589	800.000	-0.062	0.266
-286.574	-200.000	-0.046	-0.441
-285.559	800.000	-0.130	0.429
-284.545	-132.914	0.267	-0.034
-283.530	-173.672	-0.227	-0.007
-282.516	-107.300	-0.079	0.017
-281.501	53.376	0.103	0.099
-280.486	344.242	-0.124	0.244
-279.472	-67.516	-0.313	-0.123
-278.457	103.594	0.059	-0.070
-277.443	0.393	-0.005	0.004
-276.428	-181.112	-0.099	-0.002
-275.413	-44.207	0.308	0.155
-274.399	131.206	-0.119	0.154
-273.384	7.934	0.376	0.283
-272.370	-60.123	-0.260	0.111
-271.355	248.857	0.113	-0.193
-270.340	-128.748	-0.313	-0.044
-269.326	-98.677	0.376	-0.096
-268.311	61.535	-0.172	0.172
-267.297	-19.275	0.154	0.096
-266.282	-135.167	-0.200	-0.024
-265.267	-103.202	-0.171	-0.041
-264.253	-200.000	-0.033	-0.373
-263.238	-84.088	0.180	-0.057
-262.224	770.730	0.052	-0.143
-261.209	-123.612	0.307	-0.049
-260.195	446.719	0.054	0.119
-259.180	800.000	0.135	-0.487
-258.165	189.147	-0.221	0.333
-257.151	-200.000	0.001	0.105
-256.136	-200.000	0.055	-0.270
-255.122	112.522	0.114	0.138
-254.107	-88.044	-0.098	0.029
-253.092	290.874	-0.163	-0.297
-252.078	105.918	0.123	-0.145
-251.063	18.351	-0.116	0.093
-250.049	521.570	0.110	-0.259
-249.034	59.445	-0.119	0.118
-248.019	-101.707	0.068	0.017
-247.005	800.000	0.105	0.341
-245.990	185.097	-0.180	-0.268
-244.976	-200.000	0.053	-0.324
-243.961	50.893	0.121	-0.115
-242.946	249.981	0.180	0.307
-241.932	-200.000	0.004	0.197
-240.917	-200.000	-0.009	-0.054
-239.903	197.087	0.144	0.220
-238.888	-88.819	0.206	0.061
-237.873	149.090	0.119	0.161
-236.859	-163.651	0.164	0.008
-235.844	-173.638	-0.175	-0.005
-234.830	-82.783	-0.059	-0.019
-233.815	19.783	-0.042	-0.034
-232.800	-121.337	0.108	0.018
-231.786	800.000	0.052	-0.202
-230.771	122.277	0.092	-0.115
-229.757	-200.000	0.001	0.308
-228.742	-39.135	0.331	0.175
-227.727	-41.530	0.264	0.136
-226.713	-147.361	-0.325	0.028
-225.698	-2.804	-0.052	0.036
-224.684	-200.000	0.028	0.139
-223.669	256.895	-0.203	-0.349
-222.655	96.005	-0.205	-0.234
-221.640	-200.000	-0.009	0.274
-220.625	-52.546	0.233	0.108
-219.611	-94.858	0.202	-0.055
-218.596	57.585	-0.213	0.208
-217.582	-46.880	0.248	0.122
-216.567	-200.000	0.000	0.064
-215.552	-200.000	-0.047	0.223
-214.538	278.564	-0.137	-0.244
-213.523	-5.586	0.476	0.327
-212.509	508.664	0.064	0.149
-211.494	-118.368	-0.157	-0.028
-210.479	-200.000	-0.003	0.046
-209.465	-108.930	-0.163	-0.035
-208.450	800.000	0.109	0.393
-207.436	-200.000	-0.062	0.296
-206.421	139.043	-0.197	-0.259
-205.406	-64.164	-0.256	0.105
-204.392	-76.647	-0.190	0.067
-203.377	579.323	-0.166	0.407
-202.363	91.528	0.051	0.057
-201.348	-163.040	0.354	-0.017
-200.333	-200.000	-0.001	0.045
-199.319	-125.695	-0.153	0.023
-198.304	-56.057	0.122	0.054
-197.290	-200.000	-0.064	-0.295
-196.275	625.939	0.039	0.100
-195.260	-200.000	-0.033	-0.228
-194.246	111.471	0.162	-0.195
-193.231	-200.000	-0.028	0.144
-192.217	781.783	-0.006	-0.016
-191.202	-30.076	-0.261	-0.148
-190.187	-200.000	0.018	-0.216
-189.173	342.270	-0.070	-0.136
-188.158	318.506	0.151	0.286
-187.144	8.021	-0.234	0.176
-186.129	220.017	0.160	0.256
-185.114	-24.968	0.362	-0.215
-184.100	-91.682	0.180	0.051
-183.085	433.423	0.192	0.417
-182.071	-200.000	0.063	0.323
-181.056	39.888	0.126	0.113
-180.042	285.881	0.135	0.244
-179.027	402.317	-0.126	0.264
-178.012	-200.000	-0.076	0.372
-176.998	-200.000	-0.059	0.261
-175.983	209.655	0.096	0.151
-174.969	-167.426	0.135	-0.005
-173.954	75.207	0.229	-0.242
-172.939	-60.863	-0.207	-0.088
-171.925	800.000	0.044	-0.157
-170.910	-137.363	0.196	0.022
-169.896	-41.945	0.111	0.057
-168.881	-128.268	-0.280	-0.040
-167.866	229.605	-0.060	-0.098
-166.852	-187.624	-0.119	0.002
-165.837	800.000	-0.049	0.162
-164.823	-58.649	0.354	0.153
-163.808	474.305	-0.203	0.457
-162.793	-79.764	-0.128	0.043
-161.779	800.000	0.117	-0.344
-160.764	61.982	0.058	0.057
-159.750	-27.514	-0.236	-0.137
-158.735	-90.495	0.170	0.049
-157.720	4.274	0.213	-0.156
-156.706	-76.814	-0.347	0.121
-155.691	-200.000	-0.000	0.234
-154.677	76.045	-0.193	0.204
-153.662	-155.293	0.274	0.018
-152.647	-78.414	0.263	-0.090
-151.633	11.570	-0.192	0.147
-150.618	192.542	0.126	-0.189
-149.604	800.000	0.094	-0.391
-148.589	-200.000	0.049	-0.242
-147.574	14.299	-0.284	0.221
-146.560	86.607	0.087	0.096
-145.545	-71.481	-0.194	0.072
-144.531	-171.587	0.392	-0.013
-143.516	31.854	0.350	-0.301
-142.502	487.687	0.012	0.028
-141.487	526.200	-0.009	-0.021
-140.472	-87.818	-0.256	0.077
-139.458	-57.561	-0.287	0.125
-138.443	-200.000	-0.025	-0.173
-137.429	526.399	0.056	-0.132
-136.414	800.000	0.096	-0.358
-135.399	-125.249	0.405	-0.062
-134.385	132.726	-0.268	-0.345
-133.370	-115.059	0.181	-0.034
-132.356	0.144	-0.060	0.043
-131.341	164.085	0.069	-0.097
-130.326	800.000	-0.023	-0.081
-129.312	-114.937	-0.076	-0.014
-128.297	-11.666	-0.281	0.184
-127.283	532.381	0.065	-0.152
-126.268	-128.436	-0.249	-0.035
-125.253	305.679	0.161	0.299
-124.239	197.530	-0.098	0.150
-123.224	-97.831	0.273	-0.070
-122.210	-200.000	0.051	0.265
