DTS Sentinel unit serial number:	SN413079Multiplexer serial number:	ORYXHardware model number:	OX4-SRSoftware version number:	ORYX F/W v4.00 Oryx Data Collector v3.7.2.0data status	okinstallation	princeton_trtdifferential loss correction	single-endedforward channel	channel 3reverse channel	N/Adate	2019/09/19time	04:08:35forward acquisition time	60.00reverse acquisition time	0.00gamma	496.2192k internal	0.2347k external	0.2347temperature offset calibration	0.9989default loss term (dB/km)	0.3790temperature slope calibration	1.0000multiplexer offset coefficient	1.0000multiplexer slope coefficient	1.0000fibre end	0.00T internal ref (°C)	20.37T ext. ref 1 (°C)	0.63T ext. ref 2 (°C)	13.90length (m)	temperature (°C)	Stokes	anti-Stokes-747.200	-44.523	0.351	0.175
-746.185	-200.000	-0.032	0.316
-745.171	-200.000	0.037	0.248
-744.156	-117.993	-0.232	0.041
-743.142	-60.836	0.178	-0.075
-742.127	-180.965	-0.321	-0.006
-741.112	12.017	0.113	0.087
-740.098	-200.000	-0.004	0.109
-739.083	-200.000	0.009	0.146
-738.069	24.215	-0.177	0.146
-737.054	-200.000	0.009	-0.111
-736.039	-17.280	0.109	-0.069
-735.025	344.202	0.058	0.115
-734.010	-80.592	0.130	-0.043
-732.996	190.850	-0.161	-0.243
-731.981	242.432	-0.084	-0.140
-730.966	85.435	-0.315	-0.346
-729.952	-33.791	0.309	-0.170
-728.937	130.743	-0.043	-0.055
-727.923	560.493	-0.079	0.190
-726.908	41.543	0.096	-0.087
-725.894	-43.244	0.087	0.044
-724.879	-34.062	-0.053	0.029
-723.864	800.000	0.063	-0.204
-722.850	800.000	-0.035	-0.121
-721.835	-200.000	-0.003	0.185
-720.821	161.291	0.053	-0.074
-719.806	-93.464	-0.179	-0.049
-718.791	71.115	-0.114	-0.118
-717.777	71.254	0.254	0.263
-716.762	-200.000	0.005	0.183
-715.748	-18.995	-0.108	-0.067
-714.733	0.258	0.245	-0.175
-713.718	522.781	0.159	-0.373
-712.704	-67.675	-0.184	-0.072
-711.689	261.372	0.115	0.200
-710.675	-10.170	-0.204	-0.136
-709.660	-18.336	-0.132	-0.082
-708.645	-83.177	0.272	-0.087
-707.631	-6.394	-0.052	-0.035
-706.616	343.236	-0.174	-0.341
-705.602	-200.000	0.050	0.311
-704.587	-200.000	-0.028	-0.278
-703.572	-14.709	-0.135	-0.087
-702.558	800.000	0.054	0.208
-701.543	-139.543	-0.140	-0.015
-700.529	800.000	-0.046	0.179
-699.514	800.000	-0.047	0.194
-698.499	-200.000	0.011	0.488
-697.485	-200.000	0.013	-0.156
-696.470	528.312	0.031	-0.072
-695.456	281.015	0.075	0.134
-694.441	100.996	-0.290	-0.336
-693.426	-66.795	0.219	0.086
-692.412	113.203	-0.193	-0.233
-691.397	800.000	-0.078	-0.270
-690.383	-200.000	0.010	-0.154
-689.368	-62.009	-0.238	-0.099
-688.354	23.775	0.025	-0.021
-687.339	160.313	-0.078	-0.108
-686.324	101.696	0.047	0.055
-685.310	-114.010	-0.112	0.022
-684.295	43.014	-0.052	-0.048
-683.281	-200.000	0.003	0.181
-682.266	347.156	-0.104	-0.205
-681.251	143.281	0.131	0.174
-680.237	-200.000	0.026	-0.257
-679.222	-102.757	0.294	0.070
-678.208	800.000	0.140	0.404
-677.193	-145.256	-0.234	-0.021
-676.178	-200.000	-0.012	-0.230
-675.164	-53.889	-0.120	0.054
-674.149	396.899	0.126	-0.262
-673.135	-200.000	0.074	-0.430
-672.120	110.135	0.097	0.117
-671.105	-26.290	0.129	0.075
-670.091	-103.077	-0.224	0.053
-669.076	-2.948	-0.246	-0.171
-668.062	-64.794	0.322	-0.130
-667.047	-200.000	0.001	-0.368
-666.032	-85.400	-0.265	0.082
-665.018	-77.411	0.344	0.119
-664.003	-46.857	-0.105	-0.051
-662.989	-36.976	0.207	-0.110
-661.974	648.485	-0.139	0.354
-660.959	-95.917	0.084	-0.022
-659.945	-200.000	-0.021	-0.287
-658.930	25.466	0.164	-0.136
-657.916	81.375	-0.132	-0.142
-656.901	-25.135	-0.229	-0.135
-655.886	800.000	-0.110	-0.447
-654.872	-16.791	-0.236	0.149
-653.857	-88.447	0.101	0.030
-652.843	-84.028	-0.351	-0.111
-651.828	108.131	-0.109	-0.130
-650.814	-119.056	-0.353	0.062
-649.799	234.215	0.074	0.121
-648.784	-138.614	0.326	-0.036
-647.770	120.950	0.099	-0.123
-646.755	-200.000	-0.053	-0.236
-645.741	29.434	-0.401	-0.340
-644.726	120.700	-0.067	-0.083
-643.711	301.926	-0.047	-0.087
-642.697	-144.273	0.132	0.012
-641.682	-53.425	-0.097	0.044
-640.668	464.231	0.056	-0.124
-639.653	647.262	0.059	0.151
-638.638	5.606	-0.231	-0.170
-637.624	394.415	-0.139	0.289
-636.609	65.831	0.135	0.136
-635.595	-2.974	0.140	-0.097
-634.580	533.971	-0.099	0.234
-633.565	18.077	-0.100	0.080
-632.551	-77.664	0.153	-0.053
-631.536	263.693	-0.108	-0.186
-630.522	-6.858	0.311	-0.210
-629.507	28.115	-0.152	0.128
-628.492	-200.000	0.039	-0.188
-627.478	-111.964	0.027	0.005
-626.463	-51.288	-0.025	-0.012
-625.449	134.231	0.316	-0.408
-624.434	-120.448	-0.276	-0.047
-623.419	45.951	-0.043	-0.040
-622.405	103.380	-0.221	0.258
-621.390	234.329	0.102	0.168
-620.376	610.661	-0.046	-0.113
-619.361	-77.638	0.106	-0.036
-618.346	-41.883	-0.156	-0.079
-617.332	-140.538	0.209	-0.022
-616.317	-133.961	0.128	-0.016
-615.303	98.448	-0.084	0.097
-614.288	-116.182	-0.496	0.092
-613.273	-52.865	0.098	0.045
-612.259	-200.000	-0.008	0.051
-611.244	104.946	0.152	0.178
-610.230	29.974	-0.025	0.022
-609.215	800.000	0.097	-0.365
-608.201	-103.174	-0.428	-0.101
-607.186	268.455	-0.065	-0.112
-606.171	-200.000	-0.014	0.139
-605.157	49.993	0.313	-0.293
-604.142	-136.676	-0.298	-0.034
-603.128	161.296	-0.218	-0.303
-602.113	92.750	-0.221	-0.248
-601.098	-4.315	-0.164	0.113
-600.084	-200.000	-0.067	-0.300
-599.069	-200.000	-0.003	0.240
-598.055	34.929	0.194	-0.169
-597.040	178.057	-0.151	0.219
-596.025	6.944	-0.143	0.106
-595.011	-200.000	0.040	0.288
-593.996	-116.727	0.281	0.051
-592.982	222.254	0.094	0.150
-591.967	-137.856	0.178	0.020
-590.952	-18.688	-0.403	-0.249
-589.938	191.166	-0.068	-0.102
-588.923	259.396	-0.173	-0.297
-587.909	800.000	0.010	-0.030
-586.894	-200.000	-0.041	-0.289
-585.879	-96.688	0.185	0.048
-584.865	-103.903	0.239	-0.055
-583.850	800.000	-0.072	-0.250
-582.836	306.360	-0.051	-0.094
-581.821	247.307	0.011	0.018
-580.806	-200.000	-0.032	-0.367
-579.792	324.484	0.055	0.104
-578.777	144.892	0.170	0.225
-577.763	564.562	0.059	-0.142
-576.748	800.000	0.050	-0.196
-575.733	800.000	-0.153	-0.481
-574.719	-117.684	-0.303	-0.054
-573.704	-25.392	0.208	0.122
-572.690	258.928	0.028	-0.048
-571.675	-99.211	-0.447	-0.112
-570.661	-200.000	0.011	0.201
-569.646	-200.000	0.026	0.255
-568.631	217.899	-0.210	-0.333
-567.617	33.483	-0.172	-0.148
-566.602	-150.064	-0.513	0.040
-565.588	-200.000	-0.054	0.241
-564.573	-17.439	-0.391	-0.244
-563.558	-2.562	0.208	0.145
-562.544	-49.430	-0.411	0.194
-561.529	44.510	0.221	-0.202
-560.515	-120.435	0.125	-0.021
-559.500	-168.871	0.069	0.003
-558.485	88.977	0.179	0.198
-557.471	800.000	0.081	0.308
-556.456	800.000	0.054	-0.225
-555.442	-125.617	0.544	0.082
-554.427	96.459	-0.111	0.126
-553.412	800.000	-0.080	-0.274
-552.398	347.763	0.029	0.057
-551.383	89.385	-0.151	0.167
-550.369	708.341	-0.131	0.344
-549.354	196.302	-0.250	0.377
-548.339	41.257	-0.149	-0.134
-547.325	-123.500	0.130	-0.021
-546.310	375.759	-0.178	0.361
-545.296	-200.000	0.017	-0.439
-544.281	535.399	0.135	0.317
-543.266	-152.150	-0.238	-0.017
-542.252	-98.848	0.203	0.051
-541.237	800.000	-0.127	0.428
-540.223	-62.472	0.283	0.117
-539.208	39.710	0.174	-0.155
-538.193	105.977	-0.172	0.202
-537.179	-49.891	0.147	0.069
-536.164	-200.000	-0.004	-0.188
-535.150	-200.000	-0.033	0.461
-534.135	60.771	-0.196	0.193
-533.121	-107.923	-0.369	-0.080
-532.106	-126.540	0.236	-0.035
-531.091	-200.000	0.026	-0.214
-530.077	-200.000	0.069	-0.371
-529.062	-70.169	0.045	0.017
-528.048	299.670	-0.023	0.042
-527.033	-200.000	0.015	-0.081
-526.018	800.000	0.036	-0.123
-525.004	-30.939	0.125	-0.070
-523.989	27.914	0.154	-0.129
-522.975	147.232	-0.133	-0.178
-521.960	-95.367	0.187	0.050
-520.945	-52.740	0.200	-0.091
-519.931	273.520	-0.139	0.243
-518.916	-200.000	-0.026	0.169
-517.902	305.190	0.176	0.325
-516.887	-108.202	-0.187	-0.040
-515.872	-170.045	-0.207	0.007
-514.858	-117.235	-0.174	0.031
-513.843	49.864	-0.191	-0.178
-512.829	-49.017	-0.407	0.193
-511.814	1.900	-0.382	-0.273
-510.799	-19.855	0.069	-0.042
-509.785	-105.140	0.104	-0.024
-508.770	-200.000	0.059	0.318
-507.756	-49.022	0.205	0.097
-506.741	137.523	0.055	0.071
-505.726	-66.535	-0.366	-0.144
-504.712	-62.692	0.534	0.219
-503.697	800.000	0.023	0.095
-502.683	-44.301	-0.333	-0.165
-501.668	340.642	0.121	0.234
-500.653	800.000	-0.097	-0.366
-499.639	-11.066	-0.183	-0.119
-498.624	-200.000	0.051	-0.272
-497.610	-166.233	-0.071	0.003
-496.595	448.651	-0.126	-0.274
-495.581	-200.000	-0.013	-0.253
-494.566	148.770	0.154	0.206
-493.551	445.170	-0.087	0.190
-492.537	-200.000	-0.089	0.395
-491.522	-200.000	-0.007	0.141
-490.508	-131.185	-0.317	-0.042
-489.493	206.009	0.136	0.210
-488.478	82.695	-0.180	-0.193
-487.464	-177.790	0.335	-0.008
-486.449	-200.000	-0.045	-0.288
-485.435	-114.526	0.130	-0.025
-484.420	-112.458	-0.043	0.009
-483.405	800.000	0.167	-0.467
-482.391	25.096	0.276	0.227
-481.376	-114.756	0.280	0.053
-480.362	-200.000	-0.010	0.070
-479.347	-200.000	-0.038	-0.261
-478.332	-134.665	-0.190	-0.023
-477.318	-99.795	0.298	0.074
-476.303	66.418	0.123	-0.123
-475.289	-120.577	-0.278	0.047
-474.274	-10.295	0.081	0.053
-473.259	-93.399	-0.235	0.064
-472.245	-200.000	-0.011	0.190
-471.230	-99.278	-0.144	-0.036
-470.216	-27.701	0.140	-0.081
-469.201	-84.356	-0.422	0.132
-468.186	139.069	-0.107	-0.139
-467.172	57.564	0.044	-0.043
-466.157	-90.501	-0.146	-0.042
-465.143	-130.066	-0.249	-0.034
-464.128	-153.536	-0.270	0.018
-463.113	-142.897	-0.280	-0.027
-462.099	274.395	-0.106	0.185
-461.084	-167.426	-0.199	0.008
-460.070	91.905	0.040	0.044
-459.055	-99.758	-0.128	-0.032
-458.040	-125.180	0.289	0.044
-457.026	336.562	0.031	-0.060
-456.011	-200.000	-0.012	0.134
-454.997	47.580	-0.063	-0.058
-453.982	0.466	-0.198	-0.140
-452.968	-200.000	-0.021	-0.308
-451.953	10.772	-0.156	0.118
-450.938	-141.850	0.129	0.013
-449.924	54.081	-0.211	-0.201
-448.909	374.796	0.068	-0.137
-447.895	240.607	0.166	0.274
-446.880	-200.000	-0.031	0.241
-445.865	520.641	0.040	0.092
-444.851	1.091	0.233	0.165
-443.836	70.813	-0.182	0.186
-442.822	-50.406	0.348	0.162
-441.807	-96.652	-0.284	-0.074
-440.792	434.215	-0.116	0.249
-439.778	285.707	0.036	0.064
-438.763	-17.258	-0.254	-0.158
-437.749	800.000	0.086	0.289
-436.734	-95.167	-0.101	0.027
-435.719	-13.729	-0.067	0.043
-434.705	-12.386	-0.142	0.091
-433.690	-99.595	-0.079	-0.020
-432.676	800.000	-0.044	0.165
-431.661	257.878	-0.069	0.117
-430.646	439.078	0.147	0.317
-429.632	499.831	-0.069	-0.157
-428.617	134.713	-0.151	0.194
-427.603	66.974	0.162	0.163
-426.588	-43.243	0.053	-0.027
-425.573	-61.468	0.156	0.065
-424.559	-162.427	-0.357	-0.017
-423.544	285.688	-0.044	-0.079
-422.530	61.686	-0.051	-0.050
-421.515	57.383	0.134	-0.129
-420.500	318.972	0.118	-0.221
-419.486	800.000	0.088	-0.345
-418.471	109.193	0.266	-0.315
-417.457	685.517	0.041	0.104
-416.442	-200.000	0.000	0.017
-415.428	800.000	-0.020	-0.082
-414.413	208.341	0.132	-0.204
-413.398	-91.841	0.066	0.018
-412.384	7.219	-0.240	-0.177
-411.369	239.062	0.126	-0.206
-410.355	-28.605	-0.114	-0.065
-409.340	-200.000	0.005	0.302
-408.325	-200.000	-0.028	0.130
-407.311	-4.394	-0.126	0.086
-406.296	-200.000	-0.017	0.210
-405.282	151.067	0.082	0.110
-404.267	-136.209	0.079	0.009
-403.252	-94.140	0.239	0.065
-402.238	94.272	0.191	-0.214
-401.223	128.227	0.158	-0.199
-400.209	149.775	0.065	0.087
-399.194	26.701	0.153	0.126
-398.179	-185.335	-0.275	0.004
-397.165	-200.000	0.029	-0.464
-396.150	89.320	0.015	0.017
-395.136	98.792	0.129	0.147
-394.121	142.037	-0.107	0.140
-393.106	-24.810	-0.365	0.214
-392.092	351.897	-0.040	0.078
-391.077	-83.256	0.159	-0.050
-390.063	-48.676	-0.325	-0.154
-389.048	-106.089	0.044	0.010
-388.033	-127.159	0.287	-0.041
-387.019	-200.000	-0.006	0.083
-386.004	-160.764	0.284	-0.015
-384.990	142.058	0.138	-0.181
-383.975	800.000	-0.052	0.184
-382.960	352.494	-0.104	0.204
-381.946	340.583	-0.106	0.204
-380.931	-109.355	-0.168	-0.035
-379.917	-15.647	0.111	0.070
-378.902	-200.000	-0.067	-0.293
-377.888	-8.043	0.204	-0.135
-376.873	-159.418	0.279	-0.015
-375.858	800.000	0.022	-0.070
-374.844	122.747	0.230	0.284
-373.829	-200.000	-0.013	-0.219
-372.815	-95.311	0.281	-0.075
-371.800	498.508	-0.145	-0.328
-370.785	35.829	0.063	-0.055
-369.771	473.663	0.123	-0.273
-368.756	-87.380	-0.142	0.042
-367.742	164.754	0.058	0.081
-366.727	-92.806	0.358	0.099
-365.712	800.000	0.155	0.424
-364.698	407.028	-0.182	-0.379
-363.683	83.979	0.162	0.174
-362.669	-132.018	0.244	-0.031
-361.654	-200.000	0.025	0.168
-360.639	47.325	-0.170	0.156
-359.625	81.593	-0.162	0.173
-358.610	-91.024	-0.164	0.046
-357.596	442.708	-0.053	0.115
-356.581	-200.000	-0.018	0.133
-355.566	-24.946	0.295	0.172
-354.552	29.968	-0.214	0.180
-353.537	-56.133	-0.093	-0.041
-352.523	168.293	-0.105	-0.147
-351.508	-117.456	-0.288	0.051
-350.493	-67.075	-0.219	0.085
-349.479	-76.186	0.420	-0.146
-348.464	793.503	-0.037	0.099
-347.450	800.000	0.042	0.121
-346.435	-98.738	-0.188	0.047
-345.420	33.716	-0.377	-0.323
-344.406	128.745	0.073	-0.092
-343.391	29.980	-0.248	-0.208
-342.377	-34.047	-0.125	0.068
-341.362	20.639	0.343	0.273
-340.348	800.000	0.083	-0.256
-339.333	473.182	-0.140	-0.311
-338.318	-31.308	-0.094	-0.052
-337.304	-200.000	-0.004	0.194
-336.289	229.114	-0.250	-0.401
-335.275	-131.048	0.303	-0.040
-334.260	-140.040	-0.085	0.009
-333.245	274.237	0.153	-0.266
-332.231	-59.467	0.291	0.123
-331.216	800.000	0.044	0.185
-330.202	-28.535	0.267	-0.151
-329.187	50.852	-0.134	0.125
-328.172	520.447	0.044	0.100
-327.158	4.352	0.147	-0.106
-326.143	-45.026	-0.350	-0.171
-325.129	94.493	-0.034	-0.038
-324.114	-141.168	0.225	0.023
-323.099	-166.875	0.133	0.005
-322.085	-200.000	-0.069	-0.305
-321.070	-66.744	-0.214	0.083
-320.056	-36.493	0.116	-0.062
-319.041	15.697	0.192	0.149
-318.026	-87.907	-0.339	0.100
-317.012	-200.000	0.041	0.283
-315.997	50.252	0.317	-0.294
-314.983	-23.496	0.237	-0.140
-313.968	206.216	-0.218	-0.334
-312.953	12.069	-0.192	-0.145
-311.939	800.000	-0.034	0.099
-310.924	83.948	-0.094	0.101
-309.910	293.709	-0.139	0.250
-308.895	86.318	0.289	0.313
-307.880	145.936	-0.091	0.119
-306.866	-151.613	-0.090	0.007
-305.851	314.713	0.139	-0.258
-304.837	48.969	-0.201	-0.185
-303.822	-7.218	0.125	0.083
-302.807	-200.000	0.033	-0.316
-301.793	15.662	0.192	0.148
-300.778	-11.323	-0.341	-0.221
-299.764	-188.135	-0.348	0.004
-298.749	-200.000	-0.019	0.220
-297.735	800.000	-0.067	0.224
-296.720	-200.000	0.008	0.064
-295.705	-41.681	-0.312	0.157
-294.691	205.717	0.122	-0.186
-293.676	-200.000	0.058	0.360
-292.662	-85.880	0.336	-0.102
-291.647	-35.787	0.169	-0.090
-290.632	-52.539	-0.358	-0.162
-289.618	130.800	0.299	0.377
-288.603	-200.000	-0.022	0.161
-287.589	800.000	-0.079	-0.238
-286.574	-104.153	0.008	-0.002
-285.559	800.000	0.066	-0.202
-284.545	152.031	0.129	0.172
-283.530	624.360	-0.074	-0.184
-282.516	143.662	0.075	0.098
-281.501	-200.000	-0.009	-0.209
-280.486	-200.000	-0.007	-0.138
-279.472	-36.186	0.223	0.118
-278.457	154.740	0.266	0.359
-277.443	-28.322	-0.105	0.060
-276.428	-100.256	-0.145	0.035
-275.413	-78.983	0.291	0.097
-274.399	-34.596	0.110	0.059
-273.384	100.362	-0.314	0.358
-272.370	228.892	-0.031	0.049
-271.355	-200.000	0.001	0.029
-270.340	48.679	0.153	0.141
-269.326	349.412	-0.124	0.241
-268.311	-200.000	0.004	-0.064
-267.297	163.665	-0.087	0.119
-266.282	-200.000	-0.009	0.191
-265.267	118.014	0.122	0.148
-264.253	-200.000	0.002	-0.121
-263.238	-148.807	-0.415	-0.033
-262.224	-95.266	0.204	-0.054
-261.209	800.000	-0.047	0.148
-260.195	-36.099	0.422	0.224
-259.180	431.958	0.041	0.087
-258.165	234.898	0.110	0.178
-257.151	800.000	0.059	-0.243
-256.136	-110.009	-0.382	0.078
-255.122	-200.000	0.037	-0.406
-254.107	170.522	0.186	-0.261
-253.092	-80.571	0.159	-0.052
-252.078	-119.237	0.259	0.044
-251.063	72.318	0.369	-0.376
-250.049	432.900	-0.151	-0.320
-249.034	-200.000	-0.031	0.276
-248.019	-38.778	0.036	0.019
-247.005	-138.179	0.043	-0.005
-245.990	68.060	0.041	-0.041
-244.976	-200.000	0.014	-0.196
-243.961	52.199	0.176	-0.165
-242.946	-34.938	0.213	-0.114
-241.932	-43.849	-0.465	0.229
-240.917	-92.978	-0.271	-0.074
-239.903	-156.403	0.072	-0.004
-238.888	243.439	-0.042	-0.069
-237.873	3.479	-0.154	-0.110
-236.859	-200.000	0.023	0.541
-235.844	-74.815	-0.187	0.066
-234.830	132.856	0.191	0.241
-233.815	-61.494	0.095	-0.039
-232.800	-200.000	-0.005	0.163
-231.786	-96.145	0.170	-0.044
-230.771	89.486	0.085	-0.093
-229.757	48.205	0.368	0.337
-228.742	46.972	0.203	0.185
-227.727	297.139	0.086	0.155
-226.713	119.988	-0.156	0.190
-225.698	25.262	0.073	0.059
-224.684	40.852	0.142	-0.126
-223.669	-200.000	-0.081	0.430
-222.655	-80.761	-0.136	-0.044
-221.640	413.873	0.023	-0.047
-220.625	-72.668	0.196	0.071
-219.611	-130.872	-0.241	0.032
-218.596	-86.486	0.248	-0.075
-217.582	-200.000	0.008	0.062
-216.567	-79.783	-0.208	-0.068
-215.552	189.334	0.205	-0.301
-214.538	60.139	0.344	-0.333
-213.523	306.134	0.096	-0.174
-212.509	304.248	-0.083	-0.150
-211.494	91.113	0.104	0.115
-210.479	-200.000	-0.002	0.062
-209.465	-145.103	-0.100	-0.009
-208.450	800.000	0.026	-0.094
-207.436	-200.000	0.039	-0.232
-206.421	-200.000	-0.008	-0.296
-205.406	800.000	-0.025	0.094
-204.392	-144.978	-0.308	0.027
-203.377	443.726	0.049	-0.104
-202.363	-146.973	0.216	-0.018
-201.348	-55.845	-0.281	-0.123
-200.333	-60.357	-0.382	0.159
-199.319	532.228	-0.040	-0.094
-198.304	103.380	0.085	0.098
-197.290	-200.000	0.014	-0.210
-196.275	-57.999	0.472	0.201
-195.260	157.887	0.056	0.076
-194.246	-143.558	0.194	-0.018
-193.231	117.606	-0.128	0.154
-192.217	-48.497	0.155	-0.073
-191.202	-46.263	-0.229	0.110
-190.187	3.525	0.315	0.224
-189.173	530.640	-0.081	-0.186
-188.158	-70.428	0.237	0.088
-187.144	-28.393	0.059	-0.033
-186.129	232.498	0.025	0.040
-185.114	800.000	-0.021	0.069
-184.100	-107.731	-0.278	-0.059
-183.085	-13.170	0.383	0.243
-182.071	87.304	-0.071	0.077
-181.056	-100.319	-0.158	-0.038
-180.042	254.961	0.169	-0.283
-179.027	-52.664	0.405	-0.183
-178.012	133.208	0.072	-0.091
-176.998	-14.211	0.146	-0.092
-175.983	39.438	-0.326	0.285
-174.969	261.581	-0.102	-0.173
-173.954	800.000	-0.032	0.121
-172.939	-61.148	-0.059	-0.024
-171.925	-200.000	0.058	0.290
-170.910	-170.080	-0.213	-0.007
-169.896	-4.501	0.069	-0.047
-168.881	193.490	0.203	-0.301
-167.866	8.112	0.166	-0.122
-166.852	-30.689	0.228	0.126
-165.837	-200.000	0.068	0.340
-164.823	-200.000	-0.011	-0.307
-163.808	-2.256	0.097	-0.067
-162.793	-136.626	-0.267	0.030
-161.779	332.817	0.177	0.334
-160.764	-82.979	0.173	-0.055
-159.750	-200.000	0.044	-0.393
-158.735	-152.639	0.370	-0.026
-157.720	800.000	0.030	-0.084
-156.706	226.423	0.143	0.227
-155.691	-18.167	-0.160	0.097
-154.677	101.772	-0.123	0.140
-153.662	-181.506	-0.261	-0.005
-152.647	764.485	0.104	0.275
-151.633	457.881	0.090	-0.196
-150.618	-200.000	0.022	0.435
-149.604	-200.000	0.023	0.270
-148.589	800.000	-0.077	0.210
-147.574	-69.701	-0.212	-0.079
-146.560	-28.441	-0.185	0.104
-145.545	-174.542	0.225	0.006
-144.531	-200.000	0.033	0.328
-143.516	-39.371	0.273	0.140
-142.502	711.910	-0.050	0.128
-141.487	230.580	0.054	-0.087
-140.472	-193.823	0.251	-0.002
-139.458	66.644	-0.273	0.271
-138.443	800.000	0.103	0.394
-137.429	-52.819	0.296	0.133
-136.414	-200.000	0.001	-0.271
-135.399	259.689	0.170	-0.286
-134.385	-200.000	-0.070	0.465
-133.370	-114.097	0.200	0.038
-132.356	-200.000	-0.033	0.315
-131.341	161.175	-0.262	0.357
-130.326	208.013	-0.042	-0.065
-129.312	2.462	-0.259	-0.183
-128.297	284.704	-0.052	-0.091
-127.283	-113.086	0.053	0.010
-126.268	197.302	0.074	-0.111
-125.253	-77.339	-0.170	0.058
-124.239	-123.071	0.427	0.067
-123.224	410.147	-0.064	0.133
-122.210	183.515	-0.028	-0.041
-121.195	-200.000	-0.028	-0.315
