DTS Sentinel unit serial number:	SN413079Multiplexer serial number:	ORYXHardware model number:	OX4-SRSoftware version number:	ORYX F/W v4.00 Oryx Data Collector v3.7.2.0data status	okinstallation	princeton_trtdifferential loss correction	single-endedforward channel	channel 3reverse channel	N/Adate	2019/09/17time	03:12:35forward acquisition time	60.00reverse acquisition time	0.00gamma	496.2192k internal	0.2323k external	0.2323temperature offset calibration	0.9940default loss term (dB/km)	0.3790temperature slope calibration	1.0000multiplexer offset coefficient	1.0000multiplexer slope coefficient	1.0000fibre end	0.00T internal ref (°C)	29.98T ext. ref 1 (°C)	0.14T ext. ref 2 (°C)	24.89length (m)	temperature (°C)	Stokes	anti-Stokes-747.200	-200.000	0.031	0.322
-746.185	-101.662	0.154	0.038
-745.171	103.208	-0.048	0.057
-744.156	146.405	-0.021	0.029
-743.142	-90.527	-0.378	-0.110
-742.127	-200.000	0.017	0.111
-741.112	148.897	-0.021	-0.029
-740.098	-200.000	0.026	0.294
-739.083	-78.445	-0.155	-0.054
-738.069	69.446	-0.247	0.256
-737.054	145.725	0.039	-0.053
-736.039	341.219	-0.180	0.354
-735.025	584.218	-0.116	0.289
-734.010	-5.747	0.210	0.146
-732.996	-133.985	-0.313	-0.039
-731.981	561.434	-0.059	0.145
-730.966	581.549	0.054	-0.133
-729.952	217.264	0.065	-0.104
-728.937	-83.409	-0.199	-0.064
-727.923	23.240	-0.136	-0.112
-726.908	-200.000	-0.009	0.324
-725.894	-51.854	-0.486	-0.228
-724.879	-76.184	0.151	-0.054
-723.864	0.162	0.129	0.093
-722.850	800.000	-0.032	0.095
-721.835	-115.776	-0.290	0.055
-720.821	-99.968	-0.282	0.071
-719.806	-118.664	-0.273	0.049
-718.791	9.155	0.007	0.006
-717.777	-200.000	-0.002	-0.235
-716.762	-119.756	-0.150	0.026
-715.748	-74.963	-0.142	-0.051
-714.733	-154.921	-0.272	-0.018
-713.718	800.000	-0.039	0.147
-712.704	-73.101	-0.148	-0.055
-711.689	-37.272	0.321	0.173
-710.675	40.797	0.124	-0.113
-709.660	3.946	-0.299	0.221
-708.645	125.038	0.114	0.145
-707.631	170.499	0.091	0.131
-706.616	-84.798	0.327	-0.104
-705.602	13.141	0.170	0.133
-704.587	-70.784	0.123	0.047
-703.572	68.262	-0.206	0.213
-702.558	91.926	0.183	-0.208
-701.543	-37.448	-0.049	-0.026
-700.529	257.921	-0.096	-0.166
-699.514	-15.424	-0.227	0.146
-698.499	-81.042	-0.116	0.039
-697.485	-200.000	0.020	-0.257
-696.470	52.034	-0.064	-0.061
-695.456	91.883	-0.165	-0.188
-694.441	-64.912	0.141	0.057
-693.426	-200.000	-0.003	-0.269
-692.412	800.000	0.052	-0.157
-691.397	-63.680	-0.258	-0.107
-690.383	800.000	0.001	-0.004
-689.368	-177.432	0.176	0.004
-688.354	10.048	0.175	0.134
-687.339	800.000	-0.074	0.235
-686.324	-200.000	0.022	0.103
-685.310	800.000	-0.133	0.387
-684.295	274.060	-0.045	0.081
-683.281	-200.000	-0.015	0.178
-682.266	184.364	0.171	-0.255
-681.251	-23.722	-0.414	-0.250
-680.237	-156.891	-0.282	-0.017
-679.222	-65.115	-0.239	-0.097
-678.208	464.200	0.055	-0.124
-677.193	800.000	0.134	-0.383
-676.178	-154.375	-0.283	0.019
-675.164	-62.898	0.404	0.168
-674.149	-124.262	0.183	0.029
-673.135	153.203	-0.197	-0.272
-672.120	-29.396	-0.071	-0.041
-671.105	-200.000	0.000	-0.264
-670.091	-101.619	0.137	0.033
-669.076	800.000	0.046	-0.142
-668.062	-87.554	-0.148	-0.045
-667.047	388.055	-0.068	-0.141
-666.032	-104.366	-0.095	0.022
-665.018	-200.000	0.055	0.417
-664.003	58.336	-0.351	-0.346
-662.989	800.000	-0.169	-0.550
-661.974	-18.286	0.344	-0.216
-660.959	191.143	-0.061	0.092
-659.945	-62.633	0.255	0.107
-658.930	27.066	-0.275	-0.232
-657.916	-69.055	0.168	-0.065
-656.901	145.189	-0.087	0.117
-655.886	768.025	-0.056	-0.155
-654.872	18.304	0.225	0.181
-653.857	406.183	0.127	0.269
-652.843	-12.656	-0.169	0.111
-651.828	-166.956	0.332	0.014
-650.814	-28.275	0.133	-0.077
-649.799	-27.506	-0.372	-0.218
-648.784	-62.679	-0.052	0.022
-647.770	800.000	0.036	-0.123
-646.755	-72.095	-0.248	-0.093
-645.741	89.891	-0.132	-0.148
-644.726	-69.804	-0.080	-0.031
-643.711	800.000	-0.011	0.050
-642.697	291.993	0.120	-0.221
-641.682	800.000	0.043	0.161
-640.668	136.638	0.074	0.097
-639.653	113.916	0.133	-0.163
-638.638	-126.424	0.071	-0.011
-637.624	800.000	0.085	-0.280
-636.609	54.113	-0.138	-0.133
-635.595	-103.559	0.254	0.060
-634.580	177.072	-0.052	-0.076
-633.565	44.618	-0.206	-0.191
-632.551	301.232	-0.108	-0.201
-631.536	299.600	0.066	-0.122
-630.522	-200.000	-0.003	0.185
-629.507	-200.000	0.001	0.185
-628.492	287.996	-0.055	0.101
-627.478	-126.789	0.218	-0.032
-626.463	-120.635	0.390	-0.066
-625.449	800.000	0.065	-0.249
-624.434	-8.171	0.208	-0.141
-623.419	-200.000	0.064	0.305
-622.405	-13.640	-0.269	0.175
-621.390	133.712	-0.261	0.340
-620.376	800.000	0.090	0.338
-619.361	-102.059	-0.200	0.048
-618.346	-22.154	0.063	0.038
-617.332	20.943	0.254	0.207
-616.317	-51.286	0.106	0.050
-615.303	-54.551	-0.051	-0.023
-614.288	-200.000	0.025	0.310
-613.273	-123.123	0.241	0.039
-612.259	-200.000	-0.008	-0.279
-611.244	555.076	-0.066	0.159
-610.230	-6.012	0.113	-0.078
-609.215	-77.477	0.189	-0.066
-608.201	-200.000	0.008	0.039
-607.186	26.085	0.123	-0.103
-606.171	-200.000	-0.023	0.155
-605.157	-10.227	0.077	-0.051
-604.142	125.901	0.198	0.251
-603.128	-73.840	-0.212	0.077
-602.113	183.102	-0.125	-0.185
-601.098	-99.651	-0.374	0.094
-600.084	-146.546	-0.293	-0.026
-599.069	101.279	-0.142	-0.166
-598.055	403.960	-0.101	-0.213
-597.040	-152.635	0.052	0.004
-596.025	800.000	0.082	-0.312
-595.011	-135.931	-0.131	-0.016
-593.996	-200.000	-0.026	0.261
-592.982	-200.000	0.053	0.508
-591.967	86.559	0.074	0.082
-590.952	-200.000	-0.026	0.322
-589.938	638.575	-0.019	0.048
-588.923	-143.418	-0.218	-0.021
-587.909	10.563	-0.173	0.132
-586.894	104.630	-0.232	0.274
-585.879	800.000	-0.138	-0.439
-584.865	13.328	-0.197	0.153
-583.850	800.000	0.129	-0.458
-582.836	800.000	-0.105	-0.368
-581.821	453.338	-0.053	-0.118
-580.806	-15.597	0.114	0.073
-579.792	523.511	0.184	0.434
-578.777	-200.000	-0.015	0.295
-577.763	6.151	0.186	0.139
-576.748	800.000	0.008	-0.031
-575.733	-55.053	-0.161	-0.073
-574.719	-105.037	0.205	0.047
-573.704	71.447	0.094	0.098
-572.690	-200.000	0.028	0.382
-571.675	-93.086	-0.400	0.112
-570.661	7.687	-0.134	0.100
-569.646	-3.423	-0.084	0.058
-568.631	-200.000	-0.039	0.186
-567.617	-13.540	0.115	0.075
-566.602	1.440	-0.110	-0.079
-565.588	-129.109	-0.308	-0.043
-564.573	-91.818	0.105	-0.030
-563.558	135.051	0.130	0.170
-562.544	161.925	0.174	0.244
-561.529	800.000	0.060	-0.216
-560.515	800.000	0.071	-0.258
-559.500	-200.000	-0.039	-0.409
-558.485	-35.377	0.168	0.092
-557.471	284.858	-0.180	-0.325
-556.456	-76.242	-0.401	0.142
-555.442	-200.000	-0.004	0.159
-554.427	-7.947	0.295	-0.199
-553.412	286.785	-0.104	0.189
-552.398	118.316	0.030	0.037
-551.383	-200.000	-0.071	-0.322
-550.369	333.076	0.064	0.124
-549.354	639.509	0.081	0.206
-548.339	285.084	0.081	-0.146
-547.325	47.256	-0.181	0.169
-546.310	-12.046	0.396	-0.260
-545.296	-200.000	-0.035	-0.201
-544.281	94.070	-0.217	-0.246
-543.266	-122.938	-0.175	0.028
-542.252	267.994	-0.091	0.160
-541.237	424.156	0.170	0.366
-540.223	212.993	-0.196	-0.310
-539.208	-86.776	-0.307	-0.094
-538.193	-75.399	0.065	-0.023
-537.179	-31.571	-0.220	0.124
-536.164	11.811	-0.147	-0.113
-535.150	-200.000	0.017	0.199
-534.135	132.126	0.084	0.109
-533.121	-74.996	0.107	0.038
-532.106	-82.952	-0.380	0.123
-531.091	49.916	0.114	-0.107
-530.077	-137.734	-0.355	0.040
-529.062	-89.847	0.145	0.042
-528.048	137.321	0.190	-0.249
-527.033	-63.938	-0.177	-0.073
-526.018	-141.002	0.164	-0.017
-525.004	-100.047	0.139	0.035
-523.989	-142.388	0.016	-0.002
-522.975	606.138	0.080	-0.199
-521.960	-61.294	-0.122	-0.052
-520.945	-106.695	-0.041	0.009
-519.931	41.417	0.278	-0.251
-518.916	800.000	0.056	-0.195
-517.902	-133.442	0.220	-0.028
-516.887	-114.851	0.794	-0.152
-515.872	215.812	-0.100	-0.159
-514.858	-97.862	-0.331	-0.086
-513.843	800.000	-0.044	-0.134
-512.829	286.267	-0.053	0.096
-511.814	800.000	0.046	-0.165
-510.799	-67.893	-0.084	0.033
-509.785	138.866	-0.058	0.076
-508.770	-200.000	-0.061	-0.398
-507.756	89.871	-0.009	0.010
-506.741	26.031	0.189	-0.158
-505.726	51.965	-0.338	0.322
-504.712	278.770	0.100	-0.178
-503.697	199.675	0.007	-0.010
-502.683	40.278	-0.294	-0.265
-501.668	-124.669	0.171	0.027
-500.653	-184.233	-0.273	0.005
-499.639	-107.753	0.311	-0.068
-498.624	-115.809	0.182	-0.034
-497.610	-159.036	-0.213	0.012
-496.595	-200.000	-0.071	-0.359
-495.581	-35.818	-0.242	0.131
-494.566	-119.301	-0.141	-0.025
-493.551	-66.166	0.174	-0.070
-492.537	569.333	0.068	0.165
-491.522	-200.000	0.024	-0.141
-490.508	-200.000	-0.018	-0.249
-489.493	-114.451	0.360	-0.069
-488.478	4.113	-0.219	0.160
-487.464	-25.717	-0.102	-0.060
-486.449	-81.548	0.329	0.108
-485.435	800.000	-0.071	-0.284
-484.420	3.937	0.088	0.064
-483.405	-3.916	-0.166	0.115
-482.391	-200.000	0.016	0.107
-481.376	420.674	-0.099	-0.212
-480.362	-84.975	0.153	-0.048
-479.347	-20.825	-0.017	-0.010
-478.332	-85.691	0.093	-0.029
-477.318	-103.925	0.373	0.087
-476.303	-77.116	0.217	0.076
-475.289	792.761	0.101	0.278
-474.274	72.063	-0.066	-0.068
-473.259	800.000	0.031	0.103
-472.245	-120.722	-0.087	-0.015
-471.230	-121.533	0.191	0.032
-470.216	800.000	0.051	-0.146
-469.201	-200.000	0.018	-0.084
-468.186	112.191	-0.156	0.188
-467.172	800.000	-0.008	-0.025
-466.157	158.595	0.110	0.153
-465.143	800.000	-0.100	-0.283
-464.128	-133.164	0.256	0.032
-463.113	-6.530	0.197	0.134
-462.099	-200.000	-0.043	0.257
-461.084	-21.566	-0.099	0.060
-460.070	-200.000	0.032	-0.204
-459.055	58.122	0.216	-0.211
-458.040	-195.619	0.212	0.002
-457.026	155.810	-0.177	0.244
-456.011	84.300	0.270	0.295
-454.997	800.000	-0.061	0.220
-453.982	89.469	-0.296	0.330
-452.968	-168.191	-0.145	-0.006
-451.953	51.213	0.199	-0.189
-450.938	170.791	-0.066	0.095
-449.924	-133.666	-0.135	-0.017
-448.909	-200.000	0.008	0.386
-447.895	329.696	0.033	0.064
-446.880	-77.396	0.179	0.062
-445.865	733.177	0.025	0.067
-444.851	134.417	-0.214	0.277
-443.836	-29.421	-0.251	-0.143
-442.822	-79.185	-0.092	0.031
-441.807	32.476	-0.125	0.108
-440.792	413.616	-0.051	-0.108
-439.778	187.951	0.076	0.113
-438.763	-43.542	-0.216	-0.109
-437.749	76.880	-0.166	0.176
-436.734	-64.875	0.070	-0.028
-435.719	800.000	0.060	0.180
-434.705	-200.000	-0.097	0.441
-433.690	800.000	-0.142	0.393
-432.676	-183.734	0.264	0.004
-431.661	287.585	0.191	-0.344
-430.646	800.000	0.025	0.085
-429.632	-127.858	-0.344	0.049
-428.617	800.000	0.112	-0.345
-427.603	-8.277	0.149	0.100
-426.588	-23.215	0.063	-0.038
-425.573	31.613	-0.277	0.237
-424.559	-70.394	-0.456	0.172
-423.544	-102.129	-0.256	-0.061
-422.530	-200.000	0.019	-0.285
-421.515	87.456	-0.071	0.078
-420.500	-75.173	-0.302	-0.107
-419.486	109.732	0.216	-0.258
-418.471	-200.000	0.046	-0.230
-417.457	-73.327	0.028	-0.010
-416.442	-20.199	0.321	0.197
-415.428	-200.000	0.062	0.456
-414.413	-33.924	0.298	-0.164
-413.398	-200.000	0.041	-0.179
-412.384	-75.274	-0.215	-0.076
-411.369	-200.000	0.007	-0.353
-410.355	-39.514	0.038	-0.020
-409.340	79.383	-0.098	0.105
-408.325	-34.870	-0.318	0.173
-407.311	448.139	0.118	-0.259
-406.296	106.195	0.163	0.192
-405.282	-17.043	-0.109	0.068
-404.267	125.488	-0.130	0.164
-403.252	31.067	0.137	0.117
-402.238	192.671	-0.124	-0.187
-401.223	-74.740	0.351	-0.126
-400.209	800.000	-0.107	0.304
-399.194	242.676	0.080	0.134
-398.179	-130.586	0.122	-0.016
-397.165	-59.411	0.043	0.018
-396.150	2.221	-0.223	0.160
-395.136	-200.000	0.035	0.262
-394.121	83.483	-0.084	0.091
-393.106	-200.000	-0.019	0.219
-392.092	-200.000	0.020	0.102
-391.077	775.715	-0.061	-0.165
-390.063	600.013	-0.186	-0.460
-389.048	769.612	-0.028	-0.077
-388.033	-200.000	-0.030	0.222
-387.019	-96.688	-0.096	-0.025
-386.004	-93.313	0.174	0.048
-384.990	111.812	-0.217	0.260
-383.975	129.503	0.237	-0.301
-382.960	42.111	-0.128	0.115
-381.946	35.328	0.410	-0.358
-380.931	-80.186	0.114	0.038
-379.917	69.470	-0.319	-0.327
-378.902	-200.000	0.004	-0.409
-377.888	203.432	0.191	0.294
-376.873	238.915	-0.080	-0.132
-375.858	176.578	-0.148	0.215
-374.844	-200.000	0.055	0.239
-373.829	-102.421	0.112	-0.027
-372.815	-81.007	0.231	-0.076
-371.800	227.454	0.073	-0.119
-370.785	247.487	-0.089	-0.150
-369.771	439.072	-0.061	-0.133
-368.756	36.532	-0.146	0.128
-367.742	-200.000	0.018	-0.197
-366.727	-33.170	0.097	-0.053
-365.712	304.603	-0.196	0.363
-364.698	677.321	0.103	-0.267
-363.683	231.541	0.123	0.201
-362.669	800.000	0.096	0.282
-361.654	-117.170	-0.338	-0.061
-360.639	-200.000	0.019	-0.113
-359.625	627.087	0.129	0.325
-358.610	106.809	0.040	-0.047
-357.596	-41.193	0.215	0.111
-356.581	238.615	0.076	0.126
-355.566	-100.282	0.224	0.055
-354.552	-45.037	-0.098	-0.049
-353.537	-80.250	-0.095	0.031
-352.523	-66.488	0.309	-0.122
-351.508	-118.808	0.043	-0.008
-350.493	-85.754	-0.111	0.034
-349.479	-26.939	0.094	0.055
-348.464	-169.134	0.199	-0.007
-347.450	-69.185	0.334	0.128
-346.435	-200.000	-0.009	-0.193
-345.420	-36.857	0.083	0.044
-344.406	96.377	-0.117	-0.133
-343.391	-180.831	-0.288	0.006
-342.377	178.864	0.053	-0.076
-341.362	152.269	-0.202	-0.275
-340.348	-68.986	0.312	-0.120
-339.333	-141.313	0.270	-0.027
-338.318	800.000	0.067	-0.260
-337.304	31.582	0.273	-0.233
-336.289	209.730	-0.141	-0.220
-335.275	2.635	-0.193	0.139
-334.260	251.824	-0.118	0.199
-333.245	118.853	0.059	0.072
-332.231	-139.909	0.163	-0.017
-331.216	375.187	0.146	0.295
-330.202	-2.205	0.201	0.140
-329.187	305.602	-0.042	-0.077
-328.172	-124.125	-0.220	-0.034
-327.158	-104.657	0.189	-0.043
-326.143	-53.641	0.275	0.125
-325.129	-92.859	-0.063	0.018
-324.114	85.944	0.163	0.178
-323.099	243.676	-0.110	0.183
-322.085	457.044	-0.006	0.014
-321.070	79.823	0.282	-0.301
-320.056	32.807	0.117	0.101
-319.041	-147.748	0.094	-0.008
-318.026	-3.295	0.125	0.087
-317.012	402.308	-0.112	-0.234
-315.997	-11.404	-0.036	0.024
-314.983	-8.745	-0.190	0.127
-313.968	-87.463	0.205	0.062
-312.953	6.502	-0.066	0.049
-311.939	800.000	-0.054	0.186
-310.924	-200.000	0.013	0.065
-309.910	-78.565	-0.167	0.057
-308.895	800.000	0.049	0.154
-307.880	-200.000	0.061	0.322
-306.866	23.031	0.145	0.118
-305.851	-157.405	-0.202	-0.012
-304.837	-58.570	0.325	0.140
-303.822	-52.505	-0.241	-0.111
-302.807	39.053	0.234	-0.207
-301.793	800.000	0.037	-0.118
-300.778	64.299	-0.161	0.161
-299.764	-11.637	-0.166	-0.108
-298.749	800.000	-0.103	-0.351
-297.735	414.779	-0.131	-0.278
-296.720	120.838	-0.096	-0.118
-295.705	-200.000	-0.008	0.050
-294.691	-84.586	0.174	-0.054
-293.676	-200.000	-0.013	0.204
-292.662	-200.000	0.034	-0.246
-291.647	138.619	-0.158	-0.206
-290.632	-52.369	0.138	0.063
-289.618	-72.891	-0.206	0.075
-288.603	-10.080	-0.092	0.061
-287.589	800.000	-0.083	0.309
-286.574	347.819	-0.046	-0.089
-285.559	-59.131	0.167	0.071
-284.545	-92.364	-0.380	0.106
-283.530	71.521	0.141	-0.145
-282.516	334.073	-0.091	0.175
-281.501	31.928	0.221	-0.188
-280.486	-68.746	0.117	0.045
-279.472	800.000	0.056	0.196
-278.457	-134.074	0.118	0.014
-277.443	-88.177	-0.152	0.045
-276.428	233.438	-0.089	0.145
-275.413	-108.383	-0.110	0.023
-274.399	-195.271	-0.144	0.001
-273.384	800.000	-0.022	0.084
-272.370	18.338	-0.149	-0.118
-271.355	-200.000	-0.003	0.189
-270.340	-103.029	0.579	0.136
-269.326	-115.678	0.122	0.023
-268.311	-157.688	-0.392	0.023
-267.297	-200.000	0.010	0.116
-266.282	121.126	0.029	0.036
-265.267	84.957	-0.063	-0.068
-264.253	-12.785	0.130	-0.084
-263.238	-25.771	0.291	-0.170
-262.224	-85.299	0.311	0.096
-261.209	194.133	-0.156	0.234
-260.195	170.762	-0.021	0.030
-259.180	136.166	-0.067	-0.087
-258.165	13.076	-0.076	-0.058
-257.151	26.156	-0.352	0.291
-256.136	-176.172	0.275	0.007
-255.122	-177.781	-0.122	-0.003
-254.107	74.077	-0.276	-0.286
-253.092	172.380	-0.200	0.285
-252.078	-172.413	-0.161	0.005
-251.063	424.928	-0.012	-0.026
-250.049	-154.405	0.088	0.006
-249.034	-200.000	-0.007	-0.359
-248.019	179.388	0.214	-0.310
-247.005	41.345	-0.217	0.194
-245.990	-58.174	-0.390	0.168
-244.976	-139.224	0.293	-0.031
-243.961	-200.000	0.055	-0.322
-242.946	120.657	0.231	0.284
-241.932	577.936	-0.164	-0.398
-240.917	-67.276	0.200	0.078
-239.903	-35.638	-0.135	0.073
-238.888	4.470	0.237	-0.172
-237.873	-144.636	0.152	-0.014
-236.859	68.261	-0.134	-0.136
-235.844	-60.704	-0.135	0.057
-234.830	261.258	-0.123	0.211
-233.815	800.000	0.047	0.191
-232.800	38.581	0.230	-0.203
-231.786	379.841	0.124	0.252
-230.771	800.000	0.039	0.109
-229.757	-200.000	0.004	-0.233
-228.742	93.872	-0.266	-0.298
-227.727	-200.000	0.003	-0.188
-226.713	-200.000	-0.011	0.054
-225.698	-64.368	-0.344	0.138
-224.684	800.000	-0.019	0.053
-223.669	-200.000	0.008	0.140
-222.655	115.167	0.101	0.122
-221.640	800.000	-0.091	-0.353
-220.625	-200.000	0.016	-0.132
-219.611	168.485	0.024	-0.035
-218.596	295.807	0.097	-0.176
-217.582	-6.617	-0.168	-0.113
-216.567	-11.128	-0.052	-0.034
-215.552	368.691	-0.120	0.240
-214.538	17.400	-0.108	0.085
-213.523	-116.104	-0.044	0.008
-212.509	-97.489	0.123	0.032
-211.494	-45.841	-0.086	0.042
-210.479	-200.000	-0.009	-0.252
-209.465	187.070	0.273	-0.403
-208.450	138.169	0.379	0.492
-207.436	17.017	-0.071	0.056
-206.421	-69.130	0.361	-0.138
-205.406	-180.834	-0.135	0.003
-204.392	77.260	-0.114	0.120
-203.377	56.478	0.227	0.218
-202.363	-128.329	-0.073	0.010
-201.348	-19.526	0.057	0.035
-200.333	-64.535	-0.288	0.116
-199.319	-200.000	-0.008	0.260
-198.304	-51.744	-0.065	-0.030
-197.290	-200.000	-0.072	-0.317
-196.275	67.289	-0.370	-0.373
-195.260	-200.000	-0.005	-0.124
-194.246	-70.041	0.282	0.106
-193.231	-200.000	-0.019	0.090
-192.217	266.922	-0.177	-0.306
-191.202	-33.368	0.293	-0.160
-190.187	46.632	-0.130	-0.119
-189.173	17.151	-0.190	-0.149
-188.158	727.352	-0.089	0.235
-187.144	-78.175	-0.184	0.062
-186.129	157.232	-0.137	0.187
-185.114	120.768	0.252	-0.309
-184.100	-5.360	0.202	0.137
-183.085	-200.000	-0.030	0.169
-182.071	-13.779	-0.048	-0.031
-181.056	-145.169	-0.289	-0.026
-180.042	-180.507	0.112	0.002
-179.027	-200.000	0.005	-0.109
-178.012	800.000	-0.084	-0.346
-176.998	-42.037	0.044	0.022
-175.983	800.000	0.069	0.225
-174.969	800.000	0.080	-0.282
-173.954	-106.901	0.231	0.050
-172.939	122.441	-0.243	0.299
-171.925	-200.000	0.043	-0.342
-170.910	67.734	0.139	-0.140
-169.896	76.447	-0.158	0.165
-168.881	16.839	0.146	0.114
-167.866	800.000	-0.092	-0.257
-166.852	90.010	-0.092	-0.101
-165.837	-200.000	0.000	-0.077
-164.823	-41.967	0.161	-0.082
-163.808	-148.116	0.124	-0.010
-162.793	19.069	-0.094	0.074
-161.779	-200.000	-0.032	0.157
-160.764	123.894	0.207	0.256
-159.750	-47.854	-0.280	0.134
-158.735	-177.037	0.286	-0.007
-157.720	-69.616	0.068	0.026
-156.706	-65.434	0.144	0.057
-155.691	46.058	0.166	-0.152
-154.677	567.582	-0.028	-0.066
-153.662	-43.668	-0.169	-0.084
-152.647	-11.788	-0.214	-0.138
-151.633	460.160	0.107	-0.235
-150.618	28.642	-0.169	0.141
-149.604	35.451	-0.182	0.158
-148.589	800.000	-0.070	0.208
-147.574	-120.864	-0.186	0.031
-146.560	184.002	0.052	-0.076
-145.545	52.442	-0.257	-0.242
-144.531	210.445	-0.131	-0.203
-143.516	-121.695	-0.168	-0.027
-142.502	-71.323	0.160	-0.059
-141.487	38.076	-0.142	0.125
-140.472	140.547	0.111	-0.144
-139.458	-105.273	-0.198	0.045
-138.443	-127.220	-0.057	-0.008
-137.429	22.059	-0.086	0.069
-136.414	-126.720	-0.198	0.029
-135.399	56.762	-0.255	0.245
-134.385	-68.370	0.139	-0.053
-133.370	-82.954	-0.193	0.061
-132.356	56.531	0.206	0.198
-131.341	116.789	-0.230	-0.278
-130.326	-32.344	0.263	-0.145
-129.312	41.383	-0.133	-0.119
-128.297	800.000	-0.096	-0.388
-127.283	-200.000	0.051	-0.377
-126.268	70.865	-0.166	0.170
-125.253	-200.000	-0.021	-0.141
-124.239	-126.323	0.271	0.040
-123.224	176.001	0.104	0.149
-122.210	-200.000	0.083	0.459
-121.195	800.000	-0.057	0.193
-120.180	-46.833	-0.105	-0.050
