DTS Sentinel unit serial number:	SN413079Multiplexer serial number:	ORYXHardware model number:	OX4-SRSoftware version number:	ORYX F/W v4.00 Oryx Data Collector v3.7.2.0data status	okinstallation	princeton_trtdifferential loss correction	single-endedforward channel	channel 3reverse channel	N/Adate	2019/09/14time	23:20:35forward acquisition time	60.00reverse acquisition time	0.00gamma	496.2192k internal	0.2319k external	0.2319temperature offset calibration	0.9984default loss term (dB/km)	0.3790temperature slope calibration	1.0000multiplexer offset coefficient	1.0000multiplexer slope coefficient	1.0000fibre end	0.00T internal ref (°C)	32.37T ext. ref 1 (°C)	4.65T ext. ref 2 (°C)	27.37length (m)	temperature (°C)	Stokes	anti-Stokes-747.200	-200.000	-0.064	-0.301
-746.185	-45.442	0.375	0.188
-745.171	59.638	0.061	-0.061
-744.156	107.888	0.219	0.263
-743.142	-96.442	0.101	0.027
-742.127	-67.925	-0.280	0.111
-741.112	-200.000	0.010	0.148
-740.098	36.814	-0.266	0.238
-739.083	33.348	-0.107	0.094
-738.069	473.263	-0.168	0.382
-737.054	17.441	0.019	0.015
-736.039	800.000	-0.049	0.148
-735.025	-108.743	0.004	0.001
-734.010	314.568	0.109	0.208
-732.996	-15.185	-0.166	-0.107
-731.981	-33.431	0.315	0.176
-730.966	-11.837	0.125	-0.083
-729.952	-35.367	-0.240	-0.132
-728.937	205.458	-0.144	-0.227
-727.923	-32.978	0.240	-0.135
-726.908	-8.267	-0.338	-0.230
-725.894	-200.000	-0.003	-0.060
-724.879	-87.637	-0.372	0.113
-723.864	-111.351	-0.219	0.045
-722.850	24.953	-0.156	0.131
-721.835	-110.240	0.212	0.045
-720.821	800.000	-0.042	-0.168
-719.806	-90.094	-0.030	-0.009
-718.791	-184.371	-0.321	0.005
-717.777	613.677	0.040	0.102
-716.762	139.063	0.198	0.263
-715.748	617.390	-0.065	-0.166
-714.733	315.976	-0.055	-0.105
-713.718	94.110	0.101	0.115
-712.704	-124.330	-0.228	-0.036
-711.689	-114.163	0.093	-0.018
-710.675	88.227	-0.198	-0.222
-709.660	-32.729	0.137	0.077
-708.645	-182.859	0.336	-0.006
-707.631	247.959	-0.090	0.154
-706.616	-200.000	0.006	0.205
-705.602	19.161	0.153	-0.124
-704.587	101.652	-0.108	-0.127
-703.572	29.341	-0.173	0.148
-702.558	-34.772	0.227	0.125
-701.543	-200.000	-0.058	-0.456
-700.529	-200.000	-0.011	0.130
-699.514	-57.615	-0.225	0.100
-698.499	-88.857	0.214	0.064
-697.485	37.566	0.058	-0.052
-696.470	429.460	-0.038	-0.084
-695.456	-10.958	-0.164	0.109
-694.441	-110.087	0.048	-0.010
-693.426	-2.277	-0.215	0.152
-692.412	208.084	0.121	0.192
-691.397	-45.703	0.226	0.113
-690.383	-125.152	-0.116	-0.018
-689.368	1.676	0.114	0.083
-688.354	-118.121	-0.185	-0.033
-687.339	387.408	-0.033	-0.070
-686.324	600.257	-0.040	0.101
-685.310	-98.807	0.187	-0.048
-684.295	6.986	-0.151	-0.113
-683.281	-200.000	-0.020	-0.260
-682.266	283.413	-0.067	0.121
-681.251	800.000	0.037	0.109
-680.237	591.888	0.024	-0.061
-679.222	-88.206	-0.271	0.082
-678.208	453.416	0.108	-0.242
-677.193	-16.092	0.261	-0.168
-676.178	-61.514	-0.155	0.066
-675.164	-98.619	-0.277	-0.071
-674.149	103.826	0.186	-0.220
-673.135	-200.000	-0.016	-0.077
-672.120	91.161	-0.083	0.094
-671.105	-172.805	-0.142	0.004
-670.091	10.659	-0.263	-0.202
-669.076	-59.897	0.245	-0.106
-668.062	85.575	-0.190	-0.210
-667.047	-200.000	0.039	-0.396
-666.032	-14.008	-0.084	0.055
-665.018	-128.826	0.145	0.021
-664.003	95.657	-0.259	-0.298
-662.989	800.000	-0.046	-0.177
-661.974	64.717	0.183	-0.186
-660.959	800.000	0.068	0.262
-659.945	20.019	-0.244	-0.198
-658.930	-136.092	-0.164	0.019
-657.916	-200.000	-0.001	-0.088
-656.901	86.197	-0.185	0.206
-655.886	800.000	-0.094	0.395
-654.872	449.484	0.104	-0.232
-653.857	-84.677	-0.210	-0.067
-652.843	374.913	-0.181	-0.372
-651.828	43.394	0.364	0.335
-650.814	430.450	0.077	-0.168
-649.799	800.000	-0.025	-0.102
-648.784	-200.000	0.010	-0.049
-647.770	-134.206	-0.198	0.025
-646.755	172.543	0.051	-0.074
-645.741	131.226	0.186	0.241
-644.726	167.754	-0.276	0.395
-643.711	-45.514	-0.185	0.092
-642.697	110.576	-0.223	-0.270
-641.682	155.374	0.057	-0.079
-640.668	-99.752	0.243	0.061
-639.653	-5.883	-0.529	-0.364
-638.638	-32.247	0.122	0.069
-637.624	-148.750	0.554	-0.045
-636.609	-73.944	0.137	0.050
-635.595	-56.669	0.245	-0.109
-634.580	295.957	-0.157	-0.289
-633.565	800.000	-0.056	-0.217
-632.551	-200.000	-0.031	-0.178
-631.536	14.587	-0.147	0.115
-630.522	-95.118	0.249	-0.068
-629.507	-200.000	0.044	-0.427
-628.492	-200.000	-0.056	-0.357
-627.478	22.034	0.156	-0.128
-626.463	62.541	0.322	-0.324
-625.449	-80.282	0.229	0.077
-624.434	472.312	0.035	-0.079
-623.419	-71.978	0.215	0.081
-622.405	-200.000	-0.009	-0.229
-621.390	-200.000	-0.001	0.182
-620.376	38.600	0.206	-0.185
-619.361	-51.430	0.114	0.054
-618.346	-134.873	-0.129	-0.016
-617.332	-91.445	-0.142	0.041
-616.317	135.253	-0.327	0.428
-615.303	-10.144	0.187	0.125
-614.288	-2.794	0.236	-0.166
-613.273	-52.645	0.229	0.106
-612.259	77.042	0.082	-0.088
-611.244	-53.114	-0.090	-0.042
-610.230	-46.479	0.275	-0.136
-609.215	170.498	-0.262	0.378
-608.201	189.385	-0.039	-0.059
-607.186	-200.000	0.013	0.176
-606.171	-89.426	-0.101	0.030
-605.157	800.000	0.044	-0.121
-604.142	-133.011	-0.108	0.014
-603.128	-200.000	-0.040	-0.288
-602.113	-51.599	-0.494	0.232
-601.098	-200.000	-0.020	-0.255
-600.084	-200.000	-0.041	-0.444
-599.069	-200.000	-0.047	0.245
-598.055	152.905	0.212	0.292
-597.040	-200.000	0.009	0.235
-596.025	-105.754	-0.077	0.018
-595.011	-89.322	0.184	-0.054
-593.996	-60.412	-0.266	-0.114
-592.982	-46.161	-0.025	-0.012
-591.967	-103.779	-0.165	-0.039
-590.952	800.000	-0.054	0.232
-589.938	278.586	-0.082	-0.147
-588.923	-200.000	0.011	-0.174
-587.909	20.062	-0.122	-0.099
-586.894	136.628	-0.055	0.072
-585.879	-165.278	-0.121	0.005
-584.865	-44.531	-0.178	-0.089
-583.850	146.607	0.231	-0.312
-582.836	800.000	0.077	0.252
-581.821	-200.000	0.016	-0.079
-580.806	69.431	-0.064	0.066
-579.792	151.456	0.069	0.094
-578.777	-121.996	-0.270	0.045
-577.763	217.123	0.104	0.167
-576.748	800.000	0.057	0.187
-575.733	26.337	-0.140	-0.118
-574.719	86.715	-0.137	0.152
-573.704	800.000	-0.037	0.152
-572.690	-200.000	0.062	0.359
-571.675	-26.622	-0.109	0.064
-570.661	98.779	0.056	-0.065
-569.646	682.455	0.071	0.187
-568.631	800.000	-0.059	-0.243
-567.617	-96.354	-0.311	0.083
-566.602	-126.171	-0.305	-0.046
-565.588	30.000	-0.255	-0.219
-564.573	-0.454	-0.060	0.043
-563.558	583.314	0.115	0.285
-562.544	-99.769	-0.355	0.089
-561.529	-89.358	-0.257	0.076
-560.515	-131.935	0.135	0.018
-559.500	-200.000	0.014	-0.286
-558.485	42.971	-0.296	0.271
-557.471	6.023	-0.559	0.416
-556.456	-141.389	0.182	-0.019
-555.442	-34.182	0.128	-0.071
-554.427	-59.265	-0.091	0.039
-553.412	84.326	-0.068	-0.074
-552.398	-200.000	0.027	-0.201
-551.383	155.748	0.107	0.148
-550.369	581.514	-0.156	-0.384
-549.354	-23.453	0.170	-0.103
-548.339	297.306	-0.182	-0.335
-547.325	800.000	0.039	-0.123
-546.310	-10.050	-0.208	-0.139
-545.296	-87.178	-0.317	-0.097
-544.281	-14.217	0.024	-0.016
-543.266	-122.067	0.244	-0.040
-542.252	-73.870	0.168	-0.061
-541.237	-51.921	-0.230	-0.107
-540.223	-93.897	0.216	0.060
-539.208	-164.896	0.135	-0.006
-538.193	-58.272	-0.191	-0.083
-537.179	-200.000	-0.009	-0.039
-536.164	-19.909	0.352	0.218
-535.150	16.509	-0.165	-0.131
-534.135	431.887	-0.177	-0.385
-533.121	517.498	-0.064	-0.149
-532.106	-12.900	0.114	0.075
-531.091	-200.000	0.028	0.213
-530.077	800.000	0.012	-0.043
-529.062	-107.971	-0.149	0.032
-528.048	800.000	0.100	-0.304
-527.033	-200.000	0.002	0.140
-526.018	-69.612	-0.194	-0.075
-525.004	-42.378	-0.353	0.181
-523.989	-106.848	-0.433	0.096
-522.975	-200.000	-0.032	0.438
-521.960	-34.838	0.219	0.120
-520.945	-57.251	-0.181	0.080
-519.931	-22.675	0.184	-0.111
-518.916	-200.000	-0.014	0.084
-517.902	668.277	-0.016	-0.042
-516.887	585.871	-0.133	0.327
-515.872	169.786	0.118	-0.169
-514.858	-183.073	0.042	0.001
-513.843	-57.577	0.366	-0.161
-512.829	-200.000	-0.023	-0.270
-511.814	131.436	0.155	-0.200
-510.799	-200.000	0.017	-0.083
-509.785	-121.876	-0.424	-0.070
-508.770	-49.585	-0.173	-0.083
-507.756	-0.183	-0.229	-0.163
-506.741	-200.000	0.036	-0.288
-505.726	247.851	-0.086	-0.146
-504.712	-200.000	-0.001	-0.229
-503.697	-200.000	0.048	0.214
-502.683	-113.953	-0.150	0.029
-501.668	-123.509	-0.148	0.024
-500.653	-118.003	0.156	0.028
-499.639	203.438	-0.148	-0.230
-498.624	362.680	-0.098	0.198
-497.610	-2.938	0.077	-0.054
-496.595	800.000	-0.073	-0.245
-495.581	-200.000	-0.013	0.164
-494.566	-173.797	-0.275	0.008
-493.551	32.314	0.214	-0.185
-492.537	323.593	0.182	-0.348
-491.522	16.920	-0.067	0.054
-490.508	-200.000	0.037	0.263
-489.493	678.301	-0.119	-0.311
-488.478	-127.325	-0.096	-0.014
-487.464	-101.248	0.254	-0.062
-486.449	-200.000	0.008	-0.187
-485.435	71.593	0.196	-0.204
-484.420	-200.000	-0.003	0.066
-483.405	-200.000	-0.008	0.198
-482.391	51.951	-0.303	-0.289
-481.376	-69.036	-0.270	0.104
-480.362	800.000	-0.071	0.201
-479.347	32.862	-0.156	0.135
-478.332	255.747	0.076	-0.130
-477.318	-7.418	0.131	0.089
-476.303	-88.603	0.311	-0.093
-475.289	377.438	0.087	0.179
-474.274	99.598	-0.204	-0.236
-473.259	-1.620	0.068	-0.048
-472.245	363.181	-0.161	-0.324
-471.230	800.000	-0.064	0.207
-470.216	800.000	0.027	-0.114
-469.201	-148.775	0.216	-0.018
-468.186	-87.452	-0.213	0.065
-467.172	462.562	-0.032	0.071
-466.157	53.035	0.114	0.110
-465.143	-18.214	-0.204	-0.128
-464.128	5.100	-0.220	0.162
-463.113	-200.000	-0.035	0.327
-462.099	35.444	0.229	-0.201
-461.084	-45.728	0.146	-0.072
-460.070	560.359	-0.069	-0.166
-459.055	-200.000	0.035	0.364
-458.040	-200.000	0.021	0.168
-457.026	-200.000	0.039	-0.190
-456.011	800.000	-0.104	-0.292
-454.997	800.000	0.056	-0.205
-453.982	70.699	0.094	-0.097
-452.968	-12.150	-0.190	-0.124
-451.953	-101.008	-0.103	0.025
-450.938	800.000	0.054	0.199
-449.924	166.636	-0.150	0.213
-448.909	22.972	-0.102	-0.084
-447.895	-82.570	-0.308	0.100
-446.880	75.172	-0.118	0.124
-445.865	679.006	0.098	0.254
-444.851	404.313	0.076	-0.160
-443.836	800.000	0.095	0.344
-442.822	35.147	-0.110	-0.096
-441.807	-45.739	-0.165	0.082
-440.792	-112.835	0.124	-0.024
-439.778	6.256	0.239	-0.177
-438.763	-28.942	0.007	0.004
-437.749	632.979	-0.029	-0.073
-436.734	51.075	0.069	0.065
-435.719	-200.000	-0.042	-0.266
-434.705	186.167	-0.107	-0.160
-433.690	-68.827	-0.077	0.030
-432.676	-112.897	-0.355	0.070
-431.661	106.854	-0.213	-0.253
-430.646	-35.120	-0.341	-0.186
-429.632	-200.000	-0.003	0.033
-428.617	54.009	0.185	0.178
-427.603	247.679	-0.202	-0.342
-426.588	800.000	0.092	-0.329
-425.573	124.189	0.117	0.147
-424.559	-200.000	-0.044	0.313
-423.544	800.000	-0.062	0.263
-422.530	-117.708	-0.195	0.035
-421.515	-137.103	-0.057	0.007
-420.500	-90.090	-0.246	-0.071
-419.486	115.835	-0.090	0.110
-418.471	98.886	-0.104	0.120
-417.457	-85.725	-0.265	-0.082
-416.442	-21.946	-0.186	0.113
-415.428	-16.614	0.039	0.025
-414.413	-106.255	0.094	0.021
-413.398	-33.879	-0.280	-0.154
-412.384	-200.000	0.002	-0.123
-411.369	800.000	0.106	0.304
-410.355	40.286	0.239	-0.214
-409.340	95.614	0.117	-0.133
-408.325	-27.823	0.069	0.040
-407.311	230.275	0.050	0.081
-406.296	-134.225	-0.456	0.056
-405.282	-200.000	-0.025	-0.561
-404.267	122.468	0.105	-0.132
-403.252	-62.124	0.262	0.109
-402.238	318.312	-0.085	-0.160
-401.223	800.000	-0.019	-0.074
-400.209	-162.733	0.379	0.019
-399.194	-58.780	-0.168	-0.073
-398.179	-200.000	-0.031	0.248
-397.165	-142.103	0.313	0.031
-396.150	173.445	-0.086	-0.124
-395.136	-140.793	0.208	0.021
-394.121	139.952	0.092	-0.121
-393.106	-200.000	-0.058	0.454
-392.092	-200.000	-0.000	-0.105
-391.077	-99.810	-0.116	0.029
-390.063	70.775	-0.126	0.131
-389.048	65.536	-0.176	-0.177
-388.033	254.174	-0.008	-0.014
-387.019	266.000	0.063	0.109
-386.004	280.155	-0.112	-0.199
-384.990	103.744	-0.318	-0.373
-383.975	-1.939	-0.128	0.090
-382.960	800.000	-0.076	0.316
-381.946	-200.000	-0.002	0.145
-380.931	19.973	0.088	-0.071
-379.917	-200.000	0.004	0.177
-378.902	-113.636	0.342	-0.067
-377.888	-120.115	0.283	-0.048
-376.873	-200.000	-0.019	-0.178
-375.858	51.371	-0.094	-0.089
-374.844	270.133	0.103	0.181
-373.829	-200.000	-0.001	-0.201
-372.815	-17.342	0.339	-0.213
-371.800	800.000	0.064	0.235
-370.785	800.000	-0.116	0.500
-369.771	507.553	-0.093	0.216
-368.756	28.374	-0.088	0.074
-367.742	-55.053	-0.171	-0.077
-366.727	800.000	0.162	0.451
-365.712	-183.332	-0.450	0.008
-364.698	-200.000	-0.019	-0.200
-363.683	175.247	-0.088	-0.127
-362.669	800.000	-0.007	0.031
-361.654	444.260	-0.032	-0.070
-360.639	-85.024	0.448	-0.140
-359.625	800.000	-0.034	-0.129
-358.610	-34.490	-0.139	0.076
-357.596	-44.095	-0.098	-0.049
-356.581	5.744	0.296	0.218
-355.566	800.000	0.089	0.280
-354.552	2.964	0.170	0.123
-353.537	683.631	-0.023	0.059
-352.523	-200.000	0.018	0.260
-351.508	394.819	-0.074	0.153
-350.493	133.710	0.273	0.351
-349.479	-200.000	-0.053	-0.276
-348.464	-5.926	0.280	0.191
-347.450	-200.000	-0.025	0.352
-346.435	40.641	-0.096	0.086
-345.420	-186.950	0.095	0.001
-344.406	-95.785	0.023	-0.006
-343.391	-93.300	0.316	0.087
-342.377	-200.000	-0.039	0.184
-341.362	723.776	-0.041	0.109
-340.348	252.666	0.077	0.130
-339.333	152.615	0.163	-0.222
-338.318	486.071	-0.111	0.251
-337.304	330.354	0.122	0.233
-336.289	-164.109	0.551	0.025
-335.275	32.160	-0.163	0.140
-334.260	-92.791	0.172	-0.048
-333.245	800.000	0.121	-0.441
-332.231	30.271	0.265	-0.225
-331.216	-20.706	0.280	0.171
-330.202	108.358	-0.151	-0.179
-329.187	79.978	0.017	0.018
-328.172	3.123	-0.137	0.099
-327.158	11.010	-0.136	-0.104
-326.143	-153.366	-0.090	0.006
-325.129	-102.169	-0.173	0.041
-324.114	75.258	-0.141	0.148
-323.099	683.943	0.052	0.136
-322.085	-108.590	0.411	-0.088
-321.070	387.397	0.036	0.074
-320.056	800.000	-0.064	-0.188
-319.041	800.000	0.074	-0.258
-318.026	-2.240	0.119	-0.083
-317.012	15.519	0.184	-0.144
-315.997	800.000	-0.086	-0.257
-314.983	5.657	0.096	0.071
-313.968	800.000	-0.072	-0.295
-312.953	2.874	0.035	-0.025
-311.939	-13.475	0.242	0.156
-310.924	129.095	0.269	-0.341
-309.910	-58.906	0.203	-0.087
-308.895	-7.081	0.291	0.196
-307.880	-156.150	0.208	-0.013
-306.866	-200.000	0.036	-0.212
-305.851	-29.863	-0.064	-0.036
-304.837	26.166	0.250	-0.207
-303.822	-181.919	0.196	-0.004
-302.807	702.637	0.083	-0.218
-301.793	-72.495	-0.209	0.077
-300.778	-7.785	-0.133	0.089
-299.764	-200.000	-0.008	-0.072
-298.749	-16.980	0.298	-0.187
-297.735	-80.276	-0.129	-0.043
-296.720	-200.000	-0.080	-0.446
-295.705	-7.165	-0.136	0.092
-294.691	206.096	0.174	0.269
-293.676	25.017	0.098	-0.081
-292.662	-0.736	-0.341	-0.240
-291.647	-200.000	-0.027	0.152
-290.632	227.917	-0.280	0.453
-289.618	186.060	0.098	-0.144
-288.603	76.467	0.193	-0.203
-287.589	-200.000	-0.055	-0.248
-286.574	-48.485	0.108	-0.052
-285.559	-114.729	0.201	0.038
-284.545	-126.851	-0.241	0.035
-283.530	800.000	0.084	-0.256
-282.516	34.351	-0.093	0.080
-281.501	-200.000	0.014	0.215
-280.486	115.197	0.120	0.146
-279.472	-51.723	-0.096	0.044
-278.457	-200.000	0.003	0.076
-277.443	-70.904	-0.073	-0.027
-276.428	520.926	0.061	0.142
-275.413	-93.195	0.252	0.070
-274.399	-114.975	0.186	0.035
-273.384	-2.236	0.280	0.195
-272.370	703.209	-0.085	0.223
-271.355	-76.418	0.162	-0.056
-270.340	-158.175	-0.115	-0.007
-269.326	4.772	0.212	-0.155
-268.311	800.000	0.081	-0.317
-267.297	-200.000	-0.015	0.107
-266.282	-72.933	0.137	-0.050
-265.267	52.549	-0.174	0.165
-264.253	-181.766	0.178	0.003
-263.238	800.000	0.149	-0.445
-262.224	-200.000	-0.004	0.034
-261.209	-143.693	0.175	-0.016
-260.195	129.772	-0.129	0.164
-259.180	-200.000	0.002	0.062
-258.165	800.000	-0.061	0.168
-257.151	-112.326	-0.024	0.005
-256.136	800.000	0.041	0.134
-255.122	-66.949	-0.116	-0.046
-254.107	-200.000	0.029	-0.191
-253.092	-67.102	-0.098	0.038
-252.078	142.750	-0.161	0.212
-251.063	-200.000	0.025	0.138
-250.049	4.803	0.158	-0.115
-249.034	-51.621	-0.275	0.127
-248.019	-200.000	-0.016	-0.092
-247.005	243.883	0.067	0.111
-245.990	-4.534	0.132	0.090
-244.976	-129.638	-0.210	0.029
-243.961	155.953	0.072	0.098
-242.946	158.666	0.214	0.295
-241.932	-90.282	0.201	0.058
-240.917	-120.554	0.236	0.040
-239.903	800.000	-0.040	-0.131
-238.888	2.495	0.160	-0.115
-237.873	800.000	-0.077	0.278
-236.859	85.635	0.309	-0.337
-235.844	308.649	0.121	0.224
-234.830	613.270	-0.113	0.280
-233.815	228.205	0.061	0.098
-232.800	100.975	-0.220	-0.253
-231.786	-200.000	-0.010	0.576
-230.771	262.697	-0.062	-0.106
-229.757	-191.769	-0.017	-0.000
-228.742	411.688	-0.134	0.282
-227.727	800.000	0.029	0.122
-226.713	85.836	0.172	0.187
-225.698	-200.000	0.012	0.091
-224.684	-200.000	-0.003	-0.015
-223.669	160.577	0.046	0.064
-222.655	41.582	-0.243	0.218
-221.640	-158.471	0.287	0.016
-220.625	465.377	-0.075	0.166
-219.611	-34.531	-0.406	0.220
-218.596	-14.845	-0.222	0.141
-217.582	34.942	0.285	0.247
-216.567	-40.181	0.262	0.135
-215.552	-40.693	0.350	0.180
-214.538	-81.146	0.058	-0.019
-213.523	-200.000	-0.018	0.113
-212.509	800.000	0.087	0.337
-211.494	774.853	-0.059	-0.159
-210.479	-136.481	0.406	-0.047
-209.465	-42.058	0.167	0.085
-208.450	800.000	-0.032	0.135
-207.436	-133.930	0.345	0.042
-206.421	-200.000	-0.026	-0.289
-205.406	-200.000	-0.003	-0.202
-204.392	-23.101	-0.113	0.067
-203.377	170.190	-0.080	0.114
-202.363	800.000	0.024	-0.091
-201.348	-9.159	0.075	-0.050
-200.333	-200.000	-0.031	-0.236
-199.319	4.251	-0.250	-0.182
-198.304	-47.568	-0.098	-0.047
-197.290	-200.000	0.089	0.507
-196.275	-165.934	0.319	0.014
-195.260	-151.240	-0.251	-0.019
-194.246	-44.367	0.152	0.075
-193.231	-109.878	0.224	-0.046
-192.217	193.832	-0.051	-0.077
-191.202	-139.000	0.132	0.014
-190.187	-131.463	-0.138	-0.018
-189.173	22.488	-0.112	-0.091
-188.158	281.899	0.104	-0.184
-187.144	800.000	0.035	-0.147
-186.129	495.756	0.085	0.192
-185.114	11.048	0.070	0.053
-184.100	26.968	0.280	-0.232
-183.085	117.722	-0.110	0.134
-182.071	576.064	-0.049	0.119
-181.056	-86.196	-0.093	-0.028
-180.042	-118.664	-0.273	-0.048
-179.027	800.000	-0.014	0.039
-178.012	-200.000	-0.011	0.063
-176.998	82.397	0.212	-0.227
-175.983	50.915	0.144	-0.135
-174.969	-185.795	-0.072	-0.001
-173.954	-103.382	0.188	-0.044
-172.939	263.245	0.013	-0.022
-171.925	33.506	-0.119	0.102
-170.910	-200.000	-0.030	-0.183
-169.896	-150.022	-0.501	-0.039
-168.881	-200.000	-0.122	-0.547
-167.866	101.532	0.059	-0.067
-166.852	-10.671	-0.265	-0.173
-165.837	-106.546	0.100	-0.022
-164.823	-150.901	0.053	0.004
-163.808	800.000	-0.130	0.375
-162.793	-200.000	0.017	-0.225
-161.779	437.995	-0.070	0.151
-160.764	-58.128	-0.303	-0.130
-159.750	83.381	-0.115	-0.124
-158.735	-200.000	0.004	0.362
-157.720	87.001	0.142	0.155
-156.706	70.769	0.158	0.162
-155.691	103.896	0.063	0.073
-154.677	-9.272	0.102	-0.067
-153.662	112.560	0.211	0.252
-152.647	702.074	-0.074	0.192
-151.633	144.130	0.070	0.092
-150.618	-41.541	0.160	0.081
-149.604	-200.000	-0.026	-0.211
-148.589	-200.000	-0.052	0.272
-147.574	-200.000	0.025	0.249
-146.560	-200.000	-0.063	-0.508
-145.545	-34.420	-0.014	0.008
-144.531	-150.344	-0.088	-0.007
-143.516	-200.000	-0.016	0.114
-142.502	800.000	0.037	-0.118
-141.487	-141.530	0.150	0.015
-140.472	-52.790	-0.126	-0.057
-139.458	-66.574	-0.130	-0.051
-138.443	161.245	0.238	0.328
-137.429	-64.430	0.322	-0.129
-136.414	-63.338	0.432	-0.175
-135.399	-117.000	-0.018	0.003
-134.385	800.000	-0.028	0.083
-133.370	-50.223	-0.073	0.034
-132.356	-200.000	-0.014	0.241
-131.341	61.972	-0.143	0.141
-130.326	-50.528	-0.210	0.098
-129.312	616.123	-0.170	0.421
-128.297	150.984	0.199	-0.267
-127.283	80.513	-0.135	0.143
-126.268	60.453	0.151	-0.147
-125.253	-200.000	-0.008	-0.136
-124.239	800.000	0.030	-0.094
-123.224	-35.853	0.248	-0.133
-122.210	-100.402	0.411	-0.101
-121.195	-200.000	-0.007	-0.384
