DTS Sentinel unit serial number:	SN413079Multiplexer serial number:	ORYXHardware model number:	OX4-SRSoftware version number:	ORYX F/W v4.00 Oryx Data Collector v3.7.2.0data status	okinstallation	princeton_trtdifferential loss correction	single-endedforward channel	channel 3reverse channel	N/Adate	2019/09/15time	15:12:35forward acquisition time	60.00reverse acquisition time	0.00gamma	496.2192k internal	0.2292k external	0.2292temperature offset calibration	0.9946default loss term (dB/km)	0.3790temperature slope calibration	1.0000multiplexer offset coefficient	1.0000multiplexer slope coefficient	1.0000fibre end	0.00T internal ref (°C)	40.56T ext. ref 1 (°C)	4.98T ext. ref 2 (°C)	37.89length (m)	temperature (°C)	Stokes	anti-Stokes-747.200	-95.853	-0.160	0.044
-746.185	23.668	0.162	0.136
-745.171	99.910	0.239	-0.283
-744.156	93.216	-0.120	0.139
-743.142	479.771	0.068	-0.157
-742.127	67.353	0.177	0.185
-741.112	40.591	-0.222	0.205
-740.098	-200.000	0.056	-0.294
-739.083	-33.732	-0.119	0.067
-738.069	-200.000	-0.047	-0.251
-737.054	-168.385	-0.058	0.002
-736.039	-87.704	-0.178	0.055
-735.025	-200.000	-0.016	0.126
-734.010	-69.181	0.110	0.043
-732.996	777.918	-0.058	-0.163
-731.981	218.774	-0.166	-0.272
-730.966	157.993	-0.118	-0.167
-729.952	550.454	-0.053	-0.131
-728.937	61.199	-0.302	-0.307
-727.923	386.906	-0.047	-0.100
-726.908	-177.981	-0.209	0.005
-725.894	-200.000	-0.009	0.084
-724.879	-18.353	0.166	0.106
-723.864	744.799	-0.081	0.224
-722.850	19.794	-0.153	0.126
-721.835	800.000	0.029	0.082
-720.821	436.169	-0.127	-0.283
-719.806	137.260	-0.050	-0.067
-718.791	176.854	-0.081	-0.120
-717.777	239.072	0.065	-0.111
-716.762	-132.523	-0.421	0.055
-715.748	-76.262	-0.271	-0.098
-714.733	-200.000	-0.005	0.082
-713.718	180.076	0.095	0.142
-712.704	176.429	-0.189	-0.281
-711.689	-79.276	0.237	0.082
-710.675	130.696	-0.032	-0.042
-709.660	-151.564	0.027	-0.002
-708.645	-70.441	-0.442	0.171
-707.631	-47.425	-0.252	0.125
-706.616	-200.000	-0.009	0.284
-705.602	-140.644	-0.128	0.014
-704.587	398.654	-0.117	-0.251
-703.572	-200.000	-0.018	-0.175
-702.558	-55.523	-0.163	0.074
-701.543	128.123	-0.206	-0.268
-700.529	-113.872	-0.283	0.056
-699.514	206.857	0.100	-0.160
-698.499	680.305	0.135	-0.358
-697.485	-62.020	0.152	-0.065
-696.470	-110.651	-0.327	-0.069
-695.456	127.794	-0.106	0.137
-694.441	73.910	-0.096	-0.102
-693.426	800.000	0.084	-0.300
-692.412	-35.644	0.097	-0.054
-691.397	37.563	-0.197	-0.178
-690.383	114.362	-0.208	-0.258
-689.368	94.986	0.185	-0.215
-688.354	118.551	-0.235	0.297
-687.339	-186.180	0.145	-0.002
-686.324	47.382	-0.016	0.015
-685.310	-102.948	-0.162	0.039
-684.295	-90.842	0.189	-0.056
-683.281	-19.490	-0.153	0.097
-682.266	-57.066	-0.065	-0.029
-681.251	220.585	0.065	0.106
-680.237	683.987	-0.018	-0.049
-679.222	800.000	0.076	-0.254
-678.208	729.006	0.026	-0.072
-677.193	-165.405	-0.194	-0.009
-676.178	800.000	-0.128	-0.426
-675.164	-200.000	-0.011	0.116
-674.149	111.050	-0.111	-0.136
-673.135	101.433	0.203	-0.242
-672.120	366.064	0.051	-0.105
-671.105	-200.000	0.005	-0.282
-670.091	-79.720	0.275	-0.095
-669.076	-78.922	0.106	-0.037
-668.062	-128.023	-0.231	0.034
-667.047	-200.000	-0.031	0.150
-666.032	305.906	0.225	0.427
-665.018	-200.000	-0.001	-0.125
-664.003	-139.180	-0.157	-0.017
-662.989	800.000	0.102	0.442
-661.974	-200.000	-0.023	-0.271
-660.959	92.472	0.269	-0.310
-659.945	100.270	-0.156	0.184
-658.930	332.121	-0.144	-0.283
-657.916	-36.556	-0.082	0.045
-656.901	-198.855	-0.091	0.001
-655.886	62.060	-0.084	0.085
-654.872	-99.050	0.192	-0.050
-653.857	96.506	-0.210	-0.245
-652.843	-200.000	0.085	0.414
-651.828	339.526	-0.084	-0.166
-650.814	-160.927	-0.112	-0.006
-649.799	-3.064	0.132	-0.094
-648.784	-200.000	0.041	-0.372
-647.770	29.601	-0.131	-0.114
-646.755	-78.700	-0.079	0.027
-645.741	0.442	-0.424	-0.309
-644.726	8.512	-0.119	0.092
-643.711	800.000	0.080	0.306
-642.697	202.886	-0.120	0.189
-641.682	-200.000	0.001	0.149
-640.668	-166.139	-0.207	0.009
-639.653	37.738	-0.083	-0.075
-638.638	265.794	-0.133	0.236
-637.624	-53.019	0.369	-0.173
-636.609	-4.837	-0.300	-0.211
-635.595	112.889	0.028	-0.035
-634.580	-87.128	-0.111	0.035
-633.565	-139.279	0.188	-0.021
-632.551	93.769	-0.112	-0.129
-631.536	444.584	0.101	-0.226
-630.522	-19.628	-0.177	-0.112
-629.507	-200.000	0.009	-0.138
-628.492	-34.049	0.213	-0.120
-627.478	234.477	-0.086	-0.144
-626.463	-200.000	-0.027	0.248
-625.449	-16.250	0.224	0.145
-624.434	-92.275	0.125	0.036
-623.419	64.099	-0.099	0.101
-622.405	160.449	0.142	0.202
-621.390	139.572	0.088	0.118
-620.376	-59.095	-0.107	-0.047
-619.361	438.979	-0.133	0.295
-618.346	800.000	0.018	0.078
-617.332	-106.431	0.246	0.056
-616.317	-110.387	-0.272	0.058
-615.303	77.919	0.110	-0.119
-614.288	-200.000	0.030	0.135
-613.273	-200.000	-0.007	-0.041
-612.259	-200.000	-0.013	-0.375
-611.244	644.950	-0.014	0.036
-610.230	-106.813	0.260	0.059
-609.215	800.000	-0.018	0.059
-608.201	66.227	-0.162	-0.167
-607.186	-13.166	-0.099	-0.065
-606.171	800.000	-0.131	-0.372
-605.157	147.276	-0.119	-0.164
-604.142	221.963	-0.045	0.074
-603.128	-2.904	-0.346	0.246
-602.113	-200.000	0.015	0.085
-601.098	-34.284	-0.126	-0.070
-600.084	62.600	0.197	0.200
-599.069	172.773	-0.053	0.077
-598.055	-200.000	-0.032	-0.219
-597.040	-175.033	-0.222	0.006
-596.025	58.472	0.224	0.224
-595.011	-152.688	0.311	-0.023
-593.996	-151.499	0.164	-0.012
-592.982	-7.926	0.075	-0.052
-591.967	-66.338	0.121	0.049
-590.952	288.409	-0.147	-0.271
-589.938	-200.000	0.294	-0.000
-588.923	458.867	-0.093	0.211
-587.909	-61.402	0.181	-0.077
-586.894	-44.721	-0.149	-0.076
-585.879	35.483	-0.215	0.192
-584.865	-7.516	0.226	0.156
-583.850	291.526	-0.057	0.105
-582.836	-9.275	0.126	-0.085
-581.821	57.535	0.195	0.193
-580.806	-86.514	-0.205	0.064
-579.792	-12.818	-0.318	-0.211
-578.777	120.444	-0.082	0.104
-577.763	-200.000	0.020	-0.174
-576.748	-200.000	-0.006	0.042
-575.733	333.530	-0.088	-0.172
-574.719	155.669	-0.077	-0.109
-573.704	6.413	-0.125	-0.094
-572.690	312.904	0.075	-0.143
-571.675	-110.779	-0.181	-0.038
-570.661	-60.746	-0.143	-0.062
-569.646	800.000	-0.094	0.400
-568.631	226.538	0.093	-0.154
-567.617	800.000	0.079	0.273
-566.602	160.879	0.191	0.271
-565.588	163.317	-0.044	0.063
-564.573	-72.510	-0.092	0.035
-563.558	-99.665	-0.414	-0.106
-562.544	-37.938	-0.135	0.073
-561.529	-200.000	0.023	-0.110
-560.515	697.686	0.119	-0.319
-559.500	93.367	0.146	-0.168
-558.485	37.814	-0.115	-0.103
-557.471	-200.000	-0.002	-0.205
-556.456	-200.000	0.074	-0.377
-555.442	-148.447	0.388	0.032
-554.427	-60.988	-0.291	-0.125
-553.412	79.375	-0.270	-0.294
-552.398	-32.006	-0.172	0.098
-551.383	17.823	0.131	-0.106
-550.369	75.212	-0.046	-0.049
-549.354	-26.876	0.144	-0.085
-548.339	104.877	0.288	-0.346
-547.325	-30.316	-0.208	-0.120
-546.310	-119.927	-0.324	0.056
-545.296	-17.706	0.279	-0.178
-544.281	-92.137	-0.067	0.019
-543.266	425.108	-0.116	0.254
-542.252	32.959	-0.137	-0.121
-541.237	-144.798	-0.214	0.020
-540.223	-200.000	0.030	0.220
-539.208	800.000	-0.043	-0.165
-538.193	64.781	0.138	0.141
-537.179	-7.901	-0.134	0.092
-536.164	-70.950	0.117	-0.045
-535.150	-200.000	-0.035	-0.230
-534.135	-124.407	-0.194	0.031
-533.121	-72.743	-0.158	0.059
-532.106	800.000	-0.062	-0.218
-531.091	145.082	-0.027	-0.036
-530.077	-95.615	-0.126	-0.034
-529.062	-200.000	-0.053	0.254
-528.048	-95.332	0.246	-0.067
-527.033	84.879	-0.131	-0.146
-526.018	-113.087	0.301	0.060
-525.004	12.070	0.163	0.127
-523.989	-200.000	0.044	0.204
-522.975	-34.979	-0.147	0.081
-521.960	-118.640	0.063	-0.011
-520.945	-72.598	0.101	0.038
-519.931	-3.778	-0.267	-0.188
-518.916	-200.000	0.008	-0.189
-517.902	-100.592	0.277	0.070
-516.887	-91.756	0.277	0.080
-515.872	-121.985	0.522	-0.087
-514.858	-41.661	-0.190	0.099
-513.843	180.079	0.087	-0.129
-512.829	55.262	0.164	0.161
-511.814	116.677	0.153	-0.191
-510.799	800.000	0.083	-0.278
-509.785	-200.000	-0.032	0.187
-508.770	55.280	-0.033	0.032
-507.756	187.938	-0.113	0.171
-506.741	149.134	-0.077	-0.105
-505.726	35.191	-0.047	0.042
-504.712	-143.033	0.296	-0.029
-503.697	-149.730	-0.571	-0.046
-502.683	655.951	0.075	-0.196
-501.668	58.280	0.154	0.153
-500.653	-200.000	-0.006	0.543
-499.639	361.060	-0.096	-0.195
-498.624	11.430	0.141	-0.110
-497.610	-8.083	-0.309	0.211
-496.595	-89.280	-0.117	0.035
-495.581	-200.000	0.079	0.000
-494.566	462.531	-0.162	-0.368
-493.551	-139.586	0.360	0.039
-492.537	177.399	-0.195	0.288
-491.522	0.772	0.259	-0.188
-490.508	-200.000	-0.050	0.238
-489.493	81.929	0.099	0.108
-488.478	-200.000	0.096	-0.433
-487.464	752.368	-0.041	-0.112
-486.449	471.324	-0.030	0.068
-485.435	44.517	0.073	-0.068
-484.420	-78.985	-0.263	0.091
-483.405	1.383	-0.122	-0.089
-482.391	-200.000	0.014	-0.160
-481.376	-108.724	-0.081	-0.018
-480.362	166.459	-0.090	-0.129
-479.347	-52.651	0.179	-0.084
-478.332	-54.708	0.235	0.108
-477.318	170.735	0.100	0.145
-476.303	-200.000	-0.019	-0.203
-475.289	-121.450	0.358	-0.060
-474.274	-200.000	-0.012	-0.260
-473.259	-85.168	0.190	-0.060
-472.245	9.149	-0.177	-0.135
-471.230	-65.477	0.193	-0.079
-470.216	-37.419	-0.303	0.164
-469.201	18.571	0.220	-0.178
-468.186	145.830	-0.032	0.044
-467.172	800.000	0.096	-0.294
-466.157	-6.920	-0.190	0.131
-465.143	558.672	-0.162	-0.396
-464.128	-136.772	-0.204	-0.024
-463.113	-41.249	0.206	0.108
-462.099	58.798	0.087	0.086
-461.084	-124.628	0.328	0.051
-460.070	87.193	0.164	0.184
-459.055	281.991	0.182	-0.330
-458.040	-122.725	0.257	0.042
-457.026	-119.176	-0.498	-0.088
-456.011	527.570	0.050	-0.120
-454.997	-24.687	-0.383	0.230
-453.982	1.693	-0.380	0.277
-452.968	437.826	-0.096	0.213
-451.953	8.215	-0.237	0.180
-450.938	-98.772	0.182	-0.047
-449.924	-183.533	0.311	-0.005
-448.909	-2.912	-0.101	-0.071
-447.895	800.000	0.051	-0.210
-446.880	209.180	-0.063	0.100
-445.865	-200.000	0.009	0.171
-444.851	-16.320	0.116	-0.075
-443.836	36.461	-0.050	-0.044
-442.822	-200.000	0.029	-0.136
-441.807	-200.000	-0.010	-0.048
-440.792	33.192	0.124	-0.109
-439.778	-200.000	-0.005	0.141
-438.763	-63.719	-0.174	0.072
-437.749	-200.000	0.090	-0.482
-436.734	-57.499	0.221	0.098
-435.719	-161.241	-0.236	0.012
-434.705	107.772	0.080	-0.096
-433.690	108.055	0.174	0.210
-432.676	-65.788	-0.175	0.071
-431.661	-200.000	0.020	-0.175
-430.646	-49.060	-0.195	-0.095
-429.632	-137.894	-0.132	0.015
-428.617	187.228	-0.008	0.011
-427.603	-174.429	-0.038	0.001
-426.588	7.773	-0.190	0.144
-425.573	245.804	-0.077	0.132
-424.559	-200.000	-0.083	0.367
-423.544	-87.805	-0.227	0.069
-422.530	-200.000	-0.064	-0.389
-421.515	-87.170	-0.084	0.026
-420.500	-105.492	-0.354	-0.081
-419.486	-35.109	0.072	0.040
-418.471	657.165	-0.049	0.127
-417.457	202.845	-0.054	0.085
-416.442	443.443	0.059	-0.131
-415.428	115.814	0.196	-0.242
-414.413	800.000	-0.036	0.155
-413.398	-69.371	0.116	0.045
-412.384	-74.209	0.158	0.058
-411.369	566.746	0.098	0.241
-410.355	800.000	-0.057	-0.224
-409.340	-46.167	-0.353	-0.176
-408.325	-148.663	0.183	0.015
-407.311	-150.657	0.020	0.002
-406.296	-200.000	-0.001	-0.093
-405.282	800.000	0.041	-0.153
-404.267	105.526	0.325	-0.388
-403.252	282.235	0.131	0.237
-402.238	-127.142	-0.240	-0.035
-401.223	-25.545	-0.168	0.100
-400.209	800.000	0.053	-0.231
-399.194	800.000	-0.118	0.332
-398.179	-72.828	-0.224	-0.083
-397.165	-104.439	0.184	-0.043
-396.150	800.000	-0.079	0.283
-395.136	77.737	0.381	0.409
-394.121	-173.774	-0.280	-0.008
-393.106	24.736	0.143	-0.120
-392.092	-98.002	-0.149	-0.039
-391.077	11.576	0.055	-0.043
-390.063	-169.070	0.100	0.004
-389.048	-56.338	0.146	0.066
-388.033	231.518	-0.138	0.228
-387.019	286.053	0.058	0.106
-386.004	-105.038	-0.284	0.066
-384.990	365.412	-0.223	0.454
-383.975	254.519	0.113	-0.195
-382.960	137.940	0.057	0.075
-381.946	800.000	0.107	0.361
-380.931	441.512	0.060	0.132
-379.917	-77.147	-0.104	0.036
-378.902	2.721	0.058	0.043
-377.888	44.281	0.120	-0.111
-376.873	-147.563	-0.031	-0.003
-375.858	99.800	-0.116	0.135
-374.844	-4.169	0.309	0.216
-373.829	69.812	-0.126	-0.131
-372.815	-200.000	0.017	0.165
-371.800	157.456	-0.164	-0.230
-370.785	398.593	-0.159	-0.335
-369.771	264.328	0.080	0.140
-368.756	-102.588	-0.248	-0.060
-367.742	-104.363	0.314	0.073
-366.727	558.985	-0.094	0.230
-365.712	50.696	-0.077	0.073
-364.698	438.560	0.083	0.183
-363.683	-0.328	-0.295	-0.211
-362.669	-79.114	0.217	-0.074
-361.654	800.000	-0.036	0.141
-360.639	622.103	0.040	0.103
-359.625	0.152	0.306	0.220
-358.610	-200.000	-0.003	-0.399
-357.596	-77.166	0.270	-0.095
-356.581	-100.077	-0.263	-0.066
-355.566	-200.000	-0.012	0.241
-354.552	169.014	0.134	0.192
-353.537	800.000	-0.021	-0.085
-352.523	-63.446	-0.176	-0.073
-351.508	-200.000	-0.010	0.254
-350.493	226.305	0.172	-0.281
-349.479	-1.289	-0.130	0.093
-348.464	-42.553	-0.102	-0.052
-347.450	-3.092	-0.324	-0.228
-346.435	-57.474	-0.103	0.046
-345.420	-167.653	-0.124	0.005
-344.406	7.268	0.316	-0.237
-343.391	-39.680	0.167	-0.088
-342.377	-84.662	0.171	0.054
-341.362	126.471	-0.033	-0.042
-340.348	385.167	-0.113	0.235
-339.333	-200.000	0.006	0.270
-338.318	250.822	-0.005	-0.009
-337.304	93.953	0.275	0.314
-336.289	494.420	0.152	0.351
-335.275	-172.571	-0.218	-0.007
-334.260	18.506	-0.049	0.039
-333.245	338.778	0.068	0.133
-332.231	-59.765	0.089	-0.038
-331.216	-200.000	-0.049	0.226
-330.202	-75.717	0.070	0.025
-329.187	-102.418	0.148	-0.036
-328.172	-135.300	0.270	-0.033
-327.158	-155.795	0.191	-0.012
-326.143	800.000	-0.097	0.292
-325.129	78.379	0.038	-0.041
-324.114	348.228	-0.078	-0.155
-323.099	199.866	-0.056	-0.087
-322.085	4.795	0.044	-0.033
-321.070	40.509	-0.169	-0.153
-320.056	-45.911	-0.106	-0.053
-319.041	153.947	-0.140	0.194
-318.026	-97.685	-0.122	-0.032
-317.012	-41.124	0.352	0.183
-315.997	32.680	-0.094	-0.082
-314.983	-62.659	0.089	-0.037
-313.968	-65.473	-0.223	0.090
-312.953	78.181	0.164	0.176
-311.939	-10.037	-0.238	0.159
-310.924	800.000	0.047	0.185
-309.910	-200.000	0.016	-0.203
-308.895	418.802	-0.094	0.201
-307.880	392.505	-0.050	0.105
-306.866	-86.972	0.213	-0.065
-305.851	-200.000	-0.001	-0.058
-304.837	-43.082	0.081	-0.041
-303.822	800.000	-0.070	-0.229
-302.807	-200.000	0.029	-0.169
-301.793	97.861	-0.071	-0.082
-300.778	123.211	0.265	0.334
-299.764	242.775	0.211	0.356
-298.749	-140.049	-0.156	0.017
-297.735	-8.557	-0.291	0.197
-296.720	111.452	0.076	0.092
-295.705	-62.019	0.132	-0.056
-294.691	-200.000	-0.043	0.315
-293.676	465.797	0.083	-0.187
-292.662	-68.099	0.115	-0.045
-291.647	45.941	-0.208	-0.193
-290.632	800.000	0.114	-0.380
-289.618	242.466	0.097	0.164
-288.603	-15.028	0.089	0.057
-287.589	-200.000	-0.002	0.165
-286.574	800.000	-0.090	0.265
-285.559	103.820	0.226	-0.266
-284.545	280.744	0.021	-0.039
-283.530	-102.751	-0.148	0.035
-282.516	-200.000	-0.025	0.196
-281.501	541.905	0.059	0.142
-280.486	169.581	-0.192	-0.276
-279.472	357.296	-0.098	0.196
-278.457	-200.000	0.055	0.256
-277.443	485.927	-0.030	0.069
-276.428	-119.299	0.052	-0.009
-275.413	-161.009	0.060	0.003
-274.399	-112.334	0.095	-0.019
-273.384	-200.000	0.028	0.168
-272.370	-200.000	-0.018	0.639
-271.355	-34.796	-0.036	-0.020
-270.340	-67.567	0.367	0.145
-269.326	60.418	-0.141	-0.140
-268.311	-155.029	-0.132	-0.009
-267.297	680.976	0.084	-0.221
-266.282	79.495	-0.132	-0.142
-265.267	800.000	0.061	-0.251
-264.253	-93.206	-0.370	-0.103
-263.238	483.158	0.111	0.253
-262.224	-155.364	-0.176	0.011
-261.209	-94.891	0.088	0.024
-260.195	-200.000	0.011	-0.207
-259.180	-100.880	0.377	-0.093
-258.165	28.298	-0.192	0.163
-257.151	-200.000	0.003	-0.028
-256.136	316.157	0.022	0.042
-255.122	-200.000	-0.057	0.307
-254.107	637.503	-0.100	0.255
-253.092	174.734	0.168	-0.244
-252.078	-108.377	-0.195	-0.042
-251.063	-2.677	-0.191	-0.134
-250.049	-113.936	0.146	-0.028
-249.034	800.000	-0.037	-0.148
-248.019	-49.016	-0.158	0.076
-247.005	284.461	0.021	0.038
-245.990	-97.886	-0.089	-0.023
-244.976	800.000	0.071	-0.228
-243.961	20.859	0.122	0.099
-242.946	-200.000	0.024	-0.174
-241.932	80.467	0.216	0.234
-240.917	-40.093	0.088	0.046
-239.903	-77.224	0.221	0.077
-238.888	800.000	0.032	-0.100
-237.873	554.862	0.039	-0.094
-236.859	313.590	0.053	-0.100
-235.844	-195.849	0.304	-0.002
-234.830	-200.000	0.003	0.184
-233.815	279.811	-0.281	-0.504
-232.800	-82.675	-0.078	0.025
-231.786	180.500	0.280	-0.413
-230.771	-141.018	0.186	-0.019
-229.757	59.968	0.035	0.034
-228.742	109.299	0.242	-0.291
-227.727	-17.200	-0.375	-0.237
-226.713	-102.454	-0.345	-0.083
-225.698	-200.000	0.043	-0.332
-224.684	-89.431	-0.180	0.053
-223.669	547.793	0.134	0.322
-222.655	48.646	0.199	0.187
-221.640	-200.000	0.016	0.139
-220.625	-200.000	0.039	-0.385
-219.611	-20.380	-0.130	-0.080
-218.596	-200.000	0.014	0.139
-217.582	-200.000	0.021	-0.294
-216.567	421.908	0.065	0.140
-215.552	-172.443	0.039	0.001
-214.538	-200.000	0.036	0.230
-213.523	800.000	0.035	-0.147
-212.509	-200.000	-0.059	0.276
-211.494	140.538	0.081	0.107
-210.479	-85.071	0.176	-0.055
-209.465	263.786	-0.028	0.048
-208.450	268.419	0.064	0.112
-207.436	66.120	-0.245	0.250
-206.421	-118.040	-0.451	-0.081
-205.406	-124.630	-0.430	0.067
-204.392	480.701	-0.082	-0.187
-203.377	45.984	-0.140	0.130
-202.363	117.647	0.328	-0.405
-201.348	104.855	0.155	-0.183
-200.333	-11.234	-0.145	-0.096
-199.319	53.365	-0.054	0.052
-198.304	-7.895	0.309	0.209
-197.290	-147.920	-0.177	0.015
-196.275	-33.759	-0.158	-0.087
-195.260	-131.006	0.024	0.003
-194.246	-158.061	0.311	0.018
-193.231	1.236	0.131	0.095
-192.217	249.373	-0.090	-0.153
-191.202	-190.693	-0.116	0.001
-190.187	-79.169	0.246	0.084
-189.173	70.216	0.268	-0.277
-188.158	-115.597	0.108	0.020
-187.144	800.000	0.065	-0.237
-186.129	62.439	0.020	0.020
-185.114	-200.000	-0.009	-0.092
-184.100	220.616	-0.065	-0.105
-183.085	-149.351	-0.148	-0.012
-182.071	-53.983	-0.192	0.088
-181.056	-200.000	-0.045	0.198
-180.042	-107.791	-0.164	0.036
-179.027	-95.841	0.383	0.102
-178.012	-200.000	0.092	-0.469
-176.998	-65.500	-0.101	-0.041
-175.983	83.506	0.352	0.384
-174.969	184.245	0.129	0.191
-173.954	-31.101	0.089	-0.050
-172.939	67.808	0.269	-0.275
-171.925	236.945	-0.056	0.093
-170.910	242.936	-0.155	0.260
-169.896	-200.000	0.026	-0.126
-168.881	800.000	0.061	0.264
-167.866	800.000	-0.153	0.441
-166.852	800.000	-0.057	-0.189
-165.837	-26.301	0.185	-0.109
-164.823	255.257	-0.115	0.197
-163.808	113.300	0.058	0.071
-162.793	451.913	0.021	-0.046
-161.779	800.000	-0.069	-0.253
-160.764	115.774	-0.196	-0.240
-159.750	57.366	0.192	-0.187
-158.735	-200.000	-0.002	0.384
-157.720	-200.000	-0.006	-0.178
-156.706	91.247	0.098	-0.110
-155.691	800.000	-0.081	0.246
-154.677	182.039	0.228	0.336
-153.662	237.945	-0.021	0.035
-152.647	-117.740	-0.304	-0.055
-151.633	-40.251	0.264	-0.137
-150.618	-32.268	0.137	0.077
-149.604	-15.480	0.211	-0.135
-148.589	728.354	-0.061	0.162
-147.574	268.823	0.079	-0.139
-146.560	117.164	-0.092	-0.113
-145.545	287.508	0.003	0.005
-144.531	800.000	-0.016	0.046
-143.516	-200.000	0.007	-0.204
-142.502	-137.290	-0.489	-0.055
-141.487	-80.685	0.258	0.086
-140.472	-200.000	-0.042	-0.228
-139.458	-200.000	-0.036	0.253
-138.443	-46.794	-0.269	-0.132
-137.429	-200.000	-0.057	0.274
-136.414	-1.567	-0.216	-0.152
-135.399	12.586	-0.235	0.181
-134.385	-105.217	0.351	-0.080
-133.370	338.202	-0.083	-0.161
-132.356	12.143	-0.229	0.176
-131.341	163.072	-0.103	0.144
-130.326	271.357	-0.140	0.246
-129.312	201.836	-0.156	0.240
-128.297	-200.000	0.028	-0.293
-127.283	-174.109	-0.165	0.005
-126.268	-39.943	-0.312	0.163
-125.253	236.930	0.137	-0.226
-124.239	-183.314	0.190	0.003
-123.224	-200.000	-0.025	0.215
-122.210	102.556	-0.289	0.337
-121.195	8.880	0.296	-0.223
