DTS Sentinel unit serial number:	SN413079Multiplexer serial number:	ORYXHardware model number:	OX4-SRSoftware version number:	ORYX F/W v4.00 Oryx Data Collector v3.7.2.0data status	okinstallation	princeton_trtdifferential loss correction	single-endedforward channel	channel 3reverse channel	N/Adate	2019/09/17time	03:20:35forward acquisition time	60.00reverse acquisition time	0.00gamma	496.2192k internal	0.2323k external	0.2323temperature offset calibration	0.9943default loss term (dB/km)	0.3790temperature slope calibration	1.0000multiplexer offset coefficient	1.0000multiplexer slope coefficient	1.0000fibre end	0.00T internal ref (°C)	30.00T ext. ref 1 (°C)	0.13T ext. ref 2 (°C)	24.87length (m)	temperature (°C)	Stokes	anti-Stokes-747.200	-65.545	0.077	0.031
-746.185	800.000	-0.015	0.060
-745.171	-102.990	0.272	-0.065
-744.156	-152.257	0.169	0.012
-743.142	67.268	-0.200	0.206
-742.127	112.849	0.273	0.334
-741.112	261.099	0.249	0.435
-740.098	800.000	-0.039	0.149
-739.083	55.320	-0.089	-0.087
-738.069	-37.731	-0.307	0.165
-737.054	-20.391	0.340	0.211
-736.039	-100.000	-0.198	0.050
-735.025	414.241	0.034	0.073
-734.010	88.552	-0.066	0.074
-732.996	-55.382	0.021	-0.010
-731.981	540.529	0.155	-0.372
-730.966	-100.253	-0.076	-0.019
-729.952	-32.715	-0.130	-0.073
-728.937	26.904	-0.207	-0.176
-727.923	-137.490	-0.225	0.026
-726.908	-30.534	-0.330	-0.189
-725.894	-10.379	-0.227	-0.152
-724.879	115.144	-0.230	-0.284
-723.864	-27.927	0.299	0.175
-722.850	-86.930	0.127	0.039
-721.835	-200.000	0.016	-0.485
-720.821	-200.000	-0.008	0.277
-719.806	688.469	-0.131	0.347
-718.791	204.701	0.151	-0.236
-717.777	0.559	-0.137	-0.099
-716.762	168.381	0.136	-0.195
-715.748	-81.965	0.211	-0.070
-714.733	48.829	-0.323	0.306
-713.718	-144.497	0.213	0.020
-712.704	84.793	0.115	-0.127
-711.689	-9.970	-0.157	0.105
-710.675	-184.802	0.164	0.003
-709.660	-136.103	-0.488	0.058
-708.645	-200.000	-0.028	-0.334
-707.631	-37.923	0.363	-0.195
-706.616	83.786	-0.106	-0.117
-705.602	42.704	-0.140	-0.129
-704.587	102.697	-0.157	-0.185
-703.572	-118.104	-0.109	-0.020
-702.558	-37.725	-0.208	-0.111
-701.543	-2.852	0.077	0.055
-700.529	152.763	0.255	-0.351
-699.514	39.935	-0.065	-0.058
-698.499	204.831	-0.151	-0.236
-697.485	354.271	-0.144	-0.289
-696.470	162.593	0.157	0.222
-695.456	80.480	0.183	0.199
-694.441	90.042	0.348	0.392
-693.426	800.000	0.049	0.209
-692.412	-200.000	0.023	-0.191
-691.397	-200.000	0.018	0.281
-690.383	-39.447	-0.197	0.104
-689.368	32.027	-0.121	-0.105
-688.354	70.023	0.196	0.204
-687.339	-180.272	0.216	-0.005
-686.324	14.923	-0.175	-0.138
-685.310	159.534	-0.138	-0.193
-684.295	6.773	0.072	-0.054
-683.281	641.822	0.013	-0.033
-682.266	130.841	-0.123	0.159
-681.251	-97.866	-0.163	-0.042
-680.237	-117.927	0.228	0.041
-679.222	800.000	0.042	-0.173
-678.208	54.756	-0.333	-0.324
-677.193	232.943	0.085	-0.141
-676.178	234.737	0.192	-0.320
-675.164	-155.332	0.070	-0.005
-674.149	514.390	-0.068	0.160
-673.135	65.326	-0.003	0.003
-672.120	536.733	0.128	-0.306
-671.105	74.000	-0.222	-0.235
-670.091	119.421	0.093	0.115
-669.076	-53.485	-0.234	-0.108
-668.062	-125.179	0.154	0.024
-667.047	-144.559	-0.347	-0.032
-666.032	-121.769	-0.105	0.017
-665.018	155.323	0.390	-0.541
-664.003	-74.989	-0.162	0.058
-662.989	-40.284	-0.170	-0.089
-661.974	-157.267	-0.161	-0.010
-660.959	42.036	-0.248	-0.227
-659.945	187.732	0.073	0.110
-658.930	-33.214	-0.139	-0.077
-657.916	197.772	0.157	0.241
-656.901	180.231	0.041	-0.060
-655.886	-200.000	-0.001	-0.021
-654.872	-188.328	-0.219	-0.003
-653.857	58.414	0.091	-0.089
-652.843	43.864	0.342	0.315
-651.828	-69.420	-0.258	0.099
-650.814	26.370	0.159	-0.134
-649.799	41.616	-0.187	0.170
-648.784	-52.680	-0.159	-0.074
-647.770	138.510	0.080	0.105
-646.755	-200.000	-0.006	0.080
-645.741	-44.711	-0.336	-0.169
-644.726	-103.264	-0.119	0.028
-643.711	41.374	-0.346	0.315
-642.697	81.957	0.131	-0.143
-641.682	504.195	-0.128	-0.297
-640.668	-56.480	-0.328	-0.146
-639.653	256.414	-0.051	0.088
-638.638	-22.744	-0.336	-0.204
-637.624	108.516	-0.067	-0.081
-636.609	64.854	-0.155	-0.157
-635.595	-200.000	-0.195	-0.000
-634.580	415.086	0.106	0.227
-633.565	169.874	0.125	0.180
-632.551	-18.923	-0.239	0.150
-631.536	800.000	-0.060	0.189
-630.522	-161.688	0.206	0.011
-629.507	-200.000	0.004	0.039
-628.492	-43.265	-0.165	-0.084
-627.478	-53.235	-0.087	0.040
-626.463	800.000	-0.019	-0.068
-625.449	18.075	0.227	0.182
-624.434	-47.438	0.151	-0.074
-623.419	115.868	-0.143	0.176
-622.405	95.316	0.223	0.256
-621.390	-116.957	0.456	-0.084
-620.376	800.000	-0.115	-0.372
-619.361	-78.771	0.086	-0.030
-618.346	453.881	0.142	-0.315
-617.332	67.203	0.187	-0.192
-616.317	-200.000	-0.063	-0.368
-615.303	800.000	-0.035	0.100
-614.288	371.699	-0.079	-0.160
-613.273	-77.243	-0.110	-0.038
-612.259	-98.518	-0.239	-0.061
-611.244	203.826	-0.151	-0.234
-610.230	5.107	0.243	0.180
-609.215	-14.245	-0.137	-0.089
-608.201	-52.064	0.092	-0.043
-607.186	-200.000	0.071	0.325
-606.171	129.191	-0.275	-0.352
-605.157	-6.362	-0.075	-0.052
-604.142	91.329	0.154	-0.173
-603.128	-50.793	-0.288	-0.136
-602.113	226.866	-0.089	0.145
-601.098	668.993	0.077	0.199
-600.084	-200.000	0.013	-0.102
-599.069	-84.813	0.242	0.077
-598.055	91.750	0.221	-0.249
-597.040	-84.201	-0.081	-0.026
-596.025	-62.057	-0.110	0.046
-595.011	42.026	-0.058	-0.053
-593.996	44.879	-0.011	0.010
-592.982	405.898	0.028	0.058
-591.967	800.000	0.097	-0.374
-590.952	-118.378	0.447	0.080
-589.938	-144.484	-0.094	-0.009
-588.923	800.000	0.023	-0.066
-587.909	-200.000	-0.025	-0.147
-586.894	-200.000	0.032	-0.174
-585.879	-200.000	-0.024	-0.169
-584.865	-200.000	-0.043	-0.341
-583.850	-195.087	-0.462	-0.004
-582.836	-200.000	-0.017	-0.430
-581.821	-35.473	0.165	-0.090
-580.806	-200.000	0.028	-0.271
-579.792	-58.381	0.283	-0.123
-578.777	-81.118	0.277	-0.092
-577.763	-84.846	0.463	-0.146
-576.748	315.455	-0.157	-0.298
-575.733	-132.403	-0.203	-0.026
-574.719	540.374	-0.041	0.099
-573.704	-81.100	0.352	0.117
-572.690	505.758	-0.061	0.142
-571.675	-34.988	-0.474	-0.259
-570.661	-118.384	-0.213	-0.038
-569.646	-119.891	0.183	0.031
-568.631	290.244	-0.033	-0.059
-567.617	-52.743	0.271	-0.126
-566.602	800.000	0.008	-0.028
-565.588	49.847	0.190	-0.179
-564.573	81.831	-0.124	0.134
-563.558	-28.789	0.198	0.114
-562.544	-18.719	0.062	0.039
-561.529	-38.171	-0.107	-0.057
-560.515	226.312	0.056	-0.091
-559.500	148.686	-0.196	0.266
-558.485	-200.000	0.013	0.181
-557.471	5.613	-0.075	-0.056
-556.456	597.024	-0.102	0.253
-555.442	37.498	-0.176	0.157
-554.427	77.617	0.146	-0.156
-553.412	-169.733	-0.130	-0.005
-552.398	-31.098	0.188	0.106
-551.383	-31.198	0.039	0.022
-550.369	-36.702	-0.050	-0.027
-549.354	167.837	-0.111	0.158
-548.339	183.070	0.104	0.155
-547.325	108.965	0.099	0.119
-546.310	7.037	0.142	0.106
-545.296	-200.000	-0.009	0.080
-544.281	110.430	0.025	-0.030
-543.266	-160.005	0.169	0.009
-542.252	-200.000	-0.028	0.164
-541.237	239.126	-0.120	-0.200
-540.223	53.708	0.067	0.064
-539.208	-27.304	-0.264	0.154
-538.193	-23.788	-0.309	-0.186
-537.179	-200.000	-0.022	-0.251
-536.164	-33.104	0.231	-0.128
-535.150	-200.000	-0.042	0.256
-534.135	-200.000	0.007	-0.117
-533.121	-200.000	0.023	0.400
-532.106	-35.363	0.409	0.223
-531.091	265.409	-0.099	-0.173
-530.077	-121.143	0.255	0.043
-529.062	-200.000	-0.043	0.253
-528.048	-169.966	0.312	-0.011
-527.033	-92.496	-0.091	-0.026
-526.018	204.272	0.058	-0.090
-525.004	-24.813	0.213	0.127
-523.989	57.540	-0.476	-0.466
-522.975	-200.000	0.038	-0.218
-521.960	93.924	0.100	0.113
-520.945	800.000	-0.072	-0.261
-519.931	-65.811	-0.163	-0.065
-518.916	-200.000	0.019	0.324
-517.902	78.904	-0.081	-0.087
-516.887	800.000	-0.119	-0.369
-515.872	-33.366	-0.126	0.070
-514.858	-165.090	0.392	0.017
-513.843	-29.061	-0.284	0.163
-512.829	-200.000	-0.021	-0.134
-511.814	-200.000	-0.001	0.188
-510.799	709.357	0.064	-0.170
-509.785	-66.354	0.160	0.063
-508.770	56.128	0.164	-0.160
-507.756	97.566	-0.096	0.110
-506.741	-200.000	-0.065	0.313
-505.726	246.670	0.068	-0.114
-504.712	-200.000	-0.025	0.223
-503.697	-69.324	-0.215	0.083
-502.683	-200.000	-0.041	0.194
-501.668	-117.282	-0.436	-0.079
-500.653	800.000	0.071	-0.218
-499.639	9.516	-0.139	-0.105
-498.624	-200.000	-0.003	-0.105
-497.610	140.627	0.176	0.233
-496.595	-71.991	0.239	0.089
-495.581	-184.291	-0.263	-0.004
-494.566	-200.000	-0.288	0.000
-493.551	710.194	-0.013	0.035
-492.537	6.663	0.040	-0.029
-491.522	-85.526	-0.270	0.084
-490.508	-200.000	-0.041	-0.203
-489.493	-3.364	0.055	-0.038
-488.478	-200.000	-0.002	-0.100
-487.464	-157.266	-0.344	-0.021
-486.449	-200.000	0.008	0.365
-485.435	10.499	-0.237	-0.181
-484.420	-67.737	-0.188	0.073
-483.405	-63.776	-0.348	-0.143
-482.391	800.000	0.144	-0.413
-481.376	-200.000	0.014	0.277
-480.362	87.991	-0.165	0.182
-479.347	137.834	-0.235	-0.308
-478.332	-63.461	0.255	-0.105
-477.318	800.000	-0.078	0.279
-476.303	-118.044	-0.038	0.007
-475.289	-82.226	-0.350	0.114
-474.274	264.744	-0.084	0.147
-473.259	152.834	-0.229	0.313
-472.245	-200.000	0.012	0.170
-471.230	-76.486	0.415	-0.146
-470.216	338.097	0.030	0.057
-469.201	-157.757	0.197	0.012
-468.186	131.569	-0.137	-0.175
-467.172	62.934	-0.076	-0.076
-466.157	168.177	-0.096	-0.137
-465.143	160.224	0.318	-0.443
-464.128	-16.267	-0.113	0.072
-463.113	-147.793	0.377	-0.031
-462.099	-85.669	0.148	-0.046
-461.084	-125.288	-0.313	0.048
-460.070	13.108	0.146	0.113
-459.055	-200.000	-0.065	-0.343
-458.040	-200.000	-0.067	0.320
-457.026	-3.911	-0.413	0.286
-456.011	-200.000	0.003	-0.284
-454.997	-200.000	-0.006	-0.389
-453.982	-185.951	0.073	0.001
-452.968	112.437	0.183	-0.222
-451.953	-75.950	-0.133	0.047
-450.938	-35.724	0.149	0.081
-449.924	235.716	-0.165	0.272
-448.909	-200.000	-0.183	-0.000
-447.895	-64.821	0.086	0.035
-446.880	-200.000	0.012	0.073
-445.865	800.000	-0.058	0.205
-444.851	-112.907	-0.105	0.021
-443.836	235.261	-0.051	-0.083
-442.822	-105.203	0.257	-0.059
-441.807	800.000	0.041	-0.168
-440.792	-200.000	0.014	-0.075
-439.778	59.958	-0.154	0.152
-438.763	-200.000	0.007	0.163
-437.749	-86.906	-0.078	-0.024
-436.734	-62.413	-0.214	-0.089
-435.719	590.625	-0.048	-0.118
-434.705	31.372	-0.116	0.099
-433.690	309.560	0.210	0.392
-432.676	421.003	0.009	0.018
-431.661	121.034	0.175	0.217
-430.646	-49.187	0.351	0.167
-429.632	-155.027	0.123	0.008
-428.617	-38.260	-0.278	-0.147
-427.603	177.541	0.133	-0.193
-426.588	800.000	0.083	0.353
-425.573	-200.000	-0.028	0.221
-424.559	-107.378	-0.065	-0.014
-423.544	800.000	-0.015	-0.043
-422.530	-52.902	-0.336	-0.155
-421.515	-57.722	-0.185	-0.081
-420.500	-134.700	0.158	-0.019
-419.486	-200.000	-0.034	0.191
-418.471	302.750	-0.062	-0.114
-417.457	-12.600	-0.049	0.032
-416.442	339.487	0.120	-0.234
-415.428	-72.658	-0.241	-0.089
-414.413	-120.386	-0.104	0.018
-413.398	800.000	-0.095	-0.338
-412.384	113.479	0.127	0.154
-411.369	-107.434	0.330	0.072
-410.355	572.498	-0.018	0.043
-409.340	-87.262	0.084	-0.025
-408.325	-200.000	0.004	-0.082
-407.311	-14.517	0.241	-0.155
-406.296	4.347	0.141	-0.103
-405.282	134.887	0.172	-0.223
-404.267	134.230	-0.092	0.119
-403.252	-40.858	-0.201	0.103
-402.238	69.224	0.239	-0.245
-401.223	-160.875	0.306	0.016
-400.209	-200.000	-0.010	-0.141
-399.194	90.442	-0.118	-0.132
-398.179	800.000	0.056	-0.189
-397.165	61.241	0.095	-0.094
-396.150	-35.507	0.227	0.123
-395.136	83.513	0.105	0.114
-394.121	800.000	0.097	0.268
-393.106	46.042	-0.161	-0.148
-392.092	-98.620	-0.062	0.016
-391.077	-191.919	0.103	-0.001
-390.063	-200.000	-0.069	0.330
-389.048	-200.000	-0.013	0.109
-388.033	198.722	0.178	-0.272
-387.019	800.000	-0.065	-0.250
-386.004	800.000	0.129	0.486
-384.990	-2.511	0.412	0.287
-383.975	800.000	-0.083	-0.296
-382.960	-116.585	-0.334	0.061
-381.946	-132.082	-0.060	-0.008
-380.931	21.270	-0.101	0.081
-379.917	-37.093	0.068	-0.036
-378.902	98.667	0.150	-0.173
-377.888	800.000	0.030	0.121
-376.873	-200.000	-0.017	-0.235
-375.858	262.707	-0.166	-0.287
-374.844	240.277	0.056	0.093
-373.829	-125.941	0.286	0.043
-372.815	-145.734	0.301	0.027
-371.800	-83.806	0.124	-0.040
-370.785	800.000	0.033	0.139
-369.771	-129.145	-0.158	0.022
-368.756	-143.937	-0.187	0.018
-367.742	-131.768	0.283	0.037
-366.727	800.000	0.047	0.167
-365.712	800.000	0.039	0.140
-364.698	83.721	-0.039	0.042
-363.683	-127.197	-0.357	-0.052
-362.669	-174.789	0.392	0.011
-361.654	-106.150	-0.029	0.007
-360.639	132.347	0.014	-0.018
-359.625	-200.000	-0.025	0.377
-358.610	-200.000	0.012	-0.237
-357.596	-200.000	0.006	-0.156
-356.581	-50.570	-0.197	0.092
-355.566	626.891	0.103	-0.258
-354.552	-145.745	-0.305	0.027
-353.537	-200.000	0.032	-0.259
-352.523	-98.655	0.149	0.038
-351.508	336.642	0.081	-0.157
-350.493	-58.566	0.250	-0.108
-349.479	800.000	0.024	-0.101
-348.464	-85.549	-0.159	0.049
-347.450	11.811	-0.130	-0.099
-346.435	-200.000	0.005	-0.044
-345.420	800.000	0.091	-0.348
-344.406	-200.000	0.016	0.221
-343.391	52.748	-0.142	0.135
-342.377	-139.436	-0.349	-0.037
-341.362	439.515	-0.075	-0.163
-340.348	263.198	0.175	-0.303
-339.333	-200.000	0.040	-0.332
-338.318	-96.268	-0.254	-0.067
-337.304	36.114	0.131	0.115
-336.289	-86.244	0.458	-0.140
-335.275	-200.000	-0.013	-0.194
-334.260	362.936	-0.057	0.114
-333.245	-150.864	0.455	0.034
-332.231	-20.352	-0.155	0.095
-331.216	-85.583	-0.211	0.065
-330.202	-200.000	0.027	0.171
-329.187	-166.978	-0.244	0.010
-328.172	-40.311	0.151	-0.078
-327.158	376.633	-0.209	0.424
-326.143	800.000	0.024	-0.094
-325.129	118.427	-0.096	-0.118
-324.114	-45.806	-0.286	-0.140
-323.099	-68.651	-0.134	-0.051
-322.085	237.890	-0.167	-0.275
-321.070	-118.988	-0.297	0.052
-320.056	-6.042	-0.030	-0.020
-319.041	107.756	0.184	0.218
-318.026	100.663	0.216	0.249
-317.012	800.000	-0.107	0.361
-315.997	-149.075	0.264	-0.021
-314.983	-20.080	0.086	0.053
-313.968	-200.000	0.021	0.340
-312.953	183.649	-0.106	-0.156
-311.939	-200.000	-0.009	0.152
-310.924	156.202	0.154	0.211
-309.910	800.000	-0.093	0.291
-308.895	-150.273	0.169	-0.013
-307.880	-87.426	0.233	0.070
-306.866	43.668	-0.080	0.073
-305.851	-56.711	0.117	-0.051
-304.837	311.873	0.099	0.185
-303.822	-200.000	0.091	0.438
-302.807	-76.578	-0.243	-0.085
-301.793	7.042	-0.089	0.066
-300.778	-70.044	0.100	0.038
-299.764	-200.000	0.014	-0.153
-298.749	9.314	-0.021	-0.016
-297.735	14.877	-0.139	-0.108
-296.720	800.000	0.004	-0.012
-295.705	40.580	0.332	0.297
-294.691	-57.985	0.336	-0.146
-293.676	185.263	0.176	0.260
-292.662	-200.000	-0.023	-0.429
-291.647	106.122	0.179	0.210
-290.632	-200.000	-0.023	0.327
-289.618	-52.515	-0.259	0.119
-288.603	512.629	0.125	0.288
-287.589	800.000	-0.007	0.023
-286.574	-200.000	-0.046	-0.316
-285.559	16.637	-0.180	-0.141
-284.545	46.349	0.127	-0.117
-283.530	-86.772	-0.274	0.083
-282.516	552.452	0.163	0.388
-281.501	390.315	0.052	0.106
-280.486	-101.137	0.194	0.047
-279.472	57.456	0.109	0.106
-278.457	2.789	-0.216	0.156
-277.443	38.484	0.197	-0.174
-276.428	-91.120	-0.352	0.100
-275.413	280.333	-0.012	-0.021
-274.399	2.245	-0.089	0.064
-273.384	-200.000	0.011	-0.132
-272.370	-200.000	-0.026	0.213
-271.355	17.420	0.153	-0.120
-270.340	74.163	-0.241	0.251
-269.326	74.805	-0.171	0.179
-268.311	-200.000	0.077	-0.000
-267.297	-16.388	-0.224	0.141
-266.282	-190.302	0.248	-0.003
-265.267	607.860	0.119	0.296
-264.253	209.818	0.175	0.272
-263.238	-15.543	0.022	-0.014
-262.224	154.835	-0.106	-0.145
-261.209	-80.218	0.243	-0.081
-260.195	-200.000	-0.018	0.282
-259.180	-55.827	-0.241	-0.107
-258.165	-101.702	0.069	-0.017
-257.151	91.794	-0.024	-0.027
-256.136	5.601	0.242	0.177
-255.122	62.177	-0.099	0.097
-254.107	128.281	0.044	-0.055
-253.092	-82.764	-0.308	-0.099
-252.078	224.884	0.111	-0.178
-251.063	293.427	-0.153	-0.277
-250.049	-0.236	-0.206	-0.145
-249.034	800.000	-0.048	-0.147
-248.019	800.000	0.033	-0.117
-247.005	9.047	-0.298	0.223
-245.990	70.812	0.268	-0.275
-244.976	-55.964	0.053	0.023
-243.961	-200.000	-0.004	-0.079
-242.946	-200.000	0.006	-0.067
-241.932	258.959	-0.109	-0.187
-240.917	-200.000	0.010	0.219
-239.903	38.432	0.103	-0.091
-238.888	11.623	0.216	0.164
-237.873	-50.444	-0.211	0.099
-236.859	96.638	0.096	0.109
-235.844	-101.592	0.132	0.032
-234.830	578.107	-0.067	-0.163
-233.815	169.023	0.033	-0.047
-232.800	-114.582	0.448	-0.085
-231.786	10.011	0.217	0.163
-230.771	414.196	-0.107	0.226
-229.757	4.906	0.144	-0.105
-228.742	-200.000	0.011	0.187
-227.727	-200.000	-0.001	-0.357
-226.713	-106.558	-0.227	0.050
-225.698	-45.159	-0.328	0.161
-224.684	256.268	0.069	0.118
-223.669	53.746	0.259	-0.246
-222.655	800.000	0.103	-0.295
-221.640	39.745	0.238	-0.211
-220.625	250.979	-0.043	0.072
-219.611	-3.393	-0.202	0.139
-218.596	94.673	0.294	0.331
-217.582	39.615	0.214	-0.190
-216.567	67.715	-0.079	-0.080
-215.552	-52.375	0.096	-0.044
-214.538	-147.967	0.064	0.005
-213.523	-200.000	0.028	-0.223
-212.509	164.886	0.031	0.044
-211.494	800.000	-0.081	-0.250
-210.479	800.000	0.078	0.257
-209.465	-200.000	0.018	0.082
-208.450	800.000	-0.097	-0.406
-207.436	-73.002	-0.103	-0.038
-206.421	79.068	0.202	-0.214
-205.406	-200.000	0.013	0.080
-204.392	35.504	0.245	-0.212
-203.377	-113.768	0.108	0.021
-202.363	218.738	-0.148	-0.234
-201.348	507.411	-0.072	-0.164
-200.333	211.733	-0.095	0.148
-199.319	-200.000	0.043	0.276
-198.304	-195.005	-0.221	0.002
-197.290	48.529	-0.159	-0.147
-196.275	-169.173	-0.414	0.015
-195.260	115.973	0.113	-0.137
-194.246	-4.919	0.265	0.181
-193.231	-127.641	0.358	0.051
-192.217	138.404	0.116	0.150
-191.202	800.000	0.047	0.182
-190.187	254.872	0.197	-0.333
-189.173	800.000	0.029	0.119
-188.158	60.720	0.156	-0.153
-187.144	17.892	-0.103	0.081
-186.129	-75.252	-0.310	0.109
-185.114	-20.725	-0.296	0.180
-184.100	-128.674	0.107	0.015
-183.085	-66.478	0.135	0.053
-182.071	-50.722	-0.118	-0.055
-181.056	190.800	0.069	-0.102
-180.042	-200.000	-0.007	0.114
-179.027	-86.096	-0.278	-0.085
-178.012	-115.975	-0.158	-0.029
-176.998	-192.916	0.236	-0.002
-175.983	-200.000	0.041	0.231
-174.969	800.000	0.004	0.012
-173.954	10.737	0.076	0.057
-172.939	-172.223	0.230	-0.007
-171.925	-200.000	-0.041	-0.216
-170.910	8.623	0.094	-0.070
-169.896	710.027	0.082	0.213
-168.881	389.713	-0.082	-0.168
-167.866	-88.624	-0.079	-0.023
-166.852	263.738	0.147	0.253
-165.837	375.033	0.072	0.144
-164.823	-200.000	0.040	0.229
-163.808	99.584	0.124	0.141
-162.793	117.295	0.133	0.161
-161.779	-200.000	-0.167	0.001
-160.764	-200.000	-0.008	-0.156
-159.750	800.000	0.008	-0.026
-158.735	59.643	-0.228	0.222
-157.720	-96.254	0.149	0.039
-156.706	-40.669	0.277	0.142
-155.691	-155.839	-0.232	0.015
-154.677	724.884	-0.101	0.265
-153.662	446.327	-0.091	0.198
-152.647	412.449	0.132	0.276
-151.633	-1.858	-0.321	-0.223
-150.618	800.000	0.043	0.140
-149.604	-200.000	0.026	0.399
-148.589	800.000	0.030	-0.097
-147.574	-80.283	-0.185	-0.061
-146.560	189.379	-0.028	-0.041
-145.545	8.180	0.084	0.062
-144.531	-66.365	-0.093	0.037
-143.516	276.829	0.202	0.355
-142.502	-9.834	0.194	-0.127
-141.487	-92.676	-0.105	0.029
-140.472	800.000	-0.095	0.369
-139.458	-200.000	-0.040	0.282
-138.443	-128.915	0.227	0.031
-137.429	-78.185	-0.304	-0.103
-136.414	800.000	0.073	-0.229
-135.399	-4.982	-0.032	0.022
-134.385	-5.689	0.020	-0.014
-133.370	-32.546	0.289	-0.159
-132.356	-136.066	0.223	-0.026
-131.341	-200.000	0.003	-0.217
-130.326	-200.000	-0.006	0.079
-129.312	323.333	-0.167	-0.315
-128.297	800.000	0.084	-0.256
-127.283	-118.893	0.226	-0.039
-126.268	-200.000	0.016	0.173
-125.253	-151.931	-0.180	0.013
-124.239	40.407	0.079	0.070
-123.224	-32.308	0.236	0.130
-122.210	122.256	-0.268	0.330
-121.195	11.855	-0.150	-0.114
-120.180	-200.000	0.007	0.183
