DTS Sentinel unit serial number:	SN413079Multiplexer serial number:	ORYXHardware model number:	OX4-SRSoftware version number:	ORYX F/W v4.00 Oryx Data Collector v3.7.2.0data status	okinstallation	princeton_trtdifferential loss correction	single-endedforward channel	channel 3reverse channel	N/Adate	2019/09/16time	08:52:34forward acquisition time	60.00reverse acquisition time	0.00gamma	496.2192k internal	0.2324k external	0.2324temperature offset calibration	0.9954default loss term (dB/km)	0.3790temperature slope calibration	1.0000multiplexer offset coefficient	1.0000multiplexer slope coefficient	1.0000fibre end	0.00T internal ref (°C)	30.09T ext. ref 1 (°C)	12.02T ext. ref 2 (°C)	27.59length (m)	temperature (°C)	Stokes	anti-Stokes-747.200	-72.635	-0.444	-0.165
-746.185	16.981	-0.334	0.267
-745.171	-16.437	0.255	-0.163
-744.156	-84.248	-0.277	0.088
-743.142	800.000	0.082	-0.243
-742.127	800.000	-0.016	0.059
-741.112	369.872	-0.121	0.248
-740.098	35.192	-0.298	0.264
-739.083	-7.188	-0.091	-0.062
-738.069	387.864	-0.030	0.062
-737.054	-119.943	-0.191	-0.033
-736.039	9.202	-0.280	-0.214
-735.025	-37.091	0.478	0.258
-734.010	767.405	-0.136	-0.374
-732.996	-48.160	-0.185	0.090
-731.981	73.042	0.236	-0.249
-730.966	-61.269	-0.129	0.055
-729.952	34.282	-0.131	-0.115
-728.937	800.000	-0.055	0.220
-727.923	149.570	-0.144	-0.197
-726.908	-45.746	-0.156	0.078
-725.894	34.602	-0.246	-0.217
-724.879	-129.891	0.346	-0.048
-723.864	205.988	-0.088	-0.138
-722.850	-200.000	0.008	-0.162
-721.835	-163.698	0.224	0.011
-720.821	-1.541	-0.400	-0.284
-719.806	28.651	0.137	-0.117
-718.791	392.740	-0.147	-0.309
-717.777	85.913	0.114	0.126
-716.762	300.652	-0.086	-0.160
-715.748	-33.924	-0.549	0.305
-714.733	314.209	-0.093	0.177
-713.718	-146.409	-0.111	0.010
-712.704	-66.962	-0.151	0.060
-711.689	-200.000	0.072	-0.412
-710.675	322.087	0.150	0.288
-709.660	203.709	-0.167	0.260
-708.645	-200.000	-0.004	-0.035
-707.631	-89.290	-0.074	0.022
-706.616	-1.716	0.198	0.141
-705.602	796.304	-0.119	-0.330
-704.587	40.979	-0.242	-0.220
-703.572	800.000	0.111	0.434
-702.558	503.324	-0.100	0.232
-701.543	-16.267	-0.171	0.109
-700.529	143.158	0.147	-0.196
-699.514	781.648	-0.162	-0.448
-698.499	800.000	-0.031	0.092
-697.485	-144.316	0.138	-0.013
-696.470	-68.593	0.115	-0.045
-695.456	-88.724	0.144	0.043
-694.441	-190.841	0.339	0.004
-693.426	-101.186	-0.234	-0.058
-692.412	351.124	-0.092	0.183
-691.397	-59.283	0.258	0.112
-690.383	422.085	-0.057	0.123
-689.368	-151.649	-0.205	0.015
-688.354	18.136	-0.259	-0.208
-687.339	-200.000	-0.001	-0.041
-686.324	-146.508	-0.345	0.030
-685.310	438.012	-0.124	0.272
-684.295	230.484	0.249	0.410
-683.281	180.064	-0.161	0.238
-682.266	27.303	-0.153	0.130
-681.251	239.747	-0.077	0.130
-680.237	-200.000	0.026	0.191
-679.222	-172.593	0.249	-0.008
-678.208	295.619	0.034	0.063
-677.193	-127.919	0.248	-0.036
-676.178	800.000	-0.041	-0.149
-675.164	800.000	-0.151	0.431
-674.149	-24.534	-0.239	-0.144
-673.135	-67.651	-0.240	0.095
-672.120	-200.000	-0.029	-0.270
-671.105	399.707	-0.082	0.173
-670.091	0.684	-0.412	-0.297
-669.076	-82.184	-0.417	0.137
-668.062	102.088	0.215	-0.252
-667.047	-14.666	-0.097	-0.063
-666.032	800.000	-0.029	0.105
-665.018	-5.174	-0.128	-0.089
-664.003	800.000	0.130	-0.377
-662.989	-200.000	-0.018	-0.244
-661.974	-4.465	-0.165	-0.115
-660.959	39.337	0.236	0.213
-659.945	800.000	0.083	-0.258
-658.930	19.387	0.004	0.003
-657.916	-18.669	-0.219	-0.137
-656.901	148.938	0.230	0.312
-655.886	-10.654	-0.147	-0.098
-654.872	218.777	-0.127	0.204
-653.857	-16.172	-0.274	-0.175
-652.843	6.631	0.135	0.101
-651.828	-200.000	-0.019	0.344
-650.814	-46.461	-0.158	-0.078
-649.799	0.127	-0.085	0.061
-648.784	274.948	-0.202	-0.361
-647.770	-200.000	-0.007	-0.084
-646.755	767.194	0.078	-0.214
-645.741	54.995	0.194	0.189
-644.726	3.037	0.297	0.217
-643.711	166.083	0.164	-0.233
-642.697	-200.000	-0.004	-0.091
-641.682	-44.773	0.067	0.034
-640.668	-200.000	-0.019	0.254
-639.653	-67.531	0.134	0.053
-638.638	-200.000	-0.009	-0.128
-637.624	-86.043	-0.346	-0.107
-636.609	800.000	-0.039	-0.120
-635.595	-200.000	0.002	-0.166
-634.580	800.000	0.119	0.402
-633.565	264.526	-0.112	0.196
-632.551	-24.880	-0.035	0.021
-631.536	-121.716	-0.137	-0.023
-630.522	769.542	0.086	0.234
-629.507	-200.000	-0.023	-0.183
-628.492	-200.000	0.031	-0.183
-627.478	16.668	0.356	0.283
-626.463	417.060	0.054	-0.115
-625.449	-103.831	-0.038	0.009
-624.434	82.356	0.086	-0.094
-623.419	5.064	0.274	-0.203
-622.405	-84.580	0.164	-0.052
-621.390	244.248	-0.082	-0.139
-620.376	-200.000	-0.038	0.194
-619.361	-110.754	0.312	0.065
-618.346	-200.000	0.026	-0.334
-617.332	116.996	-0.060	-0.074
-616.317	-39.260	0.162	0.085
-615.303	-89.400	-0.391	0.116
-614.288	800.000	0.027	-0.106
-613.273	-200.000	-0.025	-0.118
-612.259	-151.619	-0.447	-0.033
-611.244	137.500	-0.133	-0.174
-610.230	58.131	-0.253	-0.249
-609.215	88.515	-0.169	0.188
-608.201	-126.302	0.332	-0.050
-607.186	-4.125	-0.413	0.287
-606.171	26.649	0.221	0.186
-605.157	-200.000	-0.028	0.150
-604.142	338.475	0.130	-0.254
-603.128	23.849	0.216	-0.179
-602.113	188.791	0.279	-0.419
-601.098	-200.000	-0.008	-0.205
-600.084	800.000	-0.041	-0.125
-599.069	-121.598	-0.154	-0.026
-598.055	-94.127	-0.157	-0.043
-597.040	800.000	0.052	0.169
-596.025	162.943	-0.131	-0.185
-595.011	800.000	-0.092	-0.278
-593.996	-118.147	-0.184	-0.033
-592.982	-89.470	0.138	0.041
-591.967	82.508	-0.150	-0.163
-590.952	30.228	-0.069	0.059
-589.938	-200.000	0.000	-0.236
-588.923	-9.110	-0.172	-0.115
-587.909	-18.552	0.296	-0.185
-586.894	-200.000	0.052	0.257
-585.879	800.000	0.080	-0.254
-584.865	282.252	-0.025	-0.045
-583.850	55.065	-0.452	0.438
-582.836	127.934	-0.149	0.190
-581.821	146.689	-0.174	0.235
-580.806	-36.781	-0.094	-0.051
-579.792	491.606	-0.073	-0.167
-578.777	-71.713	0.087	-0.033
-577.763	-200.000	0.006	0.160
-576.748	-135.290	0.367	0.044
-575.733	-126.281	-0.284	-0.043
-574.719	-200.000	-0.011	-0.051
-573.704	549.985	-0.101	-0.244
-572.690	-176.640	-0.345	-0.009
-571.675	37.096	-0.136	0.121
-570.661	800.000	0.011	-0.048
-569.646	-200.000	-0.007	-0.215
-568.631	800.000	0.052	-0.227
-567.617	-45.736	-0.434	-0.215
-566.602	8.112	-0.237	0.178
-565.588	327.407	0.073	-0.140
-564.573	-200.000	-0.016	-0.141
-563.558	154.056	-0.195	0.269
-562.544	800.000	-0.061	-0.213
-561.529	-200.000	0.014	-0.167
-560.515	23.961	0.107	-0.089
-559.500	800.000	-0.106	-0.437
-558.485	270.012	0.089	-0.156
-557.471	154.301	0.234	0.322
-556.456	-50.165	-0.170	0.081
-555.442	-104.348	-0.213	0.049
-554.427	-171.748	-0.177	0.006
-553.412	-95.230	-0.145	0.039
-552.398	-200.000	0.026	0.225
-551.383	290.151	0.179	0.326
-550.369	622.821	0.099	-0.251
-549.354	17.952	-0.138	-0.110
-548.339	-142.105	0.421	-0.042
-547.325	-200.000	0.022	-0.419
-546.310	125.707	0.179	0.227
-545.296	90.453	-0.244	0.273
-544.281	43.802	0.138	-0.127
-543.266	-73.750	-0.399	-0.145
-542.252	-19.280	0.161	-0.100
-541.237	56.799	0.021	-0.021
-540.223	68.868	-0.168	-0.173
-539.208	-165.624	-0.257	-0.011
-538.193	46.515	0.099	-0.092
-537.179	324.460	-0.128	0.244
-536.164	800.000	-0.131	-0.444
-535.150	-47.989	-0.087	-0.042
-534.135	-15.120	-0.192	-0.123
-533.121	56.224	0.145	0.141
-532.106	177.473	0.178	-0.259
-531.091	-16.762	-0.192	0.121
-530.077	121.238	0.189	-0.235
-529.062	-200.000	-0.095	-0.435
-528.048	200.252	-0.074	-0.114
-527.033	644.588	-0.104	0.264
-526.018	7.866	-0.070	0.052
-525.004	-13.888	0.410	0.265
-523.989	-112.155	-0.275	0.055
-522.975	-200.000	0.004	0.133
-521.960	800.000	-0.108	0.302
-520.945	-114.491	-0.247	0.047
-519.931	-200.000	-0.010	-0.046
-518.916	190.056	0.136	-0.204
-517.902	388.883	-0.166	0.343
-516.887	-24.992	0.433	0.257
-515.872	355.431	0.064	0.128
-514.858	-26.912	0.222	0.129
-513.843	-15.099	0.062	0.040
-512.829	81.867	-0.094	0.102
-511.814	-200.000	0.013	0.066
-510.799	25.292	0.172	-0.143
-509.785	-92.653	0.231	0.065
-508.770	-163.355	0.023	-0.001
-507.756	316.686	0.061	-0.116
-506.741	36.113	0.386	-0.340
-505.726	-40.236	0.212	0.110
-504.712	50.211	-0.080	-0.075
-503.697	-158.250	0.362	0.021
-502.683	800.000	0.072	0.272
-501.668	501.653	0.088	-0.203
-500.653	528.616	0.016	0.037
-499.639	-68.757	0.097	-0.037
-498.624	800.000	0.081	-0.332
-497.610	-78.951	-0.103	-0.035
-496.595	126.999	-0.236	0.299
-495.581	7.702	0.234	0.175
-494.566	-130.604	0.089	0.012
-493.551	99.686	-0.220	0.255
-492.537	236.729	0.186	0.308
-491.522	-66.466	0.029	0.011
-490.508	-0.668	-0.180	0.127
-489.493	1.995	0.347	0.251
-488.478	160.385	0.132	0.184
-487.464	-126.090	-0.373	0.056
-486.449	224.031	0.086	-0.139
-485.435	-129.487	0.235	-0.033
-484.420	790.554	0.035	-0.096
-483.405	39.021	0.062	0.056
-482.391	152.798	0.073	-0.100
-481.376	-1.657	-0.505	-0.355
-480.362	-97.903	-0.318	0.082
-479.347	-99.276	0.111	-0.028
-478.332	-11.635	-0.219	0.144
-477.318	-84.914	-0.316	0.099
-476.303	-63.651	0.153	-0.063
-475.289	63.602	0.140	-0.140
-474.274	470.232	-0.074	0.165
-473.259	-56.613	0.222	-0.098
-472.245	462.464	0.134	0.299
-471.230	82.207	-0.106	-0.114
-470.216	800.000	0.061	-0.250
-469.201	-92.942	0.195	-0.054
-468.186	800.000	-0.116	0.362
-467.172	-56.289	0.135	0.060
-466.157	141.790	-0.198	0.262
-465.143	-200.000	0.012	0.128
-464.128	800.000	-0.043	0.141
-463.113	-34.017	0.091	0.050
-462.099	83.129	0.092	-0.100
-461.084	173.450	0.092	-0.132
-460.070	-49.628	0.280	0.133
-459.055	296.502	0.163	0.299
-458.040	-200.000	-0.056	0.255
-457.026	380.939	-0.086	0.177
-456.011	-94.665	0.178	0.048
-454.997	39.804	-0.205	-0.183
-453.982	341.539	0.070	-0.136
-452.968	-174.296	0.245	-0.007
-451.953	150.406	0.114	-0.154
-450.938	-129.572	0.363	0.050
-449.924	105.524	-0.101	-0.119
-448.909	112.041	0.060	-0.072
-447.895	800.000	-0.075	0.244
-446.880	800.000	-0.102	0.286
-445.865	296.301	-0.105	-0.191
-444.851	-62.051	-0.294	-0.122
-443.836	-200.000	0.043	0.584
-442.822	800.000	-0.068	0.240
-441.807	-200.000	0.086	0.542
-440.792	1.852	0.203	0.146
-439.778	-163.087	-0.310	0.015
-438.763	4.221	-0.181	-0.133
-437.749	800.000	0.059	-0.178
-436.734	471.736	-0.130	0.291
-435.719	-93.740	-0.272	0.075
-434.705	800.000	-0.041	-0.142
-433.690	-200.000	0.019	0.158
-432.676	-116.414	-0.266	0.049
-431.661	-61.882	-0.075	-0.031
-430.646	-57.850	0.251	0.109
-429.632	-65.034	-0.237	-0.095
-428.617	-200.000	0.035	0.179
-427.603	-200.000	0.012	-0.061
-426.588	8.530	0.085	0.064
-425.573	-88.136	0.109	-0.033
-424.559	183.398	0.020	-0.030
-423.544	48.314	0.191	-0.178
-422.530	314.971	-0.145	0.273
-421.515	528.827	-0.037	-0.086
-420.500	-59.220	0.088	-0.038
-419.486	-90.201	-0.255	-0.074
-418.471	-84.424	0.194	-0.061
-417.457	-126.739	-0.272	-0.040
-416.442	417.927	-0.025	0.053
-415.428	-31.605	-0.123	-0.069
-414.413	-47.673	-0.135	-0.065
-413.398	-26.912	-0.029	-0.017
-412.384	-90.474	-0.269	0.078
-411.369	-75.413	0.405	-0.144
-410.355	-111.789	0.043	0.009
-409.340	-40.729	-0.205	-0.106
-408.325	800.000	0.026	-0.092
-407.311	-200.000	0.014	-0.069
-406.296	15.735	0.111	0.087
-405.282	309.004	0.103	0.192
-404.267	-155.959	-0.220	-0.014
-403.252	551.622	0.090	0.216
-402.238	83.966	0.105	0.115
-401.223	59.122	0.209	0.205
-400.209	-34.626	-0.019	-0.010
-399.194	298.545	0.051	-0.093
-398.179	-135.176	-0.318	-0.038
-397.165	-134.868	0.313	-0.038
-396.150	-11.971	-0.086	0.056
-395.136	-200.000	-0.318	-0.001
-394.121	-108.805	0.299	-0.064
-393.106	257.006	-0.059	0.101
-392.092	-200.000	0.019	0.187
-391.077	800.000	-0.097	-0.356
-390.063	215.609	-0.089	-0.141
-389.048	-152.852	-0.341	-0.024
-388.033	-17.214	-0.158	0.099
-387.019	-200.000	0.001	-0.065
-386.004	531.461	-0.036	0.085
-384.990	-200.000	0.032	-0.223
-383.975	-200.000	-0.032	0.190
-382.960	-140.054	0.266	-0.028
-381.946	-200.000	0.017	0.086
-380.931	-200.000	-0.041	-0.184
-379.917	800.000	0.050	-0.155
-378.902	800.000	-0.055	0.170
-377.888	-40.916	-0.177	0.091
-376.873	531.043	0.122	-0.287
-375.858	2.978	-0.264	-0.191
-374.844	161.279	0.086	0.120
-373.829	30.829	0.214	-0.182
-372.815	800.000	0.031	0.113
-371.800	-11.809	0.129	-0.084
-370.785	229.131	-0.135	-0.219
-369.771	-200.000	-0.032	0.171
-368.756	-63.239	-0.200	0.082
-367.742	-104.949	-0.106	0.024
-366.727	-12.194	0.415	-0.270
-365.712	-94.041	-0.318	0.087
-364.698	388.010	0.039	0.080
-363.683	28.075	-0.220	0.184
-362.669	-88.536	-0.214	-0.064
-361.654	-127.868	0.117	-0.017
-360.639	-200.000	-0.014	0.347
-359.625	800.000	-0.097	0.283
-358.610	-90.543	-0.360	0.103
-357.596	-108.586	-0.087	0.019
-356.581	-69.265	0.350	0.134
-355.566	-17.939	0.029	0.018
-354.552	576.488	-0.079	-0.192
-353.537	54.682	0.400	-0.383
-352.523	-200.000	0.015	0.086
-351.508	135.761	-0.021	0.028
-350.493	122.315	-0.200	0.249
-349.479	505.024	0.021	-0.049
-348.464	51.094	-0.249	0.234
-347.450	-102.537	0.358	0.085
-346.435	405.671	-0.027	0.056
-345.420	116.057	0.105	-0.128
-344.406	186.023	0.096	0.142
-343.391	800.000	-0.058	-0.179
-342.377	62.359	0.076	0.076
-341.362	-200.000	0.000	-0.086
-340.348	-200.000	0.001	-0.046
-339.333	-59.146	0.228	-0.098
-338.318	-200.000	0.012	-0.328
-337.304	-97.517	0.276	0.071
-336.289	30.016	0.265	0.224
-335.275	-200.000	0.001	-0.136
-334.260	-91.138	0.121	0.035
-333.245	-50.169	-0.102	0.048
-332.231	-15.937	0.151	-0.096
-331.216	-200.000	-0.019	0.099
-330.202	313.686	-0.047	-0.088
-329.187	-19.449	0.161	-0.099
-328.172	-200.000	-0.057	0.336
-327.158	-200.000	0.055	0.263
-326.143	59.922	-0.152	-0.149
-325.129	208.674	0.126	-0.196
-324.114	338.690	-0.143	0.277
-323.099	-190.331	-0.127	0.001
-322.085	-200.000	0.007	0.245
-321.070	284.887	-0.139	0.249
-320.056	49.384	0.165	-0.154
-319.041	253.822	0.075	-0.127
-318.026	800.000	0.094	-0.307
-317.012	-95.397	0.315	0.084
-315.997	130.979	0.201	-0.256
-314.983	-102.740	-0.295	-0.070
-313.968	-74.857	0.326	-0.116
-312.953	800.000	-0.048	-0.181
-311.939	800.000	0.090	0.250
-310.924	-134.938	0.223	-0.027
-309.910	418.942	-0.033	-0.069
-308.895	-18.593	-0.157	-0.097
-307.880	241.923	-0.037	-0.062
-306.866	-158.294	0.471	-0.027
-305.851	100.193	0.098	-0.113
-304.837	800.000	-0.111	-0.350
-303.822	-149.712	0.348	-0.027
-302.807	752.464	-0.094	0.251
-301.793	388.600	0.110	-0.226
-300.778	800.000	-0.083	-0.293
-299.764	800.000	0.020	0.065
-298.749	800.000	0.075	0.254
-297.735	-122.566	0.114	-0.018
-296.720	-25.916	-0.291	0.170
-295.705	-200.000	0.007	0.070
-294.691	-200.000	0.016	-0.171
-293.676	-165.805	0.096	0.004
-292.662	17.249	-0.271	0.213
-291.647	-200.000	-0.006	-0.205
-290.632	-200.000	-0.030	-0.135
-289.618	-74.953	-0.200	0.071
-288.603	46.703	0.196	-0.180
-287.589	-45.060	0.213	0.105
-286.574	43.564	0.067	0.060
-285.559	-99.303	0.076	-0.019
-284.545	298.621	0.161	-0.294
-283.530	-79.781	-0.245	-0.082
-282.516	-95.741	0.248	-0.066
-281.501	92.164	-0.190	-0.212
-280.486	-58.637	-0.345	0.148
-279.472	182.581	0.173	0.253
-278.457	269.105	0.074	-0.129
-277.443	238.902	0.169	0.278
-276.428	-200.000	0.000	-0.112
-275.413	-200.000	-0.019	-0.124
-274.399	-200.000	0.004	0.058
-273.384	-200.000	-0.000	0.141
-272.370	800.000	-0.105	0.317
-271.355	-68.037	-0.169	-0.065
-270.340	38.454	0.103	0.091
-269.326	114.848	0.034	-0.041
-268.311	74.934	0.309	-0.323
-267.297	473.857	-0.216	-0.482
-266.282	-141.799	0.332	0.033
-265.267	800.000	0.021	-0.082
-264.253	-54.889	0.247	-0.110
-263.238	800.000	0.076	-0.287
-262.224	239.438	-0.169	0.278
-261.209	-200.000	0.016	0.278
-260.195	-27.023	0.331	-0.192
-259.180	-200.000	0.021	-0.126
-258.165	83.372	-0.192	-0.207
-257.151	442.169	-0.022	0.047
-256.136	109.259	0.123	0.145
-255.122	-52.945	-0.240	-0.109
-254.107	800.000	0.054	-0.187
-253.092	3.225	-0.152	-0.109
-252.078	-70.493	0.030	-0.011
-251.063	2.225	0.221	-0.158
-250.049	-138.609	-0.047	-0.005
-249.034	-151.794	-0.277	0.020
-248.019	577.337	0.115	0.278
-247.005	-104.212	-0.268	0.062
-245.990	17.175	0.094	-0.074
-244.976	106.876	0.033	0.039
-243.961	18.141	-0.066	0.052
-242.946	340.573	0.172	0.332
-241.932	23.935	-0.071	0.058
-240.917	-82.603	0.073	0.024
-239.903	-200.000	-0.019	-0.200
-238.888	-67.732	0.244	-0.095
-237.873	87.012	-0.178	-0.195
-236.859	-132.391	0.249	-0.032
-235.844	-200.000	-0.317	-0.001
-234.830	-106.704	-0.114	0.025
-233.815	17.610	-0.484	-0.381
-232.800	-200.000	0.060	-0.365
-231.786	-164.257	-0.210	0.010
-230.771	-20.166	-0.394	0.240
-229.757	-200.000	-0.017	-0.126
-228.742	7.665	0.277	0.205
-227.727	-109.315	0.336	-0.070
-226.713	-52.731	0.205	-0.094
-225.698	-12.002	0.299	-0.193
-224.684	286.386	-0.137	0.245
-223.669	-24.172	-0.024	-0.014
-222.655	-200.000	-0.008	-0.291
-221.640	-53.310	0.043	-0.019
-220.625	84.318	-0.087	0.094
-219.611	800.000	0.070	-0.281
-218.596	13.550	-0.016	-0.013
-217.582	11.703	0.134	-0.102
-216.567	-108.966	0.271	-0.057
-215.552	-35.785	0.080	-0.043
-214.538	-103.336	0.134	0.031
-213.523	171.971	-0.094	0.134
-212.509	-57.563	-0.067	0.029
-211.494	-89.133	-0.475	-0.139
-210.479	-185.791	-0.107	0.002
-209.465	3.591	-0.107	-0.077
-208.450	-80.587	0.059	-0.019
-207.436	84.034	-0.285	0.308
-206.421	-200.000	-0.004	0.148
-205.406	412.256	-0.294	0.617
-204.392	800.000	0.132	-0.372
-203.377	-81.761	-0.178	0.058
-202.363	100.863	0.083	0.095
-201.348	-158.176	-0.109	0.006
-200.333	138.324	-0.174	-0.225
-199.319	291.284	0.039	0.070
-198.304	-1.140	0.230	0.160
-197.290	-107.864	0.316	0.068
-196.275	465.845	0.133	-0.294
-195.260	425.925	-0.242	0.516
-194.246	-80.783	0.121	0.040
-193.231	-98.214	-0.169	-0.043
-192.217	374.270	0.054	0.109
-191.202	447.792	0.129	-0.280
-190.187	-200.000	0.013	0.100
-189.173	121.902	-0.208	0.256
-188.158	800.000	0.154	-0.448
-187.144	92.499	-0.098	-0.109
-186.129	558.688	0.046	0.110
-185.114	-91.118	0.091	0.026
-184.100	-50.024	-0.329	0.154
-183.085	387.484	0.119	-0.243
-182.071	-50.901	0.109	-0.051
-181.056	2.615	-0.115	0.082
-180.042	-134.852	0.107	0.013
-179.027	-163.042	0.380	0.018
-178.012	800.000	0.154	-0.456
-176.998	800.000	0.109	-0.362
-175.983	-200.000	0.006	0.257
-174.969	40.111	-0.287	0.255
-173.954	800.000	0.025	0.092
-172.939	221.935	-0.029	-0.046
-171.925	-146.790	0.396	-0.034
-170.910	176.507	-0.110	0.158
-169.896	800.000	-0.127	0.402
-168.881	-113.560	0.142	0.027
-167.866	-19.583	0.240	0.146
-166.852	-133.291	-0.142	0.018
-165.837	800.000	-0.156	0.459
-164.823	147.815	0.302	0.402
-163.808	-91.281	0.208	0.059
-162.793	-49.055	-0.123	0.058
-161.779	-39.683	-0.159	-0.082
-160.764	122.341	0.043	0.053
-159.750	118.244	-0.293	0.356
-158.735	-200.000	-0.027	0.134
-157.720	800.000	-0.030	0.091
-156.706	128.811	0.098	0.123
-155.691	-132.979	-0.362	-0.045
-154.677	-54.652	-0.158	0.070
-153.662	800.000	-0.100	-0.347
-152.647	263.468	-0.062	-0.106
-151.633	222.941	-0.114	0.181
-150.618	-200.000	-0.013	-0.246
-149.604	-200.000	0.017	0.339
-148.589	-105.834	-0.348	-0.077
-147.574	-158.122	-0.027	0.002
-146.560	-120.995	-0.109	-0.018
-145.545	-53.939	0.253	0.114
-144.531	-146.759	0.100	-0.009
-143.516	0.934	0.135	-0.096
-142.502	-200.000	-0.008	-0.164
-141.487	205.831	-0.068	-0.105
-140.472	-57.420	0.292	-0.126
-139.458	69.801	0.026	0.027
-138.443	-200.000	0.040	-0.268
-137.429	281.898	-0.106	0.188
-136.414	-29.679	-0.024	0.013
-135.399	-33.532	0.257	-0.140
-134.385	4.339	-0.052	0.038
-133.370	-47.295	-0.076	0.037
-132.356	728.115	0.035	-0.093
-131.341	88.393	-0.156	0.171
-130.326	188.271	-0.106	0.155
-129.312	-101.318	0.097	0.023
-128.297	-200.000	-0.024	0.452
-127.283	-136.001	-0.329	0.038
-126.268	-200.000	0.069	0.345
-125.253	82.124	0.340	0.363
-124.239	-117.683	0.057	-0.010
-123.224	-200.000	-0.009	-0.201
-122.210	-95.754	-0.225	-0.059
-121.195	-14.677	-0.177	0.112
