DTS Sentinel unit serial number:	SN413079Multiplexer serial number:	ORYXHardware model number:	OX4-SRSoftware version number:	ORYX F/W v4.00 Oryx Data Collector v3.7.2.0data status	okinstallation	princeton_trtdifferential loss correction	single-endedforward channel	channel 3reverse channel	N/Adate	2019/09/10time	21:06:11forward acquisition time	60.00reverse acquisition time	0.00gamma	496.2192k internal	0.2328k external	0.2328temperature offset calibration	0.9917default loss term (dB/km)	0.3790temperature slope calibration	1.0000multiplexer offset coefficient	1.0000multiplexer slope coefficient	1.0000fibre end	0.00T internal ref (°C)	31.55T ext. ref 1 (°C)	-0.30T ext. ref 2 (°C)	24.63length (m)	temperature (°C)	Stokes	anti-Stokes-747.200	560.409	0.204	0.497
-746.185	800.000	0.011	0.048
-745.171	-173.416	0.210	0.006
-744.156	-99.018	0.138	-0.035
-743.142	800.000	0.098	-0.294
-742.127	53.909	-0.096	0.093
-741.112	800.000	-0.028	-0.090
-740.098	159.724	-0.132	0.186
-739.083	233.814	0.101	-0.167
-738.069	37.771	0.043	-0.038
-737.054	800.000	0.090	0.324
-736.039	173.840	0.035	-0.052
-735.025	-200.000	0.026	0.302
-734.010	-56.115	0.057	-0.026
-732.996	-90.094	-0.153	-0.045
-731.981	-45.684	-0.281	0.140
-730.966	-2.806	-0.019	-0.013
-729.952	-81.920	-0.079	-0.026
-728.937	122.471	-0.241	-0.304
-727.923	-47.183	-0.123	0.061
-726.908	-19.547	0.063	0.039
-725.894	106.921	0.166	-0.198
-724.879	8.591	0.133	-0.101
-723.864	-61.311	-0.197	0.084
-722.850	-97.273	-0.276	-0.072
-721.835	-43.256	-0.391	-0.199
-720.821	210.120	0.194	-0.307
-719.806	76.863	0.207	-0.221
-718.791	-53.420	-0.173	-0.080
-717.777	-147.293	-0.358	-0.031
-716.762	800.000	-0.024	-0.079
-715.748	216.145	-0.085	0.135
-714.733	-200.000	0.026	0.170
-713.718	-73.592	-0.218	0.080
-712.704	63.261	0.264	-0.267
-711.689	-126.054	-0.120	0.018
-710.675	-131.866	-0.233	-0.031
-709.660	142.817	0.118	-0.157
-708.645	573.418	-0.072	-0.177
-707.631	789.774	0.051	-0.140
-706.616	544.458	-0.058	0.139
-705.602	143.131	0.080	0.107
-704.587	-51.532	0.343	0.161
-703.572	-108.517	-0.237	-0.051
-702.558	-23.511	0.160	0.097
-701.543	-200.000	0.039	-0.455
-700.529	108.236	0.188	-0.226
-699.514	69.629	0.051	-0.053
-698.499	-200.000	0.049	-0.234
-697.485	-200.000	0.013	-0.064
-696.470	225.272	-0.116	-0.188
-695.456	-90.930	-0.331	-0.096
-694.441	-108.350	-0.266	-0.058
-693.426	578.913	-0.043	0.105
-692.412	77.116	0.063	0.067
-691.397	-134.247	0.421	-0.052
-690.383	354.540	0.143	-0.285
-689.368	-32.510	0.080	-0.045
-688.354	163.706	0.127	0.180
-687.339	-200.000	-0.018	-0.216
-686.324	176.194	-0.246	-0.360
-685.310	442.834	0.022	-0.049
-684.295	141.904	-0.277	0.369
-683.281	-172.103	-0.244	0.008
-682.266	361.107	-0.158	-0.318
-681.251	-83.974	-0.222	-0.071
-680.237	800.000	-0.143	0.459
-679.222	64.723	-0.217	0.220
-678.208	800.000	0.078	-0.340
-677.193	-23.129	0.202	0.122
-676.178	245.180	0.078	-0.132
-675.164	-60.608	-0.208	0.089
-674.149	800.000	-0.024	-0.070
-673.135	-21.564	-0.149	0.091
-672.120	800.000	-0.016	0.049
-671.105	498.597	-0.106	-0.245
-670.091	800.000	-0.014	0.049
-669.076	-182.406	-0.171	0.003
-668.062	445.048	-0.062	0.137
-667.047	175.076	-0.084	-0.122
-666.032	-200.000	-0.011	0.206
-665.018	-30.859	0.045	-0.026
-664.003	27.233	0.083	-0.070
-662.989	61.820	0.129	0.129
-661.974	-35.911	-0.292	-0.159
-660.959	-200.000	0.031	-0.149
-659.945	239.811	-0.051	0.086
-658.930	-43.780	0.093	-0.047
-657.916	-92.835	-0.049	-0.014
-656.901	-124.931	-0.261	-0.040
-655.886	-200.000	0.010	-0.210
-654.872	-200.000	0.041	-0.223
-653.857	68.568	-0.085	-0.087
-652.843	281.070	0.149	-0.267
-651.828	-200.000	-0.019	-0.228
-650.814	7.718	-0.260	-0.196
-649.799	106.387	0.090	-0.107
-648.784	-53.423	-0.035	-0.016
-647.770	-199.721	0.090	0.000
-646.755	181.058	-0.190	-0.281
-645.741	-19.268	-0.127	0.079
-644.726	238.830	0.128	-0.214
-643.711	287.375	-0.104	-0.188
-642.697	0.367	0.115	0.082
-641.682	13.775	-0.096	0.075
-640.668	-52.353	0.128	0.060
-639.653	-200.000	0.009	0.062
-638.638	-27.540	-0.191	-0.111
-637.624	-108.570	0.198	0.043
-636.609	108.582	0.106	-0.127
-635.595	509.418	-0.089	0.207
-634.580	76.523	0.115	0.123
-633.565	-84.221	-0.081	-0.026
-632.551	-52.482	0.209	-0.097
-631.536	535.078	-0.130	0.310
-630.522	-36.424	0.222	0.120
-629.507	-184.184	-0.260	0.004
-628.492	438.514	0.187	-0.409
-627.478	-98.075	-0.237	0.061
-626.463	-16.937	0.395	-0.250
-625.449	-200.000	-0.001	0.066
-624.434	70.895	-0.044	0.045
-623.419	514.944	-0.180	-0.422
-622.405	105.011	0.128	-0.151
-621.390	-92.198	-0.349	-0.099
-620.376	323.197	0.075	0.143
-619.361	-33.233	-0.262	0.145
-618.346	216.272	-0.015	0.024
-617.332	-71.561	-0.193	-0.072
-616.317	800.000	-0.028	-0.111
-615.303	800.000	0.064	-0.248
-614.288	397.074	0.132	-0.277
-613.273	-106.026	-0.349	0.079
-612.259	-15.798	-0.312	-0.199
-611.244	-200.000	0.053	-0.444
-610.230	-174.941	0.336	-0.009
-609.215	282.639	-0.096	0.173
-608.201	-36.265	-0.213	0.115
-607.186	551.468	0.062	-0.150
-606.171	-34.701	0.044	0.024
-605.157	615.174	0.097	0.243
-604.142	111.629	0.139	0.168
-603.128	-8.729	0.080	0.054
-602.113	-51.057	0.162	0.076
-601.098	248.334	0.201	-0.341
-600.084	166.017	-0.094	0.133
-599.069	-200.000	0.002	0.342
-598.055	800.000	-0.037	0.132
-597.040	-127.100	-0.389	-0.057
-596.025	86.712	-0.115	-0.127
-595.011	-30.793	-0.052	-0.030
-593.996	41.299	-0.061	-0.055
-592.982	-125.400	0.273	0.042
-591.967	55.569	-0.155	-0.151
-590.952	800.000	0.017	0.053
-589.938	-200.000	-0.061	-0.296
-588.923	-200.000	0.000	0.217
-587.909	131.398	-0.127	0.163
-586.894	-123.957	-0.142	-0.022
-585.879	-50.968	-0.220	0.103
-584.865	312.705	0.106	0.200
-583.850	-39.907	0.306	0.160
-582.836	800.000	0.041	0.126
-581.821	-185.235	-0.214	0.003
-580.806	-87.358	-0.364	-0.110
-579.792	262.144	-0.108	-0.188
-578.777	-29.133	-0.091	0.053
-577.763	-112.143	0.224	0.045
-576.748	110.383	0.226	0.272
-575.733	-36.980	0.156	0.084
-574.719	-100.194	0.228	-0.057
-573.704	-40.096	-0.584	-0.305
-572.690	340.076	0.148	0.288
-571.675	131.872	-0.153	0.197
-570.661	-129.495	-0.170	0.024
-569.646	83.380	-0.135	0.148
-568.631	-76.925	0.167	-0.059
-567.617	352.109	-0.152	0.301
-566.602	800.000	-0.051	-0.163
-565.588	-200.000	0.028	0.173
-564.573	379.746	-0.036	-0.074
-563.558	-200.000	-0.036	0.315
-562.544	-15.908	-0.020	-0.013
-561.529	110.069	0.039	0.046
-560.515	-12.553	-0.123	0.081
-559.500	-200.000	-0.019	0.402
-558.485	-123.121	-0.471	0.076
-557.471	-105.023	0.105	0.024
-556.456	-23.939	0.167	0.100
-555.442	331.540	-0.179	0.345
-554.427	75.276	-0.024	-0.026
-553.412	8.131	0.074	0.055
-552.398	-147.892	0.071	-0.006
-551.383	504.584	-0.114	0.263
-550.369	102.921	-0.179	-0.210
-549.354	-124.202	-0.200	0.031
-548.339	102.398	0.234	-0.274
-547.325	-4.686	0.141	-0.098
-546.310	-200.000	-0.046	0.261
-545.296	-24.603	-0.225	0.134
-544.281	-15.055	-0.028	-0.018
-543.266	800.000	0.136	-0.453
-542.252	185.620	0.026	0.039
-541.237	-65.915	0.202	0.081
-540.223	-155.269	0.187	0.012
-539.208	-127.426	0.101	-0.015
-538.193	-200.000	0.005	0.109
-537.179	-90.900	0.296	0.085
-536.164	800.000	0.023	-0.067
-535.150	-200.000	-0.011	0.166
-534.135	690.568	0.075	-0.196
-533.121	410.402	0.040	0.086
-532.106	800.000	-0.106	0.312
-531.091	-83.594	0.272	-0.087
-530.077	14.692	0.088	-0.068
-529.062	-200.000	0.036	-0.201
-528.048	800.000	0.046	0.153
-527.033	-8.930	-0.257	-0.172
-526.018	-109.659	-0.082	0.017
-525.004	79.359	-0.187	-0.200
-523.989	219.139	0.082	-0.132
-522.975	-77.313	-0.285	-0.099
-521.960	642.390	-0.172	-0.437
-520.945	21.851	0.121	0.098
-519.931	-45.149	-0.290	0.144
-518.916	-59.356	-0.238	-0.102
-517.902	152.893	-0.151	-0.207
-516.887	-118.165	0.458	0.082
-515.872	12.704	-0.100	0.077
-514.858	101.118	0.100	0.116
-513.843	-161.427	-0.385	-0.020
-512.829	800.000	0.099	-0.280
-511.814	44.484	-0.321	0.294
-510.799	-66.626	-0.276	0.109
-509.785	-200.000	-0.004	0.294
-508.770	800.000	0.114	-0.441
-507.756	-200.000	0.045	0.212
-506.741	-200.000	0.007	0.090
-505.726	-101.348	0.090	0.022
-504.712	800.000	0.045	0.190
-503.697	-120.917	0.219	0.037
-502.683	-200.000	-0.025	0.150
-501.668	-18.492	-0.090	-0.056
-500.653	213.865	-0.105	-0.165
-499.639	800.000	0.088	0.246
-498.624	214.766	-0.176	-0.278
-497.610	-200.000	0.012	-0.195
-496.595	196.294	-0.060	0.092
-495.581	-200.000	0.067	0.394
-494.566	-46.238	-0.140	0.069
-493.551	-200.000	0.075	0.485
-492.537	-200.000	0.040	0.226
-491.522	-45.125	0.226	0.112
-490.508	-21.032	-0.077	-0.047
-489.493	-44.498	0.296	0.148
-488.478	502.616	0.052	-0.120
-487.464	265.595	0.058	-0.102
-486.449	184.223	-0.046	0.068
-485.435	-54.895	-0.317	-0.143
-484.420	-47.378	0.278	0.135
-483.405	220.962	-0.089	-0.143
-482.391	67.767	-0.133	0.135
-481.376	54.351	-0.254	-0.244
-480.362	-135.937	0.411	-0.048
-479.347	-160.505	-0.253	-0.013
-478.332	-200.000	-0.021	-0.279
-477.318	207.379	-0.127	0.198
-476.303	475.915	-0.018	-0.040
-475.289	800.000	-0.114	-0.393
-474.274	184.979	-0.049	-0.072
-473.259	800.000	-0.013	-0.039
-472.245	800.000	-0.059	0.205
-471.230	13.270	-0.227	-0.176
-470.216	119.291	-0.179	0.220
-469.201	-200.000	0.039	0.265
-468.186	-118.717	-0.081	0.014
-467.172	-81.154	-0.372	-0.122
-466.157	464.582	-0.062	0.139
-465.143	663.960	0.165	0.423
-464.128	580.531	0.111	-0.271
-463.113	-200.000	-0.062	0.301
-462.099	-68.928	-0.343	-0.132
-461.084	800.000	-0.019	0.061
-460.070	166.786	-0.182	0.257
-459.055	-28.255	0.347	0.200
-458.040	-200.000	0.004	0.030
-457.026	113.520	0.213	0.257
-456.011	34.343	-0.083	-0.072
-454.997	32.984	-0.071	-0.062
-453.982	-128.603	-0.066	-0.009
-452.968	800.000	0.056	0.182
-451.953	-158.968	0.151	-0.009
-450.938	-169.395	-0.098	0.004
-449.924	-55.225	-0.242	0.108
-448.909	207.586	-0.110	-0.171
-447.895	230.346	-0.196	0.319
-446.880	-200.000	0.032	-0.252
-445.865	-200.000	-0.037	-0.262
-444.851	166.201	-0.169	-0.239
-443.836	415.034	-0.042	-0.089
-442.822	800.000	0.054	-0.167
-441.807	10.423	-0.101	0.077
-440.792	35.888	-0.149	0.131
-439.778	-59.535	-0.096	-0.041
-438.763	57.767	0.284	0.277
-437.749	156.134	-0.136	-0.187
-436.734	219.662	-0.105	0.167
-435.719	800.000	0.122	0.344
-434.705	-200.000	0.024	-0.165
-433.690	-200.000	0.126	0.000
-432.676	124.499	0.124	0.155
-431.661	-59.327	-0.242	-0.104
-430.646	800.000	-0.020	-0.071
-429.632	-2.868	-0.212	0.147
-428.617	201.084	-0.186	-0.285
-427.603	800.000	-0.147	0.405
-426.588	800.000	-0.055	-0.175
-425.573	70.856	-0.075	0.077
-424.559	-200.000	0.040	-0.202
-423.544	160.270	-0.070	-0.097
-422.530	-170.789	0.070	0.002
-421.515	539.365	-0.066	0.156
-420.500	180.383	0.105	0.154
-419.486	629.355	0.042	0.106
-418.471	-200.000	0.000	0.274
-417.457	-100.676	-0.165	0.040
-416.442	-77.404	0.200	0.069
-415.428	54.394	-0.391	-0.375
-414.413	-86.524	0.120	-0.037
-413.398	30.501	0.078	-0.066
-412.384	377.230	0.239	0.486
-411.369	-56.092	-0.149	-0.066
-410.355	-200.000	0.042	-0.184
-409.340	192.699	0.110	0.165
-408.325	-200.000	-0.012	-0.261
-407.311	375.724	0.139	0.282
-406.296	-200.000	-0.048	0.328
-405.282	-44.288	0.325	0.162
-404.267	-118.669	0.021	0.004
-403.252	-107.671	-0.276	0.060
-402.238	1.811	0.301	0.216
-401.223	-117.295	0.144	-0.026
-400.209	800.000	-0.060	-0.169
-399.194	264.098	-0.099	0.171
-398.179	-200.000	0.024	0.138
-397.165	-200.000	0.001	0.084
-396.150	-23.490	0.168	-0.100
-395.136	800.000	-0.035	-0.119
-394.121	30.137	-0.091	0.078
-393.106	-200.000	-0.020	-0.122
-392.092	-37.257	0.141	-0.075
-391.077	48.803	0.227	0.212
-390.063	800.000	0.111	0.328
-389.048	25.549	-0.196	-0.162
-388.033	99.800	-0.169	-0.195
-387.019	219.367	-0.052	-0.083
-386.004	5.148	-0.368	-0.269
-384.990	800.000	-0.071	0.263
-383.975	-6.906	0.263	0.177
-382.960	-200.000	0.000	-0.330
-381.946	590.454	-0.057	0.139
-380.931	-46.497	0.218	-0.106
-379.917	-6.150	0.166	0.112
-378.902	-95.536	0.376	-0.100
-377.888	-200.000	-0.023	-0.273
-376.873	607.948	-0.001	0.002
-375.858	-200.000	0.053	0.260
-374.844	-88.188	0.067	-0.020
-373.829	-200.000	-0.023	-0.106
-372.815	38.948	0.104	0.092
-371.800	331.051	-0.127	-0.243
-370.785	261.739	-0.128	0.221
-369.771	-155.844	0.054	0.003
-368.756	-85.796	-0.138	-0.043
-367.742	40.838	0.097	-0.087
-366.727	-56.340	0.058	-0.025
-365.712	-200.000	0.019	-0.339
-364.698	-128.355	0.192	0.027
-363.683	-200.000	0.042	0.241
-362.669	-200.000	-0.001	0.111
-361.654	-150.573	-0.602	0.046
-360.639	104.272	0.085	0.099
-359.625	-83.048	0.311	-0.099
-358.610	-184.645	-0.488	-0.008
-357.596	800.000	0.102	0.322
-356.581	-105.005	-0.522	-0.119
-355.566	46.155	0.274	-0.252
-354.552	145.739	-0.123	-0.164
-353.537	637.995	-0.070	0.177
-352.523	276.310	0.050	-0.087
-351.508	391.380	0.058	-0.119
-350.493	-115.488	-0.180	-0.034
-349.479	-38.184	0.206	-0.109
-348.464	18.834	0.039	-0.031
-347.450	-200.000	-0.009	0.147
-346.435	168.282	-0.069	-0.097
-345.420	-159.059	-0.198	-0.011
-344.406	-53.391	0.082	0.037
-343.391	-182.594	0.081	-0.001
-342.377	459.166	-0.028	-0.063
-341.362	241.012	0.166	-0.276
-340.348	-66.480	-0.130	0.051
-339.333	-57.485	-0.228	-0.099
-338.318	129.683	0.151	0.191
-337.304	218.004	0.103	-0.163
-336.289	131.226	-0.085	0.109
-335.275	-200.000	-0.018	0.162
-334.260	800.000	-0.030	0.124
-333.245	-115.931	-0.320	-0.059
-332.231	-200.000	-0.001	-0.092
-331.216	608.542	0.072	0.178
-330.202	-117.546	0.367	-0.066
-329.187	52.578	-0.170	-0.161
-328.172	722.600	-0.186	0.491
-327.158	87.660	0.120	0.131
-326.143	-200.000	-0.021	-0.330
-325.129	-56.795	0.237	-0.104
-324.114	-200.000	-0.022	-0.264
-323.099	800.000	-0.105	-0.395
-322.085	-200.000	-0.040	-0.204
-321.070	-156.868	0.224	0.014
-320.056	-200.000	0.015	0.263
-319.041	-200.000	0.037	0.267
-318.026	800.000	0.040	-0.156
-317.012	-76.824	-0.065	0.022
-315.997	800.000	0.112	-0.342
-314.983	-176.478	0.092	-0.002
-313.968	-200.000	0.010	-0.048
-312.953	133.175	-0.223	-0.286
-311.939	-61.507	0.148	0.062
-310.924	-80.613	-0.115	-0.038
-309.910	-200.000	0.013	0.089
-308.895	-200.000	-0.040	-0.399
-307.880	590.736	0.093	-0.228
-306.866	800.000	-0.174	0.601
-305.851	3.025	0.207	-0.149
-304.837	800.000	0.135	-0.452
-303.822	-55.787	0.157	-0.070
-302.807	707.295	0.088	0.230
-301.793	-43.341	0.293	-0.147
-300.778	-200.000	0.021	-0.274
-299.764	-165.443	0.166	-0.007
-298.749	309.170	0.134	-0.249
-297.735	-200.000	0.003	-0.161
-296.720	224.885	-0.154	-0.246
-295.705	-200.000	-0.011	-0.213
-294.691	286.063	0.137	0.246
-293.676	-12.547	-0.118	0.076
-292.662	-19.144	0.291	-0.179
-291.647	671.862	0.063	0.162
-290.632	-68.813	-0.220	-0.084
-289.618	9.633	0.203	0.152
-288.603	-200.000	-0.006	-0.224
-287.589	-15.548	-0.052	0.033
-286.574	-200.000	0.008	0.117
-285.559	-7.644	0.128	0.086
-284.545	-29.117	0.170	0.097
-283.530	158.223	0.165	0.227
-282.516	147.771	0.155	0.207
-281.501	-185.537	0.292	-0.004
-280.486	-129.544	0.140	0.019
-279.472	363.454	-0.160	-0.318
-278.457	306.014	0.078	-0.143
-277.443	800.000	-0.133	-0.410
-276.428	280.182	0.221	0.390
-275.413	-83.441	-0.248	-0.079
-274.399	-169.122	-0.395	-0.015
-273.384	-128.512	-0.198	0.028
-272.370	94.646	0.331	0.372
-271.355	-200.000	0.020	0.348
-270.340	333.673	-0.098	0.188
-269.326	-200.000	-0.011	-0.456
-268.311	-64.586	-0.083	0.033
-267.297	-143.888	0.193	0.018
-266.282	353.846	-0.121	0.238
-265.267	747.108	0.077	0.204
-264.253	800.000	-0.017	-0.072
-263.238	-126.908	0.107	0.016
-262.224	-35.653	0.239	-0.128
-261.209	-22.488	-0.074	0.044
-260.195	-31.104	-0.029	-0.016
-259.180	-200.000	0.007	0.356
-258.165	-200.000	0.017	0.098
-257.151	5.524	0.344	0.251
-256.136	312.311	0.160	0.296
-255.122	328.244	-0.024	-0.045
-254.107	-200.000	0.020	-0.247
-253.092	-89.348	-0.117	-0.034
-252.078	-92.490	0.107	-0.030
-251.063	800.000	-0.063	0.258
-250.049	5.421	0.041	-0.030
-249.034	743.123	-0.147	-0.392
-248.019	-200.000	-0.046	0.245
-247.005	-35.649	-0.251	0.135
-245.990	-114.994	-0.387	-0.073
-244.976	46.991	-0.063	0.058
-243.961	-200.000	-0.017	-0.095
-242.946	-64.395	-0.206	0.083
-241.932	1.920	0.127	0.090
-240.917	10.030	0.114	0.086
-239.903	206.928	-0.163	0.251
-238.888	-39.151	-0.161	0.084
-237.873	-200.000	-0.023	-0.417
-236.859	-63.896	-0.307	0.124
-235.844	-138.573	-0.192	0.021
-234.830	357.933	0.049	-0.096
-233.815	-200.000	0.002	-0.378
-232.800	212.324	-0.125	0.195
-231.786	115.825	-0.094	0.114
-230.771	-12.907	0.212	-0.137
-229.757	-63.459	0.249	-0.101
-228.742	-62.546	0.668	0.274
-227.727	-200.000	-0.033	-0.434
-226.713	159.178	0.067	-0.092
-225.698	23.686	-0.086	-0.070
-224.684	800.000	-0.067	0.197
-223.669	256.992	0.021	0.035
-222.655	270.978	0.085	-0.147
-221.640	-179.457	0.186	0.004
-220.625	17.796	0.258	-0.203
-219.611	-115.254	0.287	-0.054
-218.596	-146.885	-0.128	0.011
-217.582	-200.000	0.004	-0.108
-216.567	208.567	0.071	0.109
-215.552	-133.994	0.069	0.008
-214.538	41.377	-0.161	0.144
-213.523	26.539	0.043	0.035
-212.509	64.756	0.159	0.158
-211.494	-200.000	-0.011	-0.164
-210.479	-132.472	-0.260	-0.033
-209.465	262.518	0.142	0.243
-208.450	208.608	-0.060	-0.092
-207.436	86.730	0.145	-0.157
-206.421	-101.794	0.059	-0.014
-205.406	-85.973	-0.158	-0.048
-204.392	302.844	0.100	0.182
-203.377	800.000	0.112	0.434
-202.363	-29.916	-0.232	0.130
-201.348	139.285	0.189	-0.245
-200.333	-96.012	0.357	-0.094
-199.319	-200.000	0.035	-0.378
-198.304	-71.268	0.169	0.062
-197.290	-105.145	-0.226	0.051
-196.275	-200.000	-0.043	-0.274
-195.260	769.276	0.161	-0.431
-194.246	-200.000	-0.004	-0.078
-193.231	-200.000	-0.004	0.052
-192.217	-73.310	0.178	-0.064
-191.202	-188.966	0.151	0.002
-190.187	-76.510	-0.258	0.089
-189.173	-50.361	-0.041	-0.019
-188.158	-200.000	0.069	0.376
-187.144	5.394	-0.053	0.038
-186.129	-200.000	-0.003	-0.074
-185.114	-151.457	-0.277	-0.020
-184.100	366.778	0.046	-0.092
-183.085	195.091	-0.110	-0.164
-182.071	211.939	0.169	-0.262
-181.056	-200.000	0.010	0.206
-180.042	-46.573	-0.084	-0.040
-179.027	-165.804	0.496	-0.021
-178.012	644.944	0.117	-0.295
-176.998	183.321	0.216	-0.314
-175.983	-97.913	0.417	-0.106
-174.969	-153.179	0.209	0.014
-173.954	-200.000	0.007	-0.129
-172.939	-46.492	-0.102	0.049
-171.925	331.208	-0.120	-0.228
-170.910	-71.317	-0.110	0.041
-169.896	-75.510	-0.289	-0.101
-168.881	-200.000	-0.003	-0.105
-167.866	-84.153	0.199	0.062
-166.852	-200.000	-0.008	0.098
-165.837	-200.000	-0.035	0.286
-164.823	320.483	0.243	0.454
-163.808	188.999	-0.094	-0.139
-162.793	-18.446	-0.094	0.058
-161.779	20.188	-0.143	0.114
-160.764	-200.000	0.049	-0.357
-159.750	320.188	0.187	-0.350
-158.735	350.508	0.204	-0.397
-157.720	-93.848	0.093	0.025
-156.706	-80.452	0.163	0.054
-155.691	-78.753	0.133	0.045
-154.677	22.440	-0.087	-0.070
-153.662	349.155	-0.067	0.131
-152.647	163.618	-0.012	0.017
-151.633	4.260	0.287	-0.207
-150.618	800.000	0.059	0.164
-149.604	-21.461	-0.092	-0.055
-148.589	110.235	-0.058	-0.068
-147.574	171.300	0.053	-0.075
-146.560	140.041	0.090	0.116
-145.545	-200.000	0.020	-0.428
-144.531	52.267	0.131	0.123
-143.516	-98.261	-0.216	-0.055
-142.502	11.605	0.263	0.198
-141.487	374.388	0.023	-0.045
-140.472	116.237	-0.050	0.060
-139.458	329.044	0.016	-0.029
-138.443	-200.000	-0.014	-0.088
-137.429	-66.955	0.335	0.130
-136.414	304.094	0.157	-0.287
-135.399	-85.455	-0.070	-0.022
-134.385	-9.030	0.197	0.130
-133.370	484.017	-0.069	0.154
-132.356	-2.483	0.378	-0.261
-131.341	77.005	-0.207	-0.216
-130.326	-200.000	0.001	-0.316
-129.312	118.594	0.060	0.073
-128.297	74.908	0.119	-0.123
-127.283	-116.655	-0.137	-0.025
-126.268	315.838	-0.169	0.314
-125.253	-148.091	-0.217	0.018
-124.239	-200.000	0.022	0.144
-123.224	-200.000	0.054	-0.379
-122.210	-200.000	0.028	-0.176
