DTS Sentinel unit serial number:	SN413079Multiplexer serial number:	ORYXHardware model number:	OX4-SRSoftware version number:	ORYX F/W v4.00 Oryx Data Collector v3.7.2.0data status	okinstallation	princeton_trtdifferential loss correction	single-endedforward channel	channel 3reverse channel	N/Adate	2019/09/17time	11:32:35forward acquisition time	60.00reverse acquisition time	0.00gamma	496.2192k internal	0.2322k external	0.2322temperature offset calibration	0.9954default loss term (dB/km)	0.3790temperature slope calibration	1.0000multiplexer offset coefficient	1.0000multiplexer slope coefficient	1.0000fibre end	0.00T internal ref (°C)	30.69T ext. ref 1 (°C)	0.35T ext. ref 2 (°C)	26.45length (m)	temperature (°C)	Stokes	anti-Stokes-747.200	254.528	-0.108	0.186
-746.185	31.019	-0.304	0.264
-745.171	-200.000	0.034	0.233
-744.156	308.369	-0.114	0.214
-743.142	-63.616	0.310	0.129
-742.127	-33.829	-0.160	0.089
-741.112	99.437	0.151	-0.176
-740.098	58.832	-0.055	0.055
-739.083	-110.840	0.381	-0.079
-738.069	-63.460	-0.236	-0.098
-737.054	685.048	0.057	-0.149
-736.039	-95.392	-0.335	-0.091
-735.025	65.712	0.236	0.242
-734.010	283.823	0.048	-0.087
-732.996	234.619	-0.132	-0.220
-731.981	-158.362	-0.306	0.018
-730.966	35.842	0.120	-0.106
-729.952	-46.587	0.278	-0.138
-728.937	72.109	-0.352	0.370
-727.923	621.007	0.134	-0.341
-726.908	-200.000	-0.034	-0.254
-725.894	124.976	0.073	0.093
-724.879	137.621	0.249	-0.329
-723.864	131.924	0.120	0.156
-722.850	47.851	-0.080	-0.076
-721.835	368.893	-0.065	0.133
-720.821	-125.004	-0.083	0.013
-719.806	-5.848	-0.219	-0.151
-718.791	-200.000	-0.011	-0.216
-717.777	-200.000	0.262	-0.000
-716.762	-34.975	-0.154	-0.085
-715.748	800.000	0.035	-0.152
-714.733	-85.548	-0.131	-0.041
-713.718	-65.576	-0.165	0.067
-712.704	-200.000	-0.080	-0.429
-711.689	-49.151	-0.251	-0.121
-710.675	636.137	-0.041	-0.105
-709.660	-121.140	0.153	0.026
-708.645	-200.000	-0.007	0.089
-707.631	-43.180	-0.194	-0.099
-706.616	-200.000	-0.285	-0.000
-705.602	83.812	-0.098	0.107
-704.587	800.000	-0.066	0.245
-703.572	800.000	-0.017	0.048
-702.558	-200.000	0.007	-0.063
-701.543	-148.982	0.575	0.047
-700.529	-200.000	0.045	0.211
-699.514	-20.414	-0.300	-0.186
-698.499	93.189	0.068	-0.078
-697.485	268.829	-0.059	-0.104
-696.470	-57.578	-0.271	-0.120
-695.456	396.766	0.119	-0.251
-694.441	68.555	0.070	0.072
-693.426	21.692	0.028	-0.023
-692.412	-45.712	0.314	0.157
-691.397	-99.389	-0.200	0.051
-690.383	-145.159	-0.232	-0.021
-689.368	-200.000	0.005	-0.183
-688.354	-23.736	0.301	0.182
-687.339	800.000	-0.061	-0.209
-686.324	-200.000	0.015	0.238
-685.310	-83.583	-0.218	-0.070
-684.295	800.000	-0.065	0.252
-683.281	-97.225	0.148	-0.039
-682.266	124.840	-0.215	0.274
-681.251	32.624	0.086	-0.075
-680.237	50.429	-0.016	-0.015
-679.222	800.000	0.018	-0.067
-678.208	420.517	-0.084	-0.182
-677.193	-193.198	-0.270	0.002
-676.178	-200.000	-0.034	0.201
-675.164	180.838	0.062	-0.091
-674.149	51.594	-0.175	0.167
-673.135	-132.584	-0.140	0.018
-672.120	-91.533	0.150	-0.043
-671.105	91.688	-0.105	-0.119
-670.091	-200.000	-0.017	0.345
-669.076	-198.689	-0.126	-0.001
-668.062	-200.000	0.041	-0.183
-667.047	89.264	0.111	-0.125
-666.032	800.000	-0.051	-0.185
-665.018	230.787	0.061	-0.100
-664.003	340.595	-0.085	-0.166
-662.989	-84.895	0.183	0.058
-661.974	-200.000	-0.010	0.223
-660.959	4.626	-0.051	-0.037
-659.945	202.047	0.026	0.040
-658.930	-88.158	0.170	-0.051
-657.916	422.721	-0.066	-0.143
-656.901	-53.731	0.119	-0.055
-655.886	-56.901	-0.040	-0.018
-654.872	-59.279	0.049	-0.021
-653.857	800.000	0.041	0.119
-652.843	63.189	-0.015	-0.015
-651.828	-150.768	-0.092	0.007
-650.814	23.246	-0.208	-0.172
-649.799	-200.000	0.033	0.362
-648.784	-21.064	-0.329	0.203
-647.770	800.000	-0.070	-0.275
-646.755	96.861	-0.216	-0.250
-645.741	716.566	-0.174	-0.465
-644.726	89.371	0.107	0.120
-643.711	-24.019	-0.260	-0.156
-642.697	35.499	-0.183	0.161
-641.682	-45.417	0.209	-0.104
-640.668	-40.937	-0.213	0.111
-639.653	414.130	0.099	-0.213
-638.638	62.526	0.283	0.285
-637.624	788.214	-0.068	0.186
-636.609	800.000	0.051	-0.208
-635.595	-64.267	-0.227	0.093
-634.580	7.126	0.149	-0.112
-633.565	751.230	-0.081	0.221
-632.551	-67.056	0.166	0.066
-631.536	454.167	-0.042	0.094
-630.522	-155.057	-0.106	0.007
-629.507	-200.000	0.010	0.174
-628.492	800.000	0.066	-0.188
-627.478	-97.287	0.088	0.023
-626.463	419.998	-0.147	0.317
-625.449	24.018	0.068	0.056
-624.434	550.448	0.083	-0.199
-623.419	-1.235	-0.214	-0.152
-622.405	800.000	0.048	-0.207
-621.390	-200.000	0.102	0.492
-620.376	116.375	-0.163	0.201
-619.361	-20.273	0.030	-0.019
-618.346	-53.811	0.250	-0.115
-617.332	293.338	-0.094	0.173
-616.317	-114.724	-0.165	0.032
-615.303	800.000	0.016	0.055
-614.288	166.270	-0.064	-0.092
-613.273	800.000	-0.044	0.154
-612.259	-91.175	-0.120	-0.035
-611.244	47.613	0.174	-0.163
-610.230	50.971	0.183	-0.174
-609.215	-13.085	-0.180	0.118
-608.201	-200.000	-0.020	0.534
-607.186	28.207	-0.070	-0.060
-606.171	19.969	-0.204	-0.165
-605.157	-112.786	0.406	0.081
-604.142	-70.354	-0.439	-0.167
-603.128	54.701	-0.293	-0.284
-602.113	188.395	-0.255	-0.384
-601.098	-70.665	0.138	0.052
-600.084	-85.285	0.100	-0.031
-599.069	-123.960	-0.053	0.008
-598.055	800.000	0.035	-0.113
-597.040	-101.406	-0.211	0.052
-596.025	-68.591	0.406	-0.158
-595.011	-128.980	-0.222	-0.031
-593.996	-138.282	-0.484	0.054
-592.982	-71.317	0.179	-0.067
-591.967	-169.708	0.262	0.010
-590.952	120.401	-0.119	-0.149
-589.938	201.147	0.069	-0.106
-588.923	275.313	-0.046	-0.082
-587.909	2.112	0.242	-0.176
-586.894	-27.107	0.208	0.122
-585.879	-200.000	0.011	-0.174
-584.865	800.000	-0.054	-0.160
-583.850	-31.653	0.111	-0.063
-582.836	-57.142	-0.064	-0.028
-581.821	-200.000	-0.003	0.044
-580.806	137.094	-0.127	-0.167
-579.792	-123.677	-0.238	-0.038
-578.777	-20.349	0.104	0.064
-577.763	18.977	-0.178	-0.143
-576.748	-113.038	0.211	0.042
-575.733	95.851	-0.135	-0.155
-574.719	16.664	0.136	0.108
-573.704	800.000	-0.070	-0.201
-572.690	-104.193	0.128	0.030
-571.675	-14.054	0.117	-0.076
-570.661	-147.628	-0.229	-0.019
-569.646	-200.000	0.009	0.082
-568.631	358.775	0.123	-0.247
-567.617	26.720	0.175	-0.147
-566.602	71.460	-0.117	-0.122
-565.588	174.552	0.180	-0.261
-564.573	-87.044	-0.276	-0.084
-563.558	-151.791	-0.157	-0.012
-562.544	-152.627	-0.194	0.014
-561.529	800.000	-0.106	0.331
-560.515	-169.672	0.097	0.004
-559.500	338.502	-0.172	-0.336
-558.485	-103.047	-0.106	-0.025
-557.471	265.480	0.077	0.135
-556.456	269.728	0.088	-0.155
-555.442	356.228	-0.148	0.296
-554.427	-19.686	0.193	-0.120
-553.412	-8.964	-0.246	-0.165
-552.398	-144.372	-0.196	-0.018
-551.383	502.729	0.099	-0.230
-550.369	800.000	-0.043	-0.143
-549.354	-35.207	0.133	-0.073
-548.339	800.000	0.022	0.089
-547.325	414.837	-0.121	0.258
-546.310	13.143	-0.153	-0.119
-545.296	-84.406	-0.034	0.011
-544.281	-86.269	-0.360	0.111
-543.266	800.000	-0.024	0.090
-542.252	-200.000	0.008	0.099
-541.237	800.000	0.144	0.424
-540.223	84.635	0.029	0.032
-539.208	-6.121	0.132	0.090
-538.193	5.852	-0.361	-0.268
-537.179	800.000	0.145	0.441
-536.164	57.352	0.133	-0.130
-535.150	800.000	-0.035	0.115
-534.135	-200.000	-0.020	-0.122
-533.121	-67.644	0.065	-0.025
-532.106	75.599	0.122	-0.129
-531.091	-200.000	0.026	0.120
-530.077	669.500	0.049	0.126
-529.062	-200.000	-0.097	-0.429
-528.048	800.000	-0.045	0.174
-527.033	366.569	-0.110	0.222
-526.018	123.336	-0.120	0.150
-525.004	-118.557	-0.333	0.059
-523.989	29.784	0.191	0.163
-522.975	-200.000	0.009	0.275
-521.960	800.000	0.073	0.205
-520.945	-48.708	0.310	-0.149
-519.931	80.741	0.242	0.261
-518.916	-200.000	-0.004	0.093
-517.902	800.000	0.025	-0.074
-516.887	-200.000	-0.026	0.132
-515.872	800.000	0.076	-0.330
-514.858	800.000	0.051	-0.144
-513.843	-58.746	0.203	0.088
-512.829	-147.903	-0.229	-0.019
-511.814	-200.000	0.050	-0.300
-510.799	176.564	0.079	0.115
-509.785	-126.776	-0.129	0.019
-508.770	-200.000	-0.056	0.297
-507.756	411.639	0.108	0.230
-506.741	287.128	-0.150	0.272
-505.726	-142.540	0.583	-0.057
-504.712	800.000	-0.115	-0.337
-503.697	-180.709	-0.097	-0.002
-502.683	-200.000	0.005	-0.075
-501.668	-113.557	-0.088	-0.017
-500.653	-45.520	0.285	-0.141
-499.639	-61.226	-0.233	0.098
-498.624	800.000	-0.101	-0.428
-497.610	176.301	0.026	0.039
-496.595	-42.249	-0.090	0.046
-495.581	-200.000	-0.046	-0.353
-494.566	-110.716	0.017	-0.004
-493.551	-16.567	0.161	0.102
-492.537	-124.822	-0.194	0.030
-491.522	-75.005	0.108	-0.039
-490.508	210.190	0.131	0.206
-489.493	447.126	0.090	0.199
-488.478	157.690	0.137	-0.190
-487.464	-200.000	-0.093	0.434
-486.449	-20.931	-0.285	0.175
-485.435	-171.261	0.120	-0.004
-484.420	-200.000	-0.006	-0.035
-483.405	-200.000	0.034	0.326
-482.391	-122.693	0.025	0.004
-481.376	-179.166	0.031	0.001
-480.362	560.380	0.161	0.389
-479.347	-200.000	0.007	-0.121
-478.332	-53.737	-0.336	-0.153
-477.318	-200.000	-0.021	-0.298
-476.303	800.000	0.047	0.176
-475.289	-200.000	-0.017	0.086
-474.274	-68.385	0.187	-0.072
-473.259	-115.004	-0.483	-0.092
-472.245	495.319	-0.156	-0.358
-471.230	608.972	-0.131	-0.327
-470.216	-200.000	-0.026	0.221
-469.201	-13.504	0.113	-0.073
-468.186	17.798	0.327	-0.260
-467.172	227.584	-0.133	0.216
-466.157	247.415	0.222	0.375
-465.143	-200.000	0.014	0.154
-464.128	12.528	-0.191	0.147
-463.113	571.998	0.160	-0.390
-462.099	474.730	0.031	-0.070
-461.084	-200.000	0.035	0.153
-460.070	210.951	0.050	-0.078
-459.055	-200.000	-0.040	0.223
-458.040	-62.166	0.181	0.076
-457.026	-200.000	-0.007	0.049
-456.011	-200.000	-0.029	-0.144
-454.997	-159.049	0.216	-0.012
-453.982	-77.416	0.297	-0.103
-452.968	394.658	0.140	-0.291
-451.953	-11.061	0.153	-0.101
-450.938	-200.000	-0.017	-0.089
-449.924	170.762	-0.113	0.162
-448.909	23.104	0.133	-0.109
-447.895	800.000	-0.064	0.217
-446.880	-106.664	-0.138	-0.031
-445.865	-23.289	0.163	0.098
-444.851	-167.311	-0.154	0.006
-443.836	-181.445	0.176	0.003
-442.822	202.984	0.144	0.222
-441.807	18.780	-0.216	-0.173
-440.792	455.913	0.060	0.134
-439.778	800.000	0.034	0.139
-438.763	370.573	0.109	0.221
-437.749	-109.696	-0.088	-0.019
-436.734	-198.818	0.331	-0.002
-435.719	-190.492	-0.230	-0.002
-434.705	-54.913	0.186	-0.084
-433.690	-122.487	-0.367	-0.060
-432.676	-105.476	-0.413	-0.094
-431.661	23.712	0.153	-0.126
-430.646	-200.000	0.005	0.119
-429.632	-48.999	0.169	-0.081
-428.617	-66.375	-0.284	0.113
-427.603	63.980	-0.232	0.233
-426.588	800.000	-0.085	-0.240
-425.573	-200.000	0.004	-0.115
-424.559	-14.398	-0.280	-0.180
-423.544	-156.498	0.039	0.002
-422.530	-200.000	-0.011	-0.193
-421.515	-18.750	0.294	-0.182
-420.500	-200.000	0.012	0.076
-419.486	800.000	0.088	-0.272
-418.471	-84.961	-0.308	0.096
-417.457	800.000	-0.074	0.236
-416.442	152.198	-0.172	-0.235
-415.428	27.543	0.309	0.259
-414.413	137.666	0.170	-0.223
-413.398	-111.113	-0.229	-0.047
-412.384	-200.000	-0.012	0.096
-411.369	5.382	-0.207	-0.152
-410.355	800.000	0.014	0.041
-409.340	42.147	0.190	-0.172
-408.325	-200.000	0.049	-0.233
-407.311	299.127	-0.102	0.186
-406.296	583.865	0.093	-0.228
-405.282	76.063	0.075	-0.079
-404.267	-101.549	0.131	0.032
-403.252	-200.000	0.055	0.470
-402.238	328.033	0.152	0.290
-401.223	-200.000	-0.053	0.327
-400.209	186.353	0.217	0.321
-399.194	77.318	-0.352	0.373
-398.179	64.990	0.201	0.202
-397.165	22.932	0.213	-0.174
-396.150	68.902	0.069	0.071
-395.136	-80.101	0.239	0.080
-394.121	703.274	0.018	-0.047
-393.106	-16.520	0.386	0.244
-392.092	-106.306	-0.144	0.032
-391.077	-111.512	0.209	0.042
-390.063	250.766	0.107	0.181
-389.048	-185.589	0.224	-0.003
-388.033	271.711	-0.130	-0.229
-387.019	-71.323	0.194	-0.072
-386.004	-200.000	0.008	0.063
-384.990	-200.000	0.034	-0.157
-383.975	-29.448	0.030	-0.017
-382.960	13.450	-0.089	0.068
-381.946	-34.652	-0.168	0.092
-380.931	-69.293	-0.031	-0.012
-379.917	-200.000	-0.017	-0.105
-378.902	-112.954	-0.020	-0.004
-377.888	-156.092	0.263	0.017
-376.873	-200.000	-0.033	-0.258
-375.858	121.495	0.060	0.074
-374.844	-193.447	-0.546	-0.005
-373.829	558.742	0.119	-0.286
-372.815	-132.344	-0.143	0.018
-371.800	-200.000	-0.042	-0.297
-370.785	-22.170	-0.206	-0.124
-369.771	800.000	-0.027	0.082
-368.756	272.237	0.181	0.318
-367.742	-115.093	-0.291	0.055
-366.727	-200.000	0.046	0.320
-365.712	-78.835	0.300	-0.102
-364.698	69.919	-0.179	0.184
-363.683	-125.201	-0.205	0.031
-362.669	-200.000	0.015	-0.201
-361.654	-45.435	0.093	0.046
-360.639	-106.809	0.177	0.039
-359.625	-70.574	-0.245	0.092
-358.610	-70.676	-0.245	0.092
-357.596	-48.598	-0.026	-0.013
-356.581	-101.175	0.062	-0.015
-355.566	124.043	-0.035	0.044
-354.552	800.000	0.021	0.066
-353.537	-20.188	0.325	0.199
-352.523	-175.410	-0.263	0.007
-351.508	222.641	0.272	0.436
-350.493	695.306	-0.056	0.146
-349.479	-43.090	0.117	0.059
-348.464	127.386	-0.130	-0.164
-347.450	204.657	0.152	-0.234
-346.435	800.000	-0.200	0.550
-345.420	-7.314	-0.036	0.024
-344.406	-91.487	0.118	-0.034
-343.391	-136.930	-0.324	-0.037
-342.377	166.761	0.026	0.037
-341.362	-200.000	-0.032	-0.180
-340.348	43.765	0.270	-0.246
-339.333	235.117	0.047	0.078
-338.318	400.403	-0.097	-0.202
-337.304	-49.323	-0.066	-0.031
-336.289	-188.374	0.116	-0.001
-335.275	-112.030	0.223	-0.045
-334.260	109.902	0.157	-0.187
-333.245	-200.000	-0.026	-0.184
-332.231	347.079	-0.120	0.234
-331.216	-91.824	0.079	-0.022
-330.202	489.182	-0.068	0.154
-329.187	-92.138	0.107	0.030
-328.172	-29.093	-0.304	0.173
-327.158	-50.901	0.115	-0.054
-326.143	-200.000	0.019	-0.106
-325.129	-150.952	-0.252	-0.019
-324.114	-7.742	0.172	0.116
-323.099	-96.045	-0.254	-0.067
-322.085	176.259	0.241	0.348
-321.070	143.213	-0.108	0.143
-320.056	-87.411	0.136	-0.041
-319.041	7.425	-0.089	-0.066
-318.026	-197.165	0.075	0.000
-317.012	73.827	-0.325	0.338
-315.997	-65.974	0.057	0.023
-314.983	-200.000	-0.024	-0.169
-313.968	271.166	0.184	-0.321
-312.953	-93.891	-0.192	0.052
-311.939	-117.343	0.117	-0.021
-310.924	-200.000	-0.021	0.362
-309.910	-117.871	0.143	-0.025
-308.895	-200.000	-0.018	0.086
-307.880	129.045	-0.085	-0.108
-306.866	-63.145	0.321	0.132
-305.851	263.145	-0.177	-0.305
-304.837	440.431	0.044	-0.096
-303.822	800.000	0.029	-0.098
-302.807	469.380	-0.113	0.253
-301.793	475.200	0.071	-0.160
-300.778	292.216	-0.233	-0.421
-299.764	-200.000	0.014	-0.350
-298.749	-200.000	0.064	-0.319
-297.735	-21.237	0.226	-0.137
-296.720	111.858	-0.162	0.194
-295.705	30.016	-0.246	0.208
-294.691	114.284	-0.125	0.151
-293.676	-87.401	-0.240	0.072
-292.662	-189.579	0.224	-0.003
-291.647	-88.942	0.395	0.116
-290.632	523.005	-0.077	0.180
-289.618	-200.000	0.018	0.268
-288.603	-23.089	-0.125	-0.075
-287.589	-200.000	-0.001	0.057
-286.574	49.932	0.218	0.204
-285.559	800.000	-0.054	-0.148
-284.545	391.215	0.043	0.088
-283.530	-200.000	-0.010	-0.192
-282.516	-200.000	-0.067	0.501
-281.501	800.000	-0.064	0.255
-280.486	-87.390	-0.049	-0.015
-279.472	-106.629	-0.408	0.090
-278.457	-151.402	-0.041	-0.003
-277.443	87.578	-0.212	0.232
-276.428	-62.451	0.201	-0.083
-275.413	-1.383	-0.110	-0.077
-274.399	-59.868	-0.058	-0.025
-273.384	49.181	-0.356	0.332
-272.370	-200.000	0.021	0.183
-271.355	800.000	0.075	-0.208
-270.340	-200.000	-0.011	0.269
-269.326	38.150	0.179	0.158
-268.311	260.455	-0.071	0.121
-267.297	-130.085	0.215	0.029
-266.282	487.445	-0.044	-0.100
-265.267	256.136	0.112	-0.191
-264.253	-144.874	0.204	0.018
-263.238	-200.000	-0.039	-0.449
-262.224	-114.959	0.216	-0.041
-261.209	63.593	-0.083	0.082
-260.195	-76.341	-0.197	0.069
-259.180	-29.565	-0.177	0.100
-258.165	-53.007	0.335	-0.153
-257.151	-200.000	0.006	0.064
-256.136	34.537	0.264	-0.229
-255.122	-200.000	-0.028	0.476
-254.107	-93.381	0.426	-0.117
-253.092	-62.558	-0.098	0.041
-252.078	-117.482	-0.104	-0.019
-251.063	-95.402	-0.115	-0.031
-250.049	339.144	-0.050	-0.097
-249.034	800.000	-0.030	-0.125
-248.019	-34.907	-0.378	-0.204
-247.005	414.154	-0.040	0.084
-245.990	-39.854	0.149	-0.077
-244.976	-181.333	0.439	-0.009
-243.961	-200.000	0.010	0.249
-242.946	333.333	-0.091	-0.174
-241.932	179.003	-0.180	0.260
-240.917	436.822	-0.150	0.323
-239.903	-200.000	-0.034	0.370
-238.888	-107.733	0.241	0.052
-237.873	385.040	0.145	-0.295
-236.859	204.142	0.218	-0.334
-235.844	-48.578	-0.370	-0.176
-234.830	-12.283	0.103	0.066
-233.815	244.908	-0.145	-0.241
-232.800	-200.000	-0.035	-0.267
-231.786	248.824	-0.103	0.172
-230.771	800.000	0.041	0.143
-229.757	421.574	-0.161	-0.342
-228.742	800.000	-0.062	0.189
-227.727	205.827	0.076	-0.117
-226.713	-107.056	-0.143	0.031
-225.698	210.150	-0.115	-0.179
-224.684	-200.000	0.022	0.118
-223.669	-139.555	0.115	0.012
-222.655	670.550	0.089	-0.227
-221.640	-200.000	0.021	-0.135
-220.625	800.000	0.137	-0.517
-219.611	-165.218	-0.116	-0.005
-218.596	-23.133	0.185	-0.110
-217.582	528.717	0.099	-0.230
-216.567	-200.000	-0.031	-0.213
-215.552	-5.688	-0.109	0.074
-214.538	212.788	-0.164	0.257
-213.523	-110.755	0.354	-0.072
-212.509	86.288	0.246	-0.268
-211.494	-55.285	-0.246	0.109
-210.479	-141.600	-0.530	0.053
-209.465	-16.725	0.208	-0.130
-208.450	14.433	-0.120	-0.093
-207.436	-64.023	0.133	-0.054
-206.421	-43.661	-0.086	0.043
-205.406	249.459	-0.143	0.240
-204.392	-76.419	0.276	0.096
-203.377	-33.658	0.349	-0.191
-202.363	-32.019	-0.209	-0.115
-201.348	-45.153	0.020	0.010
-200.333	141.879	0.053	0.069
-199.319	-103.354	-0.105	0.024
-198.304	21.709	-0.014	0.011
-197.290	-200.000	0.026	0.116
-196.275	-56.004	0.183	-0.080
-195.260	389.090	0.165	0.337
-194.246	800.000	0.032	-0.136
-193.231	-36.196	0.216	-0.115
-192.217	-6.553	0.044	-0.030
-191.202	48.245	-0.395	0.365
-190.187	-81.803	-0.008	-0.003
-189.173	800.000	0.126	0.444
-188.158	-109.711	-0.145	-0.030
-187.144	-200.000	-0.005	0.190
-186.129	-200.000	-0.037	-0.193
-185.114	-121.295	-0.253	0.042
-184.100	104.446	0.161	0.188
-183.085	-200.000	0.091	0.000
-182.071	529.483	-0.062	0.145
-181.056	-41.096	0.408	0.208
-180.042	549.465	0.112	-0.266
-179.027	61.238	-0.268	-0.264
-178.012	31.396	0.223	-0.189
-176.998	-200.000	-0.019	0.447
-175.983	-2.031	0.177	-0.123
-174.969	-23.166	-0.110	-0.065
-173.954	105.644	-0.106	0.124
-172.939	800.000	-0.134	-0.384
-171.925	45.893	0.255	0.233
-170.910	363.963	0.077	-0.153
-169.896	594.175	0.066	-0.161
-168.881	-49.605	0.393	-0.185
-167.866	472.336	-0.137	-0.306
-166.852	-173.880	0.176	0.005
-165.837	452.290	-0.021	0.047
-164.823	-151.155	-0.475	-0.035
-163.808	130.663	-0.038	-0.048
-162.793	-134.160	-0.121	-0.015
-161.779	161.511	0.300	-0.414
-160.764	33.989	0.141	-0.121
-159.750	242.867	-0.102	-0.168
-158.735	-63.776	-0.058	0.024
-157.720	-32.386	0.124	0.069
-156.706	502.204	0.109	-0.248
-155.691	-20.913	-0.123	0.074
-154.677	346.483	0.054	-0.104
-153.662	168.038	0.242	0.340
-152.647	25.540	0.236	-0.194
-151.633	-125.057	-0.170	0.026
-150.618	137.655	0.072	0.093
-149.604	219.967	0.240	-0.379
-148.589	-200.000	0.010	-0.090
-147.574	65.627	-0.241	0.241
-146.560	-59.206	0.259	-0.110
-145.545	-79.602	-0.192	0.064
-144.531	-64.077	-0.133	0.053
-143.516	-200.000	0.061	0.381
-142.502	-133.738	-0.226	0.028
-141.487	109.141	-0.037	0.044
-140.472	15.512	-0.071	0.055
-139.458	-94.234	-0.381	-0.103
-138.443	260.271	-0.061	-0.103
-137.429	-148.073	0.093	0.008
-136.414	800.000	0.041	-0.118
-135.399	-14.604	-0.184	0.117
-134.385	-163.014	0.294	0.014
-133.370	-72.885	0.198	0.072
-132.356	66.327	0.270	-0.270
-131.341	64.872	0.321	-0.319
-130.326	-1.801	0.098	0.068
-129.312	-151.019	0.242	0.018
-128.297	-64.121	0.225	0.091
-127.283	-58.030	0.134	-0.057
-126.268	-21.129	0.365	-0.220
-125.253	-97.123	0.124	-0.032
-124.239	493.340	0.025	0.057
-123.224	-87.857	-0.188	0.056
-122.210	-60.708	0.156	0.065
