DTS Sentinel unit serial number:	SN413079Multiplexer serial number:	ORYXHardware model number:	OX4-SRSoftware version number:	ORYX F/W v4.00 Oryx Data Collector v3.7.2.0data status	okinstallation	princeton_trtdifferential loss correction	single-endedforward channel	channel 3reverse channel	N/Adate	2019/09/15time	06:56:35forward acquisition time	60.00reverse acquisition time	0.00gamma	496.2192k internal	0.2325k external	0.2325temperature offset calibration	0.9976default loss term (dB/km)	0.3790temperature slope calibration	1.0000multiplexer offset coefficient	1.0000multiplexer slope coefficient	1.0000fibre end	0.00T internal ref (°C)	30.50T ext. ref 1 (°C)	4.84T ext. ref 2 (°C)	25.57length (m)	temperature (°C)	Stokes	anti-Stokes-747.200	-77.695	-0.150	-0.052
-746.185	-163.572	-0.353	0.017
-745.171	-61.263	0.272	-0.116
-744.156	230.686	-0.066	0.109
-743.142	800.000	0.070	-0.206
-742.127	-36.583	-0.383	0.208
-741.112	800.000	0.086	0.263
-740.098	233.636	-0.078	0.129
-739.083	98.719	-0.212	0.247
-738.069	792.976	-0.101	-0.280
-737.054	405.447	-0.135	0.288
-736.039	-41.609	-0.237	0.123
-735.025	615.944	0.186	0.470
-734.010	1.701	-0.402	-0.292
-732.996	-200.000	0.057	-0.418
-731.981	208.976	-0.176	-0.278
-730.966	-96.286	0.246	-0.066
-729.952	-12.092	-0.334	-0.221
-728.937	279.123	-0.133	-0.239
-727.923	622.874	-0.030	-0.076
-726.908	248.875	0.064	0.109
-725.894	-159.882	-0.283	-0.016
-724.879	-106.630	-0.151	0.034
-723.864	128.500	-0.238	-0.306
-722.850	800.000	-0.032	0.109
-721.835	-200.000	-0.020	-0.251
-720.821	-200.000	-0.024	-0.294
-719.806	378.409	-0.030	0.061
-718.791	800.000	0.065	-0.209
-717.777	-32.247	-0.344	-0.194
-716.762	-48.474	-0.045	-0.022
-715.748	800.000	-0.048	-0.134
-714.733	800.000	-0.070	-0.235
-713.718	-200.000	-0.062	-0.401
-712.704	218.147	-0.190	-0.305
-711.689	-200.000	-0.010	-0.119
-710.675	66.416	0.081	-0.083
-709.660	37.524	0.132	-0.118
-708.645	-61.830	0.154	0.065
-707.631	229.639	-0.055	0.091
-706.616	-105.368	-0.109	0.025
-705.602	-31.349	0.385	-0.218
-704.587	-34.914	0.212	0.117
-703.572	497.184	0.056	-0.130
-702.558	-200.000	0.009	-0.341
-701.543	-10.899	0.117	-0.078
-700.529	-106.774	-0.146	-0.033
-699.514	-178.408	0.427	0.010
-698.499	-200.000	0.042	-0.237
-697.485	-70.769	0.109	-0.041
-696.470	-200.000	-0.003	-0.109
-695.456	192.512	0.202	0.306
-694.441	48.029	0.083	0.079
-693.426	171.690	-0.182	-0.263
-692.412	403.109	-0.155	0.329
-691.397	325.526	0.030	-0.057
-690.383	62.286	-0.048	0.048
-689.368	-89.797	0.127	0.037
-688.354	800.000	-0.071	0.298
-687.339	-200.000	0.050	-0.291
-686.324	800.000	0.075	-0.289
-685.310	45.504	0.083	-0.078
-684.295	11.227	-0.119	-0.092
-683.281	-186.254	0.096	-0.001
-682.266	133.390	0.235	-0.306
-681.251	250.357	-0.186	0.318
-680.237	-200.000	0.046	0.213
-679.222	-96.261	-0.150	0.040
-678.208	-125.906	-0.158	0.024
-677.193	707.916	-0.059	-0.157
-676.178	-200.000	-0.084	0.000
-675.164	-93.575	0.262	-0.073
-674.149	-6.711	-0.166	0.114
-673.135	-33.623	0.159	-0.088
-672.120	37.981	-0.073	-0.066
-671.105	-177.518	0.269	0.007
-670.091	800.000	-0.094	-0.276
-669.076	73.165	-0.172	-0.181
-668.062	-30.152	0.332	-0.190
-667.047	-16.833	-0.272	0.173
-666.032	800.000	-0.025	0.103
-665.018	-41.282	0.175	-0.091
-664.003	-57.585	-0.232	0.102
-662.989	-200.000	0.082	-0.470
-661.974	134.365	-0.296	-0.386
-660.959	-36.672	-0.044	0.024
-659.945	-136.855	-0.117	-0.014
-658.930	183.418	0.040	-0.059
-657.916	98.413	0.138	0.160
-656.901	0.935	-0.023	0.016
-655.886	19.809	0.131	-0.106
-654.872	-87.354	-0.119	0.036
-653.857	-137.861	0.052	-0.006
-652.843	-136.236	0.358	0.042
-651.828	-200.000	-0.017	0.130
-650.814	-141.179	-0.124	0.013
-649.799	-200.000	-0.015	-0.151
-648.784	-200.000	0.042	-0.277
-647.770	151.629	-0.182	-0.250
-646.755	-200.000	-0.009	0.115
-645.741	135.211	0.056	-0.073
-644.726	-97.314	0.314	-0.082
-643.711	146.605	-0.300	-0.405
-642.697	-146.939	-0.193	0.017
-641.682	258.512	0.171	0.297
-640.668	-127.438	-0.413	0.060
-639.653	433.270	-0.015	-0.033
-638.638	-69.381	-0.445	-0.172
-637.624	293.021	0.292	0.535
-636.609	-193.178	-0.243	0.002
-635.595	197.850	0.025	-0.038
-634.580	-18.951	-0.095	-0.059
-633.565	159.103	0.059	-0.083
-632.551	-122.086	0.452	0.075
-631.536	31.345	0.147	-0.127
-630.522	-99.560	-0.108	0.027
-629.507	-200.000	0.054	-0.261
-628.492	696.759	0.023	0.060
-627.478	-54.080	-0.304	0.139
-626.463	11.572	0.449	-0.346
-625.449	21.959	-0.192	-0.157
-624.434	-19.289	-0.123	0.077
-623.419	-89.930	-0.165	-0.049
-622.405	-73.469	-0.128	-0.047
-621.390	-200.000	0.006	0.145
-620.376	-84.883	0.114	0.036
-619.361	-105.968	-0.421	0.095
-618.346	199.740	-0.176	-0.271
-617.332	423.344	-0.078	0.169
-616.317	271.262	-0.129	0.228
-615.303	-115.796	0.208	-0.039
-614.288	-200.000	-0.018	-0.358
-613.273	106.876	0.167	-0.199
-612.259	-200.000	0.045	-0.327
-611.244	-187.385	0.089	-0.001
-610.230	-99.583	-0.342	0.086
-609.215	-87.556	-0.334	0.101
-608.201	-200.000	0.024	-0.133
-607.186	-135.523	-0.078	-0.009
-606.171	-72.453	0.433	0.161
-605.157	-200.000	-0.033	-0.201
-604.142	4.847	0.102	0.075
-603.128	174.297	-0.102	0.148
-602.113	30.954	0.205	-0.177
-601.098	-77.846	-0.114	0.039
-600.084	42.842	-0.058	-0.053
-599.069	-118.838	0.236	0.042
-598.055	-200.000	0.064	-0.294
-597.040	461.529	0.147	-0.329
-596.025	800.000	-0.021	0.066
-595.011	689.051	0.080	0.211
-593.996	-35.884	-0.212	0.115
-592.982	-19.866	-0.078	0.048
-591.967	-200.000	-0.006	0.087
-590.952	-54.669	0.201	0.091
-589.938	285.562	0.095	-0.172
-588.923	-122.508	0.184	0.030
-587.909	-97.205	0.197	0.052
-586.894	800.000	-0.066	0.190
-585.879	-45.808	0.198	-0.098
-584.865	-200.000	-0.310	-0.000
-583.850	34.830	0.072	0.063
-582.836	-158.600	-0.264	0.015
-581.821	245.869	-0.065	-0.110
-580.806	-37.612	-0.190	-0.101
-579.792	200.144	-0.187	-0.289
-578.777	-110.751	-0.298	-0.062
-577.763	-36.006	-0.413	0.224
-576.748	800.000	-0.134	0.483
-575.733	-200.000	0.042	0.185
-574.719	688.827	-0.085	0.223
-573.704	174.614	0.169	-0.245
-572.690	117.024	0.045	0.055
-571.675	-82.908	0.069	-0.022
-570.661	256.710	0.124	0.213
-569.646	-200.000	-0.010	0.045
-568.631	110.687	-0.065	0.078
-567.617	-200.000	0.007	-0.217
-566.602	800.000	-0.048	0.162
-565.588	628.258	0.073	0.185
-564.573	-86.490	0.130	-0.040
-563.558	8.578	0.298	-0.225
-562.544	-91.273	-0.159	-0.046
-561.529	-110.364	-0.148	-0.031
-560.515	800.000	-0.058	0.199
-559.500	-81.654	-0.364	0.120
-558.485	-143.082	0.219	0.021
-557.471	122.036	0.171	0.214
-556.456	-91.694	0.305	-0.087
-555.442	-22.702	-0.104	-0.063
-554.427	-200.000	0.019	0.176
-553.412	70.123	-0.354	0.366
-552.398	-200.000	-0.023	-0.162
-551.383	800.000	0.114	-0.446
-550.369	316.161	-0.144	-0.273
-549.354	-99.893	-0.102	-0.025
-548.339	-200.000	0.022	0.192
-547.325	800.000	-0.069	0.232
-546.310	90.948	0.050	0.056
-545.296	310.389	0.097	0.181
-544.281	-157.874	-0.281	-0.017
-543.266	-167.505	-0.195	0.008
-542.252	-29.014	0.209	-0.120
-541.237	-31.564	-0.221	-0.124
-540.223	-167.223	0.237	0.010
-539.208	-114.002	0.273	0.053
-538.193	101.754	-0.088	-0.103
-537.179	-200.000	0.048	-0.217
-536.164	2.945	0.331	-0.240
-535.150	175.898	0.205	0.298
-534.135	19.596	-0.174	0.140
-533.121	51.250	0.186	-0.176
-532.106	-140.463	-0.358	0.037
-531.091	-200.000	-0.022	-0.247
-530.077	-144.887	0.256	0.023
-529.062	536.989	0.085	0.202
-528.048	-200.000	0.014	0.162
-527.033	91.630	0.168	-0.189
-526.018	-139.150	-0.530	-0.057
-525.004	800.000	0.211	0.594
-523.989	178.567	-0.163	-0.238
-522.975	-90.329	-0.276	0.080
-521.960	117.637	0.144	-0.178
-520.945	-0.012	0.151	-0.108
-519.931	88.940	0.259	-0.289
-518.916	-200.000	-0.052	0.309
-517.902	800.000	-0.080	-0.314
-516.887	267.353	-0.040	-0.070
-515.872	-200.000	0.009	0.039
-514.858	503.421	0.044	-0.102
-513.843	102.491	-0.150	-0.175
-512.829	-101.878	-0.240	-0.058
-511.814	320.338	0.067	0.128
-510.799	800.000	0.101	-0.339
-509.785	97.103	0.092	-0.106
-508.770	-115.737	0.100	-0.019
-507.756	214.650	0.069	-0.110
-506.741	-59.446	-0.248	-0.107
-505.726	-61.368	0.193	-0.081
-504.712	314.091	-0.076	0.143
-503.697	800.000	0.009	-0.026
-502.683	-200.000	0.019	0.208
-501.668	125.966	-0.079	-0.100
-500.653	-75.047	0.183	0.065
-499.639	-200.000	0.087	0.503
-498.624	5.276	0.182	0.134
-497.610	800.000	0.081	-0.337
-496.595	-200.000	-0.009	-0.200
-495.581	-20.625	-0.200	0.123
-494.566	269.472	0.050	-0.088
-493.551	-148.044	-0.052	-0.004
-492.537	800.000	0.026	-0.075
-491.522	-42.006	0.124	-0.063
-490.508	146.149	0.163	0.218
-489.493	-200.000	-0.094	-0.441
-488.478	11.470	0.164	0.126
-487.464	266.797	0.136	-0.237
-486.449	-38.440	-0.400	-0.211
-485.435	117.006	-0.169	-0.207
-484.420	-21.430	-0.093	-0.057
-483.405	800.000	0.073	0.204
-482.391	133.692	-0.040	0.052
-481.376	-69.332	-0.239	-0.092
-480.362	493.937	0.058	0.133
-479.347	124.346	-0.147	-0.184
-478.332	-200.000	0.010	0.159
-477.318	-131.619	0.357	0.047
-476.303	-73.762	0.123	-0.045
-475.289	277.591	-0.079	0.140
-474.274	202.632	0.054	-0.084
-473.259	429.498	0.055	0.119
-472.245	-200.000	-0.005	0.252
-471.230	-30.199	0.222	0.126
-470.216	-167.327	-0.061	-0.002
-469.201	-200.000	0.003	-0.349
-468.186	-200.000	0.052	-0.285
-467.172	800.000	0.081	0.230
-466.157	14.223	0.183	-0.143
-465.143	-200.000	0.037	0.268
-464.128	-81.133	-0.174	-0.057
-463.113	645.647	-0.099	0.252
-462.099	-77.340	0.362	0.126
-461.084	-31.945	-0.213	0.119
-460.070	800.000	-0.071	0.261
-459.055	-115.990	-0.296	-0.055
-458.040	800.000	0.038	0.143
-457.026	-47.840	-0.214	-0.103
-456.011	126.450	0.295	0.372
-454.997	-200.000	0.029	-0.175
-453.982	-200.000	0.037	-0.198
-452.968	-200.000	-0.085	-0.377
-451.953	176.771	0.126	0.182
-450.938	228.981	-0.004	-0.007
-449.924	-30.754	0.147	-0.083
-448.909	-34.203	-0.313	-0.171
-447.895	-64.046	-0.100	0.041
-446.880	3.895	0.120	0.087
-445.865	310.858	-0.047	-0.088
-444.851	-200.000	0.045	-0.381
-443.836	-200.000	0.013	0.097
-442.822	-200.000	0.017	0.160
-441.807	210.731	0.269	0.422
-440.792	103.218	-0.063	-0.074
-439.778	-43.477	-0.181	-0.091
-438.763	-4.834	-0.021	-0.015
-437.749	-5.784	-0.069	0.047
-436.734	-54.168	0.156	-0.071
-435.719	208.987	-0.068	-0.106
-434.705	0.164	0.040	-0.028
-433.690	132.649	-0.155	0.200
-432.676	800.000	0.108	0.351
-431.661	697.309	0.054	0.143
-430.646	-19.967	0.240	-0.148
-429.632	800.000	0.044	0.169
-428.617	-36.021	0.050	0.027
-427.603	-162.679	0.247	-0.012
-426.588	-200.000	0.000	0.266
-425.573	-141.031	0.116	0.012
-424.559	-115.544	0.322	0.060
-423.544	147.446	-0.087	-0.117
-422.530	-90.381	-0.128	-0.037
-421.515	-139.330	0.332	-0.036
-420.500	-124.369	0.180	0.028
-419.486	-200.000	-0.130	0.000
-418.471	52.057	0.043	-0.041
-417.457	-66.062	0.263	0.104
-416.442	-71.053	0.231	-0.087
-415.428	55.811	0.259	-0.250
-414.413	-126.118	-0.039	0.006
-413.398	-102.542	-0.223	-0.053
-412.384	317.159	0.026	0.050
-411.369	-192.062	0.208	-0.002
-410.355	-134.925	0.257	0.031
-409.340	800.000	-0.150	0.413
-408.325	-123.806	-0.076	-0.012
-407.311	1.173	0.114	-0.081
-406.296	-200.000	-0.007	0.033
-405.282	-66.952	-0.196	0.077
-404.267	98.198	0.112	-0.129
-403.252	-200.000	0.024	0.168
-402.238	140.237	0.120	0.158
-401.223	-33.505	0.424	-0.233
-400.209	800.000	-0.118	-0.351
-399.194	62.336	-0.162	-0.161
-398.179	800.000	-0.043	0.118
-397.165	-200.000	-0.059	-0.271
-396.150	26.982	0.166	0.139
-395.136	-122.728	-0.129	-0.021
-394.121	-86.383	-0.333	0.102
-393.106	-146.975	0.131	-0.011
-392.092	-5.813	0.218	0.149
-391.077	57.162	-0.171	-0.166
-390.063	-67.380	0.211	0.083
-389.048	26.947	0.157	0.131
-388.033	-6.447	-0.134	-0.091
-387.019	64.524	0.119	0.119
-386.004	63.522	-0.037	0.037
-384.990	-45.515	0.244	-0.120
-383.975	-115.950	0.095	-0.018
-382.960	135.760	0.105	-0.135
-381.946	-86.310	0.169	-0.052
-380.931	-161.338	-0.373	0.019
-379.917	-77.200	0.059	-0.020
-378.902	-116.352	-0.048	-0.009
-377.888	28.932	0.298	-0.251
-376.873	-107.904	-0.622	0.135
-375.858	237.667	-0.028	0.046
-374.844	-200.000	0.000	0.248
-373.829	-74.785	-0.125	-0.045
-372.815	150.560	-0.090	-0.122
-371.800	-78.097	-0.096	0.033
-370.785	-90.492	-0.427	0.123
-369.771	-46.566	-0.045	0.022
-368.756	338.518	-0.150	-0.290
-367.742	-30.263	0.354	0.200
-366.727	321.003	0.103	0.195
-365.712	-200.000	-0.032	0.142
-364.698	78.861	0.112	0.119
-363.683	41.558	0.196	-0.176
-362.669	-115.904	0.106	0.020
-361.654	-31.807	-0.069	0.039
-360.639	-172.939	-0.161	-0.005
-359.625	412.894	0.092	0.194
-358.610	-131.508	0.044	0.006
-357.596	30.226	-0.164	0.139
-356.581	-34.197	0.122	-0.067
-355.566	49.710	0.170	-0.159
-354.552	-86.803	0.273	0.083
-353.537	-18.741	-0.414	0.257
-352.523	-76.523	-0.290	0.101
-351.508	142.791	0.224	0.296
-350.493	-85.548	0.067	-0.021
-349.479	394.929	0.065	-0.135
-348.464	11.981	0.252	0.192
-347.450	-15.372	-0.300	-0.190
-346.435	-131.041	0.308	-0.041
-345.420	-92.399	0.246	-0.069
-344.406	-200.000	-0.055	-0.256
-343.391	-40.476	-0.300	0.155
-342.377	-200.000	0.080	-0.409
-341.362	-11.260	0.398	0.260
-340.348	-123.256	-0.293	-0.046
-339.333	-17.046	0.294	-0.185
-338.318	-113.423	0.050	-0.010
-337.304	800.000	-0.009	-0.031
-336.289	94.495	-0.056	0.063
-335.275	120.979	-0.030	-0.037
-334.260	25.776	0.233	-0.192
-333.245	800.000	-0.077	0.272
-332.231	131.593	0.214	-0.273
-331.216	112.691	-0.193	0.232
-330.202	-200.000	0.036	0.220
-329.187	83.230	-0.151	0.163
-328.172	800.000	0.075	-0.285
-327.158	723.134	0.052	-0.138
-326.143	-200.000	-0.013	0.066
-325.129	179.564	-0.073	0.107
-324.114	-200.000	-0.001	0.020
-323.099	166.313	-0.150	0.210
-322.085	-200.000	-0.014	0.139
-321.070	228.258	-0.039	-0.063
-320.056	90.586	-0.079	0.088
-319.041	-103.899	0.190	-0.044
-318.026	239.630	0.130	0.215
-317.012	-200.000	-0.039	-0.207
-315.997	80.642	0.165	-0.176
-314.983	-18.776	0.265	0.164
-313.968	5.812	0.199	0.146
-312.953	650.262	-0.096	-0.243
-311.939	125.253	-0.266	0.333
-310.924	-119.747	0.090	0.015
-309.910	89.922	0.087	-0.096
-308.895	-151.561	-0.226	-0.017
-307.880	-176.674	-0.138	0.003
-306.866	144.420	0.119	-0.158
-305.851	-94.439	-0.100	0.027
-304.837	334.457	0.086	0.165
-303.822	-195.168	0.130	0.001
-302.807	800.000	-0.064	-0.204
-301.793	-69.413	-0.174	0.066
-300.778	159.439	0.102	-0.140
-299.764	125.033	-0.152	0.190
-298.749	-125.635	-0.242	-0.036
-297.735	-116.620	-0.118	-0.022
-296.720	-44.794	0.140	0.069
-295.705	39.398	-0.180	0.160
-294.691	-87.476	-0.217	0.065
-293.676	-82.513	0.101	-0.033
-292.662	-200.000	0.011	0.143
-291.647	-33.815	-0.133	0.073
-290.632	484.280	0.013	0.029
-289.618	143.732	0.067	0.089
-288.603	-200.000	0.002	-0.484
-287.589	761.559	-0.124	0.333
-286.574	89.659	-0.280	0.310
-285.559	-200.000	-0.042	-0.360
-284.545	-200.000	0.015	0.132
-283.530	-200.000	0.030	-0.245
-282.516	-119.690	-0.066	0.011
-281.501	5.476	-0.188	-0.138
-280.486	-40.053	0.373	0.193
-279.472	1.902	0.240	0.171
-278.457	-138.060	0.371	0.041
-277.443	-200.000	-0.076	0.340
-276.428	-101.541	-0.297	0.072
-275.413	288.947	0.022	-0.040
-274.399	-128.124	0.275	0.039
-273.384	83.156	-0.182	-0.197
-272.370	800.000	0.082	0.228
-271.355	-46.829	-0.212	-0.103
-270.340	28.995	0.110	0.093
-269.326	-83.224	0.335	-0.107
-268.311	-200.000	0.001	-0.252
-267.297	-90.035	0.130	-0.037
-266.282	108.187	-0.147	-0.174
-265.267	-74.988	0.335	0.119
-264.253	-200.000	0.024	0.148
-263.238	-114.477	0.251	-0.048
-262.224	-62.086	-0.246	-0.102
-261.209	-69.807	-0.254	0.096
-260.195	33.823	-0.123	-0.106
-259.180	-200.000	-0.006	-0.109
-258.165	30.956	-0.265	-0.225
-257.151	616.746	-0.046	0.113
-256.136	-59.291	-0.042	-0.018
-255.122	419.970	-0.110	0.234
-254.107	628.007	-0.046	0.114
-253.092	312.929	0.090	0.167
-252.078	-53.407	0.297	-0.135
-251.063	-9.185	-0.016	-0.011
-250.049	142.076	-0.073	-0.096
-249.034	-9.533	0.067	-0.045
-248.019	-128.121	-0.218	-0.031
-247.005	-123.706	0.238	0.037
-245.990	800.000	-0.038	0.143
-244.976	8.838	-0.091	-0.068
-243.961	90.458	-0.058	-0.064
-242.946	-200.000	-0.015	0.127
-241.932	800.000	-0.029	-0.092
-240.917	-63.687	0.221	0.090
-239.903	800.000	0.017	0.054
-238.888	-54.090	0.076	-0.034
-237.873	771.724	0.017	0.046
-236.859	-14.128	0.090	0.057
-235.844	605.231	-0.171	-0.420
-234.830	-200.000	0.002	-0.107
-233.815	-3.584	0.354	-0.243
-232.800	-71.876	-0.184	-0.068
-231.786	76.744	-0.075	-0.078
-230.771	379.419	-0.123	0.249
-229.757	196.295	0.109	-0.164
-228.742	-11.648	-0.188	0.122
-227.727	-36.893	0.124	0.066
-226.713	-61.503	0.116	0.048
-225.698	-175.416	0.083	-0.002
-224.684	-5.640	-0.086	0.059
-223.669	-48.017	0.300	-0.144
-222.655	145.203	-0.262	-0.347
-221.640	-200.000	0.001	0.154
-220.625	-117.838	0.053	0.009
-219.611	-187.824	-0.266	-0.003
-218.596	50.944	-0.220	-0.206
-217.582	-97.905	-0.207	-0.053
-216.567	80.822	-0.144	-0.154
-215.552	51.271	0.278	-0.261
-214.538	800.000	-0.066	-0.181
-213.523	800.000	-0.135	0.382
-212.509	193.506	0.017	0.025
-211.494	38.604	0.109	0.096
-210.479	-200.000	0.011	-0.190
-209.465	-122.965	0.119	0.019
-208.450	-113.883	0.055	-0.011
-207.436	423.660	-0.164	0.348
-206.421	-51.686	-0.194	0.089
-205.406	256.404	0.067	-0.114
-204.392	20.252	0.055	-0.044
-203.377	-19.147	-0.157	0.096
-202.363	140.370	0.089	-0.116
-201.348	-37.044	-0.260	0.138
-200.333	-200.000	-0.028	0.218
-199.319	-200.000	0.081	-0.378
-198.304	-200.000	0.029	-0.133
-197.290	-84.527	-0.226	0.070
-196.275	85.762	-0.106	-0.115
-195.260	312.872	0.182	0.338
-194.246	-200.000	-0.207	-0.001
-193.231	-45.369	0.144	-0.071
-192.217	800.000	-0.064	-0.200
-191.202	-200.000	0.009	-0.096
-190.187	-106.800	0.263	0.058
-189.173	249.399	-0.215	-0.360
-188.158	-41.129	0.204	-0.104
-187.144	12.939	0.103	0.079
-186.129	571.544	-0.012	-0.028
-185.114	286.343	0.258	0.460
-184.100	-33.399	-0.095	0.052
-183.085	-17.385	-0.206	-0.128
-182.071	36.069	0.106	0.092
-181.056	-200.000	0.009	0.090
-180.042	-140.073	0.279	-0.029
-179.027	-200.000	-0.011	0.318
-178.012	150.963	0.215	0.289
-176.998	-87.911	-0.248	0.074
-175.983	-200.000	0.002	0.085
-174.969	400.995	0.049	-0.101
-173.954	800.000	0.059	0.238
-172.939	214.118	0.124	-0.194
-171.925	-2.770	-0.192	0.133
-170.910	-104.821	-0.212	-0.048
-169.896	140.746	-0.257	-0.334
-168.881	143.979	0.027	0.036
-167.866	215.099	-0.117	0.183
-166.852	-147.330	0.106	0.009
-165.837	-27.935	-0.152	0.087
-164.823	7.027	0.126	0.092
-163.808	629.748	-0.059	-0.147
-162.793	-53.631	-0.199	-0.090
-161.779	140.203	-0.299	-0.388
-160.764	38.985	0.140	0.124
-159.750	61.884	-0.142	-0.140
-158.735	-8.511	0.051	0.033
-157.720	800.000	-0.031	0.122
-156.706	621.588	0.089	-0.222
-155.691	343.753	0.093	-0.179
-154.677	206.374	-0.133	0.204
-153.662	-155.531	-0.169	0.011
-152.647	204.732	0.123	0.188
-151.633	208.091	-0.184	0.283
-150.618	-116.246	0.289	-0.053
-149.604	46.533	-0.081	-0.074
-148.589	-59.003	-0.192	0.082
-147.574	-79.942	0.241	0.080
-146.560	197.413	-0.154	0.232
-145.545	11.755	0.491	-0.372
-144.531	-90.622	-0.013	-0.004
-143.516	1.196	-0.316	0.224
-142.502	240.836	-0.042	0.068
-141.487	-19.415	-0.158	0.097
-140.472	800.000	-0.078	-0.216
-139.458	247.715	-0.116	0.193
-138.443	229.805	0.118	-0.190
-137.429	-200.000	0.009	-0.114
-136.414	34.164	0.164	0.141
-135.399	520.820	0.123	0.283
-134.385	4.149	-0.160	-0.116
-133.370	-200.000	0.081	-0.391
-132.356	111.995	-0.129	0.154
-131.341	95.298	-0.026	-0.029
-130.326	-200.000	0.040	-0.219
-129.312	-36.660	0.113	0.060
-128.297	-66.289	0.213	-0.084
-127.283	-92.430	0.454	0.126
-126.268	-29.795	0.249	-0.140
-125.253	-169.907	0.094	-0.003
-124.239	800.000	0.054	0.201
-123.224	-188.795	-0.277	-0.003
-122.210	118.274	-0.121	-0.148
-121.195	-44.263	0.381	-0.188
