DTS Sentinel unit serial number:	SN413079Multiplexer serial number:	ORYXHardware model number:	OX4-SRSoftware version number:	ORYX F/W v4.00 Oryx Data Collector v3.7.2.0data status	okinstallation	princeton_trtdifferential loss correction	single-endedforward channel	channel 3reverse channel	N/Adate	2019/09/16time	20:04:35forward acquisition time	60.00reverse acquisition time	0.00gamma	496.2192k internal	0.2321k external	0.2321temperature offset calibration	0.9937default loss term (dB/km)	0.3790temperature slope calibration	1.0000multiplexer offset coefficient	1.0000multiplexer slope coefficient	1.0000fibre end	0.00T internal ref (°C)	33.25T ext. ref 1 (°C)	0.06T ext. ref 2 (°C)	26.64length (m)	temperature (°C)	Stokes	anti-Stokes-747.200	-200.000	-0.016	0.318
-746.185	-200.000	-0.042	0.413
-745.171	-15.075	0.188	0.121
-744.156	-108.497	-0.176	0.038
-743.142	-37.213	-0.213	-0.115
-742.127	167.703	0.096	0.138
-741.112	336.826	0.069	0.135
-740.098	-200.000	0.055	0.434
-739.083	108.367	0.095	0.115
-738.069	800.000	0.060	0.197
-737.054	55.267	-0.111	-0.109
-736.039	-94.491	-0.294	0.081
-735.025	-200.000	0.004	0.100
-734.010	19.752	-0.468	-0.381
-732.996	-147.063	0.204	-0.018
-731.981	-25.750	0.143	0.085
-730.966	-91.582	0.143	0.041
-729.952	2.926	-0.200	-0.147
-728.937	-24.555	-0.114	-0.068
-727.923	800.000	-0.035	0.107
-726.908	-65.847	0.289	-0.117
-725.894	29.288	0.217	0.186
-724.879	800.000	0.034	-0.097
-723.864	42.616	0.139	-0.128
-722.850	-155.266	-0.258	0.017
-721.835	64.037	0.069	0.070
-720.821	-50.767	0.053	-0.025
-719.806	-150.368	-0.213	0.017
-718.791	126.628	-0.157	-0.201
-717.777	800.000	0.055	-0.158
-716.762	233.899	0.101	0.167
-715.748	-36.524	-0.182	0.099
-714.733	176.804	-0.167	0.245
-713.718	557.351	-0.137	-0.333
-712.704	-121.471	-0.282	-0.047
-711.689	747.658	0.131	0.355
-710.675	800.000	-0.094	0.271
-709.660	-6.885	0.337	-0.231
-708.645	-73.727	0.139	0.051
-707.631	39.813	0.094	-0.085
-706.616	178.427	0.088	0.129
-705.602	67.886	0.140	-0.144
-704.587	80.987	0.048	0.053
-703.572	-200.000	-0.004	-0.060
-702.558	-132.298	-0.483	0.063
-701.543	-110.996	0.465	-0.096
-700.529	212.860	0.104	-0.166
-699.514	398.623	-0.139	0.293
-698.499	-64.166	-0.055	-0.023
-697.485	-143.464	0.253	0.024
-696.470	183.852	-0.149	-0.222
-695.456	106.621	0.088	0.105
-694.441	409.370	0.147	-0.314
-693.426	-156.084	0.211	0.013
-692.412	85.161	-0.121	-0.134
-691.397	43.450	-0.094	0.086
-690.383	-54.820	-0.228	-0.104
-689.368	-43.257	-0.237	0.121
-688.354	137.308	-0.168	-0.222
-687.339	-2.358	0.364	-0.257
-686.324	-200.000	0.025	0.174
-685.310	463.922	-0.090	0.203
-684.295	247.548	-0.272	0.463
-683.281	-153.674	-0.106	0.007
-682.266	23.596	-0.098	0.081
-681.251	-56.968	-0.265	0.118
-680.237	-130.833	-0.202	0.027
-679.222	771.725	-0.086	-0.237
-678.208	-0.721	0.096	0.069
-677.193	11.271	-0.107	0.083
-676.178	-172.613	-0.354	-0.011
-675.164	-200.000	0.018	-0.152
-674.149	-132.704	0.142	-0.018
-673.135	-123.062	0.088	0.014
-672.120	800.000	0.093	-0.347
-671.105	-85.889	0.150	0.047
-670.091	-28.270	0.190	-0.111
-669.076	800.000	0.058	-0.179
-668.062	21.738	-0.068	-0.056
-667.047	-111.138	0.207	-0.043
-666.032	-116.568	-0.076	-0.014
-665.018	527.418	0.082	-0.194
-664.003	-67.038	0.133	0.053
-662.989	-0.095	0.176	0.126
-661.974	-7.452	0.218	-0.149
-660.959	738.070	0.186	0.503
-659.945	237.273	0.071	-0.118
-658.930	49.383	-0.100	0.095
-657.916	800.000	-0.024	0.092
-656.901	161.026	0.070	-0.098
-655.886	469.611	-0.079	0.179
-654.872	-113.315	0.277	0.055
-653.857	-21.251	0.132	-0.082
-652.843	-14.914	-0.402	-0.260
-651.828	57.650	0.105	0.104
-650.814	-29.445	0.085	-0.049
-649.799	59.080	-0.205	0.203
-648.784	186.910	-0.078	-0.118
-647.770	81.160	-0.207	-0.225
-646.755	-10.734	0.114	0.076
-645.741	-200.000	0.061	-0.302
-644.726	199.060	-0.189	-0.292
-643.711	-31.089	0.238	-0.135
-642.697	129.040	0.127	0.163
-641.682	152.089	-0.089	-0.122
-640.668	-200.000	-0.082	-0.392
-639.653	79.778	0.093	0.101
-638.638	-200.000	-0.044	-0.373
-637.624	-90.155	-0.175	0.051
-636.609	800.000	0.084	-0.324
-635.595	-79.756	-0.269	-0.091
-634.580	19.573	0.124	0.101
-633.565	-26.592	0.216	-0.127
-632.551	164.549	-0.177	-0.252
-631.536	-200.000	0.041	0.397
-630.522	-166.300	-0.099	-0.004
-629.507	406.973	-0.057	-0.121
-628.492	234.803	0.252	-0.418
-627.478	201.459	0.054	0.083
-626.463	-165.703	0.209	-0.009
-625.449	163.306	-0.168	0.237
-624.434	38.903	-0.080	-0.072
-623.419	-200.000	0.023	0.152
-622.405	-114.351	-0.163	-0.032
-621.390	708.273	-0.060	0.158
-620.376	-55.332	-0.434	-0.196
-619.361	-129.008	-0.113	0.016
-618.346	-53.982	-0.090	-0.041
-617.332	800.000	-0.054	0.154
-616.317	-51.082	-0.243	0.115
-615.303	107.628	0.210	-0.251
-614.288	95.605	-0.213	0.245
-613.273	-136.202	0.281	0.033
-612.259	15.346	-0.203	0.160
-611.244	214.027	0.129	0.206
-610.230	-200.000	0.016	0.263
-609.215	205.830	0.138	0.216
-608.201	99.376	0.121	0.141
-607.186	-43.029	0.317	0.162
-606.171	-76.616	0.220	-0.077
-605.157	-54.313	-0.180	-0.082
-604.142	-44.760	-0.242	-0.121
-603.128	-200.000	-0.032	-0.168
-602.113	-66.213	-0.207	-0.083
-601.098	-0.492	0.200	0.143
-600.084	-85.048	-0.167	0.052
-599.069	579.102	0.068	0.166
-598.055	-20.714	-0.205	-0.127
-597.040	37.728	0.055	0.049
-596.025	-96.771	0.308	0.081
-595.011	89.058	-0.113	-0.127
-593.996	12.790	-0.310	-0.241
-592.982	-200.000	-0.046	-0.289
-591.967	-141.728	-0.258	0.026
-590.952	-20.095	0.261	-0.162
-589.938	17.350	0.117	0.093
-588.923	-40.025	0.026	0.014
-587.909	-200.000	0.027	0.000
-586.894	-154.899	-0.265	0.018
-585.879	-200.000	-0.019	-0.140
-584.865	42.177	-0.228	-0.208
-583.850	-114.463	-0.156	0.030
-582.836	50.725	-0.086	0.082
-581.821	800.000	-0.085	-0.259
-580.806	-115.036	0.170	0.033
-579.792	800.000	-0.021	0.074
-578.777	-121.671	-0.142	-0.024
-577.763	800.000	0.074	-0.298
-576.748	109.777	-0.099	-0.120
-575.733	-62.224	0.035	-0.015
-574.719	-200.000	0.011	0.247
-573.704	85.348	-0.053	-0.059
-572.690	130.831	0.276	0.356
-571.675	-137.889	0.026	0.003
-570.661	-27.835	-0.216	-0.126
-569.646	365.596	0.085	0.173
-568.631	-2.354	0.315	0.222
-567.617	81.149	-0.190	0.206
-566.602	418.909	0.086	-0.185
-565.588	150.717	-0.041	-0.055
-564.573	55.475	0.065	-0.063
-563.558	224.761	-0.150	-0.244
-562.544	13.843	0.261	0.203
-561.529	-200.000	0.004	0.090
-560.515	50.656	0.050	0.047
-559.500	-24.206	-0.099	-0.059
-558.485	-44.045	0.333	-0.168
-557.471	-59.697	0.320	0.138
-556.456	-101.253	0.138	-0.034
-555.442	-200.000	0.002	0.014
-554.427	66.077	-0.180	-0.183
-553.412	149.530	-0.068	-0.092
-552.398	124.196	-0.139	-0.176
-551.383	-67.380	0.203	0.080
-550.369	387.825	-0.066	-0.136
-549.354	96.229	-0.005	-0.005
-548.339	326.679	0.201	0.386
-547.325	274.074	0.095	0.169
-546.310	-32.173	-0.219	-0.123
-545.296	-200.000	-0.028	-0.289
-544.281	800.000	-0.072	-0.216
-543.266	-200.000	0.004	0.074
-542.252	-125.754	0.285	-0.043
-541.237	800.000	-0.011	0.032
-540.223	131.198	-0.082	0.106
-539.208	-13.615	0.054	-0.035
-538.193	-55.324	0.080	-0.036
-537.179	-200.000	-0.033	-0.170
-536.164	96.060	-0.229	-0.262
-535.150	-4.631	-0.178	-0.123
-534.135	-17.437	0.339	0.214
-533.121	16.927	-0.168	0.133
-532.106	44.994	-0.141	-0.130
-531.091	-119.472	0.562	0.098
-530.077	-108.041	0.183	-0.040
-529.062	-28.151	0.275	-0.159
-528.048	-159.510	0.394	0.022
-527.033	800.000	0.117	-0.389
-526.018	-200.000	0.017	0.136
-525.004	-31.507	0.304	-0.171
-523.989	-32.282	-0.226	0.127
-522.975	800.000	-0.062	-0.216
-521.960	800.000	0.010	-0.029
-520.945	21.950	0.058	-0.048
-519.931	93.311	0.333	0.378
-518.916	-200.000	0.028	0.447
-517.902	0.057	0.182	0.130
-516.887	47.959	-0.203	-0.190
-515.872	-43.055	-0.137	-0.070
-514.858	-200.000	0.026	0.201
-513.843	-84.980	-0.182	-0.057
-512.829	-200.000	-0.022	-0.274
-511.814	-106.417	0.226	-0.051
-510.799	-200.000	-0.019	-0.306
-509.785	740.854	-0.097	0.260
-508.770	800.000	0.098	-0.391
-507.756	303.193	0.127	0.236
-506.741	-200.000	0.042	0.207
-505.726	-80.633	-0.147	0.049
-504.712	800.000	-0.033	0.130
-503.697	50.956	-0.137	-0.130
-502.683	-200.000	-0.024	0.165
-501.668	-200.000	-0.018	0.654
-500.653	-39.966	-0.366	0.191
-499.639	-39.921	-0.255	-0.133
-498.624	-200.000	0.019	0.091
-497.610	8.600	0.223	-0.168
-496.595	-79.163	-0.161	0.055
-495.581	-200.000	-0.038	-0.179
-494.566	70.443	0.150	-0.155
-493.551	517.731	0.044	0.104
-492.537	-52.785	-0.117	0.054
-491.522	-68.962	-0.305	-0.118
-490.508	-106.946	0.146	0.032
-489.493	-85.441	0.383	-0.119
-488.478	-164.824	0.133	-0.006
-487.464	-95.130	-0.419	0.113
-486.449	354.842	-0.085	0.169
-485.435	-20.933	-0.033	-0.020
-484.420	-200.000	0.022	0.274
-483.405	800.000	-0.070	-0.290
-482.391	160.203	0.372	0.519
-481.376	-144.183	-0.304	-0.028
-480.362	-200.000	0.006	0.028
-479.347	57.880	0.045	-0.044
-478.332	27.218	0.407	-0.342
-477.318	-200.000	0.372	-0.001
-476.303	203.325	0.097	-0.150
-475.289	-78.189	0.280	0.096
-474.274	-105.084	-0.239	-0.055
-473.259	-109.730	0.146	0.031
-472.245	-56.080	-0.013	0.006
-471.230	42.858	-0.024	-0.021
-470.216	129.168	-0.082	0.105
-469.201	593.382	-0.048	-0.119
-468.186	-95.260	0.273	0.074
-467.172	55.589	-0.291	-0.282
-466.157	-35.309	-0.224	0.122
-465.143	-6.782	-0.151	-0.102
-464.128	-74.131	-0.206	-0.075
-463.113	-99.543	-0.293	-0.074
-462.099	-89.215	-0.196	0.058
-461.084	160.066	-0.152	0.212
-460.070	226.314	0.077	-0.125
-459.055	800.000	-0.075	0.302
-458.040	46.526	0.144	0.134
-457.026	163.182	0.080	0.112
-456.011	172.271	0.189	0.272
-454.997	-113.067	0.232	0.046
-453.982	-19.692	-0.251	0.155
-452.968	800.000	0.023	0.077
-451.953	-36.874	0.244	-0.131
-450.938	-48.713	0.286	-0.137
-449.924	-200.000	0.022	0.204
-448.909	-89.226	0.250	0.074
-447.895	423.905	0.185	0.398
-446.880	146.704	0.080	0.108
-445.865	-200.000	0.063	0.403
-444.851	9.593	0.176	0.133
-443.836	-200.000	-0.022	-0.131
-442.822	-34.810	0.257	-0.140
-441.807	660.611	-0.079	-0.202
-440.792	800.000	0.072	-0.259
-439.778	-200.000	-0.029	0.391
-438.763	-100.923	0.226	0.055
-437.749	-122.222	0.278	0.045
-436.734	800.000	0.051	-0.220
-435.719	41.206	-0.071	-0.064
-434.705	126.436	0.203	-0.257
-433.690	719.927	-0.089	0.236
-432.676	36.196	0.238	0.209
-431.661	-200.000	-0.031	-0.195
-430.646	-88.150	-0.247	0.074
-429.632	653.430	-0.035	-0.091
-428.617	-23.195	-0.045	-0.027
-427.603	105.131	0.212	0.249
-426.588	12.481	0.186	-0.143
-425.573	145.400	0.296	-0.396
-424.559	180.949	-0.106	0.156
-423.544	375.636	0.096	0.196
-422.530	65.849	-0.080	0.081
-421.515	691.733	0.098	-0.256
-420.500	-200.000	-0.005	0.115
-419.486	32.304	0.130	-0.112
-418.471	-200.000	0.006	-0.184
-417.457	-166.337	-0.373	0.016
-416.442	-26.611	-0.244	-0.143
-415.428	-200.000	-0.007	0.139
-414.413	61.286	-0.299	-0.296
-413.398	-20.243	0.228	0.140
-412.384	-158.977	-0.044	-0.002
-411.369	-200.000	0.012	0.098
-410.355	-200.000	-0.002	0.157
-409.340	-200.000	0.014	0.083
-408.325	31.605	-0.172	-0.148
-407.311	-160.924	0.383	0.020
-406.296	167.898	0.081	-0.115
-405.282	759.723	0.016	-0.042
-404.267	-129.628	0.129	0.018
-403.252	-55.726	-0.233	0.104
-402.238	107.744	-0.123	-0.146
-401.223	-200.000	-0.002	0.149
-400.209	651.957	0.086	0.220
-399.194	-189.238	-0.409	0.005
-398.179	-18.729	-0.166	0.103
-397.165	242.255	0.139	0.232
-396.150	205.446	-0.104	0.161
-395.136	-59.946	0.250	-0.107
-394.121	697.070	0.110	-0.289
-393.106	-125.034	-0.304	0.047
-392.092	233.342	0.143	0.234
-391.077	86.855	-0.165	0.181
-390.063	162.413	-0.215	0.301
-389.048	-85.493	-0.026	0.008
-388.033	-113.551	-0.424	-0.083
-387.019	263.953	0.091	-0.157
-386.004	58.653	0.248	-0.243
-384.990	-17.558	-0.174	0.109
-383.975	-89.692	-0.307	0.090
-382.960	-0.127	0.234	0.166
-381.946	-141.018	-0.095	0.010
-380.931	68.263	-0.177	-0.180
-379.917	-20.969	-0.136	-0.083
-378.902	-92.018	-0.054	-0.015
-377.888	-118.919	-0.308	-0.054
-376.873	53.285	-0.099	-0.095
-375.858	-200.000	-0.020	0.111
-374.844	-55.150	0.295	-0.132
-373.829	444.820	0.271	-0.592
-372.815	-200.000	0.003	-0.399
-371.800	-83.536	-0.208	-0.066
-370.785	61.735	-0.097	-0.096
-369.771	11.170	-0.230	-0.175
-368.756	155.041	-0.144	0.197
-367.742	-200.000	-0.017	0.370
-366.727	-200.000	-0.050	-0.411
-365.712	566.393	0.042	0.101
-364.698	-200.000	0.007	-0.199
-363.683	78.132	-0.165	0.175
-362.669	259.685	-0.171	-0.294
-361.654	478.143	0.061	-0.137
-360.639	-107.550	0.083	0.018
-359.625	-14.348	-0.238	0.152
-358.610	800.000	0.150	0.428
-357.596	88.885	-0.202	-0.224
-356.581	-64.009	0.254	0.103
-355.566	167.246	-0.165	-0.233
-354.552	-22.815	0.298	0.179
-353.537	590.593	0.089	-0.219
-352.523	42.958	0.372	-0.338
-351.508	-200.000	0.063	-0.379
-350.493	-93.045	-0.234	-0.065
-349.479	101.027	-0.074	0.085
-348.464	-77.183	-0.151	-0.052
-347.450	-200.000	-0.010	-0.095
-346.435	800.000	-0.145	-0.430
-345.420	-27.817	0.229	0.132
-344.406	-200.000	-0.014	0.283
-343.391	388.352	-0.038	-0.078
-342.377	-36.972	0.157	-0.084
-341.362	-22.158	0.114	-0.069
-340.348	82.233	-0.067	0.072
-339.333	-200.000	-0.031	-0.275
-338.318	296.909	-0.087	-0.158
-337.304	526.499	-0.019	0.044
-336.289	-200.000	0.060	-0.293
-335.275	-38.330	-0.171	0.090
-334.260	800.000	0.032	-0.124
-333.245	800.000	-0.060	0.227
-332.231	-113.332	-0.301	0.059
-331.216	-200.000	-0.000	0.014
-330.202	-38.010	0.094	0.050
-329.187	-89.628	0.116	-0.034
-328.172	300.256	0.152	0.278
-327.158	557.996	-0.152	-0.363
-326.143	-200.000	-0.015	-0.082
-325.129	800.000	0.038	0.141
-324.114	-93.708	0.028	-0.008
-323.099	800.000	0.118	0.332
-322.085	176.831	-0.098	0.142
-321.070	-172.980	-0.064	0.002
-320.056	-56.682	-0.378	0.166
-319.041	40.527	0.306	0.274
-318.026	101.074	0.164	-0.190
-317.012	800.000	-0.055	-0.230
-315.997	-2.299	-0.175	-0.122
-314.983	-87.669	-0.373	-0.112
-313.968	67.826	0.066	-0.067
-312.953	-118.337	-0.303	0.054
-311.939	-200.000	0.004	0.187
-310.924	800.000	-0.093	0.398
-309.910	741.965	-0.076	-0.203
-308.895	362.137	-0.081	0.162
-307.880	800.000	-0.038	0.162
-306.866	24.102	-0.300	-0.246
-305.851	-2.998	0.286	0.199
-304.837	330.509	-0.126	0.241
-303.822	-124.942	0.168	0.026
-302.807	800.000	0.049	-0.151
-301.793	121.341	-0.248	0.307
-300.778	148.548	0.185	0.249
-299.764	-151.470	0.347	0.026
-298.749	800.000	-0.059	0.194
-297.735	-200.000	-0.014	0.308
-296.720	92.117	0.171	-0.191
-295.705	-31.597	0.035	-0.020
-294.691	640.924	0.121	-0.305
-293.676	-200.000	-0.041	0.239
-292.662	234.425	0.192	0.314
-291.647	-76.720	0.031	-0.011
-290.632	800.000	-0.054	-0.187
-289.618	-33.246	-0.218	0.120
-288.603	-10.875	-0.152	0.100
-287.589	800.000	0.112	-0.328
-286.574	-108.486	0.190	-0.041
-285.559	191.020	-0.163	0.244
-284.545	-30.556	0.198	-0.112
-283.530	-54.628	0.151	0.068
-282.516	305.893	0.090	0.166
-281.501	-109.318	0.136	0.029
-280.486	-99.849	0.152	0.038
-279.472	-46.472	-0.218	0.106
-278.457	-3.278	-0.143	0.099
-277.443	-35.308	-0.293	0.158
-276.428	-162.914	0.236	-0.011
-275.413	0.506	-0.249	-0.177
-274.399	-200.000	-0.045	-0.248
-273.384	-200.000	-0.046	0.255
-272.370	485.846	0.127	-0.288
-271.355	-89.897	-0.220	-0.064
-270.340	-113.499	-0.205	0.040
-269.326	-200.000	-0.011	0.064
-268.311	-142.304	0.205	0.020
-267.297	178.803	0.099	0.143
-266.282	-6.029	0.174	-0.118
-265.267	-115.903	0.201	-0.037
-264.253	0.984	0.080	-0.057
-263.238	-43.908	0.093	-0.046
-262.224	102.238	0.115	-0.134
-261.209	-158.871	-0.423	-0.024
-260.195	-27.852	-0.175	-0.101
-259.180	63.310	-0.137	0.137
-258.165	298.246	-0.101	0.184
-257.151	-200.000	0.036	-0.182
-256.136	403.610	-0.065	-0.135
-255.122	-147.006	-0.296	-0.025
-254.107	-200.000	-0.002	0.060
-253.092	-70.701	-0.103	-0.038
-252.078	800.000	-0.054	-0.180
-251.063	645.187	0.033	-0.084
-250.049	51.465	-0.091	0.086
-249.034	800.000	0.037	-0.120
-248.019	-137.034	0.293	-0.033
-247.005	19.397	-0.224	0.178
-245.990	-67.144	0.089	0.035
-244.976	3.428	-0.353	0.255
-243.961	38.312	0.194	0.171
-242.946	208.405	-0.195	-0.302
-241.932	-200.000	-0.016	0.295
-240.917	-142.062	-0.023	0.002
-239.903	633.081	-0.126	-0.315
-238.888	-96.460	-0.332	-0.087
-237.873	-100.907	-0.170	-0.041
-236.859	230.742	0.134	-0.217
-235.844	419.553	0.018	-0.037
-234.830	85.353	-0.157	0.171
-233.815	-79.265	0.130	0.044
-232.800	-200.000	-0.009	-0.047
-231.786	331.519	-0.122	0.233
-230.771	-200.000	0.020	-0.113
-229.757	-78.684	0.035	0.012
-228.742	-99.231	0.132	0.033
-227.727	-104.162	-0.077	0.018
-226.713	39.975	0.180	0.160
-225.698	-28.202	0.068	0.039
-224.684	-55.511	0.320	-0.142
-223.669	-200.000	-0.109	-0.573
-222.655	296.165	0.041	0.074
-221.640	-200.000	0.061	0.319
-220.625	800.000	-0.041	-0.147
-219.611	221.820	-0.157	0.250
-218.596	-52.851	0.307	-0.140
-217.582	-184.455	-0.338	-0.005
-216.567	-115.122	0.158	-0.030
-215.552	109.721	0.037	-0.044
-214.538	-128.530	-0.192	0.027
-213.523	-134.087	0.112	-0.014
-212.509	788.533	-0.040	-0.110
-211.494	321.383	0.059	0.112
-210.479	-86.420	0.216	0.066
-209.465	-46.430	-0.342	-0.166
-208.450	-186.522	0.174	0.002
-207.436	87.426	-0.120	-0.131
-206.421	9.386	-0.134	0.100
-205.406	595.074	0.148	0.362
-204.392	800.000	0.118	0.446
-203.377	-77.333	-0.440	0.151
-202.363	636.004	-0.055	-0.138
-201.348	-45.812	0.176	-0.086
-200.333	-25.080	-0.207	0.121
-199.319	-200.000	-0.011	0.300
-198.304	108.473	0.143	-0.169
-197.290	129.214	0.160	0.202
-196.275	-79.080	0.195	-0.066
-195.260	155.716	-0.058	-0.080
-194.246	136.427	0.004	0.005
-193.231	728.965	0.113	-0.298
-192.217	-119.267	0.130	0.022
-191.202	-12.450	0.221	-0.142
-190.187	-200.000	0.033	0.272
-189.173	674.167	-0.077	0.198
-188.158	-200.000	0.024	-0.246
-187.144	110.626	0.026	-0.030
-186.129	-87.165	-0.137	-0.041
-185.114	-47.325	-0.192	-0.093
-184.100	10.732	0.511	0.386
-183.085	-50.368	0.137	-0.064
-182.071	213.507	0.063	0.099
-181.056	324.846	0.093	0.175
-180.042	800.000	0.094	0.263
-179.027	-58.212	-0.251	-0.108
-178.012	53.621	-0.085	-0.081
-176.998	-200.000	0.055	0.241
-175.983	-116.487	-0.265	0.048
-174.969	-104.225	-0.156	-0.036
-173.954	-37.912	0.049	-0.026
-172.939	68.747	-0.035	0.035
-171.925	-50.732	0.446	-0.208
-170.910	60.679	0.028	0.028
-169.896	454.627	0.113	0.248
-168.881	-139.542	-0.481	0.051
-167.866	-200.000	-0.053	0.410
-166.852	52.049	0.048	0.045
-165.837	-100.034	0.195	0.048
-164.823	-176.260	0.182	-0.005
-163.808	-96.576	-0.280	-0.073
-162.793	-45.107	0.366	0.180
-161.779	71.748	-0.213	-0.218
-160.764	-200.000	0.014	-0.448
-159.750	-106.660	0.385	0.085
-158.735	-200.000	0.139	-0.000
-157.720	-64.065	-0.101	0.041
-156.706	-85.789	0.334	-0.102
-155.691	667.732	-0.115	-0.294
-154.677	64.979	-0.125	-0.125
-153.662	255.383	0.073	-0.124
-152.647	-200.000	-0.022	0.255
-151.633	-52.540	0.193	-0.088
-150.618	75.796	-0.154	0.160
-149.604	-200.000	0.024	0.159
-148.589	13.134	-0.259	0.198
-147.574	39.986	0.343	0.305
-146.560	-114.685	-0.374	-0.071
-145.545	13.353	-0.051	-0.039
-144.531	245.859	-0.099	0.164
-143.516	-94.296	0.300	0.081
-142.502	60.860	-0.125	0.123
-141.487	-193.105	0.075	-0.001
-140.472	61.604	-0.034	-0.034
-139.458	-200.000	0.014	-0.159
-138.443	-200.000	0.011	-0.210
-137.429	72.152	-0.133	0.136
-136.414	44.129	0.198	-0.179
-135.399	207.364	-0.072	-0.111
-134.385	-200.000	0.022	-0.516
-133.370	-200.000	0.007	0.076
-132.356	12.686	0.302	0.230
-131.341	-100.939	-0.194	-0.047
-130.326	13.646	-0.327	0.251
-129.312	331.934	0.055	0.106
-128.297	138.778	0.057	0.074
-127.283	196.516	0.085	0.127
-126.268	1.174	0.323	-0.229
-125.253	510.994	-0.077	-0.176
-124.239	800.000	0.036	-0.130
-123.224	-200.000	0.030	0.184
-122.210	-178.461	0.248	0.006
-121.195	800.000	0.043	-0.135
-120.180	469.396	-0.097	-0.215
