DTS Sentinel unit serial number:	SN413079Multiplexer serial number:	ORYXHardware model number:	OX4-SRSoftware version number:	ORYX F/W v4.00 Oryx Data Collector v3.7.2.0data status	okinstallation	princeton_trtdifferential loss correction	single-endedforward channel	channel 3reverse channel	N/Adate	2019/09/14time	07:04:35forward acquisition time	60.00reverse acquisition time	0.00gamma	496.2192k internal	0.2340k external	0.2340temperature offset calibration	1.0056default loss term (dB/km)	0.3790temperature slope calibration	1.0000multiplexer offset coefficient	1.0000multiplexer slope coefficient	1.0000fibre end	0.00T internal ref (°C)	26.19T ext. ref 1 (°C)	3.44T ext. ref 2 (°C)	20.99length (m)	temperature (°C)	Stokes	anti-Stokes-747.200	488.436	-0.131	0.300
-746.185	-150.008	0.100	0.008
-745.171	-81.081	0.394	-0.131
-744.156	177.245	0.092	0.134
-743.142	800.000	-0.094	0.328
-742.127	140.125	0.103	0.136
-741.112	70.634	-0.271	0.281
-740.098	65.411	-0.296	-0.300
-739.083	-200.000	0.039	-0.174
-738.069	-130.910	-0.447	-0.060
-737.054	331.616	-0.069	0.134
-736.039	-147.855	-0.145	-0.012
-735.025	-0.449	0.434	0.309
-734.010	283.991	-0.155	-0.279
-732.996	-27.017	-0.196	-0.115
-731.981	-200.000	0.005	-0.311
-730.966	-121.656	0.245	-0.041
-729.952	238.464	0.026	-0.044
-728.937	-200.000	0.005	-0.096
-727.923	-200.000	0.061	-0.316
-726.908	-200.000	0.045	0.227
-725.894	800.000	-0.050	-0.152
-724.879	-18.668	0.151	0.095
-723.864	-139.134	-0.054	-0.006
-722.850	800.000	0.019	-0.077
-721.835	-11.354	0.189	0.124
-720.821	-173.691	-0.139	-0.004
-719.806	-11.633	0.083	-0.054
-718.791	800.000	-0.069	0.216
-717.777	-49.348	0.155	-0.074
-716.762	-60.789	-0.210	0.089
-715.748	190.746	-0.195	-0.294
-714.733	-200.000	0.092	-0.462
-713.718	-74.582	-0.216	-0.078
-712.704	167.350	-0.067	0.095
-711.689	64.465	0.076	-0.076
-710.675	-200.000	-0.017	0.130
-709.660	-97.349	0.306	-0.080
-708.645	-37.837	0.187	-0.100
-707.631	45.269	-0.241	0.223
-706.616	-92.106	-0.220	-0.062
-705.602	2.947	-0.592	0.430
-704.587	-11.746	0.145	-0.095
-703.572	330.669	0.069	-0.133
-702.558	68.973	0.063	-0.065
-701.543	297.924	0.057	-0.104
-700.529	-95.178	0.617	0.167
-699.514	-178.140	0.204	0.005
-698.499	-200.000	-0.012	0.206
-697.485	14.000	-0.074	0.058
-696.470	-92.686	0.150	0.042
-695.456	-154.514	0.119	-0.008
-694.441	-98.781	-0.111	0.028
-693.426	-38.684	-0.090	-0.047
-692.412	120.199	0.123	-0.153
-691.397	-35.100	-0.264	-0.144
-690.383	-200.000	0.016	0.194
-689.368	-133.676	-0.289	-0.036
-688.354	187.662	0.185	-0.277
-687.339	77.164	-0.262	0.278
-686.324	-129.921	-0.386	-0.053
-685.310	29.166	-0.260	-0.221
-684.295	-183.395	-0.170	-0.003
-683.281	84.216	0.175	0.191
-682.266	74.841	0.070	0.074
-681.251	-84.845	-0.053	-0.017
-680.237	-132.936	0.355	0.045
-679.222	10.590	-0.072	0.055
-678.208	630.823	0.016	0.040
-677.193	-60.901	-0.127	0.054
-676.178	-200.000	0.015	0.267
-675.164	97.044	0.222	-0.255
-674.149	316.474	0.064	0.120
-673.135	1.285	-0.198	0.142
-672.120	572.034	-0.067	-0.163
-671.105	-200.000	0.019	-0.170
-670.091	64.787	-0.168	0.170
-669.076	800.000	0.024	-0.085
-668.062	-89.035	0.041	0.012
-667.047	630.513	-0.014	0.036
-666.032	-143.429	-0.280	-0.027
-665.018	7.103	-0.010	0.008
-664.003	-200.000	0.007	0.173
-662.989	64.368	-0.210	0.212
-661.974	-81.417	0.306	-0.101
-660.959	-90.923	-0.049	0.014
-659.945	-42.894	-0.129	0.065
-658.930	-41.711	-0.267	0.137
-657.916	-200.000	-0.046	0.205
-656.901	-139.669	-0.033	-0.003
-655.886	-156.731	-0.433	-0.027
-654.872	388.070	0.057	0.118
-653.857	-77.152	0.228	-0.079
-652.843	-200.000	0.005	0.169
-651.828	299.278	-0.171	0.315
-650.814	800.000	-0.035	0.123
-649.799	-200.000	0.000	-0.008
-648.784	312.508	0.128	0.241
-647.770	-76.145	0.214	-0.075
-646.755	-42.024	-0.236	0.120
-645.741	-122.998	-0.131	0.021
-644.726	-99.380	-0.326	-0.082
-643.711	-200.000	0.014	0.216
-642.697	307.012	0.137	0.256
-641.682	560.282	-0.082	0.197
-640.668	-72.964	0.243	0.089
-639.653	800.000	-0.055	0.220
-638.638	-69.413	0.035	-0.014
-637.624	-200.000	0.008	-0.172
-636.609	-132.403	0.237	0.031
-635.595	800.000	-0.073	0.202
-634.580	-72.639	-0.250	0.092
-633.565	800.000	-0.080	-0.262
-632.551	800.000	0.037	-0.119
-631.536	-116.258	0.109	-0.020
-630.522	-6.799	0.182	0.124
-629.507	-29.125	0.073	-0.042
-628.492	-127.312	-0.096	0.014
-627.478	-127.501	-0.387	-0.056
-626.463	-164.269	-0.118	-0.005
-625.449	-200.000	-0.006	-0.093
-624.434	330.440	0.198	0.380
-623.419	721.236	-0.097	-0.257
-622.405	-111.969	0.208	0.042
-621.390	-114.581	-0.227	0.044
-620.376	-134.873	0.111	0.013
-619.361	-108.668	-0.193	0.041
-618.346	-16.982	-0.213	0.134
-617.332	-93.250	0.219	0.061
-616.317	166.940	-0.075	0.106
-615.303	-9.377	0.079	-0.052
-614.288	12.857	0.110	0.085
-613.273	-200.000	0.002	0.058
-612.259	-200.000	-0.078	0.411
-611.244	-133.086	0.351	0.044
-610.230	-200.000	-0.025	-0.146
-609.215	274.371	-0.039	0.069
-608.201	800.000	0.098	-0.396
-607.186	-16.168	-0.220	-0.140
-606.171	172.251	-0.177	0.254
-605.157	-94.165	-0.236	0.064
-604.142	-93.959	-0.350	-0.096
-603.128	-200.000	0.042	-0.365
-602.113	-33.290	0.328	-0.181
-601.098	123.923	0.027	-0.033
-600.084	146.464	-0.263	-0.352
-599.069	552.302	-0.065	0.156
-598.055	-200.000	0.033	0.282
-597.040	45.487	0.264	0.243
-596.025	-107.646	-0.247	0.054
-595.011	800.000	-0.035	-0.111
-593.996	21.947	0.086	0.070
-592.982	46.498	0.173	0.160
-591.967	-131.438	-0.204	-0.027
-590.952	-100.530	-0.219	0.054
-589.938	800.000	0.051	0.199
-588.923	800.000	0.033	0.146
-587.909	13.345	-0.105	-0.081
-586.894	-200.000	-0.001	-0.294
-585.879	214.267	-0.114	-0.180
-584.865	800.000	-0.116	-0.337
-583.850	48.703	-0.202	0.189
-582.836	-200.000	0.011	-0.162
-581.821	155.817	-0.048	-0.066
-580.806	508.424	0.316	-0.731
-579.792	549.464	0.096	0.230
-578.777	-76.879	0.212	-0.074
-577.763	684.920	0.076	0.197
-576.748	-83.653	-0.271	0.086
-575.733	-200.000	0.061	-0.411
-574.719	635.877	0.086	-0.216
-573.704	-11.875	0.222	-0.145
-572.690	-97.581	-0.171	0.044
-571.675	-200.000	0.017	0.372
-570.661	-65.204	0.352	0.141
-569.646	94.870	0.092	0.104
-568.631	800.000	-0.042	0.126
-567.617	599.149	0.118	-0.292
-566.602	434.136	-0.102	-0.220
-565.588	-187.223	-0.071	0.001
-564.573	638.642	-0.096	0.243
-563.558	54.032	-0.262	0.251
-562.544	800.000	-0.089	-0.303
-561.529	800.000	0.055	-0.195
-560.515	-200.000	-0.043	-0.232
-559.500	-23.504	0.283	0.169
-558.485	-121.720	0.193	-0.032
-557.471	25.467	0.137	0.113
-556.456	-200.000	0.060	-0.329
-555.442	-200.000	-0.015	0.131
-554.427	-94.031	-0.191	0.052
-553.412	274.917	-0.007	-0.013
-552.398	278.227	0.078	-0.138
-551.383	-149.520	-0.295	-0.023
-550.369	-200.000	-0.066	0.497
-549.354	294.026	0.049	0.089
-548.339	210.230	0.063	0.098
-547.325	-121.369	-0.226	-0.037
-546.310	454.777	-0.038	-0.083
-545.296	631.724	-0.218	-0.550
-544.281	800.000	-0.036	0.109
-543.266	65.568	-0.216	0.217
-542.252	800.000	-0.032	-0.137
-541.237	760.164	-0.057	-0.154
-540.223	72.202	0.083	-0.086
-539.208	-1.967	-0.101	0.071
-538.193	75.498	0.143	-0.150
-537.179	-30.775	0.372	-0.209
-536.164	800.000	0.051	-0.199
-535.150	137.001	-0.051	-0.066
-534.135	-63.106	-0.151	-0.062
-533.121	-139.247	-0.511	-0.055
-532.106	800.000	-0.054	0.154
-531.091	419.862	0.099	0.210
-530.077	-106.301	0.105	0.023
-529.062	-134.109	0.049	-0.006
-528.048	456.130	-0.137	0.302
-527.033	36.636	0.076	-0.067
-526.018	-58.130	0.374	0.162
-525.004	-200.000	-0.012	0.158
-523.989	-121.083	0.090	-0.015
-522.975	-200.000	-0.023	-0.137
-521.960	800.000	-0.068	0.213
-520.945	32.616	0.126	-0.108
-519.931	-200.000	-0.022	0.209
-518.916	55.332	0.052	-0.050
-517.902	-46.578	-0.187	-0.091
-516.887	-11.513	0.046	0.030
-515.872	-200.000	-0.027	-0.276
-514.858	-116.391	0.183	0.034
-513.843	800.000	-0.096	0.312
-512.829	-76.368	-0.171	-0.060
-511.814	346.090	-0.087	0.169
-510.799	-74.548	-0.136	-0.049
-509.785	-49.816	0.163	0.077
-508.770	96.253	-0.283	-0.322
-507.756	75.057	0.134	0.140
-506.741	356.561	0.038	0.076
-505.726	-200.000	-0.015	0.303
-504.712	-106.471	-0.079	-0.017
-503.697	-137.792	-0.325	0.036
-502.683	800.000	-0.050	0.143
-501.668	-53.714	0.159	-0.072
-500.653	-145.149	0.310	-0.028
-499.639	-45.123	-0.167	0.083
-498.624	-7.851	-0.263	0.176
-497.610	-46.233	0.354	-0.173
-496.595	-75.469	-0.288	-0.102
-495.581	602.945	-0.071	0.175
-494.566	740.799	-0.025	-0.066
-493.551	-200.000	0.097	0.472
-492.537	800.000	-0.120	-0.332
-491.522	-108.296	0.301	-0.065
-490.508	-65.249	-0.116	0.047
-489.493	-39.761	0.476	-0.247
-488.478	-200.000	-0.009	0.065
-487.464	86.043	0.113	0.123
-486.449	-94.971	-0.151	-0.040
-485.435	-200.000	-0.048	-0.420
-484.420	456.156	0.086	-0.190
-483.405	-130.424	-0.288	0.039
-482.391	-118.118	-0.199	-0.035
-481.376	-200.000	0.033	0.171
-480.362	170.239	-0.146	-0.207
-479.347	-200.000	-0.030	-0.200
-478.332	97.917	0.152	-0.173
-477.318	91.566	-0.130	-0.145
-476.303	670.270	0.038	-0.098
-475.289	259.237	0.188	-0.321
-474.274	639.862	0.133	-0.335
-473.259	-73.014	0.378	-0.138
-472.245	-200.000	-0.024	-0.311
-471.230	-101.819	-0.549	-0.132
-470.216	115.970	-0.156	-0.189
-469.201	-200.000	0.059	0.368
-468.186	800.000	-0.066	0.204
-467.172	169.190	0.052	-0.073
-466.157	340.218	0.145	-0.280
-465.143	-60.612	0.083	0.035
-464.128	-200.000	0.006	0.043
-463.113	-200.000	0.030	-0.228
-462.099	-200.000	0.009	0.135
-461.084	-122.647	0.140	0.023
-460.070	-200.000	-0.011	-0.256
-459.055	-200.000	-0.055	0.289
-458.040	-154.557	-0.089	-0.006
-457.026	-162.768	-0.129	-0.006
-456.011	-31.172	0.081	-0.045
-454.997	-200.000	-0.038	-0.199
-453.982	-129.018	0.401	-0.056
-452.968	800.000	0.059	-0.209
-451.953	144.376	-0.195	-0.258
-450.938	229.909	-0.095	0.154
-449.924	-185.556	0.242	-0.004
-448.909	-200.000	-0.002	-0.167
-447.895	-36.484	-0.128	-0.069
-446.880	56.491	-0.185	-0.178
-445.865	717.626	-0.078	-0.206
-444.851	116.570	0.247	-0.300
-443.836	-86.032	0.090	-0.028
-442.822	-200.000	0.011	0.190
-441.807	-200.000	0.004	0.174
-440.792	-8.753	-0.050	0.033
-439.778	-143.807	0.137	-0.013
-438.763	77.834	-0.080	-0.084
-437.749	-39.762	-0.233	-0.121
-436.734	338.735	-0.105	-0.203
-435.719	275.812	-0.075	-0.132
-434.705	14.714	-0.067	0.052
-433.690	-20.350	0.245	0.149
-432.676	-200.000	0.007	-0.227
-431.661	-64.628	0.199	-0.080
-430.646	-200.000	0.060	-0.289
-429.632	-8.001	-0.235	0.157
-428.617	-25.750	-0.105	0.061
-427.603	-132.339	0.179	-0.023
-426.588	-200.000	0.035	0.176
-425.573	-122.934	-0.131	-0.021
-424.559	-48.664	0.482	0.229
-423.544	-200.000	-0.007	0.184
-422.530	-130.078	0.108	0.015
-421.515	-35.630	0.068	-0.037
-420.500	31.546	0.183	0.156
-419.486	-42.956	-0.154	-0.077
-418.471	-200.000	-0.030	-0.290
-417.457	-21.992	0.187	-0.112
-416.442	522.404	-0.097	-0.226
-415.428	464.844	0.030	0.067
-414.413	302.591	0.219	0.400
-413.398	30.905	0.058	0.049
-412.384	183.033	0.166	0.242
-411.369	800.000	0.065	0.213
-410.355	-200.000	-0.011	0.196
-409.340	117.495	0.106	-0.129
-408.325	-200.000	0.012	-0.342
-407.311	-200.000	-0.035	-0.303
-406.296	-200.000	-0.050	0.415
-405.282	800.000	-0.038	-0.111
-404.267	-23.073	0.168	-0.100
-403.252	-50.781	-0.165	0.077
-402.238	-91.316	0.169	0.048
-401.223	-200.000	0.015	-0.325
-400.209	376.879	-0.183	-0.370
-399.194	-78.275	-0.231	-0.078
-398.179	-91.801	0.188	0.053
-397.165	618.041	0.133	0.329
-396.150	-200.000	-0.062	-0.286
-395.136	-36.707	-0.159	-0.084
-394.121	-136.154	-0.424	-0.049
-393.106	-200.000	-0.010	0.201
-392.092	-111.591	-0.105	0.021
-391.077	-200.000	0.014	-0.164
-390.063	-49.389	0.207	-0.098
-389.048	-47.560	-0.360	0.173
-388.033	-125.795	-0.183	0.027
-387.019	21.555	0.019	0.015
-386.004	415.325	0.049	-0.103
-384.990	222.107	0.168	0.267
-383.975	92.118	0.219	0.244
-382.960	365.535	0.095	0.189
-381.946	42.634	-0.163	-0.147
-380.931	-109.339	0.109	0.023
-379.917	-171.773	0.197	-0.006
-378.902	-200.000	-0.007	0.215
-377.888	-6.540	-0.035	-0.024
-376.873	-111.561	-0.155	0.031
-375.858	-87.450	0.087	0.026
-374.844	-200.000	0.081	0.486
-373.829	44.855	0.115	0.104
-372.815	-200.000	0.046	0.485
-371.800	-64.384	-0.137	0.055
-370.785	-123.555	-0.419	-0.066
-369.771	-135.890	-0.312	0.036
-368.756	-4.155	0.280	0.192
-367.742	-162.460	-0.194	-0.009
-366.727	-43.693	0.140	0.070
-365.712	558.335	-0.058	0.138
-364.698	129.312	-0.162	0.205
-363.683	800.000	-0.051	-0.181
-362.669	-200.000	-0.019	-0.526
-361.654	-59.560	0.299	0.127
-360.639	671.299	0.147	0.375
-359.625	397.579	-0.054	-0.112
-358.610	-69.130	0.190	-0.072
-357.596	319.467	0.099	-0.186
-356.581	-200.000	-0.241	0.001
-355.566	800.000	0.041	-0.141
-354.552	-200.000	0.022	-0.410
-353.537	70.457	-0.099	0.102
-352.523	342.781	0.083	-0.160
-351.508	-200.000	0.040	-0.301
-350.493	168.356	0.061	-0.085
-349.479	-51.424	-0.241	0.111
-348.464	-73.370	-0.343	0.124
-347.450	-70.846	0.105	-0.039
-346.435	-132.916	0.252	-0.032
-345.420	251.398	-0.131	0.220
-344.406	-110.529	-0.259	-0.053
-343.391	800.000	-0.109	-0.338
-342.377	-29.444	0.303	0.171
-341.362	-200.000	-0.001	0.177
-340.348	-35.939	-0.487	-0.260
-339.333	-200.000	0.100	0.497
-338.318	61.732	-0.073	0.071
-337.304	6.182	0.166	-0.121
-336.289	83.471	0.068	0.073
-335.275	800.000	-0.069	0.277
-334.260	35.505	0.064	-0.055
-333.245	85.698	-0.135	-0.147
-332.231	-200.000	-0.089	-0.459
-331.216	-200.000	-0.024	0.143
-330.202	39.740	-0.454	-0.402
-329.187	7.944	-0.249	0.184
-328.172	53.234	0.139	-0.131
-327.158	106.143	-0.207	-0.241
-326.143	133.733	-0.042	0.053
-325.129	-29.826	-0.158	0.089
-324.114	101.525	0.181	0.207
-323.099	50.847	-0.325	-0.304
-322.085	-50.633	-0.237	0.110
-321.070	-200.000	0.053	0.434
-320.056	-45.661	0.109	-0.053
-319.041	800.000	-0.058	0.165
-318.026	-109.976	-0.210	-0.043
-317.012	15.768	0.361	-0.280
-315.997	-64.352	0.263	0.105
-314.983	-142.659	0.171	0.016
-313.968	334.776	-0.154	-0.294
-312.953	-96.285	0.166	-0.043
-311.939	-87.091	0.060	0.018
-310.924	146.439	0.137	-0.181
-309.910	-163.008	0.347	0.017
-308.895	29.394	-0.229	0.192
-307.880	48.509	0.181	0.167
-306.866	24.219	0.062	-0.051
-305.851	-200.000	0.016	-0.196
-304.837	167.437	-0.135	0.190
-303.822	-145.479	-0.210	-0.019
-302.807	201.105	-0.138	0.210
-301.793	-8.292	0.130	0.086
-300.778	100.878	0.104	-0.119
-299.764	-107.900	-0.146	0.031
-298.749	-91.777	0.332	-0.093
-297.735	-59.819	-0.254	-0.107
-296.720	13.510	-0.219	-0.168
-295.705	304.662	0.132	-0.242
-294.691	-200.000	0.013	-0.107
-293.676	-70.617	0.122	0.046
-292.662	-138.849	0.309	-0.033
-291.647	-166.790	0.115	0.005
-290.632	-200.000	0.059	0.311
-289.618	-200.000	-0.001	-0.003
-288.603	30.514	-0.203	-0.171
-287.589	572.809	0.031	0.074
-286.574	58.648	-0.285	0.275
-285.559	165.570	0.147	-0.205
-284.545	-200.000	0.034	-0.258
-283.530	758.512	0.119	0.317
-282.516	-54.977	0.295	0.131
-281.501	154.100	0.106	-0.143
-280.486	-200.000	0.030	-0.230
-279.472	58.989	-0.274	-0.266
-278.457	-200.000	0.016	0.223
-277.443	-180.186	0.011	-0.000
-276.428	632.111	0.049	-0.123
-275.413	-77.783	-0.090	-0.031
-274.399	-200.000	0.090	0.442
-273.384	113.870	0.130	0.155
-272.370	-200.000	0.011	0.072
-271.355	-200.000	-0.009	0.093
-270.340	-125.013	-0.145	0.022
-269.326	270.466	0.135	0.233
-268.311	-99.280	-0.075	-0.019
-267.297	-47.004	-0.187	-0.090
-266.282	-100.017	0.267	-0.065
-265.267	-133.934	0.127	0.016
-264.253	81.910	-0.081	-0.086
-263.238	-53.285	0.172	-0.078
-262.224	-200.000	0.012	0.335
-261.209	61.849	0.122	-0.120
-260.195	-126.586	0.310	-0.045
-259.180	87.423	0.180	0.196
-258.165	-117.875	-0.164	-0.029
-257.151	-138.653	0.199	-0.021
-256.136	322.344	-0.102	0.191
-255.122	-116.786	0.116	-0.021
-254.107	-129.492	-0.302	-0.041
-253.092	4.694	0.125	0.090
-252.078	420.055	0.059	-0.124
-251.063	800.000	0.028	0.111
-250.049	38.010	-0.302	-0.264
-249.034	-200.000	-0.019	0.140
-248.019	-200.000	0.020	-0.223
-247.005	-19.933	-0.030	0.018
-245.990	-200.000	-0.024	-0.125
-244.976	128.020	0.249	0.311
-243.961	425.757	-0.030	0.064
-242.946	73.066	-0.245	-0.252
-241.932	-135.891	0.329	-0.038
-240.917	800.000	0.146	-0.499
-239.903	666.894	-0.047	-0.118
-238.888	-124.599	0.263	0.040
-237.873	-98.463	-0.429	0.108
-236.859	-20.365	0.017	-0.010
-235.844	761.144	0.011	-0.030
-234.830	380.626	-0.171	0.346
-233.815	65.075	-0.295	0.293
-232.800	556.118	0.119	-0.282
-231.786	-60.243	0.183	-0.077
-230.771	20.147	-0.193	-0.153
-229.757	800.000	0.091	-0.289
-228.742	10.210	0.131	-0.098
-227.727	800.000	0.095	-0.318
-226.713	-7.311	-0.141	0.094
-225.698	-103.399	0.420	-0.097
-224.684	-114.485	-0.148	0.028
-223.669	-200.000	0.020	0.188
-222.655	17.513	-0.080	0.062
-221.640	-127.786	-0.204	-0.029
-220.625	-58.871	-0.114	-0.049
-219.611	-78.527	-0.278	-0.093
-218.596	580.957	0.068	-0.163
-217.582	-200.000	-0.076	-0.374
-216.567	-200.000	0.054	0.234
-215.552	-89.123	0.293	-0.085
-214.538	-54.485	0.441	0.196
-213.523	-6.263	0.029	-0.020
-212.509	-200.000	0.008	-0.161
-211.494	638.467	0.152	0.379
-210.479	-110.498	-0.235	0.048
-209.465	-200.000	0.033	0.389
-208.450	212.170	0.135	0.209
-207.436	-200.000	0.003	0.058
-206.421	5.322	0.185	0.134
-205.406	128.961	-0.281	-0.352
-204.392	-161.824	0.064	0.003
-203.377	-141.704	0.151	0.015
-202.363	-155.885	0.087	0.005
-201.348	216.981	-0.117	0.183
-200.333	-136.003	-0.110	-0.013
-199.319	4.952	-0.195	-0.140
-198.304	22.486	0.367	0.295
-197.290	-200.000	0.008	-0.056
-196.275	111.570	0.064	-0.076
-195.260	62.229	-0.072	-0.071
-194.246	65.561	-0.059	0.058
-193.231	484.386	-0.017	0.038
-192.217	-119.930	-0.062	0.010
-191.202	-87.326	-0.139	-0.041
-190.187	194.752	0.103	0.153
-189.173	-74.704	0.036	0.013
-188.158	-67.825	0.099	-0.038
-187.144	176.956	-0.126	0.179
-186.129	-145.116	-0.349	0.031
-185.114	-200.000	0.030	0.132
-184.100	-104.622	0.360	-0.081
-183.085	-59.599	-0.407	0.171
-182.071	-200.000	-0.016	0.235
-181.056	-85.859	0.333	0.101
-180.042	143.614	-0.163	-0.213
-179.027	131.017	-0.172	0.217
-178.012	42.999	0.131	0.117
-176.998	508.673	0.113	0.257
-175.983	27.135	-0.271	0.223
-174.969	-153.886	-0.208	0.014
-173.954	800.000	0.112	0.404
-172.939	-200.000	-0.010	0.258
-171.925	-9.953	0.203	-0.133
-170.910	-87.137	0.224	0.067
-169.896	-26.387	-0.168	-0.097
-168.881	-82.064	0.267	0.086
-167.866	-89.117	0.109	0.032
-166.852	-147.671	-0.283	-0.023
-165.837	-200.000	0.007	0.208
-164.823	-112.291	-0.075	0.015
-163.808	-200.000	0.021	-0.351
-162.793	-200.000	0.051	-0.365
-161.779	-101.818	0.199	0.047
-160.764	51.856	0.090	0.084
-159.750	-200.000	-0.004	0.181
-158.735	367.169	0.127	0.252
-157.720	-127.155	-0.237	-0.034
-156.706	-160.223	-0.045	0.002
-155.691	63.375	-0.073	-0.072
-154.677	179.168	-0.145	0.207
-153.662	-136.422	0.109	0.012
-152.647	61.378	0.346	0.337
-151.633	-99.758	0.096	0.024
-150.618	58.822	0.163	0.157
-149.604	-200.000	0.004	-0.069
-148.589	-68.199	-0.242	-0.092
-147.574	-34.649	0.114	0.061
-146.560	-116.130	-0.238	-0.043
-145.545	-200.000	-0.023	-0.214
-144.531	-8.751	0.202	-0.132
-143.516	117.728	-0.201	0.242
-142.502	800.000	-0.152	0.463
-141.487	-130.875	0.365	-0.048
-140.472	-156.414	0.269	-0.016
-139.458	-200.000	0.011	-0.086
-138.443	800.000	0.014	-0.046
-137.429	113.442	0.189	0.224
-136.414	-109.112	0.147	-0.031
-135.399	800.000	-0.043	0.126
-134.385	240.069	-0.203	-0.330
-133.370	800.000	-0.041	0.137
-132.356	800.000	-0.065	0.247
-131.341	-26.070	0.084	0.049
-130.326	-83.050	0.331	0.104
-129.312	-81.059	0.165	-0.053
-128.297	800.000	0.072	0.221
-127.283	-200.000	-0.014	-0.125
-126.268	197.965	0.113	0.169
-125.253	26.280	-0.085	-0.070
-124.239	800.000	-0.132	0.361
-123.224	-200.000	0.039	0.275
-122.210	-30.326	0.134	0.074
