DTS Sentinel unit serial number:	SN413079Multiplexer serial number:	ORYXHardware model number:	OX4-SRSoftware version number:	ORYX F/W v4.00 Oryx Data Collector v3.7.2.0data status	okinstallation	princeton_trtdifferential loss correction	single-endedforward channel	channel 3reverse channel	N/Adate	2019/09/15time	08:08:34forward acquisition time	60.00reverse acquisition time	0.00gamma	496.2192k internal	0.2324k external	0.2324temperature offset calibration	0.9980default loss term (dB/km)	0.3790temperature slope calibration	1.0000multiplexer offset coefficient	1.0000multiplexer slope coefficient	1.0000fibre end	0.00T internal ref (°C)	30.94T ext. ref 1 (°C)	4.98T ext. ref 2 (°C)	27.30length (m)	temperature (°C)	Stokes	anti-Stokes-747.200	-36.248	0.072	-0.039
-746.185	293.077	-0.077	-0.142
-745.171	756.484	-0.042	0.115
-744.156	58.316	0.054	-0.054
-743.142	800.000	0.060	0.238
-742.127	667.376	0.084	0.220
-741.112	-200.000	-0.002	-0.319
-740.098	15.099	-0.244	0.193
-739.083	-200.000	-0.046	-0.212
-738.069	12.423	-0.143	-0.111
-737.054	-200.000	0.046	0.572
-736.039	-200.000	0.031	0.261
-735.025	360.539	0.145	0.292
-734.010	660.113	-0.075	-0.194
-732.996	-95.512	-0.125	-0.034
-731.981	513.797	0.099	0.233
-730.966	-200.000	0.010	-0.274
-729.952	-200.000	0.012	0.252
-728.937	-200.000	0.014	0.109
-727.923	-200.000	-0.024	0.121
-726.908	-18.831	0.176	-0.111
-725.894	44.568	0.095	0.088
-724.879	73.550	-0.268	0.283
-723.864	-128.144	-0.368	0.053
-722.850	89.950	-0.274	-0.309
-721.835	-36.466	0.252	-0.137
-720.821	506.853	-0.073	-0.170
-719.806	-164.912	-0.354	-0.016
-718.791	800.000	0.130	0.532
-717.777	-135.568	-0.163	-0.020
-716.762	444.639	0.032	-0.071
-715.748	625.026	-0.055	0.139
-714.733	-35.397	-0.260	0.142
-713.718	-118.455	-0.204	0.037
-712.704	-140.596	-0.225	-0.024
-711.689	-57.847	-0.201	0.088
-710.675	73.789	0.051	0.053
-709.660	161.388	0.024	-0.034
-708.645	-93.626	-0.300	-0.084
-707.631	41.389	0.023	-0.021
-706.616	146.574	-0.022	0.030
-705.602	-29.310	0.110	0.064
-704.587	-119.505	0.335	0.058
-703.572	224.135	0.119	0.193
-702.558	-38.611	0.201	0.107
-701.543	52.146	-0.126	-0.121
-700.529	-200.000	0.006	0.030
-699.514	226.370	0.065	-0.107
-698.499	477.261	0.111	0.252
-697.485	-157.729	-0.212	-0.013
-696.470	186.291	-0.155	-0.233
-695.456	-85.580	-0.160	0.050
-694.441	311.487	-0.049	-0.093
-693.426	436.571	-0.093	0.204
-692.412	121.758	-0.059	0.074
-691.397	-200.000	0.006	-0.363
-690.383	66.410	0.202	0.206
-689.368	541.091	-0.110	-0.263
-688.354	442.638	0.029	-0.063
-687.339	-200.000	-0.060	0.530
-686.324	512.007	0.138	-0.324
-685.310	-11.419	0.158	0.105
-684.295	800.000	-0.053	-0.211
-683.281	-85.217	-0.123	-0.039
-682.266	516.004	-0.077	0.181
-681.251	370.382	0.134	-0.273
-680.237	-200.000	-0.027	-0.358
-679.222	-200.000	0.016	-0.190
-678.208	-121.189	0.180	-0.030
-677.193	-200.000	0.038	-0.200
-676.178	30.534	-0.089	0.077
-675.164	671.814	0.026	0.069
-674.149	-200.000	-0.002	0.008
-673.135	800.000	0.034	-0.114
-672.120	800.000	0.066	0.200
-671.105	-71.785	-0.203	0.076
-670.091	-200.000	-0.001	0.197
-669.076	-62.456	-0.095	0.040
-668.062	-200.000	0.162	-0.000
-667.047	-49.037	-0.273	-0.131
-666.032	-75.448	-0.128	0.046
-665.018	-35.639	-0.380	0.207
-664.003	-28.490	-0.040	0.023
-662.989	49.066	-0.107	-0.101
-661.974	273.139	-0.134	0.239
-660.959	-85.332	0.240	-0.075
-659.945	-14.415	-0.289	-0.188
-658.930	-81.213	0.175	-0.058
-657.916	-31.011	-0.134	-0.076
-656.901	-200.000	-0.029	0.287
-655.886	-200.000	0.118	0.000
-654.872	-73.352	0.151	-0.056
-653.857	-14.874	0.401	-0.259
-652.843	-107.423	-0.253	-0.056
-651.828	131.284	-0.148	-0.191
-650.814	-155.339	-0.469	0.031
-649.799	14.514	-0.140	-0.110
-648.784	-193.428	-0.177	0.002
-647.770	-162.100	0.300	0.015
-646.755	449.186	-0.057	-0.126
-645.741	-27.613	-0.311	-0.181
-644.726	170.493	-0.057	-0.082
-643.711	74.548	-0.171	-0.181
-642.697	224.900	-0.200	0.326
-641.682	800.000	-0.043	-0.125
-640.668	160.830	0.057	-0.080
-639.653	41.398	-0.088	-0.080
-638.638	-5.988	0.313	0.215
-637.624	-200.000	-0.058	0.533
-636.609	-81.566	0.257	0.085
-635.595	800.000	0.105	-0.437
-634.580	353.266	-0.118	-0.236
-633.565	-53.843	0.160	-0.073
-632.551	-133.826	-0.199	-0.025
-631.536	178.733	-0.014	0.020
-630.522	11.010	-0.111	-0.086
-629.507	79.111	0.181	-0.195
-628.492	134.773	0.107	0.139
-627.478	-200.000	0.002	-0.136
-626.463	-70.421	-0.186	-0.071
-625.449	-26.488	-0.288	-0.170
-624.434	11.069	-0.149	-0.115
-623.419	-200.000	-0.011	-0.181
-622.405	-65.060	0.231	0.094
-621.390	114.721	-0.123	0.151
-620.376	-120.079	-0.206	-0.036
-619.361	800.000	-0.084	-0.355
-618.346	-29.911	0.071	0.041
-617.332	-187.350	0.183	-0.002
-616.317	47.906	0.108	0.101
-615.303	490.681	0.072	0.165
-614.288	13.336	-0.288	0.225
-613.273	-162.412	-0.165	0.008
-612.259	49.237	-0.217	0.205
-611.244	-144.307	0.229	-0.021
-610.230	-116.943	-0.235	-0.043
-609.215	-99.898	0.107	-0.027
-608.201	-128.279	-0.192	-0.028
-607.186	3.755	0.360	-0.264
-606.171	-11.268	-0.129	0.085
-605.157	-200.000	-0.030	0.172
-604.142	-99.645	-0.139	-0.035
-603.128	-139.130	-0.159	0.017
-602.113	-200.000	0.004	-0.277
-601.098	-200.000	-0.087	-0.383
-600.084	800.000	-0.104	0.397
-599.069	-105.849	-0.260	-0.059
-598.055	-96.302	0.069	0.018
-597.040	-103.952	-0.082	0.019
-596.025	-200.000	-0.076	-0.350
-595.011	-126.032	0.109	-0.016
-593.996	-200.000	0.018	0.104
-592.982	109.641	0.100	-0.120
-591.967	-200.000	-0.041	-0.243
-590.952	88.846	-0.105	-0.117
-589.938	21.636	0.061	0.049
-588.923	800.000	0.064	0.269
-587.909	692.916	-0.024	-0.064
-586.894	-161.739	-0.106	-0.005
-585.879	461.220	0.109	0.244
-584.865	-31.713	-0.199	0.112
-583.850	-15.260	0.279	-0.179
-582.836	-154.014	0.262	-0.018
-581.821	-129.532	0.513	-0.071
-580.806	-51.736	-0.068	-0.032
-579.792	-200.000	-0.301	-0.001
-578.777	-32.508	-0.240	0.134
-577.763	89.763	0.081	0.090
-576.748	-10.701	-0.098	0.065
-575.733	-50.749	-0.395	0.186
-574.719	-200.000	-0.011	0.125
-573.704	-200.000	0.065	0.482
-572.690	341.255	-0.165	0.323
-571.675	242.888	0.149	-0.250
-570.661	309.337	0.031	-0.058
-569.646	-200.000	0.033	0.175
-568.631	-151.045	-0.178	-0.013
-567.617	800.000	0.052	-0.150
-566.602	-143.299	0.180	-0.017
-565.588	-162.265	-0.286	-0.014
-564.573	-77.928	-0.248	0.086
-563.558	800.000	0.077	0.262
-562.544	800.000	-0.036	0.129
-561.529	-133.010	0.082	0.010
-560.515	-200.000	0.034	-0.248
-559.500	-13.420	0.137	0.089
-558.485	335.087	0.071	0.137
-557.471	94.804	-0.222	0.253
-556.456	69.650	-0.101	0.104
-555.442	800.000	0.065	-0.269
-554.427	-85.453	-0.213	-0.067
-553.412	800.000	-0.073	0.244
-552.398	-4.636	0.217	0.150
-551.383	-146.665	-0.214	-0.019
-550.369	-152.419	-0.147	0.011
-549.354	-200.000	-0.032	-0.156
-548.339	-85.075	-0.276	0.087
-547.325	-51.926	0.190	-0.088
-546.310	800.000	-0.052	-0.204
-545.296	-24.622	-0.080	-0.048
-544.281	223.821	-0.032	-0.051
-543.266	800.000	-0.208	0.596
-542.252	-200.000	-0.045	0.283
-541.237	-200.000	0.022	-0.244
-540.223	-200.000	-0.012	-0.482
-539.208	-200.000	0.033	-0.291
-538.193	159.046	0.071	-0.099
-537.179	23.563	0.128	-0.105
-536.164	-77.406	-0.095	-0.033
-535.150	-200.000	-0.024	0.164
-534.135	-71.900	0.043	-0.016
-533.121	-200.000	0.030	0.199
-532.106	112.701	0.100	0.121
-531.091	-15.994	0.195	-0.124
-530.077	-17.232	0.189	-0.119
-529.062	73.841	-0.184	-0.193
-528.048	-200.000	0.017	0.130
-527.033	-94.623	-0.311	0.085
-526.018	-200.000	0.001	-0.131
-525.004	15.842	-0.173	-0.136
-523.989	-200.000	-0.019	0.213
-522.975	228.760	-0.070	-0.114
-521.960	48.739	-0.213	0.200
-520.945	218.476	-0.131	0.209
-519.931	-200.000	-0.018	0.483
-518.916	-112.869	-0.415	-0.082
-517.902	-139.221	0.319	-0.034
-516.887	-12.917	-0.074	-0.048
-515.872	248.529	0.109	-0.185
-514.858	-24.759	0.308	-0.183
-513.843	-72.107	0.070	-0.026
-512.829	-135.327	-0.241	-0.029
-511.814	-15.477	-0.287	-0.183
-510.799	-76.743	0.275	0.096
-509.785	-200.000	0.017	0.111
-508.770	7.269	-0.198	-0.148
-507.756	-127.296	0.118	0.017
-506.741	-200.000	0.019	-0.211
-505.726	-33.701	0.320	0.177
-504.712	615.289	0.102	0.256
-503.697	800.000	-0.070	0.215
-502.683	-121.497	-0.079	-0.013
-501.668	107.757	0.059	0.070
-500.653	-200.000	-0.041	-0.195
-499.639	100.374	-0.082	-0.095
-498.624	43.310	0.104	-0.095
-497.610	210.755	-0.055	0.087
-496.595	-97.276	-0.277	-0.072
-495.581	-24.158	-0.406	-0.243
-494.566	35.098	0.148	0.130
-493.551	800.000	0.031	-0.134
-492.537	373.408	-0.173	-0.351
-491.522	164.037	0.240	0.338
-490.508	53.488	0.197	0.189
-489.493	-126.692	0.104	-0.015
-488.478	-98.873	0.166	-0.042
-487.464	-55.923	-0.189	0.084
-486.449	-106.747	0.026	-0.006
-485.435	143.436	-0.223	-0.297
-484.420	-138.307	0.285	0.032
-483.405	800.000	0.025	-0.102
-482.391	246.248	-0.184	0.310
-481.376	-152.269	0.077	0.006
-480.362	800.000	-0.045	0.163
-479.347	46.596	-0.073	-0.067
-478.332	273.908	0.100	0.177
-477.318	67.155	-0.307	-0.313
-476.303	-45.746	0.052	0.026
-475.289	-200.000	-0.023	-0.169
-474.274	800.000	-0.039	-0.145
-473.259	103.847	-0.241	-0.283
-472.245	-200.000	-0.035	0.270
-471.230	-187.800	0.223	-0.003
-470.216	-200.000	-0.035	-0.499
-469.201	-87.113	-0.256	-0.078
-468.186	-170.087	0.165	0.006
-467.172	-200.000	-0.028	0.148
-466.157	-200.000	0.056	-0.394
-465.143	-126.966	0.090	-0.013
-464.128	402.577	-0.083	-0.175
-463.113	178.974	-0.045	-0.065
-462.099	-165.201	0.489	0.022
-461.084	12.437	-0.110	0.085
-460.070	36.593	-0.122	-0.107
-459.055	-33.383	-0.189	-0.104
-458.040	-51.550	-0.153	0.071
-457.026	-51.346	-0.065	-0.030
-456.011	77.384	0.103	0.110
-454.997	-139.181	0.188	-0.020
-453.982	-28.697	-0.115	0.066
-452.968	-93.457	0.284	0.078
-451.953	-172.353	-0.226	0.007
-450.938	-90.344	-0.244	0.071
-449.924	-158.379	-0.285	-0.017
-448.909	-100.015	0.194	0.048
-447.895	-77.634	0.240	-0.083
-446.880	48.824	-0.111	0.104
-445.865	-188.164	0.519	-0.007
-444.851	-200.000	0.002	0.117
-443.836	800.000	-0.044	0.162
-442.822	-108.093	0.136	0.029
-441.807	-165.918	-0.095	0.004
-440.792	-112.581	0.188	0.037
-439.778	35.038	0.116	0.101
-438.763	-15.502	-0.161	-0.102
-437.749	284.477	-0.165	0.297
-436.734	800.000	-0.035	-0.102
-435.719	-45.977	-0.082	0.041
-434.705	659.634	-0.038	0.099
-433.690	497.566	0.126	-0.289
-432.676	217.604	-0.105	0.167
-431.661	800.000	-0.062	0.187
-430.646	14.332	-0.317	-0.246
-429.632	15.401	-0.124	0.097
-428.617	800.000	-0.067	-0.270
-427.603	25.715	-0.048	0.040
-426.588	-200.000	-0.014	0.259
-425.573	37.517	0.082	-0.072
-424.559	800.000	0.037	-0.141
-423.544	-121.576	-0.148	-0.024
-422.530	-40.724	0.182	0.094
-421.515	800.000	0.051	-0.193
-420.500	502.309	0.074	0.169
-419.486	-46.333	0.097	-0.047
-418.471	-200.000	0.005	0.022
-417.457	-200.000	-0.004	0.191
-416.442	80.985	0.131	-0.141
-415.428	26.001	0.339	-0.282
-414.413	-200.000	-0.023	-0.546
-413.398	-84.831	0.118	0.037
-412.384	800.000	-0.026	0.092
-411.369	11.031	0.131	-0.100
-410.355	1.772	-0.092	-0.066
-409.340	-53.032	-0.138	0.063
-408.325	-127.228	-0.051	-0.007
-407.311	-176.734	0.131	0.003
-406.296	481.805	0.064	-0.144
-405.282	-72.952	0.161	-0.059
-404.267	-151.204	-0.194	-0.014
-403.252	19.095	-0.237	0.190
-402.238	-97.381	0.207	0.054
-401.223	-24.288	-0.174	0.103
-400.209	214.816	-0.050	-0.079
-399.194	186.855	-0.105	0.156
-398.179	327.918	0.133	0.255
-397.165	800.000	0.084	-0.237
-396.150	72.046	0.184	0.191
-395.136	84.989	-0.209	0.229
-394.121	45.946	-0.319	0.294
-393.106	29.396	-0.113	0.096
-392.092	74.017	-0.061	-0.064
-391.077	128.709	0.206	0.261
-390.063	800.000	0.064	-0.235
-389.048	800.000	-0.085	-0.321
-388.033	-200.000	0.019	-0.283
-387.019	261.125	0.122	0.211
-386.004	509.197	-0.039	-0.091
-384.990	238.658	0.172	0.285
-383.975	166.990	-0.101	-0.143
-382.960	57.006	-0.071	-0.069
-381.946	-200.000	-0.010	0.236
-380.931	227.894	-0.086	-0.140
-379.917	-78.934	0.458	-0.155
-378.902	-200.000	-0.004	-0.201
-377.888	-153.538	0.195	0.013
-376.873	44.632	-0.253	-0.232
-375.858	-184.662	0.164	-0.003
-374.844	-104.147	-0.069	-0.016
-373.829	9.510	0.074	-0.056
-372.815	-10.453	0.053	-0.035
-371.800	-200.000	0.024	0.241
-370.785	594.750	0.109	-0.268
-369.771	-74.024	0.271	0.098
-368.756	-126.477	0.323	0.048
-367.742	249.687	-0.070	0.118
-366.727	82.488	-0.060	0.065
-365.712	-73.987	-0.325	0.117
-364.698	-200.000	0.013	-0.329
-363.683	71.240	0.209	-0.216
-362.669	-25.856	-0.199	0.117
-361.654	55.679	0.109	0.105
-360.639	75.477	0.182	0.191
-359.625	714.005	0.075	-0.197
-358.610	800.000	-0.024	-0.105
-357.596	-145.827	0.155	-0.014
-356.581	178.679	0.118	0.171
-355.566	189.737	-0.130	0.194
-354.552	147.494	0.115	-0.154
-353.537	-130.886	0.106	0.014
-352.523	-52.013	0.205	-0.095
-351.508	342.572	0.140	-0.273
-350.493	-62.231	0.168	-0.070
-349.479	-158.603	0.268	0.015
-348.464	113.107	0.146	0.176
-347.450	-11.323	-0.280	-0.183
-346.435	528.498	-0.045	-0.106
-345.420	-112.920	0.198	0.039
-344.406	101.577	-0.076	0.088
-343.391	-200.000	-0.001	-0.211
-342.377	-87.608	0.101	0.030
-341.362	-35.264	-0.178	-0.096
-340.348	-200.000	-0.017	-0.091
-339.333	800.000	0.068	-0.245
-338.318	-115.508	0.088	-0.016
-337.304	-147.016	-0.065	0.006
-336.289	-123.779	-0.039	0.006
-335.275	28.888	0.128	0.108
-334.260	10.505	-0.102	0.077
-333.245	10.935	0.295	0.224
-332.231	116.527	0.061	-0.074
-331.216	33.392	0.294	0.254
-330.202	-200.000	0.032	0.247
-329.187	800.000	0.091	0.291
-328.172	-63.047	0.217	0.089
-327.158	115.834	0.093	-0.113
-326.143	800.000	-0.056	-0.197
-325.129	99.106	-0.408	-0.468
-324.114	34.146	0.236	-0.204
-323.099	11.695	0.056	0.043
-322.085	-17.006	-0.465	-0.292
-321.070	800.000	0.048	0.134
-320.056	-33.977	0.225	-0.123
-319.041	-70.067	-0.341	0.129
-318.026	-55.099	-0.183	0.082
-317.012	-35.432	-0.173	-0.093
-315.997	-151.928	0.305	0.022
-314.983	800.000	-0.068	-0.207
-313.968	234.818	0.081	-0.133
-312.953	-3.840	0.199	-0.137
-311.939	-85.072	-0.246	0.076
-310.924	197.056	0.243	0.368
-309.910	-145.874	0.078	-0.007
-308.895	-200.000	0.037	0.296
-307.880	-64.920	-0.219	0.088
-306.866	-151.742	0.462	0.034
-305.851	-125.431	-0.100	-0.015
-304.837	33.522	-0.104	-0.090
-303.822	-8.347	0.286	-0.191
-302.807	-92.212	-0.094	0.026
-301.793	-127.251	-0.072	-0.010
-300.778	-71.593	-0.174	-0.065
-299.764	800.000	0.014	-0.040
-298.749	-43.830	-0.372	-0.186
-297.735	27.372	0.192	0.160
-296.720	-200.000	-0.039	0.364
-295.705	58.340	0.201	-0.195
-294.691	-200.000	-0.254	-0.001
-293.676	321.028	-0.034	-0.064
-292.662	-102.941	-0.080	-0.019
-291.647	800.000	-0.029	-0.095
-290.632	418.238	-0.103	-0.218
-289.618	55.848	-0.098	-0.094
-288.603	-49.762	-0.095	-0.045
-287.589	25.958	-0.343	0.284
-286.574	-12.665	-0.102	0.066
-285.559	76.727	0.174	0.183
-284.545	-82.434	0.145	-0.047
-283.530	-200.000	0.021	-0.174
-282.516	-90.355	-0.135	0.039
-281.501	-200.000	-0.014	-0.268
-280.486	43.475	0.031	0.028
-279.472	336.531	0.047	-0.091
-278.457	25.547	0.286	-0.236
-277.443	276.859	0.112	-0.197
-276.428	-92.832	0.149	-0.041
-275.413	-111.388	-0.265	-0.054
-274.399	-200.000	0.007	-0.048
-273.384	6.468	0.156	-0.115
-272.370	-101.116	-0.009	0.002
-271.355	-16.146	0.257	0.162
-270.340	68.816	0.167	-0.170
-269.326	-112.715	0.129	0.025
-268.311	782.487	0.167	0.452
-267.297	800.000	0.082	-0.237
-266.282	1.558	0.051	-0.037
-265.267	-131.205	-0.461	-0.061
-264.253	800.000	-0.018	-0.075
-263.238	476.816	0.148	0.332
-262.224	92.462	-0.268	0.300
-261.209	-0.153	-0.206	0.145
-260.195	-57.956	-0.103	0.045
-259.180	521.396	0.091	0.211
-258.165	44.507	0.118	0.108
-257.151	-79.339	0.223	-0.075
-256.136	-200.000	0.039	0.195
-255.122	-88.137	0.201	0.060
-254.107	64.245	0.062	-0.062
-253.092	99.946	-0.106	0.122
-252.078	35.177	0.150	-0.130
-251.063	800.000	0.141	-0.524
-250.049	-107.276	0.451	0.098
-249.034	-200.000	0.002	0.064
-248.019	37.013	0.216	-0.189
-247.005	297.309	-0.065	-0.119
-245.990	201.857	-0.172	0.263
-244.976	363.777	0.094	0.187
-243.961	-200.000	0.003	0.265
-242.946	-200.000	0.057	-0.512
-241.932	93.595	-0.085	0.095
-240.917	231.153	-0.091	-0.148
-239.903	222.733	0.113	0.180
-238.888	36.855	0.181	0.159
-237.873	280.482	-0.065	-0.115
-236.859	-29.926	0.064	0.036
-235.844	800.000	0.060	0.180
-234.830	-200.000	0.030	-0.153
-233.815	-140.800	-0.195	0.020
-232.800	245.978	-0.058	-0.097
-231.786	-154.253	0.190	0.013
-230.771	-61.447	-0.379	-0.158
-229.757	-149.590	-0.158	0.012
-228.742	238.712	-0.137	-0.225
-227.727	1.528	-0.127	-0.091
-226.713	74.389	0.184	-0.191
-225.698	-200.000	0.045	0.258
-224.684	12.325	0.170	0.130
-223.669	-131.647	-0.216	0.028
-222.655	-27.098	0.128	-0.074
-221.640	-200.000	0.001	0.235
-220.625	-89.820	0.149	-0.043
-219.611	800.000	0.057	0.165
-218.596	-145.185	-0.312	0.028
-217.582	-93.735	0.152	0.042
-216.567	-15.737	0.138	-0.087
-215.552	-200.000	0.001	0.078
-214.538	-81.448	-0.052	-0.017
-213.523	-35.294	0.261	0.140
-212.509	-200.000	-0.014	0.440
-211.494	-68.734	0.331	0.126
-210.479	800.000	0.069	0.222
-209.465	800.000	-0.036	0.113
-208.450	14.402	-0.275	0.212
-207.436	800.000	0.011	-0.032
-206.421	-200.000	-0.002	0.192
-205.406	38.102	-0.156	-0.137
-204.392	-200.000	0.069	-0.315
-203.377	-26.502	-0.152	-0.088
-202.363	-98.606	-0.328	-0.083
-201.348	-200.000	0.003	-0.367
-200.333	-93.093	0.051	-0.014
-199.319	-41.761	-0.159	0.081
-198.304	447.592	0.040	0.087
-197.290	282.013	0.018	-0.032
-196.275	92.522	-0.178	-0.199
-195.260	751.374	-0.137	0.366
-194.246	10.236	-0.031	0.023
-193.231	492.514	-0.159	-0.360
-192.217	800.000	-0.040	0.171
-191.202	800.000	-0.052	-0.143
-190.187	-28.789	0.370	0.210
-189.173	-79.355	0.134	0.045
-188.158	94.504	0.131	0.147
-187.144	-63.201	0.096	-0.039
-186.129	-91.224	0.297	0.084
-185.114	69.222	0.162	0.165
-184.100	5.792	-0.206	-0.150
-183.085	-20.314	-0.230	0.140
-182.071	-200.000	0.004	-0.062
-181.056	-46.354	0.138	0.067
-180.042	800.000	0.074	-0.206
-179.027	-100.165	0.269	-0.066
-178.012	15.316	-0.131	0.102
-176.998	-3.582	-0.244	-0.168
-175.983	-200.000	-0.038	0.307
-174.969	7.441	-0.103	0.076
-173.954	-45.063	-0.133	-0.065
-172.939	-157.713	-0.142	0.008
-171.925	-37.615	0.190	-0.100
-170.910	-118.372	0.103	0.018
-169.896	64.252	0.064	-0.064
-168.881	377.920	0.143	-0.289
-167.866	800.000	-0.040	0.116
-166.852	-69.073	-0.254	0.097
-165.837	438.329	0.016	0.036
-164.823	-35.705	0.040	0.021
-163.808	232.052	0.061	-0.099
-162.793	-200.000	-0.018	-0.190
-161.779	561.357	0.060	0.143
-160.764	-109.288	0.142	-0.030
-159.750	-119.411	-0.377	0.065
-158.735	-1.432	0.221	-0.154
-157.720	-200.000	0.127	0.565
-156.706	78.876	-0.170	0.180
-155.691	-200.000	0.027	0.209
-154.677	179.899	0.111	0.160
-153.662	16.502	0.146	0.114
-152.647	800.000	0.130	0.371
-151.633	800.000	-0.051	0.148
-150.618	-37.037	0.223	-0.118
-149.604	217.529	0.151	-0.238
-148.589	165.537	0.063	0.088
-147.574	800.000	0.061	-0.192
-146.560	15.632	0.091	0.070
-145.545	-105.735	-0.290	-0.065
-144.531	30.117	0.094	-0.079
-143.516	250.342	0.066	-0.110
-142.502	123.773	-0.183	0.227
-141.487	38.863	0.099	0.087
-140.472	338.023	-0.084	0.160
-139.458	106.861	0.118	0.139
-138.443	180.837	0.086	-0.125
-137.429	38.117	-0.199	0.174
-136.414	83.291	-0.170	-0.183
-135.399	234.024	0.136	0.221
-134.385	266.181	0.083	0.142
-133.370	-94.833	0.031	0.008
-132.356	-162.112	0.197	-0.010
-131.341	-20.960	-0.432	0.261
-130.326	-200.000	0.025	0.166
-129.312	-99.544	-0.175	-0.043
-128.297	-200.000	0.001	0.161
-127.283	-200.000	-0.052	0.390
-126.268	-85.751	0.138	-0.042
-125.253	117.396	-0.082	-0.099
-124.239	463.428	-0.108	0.238
-123.224	93.707	0.031	0.034
-122.210	20.610	0.212	-0.169
-121.195	67.157	-0.381	0.382
