DTS Sentinel unit serial number:	SN413079Multiplexer serial number:	ORYXHardware model number:	OX4-SRSoftware version number:	ORYX F/W v4.00 Oryx Data Collector v3.7.2.0data status	okinstallation	princeton_trtdifferential loss correction	single-endedforward channel	channel 3reverse channel	N/Adate	2019/09/19time	06:00:35forward acquisition time	60.00reverse acquisition time	0.00gamma	496.2192k internal	0.2348k external	0.2348temperature offset calibration	0.9989default loss term (dB/km)	0.3790temperature slope calibration	1.0000multiplexer offset coefficient	1.0000multiplexer slope coefficient	1.0000fibre end	0.00T internal ref (°C)	19.14T ext. ref 1 (°C)	0.58T ext. ref 2 (°C)	12.80length (m)	temperature (°C)	Stokes	anti-Stokes-747.200	196.930	0.032	0.049
-746.185	800.000	-0.107	0.370
-745.171	-200.000	-0.054	0.299
-744.156	-11.390	-0.168	0.111
-743.142	-32.422	-0.298	0.166
-742.127	409.062	-0.069	0.145
-741.112	800.000	0.094	0.327
-740.098	-200.000	-0.005	0.265
-739.083	-200.000	0.043	-0.458
-738.069	-85.426	-0.215	0.067
-737.054	-100.372	0.233	0.058
-736.039	580.776	-0.113	0.276
-735.025	800.000	0.028	-0.092
-734.010	800.000	0.015	0.048
-732.996	297.128	-0.148	-0.271
-731.981	800.000	-0.029	-0.095
-730.966	64.313	-0.258	-0.259
-729.952	800.000	-0.071	0.298
-728.937	-200.000	-0.003	-0.445
-727.923	-157.958	-0.281	-0.017
-726.908	-77.873	0.338	0.116
-725.894	-135.374	0.400	-0.048
-724.879	-68.305	-0.204	0.079
-723.864	-200.000	0.044	-0.306
-722.850	91.029	0.194	-0.217
-721.835	439.052	-0.093	-0.203
-720.821	-130.559	-0.130	-0.017
-719.806	-78.918	-0.384	-0.131
-718.791	25.576	0.164	0.137
-717.777	403.887	-0.025	-0.053
-716.762	308.084	-0.112	-0.208
-715.748	9.481	0.286	0.216
-714.733	1.457	-0.189	-0.136
-713.718	-137.321	0.162	0.018
-712.704	-47.666	-0.167	-0.081
-711.689	-55.594	0.317	0.141
-710.675	27.450	0.057	-0.048
-709.660	-104.099	0.112	-0.026
-708.645	-200.000	0.025	0.254
-707.631	-126.467	-0.073	0.011
-706.616	-77.286	-0.136	0.047
-705.602	163.226	-0.096	0.134
-704.587	55.957	-0.369	-0.357
-703.572	187.076	-0.161	0.240
-702.558	800.000	0.036	0.130
-701.543	93.313	0.193	0.218
-700.529	-73.660	0.223	0.081
-699.514	-200.000	-0.034	-0.264
-698.499	-39.501	-0.222	-0.116
-697.485	-113.688	-0.278	-0.054
-696.470	800.000	-0.026	-0.109
-695.456	275.444	-0.040	0.070
-694.441	237.784	-0.146	-0.241
-693.426	516.741	0.090	0.209
-692.412	-200.000	0.001	-0.041
-691.397	-82.590	0.270	0.087
-690.383	323.890	-0.090	0.172
-689.368	186.143	0.135	-0.200
-688.354	81.649	-0.237	-0.256
-687.339	-6.507	0.055	-0.038
-686.324	-115.941	-0.235	-0.044
-685.310	800.000	-0.054	-0.235
-684.295	800.000	-0.090	-0.275
-683.281	90.357	-0.194	0.216
-682.266	20.340	0.138	-0.111
-681.251	-176.359	0.124	-0.003
-680.237	11.951	0.120	0.092
-679.222	-29.994	0.182	-0.103
-678.208	-65.287	-0.139	-0.056
-677.193	-200.000	0.015	-0.090
-676.178	-42.091	0.271	0.138
-675.164	497.266	0.075	0.171
-674.149	-200.000	-0.005	0.134
-673.135	-52.098	0.166	0.077
-672.120	47.612	-0.108	-0.100
-671.105	-200.000	0.008	-0.043
-670.091	-164.570	0.285	-0.013
-669.076	-140.123	-0.247	0.026
-668.062	-41.077	-0.074	-0.038
-667.047	-114.090	-0.482	-0.093
-666.032	800.000	-0.134	0.439
-665.018	-142.223	0.121	0.012
-664.003	185.328	0.120	-0.177
-662.989	180.664	0.095	0.139
-661.974	-200.000	-0.164	-0.001
-660.959	-126.315	-0.260	0.039
-659.945	-115.399	-0.251	-0.047
-658.930	-56.007	-0.086	0.038
-657.916	800.000	0.072	-0.279
-656.901	800.000	-0.095	0.343
-655.886	47.267	0.159	-0.147
-654.872	10.068	-0.511	-0.387
-653.857	268.774	0.082	-0.144
-652.843	-83.488	0.339	-0.108
-651.828	-13.525	0.206	-0.133
-650.814	-181.254	0.418	0.008
-649.799	116.324	0.137	-0.167
-648.784	-43.345	-0.038	0.019
-647.770	447.535	-0.161	0.353
-646.755	-139.470	0.165	0.018
-645.741	-26.615	-0.145	0.084
-644.726	109.839	0.019	-0.023
-643.711	-101.556	-0.098	0.024
-642.697	-200.000	0.019	0.332
-641.682	99.513	-0.319	-0.367
-640.668	800.000	0.043	-0.140
-639.653	-147.032	0.224	-0.019
-638.638	50.901	-0.163	0.153
-637.624	-200.000	-0.005	0.533
-636.609	205.011	-0.063	0.097
-635.595	346.893	-0.133	-0.261
-634.580	471.150	0.076	-0.170
-633.565	119.498	-0.152	-0.187
-632.551	800.000	-0.061	-0.202
-631.536	40.781	-0.121	0.109
-630.522	-19.615	-0.266	0.164
-629.507	0.093	0.264	-0.187
-628.492	353.725	0.095	0.187
-627.478	-11.339	0.341	0.223
-626.463	450.492	-0.150	-0.330
-625.449	147.754	-0.162	0.218
-624.434	135.560	0.098	0.127
-623.419	-100.036	0.117	-0.029
-622.405	800.000	0.045	-0.169
-621.390	800.000	0.051	-0.194
-620.376	235.379	-0.134	-0.220
-619.361	800.000	-0.139	-0.444
-618.346	800.000	-0.070	-0.207
-617.332	82.528	-0.123	-0.132
-616.317	-71.027	0.430	-0.161
-615.303	141.455	-0.101	-0.133
-614.288	7.945	-0.252	0.188
-613.273	-200.000	-0.036	0.261
-612.259	163.862	0.144	0.201
-611.244	31.980	0.144	0.124
-610.230	-200.000	-0.154	0.001
-609.215	-166.552	0.075	-0.003
-608.201	800.000	0.090	0.364
-607.186	235.858	0.208	-0.341
-606.171	-82.812	-0.208	-0.067
-605.157	152.701	-0.133	-0.181
-604.142	-124.353	-0.219	0.034
-603.128	15.693	0.038	0.029
-602.113	-115.822	0.327	0.061
-601.098	-200.000	0.006	0.220
-600.084	-34.833	-0.148	0.080
-599.069	32.464	-0.061	-0.053
-598.055	-0.385	0.090	-0.064
-597.040	590.085	0.094	-0.231
-596.025	84.698	0.084	-0.092
-595.011	-1.950	0.422	-0.295
-593.996	518.404	0.106	-0.246
-592.982	-135.750	0.096	-0.011
-591.967	-200.000	0.004	-0.105
-590.952	255.180	-0.178	0.303
-589.938	-22.984	-0.291	-0.174
-588.923	19.834	-0.230	-0.184
-587.909	-65.684	-0.453	-0.180
-586.894	256.128	0.116	0.198
-585.879	-36.590	-0.308	-0.165
-584.865	65.513	0.269	-0.270
-583.850	161.172	-0.261	0.362
-582.836	182.981	0.107	-0.157
-581.821	-200.000	0.029	0.183
-580.806	-200.000	-0.035	0.301
-579.792	-155.860	0.300	-0.019
-578.777	-8.654	0.211	0.141
-577.763	650.476	0.049	-0.123
-576.748	-200.000	0.021	0.138
-575.733	800.000	-0.061	0.238
-574.719	674.372	-0.151	0.390
-573.704	-200.000	-0.020	0.162
-572.690	-132.311	-0.459	-0.059
-571.675	193.423	0.192	-0.288
-570.661	-53.223	-0.166	0.076
-569.646	643.287	0.131	0.332
-568.631	-19.463	-0.209	-0.129
-567.617	-20.184	-0.139	-0.085
-566.602	-200.000	-0.072	0.426
-565.588	129.600	-0.201	0.255
-564.573	71.187	0.194	0.199
-563.558	-112.930	0.259	0.051
-562.544	800.000	0.055	0.229
-561.529	96.138	0.118	0.134
-560.515	800.000	-0.066	-0.203
-559.500	-53.479	-0.231	-0.105
-558.485	-42.370	-0.199	-0.101
-557.471	502.030	0.075	0.173
-556.456	800.000	-0.064	0.266
-555.442	-200.000	-0.013	-0.090
-554.427	800.000	0.080	-0.242
-553.412	149.854	-0.036	-0.048
-552.398	43.753	0.130	-0.118
-551.383	-41.336	0.233	0.119
-550.369	74.478	0.190	-0.198
-549.354	202.991	0.181	0.278
-548.339	-112.694	0.186	-0.037
-547.325	114.772	-0.214	-0.258
-546.310	-98.131	-0.163	-0.042
-545.296	-109.731	0.087	-0.018
-544.281	-21.714	-0.129	0.078
-543.266	-157.263	0.412	-0.025
-542.252	800.000	0.049	-0.152
-541.237	-130.571	-0.126	0.017
-540.223	800.000	0.098	-0.327
-539.208	-32.940	-0.218	0.120
-538.193	142.477	0.322	-0.423
-537.179	-70.916	-0.297	-0.111
-536.164	800.000	0.067	-0.198
-535.150	117.372	-0.083	-0.101
-534.135	574.095	0.049	-0.117
-533.121	-61.166	-0.236	0.099
-532.106	-200.000	-0.036	0.230
-531.091	18.852	-0.064	-0.051
-530.077	-139.743	-0.186	-0.020
-529.062	79.798	0.059	0.063
-528.048	800.000	0.079	-0.247
-527.033	770.014	-0.105	-0.285
-526.018	90.793	0.125	0.138
-525.004	51.026	-0.102	0.096
-523.989	-87.630	-0.177	0.053
-522.975	746.224	0.122	-0.325
-521.960	-82.659	0.088	-0.028
-520.945	-152.411	0.287	-0.020
-519.931	-107.294	-0.110	-0.024
-518.916	-138.458	-0.087	-0.009
-517.902	-200.000	0.029	0.150
-516.887	-200.000	-0.005	-0.047
-515.872	-175.618	-0.356	0.010
-514.858	-200.000	-0.021	0.171
-513.843	800.000	0.041	-0.118
-512.829	-89.049	-0.286	-0.084
-511.814	-24.434	0.157	0.092
-510.799	49.771	-0.261	0.243
-509.785	800.000	0.026	0.077
-508.770	800.000	0.004	0.012
-507.756	800.000	-0.025	0.084
-506.741	221.492	0.129	-0.205
-505.726	800.000	0.046	0.163
-504.712	1.055	-0.107	-0.076
-503.697	99.416	0.190	0.218
-502.683	113.813	0.179	-0.216
-501.668	800.000	0.103	0.328
-500.653	117.187	0.065	0.079
-499.639	126.317	-0.194	-0.243
-498.624	-169.878	0.329	-0.012
-497.610	98.322	-0.134	0.152
-496.595	219.781	0.173	-0.273
-495.581	-87.343	-0.090	-0.027
-494.566	748.019	0.058	0.154
-493.551	-152.584	-0.152	0.011
-492.537	-200.000	0.045	-0.212
-491.522	-200.000	-0.009	0.248
-490.508	44.282	-0.137	0.124
-489.493	490.489	-0.008	0.018
-488.478	-144.149	0.128	-0.012
-487.464	185.714	-0.108	0.159
-486.449	-87.533	-0.212	-0.063
-485.435	-102.613	0.187	0.044
-484.420	800.000	0.083	0.271
-483.405	-154.582	0.104	0.007
-482.391	100.432	0.078	0.089
-481.376	-106.749	-0.142	0.031
-480.362	800.000	-0.027	0.106
-479.347	350.940	0.184	0.360
-478.332	-100.114	-0.062	0.015
-477.318	75.040	0.205	0.213
-476.303	487.581	0.041	-0.093
-475.289	-91.539	0.290	0.082
-474.274	47.183	-0.208	-0.191
-473.259	209.336	-0.151	-0.234
-472.245	-138.653	0.113	0.012
-471.230	374.960	0.130	-0.262
-470.216	-62.556	-0.323	-0.133
-469.201	-160.568	0.548	-0.029
-468.186	-200.000	-0.005	-0.320
-467.172	-126.490	-0.059	0.009
-466.157	-143.481	-0.198	0.019
-465.143	55.861	0.270	-0.259
-464.128	-200.000	-0.020	0.251
-463.113	162.783	-0.258	-0.357
-462.099	436.746	-0.075	0.162
-461.084	-158.584	-0.378	-0.022
-460.070	800.000	0.017	-0.071
-459.055	-161.208	-0.080	-0.004
-458.040	61.596	-0.198	-0.194
-457.026	-12.809	0.201	0.129
-456.011	-200.000	-0.035	-0.280
-454.997	-135.401	-0.083	0.010
-453.982	90.074	0.311	-0.343
-452.968	800.000	-0.110	-0.418
-451.953	130.207	-0.082	-0.104
-450.938	-13.037	0.142	0.091
-449.924	-152.809	-0.224	0.016
-448.909	-200.000	0.035	0.176
-447.895	42.747	0.080	0.072
-446.880	52.536	0.064	0.060
-445.865	-65.173	0.028	-0.011
-444.851	94.792	0.167	0.188
-443.836	-62.839	0.192	-0.078
-442.822	240.147	-0.055	0.090
-441.807	-131.420	-0.388	0.051
-440.792	-86.532	0.163	-0.049
-439.778	800.000	0.065	-0.247
-438.763	337.497	0.020	-0.038
-437.749	6.829	0.080	-0.059
-436.734	97.031	-0.119	0.135
-435.719	-200.000	-0.001	0.398
-434.705	-200.000	-0.021	-0.143
-433.690	800.000	0.004	-0.014
-432.676	-69.579	-0.299	-0.113
-431.661	-200.000	0.048	-0.373
-430.646	520.615	-0.067	0.155
-429.632	-147.740	-0.085	-0.007
-428.617	9.489	-0.075	0.056
-427.603	-49.846	0.235	-0.110
-426.588	-124.012	-0.378	-0.059
-425.573	-89.227	-0.398	-0.116
-424.559	-50.941	-0.196	-0.091
-423.544	-200.000	0.024	0.104
-422.530	-200.000	-0.033	-0.220
-421.515	143.613	-0.180	-0.237
-420.500	-39.681	-0.169	-0.087
-419.486	606.907	-0.115	-0.282
-418.471	-79.767	-0.157	-0.052
-417.457	-86.053	-0.305	0.093
-416.442	398.695	-0.092	-0.191
-415.428	300.412	-0.145	0.263
-414.413	53.585	-0.106	-0.101
-413.398	78.865	-0.111	-0.117
-412.384	-30.112	-0.105	-0.059
-411.369	339.962	0.153	-0.295
-410.355	328.380	0.178	0.336
-409.340	60.267	0.116	-0.113
-408.325	201.012	0.092	0.140
-407.311	-172.294	0.168	-0.005
-406.296	-63.899	-0.251	-0.101
-405.282	-105.909	0.137	0.030
-404.267	519.550	-0.137	-0.317
-403.252	-200.000	0.043	-0.453
-402.238	-46.939	-0.092	0.044
-401.223	-51.387	0.170	-0.079
-400.209	-124.679	-0.358	0.055
-399.194	800.000	0.039	0.127
-398.179	800.000	-0.077	0.215
-397.165	541.391	-0.093	0.219
-396.150	-86.679	0.216	0.065
-395.136	40.065	0.138	-0.122
-394.121	-71.155	-0.227	-0.084
-393.106	-200.000	0.044	0.247
-392.092	159.910	-0.148	0.203
-391.077	-140.932	-0.124	0.013
-390.063	-200.000	-0.032	0.177
-389.048	-139.731	-0.270	-0.028
-388.033	-44.507	0.431	-0.213
-387.019	-53.875	-0.104	0.047
-386.004	-200.000	0.007	-0.134
-384.990	39.652	0.068	0.060
-383.975	800.000	-0.083	0.295
-382.960	-137.358	0.316	-0.035
-381.946	-120.878	0.140	0.023
-380.931	-39.324	0.009	0.005
-379.917	-200.000	0.012	-0.263
-378.902	37.816	-0.255	-0.223
-377.888	800.000	0.062	0.190
-376.873	-162.992	0.148	-0.007
-375.858	227.681	0.166	0.266
-374.844	306.942	0.142	0.260
-373.829	117.546	-0.149	-0.180
-372.815	107.889	0.103	-0.121
-371.800	-200.000	0.051	-0.339
-370.785	102.374	0.100	-0.115
-369.771	-14.723	0.223	0.141
-368.756	269.330	0.280	0.484
-367.742	320.445	-0.128	0.239
-366.727	-200.000	0.013	0.133
-365.712	418.865	-0.040	-0.084
-364.698	-48.185	-0.335	0.159
-363.683	11.490	-0.043	0.032
-362.669	211.317	-0.108	0.167
-361.654	43.583	0.112	-0.100
-360.639	-74.838	0.313	0.111
-359.625	156.550	-0.140	0.190
-358.610	175.778	0.137	0.196
-357.596	-67.831	0.084	0.032
-356.581	565.849	-0.108	-0.259
-355.566	-115.767	0.250	-0.046
-354.552	573.111	0.040	-0.096
-353.537	-110.700	0.021	0.004
-352.523	-48.311	0.190	-0.090
-351.508	179.739	-0.163	0.235
-350.493	118.165	0.312	-0.379
-349.479	-93.038	-0.470	0.129
-348.464	83.906	0.021	0.023
-347.450	-38.559	-0.102	0.053
-346.435	-200.000	0.012	-0.173
-345.420	500.338	-0.151	0.342
-344.406	-57.202	-0.099	0.043
-343.391	800.000	0.074	0.305
-342.377	-130.842	0.219	-0.029
-341.362	584.227	0.069	0.166
-340.348	800.000	0.033	0.129
-339.333	203.970	0.020	0.030
-338.318	81.601	-0.145	0.154
-337.304	7.147	-0.104	0.076
-336.289	81.584	-0.052	-0.056
-335.275	162.667	0.179	-0.247
-334.260	159.867	-0.052	-0.071
-333.245	239.001	0.163	-0.267
-332.231	-178.003	0.263	0.006
-331.216	550.489	-0.128	-0.302
-330.202	92.683	0.100	0.111
-329.187	800.000	-0.022	0.063
-328.172	-5.951	0.079	-0.053
-327.158	134.949	-0.074	0.094
-326.143	-56.341	0.094	0.041
-325.129	560.374	0.059	-0.141
-324.114	180.438	-0.096	0.138
-323.099	-183.508	-0.343	0.006
-322.085	-27.316	0.210	0.120
-321.070	319.741	0.096	0.178
-320.056	63.364	-0.047	-0.046
-319.041	-71.032	0.266	-0.098
-318.026	-200.000	-0.011	-0.205
-317.012	352.430	-0.005	-0.009
-315.997	139.604	0.050	0.065
-314.983	-46.012	0.153	0.074
-313.968	-52.684	-0.187	0.085
-312.953	-89.006	-0.343	-0.100
-311.939	-33.764	-0.166	0.090
-310.924	-15.709	0.157	-0.098
-309.910	219.935	0.072	-0.113
-308.895	-200.000	0.007	0.150
-307.880	-187.047	0.281	-0.004
-306.866	426.761	0.029	0.061
-305.851	84.928	0.126	-0.136
-304.837	53.379	-0.041	0.038
-303.822	48.666	-0.278	0.256
-302.807	-80.490	-0.450	0.147
-301.793	-200.000	0.078	-0.436
-300.778	390.346	-0.040	0.081
-299.764	-27.805	0.309	0.176
-298.749	-200.000	0.019	-0.183
-297.735	-200.000	0.036	0.248
-296.720	91.337	-0.077	0.085
-295.705	-103.830	0.263	0.060
-294.691	-124.554	0.237	0.036
-293.676	113.944	-0.244	-0.291
-292.662	299.049	0.058	0.105
-291.647	14.290	-0.268	-0.205
-290.632	-138.959	0.064	0.007
-289.618	-62.480	-0.139	0.057
-288.603	-8.822	-0.165	-0.108
-287.589	105.490	0.214	-0.248
-286.574	-200.000	0.047	0.213
-285.559	65.709	0.335	-0.333
-284.545	32.289	0.052	0.044
-283.530	-200.000	0.010	0.214
-282.516	-79.791	0.183	-0.060
-281.501	-173.871	0.218	-0.006
-280.486	-200.000	0.019	0.184
-279.472	-94.137	0.241	0.065
-278.457	50.404	0.059	-0.055
-277.443	-144.141	-0.291	-0.027
-276.428	800.000	0.066	0.180
-275.413	368.826	0.095	0.189
-274.399	-52.463	0.239	-0.108
-273.384	662.038	-0.101	0.255
-272.370	131.015	-0.116	0.146
-271.355	-126.166	-0.336	0.049
-270.340	800.000	0.023	-0.063
-269.326	560.064	-0.072	-0.171
-268.311	737.180	-0.074	0.195
-267.297	-60.568	-0.343	0.143
-266.282	-200.000	0.015	0.152
-265.267	800.000	0.077	0.212
-264.253	38.425	0.253	-0.221
-263.238	-200.000	-0.039	-0.292
-262.224	46.330	-0.221	-0.200
-261.209	-20.776	0.099	-0.060
-260.195	800.000	-0.044	0.167
-259.180	-200.000	-0.001	-0.055
-258.165	800.000	-0.082	-0.234
-257.151	800.000	-0.041	-0.130
-256.136	2.463	-0.179	0.127
-255.122	84.855	0.313	0.336
-254.107	-154.129	-0.309	0.021
-253.092	328.131	0.169	0.318
-252.078	-200.000	0.055	-0.310
-251.063	-96.649	0.057	-0.015
-250.049	-200.000	0.035	-0.277
-249.034	-200.000	-0.047	0.261
-248.019	-76.464	0.342	-0.118
-247.005	-44.362	-0.088	-0.043
-245.990	-200.000	0.020	0.187
-244.976	104.484	0.120	0.138
-243.961	800.000	0.073	0.282
-242.946	-161.059	0.300	-0.015
-241.932	423.411	0.043	-0.090
-240.917	800.000	-0.021	0.079
-239.903	-55.669	0.250	-0.110
-238.888	-70.541	0.171	-0.063
-237.873	-25.078	0.163	-0.095
-236.859	-25.059	0.137	0.080
-235.844	-108.134	0.331	-0.070
-234.830	158.087	0.152	0.207
-233.815	-107.706	-0.159	-0.034
-232.800	349.384	0.092	-0.177
-231.786	125.011	-0.122	-0.150
-230.771	137.899	-0.194	0.249
-229.757	277.222	0.123	0.214
-228.742	-79.356	-0.154	0.051
-227.727	30.466	-0.157	0.131
-226.713	800.000	-0.063	-0.230
-225.698	-5.494	0.117	0.079
-224.684	139.545	-0.160	-0.206
-223.669	12.775	0.077	-0.058
-222.655	-62.192	-0.277	0.113
-221.640	-112.842	0.089	0.017
-220.625	64.832	-0.093	-0.092
-219.611	0.549	0.373	-0.261
-218.596	-79.171	-0.143	-0.048
-217.582	800.000	-0.023	-0.079
-216.567	-200.000	0.001	-0.047
-215.552	800.000	-0.062	-0.262
-214.538	256.827	0.170	0.285
-213.523	1.990	-0.228	-0.161
-212.509	800.000	0.071	0.245
-211.494	-9.735	-0.033	-0.022
-210.479	800.000	0.024	-0.084
-209.465	-160.884	0.124	0.006
-208.450	-200.000	0.016	0.297
-207.436	133.520	0.157	0.198
-206.421	-200.000	-0.074	0.317
-205.406	800.000	0.056	-0.178
-204.392	-4.879	-0.240	0.162
-203.377	-200.000	0.027	-0.177
-202.363	800.000	0.058	-0.197
-201.348	-97.498	0.155	-0.039
-200.333	463.321	0.183	0.401
-199.319	-169.424	0.053	-0.002
-198.304	-187.843	-0.203	0.003
-197.290	424.680	-0.064	0.134
-196.275	-166.404	0.071	-0.003
-195.260	-149.355	-0.231	-0.018
-194.246	341.933	0.041	-0.078
-193.231	287.407	0.142	0.251
-192.217	-68.797	0.359	0.136
-191.202	-38.712	-0.011	-0.006
-190.187	-200.000	-0.003	0.225
-189.173	-34.100	0.349	0.188
-188.158	325.533	-0.075	0.141
-187.144	800.000	0.026	0.076
-186.129	-200.000	0.020	0.091
-185.114	324.825	-0.075	-0.140
-184.100	71.409	-0.189	-0.192
-183.085	209.802	-0.070	-0.107
-182.071	-117.173	0.071	0.013
-181.056	41.741	0.061	-0.054
-180.042	-117.464	-0.121	-0.021
-179.027	-11.245	-0.197	0.127
-178.012	76.680	0.129	0.133
-176.998	-200.000	-0.007	-0.155
-175.983	181.584	-0.196	-0.281
-174.969	-33.761	0.343	0.185
-173.954	-200.000	0.042	-0.184
-172.939	-43.836	-0.123	-0.060
-171.925	202.277	-0.098	-0.148
-170.910	539.673	-0.092	-0.213
-169.896	-200.000	0.035	-0.260
-168.881	-200.000	-0.024	-0.372
-167.866	-136.871	0.404	0.045
-166.852	28.867	-0.047	0.039
-165.837	800.000	0.052	-0.201
-164.823	100.536	-0.210	-0.238
-163.808	695.276	0.013	0.032
-162.793	-200.000	0.040	0.240
-161.779	543.138	-0.067	0.156
-160.764	321.909	0.148	-0.274
-159.750	-200.000	-0.003	-0.252
-158.735	5.275	0.090	0.065
-157.720	-15.596	-0.088	-0.055
-156.706	588.036	-0.036	0.087
-155.691	-200.000	-0.003	-0.020
-154.677	-200.000	0.004	0.038
-153.662	800.000	-0.130	0.425
-152.647	119.013	-0.165	0.199
-151.633	-200.000	-0.040	0.193
-150.618	-56.619	-0.122	-0.053
-149.604	-112.472	-0.387	0.075
-148.589	-33.177	0.160	-0.086
-147.574	800.000	0.048	0.172
-146.560	-200.000	-0.002	0.089
-145.545	285.923	-0.066	-0.115
-144.531	228.594	-0.074	0.117
-143.516	-97.073	0.331	-0.085
-142.502	5.062	0.214	0.154
-141.487	-200.000	0.048	0.378
-140.472	483.711	-0.212	-0.469
-139.458	-200.000	-0.004	-0.104
-138.443	-107.796	0.283	0.060
-137.429	-200.000	-0.019	0.113
-136.414	737.909	0.146	0.381
-135.399	-200.000	-0.041	0.301
-134.385	-121.735	0.166	-0.027
-133.370	-78.060	0.262	0.088
-132.356	-65.950	0.333	0.130
-131.341	-134.957	0.123	-0.014
-130.326	432.927	-0.085	0.180
-129.312	-200.000	-0.022	0.163
-128.297	124.557	0.267	0.328
-127.283	-37.628	0.132	0.069
-126.268	-200.000	0.014	0.241
-125.253	-53.921	-0.185	-0.082
-124.239	92.358	0.058	0.063
-123.224	-112.909	0.321	0.062
-122.210	-200.000	0.009	0.252
-121.195	13.726	-0.114	0.087
