DTS Sentinel unit serial number:	SN413079Multiplexer serial number:	ORYXHardware model number:	OX4-SRSoftware version number:	ORYX F/W v4.00 Oryx Data Collector v3.7.2.0data status	okinstallation	princeton_trtdifferential loss correction	single-endedforward channel	channel 3reverse channel	N/Adate	2019/09/12time	09:34:10forward acquisition time	60.00reverse acquisition time	0.00gamma	496.2192k internal	0.2300k external	0.2300temperature offset calibration	1.0032default loss term (dB/km)	0.3790temperature slope calibration	1.0000multiplexer offset coefficient	1.0000multiplexer slope coefficient	1.0000fibre end	0.00T internal ref (°C)	35.61T ext. ref 1 (°C)	1.82T ext. ref 2 (°C)	32.71length (m)	temperature (°C)	Stokes	anti-Stokes-747.200	-200.000	-0.022	-0.164
-746.185	51.755	-0.244	0.237
-745.171	-24.899	-0.205	-0.124
-744.156	202.685	-0.143	0.225
-743.142	-200.000	0.119	0.555
-742.127	42.165	-0.144	0.133
-741.112	146.198	0.093	0.127
-740.098	800.000	0.071	0.253
-739.083	-200.000	0.026	-0.175
-738.069	396.630	0.096	0.205
-737.054	-200.000	-0.039	-0.252
-736.039	-27.432	-0.381	-0.226
-735.025	58.108	-0.145	-0.145
-734.010	-23.138	-0.130	0.080
-732.996	-55.457	-0.127	0.058
-731.981	236.928	-0.123	0.207
-730.966	496.923	0.083	-0.195
-729.952	-153.597	-0.341	-0.024
-728.937	-200.000	-0.002	-0.094
-727.923	297.726	-0.071	-0.133
-726.908	-83.352	0.119	-0.039
-725.894	31.239	0.098	0.086
-724.879	-124.661	-0.084	0.013
-723.864	-85.156	-0.228	0.073
-722.850	66.040	-0.154	0.159
-721.835	8.453	0.341	-0.262
-720.821	-162.882	-0.118	-0.006
-719.806	-133.629	-0.359	-0.046
-718.791	11.052	-0.282	-0.220
-717.777	-71.993	-0.110	0.042
-716.762	-2.500	-0.274	-0.195
-715.748	-200.000	0.042	0.458
-714.733	800.000	0.076	0.322
-713.718	-5.485	0.318	0.222
-712.704	-32.891	-0.127	-0.072
-711.689	-9.340	0.227	-0.154
-710.675	-45.228	-0.139	-0.070
-709.660	-60.916	-0.177	-0.076
-708.645	-200.000	0.018	-0.302
-707.631	-200.000	-0.023	-0.168
-706.616	-38.119	-0.128	0.069
-705.602	-19.032	-0.122	0.077
-704.587	-121.964	-0.103	-0.017
-703.572	800.000	0.032	-0.106
-702.558	799.719	0.026	0.072
-701.543	-29.111	0.302	0.176
-700.529	-145.923	0.137	0.012
-699.514	109.482	-0.057	-0.070
-698.499	800.000	0.042	0.122
-697.485	-19.560	0.270	-0.170
-696.470	-91.816	-0.501	0.145
-695.456	37.955	-0.146	-0.132
-694.441	33.679	-0.244	-0.216
-693.426	800.000	0.028	-0.090
-692.412	-37.670	-0.232	-0.126
-691.397	194.005	0.235	-0.362
-690.383	-200.000	-0.079	0.389
-689.368	451.097	-0.065	0.146
-688.354	800.000	0.027	0.100
-687.339	521.255	-0.121	0.290
-686.324	-104.444	-0.453	-0.107
-685.310	-200.000	-0.042	-0.273
-684.295	-7.912	0.181	-0.124
-683.281	-200.000	-0.032	0.375
-682.266	78.411	0.073	-0.080
-681.251	221.111	0.119	0.194
-680.237	-78.047	-0.370	-0.130
-679.222	-14.869	-0.346	-0.226
-678.208	-14.530	-0.124	-0.081
-677.193	-143.565	-0.070	-0.007
-676.178	382.259	-0.143	-0.299
-675.164	294.637	-0.091	-0.170
-674.149	799.396	-0.063	-0.176
-673.135	260.040	0.086	0.151
-672.120	114.656	-0.114	-0.142
-671.105	77.664	0.080	-0.086
-670.091	-65.131	-0.189	-0.077
-669.076	0.124	-0.266	0.193
-668.062	-10.331	0.050	0.034
-667.047	405.772	0.087	-0.187
-666.032	-112.843	-0.177	0.036
-665.018	406.467	0.038	-0.082
-664.003	-86.932	0.313	0.097
-662.989	12.910	-0.210	-0.165
-661.974	-125.775	-0.206	0.032
-660.959	683.812	0.059	-0.158
-659.945	-56.563	-0.297	0.134
-658.930	-200.000	0.004	0.112
-657.916	-44.835	-0.111	-0.056
-656.901	121.592	-0.104	0.131
-655.886	-13.266	-0.146	0.097
-654.872	170.138	0.191	0.278
-653.857	-200.000	-0.009	0.329
-652.843	-69.302	-0.023	-0.009
-651.828	-87.528	-0.461	-0.142
-650.814	-47.411	-0.172	0.085
-649.799	53.080	0.164	-0.160
-648.784	-26.678	0.097	-0.058
-647.770	632.542	0.107	0.275
-646.755	-11.892	-0.107	-0.071
-645.741	-30.954	0.095	-0.054
-644.726	-117.976	0.218	-0.040
-643.711	300.886	0.088	0.166
-642.697	-66.884	0.302	-0.121
-641.682	800.000	0.076	0.220
-640.668	538.553	-0.047	-0.115
-639.653	3.942	0.182	0.135
-638.638	86.370	-0.046	0.052
-637.624	-126.473	0.186	-0.028
-636.609	-116.738	-0.080	0.015
-635.595	183.399	-0.195	-0.292
-634.580	129.342	-0.156	-0.202
-633.565	362.184	0.062	0.126
-632.551	85.039	-0.157	-0.174
-631.536	800.000	-0.119	-0.372
-630.522	-60.600	0.099	0.043
-629.507	-93.755	-0.528	-0.148
-628.492	10.538	-0.017	-0.013
-627.478	-23.835	0.114	-0.069
-626.463	-140.048	-0.081	-0.009
-625.449	79.911	0.043	0.047
-624.434	593.240	0.105	0.264
-623.419	800.000	0.054	0.209
-622.405	84.040	0.163	0.180
-621.390	41.443	-0.094	0.087
-620.376	800.000	-0.082	-0.315
-619.361	-108.013	-0.150	0.033
-618.346	-18.232	-0.263	0.167
-617.332	481.841	0.117	0.269
-616.317	-76.384	-0.271	-0.097
-615.303	-4.811	0.102	0.071
-614.288	261.918	0.014	-0.024
-613.273	-4.735	0.048	-0.033
-612.259	-133.542	-0.445	-0.057
-611.244	-113.655	0.156	0.031
-610.230	162.322	-0.145	-0.206
-609.215	69.877	0.025	-0.026
-608.201	-200.000	-0.066	0.306
-607.186	-200.000	0.004	-0.272
-606.171	-74.331	-0.250	-0.092
-605.157	190.467	0.059	-0.090
-604.142	-70.302	-0.072	0.028
-603.128	-89.318	-0.337	0.101
-602.113	-80.505	-0.155	-0.052
-601.098	-200.000	-0.004	0.190
-600.084	-200.000	0.025	-0.245
-599.069	114.739	-0.177	-0.219
-598.055	65.962	0.284	-0.292
-597.040	-48.484	0.088	0.043
-596.025	-46.210	0.121	-0.060
-595.011	-121.045	-0.082	-0.014
-593.996	-200.000	0.020	0.000
-592.982	242.777	0.111	0.189
-591.967	35.432	0.302	0.269
-590.952	-13.674	-0.299	-0.196
-589.938	322.076	0.059	0.114
-588.923	-44.180	-0.312	-0.159
-587.909	-137.437	-0.166	-0.019
-586.894	-200.000	0.006	0.171
-585.879	-200.000	-0.023	0.104
-584.865	-200.000	0.060	-0.336
-583.850	58.165	0.082	0.081
-582.836	-34.537	-0.145	0.081
-581.821	-109.773	-0.359	0.077
-580.806	-100.197	-0.280	0.071
-579.792	646.541	0.030	-0.078
-578.777	-30.189	0.147	-0.084
-577.763	-200.000	-0.003	-0.315
-576.748	-48.109	-0.104	-0.051
-575.733	-13.097	0.197	-0.130
-574.719	51.640	0.244	-0.235
-573.704	-76.993	-0.289	-0.102
-572.690	-200.000	-0.012	0.057
-571.675	-41.452	0.335	0.174
-570.661	51.807	0.145	-0.140
-569.646	-95.660	-0.497	0.135
-568.631	-63.159	0.281	-0.118
-567.617	-108.624	-0.285	-0.062
-566.602	-156.241	-0.255	0.016
-565.588	29.728	-0.335	-0.289
-564.573	31.018	-0.148	-0.128
-563.558	452.442	-0.149	-0.334
-562.544	-200.000	-0.009	-0.044
-561.529	245.315	0.185	0.316
-560.515	-200.000	-0.056	-0.248
-559.500	134.985	0.157	-0.207
-558.485	-200.000	-0.009	0.099
-557.471	-200.000	0.065	-0.394
-556.456	-74.540	0.089	0.032
-555.442	-165.491	-0.219	0.010
-554.427	19.478	-0.234	0.191
-553.412	-35.871	-0.134	0.073
-552.398	215.134	-0.059	-0.094
-551.383	-200.000	0.020	-0.177
-550.369	-200.000	0.007	-0.499
-549.354	-77.407	-0.444	-0.156
-548.339	402.732	-0.098	-0.208
-547.325	-110.217	-0.196	0.041
-546.310	-135.506	0.393	0.047
-545.296	-170.157	0.309	-0.011
-544.281	652.106	0.075	0.195
-543.266	-45.496	-0.187	-0.094
-542.252	40.940	0.260	-0.238
-541.237	-90.586	0.520	-0.152
-540.223	695.216	-0.041	0.110
-539.208	-56.763	-0.129	0.058
-538.193	-113.576	0.326	0.064
-537.179	-78.576	0.455	0.157
-536.164	-200.000	0.035	0.354
-535.150	27.191	-0.254	-0.216
-534.135	-200.000	0.035	0.216
-533.121	-66.576	-0.258	0.103
-532.106	-57.786	-0.111	-0.049
-531.091	767.998	0.088	-0.242
-530.077	-200.000	0.034	-0.225
-529.062	800.000	0.075	0.247
-528.048	16.171	0.327	0.261
-527.033	-120.116	0.114	0.020
-526.018	-80.670	0.039	0.013
-525.004	-25.736	-0.274	-0.163
-523.989	-36.503	0.112	0.061
-522.975	800.000	0.064	-0.231
-521.960	418.172	0.162	0.351
-520.945	31.973	0.123	0.107
-519.931	69.110	-0.136	0.142
-518.916	81.548	0.113	0.124
-517.902	-92.980	-0.020	0.006
-516.887	194.390	0.114	-0.175
-515.872	800.000	0.024	-0.083
-514.858	618.448	0.044	-0.112
-513.843	-2.118	0.110	0.078
-512.829	-83.016	-0.124	0.040
-511.814	-200.000	0.020	-0.157
-510.799	-86.941	0.177	-0.055
-509.785	-46.508	-0.337	-0.167
-508.770	118.880	-0.304	-0.380
-507.756	103.427	-0.146	-0.173
-506.741	445.956	0.116	0.257
-505.726	-84.498	-0.188	-0.060
-504.712	-200.000	-0.049	-0.275
-503.697	-200.000	0.029	0.189
-502.683	-51.508	0.562	0.265
-501.668	-48.838	-0.121	0.059
-500.653	29.008	-0.196	-0.168
-499.639	108.719	-0.079	-0.096
-498.624	-125.974	-0.279	-0.042
-497.610	800.000	0.021	0.068
-496.595	-200.000	-0.005	0.080
-495.581	162.514	0.082	0.117
-494.566	-0.122	-0.227	-0.164
-493.551	-119.341	-0.111	-0.019
-492.537	-53.410	-0.068	0.031
-491.522	61.180	0.201	0.201
-490.508	120.092	-0.220	0.276
-489.493	-192.095	0.097	-0.001
-488.478	-49.752	0.162	-0.078
-487.464	33.828	-0.108	-0.095
-486.449	38.623	0.146	0.132
-485.435	800.000	0.013	-0.049
-484.420	-200.000	0.006	0.341
-483.405	503.355	-0.053	-0.124
-482.391	-162.308	-0.281	0.014
-481.376	61.392	-0.129	0.130
-480.362	800.000	0.050	-0.166
-479.347	-96.424	-0.088	0.024
-478.332	-37.081	-0.181	0.098
-477.318	12.633	0.242	0.189
-476.303	-142.123	0.344	-0.035
-475.289	-200.000	-0.010	-0.078
-474.274	75.788	-0.161	0.172
-473.259	-155.623	0.255	0.017
-472.245	-200.000	-0.065	-0.637
-471.230	-200.000	0.023	-0.147
-470.216	51.122	0.131	0.125
-469.201	-70.640	0.169	-0.065
-468.186	113.529	-0.316	0.387
-467.172	-48.678	-0.146	0.071
-466.157	84.512	0.084	-0.092
-465.143	217.830	0.117	0.188
-464.128	-30.733	-0.149	0.085
-463.113	-68.684	0.131	0.051
-462.099	225.599	0.145	-0.238
-461.084	-200.000	-0.028	-0.124
-460.070	21.359	-0.108	0.089
-459.055	54.842	-0.089	0.086
-458.040	800.000	0.024	-0.105
-457.026	432.352	0.138	0.303
-456.011	29.276	-0.088	-0.075
-454.997	-200.000	0.029	-0.204
-453.982	293.944	0.074	-0.135
-452.968	-200.000	-0.024	-0.186
-451.953	-54.501	-0.180	0.082
-450.938	-200.000	-0.028	0.179
-449.924	800.000	-0.022	-0.073
-448.909	78.900	-0.135	0.146
-447.895	-120.398	0.242	0.042
-446.880	98.373	-0.023	0.027
-445.865	-69.745	0.299	0.115
-444.851	800.000	0.061	-0.193
-443.836	63.380	-0.384	0.388
-442.822	44.901	0.168	0.156
-441.807	174.621	-0.062	0.091
-440.792	19.114	-0.534	0.431
-439.778	132.587	0.086	-0.112
-438.763	131.965	0.135	0.175
-437.749	373.607	-0.034	0.069
-436.734	800.000	0.051	-0.188
-435.719	-200.000	0.019	0.217
-434.705	-112.432	-0.281	-0.057
-433.690	200.050	0.084	0.130
-432.676	-124.484	-0.292	0.046
-431.661	-54.012	0.187	0.086
-430.646	93.127	-0.084	0.096
-429.632	23.244	0.026	-0.022
-428.617	800.000	0.024	-0.074
-427.603	-166.520	0.340	0.014
-426.588	42.187	0.211	-0.193
-425.573	-45.423	-0.042	0.021
-424.559	327.800	-0.111	0.215
-423.544	-200.000	-0.004	-0.126
-422.530	-90.981	0.129	0.037
-421.515	-32.262	-0.364	-0.205
-420.500	6.977	0.069	0.052
-419.486	-51.162	0.105	-0.049
-418.471	188.615	0.123	0.185
-417.457	384.986	-0.125	-0.259
-416.442	261.095	0.026	-0.046
-415.428	-110.173	-0.170	-0.036
-414.413	-200.000	0.011	-0.371
-413.398	-200.000	0.027	-0.198
-412.384	-13.312	-0.175	-0.114
-411.369	-87.794	0.129	0.039
-410.355	-4.964	-0.361	0.250
-409.340	-165.979	-0.042	0.002
-408.325	41.858	0.141	-0.129
-407.311	226.552	0.108	0.176
-406.296	-131.007	-0.125	-0.017
-405.282	-147.484	-0.149	-0.013
-404.267	6.024	0.108	0.081
-403.252	800.000	0.011	0.032
-402.238	800.000	0.057	-0.200
-401.223	577.362	-0.095	0.235
-400.209	-200.000	0.020	0.110
-399.194	21.889	0.335	-0.275
-398.179	1.382	0.283	0.205
-397.165	-109.321	-0.169	0.036
-396.150	800.000	0.073	-0.217
-395.136	-132.776	-0.207	-0.027
-394.121	-200.000	-0.031	-0.254
-393.106	-200.000	-0.006	-0.328
-392.092	-57.378	-0.204	-0.090
-391.077	86.292	-0.082	-0.091
-390.063	-78.664	-0.055	-0.019
-389.048	-48.745	-0.145	-0.070
-388.033	-200.000	-0.023	-0.260
-387.019	407.275	0.027	-0.057
-386.004	-37.432	-0.193	-0.104
-384.990	189.662	0.157	0.237
-383.975	800.000	-0.142	0.560
-382.960	140.807	0.200	-0.266
-381.946	107.692	0.100	-0.120
-380.931	-200.000	0.178	-0.000
-379.917	-16.242	0.048	0.030
-378.902	-115.459	-0.315	-0.060
-377.888	192.547	0.049	0.074
-376.873	-123.915	0.202	0.032
-375.858	226.667	-0.062	-0.102
-374.844	-69.437	0.376	-0.145
-373.829	121.354	-0.156	-0.195
-372.815	168.901	0.275	0.394
-371.800	65.642	0.379	0.385
-370.785	-200.000	-0.058	0.339
-369.771	186.949	-0.109	0.163
-368.756	-161.854	0.575	-0.029
-367.742	40.960	0.317	-0.287
-366.727	-100.628	0.037	0.009
-365.712	660.257	0.179	-0.463
-364.698	-159.988	0.248	-0.014
-363.683	800.000	-0.025	-0.085
-362.669	59.084	-0.187	-0.185
-361.654	-72.338	-0.224	0.083
-360.639	-95.575	0.075	-0.020
-359.625	-178.425	0.237	-0.006
-358.610	416.289	0.107	0.229
-357.596	-41.258	0.054	-0.028
-356.581	52.814	0.145	0.140
-355.566	800.000	0.034	0.122
-354.552	-200.000	0.009	-0.052
-353.537	234.671	0.037	0.061
-352.523	-139.785	0.275	-0.029
-351.508	15.802	-0.272	-0.215
-350.493	533.189	-0.079	0.187
-349.479	-200.000	-0.022	-0.292
-348.464	30.823	-0.126	-0.109
-347.450	-119.400	-0.282	0.049
-346.435	313.296	0.047	-0.088
-345.420	-41.701	-0.018	0.009
-344.406	-95.635	-0.251	0.068
-343.391	-200.000	-0.002	0.411
-342.377	17.563	0.188	-0.150
-341.362	138.891	-0.074	-0.097
-340.348	800.000	0.034	-0.134
-339.333	-85.388	0.181	-0.057
-338.318	800.000	0.058	-0.247
-337.304	-22.293	-0.129	0.079
-336.289	800.000	-0.022	0.062
-335.275	-116.652	-0.297	0.055
-334.260	469.170	0.073	0.163
-333.245	-130.593	-0.201	-0.027
-332.231	-106.961	-0.354	-0.079
-331.216	-26.849	0.355	0.208
-330.202	-2.880	-0.228	0.160
-329.187	-121.624	0.096	-0.016
-328.172	-200.000	0.020	-0.162
-327.158	10.205	0.105	0.080
-326.143	-200.000	-0.025	0.242
-325.129	-200.000	0.024	0.192
-324.114	-200.000	0.032	0.166
-323.099	-91.550	0.344	-0.098
-322.085	427.333	-0.132	-0.286
-321.070	-96.877	0.042	0.011
-320.056	800.000	-0.084	0.291
-319.041	416.518	0.115	0.246
-318.026	800.000	-0.093	0.283
-317.012	-200.000	-0.002	-0.030
-315.997	-113.091	0.066	-0.013
-314.983	-200.000	0.013	-0.150
-313.968	-200.000	0.050	-0.338
-312.953	-96.190	-0.368	-0.098
-311.939	31.430	-0.211	0.182
-310.924	-28.304	0.250	0.145
-309.910	-90.578	-0.044	-0.013
-308.895	96.537	-0.229	-0.262
-307.880	-34.316	-0.201	0.110
-306.866	6.580	-0.161	-0.120
-305.851	-113.853	-0.349	0.068
-304.837	-106.283	0.271	0.061
-303.822	-115.223	0.123	0.023
-302.807	456.388	-0.248	-0.552
-301.793	18.663	0.326	-0.262
-300.778	-38.324	0.454	0.241
-299.764	-166.850	-0.184	0.008
-298.749	16.077	0.171	0.135
-297.735	791.460	0.078	0.214
-296.720	-12.965	0.163	-0.106
-295.705	-45.100	0.257	0.128
-294.691	339.303	-0.046	-0.090
-293.676	47.645	-0.072	0.067
-292.662	-200.000	0.070	-0.317
-291.647	58.952	-0.148	0.146
-290.632	466.813	0.085	0.191
-289.618	263.545	-0.199	0.347
-288.603	139.014	-0.110	0.144
-287.589	-143.560	0.418	-0.040
-286.574	-200.000	-0.003	-0.132
-285.559	-200.000	-0.002	0.179
-284.545	156.155	-0.142	-0.196
-283.530	93.375	-0.046	-0.053
-282.516	800.000	-0.102	0.284
-281.501	86.554	-0.114	0.126
-280.486	-200.000	-0.017	-0.134
-279.472	-200.000	-0.030	-0.151
-278.457	-72.305	-0.285	0.106
-277.443	-200.000	-0.014	-0.092
-276.428	-170.600	-0.105	0.004
-275.413	-1.298	-0.094	-0.067
-274.399	-39.812	-0.067	0.035
-273.384	-80.160	0.217	-0.073
-272.370	-53.773	-0.031	-0.014
-271.355	702.220	0.057	-0.151
-270.340	104.578	-0.046	-0.054
-269.326	-200.000	0.004	-0.020
-268.311	-50.906	-0.491	0.231
-267.297	33.233	0.146	0.127
-266.282	-113.776	-0.086	-0.017
-265.267	-48.478	-0.218	-0.105
-264.253	-148.705	0.405	-0.033
-263.238	-156.330	0.403	0.025
-262.224	-118.444	-0.159	0.028
-261.209	-29.050	0.072	0.042
-260.195	98.562	-0.175	0.202
-259.180	-200.000	0.016	0.162
-258.165	-200.000	-0.063	0.325
-257.151	60.256	-0.178	-0.176
-256.136	240.022	-0.048	0.080
-255.122	-200.000	-0.011	0.083
-254.107	130.624	0.152	0.195
-253.092	-200.000	0.003	0.020
-252.078	-56.782	-0.332	-0.147
-251.063	133.891	0.082	0.107
-250.049	-200.000	-0.007	-0.036
-249.034	-86.607	0.216	-0.066
-248.019	655.370	-0.112	0.289
-247.005	-167.542	-0.173	-0.007
-245.990	241.510	-0.071	0.119
-244.976	-23.940	0.250	-0.149
-243.961	-134.244	-0.094	-0.012
-242.946	14.154	0.164	0.128
-241.932	5.350	0.096	0.071
-240.917	120.074	-0.129	-0.160
-239.903	-180.474	-0.169	0.004
-238.888	24.650	0.356	0.294
-237.873	-2.365	0.211	-0.148
-236.859	42.960	0.273	0.249
-235.844	565.097	-0.161	-0.391
-234.830	21.319	-0.127	-0.103
-233.815	58.879	0.068	0.067
-232.800	701.495	-0.103	0.271
-231.786	155.808	-0.075	-0.103
-230.771	117.878	-0.199	0.245
-229.757	-86.851	0.362	0.111
-228.742	-97.813	-0.259	-0.067
-227.727	155.144	0.045	0.062
-226.713	-64.726	0.258	-0.105
-225.698	-67.917	0.174	-0.068
-224.684	113.938	-0.332	0.403
-223.669	191.712	-0.168	-0.253
-222.655	-70.243	-0.101	0.038
-221.640	-117.825	-0.140	0.025
-220.625	120.192	0.113	-0.141
-219.611	51.486	-0.159	-0.151
-218.596	-200.000	0.035	-0.201
-217.582	-43.622	0.262	0.132
-216.567	-83.882	0.293	0.093
-215.552	-108.204	-0.083	-0.018
-214.538	-200.000	0.000	0.427
-213.523	-16.541	0.374	-0.237
-212.509	78.557	-0.126	0.134
-211.494	702.206	-0.084	0.222
-210.479	14.422	-0.236	-0.184
-209.465	-109.158	0.240	0.051
-208.450	-78.762	0.007	-0.002
-207.436	109.707	0.145	-0.174
-206.421	-63.970	0.372	-0.152
-205.406	-164.394	-0.342	-0.016
-204.392	-100.808	0.184	0.045
-203.377	-122.020	0.395	-0.065
-202.363	31.433	0.283	0.243
-201.348	-200.000	0.022	-0.146
-200.333	-56.639	0.319	0.141
-199.319	-200.000	0.031	0.244
-198.304	-143.173	-0.207	0.020
-197.290	-51.837	0.126	-0.058
-196.275	-43.588	-0.339	0.171
-195.260	26.690	-0.025	-0.021
-194.246	-42.758	0.123	0.062
-193.231	-7.421	-0.150	0.102
-192.217	679.277	-0.151	0.391
-191.202	-5.152	-0.117	-0.080
-190.187	20.481	0.069	0.056
-189.173	-200.000	0.012	0.113
-188.158	-31.759	-0.203	-0.114
-187.144	229.025	0.151	0.245
-186.129	-86.501	0.042	-0.013
-185.114	-58.115	-0.203	0.088
-184.100	-79.433	0.118	0.040
-183.085	169.310	0.092	0.131
-182.071	182.242	-0.046	0.067
-181.056	-35.006	0.100	0.055
-180.042	800.000	-0.131	0.366
-179.027	108.811	-0.171	-0.204
-178.012	4.102	-0.195	0.143
-176.998	-200.000	-0.008	-0.095
-175.983	-112.329	0.197	0.039
-174.969	15.352	0.050	-0.039
-173.954	-200.000	-0.084	0.487
-172.939	332.253	-0.120	0.231
-171.925	-51.197	0.140	-0.065
-170.910	-200.000	0.043	-0.199
-169.896	-200.000	0.029	-0.219
-168.881	-123.989	0.125	-0.020
-167.866	216.151	0.117	-0.186
-166.852	297.302	0.050	-0.092
-165.837	-106.943	0.352	-0.078
-164.823	-112.945	0.058	0.012
-163.808	-200.000	-0.046	-0.339
-162.793	231.939	-0.177	0.290
-161.779	-98.696	-0.442	-0.112
-160.764	800.000	0.031	0.132
-159.750	-92.476	0.278	-0.078
-158.735	373.178	0.096	-0.194
-157.720	800.000	0.051	0.220
-156.706	-29.638	0.154	0.088
-155.691	800.000	-0.091	-0.365
-154.677	304.400	0.094	-0.174
-153.662	81.663	0.287	-0.309
-152.647	800.000	-0.093	-0.278
-151.633	287.677	0.034	-0.061
-150.618	60.441	0.233	-0.229
-149.604	-58.625	-0.336	-0.145
-148.589	75.800	0.237	-0.249
-147.574	800.000	-0.031	-0.099
-146.560	-81.229	-0.084	-0.028
-145.545	-189.078	0.339	0.004
-144.531	-200.000	0.005	0.047
-143.516	243.043	-0.141	0.235
-142.502	-200.000	0.018	0.295
-141.487	-200.000	-0.017	0.303
-140.472	800.000	-0.072	-0.305
-139.458	-49.124	-0.139	0.066
-138.443	746.539	0.068	0.182
-137.429	54.962	0.091	-0.087
-136.414	-200.000	0.016	-0.134
-135.399	101.343	0.100	0.116
-134.385	-34.592	0.149	0.081
-133.370	-200.000	-0.036	0.274
-132.356	-74.569	-0.248	0.089
-131.341	-200.000	-0.011	-0.088
-130.326	-133.389	-0.118	0.015
-129.312	-200.000	0.009	0.140
-128.297	-83.907	0.155	-0.049
-127.283	5.801	0.184	0.135
-126.268	215.928	-0.130	-0.206
-125.253	648.857	-0.105	-0.267
-124.239	235.320	0.133	-0.218
-123.224	147.982	0.063	-0.085
-122.210	-12.084	-0.157	0.102
-121.195	800.000	-0.026	0.102
