DTS Sentinel unit serial number:	SN413079Multiplexer serial number:	ORYXHardware model number:	OX4-SRSoftware version number:	ORYX F/W v4.00 Oryx Data Collector v3.7.2.0data status	okinstallation	princeton_trtdifferential loss correction	single-endedforward channel	channel 3reverse channel	N/Adate	2019/09/17time	13:12:35forward acquisition time	60.00reverse acquisition time	0.00gamma	496.2192k internal	0.2311k external	0.2311temperature offset calibration	0.9957default loss term (dB/km)	0.3790temperature slope calibration	1.0000multiplexer offset coefficient	1.0000multiplexer slope coefficient	1.0000fibre end	0.00T internal ref (°C)	33.89T ext. ref 1 (°C)	0.42T ext. ref 2 (°C)	31.70length (m)	temperature (°C)	Stokes	anti-Stokes-747.200	800.000	-0.087	-0.251
-746.185	-62.790	0.144	0.060
-745.171	-57.556	0.304	0.135
-744.156	-184.795	-0.245	0.004
-743.142	43.125	-0.177	-0.164
-742.127	-128.113	0.310	-0.045
-741.112	55.424	0.245	0.241
-740.098	-161.418	0.278	-0.015
-739.083	-31.680	-0.144	-0.082
-738.069	67.275	-0.166	0.171
-737.054	-139.948	-0.476	-0.051
-736.039	-200.000	0.022	0.395
-735.025	267.263	-0.242	0.430
-734.010	800.000	0.009	-0.027
-732.996	300.886	-0.138	-0.258
-731.981	46.777	-0.183	0.172
-730.966	-200.000	-0.082	0.505
-729.952	164.900	-0.192	-0.275
-728.937	-200.000	-0.036	-0.382
-727.923	285.757	-0.155	0.283
-726.908	285.477	-0.043	-0.079
-725.894	91.492	-0.097	-0.111
-724.879	152.240	-0.033	-0.046
-723.864	-163.566	0.208	-0.010
-722.850	138.277	0.116	0.154
-721.835	235.411	-0.138	-0.231
-720.821	-200.000	-0.034	0.180
-719.806	-30.636	-0.101	0.058
-718.791	116.196	-0.101	-0.125
-717.777	406.277	0.062	-0.133
-716.762	-200.000	-0.001	-0.221
-715.748	-55.562	-0.115	0.052
-714.733	800.000	0.061	-0.237
-713.718	-41.094	0.197	0.103
-712.704	415.981	-0.196	-0.425
-711.689	-182.320	-0.246	-0.005
-710.675	-200.000	-0.008	-0.186
-709.660	-200.000	0.082	-0.408
-708.645	-118.715	-0.078	0.014
-707.631	28.956	0.022	0.019
-706.616	-200.000	0.018	-0.276
-705.602	126.911	0.138	-0.177
-704.587	-66.647	-0.293	-0.118
-703.572	453.947	0.032	0.073
-702.558	332.720	-0.176	0.345
-701.543	-75.663	-0.033	0.012
-700.529	149.119	0.099	-0.135
-699.514	280.096	-0.141	0.256
-698.499	12.638	-0.229	-0.179
-697.485	763.611	-0.054	0.150
-696.470	333.624	0.063	-0.124
-695.456	77.954	0.121	-0.131
-694.441	12.305	0.144	-0.112
-693.426	-85.772	0.261	-0.082
-692.412	-200.000	-0.018	-0.124
-691.397	485.672	-0.078	0.180
-690.383	800.000	0.097	0.301
-689.368	-198.914	0.127	0.001
-688.354	-200.000	-0.016	-0.093
-687.339	-53.981	0.176	0.081
-686.324	373.918	0.089	-0.183
-685.310	-31.272	-0.198	-0.113
-684.295	5.493	-0.115	0.086
-683.281	73.171	0.138	0.147
-682.266	-117.137	-0.093	0.017
-681.251	-119.361	-0.337	-0.059
-680.237	658.075	0.094	-0.245
-679.222	64.941	0.181	-0.185
-678.208	289.557	0.128	0.234
-677.193	-200.000	0.018	-0.320
-676.178	-27.286	-0.167	0.099
-675.164	53.558	0.259	0.252
-674.149	-68.699	-0.274	-0.108
-673.135	-152.189	0.522	-0.038
-672.120	-144.735	0.411	0.038
-671.105	-134.174	-0.154	-0.019
-670.091	800.000	0.072	0.292
-669.076	-30.537	-0.106	-0.061
-668.062	-167.843	0.257	0.010
-667.047	378.331	0.046	-0.095
-666.032	-47.787	-0.311	0.153
-665.018	-91.726	0.177	0.051
-664.003	515.245	0.102	-0.240
-662.989	800.000	-0.020	-0.071
-661.974	144.503	0.048	-0.065
-660.959	463.648	-0.130	-0.294
-659.945	-85.319	0.074	0.023
-658.930	-91.603	0.094	0.027
-657.916	-35.551	0.185	-0.102
-656.901	-157.509	0.141	0.009
-655.886	800.000	-0.061	0.172
-654.872	-200.000	-0.003	0.061
-653.857	178.238	0.143	-0.211
-652.843	-117.873	-0.089	0.016
-651.828	146.255	-0.191	0.260
-650.814	155.220	0.095	0.133
-649.799	-43.972	0.096	-0.049
-648.784	800.000	0.085	-0.324
-647.770	4.358	-0.452	0.335
-646.755	305.694	0.080	0.150
-645.741	-200.000	0.009	-0.393
-644.726	-200.000	-0.014	-0.335
-643.711	-1.875	0.207	0.147
-642.697	16.003	-0.172	-0.137
-641.682	-1.208	0.158	-0.113
-640.668	-68.342	0.195	-0.077
-639.653	-122.287	-0.149	0.025
-638.638	-90.325	-0.541	-0.159
-637.624	-200.000	-0.064	0.308
-636.609	-68.482	0.285	0.112
-635.595	800.000	-0.082	0.257
-634.580	-86.137	-0.192	0.060
-633.565	28.633	0.216	0.184
-632.551	800.000	0.048	0.174
-631.536	-113.145	0.244	-0.049
-630.522	-67.254	0.086	0.034
-629.507	26.555	-0.347	0.293
-628.492	-200.000	-0.005	0.179
-627.478	-64.595	-0.214	0.088
-626.463	77.337	0.208	0.224
-625.449	80.464	0.146	-0.159
-624.434	-200.000	-0.005	0.163
-623.419	49.622	0.055	-0.053
-622.405	-130.715	0.113	0.015
-621.390	-33.816	0.247	0.137
-620.376	-25.291	0.267	-0.160
-619.361	312.366	-0.129	-0.245
-618.346	-200.000	-0.064	-0.311
-617.332	30.110	-0.318	-0.274
-616.317	119.371	-0.144	-0.181
-615.303	800.000	-0.140	-0.392
-614.288	-65.519	0.231	0.094
-613.273	-73.055	-0.106	0.039
-612.259	38.392	0.204	0.184
-611.244	157.353	-0.210	-0.294
-610.230	-7.156	0.055	-0.038
-609.215	-69.351	-0.127	0.049
-608.201	-200.000	-0.060	0.271
-607.186	-150.104	-0.267	-0.021
-606.171	-106.158	0.130	-0.029
-605.157	73.364	-0.411	0.435
-604.142	-200.000	0.080	0.379
-603.128	800.000	-0.034	-0.124
-602.113	-200.000	0.014	-0.168
-601.098	85.416	-0.299	-0.332
-600.084	-200.000	-0.008	-0.234
-599.069	461.025	0.065	-0.145
-598.055	134.385	0.258	0.338
-597.040	-105.463	0.257	0.059
-596.025	-18.991	0.229	0.144
-595.011	800.000	0.049	-0.164
-593.996	800.000	-0.135	-0.430
-592.982	326.028	0.111	0.215
-591.967	-55.736	0.044	0.020
-590.952	-200.000	-0.013	-0.090
-589.938	-200.000	-0.067	-0.396
-588.923	795.027	0.081	-0.224
-587.909	268.176	-0.094	-0.167
-586.894	-200.000	-0.001	-0.304
-585.879	-157.517	0.198	0.012
-584.865	-151.249	-0.340	0.026
-583.850	247.242	0.121	-0.206
-582.836	-156.388	-0.266	-0.017
-581.821	-131.941	0.194	-0.026
-580.806	322.745	-0.110	-0.212
-579.792	-68.250	0.260	-0.102
-578.777	238.559	0.259	0.434
-577.763	-200.000	-0.023	0.113
-576.748	-86.872	0.162	0.050
-575.733	-35.158	-0.057	-0.031
-574.719	43.442	0.178	0.164
-573.704	-200.000	-0.020	0.302
-572.690	368.899	-0.063	0.129
-571.675	-10.060	0.100	0.067
-570.661	-189.264	-0.336	-0.004
-569.646	-95.993	-0.229	-0.061
-568.631	103.217	-0.287	-0.339
-567.617	-115.132	-0.240	0.046
-566.602	64.513	-0.028	-0.029
-565.588	-99.289	-0.213	0.054
-564.573	-29.588	0.249	-0.143
-563.558	88.396	-0.150	-0.168
-562.544	294.385	-0.118	-0.218
-561.529	-33.803	0.207	-0.115
-560.515	-61.251	0.110	-0.047
-559.500	-135.257	-0.154	-0.019
-558.485	800.000	-0.031	-0.125
-557.471	-200.000	0.019	-0.134
-556.456	46.479	0.055	-0.051
-555.442	63.006	-0.227	-0.229
-554.427	-88.281	0.148	-0.044
-553.412	800.000	-0.060	0.252
-552.398	-86.791	-0.045	0.014
-551.383	-48.776	0.231	0.112
-550.369	-57.982	0.299	0.131
-549.354	-139.945	-0.106	-0.011
-548.339	-47.489	-0.164	0.081
-547.325	-100.615	-0.286	-0.071
-546.310	-200.000	0.010	-0.391
-545.296	102.449	-0.131	-0.154
-544.281	-88.289	-0.102	0.031
-543.266	669.688	0.073	0.189
-542.252	-29.731	-0.073	0.042
-541.237	800.000	0.045	-0.155
-540.223	-41.588	0.054	-0.028
-539.208	438.298	-0.007	-0.016
-538.193	-200.000	-0.005	-0.042
-537.179	-200.000	-0.031	-0.175
-536.164	579.036	0.028	0.070
-535.150	-76.197	-0.251	0.089
-534.135	-115.383	0.145	0.028
-533.121	-141.220	0.228	0.023
-532.106	684.112	0.072	-0.189
-531.091	-155.423	-0.071	-0.005
-530.077	542.704	-0.097	0.232
-529.062	-116.723	-0.132	-0.024
-528.048	800.000	0.054	-0.211
-527.033	-200.000	-0.005	-0.179
-526.018	-200.000	-0.037	-0.171
-525.004	193.628	-0.103	0.157
-523.989	-96.137	-0.156	0.042
-522.975	59.608	-0.155	0.153
-521.960	-69.190	-0.299	0.116
-520.945	-189.011	0.218	0.003
-519.931	-200.000	0.000	-0.195
-518.916	-74.230	0.132	0.048
-517.902	-200.000	-0.211	0.000
-516.887	51.531	-0.080	0.077
-515.872	-200.000	0.005	0.170
-514.858	114.836	-0.221	-0.272
-513.843	-127.655	-0.125	-0.018
-512.829	-117.337	-0.144	-0.026
-511.814	351.027	-0.125	-0.248
-510.799	-2.778	-0.216	-0.152
-509.785	187.360	0.098	-0.147
-508.770	33.113	-0.047	0.041
-507.756	-166.651	0.053	0.002
-506.741	279.790	0.065	-0.117
-505.726	800.000	0.122	-0.384
-504.712	129.701	0.125	-0.160
-503.697	-125.445	-0.455	0.070
-502.683	175.540	-0.136	0.198
-501.668	87.389	0.330	0.367
-500.653	106.748	0.059	0.071
-499.639	455.836	0.149	-0.332
-498.624	-17.771	0.068	-0.043
-497.610	-89.209	-0.665	-0.197
-496.595	-85.497	0.204	-0.064
-495.581	-92.303	0.244	-0.069
-494.566	135.500	0.111	-0.145
-493.551	-123.924	0.372	-0.059
-492.537	-47.473	0.236	0.115
-491.522	800.000	0.020	0.057
-490.508	206.154	0.028	0.044
-489.493	225.932	0.093	-0.151
-488.478	-109.998	0.199	-0.042
-487.464	126.893	-0.224	0.285
-486.449	-38.207	0.273	-0.146
-485.435	-140.851	0.514	-0.053
-484.420	198.570	0.142	0.218
-483.405	86.744	-0.101	-0.112
-482.391	329.699	0.122	-0.236
-481.376	224.260	-0.081	-0.132
-480.362	25.753	-0.251	-0.210
-479.347	449.246	-0.228	-0.504
-478.332	29.671	-0.348	0.297
-477.318	93.900	0.155	-0.176
-476.303	-100.089	-0.222	-0.056
-475.289	-84.059	0.550	-0.175
-474.274	-80.233	-0.129	-0.043
-473.259	5.657	-0.121	0.090
-472.245	-91.580	-0.041	-0.012
-471.230	20.272	0.190	-0.154
-470.216	486.530	-0.101	0.232
-469.201	72.132	-0.111	0.116
-468.186	131.067	-0.060	-0.078
-467.172	-47.550	-0.109	0.053
-466.157	-200.000	0.012	-0.205
-465.143	-23.817	-0.241	0.145
-464.128	-184.735	0.196	-0.003
-463.113	-200.000	0.024	-0.248
-462.099	141.465	0.011	-0.014
-461.084	604.523	-0.096	-0.240
-460.070	-142.674	-0.257	0.025
-459.055	473.636	-0.070	-0.159
-458.040	61.761	-0.064	-0.064
-457.026	800.000	-0.005	0.014
-456.011	-91.609	0.222	0.064
-454.997	-156.604	-0.040	0.003
-453.982	387.446	-0.057	0.119
-452.968	-200.000	0.054	-0.263
-451.953	-200.000	-0.025	0.229
-450.938	-13.968	-0.107	0.069
-449.924	-71.871	0.142	0.053
-448.909	-39.436	-0.338	0.178
-447.895	800.000	-0.077	-0.328
-446.880	-4.344	0.313	-0.217
-445.865	-168.414	0.269	0.010
-444.851	-200.000	-0.021	0.191
-443.836	-47.580	0.332	-0.162
-442.822	296.658	0.111	-0.204
-441.807	800.000	0.090	0.286
-440.792	106.902	-0.097	-0.116
-439.778	41.212	-0.299	-0.271
-438.763	188.193	0.140	0.211
-437.749	-19.869	-0.166	-0.103
-436.734	370.212	-0.101	-0.206
-435.719	214.322	-0.047	-0.074
-434.705	800.000	-0.075	-0.294
-433.690	-102.239	-0.088	-0.021
-432.676	-105.536	-0.111	-0.025
-431.661	-200.000	-0.013	-0.202
-430.646	-200.000	-0.002	0.000
-429.632	-200.000	-0.007	-0.080
-428.617	499.041	-0.023	0.053
-427.603	-138.629	-0.120	-0.013
-426.588	-200.000	0.010	0.187
-425.573	15.945	-0.054	-0.043
-424.559	78.542	0.236	-0.253
-423.544	-103.832	-0.203	0.048
-422.530	-200.000	-0.035	-0.465
-421.515	82.580	0.274	0.299
-420.500	-116.211	0.089	0.017
-419.486	62.290	0.032	0.032
-418.471	-102.835	0.183	0.044
-417.457	800.000	-0.014	0.038
-416.442	800.000	-0.126	-0.385
-415.428	-152.863	0.250	0.018
-414.413	-105.747	0.154	-0.035
-413.398	-171.012	0.284	-0.010
-412.384	-55.287	0.289	-0.130
-411.369	800.000	0.078	-0.252
-410.355	-27.269	-0.093	-0.054
-409.340	-70.774	-0.278	0.105
-408.325	-122.936	-0.247	-0.040
-407.311	126.024	-0.093	0.117
-406.296	87.734	-0.074	-0.082
-405.282	-86.850	0.229	-0.070
-404.267	800.000	0.092	-0.264
-403.252	-35.024	0.253	0.138
-402.238	-200.000	-0.023	-0.115
-401.223	234.367	-0.081	0.133
-400.209	248.639	0.168	-0.284
-399.194	39.510	0.127	-0.114
-398.179	-65.979	-0.141	-0.056
-397.165	-200.000	0.027	-0.221
-396.150	-114.145	0.354	-0.069
-395.136	-111.048	0.181	-0.037
-394.121	-166.650	0.389	0.016
-393.106	616.430	0.021	0.052
-392.092	-20.891	0.058	0.036
-391.077	-200.000	-0.017	0.361
-390.063	800.000	-0.059	0.177
-389.048	-72.933	-0.177	0.065
-388.033	6.733	0.084	-0.062
-387.019	-8.929	0.153	-0.103
-386.004	-18.229	-0.259	-0.162
-384.990	87.413	0.340	0.377
-383.975	131.165	-0.145	0.187
-382.960	83.987	-0.249	0.272
-381.946	-146.671	-0.374	0.032
-380.931	800.000	0.136	-0.457
-379.917	-108.512	-0.097	-0.021
-378.902	-7.082	-0.237	0.161
-377.888	-55.276	-0.191	0.086
-376.873	215.135	-0.233	0.371
-375.858	-39.764	0.273	0.143
-374.844	477.704	-0.208	0.470
-373.829	-141.665	-0.155	0.016
-372.815	-63.205	0.270	-0.112
-371.800	45.616	0.145	0.134
-370.785	329.887	-0.127	0.245
-369.771	97.044	0.240	-0.276
-368.756	-42.231	0.204	-0.104
-367.742	374.156	0.170	0.346
-366.727	-200.000	-0.041	-0.234
-365.712	410.987	0.054	-0.116
-364.698	6.500	0.049	-0.037
-363.683	417.226	-0.033	-0.070
-362.669	-200.000	0.016	-0.110
-361.654	23.281	-0.129	0.106
-360.639	128.061	0.166	-0.212
-359.625	-124.140	-0.073	0.011
-358.610	-79.159	-0.169	0.058
-357.596	150.660	-0.216	0.294
-356.581	27.671	0.117	-0.098
-355.566	-200.000	-0.000	0.277
-354.552	800.000	0.068	-0.286
-353.537	-200.000	-0.016	0.126
-352.523	-63.814	-0.362	0.148
-351.508	-33.199	0.221	0.123
-350.493	173.698	0.038	0.055
-349.479	-88.672	0.250	-0.074
-348.464	-92.709	-0.551	0.154
-347.450	462.998	-0.117	0.261
-346.435	-164.848	0.437	-0.020
-345.420	577.746	-0.037	-0.090
-344.406	-145.757	0.326	0.029
-343.391	3.523	-0.221	-0.161
-342.377	298.003	0.059	-0.109
-341.362	116.761	0.147	-0.181
-340.348	129.190	0.124	-0.158
-339.333	-65.053	-0.063	-0.025
-338.318	-200.000	-0.026	-0.203
-337.304	800.000	0.057	0.188
-336.289	302.076	0.119	0.220
-335.275	-16.188	0.212	-0.135
-334.260	242.114	0.117	-0.195
-333.245	-200.000	0.018	-0.097
-332.231	-200.000	0.017	-0.108
-331.216	-116.711	0.144	-0.026
-330.202	-80.981	-0.054	-0.018
-329.187	-85.557	0.326	0.101
-328.172	152.685	-0.154	-0.211
-327.158	-93.899	-0.023	-0.006
-326.143	59.573	-0.075	0.074
-325.129	615.021	0.015	-0.038
-324.114	230.454	0.094	0.154
-323.099	-200.000	-0.002	0.221
-322.085	41.795	0.233	0.211
-321.070	-200.000	0.036	-0.341
-320.056	652.793	0.076	0.193
-319.041	-71.659	-0.454	-0.169
-318.026	182.547	-0.163	0.241
-317.012	26.136	0.114	-0.095
-315.997	-145.267	-0.334	-0.030
-314.983	800.000	-0.058	0.209
-313.968	-85.791	-0.247	0.076
-312.953	-71.656	0.306	-0.114
-311.939	-111.406	0.390	-0.079
-310.924	51.076	0.361	0.342
-309.910	800.000	0.133	0.468
-308.895	-108.920	-0.161	0.034
-307.880	-18.478	0.061	0.038
-306.866	19.348	-0.163	0.131
-305.851	108.491	-0.163	-0.195
-304.837	-142.356	0.170	0.017
-303.822	800.000	0.064	0.246
-302.807	286.090	-0.140	0.251
-301.793	-67.922	0.345	-0.135
-300.778	-158.423	0.303	-0.018
-299.764	-200.000	0.020	-0.292
-298.749	128.091	-0.259	-0.329
-297.735	-200.000	-0.045	-0.213
-296.720	23.713	0.111	0.091
-295.705	-73.658	-0.178	-0.065
-294.691	263.077	0.078	0.135
-293.676	-42.022	0.138	-0.070
-292.662	-110.347	0.448	-0.093
-291.647	185.658	0.292	0.433
-290.632	-147.553	0.318	-0.027
-289.618	800.000	0.076	-0.227
-288.603	128.734	-0.091	0.116
-287.589	47.125	0.204	0.189
-286.574	-200.000	-0.173	0.000
-285.559	-79.026	-0.086	0.029
-284.545	15.722	-0.266	0.209
-283.530	-110.626	0.245	-0.050
-282.516	104.850	-0.118	-0.139
-281.501	-135.701	-0.345	0.041
-280.486	93.991	0.040	0.045
-279.472	170.302	0.117	0.167
-278.457	-200.000	0.015	-0.200
-277.443	800.000	0.021	0.062
-276.428	52.672	0.203	0.193
-275.413	-168.768	0.117	0.004
-274.399	800.000	-0.029	-0.101
-273.384	800.000	0.057	0.225
-272.370	-106.534	0.195	-0.043
-271.355	396.566	-0.069	0.144
-270.340	-152.508	0.328	0.023
-269.326	-64.285	-0.135	-0.055
-268.311	-200.000	0.026	0.161
-267.297	-51.224	0.535	-0.250
-266.282	-109.253	-0.212	0.045
-265.267	102.052	-0.060	-0.070
-264.253	91.151	-0.168	-0.188
-263.238	-71.102	0.067	0.025
-262.224	33.692	0.243	-0.211
-261.209	-200.000	0.018	0.289
-260.195	800.000	-0.053	0.181
-259.180	2.726	-0.062	-0.045
-258.165	-200.000	0.016	0.187
-257.151	291.945	-0.170	0.308
-256.136	219.304	-0.050	-0.080
-255.122	230.491	-0.203	0.331
-254.107	-29.756	0.241	-0.137
-253.092	24.738	0.315	-0.260
-252.078	288.052	0.140	0.253
-251.063	800.000	-0.109	0.352
-250.049	-81.069	0.207	-0.068
-249.034	-117.226	-0.281	-0.051
-248.019	-1.715	-0.158	-0.111
-247.005	-16.563	0.147	-0.093
-245.990	-200.000	-0.029	0.327
-244.976	17.251	-0.090	-0.071
-243.961	354.154	0.068	0.134
-242.946	-44.923	-0.162	0.080
-241.932	742.149	-0.114	0.305
-240.917	30.567	-0.222	0.189
-239.903	285.294	-0.118	0.213
-238.888	-83.148	0.125	0.040
-237.873	16.532	0.143	0.113
-236.859	273.506	0.073	0.129
-235.844	102.652	0.107	0.125
-234.830	-118.193	-0.248	0.044
-233.815	168.445	-0.240	0.340
-232.800	-58.484	0.058	-0.025
-231.786	-45.435	-0.299	0.147
-230.771	419.316	0.074	-0.158
-229.757	-200.000	0.001	-0.070
-228.742	-79.773	-0.280	-0.094
-227.727	800.000	0.064	0.187
-226.713	291.684	0.115	0.208
-225.698	-21.134	0.239	0.145
-224.684	-7.258	-0.367	-0.247
-223.669	-4.831	-0.171	0.117
-222.655	473.580	-0.041	0.092
-221.640	19.904	-0.025	-0.020
-220.625	-200.000	-0.011	0.060
-219.611	-130.204	-0.222	0.030
-218.596	-75.566	0.111	0.039
-217.582	800.000	0.089	0.295
-216.567	702.722	-0.066	0.173
-215.552	-118.162	-0.239	-0.042
-214.538	22.990	0.176	-0.143
-213.523	-116.754	-0.300	0.055
-212.509	121.188	-0.143	0.177
-211.494	-16.929	0.144	0.090
-210.479	132.335	-0.121	0.155
-209.465	-21.405	-0.105	0.064
-208.450	13.364	-0.198	0.152
-207.436	117.300	0.277	0.338
-206.421	-200.000	-0.005	0.199
-205.406	-91.631	0.127	-0.036
-204.392	192.201	-0.223	-0.334
-203.377	346.735	-0.131	0.256
-202.363	61.498	0.175	-0.173
-201.348	-200.000	0.011	0.071
-200.333	-121.961	-0.100	0.016
-199.319	131.242	0.210	0.268
-198.304	-200.000	0.019	0.118
-197.290	-200.000	-0.017	0.216
-196.275	62.508	-0.167	-0.166
-195.260	-200.000	0.060	0.274
-194.246	800.000	0.116	0.320
-193.231	-140.764	0.254	-0.026
-192.217	-200.000	0.018	-0.137
-191.202	-200.000	-0.113	0.535
-190.187	259.361	-0.110	-0.188
-189.173	-59.355	0.038	-0.016
-188.158	-11.704	-0.148	-0.097
-187.144	-155.831	0.087	-0.005
-186.129	576.933	0.046	0.111
-185.114	-54.687	-0.150	-0.067
-184.100	-152.205	0.086	0.006
-183.085	-200.000	0.031	-0.208
-182.071	790.258	0.073	-0.198
-181.056	800.000	-0.025	-0.074
-180.042	-30.900	-0.230	0.129
-179.027	136.838	-0.173	-0.224
-178.012	-33.494	-0.224	-0.123
-176.998	-7.734	-0.108	0.073
-175.983	-13.770	0.220	-0.141
-174.969	-139.408	0.128	0.014
-173.954	-200.000	-0.044	-0.353
-172.939	584.851	-0.081	0.197
-171.925	-161.654	-0.100	-0.005
-170.910	164.828	0.077	-0.107
-169.896	-200.000	-0.003	0.041
-168.881	435.479	0.149	0.321
-167.866	592.857	-0.067	0.165
-166.852	-200.000	-0.019	0.223
-165.837	25.495	0.130	-0.108
-164.823	800.000	-0.071	0.220
-163.808	71.557	-0.272	0.280
-162.793	-38.282	0.204	0.107
-161.779	800.000	-0.051	-0.142
-160.764	-112.225	-0.101	0.020
-159.750	368.475	0.092	-0.185
-158.735	800.000	-0.034	0.135
-157.720	44.676	-0.081	0.074
-156.706	-64.735	-0.226	0.091
-155.691	37.951	-0.125	-0.110
-154.677	9.147	0.259	-0.194
-153.662	-54.249	-0.204	-0.092
-152.647	42.647	0.067	0.061
-151.633	-200.000	-0.005	-0.149
-150.618	-163.906	0.179	-0.008
-149.604	-107.595	0.255	0.055
-148.589	800.000	-0.065	0.240
-147.574	-200.000	-0.031	-0.348
-146.560	274.180	0.068	-0.119
-145.545	-200.000	-0.030	-0.290
-144.531	-84.615	-0.138	0.043
-143.516	-200.000	-0.002	0.110
-142.502	-200.000	0.047	-0.321
-141.487	-151.055	-0.157	0.012
-140.472	-88.290	0.350	-0.104
-139.458	315.704	-0.089	-0.166
-138.443	-75.542	0.071	-0.025
-137.429	93.166	0.285	0.319
-136.414	127.724	0.063	0.079
-135.399	416.429	0.047	0.099
-134.385	-26.388	-0.022	-0.013
-133.370	-73.320	-0.177	0.064
-132.356	-72.650	-0.448	-0.164
-131.341	-200.000	-0.037	-0.337
-130.326	-200.000	0.045	0.244
-129.312	337.450	0.149	0.287
-128.297	-200.000	0.042	0.236
-127.283	-200.000	0.013	0.232
-126.268	-200.000	-0.026	0.209
-125.253	792.436	0.124	0.339
-124.239	-200.000	0.018	-0.123
-123.224	-200.000	-0.018	0.163
-122.210	-48.651	0.137	-0.065
