DTS Sentinel unit serial number:	SN413079Multiplexer serial number:	ORYXHardware model number:	OX4-SRSoftware version number:	ORYX F/W v4.00 Oryx Data Collector v3.7.2.0data status	okinstallation	princeton_trtdifferential loss correction	single-endedforward channel	channel 3reverse channel	N/Adate	2019/09/18time	00:16:35forward acquisition time	60.00reverse acquisition time	0.00gamma	496.2192k internal	0.2344k external	0.2344temperature offset calibration	0.9948default loss term (dB/km)	0.3790temperature slope calibration	1.0000multiplexer offset coefficient	1.0000multiplexer slope coefficient	1.0000fibre end	0.00T internal ref (°C)	23.67T ext. ref 1 (°C)	0.17T ext. ref 2 (°C)	17.15length (m)	temperature (°C)	Stokes	anti-Stokes-747.200	-72.696	0.278	0.103
-746.185	-62.671	-0.379	0.157
-745.171	37.016	0.247	0.219
-744.156	64.379	-0.105	-0.106
-743.142	327.965	0.096	0.184
-742.127	189.716	-0.201	0.302
-741.112	203.438	-0.123	0.191
-740.098	-200.000	0.028	0.403
-739.083	-106.887	-0.157	0.035
-738.069	34.167	-0.121	0.106
-737.054	-200.000	0.015	-0.281
-736.039	-83.729	-0.306	-0.098
-735.025	-200.000	-0.006	-0.066
-734.010	-30.092	0.282	0.161
-732.996	71.314	-0.132	-0.137
-731.981	92.519	0.271	0.306
-730.966	-3.129	-0.426	0.297
-729.952	180.213	-0.117	-0.172
-728.937	141.166	-0.278	-0.368
-727.923	37.274	-0.080	-0.071
-726.908	211.747	0.106	-0.167
-725.894	-200.000	-0.015	-0.194
-724.879	800.000	0.024	-0.087
-723.864	-104.981	0.237	-0.054
-722.850	-200.000	-0.025	-0.158
-721.835	-58.753	-0.089	-0.039
-720.821	-85.352	-0.514	0.160
-719.806	-200.000	-0.013	-0.191
-718.791	128.426	-0.075	-0.095
-717.777	80.949	-0.160	-0.172
-716.762	-200.000	0.017	0.218
-715.748	-200.000	0.040	0.210
-714.733	-102.191	0.293	-0.071
-713.718	30.685	0.096	0.082
-712.704	800.000	-0.063	-0.216
-711.689	-62.997	0.214	0.088
-710.675	-200.000	0.045	-0.221
-709.660	-125.469	0.461	0.070
-708.645	-200.000	0.028	-0.320
-707.631	-200.000	-0.017	-0.236
-706.616	-200.000	0.077	0.442
-705.602	70.976	0.157	0.162
-704.587	58.013	-0.118	-0.116
-703.572	174.358	-0.089	0.129
-702.558	800.000	0.068	-0.266
-701.543	-151.630	-0.313	-0.023
-700.529	-20.961	-0.078	-0.048
-699.514	-200.000	-0.004	-0.080
-698.499	251.953	-0.185	-0.314
-697.485	67.156	0.245	-0.250
-696.470	95.339	0.084	0.095
-695.456	269.539	-0.055	0.096
-694.441	-79.157	0.325	0.110
-693.426	-172.122	0.201	-0.006
-692.412	-200.000	0.037	-0.261
-691.397	800.000	-0.044	-0.175
-690.383	-121.758	-0.309	-0.051
-689.368	5.283	0.182	-0.134
-688.354	34.475	-0.150	-0.130
-687.339	334.579	0.259	0.502
-686.324	-117.740	0.219	-0.039
-685.310	107.983	0.137	-0.163
-684.295	800.000	-0.090	-0.344
-683.281	56.232	-0.119	-0.115
-682.266	-122.744	0.255	0.041
-681.251	-176.270	0.088	-0.002
-680.237	-200.000	-0.002	-0.404
-679.222	-58.844	0.338	-0.146
-678.208	-106.285	0.191	-0.043
-677.193	-91.842	-0.582	-0.165
-676.178	511.012	-0.087	0.202
-675.164	467.811	0.080	0.178
-674.149	408.536	0.079	-0.166
-673.135	94.701	0.193	-0.219
-672.120	120.055	0.092	-0.113
-671.105	145.023	-0.231	-0.309
-670.091	474.023	-0.187	-0.421
-669.076	-153.263	0.233	-0.016
-668.062	-169.663	-0.327	0.012
-667.047	-146.515	0.201	-0.017
-666.032	-200.000	-0.003	-0.241
-665.018	162.418	-0.104	-0.145
-664.003	-200.000	0.003	0.299
-662.989	288.627	-0.081	-0.146
-661.974	-111.887	-0.155	0.031
-660.959	-200.000	-0.007	0.191
-659.945	-200.000	-0.031	0.154
-658.930	230.074	-0.225	-0.367
-657.916	-77.665	-0.119	-0.041
-656.901	381.646	0.164	-0.335
-655.886	244.042	0.130	-0.218
-654.872	37.665	-0.086	0.076
-653.857	-200.000	-0.003	0.070
-652.843	-200.000	-0.007	-0.135
-651.828	-127.743	0.338	-0.049
-650.814	712.936	0.056	-0.149
-649.799	-78.930	-0.052	0.018
-648.784	578.724	-0.088	0.215
-647.770	800.000	-0.045	-0.138
-646.755	239.282	-0.083	-0.138
-645.741	800.000	0.009	0.033
-644.726	57.046	-0.466	-0.453
-643.711	-94.875	0.239	-0.064
-642.697	-25.017	-0.203	0.120
-641.682	-200.000	0.004	-0.348
-640.668	44.507	-0.090	-0.083
-639.653	753.930	-0.165	-0.445
-638.638	42.585	0.109	-0.099
-637.624	-200.000	0.015	0.072
-636.609	-89.016	0.183	0.054
-635.595	-35.372	-0.274	-0.148
-634.580	2.245	-0.253	0.182
-633.565	-200.000	-0.007	0.168
-632.551	-23.057	-0.169	0.102
-631.536	800.000	-0.025	0.095
-630.522	159.362	-0.135	0.187
-629.507	79.482	-0.028	-0.030
-628.492	-94.804	-0.299	0.081
-627.478	-109.099	-0.151	-0.032
-626.463	-122.508	-0.223	-0.036
-625.449	215.166	0.196	0.309
-624.434	-200.000	0.003	0.145
-623.419	514.825	0.109	0.254
-622.405	-200.000	-0.028	0.213
-621.390	67.836	0.104	-0.106
-620.376	-126.309	0.251	0.037
-619.361	-200.000	0.012	0.189
-618.346	-44.391	0.165	-0.082
-617.332	-200.000	0.050	0.281
-616.317	-96.343	0.356	0.094
-615.303	-154.624	0.104	0.007
-614.288	-200.000	0.024	-0.260
-613.273	-143.614	-0.066	-0.006
-612.259	-76.084	-0.067	-0.024
-611.244	-80.055	0.298	-0.100
-610.230	-149.010	-0.079	0.006
-609.215	800.000	-0.052	0.211
-608.201	25.506	-0.235	-0.195
-607.186	800.000	-0.060	0.192
-606.171	21.407	0.105	-0.085
-605.157	-6.800	-0.043	0.029
-604.142	-200.000	-0.032	-0.250
-603.128	18.870	0.180	0.143
-602.113	148.098	-0.150	-0.202
-601.098	-181.230	0.161	-0.003
-600.084	-142.265	-0.078	0.008
-599.069	-200.000	-0.007	-0.226
-598.055	-200.000	0.004	-0.184
-597.040	89.864	0.268	-0.298
-596.025	409.970	0.021	0.044
-595.011	-96.569	0.129	0.034
-593.996	-200.000	0.021	0.198
-592.982	274.981	-0.137	0.242
-591.967	-92.817	-0.075	-0.021
-590.952	-200.000	-0.041	-0.184
-589.938	22.203	0.172	-0.140
-588.923	-200.000	-0.026	0.125
-587.909	-52.257	0.167	-0.077
-586.894	-171.482	-0.258	0.009
-585.879	363.369	0.091	0.181
-584.865	-70.911	0.035	-0.013
-583.850	741.639	0.047	-0.125
-582.836	-77.496	-0.274	-0.095
-581.821	78.894	-0.052	0.056
-580.806	249.166	0.164	-0.276
-579.792	132.215	-0.244	0.312
-578.777	1.674	0.183	-0.131
-577.763	210.121	0.172	-0.268
-576.748	21.555	-0.163	-0.132
-575.733	-200.000	0.015	-0.180
-574.719	-123.098	-0.339	0.054
-573.704	-150.349	0.080	0.006
-572.690	246.076	-0.223	-0.374
-571.675	-200.000	-0.050	0.247
-570.661	-200.000	-0.065	-0.354
-569.646	28.407	0.130	0.109
-568.631	-200.000	-0.025	0.167
-567.617	-106.778	-0.326	0.072
-566.602	-0.950	0.100	-0.070
-565.588	-44.944	0.238	-0.118
-564.573	-23.431	0.094	-0.056
-563.558	-63.303	0.142	0.058
-562.544	-64.318	-0.071	-0.029
-561.529	-93.285	0.220	0.061
-560.515	261.538	-0.122	-0.210
-559.500	541.759	-0.160	-0.378
-558.485	800.000	-0.082	0.284
-557.471	-200.000	-0.007	0.177
-556.456	-92.284	-0.043	0.012
-555.442	-189.098	0.255	0.003
-554.427	-34.571	0.155	0.084
-553.412	-200.000	0.032	0.182
-552.398	124.211	0.139	0.173
-551.383	82.111	-0.173	0.187
-550.369	239.069	-0.028	-0.047
-549.354	-174.427	0.278	-0.008
-548.339	12.269	-0.209	0.160
-547.325	-47.283	0.182	0.088
-546.310	293.208	-0.081	-0.147
-545.296	-109.884	-0.287	-0.060
-544.281	-158.385	-0.190	0.011
-543.266	-200.000	-0.009	-0.104
-542.252	-148.204	0.236	0.019
-541.237	13.237	-0.097	0.075
-540.223	-3.532	0.155	-0.107
-539.208	-20.778	-0.247	-0.150
-538.193	800.000	0.103	-0.348
-537.179	-18.319	0.109	0.068
-536.164	511.016	0.041	-0.094
-535.150	41.658	0.206	0.185
-534.135	-47.478	0.132	0.064
-533.121	164.639	-0.161	-0.226
-532.106	63.814	-0.118	-0.118
-531.091	-200.000	0.088	-0.458
-530.077	-55.876	-0.267	0.118
-529.062	800.000	0.076	-0.261
-528.048	217.294	0.041	0.065
-527.033	-12.241	0.124	0.080
-526.018	11.333	0.159	0.121
-525.004	-200.000	0.013	0.249
-523.989	168.595	0.055	-0.077
-522.975	-94.210	0.319	0.087
-521.960	66.199	0.100	-0.100
-520.945	-200.000	-0.004	0.110
-519.931	58.637	0.121	-0.118
-518.916	-18.562	-0.162	-0.100
-517.902	322.959	0.134	-0.253
-516.887	-184.910	-0.270	-0.004
-515.872	-200.000	0.003	-0.042
-514.858	150.782	0.191	-0.257
-513.843	-102.828	-0.082	0.019
-512.829	-129.341	0.248	-0.034
-511.814	311.093	0.194	-0.360
-510.799	-86.765	-0.170	0.052
-509.785	-54.347	-0.220	-0.099
-508.770	-200.000	-0.019	-0.224
-507.756	-88.533	-0.341	0.101
-506.741	-200.000	-0.035	0.209
-505.726	-78.562	0.114	0.039
-504.712	43.154	0.168	0.152
-503.697	-59.954	-0.483	-0.205
-502.683	800.000	-0.036	0.102
-501.668	48.576	-0.055	-0.051
-500.653	-67.463	0.298	0.116
-499.639	146.439	-0.111	-0.147
-498.624	-168.860	-0.141	-0.005
-497.610	-200.000	-0.025	-0.146
-496.595	31.972	-0.232	-0.198
-495.581	-166.560	0.184	-0.008
-494.566	-44.229	0.252	0.125
-493.551	322.241	-0.119	0.224
-492.537	226.279	-0.212	0.340
-491.522	261.487	-0.044	-0.076
-490.508	800.000	0.091	0.384
-489.493	38.865	0.153	0.136
-488.478	130.929	-0.113	0.144
-487.464	-200.000	-0.017	0.088
-486.449	-136.448	-0.252	0.029
-485.435	505.020	0.037	0.085
-484.420	82.410	0.206	0.221
-483.405	-151.215	0.103	-0.008
-482.391	-107.790	0.194	0.042
-481.376	166.901	-0.157	-0.220
-480.362	115.832	0.186	-0.226
-479.347	145.283	-0.110	-0.146
-478.332	664.401	0.053	-0.136
-477.318	332.993	-0.240	0.459
-476.303	-174.862	-0.520	-0.014
-475.289	-31.950	-0.218	-0.121
-474.274	29.058	0.280	-0.235
-473.259	800.000	0.049	0.205
-472.245	353.140	-0.097	-0.190
-471.230	800.000	0.043	-0.164
-470.216	-16.839	0.112	-0.070
-469.201	-200.000	0.050	-0.520
-468.186	32.777	-0.266	-0.228
-467.172	42.257	0.201	-0.181
-466.157	137.467	-0.076	0.098
-465.143	259.436	0.184	0.315
-464.128	-11.353	-0.284	-0.185
-463.113	-200.000	-0.041	0.387
-462.099	-103.720	0.507	-0.118
-461.084	800.000	-0.047	-0.137
-460.070	-58.034	-0.308	0.133
-459.055	165.507	-0.110	0.155
-458.040	-200.000	0.041	-0.228
-457.026	-200.000	0.104	-0.573
-456.011	185.991	0.037	-0.055
-454.997	800.000	0.093	0.276
-453.982	-83.032	0.311	-0.099
-452.968	186.362	-0.090	0.132
-451.953	-200.000	-0.003	0.045
-450.938	34.367	-0.233	-0.201
-449.924	222.662	-0.232	-0.370
-448.909	-200.000	-0.007	-0.116
-447.895	-200.000	-0.021	-0.093
-446.880	14.573	0.168	0.130
-445.865	-10.840	-0.229	0.150
-444.851	335.485	-0.105	0.202
-443.836	-111.566	-0.042	0.009
-442.822	800.000	0.015	-0.043
-441.807	104.196	-0.091	0.106
-440.792	-65.954	-0.114	0.045
-439.778	318.842	0.039	-0.072
-438.763	-200.000	0.029	0.206
-437.749	-52.707	-0.193	0.088
-436.734	310.510	-0.024	-0.044
-435.719	-114.212	-0.186	-0.036
-434.705	311.981	-0.140	-0.260
-433.690	94.526	0.195	0.219
-432.676	470.579	0.068	-0.152
-431.661	800.000	0.030	-0.111
-430.646	-64.081	-0.082	-0.033
-429.632	164.624	0.111	-0.155
-428.617	645.042	-0.041	0.103
-427.603	-47.163	-0.295	0.142
-426.588	327.598	-0.035	-0.067
-425.573	-200.000	-0.019	-0.196
-424.559	-57.363	-0.062	-0.027
-423.544	800.000	-0.034	0.117
-422.530	-200.000	0.019	-0.313
-421.515	-140.905	0.281	0.029
-420.500	185.262	0.211	-0.310
-419.486	-29.232	-0.102	-0.058
-418.471	53.758	0.073	-0.069
-417.457	-75.570	0.078	-0.028
-416.442	-200.000	-0.019	0.442
-415.428	8.065	-0.063	0.047
-414.413	37.082	0.158	0.138
-413.398	61.107	0.238	-0.233
-412.384	467.721	0.127	0.282
-411.369	-14.552	0.187	0.119
-410.355	-200.000	0.020	0.119
-409.340	122.110	0.064	0.079
-408.325	278.921	-0.109	0.191
-407.311	-172.113	-0.240	-0.008
-406.296	-78.862	-0.316	0.106
-405.282	386.342	0.069	0.140
-404.267	-53.178	0.054	-0.024
-403.252	-194.100	-0.483	0.004
-402.238	-93.954	-0.173	-0.047
-401.223	-200.000	-0.013	-0.132
-400.209	730.230	-0.104	0.274
-399.194	-200.000	0.044	-0.268
-398.179	242.717	0.234	0.386
-397.165	48.178	-0.138	-0.128
-396.150	-83.486	-0.134	0.042
-395.136	-61.716	0.100	-0.041
-394.121	-47.923	0.063	-0.030
-393.106	165.768	0.259	-0.362
-392.092	791.539	-0.148	-0.401
-391.077	603.498	-0.134	0.328
-390.063	-200.000	-0.011	0.113
-389.048	-12.312	0.235	-0.152
-388.033	-30.478	-0.332	0.186
-387.019	467.827	0.085	0.188
-386.004	77.299	0.076	0.079
-384.990	-38.857	0.059	-0.031
-383.975	76.844	-0.159	-0.167
-382.960	800.000	-0.027	-0.107
-381.946	175.462	-0.246	-0.351
-380.931	800.000	0.105	0.435
-379.917	-200.000	0.049	0.237
-378.902	800.000	0.083	0.261
-377.888	-200.000	-0.007	-0.299
-376.873	-95.006	0.472	0.126
-375.858	82.365	-0.029	-0.031
-374.844	-104.932	0.334	-0.076
-373.829	84.012	0.250	-0.269
-372.815	141.500	0.130	-0.170
-371.800	-136.080	0.176	0.020
-370.785	-200.000	0.056	0.397
-369.771	499.324	0.162	-0.368
-368.756	51.982	0.090	0.084
-367.742	54.672	0.109	0.103
-366.727	94.613	-0.185	0.207
-365.712	288.853	0.213	-0.380
-364.698	-164.369	0.123	-0.006
-363.683	-165.623	-0.248	0.011
-362.669	215.872	0.176	0.275
-361.654	-2.901	-0.150	0.103
-360.639	-200.000	0.033	-0.291
-359.625	800.000	-0.023	0.080
-358.610	61.763	0.176	0.172
-357.596	-200.000	-0.013	-0.313
-356.581	-66.139	-0.320	-0.126
-355.566	-14.519	-0.258	0.163
-354.552	57.616	-0.115	0.111
-353.537	-37.627	0.189	-0.099
-352.523	-200.000	0.003	-0.177
-351.508	-200.000	0.021	0.193
-350.493	750.869	0.019	-0.051
-349.479	-200.000	-0.042	-0.211
-348.464	-112.494	-0.322	0.063
-347.450	-200.000	0.023	0.428
-346.435	-144.480	0.219	-0.020
-345.420	-200.000	-0.048	0.365
-344.406	253.174	-0.078	-0.131
-343.391	-173.182	0.307	-0.009
-342.377	-150.922	-0.061	0.005
-341.362	127.786	-0.087	-0.109
-340.348	-22.888	-0.123	-0.073
-339.333	-93.500	-0.065	-0.018
-338.318	73.060	0.168	0.173
-337.304	-172.310	-0.107	0.003
-336.289	50.099	-0.142	0.132
-335.275	800.000	-0.100	0.329
-334.260	800.000	-0.131	0.358
-333.245	-200.000	-0.054	-0.385
-332.231	22.862	0.184	-0.148
-331.216	511.056	0.118	0.270
-330.202	-80.317	-0.288	0.095
-329.187	120.036	-0.105	0.128
-328.172	800.000	0.062	0.207
-327.158	-139.592	0.056	0.006
-326.143	126.977	-0.170	0.212
-325.129	800.000	-0.041	0.119
-324.114	-132.833	0.286	-0.036
-323.099	87.905	0.151	-0.165
-322.085	335.159	-0.085	-0.163
-321.070	-53.792	-0.385	0.173
-320.056	-58.221	-0.141	-0.060
-319.041	205.808	0.069	-0.106
-318.026	-2.642	-0.184	-0.126
-317.012	6.749	0.238	0.175
-315.997	-200.000	0.023	-0.111
-314.983	-73.733	0.285	-0.102
-313.968	282.662	0.137	-0.241
-312.953	-9.425	-0.102	0.067
-311.939	-27.473	0.347	-0.198
-310.924	800.000	0.053	-0.225
-309.910	37.715	0.052	-0.046
-308.895	800.000	-0.076	-0.248
-307.880	-70.289	0.120	-0.045
-306.866	-158.344	-0.186	0.011
-305.851	-66.142	0.088	0.034
-304.837	-91.918	0.215	0.060
-303.822	-200.000	-0.033	-0.182
-302.807	80.717	0.136	0.144
-301.793	-192.609	-0.203	0.002
-300.778	-200.000	-0.022	-0.157
-299.764	-200.000	-0.027	-0.151
-298.749	-104.115	-0.112	0.026
-297.735	-49.452	0.112	0.053
-296.720	-200.000	0.006	0.322
-295.705	-148.394	0.337	-0.027
-294.691	439.347	-0.067	0.144
-293.676	159.170	-0.127	0.174
-292.662	800.000	-0.104	0.322
-291.647	-56.989	-0.139	-0.060
-290.632	-67.435	-0.133	-0.051
-289.618	800.000	-0.101	0.424
-288.603	-53.822	0.329	0.148
-287.589	57.904	0.159	-0.153
-286.574	-91.442	0.220	0.062
-285.559	35.713	-0.170	-0.147
-284.545	-200.000	0.025	0.126
-283.530	737.077	-0.096	0.254
-282.516	-90.890	0.441	0.125
-281.501	274.132	-0.212	0.368
-280.486	74.672	0.148	-0.153
-279.472	27.608	-0.247	-0.204
-278.457	110.272	-0.035	-0.042
-277.443	-132.232	0.173	-0.022
-276.428	20.590	-0.114	-0.091
-275.413	-49.847	-0.170	-0.079
-274.399	-200.000	0.005	0.142
-273.384	800.000	-0.075	-0.277
-272.370	-70.130	0.117	-0.044
-271.355	86.904	0.063	0.069
-270.340	544.969	0.093	0.218
-269.326	135.043	0.044	-0.056
-268.311	117.780	0.065	-0.079
-267.297	-200.000	0.053	0.602
-266.282	63.362	0.090	-0.089
-265.267	255.933	0.070	0.118
-264.253	155.349	-0.142	0.192
-263.238	-4.464	-0.098	-0.067
-262.224	-102.360	-0.314	0.074
-261.209	84.496	-0.083	0.089
-260.195	-86.555	-0.176	0.053
-259.180	78.825	-0.134	0.140
-258.165	-93.708	-0.032	0.009
-257.151	-31.566	-0.210	-0.116
-256.136	-200.000	-0.001	0.208
-255.122	-200.000	-0.004	0.130
-254.107	98.947	0.274	0.311
-253.092	12.750	-0.086	0.065
-252.078	81.220	0.251	0.266
-251.063	636.634	-0.024	0.059
-250.049	-155.684	-0.101	0.006
-249.034	-77.924	-0.337	-0.114
-248.019	-179.313	-0.175	0.004
-247.005	-54.191	0.276	0.123
-245.990	687.446	-0.039	-0.099
-244.976	-200.000	0.281	0.001
-243.961	83.671	0.390	-0.417
-242.946	-200.000	-0.338	-0.002
-241.932	82.692	-0.208	-0.222
-240.917	-49.937	-0.514	0.239
-239.903	-198.851	-0.073	0.000
-238.888	-200.000	-0.022	-0.187
-237.873	322.313	-0.117	-0.218
-236.859	515.883	0.064	-0.147
-235.844	347.968	-0.187	-0.362
-234.830	-162.215	0.198	0.010
-233.815	63.504	0.134	-0.132
-232.800	491.988	0.125	0.281
-231.786	34.891	0.134	-0.115
-230.771	95.456	0.247	-0.277
-229.757	800.000	-0.015	-0.060
-228.742	8.549	-0.056	0.041
-227.727	96.903	-0.109	-0.122
-226.713	191.429	0.043	-0.063
-225.698	-18.851	-0.174	0.106
-224.684	-200.000	0.042	0.320
-223.669	-39.486	0.285	-0.146
-222.655	488.916	-0.109	-0.243
-221.640	-200.000	0.061	0.457
-220.625	-113.726	0.240	0.046
-219.611	-66.937	-0.116	0.045
-218.596	134.531	-0.144	0.183
-217.582	-97.920	-0.465	0.118
-216.567	-200.000	0.049	0.242
-215.552	110.926	0.196	-0.231
-214.538	683.734	0.043	0.110
-213.523	-200.000	0.011	-0.090
-212.509	-79.032	0.278	-0.093
-211.494	-163.858	0.225	-0.010
-210.479	-200.000	-0.034	-0.188
-209.465	694.854	-0.139	0.357
-208.450	-109.788	0.098	-0.020
-207.436	12.165	0.156	-0.118
-206.421	-200.000	-0.039	-0.278
-205.406	-200.000	0.032	0.297
-204.392	-59.933	0.230	-0.097
-203.377	-92.200	0.082	-0.023
-202.363	-115.147	-0.178	0.033
-201.348	26.046	0.225	0.184
-200.333	-29.154	0.258	-0.145
-199.319	-51.717	0.213	-0.097
-198.304	-89.931	0.150	-0.043
-197.290	-76.996	0.100	-0.034
-196.275	-124.972	-0.258	0.039
-195.260	114.221	-0.084	-0.100
-194.246	-63.991	0.274	0.110
-193.231	-200.000	-0.006	-0.096
-192.217	372.553	-0.090	-0.179
-191.202	91.596	-0.064	-0.071
-190.187	-200.000	0.042	0.280
-189.173	-200.000	-0.006	0.190
-188.158	-200.000	-0.041	0.271
-187.144	-29.134	0.284	0.160
-186.129	-200.000	-0.021	-0.290
-185.114	122.980	-0.265	-0.324
-184.100	81.438	0.092	0.097
-183.085	138.557	-0.056	0.072
-182.071	233.162	0.256	0.412
-181.056	-78.961	-0.152	0.051
-180.042	-145.538	-0.082	-0.007
-179.027	-66.180	-0.132	-0.052
-178.012	-156.801	0.417	-0.025
-176.998	-78.882	0.227	0.076
-175.983	800.000	-0.013	0.036
-174.969	198.989	0.154	-0.231
-173.954	191.379	-0.130	-0.191
-172.939	-200.000	0.041	0.384
-171.925	-33.426	0.232	0.126
-170.910	800.000	0.076	0.265
-169.896	27.106	-0.360	-0.295
-168.881	-63.060	0.348	0.141
-167.866	-200.000	-0.038	-0.454
-166.852	-200.000	0.020	0.207
-165.837	-138.896	-0.563	-0.060
-164.823	6.253	-0.248	0.180
-163.808	-37.820	0.123	-0.064
-162.793	132.777	-0.110	-0.139
-161.779	108.656	-0.118	0.138
-160.764	-200.000	0.001	0.186
-159.750	210.011	-0.104	0.159
-158.735	800.000	0.009	-0.030
-157.720	-84.927	-0.053	0.016
-156.706	800.000	0.101	-0.424
-155.691	-200.000	-0.027	-0.136
-154.677	-9.549	-0.123	-0.080
-153.662	366.883	0.077	-0.152
-152.647	800.000	0.142	0.394
-151.633	-186.805	0.277	-0.004
-150.618	800.000	-0.085	0.240
-149.604	73.689	0.093	-0.095
-148.589	-68.699	-0.167	-0.063
-147.574	30.904	0.177	0.148
-146.560	-103.986	0.212	0.048
-145.545	319.316	0.013	0.024
-144.531	-175.031	0.292	0.008
-143.516	8.224	0.015	-0.011
-142.502	-44.840	-0.239	-0.116
-141.487	-15.605	-0.106	0.066
-140.472	-200.000	0.019	0.141
-139.458	-8.419	0.036	0.024
-138.443	800.000	-0.078	-0.236
-137.429	-40.940	0.107	0.054
-136.414	59.034	0.068	0.066
-135.399	800.000	-0.102	-0.397
-134.385	-200.000	0.012	0.184
-133.370	-10.533	0.410	0.265
-132.356	-164.890	0.202	0.009
-131.341	-108.205	0.148	-0.031
-130.326	179.565	-0.099	0.141
-129.312	16.403	-0.107	-0.083
-128.297	-200.000	0.023	-0.132
-127.283	594.460	0.121	0.292
-126.268	-73.991	0.425	-0.151
-125.253	-45.359	-0.254	-0.123
-124.239	-90.418	-0.324	-0.092
-123.224	-200.000	0.004	-0.098
-122.210	65.720	0.030	-0.030
