DTS Sentinel unit serial number:	SN413079Multiplexer serial number:	ORYXHardware model number:	OX4-SRSoftware version number:	ORYX F/W v4.00 Oryx Data Collector v3.7.2.0data status	okinstallation	princeton_trtdifferential loss correction	single-endedforward channel	channel 3reverse channel	N/Adate	2019/09/18time	00:08:34forward acquisition time	60.00reverse acquisition time	0.00gamma	496.2192k internal	0.2344k external	0.2344temperature offset calibration	0.9947default loss term (dB/km)	0.3790temperature slope calibration	1.0000multiplexer offset coefficient	1.0000multiplexer slope coefficient	1.0000fibre end	0.00T internal ref (°C)	23.75T ext. ref 1 (°C)	0.17T ext. ref 2 (°C)	17.22length (m)	temperature (°C)	Stokes	anti-Stokes-747.200	-200.000	-0.028	-0.125
-746.185	680.251	-0.083	-0.217
-745.171	-200.000	0.007	-0.156
-744.156	-200.000	-0.026	0.163
-743.142	96.530	-0.058	0.067
-742.127	382.900	-0.176	0.363
-741.112	23.205	-0.181	0.149
-740.098	-56.720	-0.083	0.037
-739.083	274.995	-0.047	0.083
-738.069	-200.000	-0.060	0.294
-737.054	-11.652	-0.139	0.092
-736.039	-8.920	-0.177	-0.119
-735.025	-51.838	0.128	-0.060
-734.010	191.657	-0.057	-0.086
-732.996	144.129	-0.301	-0.401
-731.981	-143.127	-0.588	-0.057
-730.966	-12.911	0.130	-0.085
-729.952	-200.000	0.002	-0.137
-728.937	25.398	-0.079	-0.066
-727.923	-200.000	-0.001	0.038
-726.908	-25.866	-0.195	-0.115
-725.894	-89.857	-0.175	-0.051
-724.879	707.574	-0.049	-0.130
-723.864	-24.579	-0.148	-0.088
-722.850	-200.000	-0.055	0.245
-721.835	-161.033	-0.316	0.017
-720.821	-101.780	-0.258	0.062
-719.806	740.968	-0.142	-0.381
-718.791	-17.778	0.241	-0.152
-717.777	-96.906	-0.312	-0.082
-716.762	255.444	0.145	-0.249
-715.748	-200.000	-0.021	-0.240
-714.733	-43.472	0.431	-0.218
-713.718	-89.658	-0.272	0.080
-712.704	-200.000	0.018	-0.401
-711.689	-161.667	0.154	-0.008
-710.675	-42.952	0.129	0.065
-709.660	-200.000	-0.007	-0.049
-708.645	-48.191	0.082	-0.039
-707.631	-52.063	-0.217	0.101
-706.616	-200.000	0.052	0.237
-705.602	59.707	0.037	-0.037
-704.587	34.433	-0.082	0.072
-703.572	109.634	0.095	0.114
-702.558	23.165	-0.261	0.214
-701.543	92.756	0.155	0.175
-700.529	541.306	-0.153	-0.364
-699.514	156.803	0.141	-0.195
-698.499	-157.193	0.279	0.017
-697.485	800.000	-0.017	0.057
-696.470	6.739	-0.012	-0.009
-695.456	-200.000	0.068	-0.318
-694.441	-200.000	0.013	-0.087
-693.426	-74.464	0.134	0.048
-692.412	-160.775	-0.348	0.018
-691.397	-74.444	0.097	0.035
-690.383	446.858	0.137	-0.302
-689.368	-200.000	-0.030	-0.153
-688.354	81.647	-0.196	-0.211
-687.339	193.041	-0.219	-0.331
-686.324	1.459	-0.117	0.084
-685.310	-89.827	-0.260	0.076
-684.295	800.000	0.096	0.295
-683.281	41.400	0.127	-0.114
-682.266	1.891	-0.261	-0.188
-681.251	-200.000	0.008	-0.163
-680.237	171.421	0.013	-0.019
-679.222	-200.000	0.040	0.377
-678.208	132.622	-0.066	0.085
-677.193	67.399	0.344	-0.351
-676.178	800.000	-0.082	0.250
-675.164	-5.158	0.201	0.138
-674.149	12.903	-0.220	-0.170
-673.135	800.000	0.067	-0.199
-672.120	102.146	-0.241	-0.281
-671.105	-116.442	-0.167	-0.031
-670.091	-200.000	-0.001	-0.016
-669.076	17.361	-0.280	-0.222
-668.062	-76.100	0.383	0.135
-667.047	-200.000	0.035	-0.216
-666.032	42.725	0.178	-0.161
-665.018	-19.390	0.145	-0.090
-664.003	-159.550	-0.305	0.017
-662.989	278.380	-0.089	0.159
-661.974	30.247	0.055	-0.047
-660.959	254.369	-0.115	-0.196
-659.945	-200.000	0.007	0.119
-658.930	800.000	-0.040	-0.175
-657.916	23.765	0.034	-0.028
-656.901	251.889	-0.062	0.105
-655.886	-155.347	0.108	0.007
-654.872	-66.628	0.066	-0.026
-653.857	-35.449	-0.325	-0.176
-652.843	-63.457	-0.180	-0.074
-651.828	80.398	0.080	0.086
-650.814	-130.740	-0.201	-0.027
-649.799	-200.000	0.053	-0.324
-648.784	-69.125	-0.179	-0.069
-647.770	74.265	0.234	-0.245
-646.755	386.687	-0.156	-0.322
-645.741	-111.062	0.038	0.008
-644.726	61.069	0.268	-0.265
-643.711	119.963	-0.233	0.288
-642.697	-144.872	-0.121	0.011
-641.682	-100.813	-0.245	-0.060
-640.668	-177.449	-0.220	-0.005
-639.653	-200.000	-0.030	0.231
-638.638	91.221	-0.162	0.181
-637.624	-200.000	-0.029	-0.237
-636.609	-125.661	-0.026	0.004
-635.595	-41.468	0.159	-0.082
-634.580	426.616	0.088	-0.190
-633.565	236.426	-0.116	0.191
-632.551	-1.051	0.077	-0.054
-631.536	661.237	-0.068	-0.174
-630.522	183.494	-0.047	0.070
-629.507	142.125	-0.198	0.262
-628.492	800.000	-0.113	0.365
-627.478	-67.737	-0.302	0.118
-626.463	6.228	-0.023	-0.017
-625.449	94.553	0.214	-0.242
-624.434	114.777	-0.238	-0.289
-623.419	7.630	0.231	-0.172
-622.405	109.588	-0.096	-0.115
-621.390	42.086	0.052	-0.047
-620.376	-200.000	0.010	0.165
-619.361	-110.337	-0.134	-0.028
-618.346	-200.000	0.033	-0.203
-617.332	-200.000	-0.016	0.240
-616.317	52.151	0.175	0.166
-615.303	312.884	0.100	-0.187
-614.288	-9.937	0.293	-0.194
-613.273	104.804	0.103	0.121
-612.259	-9.808	-0.077	-0.051
-611.244	800.000	0.072	-0.234
-610.230	-50.918	0.249	-0.116
-609.215	-29.272	0.062	-0.035
-608.201	800.000	-0.020	0.080
-607.186	-78.548	-0.158	0.054
-606.171	800.000	-0.171	0.484
-605.157	16.279	0.177	-0.139
-604.142	195.752	-0.133	-0.201
-603.128	-99.611	0.107	0.027
-602.113	672.864	0.087	-0.224
-601.098	800.000	0.047	0.154
-600.084	192.345	0.053	-0.079
-599.069	800.000	0.084	0.315
-598.055	800.000	0.064	0.273
-597.040	34.869	0.356	-0.310
-596.025	-139.224	-0.095	0.010
-595.011	500.612	-0.046	0.105
-593.996	277.715	0.185	-0.329
-592.982	-14.126	-0.240	0.154
-591.967	-200.000	-0.019	0.515
-590.952	248.142	0.035	-0.059
-589.938	-113.151	-0.108	-0.021
-588.923	66.182	-0.213	-0.215
-587.909	800.000	-0.124	-0.433
-586.894	710.253	0.057	-0.150
-585.879	800.000	0.113	0.323
-584.865	-78.289	-0.105	-0.036
-583.850	200.550	0.309	-0.473
-582.836	1.147	0.340	-0.242
-581.821	800.000	-0.024	-0.091
-580.806	252.796	-0.083	-0.140
-579.792	-97.308	0.170	0.044
-578.777	-200.000	-0.013	0.078
-577.763	-44.345	-0.267	-0.133
-576.748	-200.000	-0.025	0.116
-575.733	800.000	-0.070	0.222
-574.719	-54.033	-0.193	0.087
-573.704	-108.532	-0.130	0.028
-572.690	-97.300	0.257	-0.067
-571.675	-11.849	0.028	0.018
-570.661	-86.447	-0.056	0.017
-569.646	-8.173	-0.170	0.114
-568.631	449.785	0.093	0.203
-567.617	-42.176	0.017	0.008
-566.602	-129.545	-0.339	0.047
-565.588	23.837	-0.101	-0.083
-564.573	-200.000	-0.057	0.289
-563.558	-10.816	0.302	0.199
-562.544	417.767	0.139	0.295
-561.529	509.356	-0.094	-0.217
-560.515	-56.966	0.270	0.118
-559.500	97.551	0.252	-0.287
-558.485	321.991	-0.238	0.450
-557.471	-55.692	0.079	0.035
-556.456	-24.677	-0.270	0.160
-555.442	168.763	-0.078	0.111
-554.427	-4.616	-0.135	0.093
-553.412	-47.900	0.199	0.095
-552.398	-10.150	-0.308	-0.203
-551.383	500.003	0.110	-0.252
-550.369	-200.000	0.032	0.157
-549.354	-129.955	0.181	-0.025
-548.339	-84.757	-0.198	0.062
-547.325	555.306	0.067	0.161
-546.310	-112.593	0.118	-0.023
-545.296	-103.539	0.200	-0.047
-544.281	-200.000	-0.116	0.565
-543.266	-200.000	-0.004	-0.268
-542.252	365.747	0.043	-0.086
-541.237	-200.000	-0.053	0.354
-540.223	428.579	0.154	0.330
-539.208	800.000	-0.090	0.286
-538.193	240.310	0.032	0.053
-537.179	-72.864	0.300	0.110
-536.164	-144.992	-0.133	0.012
-535.150	-133.723	0.119	0.015
-534.135	-54.862	0.211	-0.095
-533.121	-200.000	0.048	0.248
-532.106	800.000	-0.077	0.224
-531.091	142.954	-0.078	-0.103
-530.077	-124.383	0.067	0.010
-529.062	167.300	-0.255	-0.360
-528.048	-141.128	-0.314	0.032
-527.033	-59.110	-0.177	0.076
-526.018	-200.000	0.028	-0.200
-525.004	800.000	-0.061	-0.202
-523.989	33.132	-0.098	-0.085
-522.975	62.472	-0.210	0.208
-521.960	-197.646	0.268	-0.002
-520.945	-200.000	-0.005	-0.174
-519.931	-200.000	0.027	-0.285
-518.916	-101.107	-0.059	0.014
-517.902	-136.242	-0.160	0.019
-516.887	-28.548	0.055	0.031
-515.872	54.162	-0.223	-0.213
-514.858	35.427	-0.105	0.091
-513.843	645.993	0.136	0.343
-512.829	-120.199	-0.494	-0.084
-511.814	68.015	-0.173	0.176
-510.799	-200.000	-0.023	-0.218
-509.785	287.214	0.193	0.345
-508.770	740.695	0.134	0.356
-507.756	136.437	0.256	0.332
-506.741	50.979	0.221	-0.208
-505.726	800.000	0.138	-0.420
-504.712	-88.229	-0.144	-0.043
-503.697	-113.088	0.111	0.022
-502.683	-200.000	-0.004	-0.154
-501.668	284.267	-0.148	-0.264
-500.653	195.283	0.152	-0.228
-499.639	-200.000	0.004	0.037
-498.624	60.459	-0.220	0.216
-497.610	-65.157	-0.230	-0.092
-496.595	800.000	-0.086	-0.282
-495.581	-200.000	0.036	0.205
-494.566	130.286	-0.177	-0.224
-493.551	281.070	-0.084	-0.149
-492.537	-86.685	-0.133	-0.040
-491.522	65.781	0.024	0.024
-490.508	198.854	0.014	-0.021
-489.493	-41.475	-0.160	0.082
-488.478	74.125	-0.065	0.067
-487.464	-51.926	-0.143	-0.066
-486.449	800.000	0.127	-0.492
-485.435	29.541	0.144	-0.121
-484.420	12.070	0.113	0.086
-483.405	68.883	-0.113	-0.115
-482.391	-165.660	0.092	0.004
-481.376	-111.376	-0.065	0.013
-480.362	-82.736	0.190	0.061
-479.347	-194.108	-0.055	0.000
-478.332	34.913	-0.193	0.168
-477.318	-29.466	-0.146	0.082
-476.303	-39.340	0.082	0.043
-475.289	-200.000	-0.043	-0.229
-474.274	-78.564	0.141	0.048
-473.259	-200.000	-0.013	0.220
-472.245	-69.528	0.084	-0.032
-471.230	-107.135	-0.210	-0.046
-470.216	-64.780	0.385	-0.154
-469.201	32.528	-0.059	0.051
-468.186	-200.000	0.033	-0.167
-467.172	-200.000	0.008	-0.143
-466.157	-200.000	0.028	0.317
-465.143	275.843	-0.147	-0.259
-464.128	321.073	0.114	0.214
-463.113	-95.874	-0.170	-0.045
-462.099	57.834	0.144	-0.139
-461.084	-45.369	-0.137	0.067
-460.070	-36.376	-0.138	0.074
-459.055	697.825	0.076	0.198
-458.040	229.885	-0.086	0.139
-457.026	294.255	0.114	-0.207
-456.011	800.000	0.084	0.286
-454.997	528.678	-0.132	-0.307
-453.982	556.830	-0.041	-0.098
-452.968	-135.786	-0.241	-0.028
-451.953	-200.000	0.013	0.254
-450.938	-89.601	-0.171	-0.050
-449.924	-200.000	0.038	-0.235
-448.909	-54.080	-0.170	-0.077
-447.895	-81.362	-0.279	0.091
-446.880	371.449	-0.212	0.426
-445.865	-11.422	0.208	0.136
-444.851	-156.073	0.256	-0.016
-443.836	209.057	-0.063	-0.098
-442.822	-200.000	0.038	-0.197
-441.807	200.413	-0.092	-0.140
-440.792	-200.000	0.028	-0.197
-439.778	16.491	0.108	0.084
-438.763	-200.000	0.009	0.098
-437.749	382.804	0.094	0.191
-436.734	-67.976	-0.194	-0.075
-435.719	-111.445	0.114	-0.023
-434.705	800.000	0.094	0.285
-433.690	-90.082	0.256	0.074
-432.676	-200.000	-0.026	0.277
-431.661	505.977	0.095	0.218
-430.646	-200.000	-0.017	-0.144
-429.632	108.513	-0.152	0.180
-428.617	-200.000	-0.005	-0.102
-427.603	-143.192	-0.131	-0.012
-426.588	-77.046	0.229	-0.079
-425.573	-96.787	-0.052	-0.013
-424.559	760.081	0.056	-0.151
-423.544	-173.453	-0.516	0.015
-422.530	-200.000	0.027	-0.270
-421.515	286.945	0.081	0.145
-420.500	352.555	-0.049	-0.096
-419.486	-105.973	-0.173	0.039
-418.471	-200.000	-0.066	0.321
-417.457	-200.000	-0.216	0.000
-416.442	800.000	0.173	-0.476
-415.428	-10.382	-0.052	0.034
-414.413	12.602	0.143	0.109
-413.398	17.642	-0.121	0.095
-412.384	-200.000	0.001	0.113
-411.369	218.617	-0.075	-0.118
-410.355	800.000	0.067	0.266
-409.340	369.648	-0.180	0.360
-408.325	-78.533	0.069	-0.023
-407.311	7.198	0.262	-0.193
-406.296	800.000	0.079	-0.258
-405.282	89.245	-0.138	0.152
-404.267	377.625	-0.226	-0.456
-403.252	119.453	-0.108	-0.132
-402.238	-200.000	-0.024	-0.222
-401.223	30.442	0.090	-0.076
-400.209	800.000	0.021	-0.088
-399.194	-200.000	0.009	0.406
-398.179	384.214	0.085	0.173
-397.165	-132.411	0.153	-0.019
-396.150	258.946	-0.139	0.236
-395.136	-200.000	-0.003	0.130
-394.121	-128.848	0.136	-0.019
-393.106	-91.505	-0.145	0.041
-392.092	-47.020	-0.501	-0.241
-391.077	800.000	-0.088	0.282
-390.063	-59.567	-0.202	0.085
-389.048	605.002	0.141	0.347
-388.033	17.414	0.200	0.157
-387.019	-200.000	0.072	0.336
-386.004	539.137	-0.067	0.157
-384.990	797.534	0.034	-0.092
-383.975	55.394	0.034	-0.032
-382.960	-52.002	0.177	0.081
-381.946	112.153	-0.057	0.068
-380.931	-163.405	-0.277	0.013
-379.917	51.477	-0.139	0.131
-378.902	-200.000	0.039	-0.372
-377.888	-80.082	0.380	-0.126
-376.873	-200.000	0.064	0.330
-375.858	603.544	-0.051	-0.125
-374.844	-136.351	0.187	-0.022
-373.829	-14.524	0.321	-0.204
-372.815	13.436	-0.253	-0.193
-371.800	45.868	0.105	-0.096
-370.785	-20.744	0.149	-0.090
-369.771	120.108	0.257	-0.315
-368.756	-56.564	-0.095	0.042
-367.742	17.352	0.277	-0.217
-366.727	-80.810	-0.174	-0.057
-365.712	39.591	-0.236	-0.209
-364.698	800.000	0.047	-0.141
-363.683	55.137	-0.220	0.210
-362.669	-200.000	-0.033	0.178
-361.654	-35.682	0.285	0.152
-360.639	-18.062	-0.210	0.129
-359.625	-126.402	0.124	-0.018
-358.610	405.236	0.092	-0.191
-357.596	334.644	-0.086	-0.164
-356.581	-122.947	-0.444	0.071
-355.566	144.773	0.060	0.079
-354.552	-200.000	-0.048	0.380
-353.537	91.027	-0.203	-0.224
-352.523	800.000	0.081	0.348
-351.508	-200.000	-0.003	-0.017
-350.493	52.046	-0.119	-0.112
-349.479	-44.969	-0.094	-0.046
-348.464	-148.190	-0.213	0.017
-347.450	-200.000	0.025	0.304
-346.435	208.167	0.123	0.189
-345.420	179.566	-0.180	0.260
-344.406	-77.959	0.231	-0.078
-343.391	-200.000	0.325	-0.001
-342.377	70.002	-0.156	0.158
-341.362	-70.634	-0.138	-0.051
-340.348	-200.000	-0.006	-0.166
-339.333	-162.935	0.192	0.009
-338.318	68.638	-0.194	-0.196
-337.304	-87.463	-0.259	-0.077
-336.289	800.000	-0.029	0.106
-335.275	-72.038	0.288	0.106
-334.260	-103.457	0.144	-0.033
-333.245	-200.000	0.033	-0.149
-332.231	98.687	0.271	0.308
-331.216	800.000	-0.091	-0.284
-330.202	-170.669	0.487	0.017
-329.187	220.880	0.201	0.318
-328.172	156.826	0.128	-0.174
-327.158	-94.002	0.085	0.023
-326.143	-102.038	-0.219	-0.052
-325.129	-75.632	0.149	0.052
-324.114	-200.000	0.007	-0.090
-323.099	-200.000	-0.003	0.098
-322.085	-200.000	0.040	-0.261
-321.070	-81.012	-0.294	0.096
-320.056	692.506	0.028	0.071
-319.041	-173.525	0.090	0.003
-318.026	800.000	0.039	-0.133
-317.012	80.528	-0.357	0.379
-315.997	341.963	-0.053	0.102
-314.983	-85.618	-0.208	-0.064
-313.968	5.140	-0.121	0.088
-312.953	-169.662	-0.013	0.000
-311.939	478.401	-0.038	-0.085
-310.924	-53.195	-0.155	0.070
-309.910	-200.000	0.012	-0.209
-308.895	800.000	-0.051	-0.156
-307.880	-68.448	-0.167	0.064
-306.866	70.769	-0.251	-0.255
-305.851	-18.752	0.123	0.075
-304.837	-48.730	0.481	-0.227
-303.822	-200.000	-0.024	-0.168
-302.807	-192.604	0.081	-0.001
-301.793	50.625	-0.103	-0.096
-300.778	99.189	-0.064	0.073
-299.764	-157.194	-0.178	0.011
-298.749	180.361	0.056	0.081
-297.735	49.424	0.083	0.077
-296.720	800.000	-0.033	-0.129
-295.705	596.775	0.130	-0.316
-294.691	-145.755	0.240	0.021
-293.676	-185.205	0.323	-0.005
-292.662	271.562	0.054	-0.094
-291.647	800.000	0.038	-0.161
-290.632	153.257	-0.186	-0.251
-289.618	48.958	0.168	0.155
-288.603	33.743	0.139	0.118
-287.589	-200.000	0.004	0.026
-286.574	4.277	0.056	0.040
-285.559	135.422	0.184	-0.235
-284.545	-200.000	0.032	-0.363
-283.530	-57.614	-0.377	-0.163
-282.516	155.123	0.047	0.064
-281.501	248.306	0.124	0.206
-280.486	-118.383	0.157	-0.027
-279.472	-104.068	0.078	0.018
-278.457	678.192	-0.036	-0.093
-277.443	413.581	0.099	-0.208
-276.428	119.519	-0.121	0.148
-275.413	-40.460	-0.030	0.016
-274.399	800.000	-0.043	0.175
-273.384	110.318	0.341	-0.402
-272.370	-53.420	-0.137	0.062
-271.355	343.979	-0.040	0.077
-270.340	-200.000	0.033	-0.292
-269.326	251.648	0.059	0.099
-268.311	-47.039	-0.195	-0.093
-267.297	-63.268	0.091	0.037
-266.282	569.710	-0.014	0.032
-265.267	-200.000	0.000	-0.060
-264.253	-200.000	-0.006	0.047
-263.238	26.801	0.429	0.353
-262.224	87.417	0.215	0.233
-261.209	-95.502	-0.060	0.016
-260.195	256.171	0.102	-0.172
-259.180	22.512	0.107	0.086
-258.165	-77.347	-0.119	-0.041
-257.151	190.732	0.156	-0.230
-256.136	800.000	0.037	-0.103
-255.122	-105.684	-0.257	-0.057
-254.107	-200.000	-0.043	0.245
-253.092	-157.574	-0.406	0.024
-252.078	-181.279	0.206	-0.004
-251.063	800.000	-0.073	-0.261
-250.049	-171.554	0.192	0.006
-249.034	29.046	0.122	-0.101
-248.019	800.000	0.036	-0.097
-247.005	109.714	-0.067	-0.079
-245.990	14.597	0.080	0.062
-244.976	393.408	0.126	0.257
-243.961	99.838	0.053	-0.060
-242.946	128.044	-0.124	-0.155
-241.932	339.565	0.129	0.247
-240.917	-130.291	-0.151	0.020
-239.903	536.862	0.132	-0.308
-238.888	-200.000	-0.034	-0.169
-237.873	-8.391	0.193	0.127
-236.859	-158.800	-0.392	-0.022
-235.844	144.779	0.109	-0.143
-234.830	-95.229	-0.103	0.027
-233.815	-83.114	0.184	-0.058
-232.800	-76.471	0.273	0.094
-231.786	-200.000	-0.004	0.185
-230.771	-86.201	0.328	0.099
-229.757	81.228	-0.120	0.127
-228.742	-41.006	-0.035	0.018
-227.727	800.000	0.080	-0.341
-226.713	267.185	0.086	-0.148
-225.698	-200.000	0.020	0.265
-224.684	-121.639	-0.047	-0.008
-223.669	-188.105	0.200	-0.003
-222.655	800.000	0.119	0.348
-221.640	800.000	0.016	0.058
-220.625	193.162	-0.035	-0.052
-219.611	-200.000	-0.020	-0.391
-218.596	-165.431	-0.302	-0.013
-217.582	16.144	-0.205	0.159
-216.567	-200.000	-0.004	-0.060
-215.552	-154.486	0.332	-0.022
-214.538	18.168	-0.153	0.119
-213.523	362.032	-0.068	-0.134
-212.509	-182.500	0.393	0.007
-211.494	-160.771	-0.317	-0.016
-210.479	-130.567	0.425	-0.056
-209.465	440.134	-0.202	0.433
-208.450	27.559	-0.192	0.159
-207.436	-62.307	0.154	-0.063
-206.421	-104.235	-0.367	0.083
-205.406	-56.152	0.303	-0.132
-204.392	-200.000	0.009	0.232
-203.377	230.506	0.032	-0.052
-202.363	-200.000	0.002	0.012
-201.348	-200.000	0.026	0.282
-200.333	761.301	0.056	0.148
-199.319	-200.000	-0.010	0.077
-198.304	317.085	-0.070	0.129
-197.290	-19.853	0.158	-0.096
-196.275	-41.318	0.074	0.037
-195.260	-200.000	-0.060	-0.287
-194.246	-200.000	0.009	-0.534
-193.231	-48.951	-0.134	0.063
-192.217	401.293	-0.057	-0.117
-191.202	-197.354	0.121	0.001
-190.187	464.415	-0.088	0.194
-189.173	-19.694	0.144	0.087
-188.158	800.000	0.069	-0.225
-187.144	430.975	-0.222	-0.470
-186.129	-200.000	-0.033	0.165
-185.114	56.156	0.348	0.331
-184.100	32.232	0.055	-0.046
-183.085	-79.360	-0.415	-0.138
-182.071	-24.840	0.257	-0.150
-181.056	416.423	-0.109	-0.229
-180.042	71.437	0.319	0.324
-179.027	-100.332	-0.457	0.111
-178.012	-200.000	0.041	0.473
-176.998	-200.000	0.105	0.562
-175.983	-140.227	0.218	0.022
-174.969	-200.000	0.025	-0.172
-173.954	-200.000	0.006	-0.476
-172.939	260.258	0.029	0.048
-171.925	106.646	-0.176	-0.204
-170.910	258.130	-0.111	0.188
-169.896	-13.628	0.093	0.059
-168.881	800.000	-0.041	0.139
-167.866	-110.880	-0.299	0.060
-166.852	800.000	0.061	0.230
-165.837	150.418	0.192	-0.255
-164.823	114.959	-0.179	0.214
-163.808	-64.166	0.213	-0.085
-162.793	-16.127	0.219	0.136
-161.779	800.000	0.046	-0.158
-160.764	21.734	0.084	-0.067
-159.750	-94.058	-0.197	-0.053
-158.735	763.749	0.063	-0.168
-157.720	-200.000	-0.294	-0.001
-156.706	107.091	0.074	-0.086
-155.691	-61.738	-0.337	0.138
-154.677	-106.800	0.142	-0.031
-153.662	-200.000	0.005	-0.060
-152.647	33.719	0.246	0.210
-151.633	800.000	0.046	-0.125
-150.618	-149.125	0.346	0.027
-149.604	-200.000	0.042	0.387
-148.589	163.165	-0.095	0.131
-147.574	-200.000	-0.021	-0.132
-146.560	-200.000	-0.025	0.144
-145.545	278.827	0.085	0.149
-144.531	100.245	0.346	-0.392
-143.516	-6.916	0.099	-0.066
-142.502	-200.000	0.034	-0.173
-141.487	-67.230	-0.425	0.163
-140.472	-200.000	0.028	-0.249
-139.458	-100.010	0.064	0.016
-138.443	-16.944	0.278	0.171
-137.429	-81.178	-0.043	0.014
-136.414	7.237	0.047	-0.035
-135.399	-200.000	-0.041	0.367
-134.385	362.006	0.160	0.314
-133.370	800.000	0.071	-0.271
-132.356	-44.889	0.127	-0.062
-131.341	80.935	-0.097	0.102
-130.326	519.181	0.098	0.224
-129.312	52.564	-0.193	-0.180
-128.297	-71.763	0.134	-0.049
-127.283	800.000	0.068	-0.278
-126.268	-36.474	0.159	0.084
-125.253	-147.544	-0.360	0.030
-124.239	-70.077	-0.224	-0.083
-123.224	270.491	0.242	-0.416
-122.210	-81.791	0.277	0.089
-121.195	-200.000	-0.033	0.269
