DTS Sentinel unit serial number:	SN413079Multiplexer serial number:	ORYXHardware model number:	OX4-SRSoftware version number:	ORYX F/W v4.00 Oryx Data Collector v3.7.2.0data status	okinstallation	princeton_trtdifferential loss correction	single-endedforward channel	channel 3reverse channel	N/Adate	2019/09/16time	14:20:34forward acquisition time	60.00reverse acquisition time	0.00gamma	496.2192k internal	0.2293k external	0.2293temperature offset calibration	0.9941default loss term (dB/km)	0.3790temperature slope calibration	1.0000multiplexer offset coefficient	1.0000multiplexer slope coefficient	1.0000fibre end	0.00T internal ref (°C)	42.14T ext. ref 1 (°C)	14.18T ext. ref 2 (°C)	36.65length (m)	temperature (°C)	Stokes	anti-Stokes-747.200	-8.290	-0.334	-0.230
-746.185	-200.000	-0.033	0.248
-745.171	-200.000	0.054	0.290
-744.156	617.984	0.060	-0.153
-743.142	323.785	-0.095	0.185
-742.127	800.000	-0.036	-0.147
-741.112	77.318	0.139	0.151
-740.098	-200.000	-0.051	0.416
-739.083	-200.000	0.036	0.359
-738.069	109.592	-0.021	-0.026
-737.054	565.970	-0.055	-0.135
-736.039	154.887	0.206	-0.289
-735.025	234.200	0.158	0.266
-734.010	-27.791	-0.163	0.096
-732.996	-0.895	0.224	-0.162
-731.981	-29.721	-0.181	-0.106
-730.966	-157.842	0.292	0.018
-729.952	-200.000	0.001	-0.179
-728.937	-36.728	-0.302	-0.166
-727.923	-93.766	-0.487	-0.137
-726.908	68.804	0.150	0.158
-725.894	-132.307	-0.149	0.020
-724.879	172.432	-0.206	-0.303
-723.864	11.286	0.149	-0.117
-722.850	61.469	-0.340	-0.345
-721.835	336.499	0.145	-0.287
-720.821	341.554	-0.073	-0.146
-719.806	-18.723	-0.056	0.035
-718.791	249.426	0.132	-0.229
-717.777	-79.203	-0.371	-0.129
-716.762	-200.000	0.011	-0.166
-715.748	163.417	0.105	-0.151
-714.733	-59.404	-0.311	0.137
-713.718	-30.784	-0.089	0.052
-712.704	-94.384	0.232	-0.065
-711.689	-33.597	-0.254	-0.143
-710.675	-22.144	-0.304	-0.189
-709.660	309.758	-0.128	-0.245
-708.645	-55.092	0.210	-0.096
-707.631	-200.000	-0.004	-0.239
-706.616	-51.202	-0.268	0.128
-705.602	-49.478	-0.207	-0.101
-704.587	800.000	0.050	-0.155
-703.572	-29.164	0.392	-0.230
-702.558	-88.306	0.269	-0.082
-701.543	-12.402	-0.206	0.137
-700.529	-119.839	-0.077	-0.014
-699.514	-79.932	-0.137	0.047
-698.499	800.000	-0.094	-0.331
-697.485	-153.316	0.193	-0.014
-696.470	-200.000	0.004	0.144
-695.456	-12.169	-0.365	-0.244
-694.441	-200.000	-0.024	-0.420
-693.426	-200.000	-0.012	-0.290
-692.412	-49.013	-0.421	0.206
-691.397	361.427	-0.178	-0.365
-690.383	-86.981	-0.402	0.125
-689.368	-86.402	0.124	0.039
-688.354	-96.117	-0.177	0.048
-687.339	-31.711	-0.455	0.261
-686.324	-89.173	0.285	0.086
-685.310	-70.770	0.253	0.097
-684.295	366.717	-0.065	-0.133
-683.281	11.728	0.091	-0.071
-682.266	-23.093	-0.040	-0.025
-681.251	221.441	0.107	-0.176
-680.237	-89.862	-0.445	-0.133
-679.222	-5.859	0.195	0.136
-678.208	800.000	0.074	0.249
-677.193	27.747	-0.166	0.143
-676.178	14.232	-0.140	0.111
-675.164	-19.370	0.137	0.087
-674.149	15.495	-0.131	-0.105
-673.135	-56.061	0.022	0.010
-672.120	-200.000	0.027	0.264
-671.105	-101.250	-0.380	0.095
-670.091	-200.000	-0.006	-0.195
-669.076	-17.331	-0.058	-0.037
-668.062	-121.907	-0.210	0.035
-667.047	-41.157	-0.272	0.143
-666.032	133.040	-0.159	0.210
-665.018	-99.090	0.184	0.048
-664.003	652.126	0.054	0.140
-662.989	800.000	-0.053	-0.225
-661.974	31.270	-0.075	-0.066
-660.959	-200.000	-0.011	0.136
-659.945	-96.075	0.407	0.110
-658.930	122.109	0.101	-0.129
-657.916	-200.000	0.009	-0.122
-656.901	72.316	-0.251	-0.267
-655.886	293.825	-0.089	0.165
-654.872	1.233	0.068	0.050
-653.857	-200.000	0.027	-0.182
-652.843	98.071	-0.106	-0.125
-651.828	800.000	-0.081	0.309
-650.814	-86.275	0.462	-0.145
-649.799	-43.486	-0.108	0.056
-648.784	-126.716	-0.190	-0.029
-647.770	-200.000	-0.047	-0.356
-646.755	507.098	0.042	0.098
-645.741	3.621	0.118	0.088
-644.726	-83.017	0.209	-0.069
-643.711	379.166	-0.101	-0.210
-642.697	-171.117	-0.236	-0.008
-641.682	50.679	-0.216	0.208
-640.668	-122.708	-0.203	-0.033
-639.653	-200.000	0.003	-0.185
-638.638	800.000	0.069	0.196
-637.624	517.665	-0.052	0.125
-636.609	800.000	0.012	-0.037
-635.595	646.595	-0.061	0.158
-634.580	388.928	0.023	0.049
-633.565	-95.881	-0.112	-0.030
-632.551	-51.527	0.093	-0.044
-631.536	-150.215	0.337	0.027
-630.522	42.149	0.057	-0.052
-629.507	-126.494	-0.185	-0.028
-628.492	30.854	0.295	0.258
-627.478	-200.000	-0.080	0.431
-626.463	469.299	0.085	-0.195
-625.449	-124.591	0.159	-0.025
-624.434	800.000	-0.070	0.229
-623.419	800.000	-0.034	-0.148
-622.405	800.000	-0.092	0.283
-621.390	-200.000	-0.069	-0.451
-620.376	414.203	0.070	0.152
-619.361	800.000	0.106	0.298
-618.346	-28.785	-0.147	-0.086
-617.332	-200.000	-0.039	0.512
-616.317	800.000	0.060	0.186
-615.303	-200.000	-0.000	-0.125
-614.288	283.874	-0.030	-0.054
-613.273	48.158	-0.025	-0.024
-612.259	-100.594	-0.162	0.041
-611.244	-122.715	-0.222	0.037
-610.230	14.935	-0.098	-0.078
-609.215	-65.666	-0.105	-0.043
-608.201	-162.622	0.228	-0.011
-607.186	203.889	-0.155	-0.244
-606.171	26.572	0.267	0.227
-605.157	108.536	-0.028	-0.034
-604.142	-200.000	0.022	0.249
-603.128	798.691	0.141	-0.395
-602.113	18.388	-0.077	0.063
-601.098	-200.000	0.034	0.291
-600.084	205.764	-0.104	0.165
-599.069	-127.307	-0.190	-0.028
-598.055	180.218	0.190	0.283
-597.040	-79.180	-0.116	0.040
-596.025	86.761	0.042	0.047
-595.011	95.766	-0.136	0.158
-593.996	-200.000	-0.024	-0.167
-592.982	-200.000	-0.022	-0.295
-591.967	141.198	-0.106	0.142
-590.952	-67.804	-0.268	0.106
-589.938	-70.512	0.232	-0.089
-588.923	224.136	-0.185	-0.304
-587.909	-200.000	0.041	-0.283
-586.894	205.516	0.083	-0.131
-585.879	-200.000	0.066	-0.296
-584.865	-100.445	-0.066	-0.017
-583.850	-103.450	-0.162	0.039
-582.836	-200.000	-0.012	-0.199
-581.821	-194.596	-0.348	-0.003
-580.806	-43.292	-0.169	0.087
-579.792	66.070	-0.229	-0.236
-578.777	222.415	-0.198	0.324
-577.763	800.000	0.023	-0.070
-576.748	130.574	-0.151	-0.197
-575.733	-200.000	0.015	0.067
-574.719	276.637	-0.069	-0.124
-573.704	1.099	-0.206	-0.150
-572.690	800.000	-0.072	-0.295
-571.675	800.000	0.041	0.175
-570.661	800.000	-0.153	-0.452
-569.646	21.839	0.253	-0.210
-568.631	228.579	0.194	-0.322
-567.617	120.033	-0.294	-0.370
-566.602	102.562	-0.309	-0.368
-565.588	-77.483	-0.285	-0.100
-564.573	280.648	0.253	0.460
-563.558	29.882	0.202	0.175
-562.544	85.246	-0.149	-0.166
-561.529	-24.448	-0.116	0.070
-560.515	-137.813	-0.236	-0.027
-559.500	118.982	-0.068	-0.086
-558.485	-97.146	0.421	-0.112
-557.471	-34.533	-0.230	-0.128
-556.456	250.708	-0.030	0.052
-555.442	-200.000	-0.006	-0.286
-554.427	-8.449	-0.170	0.116
-553.412	-200.000	0.140	0.000
-552.398	777.328	0.047	-0.132
-551.383	325.863	-0.135	0.262
-550.369	579.669	0.015	0.037
-549.354	800.000	0.080	-0.267
-548.339	-30.712	0.218	-0.125
-547.325	-75.865	0.235	-0.085
-546.310	59.296	-0.486	0.486
-545.296	124.735	0.336	-0.429
-544.281	800.000	-0.086	-0.244
-543.266	-44.888	-0.092	-0.047
-542.252	800.000	-0.061	-0.249
-541.237	184.708	-0.081	0.121
-540.223	-200.000	0.058	-0.302
-539.208	800.000	0.075	-0.317
-538.193	-168.976	-0.167	-0.006
-537.179	-95.521	0.203	-0.055
-536.164	778.539	0.073	0.202
-535.150	-145.882	0.129	0.012
-534.135	800.000	0.079	-0.262
-533.121	124.696	-0.280	0.358
-532.106	-27.054	0.321	-0.190
-531.091	-200.000	0.021	0.202
-530.077	-11.461	0.235	-0.157
-529.062	299.708	0.083	-0.155
-528.048	-7.314	-0.052	0.036
-527.033	709.089	-0.058	-0.156
-526.018	-87.844	0.188	0.057
-525.004	238.899	-0.114	0.192
-523.989	91.281	-0.160	-0.182
-522.975	540.259	0.031	-0.075
-521.960	153.249	-0.150	0.208
-520.945	16.346	-0.257	-0.206
-519.931	29.859	0.075	-0.065
-518.916	69.505	0.173	-0.180
-517.902	800.000	-0.038	-0.113
-516.887	356.162	-0.176	-0.355
-515.872	401.970	-0.236	-0.502
-514.858	-86.392	-0.287	0.090
-513.843	-130.703	-0.060	0.008
-512.829	-127.231	0.050	-0.007
-511.814	207.013	-0.100	0.158
-510.799	-17.565	-0.328	0.209
-509.785	-124.307	-0.189	0.030
-508.770	-118.391	-0.149	0.027
-507.756	-200.000	-0.051	-0.270
-506.741	-15.495	-0.260	-0.169
-505.726	-10.179	0.232	-0.156
-504.712	-82.336	0.334	-0.110
-503.697	145.605	-0.223	-0.302
-502.683	140.472	0.171	0.229
-501.668	-118.354	0.142	-0.026
-500.653	40.241	-0.232	0.211
-499.639	671.802	0.206	0.541
-498.624	-24.917	0.025	0.015
-497.610	-79.812	0.295	-0.101
-496.595	-39.227	-0.064	0.034
-495.581	-83.835	0.290	-0.094
-494.566	-2.913	0.364	0.257
-493.551	-95.941	0.440	0.119
-492.537	-118.834	-0.323	-0.058
-491.522	-142.247	0.262	-0.026
-490.508	-200.000	0.035	-0.175
-489.493	-129.661	0.180	-0.025
-488.478	-176.031	-0.145	0.004
-487.464	-200.000	0.016	0.105
-486.449	16.458	0.237	0.190
-485.435	-6.073	-0.213	0.147
-484.420	-70.443	-0.235	0.090
-483.405	-83.408	0.139	-0.045
-482.391	453.410	0.158	-0.354
-481.376	-146.414	-0.209	-0.019
-480.362	-200.000	-0.006	-0.159
-479.347	508.093	-0.098	0.230
-478.332	318.464	-0.106	0.203
-477.318	-200.000	0.061	-0.384
-476.303	48.682	-0.202	0.192
-475.289	-200.000	0.042	0.472
-474.274	800.000	0.052	-0.151
-473.259	-200.000	0.019	-0.114
-472.245	-60.706	0.257	-0.110
-471.230	131.540	0.174	-0.226
-470.216	-105.230	0.175	0.040
-469.201	74.127	0.300	0.319
-468.186	-200.000	0.007	0.074
-467.172	600.840	0.024	-0.062
-466.157	490.593	0.066	0.154
-465.143	-200.000	0.003	0.303
-464.128	192.256	-0.030	0.046
-463.113	19.381	-0.141	0.115
-462.099	113.403	-0.207	0.254
-461.084	-141.477	-0.135	0.014
-460.070	800.000	0.108	0.353
-459.055	93.232	-0.169	0.193
-458.040	800.000	-0.041	-0.166
-457.026	-52.813	-0.170	0.079
-456.011	-167.003	0.283	-0.012
-454.997	-18.802	0.126	0.079
-453.982	-200.000	-0.002	0.295
-452.968	25.825	0.246	-0.207
-451.953	-200.000	0.005	-0.021
-450.938	277.752	-0.053	0.096
-449.924	474.656	0.065	0.148
-448.909	-88.645	-0.173	-0.052
-447.895	514.511	-0.101	0.238
-446.880	800.000	-0.034	-0.126
-445.865	-128.543	0.126	-0.018
-444.851	325.841	-0.090	0.175
-443.836	210.373	0.175	-0.277
-442.822	180.604	-0.108	-0.161
-441.807	-141.184	-0.219	0.023
-440.792	-200.000	-0.000	-0.245
-439.778	-124.935	0.432	0.067
-438.763	130.923	0.089	0.116
-437.749	1.333	0.057	-0.041
-436.734	167.337	-0.150	0.216
-435.719	76.203	-0.107	0.115
-434.705	236.637	-0.146	0.244
-433.690	-1.056	0.250	0.179
-432.676	800.000	0.034	-0.097
-431.661	16.776	0.063	-0.050
-430.646	800.000	0.025	-0.104
-429.632	270.203	-0.228	-0.404
-428.617	-25.611	0.174	0.104
-427.603	108.960	0.022	-0.027
-426.588	185.232	-0.074	0.111
-425.573	72.530	-0.157	0.165
-424.559	-52.946	-0.164	0.076
-423.544	639.663	0.040	-0.103
-422.530	-130.728	-0.272	-0.037
-421.515	-6.661	0.351	-0.241
-420.500	259.926	0.143	-0.250
-419.486	-80.759	0.323	0.108
-418.471	1.399	-0.316	0.229
-417.457	-200.000	-0.029	0.173
-416.442	-68.363	0.130	0.051
-415.428	393.717	0.157	-0.331
-414.413	275.446	0.155	-0.277
-413.398	-36.427	0.257	-0.140
-412.384	-75.068	-0.476	0.172
-411.369	71.006	-0.063	0.066
-410.355	-200.000	-0.015	-0.083
-409.340	-3.152	-0.224	0.158
-408.325	-200.000	-0.000	-0.222
-407.311	428.505	-0.138	0.301
-406.296	126.469	0.089	-0.114
-405.282	800.000	0.031	0.088
-404.267	697.916	-0.091	-0.241
-403.252	-32.909	-0.043	-0.024
-402.238	-200.000	0.007	-0.146
-401.223	-200.000	-0.032	0.250
-400.209	-54.327	0.100	0.046
-399.194	-200.000	-0.007	-0.198
-398.179	-200.000	0.025	-0.374
-397.165	343.745	0.151	-0.298
-396.150	619.980	0.061	0.154
-395.136	-200.000	0.037	-0.189
-394.121	55.655	0.055	-0.053
-393.106	519.982	-0.028	-0.067
-392.092	-130.000	0.090	0.012
-391.077	-34.653	-0.033	0.018
-390.063	-19.222	-0.084	0.052
-389.048	-200.000	0.028	-0.142
-388.033	-200.000	0.014	-0.148
-387.019	75.633	0.189	0.202
-386.004	0.003	0.145	0.104
-384.990	52.313	-0.303	0.292
-383.975	-46.912	-0.037	0.018
-382.960	-3.786	0.250	-0.175
-381.946	-175.827	0.109	-0.003
-380.931	-200.000	0.090	-0.472
-379.917	-200.000	0.027	-0.133
-378.902	78.749	-0.165	-0.178
-377.888	-170.613	-0.124	0.004
-376.873	-83.894	0.270	0.087
-375.858	240.781	0.190	0.320
-374.844	209.615	-0.089	0.141
-373.829	63.832	-0.211	-0.214
-372.815	-87.094	0.147	-0.045
-371.800	-200.000	0.013	0.381
-370.785	-24.320	-0.075	0.045
-369.771	-7.917	0.090	0.061
-368.756	800.000	-0.059	-0.225
-367.742	-5.957	0.141	-0.097
-366.727	-31.682	-0.167	-0.095
-365.712	-152.432	0.137	-0.010
-364.698	9.287	-0.125	-0.095
-363.683	-122.409	0.477	-0.078
-362.669	46.471	-0.147	0.137
-361.654	-110.867	-0.288	-0.060
-360.639	138.518	0.158	0.209
-359.625	405.964	0.048	-0.102
-358.610	800.000	-0.043	-0.155
-357.596	-168.970	-0.241	0.009
-356.581	52.784	-0.244	-0.235
-355.566	258.294	0.011	0.019
-354.552	-104.295	0.116	-0.027
-353.537	-148.456	-0.224	-0.019
-352.523	594.546	-0.099	0.246
-351.508	447.329	0.153	0.340
-350.493	800.000	0.098	-0.282
-349.479	94.307	0.174	-0.199
-348.464	53.693	-0.213	0.206
-347.450	-48.343	0.141	0.068
-346.435	-200.000	0.030	0.160
-345.420	81.668	-0.038	0.042
-344.406	-134.211	-0.342	0.042
-343.391	-58.819	0.203	0.088
-342.377	-200.000	-0.009	0.046
-341.362	82.175	-0.188	0.205
-340.348	-200.000	0.056	-0.335
-339.333	-200.000	-0.001	0.072
-338.318	-63.825	0.251	-0.104
-337.304	-159.275	0.363	0.020
-336.289	178.546	-0.077	-0.114
-335.275	426.589	0.112	0.244
-334.260	-84.991	0.274	-0.086
-333.245	-200.000	0.021	0.193
-332.231	-170.051	0.166	0.006
-331.216	-200.000	0.054	-0.300
-330.202	375.531	0.091	0.187
-329.187	-158.570	0.206	-0.012
-328.172	360.375	-0.131	0.263
-327.158	-57.744	0.118	0.052
-326.143	-25.566	0.138	0.082
-325.129	800.000	0.072	0.300
-324.114	-167.311	-0.096	0.004
-323.099	389.242	0.159	-0.332
-322.085	-48.165	-0.513	0.249
-321.070	55.582	0.167	0.163
-320.056	468.397	0.266	0.601
-319.041	-126.084	0.124	0.019
-318.026	-194.829	-0.168	-0.001
-317.012	-109.919	0.292	-0.062
-315.997	139.909	-0.202	0.268
-314.983	347.461	0.010	-0.021
-313.968	-102.059	-0.318	0.077
-312.953	405.179	0.122	-0.260
-311.939	-156.274	-0.071	0.004
-310.924	-200.000	0.035	0.384
-309.910	38.322	0.207	-0.186
-308.895	58.016	0.106	0.104
-307.880	-200.000	0.044	0.235
-306.866	-131.454	-0.432	0.057
-305.851	9.876	-0.130	0.099
-304.837	-34.661	0.010	-0.005
-303.822	-70.844	0.271	-0.103
-302.807	-200.000	-0.041	0.296
-301.793	45.155	0.284	0.263
-300.778	-189.191	0.077	0.001
-299.764	678.359	-0.015	0.039
-298.749	-54.171	-0.310	0.142
-297.735	-200.000	-0.039	0.196
-296.720	-135.861	0.283	0.034
-295.705	65.604	0.102	-0.104
-294.691	-70.584	0.211	-0.080
-293.676	204.740	0.115	-0.180
-292.662	-112.584	0.108	0.022
-291.647	-10.916	-0.160	-0.106
-290.632	80.505	-0.152	-0.165
-289.618	-134.593	0.197	-0.024
-288.603	800.000	0.048	0.134
-287.589	-200.000	-0.028	0.124
-286.574	103.723	-0.077	0.091
-285.559	-24.760	0.177	0.106
-284.545	54.637	0.066	0.064
-283.530	262.193	0.101	0.176
-282.516	-62.226	-0.003	-0.001
-281.501	473.926	0.112	0.253
-280.486	-19.569	-0.080	0.050
-279.472	-14.867	-0.208	-0.134
-278.457	-124.980	-0.127	-0.020
-277.443	441.597	0.153	-0.335
-276.428	-52.241	-0.059	0.028
-275.413	-53.008	-0.358	-0.165
-274.399	751.790	0.097	-0.264
-273.384	-200.000	0.024	-0.333
-272.370	800.000	0.058	0.172
-271.355	-95.267	0.236	-0.064
-270.340	220.522	-0.148	0.238
-269.326	334.109	-0.134	-0.260
-268.311	-131.212	-0.439	0.059
-267.297	-101.813	0.287	-0.070
-266.282	175.363	0.163	0.237
-265.267	-90.788	0.371	0.107
-264.253	24.560	0.104	0.086
-263.238	154.560	-0.082	-0.114
-262.224	98.806	0.088	-0.102
-261.209	61.440	-0.191	0.190
-260.195	71.397	-0.187	-0.195
-259.180	57.478	-0.210	-0.206
-258.165	-200.000	-0.001	0.520
-257.151	-200.000	-0.003	0.074
-256.136	-62.339	-0.132	0.055
-255.122	-91.391	-0.262	0.075
-254.107	-47.500	0.136	0.066
-253.092	159.154	-0.095	-0.132
-252.078	-200.000	0.035	-0.290
-251.063	122.000	0.092	0.115
-250.049	175.277	0.226	0.329
-249.034	-89.636	0.153	0.045
-248.019	-200.000	-0.014	-0.181
-247.005	-200.000	0.016	-0.101
-245.990	800.000	-0.030	0.108
-244.976	-5.194	-0.170	-0.117
-243.961	96.915	0.181	-0.208
-242.946	800.000	-0.071	-0.238
-241.932	206.834	-0.071	0.111
-240.917	-176.576	0.081	0.002
-239.903	54.241	0.112	-0.109
-238.888	51.542	-0.271	0.258
-237.873	-63.787	-0.166	-0.068
-236.859	-200.000	-0.006	-0.271
-235.844	121.751	-0.234	-0.292
-234.830	104.333	0.134	-0.159
-233.815	-98.222	0.210	0.054
-232.800	81.408	-0.134	0.145
-231.786	210.638	-0.089	0.141
-230.771	674.449	-0.109	0.283
-229.757	24.097	-0.175	0.145
-228.742	21.809	0.118	0.096
-227.727	380.596	0.074	0.152
-226.713	-200.000	0.015	-0.193
-225.698	-200.000	0.040	-0.202
-224.684	-112.740	-0.168	0.034
-223.669	-33.102	0.284	-0.158
-222.655	-11.714	-0.153	-0.101
-221.640	-7.573	-0.129	-0.088
-220.625	60.504	0.210	-0.208
-219.611	434.163	-0.063	-0.138
-218.596	-134.272	0.231	-0.028
-217.582	26.064	-0.270	0.226
-216.567	127.180	-0.084	-0.107
-215.552	-24.336	-0.196	-0.117
-214.538	153.783	0.138	0.190
-213.523	-200.000	-0.028	0.338
-212.509	-59.908	-0.188	-0.081
-211.494	127.682	0.247	0.314
-210.479	54.822	0.227	-0.219
-209.465	233.772	-0.052	-0.087
-208.450	84.723	-0.154	0.169
-207.436	-113.396	-0.086	-0.017
-206.421	64.398	-0.142	0.143
-205.406	-200.000	0.053	0.351
-204.392	62.769	0.109	-0.109
-203.377	-88.492	0.253	0.076
-202.363	287.571	-0.024	-0.043
-201.348	-54.081	-0.183	-0.083
-200.333	-200.000	-0.056	0.247
-199.319	-137.827	0.242	0.027
-198.304	-50.105	-0.176	0.084
-197.290	-100.107	-0.120	0.030
-196.275	-200.000	0.006	-0.182
-195.260	524.829	0.023	0.054
-194.246	-6.697	-0.248	-0.169
-193.231	-103.714	-0.166	0.039
-192.217	-76.436	0.113	0.040
-191.202	93.601	0.157	-0.178
-190.187	383.573	0.066	-0.136
-189.173	-91.059	0.298	0.086
-188.158	-12.594	-0.296	0.194
-187.144	-200.000	-0.013	0.560
-186.129	-33.699	0.159	0.088
-185.114	-182.878	-0.056	-0.001
-184.100	9.440	0.060	0.045
-183.085	-74.155	-0.100	0.036
-182.071	-200.000	-0.053	0.293
-181.056	321.783	-0.100	0.191
-180.042	-60.752	0.399	0.169
-179.027	-91.718	-0.307	-0.087
-178.012	-183.694	0.311	-0.005
-176.998	-19.231	0.180	-0.112
-175.983	-200.000	0.006	-0.257
-174.969	41.363	0.055	-0.050
-173.954	-59.673	-0.191	0.082
-172.939	-77.726	0.161	-0.056
-171.925	193.167	0.107	0.162
-170.910	-37.360	-0.301	0.161
-169.896	90.546	0.119	0.134
-168.881	-200.000	0.008	-0.335
-167.866	-157.271	0.286	-0.017
-166.852	-46.591	0.280	0.137
-165.837	-57.136	-0.403	-0.177
-164.823	334.471	-0.034	0.066
-163.808	-109.431	-0.303	-0.064
-162.793	-200.000	-0.012	-0.201
-161.779	475.292	0.023	-0.052
-160.764	-14.646	0.248	-0.159
-159.750	-145.974	0.300	-0.027
-158.735	387.171	-0.134	-0.277
-157.720	-90.956	-0.174	-0.050
-156.706	222.592	0.142	-0.228
-155.691	47.018	0.170	-0.158
-154.677	800.000	0.068	0.253
-153.662	642.155	-0.070	-0.178
-152.647	153.386	-0.139	0.191
-151.633	-200.000	-0.044	0.221
-150.618	27.770	-0.120	0.101
-149.604	-200.000	0.073	0.320
-148.589	432.045	-0.120	0.261
-147.574	664.928	-0.218	0.563
-146.560	74.609	-0.062	0.065
-145.545	-59.085	0.103	-0.044
-144.531	-200.000	-0.073	0.380
-143.516	-200.000	-0.005	0.148
-142.502	-200.000	-0.008	0.039
-141.487	-200.000	0.001	-0.205
-140.472	781.006	0.101	0.277
-139.458	-35.816	0.086	0.047
-138.443	106.520	0.132	0.156
-137.429	387.970	0.142	-0.294
-136.414	60.448	-0.104	0.103
-135.399	-29.039	-0.327	0.187
-134.385	74.620	0.141	0.148
-133.370	29.607	0.136	-0.115
-132.356	-200.000	0.068	-0.375
-131.341	-182.334	-0.207	-0.004
-130.326	-96.617	-0.129	-0.034
-129.312	-85.947	-0.075	-0.023
-128.297	-200.000	0.035	0.549
-127.283	616.845	-0.039	0.099
-126.268	-200.000	0.014	0.124
-125.253	259.934	0.129	0.223
-124.239	-129.350	-0.107	-0.015
-123.224	-196.333	0.068	0.000
-122.210	-61.259	0.143	0.060
-121.195	-200.000	-0.014	-0.156
