DTS Sentinel unit serial number:	SN413079Multiplexer serial number:	ORYXHardware model number:	OX4-SRSoftware version number:	ORYX F/W v4.00 Oryx Data Collector v3.7.2.0data status	okinstallation	princeton_trtdifferential loss correction	single-endedforward channel	channel 3reverse channel	N/Adate	2019/09/11time	04:34:11forward acquisition time	60.00reverse acquisition time	0.00gamma	496.2192k internal	0.2331k external	0.2331temperature offset calibration	0.9910default loss term (dB/km)	0.3790temperature slope calibration	1.0000multiplexer offset coefficient	1.0000multiplexer slope coefficient	1.0000fibre end	0.00T internal ref (°C)	29.55T ext. ref 1 (°C)	-0.28T ext. ref 2 (°C)	23.34length (m)	temperature (°C)	Stokes	anti-Stokes-747.200	-95.692	-0.161	0.043
-746.185	328.131	-0.095	0.184
-745.171	800.000	-0.171	-0.570
-744.156	237.273	0.093	-0.155
-743.142	-167.942	0.191	0.008
-742.127	11.548	0.211	0.163
-741.112	-200.000	0.023	0.146
-740.098	578.872	-0.094	0.231
-739.083	-46.121	-0.271	-0.135
-738.069	-8.439	-0.225	0.152
-737.054	-200.000	0.051	0.246
-736.039	-130.897	-0.328	-0.044
-735.025	-160.433	0.222	0.012
-734.010	-26.846	-0.319	-0.188
-732.996	81.167	0.221	-0.240
-731.981	15.372	-0.158	-0.125
-730.966	-4.325	-0.137	0.095
-729.952	-64.781	0.074	0.030
-728.937	-112.894	0.100	-0.020
-727.923	31.896	0.277	-0.240
-726.908	-21.069	0.210	0.129
-725.894	-15.359	0.025	-0.016
-724.879	3.707	-0.114	0.084
-723.864	-165.859	-0.426	0.018
-722.850	170.112	0.045	-0.065
-721.835	-200.000	0.035	-0.221
-720.821	-69.094	-0.262	-0.102
-719.806	-99.236	0.274	-0.070
-718.791	577.489	0.070	0.172
-717.777	-49.073	-0.305	0.147
-716.762	-13.861	-0.185	0.120
-715.748	67.390	-0.114	-0.117
-714.733	-200.000	0.015	0.430
-713.718	-200.000	-0.022	-0.110
-712.704	-153.808	-0.082	-0.006
-711.689	793.282	0.050	0.140
-710.675	147.908	0.187	0.253
-709.660	800.000	0.036	0.124
-708.645	12.491	0.257	0.199
-707.631	-200.000	0.024	0.118
-706.616	-200.000	0.043	-0.358
-705.602	-132.655	-0.179	-0.023
-704.587	-162.804	-0.200	-0.010
-703.572	-7.922	-0.151	0.103
-702.558	-121.492	0.183	-0.031
-701.543	84.110	-0.071	-0.078
-700.529	74.909	0.173	-0.184
-699.514	14.119	-0.231	0.181
-698.499	-42.161	0.123	0.063
-697.485	800.000	-0.047	0.190
-696.470	76.881	-0.109	0.116
-695.456	-136.997	-0.263	-0.030
-694.441	-102.358	0.071	0.017
-693.426	-31.645	0.269	0.152
-692.412	-70.798	-0.207	-0.078
-691.397	-62.986	-0.193	-0.080
-690.383	791.617	0.045	-0.125
-689.368	191.343	0.070	0.106
-688.354	-57.930	-0.146	-0.064
-687.339	496.622	0.097	-0.225
-686.324	-134.809	-0.140	0.017
-685.310	29.006	-0.143	-0.122
-684.295	-77.102	0.079	0.028
-683.281	-15.029	0.220	0.142
-682.266	51.287	-0.207	0.197
-681.251	306.718	-0.124	-0.231
-680.237	-200.000	-0.013	-0.247
-679.222	-13.885	0.368	-0.239
-678.208	387.055	-0.085	-0.177
-677.193	-50.276	-0.215	0.102
-676.178	-158.098	-0.196	0.012
-675.164	32.460	-0.103	0.090
-674.149	-200.000	0.016	0.106
-673.135	313.684	0.130	-0.245
-672.120	-52.701	0.142	-0.066
-671.105	126.334	0.177	0.225
-670.091	128.913	-0.125	-0.161
-669.076	-129.510	-0.172	0.024
-668.062	-200.000	0.032	0.160
-667.047	-29.188	0.105	-0.060
-666.032	-73.365	-0.303	0.111
-665.018	-85.902	-0.090	0.028
-664.003	-200.000	0.011	-0.213
-662.989	-200.000	-0.008	0.064
-661.974	-148.467	-0.358	-0.029
-660.959	-72.579	-0.180	0.067
-659.945	89.061	-0.148	0.165
-658.930	175.757	-0.196	-0.285
-657.916	191.336	0.061	-0.092
-656.901	-49.618	-0.406	0.194
-655.886	130.942	-0.114	-0.147
-654.872	125.679	-0.209	-0.264
-653.857	800.000	-0.047	-0.151
-652.843	800.000	0.048	0.157
-651.828	-200.000	-0.009	-0.202
-650.814	-200.000	0.119	-0.001
-649.799	150.821	-0.102	-0.139
-648.784	771.125	-0.042	-0.114
-647.770	-142.390	0.060	-0.006
-646.755	608.072	-0.127	0.317
-645.741	-200.000	0.010	0.082
-644.726	345.898	0.043	0.084
-643.711	497.871	0.057	-0.132
-642.697	-100.136	-0.123	-0.031
-641.682	-101.462	-0.142	-0.035
-640.668	-58.647	0.150	0.065
-639.653	-106.049	0.297	0.067
-638.638	217.710	0.185	0.296
-637.624	-75.121	-0.136	-0.049
-636.609	-82.489	-0.343	-0.112
-635.595	193.970	-0.151	-0.229
-634.580	-38.280	0.201	0.107
-633.565	14.435	-0.237	-0.185
-632.551	-162.474	-0.153	0.008
-631.536	-200.000	-0.004	0.104
-630.522	326.370	0.184	0.353
-629.507	380.718	-0.053	-0.109
-628.492	-200.000	-0.023	-0.241
-627.478	-28.019	0.385	0.223
-626.463	30.862	-0.085	0.073
-625.449	800.000	-0.109	-0.376
-624.434	138.645	0.233	0.307
-623.419	-67.242	0.305	0.120
-622.405	-125.950	-0.020	0.003
-621.390	-200.000	-0.030	0.210
-620.376	296.462	-0.040	0.074
-619.361	369.412	-0.036	0.073
-618.346	-200.000	-0.028	-0.361
-617.332	157.831	0.065	-0.090
-616.317	800.000	0.113	0.480
-615.303	-61.364	0.147	0.062
-614.288	158.776	-0.141	-0.196
-613.273	-116.886	-0.205	0.038
-612.259	1.878	0.169	-0.122
-611.244	-47.115	0.165	-0.081
-610.230	31.199	0.082	-0.070
-609.215	7.800	-0.257	-0.193
-608.201	-125.520	-0.270	-0.041
-607.186	31.633	0.234	0.202
-606.171	10.795	-0.228	-0.174
-605.157	322.181	-0.100	-0.190
-604.142	50.250	-0.288	0.273
-603.128	-28.732	-0.318	-0.183
-602.113	100.626	-0.198	-0.230
-601.098	22.871	0.134	-0.110
-600.084	89.578	-0.141	-0.158
-599.069	-200.000	-0.003	0.034
-598.055	-182.634	0.343	0.006
-597.040	-188.090	-0.080	0.001
-596.025	246.724	-0.070	0.118
-595.011	-2.174	0.132	-0.092
-593.996	-127.063	0.241	0.035
-592.982	-72.096	0.144	0.054
-591.967	469.622	-0.045	-0.101
-590.952	-11.084	0.295	-0.195
-589.938	-31.696	-0.052	-0.029
-588.923	-30.506	0.082	0.046
-587.909	169.233	0.154	-0.220
-586.894	-200.000	-0.020	0.126
-585.879	-200.000	-0.027	0.163
-584.865	-200.000	-0.050	0.251
-583.850	15.625	0.088	0.069
-582.836	656.569	-0.061	0.156
-581.821	299.973	0.261	-0.481
-580.806	-200.000	-0.036	-0.384
-579.792	-200.000	0.000	0.321
-578.777	800.000	0.042	-0.119
-577.763	-200.000	-0.021	-0.420
-576.748	472.693	-0.036	0.082
-575.733	286.747	-0.029	0.053
-574.719	-113.877	0.301	0.059
-573.704	-41.127	0.129	0.066
-572.690	259.485	-0.209	-0.360
-571.675	-200.000	-0.004	-0.408
-570.661	-200.000	-0.041	-0.215
-569.646	-200.000	-0.074	0.000
-568.631	-58.302	0.180	0.078
-567.617	45.927	-0.155	0.144
-566.602	178.672	-0.111	-0.162
-565.588	63.472	0.047	0.047
-564.573	197.279	0.125	-0.190
-563.558	-100.898	-0.120	0.030
-562.544	-105.431	0.247	0.056
-561.529	110.407	-0.098	0.117
-560.515	38.138	-0.176	-0.156
-559.500	-192.210	-0.252	0.002
-558.485	-89.469	0.132	0.039
-557.471	-92.990	-0.329	-0.092
-556.456	112.107	0.151	0.183
-555.442	30.179	-0.351	0.299
-554.427	-22.980	-0.154	-0.093
-553.412	70.047	0.160	-0.165
-552.398	110.827	0.078	0.094
-551.383	-200.000	-0.054	0.446
-550.369	213.778	-0.098	0.155
-549.354	-200.000	0.039	-0.522
-548.339	800.000	-0.075	-0.287
-547.325	171.678	0.067	0.096
-546.310	-129.307	-0.125	0.017
-545.296	16.794	-0.223	-0.176
-544.281	-200.000	-0.002	-0.218
-543.266	-200.000	0.029	0.241
-542.252	438.466	0.027	0.060
-541.237	12.480	0.393	-0.303
-540.223	800.000	-0.048	0.169
-539.208	64.943	-0.143	-0.145
-538.193	167.451	-0.028	-0.040
-537.179	800.000	0.103	0.353
-536.164	-200.000	-0.003	-0.070
-535.150	62.431	-0.206	-0.206
-534.135	-8.402	0.207	-0.139
-533.121	63.371	-0.293	0.293
-532.106	-70.583	0.236	-0.089
-531.091	-115.789	-0.107	-0.020
-530.077	-200.000	0.008	0.188
-529.062	177.051	-0.074	0.107
-528.048	226.773	-0.015	-0.025
-527.033	800.000	-0.082	0.282
-526.018	-36.791	-0.244	-0.131
-525.004	-200.000	0.200	0.000
-523.989	115.157	-0.176	-0.214
-522.975	-200.000	-0.050	-0.371
-521.960	2.105	-0.242	-0.175
-520.945	-200.000	0.006	0.112
-519.931	173.054	-0.134	-0.192
-518.916	128.070	-0.072	-0.092
-517.902	-110.733	0.311	0.064
-516.887	61.647	-0.168	-0.167
-515.872	-147.272	0.331	-0.028
-514.858	234.872	-0.017	0.028
-513.843	720.461	0.116	0.308
-512.829	504.130	-0.097	0.224
-511.814	472.150	0.007	-0.015
-510.799	800.000	0.056	-0.239
-509.785	-94.557	0.227	0.062
-508.770	227.410	0.071	-0.115
-507.756	135.726	-0.298	-0.386
-506.741	433.727	-0.155	-0.336
-505.726	-105.913	0.102	-0.023
-504.712	17.783	0.101	0.080
-503.697	-200.000	-0.046	-0.330
-502.683	-200.000	-0.022	-0.258
-501.668	-200.000	-0.060	-0.332
-500.653	281.672	0.137	0.245
-499.639	325.995	-0.130	-0.247
-498.624	-128.428	-0.151	0.021
-497.610	-143.593	0.086	0.008
-496.595	-154.921	0.313	-0.021
-495.581	-91.667	0.021	-0.006
-494.566	76.667	-0.256	-0.271
-493.551	270.907	0.159	-0.278
-492.537	800.000	0.100	0.280
-491.522	733.416	-0.105	0.281
-490.508	-200.000	-0.029	0.423
-489.493	800.000	-0.018	0.068
-488.478	-104.240	-0.247	0.057
-487.464	243.085	0.058	-0.097
-486.449	162.663	-0.135	-0.188
-485.435	355.965	-0.068	0.135
-484.420	-69.561	0.344	0.131
-483.405	368.537	-0.159	-0.321
-482.391	-49.190	0.205	-0.097
-481.376	-25.031	0.212	-0.125
-480.362	31.855	-0.112	-0.096
-479.347	-200.000	0.007	-0.288
-478.332	-48.763	-0.082	-0.039
-477.318	-200.000	0.058	0.530
-476.303	-114.620	-0.166	-0.032
-475.289	114.408	-0.216	0.262
-474.274	-69.146	0.160	-0.062
-473.259	69.134	0.205	-0.210
-472.245	72.939	0.035	-0.037
-471.230	516.274	-0.028	-0.065
-470.216	-36.315	-0.301	-0.162
-469.201	-8.618	-0.064	0.043
-468.186	161.184	-0.179	-0.249
-467.172	119.020	-0.196	0.241
-466.157	-154.088	0.112	-0.008
-465.143	800.000	-0.063	0.260
-464.128	-150.436	0.038	-0.003
-463.113	145.683	0.106	-0.142
-462.099	-136.422	-0.382	0.044
-461.084	238.875	-0.186	0.308
-460.070	-121.988	0.417	-0.068
-459.055	12.726	-0.257	0.197
-458.040	-66.713	-0.167	0.066
-457.026	-200.000	0.008	0.314
-456.011	-97.221	0.149	0.039
-454.997	-117.190	-0.339	0.061
-453.982	79.719	-0.105	0.112
-452.968	-121.939	-0.093	0.015
-451.953	-200.000	-0.006	-0.252
-450.938	-58.849	-0.193	0.083
-449.924	214.613	0.080	-0.127
-448.909	-200.000	0.017	0.255
-447.895	-3.656	-0.227	0.157
-446.880	87.404	0.230	-0.253
-445.865	-133.679	0.113	-0.014
-444.851	58.667	-0.104	-0.101
-443.836	123.508	0.120	0.150
-442.822	-38.871	-0.187	-0.098
-441.807	-108.461	0.400	0.086
-440.792	268.603	0.148	0.259
-439.778	466.022	-0.069	0.154
-438.763	-3.817	-0.060	-0.042
-437.749	102.307	-0.189	0.219
-436.734	-200.000	-0.027	-0.258
-435.719	-177.895	-0.043	-0.001
-434.705	118.228	-0.075	-0.092
-433.690	-186.764	0.480	0.007
-432.676	-16.933	0.055	0.035
-431.661	-49.335	0.283	0.134
-430.646	-121.922	-0.215	-0.035
-429.632	90.081	-0.183	0.203
-428.617	800.000	0.023	0.068
-427.603	186.456	-0.383	-0.566
-426.588	-200.000	-0.010	0.152
-425.573	-45.698	0.185	0.091
-424.559	-77.441	-0.401	-0.138
-423.544	-200.000	-0.041	-0.257
-422.530	-200.000	0.009	0.117
-421.515	239.259	-0.070	-0.115
-420.500	-55.790	0.210	0.093
-419.486	3.638	0.137	0.099
-418.471	623.915	0.059	-0.148
-417.457	-119.268	0.246	-0.043
-416.442	-12.965	-0.047	-0.030
-415.428	-199.389	0.336	-0.002
-414.413	-142.152	-0.032	-0.003
-413.398	118.762	-0.230	0.283
-412.384	-77.496	0.038	0.013
-411.369	70.671	0.140	-0.144
-410.355	258.557	-0.047	0.081
-409.340	-39.009	-0.084	-0.044
-408.325	255.892	-0.281	-0.479
-407.311	-96.507	0.143	0.038
-406.296	-128.793	-0.165	0.023
-405.282	-25.773	-0.048	-0.028
-404.267	30.535	-0.100	-0.085
-403.252	91.672	-0.171	-0.191
-402.238	800.000	0.032	0.112
-401.223	-36.303	0.349	0.187
-400.209	800.000	0.114	0.353
-399.194	-200.000	0.036	0.165
-398.179	-6.576	-0.236	0.160
-397.165	-102.404	0.214	0.051
-396.150	800.000	0.089	0.246
-395.136	-200.000	-0.026	0.247
-394.121	171.495	0.031	0.044
-393.106	43.502	-0.128	0.116
-392.092	-75.363	-0.166	-0.059
-391.077	-200.000	-0.048	-0.368
-390.063	-93.549	-0.297	0.082
-389.048	-200.000	-0.058	0.300
-388.033	4.169	-0.467	0.340
-387.019	472.880	-0.125	-0.280
-386.004	204.024	-0.049	-0.076
-384.990	141.255	-0.270	0.355
-383.975	-200.000	0.017	0.376
-382.960	800.000	0.114	0.373
-381.946	94.078	0.040	0.045
-380.931	139.195	-0.315	0.411
-379.917	59.170	0.103	0.100
-378.902	-64.767	0.275	-0.110
-377.888	-62.559	-0.109	0.045
-376.873	192.987	0.158	-0.237
-375.858	91.947	0.199	0.223
-374.844	11.649	0.173	-0.132
-373.829	-121.561	-0.116	-0.019
-372.815	-200.000	0.005	0.340
-371.800	-68.122	0.324	-0.125
-370.785	-13.208	-0.314	-0.203
-369.771	-66.012	-0.088	0.035
-368.756	-87.522	-0.165	0.050
-367.742	-54.499	0.121	-0.054
-366.727	752.583	0.070	0.186
-365.712	-129.907	-0.097	-0.013
-364.698	80.571	0.127	-0.135
-363.683	-200.000	0.025	-0.145
-362.669	343.468	0.122	-0.237
-361.654	30.890	0.058	-0.049
-360.639	234.907	-0.096	0.157
-359.625	-200.000	0.026	0.114
-358.610	-200.000	0.002	0.226
-357.596	-50.398	-0.175	-0.082
-356.581	55.775	-0.246	0.236
-355.566	-200.000	-0.009	0.181
-354.552	-200.000	0.016	-0.121
-353.537	-200.000	-0.033	0.153
-352.523	-23.359	0.054	-0.032
-351.508	-159.759	-0.264	-0.014
-350.493	-72.252	0.253	-0.093
-349.479	-71.107	0.195	-0.073
-348.464	434.420	0.077	-0.167
-347.450	47.040	-0.171	-0.158
-346.435	-76.364	0.173	-0.060
-345.420	-4.985	0.287	0.196
-344.406	800.000	-0.011	0.046
-343.391	-45.066	-0.062	-0.031
-342.377	-44.375	0.287	-0.142
-341.362	64.705	-0.064	0.064
-340.348	-129.602	0.398	0.054
-339.333	800.000	0.045	-0.177
-338.318	299.295	-0.048	0.088
-337.304	91.104	0.190	0.211
-336.289	-29.206	0.168	-0.095
-335.275	-111.167	-0.088	0.018
-334.260	16.276	0.170	-0.133
-333.245	-200.000	0.018	0.085
-332.231	-4.235	0.325	0.223
-331.216	-147.855	-0.183	0.015
-330.202	-0.483	-0.107	0.075
-329.187	257.257	-0.067	-0.114
-328.172	149.887	0.045	0.060
-327.158	800.000	-0.090	0.385
-326.143	-169.460	0.175	-0.006
-325.129	-200.000	-0.038	0.181
-324.114	-4.819	-0.203	-0.139
-323.099	-200.000	0.009	0.268
-322.085	56.030	-0.079	-0.076
-321.070	66.202	0.119	-0.120
-320.056	-200.000	0.031	-0.186
-319.041	-105.366	0.017	0.004
-318.026	-107.744	-0.279	0.060
-317.012	-1.504	-0.208	-0.145
-315.997	-200.000	0.025	-0.191
-314.983	-43.055	0.245	-0.123
-313.968	-162.767	0.482	0.023
-312.953	-200.000	-0.001	0.301
-311.939	-68.232	-0.340	0.131
-310.924	21.171	0.121	0.097
-309.910	-104.473	-0.150	-0.034
-308.895	-161.477	0.277	-0.014
-307.880	286.685	-0.013	-0.023
-306.866	-200.000	0.004	0.089
-305.851	-116.052	-0.151	-0.028
-304.837	-72.383	-0.149	0.054
-303.822	15.448	0.199	0.155
-302.807	-21.326	-0.099	0.060
-301.793	21.150	0.041	-0.033
-300.778	-63.826	0.468	-0.190
-299.764	-200.000	-0.051	0.245
-298.749	-200.000	0.030	-0.198
-297.735	-138.484	-0.222	0.024
-296.720	-65.105	-0.373	0.149
-295.705	279.912	-0.182	0.322
-294.691	-200.000	-0.027	-0.137
-293.676	194.422	0.059	0.089
-292.662	-102.133	0.328	-0.078
-291.647	800.000	-0.091	-0.325
-290.632	-31.081	-0.259	-0.144
-289.618	212.294	-0.157	0.245
-288.603	800.000	0.067	0.206
-287.589	-200.000	0.013	-0.245
-286.574	-10.584	0.288	-0.189
-285.559	114.677	-0.136	-0.164
-284.545	-200.000	0.055	-0.287
-283.530	-50.745	-0.148	-0.069
-282.516	139.745	0.141	-0.183
-281.501	-11.212	-0.202	-0.132
-280.486	200.729	0.020	-0.031
-279.472	-35.820	0.253	-0.136
-278.457	-110.618	0.031	-0.006
-277.443	800.000	0.076	0.245
-276.428	-13.053	-0.150	-0.097
-275.413	-28.395	-0.314	0.179
-274.399	97.262	-0.080	0.091
-273.384	-74.107	-0.156	0.056
-272.370	159.893	0.086	-0.119
-271.355	-124.806	-0.296	-0.045
-270.340	800.000	-0.053	0.205
-269.326	164.224	-0.165	-0.230
-268.311	800.000	-0.032	-0.087
-267.297	-180.427	0.110	0.002
-266.282	600.077	0.017	0.041
-265.267	-37.677	0.216	-0.114
-264.253	800.000	0.082	-0.277
-263.238	20.606	0.005	0.004
-262.224	-101.868	0.068	0.016
-261.209	-200.000	-0.004	-0.281
-260.195	-117.054	-0.257	0.046
-259.180	111.992	-0.138	0.165
-258.165	-28.177	0.090	0.051
-257.151	201.371	-0.108	-0.165
-256.136	-68.884	0.313	0.120
-255.122	227.054	-0.078	-0.126
-254.107	-13.608	-0.258	0.165
-253.092	664.378	0.026	0.067
-252.078	43.590	0.107	0.097
-251.063	29.796	0.058	0.049
-250.049	298.361	0.122	-0.222
-249.034	62.307	-0.221	0.218
-248.019	-157.778	0.516	-0.030
-247.005	-200.000	-0.023	-0.121
-245.990	-200.000	-0.001	-0.148
-244.976	-23.290	0.166	-0.098
-243.961	470.502	0.062	0.138
-242.946	-58.512	0.152	0.065
-241.932	202.126	0.099	0.151
-240.917	230.589	-0.165	-0.267
-239.903	-149.591	0.061	-0.005
-238.888	33.959	-0.105	-0.091
-237.873	-200.000	0.018	-0.276
-236.859	-86.216	0.132	-0.040
-235.844	-91.993	0.113	0.032
-234.830	-29.799	0.303	0.170
-233.815	-200.000	-0.006	0.329
-232.800	-151.940	0.310	-0.022
-231.786	-200.000	0.030	-0.149
-230.771	792.287	-0.028	0.076
-229.757	665.368	-0.101	-0.257
-228.742	141.744	0.167	0.218
-227.727	232.716	0.105	-0.170
-226.713	-200.000	0.017	-0.311
-225.698	55.062	0.360	0.343
-224.684	131.549	0.173	0.219
-223.669	-41.347	-0.220	-0.112
-222.655	87.546	-0.084	-0.092
-221.640	60.383	-0.062	-0.061
-220.625	-86.279	0.164	-0.050
-219.611	-87.760	-0.159	-0.047
-218.596	-73.155	-0.103	-0.037
-217.582	-200.000	0.032	0.349
-216.567	119.542	0.209	0.255
-215.552	-37.336	0.112	-0.059
-214.538	-192.342	-0.178	0.002
-213.523	-200.000	0.025	0.122
-212.509	-143.046	0.116	-0.011
-211.494	118.545	0.156	-0.190
-210.479	156.204	-0.157	0.214
-209.465	1.257	-0.047	-0.033
-208.450	800.000	-0.095	-0.353
-207.436	277.085	-0.146	0.256
-206.421	800.000	-0.052	0.175
-205.406	-200.000	-0.005	0.087
-204.392	567.140	0.063	-0.151
-203.377	800.000	-0.008	-0.027
-202.363	-55.098	0.336	0.149
-201.348	-74.932	-0.358	-0.127
-200.333	129.730	0.240	0.303
-199.319	51.895	0.089	0.083
-198.304	-22.048	0.122	-0.073
-197.290	661.111	0.022	0.055
-196.275	527.224	-0.112	-0.261
-195.260	91.480	0.173	0.192
-194.246	221.365	-0.123	0.195
-193.231	72.673	0.079	0.082
-192.217	-86.885	0.187	0.056
-191.202	-200.000	0.018	0.200
-190.187	25.249	-0.059	-0.048
-189.173	-104.452	0.324	-0.074
-188.158	69.126	0.172	-0.174
-187.144	-103.455	0.176	-0.041
-186.129	1.579	0.158	0.112
-185.114	800.000	-0.043	-0.175
-184.100	-200.000	0.000	-0.113
-183.085	20.185	0.012	-0.010
-182.071	-200.000	0.048	-0.436
-181.056	38.492	-0.068	0.060
-180.042	375.598	0.183	0.367
-179.027	-200.000	0.030	0.373
-178.012	98.109	0.152	-0.172
-176.998	-200.000	0.053	-0.304
-175.983	-200.000	-0.025	-0.126
-174.969	-113.039	-0.347	0.067
-173.954	50.165	-0.203	0.189
-172.939	192.066	0.076	0.113
-171.925	-200.000	-0.003	0.115
-170.910	231.566	0.040	0.064
-169.896	-111.804	0.202	-0.040
-168.881	81.403	-0.046	-0.049
-167.866	-59.963	-0.200	-0.084
-166.852	-5.415	-0.324	0.219
-165.837	-113.061	-0.082	-0.016
-164.823	-157.533	0.294	0.017
-163.808	-129.122	-0.113	0.016
-162.793	282.101	0.262	-0.462
-161.779	17.251	0.259	-0.202
-160.764	-49.642	-0.198	-0.093
-159.750	-185.989	-0.243	-0.004
-158.735	800.000	-0.157	0.490
-157.720	-123.863	-0.101	-0.016
-156.706	-54.149	-0.076	0.034
-155.691	687.768	-0.034	0.086
-154.677	-200.000	-0.011	0.273
-153.662	-14.256	-0.171	0.108
-152.647	655.757	0.107	-0.270
-151.633	-163.781	0.065	0.003
-150.618	621.385	-0.139	0.345
-149.604	36.233	0.222	0.193
-148.589	-67.000	0.149	0.058
-147.574	623.880	-0.055	-0.136
-146.560	-47.240	-0.223	-0.107
-145.545	-25.492	-0.201	-0.117
-144.531	-138.960	-0.363	-0.039
-143.516	29.804	0.179	-0.150
-142.502	84.153	-0.194	-0.208
-141.487	100.138	-0.037	0.043
-140.472	305.323	0.178	0.325
-139.458	232.256	-0.246	0.397
-138.443	127.880	-0.348	-0.435
-137.429	578.881	0.047	-0.113
-136.414	542.341	-0.093	-0.218
-135.399	207.489	-0.132	0.202
-134.385	-73.360	0.048	-0.017
-133.370	-200.000	-0.004	-0.257
-132.356	-135.692	-0.550	-0.064
-131.341	298.171	0.087	0.157
-130.326	62.112	0.095	-0.094
-129.312	-49.397	-0.159	-0.075
-128.297	415.216	0.017	0.037
-127.283	92.022	-0.141	-0.156
-126.268	-36.745	0.088	0.046
-125.253	-153.959	-0.410	0.027
-124.239	-112.352	0.227	0.045
-123.224	300.038	0.058	-0.105
-122.210	-56.289	0.276	-0.121
