DTS Sentinel unit serial number:	SN413079Multiplexer serial number:	ORYXHardware model number:	OX4-SRSoftware version number:	ORYX F/W v4.00 Oryx Data Collector v3.7.2.0data status	okinstallation	princeton_trtdifferential loss correction	single-endedforward channel	channel 3reverse channel	N/Adate	2019/09/13time	22:00:34forward acquisition time	60.00reverse acquisition time	0.00gamma	496.2192k internal	0.2335k external	0.2335temperature offset calibration	1.0059default loss term (dB/km)	0.3790temperature slope calibration	1.0000multiplexer offset coefficient	1.0000multiplexer slope coefficient	1.0000fibre end	0.00T internal ref (°C)	28.00T ext. ref 1 (°C)	3.19T ext. ref 2 (°C)	22.75length (m)	temperature (°C)	Stokes	anti-Stokes-747.200	-95.648	0.204	0.055
-746.185	118.670	-0.147	0.182
-745.171	800.000	0.105	0.337
-744.156	34.391	0.072	-0.063
-743.142	38.804	-0.183	0.164
-742.127	-28.602	-0.342	0.198
-741.112	-200.000	-0.041	-0.383
-740.098	297.645	-0.081	0.149
-739.083	709.019	0.106	0.280
-738.069	-145.504	-0.439	0.040
-737.054	-200.000	-0.012	0.229
-736.039	475.616	0.018	0.040
-735.025	-68.249	0.293	0.115
-734.010	-48.890	-0.387	-0.186
-732.996	800.000	-0.079	-0.342
-731.981	-10.942	-0.052	0.035
-730.966	-131.302	-0.029	-0.004
-729.952	-45.332	-0.202	0.101
-728.937	-200.000	-0.000	-0.005
-727.923	800.000	-0.040	0.120
-726.908	-120.925	0.125	-0.021
-725.894	-137.121	0.158	0.018
-724.879	489.211	0.118	0.270
-723.864	-114.173	-0.020	-0.004
-722.850	483.173	-0.142	-0.324
-721.835	725.758	0.098	0.262
-720.821	15.587	-0.077	-0.061
-719.806	85.037	0.214	-0.236
-718.791	-200.000	0.010	-0.336
-717.777	-3.299	-0.193	0.135
-716.762	-136.804	-0.012	0.001
-715.748	203.658	0.090	-0.140
-714.733	468.394	-0.113	0.256
-713.718	12.646	0.117	0.090
-712.704	-189.703	0.195	0.002
-711.689	27.727	0.125	-0.106
-710.675	-49.695	-0.087	0.042
-709.660	-104.835	-0.270	0.062
-708.645	-26.483	0.166	-0.098
-707.631	535.172	-0.143	-0.340
-706.616	-143.851	-0.521	-0.049
-705.602	-176.090	0.189	-0.005
-704.587	2.492	-0.179	0.130
-703.572	-200.000	-0.018	0.146
-702.558	357.288	0.112	-0.224
-701.543	41.103	-0.037	-0.034
-700.529	-177.169	-0.440	0.011
-699.514	-200.000	0.012	-0.437
-698.499	-97.093	0.062	-0.016
-697.485	252.379	-0.062	-0.106
-696.470	800.000	-0.193	-0.538
-695.456	-96.512	-0.131	0.035
-694.441	27.395	-0.099	-0.083
-693.426	-68.087	-0.333	0.130
-692.412	-37.409	-0.122	0.065
-691.397	35.351	-0.078	-0.069
-690.383	36.574	-0.311	0.275
-689.368	20.440	-0.097	-0.078
-688.354	362.676	0.042	0.085
-687.339	508.819	0.170	-0.396
-686.324	641.800	-0.061	0.156
-685.310	80.285	-0.062	0.067
-684.295	-124.952	-0.269	0.042
-683.281	104.867	0.289	0.342
-682.266	28.174	0.212	-0.179
-681.251	318.738	-0.065	0.124
-680.237	-133.225	0.144	0.018
-679.222	-156.319	-0.169	-0.011
-678.208	-200.000	0.025	0.189
-677.193	-200.000	-0.012	0.276
-676.178	-31.607	-0.099	0.056
-675.164	769.037	0.065	0.179
-674.149	800.000	-0.029	-0.114
-673.135	-67.372	0.244	-0.096
-672.120	446.512	0.070	-0.155
-671.105	122.804	-0.290	-0.363
-670.091	-56.483	-0.400	0.178
-669.076	-145.752	-0.389	0.035
-668.062	241.694	-0.116	-0.195
-667.047	142.940	-0.171	0.228
-666.032	-25.142	0.163	-0.097
-665.018	-190.589	0.390	0.004
-664.003	646.825	-0.097	0.249
-662.989	-102.323	0.355	-0.085
-661.974	645.499	-0.239	-0.611
-660.959	289.393	-0.193	-0.350
-659.945	-14.060	-0.141	-0.091
-658.930	-38.452	-0.191	0.101
-657.916	178.726	-0.188	0.275
-656.901	-121.815	-0.267	-0.044
-655.886	544.438	-0.044	-0.105
-654.872	-152.291	0.073	-0.005
-653.857	-105.676	-0.082	0.019
-652.843	208.468	-0.067	0.105
-651.828	47.497	0.115	-0.108
-650.814	242.641	-0.086	-0.144
-649.799	-116.643	-0.148	0.027
-648.784	-3.799	-0.175	-0.122
-647.770	-124.831	-0.158	0.024
-646.755	138.039	-0.110	-0.144
-645.741	-121.237	-0.121	-0.020
-644.726	570.046	-0.059	-0.145
-643.711	-94.460	-0.077	-0.021
-642.697	-146.893	-0.199	-0.017
-641.682	88.588	0.267	-0.297
-640.668	-61.164	0.193	-0.082
-639.653	6.421	0.095	0.071
-638.638	-124.442	0.212	0.033
-637.624	-200.000	0.045	0.445
-636.609	-97.274	-0.142	0.037
-635.595	-47.634	-0.315	-0.153
-634.580	64.691	0.077	0.078
-633.565	-113.572	0.161	0.031
-632.551	17.133	-0.352	-0.279
-631.536	-200.000	0.027	-0.336
-630.522	-200.000	-0.015	-0.100
-629.507	68.239	0.282	0.289
-628.492	-144.273	-0.590	-0.055
-627.478	800.000	0.030	0.096
-626.463	230.055	-0.098	-0.161
-625.449	-116.258	-0.083	-0.015
-624.434	-73.513	-0.405	0.148
-623.419	8.246	-0.084	-0.063
-622.405	-200.000	0.012	-0.142
-621.390	10.538	-0.127	-0.097
-620.376	-81.781	-0.248	0.081
-619.361	197.589	0.237	0.361
-618.346	44.792	-0.093	0.085
-617.332	-130.583	0.211	0.028
-616.317	257.462	-0.114	0.196
-615.303	-200.000	-0.056	-0.320
-614.288	538.360	-0.080	0.190
-613.273	16.532	0.150	-0.119
-612.259	17.925	0.181	-0.144
-611.244	-132.458	0.326	0.042
-610.230	12.512	0.350	-0.270
-609.215	3.464	0.047	0.034
-608.201	134.992	-0.147	-0.191
-607.186	-134.793	0.340	0.041
-606.171	200.371	0.070	-0.108
-605.157	83.498	-0.174	-0.190
-604.142	800.000	0.066	-0.260
-603.128	-153.870	0.149	-0.010
-602.113	-82.408	-0.224	0.073
-601.098	-20.650	0.104	-0.064
-600.084	33.652	-0.118	-0.103
-599.069	-40.075	-0.402	0.209
-598.055	209.649	0.033	0.052
-597.040	-123.227	-0.085	0.014
-596.025	-6.576	0.068	0.046
-595.011	114.150	0.163	0.198
-593.996	-102.137	-0.190	0.046
-592.982	141.144	-0.206	0.273
-591.967	-50.224	0.275	-0.130
-590.952	-200.000	-0.064	-0.278
-589.938	800.000	0.061	-0.193
-588.923	293.724	-0.079	-0.145
-587.909	160.513	-0.143	0.199
-586.894	71.004	-0.033	-0.034
-585.879	-200.000	0.012	0.307
-584.865	602.751	0.028	0.070
-583.850	15.661	-0.099	0.078
-582.836	-40.305	0.410	0.213
-581.821	-102.468	-0.108	0.026
-580.806	800.000	0.020	-0.074
-579.792	496.753	-0.146	0.335
-578.777	185.086	0.156	0.231
-577.763	-200.000	0.021	-0.222
-576.748	-53.102	0.190	-0.087
-575.733	220.473	-0.201	-0.322
-574.719	-14.343	-0.265	-0.170
-573.704	800.000	-0.027	-0.075
-572.690	-200.000	-0.031	-0.231
-571.675	-126.993	0.177	0.026
-570.661	235.902	-0.238	-0.393
-569.646	-100.283	0.188	0.046
-568.631	-200.000	0.002	-0.280
-567.617	293.335	0.105	-0.191
-566.602	-56.366	-0.267	-0.118
-565.588	9.649	0.121	-0.091
-564.573	800.000	-0.055	0.182
-563.558	-200.000	0.004	-0.068
-562.544	-12.958	-0.065	0.042
-561.529	269.477	0.087	-0.153
-560.515	-61.722	-0.183	0.076
-559.500	-83.870	0.018	-0.006
-558.485	-39.022	-0.118	-0.062
-557.471	-200.000	0.046	0.263
-556.456	-200.000	-0.007	-0.113
-555.442	-143.670	0.047	-0.004
-554.427	800.000	-0.065	-0.251
-553.412	133.710	0.111	0.143
-552.398	148.836	0.133	-0.179
-551.383	800.000	-0.108	0.359
-550.369	-200.000	0.046	0.322
-549.354	5.250	0.031	0.023
-548.339	27.044	0.143	0.120
-547.325	42.681	0.037	-0.033
-546.310	-76.415	-0.118	-0.041
-545.296	-77.778	0.218	0.075
-544.281	119.586	0.189	-0.233
-543.266	800.000	0.040	-0.147
-542.252	27.508	-0.255	-0.213
-541.237	17.647	-0.273	0.216
-540.223	-200.000	-0.011	-0.336
-539.208	-92.095	-0.349	-0.098
-538.193	21.488	-0.397	0.322
-537.179	504.510	0.096	0.221
-536.164	213.828	0.138	0.218
-535.150	7.021	0.169	0.126
-534.135	177.330	0.098	-0.142
-533.121	800.000	0.098	-0.281
-532.106	-78.597	-0.345	-0.118
-531.091	800.000	0.071	0.304
-530.077	30.648	0.101	0.086
-529.062	-200.000	-0.004	0.183
-528.048	214.015	0.183	-0.289
-527.033	-200.000	-0.103	-0.502
-526.018	-200.000	-0.025	0.302
-525.004	-200.000	0.022	-0.284
-523.989	77.317	0.208	-0.220
-522.975	-27.507	-0.243	-0.140
-521.960	-200.000	-0.058	0.385
-520.945	-155.570	-0.193	0.012
-519.931	-200.000	-0.014	-0.165
-518.916	120.060	-0.165	0.204
-517.902	-85.442	0.262	0.081
-516.887	764.647	-0.026	-0.070
-515.872	342.319	-0.115	0.225
-514.858	-41.182	0.314	0.161
-513.843	-200.000	-0.012	-0.058
-512.829	48.570	-0.208	0.194
-511.814	-167.621	-0.101	-0.004
-510.799	-128.467	0.259	-0.037
-509.785	-62.498	-0.176	-0.073
-508.770	-167.855	-0.211	-0.008
-507.756	-200.000	-0.061	0.451
-506.741	-53.131	-0.269	-0.123
-505.726	-185.976	0.049	-0.001
-504.712	11.242	0.178	0.136
-503.697	800.000	-0.025	-0.069
-502.683	505.830	0.117	0.270
-501.668	-42.131	0.107	-0.054
-500.653	29.448	0.096	-0.081
-499.639	33.478	-0.144	-0.124
-498.624	-57.956	0.129	0.056
-497.610	-7.965	-0.033	0.022
-496.595	-200.000	0.054	0.286
-495.581	-200.000	-0.007	0.150
-494.566	3.307	-0.123	-0.089
-493.551	-200.000	0.073	-0.371
-492.537	800.000	0.139	-0.468
-491.522	20.748	0.091	-0.074
-490.508	-21.580	-0.260	0.158
-489.493	800.000	-0.070	0.250
-488.478	800.000	0.098	0.353
-487.464	-200.000	0.004	-0.029
-486.449	-200.000	0.038	-0.375
-485.435	361.745	0.064	0.128
-484.420	169.996	-0.115	-0.164
-483.405	-200.000	0.036	0.194
-482.391	-189.560	-0.176	-0.002
-481.376	181.539	-0.023	0.033
-480.362	-39.212	-0.061	0.032
-479.347	24.115	0.098	-0.080
-478.332	109.504	-0.063	-0.075
-477.318	-109.358	-0.051	-0.011
-476.303	603.266	-0.013	-0.031
-475.289	-138.340	-0.069	-0.008
-474.274	99.568	-0.178	-0.204
-473.259	-37.507	-0.204	-0.108
-472.245	-191.255	-0.311	0.003
-471.230	-0.475	0.077	0.054
-470.216	-91.737	0.076	-0.022
-469.201	-121.561	0.383	-0.063
-468.186	36.394	-0.157	0.138
-467.172	263.735	0.083	-0.143
-466.157	-200.000	0.023	-0.110
-465.143	-200.000	-0.044	-0.369
-464.128	47.118	0.062	0.057
-463.113	-66.165	0.192	0.076
-462.099	418.307	0.087	0.185
-461.084	800.000	-0.062	0.215
-460.070	-200.000	-0.014	0.300
-459.055	800.000	0.058	-0.160
-458.040	-151.266	0.421	-0.031
-457.026	-2.787	-0.073	-0.051
-456.011	753.602	0.067	-0.179
-454.997	-53.039	0.158	0.072
-453.982	-200.000	0.049	-0.279
-452.968	433.650	-0.125	0.269
-451.953	23.184	0.246	-0.201
-450.938	80.405	0.154	-0.165
-449.924	-110.515	-0.320	0.066
-448.909	-39.626	0.236	-0.123
-447.895	-30.023	-0.218	-0.123
-446.880	366.887	0.097	0.193
-445.865	7.569	0.148	0.110
-444.851	-200.000	0.028	-0.135
-443.836	-200.000	-0.047	0.298
-442.822	-199.193	-0.312	0.002
-441.807	194.932	-0.108	-0.163
-440.792	120.900	0.176	0.218
-439.778	144.514	-0.308	-0.409
-438.763	-56.227	0.337	0.149
-437.749	-30.840	0.070	0.039
-436.734	41.133	-0.318	-0.285
-435.719	-95.063	-0.046	-0.012
-434.705	363.614	-0.159	0.317
-433.690	677.684	0.110	-0.283
-432.676	-28.259	-0.175	0.100
-431.661	800.000	0.082	0.251
-430.646	-200.000	-0.003	-0.081
-429.632	-200.000	-0.000	0.231
-428.617	72.265	0.173	0.179
-427.603	-59.390	-0.258	0.110
-426.588	40.980	0.469	0.420
-425.573	92.097	-0.327	0.365
-424.559	-44.764	-0.118	0.058
-423.544	-11.443	0.320	-0.209
-422.530	-119.062	0.079	-0.014
-421.515	-71.292	0.208	-0.077
-420.500	800.000	0.101	-0.305
-419.486	-110.964	0.282	0.058
-418.471	179.782	0.146	0.212
-417.457	800.000	0.066	-0.282
-416.442	-92.639	-0.252	-0.070
-415.428	-97.684	-0.127	0.033
-414.413	-71.206	0.132	0.049
-413.398	-200.000	-0.003	0.155
-412.384	800.000	0.075	-0.245
-411.369	259.196	-0.067	0.115
-410.355	34.270	-0.166	0.143
-409.340	-69.422	0.271	0.103
-408.325	776.237	0.034	0.092
-407.311	-54.651	0.078	0.035
-406.296	186.577	-0.124	-0.184
-405.282	-25.970	-0.034	-0.020
-404.267	624.786	-0.080	-0.199
-403.252	180.095	-0.234	-0.340
-402.238	-4.015	-0.171	-0.117
-401.223	-200.000	0.000	-0.059
-400.209	-16.642	0.096	0.060
-399.194	-105.213	-0.347	-0.079
-398.179	800.000	-0.015	0.052
-397.165	194.864	0.032	0.049
-396.150	-200.000	-0.018	-0.224
-395.136	32.707	0.302	-0.259
-394.121	51.825	-0.172	0.162
-393.106	-192.061	-0.150	-0.001
-392.092	800.000	0.078	0.227
-391.077	-27.006	0.145	0.084
-390.063	-200.000	0.018	0.089
-389.048	-181.245	0.202	-0.004
-388.033	-170.303	-0.239	0.008
-387.019	180.344	0.105	0.153
-386.004	-79.807	-0.352	-0.117
-384.990	63.626	0.026	-0.025
-383.975	800.000	0.033	-0.111
-382.960	-200.000	-0.033	-0.248
-381.946	800.000	-0.032	-0.105
-380.931	424.374	-0.036	0.076
-379.917	-103.811	-0.315	-0.073
-378.902	-200.000	-0.007	-0.067
-377.888	-200.000	-0.017	0.165
-376.873	8.567	-0.201	-0.150
-375.858	457.532	0.029	0.065
-374.844	174.626	0.124	0.178
-373.829	-6.166	-0.118	-0.080
-372.815	-129.934	0.395	0.054
-371.800	-200.000	0.010	0.158
-370.785	734.856	-0.240	0.638
-369.771	15.007	0.069	-0.054
-368.756	247.613	0.039	0.066
-367.742	-67.288	-0.342	-0.133
-366.727	-88.302	-0.294	0.087
-365.712	800.000	0.080	0.290
-364.698	-127.151	0.084	-0.012
-363.683	169.064	-0.122	-0.173
-362.669	-17.451	-0.020	0.013
-361.654	-200.000	0.020	-0.104
-360.639	194.415	-0.078	0.117
-359.625	-62.924	-0.143	-0.059
-358.610	-38.683	0.259	0.135
-357.596	-45.864	-0.148	0.073
-356.581	-57.359	0.068	0.030
-355.566	-200.000	0.065	-0.308
-354.552	344.351	-0.084	0.163
-353.537	800.000	0.043	0.154
-352.523	108.407	0.172	0.203
-351.508	-200.000	0.001	-0.015
-350.493	-200.000	-0.019	0.275
-349.479	577.849	0.132	0.320
-348.464	157.347	0.132	-0.181
-347.450	467.777	0.083	-0.184
-346.435	367.394	0.162	0.324
-345.420	-200.000	-0.024	-0.282
-344.406	-200.000	-0.017	-0.235
-343.391	-200.000	-0.065	-0.532
-342.377	-100.879	0.172	-0.042
-341.362	-35.437	-0.165	0.089
-340.348	-155.435	0.270	-0.017
-339.333	-200.000	0.167	-0.000
-338.318	772.332	0.119	-0.320
-337.304	-155.914	-0.082	-0.005
-336.289	800.000	0.057	-0.193
-335.275	-57.576	-0.236	-0.102
-334.260	-123.653	0.166	0.026
-333.245	-121.915	-0.130	0.021
-332.231	800.000	0.075	-0.303
-331.216	235.943	-0.004	-0.006
-330.202	74.078	-0.136	-0.141
-329.187	305.253	-0.089	-0.163
-328.172	-124.973	-0.263	0.040
-327.158	-0.969	-0.062	-0.043
-326.143	-51.832	-0.251	-0.115
-325.129	-200.000	-0.069	-0.339
-324.114	800.000	0.066	0.286
-323.099	800.000	0.023	-0.076
-322.085	162.367	0.064	-0.088
-321.070	-200.000	-0.003	-0.093
-320.056	-36.254	0.065	0.035
-319.041	317.822	-0.125	0.235
-318.026	-154.204	-0.164	-0.011
-317.012	108.051	-0.175	-0.206
-315.997	167.208	0.121	0.169
-314.983	334.492	0.229	0.438
-313.968	-33.110	-0.329	-0.180
-312.953	-101.387	0.255	-0.062
-311.939	415.710	-0.089	0.187
-310.924	-200.000	-0.004	-0.199
-309.910	800.000	0.013	-0.037
-308.895	-35.991	0.294	-0.157
-307.880	454.952	-0.040	0.087
-306.866	800.000	-0.060	0.192
-305.851	-168.697	-0.370	0.014
-304.837	109.815	0.128	0.152
-303.822	9.648	0.287	0.215
-302.807	-200.000	-0.010	-0.224
-301.793	-200.000	-0.028	0.194
-300.778	-168.631	-0.134	-0.005
-299.764	-86.493	0.130	-0.039
-298.749	800.000	0.029	-0.083
-297.735	126.382	0.204	0.255
-296.720	800.000	0.042	0.125
-295.705	35.727	0.135	0.117
-294.691	7.935	0.146	0.108
-293.676	800.000	-0.005	-0.019
-292.662	-49.027	-0.251	0.119
-291.647	287.091	-0.056	0.100
-290.632	230.659	-0.206	-0.332
-289.618	90.533	0.114	0.126
-288.603	-200.000	0.024	0.187
-287.589	-65.982	0.170	0.067
-286.574	-200.000	0.001	-0.150
-285.559	-42.207	0.344	0.173
-284.545	800.000	-0.070	-0.196
-283.530	25.922	-0.125	-0.103
-282.516	-200.000	-0.074	0.456
-281.501	-11.409	0.129	-0.083
-280.486	-53.944	-0.205	-0.092
-279.472	-200.000	0.076	-0.351
-278.457	150.287	-0.075	-0.101
-277.443	-200.000	0.057	0.306
-276.428	-200.000	-0.009	-0.311
-275.413	-200.000	-0.028	-0.219
-274.399	-163.560	0.333	-0.016
-273.384	74.252	0.120	-0.124
-272.370	-200.000	-0.003	0.052
-271.355	800.000	0.029	-0.098
-270.340	-46.116	0.065	0.031
-269.326	-92.595	0.247	0.068
-268.311	57.296	0.038	0.037
-267.297	-43.279	-0.121	0.061
-266.282	152.889	0.243	0.328
-265.267	-110.021	-0.181	0.037
-264.253	45.325	-0.107	0.097
-263.238	378.944	-0.023	-0.047
-262.224	-200.000	0.010	0.310
-261.209	-200.000	-0.068	0.323
-260.195	501.454	-0.128	0.292
-259.180	800.000	0.029	0.117
-258.165	-171.798	0.125	0.004
-257.151	287.331	-0.160	0.285
-256.136	800.000	0.023	-0.081
-255.122	-45.428	-0.065	-0.032
-254.107	71.143	0.328	0.335
-253.092	-200.000	0.008	0.117
-252.078	1.498	-0.259	0.184
-251.063	172.896	0.125	0.178
-250.049	295.356	0.139	0.251
-249.034	303.834	0.019	0.034
-248.019	-112.822	0.259	-0.051
-247.005	800.000	0.076	-0.237
-245.990	577.592	-0.046	0.110
-244.976	74.536	0.048	0.050
-243.961	459.538	-0.070	0.153
-242.946	142.210	0.326	0.427
-241.932	-70.572	0.099	-0.037
-240.917	800.000	0.035	0.130
-239.903	90.351	0.176	-0.194
-238.888	-200.000	-0.069	-0.450
-237.873	130.977	0.020	-0.025
-236.859	-13.140	0.049	0.031
-235.844	-46.492	-0.182	0.088
-234.830	800.000	-0.005	-0.017
-233.815	-183.576	-0.439	0.007
-232.800	140.249	0.171	0.223
-231.786	67.046	-0.128	0.129
-230.771	-94.365	-0.037	0.010
-229.757	800.000	0.055	0.234
-228.742	21.402	-0.200	0.160
-227.727	-134.773	0.199	0.024
-226.713	-66.974	-0.106	-0.041
-225.698	-200.000	-0.045	0.437
-224.684	800.000	0.043	-0.134
-223.669	4.448	0.092	0.066
-222.655	-15.525	-0.147	-0.092
-221.640	-73.169	0.185	0.067
-220.625	-200.000	-0.001	0.077
-219.611	-200.000	0.019	0.233
-218.596	-70.076	0.261	-0.098
-217.582	-47.594	0.162	0.077
-216.567	111.228	-0.209	-0.248
-215.552	85.083	-0.162	-0.175
-214.538	-52.786	-0.153	0.069
-213.523	231.896	-0.227	0.367
-212.509	-178.498	-0.191	0.004
-211.494	-200.000	-0.041	0.278
-210.479	55.615	0.296	-0.282
-209.465	-200.000	0.055	-0.486
-208.450	87.979	0.147	-0.160
-207.436	276.881	-0.121	-0.212
-206.421	457.217	0.024	-0.053
-205.406	279.224	0.174	-0.306
-204.392	-200.000	-0.024	-0.121
-203.377	75.844	-0.081	-0.084
-202.363	-164.210	0.220	0.010
-201.348	-7.801	0.236	-0.157
-200.333	-176.707	0.152	-0.004
-199.319	-111.970	0.246	0.049
-198.304	-200.000	-0.031	-0.270
-197.290	-46.348	0.186	-0.090
-196.275	323.684	0.087	-0.163
-195.260	418.433	-0.086	0.182
-194.246	-53.706	-0.298	-0.134
-193.231	68.745	-0.253	-0.255
-192.217	107.631	0.233	-0.273
-191.202	800.000	-0.082	-0.273
-190.187	800.000	0.024	-0.097
-189.173	-80.364	0.243	0.080
-188.158	79.385	-0.135	-0.142
-187.144	380.973	-0.110	0.222
-186.129	518.379	-0.085	0.196
-185.114	56.617	-0.073	-0.070
-184.100	-31.627	0.293	-0.161
-183.085	-11.093	0.035	-0.023
-182.071	371.102	0.223	0.444
-181.056	155.086	-0.164	-0.222
-180.042	-13.158	0.183	0.117
-179.027	-1.774	0.191	-0.132
-178.012	-31.609	-0.230	-0.127
-176.998	-93.320	0.356	0.097
-175.983	-200.000	0.010	-0.058
-174.969	800.000	-0.028	0.113
-173.954	-195.627	-0.173	0.001
-172.939	800.000	0.063	-0.229
-171.925	49.833	-0.214	-0.199
-170.910	-23.702	0.296	0.174
-169.896	-176.736	-0.419	-0.010
-168.881	-22.845	-0.288	0.171
-167.866	341.970	-0.061	0.117
-166.852	-28.838	0.156	-0.088
-165.837	-200.000	-0.043	-0.247
-164.823	-200.000	0.053	-0.294
-163.808	95.336	0.147	-0.164
-162.793	-200.000	-0.073	0.400
-161.779	70.761	-0.062	0.063
-160.764	-38.122	0.131	-0.068
-159.750	-72.089	0.373	0.136
-158.735	-173.655	-0.324	0.010
-157.720	-152.364	-0.028	0.002
-156.706	800.000	0.070	-0.195
-155.691	-129.945	0.280	0.038
-154.677	-56.940	-0.120	0.052
-153.662	800.000	-0.044	0.182
-152.647	-11.278	0.185	0.120
-151.633	-200.000	0.031	0.340
-150.618	311.234	-0.252	-0.463
-149.604	-109.444	0.125	-0.026
-148.589	-200.000	-0.022	-0.308
-147.574	77.317	-0.164	-0.171
-146.560	297.508	-0.158	0.284
-145.545	-166.968	-0.267	0.011
-144.531	-115.589	-0.353	-0.065
-143.516	573.079	-0.068	-0.164
-142.502	428.344	0.160	0.338
-141.487	3.114	0.286	0.204
-140.472	233.828	-0.035	-0.057
-139.458	-34.811	-0.303	-0.162
-138.443	63.296	-0.374	-0.368
-137.429	-124.324	-0.192	0.029
-136.414	18.129	0.198	-0.155
-135.399	-200.000	0.005	-0.047
-134.385	318.373	0.243	0.452
-133.370	-200.000	0.136	-0.620
-132.356	-88.386	0.301	0.088
-131.341	-87.672	0.047	0.014
-130.326	-110.722	0.277	-0.056
-129.312	-2.872	0.178	-0.122
-128.297	243.408	-0.043	0.072
-127.283	-119.739	-0.278	0.047
-126.268	192.220	-0.048	0.071
-125.253	-77.357	0.189	0.064
-124.239	83.662	0.203	-0.217
-123.224	274.728	0.042	0.073
-122.210	353.102	0.126	0.244
-121.195	-200.000	-0.008	0.091
