DTS Sentinel unit serial number:	SN413079Multiplexer serial number:	ORYXHardware model number:	OX4-SRSoftware version number:	ORYX F/W v4.00 Oryx Data Collector v3.7.2.0data status	okinstallation	princeton_trtdifferential loss correction	single-endedforward channel	channel 3reverse channel	N/Adate	2019/09/14time	17:48:35forward acquisition time	60.00reverse acquisition time	0.00gamma	496.2192k internal	0.2298k external	0.2298temperature offset calibration	1.0020default loss term (dB/km)	0.3790temperature slope calibration	1.0000multiplexer offset coefficient	1.0000multiplexer slope coefficient	1.0000fibre end	0.00T internal ref (°C)	37.50T ext. ref 1 (°C)	5.02T ext. ref 2 (°C)	32.51length (m)	temperature (°C)	Stokes	anti-Stokes-747.200	135.716	-0.091	0.120
-746.185	120.511	0.108	0.137
-745.171	43.425	0.308	0.288
-744.156	216.318	-0.145	0.236
-743.142	279.622	-0.043	-0.079
-742.127	24.888	0.241	0.204
-741.112	-172.643	0.355	0.011
-740.098	-35.561	-0.239	0.132
-739.083	-147.605	-0.099	-0.008
-738.069	15.295	-0.378	-0.302
-737.054	800.000	0.056	0.190
-736.039	-200.000	-0.033	-0.353
-735.025	88.641	0.075	-0.085
-734.010	77.047	-0.069	0.074
-732.996	203.240	0.299	-0.472
-731.981	800.000	-0.090	-0.269
-730.966	104.411	0.139	-0.167
-729.952	663.373	0.052	0.137
-728.937	200.838	0.113	0.177
-727.923	-10.491	-0.224	0.152
-726.908	-127.276	0.128	-0.019
-725.894	-200.000	-0.009	-0.133
-724.879	34.289	0.096	-0.085
-723.864	-60.373	-0.229	0.100
-722.850	-59.187	0.107	0.047
-721.835	82.822	-0.095	0.106
-720.821	-200.000	0.018	-0.169
-719.806	142.965	-0.151	-0.205
-718.791	39.837	0.098	-0.090
-717.777	99.688	-0.150	-0.177
-716.762	-121.974	-0.204	-0.034
-715.748	-200.000	-0.002	0.134
-714.733	104.139	0.105	0.126
-713.718	-56.396	-0.181	0.082
-712.704	-36.677	0.080	0.044
-711.689	-200.000	-0.053	-0.296
-710.675	-200.000	0.000	-0.205
-709.660	-200.000	0.044	-0.247
-708.645	23.024	0.163	-0.136
-707.631	-200.000	0.008	0.284
-706.616	274.184	0.096	0.173
-705.602	4.377	0.114	0.085
-704.587	800.000	0.079	-0.241
-703.572	472.564	-0.071	0.163
-702.558	-43.785	-0.162	0.083
-701.543	304.634	-0.081	-0.153
-700.529	-107.780	-0.256	-0.057
-699.514	-92.682	0.175	-0.050
-698.499	-76.294	0.362	-0.130
-697.485	-200.000	-0.032	0.204
-696.470	101.035	-0.068	0.081
-695.456	396.223	-0.093	-0.199
-694.441	-100.455	-0.306	0.077
-693.426	-183.236	-0.606	-0.011
-692.412	-32.206	-0.049	0.028
-691.397	287.465	-0.175	0.322
-690.383	61.239	0.021	0.021
-689.368	-200.000	0.012	-0.150
-688.354	230.717	0.051	-0.086
-687.339	-83.351	-0.265	0.087
-686.324	22.877	0.091	-0.076
-685.310	56.841	-0.034	-0.034
-684.295	-102.760	-0.131	0.032
-683.281	245.214	-0.144	-0.246
-682.266	-200.000	0.055	0.315
-681.251	-23.083	0.155	0.095
-680.237	-144.470	0.077	0.007
-679.222	-31.916	0.222	0.127
-678.208	-17.285	-0.186	-0.119
-677.193	-53.522	0.308	-0.143
-676.178	-200.000	0.023	-0.300
-675.164	-200.000	-0.007	0.063
-674.149	161.766	0.140	0.199
-673.135	-58.937	-0.116	0.051
-672.120	343.693	-0.120	0.239
-671.105	-23.504	0.366	0.224
-670.091	-106.358	0.320	-0.073
-669.076	276.691	0.239	0.433
-668.062	-107.473	0.176	0.039
-667.047	95.931	-0.334	-0.389
-666.032	-200.000	0.028	-0.252
-665.018	43.270	0.233	0.217
-664.003	-200.000	-0.002	0.066
-662.989	800.000	-0.055	-0.191
-661.974	800.000	-0.057	0.237
-660.959	-35.294	-0.171	-0.095
-659.945	-88.755	-0.156	0.047
-658.930	-143.652	0.338	0.033
-657.916	-200.000	-0.053	0.434
-656.901	-125.245	0.010	-0.002
-655.886	800.000	-0.045	0.163
-654.872	26.568	-0.201	0.171
-653.857	-47.691	0.135	-0.067
-652.843	800.000	-0.076	-0.262
-651.828	-90.903	0.090	0.026
-650.814	800.000	-0.033	-0.130
-649.799	-200.000	-0.001	-0.270
-648.784	317.075	0.150	0.288
-647.770	171.364	-0.136	0.199
-646.755	-163.352	0.065	-0.003
-645.741	289.894	0.227	-0.420
-644.726	212.233	0.221	-0.355
-643.711	177.586	-0.197	-0.291
-642.697	-44.397	0.226	0.115
-641.682	11.968	-0.298	0.233
-640.668	-167.676	0.269	-0.011
-639.653	-8.465	-0.205	0.140
-638.638	128.923	0.042	-0.054
-637.624	220.563	0.070	-0.115
-636.609	-73.171	0.449	0.167
-635.595	-73.485	-0.128	0.048
-634.580	1.885	-0.073	0.054
-633.565	-173.579	0.516	-0.016
-632.551	254.924	0.026	0.045
-631.536	-200.000	0.054	-0.344
-630.522	-114.905	-0.241	-0.047
-629.507	-132.263	-0.095	0.012
-628.492	695.533	-0.038	0.101
-627.478	768.194	0.046	0.128
-626.463	-102.571	-0.332	0.081
-625.449	163.282	0.066	-0.095
-624.434	-200.000	-0.035	-0.250
-623.419	-200.000	-0.027	-0.133
-622.405	383.782	0.066	0.138
-621.390	46.902	0.156	0.147
-620.376	317.622	-0.022	-0.043
-619.361	91.341	0.087	0.099
-618.346	17.627	0.137	0.110
-617.332	281.919	-0.123	-0.224
-616.317	-69.982	-0.410	0.159
-615.303	-119.070	0.150	0.027
-614.288	-200.000	0.003	-0.082
-613.273	-200.000	0.014	0.093
-612.259	-5.840	-0.221	0.153
-611.244	800.000	-0.027	0.114
-610.230	-156.312	0.320	-0.020
-609.215	110.128	0.010	0.012
-608.201	-152.231	-0.137	0.010
-607.186	88.275	-0.271	0.305
-606.171	800.000	-0.025	0.097
-605.157	-200.000	0.019	-0.276
-604.142	-146.505	0.154	0.014
-603.128	-134.651	-0.151	-0.019
-602.113	-22.149	0.195	-0.120
-601.098	-200.000	-0.010	-0.073
-600.084	-200.000	0.049	0.354
-599.069	-200.000	-0.053	-0.275
-598.055	-20.381	-0.267	-0.167
-597.040	-28.609	-0.252	-0.147
-596.025	-200.000	0.006	-0.037
-595.011	-69.319	-0.201	0.078
-593.996	-200.000	0.015	0.072
-592.982	-200.000	-0.071	0.361
-591.967	-113.895	-0.089	0.018
-590.952	554.047	0.092	-0.224
-589.938	-84.028	-0.311	0.100
-588.923	800.000	-0.115	0.336
-587.909	2.563	0.168	-0.123
-586.894	-92.153	0.355	0.102
-585.879	-99.344	-0.054	-0.014
-584.865	800.000	0.069	0.257
-583.850	-200.000	-0.005	-0.063
-582.836	-142.745	0.167	-0.016
-581.821	161.231	-0.313	0.444
-580.806	-140.056	-0.268	0.029
-579.792	325.554	-0.181	0.352
-578.777	100.363	0.107	-0.126
-577.763	58.135	-0.209	-0.208
-576.748	-45.687	-0.329	0.165
-575.733	-200.000	0.088	-0.461
-574.719	-99.281	0.150	-0.038
-573.704	-79.057	-0.399	-0.138
-572.690	238.085	0.114	-0.193
-571.675	96.460	-0.115	-0.133
-570.661	-10.830	-0.082	-0.055
-569.646	-128.861	-0.297	0.042
-568.631	273.447	0.102	0.182
-567.617	-68.461	-0.251	-0.099
-566.602	324.361	0.121	-0.235
-565.588	800.000	0.078	-0.268
-564.573	-200.000	0.003	0.025
-563.558	-200.000	0.007	-0.278
-562.544	10.243	-0.127	-0.098
-561.529	96.453	-0.082	0.096
-560.515	186.480	0.028	0.042
-559.500	256.377	0.101	-0.175
-558.485	-104.837	-0.230	-0.054
-557.471	44.706	0.067	-0.063
-556.456	166.569	-0.085	0.122
-555.442	-99.190	0.176	-0.045
-554.427	-82.898	-0.083	-0.027
-553.412	-140.161	0.342	-0.036
-552.398	-151.905	-0.192	0.014
-551.383	24.319	-0.325	-0.272
-550.369	1.899	0.244	-0.178
-549.354	3.536	0.383	0.283
-548.339	-85.517	-0.146	0.046
-547.325	-34.009	-0.235	0.131
-546.310	75.040	0.095	-0.101
-545.296	-59.395	-0.122	0.053
-544.281	-200.000	-0.014	-0.280
-543.266	76.348	0.098	-0.105
-542.252	-144.434	-0.301	0.028
-541.237	-16.485	0.159	0.102
-540.223	-71.696	-0.100	0.038
-539.208	-14.227	-0.180	0.117
-538.193	-20.028	-0.079	0.049
-537.179	-93.278	-0.192	-0.054
-536.164	75.360	-0.137	-0.147
-535.150	-73.601	-0.093	-0.034
-534.135	-149.837	-0.161	0.013
-533.121	-83.021	-0.058	0.019
-532.106	70.621	0.234	-0.246
-531.091	300.202	-0.086	-0.160
-530.077	-62.960	0.199	-0.083
-529.062	355.031	0.090	-0.182
-528.048	-67.554	-0.362	0.144
-527.033	666.058	0.053	0.139
-526.018	-200.000	-0.016	0.141
-525.004	-74.572	-0.146	0.053
-523.989	593.734	-0.104	0.260
-522.975	800.000	-0.047	-0.145
-521.960	-17.910	0.257	0.163
-520.945	800.000	0.067	-0.291
-519.931	800.000	-0.074	0.224
-518.916	-74.691	-0.257	-0.093
-517.902	176.269	0.159	0.233
-516.887	-200.000	-0.019	0.206
-515.872	226.752	0.037	-0.060
-514.858	-144.155	0.266	0.025
-513.843	563.247	-0.054	-0.132
-512.829	-54.590	0.184	-0.084
-511.814	-37.853	0.159	0.086
-510.799	324.004	-0.286	0.551
-509.785	6.065	0.160	0.120
-508.770	37.811	-0.031	0.028
-507.756	800.000	0.052	-0.203
-506.741	-200.000	0.010	-0.166
-505.726	82.599	0.171	0.188
-504.712	234.400	-0.117	0.195
-503.697	-56.469	-0.456	-0.205
-502.683	150.321	0.113	-0.155
-501.668	-83.678	0.330	0.106
-500.653	537.085	0.055	0.133
-499.639	-7.808	-0.151	0.103
-498.624	-19.224	-0.050	0.031
-497.610	800.000	0.026	0.082
-496.595	58.163	0.047	-0.046
-495.581	164.898	-0.073	-0.105
-494.566	260.819	-0.148	0.258
-493.551	-131.776	-0.068	0.009
-492.537	-53.570	0.128	0.059
-491.522	-144.891	-0.231	0.021
-490.508	-53.421	0.173	0.080
-489.493	-200.000	0.011	0.123
-488.478	35.422	-0.130	0.115
-487.464	62.085	-0.152	0.154
-486.449	51.838	0.109	-0.104
-485.435	19.343	-0.187	-0.152
-484.420	391.203	0.196	0.412
-483.405	800.000	-0.037	-0.130
-482.391	-42.663	-0.080	-0.041
-481.376	-119.825	-0.197	0.034
-480.362	56.561	-0.155	-0.152
-479.347	110.939	0.174	-0.212
-478.332	-200.000	-0.003	0.023
-477.318	800.000	-0.056	0.175
-476.303	-78.055	-0.113	-0.039
-475.289	-200.000	-0.014	0.085
-474.274	-200.000	-0.020	-0.151
-473.259	-200.000	0.010	0.139
-472.245	273.753	-0.046	0.082
-471.230	-103.189	0.158	-0.038
-470.216	-13.535	0.104	-0.068
-469.201	327.282	0.029	0.056
-468.186	-98.737	-0.239	-0.061
-467.172	-100.360	-0.480	-0.120
-466.157	259.815	0.048	0.083
-465.143	162.669	0.025	0.035
-464.128	175.774	-0.090	-0.132
-463.113	-200.000	0.096	-0.466
-462.099	800.000	-0.011	-0.042
-461.084	131.820	-0.045	-0.058
-460.070	-200.000	-0.016	-0.237
-459.055	525.757	-0.040	-0.096
-458.040	-25.812	-0.083	-0.049
-457.026	35.989	-0.196	-0.174
-456.011	86.842	-0.232	-0.259
-454.997	-115.669	0.155	0.029
-453.982	382.462	-0.071	0.148
-452.968	-200.000	-0.018	-0.150
-451.953	-38.763	-0.116	0.062
-450.938	167.922	-0.216	-0.310
-449.924	-158.683	-0.069	0.004
-448.909	-200.000	0.001	0.350
-447.895	92.624	0.043	-0.049
-446.880	317.223	0.171	0.327
-445.865	322.603	-0.088	0.169
-444.851	-56.355	0.150	-0.067
-443.836	3.171	0.167	-0.122
-442.822	-200.000	0.031	0.216
-441.807	233.899	0.024	0.039
-440.792	-2.987	0.130	-0.092
-439.778	-51.036	-0.080	-0.038
-438.763	-200.000	-0.000	0.078
-437.749	-200.000	0.003	-0.021
-436.734	-192.700	0.242	-0.002
-435.719	-14.521	0.234	-0.152
-434.705	800.000	-0.093	-0.282
-433.690	180.833	0.152	0.225
-432.676	-23.503	0.256	0.155
-431.661	-200.000	-0.042	0.272
-430.646	609.522	-0.016	-0.041
-429.632	5.744	0.142	0.106
-428.617	-23.885	-0.296	-0.179
-427.603	-200.000	0.021	0.171
-426.588	-27.285	0.372	0.218
-425.573	85.847	0.124	0.137
-424.559	101.963	0.062	0.073
-423.544	288.932	-0.102	-0.186
-422.530	122.324	0.100	0.126
-421.515	6.147	0.247	0.184
-420.500	-33.942	0.166	0.092
-419.486	-11.372	0.137	-0.091
-418.471	-200.000	-0.001	-0.398
-417.457	227.739	-0.067	0.109
-416.442	194.060	-0.149	-0.227
-415.428	-200.000	-0.029	-0.131
-414.413	-2.941	0.353	0.249
-413.398	-200.000	0.020	0.248
-412.384	1.715	-0.250	0.182
-411.369	-60.269	-0.081	0.035
-410.355	88.311	0.031	0.035
-409.340	-200.000	0.000	0.019
-408.325	-120.074	0.135	-0.023
-407.311	-24.364	0.234	-0.140
-406.296	-200.000	-0.057	0.284
-405.282	73.422	-0.060	-0.064
-404.267	-8.603	0.330	-0.223
-403.252	-200.000	-0.034	-0.233
-402.238	151.690	0.159	0.218
-401.223	66.060	-0.275	0.282
-400.209	-134.946	-0.146	0.018
-399.194	-165.457	-0.158	0.007
-398.179	141.786	-0.153	-0.205
-397.165	-128.257	0.392	0.056
-396.150	-200.000	-0.113	0.528
-395.136	47.009	-0.098	-0.092
-394.121	313.624	0.160	-0.303
-393.106	-70.785	0.123	-0.047
-392.092	-84.942	0.226	0.071
-391.077	-200.000	0.045	-0.299
-390.063	-25.377	-0.214	0.127
-389.048	618.972	0.118	0.298
-388.033	-200.000	0.066	0.301
-387.019	-200.000	0.015	0.271
-386.004	59.633	0.107	-0.106
-384.990	113.701	-0.011	-0.014
-383.975	-144.939	-0.319	0.029
-382.960	800.000	0.050	-0.189
-381.946	800.000	-0.033	0.104
-380.931	16.377	0.274	0.218
-379.917	-138.612	0.085	0.009
-378.902	-150.022	0.445	0.035
-377.888	-31.412	-0.215	0.122
-376.873	-157.405	0.083	0.005
-375.858	-200.000	-0.029	-0.137
-374.844	-136.500	0.254	-0.030
-373.829	47.813	-0.179	0.168
-372.815	-114.656	0.173	-0.033
-371.800	800.000	-0.060	-0.198
-370.785	-160.258	-0.098	0.005
-369.771	562.307	0.065	0.159
-368.756	65.794	0.090	0.092
-367.742	-83.041	-0.045	-0.015
-366.727	-87.420	-0.272	-0.083
-365.712	-123.210	0.283	-0.046
-364.698	-28.980	-0.053	0.031
-363.683	328.983	0.016	-0.031
-362.669	-144.757	-0.270	0.025
-361.654	168.622	-0.093	0.133
-360.639	800.000	0.091	0.254
-359.625	677.000	-0.192	-0.501
-358.610	196.290	-0.133	0.204
-357.596	-200.000	-0.006	-0.124
-356.581	800.000	-0.077	0.258
-355.566	57.844	-0.220	0.216
-354.552	-101.174	-0.234	-0.058
-353.537	-200.000	0.077	0.405
-352.523	-34.969	0.219	-0.120
-351.508	-200.000	0.020	-0.554
-350.493	-200.000	-0.022	-0.162
-349.479	275.577	-0.124	-0.221
-348.464	-58.036	0.057	0.025
-347.450	30.454	-0.491	0.421
-346.435	800.000	-0.092	0.323
-345.420	800.000	-0.067	0.245
-344.406	800.000	0.080	0.255
-343.391	96.635	0.027	-0.032
-342.377	800.000	-0.042	0.168
-341.362	41.723	-0.163	0.148
-340.348	800.000	-0.032	0.129
-339.333	338.264	0.255	0.498
-338.318	64.197	0.185	-0.187
-337.304	800.000	0.010	-0.028
-336.289	-200.000	0.008	0.086
-335.275	-200.000	-0.042	-0.412
-334.260	211.001	-0.174	-0.275
-333.245	105.052	-0.146	0.173
-332.231	-154.815	-0.169	0.011
-331.216	164.206	-0.164	0.233
-330.202	21.424	-0.136	-0.111
-329.187	-160.595	-0.235	0.013
-328.172	-6.768	0.292	0.200
-327.158	-124.914	0.292	-0.045
-326.143	-19.250	-0.087	-0.054
-325.129	-200.000	-0.026	0.186
-324.114	178.530	0.041	0.060
-323.099	31.595	0.227	-0.196
-322.085	40.159	0.244	0.221
-321.070	461.664	-0.105	0.235
-320.056	-81.978	0.275	-0.090
-319.041	-74.146	0.204	-0.074
-318.026	45.196	0.068	0.063
-317.012	119.540	0.133	0.166
-315.997	800.000	0.031	0.117
-314.983	-200.000	0.041	0.233
-313.968	196.429	-0.106	-0.163
-312.953	-200.000	-0.002	-0.049
-311.939	90.521	0.066	0.074
-310.924	-200.000	0.069	0.343
-309.910	117.650	-0.241	-0.298
-308.895	-158.354	0.107	0.006
-307.880	-121.627	-0.260	0.043
-306.866	34.423	0.217	0.190
-305.851	-200.000	0.033	-0.191
-304.837	609.434	0.037	0.092
-303.822	-112.043	0.222	0.045
-302.807	-161.712	-0.124	0.006
-301.793	57.114	0.407	-0.398
-300.778	281.865	0.149	0.267
-299.764	-70.124	0.225	0.086
-298.749	-76.936	0.292	0.102
-297.735	-87.996	-0.275	-0.083
-296.720	-8.326	-0.229	0.154
-295.705	-87.646	0.011	-0.003
-294.691	138.487	0.140	-0.184
-293.676	18.319	-0.051	0.041
-292.662	-59.058	0.311	0.135
-291.647	537.025	-0.134	-0.319
-290.632	396.396	0.157	-0.329
-289.618	800.000	0.040	-0.150
-288.603	3.769	-0.148	0.108
-287.589	-48.286	-0.150	0.073
-286.574	-72.980	-0.129	-0.048
-285.559	-195.626	0.160	0.001
-284.545	92.373	0.271	-0.306
-283.530	-103.454	-0.080	0.019
-282.516	37.828	-0.116	-0.104
-281.501	-73.513	-0.036	0.013
-280.486	-7.673	-0.186	0.126
-279.472	-200.000	-0.020	0.244
-278.457	216.875	0.146	0.233
-277.443	1.587	-0.033	0.024
-276.428	800.000	0.094	0.308
-275.413	216.667	-0.201	-0.320
-274.399	-200.000	0.020	0.144
-273.384	33.559	-0.162	-0.141
-272.370	-200.000	0.018	-0.083
-271.355	800.000	-0.082	0.283
-270.340	623.319	-0.097	-0.246
-269.326	800.000	0.103	-0.379
-268.311	-200.000	0.000	-0.194
-267.297	49.774	0.347	-0.327
-266.282	-126.139	-0.285	0.043
-265.267	-47.122	-0.372	-0.182
-264.253	800.000	-0.101	-0.298
-263.238	-200.000	0.072	-0.322
-262.224	800.000	-0.097	-0.326
-261.209	135.778	0.182	-0.238
-260.195	208.985	0.100	-0.156
-259.180	230.217	-0.074	0.121
-258.165	77.985	-0.133	0.142
-257.151	60.332	0.069	0.069
-256.136	-200.000	0.030	-0.317
-255.122	523.753	0.064	0.152
-254.107	-166.798	0.197	0.008
-253.092	296.075	-0.181	-0.332
-252.078	-57.987	-0.173	-0.076
-251.063	-200.000	0.004	0.170
-250.049	18.876	0.053	-0.043
-249.034	800.000	0.080	0.282
-248.019	-9.093	0.246	0.164
-247.005	181.313	-0.230	0.338
-245.990	59.520	-0.068	0.067
-244.976	-30.680	-0.021	0.012
-243.961	-200.000	0.010	0.272
-242.946	-20.462	0.200	-0.123
-241.932	114.729	0.052	-0.063
-240.917	-200.000	-0.032	-0.188
-239.903	185.638	0.150	-0.223
-238.888	-172.595	0.192	0.006
-237.873	-106.876	0.271	0.060
-236.859	442.657	0.109	-0.238
-235.844	-200.000	-0.006	-0.077
-234.830	-68.138	0.083	0.032
-233.815	-151.542	0.196	0.015
-232.800	23.402	0.085	0.070
-231.786	729.300	-0.074	-0.197
-230.771	286.677	0.048	-0.087
-229.757	620.863	-0.103	-0.260
-228.742	-87.720	-0.404	0.122
-227.727	92.927	-0.170	-0.192
-226.713	189.838	0.094	-0.141
-225.698	-122.625	0.392	-0.064
-224.684	800.000	0.056	-0.223
-223.669	118.704	0.161	0.198
-222.655	800.000	-0.046	-0.177
-221.640	374.907	-0.053	-0.107
-220.625	800.000	0.063	0.179
-219.611	-200.000	0.012	-0.192
-218.596	762.659	0.062	0.168
-217.582	800.000	0.031	-0.094
-216.567	108.259	0.096	0.114
-215.552	-200.000	0.091	-0.451
-214.538	31.051	0.397	-0.341
-213.523	-200.000	-0.008	-0.184
-212.509	-23.117	-0.262	0.158
-211.494	-200.000	-0.009	0.195
-210.479	784.707	0.031	-0.085
-209.465	-27.477	0.199	0.116
-208.450	-200.000	-0.007	0.341
-207.436	380.858	-0.123	0.252
-206.421	45.898	0.069	0.064
-205.406	-113.225	-0.231	-0.045
-204.392	28.445	0.330	-0.279
-203.377	-80.781	0.106	-0.035
-202.363	800.000	0.006	0.023
-201.348	-173.273	0.127	-0.004
-200.333	-72.259	0.260	0.096
-199.319	405.232	-0.140	0.296
-198.304	-200.000	0.027	0.239
-197.290	-86.656	-0.314	-0.096
-196.275	69.701	-0.109	0.113
-195.260	-56.316	0.461	-0.205
-194.246	-200.000	-0.038	-0.213
-193.231	29.337	0.361	-0.306
-192.217	-200.000	-0.010	-0.093
-191.202	-102.232	0.107	0.026
-190.187	-90.664	-0.259	-0.075
-189.173	-22.970	-0.211	0.127
-188.158	523.907	0.112	0.264
-187.144	-42.100	-0.081	0.041
-186.129	362.801	-0.111	-0.222
-185.114	336.565	0.060	0.116
-184.100	113.160	0.019	0.023
-183.085	-67.306	0.352	-0.138
-182.071	-112.153	-0.424	-0.085
-181.056	19.564	0.157	0.126
-180.042	303.561	0.104	0.192
-179.027	55.863	-0.167	-0.162
-178.012	-66.404	0.098	-0.039
-176.998	96.839	0.108	0.123
-175.983	512.610	-0.067	-0.156
-174.969	-191.972	0.155	-0.001
-173.954	-200.000	0.002	-0.089
-172.939	17.227	-0.148	0.117
-171.925	-200.000	0.098	0.452
-170.910	-41.679	0.188	-0.096
-169.896	151.333	-0.143	-0.194
-168.881	-29.342	-0.201	-0.115
-167.866	800.000	0.010	0.036
-166.852	2.233	-0.233	0.168
-165.837	-7.135	-0.173	-0.117
-164.823	-200.000	-0.028	0.161
-163.808	0.616	0.085	0.060
-162.793	36.135	0.131	-0.115
-161.779	14.474	-0.021	-0.017
-160.764	-15.407	0.148	-0.095
-159.750	195.709	0.119	0.181
-158.735	-32.561	-0.260	-0.144
-157.720	-36.235	-0.083	0.045
-156.706	-31.856	0.139	-0.078
-155.691	2.501	-0.140	-0.101
-154.677	-77.748	-0.228	-0.079
-153.662	-200.000	0.022	-0.150
-152.647	-200.000	-0.267	0.001
-151.633	-3.612	0.165	-0.114
-150.618	-41.247	0.337	-0.173
-149.604	-39.756	-0.253	0.132
-148.589	-200.000	-0.011	0.302
-147.574	132.447	0.335	0.430
-146.560	-59.694	0.317	0.136
-145.545	599.487	-0.086	-0.212
-144.531	-108.434	0.119	0.025
-143.516	51.681	0.201	0.191
-142.502	261.274	0.172	0.297
-141.487	159.617	0.049	0.068
-140.472	-200.000	-0.062	-0.360
-139.458	-8.754	0.199	-0.133
-138.443	-200.000	0.004	-0.078
-137.429	-200.000	-0.007	-0.125
-136.414	-15.526	0.088	0.056
-135.399	-33.277	0.252	-0.139
-134.385	-200.000	-0.005	-0.317
-133.370	56.024	0.119	0.115
-132.356	-200.000	0.008	0.189
-131.341	-200.000	-0.106	-0.000
-130.326	54.174	0.229	0.219
-129.312	228.270	0.169	-0.275
-128.297	-200.000	0.053	0.436
-127.283	-148.134	-0.379	0.031
-126.268	427.703	-0.079	0.170
-125.253	800.000	0.090	0.358
-124.239	164.186	-0.154	-0.217
-123.224	-50.501	0.585	0.275
-122.210	-157.547	0.335	0.020
-121.195	-13.586	0.221	0.143
-120.180	-140.691	-0.376	-0.039
