DTS Sentinel unit serial number:	SN413079Multiplexer serial number:	ORYXHardware model number:	OX4-SRSoftware version number:	ORYX F/W v4.00 Oryx Data Collector v3.7.2.0data status	okinstallation	princeton_trtdifferential loss correction	single-endedforward channel	channel 3reverse channel	N/Adate	2019/09/17time	06:44:34forward acquisition time	60.00reverse acquisition time	0.00gamma	496.2192k internal	0.2333k external	0.2333temperature offset calibration	0.9945default loss term (dB/km)	0.3790temperature slope calibration	1.0000multiplexer offset coefficient	1.0000multiplexer slope coefficient	1.0000fibre end	0.00T internal ref (°C)	27.86T ext. ref 1 (°C)	0.12T ext. ref 2 (°C)	21.25length (m)	temperature (°C)	Stokes	anti-Stokes-747.200	-34.819	0.119	-0.065
-746.185	561.810	0.032	0.079
-745.171	-16.910	0.359	-0.228
-744.156	-200.000	0.016	0.193
-743.142	-200.000	0.012	0.511
-742.127	23.234	-0.308	-0.255
-741.112	12.812	0.223	0.174
-740.098	-98.686	-0.069	0.018
-739.083	-130.733	0.491	0.066
-738.069	800.000	-0.095	0.299
-737.054	-200.000	-0.006	0.060
-736.039	-127.024	0.483	0.071
-735.025	4.634	-0.167	-0.123
-734.010	-167.511	-0.175	-0.007
-732.996	-153.857	-0.018	-0.001
-731.981	-24.171	0.156	0.093
-730.966	-61.205	-0.145	-0.061
-729.952	-200.000	-0.004	0.385
-728.937	-104.679	-0.294	-0.068
-727.923	-89.817	0.327	0.096
-726.908	304.387	-0.028	-0.053
-725.894	800.000	0.156	-0.435
-724.879	-154.777	-0.306	-0.020
-723.864	68.150	-0.132	0.136
-722.850	23.102	-0.080	-0.066
-721.835	19.970	0.110	0.089
-720.821	-200.000	-0.044	-0.255
-719.806	7.265	0.139	0.104
-718.791	-71.865	-0.053	0.020
-717.777	226.395	0.065	0.106
-716.762	26.966	0.211	0.178
-715.748	114.431	-0.018	-0.022
-714.733	-200.000	-0.017	0.214
-713.718	-155.505	-0.133	-0.009
-712.704	800.000	-0.105	-0.328
-711.689	116.420	0.217	-0.267
-710.675	-51.666	-0.526	0.246
-709.660	-21.181	-0.232	-0.142
-708.645	-90.122	0.336	-0.098
-707.631	-123.432	-0.184	0.029
-706.616	236.176	-0.136	0.227
-705.602	58.119	-0.324	0.319
-704.587	-64.272	-0.291	0.119
-703.572	-200.000	0.008	-0.222
-702.558	14.782	0.079	0.062
-701.543	-27.583	-0.377	-0.220
-700.529	158.374	-0.260	-0.363
-699.514	-200.000	0.009	-0.263
-698.499	-182.219	-0.154	-0.003
-697.485	-102.994	0.181	-0.043
-696.470	800.000	-0.025	-0.079
-695.456	86.400	-0.239	0.265
-694.441	107.007	-0.162	-0.193
-693.426	-56.749	-0.184	0.082
-692.412	-59.105	-0.121	0.052
-691.397	-32.285	0.231	0.130
-690.383	203.132	-0.073	-0.114
-689.368	-44.536	0.350	-0.176
-688.354	-60.541	-0.201	-0.085
-687.339	-200.000	0.055	-0.475
-686.324	320.506	0.119	-0.227
-685.310	491.584	0.061	0.140
-684.295	-200.000	-0.031	-0.207
-683.281	800.000	-0.058	-0.184
-682.266	1.760	-0.113	-0.082
-681.251	-57.063	-0.083	0.037
-680.237	269.076	0.139	0.244
-679.222	227.796	-0.049	0.080
-678.208	-200.000	-0.009	-0.068
-677.193	800.000	0.040	-0.116
-676.178	-58.727	-0.199	-0.086
-675.164	-27.929	0.216	-0.125
-674.149	-31.799	-0.142	0.080
-673.135	-118.137	-0.205	-0.037
-672.120	-96.464	0.146	0.039
-671.105	328.733	-0.153	0.294
-670.091	105.364	0.064	0.075
-669.076	619.795	0.085	-0.213
-668.062	142.886	0.124	0.166
-667.047	132.277	0.228	0.295
-666.032	87.354	0.257	0.285
-665.018	538.670	0.034	0.082
-664.003	-4.653	-0.330	0.228
-662.989	399.726	0.109	0.230
-661.974	-200.000	0.054	-0.333
-660.959	800.000	-0.039	-0.147
-659.945	147.149	-0.133	-0.179
-658.930	468.733	-0.023	-0.052
-657.916	213.012	0.055	0.087
-656.901	176.703	-0.226	0.329
-655.886	-73.751	-0.076	0.028
-654.872	-200.000	0.003	-0.200
-653.857	-126.377	-0.141	0.021
-652.843	336.558	-0.210	-0.409
-651.828	800.000	-0.099	-0.370
-650.814	-200.000	-0.006	-0.065
-649.799	-88.197	-0.360	0.108
-648.784	-65.526	-0.237	-0.095
-647.770	98.207	0.192	-0.221
-646.755	-67.269	-0.761	0.300
-645.741	99.033	-0.073	-0.085
-644.726	-127.747	0.165	-0.024
-643.711	633.737	0.049	0.125
-642.697	791.836	0.121	0.333
-641.682	132.575	0.088	-0.114
-640.668	172.656	0.192	-0.277
-639.653	800.000	-0.053	0.172
-638.638	-120.630	-0.172	0.029
-637.624	89.428	0.323	-0.360
-636.609	-147.705	0.155	0.013
-635.595	-106.100	0.195	-0.044
-634.580	-184.681	-0.237	0.004
-633.565	554.507	-0.119	0.287
-632.551	9.681	0.102	0.077
-631.536	37.185	-0.115	0.102
-630.522	72.688	-0.057	-0.060
-629.507	-200.000	0.020	-0.097
-628.492	-70.650	-0.288	0.109
-627.478	-152.609	-0.061	-0.004
-626.463	394.127	-0.157	-0.327
-625.449	125.244	-0.110	-0.138
-624.434	-92.330	0.092	-0.026
-623.419	-113.840	-0.150	0.029
-622.405	-35.758	-0.169	0.092
-621.390	-200.000	-0.037	-0.290
-620.376	65.729	-0.108	-0.109
-619.361	-200.000	-0.009	-0.377
-618.346	-40.726	0.154	-0.080
-617.332	656.149	0.049	-0.127
-616.317	-68.364	0.301	-0.117
-615.303	-200.000	0.010	0.141
-614.288	-73.723	-0.122	0.044
-613.273	800.000	0.066	-0.239
-612.259	188.418	-0.146	-0.219
-611.244	397.743	-0.104	-0.219
-610.230	-16.511	-0.089	0.057
-609.215	-63.253	-0.098	0.041
-608.201	-71.315	-0.230	0.086
-607.186	-128.463	-0.294	-0.042
-606.171	142.188	0.065	-0.086
-605.157	412.670	0.072	-0.152
-604.142	-30.260	0.118	0.067
-603.128	531.834	-0.167	-0.396
-602.113	800.000	0.088	-0.253
-601.098	-200.000	-0.003	-0.253
-600.084	48.946	-0.096	-0.091
-599.069	118.638	0.133	0.165
-598.055	491.965	0.117	0.268
-597.040	-8.569	0.160	0.107
-596.025	25.231	-0.265	0.220
-595.011	800.000	0.055	0.233
-593.996	800.000	-0.073	-0.280
-592.982	-200.000	0.007	-0.064
-591.967	-134.610	-0.408	0.050
-590.952	199.927	0.082	0.125
-589.938	-144.085	0.221	0.021
-588.923	800.000	0.039	-0.120
-587.909	-109.123	-0.135	0.029
-586.894	0.742	0.376	-0.269
-585.879	62.996	0.056	-0.056
-584.865	27.864	-0.074	0.063
-583.850	-153.100	-0.291	0.020
-582.836	512.024	0.051	0.118
-581.821	437.263	0.132	0.286
-580.806	104.453	0.072	-0.085
-579.792	246.268	-0.184	0.310
-578.777	-181.728	0.289	-0.006
-577.763	-84.810	-0.326	0.102
-576.748	149.470	0.150	0.203
-575.733	-200.000	-0.007	-0.136
-574.719	548.371	0.105	-0.252
-573.704	10.059	-0.179	0.136
-572.690	-196.083	0.139	0.001
-571.675	-179.965	0.269	0.006
-570.661	-112.030	0.094	-0.019
-569.646	96.445	0.267	-0.305
-568.631	-200.000	0.031	0.607
-567.617	485.338	0.130	-0.296
-566.602	-147.577	-0.142	0.012
-565.588	-200.000	-0.010	0.324
-564.573	-196.068	-0.118	0.001
-563.558	22.016	0.165	-0.135
-562.544	-47.659	-0.191	-0.092
-561.529	157.452	-0.110	0.153
-560.515	110.322	-0.190	-0.228
-559.500	96.684	-0.107	-0.122
-558.485	-200.000	-0.006	0.148
-557.471	-200.000	0.027	0.150
-556.456	-17.329	-0.320	-0.201
-555.442	800.000	0.005	-0.022
-554.427	-45.516	0.264	-0.131
-553.412	-200.000	-0.004	-0.149
-552.398	800.000	0.063	-0.213
-551.383	449.331	0.065	0.143
-550.369	-162.642	-0.089	0.004
-549.354	-102.267	-0.087	0.021
-548.339	-35.790	0.297	0.161
-547.325	-71.472	-0.176	-0.066
-546.310	800.000	-0.064	-0.251
-545.296	-67.825	0.388	0.151
-544.281	-86.350	-0.214	-0.066
-543.266	-145.891	0.070	0.006
-542.252	260.547	-0.078	-0.135
-541.237	-58.765	0.230	-0.100
-540.223	85.842	0.088	-0.097
-539.208	25.518	-0.257	-0.213
-538.193	-96.649	0.069	0.018
-537.179	4.049	0.244	0.178
-536.164	-148.210	-0.304	0.025
-535.150	154.493	-0.159	-0.217
-534.135	431.777	-0.084	0.183
-533.121	800.000	-0.040	0.110
-532.106	-190.996	0.179	0.002
-531.091	148.056	0.187	-0.251
-530.077	-104.370	-0.166	-0.038
-529.062	-37.674	-0.091	0.048
-528.048	-9.271	0.100	-0.067
-527.033	-112.902	-0.031	-0.006
-526.018	-200.000	-0.049	-0.250
-525.004	479.126	-0.085	0.191
-523.989	3.618	-0.180	0.131
-522.975	8.737	0.218	-0.163
-521.960	-200.000	-0.043	-0.332
-520.945	-39.129	-0.342	-0.179
-519.931	-200.000	-0.013	-0.313
-518.916	-161.751	0.163	0.008
-517.902	-153.719	0.187	-0.013
-516.887	286.701	0.054	-0.097
-515.872	-200.000	0.027	-0.261
-514.858	-28.747	0.128	-0.073
-513.843	-99.299	0.141	0.036
-512.829	-67.684	-0.120	0.047
-511.814	141.313	-0.185	0.244
-510.799	239.988	0.178	0.295
-509.785	260.929	-0.224	-0.387
-508.770	800.000	0.033	-0.104
-507.756	25.162	0.267	0.221
-506.741	-200.000	-0.074	-0.425
-505.726	-124.458	0.289	-0.045
-504.712	-176.405	0.125	0.003
-503.697	-200.000	-0.026	-0.293
-502.683	44.289	0.206	-0.188
-501.668	-28.536	-0.207	0.119
-500.653	-200.000	0.013	0.214
-499.639	-200.000	0.009	0.199
-498.624	-128.458	0.104	-0.015
-497.610	541.901	-0.021	-0.051
-496.595	69.696	-0.086	-0.088
-495.581	88.022	-0.004	-0.004
-494.566	192.448	-0.123	0.185
-493.551	55.705	-0.064	0.062
-492.537	65.390	0.170	0.172
-491.522	-107.220	0.185	0.041
-490.508	-18.388	0.366	-0.228
-489.493	343.553	-0.232	-0.452
-488.478	344.040	0.099	-0.194
-487.464	-200.000	-0.009	0.125
-486.449	-200.000	0.018	0.317
-485.435	61.295	-0.171	-0.169
-484.420	-105.997	-0.197	-0.044
-483.405	-163.416	-0.124	0.006
-482.391	-86.285	-0.073	0.022
-481.376	-120.638	-0.602	-0.102
-480.362	181.180	-0.118	-0.173
-479.347	73.662	0.174	0.181
-478.332	-200.000	0.000	0.050
-477.318	-75.637	0.244	-0.086
-476.303	-102.947	0.221	-0.052
-475.289	25.324	-0.110	0.091
-474.274	800.000	-0.035	0.102
-473.259	800.000	-0.023	0.073
-472.245	165.267	0.289	0.406
-471.230	-138.662	0.490	0.053
-470.216	800.000	-0.039	0.143
-469.201	-84.511	-0.069	0.022
-468.186	800.000	-0.041	0.142
-467.172	67.171	0.156	-0.158
-466.157	413.767	-0.036	-0.076
-465.143	7.829	0.108	-0.081
-464.128	13.475	-0.170	0.131
-463.113	197.845	0.111	-0.169
-462.099	800.000	-0.049	-0.149
-461.084	119.362	-0.115	0.142
-460.070	-118.125	0.293	0.052
-459.055	11.607	-0.378	-0.288
-458.040	567.864	-0.043	0.103
-457.026	-200.000	-0.007	0.447
-456.011	-62.991	0.239	-0.098
-454.997	70.190	0.160	-0.164
-453.982	614.154	-0.085	0.211
-452.968	-90.551	-0.535	-0.154
-451.953	336.704	-0.054	0.105
-450.938	26.765	0.022	0.018
-449.924	635.726	0.055	-0.140
-448.909	228.760	0.023	0.037
-447.895	98.386	-0.173	0.198
-446.880	-200.000	0.041	-0.251
-445.865	-152.041	-0.044	0.003
-444.851	-112.501	-0.121	-0.024
-443.836	-90.439	0.116	0.033
-442.822	-127.798	-0.413	-0.059
-441.807	-200.000	-0.005	-0.148
-440.792	-200.000	-0.016	0.399
-439.778	30.769	-0.071	-0.061
-438.763	343.945	0.053	-0.103
-437.749	-200.000	0.059	0.339
-436.734	227.575	-0.113	-0.182
-435.719	-200.000	-0.056	0.261
-434.705	-42.576	-0.161	-0.081
-433.690	-200.000	-0.006	-0.143
-432.676	-200.000	-0.033	0.267
-431.661	182.465	0.113	-0.166
-430.646	217.262	-0.125	0.198
-429.632	82.130	-0.110	-0.119
-428.617	181.777	0.123	-0.179
-427.603	-70.017	-0.542	0.205
-426.588	97.239	-0.045	-0.052
-425.573	164.383	0.098	-0.137
-424.559	522.651	0.093	0.216
-423.544	-20.564	-0.263	0.160
-422.530	800.000	-0.011	0.045
-421.515	-84.404	-0.053	0.017
-420.500	-139.831	0.133	-0.014
-419.486	-20.339	0.097	0.059
-418.471	-39.184	0.312	0.163
-417.457	-3.833	0.087	-0.060
-416.442	62.309	-0.136	0.134
-415.428	465.874	-0.048	0.107
-414.413	-200.000	-0.031	0.222
-413.398	800.000	0.082	0.251
-412.384	390.679	-0.070	0.144
-411.369	-140.561	-0.204	0.021
-410.355	73.542	-0.209	-0.217
-409.340	-200.000	-0.002	0.128
-408.325	760.211	0.090	0.242
-407.311	-29.981	-0.183	0.103
-406.296	33.944	-0.146	0.127
-405.282	-200.000	-0.002	-0.092
-404.267	364.988	-0.230	0.459
-403.252	281.323	0.124	-0.221
-402.238	126.996	-0.289	0.363
-401.223	-28.211	0.085	-0.049
-400.209	800.000	-0.047	0.143
-399.194	-200.000	-0.023	-0.165
-398.179	-35.099	-0.070	0.038
-397.165	-11.410	0.105	-0.069
-396.150	182.319	0.126	0.184
-395.136	800.000	-0.051	0.206
-394.121	-89.579	0.236	-0.069
-393.106	-200.000	0.007	0.307
-392.092	42.686	-0.043	-0.039
-391.077	-83.402	0.152	-0.048
-390.063	470.163	0.167	0.373
-389.048	468.854	-0.078	0.174
-388.033	-124.718	0.342	0.053
-387.019	-125.278	0.463	-0.070
-386.004	238.717	0.135	0.222
-384.990	276.559	-0.100	-0.175
-383.975	297.416	0.039	0.071
-382.960	250.489	-0.059	0.099
-381.946	-117.133	0.382	-0.069
-380.931	-200.000	-0.007	0.330
-379.917	-13.499	-0.082	-0.053
-378.902	278.470	-0.118	-0.208
-377.888	-200.000	0.031	-0.349
-376.873	-159.420	-0.333	-0.018
-375.858	-174.754	0.198	-0.006
-374.844	-200.000	0.038	-0.209
-373.829	56.934	0.247	0.239
-372.815	-128.467	-0.375	0.053
-371.800	266.618	0.177	-0.306
-370.785	-100.632	-0.015	0.004
-369.771	127.363	0.110	-0.139
-368.756	800.000	0.035	-0.135
-367.742	273.633	-0.077	0.135
-366.727	-39.514	0.180	-0.093
-365.712	3.567	0.171	-0.124
-364.698	-50.840	-0.075	-0.035
-363.683	-71.120	0.109	0.041
-362.669	800.000	-0.082	-0.306
-361.654	-106.724	-0.361	0.079
-360.639	128.956	0.296	0.374
-359.625	-69.031	-0.119	-0.045
-358.610	-9.028	-0.074	-0.049
-357.596	-200.000	-0.025	0.395
-356.581	-65.721	0.229	0.091
-355.566	-126.532	0.092	0.014
-354.552	123.820	0.243	-0.302
-353.537	-200.000	-0.007	-0.109
-352.523	-200.000	-0.005	-0.346
-351.508	136.661	0.142	-0.184
-350.493	173.459	0.120	-0.171
-349.479	-13.862	-0.266	0.170
-348.464	-70.570	0.114	0.043
-347.450	157.347	-0.088	-0.121
-346.435	172.550	-0.093	0.132
-345.420	-153.811	-0.283	0.019
-344.406	800.000	0.060	0.198
-343.391	-200.000	0.009	-0.196
-342.377	-200.000	0.013	-0.448
-341.362	452.979	0.165	0.362
-340.348	-139.700	-0.157	0.017
-339.333	-173.912	-0.617	0.018
-338.318	-116.294	0.140	-0.026
-337.304	-200.000	0.004	0.220
-336.289	50.372	0.176	0.164
-335.275	436.419	-0.077	-0.165
-334.260	800.000	-0.046	0.159
-333.245	424.265	0.099	-0.210
-332.231	120.572	-0.019	0.023
-331.216	-200.000	0.002	-0.013
-330.202	84.036	-0.107	-0.116
-329.187	41.914	0.194	0.174
-328.172	405.901	0.171	-0.357
-327.158	-200.000	0.050	0.369
-326.143	71.647	-0.303	-0.311
-325.129	22.595	0.161	-0.131
-324.114	-200.000	0.015	-0.187
-323.099	19.573	-0.163	-0.130
-322.085	-66.254	-0.031	0.012
-321.070	341.652	-0.098	-0.190
-320.056	800.000	0.065	0.274
-319.041	224.276	0.321	0.512
-318.026	-49.812	0.286	-0.135
-317.012	-200.000	0.011	0.283
-315.997	-1.366	0.172	0.120
-314.983	-200.000	0.036	-0.179
-313.968	189.527	-0.032	0.048
-312.953	-38.606	-0.206	-0.108
-311.939	800.000	0.127	-0.353
-310.924	-80.039	-0.434	0.144
-309.910	14.244	0.188	0.145
-308.895	534.415	-0.168	-0.394
-307.880	-34.852	0.051	-0.028
-306.866	800.000	0.055	0.161
-305.851	153.523	-0.153	-0.207
-304.837	-116.691	0.434	-0.079
-303.822	83.043	0.315	-0.338
-302.807	-126.461	0.024	-0.003
-301.793	-200.000	-0.005	0.164
-300.778	157.652	0.137	0.187
-299.764	146.838	0.227	0.301
-298.749	327.883	0.114	0.216
-297.735	43.392	0.326	0.295
-296.720	-149.643	-0.203	0.016
-295.705	-107.216	-0.110	-0.024
-294.691	-200.000	0.003	0.090
-293.676	38.261	0.231	-0.203
-292.662	800.000	-0.056	-0.184
-291.647	-200.000	0.016	0.113
-290.632	-141.707	0.077	0.008
-289.618	-149.701	-0.464	-0.036
-288.603	42.206	-0.171	0.153
-287.589	-105.361	0.360	-0.081
-286.574	173.970	0.031	0.045
-285.559	-72.223	-0.164	0.060
-284.545	577.474	0.141	0.340
-283.530	107.176	0.184	-0.216
-282.516	172.089	0.242	0.343
-281.501	-140.098	0.371	0.039
-280.486	279.680	0.053	0.094
-279.472	800.000	-0.079	-0.237
-278.457	800.000	0.046	0.183
-277.443	-50.004	0.213	-0.100
-276.428	191.863	0.156	-0.232
-275.413	-75.950	0.104	-0.036
-274.399	-200.000	-0.038	0.164
-273.384	800.000	0.064	0.222
-272.370	-196.236	0.447	0.003
-271.355	-200.000	0.001	-0.566
-270.340	800.000	-0.068	-0.204
-269.326	-87.224	-0.317	-0.095
-268.311	-200.000	0.362	0.000
-267.297	-200.000	-0.069	0.435
-266.282	-26.558	-0.255	0.147
-265.267	-67.883	0.264	0.102
-264.253	800.000	-0.117	-0.375
-263.238	642.244	-0.092	-0.230
-262.224	95.899	-0.125	-0.140
-261.209	-34.900	0.068	-0.037
-260.195	233.058	-0.029	-0.047
-259.180	152.224	-0.100	0.135
-258.165	-108.608	-0.103	0.022
-257.151	-200.000	-0.015	0.221
-256.136	777.986	0.088	-0.238
-255.122	165.508	0.199	0.278
-254.107	-149.414	-0.321	0.025
-253.092	-200.000	0.008	-0.250
-252.078	800.000	0.106	0.375
-251.063	-146.479	0.124	0.011
-250.049	35.847	-0.177	0.154
-249.034	338.452	0.061	-0.117
-248.019	471.225	0.145	0.323
-247.005	-200.000	-0.086	0.374
-245.990	-165.262	0.251	-0.011
-244.976	-200.000	0.005	0.064
-243.961	-200.000	0.018	0.109
-242.946	143.137	-0.174	-0.228
-241.932	-131.370	-0.111	-0.014
-240.917	5.191	0.089	0.065
-239.903	36.445	-0.095	0.082
-238.888	291.858	-0.053	0.095
-237.873	-65.346	0.383	-0.152
-236.859	-200.000	-0.045	0.223
-235.844	63.904	0.149	-0.147
-234.830	800.000	-0.034	0.106
-233.815	-46.017	-0.316	0.153
-232.800	56.751	-0.086	0.083
-231.786	-200.000	0.027	0.191
-230.771	-95.918	0.111	-0.029
-229.757	464.875	0.056	-0.124
-228.742	-95.905	0.317	0.083
-227.727	-200.000	0.013	-0.258
-226.713	-200.000	-0.004	-0.223
-225.698	161.580	0.066	-0.091
-224.684	-7.054	-0.172	0.115
-223.669	14.405	-0.280	0.215
-222.655	-2.379	-0.184	0.127
-221.640	24.021	0.258	0.209
-220.625	178.942	-0.072	0.104
-219.611	800.000	0.025	-0.076
-218.596	-198.008	-0.185	-0.001
-217.582	-167.214	-0.262	-0.010
-216.567	-172.855	0.224	-0.007
-215.552	-86.254	-0.394	-0.120
-214.538	510.401	0.154	0.353
-213.523	174.280	-0.065	0.093
-212.509	13.834	0.098	0.075
-211.494	-105.561	-0.267	0.060
-210.479	-151.592	0.054	-0.004
-209.465	-200.000	-0.021	0.165
-208.450	39.819	0.112	-0.099
-207.436	-200.000	-0.009	-0.256
-206.421	-135.223	-0.167	0.020
-205.406	-94.214	0.073	-0.020
-204.392	-200.000	-0.051	-0.414
-203.377	-200.000	-0.019	0.137
-202.363	237.466	0.100	0.163
-201.348	-168.546	0.247	-0.009
-200.333	178.362	0.074	0.107
-199.319	-8.366	0.214	-0.142
-198.304	800.000	-0.080	-0.251
-197.290	-140.422	-0.313	0.032
-196.275	-200.000	0.006	-0.162
-195.260	756.473	-0.025	0.067
-194.246	800.000	-0.077	-0.261
-193.231	321.715	-0.145	0.272
-192.217	-200.000	0.008	-0.038
-191.202	-2.846	0.336	-0.231
-190.187	63.766	-0.227	0.225
-189.173	-200.000	-0.003	0.130
-188.158	40.156	-0.244	0.216
-187.144	-149.414	-0.266	-0.021
-186.129	-43.145	0.273	-0.136
-185.114	448.180	-0.062	0.135
-184.100	-148.134	-0.165	0.013
-183.085	632.997	-0.056	0.140
-182.071	800.000	-0.091	0.282
-181.056	343.911	-0.018	-0.036
-180.042	638.098	0.187	-0.468
-179.027	380.723	0.129	-0.260
-178.012	132.041	-0.116	0.146
-176.998	-38.024	0.118	-0.062
-175.983	-23.531	-0.141	-0.083
-174.969	-200.000	-0.011	-0.231
-173.954	5.799	-0.091	-0.066
-172.939	800.000	0.035	-0.119
-171.925	-38.416	-0.289	0.150
-170.910	-38.215	0.378	-0.197
-169.896	-200.000	-0.018	-0.084
-168.881	184.985	0.057	0.084
-167.866	74.904	-0.039	-0.040
-166.852	-90.113	0.396	-0.113
-165.837	-112.509	-0.083	-0.016
-164.823	-200.000	0.003	-0.041
-163.808	131.298	-0.062	0.078
-162.793	324.035	0.058	-0.109
-161.779	800.000	-0.142	0.453
-160.764	12.703	-0.062	0.047
-159.750	-154.815	-0.068	0.004
-158.735	447.134	0.149	0.323
-157.720	-200.000	0.006	-0.084
-156.706	-44.962	-0.266	-0.130
-155.691	-25.047	0.220	-0.128
-154.677	29.888	0.179	-0.150
-153.662	7.170	-0.091	-0.067
-152.647	-76.108	-0.083	0.029
-151.633	-130.070	-0.150	0.020
-150.618	800.000	0.089	-0.286
-149.604	-200.000	0.003	0.438
-148.589	-79.547	-0.140	-0.046
-147.574	301.637	0.228	-0.415
-146.560	-119.106	0.150	0.026
-145.545	800.000	0.019	0.073
-144.531	-104.439	-0.132	-0.030
-143.516	-116.074	-0.127	-0.023
-142.502	275.953	0.016	-0.027
-141.487	-100.336	0.224	0.055
-140.472	-174.330	-0.305	-0.009
-139.458	-200.000	-0.012	-0.291
-138.443	16.834	-0.073	0.057
-137.429	800.000	0.047	0.199
-136.414	-175.765	-0.278	-0.007
-135.399	-26.249	-0.290	-0.167
-134.385	132.719	-0.082	-0.103
-133.370	513.156	0.093	0.212
-132.356	48.301	-0.048	-0.044
-131.341	39.931	0.099	-0.087
-130.326	517.013	0.094	0.215
-129.312	-200.000	0.074	0.322
-128.297	233.484	0.123	0.198
-127.283	-67.062	-0.108	-0.042
-126.268	-200.000	0.023	0.158
-125.253	-200.000	-0.089	-0.423
-124.239	-76.616	0.312	-0.108
-123.224	125.622	0.038	0.047
-122.210	-200.000	0.007	0.126
