DTS Sentinel unit serial number:	SN413079Multiplexer serial number:	ORYXHardware model number:	OX4-SRSoftware version number:	ORYX F/W v4.00 Oryx Data Collector v3.7.2.0data status	okinstallation	princeton_trtdifferential loss correction	single-endedforward channel	channel 3reverse channel	N/Adate	2019/09/18time	09:48:35forward acquisition time	60.00reverse acquisition time	0.00gamma	496.2192k internal	0.2335k external	0.2335temperature offset calibration	0.9951default loss term (dB/km)	0.3790temperature slope calibration	1.0000multiplexer offset coefficient	1.0000multiplexer slope coefficient	1.0000fibre end	0.00T internal ref (°C)	27.00T ext. ref 1 (°C)	0.29T ext. ref 2 (°C)	23.65length (m)	temperature (°C)	Stokes	anti-Stokes-747.200	276.981	0.122	0.218
-746.185	-200.000	0.009	0.148
-745.171	788.641	0.117	-0.322
-744.156	-124.192	-0.080	-0.013
-743.142	-200.000	0.013	-0.317
-742.127	208.047	-0.122	0.192
-741.112	485.967	0.058	0.133
-740.098	66.077	-0.253	0.258
-739.083	-84.274	-0.036	-0.011
-738.069	-200.000	-0.020	-0.302
-737.054	-102.432	-0.256	-0.062
-736.039	-58.509	-0.395	-0.172
-735.025	-78.434	0.228	-0.078
-734.010	-12.803	-0.080	-0.053
-732.996	-200.000	-0.038	-0.330
-731.981	254.967	0.107	-0.184
-730.966	-61.017	-0.280	-0.119
-729.952	800.000	0.054	-0.183
-728.937	-14.774	-0.218	-0.140
-727.923	-61.318	0.245	0.103
-726.908	-200.000	0.017	-0.305
-725.894	-75.723	0.235	0.084
-724.879	79.792	-0.077	0.083
-723.864	23.970	-0.117	0.096
-722.850	87.796	-0.151	0.168
-721.835	60.494	0.096	-0.095
-720.821	800.000	0.029	-0.123
-719.806	191.135	0.138	-0.209
-718.791	-88.337	0.246	0.074
-717.777	343.008	-0.160	-0.314
-716.762	-200.000	0.004	-0.031
-715.748	503.044	0.096	0.222
-714.733	54.276	-0.097	-0.094
-713.718	-72.588	-0.186	-0.069
-712.704	-200.000	0.005	0.065
-711.689	800.000	0.057	-0.238
-710.675	-117.623	0.062	-0.011
-709.660	-200.000	0.039	-0.176
-708.645	414.656	0.034	-0.073
-707.631	173.419	-0.065	0.094
-706.616	300.471	0.087	0.162
-705.602	-4.299	0.310	-0.215
-704.587	242.952	-0.192	-0.322
-703.572	31.449	0.060	-0.052
-702.558	-200.000	0.019	-0.190
-701.543	-67.526	0.175	0.069
-700.529	-66.258	-0.124	0.049
-699.514	-200.000	-0.032	-0.365
-698.499	456.917	0.081	-0.180
-697.485	400.521	0.029	0.061
-696.470	-29.662	0.220	-0.126
-695.456	-101.234	0.105	-0.026
-694.441	759.302	0.029	-0.078
-693.426	-69.617	0.216	-0.083
-692.412	188.235	-0.132	-0.197
-691.397	198.999	-0.126	0.194
-690.383	-35.088	0.472	-0.258
-689.368	-200.000	-0.046	-0.470
-688.354	-33.328	-0.327	-0.181
-687.339	751.234	-0.187	0.506
-686.324	322.412	0.042	-0.080
-685.310	800.000	-0.103	-0.367
-684.295	287.011	-0.105	-0.191
-683.281	-128.528	-0.081	0.012
-682.266	453.337	-0.128	0.285
-681.251	-124.916	0.384	-0.059
-680.237	-200.000	0.001	0.064
-679.222	-41.665	0.207	0.107
-678.208	800.000	-0.042	-0.146
-677.193	-117.661	-0.241	0.043
-676.178	164.861	0.172	0.244
-675.164	-200.000	-0.022	0.174
-674.149	43.444	0.085	-0.078
-673.135	-174.592	-0.410	-0.012
-672.120	-200.000	-0.020	0.122
-671.105	-200.000	0.006	0.222
-670.091	800.000	-0.034	0.100
-669.076	800.000	-0.021	-0.089
-668.062	-122.534	0.040	-0.006
-667.047	35.515	-0.185	-0.162
-666.032	-103.527	-0.085	-0.020
-665.018	-200.000	-0.050	0.330
-664.003	-122.765	-0.078	-0.013
-662.989	-200.000	-0.036	-0.159
-661.974	-181.490	-0.208	0.004
-660.959	-53.381	0.283	0.130
-659.945	-69.404	-0.094	0.036
-658.930	-180.139	0.225	-0.005
-657.916	183.527	0.088	0.130
-656.901	439.013	0.004	-0.009
-655.886	-35.423	-0.070	0.038
-654.872	800.000	-0.056	-0.193
-653.857	-19.216	0.259	0.161
-652.843	-200.000	0.028	-0.169
-651.828	327.141	0.111	-0.213
-650.814	800.000	-0.087	0.288
-649.799	70.481	-0.165	-0.170
-648.784	-106.785	0.188	0.042
-647.770	225.413	-0.109	0.176
-646.755	240.093	-0.126	0.209
-645.741	-129.514	-0.244	-0.034
-644.726	-200.000	-0.005	-0.113
-643.711	-159.211	-0.215	-0.012
-642.697	-200.000	-0.015	0.125
-641.682	-50.238	-0.106	0.050
-640.668	-200.000	0.027	-0.196
-639.653	-112.086	-0.089	0.018
-638.638	-200.000	-0.037	0.225
-637.624	66.700	-0.254	-0.259
-636.609	-74.072	0.197	0.071
-635.595	235.769	-0.195	-0.322
-634.580	-72.069	0.265	-0.099
-633.565	21.465	-0.054	0.044
-632.551	-200.000	0.071	0.396
-631.536	-200.000	-0.036	0.235
-630.522	-59.028	0.253	0.109
-629.507	159.036	-0.115	-0.160
-628.492	-71.737	-0.582	-0.217
-627.478	48.714	-0.192	-0.180
-626.463	800.000	-0.085	0.333
-625.449	356.705	0.080	0.160
-624.434	-22.985	-0.253	0.152
-623.419	335.318	0.077	0.148
-622.405	800.000	-0.036	0.137
-621.390	179.835	0.061	-0.090
-620.376	-200.000	-0.012	0.064
-619.361	-200.000	0.019	-0.263
-618.346	168.429	0.233	-0.332
-617.332	333.210	0.180	0.347
-616.317	-200.000	-0.030	-0.210
-615.303	39.671	0.129	0.115
-614.288	103.383	-0.291	0.341
-613.273	-200.000	-0.088	-0.524
-612.259	154.502	-0.137	-0.189
-611.244	-51.349	0.247	0.116
-610.230	-200.000	0.007	0.041
-609.215	259.012	0.017	0.029
-608.201	-65.478	0.147	-0.059
-607.186	-200.000	-0.026	-0.419
-606.171	-200.000	0.014	0.127
-605.157	51.514	0.187	0.178
-604.142	-50.283	-0.285	-0.135
-603.128	401.192	-0.167	0.350
-602.113	-165.567	0.034	-0.001
-601.098	-72.600	0.218	0.080
-600.084	63.817	0.119	-0.120
-599.069	-200.000	-0.017	0.103
-598.055	35.627	0.213	-0.187
-597.040	110.223	0.052	0.063
-596.025	38.553	0.191	-0.171
-595.011	-146.344	0.295	-0.026
-593.996	-200.000	0.035	-0.222
-592.982	49.419	-0.183	-0.172
-591.967	33.221	0.118	0.102
-590.952	-143.451	0.024	0.002
-589.938	-72.814	0.046	0.017
-588.923	-121.078	0.066	0.011
-587.909	432.039	0.149	0.322
-586.894	-97.704	-0.157	0.041
-585.879	401.455	-0.083	-0.173
-584.865	-59.041	0.171	-0.074
-583.850	172.900	-0.169	0.244
-582.836	800.000	0.079	0.302
-581.821	-200.000	-0.008	0.101
-580.806	291.598	0.228	-0.414
-579.792	-8.234	0.177	-0.119
-578.777	16.533	0.195	-0.154
-577.763	-60.126	-0.176	0.075
-576.748	-37.055	-0.270	0.144
-575.733	-200.000	0.013	0.261
-574.719	-176.451	0.123	0.003
-573.704	317.746	0.105	0.198
-572.690	800.000	-0.073	0.249
-571.675	-200.000	0.036	-0.223
-570.661	83.774	-0.123	0.134
-569.646	-45.334	-0.231	-0.114
-568.631	571.710	-0.128	0.311
-567.617	-60.856	-0.111	0.047
-566.602	17.268	-0.239	-0.189
-565.588	113.912	0.125	-0.151
-564.573	91.383	0.024	-0.027
-563.558	-90.654	0.138	0.040
-562.544	165.973	-0.069	-0.098
-561.529	800.000	-0.015	0.057
-560.515	61.632	0.172	-0.171
-559.500	-55.411	-0.139	-0.062
-558.485	2.503	0.053	0.038
-557.471	-115.331	0.354	0.067
-556.456	-130.882	-0.074	-0.010
-555.442	-200.000	-0.014	0.177
-554.427	-200.000	0.001	-0.115
-553.412	45.904	0.331	-0.305
-552.398	-200.000	-0.028	-0.141
-551.383	-101.313	0.273	0.066
-550.369	-200.000	-0.028	-0.225
-549.354	-200.000	-0.042	0.261
-548.339	-200.000	0.058	0.294
-547.325	-121.826	-0.139	-0.023
-546.310	800.000	-0.083	0.356
-545.296	-28.392	0.308	-0.177
-544.281	-200.000	-0.037	-0.261
-543.266	88.082	-0.366	-0.405
-542.252	34.585	0.074	0.065
-541.237	56.502	0.033	0.032
-540.223	-40.463	0.228	-0.118
-539.208	686.651	-0.095	-0.246
-538.193	-200.000	-0.049	-0.437
-537.179	-123.423	-0.104	0.016
-536.164	-200.000	0.020	0.089
-535.150	-200.000	0.053	0.335
-534.135	-200.000	-0.024	0.327
-533.121	476.791	-0.043	-0.096
-532.106	800.000	-0.067	-0.188
-531.091	-103.023	0.271	0.064
-530.077	227.536	-0.051	0.082
-529.062	-118.510	-0.411	0.072
-528.048	170.047	0.124	-0.177
-527.033	139.880	0.127	0.166
-526.018	-190.011	-0.128	-0.001
-525.004	-68.637	0.227	-0.088
-523.989	-100.048	0.165	0.041
-522.975	800.000	0.059	-0.179
-521.960	-200.000	-0.004	0.218
-520.945	-200.000	0.017	-0.121
-519.931	40.500	-0.081	-0.073
-518.916	342.224	-0.115	0.224
-517.902	-120.368	-0.287	0.049
-516.887	800.000	0.046	-0.145
-515.872	-200.000	0.002	-0.191
-514.858	-13.920	0.084	-0.054
-513.843	-15.181	-0.081	-0.051
-512.829	-200.000	-0.045	-0.210
-511.814	316.745	-0.079	0.149
-510.799	61.012	-0.051	-0.050
-509.785	-200.000	0.003	-0.096
-508.770	-197.052	0.138	-0.001
-507.756	-99.662	0.204	-0.051
-506.741	-200.000	-0.013	-0.067
-505.726	800.000	0.045	-0.179
-504.712	-57.944	-0.061	0.027
-503.697	-200.000	-0.017	0.131
-502.683	-90.851	0.266	-0.076
-501.668	-47.115	-0.161	-0.078
-500.653	135.091	0.109	0.141
-499.639	-200.000	0.079	0.470
-498.624	800.000	0.108	0.379
-497.610	-143.828	-0.132	-0.012
-496.595	184.652	0.081	0.120
-495.581	-200.000	0.063	-0.462
-494.566	189.119	-0.145	-0.216
-493.551	-41.826	0.113	0.058
-492.537	480.871	-0.130	0.293
-491.522	8.177	0.085	0.063
-490.508	-111.596	0.265	-0.054
-489.493	-200.000	-0.044	0.415
-488.478	-200.000	-0.058	0.343
-487.464	-42.684	-0.200	-0.101
-486.449	-55.857	-0.271	0.120
-485.435	800.000	0.018	0.078
-484.420	-100.097	-0.211	0.052
-483.405	14.788	-0.126	0.098
-482.391	-142.149	0.244	-0.024
-481.376	198.099	-0.024	-0.037
-480.362	-117.801	-0.136	-0.024
-479.347	-93.510	-0.466	0.128
-478.332	-200.000	0.000	0.030
-477.318	-7.156	-0.294	-0.198
-476.303	-200.000	-0.035	-0.292
-475.289	-200.000	-0.006	-0.070
-474.274	-162.973	-0.348	-0.017
-473.259	161.217	-0.292	0.406
-472.245	-89.270	0.353	0.103
-471.230	800.000	-0.124	0.420
-470.216	-119.234	0.179	0.031
-469.201	696.516	0.091	0.239
-468.186	-200.000	0.050	0.289
-467.172	-117.724	-0.071	-0.013
-466.157	-6.310	0.083	0.056
-465.143	-108.131	-0.297	0.064
-464.128	406.341	0.224	0.469
-463.113	800.000	0.057	0.190
-462.099	596.738	0.051	-0.125
-461.084	800.000	0.016	-0.063
-460.070	-200.000	-0.030	-0.156
-459.055	771.738	0.079	-0.214
-458.040	-25.696	0.067	-0.039
-457.026	12.281	-0.320	-0.245
-456.011	-160.847	0.181	-0.009
-454.997	45.180	0.057	-0.052
-453.982	-131.849	-0.265	-0.034
-452.968	2.118	0.053	0.038
-451.953	207.503	-0.069	-0.107
-450.938	115.495	0.168	-0.204
-449.924	12.526	0.197	0.151
-448.909	211.204	-0.216	0.338
-447.895	69.289	-0.054	-0.055
-446.880	-88.697	-0.291	-0.086
-445.865	37.296	0.144	0.127
-444.851	800.000	-0.035	-0.098
-443.836	64.309	-0.109	-0.109
-442.822	-21.094	-0.179	0.109
-441.807	-53.994	0.433	0.196
-440.792	397.555	0.189	-0.392
-439.778	149.861	0.068	0.092
-438.763	-200.000	-0.032	0.442
-437.749	-77.582	-0.163	0.056
-436.734	31.480	0.221	-0.188
-435.719	782.818	-0.016	0.045
-434.705	-159.790	-0.240	0.013
-433.690	-200.000	-0.019	-0.138
-432.676	-171.925	-0.150	-0.005
-431.661	800.000	0.033	-0.135
-430.646	-132.793	-0.341	0.043
-429.632	800.000	-0.066	-0.234
-428.617	34.287	0.100	-0.086
-427.603	-190.513	-0.346	-0.004
-426.588	800.000	-0.085	-0.341
-425.573	742.540	0.061	-0.163
-424.559	-20.330	0.260	0.159
-423.544	-38.639	0.447	-0.234
-422.530	-200.000	-0.021	0.255
-421.515	800.000	-0.023	-0.065
-420.500	228.748	0.127	0.206
-419.486	-171.380	-0.233	-0.008
-418.471	-200.000	-0.003	-0.107
-417.457	8.112	0.243	-0.181
-416.442	105.553	-0.137	0.160
-415.428	-4.663	0.095	-0.065
-414.413	-200.000	-0.004	-0.075
-413.398	764.640	0.061	0.165
-412.384	-145.650	0.073	-0.006
-411.369	-98.915	-0.359	-0.091
-410.355	-126.316	0.133	-0.020
-409.340	7.535	0.154	-0.114
-408.325	-11.875	-0.271	0.176
-407.311	800.000	-0.015	0.063
-406.296	-132.445	0.183	-0.023
-405.282	-124.517	-0.178	0.027
-404.267	800.000	0.013	-0.047
-403.252	324.892	0.266	-0.503
-402.238	283.874	-0.089	0.158
-401.223	114.925	0.082	0.100
-400.209	25.139	0.170	-0.140
-399.194	163.202	0.222	0.309
-398.179	800.000	-0.090	0.281
-397.165	-113.671	0.350	0.068
-396.150	-139.579	-0.190	0.020
-395.136	657.650	-0.114	-0.290
-394.121	-56.102	-0.236	-0.104
-393.106	-55.004	0.238	-0.106
-392.092	-75.550	-0.221	0.078
-391.077	-200.000	0.031	0.200
-390.063	48.791	-0.083	-0.077
-389.048	-60.628	-0.124	0.052
-388.033	-13.249	-0.182	-0.117
-387.019	-15.607	0.167	-0.106
-386.004	800.000	-0.064	0.220
-384.990	284.264	-0.086	0.153
-383.975	63.220	-0.170	-0.169
-382.960	800.000	-0.039	0.113
-381.946	800.000	0.056	0.206
-380.931	243.266	-0.080	0.134
-379.917	213.404	0.119	0.186
-378.902	-44.022	-0.191	-0.095
-377.888	40.454	-0.118	-0.105
-376.873	35.102	-0.131	-0.114
-375.858	-153.961	0.100	0.007
-374.844	-97.895	-0.149	-0.038
-373.829	131.290	-0.138	-0.175
-372.815	-18.923	-0.145	-0.089
-371.800	37.984	0.176	0.155
-370.785	36.515	-0.172	-0.150
-369.771	10.713	-0.315	-0.238
-368.756	-200.000	0.025	-0.126
-367.742	800.000	0.072	-0.234
-366.727	-42.283	-0.146	0.074
-365.712	-6.023	0.180	0.122
-364.698	10.139	0.110	-0.083
-363.683	-200.000	-0.018	-0.312
-362.669	-62.660	0.192	0.079
-361.654	800.000	0.062	-0.211
-360.639	800.000	-0.047	0.196
-359.625	57.463	0.056	-0.054
-358.610	175.597	0.222	-0.319
-357.596	-55.074	-0.132	0.059
-356.581	113.520	0.225	-0.270
-355.566	268.439	0.126	-0.219
-354.552	-10.744	0.083	-0.054
-353.537	-39.787	0.253	-0.131
-352.523	-200.000	-0.025	0.209
-351.508	-143.127	-0.199	-0.019
-350.493	-7.449	-0.226	0.151
-349.479	787.538	0.046	-0.125
-348.464	102.756	-0.158	0.183
-347.450	800.000	0.068	-0.202
-346.435	-200.000	-0.020	0.325
-345.420	800.000	0.087	-0.297
-344.406	-37.999	-0.129	0.068
-343.391	630.546	0.097	0.242
-342.377	126.510	-0.269	-0.337
-341.362	-132.985	0.322	-0.040
-340.348	-111.255	-0.305	0.062
-339.333	387.791	-0.032	-0.066
-338.318	-74.799	0.153	0.054
-337.304	-7.106	-0.162	-0.109
-336.289	19.026	-0.128	0.102
-335.275	-111.229	-0.121	0.024
-334.260	-4.209	-0.183	0.125
-333.245	-111.926	0.017	0.003
-332.231	184.499	0.060	0.088
-331.216	-167.957	0.009	0.000
-330.202	6.312	-0.164	-0.120
-329.187	246.695	-0.091	-0.152
-328.172	-173.447	-0.263	0.008
-327.158	340.198	-0.022	0.042
-326.143	800.000	0.053	-0.175
-325.129	-73.708	0.046	-0.017
-324.114	800.000	0.201	-0.703
-323.099	-200.000	0.019	-0.128
-322.085	262.081	-0.093	-0.159
-321.070	63.207	-0.069	0.069
-320.056	205.166	0.024	0.038
-319.041	800.000	-0.018	-0.065
-318.026	35.874	0.097	0.085
-317.012	326.124	0.043	0.082
-315.997	-200.000	0.035	0.284
-314.983	62.314	0.102	-0.100
-313.968	49.935	-0.220	0.205
-312.953	800.000	-0.038	-0.103
-311.939	134.413	-0.053	-0.068
-310.924	-113.001	0.276	-0.054
-309.910	62.765	-0.112	-0.111
-308.895	-103.177	0.371	0.087
-307.880	-200.000	-0.009	-0.133
-306.866	-140.615	-0.240	-0.025
-305.851	275.155	-0.099	0.173
-304.837	-127.515	0.099	-0.014
-303.822	-127.005	0.144	-0.021
-302.807	4.881	0.267	-0.194
-301.793	-55.702	-0.290	0.128
-300.778	314.830	0.120	0.223
-299.764	143.659	0.209	-0.275
-298.749	-52.987	-0.288	-0.131
-297.735	72.804	-0.106	-0.109
-296.720	0.641	0.150	-0.106
-295.705	-55.813	0.138	-0.061
-294.691	-114.457	0.130	0.025
-293.676	100.533	-0.045	-0.051
-292.662	414.074	-0.066	0.138
-291.647	129.018	0.195	-0.245
-290.632	-200.000	-0.010	-0.158
-289.618	84.626	0.126	-0.136
-288.603	527.379	0.158	-0.368
-287.589	271.868	-0.180	-0.313
-286.574	-123.261	0.362	0.057
-285.559	423.474	-0.158	-0.336
-284.545	-107.247	0.300	-0.065
-283.530	-129.821	0.175	-0.024
-282.516	102.288	-0.201	-0.231
-281.501	-67.842	-0.101	0.039
-280.486	-113.701	-0.364	0.070
-279.472	257.256	-0.120	0.204
-278.457	135.805	0.047	-0.061
-277.443	256.075	0.101	0.171
-276.428	-46.803	0.221	-0.107
-275.413	-200.000	0.050	-0.415
-274.399	-200.000	-0.008	0.121
-273.384	41.378	-0.105	0.093
-272.370	-5.571	-0.380	0.257
-271.355	20.900	-0.060	0.048
-270.340	-69.620	-0.119	0.045
-269.326	-40.542	0.290	0.148
-268.311	-137.446	0.133	-0.015
-267.297	157.983	-0.076	0.104
-266.282	440.116	0.129	0.277
-265.267	64.818	-0.185	-0.184
-264.253	-99.115	-0.215	0.054
-263.238	-51.756	-0.326	0.150
-262.224	800.000	0.078	-0.228
-261.209	194.258	-0.230	-0.344
-260.195	-200.000	-0.043	0.217
-259.180	74.606	-0.133	-0.137
-258.165	102.446	0.121	0.139
-257.151	-80.170	-0.140	-0.046
-256.136	-61.980	-0.199	0.082
-255.122	-34.832	0.153	-0.082
-254.107	-171.736	0.240	0.008
-253.092	-105.043	-0.058	0.013
-252.078	228.848	-0.204	0.328
-251.063	800.000	0.094	0.361
-250.049	32.959	0.190	0.162
-249.034	-73.663	0.089	0.032
-248.019	322.917	-0.098	0.184
-247.005	-200.000	0.025	-0.259
-245.990	56.198	-0.090	-0.086
-244.976	-51.342	0.178	0.082
-243.961	-200.000	0.048	0.361
-242.946	170.615	0.156	-0.221
-241.932	-200.000	-0.022	-0.257
-240.917	-110.723	0.202	-0.041
-239.903	-200.000	-0.047	0.252
-238.888	83.759	-0.234	0.252
-237.873	-50.834	0.298	0.138
-236.859	-30.281	-0.119	-0.066
-235.844	-200.000	0.034	0.248
-234.830	243.443	-0.124	0.205
-233.815	-200.000	0.002	0.088
-232.800	800.000	-0.031	0.100
-231.786	178.372	0.157	-0.226
-230.771	171.280	-0.151	0.214
-229.757	-200.000	0.097	-0.495
-228.742	-122.499	-0.140	-0.022
-227.727	20.579	0.350	-0.279
-226.713	38.736	-0.138	-0.122
-225.698	244.485	-0.122	0.202
-224.684	3.135	0.267	0.191
-223.669	-162.257	0.228	-0.011
-222.655	-200.000	0.004	0.219
-221.640	-200.000	-0.025	0.325
-220.625	-200.000	-0.003	-0.037
-219.611	-129.095	-0.176	0.024
-218.596	621.568	0.084	0.208
-217.582	155.147	0.087	0.117
-216.567	148.570	-0.171	-0.227
-215.552	800.000	-0.013	-0.043
-214.538	-200.000	-0.020	-0.276
-213.523	91.831	-0.146	0.162
-212.509	-200.000	-0.012	-0.072
-211.494	-200.000	0.011	-0.265
-210.479	-200.000	-0.024	-0.148
-209.465	300.117	-0.071	0.129
-208.450	-200.000	0.002	0.059
-207.436	193.501	0.183	0.272
-206.421	-200.000	0.064	0.361
-205.406	-75.067	-0.252	0.089
-204.392	-200.000	0.049	-0.407
-203.377	-91.667	0.159	-0.045
-202.363	-143.762	-0.185	-0.017
-201.348	243.001	0.182	0.300
-200.333	15.750	-0.142	-0.110
-199.319	-32.228	0.234	0.128
-198.304	-55.924	0.319	0.140
-197.290	-200.000	-0.008	-0.224
-196.275	800.000	-0.017	-0.051
-195.260	43.026	0.133	0.120
-194.246	142.205	0.082	-0.107
-193.231	-16.890	-0.145	0.090
-192.217	55.849	-0.391	0.373
-191.202	-24.994	0.115	-0.067
-190.187	-200.000	0.012	0.061
-189.173	-87.854	0.160	-0.047
-188.158	398.257	-0.062	0.128
-187.144	-105.782	0.224	-0.050
-186.129	-200.000	0.001	0.172
-185.114	86.643	0.145	-0.157
-184.100	3.371	-0.147	-0.105
-183.085	-74.888	0.103	0.036
-182.071	800.000	-0.065	0.264
-181.056	-57.230	-0.283	-0.123
-180.042	-200.000	-0.075	-0.364
-179.027	-70.974	0.173	-0.064
-178.012	110.079	0.011	-0.013
-176.998	800.000	-0.083	0.320
-175.983	-200.000	-0.013	0.113
-174.969	-90.494	0.120	0.034
-173.954	-93.226	0.285	0.078
-172.939	-55.710	0.124	0.055
-171.925	186.403	0.033	-0.048
-170.910	800.000	0.126	-0.358
-169.896	-56.158	0.257	-0.112
-168.881	-30.330	0.292	-0.163
-167.866	-200.000	0.008	0.256
-166.852	-103.640	0.192	-0.044
-165.837	507.162	0.054	-0.124
-164.823	53.935	0.149	-0.141
-163.808	800.000	0.084	0.304
-162.793	81.480	-0.095	-0.101
-161.779	-200.000	-0.056	0.315
-160.764	-75.570	0.134	0.047
-159.750	-200.000	0.134	0.000
-158.735	398.396	0.065	0.134
-157.720	-133.730	0.269	-0.033
-156.706	800.000	0.068	-0.224
-155.691	-173.411	-0.270	-0.008
-154.677	58.006	-0.186	0.179
-153.662	-22.079	-0.212	0.126
-152.647	17.597	0.172	0.134
-151.633	-200.000	-0.011	-0.093
-150.618	-152.261	-0.191	0.014
-149.604	800.000	0.073	0.282
-148.589	-78.069	0.054	0.018
-147.574	-62.325	0.331	-0.135
-146.560	-12.694	-0.269	-0.172
-145.545	-200.000	0.044	-0.340
-144.531	91.417	-0.158	-0.174
-143.516	44.880	0.135	-0.122
-142.502	120.415	0.144	0.176
-141.487	99.602	-0.165	0.187
-140.472	-52.873	0.269	0.122
-139.458	800.000	0.138	0.434
-138.443	-200.000	0.005	-0.301
-137.429	-21.220	-0.402	0.241
-136.414	-19.518	-0.222	0.135
-135.399	-109.644	0.232	0.048
-134.385	38.987	-0.104	-0.091
-133.370	100.683	0.117	-0.133
-132.356	-77.660	0.096	0.033
-131.341	-200.000	-0.016	0.179
-130.326	9.584	0.286	0.213
-129.312	-90.237	-0.221	-0.063
-128.297	123.246	0.079	0.097
-127.283	279.423	0.049	0.086
-126.268	135.636	-0.169	-0.216
-125.253	13.682	0.070	-0.054
-124.239	134.510	0.132	0.167
-123.224	800.000	0.108	-0.386
-122.210	7.710	0.189	0.139
