DTS Sentinel unit serial number:	SN413079Multiplexer serial number:	ORYXHardware model number:	OX4-SRSoftware version number:	ORYX F/W v4.00 Oryx Data Collector v3.7.2.0data status	okinstallation	princeton_trtdifferential loss correction	single-endedforward channel	channel 3reverse channel	N/Adate	2019/09/16time	14:52:34forward acquisition time	60.00reverse acquisition time	0.00gamma	496.2192k internal	0.2293k external	0.2293temperature offset calibration	0.9943default loss term (dB/km)	0.3790temperature slope calibration	1.0000multiplexer offset coefficient	1.0000multiplexer slope coefficient	1.0000fibre end	0.00T internal ref (°C)	41.34T ext. ref 1 (°C)	14.40T ext. ref 2 (°C)	35.84length (m)	temperature (°C)	Stokes	anti-Stokes-747.200	-134.994	0.288	-0.036
-746.185	-94.740	-0.133	0.037
-745.171	277.634	0.155	0.282
-744.156	418.660	0.086	0.188
-743.142	81.503	0.036	-0.040
-742.127	-200.000	-0.027	0.365
-741.112	544.500	0.060	0.146
-740.098	261.158	0.282	0.499
-739.083	225.805	0.049	0.080
-738.069	-200.000	0.022	0.160
-737.054	122.014	0.211	-0.270
-736.039	-200.000	-0.047	0.458
-735.025	-18.071	0.156	-0.100
-734.010	-130.655	0.211	-0.029
-732.996	800.000	0.071	-0.220
-731.981	20.315	-0.265	0.219
-730.966	99.317	0.299	-0.354
-729.952	164.858	-0.194	0.280
-728.937	-96.185	0.098	0.027
-727.923	-170.950	-0.257	0.009
-726.908	-46.203	0.298	-0.150
-725.894	-44.657	-0.275	0.140
-724.879	57.979	-0.245	-0.245
-723.864	-113.958	-0.169	0.033
-722.850	-200.000	0.020	-0.156
-721.835	-16.593	0.253	-0.164
-720.821	-111.962	0.156	0.032
-719.806	398.858	-0.132	-0.282
-718.791	258.098	0.114	-0.201
-717.777	800.000	0.111	-0.397
-716.762	-79.510	0.362	-0.125
-715.748	-9.425	0.202	0.138
-714.733	-169.004	0.051	0.002
-713.718	605.760	-0.044	0.112
-712.704	-83.344	0.255	-0.084
-711.689	188.857	-0.130	-0.199
-710.675	-112.621	0.131	0.027
-709.660	800.000	0.052	-0.154
-708.645	33.160	0.165	-0.147
-707.631	19.420	-0.129	0.106
-706.616	51.179	0.227	0.220
-705.602	103.113	-0.174	0.208
-704.587	-200.000	0.003	0.081
-703.572	9.944	-0.095	0.074
-702.558	106.242	0.279	-0.338
-701.543	-200.000	-0.034	0.182
-700.529	385.371	-0.187	0.395
-699.514	-0.419	-0.189	0.137
-698.499	-35.128	0.288	0.160
-697.485	-134.509	-0.105	-0.013
-696.470	136.399	-0.051	0.068
-695.456	-97.107	-0.179	0.048
-694.441	11.220	0.192	-0.150
-693.426	179.489	-0.075	0.112
-692.412	91.831	-0.248	0.285
-691.397	367.387	0.194	-0.400
-690.383	800.000	0.044	-0.132
-689.368	-200.000	-0.014	0.213
-688.354	233.679	0.179	0.301
-687.339	-87.674	-0.304	-0.094
-686.324	-57.930	-0.070	0.031
-685.310	-115.390	-0.154	-0.030
-684.295	-106.481	0.165	0.038
-683.281	52.075	0.197	0.191
-682.266	199.547	0.204	0.320
-681.251	-25.422	-0.098	0.059
-680.237	-25.649	0.383	-0.231
-679.222	800.000	-0.063	-0.237
-678.208	298.283	-0.207	-0.389
-677.193	20.647	-0.144	0.119
-676.178	-200.000	-0.043	-0.374
-675.164	29.266	-0.194	-0.168
-674.149	18.919	-0.180	-0.147
-673.135	-144.962	0.128	-0.012
-672.120	150.243	0.235	-0.326
-671.105	-61.481	0.172	0.074
-670.091	800.000	0.032	0.119
-669.076	800.000	-0.012	-0.047
-668.062	67.337	-0.152	-0.158
-667.047	-109.641	0.356	0.077
-666.032	-98.252	0.021	-0.005
-665.018	141.254	-0.133	0.180
-664.003	-200.000	-0.070	-0.383
-662.989	-13.849	0.196	-0.129
-661.974	-108.938	0.358	0.078
-660.959	549.343	-0.105	0.257
-659.945	0.270	0.144	0.105
-658.930	535.082	0.174	0.422
-657.916	103.490	-0.035	-0.042
-656.901	-24.114	0.251	0.153
-655.886	305.749	0.158	0.300
-654.872	194.787	0.124	0.191
-653.857	-200.000	0.036	0.397
-652.843	-47.724	-0.241	-0.119
-651.828	-148.081	-0.177	0.015
-650.814	-69.587	-0.149	-0.058
-649.799	-107.632	0.208	0.046
-648.784	-200.000	0.010	-0.124
-647.770	-168.247	-0.038	0.001
-646.755	-75.411	-0.327	-0.119
-645.741	-200.000	0.018	0.151
-644.726	-200.000	-0.015	0.077
-643.711	50.076	-0.227	-0.219
-642.697	56.970	-0.150	-0.149
-641.682	87.427	0.228	-0.257
-640.668	-41.592	-0.196	-0.102
-639.653	53.857	-0.101	-0.099
-638.638	-200.000	-0.027	-0.281
-637.624	-200.000	0.008	-0.190
-636.609	401.338	0.091	-0.194
-635.595	800.000	-0.050	-0.148
-634.580	-149.259	0.353	-0.029
-633.565	95.520	-0.111	0.129
-632.551	598.445	-0.132	-0.333
-631.536	353.172	0.064	0.130
-630.522	240.172	0.183	0.310
-629.507	228.360	0.126	0.209
-628.492	800.000	-0.052	-0.166
-627.478	800.000	-0.117	-0.346
-626.463	-177.633	0.332	0.008
-625.449	-0.176	0.167	0.121
-624.434	-93.481	0.327	0.092
-623.419	-53.623	-0.331	-0.154
-622.405	18.077	-0.207	0.168
-621.390	-200.000	-0.019	0.100
-620.376	-200.000	0.016	-0.111
-619.361	-200.000	0.055	-0.274
-618.346	105.170	-0.279	0.336
-617.332	130.002	0.127	-0.165
-616.317	435.498	-0.055	-0.122
-615.303	800.000	-0.066	0.274
-614.288	-112.814	0.463	-0.094
-613.273	-18.073	0.138	-0.088
-612.259	-26.646	-0.019	0.011
-611.244	-200.000	0.049	0.270
-610.230	-200.000	0.031	0.188
-609.215	-159.992	-0.104	-0.006
-608.201	79.227	-0.294	0.321
-607.186	-34.483	0.042	0.023
-606.171	-58.288	0.093	-0.041
-605.157	328.360	-0.066	-0.128
-604.142	-56.322	0.329	0.149
-603.128	-200.000	-0.038	-0.238
-602.113	2.591	0.069	0.051
-601.098	227.964	0.073	0.121
-600.084	368.531	0.101	0.207
-599.069	-156.779	-0.478	-0.030
-598.055	-42.189	-0.272	0.141
-597.040	326.739	0.090	0.176
-596.025	214.548	0.068	0.110
-595.011	105.258	0.211	-0.253
-593.996	800.000	0.029	0.113
-592.982	-200.000	-0.017	0.105
-591.967	-200.000	0.050	0.395
-590.952	-114.983	0.169	-0.033
-589.938	57.232	0.163	0.162
-588.923	-149.936	-0.108	-0.009
-587.909	-65.934	0.353	-0.144
-586.894	800.000	0.067	-0.198
-585.879	151.416	-0.112	0.155
-584.865	-200.000	0.018	0.252
-583.850	-59.033	0.510	0.224
-582.836	92.344	0.152	-0.174
-581.821	94.561	0.255	-0.295
-580.806	800.000	0.100	-0.301
-579.792	-99.736	0.051	-0.013
-578.777	-23.719	-0.180	-0.109
-577.763	800.000	-0.060	-0.250
-576.748	-200.000	0.034	0.347
-575.733	-200.000	-0.014	0.287
-574.719	110.734	-0.251	-0.307
-573.704	-200.000	0.062	-0.588
-572.690	11.534	-0.228	0.178
-571.675	93.837	-0.228	-0.262
-570.661	8.569	0.036	0.027
-569.646	-200.000	0.039	0.188
-568.631	-189.409	-0.263	0.003
-567.617	76.949	-0.079	-0.086
-566.602	298.717	0.134	-0.251
-565.588	377.511	-0.253	0.525
-564.573	11.842	-0.222	0.174
-563.558	-137.104	0.223	-0.026
-562.544	221.970	0.111	0.182
-561.529	-144.026	-0.116	0.011
-560.515	82.332	0.152	-0.168
-559.500	800.000	-0.057	-0.234
-558.485	-110.837	-0.279	-0.058
-557.471	-191.515	0.270	-0.003
-556.456	-134.028	-0.146	0.018
-555.442	70.636	0.274	-0.287
-554.427	86.207	0.178	0.199
-553.412	-79.344	-0.124	-0.043
-552.398	-136.642	-0.162	0.019
-551.383	-7.757	-0.069	-0.048
-550.369	-22.154	-0.200	0.123
-549.354	-200.000	0.003	-0.138
-548.339	61.679	0.181	0.183
-547.325	68.028	-0.256	-0.266
-546.310	-112.389	-0.166	-0.034
-545.296	316.853	0.078	-0.150
-544.281	194.404	-0.090	-0.138
-543.266	78.586	0.078	0.084
-542.252	156.027	-0.144	0.202
-541.237	-104.135	-0.122	0.029
-540.223	-139.130	0.101	-0.011
-539.208	111.003	0.084	0.103
-538.193	-200.000	-0.010	0.153
-537.179	800.000	0.024	-0.105
-536.164	-42.346	0.242	-0.125
-535.150	588.838	0.031	0.077
-534.135	-128.665	-0.382	0.055
-533.121	714.068	-0.086	-0.231
-532.106	-77.557	-0.108	0.038
-531.091	-200.000	0.009	0.140
-530.077	-131.416	0.183	0.024
-529.062	152.179	0.017	0.023
-528.048	-40.925	0.157	0.082
-527.033	3.533	0.138	0.102
-526.018	6.991	-0.228	0.172
-525.004	-30.180	-0.092	0.053
-523.989	-197.328	-0.025	0.000
-522.975	-129.506	0.175	0.025
-521.960	-120.401	-0.127	0.022
-520.945	309.886	0.088	0.168
-519.931	-108.833	-0.262	0.057
-518.916	-122.136	-0.097	0.016
-517.902	59.599	0.084	0.084
-516.887	107.938	0.079	0.096
-515.872	-200.000	-0.026	-0.227
-514.858	-53.644	-0.110	0.051
-513.843	-58.043	0.244	-0.108
-512.829	128.705	0.134	0.173
-511.814	257.440	0.060	-0.104
-510.799	-41.086	0.077	-0.040
-509.785	-171.520	0.154	-0.005
-508.770	-19.551	-0.119	0.075
-507.756	-82.757	0.283	-0.093
-506.741	800.000	0.043	-0.127
-505.726	136.700	0.173	-0.229
-504.712	588.209	-0.052	-0.129
-503.697	800.000	0.019	-0.071
-502.683	-28.103	0.205	0.120
-501.668	10.240	0.084	0.065
-500.653	-36.806	-0.192	-0.104
-499.639	214.766	0.150	-0.241
-498.624	-46.855	0.115	0.057
-497.610	-49.731	0.009	-0.004
-496.595	-200.000	-0.050	0.284
-495.581	800.000	0.042	-0.146
-494.566	-103.028	-0.218	0.052
-493.551	800.000	-0.016	-0.068
-492.537	-200.000	0.037	-0.369
-491.522	399.323	0.134	-0.285
-490.508	800.000	0.044	-0.136
-489.493	-170.927	-0.223	-0.008
-488.478	-58.858	0.301	-0.132
-487.464	155.375	0.089	0.124
-486.449	-8.661	0.135	-0.092
-485.435	-200.000	-0.139	-0.001
-484.420	11.988	-0.375	-0.292
-483.405	800.000	-0.101	-0.400
-482.391	-1.139	0.216	0.155
-481.376	-60.492	-0.295	-0.127
-480.362	-200.000	0.026	-0.243
-479.347	295.508	-0.069	-0.129
-478.332	800.000	-0.036	0.147
-477.318	19.541	0.043	0.035
-476.303	-120.818	-0.170	-0.029
-475.289	-200.000	0.056	-0.309
-474.274	101.990	-0.096	-0.114
-473.259	800.000	-0.060	-0.257
-472.245	-139.884	0.148	-0.016
-471.230	143.479	-0.031	-0.042
-470.216	-87.958	-0.231	-0.070
-469.201	34.144	-0.164	0.145
-468.186	-20.499	-0.175	-0.109
-467.172	800.000	-0.037	0.115
-466.157	162.783	0.231	0.328
-465.143	800.000	0.047	-0.190
-464.128	86.008	-0.239	0.266
-463.113	282.906	0.107	-0.194
-462.099	648.535	0.006	-0.016
-461.084	-64.127	0.232	0.096
-460.070	800.000	-0.061	0.173
-459.055	-141.773	-0.098	0.010
-458.040	-122.780	-0.289	0.047
-457.026	-81.783	-0.222	0.074
-456.011	16.853	0.163	0.131
-454.997	307.754	-0.131	0.247
-453.982	5.387	-0.136	0.102
-452.968	601.471	0.144	-0.362
-451.953	4.704	0.228	0.170
-450.938	53.226	0.052	0.050
-449.924	-65.833	-0.128	-0.052
-448.909	800.000	-0.021	0.073
-447.895	-26.691	0.159	0.094
-446.880	268.711	0.016	0.028
-445.865	-99.994	-0.198	0.050
-444.851	361.595	-0.122	0.248
-443.836	-123.390	0.275	0.044
-442.822	-68.196	0.085	0.033
-441.807	-200.000	0.014	0.133
-440.792	-200.000	0.007	-0.203
-439.778	319.582	-0.087	-0.167
-438.763	-124.447	-0.074	-0.012
-437.749	253.658	0.076	-0.131
-436.734	-79.034	-0.170	-0.058
-435.719	118.185	0.083	0.103
-434.705	352.714	0.130	-0.261
-433.690	-105.503	-0.208	0.048
-432.676	158.117	-0.054	0.075
-431.661	6.408	-0.309	-0.232
-430.646	-47.218	0.071	-0.035
-429.632	95.487	0.216	-0.249
-428.617	800.000	-0.122	-0.536
-427.603	800.000	-0.084	0.244
-426.588	84.825	0.113	-0.126
-425.573	80.677	-0.077	-0.084
-424.559	-200.000	-0.012	0.156
-423.544	-10.407	-0.221	-0.148
-422.530	-73.822	-0.040	0.015
-421.515	576.821	-0.111	0.273
-420.500	25.776	0.249	-0.209
-419.486	-99.750	-0.179	-0.045
-418.471	64.118	0.082	0.084
-417.457	-41.017	-0.251	0.131
-416.442	52.867	0.105	-0.102
-415.428	102.229	0.223	0.263
-414.413	-200.000	-0.014	0.088
-413.398	-121.264	0.213	-0.036
-412.384	800.000	0.031	-0.101
-411.369	91.791	-0.376	-0.427
-410.355	124.522	0.158	-0.201
-409.340	-200.000	-0.026	-0.129
-408.325	78.592	-0.075	0.081
-407.311	-200.000	0.003	-0.051
-406.296	-46.470	0.156	-0.077
-405.282	225.534	-0.051	0.084
-404.267	22.693	0.137	-0.113
-403.252	-200.000	-0.002	0.070
-402.238	-200.000	0.023	0.160
-401.223	563.429	0.058	-0.142
-400.209	-107.599	-0.380	0.084
-399.194	95.427	0.149	-0.172
-398.179	22.400	0.104	-0.086
-397.165	-159.688	-0.228	-0.013
-396.150	52.028	0.081	-0.078
-395.136	106.824	0.085	0.102
-394.121	67.865	0.084	0.087
-393.106	463.707	-0.072	0.162
-392.092	170.404	0.111	0.160
-391.077	-163.157	-0.542	0.026
-390.063	-54.943	0.198	-0.090
-389.048	-113.466	0.167	-0.033
-388.033	-88.211	-0.112	0.034
-387.019	-73.031	-0.421	-0.156
-386.004	-200.000	-0.022	0.099
-384.990	-200.000	0.000	0.193
-383.975	323.389	-0.024	0.045
-382.960	171.346	0.335	0.484
-381.946	414.408	-0.113	0.243
-380.931	230.384	-0.147	-0.243
-379.917	-181.484	0.105	-0.002
-378.902	-102.274	0.272	0.066
-377.888	76.910	-0.313	-0.335
-376.873	800.000	0.031	0.123
-375.858	-200.000	0.011	0.060
-374.844	-61.206	-0.421	0.179
-373.829	-69.553	-0.109	-0.042
-372.815	-78.840	-0.159	-0.055
-371.800	-200.000	-0.017	0.130
-370.785	-1.102	0.353	0.252
-369.771	-200.000	0.015	0.231
-368.756	-200.000	0.016	0.175
-367.742	-89.813	0.111	-0.033
-366.727	800.000	0.103	0.341
-365.712	-3.370	-0.097	-0.068
-364.698	-70.371	-0.174	-0.067
-363.683	266.135	0.213	-0.374
-362.669	-36.898	-0.124	-0.067
-361.654	221.468	0.030	-0.049
-360.639	467.846	-0.094	-0.213
-359.625	63.217	0.174	-0.176
-358.610	236.731	-0.074	-0.123
-357.596	54.983	-0.117	0.114
-356.581	-134.807	-0.195	0.024
-355.566	-110.301	0.108	0.023
-354.552	800.000	-0.038	0.161
-353.537	-51.575	-0.068	-0.032
-352.523	171.579	0.112	0.162
-351.508	-200.000	0.001	-0.427
-350.493	348.128	0.087	0.173
-349.479	-147.067	-0.191	-0.016
-348.464	33.458	0.175	-0.153
-347.450	-115.883	0.365	-0.069
-346.435	162.302	-0.062	-0.087
-345.420	-7.189	-0.211	-0.144
-344.406	453.641	0.130	0.289
-343.391	800.000	-0.034	0.114
-342.377	-29.583	-0.073	-0.042
-341.362	-200.000	0.024	-0.163
-340.348	-48.839	-0.265	0.128
-339.333	-200.000	-0.049	0.317
-338.318	-0.361	0.096	-0.069
-337.304	-124.799	0.164	0.026
-336.289	-200.000	0.056	-0.289
-335.275	-69.682	0.227	0.087
-334.260	800.000	-0.067	0.286
-333.245	28.056	-0.355	0.301
-332.231	-164.844	-0.323	0.015
-331.216	-200.000	-0.016	0.182
-330.202	-80.562	-0.473	0.159
-329.187	-119.054	0.188	-0.033
-328.172	-200.000	0.008	0.343
-327.158	-112.644	0.347	0.069
-326.143	-35.459	-0.245	0.134
-325.129	-200.000	0.055	0.405
-324.114	-72.729	0.120	-0.044
-323.099	-200.000	0.048	-0.361
-322.085	-90.768	-0.336	0.097
-321.070	52.788	0.121	0.116
-320.056	800.000	-0.097	0.294
-319.041	544.798	-0.153	0.368
-318.026	-18.267	0.291	-0.183
-317.012	800.000	-0.071	0.294
-315.997	-144.880	-0.188	0.017
-314.983	-113.144	0.227	0.045
-313.968	-24.142	-0.120	-0.072
-312.953	338.964	0.099	0.194
-311.939	149.520	0.265	-0.362
-310.924	75.616	-0.310	-0.330
-309.910	-59.230	-0.174	0.075
-308.895	47.916	0.246	-0.231
-307.880	16.505	0.250	0.199
-306.866	-200.000	-0.011	-0.203
-305.851	127.188	-0.208	-0.265
-304.837	-155.476	-0.267	-0.017
-303.822	296.620	0.135	-0.248
-302.807	-200.000	0.032	0.148
-301.793	-58.591	0.252	-0.110
-300.778	-200.000	0.001	-0.218
-299.764	-200.000	-0.001	-0.398
-298.749	142.643	0.208	0.278
-297.735	399.137	0.091	-0.192
-296.720	38.567	-0.108	-0.097
-295.705	-80.681	-0.181	0.060
-294.691	62.159	-0.142	-0.142
-293.676	-28.049	0.272	-0.158
-292.662	-160.535	0.133	0.007
-291.647	149.911	-0.203	0.276
-290.632	-45.621	0.168	0.084
-289.618	55.767	-0.340	0.331
-288.603	-34.098	-0.367	0.203
-287.589	-200.000	0.065	-0.299
-286.574	800.000	0.031	0.122
-285.559	800.000	-0.003	-0.011
-284.545	166.983	-0.135	0.192
-283.530	178.887	-0.033	-0.048
-282.516	-88.641	-0.325	-0.097
-281.501	27.146	0.239	0.202
-280.486	63.589	0.136	-0.137
-279.472	-200.000	-0.011	0.198
-278.457	-14.951	-0.163	0.105
-277.443	-200.000	0.026	-0.143
-276.428	65.824	-0.055	-0.056
-275.413	800.000	-0.023	-0.092
-274.399	-139.570	0.336	0.036
-273.384	-68.713	-0.165	0.064
-272.370	800.000	0.075	-0.215
-271.355	-123.519	-0.106	-0.017
-270.340	-75.181	-0.115	-0.041
-269.326	71.328	-0.117	-0.122
-268.311	364.312	-0.056	-0.113
-267.297	-123.400	-0.153	0.025
-266.282	-200.000	0.095	0.497
-265.267	800.000	0.023	-0.068
-264.253	-149.858	-0.106	-0.008
-263.238	95.399	0.225	-0.258
-262.224	-109.954	0.099	-0.021
-261.209	415.226	0.221	-0.473
-260.195	-182.329	0.200	0.004
-259.180	25.733	-0.212	0.177
-258.165	234.004	0.134	0.222
-257.151	800.000	-0.141	-0.530
-256.136	363.058	-0.233	0.470
-255.122	-200.000	0.007	-0.274
-254.107	-64.472	0.216	0.088
-253.092	-5.940	-0.156	-0.107
-252.078	800.000	-0.136	-0.385
-251.063	-20.877	0.315	0.194
-250.049	-109.325	-0.214	0.045
-249.034	549.794	0.088	0.213
-248.019	43.058	-0.158	0.145
-247.005	-25.471	-0.216	0.128
-245.990	-121.909	0.347	0.057
-244.976	60.267	0.104	-0.103
-243.961	-200.000	0.005	0.175
-242.946	43.912	0.048	-0.044
-241.932	800.000	-0.072	-0.208
-240.917	-1.797	-0.074	-0.052
-239.903	289.562	-0.025	-0.045
-238.888	662.503	-0.076	0.196
-237.873	-93.750	0.100	0.028
-236.859	-35.069	0.246	0.134
-235.844	127.037	0.175	0.223
-234.830	800.000	-0.122	-0.375
-233.815	36.717	0.350	0.310
-232.800	-156.965	0.264	0.016
-231.786	-18.018	0.014	-0.009
-230.771	27.681	0.200	0.168
-229.757	-65.555	-0.299	0.120
-228.742	-94.718	0.169	-0.046
-227.727	20.782	-0.112	0.091
-226.713	-34.283	0.084	0.046
-225.698	-200.000	0.020	0.330
-224.684	-7.006	-0.035	-0.024
-223.669	-186.940	0.332	0.005
-222.655	-147.455	-0.241	0.020
-221.640	370.505	-0.106	0.216
-220.625	26.201	-0.046	0.039
-219.611	392.692	-0.107	0.222
-218.596	-200.000	0.056	-0.302
-217.582	-200.000	0.010	-0.524
-216.567	-140.830	0.248	0.026
-215.552	800.000	-0.051	0.177
-214.538	-104.271	-0.127	0.029
-213.523	-151.456	0.088	-0.007
-212.509	-42.183	-0.190	0.098
-211.494	128.786	-0.118	0.151
-210.479	91.056	0.208	-0.233
-209.465	-61.939	-0.174	0.073
-208.450	398.652	0.055	0.115
-207.436	48.826	0.218	-0.205
-206.421	-118.107	-0.262	-0.047
-205.406	-106.968	-0.345	-0.076
-204.392	-200.000	0.002	0.164
-203.377	63.190	0.196	0.196
-202.363	23.858	0.182	0.150
-201.348	-156.554	0.305	-0.019
-200.333	-122.695	0.393	0.064
-199.319	-21.710	-0.246	0.150
-198.304	134.440	0.090	0.117
-197.290	-162.471	-0.344	-0.017
-196.275	800.000	0.107	0.297
-195.260	309.737	0.062	0.116
-194.246	-51.151	-0.115	0.054
-193.231	35.208	0.212	-0.186
-192.217	-104.711	-0.309	0.071
-191.202	412.761	-0.027	-0.058
-190.187	-200.000	-0.011	-0.128
-189.173	-82.290	-0.135	-0.044
-188.158	-33.122	-0.117	0.065
-187.144	-79.131	-0.211	0.072
-186.129	32.029	-0.224	-0.193
-185.114	118.165	0.151	-0.186
-184.100	800.000	0.140	-0.439
-183.085	352.504	0.133	-0.264
-182.071	-200.000	0.005	0.170
-181.056	-200.000	0.012	0.104
-180.042	-101.255	-0.197	-0.048
-179.027	-54.284	0.295	0.134
-178.012	-105.714	0.434	0.098
-176.998	-131.611	0.173	0.023
-175.983	-66.348	0.226	0.090
-174.969	260.784	-0.134	0.232
-173.954	77.135	0.189	0.201
-172.939	239.788	-0.020	0.033
-171.925	-200.000	-0.002	0.093
-170.910	36.332	0.097	0.085
-169.896	-200.000	-0.060	-0.325
-168.881	-156.641	-0.254	-0.016
-167.866	-164.925	-0.108	0.005
-166.852	48.246	0.090	0.084
-165.837	-16.124	0.324	-0.206
-164.823	192.989	-0.194	-0.294
-163.808	-88.352	-0.257	-0.077
-162.793	800.000	0.077	0.288
-161.779	5.616	0.142	-0.105
-160.764	13.074	-0.083	0.065
-159.750	-200.000	-0.082	-0.427
-158.735	44.712	0.055	0.051
-157.720	118.722	0.097	0.120
-156.706	-200.000	-0.011	0.292
-155.691	-61.454	0.241	-0.101
-154.677	-72.986	-0.059	0.022
-153.662	-70.129	0.058	0.022
-152.647	116.771	0.117	0.144
-151.633	18.646	0.326	0.261
-150.618	445.679	0.082	-0.181
-149.604	10.210	0.027	0.021
-148.589	71.041	-0.037	0.038
-147.574	-132.002	0.425	0.055
-146.560	-200.000	0.040	0.274
-145.545	-74.597	0.136	-0.049
-144.531	-82.564	-0.227	-0.074
-143.516	187.838	0.200	-0.298
-142.502	-200.000	0.071	-0.359
-141.487	800.000	-0.051	-0.170
-140.472	-113.892	-0.089	-0.017
-139.458	-200.000	0.010	-0.062
-138.443	-90.721	-0.064	-0.019
-137.429	800.000	0.140	0.398
-136.414	589.728	0.052	0.127
-135.399	665.288	0.076	0.197
-134.385	-55.590	0.164	-0.073
-133.370	136.153	0.127	0.165
-132.356	-3.827	0.246	0.170
-131.341	39.993	0.266	-0.239
-130.326	468.437	0.017	-0.037
-129.312	-32.546	0.175	0.097
-128.297	88.865	0.215	0.239
-127.283	-6.795	-0.114	-0.078
-126.268	39.263	-0.041	-0.036
-125.253	-200.000	-0.050	-0.273
-124.239	-182.659	0.073	-0.001
-123.224	-95.648	0.347	-0.093
-122.210	-56.692	0.245	0.108
-121.195	6.782	0.164	0.122
-120.180	-200.000	-0.008	-0.259
-119.166	-57.471	0.189	0.083
