DTS Sentinel unit serial number:	SN413079Multiplexer serial number:	ORYXHardware model number:	OX4-SRSoftware version number:	ORYX F/W v4.00 Oryx Data Collector v3.7.2.0data status	okinstallation	princeton_trtdifferential loss correction	single-endedforward channel	channel 3reverse channel	N/Adate	2019/09/16time	12:40:35forward acquisition time	60.00reverse acquisition time	0.00gamma	496.2192k internal	0.2295k external	0.2295temperature offset calibration	0.9948default loss term (dB/km)	0.3790temperature slope calibration	1.0000multiplexer offset coefficient	1.0000multiplexer slope coefficient	1.0000fibre end	0.00T internal ref (°C)	40.00T ext. ref 1 (°C)	13.44T ext. ref 2 (°C)	37.67length (m)	temperature (°C)	Stokes	anti-Stokes-747.200	-200.000	0.001	0.071
-746.185	-200.000	0.017	0.090
-745.171	-46.108	0.156	-0.079
-744.156	-200.000	-0.014	-0.150
-743.142	7.231	-0.103	0.079
-742.127	66.366	-0.214	0.222
-741.112	159.716	-0.126	0.180
-740.098	209.422	-0.120	0.191
-739.083	-39.321	-0.134	-0.072
-738.069	-20.033	-0.280	0.176
-737.054	-200.000	-0.049	0.286
-736.039	-200.000	-0.014	-0.177
-735.025	35.884	-0.215	0.193
-734.010	-43.832	-0.241	-0.124
-732.996	-48.538	-0.189	0.093
-731.981	-200.000	-0.042	-0.448
-730.966	30.065	-0.109	0.095
-729.952	-167.238	-0.343	-0.014
-728.937	156.163	0.075	-0.105
-727.923	-59.055	-0.241	-0.106
-726.908	-86.117	-0.240	0.076
-725.894	-49.877	-0.222	0.107
-724.879	310.077	0.173	0.331
-723.864	24.301	-0.154	-0.130
-722.850	332.516	0.125	0.247
-721.835	343.034	-0.059	0.118
-720.821	-58.328	0.184	-0.082
-719.806	-87.954	-0.200	-0.062
-718.791	-25.044	-0.309	0.187
-717.777	-116.088	-0.093	-0.018
-716.762	298.434	-0.116	0.217
-715.748	-200.000	0.024	0.199
-714.733	-152.407	-0.196	0.014
-713.718	61.700	0.110	-0.112
-712.704	-200.000	0.014	0.315
-711.689	-28.527	-0.154	0.091
-710.675	537.710	0.077	0.187
-709.660	-105.255	-0.179	-0.042
-708.645	163.011	0.120	0.172
-707.631	-200.000	0.025	-0.381
-706.616	120.088	0.202	0.256
-705.602	787.508	-0.037	-0.103
-704.587	771.854	0.040	-0.111
-703.572	800.000	-0.055	-0.212
-702.558	767.733	0.081	0.226
-701.543	23.527	0.328	0.275
-700.529	-92.134	0.113	-0.032
-699.514	800.000	-0.119	0.432
-698.499	216.746	-0.122	0.198
-697.485	-153.817	-0.026	0.002
-696.470	116.556	0.111	-0.138
-695.456	-200.000	0.020	-0.344
-694.441	-58.858	0.193	-0.085
-693.426	38.407	0.127	-0.116
-692.412	-163.131	-0.217	-0.011
-691.397	-200.000	0.001	-0.137
-690.383	800.000	-0.056	-0.212
-689.368	800.000	-0.134	0.380
-688.354	-200.000	-0.030	0.376
-687.339	71.235	-0.161	-0.171
-686.324	410.892	0.069	0.149
-685.310	-38.482	0.096	-0.052
-684.295	420.107	0.129	0.281
-683.281	-95.179	-0.224	-0.062
-682.266	48.863	0.078	0.075
-681.251	-200.000	0.047	-0.259
-680.237	216.571	0.193	-0.313
-679.222	236.500	0.174	-0.294
-678.208	394.684	-0.055	0.116
-677.193	-12.234	-0.108	-0.072
-676.178	772.592	0.062	0.173
-675.164	-116.189	-0.319	-0.060
-674.149	-200.000	0.106	0.491
-673.135	-60.189	-0.133	0.058
-672.120	-5.870	0.210	-0.146
-671.105	-200.000	-0.035	0.202
-670.091	-33.405	-0.174	0.098
-669.076	163.133	0.050	-0.072
-668.062	-200.000	0.019	0.237
-667.047	-74.458	-0.191	0.070
-666.032	-125.846	-0.442	-0.068
-665.018	-200.000	0.036	0.224
-664.003	91.896	0.076	0.087
-662.989	-73.182	-0.133	-0.049
-661.974	-200.000	0.008	0.133
-660.959	-200.000	-0.001	-0.076
-659.945	-44.573	0.218	0.111
-658.930	-100.449	0.132	-0.033
-657.916	-21.665	-0.117	0.073
-656.901	800.000	0.115	-0.373
-655.886	-69.114	-0.174	-0.068
-654.872	238.582	0.156	-0.263
-653.857	41.471	-0.223	-0.206
-652.843	148.536	0.324	-0.445
-651.828	-149.908	-0.190	-0.015
-650.814	-79.818	-0.171	0.058
-649.799	15.264	-0.073	0.058
-648.784	-58.086	0.231	-0.103
-647.770	-79.159	-0.303	-0.105
-646.755	-138.048	0.409	0.046
-645.741	141.914	0.024	-0.032
-644.726	800.000	0.038	0.125
-643.711	109.234	-0.116	-0.141
-642.697	36.271	-0.194	-0.174
-641.682	-83.682	-0.100	0.032
-640.668	-171.927	-0.060	0.002
-639.653	167.348	-0.148	0.214
-638.638	-76.728	-0.050	0.018
-637.624	-158.941	-0.192	-0.011
-636.609	-62.808	0.175	0.074
-635.595	-14.034	-0.105	0.069
-634.580	-159.125	0.438	-0.025
-633.565	-143.972	0.136	-0.013
-632.551	800.000	-0.093	0.302
-631.536	-6.820	-0.175	0.121
-630.522	-4.227	0.377	-0.266
-629.507	-200.000	-0.040	-0.225
-628.492	2.283	0.184	-0.135
-627.478	-200.000	-0.051	-0.260
-626.463	-128.460	-0.052	-0.008
-625.449	-164.066	-0.293	-0.014
-624.434	-52.939	0.047	-0.022
-623.419	-200.000	-0.028	-0.446
-622.405	58.844	-0.094	-0.094
-621.390	-200.000	-0.058	-0.373
-620.376	-200.000	-0.007	0.129
-619.361	10.452	0.379	0.294
-618.346	369.738	0.113	-0.233
-617.332	50.248	0.272	0.261
-616.317	320.969	0.116	-0.225
-615.303	-135.868	-0.146	-0.018
-614.288	800.000	0.072	-0.263
-613.273	-173.668	-0.239	-0.007
-612.259	-44.151	-0.193	0.099
-611.244	-23.720	0.105	-0.064
-610.230	-61.744	-0.212	-0.090
-609.215	-82.813	-0.248	0.081
-608.201	-200.000	0.016	0.262
-607.186	209.934	-0.107	-0.171
-606.171	565.432	-0.184	-0.454
-605.157	-200.000	0.004	-0.221
-604.142	-200.000	-0.032	0.303
-603.128	752.412	0.084	0.230
-602.113	800.000	0.035	-0.152
-601.098	800.000	-0.129	-0.448
-600.084	73.418	-0.189	0.201
-599.069	253.686	0.121	-0.210
-598.055	257.003	-0.183	-0.319
-597.040	-102.241	0.159	0.039
-596.025	-200.000	-0.012	0.172
-595.011	-143.331	-0.196	-0.019
-593.996	800.000	-0.109	0.376
-592.982	-164.144	0.104	-0.005
-591.967	77.284	0.138	0.149
-590.952	-97.326	-0.274	0.073
-589.938	-200.000	-0.014	-0.125
-588.923	-27.397	0.136	0.081
-587.909	526.958	0.176	0.422
-586.894	81.027	0.019	0.021
-585.879	-65.376	0.103	0.042
-584.865	57.458	-0.165	0.164
-583.850	-200.000	-0.002	0.142
-582.836	-200.000	0.020	0.102
-581.821	-184.815	0.315	0.005
-580.806	66.252	0.176	-0.182
-579.792	179.413	-0.109	-0.163
-578.777	-72.571	0.287	-0.108
-577.763	-88.347	-0.102	0.031
-576.748	139.869	0.200	0.268
-575.733	-121.226	0.372	0.063
-574.719	-200.000	0.032	0.237
-573.704	-200.000	0.017	0.102
-572.690	800.000	-0.085	-0.260
-571.675	48.410	0.256	-0.243
-570.661	-26.884	0.307	-0.182
-569.646	800.000	-0.047	-0.161
-568.631	-96.535	-0.198	-0.053
-567.617	49.538	-0.021	0.020
-566.602	800.000	0.036	-0.146
-565.588	491.440	0.055	0.128
-564.573	-96.472	0.173	-0.046
-563.558	-123.355	0.145	-0.024
-562.544	347.645	0.046	-0.091
-561.529	-98.593	-0.073	-0.019
-560.515	-142.758	-0.211	-0.021
-559.500	-32.628	-0.213	-0.120
-558.485	-107.141	-0.034	-0.008
-557.471	-163.737	-0.117	-0.006
-556.456	-51.589	0.265	-0.126
-555.442	-105.358	0.364	0.084
-554.427	-21.734	-0.189	0.117
-553.412	800.000	-0.046	-0.187
-552.398	79.116	0.060	0.066
-551.383	-200.000	0.006	0.586
-550.369	71.552	-0.316	0.333
-549.354	-6.753	-0.138	0.096
-548.339	800.000	0.152	0.533
-547.325	302.918	-0.162	0.304
-546.310	-200.000	-0.023	0.221
-545.296	-200.000	0.037	0.249
-544.281	-200.000	-0.022	-0.343
-543.266	4.942	-0.181	0.135
-542.252	-200.000	0.045	0.248
-541.237	216.323	-0.076	0.122
-540.223	-0.549	-0.226	-0.163
-539.208	30.346	0.139	0.120
-538.193	800.000	-0.064	0.193
-537.179	800.000	-0.046	-0.143
-536.164	-39.373	-0.164	0.087
-535.150	-200.000	-0.015	-0.338
-534.135	-41.701	-0.020	0.010
-533.121	-200.000	0.018	-0.172
-532.106	46.646	0.107	-0.101
-531.091	2.660	0.029	0.021
-530.077	-102.654	-0.385	-0.093
-529.062	-200.000	0.001	0.058
-528.048	105.371	0.068	-0.081
-527.033	178.317	0.095	-0.141
-526.018	49.789	-0.141	0.135
-525.004	800.000	0.038	0.167
-523.989	-66.420	0.109	-0.044
-522.975	96.773	-0.060	-0.070
-521.960	-200.000	-0.006	0.043
-520.945	-31.431	0.285	-0.162
-519.931	-200.000	-0.006	0.613
-518.916	-124.012	0.134	-0.021
-517.902	-200.000	-0.084	0.000
-516.887	-93.021	0.218	0.062
-515.872	518.187	-0.177	-0.421
-514.858	-200.000	-0.005	-0.054
-513.843	242.925	0.076	0.130
-512.829	30.076	-0.390	-0.337
-511.814	-200.000	-0.058	0.363
-510.799	-171.946	-0.115	-0.004
-509.785	-200.000	0.016	0.154
-508.770	-200.000	0.012	-0.475
-507.756	157.591	-0.106	-0.149
-506.741	-56.265	-0.241	-0.109
-505.726	60.989	0.128	0.129
-504.712	97.950	-0.203	0.236
-503.697	-2.680	0.033	0.023
-502.683	223.262	0.074	-0.120
-501.668	-200.000	-0.023	0.106
-500.653	-200.000	-0.030	0.234
-499.639	-200.000	-0.023	0.223
-498.624	-51.442	0.161	-0.076
-497.610	204.728	0.139	0.218
-496.595	-107.655	0.360	0.080
-495.581	-60.332	0.423	-0.182
-494.566	-114.562	0.175	0.034
-493.551	609.062	-0.085	0.215
-492.537	800.000	0.037	-0.107
-491.522	-102.984	0.225	0.054
-490.508	5.765	-0.173	0.130
-489.493	-110.172	-0.220	-0.046
-488.478	18.910	0.241	0.195
-487.464	440.574	-0.153	0.340
-486.449	-111.971	0.119	0.024
-485.435	282.493	-0.251	0.455
-484.420	-200.000	0.017	0.224
-483.405	-200.000	-0.017	0.270
-482.391	194.468	-0.121	0.185
-481.376	-200.000	-0.044	-0.301
-480.362	97.906	0.186	-0.216
-479.347	164.998	0.146	0.208
-478.332	163.507	0.212	-0.301
-477.318	-146.586	0.111	0.010
-476.303	41.527	-0.120	-0.110
-475.289	-56.871	-0.152	0.068
-474.274	-159.433	-0.067	-0.004
-473.259	377.432	-0.080	-0.165
-472.245	-200.000	-0.001	-0.063
-471.230	-84.597	0.269	0.086
-470.216	-41.659	0.088	0.046
-469.201	-151.444	0.191	0.014
-468.186	-95.104	-0.153	0.042
-467.172	-114.760	0.288	-0.056
-466.157	188.838	-0.068	-0.103
-465.143	-92.385	-0.113	-0.032
-464.128	-78.847	0.182	-0.063
-463.113	800.000	0.075	0.277
-462.099	-200.000	-0.024	-0.477
-461.084	-98.162	-0.230	-0.060
-460.070	-183.031	-0.094	0.002
-459.055	170.601	-0.063	-0.091
-458.040	-200.000	-0.035	0.275
-457.026	-36.322	0.306	0.167
-456.011	-117.094	0.269	-0.050
-454.997	425.380	-0.044	0.095
-453.982	-100.226	-0.334	-0.084
-452.968	-200.000	0.053	0.258
-451.953	800.000	0.027	-0.082
-450.938	29.071	0.222	0.190
-449.924	98.121	0.124	0.145
-448.909	303.975	-0.187	-0.351
-447.895	212.463	0.173	0.276
-446.880	-137.278	-0.362	-0.042
-445.865	800.000	-0.044	-0.144
-444.851	-200.000	0.030	-0.151
-443.836	62.004	-0.227	-0.229
-442.822	-76.315	-0.243	-0.086
-441.807	216.989	-0.087	0.141
-440.792	-77.637	0.410	-0.143
-439.778	773.126	0.031	0.085
-438.763	-26.486	0.137	0.081
-437.749	98.888	0.090	0.105
-436.734	-200.000	-0.005	0.052
-435.719	-81.376	-0.363	0.121
-434.705	470.061	0.047	0.106
-433.690	45.762	0.116	-0.108
-432.676	-16.964	-0.165	0.105
-431.661	19.119	-0.096	-0.078
-430.646	800.000	0.088	-0.285
-429.632	-86.255	-0.243	0.076
-428.617	-113.545	0.176	0.035
-427.603	1.868	0.044	-0.032
-426.588	369.377	-0.166	0.340
-425.573	800.000	0.036	0.104
-424.559	800.000	0.107	-0.398
-423.544	800.000	0.114	0.349
-422.530	-103.192	0.071	0.017
-421.515	129.207	-0.123	-0.159
-420.500	47.807	-0.138	0.130
-419.486	113.380	0.169	0.207
-418.471	-112.575	0.140	-0.028
-417.457	76.990	0.316	-0.338
-416.442	21.618	-0.161	0.132
-415.428	-136.015	0.045	0.005
-414.413	-73.062	0.053	-0.020
-413.398	170.408	0.081	0.117
-412.384	-14.329	0.220	-0.143
-411.369	48.387	-0.186	0.176
-410.355	-62.583	-0.168	0.070
-409.340	110.230	-0.017	-0.020
-408.325	156.070	0.074	-0.103
-407.311	800.000	0.051	-0.209
-406.296	90.874	0.124	-0.140
-405.282	-29.305	0.216	0.125
-404.267	-3.307	0.110	-0.077
-403.252	-104.636	-0.155	-0.036
-402.238	8.626	-0.194	0.147
-401.223	-177.443	-0.387	-0.010
-400.209	78.560	-0.149	0.161
-399.194	-200.000	-0.024	-0.181
-398.179	310.971	0.022	-0.041
-397.165	-0.900	0.188	0.134
-396.150	-117.889	0.185	0.034
-395.136	-200.000	-0.004	0.262
-394.121	-54.365	-0.324	-0.148
-393.106	349.841	0.028	0.056
-392.092	-122.811	-0.067	-0.011
-391.077	-39.345	-0.323	-0.171
-390.063	-200.000	0.023	-0.186
-389.048	-7.327	0.274	-0.187
-388.033	272.911	0.178	-0.318
-387.019	-27.677	-0.249	0.146
-386.004	-200.000	-0.013	-0.238
-384.990	-28.763	-0.139	-0.081
-383.975	460.508	0.077	-0.172
-382.960	-200.000	0.033	0.206
-381.946	-200.000	0.003	0.075
-380.931	377.082	0.132	0.273
-379.917	149.579	0.075	0.103
-378.902	-200.000	0.027	0.207
-377.888	31.490	0.165	-0.143
-376.873	215.505	-0.136	-0.218
-375.858	-151.071	-0.131	0.010
-374.844	-76.361	-0.103	-0.036
-373.829	-28.985	-0.158	0.092
-372.815	-129.338	-0.239	0.033
-371.800	253.572	0.063	-0.109
-370.785	50.119	0.198	0.188
-369.771	200.770	-0.087	0.134
-368.756	66.955	-0.239	-0.245
-367.742	74.074	0.190	-0.201
-366.727	-82.052	0.228	0.075
-365.712	-200.000	-0.033	0.314
-364.698	-54.490	-0.385	0.176
-363.683	800.000	-0.135	0.395
-362.669	-103.357	-0.113	0.027
-361.654	-200.000	0.024	0.143
-360.639	800.000	0.064	0.206
-359.625	-183.482	0.332	0.006
-358.610	70.529	-0.189	0.197
-357.596	-200.000	-0.017	-0.401
-356.581	325.286	-0.099	0.191
-355.566	-35.221	-0.086	0.047
-354.552	800.000	0.054	0.224
-353.537	-200.000	-0.073	0.406
-352.523	-200.000	0.078	0.354
-351.508	-32.466	-0.344	0.193
-350.493	-125.716	-0.355	-0.054
-349.479	-36.182	0.239	-0.130
-348.464	68.640	-0.032	-0.033
-347.450	-3.390	-0.199	-0.139
-346.435	569.426	-0.140	0.343
-345.420	800.000	0.038	-0.158
-344.406	-53.069	-0.314	-0.145
-343.391	83.068	0.146	-0.160
-342.377	-70.704	0.257	0.098
-341.362	-74.774	-0.235	0.085
-340.348	194.186	-0.074	0.113
-339.333	0.072	-0.119	-0.085
-338.318	705.304	0.087	-0.230
-337.304	-27.609	0.186	-0.109
-336.289	-135.285	0.329	-0.040
-335.275	-82.887	0.194	-0.063
-334.260	800.000	-0.138	0.463
-333.245	6.059	0.079	0.059
-332.231	-200.000	-0.041	0.191
-331.216	57.711	0.232	-0.228
-330.202	-200.000	0.018	-0.241
-329.187	23.664	0.152	0.126
-328.172	179.730	0.067	-0.098
-327.158	-118.263	-0.357	-0.064
-326.143	-44.689	0.320	0.161
-325.129	800.000	0.059	-0.170
-324.114	155.861	-0.097	-0.135
-323.099	607.917	-0.015	-0.037
-322.085	218.093	0.107	0.171
-321.070	-165.460	-0.338	-0.015
-320.056	38.592	-0.103	-0.093
-319.041	-92.065	-0.421	0.120
-318.026	-110.345	-0.369	-0.077
-317.012	-122.693	-0.187	-0.030
-315.997	-130.622	-0.268	-0.036
-314.983	108.229	0.174	-0.209
-313.968	-149.397	-0.322	-0.026
-312.953	-1.331	-0.148	-0.105
-311.939	6.610	-0.275	-0.206
-310.924	573.683	-0.028	0.069
-309.910	17.861	-0.098	0.078
-308.895	800.000	-0.125	-0.362
-307.880	150.055	0.174	0.237
-306.866	-64.713	0.244	0.099
-305.851	68.947	-0.283	0.292
-304.837	-16.592	-0.175	0.112
-303.822	-200.000	-0.005	-0.244
-302.807	-92.510	0.294	0.083
-301.793	-115.226	-0.209	-0.040
-300.778	438.586	-0.085	-0.186
-299.764	-98.201	0.188	-0.048
-298.749	-48.503	0.150	-0.073
-297.735	235.534	0.098	-0.162
-296.720	649.884	0.068	-0.175
-295.705	-62.029	-0.067	-0.028
-294.691	28.783	-0.106	-0.090
-293.676	4.900	0.217	-0.160
-292.662	44.474	0.151	0.139
-291.647	-37.026	-0.179	-0.096
-290.632	800.000	-0.074	-0.255
-289.618	-46.837	0.259	0.127
-288.603	-11.445	0.175	-0.115
-287.589	-200.000	0.052	-0.383
-286.574	800.000	-0.042	0.168
-285.559	-200.000	-0.024	-0.256
-284.545	-138.819	0.306	-0.034
-283.530	677.572	0.141	-0.368
-282.516	141.400	0.195	-0.260
-281.501	-58.540	0.048	0.021
-280.486	113.271	0.064	0.077
-279.472	697.637	0.023	-0.061
-278.457	282.793	0.053	0.096
-277.443	123.414	0.110	0.139
-276.428	-25.821	0.089	-0.053
-275.413	800.000	0.009	0.032
-274.399	-78.589	-0.092	0.032
-273.384	-200.000	0.043	0.206
-272.370	-120.474	-0.171	0.029
-271.355	-200.000	0.028	-0.179
-270.340	134.278	0.056	-0.073
-269.326	641.721	0.092	0.235
-268.311	-200.000	0.007	-0.131
-267.297	729.255	0.192	0.514
-266.282	-44.130	-0.295	0.148
-265.267	-86.768	-0.087	0.027
-264.253	-95.265	0.252	-0.068
-263.238	-10.021	0.037	-0.025
-262.224	127.167	-0.122	0.155
-261.209	-45.779	-0.108	-0.054
-260.195	800.000	-0.081	-0.267
-259.180	-200.000	-0.017	-0.341
-258.165	-133.490	0.455	0.057
-257.151	26.065	0.149	0.125
-256.136	-51.174	0.127	-0.060
-255.122	44.836	0.192	-0.177
-254.107	-200.000	-0.021	-0.103
-253.092	-193.507	0.075	0.001
-252.078	-150.438	-0.115	0.009
-251.063	84.150	0.138	-0.152
-250.049	25.198	-0.103	0.086
-249.034	800.000	0.069	-0.265
-248.019	-58.440	0.285	-0.124
-247.005	318.106	-0.228	-0.432
-245.990	322.599	-0.056	-0.107
-244.976	800.000	-0.050	-0.195
-243.961	600.718	0.083	0.207
-242.946	20.420	-0.101	-0.082
-241.932	-153.182	-0.207	-0.015
-240.917	45.774	0.052	-0.048
-239.903	-93.600	0.242	-0.067
-238.888	-200.000	-0.030	0.241
-237.873	-162.219	0.074	-0.004
-236.859	146.347	0.265	-0.357
-235.844	-114.960	-0.179	-0.034
-234.830	517.762	-0.047	-0.109
-233.815	310.707	0.078	-0.147
-232.800	800.000	-0.055	0.153
-231.786	-200.000	0.009	0.174
-230.771	679.662	-0.020	-0.052
-229.757	-52.304	-0.299	0.139
-228.742	800.000	-0.069	0.237
-227.727	521.935	-0.103	0.243
-226.713	-200.000	0.292	-0.000
-225.698	-200.000	-0.034	0.160
-224.684	13.405	-0.255	0.198
-223.669	290.657	-0.202	0.368
-222.655	-17.841	-0.114	-0.072
-221.640	26.150	-0.133	0.111
-220.625	419.553	-0.027	0.058
-219.611	235.575	-0.177	-0.293
-218.596	530.497	-0.078	-0.185
-217.582	-102.932	0.254	0.061
-216.567	-96.044	-0.265	-0.071
-215.552	-181.037	-0.547	0.011
-214.538	-92.799	-0.195	-0.055
-213.523	-7.197	0.064	-0.043
-212.509	-155.557	0.144	-0.009
-211.494	21.054	-0.218	0.177
-210.479	800.000	0.094	-0.337
-209.465	-46.738	-0.154	0.076
-208.450	-200.000	-0.016	0.162
-207.436	-65.808	-0.091	0.036
-206.421	-56.620	0.122	0.054
-205.406	-200.000	0.004	-0.208
-204.392	353.491	-0.163	-0.324
-203.377	-136.233	0.109	-0.013
-202.363	-92.205	0.034	-0.010
-201.348	-128.964	0.029	-0.004
-200.333	-200.000	-0.056	-0.282
-199.319	-200.000	-0.004	-0.243
-198.304	212.612	-0.124	0.196
-197.290	-200.000	-0.017	0.074
-196.275	261.966	0.157	0.273
-195.260	-65.239	0.336	0.136
-194.246	208.363	-0.105	0.164
-193.231	11.015	0.321	0.246
-192.217	20.443	-0.130	0.105
-191.202	-200.000	0.026	0.115
-190.187	53.319	0.111	-0.106
-189.173	229.340	-0.119	0.194
-188.158	-176.208	0.241	-0.006
-187.144	-97.102	0.417	0.109
-186.129	45.164	-0.018	0.016
-185.114	221.287	-0.083	0.134
-184.100	-89.526	0.273	0.080
-183.085	-200.000	-0.076	-0.474
-182.071	-42.294	0.096	-0.049
-181.056	-59.573	-0.049	0.021
-180.042	-143.320	-0.357	-0.034
-179.027	239.684	-0.214	0.356
-178.012	800.000	-0.060	-0.188
-176.998	-82.830	0.162	0.052
-175.983	-2.559	-0.065	-0.045
-174.969	15.766	0.192	-0.151
-173.954	280.211	0.090	0.161
-172.939	-200.000	0.025	-0.257
-171.925	6.026	-0.191	0.141
-170.910	337.247	-0.033	-0.065
-169.896	800.000	-0.040	-0.168
-168.881	-69.352	0.193	-0.074
-167.866	-141.235	-0.230	-0.023
-166.852	619.502	0.134	-0.336
-165.837	29.436	-0.070	0.060
-164.823	-2.242	0.045	0.032
-163.808	351.380	0.236	0.467
-162.793	-161.606	0.319	0.016
-161.779	800.000	0.037	-0.137
-160.764	786.006	0.024	0.065
-159.750	88.174	0.203	-0.226
-158.735	-4.535	0.266	-0.184
-157.720	-144.064	0.141	0.013
-156.706	800.000	-0.057	-0.174
-155.691	-165.305	0.035	0.002
-154.677	-200.000	0.047	-0.208
-153.662	800.000	0.100	-0.322
-152.647	263.921	-0.063	0.110
-151.633	-91.604	-0.314	0.089
-150.618	131.508	-0.209	0.268
-149.604	-200.000	0.070	0.405
-148.589	-41.097	0.054	-0.028
-147.574	-200.000	-0.037	-0.208
-146.560	-148.362	0.291	-0.024
-145.545	-200.000	0.007	-0.276
-144.531	12.887	0.120	0.093
-143.516	216.656	-0.184	0.292
-142.502	-57.157	-0.162	-0.071
-141.487	71.187	0.226	0.234
-140.472	121.488	0.138	-0.171
-139.458	2.610	0.214	0.155
-138.443	800.000	-0.118	-0.379
-137.429	-17.376	0.058	-0.037
-136.414	323.578	0.079	0.151
-135.399	20.359	0.100	0.080
-134.385	56.520	0.227	-0.220
-133.370	16.679	0.054	-0.043
-132.356	-71.052	0.124	-0.047
-131.341	-149.324	0.212	-0.017
-130.326	74.512	0.113	-0.118
-129.312	-104.244	0.066	-0.015
-128.297	800.000	-0.058	-0.167
-127.283	468.995	-0.170	0.380
-126.268	800.000	0.032	-0.132
-125.253	800.000	-0.044	0.137
-124.239	209.711	-0.132	-0.206
-123.224	-130.865	0.085	-0.011
-122.210	53.996	0.118	0.114
-121.195	-126.494	0.155	0.023
