DTS Sentinel unit serial number:	SN413079Multiplexer serial number:	ORYXHardware model number:	OX4-SRSoftware version number:	ORYX F/W v4.00 Oryx Data Collector v3.7.2.0data status	okinstallation	princeton_trtdifferential loss correction	single-endedforward channel	channel 3reverse channel	N/Adate	2019/09/16time	22:44:35forward acquisition time	60.00reverse acquisition time	0.00gamma	496.2192k internal	0.2325k external	0.2325temperature offset calibration	0.9941default loss term (dB/km)	0.3790temperature slope calibration	1.0000multiplexer offset coefficient	1.0000multiplexer slope coefficient	1.0000fibre end	0.00T internal ref (°C)	30.56T ext. ref 1 (°C)	0.09T ext. ref 2 (°C)	24.22length (m)	temperature (°C)	Stokes	anti-Stokes-747.200	800.000	0.039	-0.117
-746.185	284.653	0.192	-0.350
-745.171	119.536	-0.063	-0.079
-744.156	28.295	-0.297	0.253
-743.142	-93.930	0.376	0.104
-742.127	-200.000	0.091	0.000
-741.112	-160.072	0.131	0.007
-740.098	-110.463	-0.490	0.103
-739.083	-24.251	0.286	0.172
-738.069	102.825	-0.098	0.115
-737.054	-51.968	0.097	-0.045
-736.039	-5.960	-0.373	0.258
-735.025	800.000	0.054	0.223
-734.010	330.368	-0.127	-0.247
-732.996	-159.087	0.121	-0.007
-731.981	800.000	0.114	0.505
-730.966	86.066	-0.192	0.213
-729.952	-106.619	-0.462	-0.104
-728.937	-200.000	-0.051	-0.275
-727.923	-200.000	0.048	-0.293
-726.908	-34.896	-0.273	-0.150
-725.894	800.000	0.053	0.218
-724.879	272.057	0.158	-0.281
-723.864	-153.129	-0.334	-0.024
-722.850	800.000	-0.065	0.283
-721.835	597.431	0.029	-0.073
-720.821	44.724	0.105	0.097
-719.806	441.200	-0.095	0.209
-718.791	800.000	-0.062	-0.249
-717.777	-40.115	-0.135	0.071
-716.762	65.050	-0.064	0.065
-715.748	-100.592	-0.270	-0.067
-714.733	-166.087	-0.257	0.011
-713.718	800.000	-0.095	-0.338
-712.704	-10.715	-0.272	-0.181
-711.689	-200.000	-0.026	-0.362
-710.675	-65.567	-0.160	0.065
-709.660	42.025	-0.121	-0.111
-708.645	-200.000	0.026	-0.443
-707.631	-96.358	0.205	-0.055
-706.616	-200.000	0.023	-0.181
-705.602	-103.772	-0.182	0.043
-704.587	-19.261	-0.152	0.095
-703.572	-200.000	-0.087	-0.430
-702.558	-200.000	-0.011	-0.253
-701.543	110.781	0.079	-0.096
-700.529	460.133	-0.077	-0.173
-699.514	-75.236	-0.086	-0.031
-698.499	245.221	-0.081	0.138
-697.485	344.228	0.121	-0.239
-696.470	-200.000	-0.000	-0.129
-695.456	-200.000	0.025	-0.116
-694.441	-134.255	-0.340	-0.042
-693.426	273.733	-0.045	0.080
-692.412	-28.985	-0.127	0.074
-691.397	-200.000	0.016	0.464
-690.383	-200.000	0.038	0.318
-689.368	33.454	-0.059	-0.051
-688.354	67.638	0.103	-0.106
-687.339	-107.141	0.152	-0.034
-686.324	-16.744	-0.150	0.095
-685.310	-48.912	0.201	-0.097
-684.295	71.572	0.123	-0.129
-683.281	-157.851	-0.253	0.015
-682.266	789.650	-0.124	-0.342
-681.251	426.118	-0.065	0.142
-680.237	800.000	0.034	-0.117
-679.222	212.126	-0.178	0.283
-678.208	-177.515	-0.129	0.003
-677.193	795.042	-0.091	0.252
-676.178	-47.995	0.291	0.142
-675.164	800.000	-0.033	0.135
-674.149	156.594	-0.107	0.149
-673.135	-85.105	-0.452	0.143
-672.120	2.335	0.215	-0.156
-671.105	-200.000	-0.059	-0.343
-670.091	-27.650	0.187	-0.109
-669.076	-114.814	0.093	0.018
-668.062	800.000	-0.086	0.245
-667.047	-87.960	0.233	0.071
-666.032	-63.766	0.285	-0.117
-665.018	163.388	-0.140	0.198
-664.003	86.488	-0.053	-0.059
-662.989	-200.000	-0.060	-0.382
-661.974	-154.725	-0.134	0.009
-660.959	-81.572	-0.148	0.049
-659.945	-20.876	0.325	0.200
-658.930	-113.021	0.441	0.088
-657.916	-20.979	-0.176	-0.109
-656.901	14.169	0.246	-0.192
-655.886	-108.018	-0.061	0.013
-654.872	-106.994	-0.124	0.028
-653.857	-60.359	0.113	-0.048
-652.843	-157.019	-0.104	-0.006
-651.828	556.226	0.045	0.110
-650.814	800.000	0.078	0.233
-649.799	296.806	0.076	0.141
-648.784	52.100	0.218	0.209
-647.770	800.000	0.095	-0.275
-646.755	293.532	0.104	0.192
-645.741	-128.318	-0.239	-0.034
-644.726	800.000	-0.017	-0.061
-643.711	-168.029	-0.195	-0.008
-642.697	-121.629	0.116	-0.019
-641.682	-175.054	-0.258	-0.007
-640.668	800.000	-0.013	0.051
-639.653	-200.000	0.003	-0.232
-638.638	499.736	-0.187	-0.433
-637.624	-200.000	0.025	-0.339
-636.609	800.000	0.063	-0.193
-635.595	-200.000	0.000	-0.316
-634.580	-107.843	0.298	0.065
-633.565	-32.801	-0.391	-0.218
-632.551	24.398	-0.107	0.089
-631.536	800.000	-0.034	-0.147
-630.522	256.239	-0.195	-0.336
-629.507	-70.418	0.061	0.023
-628.492	-58.946	0.314	-0.136
-627.478	349.370	-0.019	-0.037
-626.463	-200.000	0.055	-0.383
-625.449	-151.164	0.343	0.026
-624.434	7.307	-0.071	0.053
-623.419	-153.746	0.132	0.009
-622.405	450.550	0.090	-0.199
-621.390	172.735	0.208	-0.301
-620.376	-44.488	-0.296	-0.149
-619.361	-111.493	-0.207	0.042
-618.346	608.067	-0.083	0.208
-617.332	-200.000	0.008	0.168
-616.317	34.715	-0.075	-0.066
-615.303	-52.923	-0.074	0.034
-614.288	-200.000	0.027	0.165
-613.273	-118.431	-0.203	-0.036
-612.259	-200.000	0.040	0.191
-611.244	-30.729	-0.133	-0.075
-610.230	-172.446	-0.057	-0.002
-609.215	98.026	0.241	-0.279
-608.201	-142.689	-0.147	0.014
-607.186	800.000	0.074	0.257
-606.171	317.487	-0.035	-0.067
-605.157	800.000	-0.058	-0.180
-604.142	-5.625	-0.141	0.097
-603.128	-106.007	0.283	0.064
-602.113	44.423	0.143	-0.131
-601.098	-5.895	0.109	-0.075
-600.084	85.783	0.098	0.108
-599.069	-45.342	0.105	0.052
-598.055	-84.933	0.018	-0.006
-597.040	-24.966	-0.167	-0.100
-596.025	-138.248	-0.048	0.005
-595.011	-65.827	-0.329	0.132
-593.996	-200.000	0.027	0.163
-592.982	394.864	0.114	0.238
-591.967	350.781	0.207	-0.410
-590.952	119.116	-0.080	-0.100
-589.938	-22.106	-0.163	0.100
-588.923	193.728	-0.099	0.150
-587.909	-94.086	0.103	0.028
-586.894	-200.000	0.052	-0.409
-585.879	-72.257	0.117	-0.044
-584.865	-16.817	0.151	-0.096
-583.850	104.413	-0.084	0.099
-582.836	514.945	-0.110	0.258
-581.821	-93.653	-0.200	0.055
-580.806	-77.199	0.232	0.081
-579.792	800.000	0.041	0.156
-578.777	40.383	0.270	0.244
-577.763	258.125	0.183	-0.316
-576.748	-25.879	0.182	-0.107
-575.733	-40.775	0.132	0.069
-574.719	-92.729	-0.248	0.069
-573.704	800.000	-0.104	-0.339
-572.690	-200.000	0.009	-0.176
-571.675	-200.000	0.015	-0.075
-570.661	-113.163	-0.236	0.047
-569.646	284.245	0.070	-0.126
-568.631	38.095	-0.106	0.094
-567.617	800.000	-0.073	0.305
-566.602	-200.000	-0.007	0.066
-565.588	-86.666	-0.361	-0.111
-564.573	361.302	0.040	-0.080
-563.558	-200.000	0.025	0.159
-562.544	163.204	0.149	0.210
-561.529	37.801	0.045	-0.040
-560.515	-84.736	-0.067	-0.021
-559.500	-200.000	0.076	0.339
-558.485	-200.000	-0.074	-0.339
-557.471	306.636	-0.056	-0.105
-556.456	588.704	-0.008	-0.020
-555.442	34.885	-0.196	0.172
-554.427	-111.239	0.034	-0.007
-553.412	-103.264	-0.116	-0.027
-552.398	800.000	-0.035	0.098
-551.383	-200.000	-0.056	0.445
-550.369	84.684	0.133	0.146
-549.354	22.656	0.220	0.180
-548.339	24.580	-0.099	-0.082
-547.325	-34.725	-0.039	-0.021
-546.310	63.059	0.136	0.136
-545.296	-200.000	-0.007	-0.091
-544.281	-200.000	-0.044	-0.275
-543.266	-200.000	0.013	-0.169
-542.252	-31.862	0.140	-0.079
-541.237	145.143	0.071	0.095
-540.223	-200.000	-0.030	0.239
-539.208	-111.762	-0.068	-0.014
-538.193	327.263	0.070	0.134
-537.179	-200.000	0.064	0.341
-536.164	-79.824	-0.182	0.061
-535.150	-94.399	0.252	-0.069
-534.135	-200.000	0.005	0.060
-533.121	56.694	0.122	-0.119
-532.106	-24.114	-0.427	0.255
-531.091	-76.678	-0.358	-0.126
-530.077	38.408	-0.193	-0.172
-529.062	336.734	-0.056	0.110
-528.048	-145.560	0.303	0.027
-527.033	-61.480	0.286	0.120
-526.018	-200.000	0.014	-0.303
-525.004	-200.000	-0.005	-0.112
-523.989	-107.727	-0.282	0.062
-522.975	-108.823	-0.046	0.010
-521.960	-80.987	0.455	0.151
-520.945	-54.354	-0.111	0.050
-519.931	-135.956	-0.221	-0.026
-518.916	-5.902	0.088	0.060
-517.902	663.689	0.126	0.326
-516.887	-138.246	-0.274	-0.030
-515.872	-29.269	-0.126	-0.072
-514.858	684.203	-0.041	0.108
-513.843	46.231	-0.113	0.105
-512.829	-108.435	-0.185	-0.040
-511.814	-30.501	0.052	0.030
-510.799	-23.544	0.167	0.100
-509.785	800.000	-0.029	0.099
-508.770	800.000	-0.027	0.095
-507.756	-200.000	-0.046	0.282
-506.741	426.395	-0.038	-0.082
-505.726	243.276	-0.048	-0.081
-504.712	-7.377	-0.067	-0.045
-503.697	-147.192	-0.319	0.027
-502.683	-48.879	-0.204	0.098
-501.668	53.246	-0.123	0.118
-500.653	800.000	0.043	-0.156
-499.639	303.606	0.141	0.261
-498.624	-39.997	0.121	-0.063
-497.610	-27.570	-0.134	0.078
-496.595	800.000	0.177	0.500
-495.581	-19.872	0.115	-0.071
-494.566	15.223	-0.185	0.145
-493.551	99.225	0.156	0.180
-492.537	-38.106	0.133	0.071
-491.522	1.976	-0.202	-0.145
-490.508	-3.474	-0.238	-0.166
-489.493	99.347	-0.221	-0.255
-488.478	-50.614	-0.303	0.143
-487.464	-74.236	0.107	0.039
-486.449	-54.136	-0.258	0.117
-485.435	45.800	-0.123	0.113
-484.420	798.368	-0.048	0.134
-483.405	-178.763	0.316	-0.007
-482.391	-74.832	0.049	-0.018
-481.376	-200.000	0.021	-0.191
-480.362	-200.000	-0.007	0.087
-479.347	-180.373	0.197	-0.004
-478.332	-200.000	0.002	0.121
-477.318	-88.438	0.460	0.137
-476.303	68.019	0.111	0.114
-475.289	-134.327	0.251	0.031
-474.274	800.000	0.164	-0.581
-473.259	-200.000	-0.013	-0.110
-472.245	-55.635	0.382	-0.171
-471.230	83.464	-0.090	-0.098
-470.216	33.816	0.310	-0.269
-469.201	282.205	-0.050	0.089
-468.186	-200.000	-0.049	0.296
-467.172	800.000	0.134	0.374
-466.157	-149.867	0.155	0.012
-465.143	-126.650	0.245	0.036
-464.128	331.816	0.141	-0.272
-463.113	136.264	-0.152	-0.198
-462.099	-187.970	0.240	0.003
-461.084	-62.137	-0.270	-0.112
-460.070	-43.068	0.263	0.133
-459.055	-200.000	0.002	-0.159
-458.040	-200.000	-0.021	-0.149
-457.026	-42.217	-0.200	-0.102
-456.011	-96.960	0.449	0.117
-454.997	-53.997	-0.043	0.020
-453.982	-200.000	0.095	0.433
-452.968	-80.036	-0.157	-0.052
-451.953	800.000	0.063	0.274
-450.938	-122.715	0.342	-0.055
-449.924	-23.336	-0.086	0.052
-448.909	-152.427	-0.351	0.025
-447.895	-40.395	-0.209	0.108
-446.880	88.655	0.038	-0.042
-445.865	657.169	-0.130	0.334
-444.851	55.635	-0.277	0.268
-443.836	-175.693	-0.397	0.011
-442.822	-54.843	0.236	0.106
-441.807	-183.744	-0.132	-0.002
-440.792	43.599	0.378	0.344
-439.778	193.798	-0.048	-0.073
-438.763	128.088	-0.043	-0.055
-437.749	-200.000	-0.039	0.331
-436.734	-47.741	-0.191	0.092
-435.719	155.604	0.047	0.065
-434.705	-200.000	0.018	0.135
-433.690	-200.000	0.014	0.142
-432.676	91.727	0.159	-0.178
-431.661	75.007	-0.154	0.162
-430.646	-21.241	-0.039	-0.024
-429.632	-144.055	-0.127	0.012
-428.617	16.293	0.162	-0.127
-427.603	-9.227	-0.289	0.192
-426.588	129.612	-0.063	-0.080
-425.573	462.990	-0.177	-0.395
-424.559	106.133	0.151	0.178
-423.544	-98.591	-0.125	-0.032
-422.530	-120.539	0.326	0.055
-421.515	218.966	-0.115	0.184
-420.500	-91.412	0.095	0.027
-419.486	-40.572	-0.266	0.137
-418.471	43.127	0.195	-0.177
-417.457	-89.502	0.072	0.021
-416.442	271.679	0.111	0.195
-415.428	-200.000	-0.015	0.396
-414.413	-132.828	-0.171	0.022
-413.398	-200.000	-0.093	-0.000
-412.384	-200.000	-0.063	0.405
-411.369	-170.542	0.133	-0.005
-410.355	-58.539	0.123	0.053
-409.340	-103.966	-0.210	-0.049
-408.325	-200.000	0.085	0.524
-407.311	343.513	0.214	-0.418
-406.296	119.408	0.173	-0.213
-405.282	800.000	0.030	0.106
-404.267	-16.690	-0.291	-0.183
-403.252	-200.000	0.415	0.000
-402.238	42.971	0.134	0.122
-401.223	800.000	-0.006	-0.022
-400.209	-128.313	0.065	0.009
-399.194	469.084	0.115	0.256
-398.179	-200.000	-0.010	0.149
-397.165	-200.000	-0.022	-0.159
-396.150	141.740	-0.186	0.245
-395.136	-182.174	0.144	-0.003
-394.121	38.115	-0.099	0.087
-393.106	244.287	-0.215	-0.359
-392.092	-87.229	-0.117	0.035
-391.077	385.341	0.085	-0.175
-390.063	290.441	-0.080	-0.144
-389.048	13.933	0.245	-0.189
-388.033	42.060	0.099	0.089
-387.019	800.000	0.071	0.200
-386.004	44.415	0.117	-0.107
-384.990	-127.609	0.226	-0.033
-383.975	321.983	-0.046	-0.088
-382.960	187.527	0.223	0.331
-381.946	-200.000	-0.032	-0.240
-380.931	62.621	-0.159	0.158
-379.917	-200.000	-0.029	0.157
-378.902	800.000	-0.024	0.091
-377.888	783.461	-0.036	0.097
-376.873	318.586	-0.130	-0.245
-375.858	-70.015	-0.048	0.018
-374.844	800.000	0.065	-0.185
-373.829	-69.605	0.026	-0.010
-372.815	203.534	-0.075	-0.115
-371.800	-117.936	-0.210	0.037
-370.785	800.000	-0.073	0.304
-369.771	428.594	0.115	-0.247
-368.756	82.735	-0.199	0.215
-367.742	377.470	-0.040	0.081
-366.727	-53.437	-0.130	0.059
-365.712	75.556	-0.197	-0.206
-364.698	221.269	-0.162	-0.259
-363.683	-104.424	-0.100	-0.023
-362.669	-89.070	0.247	0.073
-361.654	-146.658	0.190	-0.016
-360.639	492.593	0.017	-0.039
-359.625	-200.000	0.023	-0.236
-358.610	95.765	0.055	-0.062
-357.596	168.202	-0.074	-0.105
-356.581	-151.663	-0.308	-0.023
-355.566	800.000	-0.041	-0.135
-354.552	98.572	0.264	0.303
-353.537	-48.923	-0.290	0.138
-352.523	-32.531	-0.157	-0.087
-351.508	-200.000	-0.089	0.534
-350.493	-200.000	-0.037	0.304
-349.479	-183.477	-0.281	-0.005
-348.464	-32.023	0.106	-0.059
-347.450	-33.784	0.131	0.072
-346.435	-153.078	-0.209	-0.015
-345.420	30.130	0.071	-0.060
-344.406	-200.000	0.045	-0.244
-343.391	-200.000	0.000	-0.245
-342.377	-149.578	-0.439	-0.034
-341.362	20.102	0.378	0.303
-340.348	-119.966	-0.223	0.038
-339.333	-200.000	0.022	0.132
-338.318	52.568	0.244	0.232
-337.304	-121.181	-0.084	-0.014
-336.289	11.766	0.083	0.063
-335.275	71.581	-0.066	0.068
-334.260	108.244	-0.224	-0.265
-333.245	-77.005	0.101	-0.035
-332.231	-44.221	-0.227	0.113
-331.216	-42.886	0.396	0.200
-330.202	-50.213	-0.204	0.096
-329.187	-200.000	-0.007	0.067
-328.172	249.444	-0.051	-0.086
-327.158	-200.000	0.001	0.141
-326.143	-102.131	-0.219	-0.052
-325.129	356.972	-0.124	0.246
-324.114	84.664	0.083	0.090
-323.099	-76.126	0.257	-0.090
-322.085	-24.401	0.226	-0.134
-321.070	-46.891	-0.280	0.136
-320.056	-13.902	-0.217	0.139
-319.041	-200.000	-0.014	0.421
-318.026	8.508	0.089	-0.067
-317.012	-200.000	0.014	0.376
-315.997	18.974	-0.209	-0.166
-314.983	111.551	-0.244	0.292
-313.968	128.037	-0.189	-0.238
-312.953	-81.847	-0.132	-0.043
-311.939	383.266	-0.031	0.062
-310.924	29.366	-0.169	-0.143
-309.910	-141.005	-0.367	0.037
-308.895	800.000	-0.037	-0.161
-307.880	-200.000	0.003	-0.180
-306.866	-121.210	-0.407	-0.067
-305.851	-74.249	0.240	0.086
-304.837	260.184	-0.118	0.202
-303.822	-98.575	-0.245	-0.062
-302.807	77.572	-0.262	0.277
-301.793	-93.609	-0.375	0.103
-300.778	385.366	0.055	0.113
-299.764	-10.487	-0.092	0.060
-298.749	75.343	0.189	-0.198
-297.735	-161.234	-0.161	0.008
-296.720	60.923	0.049	0.048
-295.705	-116.140	0.146	0.027
-294.691	-103.115	0.170	-0.040
-293.676	55.025	-0.114	-0.110
-292.662	-6.884	0.202	-0.136
-291.647	408.149	-0.035	-0.073
-290.632	-27.007	-0.218	-0.126
-289.618	-200.000	0.022	-0.200
-288.603	203.455	0.173	-0.265
-287.589	-200.000	-0.021	0.411
-286.574	-57.071	0.129	-0.056
-285.559	130.474	0.053	-0.067
-284.545	-200.000	0.025	0.197
-283.530	9.350	0.300	-0.225
-282.516	36.017	0.200	0.175
-281.501	800.000	-0.088	-0.292
-280.486	-31.742	0.135	-0.075
-279.472	800.000	0.068	0.210
-278.457	-20.801	0.195	0.118
-277.443	153.649	0.088	0.119
-276.428	-60.526	0.246	0.103
-275.413	-200.000	0.046	0.202
-274.399	800.000	-0.039	0.142
-273.384	-10.523	-0.042	-0.027
-272.370	-85.665	-0.132	0.041
-271.355	-119.921	0.209	-0.036
-270.340	-200.000	-0.008	-0.432
-269.326	-172.812	0.308	-0.010
-268.311	-11.463	-0.279	0.182
-267.297	-141.486	-0.149	0.015
-266.282	266.762	0.141	0.244
-265.267	-53.176	0.183	0.083
-264.253	-200.000	-0.062	-0.361
-263.238	-70.393	0.278	-0.104
-262.224	-187.926	-0.134	-0.002
-261.209	-37.682	0.109	0.057
-260.195	-21.529	-0.031	-0.019
-259.180	-200.000	0.010	-0.060
-258.165	119.245	-0.210	-0.258
-257.151	-103.512	0.366	-0.085
-256.136	240.611	0.096	-0.158
-255.122	527.484	0.047	-0.110
-254.107	141.562	0.129	-0.169
-253.092	-44.372	-0.405	0.201
-252.078	-200.000	0.018	0.175
-251.063	-63.591	0.192	-0.078
-250.049	716.772	0.107	0.282
-249.034	100.081	0.137	-0.158
-248.019	-77.871	0.209	-0.071
-247.005	-102.945	-0.065	0.015
-245.990	-66.544	0.202	0.079
-244.976	-24.207	0.236	0.140
-243.961	59.794	0.219	-0.214
-242.946	21.102	0.160	-0.128
-241.932	19.117	-0.407	-0.323
-240.917	216.341	-0.066	0.103
-239.903	800.000	-0.037	0.150
-238.888	211.082	-0.218	0.340
-237.873	-157.869	0.166	-0.010
-236.859	800.000	-0.046	-0.157
-235.844	-200.000	0.060	-0.311
-234.830	800.000	0.108	-0.458
-233.815	-40.918	-0.184	-0.094
-232.800	269.143	-0.056	0.097
-231.786	800.000	-0.117	-0.344
-230.771	174.993	-0.222	-0.318
-229.757	-11.517	-0.103	-0.067
-228.742	-123.887	0.237	-0.037
-227.727	315.914	0.121	-0.225
-226.713	-200.000	-0.044	-0.229
-225.698	126.047	0.055	-0.068
-224.684	-82.540	-0.107	-0.034
-223.669	-200.000	0.000	-0.141
-222.655	5.151	0.133	-0.097
-221.640	6.103	0.211	0.155
-220.625	-130.109	-0.044	-0.006
-219.611	124.690	-0.050	-0.062
-218.596	-123.547	0.141	0.022
-217.582	-145.243	-0.233	0.021
-216.567	-141.601	0.535	-0.053
-215.552	-104.537	-0.303	-0.069
-214.538	420.426	-0.119	0.252
-213.523	-46.304	-0.265	-0.129
-212.509	800.000	0.069	-0.200
-211.494	68.672	0.167	-0.169
-210.479	-30.852	-0.326	-0.182
-209.465	21.829	-0.287	0.231
-208.450	-200.000	0.008	-0.169
-207.436	-72.678	0.159	0.058
-206.421	-200.000	-0.003	0.126
-205.406	-200.000	-0.017	-0.281
-204.392	-200.000	-0.053	-0.406
-203.377	-160.635	-0.142	0.007
-202.363	41.741	0.117	-0.104
-201.348	468.955	-0.077	-0.170
-200.333	-46.840	-0.258	-0.125
-199.319	-200.000	-0.014	-0.154
-198.304	-200.000	-0.017	-0.294
-197.290	-23.990	-0.128	-0.076
-196.275	115.665	0.226	0.274
-195.260	29.008	-0.093	0.078
-194.246	371.390	-0.067	-0.135
-193.231	103.283	-0.031	-0.036
-192.217	-200.000	-0.031	-0.222
-191.202	-66.484	0.065	-0.025
-190.187	-43.042	0.209	0.104
-189.173	202.478	-0.146	-0.223
-188.158	684.100	0.127	0.326
-187.144	-48.351	0.198	-0.094
-186.129	-98.810	-0.093	-0.023
-185.114	517.960	-0.069	-0.159
-184.100	800.000	0.007	-0.026
-183.085	-167.260	0.135	0.005
-182.071	-65.083	0.066	0.026
-181.056	759.831	-0.051	0.136
-180.042	95.935	0.124	0.140
-179.027	-108.816	0.221	0.047
-178.012	-200.000	-0.008	0.038
-176.998	759.565	0.129	-0.346
-175.983	-7.612	-0.145	-0.097
-174.969	-200.000	-0.015	0.171
-173.954	585.414	-0.073	0.177
-172.939	-200.000	0.024	0.162
-171.925	149.011	0.198	-0.264
-170.910	-31.163	-0.119	0.066
-169.896	-93.783	-0.115	-0.031
-168.881	-200.000	-0.008	-0.121
-167.866	-92.804	0.137	0.038
-166.852	-200.000	0.002	-0.012
-165.837	-200.000	-0.012	-0.361
-164.823	-88.870	0.267	0.078
-163.808	-200.000	0.016	0.143
-162.793	-200.000	-0.011	-0.268
-161.779	-37.351	0.294	-0.155
-160.764	-132.139	0.105	0.013
-159.750	-110.849	0.144	-0.029
-158.735	85.118	0.192	0.207
-157.720	800.000	0.051	-0.176
-156.706	-54.954	0.200	-0.089
-155.691	22.188	-0.170	-0.137
-154.677	-175.373	0.271	0.007
-153.662	112.415	0.249	0.297
-152.647	-107.639	-0.179	0.038
-151.633	430.079	-0.045	0.096
-150.618	-83.642	-0.085	-0.027
-149.604	-200.000	-0.031	0.170
-148.589	128.355	0.161	-0.202
-147.574	231.684	-0.232	0.375
-146.560	82.822	0.128	0.137
-145.545	-73.677	0.232	-0.083
-144.531	-200.000	0.033	0.145
-143.516	-73.324	-0.176	0.063
-142.502	-92.639	0.216	-0.060
-141.487	152.171	0.213	0.287
-140.472	800.000	0.024	0.098
-139.458	-200.000	-0.059	0.312
-138.443	-84.811	0.332	-0.103
-137.429	97.381	0.075	-0.085
-136.414	-198.413	-0.227	-0.001
-135.399	174.695	-0.114	0.163
-134.385	-180.228	0.189	0.004
-133.370	-200.000	0.014	-0.171
-132.356	-200.000	0.064	0.387
-131.341	410.759	0.129	0.270
-130.326	329.128	-0.130	-0.247
-129.312	-200.000	-0.086	-0.422
-128.297	79.318	0.214	-0.226
-127.283	-145.758	-0.303	-0.027
-126.268	-102.551	0.255	0.060
-125.253	-24.128	0.124	-0.073
-124.239	-40.918	0.122	-0.062
-123.224	-200.000	-0.054	0.428
