DTS Sentinel unit serial number:	SN413079Multiplexer serial number:	ORYXHardware model number:	OX4-SRSoftware version number:	ORYX F/W v4.00 Oryx Data Collector v3.7.2.0data status	okinstallation	princeton_trtdifferential loss correction	single-endedforward channel	channel 3reverse channel	N/Adate	2019/09/17time	04:36:34forward acquisition time	60.00reverse acquisition time	0.00gamma	496.2192k internal	0.2324k external	0.2324temperature offset calibration	0.9943default loss term (dB/km)	0.3790temperature slope calibration	1.0000multiplexer offset coefficient	1.0000multiplexer slope coefficient	1.0000fibre end	0.00T internal ref (°C)	29.67T ext. ref 1 (°C)	0.13T ext. ref 2 (°C)	24.07length (m)	temperature (°C)	Stokes	anti-Stokes-747.200	800.000	0.053	0.217
-746.185	446.091	-0.130	0.288
-745.171	-200.000	0.000	-0.163
-744.156	5.693	0.193	0.144
-743.142	-200.000	0.020	-0.107
-742.127	-173.229	-0.390	0.012
-741.112	-44.525	-0.134	-0.068
-740.098	-200.000	-0.009	-0.059
-739.083	-166.975	-0.159	0.007
-738.069	580.591	-0.179	0.443
-737.054	-128.997	0.217	-0.031
-736.039	-63.663	-0.374	-0.155
-735.025	-110.946	0.341	-0.071
-734.010	-200.000	-0.114	-0.532
-732.996	800.000	-0.112	-0.356
-731.981	-2.694	-0.163	-0.115
-730.966	-89.146	0.168	0.050
-729.952	309.080	0.108	0.205
-728.937	-101.928	-0.376	-0.092
-727.923	-36.038	-0.147	0.080
-726.908	739.178	0.026	-0.070
-725.894	-35.316	-0.163	-0.090
-724.879	-18.080	-0.035	-0.022
-723.864	145.637	-0.253	-0.342
-722.850	155.693	-0.061	0.085
-721.835	9.047	-0.244	0.186
-720.821	-126.667	0.183	-0.027
-719.806	746.929	-0.064	-0.173
-718.791	-200.000	-0.030	-0.297
-717.777	48.748	-0.075	0.071
-716.762	14.360	0.172	-0.136
-715.748	-200.000	0.045	-0.289
-714.733	173.900	-0.121	-0.176
-713.718	141.480	-0.124	-0.166
-712.704	198.716	0.139	-0.214
-711.689	800.000	-0.065	0.187
-710.675	536.739	0.068	-0.163
-709.660	173.263	0.226	0.328
-708.645	-34.977	-0.213	0.117
-707.631	-80.698	-0.159	-0.053
-706.616	-161.724	0.455	-0.023
-705.602	-200.000	0.056	-0.260
-704.587	-76.851	0.294	-0.104
-703.572	-19.465	0.128	-0.080
-702.558	-20.329	0.082	-0.051
-701.543	-145.352	-0.236	-0.021
-700.529	43.533	-0.148	-0.136
-699.514	-200.000	-0.025	0.147
-698.499	800.000	-0.052	0.210
-697.485	68.587	-0.178	-0.184
-696.470	27.779	0.080	-0.068
-695.456	120.912	0.078	0.098
-694.441	144.207	-0.213	0.286
-693.426	-48.070	0.251	0.122
-692.412	-200.000	0.004	0.043
-691.397	231.098	0.134	0.222
-690.383	72.405	-0.219	0.230
-689.368	183.523	0.194	0.288
-688.354	147.391	0.089	-0.121
-687.339	109.476	-0.208	0.251
-686.324	439.704	-0.090	-0.198
-685.310	-74.506	-0.237	-0.086
-684.295	-156.906	-0.355	-0.022
-683.281	1.816	-0.214	-0.156
-682.266	714.026	-0.060	-0.160
-681.251	216.721	0.153	0.244
-680.237	627.422	-0.058	-0.146
-679.222	-80.407	0.144	-0.048
-678.208	-177.505	-0.139	0.003
-677.193	-53.004	-0.313	-0.145
-676.178	-81.277	0.116	0.038
-675.164	-143.945	-0.041	-0.004
-674.149	125.164	-0.183	-0.233
-673.135	-131.266	-0.208	0.028
-672.120	-42.599	0.115	-0.059
-671.105	715.027	0.125	0.335
-670.091	431.716	-0.056	0.121
-669.076	-105.631	-0.337	0.077
-668.062	-200.000	-0.059	-0.311
-667.047	-177.655	0.297	-0.007
-666.032	-200.000	-0.002	-0.025
-665.018	141.997	-0.020	-0.027
-664.003	-1.381	0.032	-0.023
-662.989	-46.339	-0.198	0.098
-661.974	-18.656	-0.398	0.250
-660.959	-58.404	-0.055	0.024
-659.945	286.965	0.016	0.029
-658.930	71.085	0.188	0.196
-657.916	-90.659	0.337	-0.098
-656.901	32.021	-0.292	-0.253
-655.886	-200.000	0.008	-0.150
-654.872	-200.000	-0.010	0.207
-653.857	-163.912	-0.377	0.018
-652.843	-67.401	0.244	0.097
-651.828	-14.054	-0.113	-0.073
-650.814	-200.000	-0.062	-0.365
-649.799	23.731	-0.271	-0.224
-648.784	211.020	0.149	-0.235
-647.770	32.531	0.376	-0.327
-646.755	-200.000	-0.041	-0.307
-645.741	-108.995	0.333	-0.071
-644.726	800.000	-0.036	0.111
-643.711	-112.575	-0.250	0.050
-642.697	800.000	0.099	0.378
-641.682	98.413	0.274	0.318
-640.668	91.575	-0.104	-0.118
-639.653	185.143	0.124	-0.185
-638.638	-113.806	-0.274	-0.054
-637.624	125.381	-0.110	-0.139
-636.609	-118.522	-0.140	0.025
-635.595	218.871	0.107	-0.172
-634.580	800.000	0.036	-0.127
-633.565	-66.282	0.254	0.102
-632.551	407.358	0.101	-0.216
-631.536	-11.071	0.270	-0.179
-630.522	-83.515	0.181	-0.058
-629.507	-23.721	0.149	0.090
-628.492	800.000	0.039	-0.126
-627.478	-17.628	-0.088	0.056
-626.463	-169.202	0.084	0.003
-625.449	5.079	0.043	-0.032
-624.434	-4.484	0.264	0.183
-623.419	-200.000	-0.071	-0.000
-622.405	800.000	0.066	-0.281
-621.390	-104.931	0.225	0.052
-620.376	800.000	0.018	0.054
-619.361	-181.845	0.318	0.006
-618.346	-200.000	0.006	-0.250
-617.332	291.200	-0.184	-0.336
-616.317	-44.850	0.225	-0.113
-615.303	-15.682	-0.189	-0.121
-614.288	138.291	0.299	-0.395
-613.273	121.352	0.214	-0.268
-612.259	-200.000	0.022	0.112
-611.244	80.580	-0.223	-0.242
-610.230	800.000	-0.093	0.259
-609.215	-69.352	0.276	-0.106
-608.201	-29.375	-0.357	-0.205
-607.186	-152.261	0.205	0.015
-606.171	-8.322	-0.083	0.056
-605.157	800.000	-0.021	0.084
-604.142	-94.060	-0.179	-0.049
-603.128	-200.000	0.019	0.188
-602.113	-71.897	-0.077	-0.029
-601.098	20.880	-0.399	-0.324
-600.084	252.444	-0.094	-0.161
-599.069	-41.993	0.139	0.071
-598.055	-200.000	-0.003	-0.277
-597.040	-119.055	-0.121	-0.021
-596.025	129.474	0.047	0.060
-595.011	-50.994	0.137	-0.065
-593.996	-200.000	0.268	-0.000
-592.982	32.972	-0.184	-0.160
-591.967	257.788	0.067	-0.115
-590.952	414.384	-0.128	-0.273
-589.938	-83.842	-0.194	0.062
-588.923	67.495	-0.122	0.125
-587.909	54.167	-0.084	0.081
-586.894	800.000	0.032	0.106
-585.879	800.000	-0.046	0.171
-584.865	-200.000	0.026	-0.188
-583.850	86.578	0.120	-0.133
-582.836	-100.489	0.162	-0.040
-581.821	8.573	-0.061	0.046
-580.806	501.228	-0.104	0.240
-579.792	-108.137	-0.285	0.062
-578.777	22.850	-0.143	0.118
-577.763	668.317	-0.071	0.184
-576.748	50.661	-0.047	-0.045
-575.733	85.889	0.188	0.207
-574.719	51.159	0.208	-0.198
-573.704	-104.369	-0.314	-0.073
-572.690	800.000	-0.057	-0.169
-571.675	121.811	-0.158	-0.198
-570.661	-40.815	-0.185	-0.096
-569.646	-97.784	0.221	0.057
-568.631	689.268	-0.120	-0.314
-567.617	-200.000	-0.025	-0.159
-566.602	71.543	-0.133	0.139
-565.588	-75.509	0.223	0.080
-564.573	533.996	-0.153	-0.364
-563.558	800.000	-0.110	-0.336
-562.544	130.797	-0.343	0.442
-561.529	115.299	-0.096	0.118
-560.515	439.733	-0.088	-0.193
-559.500	-200.000	-0.048	-0.227
-558.485	-146.119	-0.301	0.027
-557.471	201.284	-0.269	0.416
-556.456	-33.457	0.174	-0.096
-555.442	-51.165	-0.133	0.062
-554.427	34.640	-0.145	0.127
-553.412	-70.132	-0.181	-0.069
-552.398	-200.000	-0.000	-0.087
-551.383	-60.870	-0.134	0.057
-550.369	-50.527	-0.205	0.097
-549.354	359.552	-0.112	0.225
-548.339	-67.007	-0.121	-0.048
-547.325	-200.000	0.036	0.337
-546.310	643.338	0.119	0.304
-545.296	-97.534	-0.328	-0.085
-544.281	-79.622	-0.392	-0.133
-543.266	68.680	0.243	0.250
-542.252	63.452	-0.125	0.126
-541.237	141.506	0.174	-0.231
-540.223	-77.752	-0.090	-0.031
-539.208	49.656	-0.303	0.286
-538.193	-200.000	0.013	0.116
-537.179	-24.233	-0.275	-0.164
-536.164	-28.468	0.226	0.131
-535.150	148.846	0.223	0.302
-534.135	-200.000	-0.009	0.043
-533.121	14.269	0.146	0.114
-532.106	-57.988	-0.062	0.027
-531.091	30.286	0.079	-0.068
-530.077	-51.648	-0.261	0.122
-529.062	-81.717	-0.103	0.034
-528.048	-15.513	-0.268	0.171
-527.033	-96.005	-0.208	-0.055
-526.018	-145.055	-0.100	0.009
-525.004	800.000	0.054	0.222
-523.989	162.596	-0.201	0.283
-522.975	83.876	-0.220	0.241
-521.960	-19.096	-0.226	-0.141
-520.945	-112.128	-0.198	-0.040
-519.931	33.476	0.222	0.193
-518.916	50.226	0.104	0.098
-517.902	-21.279	-0.103	0.063
-516.887	118.705	0.251	0.311
-515.872	244.138	-0.113	-0.190
-514.858	-68.508	0.003	-0.001
-513.843	141.967	0.172	-0.228
-512.829	-111.729	0.187	0.038
-511.814	-59.321	0.389	-0.167
-510.799	443.288	0.085	0.187
-509.785	57.047	0.091	-0.089
-508.770	800.000	0.087	0.335
-507.756	-200.000	-0.018	0.184
-506.741	800.000	-0.133	-0.414
-505.726	547.955	0.134	0.320
-504.712	800.000	-0.046	0.196
-503.697	-200.000	-0.187	0.001
-502.683	376.858	0.116	-0.236
-501.668	506.187	-0.051	0.118
-500.653	-119.770	-0.313	-0.054
-499.639	-37.905	-0.104	0.055
-498.624	-69.966	0.077	-0.029
-497.610	-102.694	-0.108	-0.026
-496.595	-160.016	-0.335	0.018
-495.581	-96.834	-0.392	-0.103
-494.566	-80.991	0.152	-0.050
-493.551	-11.993	0.066	-0.043
-492.537	800.000	-0.028	-0.116
-491.522	24.869	0.238	0.197
-490.508	-200.000	-0.003	0.306
-489.493	147.293	-0.123	0.166
-488.478	84.143	-0.123	-0.134
-487.464	800.000	0.077	-0.217
-486.449	65.743	0.089	0.090
-485.435	-116.950	-0.088	0.016
-484.420	-200.000	0.009	-0.085
-483.405	-200.000	-0.005	-0.074
-482.391	800.000	-0.067	-0.198
-481.376	-14.487	0.145	0.093
-480.362	-40.070	-0.314	-0.164
-479.347	29.938	-0.108	0.092
-478.332	800.000	0.068	-0.282
-477.318	800.000	0.033	-0.118
-476.303	367.331	-0.120	0.241
-475.289	-150.739	-0.121	0.009
-474.274	124.962	-0.202	-0.254
-473.259	-165.343	-0.237	0.010
-472.245	507.794	-0.029	0.068
-471.230	163.641	-0.149	0.210
-470.216	-200.000	-0.037	-0.172
-469.201	10.921	0.208	0.159
-468.186	452.764	0.123	-0.271
-467.172	2.184	-0.344	0.248
-466.157	800.000	-0.075	0.322
-465.143	65.853	0.098	0.099
-464.128	-38.233	0.035	0.018
-463.113	124.910	0.163	-0.205
-462.099	-150.084	0.162	-0.013
-461.084	800.000	-0.086	0.303
-460.070	414.046	0.090	-0.192
-459.055	-77.405	0.139	-0.048
-458.040	-83.711	0.383	-0.122
-457.026	360.819	-0.113	-0.226
-456.011	800.000	-0.066	0.205
-454.997	-107.295	-0.076	-0.017
-453.982	239.081	-0.080	0.133
-452.968	6.880	-0.134	-0.100
-451.953	148.740	0.076	-0.102
-450.938	-147.177	-0.288	0.024
-449.924	-113.632	0.268	0.052
-448.909	800.000	0.065	0.191
-447.895	-91.138	-0.133	-0.038
-446.880	-34.528	0.105	-0.057
-445.865	800.000	-0.135	-0.379
-444.851	-73.435	-0.037	-0.014
-443.836	-200.000	-0.036	0.177
-442.822	350.492	-0.116	-0.229
-441.807	44.821	-0.302	0.277
-440.792	-80.199	0.115	-0.038
-439.778	-91.347	0.157	-0.045
-438.763	-70.730	-0.208	-0.078
-437.749	-200.000	0.027	0.337
-436.734	-146.819	-0.060	-0.005
-435.719	-49.189	0.075	-0.036
-434.705	-162.311	0.331	-0.016
-433.690	-133.672	0.175	-0.022
-432.676	-96.945	0.286	0.075
-431.661	-200.000	-0.018	-0.222
-430.646	-78.546	-0.103	-0.035
-429.632	-200.000	-0.008	-0.155
-428.617	-162.519	-0.109	0.005
-427.603	-73.889	-0.195	0.071
-426.588	-112.377	0.288	-0.057
-425.573	-193.933	0.302	-0.003
-424.559	41.396	-0.126	-0.114
-423.544	-84.565	-0.226	0.071
-422.530	-126.642	0.083	0.012
-421.515	-200.000	-0.001	-0.167
-420.500	-59.689	0.313	-0.134
-419.486	800.000	0.040	-0.132
-418.471	-5.007	-0.104	0.071
-417.457	-139.665	-0.360	-0.038
-416.442	243.133	-0.127	0.212
-415.428	-56.199	-0.135	-0.060
-414.413	605.746	0.069	0.170
-413.398	800.000	-0.048	-0.208
-412.384	800.000	-0.004	0.012
-411.369	-200.000	0.050	0.272
-410.355	-26.944	0.210	0.122
-409.340	-138.798	-0.385	-0.042
-408.325	-80.654	-0.154	0.051
-407.311	68.984	-0.016	0.016
-406.296	800.000	0.061	0.218
-405.282	-136.479	0.294	0.034
-404.267	-82.480	-0.052	-0.017
-403.252	55.656	-0.176	0.170
-402.238	-91.606	0.138	0.039
-401.223	-137.716	0.557	-0.062
-400.209	-83.761	-0.359	-0.114
-399.194	-110.657	-0.206	-0.042
-398.179	-200.000	-0.050	-0.246
-397.165	154.998	0.158	0.216
-396.150	-57.268	0.122	0.053
-395.136	-71.280	-0.229	-0.086
-394.121	231.128	0.081	-0.133
-393.106	-114.038	-0.055	0.011
-392.092	-200.000	0.019	0.145
-391.077	0.165	-0.123	-0.087
-390.063	-86.165	-0.278	0.085
-389.048	800.000	-0.020	0.084
-388.033	148.920	-0.200	-0.269
-387.019	81.327	0.267	0.287
-386.004	4.140	-0.035	0.026
-384.990	-67.295	0.093	0.036
-383.975	13.082	0.173	0.133
-382.960	13.972	0.080	0.062
-381.946	273.479	0.115	-0.202
-380.931	-98.809	0.228	0.058
-379.917	-200.000	0.030	0.345
-378.902	132.573	-0.214	-0.275
-377.888	-179.832	0.147	0.003
-376.873	-122.601	0.356	0.058
-375.858	-62.775	0.267	-0.110
-374.844	152.163	-0.074	-0.100
-373.829	54.342	-0.291	-0.279
-372.815	-113.110	0.033	0.006
-371.800	-15.002	0.124	0.079
-370.785	-28.482	0.141	-0.081
-369.771	1.551	-0.185	0.132
-368.756	21.502	0.051	0.041
-367.742	-103.930	-0.278	0.065
-366.727	800.000	0.089	-0.314
-365.712	800.000	0.101	0.349
-364.698	-87.543	0.290	0.087
-363.683	-8.430	-0.158	-0.105
-362.669	-81.389	-0.372	0.122
-361.654	98.624	-0.128	0.147
-360.639	-1.798	-0.146	0.102
-359.625	-172.436	0.165	0.005
-358.610	-101.466	-0.013	-0.003
-357.596	-76.317	0.069	0.024
-356.581	61.458	0.180	-0.178
-355.566	800.000	0.095	0.369
-354.552	227.227	0.147	-0.238
-353.537	298.880	-0.235	0.430
-352.523	-66.757	0.235	-0.093
-351.508	-90.337	0.067	0.019
-350.493	-200.000	-0.027	-0.266
-349.479	-36.365	0.096	0.051
-348.464	76.253	-0.080	-0.084
-347.450	800.000	-0.027	-0.098
-346.435	-175.049	0.172	0.005
-345.420	800.000	-0.049	0.200
-344.406	-115.747	0.175	-0.033
-343.391	328.353	-0.086	0.164
-342.377	-60.243	0.434	0.184
-341.362	634.235	-0.109	-0.274
-340.348	65.288	-0.159	-0.160
-339.333	752.961	0.043	-0.115
-338.318	-133.590	-0.235	0.029
-337.304	179.732	-0.097	-0.142
-336.289	-131.624	-0.426	-0.056
-335.275	800.000	0.024	-0.075
-334.260	-63.681	-0.073	0.030
-333.245	-185.859	0.219	-0.003
-332.231	226.649	0.175	0.282
-331.216	-150.069	0.393	-0.030
-330.202	-76.949	-0.123	-0.043
-329.187	-46.701	-0.295	0.143
-328.172	59.739	-0.199	0.195
-327.158	-44.856	-0.194	0.096
-326.143	-200.000	0.031	0.270
-325.129	49.101	0.179	0.167
-324.114	-164.564	-0.075	-0.003
-323.099	136.691	-0.169	-0.219
-322.085	800.000	0.088	-0.342
-321.070	-200.000	0.011	-0.089
-320.056	17.979	0.332	0.263
-319.041	-121.316	0.317	-0.052
-318.026	262.628	-0.150	0.258
-317.012	38.215	0.196	0.174
-315.997	-110.443	-0.337	-0.070
-314.983	59.674	0.182	-0.178
-313.968	-115.405	-0.215	-0.040
-312.953	31.395	-0.102	0.087
-311.939	34.385	0.142	0.123
-310.924	800.000	-0.083	-0.303
-309.910	24.791	0.283	0.232
-308.895	-63.996	-0.208	0.084
-307.880	-92.996	-0.184	-0.051
-306.866	-81.041	0.098	0.032
-305.851	2.422	-0.167	0.120
-304.837	-35.982	-0.130	0.070
-303.822	344.815	0.148	-0.288
-302.807	30.121	-0.220	-0.186
-301.793	-57.909	-0.233	-0.101
-300.778	-65.269	0.216	0.086
-299.764	800.000	-0.071	0.253
-298.749	-200.000	0.004	0.036
-297.735	678.017	0.036	0.093
-296.720	-200.000	-0.006	-0.337
-295.705	87.849	0.122	0.134
-294.691	509.219	-0.064	-0.148
-293.676	-27.762	-0.262	0.151
-292.662	290.706	0.076	0.137
-291.647	691.170	-0.123	-0.321
-290.632	25.065	-0.250	0.206
-289.618	-55.235	-0.202	0.090
-288.603	271.225	0.120	0.210
-287.589	665.489	-0.231	0.591
-286.574	40.747	-0.084	-0.075
-285.559	157.490	-0.045	0.062
-284.545	267.346	0.101	0.175
-283.530	77.743	-0.143	0.152
-282.516	-147.808	-0.179	0.015
-281.501	-28.654	-0.166	0.095
-280.486	170.308	0.225	-0.319
-279.472	133.496	0.198	-0.254
-278.457	543.105	-0.099	-0.233
-277.443	-103.218	0.287	0.067
-276.428	800.000	-0.028	0.087
-275.413	-123.032	0.259	0.041
-274.399	557.867	0.129	-0.309
-273.384	-72.154	0.092	-0.034
-272.370	800.000	0.021	-0.085
-271.355	-105.819	0.385	0.086
-270.340	-200.000	-0.069	0.526
-269.326	-111.185	0.075	-0.015
-268.311	-16.287	0.429	-0.270
-267.297	380.826	0.082	0.166
-266.282	-118.868	-0.236	-0.041
-265.267	91.032	0.329	0.366
-264.253	-27.324	0.304	0.175
-263.238	800.000	-0.077	-0.292
-262.224	-200.000	0.034	-0.244
-261.209	354.183	-0.042	0.083
-260.195	-66.056	-0.179	0.071
-259.180	-160.160	0.532	-0.029
-258.165	-89.224	-0.148	-0.043
-257.151	-118.295	0.237	0.042
-256.136	219.369	0.187	-0.297
-255.122	477.951	-0.020	-0.044
-254.107	-200.000	-0.026	0.180
-253.092	800.000	0.088	-0.298
-252.078	167.891	0.065	0.091
-251.063	-200.000	0.028	-0.215
-250.049	-110.164	0.136	-0.028
-249.034	-200.000	0.020	-0.109
-248.019	-38.161	0.119	0.062
-247.005	-111.770	-0.215	-0.043
-245.990	-121.846	0.257	-0.042
-244.976	21.930	-0.113	-0.091
-243.961	-118.488	-0.137	-0.024
-242.946	-131.103	-0.081	0.011
-241.932	-30.224	0.354	0.199
-240.917	-125.364	-0.335	0.051
-239.903	-101.058	-0.295	-0.072
-238.888	552.982	0.111	-0.264
-237.873	158.683	0.132	0.181
-236.859	86.801	0.180	0.197
-235.844	30.598	-0.134	0.114
-234.830	221.436	-0.087	0.138
-233.815	-114.189	-0.254	-0.049
-232.800	-191.059	-0.374	-0.004
-231.786	-123.151	-0.320	0.051
-230.771	800.000	-0.098	0.280
-229.757	-86.499	0.286	0.087
-228.742	-200.000	-0.012	-0.388
-227.727	128.793	0.178	0.224
-226.713	-11.420	-0.079	0.051
-225.698	-200.000	0.033	-0.210
-224.684	-168.173	0.363	-0.014
-223.669	137.309	0.240	0.311
-222.655	-40.783	-0.384	0.197
-221.640	15.150	-0.138	0.107
-220.625	-200.000	-0.001	-0.011
-219.611	-64.222	0.335	0.135
-218.596	766.613	-0.045	-0.120
-217.582	-75.304	0.146	-0.051
-216.567	157.122	0.084	-0.114
-215.552	-60.928	-0.167	-0.070
-214.538	547.081	0.105	-0.248
-213.523	372.208	0.074	0.149
-212.509	228.028	0.188	0.303
-211.494	-200.000	0.046	-0.345
-210.479	-200.000	-0.009	0.071
-209.465	84.405	0.319	0.345
-208.450	-76.244	0.253	0.088
-207.436	-99.216	-0.145	-0.036
-206.421	-21.799	0.194	0.117
-205.406	9.286	0.168	0.126
-204.392	-25.019	0.110	-0.064
-203.377	-60.930	-0.259	0.108
-202.363	-22.736	-0.272	0.162
-201.348	800.000	0.044	0.166
-200.333	10.944	-0.092	0.070
-199.319	-143.927	0.226	-0.021
-198.304	38.202	-0.416	-0.366
-197.290	-124.689	0.029	0.004
-196.275	65.263	0.098	-0.098
-195.260	644.828	-0.096	0.243
-194.246	-89.795	0.103	0.030
-193.231	-200.000	0.065	0.312
-192.217	-29.626	0.101	-0.057
-191.202	-200.000	-0.052	-0.382
-190.187	391.811	0.105	0.216
-189.173	43.787	0.161	0.146
-188.158	131.269	0.164	0.208
-187.144	324.030	-0.164	-0.308
-186.129	-61.547	0.257	0.107
-185.114	-119.850	0.258	-0.044
-184.100	112.555	0.080	0.096
-183.085	-200.000	0.385	-0.002
-182.071	38.806	0.090	-0.079
-181.056	-104.441	-0.254	0.058
-180.042	164.455	0.076	0.106
-179.027	800.000	-0.038	-0.127
-178.012	338.384	0.177	-0.340
-176.998	-82.141	0.103	-0.033
-175.983	-157.026	-0.096	-0.006
-174.969	-164.788	0.066	-0.003
-173.954	-143.269	0.285	0.027
-172.939	800.000	-0.009	0.028
-171.925	58.292	0.382	-0.370
-170.910	209.926	0.152	-0.236
-169.896	-1.242	-0.151	-0.105
-168.881	-200.000	0.013	-0.234
-167.866	-116.649	0.150	0.027
-166.852	33.876	-0.117	0.100
-165.837	128.559	-0.338	-0.425
-164.823	-162.308	0.106	0.005
-163.808	6.810	0.323	-0.237
-162.793	165.862	-0.132	-0.184
-161.779	-200.000	0.021	-0.101
-160.764	-200.000	0.125	-0.001
-159.750	52.080	-0.220	0.206
-158.735	-70.626	-0.115	-0.043
-157.720	-120.093	0.150	0.025
-156.706	-126.837	0.071	-0.010
-155.691	-119.368	-0.322	0.055
-154.677	34.782	0.146	0.126
-153.662	-200.000	-0.032	0.191
-152.647	800.000	-0.125	-0.372
-151.633	23.997	-0.098	0.079
-150.618	218.362	0.086	-0.135
-149.604	-73.266	0.283	0.102
-148.589	-13.968	0.053	0.034
-147.574	-200.000	0.014	-0.368
-146.560	800.000	-0.061	-0.194
-145.545	-134.026	0.334	0.041
-144.531	27.117	0.172	0.142
-143.516	-61.264	0.053	0.022
-142.502	-73.530	0.343	0.124
-141.487	37.820	-0.236	0.207
-140.472	-200.000	0.002	-0.294
-139.458	800.000	0.038	0.110
-138.443	-76.543	-0.335	-0.116
-137.429	208.189	-0.104	-0.160
-136.414	51.298	-0.115	0.108
-135.399	45.983	0.143	0.130
-134.385	-157.715	-0.040	-0.002
-133.370	-200.000	0.020	-0.141
-132.356	130.070	0.091	0.115
-131.341	-27.563	0.281	-0.161
-130.326	173.180	0.412	-0.585
-129.312	-72.647	0.209	0.076
-128.297	-200.000	0.000	-0.156
-127.283	-133.605	0.217	0.027
-126.268	93.082	-0.179	0.199
-125.253	-48.736	-0.175	0.083
-124.239	-153.096	-0.176	0.012
-123.224	-150.879	0.316	0.024
-122.210	-200.000	0.029	0.144
-121.195	422.452	0.113	0.240
