DTS Sentinel unit serial number:	SN413079Multiplexer serial number:	ORYXHardware model number:	OX4-SRSoftware version number:	ORYX F/W v4.00 Oryx Data Collector v3.7.2.0data status	okinstallation	princeton_trtdifferential loss correction	single-endedforward channel	channel 3reverse channel	N/Adate	2019/09/18time	13:16:35forward acquisition time	60.00reverse acquisition time	0.00gamma	496.2192k internal	0.2312k external	0.2312temperature offset calibration	0.9969default loss term (dB/km)	0.3790temperature slope calibration	1.0000multiplexer offset coefficient	1.0000multiplexer slope coefficient	1.0000fibre end	0.00T internal ref (°C)	34.05T ext. ref 1 (°C)	0.60T ext. ref 2 (°C)	30.40length (m)	temperature (°C)	Stokes	anti-Stokes-747.200	-20.827	-0.210	0.131
-746.185	333.309	0.093	0.183
-745.171	-33.229	0.258	0.145
-744.156	-139.263	-0.213	0.023
-743.142	800.000	0.034	-0.116
-742.127	433.798	0.223	0.492
-741.112	99.621	0.209	0.245
-740.098	-200.000	0.024	-0.151
-739.083	338.668	-0.122	-0.241
-738.069	2.641	-0.263	0.194
-737.054	-112.338	0.141	0.029
-736.039	-200.000	-0.005	-0.056
-735.025	-118.753	0.384	0.069
-734.010	428.630	-0.159	-0.348
-732.996	-146.443	-0.391	0.035
-731.981	155.337	-0.218	-0.304
-730.966	-104.393	-0.189	0.044
-729.952	800.000	-0.048	-0.141
-728.937	-11.243	0.200	0.134
-727.923	-200.000	-0.048	-0.305
-726.908	-200.000	0.022	-0.544
-725.894	-200.000	-0.005	-0.067
-724.879	303.713	-0.077	0.145
-723.864	-31.284	-0.454	-0.259
-722.850	40.941	-0.087	0.079
-721.835	-61.226	0.331	0.142
-720.821	78.610	0.118	0.127
-719.806	-200.000	0.028	-0.180
-718.791	-91.787	-0.141	0.041
-717.777	726.811	-0.032	0.085
-716.762	-152.676	-0.044	0.003
-715.748	-144.046	0.101	0.010
-714.733	-200.000	-0.069	-0.364
-713.718	-145.254	0.178	-0.016
-712.704	-6.208	-0.131	-0.090
-711.689	-136.566	-0.273	0.032
-710.675	-34.260	0.239	-0.133
-709.660	-3.226	-0.068	-0.048
-708.645	91.345	0.224	-0.255
-707.631	-122.016	-0.070	-0.012
-706.616	74.246	0.064	-0.068
-705.602	275.586	-0.086	-0.154
-704.587	-32.374	-0.362	-0.205
-703.572	413.269	0.127	-0.274
-702.558	166.318	0.155	-0.223
-701.543	-200.000	-0.000	-0.130
-700.529	-200.000	0.010	-0.111
-699.514	-200.000	0.039	-0.291
-698.499	-200.000	-0.011	-0.179
-697.485	800.000	0.036	-0.156
-696.470	-200.000	0.010	0.076
-695.456	-200.000	-0.010	0.176
-694.441	-93.125	0.201	0.057
-693.426	17.411	0.168	-0.135
-692.412	-200.000	-0.000	-0.018
-691.397	-200.000	0.010	0.228
-690.383	800.000	-0.066	0.190
-689.368	-200.000	-0.010	0.125
-688.354	44.447	-0.073	-0.068
-687.339	311.832	-0.071	-0.134
-686.324	603.116	0.049	-0.124
-685.310	10.133	-0.218	-0.168
-684.295	66.036	0.205	0.210
-683.281	300.781	0.143	-0.267
-682.266	56.263	-0.032	0.031
-681.251	740.351	-0.166	0.452
-680.237	9.404	0.150	0.115
-679.222	-108.762	0.283	0.061
-678.208	-90.670	0.156	0.045
-677.193	118.072	-0.305	-0.381
-676.178	-30.100	0.147	-0.085
-675.164	-110.382	-0.212	-0.045
-674.149	-23.578	-0.110	-0.067
-673.135	-142.044	-0.140	0.014
-672.120	-39.962	-0.018	0.010
-671.105	-64.018	-0.263	0.109
-670.091	800.000	-0.048	0.137
-669.076	691.636	0.027	-0.071
-668.062	-36.371	-0.298	-0.162
-667.047	-200.000	-0.007	-0.032
-666.032	465.269	0.172	0.390
-665.018	291.725	-0.293	-0.540
-664.003	-164.676	-0.258	0.012
-662.989	200.539	0.138	0.214
-661.974	668.273	-0.064	0.167
-660.959	-200.000	0.022	-0.192
-659.945	215.359	-0.042	-0.068
-658.930	-101.902	0.338	0.083
-657.916	246.251	0.117	-0.200
-656.901	10.633	-0.112	0.086
-655.886	5.607	-0.144	0.108
-654.872	278.223	0.160	-0.287
-653.857	-141.252	0.198	-0.020
-652.843	-73.555	-0.426	0.157
-651.828	617.611	0.122	-0.308
-650.814	53.891	-0.124	0.120
-649.799	-53.395	0.298	0.138
-648.784	-200.000	-0.033	-0.213
-647.770	-110.090	0.077	-0.016
-646.755	-6.709	0.154	-0.106
-645.741	800.000	-0.091	-0.322
-644.726	767.103	0.204	-0.561
-643.711	-12.190	0.179	-0.119
-642.697	-200.000	-0.006	0.150
-641.682	40.680	-0.236	0.215
-640.668	110.138	-0.044	-0.053
-639.653	-200.000	-0.002	-0.012
-638.638	-35.602	0.148	0.081
-637.624	-98.903	-0.326	0.084
-636.609	205.690	0.052	0.081
-635.595	800.000	-0.081	-0.338
-634.580	13.621	-0.177	-0.139
-633.565	728.721	-0.054	0.145
-632.551	8.287	-0.083	0.063
-631.536	800.000	-0.013	-0.054
-630.522	-95.605	-0.213	-0.058
-629.507	258.749	-0.055	-0.096
-628.492	-200.000	0.019	0.133
-627.478	-200.000	0.018	0.349
-626.463	-85.193	0.149	0.047
-625.449	135.521	-0.097	-0.128
-624.434	97.300	0.086	-0.100
-623.419	38.323	0.155	0.139
-622.405	-166.706	-0.249	-0.010
-621.390	-19.278	-0.084	0.052
-620.376	7.288	-0.252	0.190
-619.361	-121.330	-0.068	-0.012
-618.346	466.141	0.120	-0.272
-617.332	321.867	0.060	0.115
-616.317	-177.570	-0.266	-0.007
-615.303	-25.075	0.382	0.228
-614.288	135.594	0.104	0.137
-613.273	-200.000	-0.018	-0.142
-612.259	0.570	-0.114	-0.083
-611.244	18.008	-0.094	-0.076
-610.230	-29.562	-0.056	-0.032
-609.215	-163.403	-0.196	0.009
-608.201	-200.000	-0.041	-0.204
-607.186	0.638	-0.090	-0.065
-606.171	214.868	-0.050	0.080
-605.157	-59.527	-0.160	0.069
-604.142	127.223	-0.181	-0.231
-603.128	277.422	-0.047	-0.084
-602.113	725.833	-0.098	-0.263
-601.098	-29.822	-0.032	0.019
-600.084	169.335	-0.117	-0.169
-599.069	-7.235	0.284	-0.194
-598.055	-123.357	0.172	0.028
-597.040	-200.000	0.034	-0.242
-596.025	-59.514	-0.402	0.174
-595.011	-25.861	0.218	0.129
-593.996	800.000	-0.010	-0.041
-592.982	-200.000	0.007	0.178
-591.967	-200.000	0.014	0.126
-590.952	-200.000	-0.014	0.323
-589.938	-200.000	0.095	0.448
-588.923	-108.890	-0.240	0.052
-587.909	-200.000	-0.036	-0.430
-586.894	-200.000	-0.019	0.262
-585.879	334.105	0.028	0.054
-584.865	10.229	-0.078	0.060
-583.850	-200.000	-0.042	-0.363
-582.836	503.662	-0.139	-0.325
-581.821	-200.000	0.002	-0.058
-580.806	708.475	0.015	-0.041
-579.792	-49.950	0.245	0.117
-578.777	-98.284	-0.165	-0.043
-577.763	800.000	0.024	-0.076
-576.748	-200.000	-0.025	-0.111
-575.733	45.437	0.030	-0.028
-574.719	233.411	0.025	0.041
-573.704	31.757	-0.108	-0.094
-572.690	25.806	0.167	0.141
-571.675	-113.108	-0.241	0.048
-570.661	-18.579	-0.086	0.054
-569.646	-200.000	0.065	0.311
-568.631	-4.974	-0.122	0.084
-567.617	122.660	0.248	0.312
-566.602	109.603	-0.073	-0.088
-565.588	91.307	0.196	0.221
-564.573	113.922	-0.229	-0.281
-563.558	320.599	-0.116	-0.221
-562.544	345.131	0.100	-0.197
-561.529	-3.963	-0.224	0.157
-560.515	-46.758	-0.056	0.028
-559.500	-83.315	-0.301	-0.097
-558.485	-25.838	0.237	-0.141
-557.471	-74.348	0.220	-0.080
-556.456	800.000	0.067	0.197
-555.442	611.949	0.070	-0.177
-554.427	-87.582	0.504	0.153
-553.412	39.137	0.166	-0.150
-552.398	93.248	0.128	-0.145
-551.383	-121.855	0.557	0.093
-550.369	-200.000	-0.018	0.152
-549.354	-126.234	-0.209	0.031
-548.339	-137.002	0.160	-0.018
-547.325	-200.000	0.020	0.125
-546.310	-200.000	-0.053	0.361
-545.296	162.912	-0.039	0.055
-544.281	357.662	0.122	0.246
-543.266	68.901	0.113	-0.116
-542.252	129.296	0.065	0.084
-541.237	-13.760	-0.506	-0.330
-540.223	265.336	-0.029	0.051
-539.208	115.904	-0.233	-0.287
-538.193	-73.778	-0.230	-0.084
-537.179	111.918	-0.254	0.309
-536.164	-100.092	-0.190	-0.048
-535.150	-67.158	0.354	-0.140
-534.135	800.000	0.066	0.244
-533.121	23.123	0.149	-0.123
-532.106	624.328	-0.059	0.150
-531.091	-200.000	0.009	-0.162
-530.077	-91.718	0.232	-0.066
-529.062	-69.474	-0.286	0.110
-528.048	-37.917	0.257	-0.137
-527.033	800.000	0.045	0.140
-526.018	203.417	0.125	0.194
-525.004	133.362	-0.048	0.062
-523.989	8.186	0.138	-0.104
-522.975	-200.000	0.036	-0.170
-521.960	-116.903	0.339	0.062
-520.945	-185.840	0.200	-0.003
-519.931	72.791	0.075	0.079
-518.916	53.832	-0.170	0.164
-517.902	-70.487	0.237	0.090
-516.887	-176.730	0.172	0.004
-515.872	-107.120	0.220	0.049
-514.858	-185.510	0.137	-0.002
-513.843	800.000	-0.108	-0.413
-512.829	-46.254	-0.249	-0.123
-511.814	24.144	0.157	-0.130
-510.799	-86.308	-0.203	0.063
-509.785	607.795	-0.087	-0.219
-508.770	-200.000	-0.021	-0.183
-507.756	800.000	0.061	-0.190
-506.741	-42.764	-0.079	-0.040
-505.726	-200.000	-0.009	-0.260
-504.712	257.149	-0.069	-0.120
-503.697	-200.000	0.041	0.344
-502.683	-80.366	-0.144	-0.048
-501.668	800.000	-0.021	-0.060
-500.653	-200.000	-0.016	-0.081
-499.639	800.000	-0.046	0.200
-498.624	-116.257	-0.307	-0.057
-497.610	101.198	0.119	0.139
-496.595	705.592	-0.037	-0.099
-495.581	-43.340	-0.144	0.073
-494.566	35.234	0.078	0.069
-493.551	-13.730	0.123	-0.080
-492.537	-170.976	-0.541	0.019
-491.522	-125.445	0.277	-0.042
-490.508	800.000	-0.065	0.255
-489.493	268.504	-0.070	-0.124
-488.478	23.093	0.042	-0.034
-487.464	260.204	0.161	0.280
-486.449	42.521	-0.194	0.178
-485.435	-200.000	0.027	0.124
-484.420	274.730	-0.042	-0.074
-483.405	-77.774	0.187	0.065
-482.391	800.000	0.044	0.162
-481.376	106.720	-0.197	0.235
-480.362	164.820	-0.154	-0.218
-479.347	-122.443	0.174	-0.028
-478.332	142.002	-0.156	-0.208
-477.318	208.213	0.104	0.164
-476.303	-152.618	-0.113	0.008
-475.289	290.667	0.096	-0.175
-474.274	-115.528	0.121	0.023
-473.259	-80.271	0.097	-0.033
-472.245	-200.000	-0.032	-0.176
-471.230	53.176	-0.197	-0.190
-470.216	54.601	-0.082	0.079
-469.201	327.734	-0.031	-0.059
-468.186	232.501	-0.072	0.119
-467.172	-81.335	0.040	0.013
-466.157	125.525	-0.183	0.231
-465.143	-60.592	-0.074	0.032
-464.128	800.000	0.036	-0.150
-463.113	800.000	0.057	0.236
-462.099	-112.645	-0.184	0.037
-461.084	-76.301	-0.059	0.021
-460.070	-29.907	0.127	-0.073
-459.055	476.286	0.127	0.287
-458.040	-147.056	-0.220	-0.019
-457.026	-200.000	0.012	0.122
-456.011	546.275	-0.039	-0.095
-454.997	-24.362	0.066	-0.039
-453.982	-200.000	0.022	-0.138
-452.968	-118.939	-0.218	0.038
-451.953	-200.000	-0.017	-0.139
-450.938	800.000	0.085	-0.304
-449.924	-14.768	-0.248	-0.160
-448.909	-104.244	-0.239	-0.056
-447.895	800.000	0.036	0.149
-446.880	-107.863	0.196	-0.043
-445.865	-180.355	-0.126	0.003
-444.851	-175.594	-0.102	-0.003
-443.836	-200.000	-0.028	0.208
-442.822	96.389	-0.134	-0.153
-441.807	-200.000	0.041	-0.388
-440.792	-117.605	0.363	0.066
-439.778	-5.009	-0.099	0.068
-438.763	-185.153	0.146	0.002
-437.749	194.172	-0.053	-0.080
-436.734	184.109	-0.404	0.600
-435.719	-10.950	0.213	0.141
-434.705	267.727	0.053	-0.093
-433.690	-23.269	0.141	0.085
-432.676	-27.315	0.150	0.087
-431.661	-200.000	0.010	-0.120
-430.646	32.740	-0.172	-0.150
-429.632	-200.000	-0.001	0.587
-428.617	-200.000	-0.000	-0.183
-427.603	45.731	0.268	-0.249
-426.588	-200.000	-0.026	0.203
-425.573	-200.000	-0.035	0.586
-424.559	-200.000	0.031	-0.222
-423.544	-200.000	-0.068	0.432
-422.530	337.291	-0.128	-0.249
-421.515	-145.021	-0.045	0.004
-420.500	-148.358	-0.091	-0.008
-419.486	-200.000	0.014	-0.157
-418.471	108.300	-0.172	-0.206
-417.457	726.397	0.108	-0.288
-416.442	320.240	-0.128	-0.243
-415.428	-200.000	0.010	0.259
-414.413	740.594	0.075	0.202
-413.398	167.766	-0.210	0.299
-412.384	-140.259	0.380	0.040
-411.369	-200.000	0.032	-0.142
-410.355	-70.187	-0.311	0.118
-409.340	-38.879	0.276	-0.146
-408.325	-154.941	-0.062	-0.004
-407.311	-50.801	-0.133	0.063
-406.296	466.989	-0.107	-0.241
-405.282	-23.108	0.017	-0.010
-404.267	-51.758	0.193	0.090
-403.252	-65.874	-0.298	-0.119
-402.238	-100.600	0.090	-0.022
-401.223	-16.013	0.193	0.123
-400.209	633.565	0.062	0.157
-399.194	364.341	-0.124	0.250
-398.179	124.124	0.077	0.097
-397.165	-140.063	0.423	-0.045
-396.150	-200.000	0.012	-0.123
-395.136	-192.638	-0.093	0.001
-394.121	480.074	-0.105	0.239
-393.106	800.000	-0.014	0.040
-392.092	276.053	-0.060	-0.106
-391.077	344.190	0.072	0.141
-390.063	66.669	-0.121	-0.123
-389.048	69.477	-0.104	0.107
-388.033	-80.690	-0.257	0.086
-387.019	-7.108	-0.255	-0.173
-386.004	191.190	0.103	-0.156
-384.990	299.817	-0.149	-0.275
-383.975	-200.000	-0.054	0.299
-382.960	-200.000	0.001	-0.179
-381.946	-11.461	0.150	0.099
-380.931	-73.743	0.339	0.123
-379.917	800.000	0.039	0.108
-378.902	-4.973	-0.103	0.071
-377.888	-89.188	-0.174	0.051
-376.873	-12.050	0.203	-0.133
-375.858	800.000	0.041	-0.133
-374.844	15.936	-0.433	-0.341
-373.829	122.784	-0.106	0.133
-372.815	-137.405	0.298	0.034
-371.800	-200.000	-0.028	0.249
-370.785	-154.226	0.326	-0.022
-369.771	240.060	0.111	-0.185
-368.756	-104.593	-0.029	0.007
-367.742	274.052	-0.080	-0.141
-366.727	800.000	-0.023	-0.079
-365.712	-115.225	-0.410	0.078
-364.698	355.965	0.135	-0.269
-363.683	420.418	0.109	-0.234
-362.669	-200.000	0.005	0.130
-361.654	4.138	-0.251	-0.183
-360.639	183.423	0.211	-0.312
-359.625	-200.000	-0.013	-0.179
-358.610	15.675	0.178	-0.140
-357.596	800.000	-0.095	-0.278
-356.581	-169.847	0.144	0.005
-355.566	22.292	-0.204	0.167
-354.552	12.362	0.072	0.055
-353.537	212.418	-0.050	0.079
-352.523	-111.392	0.076	-0.015
-351.508	-118.169	-0.088	-0.016
-350.493	81.460	0.144	-0.155
-349.479	-47.914	-0.089	-0.043
-348.464	625.738	-0.023	-0.059
-347.450	-200.000	0.039	-0.200
-346.435	-100.874	-0.151	-0.037
-345.420	-71.644	0.095	-0.035
-344.406	27.506	-0.032	0.027
-343.391	-91.365	-0.409	-0.117
-342.377	720.462	-0.099	-0.262
-341.362	36.392	-0.245	0.216
-340.348	-58.002	0.113	0.049
-339.333	-120.161	0.325	0.056
-338.318	-200.000	-0.033	0.158
-337.304	50.939	-0.200	-0.190
-336.289	800.000	-0.077	0.276
-335.275	-55.718	-0.177	0.079
-334.260	-200.000	0.029	0.139
-333.245	77.519	-0.323	-0.344
-332.231	436.740	-0.051	0.110
-331.216	-200.000	0.025	0.248
-330.202	-45.030	-0.052	-0.026
-329.187	800.000	-0.028	-0.120
-328.172	119.519	0.133	0.165
-327.158	-23.799	-0.167	0.100
-326.143	-140.609	-0.210	0.022
-325.129	-54.819	0.302	-0.136
-324.114	130.603	0.250	-0.320
-323.099	-149.847	0.147	-0.012
-322.085	-200.000	-0.010	-0.136
-321.070	236.888	-0.171	0.282
-320.056	-173.276	0.404	0.012
-319.041	-180.252	-0.442	0.009
-318.026	-111.572	-0.102	0.021
-317.012	179.150	0.067	0.098
-315.997	-200.000	0.040	-0.389
-314.983	-200.000	-0.011	-0.240
-313.968	-49.882	0.134	0.064
-312.953	-200.000	0.039	0.295
-311.939	42.824	0.060	0.054
-310.924	346.090	-0.236	-0.463
-309.910	113.061	0.187	0.227
-308.895	-200.000	0.060	0.305
-307.880	456.622	-0.088	0.196
-306.866	525.328	0.065	0.152
-305.851	-200.000	-0.006	0.377
-304.837	520.949	0.103	0.241
-303.822	-82.936	-0.124	0.040
-302.807	-126.886	-0.222	-0.033
-301.793	111.848	0.111	0.133
-300.778	168.221	-0.083	-0.117
-299.764	-200.000	-0.067	0.415
-298.749	-200.000	-0.056	0.291
-297.735	-110.096	-0.080	0.017
-296.720	-87.554	-0.334	-0.101
-295.705	61.605	0.174	-0.173
-294.691	521.115	0.067	-0.157
-293.676	-5.416	-0.023	0.016
-292.662	424.340	-0.140	0.301
-291.647	-153.379	0.202	-0.014
-290.632	184.404	0.111	-0.163
-289.618	-3.297	-0.211	0.146
-288.603	-200.000	0.007	0.285
-287.589	-200.000	-0.067	0.307
-286.574	-148.606	0.259	-0.021
-285.559	52.762	0.127	0.121
-284.545	-119.817	-0.113	-0.019
-283.530	235.075	0.139	0.229
-282.516	-146.468	0.339	0.029
-281.501	257.980	0.126	-0.217
-280.486	-132.721	0.104	0.013
-279.472	-93.044	-0.020	0.005
-278.457	335.917	0.079	0.153
-277.443	-67.780	0.080	-0.031
-276.428	234.901	-0.128	0.211
-275.413	19.743	0.190	-0.152
-274.399	-177.280	-0.111	0.003
-273.384	-200.000	0.005	0.037
-272.370	70.970	0.054	-0.055
-271.355	-46.140	0.294	0.144
-270.340	37.942	-0.338	0.299
-269.326	800.000	0.070	0.236
-268.311	-200.000	0.008	-0.074
-267.297	87.867	0.231	-0.255
-266.282	358.063	-0.040	-0.080
-265.267	313.931	-0.037	0.069
-264.253	-7.533	0.148	0.099
-263.238	-200.000	0.012	0.378
-262.224	53.106	0.136	0.129
-261.209	-200.000	-0.037	-0.296
-260.195	-28.932	-0.274	0.157
-259.180	256.385	-0.176	-0.301
-258.165	194.959	0.153	-0.231
-257.151	136.043	0.111	-0.144
-256.136	2.323	0.170	0.123
-255.122	-66.699	-0.172	-0.068
-254.107	-74.543	0.128	0.046
-253.092	51.709	-0.289	0.274
-252.078	-200.000	0.033	-0.506
-251.063	-200.000	-0.065	-0.521
-250.049	-39.573	0.169	-0.088
-249.034	-43.803	0.084	0.042
-248.019	115.202	0.042	0.051
-247.005	-90.803	-0.169	-0.049
-245.990	27.270	0.246	-0.206
-244.976	-131.577	0.028	0.004
-243.961	-200.000	-0.007	-0.127
-242.946	124.864	-0.135	0.169
-241.932	-101.040	-0.174	0.042
-240.917	-145.804	0.179	0.016
-239.903	88.467	-0.078	0.086
-238.888	-200.000	0.028	0.176
-237.873	-67.735	0.186	0.072
-236.859	800.000	-0.039	-0.114
-235.844	-79.010	0.321	0.109
-234.830	130.168	0.117	0.150
-233.815	-200.000	-0.032	-0.188
-232.800	-28.655	-0.098	0.056
-231.786	-65.882	0.155	0.062
-230.771	171.397	0.110	0.156
-229.757	-60.780	0.108	0.045
-228.742	399.461	0.018	0.037
-227.727	-200.000	0.016	-0.088
-226.713	25.195	0.221	-0.182
-225.698	258.640	0.034	0.057
-224.684	119.696	-0.224	0.276
-223.669	-166.866	0.361	0.015
-222.655	186.557	-0.101	0.150
-221.640	800.000	0.064	-0.231
-220.625	-13.137	0.053	-0.034
-219.611	-21.425	-0.301	-0.182
-218.596	69.244	0.058	-0.059
-217.582	85.500	0.146	0.159
-216.567	-121.899	0.072	0.012
-215.552	-112.129	0.298	-0.059
-214.538	-165.777	0.221	0.009
-213.523	800.000	-0.090	0.304
-212.509	-200.000	-0.006	0.165
-211.494	-37.507	0.260	0.138
-210.479	-5.894	-0.301	0.205
-209.465	55.030	-0.286	-0.274
-208.450	-109.979	0.113	0.024
-207.436	-84.390	-0.253	-0.079
-206.421	75.000	0.170	0.178
-205.406	-57.373	0.024	-0.011
-204.392	91.515	0.083	-0.092
-203.377	76.011	-0.081	-0.085
-202.363	800.000	-0.047	0.180
-201.348	-200.000	0.003	-0.087
-200.333	-200.000	-0.066	-0.298
-199.319	-9.953	-0.218	-0.144
-198.304	-200.000	-0.020	0.340
-197.290	800.000	0.025	0.096
-196.275	800.000	-0.059	-0.249
-195.260	-141.027	0.167	0.017
-194.246	-28.840	0.289	0.165
-193.231	-200.000	0.021	0.184
-192.217	26.716	-0.139	-0.115
-191.202	800.000	0.018	-0.076
-190.187	207.307	0.148	-0.229
-189.173	-87.243	0.171	0.052
-188.158	-178.234	-0.317	0.007
-187.144	-80.442	0.317	-0.105
-186.129	726.915	-0.049	0.131
-185.114	-180.583	-0.433	-0.009
-184.100	-56.102	0.230	0.102
-183.085	259.971	0.130	-0.223
-182.071	-121.867	0.329	-0.054
-181.056	800.000	0.071	0.273
-180.042	40.466	0.310	-0.277
-179.027	239.752	-0.137	-0.227
-178.012	208.544	0.136	0.210
-176.998	-138.617	-0.394	-0.043
-175.983	800.000	0.047	0.143
-174.969	-138.683	0.378	0.041
-173.954	250.030	-0.107	0.180
-172.939	84.785	-0.127	0.138
-171.925	-112.681	0.028	-0.006
-170.910	-59.581	0.284	-0.121
-169.896	674.997	0.035	0.090
-168.881	-41.374	0.208	0.106
-167.866	-119.992	-0.093	-0.016
-166.852	375.850	-0.093	-0.189
-165.837	77.881	0.022	0.023
-164.823	-200.000	0.018	0.175
-163.808	156.075	0.090	-0.123
-162.793	724.787	-0.187	-0.494
-161.779	-135.298	-0.215	-0.026
-160.764	-0.086	0.033	0.023
-159.750	-200.000	-0.069	0.339
-158.735	-80.034	-0.166	-0.055
-157.720	-200.000	0.024	0.243
-156.706	314.679	-0.263	-0.492
-155.691	-200.000	-0.097	-0.585
-154.677	-123.825	0.121	-0.019
-153.662	-143.432	0.216	-0.021
-152.647	-89.821	-0.177	0.051
-151.633	-96.380	0.209	-0.055
-150.618	-200.000	-0.030	0.199
-149.604	-149.628	0.351	0.027
-148.589	33.124	0.273	0.235
-147.574	109.022	0.081	-0.096
-146.560	3.986	0.099	-0.072
-145.545	800.000	0.049	0.152
-144.531	257.134	-0.216	0.368
-143.516	240.174	-0.154	0.254
-142.502	-135.957	-0.040	0.005
-141.487	-200.000	0.001	0.038
-140.472	-29.235	-0.238	0.135
-139.458	36.396	-0.081	-0.070
-138.443	-30.685	0.473	-0.265
-137.429	-200.000	-0.002	-0.125
-136.414	-120.060	0.077	-0.013
-135.399	800.000	-0.077	0.259
-134.385	800.000	-0.035	-0.125
-133.370	-27.234	-0.109	-0.063
-132.356	-114.330	0.412	0.079
-131.341	353.686	0.179	0.351
-130.326	188.487	0.172	-0.255
-129.312	317.125	0.205	0.384
-128.297	-43.757	-0.392	-0.196
-127.283	800.000	0.055	-0.198
-126.268	182.611	-0.120	0.175
-125.253	-46.888	0.200	0.097
-124.239	-132.996	-0.335	0.042
-123.224	-200.000	-0.013	0.071
-122.210	-69.297	-0.231	-0.088
