DTS Sentinel unit serial number:	SN413079Multiplexer serial number:	ORYXHardware model number:	OX4-SRSoftware version number:	ORYX F/W v4.00 Oryx Data Collector v3.7.2.0data status	okinstallation	princeton_trtdifferential loss correction	single-endedforward channel	channel 3reverse channel	N/Adate	2019/09/16time	23:16:35forward acquisition time	60.00reverse acquisition time	0.00gamma	496.2192k internal	0.2325k external	0.2325temperature offset calibration	0.9940default loss term (dB/km)	0.3790temperature slope calibration	1.0000multiplexer offset coefficient	1.0000multiplexer slope coefficient	1.0000fibre end	0.00T internal ref (°C)	30.06T ext. ref 1 (°C)	0.09T ext. ref 2 (°C)	23.74length (m)	temperature (°C)	Stokes	anti-Stokes-747.200	-112.730	-0.136	0.027
-746.185	-30.569	-0.019	-0.011
-745.171	578.950	-0.064	-0.159
-744.156	-17.876	-0.124	0.078
-743.142	800.000	-0.077	0.229
-742.127	-8.096	0.153	0.104
-741.112	-73.702	0.157	0.058
-740.098	-200.000	-0.023	0.269
-739.083	46.348	0.099	0.092
-738.069	89.479	0.086	0.097
-737.054	800.000	-0.096	0.352
-736.039	121.772	-0.083	0.104
-735.025	-68.314	0.206	0.081
-734.010	-100.817	0.109	0.027
-732.996	-180.553	-0.175	0.004
-731.981	800.000	-0.058	0.180
-730.966	36.410	-0.232	-0.206
-729.952	-44.072	-0.126	-0.064
-728.937	-200.000	0.002	-0.055
-727.923	800.000	-0.040	-0.161
-726.908	-126.050	-0.163	-0.025
-725.894	34.261	-0.055	-0.048
-724.879	-134.978	0.298	-0.036
-723.864	92.522	0.097	-0.111
-722.850	455.554	0.041	-0.091
-721.835	-69.414	-0.494	0.191
-720.821	800.000	0.066	-0.223
-719.806	51.448	0.078	0.075
-718.791	800.000	-0.049	0.175
-717.777	1.477	0.409	0.296
-716.762	62.563	-0.251	-0.253
-715.748	59.827	-0.109	-0.108
-714.733	-111.455	0.176	0.036
-713.718	285.774	-0.215	-0.391
-712.704	-21.381	-0.066	0.041
-711.689	-48.026	0.087	0.042
-710.675	-14.300	-0.176	-0.114
-709.660	38.675	0.200	-0.180
-708.645	-43.227	-0.292	-0.149
-707.631	-200.000	-0.024	-0.182
-706.616	302.106	-0.043	0.081
-705.602	753.992	0.091	0.247
-704.587	-200.000	-0.046	-0.231
-703.572	2.692	0.243	0.178
-702.558	-107.111	-0.182	-0.041
-701.543	-14.947	0.055	0.036
-700.529	10.901	0.126	-0.097
-699.514	559.259	0.132	0.320
-698.499	23.556	-0.138	-0.114
-697.485	-44.856	0.094	-0.047
-696.470	45.174	-0.049	-0.046
-695.456	-94.521	0.195	0.053
-694.441	517.858	0.092	0.216
-693.426	-200.000	0.042	0.332
-692.412	-162.299	0.253	0.013
-691.397	-75.962	-0.088	-0.031
-690.383	-109.130	-0.162	0.035
-689.368	708.924	0.063	0.168
-688.354	-68.359	0.084	-0.033
-687.339	142.062	-0.074	-0.098
-686.324	-117.300	-0.052	0.010
-685.310	-26.787	-0.031	0.018
-684.295	9.205	-0.148	-0.113
-683.281	159.384	0.079	0.111
-682.266	415.213	0.110	-0.235
-681.251	-200.000	0.015	-0.272
-680.237	-200.000	-0.033	0.215
-679.222	200.721	-0.280	-0.433
-678.208	-73.930	0.074	-0.027
-677.193	24.627	0.023	0.019
-676.178	800.000	0.054	-0.188
-675.164	150.650	0.123	0.168
-674.149	-200.000	-0.029	0.184
-673.135	328.727	0.181	-0.350
-672.120	-119.222	-0.116	-0.020
-671.105	-30.077	0.373	0.213
-670.091	422.230	-0.032	0.068
-669.076	-200.000	0.003	-0.161
-668.062	-200.000	0.014	-0.264
-667.047	-112.394	0.407	-0.082
-666.032	-160.968	0.257	0.014
-665.018	-24.023	0.104	0.062
-664.003	604.440	0.267	0.669
-662.989	-166.496	0.188	0.008
-661.974	-200.000	-0.008	-0.069
-660.959	-126.887	-0.025	-0.004
-659.945	454.067	0.116	0.258
-658.930	-0.225	0.155	-0.111
-657.916	800.000	-0.087	0.283
-656.901	-165.314	-0.099	-0.004
-655.886	315.422	-0.140	0.265
-654.872	-64.513	-0.047	0.019
-653.857	-0.600	-0.186	0.132
-652.843	-78.721	0.052	0.018
-651.828	-200.000	-0.083	0.383
-650.814	21.148	-0.366	0.298
-649.799	-123.454	-0.122	-0.019
-648.784	-7.959	0.177	0.120
-647.770	295.566	0.109	-0.200
-646.755	171.360	0.187	0.269
-645.741	-98.232	0.203	0.052
-644.726	-32.436	0.412	0.231
-643.711	632.673	0.062	0.157
-642.697	324.957	-0.206	-0.395
-641.682	-2.259	-0.037	-0.026
-640.668	800.000	-0.053	0.169
-639.653	-138.761	0.344	0.038
-638.638	-43.705	0.384	0.194
-637.624	225.900	0.057	0.094
-636.609	-120.661	-0.167	-0.028
-635.595	800.000	0.079	-0.258
-634.580	155.524	0.135	-0.186
-633.565	236.602	0.215	-0.357
-632.551	300.054	0.048	-0.089
-631.536	35.838	-0.006	-0.005
-630.522	97.969	-0.154	-0.177
-629.507	82.144	0.081	0.089
-628.492	-200.000	0.031	-0.163
-627.478	800.000	-0.045	-0.157
-626.463	-171.863	0.125	-0.004
-625.449	-200.000	0.014	0.106
-624.434	-200.000	-0.004	0.074
-623.419	54.378	0.227	-0.219
-622.405	29.836	0.239	0.205
-621.390	800.000	-0.064	-0.270
-620.376	7.898	-0.160	-0.120
-619.361	-200.000	0.015	0.136
-618.346	228.492	0.120	0.196
-617.332	-67.847	-0.038	0.015
-616.317	-62.992	0.203	-0.084
-615.303	-45.626	-0.279	0.139
-614.288	640.832	-0.012	0.031
-613.273	-200.000	-0.004	0.115
-612.259	63.241	0.169	-0.170
-611.244	579.179	0.077	0.189
-610.230	-200.000	-0.023	0.278
-609.215	341.360	0.164	0.322
-608.201	-21.515	0.052	-0.032
-607.186	720.438	0.020	0.052
-606.171	800.000	-0.038	0.147
-605.157	800.000	0.082	0.252
-604.142	183.993	-0.105	0.155
-603.128	-96.170	-0.358	0.095
-602.113	-103.254	0.134	0.032
-601.098	-32.234	-0.257	-0.144
-600.084	-49.773	0.276	-0.131
-599.069	-9.374	-0.092	0.061
-598.055	-171.809	-0.378	-0.012
-597.040	299.836	-0.078	0.145
-596.025	216.214	-0.063	0.100
-595.011	-165.563	0.307	-0.013
-593.996	459.358	0.107	0.238
-592.982	130.465	-0.135	0.174
-591.967	267.969	-0.227	0.398
-590.952	271.567	0.177	0.313
-589.938	800.000	-0.096	-0.350
-588.923	-94.090	-0.262	-0.072
-587.909	171.356	0.110	0.158
-586.894	-200.000	0.002	0.059
-585.879	800.000	-0.037	0.160
-584.865	59.351	0.197	0.194
-583.850	629.983	-0.116	-0.295
-582.836	-18.426	-0.290	-0.182
-581.821	366.109	-0.153	-0.309
-580.806	44.046	-0.097	-0.089
-579.792	277.900	0.154	-0.275
-578.777	800.000	-0.010	-0.042
-577.763	-20.759	-0.157	-0.097
-576.748	800.000	-0.080	0.270
-575.733	-47.554	0.211	-0.103
-574.719	-200.000	0.032	0.348
-573.704	181.604	0.179	-0.263
-572.690	-55.807	-0.426	-0.191
-571.675	-123.023	-0.161	0.026
-570.661	800.000	-0.065	-0.223
-569.646	17.101	-0.161	-0.128
-568.631	-87.071	0.308	-0.094
-567.617	-200.000	-0.012	0.470
-566.602	43.421	0.146	-0.134
-565.588	-18.888	-0.218	-0.136
-564.573	130.009	-0.074	0.095
-563.558	-66.406	0.366	0.146
-562.544	-47.031	-0.179	-0.087
-561.529	-141.649	0.230	0.023
-560.515	-200.000	0.018	-0.113
-559.500	6.243	0.121	0.090
-558.485	79.677	-0.168	0.180
-557.471	-110.315	0.131	0.027
-556.456	481.866	0.043	-0.097
-555.442	655.622	0.073	-0.188
-554.427	87.282	-0.064	-0.071
-553.412	-101.207	0.340	-0.083
-552.398	-57.689	-0.110	0.048
-551.383	71.780	-0.105	0.109
-550.369	-50.700	-0.193	0.091
-549.354	53.896	0.107	0.103
-548.339	-123.790	0.160	0.025
-547.325	52.665	0.237	0.227
-546.310	-72.776	0.048	-0.018
-545.296	433.985	-0.127	-0.277
-544.281	-200.000	0.005	0.148
-543.266	335.629	-0.083	-0.162
-542.252	-156.057	-0.217	0.014
-541.237	-200.000	0.022	0.324
-540.223	-86.218	0.104	-0.032
-539.208	205.260	-0.088	0.137
-538.193	-140.987	-0.319	0.033
-537.179	-80.179	0.143	-0.048
-536.164	153.606	0.308	0.422
-535.150	-120.464	-0.256	0.044
-534.135	-200.000	-0.017	0.195
-533.121	800.000	-0.076	-0.212
-532.106	-88.474	0.167	-0.050
-531.091	-54.272	-0.118	-0.054
-530.077	800.000	-0.044	0.184
-529.062	48.816	0.109	-0.102
-528.048	12.892	0.070	0.054
-527.033	-200.000	-0.019	-0.087
-526.018	-200.000	0.031	0.288
-525.004	-101.652	-0.193	-0.047
-523.989	-19.952	0.178	-0.110
-522.975	-9.623	-0.203	0.136
-521.960	-112.272	0.280	0.056
-520.945	185.899	-0.386	-0.574
-519.931	-200.000	-0.017	0.213
-518.916	-76.997	0.310	-0.108
-517.902	688.673	0.057	0.148
-516.887	-130.961	-0.265	-0.035
-515.872	-147.612	-0.188	-0.016
-514.858	45.372	0.081	-0.074
-513.843	244.255	-0.048	-0.080
-512.829	31.284	-0.194	-0.167
-511.814	-178.101	-0.341	-0.008
-510.799	-23.692	0.399	0.239
-509.785	390.405	0.165	-0.342
-508.770	28.327	-0.276	-0.233
-507.756	-200.000	0.067	-0.341
-506.741	-33.201	-0.199	0.110
-505.726	-200.000	-0.046	0.310
-504.712	800.000	0.049	0.171
-503.697	89.273	-0.217	0.241
-502.683	566.474	-0.104	-0.253
-501.668	-37.686	-0.204	-0.108
-500.653	139.012	-0.144	0.189
-499.639	-200.000	-0.026	0.333
-498.624	-13.902	-0.169	0.109
-497.610	-166.542	0.240	-0.010
-496.595	11.258	-0.071	0.054
-495.581	-200.000	-0.013	-0.060
-494.566	-27.518	0.103	-0.060
-493.551	-105.231	0.208	-0.048
-492.537	-169.015	-0.245	-0.009
-491.522	184.171	-0.092	-0.136
-490.508	-116.793	0.202	-0.037
-489.493	-200.000	-0.025	0.235
-488.478	14.093	-0.171	0.133
-487.464	404.898	0.176	-0.371
-486.449	114.916	-0.257	0.314
-485.435	-67.363	-0.089	-0.035
-484.420	-200.000	-0.050	-0.379
-483.405	-67.585	-0.036	-0.014
-482.391	800.000	-0.081	0.286
-481.376	69.152	-0.234	-0.240
-480.362	-62.566	-0.084	-0.035
-479.347	-200.000	0.047	0.313
-478.332	-200.000	0.019	-0.267
-477.318	-72.537	-0.592	-0.218
-476.303	-200.000	-0.025	-0.145
-475.289	800.000	-0.010	0.039
-474.274	308.265	-0.030	0.055
-473.259	-93.161	0.208	0.058
-472.245	163.850	0.165	0.231
-471.230	-63.062	-0.154	0.063
-470.216	-52.414	0.296	0.137
-469.201	-200.000	0.024	0.170
-468.186	-108.658	0.228	-0.049
-467.172	-200.000	0.017	-0.089
-466.157	37.252	0.132	0.117
-465.143	-12.482	-0.135	0.088
-464.128	105.185	0.106	0.124
-463.113	139.411	0.092	0.121
-462.099	-97.599	-0.105	-0.027
-461.084	-200.000	-0.012	-0.204
-460.070	-51.401	0.240	-0.112
-459.055	271.617	-0.085	-0.150
-458.040	680.913	-0.093	-0.241
-457.026	-200.000	0.032	-0.323
-456.011	-60.240	-0.218	0.093
-454.997	116.304	-0.069	-0.085
-453.982	-200.000	0.028	0.176
-452.968	1.374	-0.264	0.189
-451.953	-62.998	-0.101	-0.042
-450.938	-108.901	0.092	-0.020
-449.924	618.768	-0.172	-0.431
-448.909	17.905	0.126	-0.100
-447.895	590.164	-0.069	0.170
-446.880	-200.000	-0.008	0.110
-445.865	276.569	-0.074	0.130
-444.851	-156.736	-0.097	-0.006
-443.836	28.122	-0.085	-0.071
-442.822	800.000	-0.049	-0.198
-441.807	445.351	-0.080	-0.176
-440.792	71.602	0.215	-0.222
-439.778	-200.000	0.032	0.175
-438.763	-124.149	-0.160	0.025
-437.749	-106.669	-0.131	-0.029
-436.734	800.000	0.035	0.138
-435.719	-41.846	0.176	-0.090
-434.705	322.691	0.137	-0.260
-433.690	230.230	-0.121	-0.198
-432.676	448.230	-0.076	0.167
-431.661	-200.000	-0.005	0.049
-430.646	-154.031	-0.283	-0.019
-429.632	-62.828	0.106	-0.044
-428.617	-37.266	-0.253	-0.135
-427.603	27.865	-0.309	0.260
-426.588	451.502	-0.084	-0.185
-425.573	373.316	-0.127	0.258
-424.559	154.874	0.197	-0.270
-423.544	-130.353	-0.391	0.053
-422.530	-200.000	-0.031	0.452
-421.515	137.519	-0.115	0.150
-420.500	800.000	0.047	0.188
-419.486	166.292	-0.097	0.137
-418.471	20.833	0.145	0.117
-417.457	137.775	0.077	0.101
-416.442	10.853	-0.228	-0.174
-415.428	93.135	0.250	0.282
-414.413	-119.928	0.184	0.032
-413.398	-200.000	-0.062	0.396
-412.384	-200.000	-0.114	-0.499
-411.369	431.729	-0.075	-0.162
-410.355	40.496	-0.033	-0.029
-409.340	482.647	0.084	-0.189
-408.325	539.644	-0.178	-0.422
-407.311	465.439	-0.128	-0.285
-406.296	47.074	-0.068	-0.063
-405.282	-200.000	0.026	0.148
-404.267	800.000	-0.072	-0.279
-403.252	-87.021	0.418	-0.127
-402.238	-35.433	0.180	0.097
-401.223	-100.552	-0.255	0.063
-400.209	-18.704	0.226	0.140
-399.194	-189.207	0.272	-0.003
-398.179	-135.818	-0.238	0.028
-397.165	-41.427	0.213	-0.109
-396.150	56.821	-0.251	-0.243
-395.136	-136.456	0.355	-0.041
-394.121	-48.386	-0.142	-0.068
-393.106	-26.959	0.108	-0.063
-392.092	800.000	0.064	0.227
-391.077	-63.800	-0.200	-0.082
-390.063	800.000	-0.089	0.287
-389.048	-161.344	0.139	0.007
-388.033	-155.367	0.176	-0.011
-387.019	-162.182	0.079	-0.004
-386.004	55.199	-0.088	0.085
-384.990	800.000	-0.044	-0.146
-383.975	368.942	0.117	-0.236
-382.960	-14.200	-0.399	-0.256
-381.946	-9.399	-0.122	-0.081
-380.931	411.676	-0.057	0.120
-379.917	800.000	-0.045	0.128
-378.902	-200.000	0.059	-0.536
-377.888	-200.000	-0.070	-0.456
-376.873	14.018	-0.237	-0.184
-375.858	-82.718	-0.175	-0.056
-374.844	14.728	0.131	-0.102
-373.829	738.957	0.144	0.384
-372.815	-25.980	-0.173	0.101
-371.800	28.743	0.287	-0.241
-370.785	0.569	0.159	-0.113
-369.771	-21.818	0.184	0.111
-368.756	5.092	0.348	0.255
-367.742	-200.000	0.044	0.473
-366.727	-118.618	0.324	-0.057
-365.712	800.000	-0.046	-0.173
-364.698	41.284	-0.274	0.246
-363.683	65.786	0.036	0.036
-362.669	16.674	0.071	-0.056
-361.654	-159.091	-0.099	0.006
-360.639	800.000	0.049	0.137
-359.625	-200.000	0.020	-0.130
-358.610	-122.606	-0.105	0.017
-357.596	800.000	0.082	0.319
-356.581	-49.988	-0.117	0.055
-355.566	130.750	0.043	0.055
-354.552	-200.000	-0.010	0.097
-353.537	800.000	-0.013	0.041
-352.523	12.375	0.293	0.224
-351.508	-128.929	0.189	0.026
-350.493	-200.000	0.006	-0.205
-349.479	800.000	-0.041	0.118
-348.464	69.267	-0.183	0.187
-347.450	60.024	0.203	0.200
-346.435	309.893	0.199	-0.369
-345.420	3.683	-0.114	-0.082
-344.406	207.285	-0.140	-0.217
-343.391	-34.180	0.049	-0.027
-342.377	-102.616	-0.103	-0.024
-341.362	-103.512	-0.499	0.116
-340.348	-93.668	-0.320	0.088
-339.333	-87.868	-0.058	0.017
-338.318	-134.088	-0.402	0.049
-337.304	-200.000	-0.064	0.374
-336.289	-200.000	0.044	-0.383
-335.275	51.580	0.127	0.120
-334.260	-200.000	0.010	-0.293
-333.245	-200.000	0.103	-0.540
-332.231	-153.937	-0.282	-0.019
-331.216	-42.455	-0.081	0.041
-330.202	800.000	0.012	-0.052
-329.187	49.992	0.106	0.099
-328.172	132.286	0.066	0.085
-327.158	-55.143	-0.253	0.113
-326.143	26.472	0.198	-0.165
-325.129	-86.418	-0.153	-0.047
-324.114	428.835	-0.076	-0.163
-323.099	269.809	0.121	0.212
-322.085	-34.276	-0.106	-0.058
-321.070	-13.738	0.243	-0.156
-320.056	-38.352	-0.127	0.067
-319.041	-96.321	-0.316	0.083
-318.026	27.884	0.110	-0.092
-317.012	-74.937	0.071	0.025
-315.997	771.889	-0.069	-0.187
-314.983	-151.505	0.029	0.002
-313.968	-133.510	-0.071	-0.009
-312.953	316.360	-0.094	-0.176
-311.939	73.353	0.061	0.063
-310.924	175.829	0.121	0.174
-309.910	-6.364	0.221	-0.150
-308.895	7.123	0.393	-0.290
-307.880	95.186	-0.311	-0.351
-306.866	-19.754	-0.169	-0.104
-305.851	-55.094	0.165	-0.074
-304.837	-38.297	0.021	-0.011
-303.822	-118.971	0.108	0.019
-302.807	216.587	-0.078	-0.122
-301.793	218.424	0.030	0.047
-300.778	343.480	-0.076	0.147
-299.764	-55.733	0.266	0.118
-298.749	26.403	-0.223	-0.185
-297.735	184.232	0.106	-0.156
-296.720	144.413	0.130	0.173
-295.705	142.336	-0.131	0.172
-294.691	-22.936	-0.159	-0.095
-293.676	-89.570	-0.147	-0.043
-292.662	-60.325	-0.075	-0.032
-291.647	-28.171	-0.182	0.104
-290.632	-200.000	-0.006	-0.132
-289.618	326.624	-0.077	0.145
-288.603	-200.000	0.031	-0.316
-287.589	96.158	-0.208	0.235
-286.574	-200.000	-0.038	0.169
-285.559	500.618	-0.255	0.584
-284.545	21.337	-0.178	-0.143
-283.530	-36.492	-0.377	-0.201
-282.516	-76.327	0.189	-0.066
-281.501	-92.924	0.273	-0.075
-280.486	-37.742	-0.218	0.115
-279.472	-10.043	-0.438	-0.289
-278.457	-35.504	-0.070	-0.037
-277.443	216.758	0.012	0.019
-276.428	776.359	-0.159	-0.429
-275.413	694.096	0.125	-0.324
-274.399	800.000	-0.038	-0.120
-273.384	-100.105	0.092	0.023
-272.370	214.109	0.053	-0.084
-271.355	-200.000	0.028	0.392
-270.340	-93.312	0.112	-0.031
-269.326	-77.401	-0.069	0.024
-268.311	-38.860	0.062	-0.032
-267.297	-63.757	0.210	0.085
-266.282	800.000	-0.045	0.172
-265.267	-145.519	-0.443	-0.039
-264.253	-37.004	0.226	0.120
-263.238	-27.944	-0.099	0.057
-262.224	-200.000	0.031	-0.190
-261.209	-121.982	0.093	0.015
-260.195	-57.647	0.122	-0.053
-259.180	297.598	-0.186	0.337
-258.165	337.293	0.066	0.127
-257.151	-200.000	0.012	0.299
-256.136	-57.594	0.226	0.098
-255.122	439.906	-0.054	0.116
-254.107	-104.524	-0.194	-0.044
-253.092	110.195	0.109	0.130
-252.078	-87.563	0.068	0.020
-251.063	64.589	0.090	0.090
-250.049	86.157	-0.121	0.132
-249.034	-180.917	0.225	0.005
-248.019	-161.388	0.274	-0.014
-247.005	7.874	0.247	-0.183
-245.990	271.655	0.088	0.154
-244.976	87.291	0.325	0.356
-243.961	800.000	-0.033	0.110
-242.946	-198.444	0.332	-0.002
-241.932	-72.892	0.008	-0.003
-240.917	633.432	0.077	-0.193
-239.903	109.917	0.083	-0.099
-238.888	-151.068	-0.569	-0.042
-237.873	-200.000	0.062	-0.272
-236.859	78.778	-0.095	-0.101
-235.844	-139.379	-0.090	-0.010
-234.830	-200.000	0.039	0.313
-233.815	800.000	-0.025	-0.081
-232.800	-70.401	0.197	0.074
-231.786	317.865	-0.101	0.190
-230.771	363.306	-0.094	0.186
-229.757	79.001	0.070	-0.074
-228.742	-37.713	0.271	0.143
-227.727	-69.584	0.085	0.032
-226.713	800.000	0.131	0.386
-225.698	-38.047	0.156	-0.082
-224.684	-200.000	-0.025	0.201
-223.669	-50.756	0.310	0.144
-222.655	-97.748	0.201	0.051
-221.640	9.671	0.156	0.117
-220.625	4.917	0.127	-0.092
-219.611	-145.645	-0.323	0.029
-218.596	-2.716	0.160	0.110
-217.582	-200.000	0.006	-0.120
-216.567	80.802	0.304	-0.324
-215.552	-133.869	0.459	-0.056
-214.538	479.516	-0.026	-0.058
-213.523	-191.824	0.206	-0.002
-212.509	-81.832	-0.140	-0.045
-211.494	52.701	-0.066	-0.062
-210.479	-200.000	0.008	0.115
-209.465	202.060	-0.060	-0.091
-208.450	-200.000	0.020	0.126
-207.436	-116.346	-0.315	0.058
-206.421	-65.477	0.405	0.161
-205.406	-150.861	0.364	0.027
-204.392	86.123	0.164	-0.178
-203.377	99.368	0.091	0.104
-202.363	-200.000	-0.020	0.332
-201.348	-130.283	0.327	0.044
-200.333	-9.061	0.048	-0.032
-199.319	-108.948	0.077	0.016
-198.304	100.868	-0.184	0.211
-197.290	2.327	-0.234	-0.167
-196.275	-200.000	-0.036	-0.275
-195.260	234.945	0.074	0.121
-194.246	397.678	-0.116	-0.240
-193.231	800.000	-0.078	-0.219
-192.217	0.399	0.240	-0.170
-191.202	187.200	0.244	-0.359
-190.187	76.905	0.094	0.099
-189.173	50.834	0.088	-0.082
-188.158	-200.000	-0.044	-0.298
-187.144	48.222	-0.137	0.127
-186.129	111.760	0.179	0.213
-185.114	-28.804	0.349	0.198
-184.100	172.126	-0.138	0.195
-183.085	0.702	-0.371	0.262
-182.071	-62.011	-0.287	-0.118
-181.056	251.279	-0.102	-0.171
-180.042	-31.685	0.142	0.079
-179.027	-13.210	0.102	0.065
-178.012	403.562	-0.082	0.171
-176.998	296.458	0.122	-0.221
-175.983	800.000	-0.100	-0.372
-174.969	-27.912	-0.243	0.139
-173.954	10.449	0.161	-0.121
-172.939	-117.953	0.062	-0.011
-171.925	-200.000	0.005	-0.037
-170.910	-106.161	0.610	-0.135
-169.896	163.146	0.114	0.157
-168.881	86.239	-0.153	0.166
-167.866	-72.798	0.297	0.108
-166.852	49.486	-0.159	-0.148
-165.837	-101.682	-0.110	0.026
-164.823	95.672	-0.136	0.153
-163.808	800.000	0.109	-0.309
-162.793	-71.350	0.372	-0.137
-161.779	-200.000	-0.052	-0.296
-160.764	-132.708	-0.382	0.048
-159.750	211.630	0.054	-0.084
-158.735	135.312	0.156	0.200
-157.720	-178.896	-0.509	-0.011
-156.706	800.000	0.047	0.136
-155.691	-46.275	0.186	0.090
-154.677	800.000	0.057	0.169
-153.662	-125.281	-0.166	0.025
-152.647	-200.000	0.022	-0.333
-151.633	-71.980	-0.163	0.060
-150.618	-200.000	0.052	-0.307
-149.604	-100.269	0.145	0.035
-148.589	-32.844	-0.096	-0.052
-147.574	195.417	0.227	-0.340
-146.560	144.069	-0.190	0.249
-145.545	-200.000	0.031	-0.266
-144.531	34.229	0.183	-0.157
-143.516	-62.412	-0.375	0.154
-142.502	-200.000	-0.286	0.001
-141.487	-200.000	0.075	0.459
-140.472	-91.107	-0.228	0.065
-139.458	308.771	0.138	-0.254
-138.443	-56.617	-0.132	-0.058
-137.429	800.000	0.027	-0.088
-136.414	-34.960	-0.339	-0.182
-135.399	276.735	0.241	-0.422
-134.385	349.927	0.075	-0.146
-133.370	-143.604	0.207	-0.019
-132.356	-200.000	0.024	-0.189
-131.341	24.246	-0.131	0.107
-130.326	87.195	-0.100	0.109
-129.312	218.631	-0.033	0.052
-128.297	800.000	0.122	-0.473
-127.283	-75.377	0.084	-0.030
-126.268	-5.645	-0.250	-0.169
-125.253	-5.237	-0.212	0.144
-124.239	-200.000	0.039	-0.233
-123.224	580.858	-0.182	-0.438
-122.210	48.144	-0.125	0.115
-121.195	-77.293	0.219	0.075
-120.180	6.704	-0.244	-0.179
