DTS Sentinel unit serial number:	SN413079Multiplexer serial number:	ORYXHardware model number:	OX4-SRSoftware version number:	ORYX F/W v4.00 Oryx Data Collector v3.7.2.0data status	okinstallation	princeton_trtdifferential loss correction	single-endedforward channel	channel 3reverse channel	N/Adate	2019/09/18time	10:48:35forward acquisition time	60.00reverse acquisition time	0.00gamma	496.2192k internal	0.2328k external	0.2328temperature offset calibration	0.9953default loss term (dB/km)	0.3790temperature slope calibration	1.0000multiplexer offset coefficient	1.0000multiplexer slope coefficient	1.0000fibre end	0.00T internal ref (°C)	28.94T ext. ref 1 (°C)	0.37T ext. ref 2 (°C)	25.40length (m)	temperature (°C)	Stokes	anti-Stokes-747.200	800.000	-0.072	0.263
-746.185	-127.813	0.064	0.009
-745.171	364.831	-0.080	-0.163
-744.156	37.095	-0.238	0.213
-743.142	-200.000	-0.066	0.471
-742.127	-200.000	-0.008	0.181
-741.112	-97.834	0.310	0.081
-740.098	420.478	0.125	0.271
-739.083	176.073	-0.043	-0.063
-738.069	311.761	-0.082	-0.155
-737.054	745.684	-0.143	-0.389
-736.039	-3.988	-0.187	-0.131
-735.025	-200.000	-0.001	0.238
-734.010	-45.871	-0.208	0.104
-732.996	-68.774	-0.305	-0.119
-731.981	-125.596	0.060	0.009
-730.966	800.000	0.109	0.433
-729.952	148.961	-0.141	-0.192
-728.937	70.621	-0.228	-0.238
-727.923	81.841	-0.197	-0.215
-726.908	-57.003	-0.126	-0.056
-725.894	2.290	-0.426	-0.310
-724.879	-141.265	0.353	0.036
-723.864	800.000	0.040	0.142
-722.850	237.533	0.074	-0.124
-721.835	-125.187	-0.088	-0.014
-720.821	276.017	-0.162	0.290
-719.806	98.944	0.169	-0.196
-718.791	-200.000	-0.008	0.167
-717.777	-200.000	-0.017	-0.206
-716.762	213.621	-0.272	-0.433
-715.748	-161.123	0.183	-0.010
-714.733	-85.133	-0.053	-0.017
-713.718	-129.623	-0.393	0.055
-712.704	-19.514	-0.212	-0.132
-711.689	-85.000	0.345	0.109
-710.675	-200.000	0.010	-0.074
-709.660	-94.062	-0.139	0.038
-708.645	159.102	0.087	-0.122
-707.631	-200.000	-0.011	0.136
-706.616	-200.000	-0.033	-0.333
-705.602	-78.980	-0.194	-0.066
-704.587	59.071	0.057	0.057
-703.572	265.017	0.127	0.223
-702.558	-16.483	-0.106	0.068
-701.543	-38.196	0.191	0.102
-700.529	-33.224	0.243	-0.135
-699.514	82.846	-0.219	-0.240
-698.499	-26.586	-0.198	-0.116
-697.485	-11.129	-0.256	0.170
-696.470	462.130	0.055	0.123
-695.456	-131.798	-0.413	0.054
-694.441	-149.315	0.177	-0.014
-693.426	-200.000	0.010	0.169
-692.412	36.690	0.090	0.080
-691.397	297.554	-0.141	-0.260
-690.383	-122.135	0.461	-0.076
-689.368	-200.000	0.082	-0.404
-688.354	-200.000	-0.037	-0.214
-687.339	-200.000	-0.001	-0.056
-686.324	-130.914	-0.038	-0.005
-685.310	800.000	0.082	0.275
-684.295	-80.425	0.166	-0.056
-683.281	-39.928	0.121	0.063
-682.266	119.288	0.121	-0.151
-681.251	800.000	-0.019	-0.067
-680.237	-105.036	-0.099	-0.023
-679.222	-126.671	-0.261	0.039
-678.208	-52.174	-0.326	0.152
-677.193	107.750	0.082	0.099
-676.178	-200.000	0.035	0.415
-675.164	-200.000	-0.025	0.227
-674.149	-200.000	-0.037	-0.247
-673.135	20.124	0.211	0.171
-672.120	-151.714	0.310	-0.023
-671.105	800.000	0.043	-0.120
-670.091	-89.955	-0.217	0.064
-669.076	-71.782	-0.106	-0.040
-668.062	490.818	-0.123	0.282
-667.047	122.048	0.282	0.354
-666.032	-200.000	0.007	-0.217
-665.018	-58.965	0.273	-0.119
-664.003	-14.535	-0.263	-0.170
-662.989	-25.145	-0.170	0.101
-661.974	121.894	0.124	0.155
-660.959	35.917	-0.183	-0.162
-659.945	339.596	0.043	-0.084
-658.930	-44.173	-0.178	0.090
-657.916	-93.636	0.022	-0.006
-656.901	-118.572	-0.273	0.049
-655.886	-176.920	-0.252	0.006
-654.872	53.450	-0.332	-0.320
-653.857	133.338	-0.320	0.416
-652.843	800.000	-0.092	-0.333
-651.828	800.000	0.062	-0.266
-650.814	55.584	0.112	0.109
-649.799	800.000	0.109	0.432
-648.784	117.700	-0.155	-0.192
-647.770	240.273	-0.071	-0.119
-646.755	72.619	0.282	-0.296
-645.741	-76.801	0.270	-0.095
-644.726	342.749	0.074	0.146
-643.711	33.191	-0.102	0.089
-642.697	251.533	0.134	0.230
-641.682	-200.000	-0.022	-0.258
-640.668	190.162	-0.174	-0.263
-639.653	-166.594	-0.166	-0.007
-638.638	-62.636	-0.210	0.087
-637.624	-63.553	-0.220	-0.091
-636.609	61.025	-0.209	0.209
-635.595	-200.000	-0.022	0.311
-634.580	-15.721	-0.287	0.184
-633.565	-20.287	-0.127	0.078
-632.551	800.000	0.011	0.034
-631.536	-18.238	-0.122	0.076
-630.522	800.000	0.070	-0.217
-629.507	-200.000	-0.060	-0.278
-628.492	-200.000	-0.015	-0.128
-627.478	-200.000	0.006	-0.112
-626.463	800.000	-0.023	-0.079
-625.449	-67.304	-0.320	0.126
-624.434	96.155	-0.071	0.082
-623.419	-200.000	-0.010	0.058
-622.405	-47.473	-0.158	0.077
-621.390	-164.250	0.158	0.007
-620.376	-200.000	0.015	-0.216
-619.361	-8.244	-0.170	-0.115
-618.346	560.877	-0.103	-0.250
-617.332	-41.677	0.338	-0.174
-616.317	65.259	0.004	0.004
-615.303	44.713	0.283	-0.261
-614.288	-9.731	-0.052	0.034
-613.273	-105.693	0.216	-0.049
-612.259	-102.982	0.398	-0.095
-611.244	800.000	-0.078	-0.266
-610.230	-101.478	-0.083	0.020
-609.215	-65.974	-0.345	0.138
-608.201	-46.201	0.277	-0.137
-607.186	-101.912	0.184	-0.044
-606.171	106.690	0.020	-0.024
-605.157	-200.000	-0.006	-0.129
-604.142	-88.131	-0.165	0.050
-603.128	-142.826	-0.295	-0.029
-602.113	-108.018	-0.031	-0.007
-601.098	-200.000	-0.014	-0.109
-600.084	-113.742	0.201	-0.039
-599.069	192.692	0.109	-0.166
-598.055	-32.807	0.081	-0.045
-597.040	-132.289	-0.152	-0.020
-596.025	133.926	0.116	0.150
-595.011	665.417	-0.120	0.310
-593.996	-13.127	-0.214	-0.139
-592.982	-117.371	0.320	-0.058
-591.967	329.804	0.056	-0.108
-590.952	296.461	-0.138	0.253
-589.938	-200.000	-0.005	-0.029
-588.923	487.849	-0.136	0.312
-587.909	-153.551	-0.167	0.012
-586.894	-8.167	0.083	0.056
-585.879	800.000	0.030	0.086
-584.865	316.575	-0.112	-0.211
-583.850	-132.003	-0.202	0.026
-582.836	-11.064	-0.200	0.132
-581.821	-89.567	-0.138	-0.040
-580.806	-129.499	-0.388	-0.054
-579.792	46.246	-0.174	0.161
-578.777	218.396	0.144	-0.230
-577.763	-200.000	-0.032	-0.159
-576.748	-124.811	-0.349	0.054
-575.733	41.112	0.094	0.085
-574.719	286.162	0.266	-0.480
-573.704	-54.888	0.150	0.068
-572.690	203.620	0.111	0.171
-571.675	521.366	-0.086	-0.203
-570.661	-71.454	-0.247	-0.093
-569.646	-2.401	-0.200	0.140
-568.631	4.826	-0.189	0.139
-567.617	103.463	0.010	-0.012
-566.602	-2.923	-0.135	-0.094
-565.588	-34.613	-0.034	-0.018
-564.573	47.675	0.179	0.167
-563.558	-69.165	-0.448	0.173
-562.544	-200.000	-0.060	-0.283
-561.529	-36.589	-0.240	-0.129
-560.515	391.316	0.105	0.219
-559.500	-10.784	-0.227	0.150
-558.485	-98.146	0.139	-0.036
-557.471	-49.785	-0.249	-0.118
-556.456	-77.232	-0.138	-0.048
-555.442	526.421	0.034	-0.081
-554.427	643.971	-0.105	-0.267
-553.412	-82.559	-0.091	-0.030
-552.398	-200.000	0.033	-0.180
-551.383	61.013	0.262	0.260
-550.369	-200.000	0.011	-0.047
-549.354	-200.000	-0.009	0.190
-548.339	800.000	0.078	0.250
-547.325	180.011	-0.256	0.375
-546.310	800.000	-0.066	0.266
-545.296	446.107	-0.065	-0.142
-544.281	-15.963	-0.228	-0.145
-543.266	-132.758	-0.226	-0.029
-542.252	66.759	-0.168	0.171
-541.237	4.224	-0.155	0.113
-540.223	-59.405	0.386	-0.166
-539.208	-62.742	-0.141	0.059
-538.193	156.800	0.077	-0.106
-537.179	-158.172	0.261	0.015
-536.164	294.957	-0.083	-0.151
-535.150	-87.408	0.381	0.115
-534.135	-37.677	0.235	-0.125
-533.121	-13.932	0.103	-0.066
-532.106	800.000	0.042	-0.121
-531.091	-77.919	-0.188	0.065
-530.077	24.414	0.260	0.215
-529.062	-200.000	-0.027	0.363
-528.048	-24.113	0.144	0.086
-527.033	-177.035	-0.065	0.002
-526.018	436.531	0.057	0.123
-525.004	-200.000	-0.029	-0.232
-523.989	360.246	0.152	0.304
-522.975	99.684	0.282	0.326
-521.960	113.252	-0.069	0.083
-520.945	-38.641	0.119	0.063
-519.931	-178.069	-0.149	-0.004
-518.916	-89.389	-0.251	0.074
-517.902	477.361	-0.085	-0.193
-516.887	722.899	0.089	-0.235
-515.872	-200.000	-0.041	0.220
-514.858	-133.678	0.130	-0.016
-513.843	200.820	0.146	0.224
-512.829	-123.893	0.264	-0.042
-511.814	-120.287	0.140	0.024
-510.799	-105.359	0.357	-0.081
-509.785	747.552	-0.028	-0.075
-508.770	-174.448	0.217	0.006
-507.756	800.000	0.060	0.200
-506.741	260.450	0.144	0.249
-505.726	-75.866	-0.289	0.102
-504.712	-200.000	0.077	0.362
-503.697	-200.000	0.053	0.320
-502.683	-9.163	0.074	-0.050
-501.668	-124.792	0.163	-0.025
-500.653	-57.054	0.011	-0.005
-499.639	85.551	-0.029	-0.032
-498.624	-200.000	-0.004	-0.310
-497.610	220.819	0.071	0.114
-496.595	-43.881	-0.054	-0.027
-495.581	-200.000	-0.057	0.336
-494.566	246.033	-0.007	-0.012
-493.551	800.000	0.147	0.473
-492.537	-200.000	0.015	0.272
-491.522	41.321	-0.379	-0.343
-490.508	-200.000	0.041	-0.362
-489.493	-38.704	-0.062	0.033
-488.478	154.748	0.113	-0.155
-487.464	16.249	-0.099	-0.078
-486.449	34.703	0.154	0.134
-485.435	-200.000	0.012	0.148
-484.420	135.801	-0.122	0.159
-483.405	-77.445	0.227	0.078
-482.391	-200.000	0.005	0.041
-481.376	-200.000	-0.035	0.167
-480.362	72.953	0.117	0.122
-479.347	-30.914	-0.057	0.032
-478.332	400.442	-0.176	-0.368
-477.318	-42.234	-0.458	-0.234
-476.303	-11.681	0.070	-0.046
-475.289	13.089	-0.152	0.118
-474.274	-114.554	-0.321	-0.061
-473.259	-2.520	-0.372	-0.260
-472.245	31.084	0.110	0.094
-471.230	40.530	-0.227	0.204
-470.216	-115.226	0.136	-0.026
-469.201	178.732	0.167	0.243
-468.186	-82.169	-0.121	0.039
-467.172	156.033	-0.158	0.217
-466.157	-200.000	-0.049	-0.341
-465.143	25.819	0.151	-0.125
-464.128	-200.000	-0.042	-0.225
-463.113	800.000	-0.014	-0.053
-462.099	-200.000	0.002	-0.038
-461.084	-138.376	0.303	-0.033
-460.070	-121.428	-0.234	0.039
-459.055	289.206	-0.086	0.156
-458.040	-200.000	0.058	0.379
-457.026	31.242	0.196	-0.168
-456.011	-200.000	-0.048	-0.294
-454.997	-183.812	-0.104	-0.002
-453.982	-200.000	0.013	0.416
-452.968	162.783	0.233	-0.326
-451.953	-80.163	-0.072	-0.024
-450.938	-186.201	0.053	0.001
-449.924	114.406	-0.117	0.142
-448.909	-49.739	0.103	0.049
-447.895	-136.695	0.187	-0.022
-446.880	-68.046	0.408	0.158
-445.865	-200.000	-0.054	0.237
-444.851	-145.077	-0.375	-0.034
-443.836	-200.000	0.028	-0.169
-442.822	-81.959	0.170	-0.055
-441.807	26.846	0.099	0.083
-440.792	800.000	0.045	0.147
-439.778	329.603	-0.058	0.110
-438.763	99.173	0.140	0.161
-437.749	800.000	0.020	0.062
-436.734	800.000	0.067	-0.190
-435.719	230.421	-0.094	-0.153
-434.705	-200.000	-0.018	-0.250
-433.690	77.087	-0.068	-0.072
-432.676	291.200	-0.178	0.323
-431.661	-118.032	-0.117	-0.021
-430.646	140.938	0.280	-0.368
-429.632	-200.000	-0.013	-0.132
-428.617	-51.101	-0.132	0.061
-427.603	259.675	-0.084	0.144
-426.588	168.703	-0.074	0.105
-425.573	108.565	0.137	-0.163
-424.559	-7.468	0.194	-0.131
-423.544	424.796	0.052	0.111
-422.530	-19.645	-0.172	-0.106
-421.515	-47.800	-0.156	0.075
-420.500	162.171	-0.074	0.103
-419.486	-114.722	-0.174	0.033
-418.471	54.535	0.214	-0.206
-417.457	800.000	0.151	0.464
-416.442	218.467	-0.106	0.168
-415.428	502.470	0.027	0.062
-414.413	-200.000	0.032	0.264
-413.398	493.749	-0.086	0.197
-412.384	-115.792	-0.072	-0.013
-411.369	511.170	0.032	-0.075
-410.355	88.343	-0.059	-0.065
-409.340	21.021	-0.175	-0.142
-408.325	-200.000	0.097	0.465
-407.311	29.895	0.165	-0.140
-406.296	-98.347	-0.168	0.043
-405.282	156.683	-0.223	0.306
-404.267	-200.000	-0.015	0.344
-403.252	-200.000	-0.039	-0.274
-402.238	-91.857	-0.211	-0.060
-401.223	240.872	-0.096	-0.159
-400.209	-200.000	-0.023	-0.149
-399.194	190.342	-0.047	0.070
-398.179	321.885	-0.100	-0.189
-397.165	147.415	-0.059	0.079
-396.150	-200.000	0.030	0.216
-395.136	800.000	-0.015	0.046
-394.121	-57.331	0.304	0.133
-393.106	-55.282	0.230	0.103
-392.092	58.972	0.193	-0.189
-391.077	86.842	0.080	0.087
-390.063	222.992	0.014	-0.022
-389.048	-146.287	0.192	0.017
-388.033	-58.387	0.110	0.047
-387.019	800.000	-0.020	0.077
-386.004	-158.304	-0.349	0.020
-384.990	375.718	-0.117	0.238
-383.975	1.907	0.134	-0.096
-382.960	465.773	0.031	-0.069
-381.946	125.676	0.139	0.175
-380.931	118.083	0.025	0.031
-379.917	-200.000	-0.031	0.440
-378.902	100.415	-0.049	0.057
-377.888	258.721	-0.088	-0.151
-376.873	164.801	0.154	0.216
-375.858	-117.296	-0.233	0.042
-374.844	184.922	0.131	0.193
-373.829	-148.841	0.153	-0.012
-372.815	-78.371	-0.266	-0.091
-371.800	-200.000	0.017	0.167
-370.785	5.468	-0.164	0.120
-369.771	366.607	0.090	0.180
-368.756	800.000	-0.083	0.274
-367.742	-200.000	0.010	-0.484
-366.727	390.949	0.019	0.038
-365.712	-142.008	0.314	0.031
-364.698	183.158	-0.174	0.255
-363.683	668.254	0.106	-0.273
-362.669	-36.444	0.063	0.034
-361.654	-79.973	0.292	0.097
-360.639	1.961	-0.186	0.133
-359.625	40.461	-0.147	-0.132
-358.610	-16.502	0.199	-0.125
-357.596	-200.000	-0.009	0.113
-356.581	-46.082	-0.220	-0.108
-355.566	-86.381	-0.106	-0.032
-354.552	440.972	0.098	-0.212
-353.537	81.702	0.126	0.136
-352.523	-200.000	-0.047	0.274
-351.508	736.591	0.072	0.193
-350.493	-200.000	-0.006	0.141
-349.479	207.288	0.075	-0.117
-348.464	-66.054	0.160	-0.063
-347.450	-153.653	0.058	-0.004
-346.435	-8.802	-0.300	-0.200
-345.420	665.534	-0.114	-0.292
-344.406	-14.954	-0.279	-0.178
-343.391	-84.560	0.271	0.085
-342.377	280.282	-0.034	-0.060
-341.362	213.007	0.048	-0.075
-340.348	374.899	-0.168	-0.340
-339.333	-124.403	-0.183	-0.028
-338.318	-103.299	0.130	-0.030
-337.304	-178.773	0.525	0.012
-336.289	781.198	0.095	-0.258
-335.275	1.470	-0.118	0.084
-334.260	-143.595	-0.439	-0.041
-333.245	359.185	0.317	0.628
-332.231	-200.000	0.014	0.107
-331.216	-93.833	-0.136	0.037
-330.202	141.012	0.167	-0.220
-329.187	-71.826	-0.222	-0.082
-328.172	-200.000	0.007	0.135
-327.158	213.292	0.018	-0.028
-326.143	115.507	0.040	0.049
-325.129	17.146	0.183	-0.144
-324.114	255.314	-0.122	-0.207
-323.099	407.086	-0.177	-0.370
-322.085	53.424	0.125	-0.119
-321.070	76.056	0.067	0.071
-320.056	-19.734	0.098	-0.060
-319.041	-154.435	-0.237	0.016
-318.026	800.000	0.067	0.281
-317.012	-108.708	0.197	0.042
-315.997	-200.000	0.003	0.155
-314.983	-200.000	-0.007	-0.251
-313.968	-128.345	-0.039	0.005
-312.953	-200.000	-0.032	-0.189
-311.939	51.503	-0.352	-0.332
-310.924	192.511	0.119	0.177
-309.910	547.611	-0.073	-0.174
-308.895	126.669	-0.118	0.148
-307.880	-89.099	-0.142	0.042
-306.866	800.000	-0.033	0.121
-305.851	-108.248	-0.253	0.054
-304.837	164.357	-0.010	-0.015
-303.822	174.325	0.069	0.099
-302.807	-107.819	-0.170	0.037
-301.793	-200.000	0.010	-0.097
-300.778	-34.337	-0.430	-0.234
-299.764	-31.650	0.167	-0.093
-298.749	-200.000	-0.016	-0.183
-297.735	-151.153	0.365	-0.027
-296.720	35.456	-0.053	0.046
-295.705	-116.335	0.312	-0.057
-294.691	-14.409	-0.100	-0.063
-293.676	-200.000	-0.016	-0.164
-292.662	527.662	0.146	0.342
-291.647	-200.000	0.008	-0.123
-290.632	-52.501	0.364	-0.167
-289.618	75.250	-0.177	0.185
-288.603	225.360	0.047	0.075
-287.589	-189.956	0.213	0.002
-286.574	-8.744	-0.402	0.267
-285.559	10.900	0.206	-0.156
-284.545	-50.971	-0.127	-0.059
-283.530	-36.747	0.247	-0.131
-282.516	119.735	-0.184	-0.225
-281.501	-34.980	0.047	-0.025
-280.486	-70.781	0.107	0.040
-279.472	-17.598	-0.051	-0.032
-278.457	800.000	-0.067	-0.211
-277.443	-26.568	0.271	-0.157
-276.428	-117.067	-0.167	-0.030
-275.413	223.133	-0.121	-0.193
-274.399	-106.979	0.010	-0.002
-273.384	-200.000	-0.030	0.185
-272.370	30.858	-0.161	0.136
-271.355	388.345	0.202	0.413
-270.340	26.754	-0.171	0.142
-269.326	-150.962	0.294	0.022
-268.311	800.000	0.086	-0.258
-267.297	84.052	-0.097	-0.105
-266.282	-98.244	0.070	-0.018
-265.267	-200.000	-0.249	0.000
-264.253	-117.727	-0.230	-0.041
-263.238	419.268	0.157	-0.333
-262.224	685.457	0.110	0.284
-261.209	343.835	0.037	0.072
-260.195	209.431	0.083	-0.129
-259.180	800.000	-0.022	0.067
-258.165	16.619	-0.236	0.184
-257.151	-51.567	0.227	0.105
-256.136	319.354	0.088	-0.165
-255.122	800.000	-0.044	0.178
-254.107	73.686	0.037	-0.038
-253.092	448.116	-0.071	0.154
-252.078	-51.243	0.272	0.126
-251.063	-64.402	0.179	-0.072
-250.049	201.086	0.104	-0.158
-249.034	-200.000	0.014	0.079
-248.019	800.000	-0.064	-0.195
-247.005	-120.782	0.040	-0.007
-245.990	267.753	-0.168	-0.291
-244.976	-176.132	0.040	0.001
-243.961	-64.334	0.076	0.030
-242.946	317.475	0.175	-0.327
-241.932	274.962	0.118	0.207
-240.917	-164.659	-0.050	-0.002
-239.903	71.201	0.156	0.160
-238.888	-47.663	0.334	0.160
-237.873	595.742	-0.067	-0.163
-236.859	4.703	-0.103	-0.075
-235.844	-200.000	-0.019	0.171
-234.830	-39.834	-0.022	0.011
-233.815	25.528	0.086	-0.071
-232.800	146.018	-0.033	-0.043
-231.786	-93.761	-0.270	-0.074
-230.771	-109.739	-0.068	0.014
-229.757	-200.000	-0.016	-0.256
-228.742	-41.283	0.334	-0.170
-227.727	-98.040	0.213	-0.054
-226.713	-200.000	0.176	-0.000
-225.698	-93.337	0.103	-0.028
-224.684	418.868	-0.114	0.240
-223.669	-85.840	-0.167	-0.051
-222.655	347.620	0.039	0.076
-221.640	-178.036	-0.323	0.008
-220.625	-21.855	0.392	0.235
-219.611	69.858	0.259	-0.264
-218.596	-200.000	-0.007	0.080
-217.582	-73.138	-0.296	0.107
-216.567	800.000	0.020	0.077
-215.552	145.695	0.101	-0.134
-214.538	-173.133	0.122	-0.004
-213.523	33.463	-0.034	0.029
-212.509	800.000	0.039	-0.108
-211.494	-57.930	0.147	-0.063
-210.479	260.398	0.083	0.142
-209.465	-31.542	0.142	-0.079
-208.450	36.919	-0.117	-0.102
-207.436	153.683	0.099	0.133
-206.421	-145.033	0.201	-0.018
-205.406	24.800	-0.164	-0.134
-204.392	-19.795	-0.071	-0.043
-203.377	415.126	-0.020	0.042
-202.363	55.781	0.313	0.299
-201.348	-46.241	0.113	-0.055
-200.333	-200.000	-0.036	-0.252
-199.319	295.949	-0.103	0.187
-198.304	-200.000	0.001	0.037
-197.290	-82.494	-0.240	0.077
-196.275	800.000	-0.052	-0.195
-195.260	-200.000	0.004	0.239
-194.246	764.102	-0.025	-0.067
-193.231	800.000	0.118	0.392
-192.217	63.659	0.073	-0.072
-191.202	31.679	0.267	-0.226
-190.187	800.000	-0.051	0.167
-189.173	8.595	0.176	-0.131
-188.158	-200.000	-0.016	-0.131
-187.144	-200.000	-0.030	-0.360
-186.129	800.000	0.049	0.166
-185.114	-119.452	0.164	0.028
-184.100	800.000	0.132	-0.379
-183.085	800.000	-0.136	-0.486
-182.071	301.908	-0.125	-0.229
-181.056	-91.451	-0.101	-0.028
-180.042	-121.448	-0.154	-0.025
-179.027	228.643	-0.240	0.386
-178.012	-154.853	0.326	-0.021
-176.998	38.672	0.133	-0.117
-175.983	-130.652	-0.207	-0.027
-174.969	-200.000	0.000	-0.075
-173.954	-113.404	-0.390	-0.075
-172.939	487.286	0.159	-0.357
-171.925	-22.680	-0.028	-0.016
-170.910	-200.000	0.037	0.296
-169.896	207.638	-0.044	-0.068
-168.881	287.144	0.031	-0.055
-167.866	-200.000	0.009	-0.117
-166.852	-91.594	0.148	0.042
-165.837	-82.202	0.039	0.012
-164.823	-200.000	-0.022	-0.197
-163.808	-48.946	-0.333	0.157
-162.793	524.133	0.107	-0.248
-161.779	-89.059	-0.123	-0.036
-160.764	-68.974	0.251	0.095
-159.750	-14.302	0.261	-0.165
-158.735	532.434	0.095	-0.222
-157.720	3.339	-0.060	0.043
-156.706	143.667	-0.068	-0.089
-155.691	-0.014	0.269	-0.189
-154.677	196.253	0.073	0.109
-153.662	82.796	-0.046	0.049
-152.647	800.000	0.058	0.199
-151.633	-70.291	0.080	-0.030
-150.618	-200.000	-0.069	0.309
-149.604	99.426	0.090	0.103
-148.589	-25.075	0.148	0.087
-147.574	33.333	0.268	0.229
-146.560	-200.000	-0.004	-0.031
-145.545	-154.059	0.188	-0.013
-144.531	277.503	0.040	0.071
-143.516	800.000	0.056	0.163
-142.502	100.777	-0.145	-0.166
-141.487	307.612	0.156	-0.287
-140.472	-200.000	0.048	-0.396
-139.458	61.658	0.232	-0.228
-138.443	-200.000	-0.000	-0.031
-137.429	-200.000	0.070	-0.415
-136.414	180.794	-0.127	-0.184
-135.399	119.278	-0.165	0.201
-134.385	-49.388	-0.249	-0.117
-133.370	-92.164	-0.242	-0.067
-132.356	-125.893	0.148	-0.022
-131.341	-157.313	-0.060	-0.004
-130.326	-79.925	0.225	-0.074
-129.312	-200.000	0.059	-0.361
-128.297	-135.143	-0.372	-0.044
-127.283	319.291	0.203	0.380
-126.268	236.785	0.086	0.140
-125.253	-180.128	-0.150	-0.003
-124.239	-200.000	-0.025	-0.171
-123.224	15.693	-0.316	-0.245
