DTS Sentinel unit serial number:	SN413079Multiplexer serial number:	ORYXHardware model number:	OX4-SRSoftware version number:	ORYX F/W v4.00 Oryx Data Collector v3.7.2.0data status	okinstallation	princeton_trtdifferential loss correction	single-endedforward channel	channel 3reverse channel	N/Adate	2019/09/18time	10:40:35forward acquisition time	60.00reverse acquisition time	0.00gamma	496.2192k internal	0.2329k external	0.2329temperature offset calibration	0.9950default loss term (dB/km)	0.3790temperature slope calibration	1.0000multiplexer offset coefficient	1.0000multiplexer slope coefficient	1.0000fibre end	0.00T internal ref (°C)	28.69T ext. ref 1 (°C)	0.36T ext. ref 2 (°C)	25.40length (m)	temperature (°C)	Stokes	anti-Stokes-747.200	32.233	0.236	0.205
-746.185	199.614	0.141	-0.219
-745.171	-127.035	-0.217	-0.032
-744.156	-30.889	0.210	0.120
-743.142	95.326	-0.234	-0.269
-742.127	156.138	0.104	-0.145
-741.112	27.103	0.261	0.220
-740.098	-9.749	0.207	-0.139
-739.083	800.000	0.045	-0.173
-738.069	-75.205	0.206	0.074
-737.054	76.982	-0.096	0.102
-736.039	800.000	0.008	0.024
-735.025	-16.185	-0.191	0.123
-734.010	286.868	0.146	-0.265
-732.996	289.512	-0.123	-0.224
-731.981	257.139	-0.110	-0.190
-730.966	-39.150	-0.228	0.121
-729.952	85.194	0.206	0.227
-728.937	-134.707	-0.439	-0.054
-727.923	367.453	-0.038	-0.078
-726.908	-200.000	-0.070	-0.423
-725.894	-23.312	0.083	-0.050
-724.879	-200.000	0.022	-0.239
-723.864	484.778	0.080	0.184
-722.850	-93.575	0.305	-0.085
-721.835	-71.708	-0.282	-0.106
-720.821	441.398	-0.182	-0.401
-719.806	184.414	-0.063	-0.094
-718.791	-30.082	0.305	-0.175
-717.777	-154.232	-0.070	0.005
-716.762	-200.000	0.004	0.067
-715.748	-47.342	0.217	0.106
-714.733	-66.478	-0.156	-0.062
-713.718	259.862	0.170	-0.296
-712.704	-48.744	-0.326	-0.157
-711.689	-200.000	0.045	0.000
-710.675	-200.000	-0.003	0.092
-709.660	-20.465	0.100	-0.062
-708.645	364.511	-0.167	-0.338
-707.631	-3.812	0.046	-0.032
-706.616	591.700	-0.149	-0.369
-705.602	-75.135	-0.107	-0.038
-704.587	156.629	0.189	-0.262
-703.572	-132.334	-0.492	0.064
-702.558	-105.071	-0.207	-0.048
-701.543	55.537	0.368	0.358
-700.529	800.000	-0.090	0.310
-699.514	110.598	-0.093	0.113
-698.499	800.000	-0.101	-0.409
-697.485	-68.376	0.024	0.009
-696.470	-200.000	0.023	0.156
-695.456	-97.823	0.306	0.079
-694.441	161.655	0.210	0.295
-693.426	142.970	-0.134	0.179
-692.412	87.031	0.119	-0.132
-691.397	800.000	-0.037	-0.155
-690.383	453.860	0.082	-0.183
-689.368	-200.000	0.056	-0.360
-688.354	-200.000	0.028	0.165
-687.339	-76.884	-0.117	-0.041
-686.324	16.862	-0.193	-0.154
-685.310	68.332	-0.009	-0.009
-684.295	-11.892	-0.104	-0.068
-683.281	-93.320	-0.167	0.047
-682.266	48.367	-0.171	-0.161
-681.251	800.000	0.091	0.263
-680.237	588.062	-0.092	-0.228
-679.222	621.774	-0.107	-0.270
-678.208	-200.000	-0.042	-0.351
-677.193	-13.364	0.209	-0.136
-676.178	-200.000	-0.022	-0.187
-675.164	-200.000	0.002	-0.020
-674.149	800.000	-0.072	0.255
-673.135	62.927	-0.124	0.125
-672.120	176.440	0.165	0.241
-671.105	-19.172	0.256	0.160
-670.091	28.757	0.319	0.271
-669.076	800.000	-0.057	-0.178
-668.062	174.767	-0.064	-0.093
-667.047	-200.000	-0.062	-0.291
-666.032	-146.179	0.314	0.028
-665.018	37.442	-0.064	0.057
-664.003	-187.217	0.324	-0.004
-662.989	265.312	0.150	-0.263
-661.974	-200.000	0.027	-0.130
-660.959	-14.387	-0.151	-0.098
-659.945	212.550	0.204	-0.323
-658.930	-87.327	-0.177	-0.054
-657.916	-119.459	-0.100	0.017
-656.901	-139.837	-0.298	0.032
-655.886	-200.000	0.016	-0.304
-654.872	-200.000	-0.005	-0.090
-653.857	800.000	0.037	-0.136
-652.843	324.311	-0.137	0.262
-651.828	656.049	-0.062	0.159
-650.814	-50.670	-0.093	0.044
-649.799	83.331	0.149	-0.163
-648.784	47.594	-0.145	0.136
-647.770	-200.000	0.388	0.002
-646.755	50.906	0.175	-0.166
-645.741	164.942	0.099	0.140
-644.726	300.906	0.015	0.027
-643.711	745.389	-0.053	-0.143
-642.697	37.636	0.059	0.053
-641.682	260.338	-0.136	-0.236
-640.668	-100.559	-0.194	0.048
-639.653	-27.936	-0.193	-0.112
-638.638	-111.315	0.318	0.065
-637.624	80.200	-0.011	0.012
-636.609	-103.382	-0.109	-0.026
-635.595	-61.809	-0.086	0.036
-634.580	-82.046	-0.399	0.131
-633.565	114.012	0.131	-0.160
-632.551	-115.625	-0.280	-0.053
-631.536	800.000	-0.095	-0.263
-630.522	394.143	0.114	0.238
-629.507	-200.000	-0.008	0.341
-628.492	39.508	-0.081	-0.073
-627.478	-200.000	-0.022	-0.389
-626.463	-33.488	-0.450	-0.249
-625.449	-71.872	-0.054	-0.020
-624.434	104.065	-0.194	-0.229
-623.419	47.502	-0.244	-0.228
-622.405	-83.546	-0.458	0.147
-621.390	627.131	0.070	0.178
-620.376	0.661	0.143	-0.103
-619.361	-200.000	0.001	-0.016
-618.346	-53.417	-0.111	0.051
-617.332	-109.503	-0.144	-0.031
-616.317	-87.488	-0.307	-0.093
-615.303	-94.053	-0.221	-0.061
-614.288	-72.804	-0.173	0.064
-613.273	271.520	-0.084	-0.148
-612.259	504.492	0.050	0.117
-611.244	-82.063	0.115	-0.038
-610.230	-200.000	0.033	-0.160
-609.215	-8.993	-0.181	0.121
-608.201	-126.347	0.219	-0.033
-607.186	-200.000	-0.141	0.001
-606.171	62.401	-0.379	0.379
-605.157	800.000	-0.066	-0.243
-604.142	363.391	0.071	0.143
-603.128	6.393	0.025	-0.019
-602.113	63.006	-0.173	0.174
-601.098	-62.623	-0.124	-0.052
-600.084	-99.649	0.109	0.027
-599.069	-91.685	-0.157	0.045
-598.055	28.496	-0.303	0.257
-597.040	103.818	-0.034	-0.040
-596.025	105.529	-0.093	0.110
-595.011	800.000	0.114	-0.342
-593.996	-8.232	0.158	0.106
-592.982	-31.162	-0.142	-0.080
-591.967	-16.766	-0.165	0.104
-590.952	311.182	0.162	0.304
-589.938	545.038	-0.176	0.422
-588.923	-144.808	-0.191	0.018
-587.909	-200.000	-0.007	-0.208
-586.894	-101.293	-0.306	0.075
-585.879	242.442	-0.212	-0.354
-584.865	18.409	-0.334	-0.268
-583.850	-74.082	0.052	0.019
-582.836	-78.471	-0.094	0.032
-581.821	58.244	-0.304	0.299
-580.806	80.809	0.014	0.015
-579.792	-145.524	-0.175	0.016
-578.777	-200.000	-0.054	-0.241
-577.763	800.000	0.091	-0.298
-576.748	-200.000	0.028	0.344
-575.733	-100.907	-0.187	0.046
-574.719	-200.000	-0.057	-0.462
-573.704	-200.000	0.032	-0.176
-572.690	-200.000	-0.074	-0.374
-571.675	112.252	-0.139	-0.168
-570.661	800.000	-0.042	-0.131
-569.646	-66.128	0.078	0.031
-568.631	800.000	0.019	-0.078
-567.617	67.521	-0.094	0.096
-566.602	623.283	0.130	-0.327
-565.588	800.000	0.021	0.090
-564.573	-200.000	-0.034	-0.276
-563.558	225.644	0.195	0.317
-562.544	-200.000	-0.003	-0.157
-561.529	361.680	-0.163	0.327
-560.515	-100.665	-0.412	0.102
-559.500	-191.661	0.208	0.002
-558.485	-62.721	-0.210	-0.087
-557.471	294.513	-0.192	-0.351
-556.456	65.266	-0.091	0.092
-555.442	127.716	-0.194	0.246
-554.427	-77.897	0.305	0.105
-553.412	-28.070	0.146	0.084
-552.398	-200.000	0.033	-0.259
-551.383	168.474	0.117	-0.166
-550.369	-200.000	0.005	0.242
-549.354	376.156	-0.153	0.312
-548.339	227.581	0.052	0.085
-547.325	149.081	0.171	-0.231
-546.310	-54.166	-0.391	-0.177
-545.296	-111.775	-0.248	0.050
-544.281	472.640	0.087	0.196
-543.266	500.569	-0.104	0.241
-542.252	-121.343	0.147	0.024
-541.237	-11.995	-0.090	-0.059
-540.223	-154.502	0.339	-0.023
-539.208	395.797	-0.072	-0.150
-538.193	-200.000	-0.000	-0.071
-537.179	-35.729	-0.331	0.179
-536.164	-200.000	0.008	-0.361
-535.150	-136.376	0.204	-0.024
-534.135	-119.882	-0.232	-0.040
-533.121	-31.471	-0.093	0.052
-532.106	769.604	-0.074	0.201
-531.091	-95.586	-0.293	0.078
-530.077	800.000	0.006	0.025
-529.062	366.322	0.105	0.212
-528.048	-200.000	-0.020	0.097
-527.033	276.985	0.035	-0.063
-526.018	800.000	-0.040	0.156
-525.004	-73.561	-0.120	-0.044
-523.989	800.000	-0.024	-0.069
-522.975	-200.000	-0.006	-0.066
-521.960	-200.000	0.020	-0.096
-520.945	-200.000	-0.016	0.278
-519.931	-188.273	0.327	-0.004
-518.916	-136.361	-0.261	0.030
-517.902	485.132	0.080	0.181
-516.887	-200.000	0.033	0.311
-515.872	43.071	-0.122	0.111
-514.858	-100.879	-0.323	0.079
-513.843	107.680	0.124	0.148
-512.829	800.000	-0.073	0.230
-511.814	24.063	-0.083	0.069
-510.799	404.386	0.028	0.059
-509.785	-9.451	0.136	-0.091
-508.770	-200.000	0.022	-0.345
-507.756	327.550	0.055	-0.106
-506.741	142.072	0.094	0.125
-505.726	266.084	0.091	-0.158
-504.712	-144.905	-0.153	-0.014
-503.697	280.623	-0.176	-0.315
-502.683	800.000	0.048	-0.151
-501.668	-200.000	-0.050	0.261
-500.653	-132.355	-0.396	0.051
-499.639	800.000	0.090	0.315
-498.624	800.000	-0.018	0.064
-497.610	-20.534	-0.193	-0.118
-496.595	-200.000	-0.079	-0.418
-495.581	640.894	-0.129	-0.327
-494.566	-198.600	0.265	-0.001
-493.551	197.433	0.117	-0.179
-492.537	54.858	0.059	-0.057
-491.522	7.542	-0.135	-0.101
-490.508	50.140	0.206	0.194
-489.493	279.222	-0.054	-0.095
-488.478	115.679	0.184	-0.224
-487.464	-98.397	-0.104	-0.027
-486.449	342.094	-0.170	-0.332
-485.435	280.125	0.079	-0.141
-484.420	297.764	0.153	0.281
-483.405	366.298	0.087	0.174
-482.391	41.441	-0.101	-0.091
-481.376	800.000	0.036	-0.132
-480.362	-121.792	0.178	-0.029
-479.347	240.601	-0.154	-0.256
-478.332	800.000	0.099	0.314
-477.318	-174.949	-0.176	0.005
-476.303	127.712	-0.059	-0.075
-475.289	69.451	-0.094	-0.097
-474.274	-200.000	0.001	-0.285
-473.259	-200.000	0.030	-0.237
-472.245	22.995	0.178	0.145
-471.230	-156.531	0.019	-0.001
-470.216	-102.235	-0.372	-0.089
-469.201	-66.562	-0.262	0.104
-468.186	-43.884	-0.087	0.043
-467.172	-200.000	0.005	-0.031
-466.157	112.604	-0.096	-0.116
-465.143	-200.000	0.030	0.184
-464.128	36.539	-0.040	-0.035
-463.113	62.090	0.134	0.133
-462.099	-132.050	-0.120	-0.016
-461.084	76.849	0.237	-0.250
-460.070	114.130	-0.200	-0.243
-459.055	199.836	0.123	-0.189
-458.040	51.526	-0.243	-0.230
-457.026	-122.755	-0.374	0.060
-456.011	800.000	-0.159	0.452
-454.997	763.820	0.071	-0.192
-453.982	-140.298	0.063	-0.007
-452.968	-200.000	0.023	0.363
-451.953	84.281	-0.116	-0.127
-450.938	-23.234	0.196	-0.117
-449.924	-200.000	-0.011	0.203
-448.909	-200.000	-0.002	-0.241
-447.895	335.266	0.180	-0.347
-446.880	-22.919	0.249	0.149
-445.865	137.151	-0.168	0.219
-444.851	212.279	-0.063	-0.099
-443.836	-200.000	0.047	-0.224
-442.822	-130.914	-0.254	-0.034
-441.807	-200.000	0.029	-0.345
-440.792	367.662	-0.038	0.076
-439.778	-148.703	0.154	-0.012
-438.763	8.383	-0.384	-0.287
-437.749	358.512	-0.160	0.318
-436.734	-152.010	0.359	-0.026
-435.719	370.795	0.126	-0.255
-434.705	26.567	0.243	0.202
-433.690	338.686	0.044	0.086
-432.676	-149.387	-0.270	-0.021
-431.661	-16.418	0.309	0.195
-430.646	50.680	0.125	0.117
-429.632	112.531	0.153	-0.185
-428.617	-137.023	0.203	-0.023
-427.603	-0.713	0.202	0.142
-426.588	183.302	-0.144	0.212
-425.573	40.749	-0.096	0.086
-424.559	428.924	0.102	-0.219
-423.544	656.148	-0.183	-0.468
-422.530	219.064	0.089	0.141
-421.515	-156.199	-0.355	-0.022
-420.500	-200.000	0.041	-0.198
-419.486	-39.911	-0.149	0.077
-418.471	-107.888	-0.269	-0.058
-417.457	455.278	0.066	-0.146
-416.442	-200.000	0.015	-0.240
-415.428	800.000	-0.091	0.298
-414.413	45.253	0.259	-0.238
-413.398	-10.313	-0.158	-0.104
-412.384	-200.000	0.038	-0.235
-411.369	-76.904	-0.290	0.101
-410.355	347.871	0.061	0.119
-409.340	-114.952	-0.139	0.026
-408.325	-49.472	0.169	0.080
-407.311	-66.042	0.340	-0.135
-406.296	-200.000	0.360	0.000
-405.282	800.000	0.058	-0.240
-404.267	-172.660	-0.351	-0.011
-403.252	-109.448	0.454	0.095
-402.238	76.718	0.156	0.164
-401.223	397.775	-0.100	0.209
-400.209	-200.000	0.032	0.246
-399.194	-54.613	0.329	-0.148
-398.179	702.178	0.088	0.231
-397.165	-200.000	0.031	-0.177
-396.150	405.589	-0.121	0.254
-395.136	94.444	-0.112	-0.127
-394.121	79.128	-0.137	-0.146
-393.106	800.000	-0.020	0.078
-392.092	-33.016	0.126	0.070
-391.077	-2.841	0.425	0.295
-390.063	122.182	-0.107	0.133
-389.048	301.206	-0.084	-0.154
-388.033	800.000	-0.134	-0.490
-387.019	-200.000	0.004	0.180
-386.004	-4.126	-0.283	-0.195
-384.990	-200.000	0.004	-0.024
-383.975	-112.812	0.196	0.039
-382.960	586.944	0.092	0.225
-381.946	514.018	-0.081	-0.188
-380.931	-200.000	-0.031	-0.250
-379.917	-151.405	0.359	-0.027
-378.902	143.725	-0.205	-0.271
-377.888	-73.624	0.060	-0.022
-376.873	800.000	-0.127	-0.352
-375.858	-74.631	0.049	0.017
-374.844	-200.000	0.043	-0.258
-373.829	-200.000	0.000	0.054
-372.815	-27.376	-0.223	-0.129
-371.800	186.048	0.067	0.099
-370.785	800.000	0.052	0.190
-369.771	-36.823	0.079	-0.042
-368.756	-200.000	0.016	-0.154
-367.742	422.245	-0.106	0.226
-366.727	800.000	-0.019	-0.063
-365.712	-73.526	0.262	0.095
-364.698	-77.190	0.230	-0.079
-363.683	62.959	-0.164	0.163
-362.669	-200.000	-0.100	0.441
-361.654	-200.000	0.036	-0.162
-360.639	-117.624	-0.201	-0.036
-359.625	243.308	0.062	0.102
-358.610	-200.000	0.082	0.423
-357.596	219.598	-0.106	0.169
-356.581	95.077	-0.076	-0.086
-355.566	313.368	-0.183	-0.341
-354.552	-22.373	0.084	-0.050
-353.537	48.806	0.011	-0.010
-352.523	-200.000	0.327	-0.000
-351.508	-125.146	0.149	0.023
-350.493	-200.000	-0.033	-0.146
-349.479	-4.446	-0.016	-0.011
-348.464	222.453	0.199	-0.318
-347.450	122.908	0.190	0.236
-346.435	109.266	0.201	0.239
-345.420	128.318	0.135	-0.170
-344.406	-200.000	-0.021	0.193
-343.391	-112.418	0.234	-0.046
-342.377	-62.567	-0.189	0.078
-341.362	-80.379	0.122	-0.040
-340.348	70.532	-0.085	0.087
-339.333	-152.973	-0.280	-0.020
-338.318	800.000	-0.111	-0.419
-337.304	-200.000	-0.003	0.069
-336.289	764.996	0.078	0.210
-335.275	-107.084	0.232	-0.051
-334.260	-76.983	0.040	-0.014
-333.245	141.030	0.191	-0.251
-332.231	617.550	0.172	0.429
-331.216	81.141	0.177	0.190
-330.202	-47.742	0.351	0.169
-329.187	3.310	0.236	0.171
-328.172	800.000	0.127	-0.356
-327.158	-119.412	-0.043	0.007
-326.143	25.468	0.320	-0.264
-325.129	131.110	-0.131	0.167
-324.114	-188.229	0.200	0.003
-323.099	-32.544	0.171	-0.094
-322.085	-107.197	0.063	0.014
-321.070	-114.117	-0.096	-0.018
-320.056	800.000	-0.057	0.167
-319.041	769.195	-0.062	-0.167
-318.026	800.000	-0.069	-0.259
-317.012	-125.958	0.285	-0.043
-315.997	311.081	0.239	-0.445
-314.983	-36.566	0.291	0.155
-313.968	-153.078	0.153	-0.011
-312.953	-48.940	-0.338	-0.160
-311.939	93.285	0.145	0.163
-310.924	125.104	0.188	0.235
-309.910	141.640	0.241	-0.316
-308.895	59.007	-0.081	0.079
-307.880	-77.022	0.177	0.061
-306.866	-86.247	0.441	-0.135
-305.851	800.000	0.046	-0.156
-304.837	108.311	0.017	-0.020
-303.822	-134.556	0.096	0.012
-302.807	168.941	-0.194	-0.274
-301.793	-127.525	0.346	0.050
-300.778	291.112	0.159	0.286
-299.764	-41.750	0.146	0.074
-298.749	800.000	0.088	0.301
-297.735	-160.826	-0.136	-0.007
-296.720	42.263	0.168	0.151
-295.705	102.660	0.131	0.152
-294.691	800.000	0.079	0.280
-293.676	52.229	-0.164	0.155
-292.662	9.180	-0.147	0.110
-291.647	-45.458	0.463	0.227
-290.632	-92.630	-0.209	0.058
-289.618	61.211	-0.151	-0.149
-288.603	-117.959	-0.269	0.048
-287.589	-146.570	0.265	0.023
-286.574	800.000	0.071	0.204
-285.559	-17.673	0.305	0.190
-284.545	-70.291	-0.167	-0.063
-283.530	-200.000	-0.010	-0.120
-282.516	484.256	0.134	-0.303
-281.501	-200.000	0.034	0.156
-280.486	-57.455	0.024	-0.010
-279.472	800.000	-0.096	0.314
-278.457	-200.000	-0.050	0.266
-277.443	174.959	0.115	0.165
-276.428	30.662	-0.243	0.206
-275.413	173.260	-0.209	-0.299
-274.399	127.474	0.170	-0.214
-273.384	-200.000	0.014	0.082
-272.370	-200.000	0.004	0.087
-271.355	240.554	-0.050	0.082
-270.340	97.313	-0.278	-0.316
-269.326	-200.000	-0.017	-0.213
-268.311	-83.105	-0.110	-0.035
-267.297	-200.000	0.055	-0.338
-266.282	800.000	-0.055	0.187
-265.267	45.698	0.146	0.133
-264.253	566.945	0.095	0.227
-263.238	32.805	-0.236	0.202
-262.224	401.780	0.183	0.379
-261.209	106.250	0.164	0.192
-260.195	-200.000	-0.017	0.126
-259.180	-75.065	0.078	-0.028
-258.165	44.256	-0.137	0.125
-257.151	-57.221	0.053	0.023
-256.136	-200.000	0.012	0.097
-255.122	-200.000	-0.002	-0.122
-254.107	-72.961	-0.107	0.039
-253.092	553.761	-0.050	-0.118
-252.078	-169.831	0.389	0.014
-251.063	-200.000	0.005	-0.397
-250.049	45.926	0.204	0.186
-249.034	27.515	-0.167	0.139
-248.019	-30.937	-0.333	0.186
-247.005	-12.480	0.302	-0.195
-245.990	800.000	-0.015	0.055
-244.976	-200.000	0.000	-0.176
-243.961	-65.954	-0.342	-0.135
-242.946	758.319	0.160	-0.428
-241.932	49.583	0.302	-0.281
-240.917	-115.801	0.059	0.011
-239.903	800.000	0.063	0.242
-238.888	800.000	0.075	0.301
-237.873	-51.372	-0.129	-0.060
-236.859	32.253	0.251	0.214
-235.844	-66.820	0.121	-0.047
-234.830	800.000	0.071	-0.265
-233.815	450.182	-0.062	-0.134
-232.800	-56.987	0.372	-0.162
-231.786	-62.543	-0.095	0.039
-230.771	252.969	0.112	0.189
-229.757	-168.371	-0.249	-0.009
-228.742	-92.697	-0.374	0.104
-227.727	415.530	-0.076	0.160
-226.713	-186.282	-0.114	0.002
-225.698	800.000	-0.125	0.489
-224.684	0.512	-0.304	0.214
-223.669	-200.000	0.024	0.287
-222.655	-142.397	0.221	0.021
-221.640	15.038	0.105	-0.081
-220.625	-200.000	-0.027	-0.324
-219.611	-67.636	0.336	0.130
-218.596	-51.604	0.206	0.095
-217.582	408.483	-0.111	0.231
-216.567	-74.453	0.097	0.034
-215.552	-155.464	-0.069	-0.004
-214.538	-200.000	-0.007	-0.181
-213.523	-73.044	0.365	-0.132
-212.509	-32.222	0.232	-0.128
-211.494	-75.000	-0.287	0.101
-210.479	-58.521	-0.146	0.063
-209.465	-200.000	0.025	0.205
-208.450	-15.564	0.137	0.086
-207.436	70.853	0.270	0.275
-206.421	408.747	0.185	-0.386
-205.406	-79.794	0.280	0.093
-204.392	551.632	0.029	0.069
-203.377	-113.583	-0.383	-0.074
-202.363	221.901	-0.069	0.109
-201.348	105.308	0.122	-0.143
-200.333	489.033	0.146	-0.329
-199.319	-146.938	0.007	0.001
-198.304	-20.950	-0.192	-0.116
-197.290	-200.000	0.020	0.103
-196.275	9.763	0.159	-0.119
-195.260	-152.942	-0.330	-0.023
-194.246	8.815	0.369	0.274
-193.231	-200.000	0.002	0.041
-192.217	413.041	0.041	-0.086
-191.202	-27.378	0.142	-0.081
-190.187	-18.888	0.152	0.093
-189.173	-200.000	0.009	-0.094
-188.158	469.415	-0.083	-0.183
-187.144	-43.942	-0.093	-0.046
-186.129	48.045	0.194	0.179
-185.114	-69.536	-0.221	-0.083
-184.100	567.421	0.087	-0.207
-183.085	-41.895	-0.188	0.095
-182.071	-122.596	0.161	0.026
-181.056	-26.605	0.248	0.143
-180.042	-66.082	-0.172	0.067
-179.027	25.158	-0.044	0.036
-178.012	-142.764	-0.261	-0.025
-176.998	101.448	0.071	0.082
-175.983	41.041	-0.128	-0.114
-174.969	6.397	-0.121	0.089
-173.954	-22.881	0.029	0.017
-172.939	-200.000	-0.004	0.078
-171.925	162.641	0.156	0.216
-170.910	110.385	0.292	0.345
-169.896	-48.663	-0.198	0.094
-168.881	-94.080	0.247	-0.067
-167.866	-142.021	-0.410	-0.040
-166.852	-104.904	-0.032	-0.007
-165.837	25.615	-0.222	0.182
-164.823	-48.535	0.225	0.107
-163.808	800.000	-0.095	-0.286
-162.793	249.879	-0.193	-0.323
-161.779	-9.000	0.025	0.016
-160.764	-50.297	0.272	0.127
-159.750	626.643	0.076	-0.189
-158.735	-93.758	0.091	0.025
-157.720	84.153	0.022	-0.024
-156.706	3.040	-0.331	0.237
-155.691	211.040	0.271	0.419
-154.677	-83.398	0.263	0.083
-153.662	761.210	0.150	0.401
-152.647	249.534	-0.126	0.210
-151.633	-154.863	0.080	0.005
-150.618	248.783	0.134	-0.224
-149.604	-143.106	0.095	-0.009
-148.589	-200.000	0.014	-0.143
-147.574	521.193	0.082	-0.189
-146.560	-56.235	0.130	0.057
-145.545	-86.713	-0.203	0.061
-144.531	-176.055	0.212	0.006
-143.516	-200.000	0.022	0.103
-142.502	-18.352	-0.176	-0.108
-141.487	800.000	-0.062	0.238
-140.472	14.113	-0.173	0.132
-139.458	64.094	0.113	-0.112
-138.443	-135.804	-0.128	0.015
-137.429	353.069	0.229	0.447
-136.414	-95.351	-0.202	-0.054
-135.399	-200.000	-0.011	0.120
-134.385	342.589	0.035	0.067
-133.370	-44.765	-0.283	-0.139
-132.356	-74.503	0.273	-0.097
-131.341	79.633	-0.111	0.117
-130.326	-200.000	0.033	0.167
-129.312	800.000	-0.100	-0.286
-128.297	-179.817	0.293	-0.006
-127.283	227.854	0.110	0.177
-126.268	800.000	-0.028	0.083
-125.253	-160.845	0.434	-0.023
-124.239	-99.469	0.415	0.103
-123.224	-200.000	0.030	0.244
-122.210	-12.895	0.121	0.078
-121.195	-109.806	-0.246	-0.051
