DTS Sentinel unit serial number:	SN413079Multiplexer serial number:	ORYXHardware model number:	OX4-SRSoftware version number:	ORYX F/W v4.00 Oryx Data Collector v3.7.2.0data status	okinstallation	princeton_trtdifferential loss correction	single-endedforward channel	channel 3reverse channel	N/Adate	2019/09/13time	14:12:35forward acquisition time	60.00reverse acquisition time	0.00gamma	496.2192k internal	0.2302k external	0.2302temperature offset calibration	1.0144default loss term (dB/km)	0.3790temperature slope calibration	1.0000multiplexer offset coefficient	1.0000multiplexer slope coefficient	1.0000fibre end	0.00T internal ref (°C)	35.25T ext. ref 1 (°C)	4.61T ext. ref 2 (°C)	30.43length (m)	temperature (°C)	Stokes	anti-Stokes-747.200	-200.000	-0.019	0.250
-746.185	-131.996	0.227	0.030
-745.171	599.474	-0.068	-0.172
-744.156	164.707	-0.120	-0.173
-743.142	-112.056	0.106	0.022
-742.127	-92.968	-0.247	0.070
-741.112	-35.889	0.108	0.060
-740.098	800.000	0.118	0.360
-739.083	-36.924	-0.161	-0.088
-738.069	-109.655	-0.069	-0.015
-737.054	83.637	-0.067	-0.074
-736.039	213.844	0.050	-0.080
-735.025	-108.192	-0.044	0.010
-734.010	-75.038	-0.288	-0.105
-732.996	4.678	-0.062	0.046
-731.981	266.073	-0.106	0.188
-730.966	81.787	0.303	-0.335
-729.952	-200.000	0.021	-0.105
-728.937	-98.486	-0.257	-0.067
-727.923	34.161	-0.132	0.117
-726.908	-41.594	-0.180	-0.094
-725.894	183.505	0.007	-0.010
-724.879	344.126	0.044	-0.088
-723.864	-200.000	-0.018	-0.221
-722.850	-200.000	-0.030	-0.211
-721.835	-96.301	-0.244	0.066
-720.821	124.850	-0.162	-0.208
-719.806	-25.776	0.225	-0.135
-718.791	-200.000	-0.034	0.181
-717.777	-200.000	-0.071	0.401
-716.762	3.628	-0.302	0.224
-715.748	-200.000	0.001	-0.020
-714.733	9.094	-0.042	-0.033
-713.718	103.409	-0.100	0.119
-712.704	800.000	-0.020	-0.074
-711.689	-67.663	-0.055	-0.022
-710.675	800.000	-0.006	0.025
-709.660	73.797	0.143	0.153
-708.645	-200.000	-0.051	-0.283
-707.631	23.490	-0.038	-0.032
-706.616	-27.293	-0.369	-0.219
-705.602	-144.404	0.331	-0.031
-704.587	-69.444	0.127	-0.050
-703.572	-34.402	0.172	-0.096
-702.558	-200.000	-0.021	-0.197
-701.543	-40.534	0.269	0.142
-700.529	-200.000	0.016	0.093
-699.514	800.000	0.033	0.119
-698.499	-200.000	0.005	-0.185
-697.485	-113.853	-0.122	0.024
-696.470	335.574	-0.028	0.055
-695.456	800.000	-0.073	-0.310
-694.441	-200.000	0.056	-0.282
-693.426	-173.536	-0.242	-0.007
-692.412	772.868	0.149	0.413
-691.397	-172.286	-0.142	0.005
-690.383	75.782	-0.129	-0.138
-689.368	800.000	0.096	0.328
-688.354	-155.590	0.209	0.014
-687.339	498.384	0.090	-0.211
-686.324	-200.000	-0.274	-0.000
-685.310	-44.124	0.167	-0.085
-684.295	-96.055	-0.295	0.080
-683.281	-67.745	-0.141	-0.056
-682.266	-15.425	0.280	-0.182
-681.251	-166.131	-0.152	0.007
-680.237	-78.198	-0.224	-0.078
-679.222	-200.000	-0.022	-0.174
-678.208	-114.915	0.123	0.024
-677.193	-88.060	-0.262	-0.080
-676.178	432.254	-0.066	-0.146
-675.164	-89.653	0.168	0.050
-674.149	-200.000	-0.006	-0.107
-673.135	-144.910	0.097	-0.009
-672.120	-20.821	-0.126	-0.079
-671.105	189.910	-0.135	-0.206
-670.091	189.047	-0.068	0.103
-669.076	172.098	-0.103	0.150
-668.062	-70.849	-0.110	0.042
-667.047	15.862	0.102	0.081
-666.032	800.000	-0.129	0.397
-665.018	-147.588	-0.260	0.022
-664.003	270.468	0.042	0.076
-662.989	-12.319	-0.202	-0.134
-661.974	-200.000	-0.003	-0.209
-660.959	372.289	-0.138	0.285
-659.945	800.000	-0.073	0.238
-658.930	-200.000	0.035	-0.339
-657.916	24.649	-0.217	-0.183
-656.901	52.628	-0.082	0.080
-655.886	219.762	0.168	-0.273
-654.872	162.468	-0.163	-0.232
-653.857	800.000	0.044	0.151
-652.843	674.502	-0.082	0.215
-651.828	109.768	-0.299	0.364
-650.814	99.710	0.081	0.095
-649.799	-93.179	-0.182	0.051
-648.784	-200.000	-0.041	0.453
-647.770	42.101	-0.215	-0.198
-646.755	-78.766	-0.245	0.085
-645.741	-35.074	-0.140	-0.078
-644.726	800.000	0.037	0.117
-643.711	36.328	0.143	-0.128
-642.697	760.153	0.118	-0.324
-641.682	-150.282	0.193	-0.015
-640.668	800.000	-0.093	0.262
-639.653	201.875	-0.039	-0.060
-638.638	800.000	0.069	0.243
-637.624	-10.530	0.176	0.118
-636.609	307.252	-0.086	-0.163
-635.595	-33.619	0.269	-0.151
-634.580	-60.903	-0.207	0.089
-633.565	210.525	-0.130	0.208
-632.551	-154.635	0.281	0.019
-631.536	125.604	-0.140	-0.179
-630.522	43.621	0.117	-0.108
-629.507	44.114	0.087	-0.081
-628.492	66.399	-0.040	-0.041
-627.478	-10.767	-0.220	0.147
-626.463	147.995	0.070	-0.095
-625.449	-6.013	-0.031	-0.021
-624.434	97.667	-0.232	0.271
-623.419	475.625	0.091	0.208
-622.405	-115.731	-0.279	-0.053
-621.390	-104.695	-0.090	0.021
-620.376	-12.516	-0.449	0.297
-619.361	800.000	0.051	-0.146
-618.346	28.010	0.399	-0.342
-617.332	-200.000	0.027	-0.317
-616.317	-88.097	-0.214	0.065
-615.303	-33.788	0.128	-0.072
-614.288	27.190	-0.354	0.301
-613.273	-74.491	-0.238	-0.087
-612.259	354.843	0.244	-0.493
-611.244	-162.002	0.119	-0.006
-610.230	-42.599	0.241	0.124
-609.215	800.000	-0.083	0.285
-608.201	-49.873	-0.061	0.029
-607.186	-200.000	0.041	0.249
-606.171	-106.220	0.111	0.025
-605.157	8.734	-0.242	0.185
-604.142	206.493	-0.120	0.189
-603.128	205.378	0.034	-0.054
-602.113	-26.394	-0.425	-0.253
-601.098	128.263	-0.185	0.238
-600.084	248.362	0.138	0.237
-599.069	800.000	-0.046	0.148
-598.055	-99.853	-0.172	0.044
-597.040	-200.000	0.047	0.241
-596.025	-18.468	0.149	0.094
-595.011	-66.819	0.120	-0.048
-593.996	-164.227	-0.150	0.007
-592.982	-2.533	-0.247	0.175
-591.967	-0.911	0.245	-0.176
-590.952	3.170	0.325	-0.240
-589.938	-123.682	0.236	-0.038
-588.923	-42.177	-0.195	-0.101
-587.909	-12.356	0.182	-0.120
-586.894	256.954	0.251	0.437
-585.879	-200.000	-0.031	-0.201
-584.865	-200.000	-0.051	0.325
-583.850	-193.693	-0.291	-0.003
-582.836	76.739	0.080	-0.086
-581.821	366.647	0.211	-0.431
-580.806	-200.000	0.044	0.221
-579.792	-124.230	-0.226	-0.036
-578.777	800.000	-0.066	-0.202
-577.763	144.960	-0.147	0.198
-576.748	-72.858	0.145	-0.054
-575.733	299.317	0.069	-0.128
-574.719	-62.717	-0.504	-0.212
-573.704	185.857	-0.065	-0.098
-572.690	-100.835	0.223	0.056
-571.675	-60.197	-0.286	0.123
-570.661	250.823	-0.106	0.182
-569.646	-110.194	0.408	0.086
-568.631	-200.000	0.018	0.188
-567.617	-200.000	0.027	-0.167
-566.602	4.264	0.132	-0.098
-565.588	-22.439	-0.325	-0.199
-564.573	270.322	0.198	-0.352
-563.558	-200.000	0.026	-0.283
-562.544	-20.123	0.140	-0.087
-561.529	58.886	-0.103	-0.102
-560.515	617.312	-0.069	-0.174
-559.500	415.138	-0.088	-0.190
-558.485	309.746	-0.068	-0.128
-557.471	-108.258	-0.172	0.038
-556.456	-200.000	0.017	-0.143
-555.442	-6.287	0.108	-0.075
-554.427	-2.246	-0.197	-0.140
-553.412	-145.780	-0.123	-0.011
-552.398	-200.000	-0.001	-0.492
-551.383	469.911	-0.040	-0.091
-550.369	-44.789	0.267	0.135
-549.354	800.000	-0.056	0.212
-548.339	800.000	0.014	0.062
-547.325	-200.000	-0.016	0.106
-546.310	-74.903	-0.417	0.151
-545.296	110.859	0.094	0.115
-544.281	-151.164	-0.057	0.004
-543.266	-200.000	0.034	-0.247
-542.252	131.484	-0.076	-0.098
-541.237	-57.967	0.122	0.054
-540.223	9.243	-0.452	0.345
-539.208	-152.670	0.158	-0.011
-538.193	52.645	-0.091	0.088
-537.179	-98.398	0.130	-0.034
-536.164	80.944	0.218	0.238
-535.150	148.197	-0.149	-0.203
-534.135	-128.746	-0.287	-0.041
-533.121	106.066	-0.203	-0.243
-532.106	154.930	0.135	0.187
-531.091	-200.000	-0.029	0.378
-530.077	239.191	0.049	-0.083
-529.062	27.868	0.052	-0.044
-528.048	-10.080	0.209	-0.140
-527.033	-200.000	0.011	0.000
-526.018	-200.000	0.007	0.167
-525.004	-114.461	0.252	-0.049
-523.989	-183.513	0.179	0.003
-522.975	-200.000	-0.012	-0.085
-521.960	47.557	0.136	-0.128
-520.945	228.376	0.138	-0.227
-519.931	-45.135	0.073	0.037
-518.916	-53.727	0.312	0.144
-517.902	-73.592	0.194	-0.072
-516.887	-10.107	0.067	-0.045
-515.872	800.000	-0.064	-0.237
-514.858	-61.466	-0.180	-0.076
-513.843	125.655	-0.123	0.157
-512.829	-80.416	0.037	0.012
-511.814	4.968	-0.131	-0.097
-510.799	-114.748	-0.461	-0.089
-509.785	-132.849	-0.189	-0.024
-508.770	-150.110	-0.325	-0.026
-507.756	-200.000	-0.015	0.169
-506.741	205.311	-0.196	-0.307
-505.726	800.000	0.007	-0.020
-504.712	71.196	0.292	0.306
-503.697	-146.088	-0.413	0.037
-502.683	248.088	0.023	0.040
-501.668	-153.005	-0.154	0.011
-500.653	-115.891	-0.209	0.039
-499.639	-200.000	0.029	0.183
-498.624	-115.890	0.150	0.028
-497.610	134.473	0.210	-0.275
-496.595	-140.165	0.253	-0.027
-495.581	800.000	-0.052	0.218
-494.566	356.790	0.156	-0.314
-493.551	-130.875	0.032	0.004
-492.537	-55.837	0.155	0.070
-491.522	-110.615	-0.210	0.044
-490.508	-53.989	-0.180	0.083
-489.493	-200.000	-0.042	0.194
-488.478	-32.695	0.021	0.012
-487.464	-200.000	-0.015	-0.119
-486.449	-200.000	0.014	-0.077
-485.435	11.564	0.130	-0.101
-484.420	215.407	0.072	0.115
-483.405	495.516	0.127	0.295
-482.391	-200.000	-0.051	-0.260
-481.376	-80.451	0.231	-0.078
-480.362	-44.832	0.112	-0.056
-479.347	174.971	-0.180	-0.263
-478.332	-45.752	-0.212	0.106
-477.318	159.411	0.145	-0.203
-476.303	-200.000	-0.028	-0.221
-475.289	-70.049	-0.250	0.096
-474.274	317.418	-0.043	-0.083
-473.259	-85.851	-0.111	0.035
-472.245	-200.000	-0.039	-0.387
-471.230	324.968	-0.053	-0.103
-470.216	-95.647	0.230	-0.062
-469.201	-200.000	-0.026	0.204
-468.186	-200.000	0.047	-0.335
-467.172	-200.000	-0.016	0.263
-466.157	53.513	-0.201	-0.194
-465.143	-200.000	0.024	-0.360
-464.128	-90.060	0.292	-0.086
-463.113	3.912	-0.206	0.151
-462.099	800.000	0.020	0.056
-461.084	-200.000	0.034	0.218
-460.070	800.000	0.070	0.214
-459.055	47.307	0.085	-0.079
-458.040	228.549	0.069	0.113
-457.026	12.773	0.049	0.038
-456.011	800.000	0.093	0.265
-454.997	-127.013	0.362	-0.054
-453.982	-135.575	0.047	-0.006
-452.968	48.465	0.137	0.129
-451.953	464.206	0.022	0.051
-450.938	-200.000	0.004	-0.099
-449.924	-200.000	-0.004	0.017
-448.909	-195.813	0.145	0.001
-447.895	329.199	0.170	0.330
-446.880	73.191	0.145	-0.153
-445.865	-162.851	0.326	-0.016
-444.851	-54.483	0.164	0.075
-443.836	-102.508	0.126	-0.030
-442.822	-200.000	-0.009	0.375
-441.807	42.603	-0.129	-0.119
-440.792	146.172	-0.103	-0.139
-439.778	-59.638	0.041	0.018
-438.763	-23.701	-0.157	0.095
-437.749	-41.384	0.135	0.070
-436.734	75.371	-0.211	-0.224
-435.719	18.703	-0.161	0.130
-434.705	249.367	0.054	-0.091
-433.690	-70.708	-0.101	-0.039
-432.676	-200.000	0.051	-0.421
-431.661	-200.000	-0.030	0.222
-430.646	656.486	0.014	0.037
-429.632	-200.000	-0.036	0.235
-428.617	314.943	-0.107	0.202
-427.603	-109.725	-0.268	0.057
-426.588	-40.295	-0.031	-0.016
-425.573	80.815	0.077	-0.084
-424.559	-45.430	0.199	0.099
-423.544	-53.886	0.177	-0.081
-422.530	-159.995	-0.227	-0.012
-421.515	-37.080	-0.252	-0.136
-420.500	47.359	-0.269	-0.252
-419.486	800.000	-0.042	0.137
-418.471	-59.894	-0.140	-0.060
-417.457	-182.040	-0.102	0.002
-416.442	98.252	-0.216	-0.250
-415.428	-51.433	0.091	-0.043
-414.413	136.924	-0.280	0.368
-413.398	-4.595	-0.264	0.183
-412.384	-101.182	0.157	0.039
-411.369	-103.292	-0.289	0.069
-410.355	-37.336	-0.230	-0.123
-409.340	-63.578	-0.127	0.053
-408.325	-200.000	-0.071	0.338
-407.311	-35.323	-0.233	0.127
-406.296	-200.000	0.008	0.270
-405.282	-29.168	0.194	-0.112
-404.267	-200.000	0.001	0.270
-403.252	723.034	0.067	0.180
-402.238	64.923	-0.270	-0.274
-401.223	-200.000	0.087	0.404
-400.209	243.410	0.164	0.277
-399.194	279.844	0.083	-0.149
-398.179	-86.190	0.085	-0.026
-397.165	81.811	0.187	-0.203
-396.150	-38.709	0.321	-0.170
-395.136	-67.545	0.048	-0.019
-394.121	-200.000	-0.020	-0.268
-393.106	26.169	0.139	0.116
-392.092	-200.000	-0.021	0.223
-391.077	84.908	0.192	-0.212
-390.063	165.371	0.037	-0.053
-389.048	-40.544	-0.208	0.109
-388.033	112.779	0.148	-0.180
-387.019	-181.161	0.134	0.003
-386.004	-65.885	0.090	0.036
-384.990	216.689	0.077	0.123
-383.975	-60.150	-0.243	-0.104
-382.960	-200.000	-0.021	-0.464
-381.946	8.421	-0.150	0.113
-380.931	-139.095	-0.097	-0.011
-379.917	-130.742	0.218	0.029
-378.902	39.367	-0.329	0.296
-377.888	800.000	-0.079	-0.285
-376.873	-200.000	0.024	-0.185
-375.858	-127.663	-0.200	0.029
-374.844	-50.440	0.071	-0.034
-373.829	80.954	0.266	0.288
-372.815	-61.663	-0.383	-0.161
-371.800	-6.592	0.411	-0.281
-370.785	-154.056	0.052	-0.004
-369.771	-200.000	-0.043	0.286
-368.756	291.455	0.162	-0.296
-367.742	448.525	-0.072	-0.159
-366.727	70.495	0.079	-0.082
-365.712	91.078	-0.249	0.280
-364.698	800.000	-0.036	0.118
-363.683	-151.946	-0.164	0.012
-362.669	-200.000	-0.005	0.163
-361.654	-200.000	0.021	0.324
-360.639	147.604	0.014	0.019
-359.625	469.540	0.020	-0.045
-358.610	283.944	0.057	0.103
-357.596	-7.626	0.078	-0.053
-356.581	33.003	-0.192	0.167
-355.566	800.000	-0.109	-0.346
-354.552	-30.638	0.098	-0.056
-353.537	28.360	0.195	0.166
-352.523	-200.000	-0.006	0.185
-351.508	-200.000	0.003	-0.022
-350.493	-31.658	-0.248	0.140
-349.479	-69.799	-0.180	-0.069
-348.464	-200.000	0.023	0.188
-347.450	238.492	-0.082	-0.136
-346.435	-145.016	0.185	0.017
-345.420	50.816	0.352	-0.335
-344.406	800.000	0.050	-0.158
-343.391	-125.687	-0.431	0.065
-342.377	50.138	0.046	0.043
-341.362	-109.049	0.192	0.041
-340.348	-65.812	0.244	-0.098
-339.333	-200.000	-0.014	-0.077
-338.318	-97.376	-0.298	0.078
-337.304	543.893	-0.075	-0.179
-336.289	-174.144	0.182	-0.005
-335.275	-68.616	-0.042	-0.016
-334.260	119.241	0.270	-0.335
-333.245	-200.000	-0.005	0.146
-332.231	-62.918	0.066	-0.027
-331.216	14.827	0.354	-0.277
-330.202	-79.259	-0.273	-0.093
-329.187	-97.449	-0.341	0.089
-328.172	-200.000	0.346	-0.001
-327.158	331.010	0.059	0.113
-326.143	-83.049	0.424	0.137
-325.129	135.005	0.055	0.072
-324.114	105.190	0.064	0.076
-323.099	-129.041	0.235	0.033
-322.085	-162.455	0.117	0.006
-321.070	-105.874	0.337	0.076
-320.056	-142.541	0.190	0.019
-319.041	-58.070	-0.210	-0.092
-318.026	-200.000	-0.044	-0.346
-317.012	-90.880	0.130	0.038
-315.997	329.285	-0.132	-0.255
-314.983	-83.078	-0.089	-0.029
-313.968	800.000	-0.046	0.156
-312.953	-200.000	0.000	0.201
-311.939	29.756	-0.084	0.072
-310.924	199.318	-0.127	-0.196
-309.910	-132.466	0.514	0.066
-308.895	-58.652	0.216	-0.094
-307.880	-49.759	-0.104	0.049
-306.866	69.139	-0.074	0.076
-305.851	51.494	0.297	0.283
-304.837	-84.860	0.246	0.077
-303.822	14.504	-0.169	0.132
-302.807	5.037	0.208	-0.153
-301.793	-200.000	0.013	-0.269
-300.778	147.615	-0.045	0.061
-299.764	-200.000	0.011	-0.076
-298.749	426.212	0.043	0.093
-297.735	-122.964	-0.145	0.023
-296.720	-200.000	0.014	-0.292
-295.705	-75.844	0.528	-0.187
-294.691	-153.132	0.082	0.006
-293.676	-125.517	-0.412	0.063
-292.662	261.554	0.041	0.070
-291.647	208.236	0.118	0.184
-290.632	-200.000	-0.012	0.141
-289.618	800.000	-0.086	0.246
-288.603	-155.302	-0.164	0.011
-287.589	42.627	-0.135	0.123
-286.574	-70.797	-0.234	-0.088
-285.559	-117.023	-0.213	-0.039
-284.545	800.000	0.044	0.164
-283.530	-109.410	0.317	0.067
-282.516	-51.280	0.138	0.065
-281.501	423.222	-0.180	0.388
-280.486	-124.366	-0.180	-0.028
-279.472	-162.707	-0.293	-0.014
-278.457	-86.003	0.253	0.078
-277.443	49.701	0.105	-0.099
-276.428	800.000	-0.072	0.218
-275.413	1.913	0.235	-0.170
-274.399	208.704	-0.047	-0.074
-273.384	-74.760	0.171	-0.062
-272.370	79.741	0.022	0.024
-271.355	75.375	0.156	-0.165
-270.340	157.746	0.195	0.270
-269.326	800.000	-0.104	0.428
-268.311	74.181	0.109	-0.115
-267.297	30.547	-0.094	-0.080
-266.282	106.939	0.247	-0.294
-265.267	691.597	0.023	-0.061
-264.253	337.351	-0.048	0.093
-263.238	800.000	-0.105	0.332
-262.224	-158.736	-0.199	-0.011
-261.209	-118.946	0.175	0.031
-260.195	800.000	0.035	-0.097
-259.180	-13.239	0.191	-0.124
-258.165	-76.011	0.331	0.117
-257.151	217.558	0.033	-0.052
-256.136	761.361	0.023	0.062
-255.122	-200.000	0.022	0.153
-254.107	-7.722	-0.151	0.102
-253.092	800.000	0.024	0.098
-252.078	168.049	0.172	0.244
-251.063	-200.000	0.004	0.292
-250.049	-32.579	-0.099	-0.055
-249.034	-200.000	0.019	-0.181
-248.019	-200.000	0.006	-0.051
-247.005	167.606	-0.059	-0.083
-245.990	-87.772	0.268	-0.081
-244.976	-146.412	-0.289	0.025
-243.961	-200.000	-0.013	-0.215
-242.946	-39.198	0.186	0.098
-241.932	-59.162	-0.214	0.092
-240.917	-47.115	-0.140	-0.068
-239.903	800.000	-0.074	-0.216
-238.888	43.295	0.277	-0.253
-237.873	169.452	-0.099	0.142
-236.859	390.566	0.045	0.094
-235.844	-57.842	-0.080	0.035
-234.830	170.427	-0.043	0.061
-233.815	-54.813	-0.200	-0.090
-232.800	-37.558	0.059	0.031
-231.786	68.470	-0.277	-0.284
-230.771	169.689	0.277	-0.395
-229.757	-51.118	0.217	0.102
-228.742	-32.492	-0.336	0.187
-227.727	190.524	-0.168	-0.252
-226.713	-23.143	-0.304	-0.183
-225.698	15.050	0.126	-0.099
-224.684	463.348	0.169	-0.376
-223.669	68.980	0.052	0.054
-222.655	-172.326	-0.061	0.002
-221.640	162.421	0.109	0.153
-220.625	-145.641	-0.298	0.027
-219.611	16.811	0.152	0.120
-218.596	-200.000	-0.007	0.237
-217.582	250.209	-0.029	0.050
-216.567	-200.000	0.012	0.138
-215.552	283.790	0.185	0.332
-214.538	-19.318	-0.079	-0.049
-213.523	-50.894	0.276	-0.129
-212.509	-200.000	-0.012	0.137
-211.494	-51.939	0.446	0.207
-210.479	-23.898	0.063	-0.038
-209.465	105.326	-0.137	-0.161
-208.450	75.517	0.248	0.262
-207.436	-129.136	-0.300	0.042
-206.421	-12.671	0.298	-0.194
-205.406	704.114	-0.062	0.164
-204.392	309.229	-0.133	-0.248
-203.377	409.036	0.061	-0.129
-202.363	-200.000	0.030	0.169
-201.348	-26.952	-0.209	0.122
-200.333	-101.835	-0.288	0.070
-199.319	63.833	-0.111	-0.111
-198.304	98.412	0.078	0.090
-197.290	-48.427	-0.129	0.062
-196.275	-128.937	-0.231	0.032
-195.260	36.596	0.289	-0.255
-194.246	59.888	-0.429	0.422
-193.231	-200.000	-0.098	0.570
-192.217	-200.000	-0.011	-0.072
-191.202	-102.378	0.231	-0.055
-190.187	-30.073	-0.182	-0.103
-189.173	126.346	0.043	0.054
-188.158	-22.626	0.191	0.115
-187.144	-106.895	-0.022	0.005
-186.129	-37.049	-0.458	-0.244
-185.114	208.412	0.106	-0.165
-184.100	194.726	0.164	0.248
-183.085	66.698	0.176	-0.179
-182.071	199.965	0.110	0.168
-181.056	-97.491	-0.219	-0.057
-180.042	31.204	0.100	0.085
-179.027	-66.002	0.300	-0.120
-178.012	-95.459	-0.422	0.113
-176.998	800.000	0.097	0.275
-175.983	55.499	-0.124	0.120
-174.969	-200.000	0.085	-0.532
-173.954	-116.819	0.210	-0.038
-172.939	800.000	0.060	0.230
-171.925	28.455	0.063	0.053
-170.910	800.000	-0.150	0.466
-169.896	64.305	-0.059	-0.059
-168.881	248.423	-0.077	-0.130
-167.866	-200.000	-0.041	-0.356
-166.852	433.206	-0.062	-0.134
-165.837	-162.129	-0.362	-0.018
-164.823	-103.401	-0.133	0.031
-163.808	-98.761	0.529	0.134
-162.793	-200.000	-0.112	0.000
-161.779	-118.190	0.310	0.055
-160.764	335.205	0.083	-0.160
-159.750	49.509	-0.118	-0.111
-158.735	125.465	0.203	-0.256
-157.720	-70.050	0.107	-0.041
-156.706	-200.000	-0.014	-0.484
-155.691	-200.000	-0.014	-0.096
-154.677	-91.434	-0.293	-0.083
-153.662	-200.000	0.036	0.168
-152.647	-91.420	0.105	0.030
-151.633	-200.000	-0.031	-0.305
-150.618	-200.000	-0.034	-0.193
-149.604	-176.485	0.185	0.005
-148.589	-150.742	0.090	-0.007
-147.574	-126.655	0.144	0.021
-146.560	-30.700	0.254	-0.143
-145.545	-109.930	-0.224	-0.047
-144.531	174.871	-0.164	0.236
-143.516	-36.614	-0.192	-0.103
-142.502	-113.787	-0.434	0.084
-141.487	800.000	0.067	-0.190
-140.472	-131.639	0.314	-0.041
-139.458	134.231	0.172	-0.222
-138.443	91.148	-0.197	0.220
-137.429	-168.096	0.039	0.001
-136.414	-75.765	0.222	0.078
-135.399	-135.570	0.339	0.040
-134.385	-86.299	0.165	-0.050
-133.370	-200.000	0.007	0.103
-132.356	-6.650	0.190	-0.129
-131.341	213.421	0.261	-0.411
-130.326	-200.000	0.023	-0.156
-129.312	800.000	0.057	-0.194
-128.297	800.000	-0.072	-0.245
-127.283	-200.000	0.014	0.342
-126.268	800.000	-0.095	0.287
-125.253	-24.253	-0.075	-0.044
-124.239	-7.035	-0.177	0.120
-123.224	84.760	0.029	0.032
-122.210	15.154	0.198	0.155
-121.195	133.442	0.207	0.267
