DTS Sentinel unit serial number:	SN413079Multiplexer serial number:	ORYXHardware model number:	OX4-SRSoftware version number:	ORYX F/W v4.00 Oryx Data Collector v3.7.2.0data status	okinstallation	princeton_trtdifferential loss correction	single-endedforward channel	channel 3reverse channel	N/Adate	2019/09/15time	13:56:35forward acquisition time	60.00reverse acquisition time	0.00gamma	496.2192k internal	0.2293k external	0.2293temperature offset calibration	0.9958default loss term (dB/km)	0.3790temperature slope calibration	1.0000multiplexer offset coefficient	1.0000multiplexer slope coefficient	1.0000fibre end	0.00T internal ref (°C)	38.36T ext. ref 1 (°C)	4.97T ext. ref 2 (°C)	34.97length (m)	temperature (°C)	Stokes	anti-Stokes-747.200	-0.042	-0.161	0.117
-746.185	-109.412	0.255	0.055
-745.171	-200.000	-0.032	-0.163
-744.156	-84.639	0.461	-0.149
-743.142	-81.408	0.230	0.077
-742.127	-2.185	-0.210	0.151
-741.112	800.000	-0.036	-0.129
-740.098	-200.000	-0.003	0.071
-739.083	800.000	-0.056	-0.216
-738.069	29.743	-0.237	0.207
-737.054	-40.655	0.204	0.108
-736.039	-200.000	-0.025	-0.194
-735.025	-83.202	0.221	-0.073
-734.010	-107.776	-0.233	-0.052
-732.996	179.608	-0.186	0.279
-731.981	109.050	0.054	-0.066
-730.966	82.508	0.041	0.045
-729.952	-83.994	0.213	0.069
-728.937	84.311	-0.041	-0.046
-727.923	800.000	-0.049	-0.193
-726.908	50.970	-0.127	0.123
-725.894	51.136	-0.120	-0.116
-724.879	-82.430	-0.064	0.021
-723.864	-142.168	-0.104	0.011
-722.850	-160.792	0.162	0.009
-721.835	-200.000	0.037	-0.321
-720.821	-187.539	-0.086	0.001
-719.806	20.709	0.197	0.163
-718.791	-184.513	-0.323	-0.005
-717.777	-200.000	0.068	-0.358
-716.762	-117.100	0.160	-0.030
-715.748	-112.538	0.168	0.034
-714.733	38.986	0.356	-0.325
-713.718	-86.015	0.201	-0.063
-712.704	11.656	0.301	0.236
-711.689	-58.548	-0.181	0.080
-710.675	31.493	0.184	-0.161
-709.660	553.739	-0.064	0.157
-708.645	-35.685	-0.203	0.113
-707.631	-200.000	-0.003	-0.197
-706.616	800.000	-0.048	0.146
-705.602	6.851	0.166	0.126
-704.587	401.002	0.180	-0.386
-703.572	-7.192	0.213	-0.148
-702.558	100.744	0.225	-0.267
-701.543	-25.994	0.323	0.194
-700.529	-200.000	-0.053	0.487
-699.514	-119.815	0.240	-0.042
-698.499	406.201	0.119	0.256
-697.485	28.284	-0.141	-0.122
-696.470	-77.459	0.424	-0.150
-695.456	-200.000	0.024	0.370
-694.441	-31.962	0.119	-0.068
-693.426	703.605	-0.034	-0.092
-692.412	-132.206	-0.070	-0.009
-691.397	-86.713	0.295	0.092
-690.383	800.000	0.034	0.104
-689.368	416.994	-0.096	0.208
-688.354	608.809	0.094	-0.241
-687.339	228.416	0.076	0.126
-686.324	161.115	0.233	-0.333
-685.310	-82.742	-0.166	-0.055
-684.295	59.104	-0.021	0.021
-683.281	-108.109	0.106	0.023
-682.266	27.896	0.209	-0.180
-681.251	-200.000	0.021	-0.152
-680.237	34.943	-0.119	-0.106
-679.222	800.000	-0.075	0.219
-678.208	-200.000	-0.022	0.127
-677.193	168.621	-0.288	-0.419
-676.178	44.843	-0.061	-0.058
-675.164	800.000	-0.036	-0.110
-674.149	800.000	-0.020	0.086
-673.135	-99.258	-0.360	-0.093
-672.120	74.015	-0.156	-0.167
-671.105	-60.863	-0.106	-0.046
-670.091	17.512	0.110	-0.089
-669.076	16.706	0.258	-0.208
-668.062	-46.810	-0.037	0.019
-667.047	-161.860	-0.166	-0.009
-666.032	45.498	0.104	0.098
-665.018	-132.315	-0.171	-0.023
-664.003	236.140	-0.269	0.454
-662.989	21.330	0.170	0.141
-661.974	-118.500	0.069	-0.012
-660.959	-200.000	-0.036	-0.419
-659.945	26.540	-0.171	-0.146
-658.930	59.576	0.217	-0.219
-657.916	579.440	0.031	-0.077
-656.901	-192.275	-0.263	0.003
-655.886	-200.000	-0.009	0.232
-654.872	66.475	-0.085	0.088
-653.857	12.483	0.135	0.106
-652.843	-73.269	0.275	-0.103
-651.828	289.998	-0.141	0.261
-650.814	-125.354	0.299	-0.046
-649.799	58.303	-0.110	0.110
-648.784	-28.674	-0.025	-0.015
-647.770	596.709	-0.036	-0.090
-646.755	681.328	0.092	-0.245
-645.741	800.000	-0.059	0.233
-644.726	313.780	0.170	0.325
-643.711	-137.439	0.126	-0.015
-642.697	-200.000	0.022	0.347
-641.682	-15.661	0.193	-0.125
-640.668	22.388	-0.180	0.150
-639.653	222.709	-0.160	-0.263
-638.638	53.123	0.022	0.022
-637.624	241.068	-0.112	0.191
-636.609	162.578	-0.124	0.177
-635.595	800.000	-0.100	-0.329
-634.580	-200.000	-0.064	-0.347
-633.565	-200.000	0.030	0.305
-632.551	-200.000	0.021	0.183
-631.536	215.911	-0.143	0.232
-630.522	51.196	-0.184	-0.177
-629.507	65.634	0.072	-0.075
-628.492	-31.916	-0.086	-0.049
-627.478	-157.612	-0.366	-0.022
-626.463	3.255	-0.240	-0.178
-625.449	-200.000	0.025	0.326
-624.434	290.795	-0.124	-0.230
-623.419	-61.961	0.307	0.131
-622.405	65.838	0.209	0.216
-621.390	-100.172	0.291	0.074
-620.376	-200.000	0.030	0.352
-619.361	-164.956	0.085	0.004
-618.346	-139.706	-0.093	-0.010
-617.332	800.000	-0.027	-0.089
-616.317	259.598	-0.038	-0.067
-615.303	194.394	0.101	-0.156
-614.288	0.680	0.137	0.100
-613.273	-200.000	0.094	-0.424
-612.259	74.709	-0.095	-0.102
-611.244	316.240	-0.064	0.123
-610.230	-155.184	0.105	0.007
-609.215	-200.000	-0.014	0.154
-608.201	800.000	-0.037	0.111
-607.186	8.552	-0.306	-0.234
-606.171	-200.000	-0.009	0.161
-605.157	3.737	-0.250	0.186
-604.142	-48.156	-0.215	0.106
-603.128	800.000	-0.038	-0.154
-602.113	-59.782	0.118	0.052
-601.098	62.335	-0.140	-0.142
-600.084	-33.528	0.098	-0.055
-599.069	-200.000	-0.027	0.379
-598.055	800.000	-0.113	0.383
-597.040	-9.353	-0.152	0.103
-596.025	-174.926	0.115	0.003
-595.011	-200.000	-0.018	0.267
-593.996	38.529	0.102	-0.092
-592.982	800.000	0.055	0.160
-591.967	-38.440	-0.074	0.040
-590.952	-115.575	-0.217	-0.041
-589.938	800.000	0.090	0.265
-588.923	800.000	-0.036	-0.153
-587.909	53.123	0.303	-0.296
-586.894	-31.066	-0.170	0.097
-585.879	-92.811	-0.235	0.067
-584.865	-144.624	0.081	0.008
-583.850	48.361	0.107	0.102
-582.836	23.199	-0.020	-0.017
-581.821	96.679	-0.080	0.093
-580.806	422.333	-0.058	0.127
-579.792	-200.000	-0.041	0.343
-578.777	391.894	-0.132	-0.279
-577.763	-7.478	0.248	0.171
-576.748	68.904	-0.037	-0.038
-575.733	614.254	0.200	0.508
-574.719	226.925	-0.243	-0.402
-573.704	117.302	0.216	-0.270
-572.690	17.099	0.186	0.150
-571.675	242.116	-0.203	0.345
-570.661	800.000	0.048	0.164
-569.646	244.185	0.122	-0.208
-568.631	446.160	-0.119	-0.267
-567.617	-163.055	0.311	-0.015
-566.602	-10.771	-0.340	-0.228
-565.588	107.545	-0.108	-0.130
-564.573	284.598	-0.113	-0.207
-563.558	-164.261	-0.404	-0.019
-562.544	3.614	-0.361	-0.267
-561.529	-112.510	-0.295	0.060
-560.515	-42.700	-0.208	-0.107
-559.500	175.778	0.169	0.249
-558.485	-200.000	-0.012	0.273
-557.471	48.221	0.118	0.112
-556.456	276.068	0.089	-0.161
-555.442	-139.752	-0.317	0.034
-554.427	800.000	-0.026	0.092
-553.412	-200.000	-0.023	0.119
-552.398	141.665	-0.281	-0.377
-551.383	-75.850	0.261	0.094
-550.369	64.872	0.264	-0.270
-549.354	94.944	0.200	-0.231
-548.339	-97.401	-0.118	-0.031
-547.325	-200.000	0.064	-0.381
-546.310	42.147	0.176	-0.163
-545.296	-77.915	-0.318	-0.111
-544.281	-54.184	0.185	-0.085
-543.266	-77.484	0.306	0.108
-542.252	-124.763	-0.125	0.020
-541.237	-200.000	0.023	0.174
-540.223	-110.828	0.090	0.019
-539.208	12.589	0.128	-0.100
-538.193	254.106	0.134	0.232
-537.179	-200.000	-0.023	0.143
-536.164	-8.106	-0.072	-0.049
-535.150	800.000	-0.091	-0.355
-534.135	-109.777	0.172	-0.037
-533.121	437.241	-0.086	0.191
-532.106	393.869	0.095	0.201
-531.091	586.868	-0.095	0.236
-530.077	800.000	0.027	-0.119
-529.062	-200.000	-0.074	0.000
-528.048	800.000	0.024	-0.103
-527.033	-200.000	-0.012	-0.058
-526.018	20.186	-0.099	-0.081
-525.004	800.000	-0.075	-0.242
-523.989	127.714	-0.085	0.110
-522.975	-22.942	-0.203	-0.124
-521.960	-53.968	-0.243	0.112
-520.945	-200.000	-0.021	-0.165
-519.931	749.520	-0.006	0.017
-518.916	-200.000	0.050	-0.331
-517.902	-132.176	-0.105	0.014
-516.887	-200.000	-0.015	0.210
-515.872	-144.986	0.180	-0.017
-514.858	-115.597	0.091	0.017
-513.843	-143.167	0.189	0.018
-512.829	-200.000	-0.014	-0.086
-511.814	112.911	0.195	-0.239
-510.799	-127.528	0.332	0.049
-509.785	-42.399	-0.110	0.057
-508.770	424.171	0.048	0.104
-507.756	-200.000	0.030	0.149
-506.741	-120.005	0.242	-0.042
-505.726	101.513	-0.158	-0.187
-504.712	-137.144	0.188	0.022
-503.697	308.423	-0.023	-0.043
-502.683	26.314	-0.079	0.067
-501.668	-200.000	-0.030	-0.174
-500.653	194.760	0.149	-0.230
-499.639	167.518	0.069	0.099
-498.624	800.000	0.026	0.087
-497.610	-71.680	0.225	-0.085
-496.595	-200.000	-0.036	-0.584
-495.581	-110.684	-0.147	0.031
-494.566	-118.618	0.149	0.027
-493.551	800.000	-0.072	0.291
-492.537	364.842	0.009	-0.019
-491.522	-116.325	0.275	0.052
-490.508	579.200	0.141	0.351
-489.493	713.618	-0.055	0.146
-488.478	145.872	-0.204	-0.276
-487.464	-200.000	-0.028	0.339
-486.449	800.000	-0.064	0.209
-485.435	59.470	-0.103	-0.103
-484.420	-15.169	0.114	0.074
-483.405	114.228	0.099	-0.122
-482.391	79.197	-0.132	0.144
-481.376	31.895	-0.094	-0.082
-480.362	-200.000	-0.018	-0.118
-479.347	-200.000	-0.003	-0.257
-478.332	332.200	0.021	0.041
-477.318	17.846	0.132	0.106
-476.303	-26.920	-0.151	0.089
-475.289	800.000	0.109	0.371
-474.274	-101.899	-0.213	-0.052
-473.259	-179.498	-0.127	0.003
-472.245	-40.472	0.090	-0.047
-471.230	102.551	-0.178	-0.210
-470.216	-200.000	-0.024	-0.434
-469.201	-69.129	-0.086	0.033
-468.186	-9.141	-0.197	-0.133
-467.172	115.522	0.256	0.316
-466.157	234.965	0.069	0.116
-465.143	800.000	0.046	-0.147
-464.128	535.122	-0.175	0.420
-463.113	-200.000	-0.001	-0.005
-462.099	237.323	0.022	0.037
-461.084	-42.530	0.074	-0.038
-460.070	117.267	-0.214	-0.267
-459.055	-142.569	-0.326	0.032
-458.040	-155.168	0.240	-0.016
-457.026	-200.000	0.037	-0.341
-456.011	76.865	0.043	-0.046
-454.997	-200.000	0.008	0.139
-453.982	-200.000	-0.024	-0.278
-452.968	-22.276	0.185	-0.114
-451.953	154.166	0.148	0.205
-450.938	-28.675	0.015	0.008
-449.924	106.866	0.083	-0.100
-448.909	-97.646	0.045	0.012
-447.895	358.753	-0.162	0.328
-446.880	180.727	-0.192	0.286
-445.865	28.248	0.116	-0.099
-444.851	-200.000	0.003	0.027
-443.836	-200.000	0.006	0.174
-442.822	-73.515	-0.230	-0.085
-441.807	800.000	0.047	-0.208
-440.792	462.648	0.117	-0.263
-439.778	462.443	0.116	-0.262
-438.763	71.848	0.213	-0.223
-437.749	-33.722	-0.236	0.132
-436.734	72.359	-0.277	0.292
-435.719	800.000	-0.092	-0.370
-434.705	-73.744	0.311	0.114
-433.690	-93.654	0.124	0.034
-432.676	800.000	-0.050	0.160
-431.661	-200.000	-0.011	0.154
-430.646	-17.281	0.098	-0.062
-429.632	-50.180	0.183	0.088
-428.617	-13.848	0.062	0.041
-427.603	-144.282	0.030	0.003
-426.588	31.880	-0.115	-0.100
-425.573	-200.000	0.008	0.043
-424.559	-123.615	0.220	0.035
-423.544	800.000	0.037	-0.107
-422.530	302.996	0.005	-0.009
-421.515	-19.706	0.039	-0.024
-420.500	270.264	0.132	-0.235
-419.486	-70.640	-0.149	0.057
-418.471	39.486	0.175	-0.158
-417.457	-142.947	0.076	-0.007
-416.442	-142.962	0.340	-0.033
-415.428	800.000	0.071	-0.214
-414.413	-115.397	-0.024	-0.005
-413.398	-33.218	-0.076	-0.042
-412.384	-200.000	-0.014	-0.231
-411.369	-24.554	-0.114	0.068
-410.355	-2.120	-0.173	-0.123
-409.340	-200.000	-0.046	-0.266
-408.325	46.358	0.188	-0.176
-407.311	-147.140	0.039	-0.003
-406.296	-169.689	-0.056	0.002
-405.282	-111.917	-0.166	0.034
-404.267	-200.000	0.028	-0.167
-403.252	-33.701	0.139	0.077
-402.238	800.000	-0.045	-0.167
-401.223	77.449	-0.037	-0.040
-400.209	26.753	-0.013	-0.011
-399.194	179.906	-0.157	-0.233
-398.179	-80.216	0.132	0.045
-397.165	-17.546	-0.279	0.177
-396.150	11.029	0.136	0.105
-395.136	-172.255	-0.119	-0.004
-394.121	248.950	0.072	0.123
-393.106	125.166	-0.233	-0.296
-392.092	-200.000	-0.019	-0.237
-391.077	-149.489	0.299	0.024
-390.063	2.152	-0.114	-0.083
-389.048	136.140	-0.078	-0.102
-388.033	-56.331	0.283	0.127
-387.019	251.328	-0.034	0.058
-386.004	-197.102	0.273	0.002
-384.990	-170.262	-0.427	0.015
-383.975	-99.304	0.023	0.006
-382.960	-37.134	-0.158	0.085
-381.946	-96.777	0.276	0.073
-380.931	-200.000	-0.050	-0.284
-379.917	21.493	-0.163	0.134
-378.902	-200.000	-0.001	-0.206
-377.888	-200.000	0.052	0.531
-376.873	7.285	-0.210	0.158
-375.858	20.710	0.133	0.108
-374.844	-33.568	-0.286	0.159
-373.829	-108.307	-0.359	0.078
-372.815	800.000	0.022	0.096
-371.800	-200.000	-0.003	-0.052
-370.785	465.071	0.083	0.187
-369.771	47.307	-0.362	0.340
-368.756	-200.000	-0.053	0.470
-367.742	-66.262	0.067	-0.027
-366.727	150.252	0.161	-0.221
-365.712	-200.000	-0.006	0.030
-364.698	-86.939	0.292	0.090
-363.683	-200.000	-0.030	0.213
-362.669	-9.277	0.329	0.222
-361.654	248.114	-0.033	0.056
-360.639	-140.011	-0.141	0.015
-359.625	-60.760	0.103	0.044
-358.610	-190.193	0.185	-0.002
-357.596	136.487	0.186	0.245
-356.581	-120.082	0.174	-0.030
-355.566	-200.000	0.073	0.412
-354.552	-200.000	-0.009	0.166
-353.537	181.449	0.047	0.070
-352.523	205.923	-0.036	0.056
-351.508	148.657	0.127	0.172
-350.493	117.093	0.058	-0.071
-349.479	176.758	-0.134	0.196
-348.464	800.000	0.061	0.228
-347.450	-154.270	-0.215	-0.015
-346.435	458.512	0.064	0.144
-345.420	800.000	0.050	0.195
-344.406	-143.247	-0.172	-0.017
-343.391	-200.000	0.011	0.131
-342.377	-83.070	0.338	0.110
-341.362	133.361	0.151	-0.196
-340.348	-200.000	-0.021	0.101
-339.333	800.000	0.130	0.467
-338.318	800.000	-0.034	0.096
-337.304	51.820	0.163	0.156
-336.289	142.870	0.013	0.018
-335.275	-200.000	0.026	0.183
-334.260	-93.578	-0.263	0.073
-333.245	-29.178	0.462	-0.267
-332.231	-200.000	0.009	-0.162
-331.216	-62.470	-0.172	-0.072
-330.202	-28.953	0.069	0.040
-329.187	59.376	-0.098	0.097
-328.172	452.646	0.121	0.268
-327.158	204.548	-0.215	0.336
-326.143	63.125	-0.118	-0.119
-325.129	800.000	-0.009	0.036
-324.114	-23.446	-0.230	-0.139
-323.099	770.981	-0.069	-0.190
-322.085	427.844	-0.080	-0.173
-321.070	97.178	-0.153	0.177
-320.056	-35.268	0.178	-0.098
-319.041	-87.795	-0.132	0.040
-318.026	-36.496	-0.094	-0.051
-317.012	-196.375	0.322	0.002
-315.997	-103.190	-0.127	-0.030
-314.983	59.129	-0.214	-0.212
-313.968	18.910	-0.213	-0.171
-312.953	37.279	0.167	0.148
-311.939	19.223	0.197	-0.159
-310.924	105.515	-0.064	-0.076
-309.910	-131.040	-0.105	-0.014
-308.895	683.760	-0.071	-0.185
-307.880	56.606	-0.079	-0.077
-306.866	800.000	-0.078	0.233
-305.851	-52.508	0.147	0.069
-304.837	-200.000	0.047	-0.306
-303.822	800.000	-0.059	-0.178
-302.807	217.921	-0.318	0.510
-301.793	-116.728	-0.122	0.022
-300.778	-7.826	0.224	0.152
-299.764	51.414	-0.213	-0.203
-298.749	-200.000	-0.009	0.317
-297.735	800.000	0.067	0.280
-296.720	127.123	-0.345	-0.441
-295.705	-200.000	-0.009	0.110
-294.691	529.603	0.053	-0.125
-293.676	-200.000	0.026	-0.186
-292.662	-39.008	0.137	-0.072
-291.647	-75.642	-0.249	-0.089
-290.632	-87.602	-0.260	0.079
-289.618	-135.055	0.113	-0.014
-288.603	90.840	-0.079	0.089
-287.589	132.690	0.187	-0.243
-286.574	702.345	0.047	0.125
-285.559	800.000	0.077	0.292
-284.545	-2.843	-0.146	-0.102
-283.530	780.666	0.096	0.264
-282.516	800.000	0.047	0.190
-281.501	544.103	-0.051	0.122
-280.486	356.851	0.135	0.270
-279.472	-200.000	-0.026	-0.202
-278.457	800.000	-0.079	0.249
-277.443	25.290	-0.039	0.032
-276.428	-12.460	0.001	-0.000
-275.413	-200.000	0.017	0.153
-274.399	-103.850	-0.031	0.007
-273.384	-65.569	0.290	-0.117
-272.370	-73.955	-0.061	0.022
-271.355	-117.837	-0.164	-0.030
-270.340	31.222	0.010	-0.009
-269.326	-167.279	0.180	0.007
-268.311	115.299	0.140	-0.172
-267.297	800.000	0.064	-0.192
-266.282	800.000	-0.030	-0.107
-265.267	-152.727	-0.179	0.013
-264.253	91.656	0.223	-0.252
-263.238	123.552	-0.164	-0.206
-262.224	402.925	-0.089	-0.187
-261.209	-57.443	0.267	0.118
-260.195	218.037	-0.107	-0.171
-259.180	60.065	-0.196	-0.195
-258.165	7.008	0.192	-0.144
-257.151	2.850	0.065	-0.047
-256.136	2.505	-0.121	0.088
-255.122	-200.000	-0.001	0.012
-254.107	190.759	-0.123	0.186
-253.092	-135.061	-0.238	-0.029
-252.078	13.740	0.172	-0.134
-251.063	-149.557	-0.243	-0.019
-250.049	-29.941	-0.364	-0.208
-249.034	-62.040	0.327	0.137
-248.019	-20.297	-0.088	0.054
-247.005	-11.780	0.184	0.121
-245.990	-0.531	-0.027	-0.019
-244.976	-88.066	0.185	0.056
-243.961	-85.022	0.206	-0.065
-242.946	714.697	-0.011	-0.030
-241.932	-44.682	0.119	-0.060
-240.917	-200.000	-0.008	-0.348
-239.903	34.598	-0.157	0.137
-238.888	25.193	0.153	-0.127
-237.873	21.479	0.088	-0.072
-236.859	800.000	-0.107	-0.409
-235.844	53.661	-0.193	0.186
-234.830	-16.816	-0.201	-0.127
-233.815	-200.000	0.089	-0.597
-232.800	-99.565	-0.357	0.090
-231.786	800.000	-0.022	-0.063
-230.771	194.268	0.164	-0.249
-229.757	458.343	0.096	0.214
-228.742	275.150	-0.046	-0.081
-227.727	-200.000	0.011	-0.115
-226.713	138.488	-0.109	-0.144
-225.698	-153.853	0.215	-0.015
-224.684	-107.311	-0.095	-0.021
-223.669	22.967	-0.292	-0.240
-222.655	-200.000	-0.004	0.108
-221.640	135.758	0.209	0.273
-220.625	-116.825	-0.125	0.023
-219.611	-125.504	0.399	0.061
-218.596	-77.115	-0.168	-0.059
-217.582	-138.659	0.045	-0.005
-216.567	166.111	0.182	-0.258
-215.552	-200.000	-0.030	-0.196
-214.538	170.190	-0.044	0.064
-213.523	380.347	-0.104	-0.215
-212.509	-18.041	0.246	0.154
-211.494	-78.582	-0.357	0.122
-210.479	10.438	0.220	-0.168
-209.465	-200.000	-0.055	-0.434
-208.450	-0.379	-0.148	0.105
-207.436	282.934	0.118	0.212
-206.421	-200.000	0.010	0.173
-205.406	-26.119	0.162	0.096
-204.392	-6.604	-0.157	-0.107
-203.377	498.372	-0.059	0.135
-202.363	165.431	-0.173	0.244
-201.348	-121.522	-0.386	-0.064
-200.333	493.191	-0.015	-0.035
-199.319	-124.127	0.200	-0.031
-198.304	800.000	0.021	0.088
-197.290	62.637	0.050	-0.050
-196.275	-137.604	0.325	-0.037
-195.260	91.523	0.125	-0.141
-194.246	279.276	0.114	0.204
-193.231	-54.654	-0.119	0.054
-192.217	-87.652	0.286	-0.086
-191.202	-200.000	-0.066	-0.327
-190.187	-153.471	-0.285	0.020
-189.173	-76.018	-0.079	-0.028
-188.158	-135.929	0.251	-0.030
-187.144	307.637	-0.009	-0.018
-186.129	-110.935	-0.184	-0.038
-185.114	-165.936	0.129	-0.006
-184.100	800.000	-0.065	-0.183
-183.085	-200.000	0.014	-0.330
-182.071	-200.000	0.004	-0.160
-181.056	800.000	-0.079	-0.221
-180.042	-51.815	0.036	0.017
-179.027	19.495	0.115	0.092
-178.012	-104.072	-0.113	-0.026
-176.998	254.506	0.060	0.103
-175.983	-200.000	0.046	0.262
-174.969	25.544	0.247	-0.206
-173.954	130.875	0.152	-0.195
-172.939	72.409	-0.290	0.302
-171.925	-24.777	0.128	-0.076
-170.910	-34.046	0.076	-0.042
-169.896	-135.101	0.120	-0.014
-168.881	-200.000	0.041	0.284
-167.866	678.991	-0.021	-0.053
-166.852	-86.687	-0.288	-0.088
-165.837	5.584	0.167	0.123
-164.823	-68.335	0.151	0.059
-163.808	-89.642	-0.162	0.048
-162.793	-200.000	0.007	0.051
-161.779	209.691	-0.121	-0.190
-160.764	-38.975	0.425	-0.224
-159.750	-100.147	0.273	0.068
-158.735	243.025	-0.068	-0.114
-157.720	-83.243	0.509	0.163
-156.706	4.402	-0.016	-0.012
-155.691	-119.566	-0.085	-0.015
-154.677	-32.832	0.237	-0.132
-153.662	232.143	-0.056	0.091
-152.647	37.837	0.203	0.181
-151.633	-200.000	-0.073	0.338
-150.618	-112.595	-0.243	0.048
-149.604	21.332	-0.321	0.260
-148.589	-81.642	0.193	0.063
-147.574	474.560	0.148	-0.334
-146.560	52.487	-0.066	0.063
-145.545	666.564	-0.118	-0.305
-144.531	-200.000	0.018	0.122
-143.516	-111.668	0.186	0.038
-142.502	75.396	0.077	-0.082
-141.487	161.765	0.189	-0.265
-140.472	-36.265	-0.101	-0.054
-139.458	69.880	0.059	-0.061
-138.443	53.734	0.179	0.171
-137.429	-200.000	0.023	-0.325
-136.414	32.386	0.171	-0.147
-135.399	-140.383	0.319	0.033
-134.385	-200.000	0.009	0.045
-133.370	14.380	-0.070	-0.054
-132.356	110.699	-0.075	0.090
-131.341	800.000	-0.048	0.143
-130.326	-87.616	-0.219	0.066
-129.312	800.000	-0.014	0.045
-128.297	592.766	0.086	0.212
-127.283	-114.870	0.210	0.040
-126.268	740.950	0.068	0.182
-125.253	27.753	0.258	0.217
-124.239	94.533	-0.225	-0.255
-123.224	-63.104	-0.186	0.077
-122.210	301.976	0.130	-0.240
-121.195	800.000	0.077	-0.308
