DTS Sentinel unit serial number:	SN413079Multiplexer serial number:	ORYXHardware model number:	OX4-SRSoftware version number:	ORYX F/W v4.00 Oryx Data Collector v3.7.2.0data status	okinstallation	princeton_trtdifferential loss correction	single-endedforward channel	channel 3reverse channel	N/Adate	2019/09/19time	02:56:35forward acquisition time	60.00reverse acquisition time	0.00gamma	496.2192k internal	0.2348k external	0.2348temperature offset calibration	0.9991default loss term (dB/km)	0.3790temperature slope calibration	1.0000multiplexer offset coefficient	1.0000multiplexer slope coefficient	1.0000fibre end	0.00T internal ref (°C)	20.87T ext. ref 1 (°C)	0.66T ext. ref 2 (°C)	14.69length (m)	temperature (°C)	Stokes	anti-Stokes-747.200	164.692	0.046	-0.065
-746.185	228.929	-0.098	0.159
-745.171	-128.387	-0.129	0.018
-744.156	-10.467	0.091	-0.060
-743.142	-79.018	0.280	-0.095
-742.127	-71.480	-0.080	-0.030
-741.112	701.730	0.060	0.157
-740.098	-41.744	-0.474	0.243
-739.083	233.038	-0.232	0.381
-738.069	-97.280	-0.179	0.047
-737.054	276.356	-0.149	-0.264
-736.039	-121.190	-0.277	0.046
-735.025	800.000	0.097	0.314
-734.010	800.000	0.089	-0.278
-732.996	202.165	0.250	-0.386
-731.981	341.492	0.029	0.056
-730.966	-13.982	-0.399	-0.257
-729.952	-32.305	-0.248	0.138
-728.937	-13.351	-0.129	-0.084
-727.923	-163.787	-0.281	0.013
-726.908	-141.959	-0.169	0.017
-725.894	477.920	0.127	-0.286
-724.879	-200.000	0.006	0.068
-723.864	-200.000	-0.025	-0.145
-722.850	489.249	-0.083	-0.189
-721.835	-125.206	0.209	0.032
-720.821	166.368	-0.101	-0.143
-719.806	211.614	0.155	-0.244
-718.791	167.971	-0.186	-0.265
-717.777	194.762	0.158	0.239
-716.762	73.945	-0.252	-0.264
-715.748	-200.000	0.011	0.315
-714.733	112.253	0.077	-0.093
-713.718	-165.679	-0.294	0.013
-712.704	-200.000	-0.012	0.144
-711.689	-44.655	-0.078	-0.039
-710.675	-118.725	0.321	-0.056
-709.660	382.613	-0.059	0.121
-708.645	78.849	0.174	0.185
-707.631	-54.394	-0.035	0.016
-706.616	47.457	-0.244	-0.227
-705.602	462.677	-0.047	0.104
-704.587	63.302	-0.164	0.164
-703.572	20.621	0.095	0.076
-702.558	-74.573	0.225	0.081
-701.543	54.622	0.019	0.018
-700.529	-101.584	0.308	0.075
-699.514	-200.000	0.001	-0.326
-698.499	-200.000	0.086	0.000
-697.485	50.179	0.216	0.204
-696.470	-200.000	-0.004	0.022
-695.456	-28.258	0.314	-0.181
-694.441	116.281	0.098	-0.120
-693.426	800.000	0.092	-0.391
-692.412	-71.229	0.114	0.043
-691.397	-39.168	-0.162	0.085
-690.383	675.567	0.118	-0.305
-689.368	43.163	-0.137	-0.125
-688.354	54.703	-0.123	0.118
-687.339	710.711	-0.093	0.244
-686.324	713.118	-0.033	-0.088
-685.310	55.671	-0.104	0.100
-684.295	-200.000	0.006	-0.087
-683.281	-188.235	0.134	-0.002
-682.266	4.048	-0.173	-0.126
-681.251	61.775	-0.040	0.040
-680.237	7.749	-0.298	0.223
-679.222	-127.731	0.359	0.052
-678.208	-200.000	-0.027	-0.263
-677.193	-200.000	0.037	0.251
-676.178	800.000	0.085	0.268
-675.164	54.569	-0.334	0.321
-674.149	-139.047	0.164	-0.018
-673.135	74.906	-0.201	-0.211
-672.120	-184.201	-0.159	0.003
-671.105	-117.892	0.302	-0.054
-670.091	-200.000	-0.010	0.216
-669.076	-200.000	0.019	-0.167
-668.062	-72.575	0.242	0.089
-667.047	-194.224	0.209	-0.002
-666.032	-39.637	0.272	0.142
-665.018	307.356	-0.201	-0.373
-664.003	55.359	-0.203	0.196
-662.989	-50.411	-0.233	0.110
-661.974	-200.000	-0.036	0.248
-660.959	-15.235	-0.239	0.152
-659.945	-200.000	-0.017	-0.197
-658.930	-71.774	-0.139	-0.052
-657.916	-94.683	0.163	-0.044
-656.901	254.802	-0.296	0.505
-655.886	-200.000	0.044	-0.348
-654.872	284.842	-0.144	-0.259
-653.857	800.000	-0.081	0.248
-652.843	800.000	-0.034	-0.130
-651.828	-200.000	-0.004	0.207
-650.814	-173.233	0.105	0.003
-649.799	-59.144	-0.081	0.035
-648.784	-97.055	-0.175	0.046
-647.770	800.000	-0.068	-0.223
-646.755	-94.267	-0.140	0.038
-645.741	105.394	-0.128	0.150
-644.726	13.485	0.344	0.265
-643.711	-95.634	-0.259	-0.069
-642.697	142.370	-0.167	0.220
-641.682	39.176	0.126	-0.112
-640.668	420.386	0.120	0.256
-639.653	-200.000	-0.018	-0.078
-638.638	195.762	-0.029	-0.044
-637.624	125.271	-0.119	0.149
-636.609	-37.667	0.039	0.021
-635.595	-107.105	-0.320	0.070
-634.580	296.938	-0.100	-0.183
-633.565	173.188	0.260	-0.372
-632.551	-200.000	0.007	-0.215
-631.536	-36.520	-0.288	-0.154
-630.522	160.914	-0.225	-0.313
-629.507	401.225	-0.097	0.203
-628.492	159.877	-0.158	-0.219
-627.478	-88.252	-0.202	-0.060
-626.463	271.316	0.036	-0.063
-625.449	-200.000	0.012	-0.144
-624.434	231.663	0.202	-0.330
-623.419	-41.206	0.218	-0.112
-622.405	10.228	-0.217	-0.164
-621.390	-200.000	0.002	-0.263
-620.376	-45.534	-0.172	0.084
-619.361	-200.000	0.074	0.462
-618.346	624.088	0.060	-0.150
-617.332	-95.300	-0.085	0.023
-616.317	29.706	0.142	-0.120
-615.303	-200.000	0.004	-0.303
-614.288	58.260	-0.187	-0.182
-613.273	-151.242	-0.259	0.019
-612.259	48.975	0.176	-0.164
-611.244	270.697	-0.011	-0.019
-610.230	-93.153	-0.116	0.032
-609.215	64.215	0.071	0.071
-608.201	-42.252	0.333	0.169
-607.186	-68.869	-0.130	0.050
-606.171	19.920	0.227	0.182
-605.157	400.942	0.142	0.296
-604.142	-200.000	0.019	0.278
-603.128	329.494	-0.168	-0.321
-602.113	72.592	0.167	0.173
-601.098	-190.346	-0.296	0.003
-600.084	-140.770	-0.205	0.021
-599.069	210.266	0.243	0.378
-598.055	-200.000	0.013	-0.246
-597.040	16.164	0.082	-0.064
-596.025	-117.187	-0.320	-0.058
-595.011	-111.022	-0.120	0.025
-593.996	-200.000	0.000	0.131
-592.982	221.594	-0.092	0.147
-591.967	207.551	-0.067	-0.104
-590.952	-200.000	-0.029	-0.205
-589.938	800.000	-0.047	-0.138
-588.923	800.000	0.114	0.379
-587.909	248.281	-0.164	-0.276
-586.894	-200.000	-0.031	-0.199
-585.879	51.908	0.146	0.138
-584.865	-17.911	0.219	0.136
-583.850	-41.545	-0.305	0.156
-582.836	216.988	0.047	0.074
-581.821	-103.663	0.114	-0.026
-580.806	87.296	0.168	0.185
-579.792	-121.217	-0.034	-0.006
-578.777	-3.426	0.055	0.038
-577.763	-47.055	-0.070	-0.034
-576.748	355.146	0.137	-0.271
-575.733	-200.000	-0.027	0.296
-574.719	88.970	-0.051	0.057
-573.704	-63.433	-0.106	-0.043
-572.690	-88.195	-0.380	0.113
-571.675	226.445	0.122	-0.197
-570.661	-197.367	0.302	0.002
-569.646	-200.000	-0.038	0.195
-568.631	800.000	-0.106	0.344
-567.617	-144.905	0.274	0.025
-566.602	134.948	-0.134	-0.173
-565.588	88.126	-0.266	-0.293
-564.573	246.948	-0.251	-0.420
-563.558	592.007	-0.075	0.183
-562.544	48.542	0.176	0.164
-561.529	-200.000	0.012	-0.221
-560.515	283.461	-0.070	0.125
-559.500	261.875	-0.249	-0.427
-558.485	-101.243	-0.586	-0.142
-557.471	89.843	-0.074	0.082
-556.456	-39.351	-0.138	0.072
-555.442	-22.434	-0.189	0.114
-554.427	-200.000	0.082	0.400
-553.412	-154.896	0.180	-0.012
-552.398	-133.111	-0.200	-0.025
-551.383	-108.285	-0.107	0.023
-550.369	-62.960	0.205	0.084
-549.354	-200.000	-0.028	-0.176
-548.339	-119.991	0.214	-0.036
-547.325	-200.000	0.010	0.197
-546.310	800.000	-0.069	-0.238
-545.296	111.051	0.080	-0.096
-544.281	12.595	0.194	-0.148
-543.266	-200.000	-0.061	0.264
-542.252	113.222	0.054	-0.065
-541.237	-200.000	0.020	-0.112
-540.223	-135.467	0.371	-0.044
-539.208	-200.000	-0.008	0.078
-538.193	-200.000	-0.082	-0.380
-537.179	266.471	-0.076	-0.132
-536.164	-145.326	-0.297	-0.027
-535.150	-200.000	-0.014	-0.146
-534.135	-200.000	-0.033	0.196
-533.121	-146.821	-0.160	-0.014
-532.106	98.403	-0.119	-0.136
-531.091	-74.998	0.090	0.032
-530.077	409.554	0.042	-0.089
-529.062	106.424	-0.062	-0.073
-528.048	85.677	0.127	0.138
-527.033	-8.472	-0.025	0.017
-526.018	-200.000	0.041	-0.262
-525.004	800.000	-0.066	0.211
-523.989	147.626	0.079	0.106
-522.975	-192.548	0.267	0.002
-521.960	-200.000	-0.011	-0.064
-520.945	41.423	-0.073	-0.065
-519.931	-200.000	0.027	-0.118
-518.916	-13.434	-0.213	0.137
-517.902	201.258	-0.121	-0.184
-516.887	-200.000	0.012	-0.145
-515.872	800.000	-0.107	-0.404
-514.858	432.992	0.052	0.111
-513.843	165.468	0.186	0.260
-512.829	-30.808	-0.295	-0.165
-511.814	11.453	0.259	0.197
-510.799	147.360	-0.213	0.284
-509.785	276.752	0.053	-0.094
-508.770	110.710	-0.092	0.110
-507.756	-43.217	-0.181	0.091
-506.741	295.219	-0.036	-0.065
-505.726	-125.261	-0.166	-0.025
-504.712	-37.199	-0.272	-0.144
-503.697	800.000	0.011	0.040
-502.683	-35.819	0.143	-0.077
-501.668	-194.931	-0.383	0.003
-500.653	-141.475	0.254	-0.025
-499.639	-99.689	0.147	-0.037
-498.624	-16.025	0.134	0.085
-497.610	148.906	-0.156	-0.208
-496.595	-192.422	0.105	0.001
-495.581	41.351	0.129	-0.115
-494.566	-121.855	0.401	-0.065
-493.551	489.231	-0.057	0.129
-492.537	-43.931	-0.254	0.126
-491.522	800.000	0.099	0.367
-490.508	27.646	0.118	0.098
-489.493	59.607	-0.084	0.082
-488.478	-200.000	0.001	-0.008
-487.464	-98.261	0.045	-0.011
-486.449	-161.806	0.075	0.004
-485.435	-118.802	-0.110	0.019
-484.420	-200.000	-0.013	0.122
-483.405	127.629	0.182	0.228
-482.391	-143.634	-0.192	-0.018
-481.376	-186.173	0.188	-0.003
-480.362	349.786	0.132	-0.259
-479.347	102.297	0.169	0.195
-478.332	-62.059	-0.059	0.024
-477.318	-200.000	0.046	-0.313
-476.303	79.997	-0.087	-0.092
-475.289	-200.000	-0.023	-0.209
-474.274	-159.154	-0.283	0.016
-473.259	-200.000	-0.013	0.167
-472.245	80.505	-0.073	0.078
-471.230	-33.516	0.252	-0.138
-470.216	-11.488	0.126	0.082
-469.201	-200.000	-0.070	-0.348
-468.186	180.907	0.062	0.090
-467.172	58.800	0.278	0.270
-466.157	290.598	-0.071	-0.127
-465.143	83.291	0.158	0.170
-464.128	800.000	0.046	-0.187
-463.113	-200.000	0.029	-0.229
-462.099	-200.000	-0.077	-0.375
-461.084	-89.712	0.415	-0.120
-460.070	-49.803	0.200	0.094
-459.055	189.657	0.081	-0.120
-458.040	165.370	0.241	0.337
-457.026	-28.846	0.283	0.161
-456.011	60.619	-0.056	0.055
-454.997	-200.000	0.021	-0.100
-453.982	-130.087	0.086	0.012
-452.968	800.000	0.060	-0.197
-451.953	125.408	-0.099	-0.123
-450.938	-200.000	-0.020	-0.228
-449.924	67.339	0.060	0.060
-448.909	800.000	-0.085	0.355
-447.895	-169.759	-0.181	0.006
-446.880	-200.000	-0.025	0.341
-445.865	146.617	-0.159	-0.211
-444.851	-141.068	0.133	-0.013
-443.836	-200.000	0.015	-0.248
-442.822	59.207	0.132	0.128
-441.807	431.944	-0.149	-0.319
-440.792	-7.654	0.265	0.177
-439.778	-49.502	-0.054	0.025
-438.763	411.604	0.095	-0.199
-437.749	-92.022	-0.280	-0.078
-436.734	15.735	0.186	0.145
-435.719	-37.191	-0.077	-0.041
-434.705	-200.000	-0.001	0.138
-433.690	600.157	0.169	0.414
-432.676	-13.383	0.223	-0.143
-431.661	-65.879	-0.297	0.117
-430.646	-200.000	0.018	-0.451
-429.632	-150.000	-0.196	0.015
-428.617	800.000	0.034	0.138
-427.603	-200.000	-0.021	0.198
-426.588	236.813	-0.095	-0.155
-425.573	-128.945	0.337	-0.047
-424.559	-34.350	-0.281	-0.152
-423.544	3.047	-0.268	-0.192
-422.530	16.242	-0.234	0.182
-421.515	800.000	-0.021	0.088
-420.500	-200.000	-0.004	-0.405
-419.486	-200.000	0.018	-0.127
-418.471	800.000	0.065	0.220
-417.457	0.900	-0.226	0.160
-416.442	161.198	-0.189	0.260
-415.428	-200.000	-0.048	0.314
-414.413	-200.000	-0.010	0.145
-413.398	-102.581	-0.113	-0.027
-412.384	324.837	-0.128	0.241
-411.369	-200.000	-0.082	0.420
-410.355	-24.314	-0.103	0.061
-409.340	267.837	-0.162	0.280
-408.325	800.000	-0.219	0.819
-407.311	-54.794	-0.099	0.044
-406.296	266.989	-0.089	-0.154
-405.282	-12.581	-0.106	-0.068
-404.267	800.000	0.091	-0.330
-403.252	-95.107	-0.032	0.008
-402.238	-26.755	0.062	0.036
-401.223	97.721	0.006	0.006
-400.209	-99.949	-0.179	0.044
-399.194	800.000	0.078	0.253
-398.179	65.011	0.177	-0.176
-397.165	-122.397	0.115	0.018
-396.150	-200.000	0.086	-0.441
-395.136	-129.379	-0.087	-0.012
-394.121	-200.000	-0.010	0.119
-393.106	-200.000	0.006	0.092
-392.092	106.857	0.155	0.181
-391.077	-97.795	-0.085	-0.022
-390.063	-183.246	0.169	0.003
-389.048	-108.197	-0.258	-0.055
-388.033	238.963	0.142	0.233
-387.019	800.000	-0.065	-0.189
-386.004	800.000	0.056	-0.201
-384.990	409.025	0.243	-0.507
-383.975	-123.995	-0.376	-0.058
-382.960	-200.000	-0.023	-0.149
-381.946	247.458	0.068	-0.113
-380.931	353.317	-0.042	-0.081
-379.917	141.656	-0.189	-0.247
-378.902	-130.870	0.045	-0.006
-377.888	112.935	-0.105	-0.125
-376.873	-120.597	0.242	0.040
-375.858	-28.863	-0.235	-0.133
-374.844	-153.158	0.332	-0.023
-373.829	160.709	0.289	-0.397
-372.815	617.143	-0.044	-0.108
-371.800	-194.480	0.289	-0.002
-370.785	50.500	0.088	-0.082
-369.771	358.665	-0.075	-0.148
-368.756	1.874	0.273	0.194
-367.742	334.021	0.079	0.150
-366.727	209.924	0.033	-0.050
-365.712	701.046	0.015	-0.038
-364.698	-32.024	-0.173	0.095
-363.683	-147.505	-0.320	-0.027
-362.669	-200.000	0.049	0.274
-361.654	-200.000	-0.011	0.123
-360.639	242.402	-0.120	0.197
-359.625	-141.837	0.126	0.012
-358.610	-15.259	0.090	0.056
-357.596	119.940	0.087	0.106
-356.581	-200.000	0.047	0.367
-355.566	-13.373	-0.091	-0.058
-354.552	94.445	0.162	0.182
-353.537	800.000	-0.065	-0.185
-352.523	-46.874	0.190	-0.092
-351.508	246.649	0.136	0.225
-350.493	347.750	0.044	0.086
-349.479	593.856	-0.044	-0.106
-348.464	-72.270	0.501	0.183
-347.450	-123.701	0.170	-0.026
-346.435	-82.447	-0.262	-0.084
-345.420	118.224	0.136	0.165
-344.406	-116.295	0.186	0.034
-343.391	335.811	-0.118	0.225
-342.377	76.601	0.279	-0.291
-341.362	-200.000	0.000	0.095
-340.348	-200.000	-0.005	0.217
-339.333	416.969	-0.050	-0.104
-338.318	800.000	-0.029	-0.098
-337.304	-200.000	0.026	-0.625
-336.289	-200.000	0.010	-0.125
-335.275	289.375	0.085	0.152
-334.260	-200.000	0.019	-0.277
-333.245	172.765	-0.130	0.183
-332.231	41.255	0.318	-0.282
-331.216	182.744	-0.217	-0.315
-330.202	-116.243	-0.244	-0.044
-329.187	129.261	-0.089	0.112
-328.172	258.930	0.095	0.161
-327.158	800.000	-0.071	0.221
-326.143	-174.602	0.214	-0.006
-325.129	-14.126	0.150	-0.095
-324.114	2.906	0.103	-0.073
-323.099	-65.587	-0.394	0.156
-322.085	100.101	0.105	0.120
-321.070	-26.883	0.205	0.118
-320.056	-82.258	-0.137	0.044
-319.041	14.566	-0.195	-0.150
-318.026	182.569	0.049	-0.071
-317.012	800.000	0.089	-0.305
-315.997	-200.000	-0.005	0.127
-314.983	-200.000	0.001	0.129
-313.968	39.582	0.072	-0.064
-312.953	-76.868	0.196	0.067
-311.939	19.440	0.257	-0.203
-310.924	11.486	0.021	-0.016
-309.910	26.156	0.201	-0.165
-308.895	-70.422	-0.218	-0.081
-307.880	-200.000	-0.028	-0.168
-306.866	-109.379	0.101	-0.021
-305.851	21.359	-0.288	-0.230
-304.837	800.000	0.078	-0.249
-303.822	-88.067	0.304	-0.089
-302.807	-63.791	0.089	-0.036
-301.793	-200.000	-0.053	0.469
-300.778	-200.000	0.010	-0.254
-299.764	-200.000	0.016	-0.146
-298.749	-17.012	-0.183	-0.113
-297.735	800.000	0.048	0.166
-296.720	407.178	0.033	0.069
-295.705	-141.843	0.110	0.011
-294.691	614.180	-0.054	0.134
-293.676	304.621	-0.056	0.101
-292.662	-200.000	-0.017	-0.159
-291.647	-107.479	-0.243	0.052
-290.632	91.941	0.104	0.114
-289.618	-70.485	-0.276	0.103
-288.603	-74.105	0.345	0.123
-287.589	-114.330	-0.406	0.077
-286.574	-200.000	0.037	-0.168
-285.559	-200.000	-0.026	0.181
-284.545	800.000	-0.114	0.333
-283.530	19.273	0.029	0.023
-282.516	-78.958	-0.112	-0.038
-281.501	-35.072	0.138	0.074
-280.486	-198.060	0.095	0.001
-279.472	-200.000	0.007	-0.108
-278.457	715.877	0.061	-0.160
-277.443	-31.373	-0.213	-0.117
-276.428	0.578	-0.183	0.129
-275.413	-162.569	0.265	-0.013
-274.399	-47.528	-0.364	0.174
-273.384	800.000	-0.074	-0.209
-272.370	-156.048	0.170	-0.011
-271.355	95.409	0.115	-0.129
-270.340	240.592	0.092	-0.151
-269.326	-76.748	0.456	-0.157
-268.311	-200.000	-0.034	0.341
-267.297	-88.350	-0.123	-0.036
-266.282	-200.000	0.004	0.031
-265.267	141.236	-0.085	-0.111
-264.253	-200.000	-0.046	-0.339
-263.238	165.108	-0.024	0.033
-262.224	-200.000	-0.055	0.414
-261.209	62.441	0.214	0.209
-260.195	8.908	0.213	0.157
-259.180	-200.000	-0.001	0.116
-258.165	432.219	0.056	-0.119
-257.151	45.510	0.073	-0.067
-256.136	-108.625	-0.139	0.029
-255.122	-98.768	-0.266	0.066
-254.107	36.894	-0.373	-0.323
-253.092	632.283	0.121	-0.300
-252.078	-200.000	0.017	-0.073
-251.063	-148.646	0.263	-0.021
-250.049	-67.759	-0.228	-0.087
-249.034	338.699	0.162	0.309
-248.019	464.562	0.120	0.263
-247.005	-200.000	0.021	0.187
-245.990	-84.881	-0.086	0.026
-244.976	456.759	0.039	-0.086
-243.961	239.155	-0.114	0.186
-242.946	77.641	0.209	-0.218
-241.932	-182.671	-0.222	0.004
-240.917	774.367	-0.033	0.089
-239.903	212.454	0.152	0.234
-238.888	-98.104	-0.163	-0.041
-237.873	-74.437	0.236	-0.083
-236.859	-200.000	-0.018	-0.161
-235.844	-73.746	0.143	0.051
-234.830	-200.000	0.012	-0.158
-233.815	-200.000	-0.005	0.174
-232.800	-156.459	0.113	-0.007
-231.786	135.404	0.050	0.064
-230.771	46.046	-0.178	0.161
-229.757	193.713	-0.146	-0.216
-228.742	87.379	0.198	0.214
-227.727	-200.000	0.045	0.429
-226.713	-57.041	0.248	-0.107
-225.698	283.576	0.072	0.127
-224.684	150.269	0.244	0.324
-223.669	290.491	-0.171	-0.303
-222.655	-134.335	0.162	0.020
-221.640	-130.165	-0.176	-0.023
-220.625	302.343	-0.138	0.249
-219.611	582.159	0.017	0.040
-218.596	-71.030	0.194	-0.071
-217.582	96.692	-0.109	-0.122
-216.567	-133.851	-0.068	-0.008
-215.552	-152.631	-0.143	-0.010
-214.538	497.183	0.093	0.209
-213.523	-34.157	0.260	-0.140
-212.509	-200.000	-0.005	-0.086
-211.494	24.730	-0.066	0.054
-210.479	139.506	0.193	0.248
-209.465	-11.978	-0.175	-0.112
-208.450	-200.000	0.027	-0.296
-207.436	800.000	0.074	0.243
-206.421	343.145	-0.081	-0.155
-205.406	-157.098	0.041	-0.002
-204.392	800.000	-0.070	0.240
-203.377	-146.080	-0.104	-0.009
-202.363	218.246	-0.091	-0.142
-201.348	-138.852	0.272	0.029
-200.333	-200.000	-0.009	0.112
-199.319	-105.382	-0.298	0.066
-198.304	-7.966	0.185	0.122
-197.290	-200.000	-0.010	0.211
-196.275	3.067	-0.085	0.060
-195.260	-39.938	0.187	-0.095
-194.246	87.865	-0.415	0.450
-193.231	800.000	0.030	0.104
-192.217	-42.284	-0.170	0.085
-191.202	200.088	0.104	0.156
-190.187	-34.598	-0.269	-0.144
-189.173	-200.000	0.008	-0.085
-188.158	-200.000	0.045	-0.227
-187.144	-96.919	0.291	0.075
-186.129	159.603	0.045	0.061
-185.114	-11.699	0.062	-0.040
-184.100	73.483	0.133	-0.136
-183.085	1.157	0.298	-0.209
-182.071	-29.336	-0.225	0.126
-181.056	135.444	0.061	0.078
-180.042	-14.219	-0.094	0.059
-179.027	56.969	0.062	0.059
-178.012	176.951	-0.030	-0.043
-176.998	151.765	-0.139	-0.185
-175.983	-20.006	-0.035	-0.021
-174.969	97.831	-0.096	-0.107
-173.954	-110.156	0.262	0.053
-172.939	30.423	0.111	-0.092
-171.925	247.941	-0.097	0.161
-170.910	-82.059	0.254	-0.081
-169.896	-56.654	-0.123	-0.053
-168.881	-27.025	-0.336	0.191
-167.866	-45.035	0.190	-0.092
-166.852	-91.079	-0.272	-0.076
-165.837	-107.542	0.416	0.089
-164.823	800.000	0.096	0.353
-163.808	13.232	-0.145	-0.110
-162.793	-157.461	0.301	-0.018
-161.779	-44.422	0.217	-0.106
-160.764	-17.713	-0.374	0.230
-159.750	-109.605	0.113	0.023
-158.735	626.986	0.118	0.292
-157.720	-73.262	-0.322	-0.115
-156.706	-120.001	0.302	0.051
-155.691	-200.000	-0.044	-0.301
-154.677	-200.000	0.001	-0.114
-153.662	-200.000	0.096	0.429
-152.647	49.443	-0.097	-0.089
-151.633	-200.000	-0.011	-0.233
-150.618	-87.563	-0.235	-0.069
-149.604	800.000	-0.048	-0.132
-148.589	151.564	0.149	-0.198
-147.574	52.960	-0.242	0.226
-146.560	559.091	0.191	-0.450
-145.545	30.773	0.206	0.172
-144.531	-200.000	0.015	-0.191
-143.516	-65.432	0.156	-0.061
-142.502	-200.000	-0.025	-0.134
-141.487	616.713	0.145	-0.355
-140.472	360.995	0.095	-0.185
-139.458	-91.482	0.297	0.083
-138.443	800.000	0.090	-0.364
-137.429	-200.000	-0.011	-0.368
-136.414	800.000	-0.130	-0.430
-135.399	-84.242	0.308	0.095
-134.385	222.311	0.226	-0.355
-133.370	-48.679	-0.255	-0.119
-132.356	545.158	0.092	-0.214
-131.341	-35.616	-0.169	-0.089
-130.326	-124.576	0.153	0.023
-129.312	-200.000	-0.241	-0.001
-128.297	143.548	0.198	-0.257
-127.283	-200.000	-0.029	0.183
-126.268	-33.221	0.393	-0.212
-125.253	800.000	-0.066	-0.211
-124.239	-200.000	0.019	0.124
-123.224	-200.000	0.015	-0.220
-122.210	150.213	-0.080	-0.105
