DTS Sentinel unit serial number:	SN413079Multiplexer serial number:	ORYXHardware model number:	OX4-SRSoftware version number:	ORYX F/W v4.00 Oryx Data Collector v3.7.2.0data status	okinstallation	princeton_trtdifferential loss correction	single-endedforward channel	channel 3reverse channel	N/Adate	2019/09/12time	13:22:11forward acquisition time	60.00reverse acquisition time	0.00gamma	496.2192k internal	0.2292k external	0.2292temperature offset calibration	1.0044default loss term (dB/km)	0.3790temperature slope calibration	1.0000multiplexer offset coefficient	1.0000multiplexer slope coefficient	1.0000fibre end	0.00T internal ref (°C)	41.06T ext. ref 1 (°C)	2.13T ext. ref 2 (°C)	37.84length (m)	temperature (°C)	Stokes	anti-Stokes-747.200	-101.587	-0.157	-0.039
-746.185	118.339	0.103	-0.129
-745.171	164.706	-0.237	-0.342
-744.156	3.839	-0.060	0.045
-743.142	48.487	0.032	-0.030
-742.127	369.967	0.061	0.127
-741.112	-145.489	0.344	0.032
-740.098	800.000	-0.023	0.090
-739.083	-200.000	-0.000	0.027
-738.069	-8.857	0.203	0.139
-737.054	5.635	0.170	-0.128
-736.039	-92.068	-0.300	-0.087
-735.025	2.830	0.224	-0.166
-734.010	276.828	0.094	0.171
-732.996	800.000	0.035	-0.115
-731.981	78.658	-0.113	0.123
-730.966	512.645	-0.020	-0.049
-729.952	-14.396	-0.143	-0.094
-728.937	800.000	0.066	-0.244
-727.923	149.343	-0.249	0.345
-726.908	-200.000	-0.011	-0.316
-725.894	47.382	-0.213	-0.203
-724.879	-109.586	0.063	0.014
-723.864	-104.731	0.160	0.038
-722.850	219.349	0.137	0.224
-721.835	-100.076	-0.325	0.083
-720.821	-200.000	0.048	-0.352
-719.806	-75.006	-0.215	-0.079
-718.791	137.008	-0.214	-0.286
-717.777	89.900	0.163	0.186
-716.762	313.592	0.128	-0.246
-715.748	-200.000	-0.036	-0.162
-714.733	170.667	0.116	0.169
-713.718	-19.876	0.134	-0.085
-712.704	47.310	-0.040	-0.038
-711.689	-66.780	0.399	-0.162
-710.675	-104.632	-0.326	0.077
-709.660	-25.642	-0.379	0.229
-708.645	-200.000	-0.096	-0.464
-707.631	113.578	-0.213	-0.265
-706.616	800.000	0.113	-0.325
-705.602	29.864	-0.024	-0.021
-704.587	183.854	-0.192	-0.290
-703.572	83.376	0.259	-0.288
-702.558	-102.963	0.191	-0.046
-701.543	261.274	-0.086	-0.152
-700.529	288.552	0.099	0.184
-699.514	-105.245	0.302	-0.070
-698.499	-200.000	-0.006	0.178
-697.485	-200.000	0.006	-0.169
-696.470	-101.372	-0.273	-0.068
-695.456	123.496	-0.034	-0.044
-694.441	-132.998	0.395	0.051
-693.426	-45.929	-0.061	-0.031
-692.412	126.501	-0.240	0.310
-691.397	-31.001	-0.282	-0.163
-690.383	415.613	-0.059	-0.129
-689.368	475.206	-0.158	0.365
-688.354	-78.682	0.238	-0.083
-687.339	-200.000	-0.049	-0.246
-686.324	503.881	-0.135	-0.319
-685.310	-112.428	-0.077	0.016
-684.295	-88.171	-0.368	-0.113
-683.281	-101.735	-0.142	0.035
-682.266	-89.825	0.205	0.061
-681.251	-63.024	-0.127	0.054
-680.237	800.000	-0.194	0.563
-679.222	730.283	0.010	0.028
-678.208	110.436	0.056	-0.068
-677.193	77.159	-0.156	0.169
-676.178	-66.566	-0.166	-0.067
-675.164	-200.000	-0.031	-0.225
-674.149	87.659	-0.167	-0.189
-673.135	-79.538	-0.217	0.075
-672.120	147.849	0.070	-0.096
-671.105	428.168	0.132	-0.291
-670.091	123.845	-0.088	0.113
-669.076	-3.919	0.216	-0.153
-668.062	-200.000	0.006	0.094
-667.047	156.588	-0.139	-0.196
-666.032	172.415	-0.187	-0.274
-665.018	-31.031	0.298	0.171
-664.003	-129.270	-0.338	0.048
-662.989	-21.973	-0.051	-0.032
-661.974	82.511	0.081	0.090
-660.959	-0.896	-0.142	-0.102
-659.945	-128.822	-0.199	0.029
-658.930	-103.442	0.020	-0.005
-657.916	-200.000	0.004	-0.130
-656.901	197.041	-0.067	-0.104
-655.886	13.142	0.141	-0.111
-654.872	-94.520	0.247	-0.069
-653.857	800.000	0.014	-0.041
-652.843	0.730	-0.214	0.156
-651.828	800.000	-0.016	0.063
-650.814	-113.895	-0.166	0.033
-649.799	-82.715	-0.227	-0.075
-648.784	-0.304	0.133	0.097
-647.770	134.047	-0.059	-0.078
-646.755	-200.000	0.002	-0.150
-645.741	-151.138	-0.340	0.026
-644.726	800.000	-0.017	-0.052
-643.711	-50.972	-0.185	-0.089
-642.697	48.462	-0.143	-0.136
-641.682	-200.000	0.008	0.036
-640.668	800.000	-0.020	0.082
-639.653	43.213	-0.176	0.164
-638.638	-128.539	-0.115	-0.017
-637.624	-155.431	-0.281	-0.019
-636.609	-200.000	0.024	0.232
-635.595	-165.918	0.317	0.014
-634.580	-23.458	0.392	-0.240
-633.565	16.995	0.264	0.213
-632.551	-200.000	-0.024	-0.183
-631.536	321.388	-0.285	0.553
-630.522	-200.000	0.020	0.353
-629.507	-200.000	-0.045	-0.320
-628.492	-166.318	0.312	0.013
-627.478	94.212	-0.177	0.205
-626.463	56.672	0.138	0.137
-625.449	-155.814	-0.140	0.009
-624.434	-79.735	0.245	-0.084
-623.419	-16.326	-0.176	0.114
-622.405	-61.972	0.044	0.019
-621.390	221.353	-0.229	-0.376
-620.376	-50.221	-0.315	-0.152
-619.361	46.283	0.118	0.111
-618.346	550.798	-0.097	0.237
-617.332	46.151	-0.125	-0.118
-616.317	200.904	0.115	0.180
-615.303	-124.393	-0.324	-0.051
-614.288	109.905	0.085	-0.104
-613.273	-191.495	0.235	0.002
-612.259	-57.787	0.133	-0.059
-611.244	-200.000	-0.020	-0.398
-610.230	23.032	-0.096	-0.080
-609.215	-17.320	-0.062	-0.040
-608.201	-200.000	-0.016	-0.129
-607.186	378.006	0.245	-0.511
-606.171	49.063	0.130	-0.125
-605.157	-156.362	0.107	-0.007
-604.142	-122.542	-0.233	0.038
-603.128	766.773	-0.014	0.038
-602.113	460.834	-0.152	0.345
-601.098	106.586	0.115	-0.139
-600.084	-200.000	-0.003	-0.141
-599.069	161.909	0.111	-0.158
-598.055	131.862	0.257	-0.337
-597.040	-27.061	0.126	-0.075
-596.025	24.561	0.246	-0.207
-595.011	-54.070	0.219	-0.101
-593.996	378.989	0.038	-0.080
-592.982	91.441	0.190	0.218
-591.967	-200.000	0.002	-0.140
-590.952	-51.190	-0.313	0.149
-589.938	306.632	-0.115	0.217
-588.923	454.602	0.071	-0.160
-587.909	-58.887	0.138	-0.061
-586.894	140.577	0.045	-0.061
-585.879	-200.000	-0.014	-0.140
-584.865	173.681	0.140	0.206
-583.850	52.778	0.058	0.056
-582.836	264.327	0.028	0.049
-581.821	-46.025	0.016	-0.008
-580.806	434.598	0.103	-0.228
-579.792	-200.000	-0.009	-0.144
-578.777	156.839	0.073	-0.103
-577.763	-107.881	0.019	0.004
-576.748	-52.506	-0.201	0.095
-575.733	181.441	0.060	0.090
-574.719	296.254	0.095	-0.177
-573.704	-42.839	0.144	-0.074
-572.690	-71.996	-0.204	0.077
-571.675	94.243	0.155	0.179
-570.661	800.000	0.026	0.100
-569.646	-40.269	0.262	-0.139
-568.631	-200.000	-0.032	-0.141
-567.617	800.000	-0.005	0.020
-566.602	355.796	0.030	-0.060
-565.588	247.892	-0.090	-0.154
-564.573	800.000	0.032	-0.125
-563.558	-200.000	-0.009	-0.214
-562.544	-18.187	-0.073	0.046
-561.529	-24.107	0.216	0.131
-560.515	150.969	-0.169	-0.233
-559.500	800.000	-0.062	-0.246
-558.485	-159.412	-0.401	0.023
-557.471	-108.946	0.240	0.052
-556.456	-74.536	-0.070	0.026
-555.442	-104.988	0.362	-0.084
-554.427	800.000	-0.068	0.192
-553.412	-200.000	0.060	-0.271
-552.398	-14.495	0.155	-0.101
-551.383	-200.000	0.009	0.093
-550.369	-50.091	-0.103	-0.049
-549.354	487.439	-0.045	-0.105
-548.339	140.490	-0.129	-0.173
-547.325	79.462	0.219	0.239
-546.310	-114.189	-0.128	0.025
-545.296	12.264	-0.111	0.087
-544.281	26.252	-0.149	0.126
-543.266	64.320	0.011	-0.011
-542.252	17.056	0.179	-0.144
-541.237	15.967	-0.187	-0.150
-540.223	-24.057	0.129	-0.078
-539.208	-77.106	-0.519	0.184
-538.193	-171.354	-0.132	0.004
-537.179	-200.000	-0.083	0.533
-536.164	299.704	-0.092	-0.173
-535.150	-161.660	0.247	0.013
-534.135	-112.293	-0.245	0.050
-533.121	24.859	0.066	0.056
-532.106	-200.000	0.002	-0.062
-531.091	-35.669	0.158	0.087
-530.077	-40.854	-0.132	0.069
-529.062	161.964	-0.013	-0.018
-528.048	-10.153	-0.076	-0.051
-527.033	340.583	-0.037	0.073
-526.018	624.426	-0.171	0.438
-525.004	-17.212	-0.092	-0.059
-523.989	681.699	-0.073	-0.193
-522.975	-31.706	-0.093	0.053
-521.960	-43.873	0.070	0.035
-520.945	-200.000	0.032	0.242
-519.931	800.000	-0.027	-0.108
-518.916	800.000	0.032	0.121
-517.902	-73.296	-0.173	-0.064
-516.887	185.644	-0.189	0.285
-515.872	312.666	0.092	-0.175
-514.858	800.000	-0.031	-0.116
-513.843	-161.192	-0.336	-0.018
-512.829	91.138	0.064	-0.073
-511.814	44.861	0.268	-0.250
-510.799	372.756	-0.115	-0.237
-509.785	800.000	0.056	-0.173
-508.770	389.894	-0.146	-0.306
-507.756	65.772	-0.095	0.097
-506.741	800.000	0.009	0.033
-505.726	-160.451	-0.279	0.015
-504.712	-33.059	0.175	0.099
-503.697	-169.481	-0.145	0.005
-502.683	-27.078	-0.212	0.126
-501.668	-95.140	-0.132	-0.036
-500.653	-138.374	0.331	0.037
-499.639	-35.705	0.057	0.031
-498.624	800.000	0.060	-0.210
-497.610	-77.627	-0.069	-0.024
-496.595	-200.000	0.026	-0.258
-495.581	6.314	0.193	0.145
-494.566	272.264	0.042	0.075
-493.551	800.000	0.068	0.207
-492.537	-95.921	0.100	0.027
-491.522	-51.781	-0.204	-0.096
-490.508	-200.000	0.028	0.379
-489.493	-200.000	-0.034	0.288
-488.478	-200.000	-0.081	-0.433
-487.464	397.175	-0.225	-0.476
-486.449	53.925	-0.072	0.070
-485.435	800.000	-0.157	0.449
-484.420	-200.000	-0.007	-0.047
-483.405	-112.634	-0.229	-0.046
-482.391	-200.000	0.027	-0.269
-481.376	-46.318	0.305	0.152
-480.362	178.949	0.156	0.231
-479.347	146.498	-0.072	0.098
-478.332	176.094	-0.202	0.297
-477.318	-200.000	-0.025	-0.151
-476.303	-137.778	0.220	-0.025
-475.289	800.000	0.023	0.091
-474.274	143.459	0.148	-0.199
-473.259	51.436	-0.079	0.076
-472.245	800.000	0.037	-0.106
-471.230	-168.117	-0.293	-0.012
-470.216	-30.246	0.095	-0.055
-469.201	-27.849	0.189	0.111
-468.186	28.947	-0.138	-0.118
-467.172	35.450	0.016	-0.014
-466.157	323.994	0.098	-0.189
-465.143	-46.530	0.112	-0.056
-464.128	415.461	0.085	-0.184
-463.113	-101.654	0.307	0.075
-462.099	146.057	0.242	0.328
-461.084	-200.000	0.004	-0.096
-460.070	193.162	-0.159	-0.244
-459.055	-83.040	0.095	0.031
-458.040	-103.604	0.378	-0.090
-457.026	-92.937	-0.176	0.050
-456.011	800.000	-0.057	0.220
-454.997	112.533	-0.058	-0.071
-453.982	-200.000	0.011	-0.075
-452.968	-200.000	0.035	0.159
-451.953	-200.000	-0.005	-0.405
-450.938	-200.000	-0.007	-0.313
-449.924	-124.603	-0.172	0.027
-448.909	43.443	-0.309	0.285
-447.895	-200.000	-0.055	0.270
-446.880	-200.000	0.023	0.163
-445.865	-96.631	-0.142	0.038
-444.851	-10.772	0.081	0.054
-443.836	-153.612	-0.467	-0.033
-442.822	155.732	0.088	0.123
-441.807	-172.254	0.377	0.012
-440.792	428.259	-0.028	0.060
-439.778	24.681	0.214	0.179
-438.763	708.750	0.052	0.140
-437.749	-164.336	-0.313	-0.014
-436.734	71.626	-0.240	-0.253
-435.719	263.793	0.073	0.128
-434.705	-183.282	0.241	-0.004
-433.690	-200.000	-0.054	0.423
-432.676	-92.733	-0.210	0.059
-431.661	-98.024	-0.254	0.066
-430.646	229.524	-0.291	-0.480
-429.632	238.395	-0.132	-0.222
-428.617	-170.770	-0.035	0.001
-427.603	35.956	0.145	0.129
-426.588	-66.244	-0.094	0.038
-425.573	-83.735	0.216	0.070
-424.559	274.340	0.152	-0.273
-423.544	-200.000	0.019	0.224
-422.530	-172.698	0.343	0.011
-421.515	-67.369	0.126	-0.050
-420.500	-200.000	0.002	-0.088
-419.486	21.019	0.115	0.094
-418.471	396.509	0.045	-0.095
-417.457	-13.208	0.232	0.152
-416.442	31.252	0.107	-0.093
-415.428	-200.000	-0.014	-0.254
-414.413	-121.498	0.387	0.065
-413.398	-131.498	-0.233	-0.031
-412.384	-92.941	-0.083	0.023
-411.369	800.000	-0.059	-0.217
-410.355	-81.136	0.083	0.028
-409.340	-89.697	-0.447	0.132
-408.325	77.803	-0.203	0.219
-407.311	-86.321	0.198	0.062
-406.296	-95.683	0.054	0.015
-405.282	102.030	-0.110	-0.129
-404.267	-200.000	0.017	0.206
-403.252	35.518	-0.408	-0.362
-402.238	-130.486	0.105	-0.014
-401.223	570.288	-0.153	0.377
-400.209	-200.000	-0.039	0.245
-399.194	612.539	0.012	0.032
-398.179	-94.081	-0.280	0.077
-397.165	-65.881	-0.240	0.097
-396.150	22.379	0.159	-0.131
-395.136	-46.575	0.178	-0.088
-394.121	224.374	-0.169	-0.276
-393.106	-103.507	0.266	-0.063
-392.092	-2.647	0.216	-0.153
-391.077	-75.259	0.320	-0.115
-390.063	-23.319	-0.092	0.056
-389.048	-200.000	0.058	0.319
-388.033	-37.117	0.362	0.195
-387.019	-134.303	0.027	0.003
-386.004	-107.306	-0.056	0.012
-384.990	-50.346	-0.224	-0.107
-383.975	89.321	0.139	-0.157
-382.960	-90.899	0.072	0.021
-381.946	521.581	-0.217	-0.513
-380.931	-33.341	0.057	0.032
-379.917	154.981	-0.036	0.050
-378.902	4.276	0.174	-0.128
-377.888	-200.000	0.001	-0.009
-376.873	65.139	-0.153	0.156
-375.858	-61.042	-0.154	0.065
-374.844	45.288	-0.031	0.029
-373.829	-123.574	0.123	0.020
-372.815	129.932	0.099	-0.128
-371.800	-141.852	-0.199	0.020
-370.785	-78.003	-0.277	0.096
-369.771	-22.975	-0.363	0.221
-368.756	-105.432	-0.178	-0.041
-367.742	-145.776	0.342	0.031
-366.727	42.599	-0.129	-0.119
-365.712	800.000	0.086	0.284
-364.698	-142.645	-0.137	0.014
-363.683	58.035	-0.268	0.265
-362.669	56.721	0.092	-0.091
-361.654	-13.997	-0.094	0.061
-360.639	-55.082	0.175	0.079
-359.625	-143.482	-0.274	-0.026
-358.610	-165.691	0.243	0.011
-357.596	164.889	-0.107	-0.152
-356.581	271.394	0.099	-0.176
-355.566	-200.000	-0.004	0.356
-354.552	-119.179	-0.236	-0.042
-353.537	-22.042	0.245	-0.150
-352.523	10.937	-0.230	0.177
-351.508	-73.947	-0.169	0.062
-350.493	149.403	0.248	-0.338
-349.479	369.545	-0.045	0.091
-348.464	-75.001	0.256	0.092
-347.450	-40.384	-0.336	-0.176
-346.435	-200.000	-0.022	0.144
-345.420	-200.000	0.013	0.144
-344.406	-200.000	0.004	-0.159
-343.391	-27.315	0.119	-0.070
-342.377	-57.990	-0.091	0.040
-341.362	-200.000	-0.065	-0.312
-340.348	-12.147	0.070	-0.046
-339.333	-200.000	0.002	-0.025
-338.318	265.234	-0.073	0.128
-337.304	210.377	0.167	0.265
-336.289	800.000	-0.005	0.022
-335.275	-63.711	0.243	-0.100
-334.260	142.792	-0.146	-0.195
-333.245	-130.463	-0.329	0.045
-332.231	294.994	0.177	-0.326
-331.216	-41.132	-0.265	-0.138
-330.202	-96.568	0.337	0.090
-329.187	-200.000	-0.051	0.272
-328.172	-200.000	-0.012	0.259
-327.158	97.253	0.082	-0.095
-326.143	-200.000	-0.023	0.260
-325.129	595.227	0.100	0.249
-324.114	334.191	-0.138	-0.268
-323.099	394.245	0.155	0.326
-322.085	76.793	-0.213	0.228
-321.070	99.556	-0.160	-0.187
-320.056	800.000	-0.093	0.294
-319.041	-110.935	0.402	-0.083
-318.026	-125.433	0.150	0.023
-317.012	25.459	0.113	0.095
-315.997	173.481	0.049	0.071
-314.983	71.170	0.202	0.211
-313.968	-21.569	0.169	-0.104
-312.953	379.654	0.132	0.271
-311.939	306.891	0.133	0.250
-310.924	-200.000	-0.047	0.274
-309.910	33.003	-0.129	0.113
-308.895	-79.879	0.156	-0.053
-307.880	48.516	-0.237	-0.223
-306.866	-177.512	0.222	-0.005
-305.851	-200.000	0.019	-0.226
-304.837	-2.874	0.194	0.136
-303.822	-118.354	0.107	-0.019
-302.807	9.598	0.113	-0.086
-301.793	253.011	-0.093	0.160
-300.778	-39.859	-0.424	-0.223
-299.764	-163.938	0.162	0.008
-298.749	-33.768	-0.178	-0.099
-297.735	610.635	-0.089	0.224
-296.720	-121.181	0.137	-0.023
-295.705	-200.000	-0.023	-0.372
-294.691	-200.000	0.095	0.437
-293.676	176.947	-0.075	0.110
-292.662	460.679	0.151	-0.339
-291.647	-162.509	-0.276	0.014
-290.632	15.886	-0.224	0.178
-289.618	6.031	0.107	-0.079
-288.603	-79.206	0.075	-0.026
-287.589	386.204	-0.042	0.087
-286.574	-30.497	0.113	0.065
-285.559	-102.459	0.286	0.069
-284.545	800.000	0.030	0.116
-283.530	55.689	-0.130	0.126
-282.516	-23.171	0.038	0.023
-281.501	-3.298	0.222	-0.155
-280.486	-200.000	0.009	-0.286
-279.472	-161.727	0.351	0.018
-278.457	451.011	0.041	-0.091
-277.443	-67.964	0.129	-0.051
-276.428	800.000	-0.094	0.289
-275.413	455.841	0.135	-0.301
-274.399	-75.459	0.099	0.035
-273.384	800.000	0.035	0.125
-272.370	19.580	0.100	0.081
-271.355	48.804	-0.056	0.053
-270.340	-200.000	-0.010	-0.081
-269.326	13.484	0.088	-0.069
-268.311	-167.047	0.218	0.009
-267.297	675.506	-0.089	0.233
-266.282	170.440	0.066	0.095
-265.267	-200.000	-0.034	-0.207
-264.253	-173.200	0.308	-0.009
-263.238	-54.308	0.232	-0.106
-262.224	-105.191	-0.483	0.111
-261.209	-200.000	-0.007	0.163
-260.195	-78.376	-0.250	0.086
-259.180	-157.401	-0.239	0.014
-258.165	-199.069	0.131	-0.001
-257.151	278.671	0.131	-0.235
-256.136	-200.000	-0.005	-0.044
-255.122	78.231	-0.143	0.153
-254.107	-96.422	0.090	0.024
-253.092	214.141	-0.068	-0.108
-252.078	69.212	0.119	-0.123
-251.063	381.989	-0.091	-0.189
-250.049	-54.721	0.164	0.074
-249.034	-102.077	0.176	-0.043
-248.019	20.827	-0.236	0.192
-247.005	-42.975	-0.223	-0.114
-245.990	123.882	-0.038	-0.048
-244.976	800.000	-0.040	-0.173
-243.961	261.534	0.282	-0.491
-242.946	23.985	0.156	-0.129
-241.932	45.711	0.309	-0.287
-240.917	176.576	-0.161	0.236
-239.903	-98.872	0.114	-0.029
-238.888	-175.314	-0.120	0.003
-237.873	800.000	0.136	0.499
-236.859	239.937	0.137	-0.228
-235.844	800.000	-0.121	-0.341
-234.830	-200.000	0.012	-0.060
-233.815	56.189	0.048	0.047
-232.800	-200.000	0.023	-0.104
-231.786	16.649	-0.106	0.084
-230.771	457.449	-0.141	-0.315
-229.757	-200.000	0.060	-0.307
-228.742	232.579	-0.144	0.237
-227.727	-200.000	-0.008	-0.323
-226.713	-153.058	-0.454	-0.032
-225.698	-197.084	0.281	0.002
-224.684	-8.940	0.198	0.133
-223.669	-177.028	0.476	-0.012
-222.655	61.994	-0.215	-0.215
-221.640	32.692	0.225	0.196
-220.625	-127.596	0.049	-0.007
-219.611	-200.000	-0.004	0.100
-218.596	-37.944	0.089	0.048
-217.582	-200.000	-0.009	-0.209
-216.567	57.884	-0.034	-0.034
-215.552	-157.551	0.406	0.024
-214.538	800.000	-0.042	-0.117
-213.523	-76.835	-0.164	-0.058
-212.509	214.055	-0.097	0.153
-211.494	-168.735	-0.173	0.007
-210.479	198.869	-0.077	0.119
-209.465	726.997	0.061	0.163
-208.450	-200.000	0.169	-0.000
-207.436	257.148	0.020	-0.034
-206.421	101.579	-0.123	0.144
-205.406	-95.475	0.382	0.103
-204.392	4.525	0.148	-0.109
-203.377	133.309	0.081	-0.104
-202.363	-25.904	-0.089	-0.053
-201.348	-102.617	0.485	0.116
-200.333	-73.057	-0.342	0.126
-199.319	-200.000	-0.005	0.156
-198.304	551.795	-0.053	-0.128
-197.290	-68.443	-0.034	0.013
-196.275	-86.369	-0.178	0.055
-195.260	-200.000	-0.044	0.317
-194.246	250.593	-0.020	0.034
-193.231	-124.567	-0.156	-0.024
-192.217	-3.520	0.156	0.108
-191.202	256.602	-0.059	-0.101
-190.187	-99.928	0.314	-0.079
-189.173	40.919	0.114	-0.103
-188.158	21.054	-0.266	-0.216
-187.144	-75.440	-0.129	0.046
-186.129	78.846	-0.276	0.296
-185.114	-200.000	-0.036	-0.222
-184.100	-43.973	-0.333	-0.168
-183.085	540.004	-0.101	-0.241
-182.071	-200.000	-0.003	0.181
-181.056	-200.000	0.042	0.447
-180.042	418.621	0.233	0.500
-179.027	-200.000	0.032	0.332
-178.012	800.000	-0.050	-0.162
-176.998	-134.855	-0.132	-0.016
-175.983	111.308	-0.350	0.422
-174.969	800.000	0.096	-0.323
-173.954	-200.000	0.015	-0.181
-172.939	322.874	0.239	0.456
-171.925	557.397	0.038	-0.092
-170.910	-52.668	0.125	0.058
-169.896	-20.311	-0.146	-0.090
-168.881	-200.000	-0.024	-0.137
-167.866	-200.000	0.030	-0.279
-166.852	-145.283	-0.159	0.014
-165.837	-155.692	0.071	-0.005
-164.823	-200.000	-0.005	0.076
-163.808	2.363	-0.243	0.176
-162.793	-26.472	-0.234	0.137
-161.779	-90.598	-0.184	0.053
-160.764	-200.000	0.016	-0.326
-159.750	106.041	0.141	-0.167
-158.735	-141.331	0.331	-0.034
-157.720	126.516	-0.318	0.402
-156.706	800.000	-0.027	0.100
-155.691	-200.000	0.005	-0.048
-154.677	141.851	0.209	-0.277
-153.662	410.311	-0.199	0.421
-152.647	-62.584	0.140	-0.058
-151.633	800.000	0.038	0.128
-150.618	640.988	-0.035	0.089
-149.604	800.000	0.058	0.195
-148.589	-137.565	-0.390	-0.044
-147.574	800.000	-0.064	0.275
-146.560	8.926	-0.171	-0.129
-145.545	44.451	0.120	0.110
-144.531	-54.922	-0.240	-0.108
-143.516	176.142	-0.032	-0.046
-142.502	119.463	0.191	0.237
-141.487	38.118	-0.162	0.144
-140.472	349.079	-0.068	-0.134
-139.458	-163.080	0.164	0.008
-138.443	800.000	-0.084	0.317
-137.429	-41.740	0.279	-0.143
-136.414	43.743	-0.226	-0.207
-135.399	391.429	0.068	-0.141
-134.385	-167.962	0.355	-0.014
-133.370	800.000	-0.087	0.347
-132.356	35.329	0.219	-0.192
-131.341	86.572	-0.013	-0.014
-130.326	-106.753	0.180	-0.040
-129.312	-200.000	-0.002	0.072
-128.297	-34.440	0.328	0.180
-127.283	-135.176	0.347	0.042
-126.268	-90.472	0.337	0.098
-125.253	800.000	-0.038	-0.116
-124.239	-200.000	0.029	-0.294
-123.224	369.115	-0.060	-0.121
-122.210	800.000	0.165	0.611
