DTS Sentinel unit serial number:	SN413079Multiplexer serial number:	ORYXHardware model number:	OX4-SRSoftware version number:	ORYX F/W v4.00 Oryx Data Collector v3.7.2.0data status	okinstallation	princeton_trtdifferential loss correction	single-endedforward channel	channel 3reverse channel	N/Adate	2019/09/10time	22:42:11forward acquisition time	60.00reverse acquisition time	0.00gamma	496.2192k internal	0.2331k external	0.2331temperature offset calibration	0.9917default loss term (dB/km)	0.3790temperature slope calibration	1.0000multiplexer offset coefficient	1.0000multiplexer slope coefficient	1.0000fibre end	0.00T internal ref (°C)	30.25T ext. ref 1 (°C)	-0.31T ext. ref 2 (°C)	23.83length (m)	temperature (°C)	Stokes	anti-Stokes-747.200	-94.849	-0.204	0.056
-746.185	-96.805	-0.332	0.088
-745.171	-68.145	0.306	-0.120
-744.156	-79.962	-0.099	-0.033
-743.142	325.238	-0.090	-0.173
-742.127	245.958	-0.151	-0.256
-741.112	-58.267	0.093	-0.041
-740.098	-200.000	0.088	0.566
-739.083	-151.432	0.339	-0.025
-738.069	-103.066	0.137	0.033
-737.054	-134.221	0.126	-0.016
-736.039	-18.808	-0.242	0.152
-735.025	-179.918	0.579	-0.012
-734.010	140.747	-0.200	-0.266
-732.996	-40.283	-0.152	-0.080
-731.981	291.434	-0.133	0.243
-730.966	227.522	0.068	-0.111
-729.952	-17.955	-0.321	0.202
-728.937	1.237	-0.383	0.277
-727.923	-192.480	-0.248	-0.002
-726.908	95.486	0.081	-0.093
-725.894	-200.000	-0.010	-0.181
-724.879	-157.264	0.290	-0.018
-723.864	116.772	0.187	0.231
-722.850	241.187	0.060	0.100
-721.835	-96.989	-0.269	0.071
-720.821	19.472	-0.345	-0.279
-719.806	224.754	0.062	-0.101
-718.791	-41.826	-0.137	-0.071
-717.777	254.903	0.168	-0.290
-716.762	800.000	-0.127	0.351
-715.748	547.454	-0.049	-0.117
-714.733	28.951	-0.194	-0.165
-713.718	294.499	-0.096	-0.176
-712.704	-131.496	-0.257	0.034
-711.689	-21.550	0.250	0.153
-710.675	-107.172	-0.103	-0.023
-709.660	-32.911	0.403	-0.225
-708.645	184.912	-0.232	0.346
-707.631	391.825	-0.116	0.242
-706.616	-200.000	0.019	0.167
-705.602	216.944	-0.078	-0.125
-704.587	-1.031	-0.266	-0.189
-703.572	17.668	-0.226	0.181
-702.558	48.626	0.247	0.233
-701.543	-146.266	-0.250	-0.022
-700.529	800.000	0.090	0.326
-699.514	-107.015	-0.342	-0.076
-698.499	75.182	-0.226	-0.239
-697.485	800.000	-0.072	-0.293
-696.470	-64.183	-0.226	-0.093
-695.456	-47.551	-0.142	0.069
-694.441	227.859	-0.137	0.223
-693.426	10.371	0.329	0.251
-692.412	-200.000	-0.034	0.221
-691.397	-200.000	-0.001	-0.144
-690.383	-200.000	0.031	-0.316
-689.368	800.000	0.087	0.251
-688.354	92.139	-0.188	0.213
-687.339	800.000	-0.035	0.108
-686.324	-63.513	-0.265	-0.109
-685.310	18.552	-0.224	0.180
-684.295	-0.408	-0.269	-0.192
-683.281	-154.596	0.126	-0.008
-682.266	66.286	-0.204	0.208
-681.251	-115.670	-0.397	-0.075
-680.237	-13.879	-0.227	-0.147
-679.222	-95.295	-0.063	0.017
-678.208	25.205	0.038	-0.032
-677.193	316.796	0.082	0.155
-676.178	114.096	0.086	-0.106
-675.164	-200.000	-0.034	0.445
-674.149	-133.322	0.104	0.013
-673.135	800.000	-0.073	0.267
-672.120	-74.074	-0.325	0.118
-671.105	496.277	0.044	-0.102
-670.091	81.733	0.139	-0.151
-669.076	431.488	-0.108	-0.235
-668.062	-200.000	-0.001	0.276
-667.047	-200.000	0.017	-0.232
-666.032	-200.000	-0.026	0.323
-665.018	-200.000	0.029	0.165
-664.003	-169.426	0.242	-0.009
-662.989	-97.613	0.140	-0.036
-661.974	-24.991	0.090	0.054
-660.959	-200.000	0.000	-0.391
-659.945	-12.660	-0.196	0.128
-658.930	-116.730	-0.325	0.060
-657.916	116.275	0.155	0.191
-656.901	-200.000	0.043	-0.601
-655.886	800.000	-0.028	0.082
-654.872	-15.160	-0.031	-0.020
-653.857	66.411	-0.226	0.230
-652.843	346.185	-0.097	0.191
-651.828	87.018	0.102	-0.113
-650.814	65.856	0.198	0.201
-649.799	8.411	-0.228	-0.172
-648.784	34.649	-0.132	-0.116
-647.770	4.560	-0.258	0.190
-646.755	-70.719	0.237	0.090
-645.741	-72.767	0.274	0.101
-644.726	0.128	-0.098	-0.070
-643.711	100.578	-0.301	-0.351
-642.697	-132.036	-0.290	0.038
-641.682	-200.000	-0.015	0.331
-640.668	-42.229	0.289	0.148
-639.653	22.742	0.128	0.105
-638.638	406.038	-0.026	-0.055
-637.624	212.545	0.092	-0.146
-636.609	-11.971	0.219	0.144
-635.595	-14.855	0.191	-0.123
-634.580	-200.000	0.010	-0.144
-633.565	-55.822	0.058	0.026
-632.551	-98.255	-0.334	-0.086
-631.536	161.376	0.086	0.121
-630.522	-102.655	-0.250	-0.060
-629.507	-156.398	-0.154	0.010
-628.492	-135.178	-0.133	0.016
-627.478	221.078	0.037	-0.059
-626.463	172.963	0.194	-0.279
-625.449	4.359	-0.157	-0.116
-624.434	-4.708	0.088	0.061
-623.419	-77.894	-0.296	-0.102
-622.405	392.309	0.075	-0.155
-621.390	-91.183	0.133	-0.038
-620.376	-112.185	-0.255	-0.051
-619.361	16.048	0.219	0.173
-618.346	256.880	-0.132	-0.227
-617.332	-55.372	0.267	0.120
-616.317	-200.000	0.039	0.199
-615.303	137.809	0.059	0.078
-614.288	-6.214	0.130	-0.089
-613.273	32.099	-0.207	0.179
-612.259	-69.935	-0.167	0.064
-611.244	-200.000	-0.004	0.117
-610.230	150.959	-0.185	-0.251
-609.215	-40.624	-0.209	0.109
-608.201	-29.622	0.181	0.104
-607.186	-89.362	-0.518	-0.153
-606.171	135.248	0.244	0.317
-605.157	-99.347	-0.157	0.040
-604.142	-10.019	-0.127	-0.085
-603.128	118.698	-0.079	0.097
-602.113	-200.000	0.069	-0.308
-601.098	-148.840	0.423	-0.034
-600.084	457.823	0.125	0.278
-599.069	111.617	-0.109	-0.131
-598.055	-124.263	0.188	0.029
-597.040	35.329	-0.289	0.254
-596.025	750.719	0.027	-0.073
-595.011	137.505	0.127	-0.166
-593.996	800.000	0.110	-0.367
-592.982	800.000	-0.065	0.240
-591.967	800.000	-0.114	-0.475
-590.952	171.068	-0.255	-0.366
-589.938	-65.005	-0.132	0.053
-588.923	-94.396	0.161	0.044
-587.909	146.844	0.065	0.088
-586.894	-64.044	0.203	-0.083
-585.879	-156.059	-0.292	-0.018
-584.865	-147.683	-0.170	0.014
-583.850	-126.721	0.361	-0.053
-582.836	-200.000	0.011	-0.126
-581.821	-18.247	-0.056	0.035
-580.806	263.975	-0.065	0.113
-579.792	-123.294	-0.157	-0.025
-578.777	-32.660	-0.048	-0.027
-577.763	33.866	-0.274	0.238
-576.748	-200.000	-0.023	-0.209
-575.733	25.355	-0.213	0.177
-574.719	-83.485	0.224	0.072
-573.704	800.000	0.055	-0.213
-572.690	-22.318	0.200	0.121
-571.675	-200.000	0.039	0.210
-570.661	-65.807	0.113	0.045
-569.646	526.468	-0.082	0.193
-568.631	753.526	-0.093	-0.250
-567.617	-85.341	-0.200	0.062
-566.602	-200.000	0.002	-0.047
-565.588	-95.111	0.225	-0.061
-564.573	-38.058	-0.124	0.066
-563.558	-200.000	-0.023	0.102
-562.544	157.549	-0.141	-0.195
-561.529	-199.930	-0.140	-0.001
-560.515	-79.405	0.071	-0.024
-559.500	17.326	-0.033	0.026
-558.485	800.000	0.081	-0.231
-557.471	800.000	0.023	0.091
-556.456	-200.000	-0.078	0.369
-555.442	-89.046	-0.218	-0.064
-554.427	76.496	-0.118	-0.125
-553.412	-1.095	-0.024	-0.017
-552.398	-85.880	0.138	0.043
-551.383	-33.916	0.275	-0.151
-550.369	-200.000	-0.016	-0.074
-549.354	546.494	-0.040	-0.095
-548.339	29.936	0.335	-0.285
-547.325	-24.180	0.307	-0.183
-546.310	-74.345	-0.362	-0.131
-545.296	-23.458	0.423	0.254
-544.281	-38.421	0.188	-0.099
-543.266	112.514	-0.162	0.196
-542.252	-59.491	0.313	-0.134
-541.237	800.000	0.030	-0.110
-540.223	800.000	0.065	-0.221
-539.208	146.498	0.060	0.080
-538.193	40.693	-0.221	0.199
-537.179	-73.065	0.147	-0.054
-536.164	618.868	0.027	0.068
-535.150	69.421	0.119	0.123
-534.135	-200.000	0.045	0.201
-533.121	-68.676	0.287	-0.111
-532.106	-4.363	-0.283	0.195
-531.091	-25.286	0.162	0.096
-530.077	-113.965	-0.178	-0.034
-529.062	-200.000	0.037	-0.263
-528.048	573.072	0.158	-0.383
-527.033	-160.003	0.096	0.005
-526.018	-14.805	-0.149	-0.096
-525.004	800.000	0.039	0.168
-523.989	-200.000	0.015	0.346
-522.975	631.803	0.102	-0.258
-521.960	-200.000	0.018	-0.152
-520.945	-106.203	-0.484	-0.108
-519.931	733.639	-0.102	-0.272
-518.916	490.461	0.098	0.224
-517.902	-200.000	-0.005	-0.048
-516.887	71.940	-0.104	0.108
-515.872	-45.358	-0.386	0.191
-514.858	-200.000	0.028	0.134
-513.843	800.000	0.033	0.128
-512.829	-178.623	-0.054	0.001
-511.814	345.062	0.142	0.279
-510.799	-73.612	-0.226	-0.082
-509.785	189.286	-0.088	-0.132
-508.770	-200.000	0.082	-0.463
-507.756	165.049	0.201	0.283
-506.741	-200.000	-0.001	0.080
-505.726	-83.355	0.197	0.063
-504.712	228.878	-0.075	-0.122
-503.697	-60.102	-0.263	0.112
-502.683	-40.055	-0.183	-0.095
-501.668	169.523	0.131	0.186
-500.653	177.117	-0.054	0.078
-499.639	-74.437	-0.188	-0.068
-498.624	52.238	0.116	0.111
-497.610	522.025	0.154	-0.360
-496.595	-200.000	-0.000	0.077
-495.581	121.508	0.116	0.145
-494.566	-200.000	0.001	0.233
-493.551	800.000	0.093	0.299
-492.537	116.820	0.203	0.249
-491.522	-83.235	0.278	-0.089
-490.508	800.000	-0.013	0.038
-489.493	-127.821	-0.038	0.005
-488.478	122.962	-0.074	-0.093
-487.464	24.359	-0.234	-0.193
-486.449	550.507	0.094	0.224
-485.435	131.933	0.213	-0.273
-484.420	-62.174	-0.351	0.146
-483.405	447.123	0.151	0.331
-482.391	7.255	0.085	0.063
-481.376	-15.924	-0.065	-0.041
-480.362	112.009	-0.173	-0.209
-479.347	800.000	-0.059	-0.204
-478.332	-30.009	0.164	0.093
-477.318	247.942	-0.033	0.055
-476.303	-174.969	0.217	-0.006
-475.289	-200.000	-0.012	-0.195
-474.274	-44.625	0.142	-0.071
-473.259	-49.195	-0.274	0.130
-472.245	-121.659	0.285	0.047
-471.230	20.346	-0.093	-0.075
-470.216	163.712	0.117	-0.164
-469.201	800.000	-0.026	0.111
-468.186	104.246	0.087	0.101
-467.172	259.843	0.088	-0.151
-466.157	-84.584	-0.130	0.041
-465.143	-53.029	-0.079	0.036
-464.128	164.085	0.189	-0.265
-463.113	-77.425	-0.161	-0.056
-462.099	800.000	-0.095	-0.296
-461.084	-19.698	-0.192	0.118
-460.070	-161.193	0.341	0.018
-459.055	-108.942	-0.170	0.036
-458.040	-75.722	0.111	0.039
-457.026	105.034	0.179	-0.210
-456.011	-200.000	0.053	0.422
-454.997	418.146	0.188	0.400
-453.982	772.478	0.081	0.220
-452.968	-132.433	-0.186	0.024
-451.953	115.597	-0.041	-0.050
-450.938	-176.232	-0.211	0.005
-449.924	206.872	-0.054	-0.084
-448.909	-27.558	-0.152	-0.088
-447.895	228.469	0.072	-0.117
-446.880	-63.430	-0.221	0.090
-445.865	-119.029	0.225	0.039
-444.851	-200.000	-0.448	0.002
-443.836	-59.476	-0.088	0.038
-442.822	-96.108	-0.429	-0.113
-441.807	-136.380	-0.169	0.020
-440.792	-43.676	-0.165	-0.083
-439.778	34.254	-0.106	-0.092
-438.763	-91.385	-0.104	0.030
-437.749	800.000	0.070	-0.198
-436.734	-56.888	-0.338	-0.148
-435.719	-200.000	0.030	-0.253
-434.705	-200.000	0.015	-0.108
-433.690	330.810	-0.153	-0.293
-432.676	327.211	-0.047	-0.090
-431.661	-59.884	-0.322	0.137
-430.646	-11.357	-0.126	-0.082
-429.632	175.098	0.091	0.131
-428.617	-200.000	0.001	-0.131
-427.603	550.061	0.098	0.233
-426.588	-103.416	-0.207	0.048
-425.573	148.968	0.211	-0.284
-424.559	-180.283	-0.370	-0.008
-423.544	-16.295	0.090	-0.057
-422.530	107.413	0.037	-0.044
-421.515	79.717	0.126	0.135
-420.500	-11.506	0.128	0.083
-419.486	-143.756	0.208	-0.020
-418.471	334.516	0.104	0.199
-417.457	-200.000	-0.004	-0.384
-416.442	-190.725	0.071	0.001
-415.428	-25.418	-0.220	-0.129
-414.413	161.692	-0.144	0.200
-413.398	202.068	-0.040	0.061
-412.384	136.417	0.129	-0.167
-411.369	8.534	-0.182	-0.136
-410.355	-99.802	-0.299	-0.074
-409.340	-200.000	0.001	0.006
-408.325	94.557	0.199	0.225
-407.311	-200.000	0.017	0.100
-406.296	274.692	-0.098	-0.173
-405.282	-124.249	0.374	-0.058
-404.267	-165.232	-0.132	-0.006
-403.252	464.525	-0.023	0.050
-402.238	275.906	-0.077	0.135
-401.223	-97.348	-0.218	-0.056
-400.209	229.613	0.064	-0.104
-399.194	-107.588	-0.325	0.071
-398.179	-188.526	-0.071	-0.001
-397.165	-80.872	0.167	0.055
-396.150	-110.502	0.075	-0.015
-395.136	-128.115	0.316	-0.045
-394.121	356.173	0.098	-0.194
-393.106	-200.000	0.005	0.217
-392.092	800.000	-0.029	-0.106
-391.077	9.853	0.164	-0.124
-390.063	334.976	0.044	0.086
-389.048	93.544	-0.280	0.314
-388.033	-143.543	-0.270	-0.026
-387.019	-56.633	-0.241	0.106
-386.004	71.047	0.234	-0.240
-384.990	-200.000	-0.073	-0.374
-383.975	-97.639	0.550	0.142
-382.960	-39.917	-0.160	0.083
-381.946	591.956	-0.081	0.198
-380.931	12.403	0.143	-0.110
-379.917	800.000	0.098	0.306
-378.902	-32.894	-0.111	0.061
-377.888	232.504	0.200	-0.326
-376.873	-195.315	-0.046	0.000
-375.858	-200.000	-0.007	-0.206
-374.844	-118.326	-0.414	0.073
-373.829	800.000	0.050	-0.204
-372.815	379.223	-0.018	0.036
-371.800	-200.000	0.035	0.235
-370.785	-122.674	0.358	-0.057
-369.771	65.568	0.213	0.214
-368.756	37.746	0.159	-0.140
-367.742	8.267	-0.051	0.038
-366.727	-200.000	-0.013	-0.098
-365.712	-200.000	-0.003	0.053
-364.698	-145.096	0.431	0.039
-363.683	-200.000	0.007	-0.149
-362.669	-94.130	-0.095	0.026
-361.654	55.941	0.403	0.388
-360.639	-200.000	0.054	0.418
-359.625	12.156	0.311	0.237
-358.610	-192.537	-0.230	0.002
-357.596	800.000	0.036	-0.132
-356.581	-58.264	-0.130	0.056
-355.566	-133.595	0.259	-0.032
-354.552	-200.000	0.027	0.142
-353.537	626.584	-0.099	0.248
-352.523	-200.000	-0.038	0.346
-351.508	119.180	0.305	-0.373
-350.493	214.147	-0.049	-0.076
-349.479	-200.000	0.004	0.290
-348.464	97.636	0.066	0.076
-347.450	-5.707	-0.261	-0.177
-346.435	-91.099	0.288	0.082
-345.420	-94.099	-0.169	-0.046
-344.406	564.242	-0.107	0.256
-343.391	-200.000	0.017	0.181
-342.377	635.044	-0.118	0.297
-341.362	-200.000	0.014	0.495
-340.348	-52.026	0.148	0.068
-339.333	34.333	0.083	0.072
-338.318	115.177	-0.123	0.149
-337.304	530.179	0.143	-0.336
-336.289	120.531	0.223	0.275
-335.275	29.971	0.099	0.084
-334.260	-122.032	0.121	0.020
-333.245	30.938	0.165	0.140
-332.231	-76.916	0.107	0.037
-331.216	-200.000	-0.021	-0.310
-330.202	-88.757	-0.231	0.068
-329.187	512.638	0.086	-0.199
-328.172	-63.357	-0.154	-0.063
-327.158	-96.068	-0.219	0.058
-326.143	-200.000	0.005	-0.282
-325.129	-200.000	-0.108	-0.510
-324.114	-200.000	-0.026	-0.188
-323.099	427.318	-0.073	0.156
-322.085	127.787	0.283	0.356
-321.070	124.126	0.069	-0.085
-320.056	-79.660	-0.154	-0.052
-319.041	319.640	-0.152	-0.285
-318.026	34.886	0.151	-0.131
-317.012	55.120	-0.146	-0.140
-315.997	3.651	-0.148	0.107
-314.983	736.494	0.064	0.170
-313.968	97.957	0.138	0.157
-312.953	-144.794	-0.057	-0.005
-311.939	-103.596	0.256	0.059
-310.924	800.000	0.054	0.225
-309.910	-200.000	-0.057	-0.467
-308.895	512.485	0.050	0.114
-307.880	-200.000	0.007	0.198
-306.866	24.721	0.101	0.083
-305.851	660.080	-0.046	-0.118
-304.837	-200.000	-0.037	-0.430
-303.822	-200.000	0.039	-0.187
-302.807	-165.618	-0.083	-0.004
-301.793	453.008	-0.100	0.218
-300.778	-44.962	-0.148	0.073
-299.764	-107.335	-0.181	-0.039
-298.749	152.421	-0.247	-0.334
-297.735	-28.230	0.330	-0.188
-296.720	-54.727	0.140	-0.062
-295.705	352.685	-0.077	0.151
-294.691	-200.000	-0.012	0.286
-293.676	-86.521	0.037	-0.011
-292.662	106.286	-0.164	0.192
-291.647	-35.353	-0.246	0.132
-290.632	-101.916	-0.423	-0.101
-289.618	-91.112	0.131	-0.037
-288.603	-24.730	-0.152	-0.089
-287.589	53.745	-0.323	0.307
-286.574	-98.676	-0.326	-0.082
-285.559	-4.008	-0.237	-0.162
-284.545	800.000	-0.073	0.252
-283.530	-111.864	0.073	-0.015
-282.516	198.954	0.069	0.105
-281.501	-200.000	-0.006	0.244
-280.486	58.194	0.151	-0.147
-279.472	800.000	0.044	0.157
-278.457	-166.784	0.182	-0.007
-277.443	800.000	0.060	-0.256
-276.428	-23.234	-0.135	-0.080
-275.413	172.738	-0.173	0.247
-274.399	-200.000	0.000	-0.187
-273.384	126.885	0.119	0.149
-272.370	196.503	0.133	0.201
-271.355	-154.650	-0.267	0.018
-270.340	25.786	0.215	0.177
-269.326	-141.902	0.244	0.024
-268.311	-1.516	-0.272	0.189
-267.297	313.918	0.044	-0.081
-266.282	21.681	-0.132	0.106
-265.267	-84.571	-0.253	-0.079
-264.253	5.737	0.296	-0.217
-263.238	800.000	0.065	-0.231
-262.224	-200.000	-0.032	0.258
-261.209	-160.438	-0.402	-0.021
-260.195	-78.906	0.197	-0.066
-259.180	-200.000	0.023	-0.132
-258.165	-179.948	0.457	-0.010
-257.151	-87.770	0.022	-0.007
-256.136	164.543	-0.129	0.180
-255.122	-0.585	0.205	-0.144
-254.107	800.000	-0.049	-0.210
-253.092	-148.370	-0.266	0.022
-252.078	-200.000	-0.002	-0.056
-251.063	103.799	-0.087	0.101
-250.049	44.554	0.182	-0.165
-249.034	-200.000	0.002	0.049
-248.019	-200.000	0.019	0.284
-247.005	-38.343	0.119	-0.062
-245.990	-200.000	-0.007	-0.142
-244.976	-200.000	0.028	0.131
-243.961	11.239	0.259	0.195
-242.946	-79.317	0.317	-0.106
-241.932	-95.907	0.179	-0.047
-240.917	-147.853	-0.042	0.003
-239.903	-57.792	-0.270	0.117
-238.888	128.985	-0.106	-0.133
-237.873	-10.425	-0.252	-0.165
-236.859	-129.709	-0.275	0.037
-235.844	-145.111	-0.288	-0.026
-234.830	369.940	-0.107	0.213
-233.815	-48.938	0.150	-0.071
-232.800	-200.000	0.002	-0.140
-231.786	52.086	-0.237	0.222
-230.771	-25.198	0.073	-0.043
-229.757	-25.032	0.117	-0.068
-228.742	-127.753	0.184	0.026
-227.727	134.836	0.202	-0.258
-226.713	180.442	0.177	-0.256
-225.698	-29.184	-0.224	-0.126
-224.684	285.607	0.153	0.272
-223.669	-181.958	0.262	0.005
-222.655	107.306	0.070	0.082
-221.640	377.819	0.148	-0.298
-220.625	800.000	0.066	0.213
-219.611	-124.578	0.148	-0.023
-218.596	800.000	-0.018	0.065
-217.582	647.466	0.130	0.328
-216.567	93.104	0.160	0.178
-215.552	800.000	-0.083	0.252
-214.538	-200.000	0.038	-0.365
-213.523	-2.917	-0.201	-0.139
-212.509	-200.000	-0.065	0.402
-211.494	-67.858	0.119	0.046
-210.479	-200.000	-0.008	-0.132
-209.465	-97.968	-0.079	-0.020
-208.450	-105.459	-0.054	-0.012
-207.436	-122.979	0.460	0.073
-206.421	-124.902	0.126	-0.019
-205.406	-80.230	0.095	0.031
-204.392	-70.844	0.171	-0.063
-203.377	713.443	-0.022	0.057
-202.363	-19.035	-0.085	-0.052
-201.348	800.000	0.098	0.282
-200.333	230.920	-0.046	-0.074
-199.319	-49.254	0.071	-0.033
-198.304	-72.052	-0.259	-0.095
-197.290	15.318	0.262	-0.202
-196.275	20.149	-0.063	0.050
-195.260	-200.000	-0.032	-0.421
-194.246	-142.943	-0.059	-0.006
-193.231	-77.840	-0.169	0.057
-192.217	800.000	-0.035	0.107
-191.202	469.751	0.060	0.133
-190.187	105.861	0.076	0.089
-189.173	-144.373	-0.212	-0.019
-188.158	127.483	0.115	0.144
-187.144	51.614	0.265	-0.248
-186.129	629.490	0.069	0.171
-185.114	-27.717	0.208	-0.119
-184.100	-109.418	-0.192	-0.040
-183.085	771.926	0.047	0.126
-182.071	47.091	0.322	-0.295
-181.056	159.327	0.123	0.169
-180.042	-155.640	0.051	-0.003
-179.027	-128.995	-0.171	-0.024
-178.012	2.806	-0.038	-0.027
-176.998	56.125	0.164	0.156
-175.983	124.044	-0.121	-0.150
-174.969	25.864	-0.123	0.101
-173.954	-121.817	-0.035	0.006
-172.939	-200.000	-0.006	-0.049
-171.925	-80.753	-0.264	-0.086
-170.910	-89.244	0.375	0.109
-169.896	800.000	-0.062	-0.234
-168.881	-82.283	0.402	-0.129
-167.866	800.000	-0.048	0.169
-166.852	122.073	0.320	0.393
-165.837	699.190	-0.119	-0.309
-164.823	74.491	0.237	-0.245
-163.808	100.111	-0.164	-0.187
-162.793	-200.000	0.004	-0.036
-161.779	67.465	-0.280	-0.281
-160.764	63.101	0.081	0.080
-159.750	-200.000	0.005	-0.090
-158.735	-200.000	-0.012	0.295
-157.720	348.236	-0.095	-0.184
-156.706	416.255	-0.105	0.219
-155.691	216.967	-0.102	0.159
-154.677	172.462	0.133	-0.188
-153.662	-132.166	-0.078	-0.010
-152.647	-95.019	-0.080	0.021
-151.633	24.109	0.190	0.155
-150.618	-200.000	-0.000	0.038
-149.604	-94.354	0.110	0.030
-148.589	-73.285	-0.116	0.042
-147.574	78.900	-0.139	-0.146
-146.560	-70.754	-0.059	0.022
-145.545	-92.354	-0.030	-0.008
-144.531	2.501	0.305	-0.217
-143.516	-122.733	-0.261	-0.041
-142.502	-93.351	0.100	-0.027
-141.487	66.422	-0.149	-0.148
-140.472	-76.486	-0.245	-0.085
-139.458	109.751	-0.112	0.132
-138.443	800.000	0.089	0.250
-137.429	-67.720	-0.070	-0.027
-136.414	44.741	0.347	0.314
-135.399	273.653	-0.098	-0.170
-134.385	-53.200	0.189	0.085
-133.370	800.000	0.088	0.332
-132.356	457.414	0.109	-0.237
-131.341	-123.798	0.432	0.067
-130.326	90.586	-0.123	-0.135
-129.312	-65.492	-0.165	0.065
-128.297	-200.000	-0.062	0.288
-127.283	232.396	0.050	0.080
-126.268	243.542	-0.133	0.219
-125.253	769.613	0.016	-0.043
-124.239	-192.260	0.303	0.003
-123.224	800.000	-0.118	-0.321
-122.210	561.228	-0.080	0.190
-121.195	-63.045	-0.195	0.079
