DTS Sentinel unit serial number:	SN413079Multiplexer serial number:	ORYXHardware model number:	OX4-SRSoftware version number:	ORYX F/W v4.00 Oryx Data Collector v3.7.2.0data status	okinstallation	princeton_trtdifferential loss correction	single-endedforward channel	channel 3reverse channel	N/Adate	2019/09/15time	17:48:35forward acquisition time	60.00reverse acquisition time	0.00gamma	496.2192k internal	0.2286k external	0.2286temperature offset calibration	0.9931default loss term (dB/km)	0.3790temperature slope calibration	1.0000multiplexer offset coefficient	1.0000multiplexer slope coefficient	1.0000fibre end	0.00T internal ref (°C)	44.87T ext. ref 1 (°C)	6.33T ext. ref 2 (°C)	39.51length (m)	temperature (°C)	Stokes	anti-Stokes-747.200	232.738	0.094	-0.158
-746.185	-31.323	-0.192	0.111
-745.171	-146.801	-0.235	0.021
-744.156	-200.000	-0.006	-0.151
-743.142	681.383	-0.094	0.250
-742.127	-40.944	0.190	-0.101
-741.112	-70.585	0.032	0.012
-740.098	800.000	-0.153	0.450
-739.083	-103.401	-0.151	-0.037
-738.069	147.291	-0.117	0.161
-737.054	800.000	0.020	-0.063
-736.039	355.730	-0.153	-0.313
-735.025	800.000	0.103	0.319
-734.010	-21.622	-0.331	-0.207
-732.996	153.456	-0.085	-0.119
-731.981	513.534	0.033	-0.080
-730.966	589.795	-0.109	-0.277
-729.952	-200.000	-0.041	-0.325
-728.937	-200.000	-0.033	-0.289
-727.923	49.367	-0.090	-0.087
-726.908	800.000	-0.036	0.121
-725.894	22.601	0.182	0.153
-724.879	-142.674	-0.231	-0.023
-723.864	123.334	0.053	0.068
-722.850	-200.000	0.005	-0.230
-721.835	-200.000	0.020	-0.175
-720.821	-64.502	-0.131	0.055
-719.806	-58.374	-0.152	0.068
-718.791	-108.199	-0.436	0.097
-717.777	114.635	-0.082	-0.103
-716.762	-73.107	-0.131	-0.049
-715.748	-81.266	0.168	-0.057
-714.733	-70.719	0.159	0.061
-713.718	-124.053	-0.078	-0.013
-712.704	-126.037	-0.336	0.052
-711.689	-180.782	0.219	-0.005
-710.675	-167.677	0.125	-0.005
-709.660	-11.942	0.327	-0.219
-708.645	362.546	0.216	-0.445
-707.631	111.557	-0.228	0.282
-706.616	23.534	0.048	0.040
-705.602	-200.000	0.020	0.172
-704.587	215.931	0.267	-0.434
-703.572	316.159	-0.027	-0.053
-702.558	47.394	0.161	0.153
-701.543	800.000	-0.056	-0.166
-700.529	93.522	-0.221	-0.256
-699.514	204.870	0.277	-0.441
-698.499	800.000	0.082	-0.265
-697.485	-27.700	-0.159	0.095
-696.470	1.229	-0.168	0.124
-695.456	-125.179	-0.162	0.025
-694.441	62.562	-0.184	-0.188
-693.426	11.480	0.190	-0.149
-692.412	332.637	0.034	0.068
-691.397	-69.379	0.238	0.094
-690.383	-119.936	0.044	0.008
-689.368	211.849	0.119	0.192
-688.354	-86.164	-0.007	0.002
-687.339	12.212	0.336	-0.265
-686.324	-149.398	0.274	-0.022
-685.310	-200.000	-0.020	-0.352
-684.295	-200.000	-0.011	0.112
-683.281	343.464	-0.175	0.351
-682.266	-179.380	-0.248	-0.006
-681.251	-20.203	-0.222	0.140
-680.237	448.180	0.082	-0.185
-679.222	-59.355	0.183	-0.081
-678.208	-119.889	-0.283	-0.050
-677.193	-144.458	0.211	0.020
-676.178	-31.725	-0.121	-0.069
-675.164	-17.352	0.077	0.050
-674.149	-114.133	0.138	0.027
-673.135	-81.014	0.265	0.090
-672.120	-200.000	0.081	0.514
-671.105	405.977	0.158	0.341
-670.091	237.057	0.143	0.243
-669.076	155.461	0.108	0.153
-668.062	31.004	-0.066	-0.058
-667.047	-48.343	-0.108	-0.053
-666.032	-116.942	0.177	-0.033
-665.018	110.137	-0.285	0.350
-664.003	-89.000	0.458	-0.139
-662.989	-0.526	-0.122	0.089
-661.974	-41.092	0.034	-0.018
-660.959	166.078	0.016	0.024
-659.945	119.799	0.238	-0.302
-658.930	302.951	-0.051	-0.096
-657.916	96.950	-0.034	-0.040
-656.901	325.712	-0.086	-0.169
-655.886	-200.000	0.005	-0.347
-654.872	-71.358	-0.212	-0.081
-653.857	108.320	-0.159	-0.194
-652.843	-72.496	0.166	0.063
-651.828	364.609	-0.135	-0.278
-650.814	215.163	-0.006	-0.009
-649.799	-163.214	0.454	0.022
-648.784	453.491	0.152	-0.345
-647.770	-160.290	-0.055	0.003
-646.755	117.918	-0.248	-0.312
-645.741	-102.248	0.293	-0.072
-644.726	277.600	-0.064	0.116
-643.711	-63.659	-0.117	0.049
-642.697	-114.389	-0.227	-0.045
-641.682	-182.939	-0.407	-0.007
-640.668	250.619	-0.125	0.217
-639.653	224.045	-0.077	-0.127
-638.638	54.346	0.069	-0.068
-637.624	87.994	0.245	-0.278
-636.609	-18.882	-0.216	-0.138
-635.595	-200.000	0.049	0.263
-634.580	-144.315	-0.238	0.023
-633.565	435.711	0.105	0.233
-632.551	315.206	0.143	0.276
-631.536	-117.370	-0.073	0.013
-630.522	-11.036	-0.409	0.276
-629.507	-68.067	-0.253	-0.101
-628.492	-63.006	0.256	-0.108
-627.478	-88.632	0.296	0.090
-626.463	132.644	0.173	-0.228
-625.449	-148.834	-0.492	-0.041
-624.434	800.000	0.080	0.312
-623.419	64.992	0.131	0.135
-622.405	662.748	-0.066	0.173
-621.390	-1.334	0.095	0.068
-620.376	184.894	0.229	-0.347
-619.361	-200.000	-0.014	-0.105
-618.346	-121.136	0.124	-0.021
-617.332	342.329	-0.068	-0.136
-616.317	725.851	-0.096	-0.261
-615.303	114.887	0.193	0.240
-614.288	-96.318	-0.253	0.068
-613.273	-68.071	0.230	-0.092
-612.259	294.791	0.097	-0.181
-611.244	76.588	0.099	-0.108
-610.230	94.811	-0.120	0.140
-609.215	800.000	0.040	-0.155
-608.201	-59.123	0.202	-0.089
-607.186	165.599	0.099	-0.144
-606.171	800.000	0.096	0.338
-605.157	-200.000	0.041	0.277
-604.142	-26.349	-0.102	0.061
-603.128	-4.052	-0.167	-0.118
-602.113	-105.977	-0.327	0.075
-601.098	83.950	-0.356	-0.397
-600.084	201.509	0.067	-0.105
-599.069	-64.799	0.325	-0.134
-598.055	298.201	-0.260	-0.488
-597.040	-44.082	0.155	-0.080
-596.025	203.024	-0.048	-0.075
-595.011	-18.155	0.078	-0.050
-593.996	102.805	0.045	-0.054
-592.982	-93.478	-0.312	0.088
-591.967	126.544	0.177	-0.228
-590.952	-167.784	-0.095	0.004
-589.938	-70.554	-0.241	-0.093
-588.923	48.825	-0.153	-0.147
-587.909	-96.303	-0.090	0.024
-586.894	278.057	-0.140	0.254
-585.879	800.000	-0.043	0.132
-584.865	391.682	0.059	0.125
-583.850	29.408	-0.104	-0.090
-582.836	201.187	-0.024	-0.038
-581.821	-200.000	0.007	0.095
-580.806	-108.501	0.052	-0.011
-579.792	-200.000	-0.050	0.326
-578.777	800.000	-0.121	-0.433
-577.763	-39.127	-0.123	0.066
-576.748	10.532	0.251	0.195
-575.733	-72.031	0.269	-0.102
-574.719	-99.848	0.233	-0.060
-573.704	56.828	0.137	0.136
-572.690	25.943	-0.240	-0.204
-571.675	632.777	-0.045	0.117
-570.661	-130.519	0.194	0.027
-569.646	800.000	0.068	-0.202
-568.631	-85.837	-0.164	-0.052
-567.617	116.950	-0.093	0.117
-566.602	-200.000	0.030	-0.139
-565.588	-200.000	0.044	-0.370
-564.573	3.360	0.069	-0.051
-563.558	81.964	0.263	0.291
-562.544	-200.000	-0.018	0.243
-561.529	395.999	-0.100	0.213
-560.515	87.761	-0.075	0.085
-559.500	-130.252	-0.290	-0.040
-558.485	458.654	-0.193	-0.438
-557.471	800.000	0.121	-0.345
-556.456	-107.604	0.090	-0.020
-555.442	-200.000	-0.016	0.359
-554.427	2.709	-0.011	0.008
-553.412	-72.312	0.320	0.121
-552.398	-200.000	-0.011	0.303
-551.383	264.456	0.020	-0.036
-550.369	-135.166	-0.244	-0.030
-549.354	-19.066	0.132	0.084
-548.339	-90.486	0.094	0.028
-547.325	270.472	0.109	-0.195
-546.310	46.521	0.130	-0.123
-545.296	82.753	-0.256	-0.283
-544.281	-108.370	-0.246	-0.054
-543.266	-63.523	0.315	-0.132
-542.252	-134.929	-0.078	0.010
-541.237	-73.715	-0.263	0.097
-540.223	-79.305	-0.109	0.038
-539.208	108.869	-0.089	0.108
-538.193	249.776	0.123	0.213
-537.179	-116.813	-0.272	-0.051
-536.164	-154.562	-0.183	-0.012
-535.150	800.000	-0.065	0.270
-534.135	-16.860	0.170	0.110
-533.121	76.548	0.197	-0.213
-532.106	215.060	-0.057	0.093
-531.091	-32.229	-0.215	0.122
-530.077	-200.000	-0.022	0.196
-529.062	-200.000	0.039	0.301
-528.048	800.000	0.028	-0.119
-527.033	-200.000	-0.062	-0.326
-526.018	-200.000	0.019	-0.183
-525.004	-61.142	0.160	-0.069
-523.989	800.000	0.029	-0.085
-522.975	-38.310	-0.053	0.028
-521.960	45.135	0.102	-0.095
-520.945	-15.394	-0.124	-0.081
-519.931	-16.240	0.177	-0.114
-518.916	244.346	-0.150	-0.256
-517.902	-200.000	0.095	-0.446
-516.887	800.000	-0.026	-0.105
-515.872	47.780	0.127	0.120
-514.858	-200.000	-0.019	-0.161
-513.843	-200.000	-0.031	-0.253
-512.829	102.989	0.062	-0.074
-511.814	-69.014	0.229	-0.090
-510.799	19.260	0.029	-0.024
-509.785	-200.000	-0.038	0.199
-508.770	743.400	0.108	-0.296
-507.756	96.790	0.118	-0.137
-506.741	-71.093	0.192	0.073
-505.726	85.780	-0.158	0.177
-504.712	-55.511	0.037	0.017
-503.697	-141.848	0.391	0.040
-502.683	496.569	0.099	0.231
-501.668	-200.000	-0.022	0.126
-500.653	248.688	0.065	-0.113
-499.639	-90.247	-0.247	-0.073
-498.624	-200.000	0.041	-0.285
-497.610	-163.465	0.334	0.016
-496.595	-3.761	0.107	0.075
-495.581	70.169	0.264	0.277
-494.566	-120.439	-0.269	0.046
-493.551	25.866	-0.136	-0.115
-492.537	-53.557	0.123	-0.057
-491.522	281.337	-0.045	0.081
-490.508	-127.187	0.129	-0.019
-489.493	800.000	0.064	0.276
-488.478	-33.053	0.038	-0.021
-487.464	-200.000	0.009	-0.042
-486.449	262.078	-0.176	-0.311
-485.435	-135.067	-0.437	-0.054
-484.420	-164.975	0.273	-0.012
-483.405	-78.968	0.295	0.102
-482.391	-200.000	0.011	-0.207
-481.376	6.020	-0.138	-0.104
-480.362	87.609	-0.146	0.164
-479.347	-75.177	-0.332	0.120
-478.332	329.449	-0.091	0.178
-477.318	16.066	-0.293	-0.234
-476.303	-42.033	-0.078	-0.041
-475.289	-200.000	0.199	-0.001
-474.274	-200.000	-0.020	-0.385
-473.259	-120.125	-0.332	-0.058
-472.245	-40.931	-0.275	-0.144
-471.230	61.620	-0.139	0.141
-470.216	800.000	0.046	0.146
-469.201	-37.530	-0.377	-0.204
-468.186	69.592	-0.109	-0.114
-467.172	-104.927	0.188	0.044
-466.157	263.664	-0.119	0.209
-465.143	24.094	-0.051	0.043
-464.128	72.303	0.115	0.121
-463.113	63.697	-0.273	-0.278
-462.099	-160.208	0.376	0.021
-461.084	800.000	0.056	-0.187
-460.070	-172.370	-0.314	-0.010
-459.055	-104.335	-0.195	-0.046
-458.040	96.630	0.122	0.141
-457.026	800.000	-0.023	-0.101
-456.011	-194.056	-0.189	0.002
-454.997	40.887	0.105	0.096
-453.982	-197.372	-0.143	0.001
-452.968	70.261	0.112	0.118
-451.953	64.067	0.133	0.136
-450.938	758.843	-0.033	-0.092
-449.924	800.000	-0.055	-0.245
-448.909	-55.682	-0.058	0.026
-447.895	-47.308	0.212	-0.105
-446.880	177.430	0.339	0.501
-445.865	522.006	-0.096	0.230
-444.851	712.815	0.084	0.226
-443.836	-14.122	0.249	0.163
-442.822	22.522	-0.066	0.054
-441.807	-172.586	-0.244	0.008
-440.792	-186.206	0.072	-0.001
-439.778	576.118	0.110	0.272
-438.763	-127.799	0.235	0.034
-437.749	130.043	0.152	-0.197
-436.734	-68.114	-0.043	-0.017
-435.719	32.707	0.103	0.090
-434.705	-3.723	-0.178	0.125
-433.690	310.327	0.089	-0.168
-432.676	-29.925	0.246	-0.142
-431.661	-99.912	-0.078	0.020
-430.646	800.000	-0.046	0.176
-429.632	10.224	-0.181	0.140
-428.617	-200.000	0.030	-0.230
-427.603	800.000	0.039	-0.128
-426.588	-30.454	-0.117	0.067
-425.573	-200.000	0.008	0.094
-424.559	-200.000	0.055	0.444
-423.544	-150.538	0.354	0.027
-422.530	-74.803	0.073	-0.027
-421.515	160.460	0.082	-0.116
-420.500	-77.099	0.198	-0.070
-419.486	395.584	-0.095	0.201
-418.471	560.615	-0.056	0.138
-417.457	-1.451	-0.202	0.144
-416.442	313.571	-0.076	-0.145
-415.428	-30.746	0.275	0.158
-414.413	-45.914	-0.201	-0.100
-413.398	-87.141	-0.228	0.070
-412.384	800.000	-0.052	0.207
-411.369	-200.000	0.011	0.269
-410.355	-67.646	0.254	0.101
-409.340	-8.404	-0.175	0.119
-408.325	209.153	-0.081	0.128
-407.311	-200.000	0.020	-0.133
-406.296	407.342	0.060	0.129
-405.282	-200.000	-0.050	0.277
-404.267	-102.437	0.454	-0.110
-403.252	-134.768	0.577	-0.071
-402.238	329.077	-0.155	-0.301
-401.223	-200.000	-0.016	0.195
-400.209	-200.000	0.048	-0.338
-399.194	155.679	-0.136	-0.190
-398.179	285.251	-0.146	-0.266
-397.165	-44.191	-0.141	-0.072
-396.150	170.132	-0.055	-0.079
-395.136	-33.207	-0.184	-0.103
-394.121	110.229	0.252	0.307
-393.106	-146.495	0.515	-0.045
-392.092	-200.000	0.031	-0.164
-391.077	-53.489	0.092	-0.043
-390.063	3.264	-0.119	-0.087
-389.048	-29.560	-0.057	0.033
-388.033	800.000	0.033	0.112
-387.019	-50.046	0.253	-0.121
-386.004	-58.621	0.158	-0.069
-384.990	-77.839	0.380	-0.133
-383.975	-147.156	-0.178	0.015
-382.960	87.836	-0.243	0.272
-381.946	-200.000	0.005	0.047
-380.931	51.625	0.198	-0.191
-379.917	225.577	0.102	0.167
-378.902	-128.762	-0.100	0.014
-377.888	-200.000	0.031	0.295
-376.873	800.000	0.042	0.122
-375.858	27.257	-0.152	-0.129
-374.844	-200.000	-0.017	0.121
-373.829	4.197	-0.067	-0.050
-372.815	-200.000	-0.002	0.084
-371.800	-200.000	0.047	0.218
-370.785	-151.269	0.222	-0.017
-369.771	-92.082	-0.183	0.052
-368.756	-15.951	0.098	-0.063
-367.742	-44.959	0.108	0.055
-366.727	-54.924	-0.051	0.023
-365.712	800.000	-0.029	0.092
-364.698	4.308	0.340	0.252
-363.683	-14.388	0.206	-0.134
-362.669	-200.000	-0.016	0.156
-361.654	31.534	-0.203	-0.176
-360.639	-8.677	0.187	-0.127
-359.625	-200.000	0.099	0.000
-358.610	-200.000	-0.046	0.472
-357.596	-139.564	-0.191	0.021
-356.581	97.348	-0.112	-0.130
-355.566	34.382	0.158	-0.139
-354.552	594.372	-0.136	-0.340
-353.537	237.891	-0.214	-0.358
-352.523	63.469	0.134	-0.136
-351.508	800.000	-0.025	-0.088
-350.493	-42.176	-0.272	-0.141
-349.479	-24.676	0.292	-0.175
-348.464	128.542	-0.081	0.104
-347.450	151.830	0.187	-0.258
-346.435	-46.897	-0.158	-0.078
-345.420	-198.839	0.297	-0.002
-344.406	668.349	0.031	0.082
-343.391	-37.281	0.259	-0.140
-342.377	-125.371	-0.143	0.022
-341.362	19.290	0.197	0.159
-340.348	16.003	0.073	-0.058
-339.333	28.913	-0.011	0.009
-338.318	-80.513	-0.332	0.112
-337.304	800.000	0.064	-0.182
-336.289	-73.507	0.231	0.085
-335.275	39.478	0.127	-0.115
-334.260	-77.769	-0.383	0.134
-333.245	414.730	0.078	-0.167
-332.231	-72.578	0.247	-0.092
-331.216	559.407	-0.065	0.158
-330.202	138.181	-0.321	0.425
-329.187	346.107	-0.093	0.185
-328.172	245.744	-0.063	-0.107
-327.158	-68.987	0.045	0.017
-326.143	110.430	-0.098	0.119
-325.129	-103.895	-0.065	-0.015
-324.114	-80.104	0.067	-0.023
-323.099	-57.603	-0.040	-0.018
-322.085	321.857	0.016	-0.031
-321.070	-42.702	0.056	0.029
-320.056	136.856	0.154	0.203
-319.041	-7.375	-0.127	-0.087
-318.026	-48.982	0.076	0.037
-317.012	-149.926	-0.296	-0.023
-315.997	4.253	0.147	0.109
-314.983	-125.724	-0.155	0.024
-313.968	-132.786	0.305	0.039
-312.953	-17.110	0.126	0.080
-311.939	84.589	-0.214	-0.236
-310.924	45.542	0.113	-0.105
-309.910	8.017	-0.061	0.046
-308.895	-31.423	-0.033	-0.019
-307.880	25.930	-0.205	0.172
-306.866	112.993	-0.236	0.289
-305.851	-145.814	-0.343	0.031
-304.837	-163.419	-0.241	-0.012
-303.822	355.698	-0.128	0.258
-302.807	-200.000	-0.036	-0.173
-301.793	518.364	-0.095	0.225
-300.778	-72.532	-0.211	-0.079
-299.764	56.905	0.242	-0.238
-298.749	800.000	-0.125	0.348
-297.735	85.901	-0.102	0.113
-296.720	176.895	-0.124	-0.182
-295.705	-200.000	0.048	-0.225
-294.691	208.607	-0.022	-0.034
-293.676	-110.322	0.084	-0.018
-292.662	31.667	-0.217	0.188
-291.647	800.000	0.048	0.160
-290.632	-148.333	0.363	-0.030
-289.618	-36.437	-0.110	-0.060
-288.603	-36.290	-0.180	-0.098
-287.589	97.284	-0.322	-0.372
-286.574	-98.269	0.059	0.015
-285.559	-131.427	0.119	-0.016
-284.545	243.108	-0.051	0.087
-283.530	5.128	-0.121	-0.090
-282.516	-200.000	0.009	0.231
-281.501	-200.000	-0.025	0.218
-280.486	52.336	0.142	0.137
-279.472	-200.000	0.003	-0.082
-278.457	-14.063	-0.096	-0.062
-277.443	173.706	-0.090	-0.131
-276.428	-175.705	-0.187	-0.005
-275.413	-104.721	-0.104	-0.024
-274.399	3.917	0.157	-0.115
-273.384	-157.193	0.170	0.010
-272.370	-200.000	0.002	0.341
-271.355	-43.313	0.163	0.083
-270.340	-48.884	0.213	-0.103
-269.326	-200.000	-0.042	-0.295
-268.311	-163.196	0.209	-0.010
-267.297	110.806	0.084	-0.101
-266.282	-100.909	-0.462	0.114
-265.267	-140.182	0.087	-0.009
-264.253	-106.414	0.413	0.093
-263.238	10.577	-0.135	-0.104
-262.224	23.798	-0.151	0.125
-261.209	-149.790	0.116	0.009
-260.195	-200.000	-0.048	-0.496
-259.180	216.777	0.212	-0.339
-258.165	113.399	-0.149	-0.182
-257.151	-101.301	-0.214	-0.053
-256.136	25.000	-0.395	-0.330
-255.122	-200.000	-0.037	-0.329
-254.107	168.177	0.025	-0.036
-253.092	-144.546	0.115	0.011
-252.078	111.278	-0.021	-0.026
-251.063	-200.000	0.265	-0.000
-250.049	-32.465	0.246	-0.138
-249.034	-137.461	-0.232	0.026
-248.019	-30.866	-0.165	0.094
-247.005	-29.514	-0.148	0.085
-245.990	-200.000	0.018	0.146
-244.976	-200.000	-0.014	0.215
-243.961	488.743	-0.074	0.170
-242.946	800.000	0.137	0.422
-241.932	155.030	0.079	0.109
-240.917	41.930	0.210	-0.192
-239.903	92.369	0.144	0.163
-238.888	-87.404	-0.332	-0.101
-237.873	-118.249	-0.232	-0.042
-236.859	13.678	-0.190	0.149
-235.844	710.559	0.100	0.266
-234.830	-200.000	-0.020	-0.388
-233.815	-34.364	-0.180	-0.100
-232.800	-200.000	-0.037	0.211
-231.786	-115.908	-0.202	-0.038
-230.771	574.909	-0.036	-0.089
-229.757	-39.588	-0.231	-0.122
-228.742	3.587	0.084	-0.061
-227.727	-43.325	0.025	-0.013
-226.713	-200.000	-0.019	-0.263
-225.698	-200.000	-0.052	-0.318
-224.684	-200.000	-0.022	0.147
-223.669	-84.698	0.249	-0.079
-222.655	-200.000	-0.009	0.268
-221.640	3.110	-0.155	0.113
-220.625	-200.000	-0.034	-0.226
-219.611	800.000	0.132	0.420
-218.596	11.141	-0.263	-0.202
-217.582	159.042	-0.161	-0.224
-216.567	737.374	0.034	-0.090
-215.552	54.668	0.294	0.285
-214.538	-106.616	0.270	0.060
-213.523	-94.398	0.276	-0.076
-212.509	-200.000	-0.060	0.370
-211.494	-40.845	0.198	-0.103
-210.479	800.000	-0.151	-0.439
-209.465	8.421	-0.100	0.075
-208.450	-155.083	-0.216	0.014
-207.436	-93.179	0.221	-0.062
-206.421	-22.099	-0.181	0.110
-205.406	178.658	0.028	-0.041
-204.392	414.836	-0.047	-0.102
-203.377	380.809	-0.015	-0.030
-202.363	68.979	0.337	-0.348
-201.348	31.176	-0.174	-0.150
-200.333	-18.916	-0.446	-0.279
-199.319	-200.000	-0.001	-0.270
-198.304	90.889	0.212	-0.238
-197.290	-200.000	-0.013	-0.213
-196.275	561.897	0.095	0.232
-195.260	800.000	0.055	-0.171
-194.246	-200.000	0.004	-0.143
-193.231	-200.000	0.004	-0.171
-192.217	7.986	0.112	0.085
-191.202	217.289	-0.114	0.182
-190.187	-200.000	-0.048	0.311
-189.173	635.446	0.114	0.291
-188.158	-200.000	-0.044	0.395
-187.144	105.557	0.192	0.228
-186.129	-200.000	0.076	0.377
-185.114	-4.608	0.074	0.051
-184.100	31.393	0.066	-0.057
-183.085	-148.346	-0.284	0.023
-182.071	-200.000	0.063	0.314
-181.056	150.378	-0.136	0.185
-180.042	-146.935	0.154	0.013
-179.027	800.000	0.040	-0.132
-178.012	800.000	0.067	0.231
-176.998	-200.000	-0.048	0.254
-175.983	-141.543	0.126	-0.013
-174.969	-200.000	0.014	-0.067
-173.954	-200.000	-0.013	-0.155
-172.939	-200.000	0.013	0.181
-171.925	-109.273	0.178	-0.038
-170.910	262.596	0.200	0.348
-169.896	18.577	0.028	-0.023
-168.881	87.015	-0.192	0.213
-167.866	20.765	-0.087	0.070
-166.852	-200.000	0.058	0.284
-165.837	-184.549	0.371	0.006
-164.823	-200.000	0.050	-0.325
-163.808	265.285	-0.098	-0.171
-162.793	-200.000	-0.083	0.463
-161.779	-32.290	-0.345	0.193
-160.764	-103.505	0.191	-0.045
-159.750	-200.000	0.006	0.038
-158.735	13.718	0.109	-0.085
-157.720	28.360	0.381	0.323
-156.706	19.140	0.038	0.031
-155.691	-20.115	0.130	0.080
-154.677	-66.890	-0.341	0.135
-153.662	-200.000	-0.042	-0.230
-152.647	-200.000	0.009	0.113
-151.633	-79.837	0.315	0.106
-150.618	93.559	-0.068	0.077
-149.604	-74.696	0.297	-0.107
-148.589	-153.956	-0.252	-0.017
-147.574	-200.000	-0.023	0.198
-146.560	-42.734	0.281	0.143
-145.545	-200.000	-0.038	-0.362
-144.531	-11.020	0.288	-0.190
-143.516	29.279	0.090	0.077
-142.502	-9.272	0.385	0.258
-141.487	35.110	0.172	0.151
-140.472	800.000	-0.102	-0.304
-139.458	-200.000	0.015	-0.195
-138.443	-119.456	0.403	0.070
-137.429	-105.951	0.405	0.091
-136.414	-200.000	-0.018	-0.176
-135.399	-43.377	-0.255	0.129
-134.385	800.000	-0.021	0.071
-133.370	90.255	-0.264	0.295
-132.356	-1.531	0.057	-0.040
-131.341	-24.765	-0.033	-0.019
-130.326	-200.000	-0.034	-0.204
-129.312	178.048	-0.193	0.281
-128.297	28.038	0.240	0.203
-127.283	-106.396	0.191	0.043
-126.268	800.000	-0.139	0.415
-125.253	-116.316	0.201	-0.037
-124.239	-108.235	0.058	0.013
-123.224	611.088	-0.049	0.123
-122.210	-120.140	0.193	-0.033
-121.195	800.000	0.049	0.139
