DTS Sentinel unit serial number:	SN413079Multiplexer serial number:	ORYXHardware model number:	OX4-SRSoftware version number:	ORYX F/W v4.00 Oryx Data Collector v3.7.2.0data status	okinstallation	princeton_trtdifferential loss correction	single-endedforward channel	channel 3reverse channel	N/Adate	2019/09/12time	18:56:04forward acquisition time	15.00reverse acquisition time	0.00gamma	496.2192k internal	0.2319k external	0.2319temperature offset calibration	1.0090default loss term (dB/km)	0.3790temperature slope calibration	1.0000multiplexer offset coefficient	1.0000multiplexer slope coefficient	1.0000fibre end	0.00T internal ref (°C)	32.81T ext. ref 1 (°C)	3.00T ext. ref 2 (°C)	27.36length (m)	temperature (°C)	Stokes	anti-Stokes-747.200	688.207	-0.135	0.359
-746.185	-17.409	0.158	0.101
-745.171	-155.635	0.507	0.033
-744.156	-93.863	-0.733	0.204
-743.142	800.000	-0.193	-0.682
-742.127	-200.000	0.127	-0.622
-741.112	-86.387	-0.606	0.188
-740.098	-25.112	-0.264	0.158
-739.083	60.509	0.486	0.487
-738.069	-141.278	0.591	0.061
-737.054	40.409	0.438	-0.399
-736.039	-2.530	0.414	0.293
-735.025	266.946	-0.343	0.606
-734.010	625.717	0.324	-0.826
-732.996	641.302	-0.124	0.320
-731.981	-200.000	-0.027	0.638
-730.966	94.716	-0.557	-0.641
-729.952	800.000	-0.073	0.226
-728.937	-92.046	-0.214	-0.061
-727.923	24.119	-0.190	-0.159
-726.908	145.870	-0.193	0.262
-725.894	5.627	0.835	-0.624
-724.879	800.000	-0.055	0.193
-723.864	800.000	0.374	-1.151
-722.850	-5.338	-0.596	-0.414
-721.835	-200.000	0.037	-0.327
-720.821	-56.530	0.390	-0.175
-719.806	-64.271	-0.049	-0.020
-718.791	-115.316	-0.104	0.020
-717.777	196.863	-0.294	0.453
-716.762	137.584	0.328	-0.434
-715.748	11.232	-0.282	-0.218
-714.733	-130.185	-1.216	-0.167
-713.718	-32.020	0.470	-0.266
-712.704	-43.892	0.675	0.343
-711.689	63.415	0.582	-0.590
-710.675	168.114	-0.223	0.320
-709.660	800.000	0.230	0.711
-708.645	-94.830	-1.251	-0.343
-707.631	285.241	0.191	-0.348
-706.616	-200.000	-0.132	0.615
-705.602	-11.817	-0.700	-0.464
-704.587	800.000	0.270	0.764
-703.572	-200.000	-0.135	0.757
-702.558	-28.447	-0.175	-0.102
-701.543	-4.172	0.539	-0.377
-700.529	131.545	0.280	-0.363
-699.514	-110.983	-0.369	0.076
-698.499	-82.990	0.654	0.213
-697.485	-104.253	-0.120	-0.028
-696.470	-92.032	-0.561	-0.160
-695.456	-127.632	1.428	-0.209
-694.441	-101.377	-1.123	-0.277
-693.426	-109.879	0.519	-0.110
-692.412	216.013	0.364	-0.583
-691.397	-30.642	0.070	0.040
-690.383	-200.000	-0.133	0.666
-689.368	82.164	-0.384	0.421
-688.354	-85.011	-0.522	-0.165
-687.339	-25.792	1.036	-0.617
-686.324	-139.695	0.601	-0.065
-685.310	-14.642	0.254	-0.165
-684.295	410.329	0.337	0.720
-683.281	-77.432	0.542	0.190
-682.266	-200.000	-0.068	0.421
-681.251	358.251	0.329	0.662
-680.237	800.000	-0.110	-0.419
-679.222	-64.232	-0.385	-0.158
-678.208	73.223	-0.189	-0.199
-677.193	-200.000	-0.048	-0.263
-676.178	549.224	-0.550	1.329
-675.164	-91.111	0.576	0.167
-674.149	133.437	0.377	0.491
-673.135	-73.228	0.258	0.095
-672.120	7.925	-0.407	0.308
-671.105	800.000	0.153	-0.621
-670.091	114.374	-0.487	-0.599
-669.076	800.000	0.043	-0.125
-668.062	-200.000	0.022	-0.264
-667.047	656.651	0.223	-0.579
-666.032	-123.011	-0.972	0.158
-665.018	800.000	0.102	-0.392
-664.003	-126.036	-0.531	-0.080
-662.989	113.973	0.264	-0.324
-661.974	30.489	-0.303	0.261
-660.959	10.894	-0.214	0.165
-659.945	-200.000	0.011	0.664
-658.930	603.310	0.054	0.134
-657.916	65.140	0.048	0.049
-656.901	-46.936	-0.071	0.035
-655.886	-200.000	0.007	1.337
-654.872	-127.448	0.567	0.083
-653.857	289.972	0.135	-0.247
-652.843	-64.795	-0.349	0.142
-651.828	-25.690	-0.252	-0.150
-650.814	-200.000	-0.003	-0.301
-649.799	-135.618	0.566	0.068
-648.784	70.870	0.137	0.143
-647.770	800.000	-0.100	-0.352
-646.755	-97.487	0.581	0.152
-645.741	59.208	-0.321	0.318
-644.726	122.992	0.368	-0.465
-643.711	178.709	-0.249	0.367
-642.697	15.090	0.370	-0.292
-641.682	134.583	0.179	-0.234
-640.668	49.345	0.452	-0.429
-639.653	-108.705	1.273	0.275
-638.638	157.321	-0.173	-0.241
-637.624	-90.487	0.320	0.093
-636.609	258.143	0.132	-0.230
-635.595	-200.000	-0.044	0.343
-634.580	-134.706	0.291	0.036
-633.565	37.595	-0.521	0.466
-632.551	-200.000	0.128	-0.827
-631.536	-88.835	0.400	-0.120
-630.522	800.000	0.241	-0.801
-629.507	169.495	-0.453	-0.652
-628.492	312.196	0.145	-0.274
-627.478	167.273	-0.449	0.642
-626.463	117.545	0.782	-0.969
-625.449	800.000	-0.158	0.622
-624.434	196.905	0.158	-0.242
-623.419	-63.731	-0.570	0.235
-622.405	-200.000	0.038	-0.460
-621.390	292.947	-0.155	0.284
-620.376	-82.337	0.353	-0.116
-619.361	503.143	0.373	0.867
-618.346	-97.110	-1.267	0.334
-617.332	267.799	-0.412	-0.726
-616.317	103.331	-0.617	0.729
-615.303	105.754	0.452	0.538
-614.288	-148.566	1.252	0.103
-613.273	165.040	0.192	0.272
-612.259	-200.000	-0.043	-0.515
-611.244	-130.264	-0.491	-0.067
-610.230	-164.946	0.463	-0.021
-609.215	800.000	-0.044	-0.167
-608.201	-71.123	1.092	0.413
-607.186	-59.008	0.842	0.366
-606.171	-62.820	-0.068	0.028
-605.157	168.134	-0.097	-0.139
-604.142	-67.919	-0.547	0.215
-603.128	85.398	0.276	0.304
-602.113	-4.416	-0.215	-0.149
-601.098	-129.960	0.331	-0.046
-600.084	206.204	0.136	-0.212
-599.069	-200.000	-0.009	-0.078
-598.055	473.526	-0.121	0.273
-597.040	411.284	-0.246	0.525
-596.025	160.179	0.348	0.488
-595.011	-200.000	-0.166	-1.045
-593.996	19.134	-0.350	0.282
-592.982	279.557	0.176	0.316
-591.967	-182.582	0.146	0.003
-590.952	202.557	0.070	-0.109
-589.938	-200.000	-0.042	-0.632
-588.923	241.517	0.170	0.285
-587.909	107.746	-0.222	-0.266
-586.894	-11.761	0.416	-0.275
-585.879	-34.104	-0.450	0.249
-584.865	-47.935	-0.330	-0.160
-583.850	100.846	-0.195	-0.227
-582.836	35.007	0.671	-0.591
-581.821	-120.493	0.155	-0.026
-580.806	-169.110	-0.452	0.017
-579.792	-134.847	-0.523	-0.064
-578.777	729.478	-0.092	-0.246
-577.763	98.250	0.387	0.448
-576.748	-200.000	0.098	0.542
-575.733	191.516	0.170	-0.257
-574.719	226.852	0.164	0.268
-573.704	-31.811	-0.554	0.312
-572.690	800.000	-0.091	0.293
-571.675	-86.488	-0.196	-0.060
-570.661	278.323	0.174	-0.312
-569.646	-131.504	0.502	-0.067
-568.631	-1.231	-0.090	-0.064
-567.617	558.173	-0.065	0.157
-566.602	-11.798	0.398	0.262
-565.588	700.777	-0.202	0.535
-564.573	147.435	0.112	-0.152
-563.558	800.000	0.040	0.150
-562.544	-15.422	0.222	0.143
-561.529	-33.642	0.114	0.063
-560.515	-112.550	-0.791	-0.159
-559.500	-80.711	0.132	-0.044
-558.485	-190.416	0.094	-0.001
-557.471	-37.040	-0.674	-0.363
-556.456	-200.000	-0.013	-0.937
-555.442	714.719	-0.261	0.695
-554.427	232.540	0.320	-0.527
-553.412	14.633	-0.333	-0.261
-552.398	-59.114	0.561	0.243
-551.383	18.103	-0.167	-0.134
-550.369	310.927	0.623	1.172
-549.354	143.243	0.362	-0.484
-548.339	311.231	-0.063	0.118
-547.325	750.224	-0.074	-0.201
-546.310	155.679	-0.160	0.221
-545.296	44.185	0.522	-0.481
-544.281	648.425	0.032	0.081
-543.266	-118.078	-0.118	0.021
-542.252	-64.331	-0.661	0.270
-541.237	-141.929	0.156	-0.016
-540.223	434.342	0.225	0.491
-539.208	251.309	-0.491	-0.838
-538.193	-167.095	-0.583	0.024
-537.179	-200.000	-0.099	0.574
-536.164	125.459	-0.550	-0.697
-535.150	-141.508	0.589	0.060
-534.135	253.315	-0.342	0.587
-533.121	-131.365	-0.672	0.089
-532.106	202.495	0.325	-0.504
-531.091	-105.949	-0.683	-0.154
-530.077	90.528	-0.199	0.224
-529.062	467.067	-0.359	-0.807
-528.048	119.198	0.491	-0.609
-527.033	800.000	0.147	0.505
-526.018	-200.000	0.001	0.070
-525.004	102.964	0.116	-0.136
-523.989	-20.268	0.874	-0.540
-522.975	-21.623	-0.484	-0.296
-521.960	-116.451	-0.608	-0.113
-520.945	564.694	0.508	1.234
-519.931	-81.854	-0.578	0.190
-518.916	-200.000	-0.071	0.973
-517.902	-65.346	-0.055	0.022
-516.887	139.895	-0.246	-0.324
-515.872	-200.000	-0.170	0.841
-514.858	94.451	-0.105	0.120
-513.843	800.000	0.097	-0.348
-512.829	731.708	-0.208	0.558
-511.814	-138.406	1.387	0.153
-510.799	-123.617	-0.240	0.038
-509.785	147.902	-0.274	0.370
-508.770	-56.958	-0.051	-0.023
-507.756	337.231	0.378	0.737
-506.741	-110.224	-0.163	0.034
-505.726	-147.853	-0.495	-0.041
-504.712	22.550	-0.401	-0.329
-503.697	94.723	0.578	-0.659
-502.683	-200.000	0.001	0.053
-501.668	665.185	-0.292	-0.755
-500.653	36.366	-0.024	-0.021
-499.639	10.864	-0.338	-0.259
-498.624	86.380	-0.517	-0.570
-497.610	-200.000	-0.021	-0.454
-496.595	-200.000	-0.021	-0.222
-495.581	-60.003	0.601	-0.257
-494.566	9.397	-0.662	-0.502
-493.551	-17.050	-0.575	0.363
-492.537	800.000	0.154	-0.497
-491.522	-97.958	0.438	-0.113
-490.508	800.000	-0.341	1.134
-489.493	9.937	0.155	0.118
-488.478	-200.000	0.045	-0.238
-487.464	22.396	-0.524	0.429
-486.449	120.269	0.472	-0.586
-485.435	-62.600	0.387	0.161
-484.420	800.000	0.296	1.118
-483.405	95.759	0.515	0.589
-482.391	630.813	0.150	0.379
-481.376	800.000	-0.238	0.687
-480.362	153.020	-0.328	0.450
-479.347	341.401	-0.177	0.345
-478.332	-159.383	-0.734	-0.041
-477.318	-200.000	-0.049	0.475
-476.303	34.808	-0.367	0.321
-475.289	173.432	0.203	0.293
-474.274	-122.549	1.257	-0.204
-473.259	351.383	0.074	-0.146
-472.245	45.933	0.166	-0.154
-471.230	194.669	-0.087	0.132
-470.216	19.261	-0.818	-0.657
-469.201	19.111	-0.084	0.068
-468.186	-126.881	-0.791	0.117
-467.172	69.208	-0.364	0.375
-466.157	2.551	0.294	-0.213
-465.143	-200.000	-0.252	1.263
-464.128	-54.272	-0.558	-0.253
-463.113	-122.226	-0.549	0.090
-462.099	-76.732	-0.038	0.013
-461.084	225.740	0.628	1.019
-460.070	619.953	-0.256	-0.643
-459.055	-200.000	0.035	-0.275
-458.040	-200.000	-0.143	-0.841
-457.026	86.696	0.200	-0.221
-456.011	-54.054	-0.174	-0.079
-454.997	-28.674	0.582	-0.335
-453.982	-106.778	0.611	-0.136
-452.968	-41.776	0.269	0.138
-451.953	215.477	0.265	0.420
-450.938	154.599	0.230	-0.316
-449.924	-1.795	0.449	-0.316
-448.909	-121.229	-0.894	0.149
-447.895	-56.701	-0.655	0.290
-446.880	-5.738	-0.659	-0.452
-445.865	-95.030	-0.371	-0.100
-444.851	67.646	0.058	0.059
-443.836	304.214	-0.069	0.128
-442.822	-171.212	-0.971	0.033
-441.807	205.216	-0.343	0.532
-440.792	130.693	0.430	0.551
-439.778	-55.605	-0.794	0.355
-438.763	329.720	0.336	0.645
-437.749	-200.000	-0.068	0.704
-436.734	209.805	0.237	-0.371
-435.719	800.000	-0.154	0.547
-434.705	-57.325	-0.505	-0.222
-433.690	59.295	-0.376	-0.371
-432.676	-119.118	-0.217	-0.038
-431.661	366.024	0.103	0.207
-430.646	-50.267	0.670	-0.316
-429.632	22.856	-0.243	-0.199
-428.617	-133.423	0.390	0.049
-427.603	-200.000	-0.117	-0.640
-426.588	383.754	-0.099	-0.203
-425.573	-200.000	0.502	-0.001
-424.559	277.521	-0.294	-0.523
-423.544	-31.955	0.604	-0.338
-422.530	800.000	-0.110	-0.389
-421.515	-200.000	-0.001	0.538
-420.500	-81.437	0.328	-0.108
-419.486	-54.249	0.275	0.125
-418.471	800.000	-0.150	0.615
-417.457	-7.339	0.274	0.185
-416.442	7.680	0.365	-0.273
-415.428	116.351	0.203	0.248
-414.413	280.242	-0.119	-0.212
-413.398	26.815	0.217	-0.181
-412.384	55.012	-0.127	0.123
-411.369	-200.000	0.033	-1.231
-410.355	-120.181	0.376	-0.064
-409.340	43.436	0.316	-0.289
-408.325	800.000	-0.153	0.661
-407.311	-81.117	0.430	-0.142
-406.296	-173.806	-0.570	0.017
-405.282	-26.161	0.504	-0.296
-404.267	179.697	-0.325	0.474
-403.252	75.156	-0.450	0.473
-402.238	-200.000	-0.004	0.604
-401.223	-103.868	-0.334	0.078
-400.209	-11.661	0.536	-0.351
-399.194	-200.000	-0.004	0.674
-398.179	-7.196	-0.357	0.241
-397.165	-98.109	-0.669	-0.172
-396.150	-34.419	-0.187	0.102
-395.136	800.000	0.158	0.654
-394.121	-200.000	0.074	0.546
-393.106	213.328	0.341	0.538
-392.092	-168.064	-0.504	-0.020
-391.077	-116.236	0.472	-0.087
-390.063	-200.000	0.008	-0.567
-389.048	17.236	0.513	0.406
-388.033	-4.994	0.354	0.243
-387.019	-200.000	-0.015	0.175
-386.004	-111.902	1.021	-0.206
-384.990	-66.752	-0.509	0.201
-383.975	-91.914	-0.731	-0.207
-382.960	748.960	-0.100	0.269
-381.946	-200.000	0.076	0.979
-380.931	13.475	0.301	-0.233
-379.917	-124.486	-0.355	0.055
-378.902	-17.590	-0.797	-0.500
-377.888	-93.442	-0.151	-0.042
-376.873	-138.040	0.504	0.056
-375.858	-184.983	0.211	0.003
-374.844	-93.780	-0.210	-0.058
-373.829	-95.158	-0.375	0.101
-372.815	-55.278	-0.433	-0.194
-371.800	112.819	-0.308	0.372
-370.785	-139.470	0.160	0.017
-369.771	-55.817	0.487	0.217
-368.756	-43.335	-0.227	-0.115
-367.742	-84.374	-0.674	0.212
-366.727	45.865	-0.382	0.352
-365.712	-17.141	-0.082	-0.052
-364.698	-123.412	0.291	-0.046
-363.683	41.362	0.577	0.520
-362.669	131.600	-0.286	0.367
-361.654	-11.718	0.714	0.467
-360.639	-87.002	-0.705	0.214
-359.625	-64.641	0.460	0.186
-358.610	800.000	-0.073	-0.275
-357.596	164.705	0.277	-0.389
-356.581	-122.937	-0.332	-0.053
-355.566	109.902	-0.325	0.389
-354.552	309.978	0.179	0.334
-353.537	800.000	0.119	0.360
-352.523	-171.465	-0.783	0.026
-351.508	-200.000	-0.008	0.309
-350.493	-146.517	-0.653	0.057
-349.479	-24.816	0.868	-0.513
-348.464	-85.929	0.183	-0.056
-347.450	-159.320	0.238	-0.013
-346.435	-22.965	0.207	0.124
-345.420	65.477	-0.398	-0.401
-344.406	393.387	-0.196	-0.407
-343.391	180.489	-0.355	-0.519
-342.377	148.619	0.488	-0.656
-341.362	-8.427	0.643	-0.431
-340.348	800.000	0.102	0.321
-339.333	-123.437	-1.024	0.162
-338.318	-200.000	-0.038	-0.271
-337.304	-136.564	-0.625	-0.072
-336.289	-65.235	-0.256	0.103
-335.275	44.472	0.215	0.197
-334.260	-175.689	0.486	0.013
-333.245	282.730	0.356	-0.635
-332.231	-58.611	0.045	-0.020
-331.216	800.000	-0.053	0.170
-330.202	800.000	-0.451	1.262
-329.187	612.666	-0.183	-0.455
-328.172	89.974	0.057	-0.064
-327.158	800.000	0.174	-0.591
-326.143	-103.834	0.782	0.182
-325.129	-200.000	-0.025	-0.652
-324.114	-200.000	-0.127	-0.975
-323.099	162.316	-0.836	-1.166
-322.085	-200.000	-0.026	0.190
-321.070	-41.429	0.390	-0.200
-320.056	-71.015	-0.472	0.177
-319.041	56.668	-0.477	0.462
-318.026	-200.000	-0.006	-0.047
-317.012	430.845	0.127	-0.273
-315.997	35.233	0.989	0.862
-314.983	139.667	-0.274	-0.359
-313.968	-139.081	0.348	0.037
-312.953	46.024	0.222	0.204
-311.939	27.566	0.781	0.654
-310.924	-90.944	-0.505	0.145
-309.910	405.640	0.258	0.542
-308.895	-177.468	-0.606	0.015
-307.880	-37.124	0.647	0.344
-306.866	351.346	0.075	-0.148
-305.851	-54.640	0.872	0.392
-304.837	-33.690	-0.369	-0.202
-303.822	-200.000	-0.089	0.389
-302.807	-111.750	-0.654	-0.132
-301.793	-25.925	0.227	0.133
-300.778	486.216	0.216	-0.489
-299.764	800.000	0.117	-0.434
-298.749	-200.000	-0.048	-0.724
-297.735	142.704	0.417	0.550
-296.720	-62.605	-0.404	0.167
-295.705	11.766	0.416	-0.318
-294.691	243.849	0.386	0.643
-293.676	71.357	-0.418	0.432
-292.662	800.000	-0.157	-0.636
-291.647	199.571	0.102	-0.155
-290.632	-21.457	0.373	-0.226
-289.618	619.575	0.476	1.188
-288.603	-67.267	-0.227	-0.089
-287.589	-200.000	-0.064	-0.621
-286.574	14.117	-0.824	-0.638
-285.559	-56.722	0.376	0.166
-284.545	190.241	0.330	-0.492
-283.530	-176.358	0.490	-0.013
-282.516	-93.852	-0.706	0.193
-281.501	-128.249	-0.601	0.085
-280.486	63.646	0.383	-0.382
-279.472	-20.082	0.789	0.483
-278.457	-125.064	0.451	-0.069
-277.443	56.902	-0.213	0.206
-276.428	-200.000	-0.057	-0.634
-275.413	504.757	0.013	0.030
-274.399	71.072	-0.055	0.056
-273.384	217.234	-0.108	-0.171
-272.370	73.162	-0.237	-0.246
-271.355	-200.000	0.191	-0.838
-270.340	59.842	0.728	-0.713
-269.326	52.185	0.459	0.435
-268.311	69.403	-0.235	0.240
-267.297	-46.781	-0.573	-0.279
-266.282	193.516	0.129	-0.193
-265.267	134.255	0.547	-0.704
-264.253	-52.502	-0.737	-0.338
-263.238	18.924	-0.264	0.210
-262.224	5.467	0.602	-0.441
-261.209	68.308	-0.295	-0.300
-260.195	270.994	-0.219	0.382
-259.180	137.063	0.402	-0.521
-258.165	-200.000	-0.010	-0.078
-257.151	-167.179	-0.117	0.005
-256.136	-55.224	0.216	-0.097
-255.122	492.754	-0.260	-0.591
-254.107	-200.000	-0.195	0.937
-253.092	-97.618	-0.523	0.135
-252.078	-22.404	-0.800	0.481
-251.063	-2.497	-0.304	-0.211
-250.049	387.331	-0.370	0.760
-249.034	141.074	-0.181	0.238
-248.019	800.000	0.116	0.433
-247.005	-200.000	0.021	-0.109
-245.990	-179.827	0.427	0.009
-244.976	-200.000	0.042	-0.605
-243.961	-185.996	0.926	0.014
-242.946	698.203	-0.042	-0.111
-241.932	72.206	0.409	-0.422
-240.917	-200.000	0.002	-0.296
-239.903	533.825	0.077	0.182
-238.888	52.050	0.726	0.686
-237.873	-200.000	0.343	-0.001
-236.859	-35.723	0.398	-0.214
-235.844	439.716	-0.173	-0.375
-234.830	800.000	0.165	-0.451
-233.815	62.962	-0.400	-0.397
-232.800	760.850	0.014	0.036
-231.786	-124.181	1.126	0.175
-230.771	-31.237	0.558	-0.312
-229.757	6.584	0.369	0.272
-228.742	-117.722	-0.649	-0.116
-227.727	-121.982	-0.636	-0.104
-226.713	-167.996	-0.559	-0.022
-225.698	-79.815	-0.653	-0.218
-224.684	79.679	0.552	-0.587
-223.669	430.419	0.225	0.483
-222.655	452.407	0.084	-0.185
-221.640	800.000	0.090	-0.378
-220.625	171.596	-0.504	-0.718
-219.611	-139.123	-0.158	0.017
-218.596	-19.398	1.250	0.768
-217.582	-200.000	0.087	-0.713
-216.567	256.456	0.372	-0.633
-215.552	234.313	0.198	-0.323
-214.538	800.000	-0.118	0.504
-213.523	486.437	-0.289	-0.653
-212.509	95.794	0.530	-0.599
-211.494	-200.000	0.022	-0.252
-210.479	-200.000	-0.129	0.656
-209.465	107.661	-0.393	0.463
-208.450	-2.012	-0.207	0.144
-207.436	-19.004	-0.202	-0.124
-206.421	-2.495	-0.576	-0.400
-205.406	51.041	0.309	-0.290
-204.392	-93.013	0.071	0.019
-203.377	253.198	0.234	-0.396
-202.363	760.753	-0.277	-0.745
-201.348	114.689	-0.305	0.368
-200.333	-56.949	-0.795	-0.347
-199.319	55.151	0.537	-0.514
-198.304	20.260	-0.180	-0.144
-197.290	117.408	-0.596	-0.726
-196.275	53.757	-0.849	0.808
-195.260	-71.333	0.796	-0.295
-194.246	595.601	-0.160	0.392
-193.231	-106.864	0.321	0.070
-192.217	-92.466	0.804	-0.224
-191.202	68.118	0.833	-0.844
-190.187	90.664	-0.403	-0.447
-189.173	181.227	-0.712	-1.036
-188.158	63.727	-0.231	-0.230
-187.144	-52.227	0.152	-0.070
-186.129	127.298	0.301	0.378
-185.114	92.516	-0.349	-0.389
-184.100	-200.000	0.020	0.354
-183.085	772.720	0.036	-0.098
-182.071	74.671	-0.063	0.066
-181.056	150.371	-0.544	0.731
-180.042	-200.000	0.076	0.355
-179.027	276.924	0.239	0.421
-178.012	55.184	-0.386	-0.369
-176.998	-131.917	-0.518	-0.067
-175.983	-55.310	0.395	0.176
-174.969	137.254	0.111	-0.144
-173.954	-200.000	-0.013	0.340
-172.939	-23.155	-0.612	-0.365
-171.925	-200.000	0.063	-0.304
-170.910	13.296	-0.131	0.100
-169.896	-200.000	-0.130	0.700
-168.881	800.000	0.034	-0.137
-167.866	-89.730	-0.278	0.081
-166.852	800.000	0.137	0.420
-165.837	-73.768	-0.624	-0.224
-164.823	800.000	0.124	-0.457
-163.808	19.515	0.342	0.272
-162.793	170.580	-0.257	0.363
-161.779	-137.935	-0.510	0.056
-160.764	-200.000	0.058	-0.358
-159.750	800.000	-0.120	0.364
-158.735	137.177	0.343	0.444
-157.720	-177.657	0.284	0.007
-156.706	-200.000	-0.136	0.607
-155.691	2.966	0.347	-0.249
-154.677	158.908	0.275	0.378
-153.662	-81.124	0.114	-0.037
-152.647	770.645	0.254	0.684
-151.633	-200.000	0.213	0.937
-150.618	-24.864	-1.133	0.665
-149.604	-200.000	0.078	-0.561
-148.589	585.914	-0.208	-0.504
-147.574	591.481	0.317	0.774
-146.560	151.082	-0.681	0.915
-145.545	-40.111	-0.756	0.389
-144.531	800.000	-0.137	0.488
-143.516	-92.135	0.404	0.113
-142.502	115.479	0.231	-0.279
-141.487	-65.352	-0.380	0.151
-140.472	-18.977	-0.910	-0.559
-139.458	767.774	-0.117	0.314
-138.443	-121.080	0.177	-0.029
-137.429	-200.000	-0.081	-0.512
-136.414	-104.389	0.270	-0.062
-135.399	-200.000	-0.053	-0.274
-134.385	800.000	0.170	0.556
-133.370	-133.176	0.200	0.025
-132.356	-125.537	-0.848	0.127
-131.341	-13.361	-0.535	-0.343
-130.326	4.904	-0.500	-0.363
-129.312	800.000	-0.320	1.233
-128.297	-200.000	-0.133	0.754
-127.283	800.000	-0.160	-0.518
-126.268	37.462	-0.892	0.781
-125.253	-200.000	-0.009	-0.440
-124.239	-200.000	0.030	0.214
-123.224	800.000	0.161	-0.441
-122.210	-88.288	0.410	0.121
-121.195	107.331	0.457	-0.536
