DTS Sentinel unit serial number:	SN413079Multiplexer serial number:	ORYXHardware model number:	OX4-SRSoftware version number:	ORYX F/W v4.00 Oryx Data Collector v3.7.2.0data status	okinstallation	princeton_trtdifferential loss correction	single-endedforward channel	channel 3reverse channel	N/Adate	2019/09/12time	18:16:03forward acquisition time	15.00reverse acquisition time	0.00gamma	496.2192k internal	0.2317k external	0.2317temperature offset calibration	1.0093default loss term (dB/km)	0.3790temperature slope calibration	1.0000multiplexer offset coefficient	1.0000multiplexer slope coefficient	1.0000fibre end	0.00T internal ref (°C)	33.50T ext. ref 1 (°C)	2.91T ext. ref 2 (°C)	28.08length (m)	temperature (°C)	Stokes	anti-Stokes-747.200	20.546	-0.228	0.186
-746.185	-9.662	0.716	-0.483
-745.171	-14.692	-0.346	-0.225
-744.156	800.000	0.272	1.132
-743.142	-200.000	-0.142	-0.921
-742.127	-200.000	0.085	0.696
-741.112	-80.408	-0.381	-0.129
-740.098	800.000	0.119	-0.465
-739.083	-150.910	1.160	-0.089
-738.069	159.916	0.303	-0.427
-737.054	621.731	-0.272	-0.693
-736.039	-7.756	0.332	-0.227
-735.025	-200.000	-0.012	0.185
-734.010	800.000	-0.299	-0.901
-732.996	165.650	-0.293	0.419
-731.981	591.843	-0.144	-0.360
-730.966	15.486	-0.338	-0.269
-729.952	43.271	-0.831	-0.768
-728.937	-107.629	-0.484	0.107
-727.923	-157.326	-0.762	-0.047
-726.908	-24.917	-0.075	-0.045
-725.894	-33.361	0.564	-0.316
-724.879	175.040	-0.224	-0.329
-723.864	100.263	-0.478	-0.561
-722.850	95.426	-0.504	-0.582
-721.835	-146.645	-0.728	0.064
-720.821	-200.000	-0.061	-0.589
-719.806	26.705	0.444	-0.376
-718.791	20.728	0.156	0.128
-717.777	189.000	-0.260	0.395
-716.762	787.169	-0.111	-0.308
-715.748	-70.791	1.010	0.385
-714.733	-135.028	-0.644	-0.079
-713.718	113.091	-0.312	0.383
-712.704	58.039	0.194	0.192
-711.689	-200.000	-0.012	-0.149
-710.675	-93.036	0.143	0.040
-709.660	-54.936	0.142	0.065
-708.645	800.000	-0.290	0.822
-707.631	-88.783	0.188	-0.057
-706.616	-200.000	-0.091	-0.875
-705.602	-92.067	0.356	-0.102
-704.587	78.888	-0.352	-0.381
-703.572	800.000	-0.080	-0.332
-702.558	800.000	-0.121	0.424
-701.543	160.775	0.385	-0.544
-700.529	-200.000	-0.042	-0.451
-699.514	-121.253	-0.886	0.150
-698.499	-200.000	0.082	0.535
-697.485	-200.000	0.040	-0.501
-696.470	28.275	-0.441	0.377
-695.456	-48.598	-0.300	0.146
-694.441	-96.525	0.123	-0.033
-693.426	-62.667	0.504	-0.211
-692.412	-200.000	0.017	-0.546
-691.397	595.403	0.120	-0.301
-690.383	-74.130	-0.675	0.247
-689.368	4.633	0.210	0.156
-688.354	172.605	-0.341	0.496
-687.339	-100.518	0.096	0.024
-686.324	-200.000	0.129	0.718
-685.310	-119.368	-0.469	0.082
-684.295	347.610	-0.245	-0.488
-683.281	407.865	-0.171	-0.365
-682.266	35.589	0.495	-0.440
-681.251	201.646	0.158	0.245
-680.237	800.000	0.043	0.184
-679.222	23.034	0.848	-0.703
-678.208	-77.346	-0.463	-0.163
-677.193	279.520	0.425	-0.766
-676.178	-7.049	-0.274	0.188
-675.164	-70.926	-0.574	0.218
-674.149	-15.585	-0.409	-0.264
-673.135	-184.116	-0.320	-0.005
-672.120	-159.712	-1.128	-0.063
-671.105	150.223	0.143	-0.196
-670.091	-52.567	-0.164	0.076
-669.076	-30.214	-0.855	0.491
-668.062	-4.563	0.313	-0.218
-667.047	-200.000	-0.690	-0.000
-666.032	121.643	-0.516	0.650
-665.018	-50.236	0.914	0.436
-664.003	-200.000	0.004	1.563
-662.989	-2.257	0.046	-0.033
-661.974	-200.000	0.024	-0.705
-660.959	800.000	-0.147	0.543
-659.945	90.242	0.178	0.200
-658.930	800.000	-0.221	-0.651
-657.916	85.454	-0.387	-0.429
-656.901	-106.458	-0.744	0.168
-655.886	434.937	-0.014	-0.031
-654.872	602.580	0.267	-0.670
-653.857	-200.000	0.033	0.725
-652.843	800.000	-0.121	-0.441
-651.828	-200.000	-0.082	-0.863
-650.814	-200.000	0.321	-1.597
-649.799	800.000	0.109	-0.336
-648.784	-18.107	0.190	0.120
-647.770	-14.471	-0.394	-0.256
-646.755	-60.361	0.355	-0.153
-645.741	-200.000	-0.082	-0.412
-644.726	800.000	-0.239	0.800
-643.711	-74.893	0.674	0.244
-642.697	800.000	0.091	-0.393
-641.682	-146.216	-0.501	0.044
-640.668	-143.596	-0.477	0.046
-639.653	-200.000	-0.125	-0.642
-638.638	42.249	0.454	-0.416
-637.624	-149.266	0.726	-0.058
-636.609	175.070	0.192	-0.280
-635.595	-97.253	0.501	0.132
-634.580	-22.083	-0.325	-0.199
-633.565	-17.001	-0.372	-0.237
-632.551	-150.211	-0.309	-0.024
-631.536	-10.200	-0.227	-0.152
-630.522	-200.000	-0.001	0.061
-629.507	-28.874	0.453	-0.262
-628.492	-123.778	0.691	0.110
-627.478	-41.743	-0.267	-0.138
-626.463	174.641	-0.242	-0.353
-625.449	-200.000	-0.003	-0.069
-624.434	-67.316	-0.317	0.126
-623.419	-82.276	0.804	-0.264
-622.405	109.938	-0.242	-0.292
-621.390	40.971	0.223	-0.203
-620.376	-181.010	0.135	0.003
-619.361	601.599	-0.056	-0.140
-618.346	386.436	0.468	-0.975
-617.332	14.746	0.361	0.284
-616.317	-200.000	0.053	0.859
-615.303	-86.737	0.373	-0.115
-614.288	-200.000	0.044	-0.577
-613.273	-98.774	0.410	-0.105
-612.259	-170.138	0.560	0.020
-611.244	132.297	0.297	0.386
-610.230	-200.000	-0.021	0.134
-609.215	224.186	-0.256	0.417
-608.201	-106.221	-0.427	0.096
-607.186	-168.662	0.721	-0.028
-606.171	63.496	-0.425	0.429
-605.157	-131.736	-0.464	-0.061
-604.142	-89.313	-0.296	-0.088
-603.128	-200.000	0.028	0.695
-602.113	-160.991	0.530	0.028
-601.098	4.099	-0.640	-0.472
-600.084	260.569	-0.243	0.423
-599.069	621.444	0.183	-0.464
-598.055	-152.591	-0.962	0.069
-597.040	-45.305	-0.331	0.166
-596.025	800.000	-0.159	0.576
-595.011	-0.099	0.126	0.090
-593.996	-24.636	0.497	-0.298
-592.982	60.591	0.343	0.342
-591.967	800.000	0.267	-0.794
-590.952	-200.000	0.068	-0.815
-589.938	-63.562	0.700	-0.289
-588.923	-64.549	-0.673	-0.275
-587.909	425.654	0.205	-0.444
-586.894	24.167	0.567	0.471
-585.879	-200.000	0.149	1.350
-584.865	93.904	-0.221	-0.252
-583.850	-40.045	0.659	-0.346
-582.836	-111.396	-0.648	-0.133
-581.821	-0.911	0.324	-0.231
-580.806	113.643	0.138	0.169
-579.792	-200.000	-0.014	0.239
-578.777	-37.472	0.336	-0.180
-577.763	-99.759	-0.426	-0.107
-576.748	-200.000	0.093	0.647
-575.733	9.635	0.388	0.296
-574.719	286.139	-0.422	-0.765
-573.704	-78.136	-0.715	0.247
-572.690	800.000	-0.014	-0.041
-571.675	-200.000	0.004	0.152
-570.661	-73.801	0.341	0.125
-569.646	-200.000	-0.078	0.829
-568.631	800.000	-0.081	-0.236
-567.617	-121.385	-0.616	0.103
-566.602	181.185	-0.413	0.611
-565.588	36.167	0.321	-0.284
-564.573	255.678	0.125	-0.215
-563.558	-69.835	0.112	-0.043
-562.544	109.865	0.203	-0.244
-561.529	-125.042	0.345	-0.053
-560.515	29.229	-0.174	-0.149
-559.500	-155.606	1.106	-0.071
-558.485	-19.234	0.705	-0.440
-557.471	235.686	0.331	-0.549
-556.456	800.000	-0.121	0.458
-555.442	-172.644	-0.217	0.007
-554.427	-61.683	0.102	0.043
-553.412	-200.000	0.045	-0.421
-552.398	-64.072	-0.585	0.240
-551.383	-80.019	0.284	0.096
-550.369	12.031	0.246	-0.190
-549.354	-177.886	-0.635	-0.015
-548.339	-200.000	-0.024	0.222
-547.325	-43.117	-1.095	0.558
-546.310	-93.221	-0.476	0.133
-545.296	178.394	-0.327	-0.480
-544.281	4.252	0.254	0.187
-543.266	-31.083	0.303	0.172
-542.252	149.749	0.202	0.276
-541.237	-28.738	0.674	-0.390
-540.223	-62.965	-0.701	0.291
-539.208	505.504	-0.116	0.271
-538.193	248.182	0.083	0.141
-537.179	-148.158	-0.503	-0.042
-536.164	800.000	-0.202	0.590
-535.150	800.000	-0.161	-0.690
-534.135	216.005	0.115	-0.184
-533.121	-73.983	0.676	0.246
-532.106	-36.005	-0.696	0.378
-531.091	68.580	0.511	-0.526
-530.077	10.245	-0.347	0.265
-529.062	-71.556	-0.269	0.101
-528.048	-200.000	0.041	-0.356
-527.033	-110.256	0.237	0.050
-526.018	-107.942	0.255	-0.056
-525.004	-12.484	-0.531	-0.348
-523.989	-200.000	-0.011	0.129
-522.975	7.085	-0.298	-0.223
-521.960	-111.075	-1.043	0.215
-520.945	-59.686	-0.481	0.207
-519.931	-32.027	-0.305	-0.171
-518.916	83.165	-0.243	-0.266
-517.902	-200.000	0.043	-0.466
-516.887	183.451	-0.124	0.185
-515.872	-78.362	-0.598	0.206
-514.858	238.632	0.260	0.433
-513.843	-86.344	-0.485	0.150
-512.829	336.415	-0.555	-1.082
-511.814	-7.997	0.432	-0.292
-510.799	-90.164	0.108	0.031
-509.785	-137.007	0.461	-0.053
-508.770	-25.879	0.063	-0.037
-507.756	-114.650	-0.142	0.027
-506.741	-188.913	0.454	0.006
-505.726	193.911	-0.327	-0.497
-504.712	-105.279	0.428	-0.098
-503.697	120.547	0.091	0.113
-502.683	-96.442	0.108	-0.029
-501.668	64.670	-0.302	-0.305
-500.653	-114.997	0.428	-0.082
-499.639	515.094	0.274	0.643
-498.624	-85.603	-0.265	0.083
-497.610	127.322	0.223	-0.283
-496.595	-200.000	0.016	0.627
-495.581	16.154	-0.286	0.226
-494.566	-200.000	-0.012	-0.478
-493.551	-24.206	-0.589	-0.352
-492.537	53.730	0.404	0.389
-491.522	177.166	0.421	-0.615
-490.508	-0.934	0.664	-0.471
-489.493	-200.000	0.070	0.334
-488.478	-74.331	-0.414	-0.150
-487.464	368.275	0.292	0.593
-486.449	186.415	-0.273	0.407
-485.435	261.173	0.308	-0.534
-484.420	-66.152	-0.119	-0.048
-483.405	-38.404	0.312	0.166
-482.391	59.357	-0.271	0.267
-481.376	202.473	0.379	0.587
-480.362	568.117	0.477	-1.161
-479.347	-117.506	0.625	0.113
-478.332	498.247	-0.208	-0.479
-477.318	40.190	0.345	-0.311
-476.303	-81.226	-0.573	-0.190
-475.289	-200.000	0.081	0.503
-474.274	-148.768	-0.478	0.039
-473.259	-200.000	-0.179	-1.461
-472.245	-17.752	0.499	-0.314
-471.230	-200.000	0.102	-1.089
-470.216	800.000	0.129	0.363
-469.201	-27.890	0.251	-0.146
-468.186	421.611	0.220	0.472
-467.172	-12.029	-0.328	-0.215
-466.157	-103.994	-0.314	-0.073
-465.143	-89.574	-0.960	0.282
-464.128	-81.275	-0.605	0.200
-463.113	147.689	-0.204	-0.275
-462.099	563.343	0.113	-0.275
-461.084	-41.749	-0.065	0.034
-460.070	167.280	-0.087	0.124
-459.055	698.868	-0.247	-0.650
-458.040	-102.757	0.726	-0.173
-457.026	800.000	-0.060	0.242
-456.011	-156.579	0.439	-0.027
-454.997	-24.135	0.330	-0.197
-453.982	-6.008	0.555	0.380
-452.968	-200.000	-0.016	0.901
-451.953	-200.000	0.070	0.675
-450.938	-200.000	-0.062	-0.791
-449.924	642.397	0.277	0.706
-448.909	-18.052	0.427	-0.268
-447.895	-200.000	0.018	0.210
-446.880	-17.057	-0.383	0.242
-445.865	760.272	0.192	0.522
-444.851	44.916	-0.673	-0.620
-443.836	-48.075	0.313	-0.151
-442.822	-75.985	-0.808	-0.286
-441.807	-14.878	0.311	0.200
-440.792	-9.316	-0.415	0.277
-439.778	230.742	-0.488	-0.800
-438.763	800.000	-0.173	-0.509
-437.749	-200.000	-0.023	0.172
-436.734	-73.957	-0.819	0.297
-435.719	-200.000	-0.069	-0.340
-434.705	-200.000	0.076	0.541
-433.690	119.816	-0.106	-0.131
-432.676	-86.676	0.403	0.123
-431.661	54.203	-0.430	0.414
-430.646	-15.707	0.531	-0.338
-429.632	-85.108	-0.520	0.163
-428.617	32.364	0.902	0.779
-427.603	-100.330	0.215	-0.053
-426.588	-98.009	-0.135	-0.035
-425.573	-54.724	0.393	-0.178
-424.559	37.784	0.302	-0.268
-423.544	-67.787	-0.275	-0.108
-422.530	-112.624	0.521	0.104
-421.515	-200.000	-0.009	-0.693
-420.500	420.240	0.121	-0.259
-419.486	800.000	0.078	-0.272
-418.471	254.501	-0.279	-0.477
-417.457	-22.486	-0.294	0.178
-416.442	520.319	0.181	0.423
-415.428	-32.770	-0.658	0.366
-414.413	-22.234	1.051	0.637
-413.398	275.077	-0.258	0.457
-412.384	-36.328	0.702	-0.378
-411.369	-34.397	0.118	0.064
-410.355	-72.407	0.457	0.169
-409.340	800.000	0.180	0.775
-408.325	141.153	-0.561	-0.742
-407.311	245.415	-0.157	0.264
-406.296	403.154	0.162	-0.341
-405.282	-200.000	-0.147	0.903
-404.267	-65.218	-0.530	0.213
-403.252	-108.721	-0.252	-0.054
-402.238	64.855	-0.438	-0.442
-401.223	-200.000	-0.000	-0.159
-400.209	174.425	-0.166	0.239
-399.194	280.968	-0.117	0.209
-398.179	-41.929	0.307	-0.157
-397.165	621.767	-0.263	0.662
-396.150	3.897	0.395	0.288
-395.136	34.455	0.472	-0.412
-394.121	78.506	-0.616	-0.657
-393.106	-200.000	0.026	-0.603
-392.092	122.722	0.522	-0.652
-391.077	-44.188	0.596	-0.298
-390.063	141.055	0.234	-0.309
-389.048	245.408	-0.028	-0.046
-388.033	-28.660	-1.134	0.652
-387.019	-25.379	0.588	0.347
-386.004	-6.625	0.422	0.287
-384.990	67.618	-0.170	0.174
-383.975	47.353	0.392	-0.365
-382.960	341.091	-0.481	-0.938
-381.946	-200.000	0.010	-0.072
-380.931	-147.230	0.513	0.044
-379.917	-38.562	0.788	0.416
-378.902	-61.492	-0.489	0.205
-377.888	68.119	-0.281	0.287
-376.873	147.900	0.282	0.380
-375.858	54.107	0.258	0.248
-374.844	270.870	-0.470	0.826
-373.829	-117.764	0.523	0.094
-372.815	-124.530	1.092	-0.169
-371.800	41.711	-0.456	0.412
-370.785	-138.574	0.711	0.078
-369.771	-87.417	-0.371	0.112
-368.756	-45.911	0.533	0.263
-367.742	-200.000	0.033	-0.157
-366.727	-119.316	0.316	-0.055
-365.712	106.537	-0.118	-0.140
-364.698	-200.000	-0.170	1.095
-363.683	387.356	-0.111	0.229
-362.669	36.711	-0.513	-0.452
-361.654	519.343	-0.246	0.575
-360.639	49.920	-0.336	-0.316
-359.625	-18.792	-0.236	-0.146
-358.610	-200.000	0.026	-0.509
-357.596	220.924	0.162	-0.260
-356.581	-133.128	-0.350	0.044
-355.566	-124.699	-0.443	-0.068
-354.552	-200.000	0.096	-0.752
-353.537	-200.000	0.008	-0.369
-352.523	-22.057	-0.207	0.125
-351.508	-114.169	-0.880	0.170
-350.493	-120.541	0.333	-0.056
-349.479	72.784	0.620	-0.646
-348.464	-200.000	0.037	0.252
-347.450	800.000	0.090	0.277
-346.435	-86.544	0.138	-0.042
-345.420	800.000	0.229	0.654
-344.406	94.640	-0.186	-0.210
-343.391	218.173	-0.261	0.416
-342.377	46.857	0.742	-0.687
-341.362	-49.733	-0.340	0.161
-340.348	-182.949	-1.047	0.019
-339.333	24.781	0.910	-0.752
-338.318	-156.717	-0.784	0.048
-337.304	-178.280	0.702	0.016
-336.289	-53.647	0.610	0.278
-335.275	-200.000	-0.136	-1.101
-334.260	-157.433	-0.444	-0.027
-333.245	-200.000	-0.019	-0.125
-332.231	-62.778	-1.027	0.424
-331.216	-83.419	0.746	0.238
-330.202	-51.911	-0.233	-0.108
-329.187	467.201	-0.180	0.402
-328.172	800.000	-0.143	0.406
-327.158	206.397	0.508	-0.787
-326.143	173.372	-0.327	0.470
-325.129	-87.996	-0.783	0.234
-324.114	-159.580	-0.319	-0.018
-323.099	42.538	-0.309	-0.280
-322.085	-113.699	-0.644	-0.125
-321.070	-51.715	-0.097	0.045
-320.056	-15.660	-0.311	-0.197
-319.041	-200.000	0.146	-1.019
-318.026	245.236	-0.448	-0.751
-317.012	86.044	0.474	0.520
-315.997	800.000	0.069	-0.218
-314.983	15.250	-0.239	0.187
-313.968	-80.966	-0.287	0.095
-312.953	-17.744	0.145	-0.091
-311.939	45.474	-0.067	0.061
-310.924	-168.025	0.155	0.006
-309.910	-94.832	-0.527	0.142
-308.895	-48.609	-0.728	-0.348
-307.880	800.000	-0.268	0.805
-306.866	16.850	0.230	0.181
-305.851	-98.017	-0.634	-0.163
-304.837	-125.514	-0.702	0.106
-303.822	66.243	0.640	-0.647
-302.807	-1.086	0.647	0.455
-301.793	-122.907	-0.428	-0.069
-300.778	405.626	-0.028	0.059
-299.764	13.137	-0.607	0.468
-298.749	800.000	0.059	0.174
-297.735	10.137	0.407	-0.308
-296.720	800.000	-0.330	-0.929
-295.705	-2.260	0.301	0.210
-294.691	-72.824	-1.061	0.388
-293.676	177.029	0.086	-0.125
-292.662	-28.795	-0.274	-0.157
-291.647	47.291	-0.693	0.642
-290.632	45.286	-0.343	-0.315
-289.618	-104.162	0.401	0.093
-288.603	-43.429	-0.285	-0.143
-287.589	-55.382	-0.585	0.261
-286.574	720.924	0.058	0.154
-285.559	162.095	-0.407	-0.567
-284.545	219.949	0.113	-0.180
-283.530	-147.061	-0.368	-0.031
-282.516	81.868	-0.812	-0.874
-281.501	-41.830	-0.412	0.210
-280.486	-126.755	0.664	-0.098
-279.472	-200.000	-0.011	-0.168
-278.457	-200.000	0.146	-0.809
-277.443	-121.403	0.070	0.012
-276.428	-89.492	-0.507	-0.148
-275.413	18.235	-0.401	-0.318
-274.399	-48.354	-0.180	-0.086
-273.384	-156.997	-0.562	0.034
-272.370	-53.634	-0.183	0.083
-271.355	-80.580	-0.368	0.122
-270.340	-163.149	-0.276	-0.013
-269.326	162.671	0.493	-0.688
-268.311	434.523	-0.528	1.142
-267.297	151.864	0.207	0.280
-266.282	-76.629	0.253	-0.088
-265.267	12.660	-0.362	0.278
-264.253	193.796	0.624	0.939
-263.238	800.000	0.280	0.800
-262.224	-22.784	0.172	0.103
-261.209	580.281	-0.220	-0.535
-260.195	-32.334	-0.203	-0.113
-259.180	800.000	0.104	0.316
-258.165	-51.396	-0.523	0.243
-257.151	-35.976	-0.651	-0.350
-256.136	7.989	-0.347	-0.259
-255.122	333.785	-0.233	0.448
-254.107	800.000	0.234	-0.933
-253.092	515.799	0.072	0.168
-252.078	341.279	-0.460	0.894
-251.063	-200.000	-0.058	-0.478
-250.049	287.692	-0.420	0.755
-249.034	-75.533	0.900	-0.318
-248.019	-95.443	-0.927	0.247
-247.005	-164.579	-0.231	0.010
-245.990	579.939	-0.263	0.639
-244.976	-200.000	0.003	-0.253
-243.961	170.700	0.249	-0.354
-242.946	-200.000	-0.104	-1.191
-241.932	-127.957	0.847	0.121
-240.917	23.506	0.416	0.340
-239.903	519.861	-0.216	0.502
-238.888	-58.850	-0.665	0.285
-237.873	-48.538	-0.282	0.134
-236.859	6.101	-0.545	-0.401
-235.844	-186.551	0.455	-0.006
-234.830	-87.145	0.411	-0.124
-233.815	-159.563	0.540	0.030
-232.800	-143.745	0.765	0.072
-231.786	67.604	0.250	-0.253
-230.771	-93.341	-0.941	-0.259
-229.757	-85.565	0.438	0.135
-228.742	-3.189	-0.712	-0.492
-227.727	-144.312	-0.389	-0.036
-226.713	800.000	-0.295	1.130
-225.698	-141.054	-0.710	-0.072
-224.684	74.586	0.630	-0.658
-223.669	3.833	0.124	-0.090
-222.655	-200.000	0.133	0.907
-221.640	245.182	0.212	-0.354
-220.625	307.818	0.086	-0.160
-219.611	117.424	-0.228	-0.278
-218.596	800.000	-0.307	-1.275
-217.582	-200.000	0.099	0.532
-216.567	382.395	0.155	0.316
-215.552	-140.611	0.668	0.069
-214.538	-55.840	-0.162	-0.072
-213.523	-200.000	0.072	0.607
-212.509	65.885	0.156	0.157
-211.494	14.361	0.301	-0.233
-210.479	-200.000	0.187	-1.106
-209.465	33.183	0.490	0.422
-208.450	362.206	0.122	-0.243
-207.436	-200.000	0.015	0.877
-206.421	-89.830	-0.108	0.031
-205.406	-97.869	0.678	0.174
-204.392	220.262	0.213	0.338
-203.377	-122.905	-0.573	0.092
-202.363	-200.000	0.030	0.638
-201.348	-200.000	0.078	0.391
-200.333	-105.470	0.798	-0.180
-199.319	-40.072	0.573	-0.296
-198.304	-162.403	-0.927	0.046
-197.290	-200.000	0.040	0.305
-196.275	-163.878	1.100	0.051
-195.260	-200.000	0.017	-0.103
-194.246	-200.000	0.009	-0.936
-193.231	76.626	0.292	-0.307
-192.217	39.269	-0.371	-0.329
-191.202	242.501	0.066	-0.109
-190.187	-98.710	0.453	0.114
-189.173	207.371	-0.488	0.755
-188.158	376.281	0.413	0.836
-187.144	-29.128	-0.198	0.112
-186.129	-200.000	-0.083	-0.741
-185.114	210.407	0.303	-0.471
-184.100	-200.000	-0.061	-0.697
-183.085	-200.000	0.040	0.424
-182.071	-200.000	0.077	1.001
-181.056	426.630	-0.302	0.644
-180.042	800.000	0.103	0.405
-179.027	648.949	0.284	0.719
-178.012	-96.435	0.729	0.191
-176.998	-200.000	-0.082	-0.713
-175.983	-143.417	0.351	0.033
-174.969	105.131	-0.242	0.282
-173.954	-46.275	0.618	0.301
-172.939	129.252	0.531	-0.671
-171.925	257.311	0.240	-0.409
-170.910	-8.682	0.944	0.627
-169.896	98.930	0.438	-0.501
-168.881	432.397	-0.078	0.167
-167.866	331.215	0.367	-0.700
-166.852	101.330	0.149	-0.172
-165.837	-20.033	0.574	0.351
-164.823	177.849	-0.221	0.319
-163.808	-200.000	0.923	-0.002
-162.793	22.365	0.186	-0.150
-161.779	-200.000	-0.055	0.473
-160.764	795.854	-0.019	-0.053
-159.750	253.864	0.251	0.424
-158.735	354.402	-0.480	0.945
-157.720	735.263	0.108	0.287
-156.706	-103.400	-0.356	0.083
-155.691	586.782	0.254	0.618
-154.677	-200.000	0.079	0.761
-153.662	-200.000	-0.138	1.111
-152.647	-31.877	0.523	-0.290
-151.633	-94.520	0.342	0.092
-150.618	-149.180	-0.452	-0.036
-149.604	25.748	0.451	-0.372
-148.589	28.247	-0.585	-0.489
-147.574	800.000	-0.178	0.535
-146.560	158.006	-0.310	0.425
-145.545	31.931	0.189	-0.161
-144.531	-25.432	0.521	0.305
-143.516	80.506	-0.506	0.539
-142.502	-35.837	0.206	-0.110
-141.487	-26.252	0.163	-0.094
-140.472	-200.000	0.064	-0.700
-139.458	173.538	-0.266	0.380
-138.443	10.723	0.454	0.343
-137.429	-7.396	0.690	-0.462
-136.414	-200.000	0.004	0.188
-135.399	800.000	-0.115	0.323
-134.385	-103.608	-0.304	0.071
-133.370	460.921	-0.177	0.391
-132.356	-136.051	-0.818	0.095
-131.341	158.818	-0.256	-0.351
-130.326	-200.000	-0.058	-0.503
-129.312	800.000	0.043	-0.119
-128.297	-200.000	-0.045	-0.422
-127.283	-200.000	-0.171	0.811
-126.268	-200.000	0.014	0.505
-125.253	-200.000	0.031	0.755
-124.239	776.513	0.164	0.443
-123.224	242.043	0.118	-0.195
-122.210	173.536	-0.082	0.117
-121.195	800.000	0.152	-0.645
