DTS Sentinel unit serial number:	SN413079Multiplexer serial number:	ORYXHardware model number:	OX4-SRSoftware version number:	ORYX F/W v4.00 Oryx Data Collector v3.7.2.0data status	okinstallation	princeton_trtdifferential loss correction	single-endedforward channel	channel 3reverse channel	N/Adate	2019/09/14time	10:16:35forward acquisition time	60.00reverse acquisition time	0.00gamma	496.2192k internal	0.2308k external	0.2308temperature offset calibration	1.0052default loss term (dB/km)	0.3790temperature slope calibration	1.0000multiplexer offset coefficient	1.0000multiplexer slope coefficient	1.0000fibre end	0.00T internal ref (°C)	34.02T ext. ref 1 (°C)	4.11T ext. ref 2 (°C)	32.81length (m)	temperature (°C)	Stokes	anti-Stokes-747.200	-0.303	0.066	-0.047
-746.185	-200.000	-0.055	0.537
-745.171	317.394	-0.084	0.161
-744.156	373.941	-0.110	0.227
-743.142	800.000	0.006	0.024
-742.127	155.811	0.193	-0.271
-741.112	-95.612	0.049	0.013
-740.098	447.905	-0.207	0.463
-739.083	800.000	0.033	0.127
-738.069	-45.118	-0.275	0.139
-737.054	-140.645	-0.100	-0.010
-736.039	24.034	-0.166	-0.139
-735.025	-107.392	0.213	-0.047
-734.010	-200.000	0.019	-0.188
-732.996	-28.811	-0.202	-0.118
-731.981	-200.000	-0.022	-0.280
-730.966	-200.000	0.050	0.259
-729.952	-200.000	-0.040	-0.202
-728.937	270.291	-0.059	-0.106
-727.923	188.288	0.029	0.044
-726.908	-75.983	0.196	-0.070
-725.894	-57.591	0.116	-0.052
-724.879	-20.648	-0.293	0.183
-723.864	-21.308	-0.278	0.172
-722.850	591.860	-0.089	0.223
-721.835	-200.000	-0.001	-0.034
-720.821	-200.000	-0.025	-0.324
-719.806	-123.474	-0.312	-0.050
-718.791	-200.000	0.011	0.442
-717.777	65.256	0.071	0.073
-716.762	-46.754	-0.275	0.137
-715.748	-200.000	0.006	0.086
-714.733	-55.162	-0.303	-0.138
-713.718	800.000	-0.036	0.124
-712.704	-200.000	0.052	-0.388
-711.689	-200.000	-0.021	0.165
-710.675	-75.528	0.251	0.091
-709.660	800.000	0.068	0.198
-708.645	-172.056	-0.121	-0.004
-707.631	-109.862	-0.228	-0.048
-706.616	36.342	-0.162	-0.145
-705.602	-200.000	-0.005	0.056
-704.587	544.119	-0.073	0.178
-703.572	147.212	-0.140	0.191
-702.558	-200.000	0.020	-0.206
-701.543	-135.367	0.099	-0.012
-700.529	-127.133	0.184	0.027
-699.514	19.204	-0.167	0.136
-698.499	-33.288	0.114	0.064
-697.485	33.409	-0.159	-0.140
-696.470	409.546	-0.082	0.176
-695.456	-27.551	-0.141	0.083
-694.441	800.000	-0.049	0.201
-693.426	10.944	0.118	0.092
-692.412	-150.818	0.271	-0.021
-691.397	672.833	-0.096	-0.253
-690.383	234.443	0.075	0.125
-689.368	-75.448	0.167	-0.060
-688.354	175.294	-0.027	0.040
-687.339	800.000	0.111	0.355
-686.324	-75.355	0.285	-0.103
-685.310	-200.000	-0.012	0.149
-684.295	262.718	-0.209	0.369
-683.281	66.409	0.272	0.280
-682.266	-78.878	0.135	0.047
-681.251	-116.705	0.018	0.003
-680.237	199.952	-0.095	-0.147
-679.222	-120.880	-0.306	-0.052
-678.208	-67.578	-0.278	0.111
-677.193	73.374	-0.069	-0.073
-676.178	296.236	-0.060	-0.111
-675.164	-136.088	0.104	0.012
-674.149	346.398	0.102	-0.203
-673.135	776.088	-0.049	0.136
-672.120	-200.000	0.000	0.037
-671.105	133.146	0.087	-0.113
-670.091	-200.000	0.022	0.114
-669.076	416.490	0.195	0.421
-668.062	300.390	-0.080	-0.149
-667.047	183.698	0.148	0.221
-666.032	-133.484	-0.262	-0.033
-665.018	-200.000	-0.235	-0.001
-664.003	800.000	-0.107	0.342
-662.989	-42.988	0.279	0.143
-661.974	-200.000	-0.001	-0.056
-660.959	-200.000	0.029	-0.161
-659.945	585.310	-0.015	-0.037
-658.930	535.571	0.151	0.362
-657.916	-89.486	-0.336	0.100
-656.901	21.060	0.261	0.214
-655.886	-55.695	-0.234	0.106
-654.872	360.151	-0.113	0.230
-653.857	37.792	-0.317	0.285
-652.843	21.771	-0.066	-0.054
-651.828	800.000	-0.013	0.038
-650.814	-60.923	-0.071	-0.031
-649.799	-4.360	-0.162	0.113
-648.784	800.000	-0.035	0.097
-647.770	800.000	0.018	-0.054
-646.755	800.000	-0.012	-0.044
-645.741	19.472	-0.064	0.052
-644.726	-23.723	0.021	0.013
-643.711	264.644	0.122	0.215
-642.697	-120.838	-0.281	-0.048
-641.682	143.028	0.188	0.253
-640.668	82.020	-0.063	-0.069
-639.653	-200.000	-0.045	-0.311
-638.638	-54.674	0.124	-0.057
-637.624	-18.728	0.070	-0.044
-636.609	-33.515	0.200	0.112
-635.595	800.000	0.093	0.281
-634.580	128.503	0.213	0.274
-633.565	-64.004	0.119	0.049
-632.551	-60.464	0.122	-0.052
-631.536	-78.104	-0.374	0.130
-630.522	-140.599	-0.153	0.016
-629.507	-140.036	-0.064	0.007
-628.492	-200.000	-0.025	-0.138
-627.478	14.622	-0.158	0.125
-626.463	-25.460	-0.055	-0.033
-625.449	800.000	0.038	0.145
-624.434	160.617	0.158	0.222
-623.419	-200.000	-0.000	0.146
-622.405	-83.607	0.292	-0.094
-621.390	120.570	-0.160	-0.201
-620.376	227.227	-0.160	0.263
-619.361	-200.000	0.010	-0.081
-618.346	59.263	-0.219	-0.218
-617.332	66.003	0.275	-0.282
-616.317	-36.533	-0.165	0.090
-615.303	-200.000	0.002	0.089
-614.288	127.881	0.041	0.053
-613.273	664.048	0.058	-0.150
-612.259	800.000	0.055	0.232
-611.244	-40.358	-0.349	-0.184
-610.230	-157.744	0.210	0.013
-609.215	-197.816	0.054	0.000
-608.201	-53.990	-0.143	0.066
-607.186	800.000	0.060	-0.233
-606.171	-67.335	0.385	0.153
-605.157	392.163	0.050	0.105
-604.142	-55.411	-0.306	-0.139
-603.128	39.467	0.116	-0.105
-602.113	514.274	0.041	-0.098
-601.098	800.000	0.043	-0.162
-600.084	594.267	-0.071	-0.176
-599.069	-111.490	0.148	-0.031
-598.055	382.199	0.083	-0.173
-597.040	-200.000	0.013	0.091
-596.025	-200.000	-0.001	-0.018
-595.011	341.152	-0.116	-0.229
-593.996	-19.654	0.043	0.027
-592.982	1.406	-0.305	-0.222
-591.967	-156.077	-0.153	-0.010
-590.952	-107.691	0.217	0.048
-589.938	-200.000	0.023	0.337
-588.923	-200.000	0.015	0.129
-587.909	99.049	0.269	0.314
-586.894	-200.000	0.011	0.244
-585.879	800.000	0.030	0.086
-584.865	-160.452	-0.206	0.011
-583.850	726.435	0.155	0.416
-582.836	-143.767	0.405	-0.039
-581.821	-200.000	0.009	0.131
-580.806	166.938	0.286	0.410
-579.792	80.490	0.140	0.152
-578.777	8.450	-0.166	0.126
-577.763	-60.483	-0.332	0.142
-576.748	60.032	0.328	-0.327
-575.733	-4.570	0.130	0.091
-574.719	70.115	-0.247	0.258
-573.704	77.875	0.255	0.274
-572.690	-191.663	0.307	-0.003
-571.675	-13.785	-0.072	0.047
-570.661	-200.000	0.097	-0.434
-569.646	800.000	0.020	-0.072
-568.631	-43.295	-0.111	-0.057
-567.617	-162.435	0.208	0.010
-566.602	45.217	-0.248	-0.230
-565.588	177.487	-0.124	-0.182
-564.573	800.000	0.030	0.128
-563.558	-145.036	0.337	-0.031
-562.544	80.713	0.309	-0.336
-561.529	-45.141	0.128	0.064
-560.515	-79.963	-0.194	-0.066
-559.500	-200.000	-0.001	-0.313
-558.485	-200.000	-0.016	-0.084
-557.471	-72.898	0.234	-0.087
-556.456	42.083	-0.116	-0.106
-555.442	-96.540	0.233	-0.062
-554.427	800.000	-0.091	-0.257
-553.412	800.000	-0.073	-0.241
-552.398	-28.005	-0.217	-0.127
-551.383	307.680	0.097	0.182
-550.369	114.053	0.291	-0.358
-549.354	303.537	-0.135	-0.252
-548.339	80.154	0.143	0.155
-547.325	25.672	0.244	0.205
-546.310	164.403	-0.209	-0.297
-545.296	-92.037	-0.164	-0.047
-544.281	-200.000	-0.020	0.261
-543.266	255.242	-0.081	0.140
-542.252	557.366	0.049	-0.120
-541.237	76.983	0.227	-0.243
-540.223	-138.366	-0.373	-0.041
-539.208	171.081	0.140	-0.203
-538.193	-163.856	-0.330	-0.016
-537.179	8.351	0.271	-0.206
-536.164	-200.000	-0.030	-0.196
-535.150	192.925	-0.120	-0.183
-534.135	-150.553	-0.120	0.009
-533.121	-137.745	-0.194	0.022
-532.106	771.079	-0.054	-0.149
-531.091	166.949	-0.101	-0.145
-530.077	109.728	-0.241	-0.292
-529.062	-75.143	0.161	0.058
-528.048	17.680	0.082	-0.066
-527.033	800.000	-0.106	-0.338
-526.018	-32.913	0.176	0.099
-525.004	6.789	0.115	0.086
-523.989	390.894	-0.024	-0.050
-522.975	72.235	-0.102	-0.107
-521.960	-200.000	0.002	-0.067
-520.945	-161.336	0.096	-0.005
-519.931	630.594	0.091	0.233
-518.916	-161.601	0.285	0.015
-517.902	-1.475	0.040	0.029
-516.887	-56.243	-0.118	-0.053
-515.872	-200.000	0.028	-0.186
-514.858	-19.209	-0.436	-0.273
-513.843	433.389	-0.198	-0.434
-512.829	-155.153	-0.381	0.025
-511.814	-50.790	0.082	-0.039
-510.799	-200.000	-0.013	0.136
-509.785	-85.146	0.071	-0.022
-508.770	-158.787	0.152	0.009
-507.756	-25.126	-0.142	0.085
-506.741	-200.000	-0.008	-0.232
-505.726	35.741	0.026	0.023
-504.712	-200.000	-0.018	-0.145
-503.697	-52.082	-0.198	-0.093
-502.683	-200.000	0.024	-0.184
-501.668	641.602	-0.008	-0.021
-500.653	13.111	-0.111	-0.087
-499.639	101.544	-0.073	0.086
-498.624	-32.766	0.161	0.090
-497.610	-185.139	0.078	0.001
-496.595	11.852	0.085	0.066
-495.581	124.045	-0.167	-0.211
-494.566	-200.000	-0.007	-0.153
-493.551	-200.000	-0.029	0.144
-492.537	-200.000	0.006	0.490
-491.522	123.234	0.095	0.119
-490.508	800.000	0.067	-0.217
-489.493	137.220	0.178	-0.235
-488.478	84.605	0.229	0.252
-487.464	800.000	-0.118	-0.366
-486.449	71.449	-0.211	0.220
-485.435	-141.215	0.305	-0.031
-484.420	-126.708	0.097	-0.015
-483.405	54.919	-0.193	0.188
-482.391	-88.371	0.137	0.041
-481.376	800.000	-0.074	0.253
-480.362	52.688	0.140	-0.134
-479.347	194.781	-0.168	0.257
-478.332	-113.573	-0.221	0.043
-477.318	74.845	0.013	-0.014
-476.303	28.761	0.140	0.120
-475.289	-62.316	-0.405	-0.170
-474.274	170.381	-0.240	0.346
-473.259	-200.000	0.058	-0.273
-472.245	-26.723	0.233	0.137
-471.230	-200.000	-0.019	0.132
-470.216	-177.328	0.288	0.007
-469.201	-75.499	0.272	0.097
-468.186	72.735	-0.087	-0.092
-467.172	150.340	-0.097	-0.133
-466.157	60.251	0.222	0.221
-465.143	-66.717	0.241	-0.096
-464.128	-36.944	-0.256	0.138
-463.113	-89.197	-0.173	-0.051
-462.099	-200.000	0.034	0.175
-461.084	-139.964	-0.448	-0.048
-460.070	403.927	0.077	-0.162
-459.055	394.478	-0.077	0.162
-458.040	-37.572	0.196	0.105
-457.026	-200.000	0.007	0.062
-456.011	-79.390	-0.145	-0.049
-454.997	-100.555	-0.174	-0.043
-453.982	-76.097	0.101	-0.036
-452.968	-200.000	-0.258	0.001
-451.953	72.674	-0.090	0.094
-450.938	705.804	-0.083	0.221
-449.924	89.476	0.204	0.229
-448.909	-200.000	-0.009	-0.302
-447.895	-124.186	0.081	-0.013
-446.880	-200.000	-0.033	-0.247
-445.865	-176.401	-0.120	0.003
-444.851	-200.000	0.043	0.335
-443.836	761.798	-0.053	-0.146
-442.822	448.700	-0.138	0.306
-441.807	-67.400	-0.118	0.047
-440.792	-200.000	0.009	0.090
-439.778	800.000	0.064	0.201
-438.763	78.446	0.353	0.379
-437.749	72.449	-0.137	0.144
-436.734	-1.600	-0.123	0.087
-435.719	42.482	-0.349	0.319
-434.705	48.412	0.153	-0.144
-433.690	284.271	-0.141	0.255
-432.676	333.051	0.142	0.275
-431.661	8.615	0.210	0.159
-430.646	-85.042	-0.106	-0.033
-429.632	-75.180	-0.138	0.049
-428.617	29.927	0.150	0.129
-427.603	-200.000	-0.020	0.091
-426.588	-11.294	-0.030	0.020
-425.573	-26.581	0.221	0.130
-424.559	23.656	-0.114	-0.094
-423.544	57.298	-0.311	0.305
-422.530	24.169	-0.131	0.109
-421.515	-14.967	-0.014	-0.009
-420.500	24.848	0.315	-0.262
-419.486	-77.599	0.187	-0.065
-418.471	-53.453	0.278	0.128
-417.457	67.787	0.072	-0.074
-416.442	-200.000	-0.044	0.505
-415.428	-25.923	-0.130	0.077
-414.413	-111.090	-0.266	0.055
-413.398	15.530	-0.073	-0.058
-412.384	-14.513	-0.211	-0.136
-411.369	89.637	-0.135	0.151
-410.355	261.501	-0.074	-0.128
-409.340	-35.404	-0.226	-0.123
-408.325	135.291	-0.124	-0.162
-407.311	-41.580	0.132	0.068
-406.296	122.828	0.261	0.328
-405.282	-120.658	-0.366	0.062
-404.267	-200.000	-0.022	-0.170
-403.252	75.688	-0.131	0.138
-402.238	-119.332	0.354	0.062
-401.223	161.912	0.157	0.220
-400.209	-115.237	-0.256	0.049
-399.194	25.374	-0.069	-0.058
-398.179	703.128	-0.125	-0.330
-397.165	-200.000	-0.053	-0.303
-396.150	-131.145	0.198	-0.026
-395.136	135.971	-0.141	-0.184
-394.121	-200.000	0.051	-0.239
-393.106	28.185	-0.081	0.068
-392.092	-200.000	-0.008	0.079
-391.077	-6.928	0.016	0.011
-390.063	800.000	0.050	-0.168
-389.048	800.000	-0.035	-0.136
-388.033	-200.000	0.006	-0.062
-387.019	-23.750	-0.326	-0.196
-386.004	-17.564	0.117	-0.074
-384.990	-40.271	0.236	-0.123
-383.975	64.973	-0.040	-0.040
-382.960	-15.382	0.125	-0.080
-381.946	107.157	0.109	-0.130
-380.931	-36.936	0.174	-0.093
-379.917	26.221	0.186	0.155
-378.902	205.508	-0.084	-0.131
-377.888	395.233	0.084	-0.176
-376.873	235.901	0.125	-0.207
-375.858	-89.473	0.152	-0.045
-374.844	-200.000	0.043	0.197
-373.829	-38.412	0.310	-0.165
-372.815	-79.354	-0.364	-0.124
-371.800	-26.018	0.174	-0.103
-370.785	-0.219	0.307	-0.219
-369.771	-130.340	-0.288	-0.039
-368.756	-42.613	0.037	0.019
-367.742	354.138	-0.097	0.194
-366.727	149.873	0.036	0.049
-365.712	-200.000	-0.019	0.387
-364.698	5.922	-0.217	0.161
-363.683	140.761	-0.036	0.047
-362.669	90.454	-0.184	-0.207
-361.654	-72.229	-0.296	-0.110
-360.639	136.690	-0.090	0.117
-359.625	-157.303	0.507	-0.031
-358.610	63.430	0.050	-0.051
-357.596	505.618	-0.054	0.125
-356.581	800.000	-0.065	-0.189
-355.566	800.000	0.116	0.323
-354.552	-200.000	0.018	0.099
-353.537	-120.107	-0.109	0.019
-352.523	-92.253	0.348	0.098
-351.508	270.210	-0.131	0.231
-350.493	-128.393	0.342	-0.049
-349.479	-5.905	-0.224	0.154
-348.464	-172.851	-0.239	0.007
-347.450	592.004	-0.036	-0.088
-346.435	-10.714	-0.278	-0.184
-345.420	72.889	0.280	-0.293
-344.406	303.514	0.069	-0.128
-343.391	-55.565	-0.219	0.098
-342.377	-200.000	0.087	-0.463
-341.362	9.255	-0.215	0.163
-340.348	-200.000	0.043	-0.235
-339.333	-143.623	0.068	-0.006
-338.318	-39.492	0.249	-0.130
-337.304	-200.000	0.005	-0.094
-336.289	124.037	-0.069	0.087
-335.275	-95.077	0.166	0.045
-334.260	174.477	-0.144	0.208
-333.245	-187.645	-0.182	0.002
-332.231	800.000	-0.083	-0.342
-331.216	103.613	0.193	-0.226
-330.202	11.813	-0.193	-0.148
-329.187	-200.000	-0.039	-0.386
-328.172	-107.677	-0.294	-0.064
-327.158	-200.000	-0.042	-0.252
-326.143	-200.000	0.071	0.334
-325.129	-87.416	-0.124	-0.037
-324.114	-200.000	-0.030	0.180
-323.099	48.425	-0.171	0.160
-322.085	-30.937	-0.121	0.068
-321.070	-200.000	-0.022	0.098
-320.056	-153.424	0.487	0.034
-319.041	800.000	0.118	-0.365
-318.026	348.020	-0.107	-0.212
-317.012	-99.981	-0.162	-0.040
-315.997	-46.094	-0.527	-0.259
-314.983	512.694	-0.069	0.162
-313.968	-151.394	0.235	-0.017
-312.953	-117.246	-0.268	-0.049
-311.939	-48.740	0.337	-0.161
-310.924	-148.132	-0.137	0.011
-309.910	166.963	0.270	0.383
-308.895	800.000	0.040	0.134
-307.880	-69.399	0.311	-0.119
-306.866	336.581	0.052	0.100
-305.851	800.000	0.082	0.231
-304.837	-49.337	-0.135	0.064
-303.822	132.161	-0.204	0.263
-302.807	46.006	-0.184	0.170
-301.793	-185.420	0.215	0.003
-300.778	46.749	0.194	0.180
-299.764	54.693	0.127	0.122
-298.749	-200.000	0.029	-0.266
-297.735	77.819	0.119	-0.126
-296.720	-200.000	0.034	0.555
-295.705	113.622	-0.250	0.303
-294.691	782.938	-0.017	0.046
-293.676	585.082	0.129	-0.316
-292.662	-151.133	0.295	0.022
-291.647	-76.843	-0.176	-0.061
-290.632	800.000	-0.033	0.131
-289.618	-10.684	-0.096	0.063
-288.603	-200.000	0.005	0.122
-287.589	-74.857	0.306	0.110
-286.574	0.207	0.230	0.164
-285.559	800.000	0.049	0.167
-284.545	176.388	0.216	0.313
-283.530	-128.848	-0.112	-0.016
-282.516	104.008	0.216	0.253
-281.501	93.285	0.197	0.223
-280.486	104.273	0.256	-0.301
-279.472	-102.049	-0.127	-0.031
-278.457	-124.985	-0.120	-0.019
-277.443	-200.000	0.007	-0.040
-276.428	498.716	-0.137	0.316
-275.413	-200.000	-0.070	0.340
-274.399	-38.914	-0.110	-0.058
-273.384	249.080	-0.149	0.251
-272.370	-128.230	0.156	-0.022
-271.355	-144.574	0.212	-0.020
-270.340	241.541	-0.091	-0.151
-269.326	-33.851	-0.318	0.175
-268.311	-146.561	-0.184	-0.016
-267.297	77.753	-0.065	0.069
-266.282	625.366	-0.028	-0.069
-265.267	366.831	-0.158	0.318
-264.253	-200.000	-0.113	0.528
-263.238	-67.089	-0.197	0.077
-262.224	-200.000	-0.041	0.207
-261.209	-134.391	0.248	0.030
-260.195	800.000	-0.052	0.171
-259.180	12.040	0.114	-0.087
-258.165	-58.066	0.247	0.107
-257.151	7.013	0.312	0.232
-256.136	-21.862	0.235	-0.142
-255.122	-200.000	-0.018	-0.389
-254.107	716.132	0.056	-0.148
-253.092	-34.435	0.462	0.253
-252.078	112.623	0.181	0.218
-251.063	-64.425	0.190	-0.077
-250.049	-68.285	-0.017	0.006
-249.034	800.000	0.101	-0.319
-248.019	-200.000	-0.007	0.254
-247.005	-66.684	-0.437	-0.173
-245.990	-76.936	-0.209	0.073
-244.976	-118.010	0.099	0.018
-243.961	533.935	0.096	0.228
-242.946	-163.468	-0.056	-0.003
-241.932	1.612	-0.084	-0.060
-240.917	315.061	-0.156	-0.292
-239.903	-119.684	0.267	-0.046
-238.888	-10.796	-0.366	-0.241
-237.873	-200.000	-0.040	-0.249
-236.859	79.065	-0.206	-0.219
-235.844	-73.661	0.365	0.132
-234.830	-148.457	-0.105	-0.009
-233.815	-106.065	-0.074	0.016
-232.800	-200.000	0.006	0.095
-231.786	800.000	-0.091	-0.369
-230.771	-34.853	-0.252	0.137
-229.757	308.272	0.092	0.172
-228.742	800.000	-0.025	0.084
-227.727	410.856	0.105	-0.221
-226.713	-81.836	-0.472	-0.154
-225.698	-46.449	0.229	0.112
-224.684	388.416	-0.096	-0.197
-223.669	235.958	-0.133	0.218
-222.655	269.574	0.065	0.113
-221.640	-200.000	0.069	-0.323
-220.625	-100.644	0.314	0.077
-219.611	232.762	0.044	0.071
-218.596	259.483	0.129	-0.222
-217.582	-72.487	0.235	-0.087
-216.567	-200.000	-0.018	0.102
-215.552	37.458	-0.102	-0.090
-214.538	-107.900	0.427	0.092
-213.523	-200.000	-0.011	0.257
-212.509	318.098	-0.089	0.167
-211.494	-13.672	-0.380	0.245
-210.479	93.369	0.179	0.202
-209.465	-200.000	-0.080	0.421
-208.450	-200.000	0.008	-0.274
-207.436	-130.724	0.171	0.023
-206.421	114.659	0.116	-0.141
-205.406	-200.000	0.020	0.114
-204.392	579.594	-0.074	-0.179
-203.377	454.981	-0.063	-0.140
-202.363	-44.244	-0.140	-0.070
-201.348	19.393	0.186	0.149
-200.333	37.389	-0.050	-0.044
-199.319	-19.291	0.207	-0.128
-198.304	-73.855	-0.407	-0.147
-197.290	92.047	0.183	0.205
-196.275	3.703	-0.156	0.113
-195.260	35.364	0.119	0.104
-194.246	22.564	-0.118	-0.096
-193.231	325.110	-0.193	-0.368
-192.217	-48.992	-0.073	0.035
-191.202	-200.000	-0.037	0.233
-190.187	225.524	-0.092	-0.149
-189.173	40.168	0.143	0.128
-188.158	-83.499	0.138	0.044
-187.144	800.000	0.137	-0.390
-186.129	-200.000	-0.016	0.237
-185.114	-8.503	-0.117	0.078
-184.100	800.000	0.033	-0.133
-183.085	119.378	-0.194	0.239
-182.071	-200.000	0.069	-0.392
-181.056	-200.000	-0.013	-0.385
-180.042	800.000	-0.039	0.144
-179.027	-46.826	-0.200	-0.097
-178.012	92.990	-0.227	-0.255
-176.998	800.000	0.080	0.220
-175.983	107.568	-0.214	0.253
-174.969	-186.107	0.145	0.002
-173.954	1.505	0.181	0.130
-172.939	-69.987	-0.163	0.062
-171.925	800.000	-0.029	0.115
-170.910	14.773	-0.039	-0.030
-169.896	-32.465	-0.177	-0.098
-168.881	-91.353	-0.195	0.055
-167.866	27.610	-0.104	-0.087
-166.852	800.000	0.069	0.212
-165.837	-122.548	-0.149	0.024
-164.823	-57.670	0.420	-0.183
-163.808	-200.000	-0.006	-0.114
-162.793	-63.843	0.209	-0.085
-161.779	-200.000	0.043	-0.350
-160.764	-41.073	-0.017	-0.009
-159.750	-34.248	0.111	0.061
-158.735	-200.000	-0.003	-0.305
-157.720	465.339	-0.095	-0.212
-156.706	58.315	-0.330	-0.321
-155.691	-99.980	0.386	-0.096
-154.677	89.994	-0.079	0.088
-153.662	-200.000	0.048	-0.282
-152.647	-200.000	0.032	-0.196
-151.633	-133.941	-0.318	-0.039
-150.618	-200.000	0.000	0.091
-149.604	-200.000	-0.008	-0.220
-148.589	539.627	0.067	-0.157
-147.574	-200.000	0.016	0.084
-146.560	-50.777	0.099	0.046
-145.545	-200.000	-0.020	-0.123
-144.531	-59.105	0.206	0.088
-143.516	-28.923	0.279	-0.159
-142.502	-177.884	0.117	-0.003
-141.487	331.811	0.124	-0.238
-140.472	636.953	0.035	-0.087
-139.458	-200.000	0.013	0.278
-138.443	-200.000	0.003	-0.029
-137.429	403.843	0.161	0.337
-136.414	800.000	0.017	0.056
-135.399	-86.602	-0.055	-0.017
-134.385	337.107	0.064	0.123
-133.370	-200.000	-0.048	0.287
-132.356	-200.000	0.036	0.182
-131.341	19.914	-0.175	-0.140
-130.326	171.445	0.114	0.162
-129.312	-200.000	0.084	-0.441
-128.297	-31.816	0.198	-0.110
-127.283	-200.000	0.001	-0.170
-126.268	-118.717	-0.093	0.016
-125.253	-38.274	0.107	0.056
-124.239	27.697	-0.138	-0.115
-123.224	800.000	0.074	0.248
-122.210	678.392	-0.161	0.414
-121.195	800.000	0.136	0.410
