DTS Sentinel unit serial number:	SN413079Multiplexer serial number:	ORYXHardware model number:	OX4-SRSoftware version number:	ORYX F/W v4.00 Oryx Data Collector v3.7.2.0data status	okinstallation	princeton_trtdifferential loss correction	single-endedforward channel	channel 3reverse channel	N/Adate	2019/09/15time	18:20:35forward acquisition time	60.00reverse acquisition time	0.00gamma	496.2192k internal	0.2286k external	0.2286temperature offset calibration	0.9925default loss term (dB/km)	0.3790temperature slope calibration	1.0000multiplexer offset coefficient	1.0000multiplexer slope coefficient	1.0000fibre end	0.00T internal ref (°C)	44.37T ext. ref 1 (°C)	6.66T ext. ref 2 (°C)	38.78length (m)	temperature (°C)	Stokes	anti-Stokes-747.200	88.332	-0.117	0.134
-746.185	9.691	-0.195	0.152
-745.171	-200.000	-0.000	0.196
-744.156	696.854	-0.100	0.270
-743.142	-134.395	0.289	0.036
-742.127	133.098	-0.058	-0.076
-741.112	800.000	0.021	-0.081
-740.098	361.333	0.176	0.362
-739.083	-200.000	0.005	0.247
-738.069	-80.204	-0.357	0.123
-737.054	-200.000	-0.058	-0.386
-736.039	157.189	0.048	0.068
-735.025	231.692	-0.074	0.125
-734.010	29.086	0.020	0.017
-732.996	-198.310	-0.303	-0.002
-731.981	129.468	0.109	-0.143
-730.966	102.451	-0.149	0.178
-729.952	-100.182	-0.243	0.062
-728.937	-200.000	0.030	0.236
-727.923	-200.000	-0.035	-0.321
-726.908	-98.939	-0.151	0.039
-725.894	700.128	-0.110	-0.296
-724.879	645.498	-0.169	-0.441
-723.864	43.432	-0.126	-0.119
-722.850	-65.118	-0.192	0.079
-721.835	97.033	-0.136	0.160
-720.821	2.988	-0.180	0.134
-719.806	226.333	-0.036	-0.061
-718.791	-53.987	0.101	-0.047
-717.777	-200.000	0.040	-0.237
-716.762	800.000	0.050	0.220
-715.748	-200.000	-0.090	-0.533
-714.733	-95.678	-0.183	0.050
-713.718	-103.567	-0.474	0.114
-712.704	-200.000	-0.030	-0.300
-711.689	800.000	0.061	0.246
-710.675	14.906	0.189	0.152
-709.660	344.961	-0.130	0.261
-708.645	-20.935	-0.282	0.177
-707.631	-159.137	0.076	0.004
-706.616	-128.663	0.181	-0.026
-705.602	212.112	-0.124	-0.200
-704.587	66.776	-0.093	-0.097
-703.572	-152.189	-0.257	-0.019
-702.558	800.000	-0.067	0.223
-701.543	60.792	-0.211	-0.214
-700.529	44.876	0.229	-0.216
-699.514	800.000	0.088	-0.375
-698.499	127.921	0.173	0.226
-697.485	0.912	0.046	-0.034
-696.470	-174.181	0.180	-0.005
-695.456	-90.573	0.219	0.065
-694.441	-26.359	-0.240	-0.144
-693.426	-194.793	-0.067	0.001
-692.412	-94.059	-0.198	0.056
-691.397	-74.440	0.255	-0.094
-690.383	800.000	0.046	0.195
-689.368	-200.000	0.014	0.104
-688.354	-0.232	0.376	0.274
-687.339	46.750	-0.262	-0.250
-686.324	-19.675	0.203	-0.128
-685.310	-115.456	-0.208	0.040
-684.295	-126.407	0.379	-0.058
-683.281	-14.717	-0.137	0.090
-682.266	-200.000	0.015	-0.167
-681.251	800.000	0.059	-0.172
-680.237	19.462	0.230	-0.190
-679.222	-116.957	0.252	0.047
-678.208	-29.064	0.158	-0.093
-677.193	-200.000	0.019	0.245
-676.178	-37.387	0.353	0.193
-675.164	52.917	-0.088	0.086
-674.149	-115.458	-0.241	0.047
-673.135	77.354	0.003	0.003
-672.120	-148.636	0.258	-0.022
-671.105	800.000	0.059	-0.230
-670.091	800.000	-0.069	-0.295
-669.076	-24.860	0.057	-0.035
-668.062	414.811	-0.072	-0.156
-667.047	7.531	0.145	-0.111
-666.032	93.003	0.073	0.085
-665.018	-99.244	-0.275	0.071
-664.003	-168.645	-0.274	0.011
-662.989	357.701	0.007	0.014
-661.974	-63.510	-0.023	-0.010
-660.959	194.677	0.090	0.140
-659.945	38.051	0.128	0.116
-658.930	-17.538	-0.109	-0.070
-657.916	-65.563	-0.247	0.101
-656.901	-200.000	0.012	-0.196
-655.886	-137.312	0.309	-0.036
-654.872	317.367	0.050	-0.096
-653.857	113.117	-0.191	0.236
-652.843	-82.318	0.356	0.118
-651.828	-200.000	0.024	0.151
-650.814	-95.969	0.293	0.080
-649.799	-200.000	0.009	-0.084
-648.784	-200.000	-0.021	-0.221
-647.770	36.724	-0.152	0.137
-646.755	21.724	0.095	-0.079
-645.741	-200.000	0.017	-0.241
-644.726	-32.624	-0.016	-0.009
-643.711	-116.285	0.206	-0.039
-642.697	-200.000	-0.030	-0.242
-641.682	-200.000	-0.009	-0.167
-640.668	-112.798	0.201	0.041
-639.653	-72.922	-0.210	-0.079
-638.638	67.186	-0.076	0.079
-637.624	164.763	0.037	0.053
-636.609	-72.200	-0.259	-0.098
-635.595	382.806	-0.024	0.050
-634.580	-166.051	0.223	-0.010
-633.565	236.030	-0.132	-0.224
-632.551	-42.336	0.356	-0.185
-631.536	-144.329	-0.569	0.054
-630.522	-125.972	0.235	-0.036
-629.507	104.008	0.403	0.484
-628.492	129.933	0.209	-0.273
-627.478	79.444	-0.215	-0.236
-626.463	351.528	0.058	-0.118
-625.449	87.469	-0.278	-0.315
-624.434	555.062	-0.085	-0.208
-623.419	-83.500	0.271	-0.089
-622.405	-149.516	0.124	-0.010
-621.390	122.597	0.134	-0.171
-620.376	-26.482	-0.298	-0.178
-619.361	175.828	0.042	-0.063
-618.346	-35.004	-0.151	-0.084
-617.332	-118.148	-0.181	0.033
-616.317	-33.959	0.203	0.114
-615.303	260.831	0.156	0.276
-614.288	-200.000	0.022	-0.129
-613.273	565.719	0.075	-0.187
-612.259	98.242	-0.026	0.030
-611.244	-25.636	-0.318	-0.191
-610.230	800.000	-0.073	-0.252
-609.215	2.635	0.088	0.065
-608.201	192.297	0.077	-0.118
-607.186	-126.431	0.375	0.057
-606.171	-39.804	0.083	0.044
-605.157	-174.773	0.114	-0.003
-604.142	-151.405	0.073	-0.006
-603.128	-135.305	-0.285	-0.035
-602.113	-171.875	0.181	0.006
-601.098	-200.000	0.020	0.098
-600.084	-25.005	0.089	-0.054
-599.069	692.031	0.027	0.073
-598.055	-200.000	-0.052	-0.334
-597.040	-200.000	-0.007	-0.323
-596.025	44.060	0.223	-0.209
-595.011	522.802	-0.078	-0.186
-593.996	-200.000	0.007	0.199
-592.982	-200.000	0.020	-0.202
-591.967	196.475	0.103	0.161
-590.952	-200.000	0.030	-0.236
-589.938	143.680	-0.056	0.077
-588.923	-107.989	-0.058	-0.013
-587.909	8.009	0.181	-0.138
-586.894	21.891	0.201	-0.167
-585.879	291.791	0.102	-0.190
-584.865	-200.000	0.033	-0.210
-583.850	194.338	0.027	-0.041
-582.836	3.497	0.315	-0.234
-581.821	800.000	-0.044	0.187
-580.806	800.000	-0.048	0.214
-579.792	202.061	-0.080	-0.126
-578.777	-92.591	0.289	-0.083
-577.763	-200.000	-0.078	-0.368
-576.748	-101.700	-0.314	0.078
-575.733	-95.399	0.094	-0.026
-574.719	10.139	-0.098	-0.076
-573.704	800.000	-0.037	-0.147
-572.690	-135.017	0.087	-0.011
-571.675	-143.690	-0.151	-0.015
-570.661	60.396	0.026	-0.026
-569.646	-53.421	-0.457	0.213
-568.631	-135.777	0.135	0.016
-567.617	-200.000	-0.009	0.113
-566.602	800.000	0.038	0.122
-565.588	609.228	0.009	-0.024
-564.573	19.413	0.147	0.120
-563.558	-200.000	0.008	-0.166
-562.544	-89.771	0.088	-0.026
-561.529	-36.547	0.149	-0.082
-560.515	-115.040	0.070	0.013
-559.500	480.133	-0.109	-0.252
-558.485	-200.000	0.011	-0.255
-557.471	120.212	0.214	-0.271
-556.456	201.580	-0.133	-0.209
-555.442	193.680	-0.140	-0.215
-554.427	61.741	-0.131	0.133
-553.412	58.700	-0.100	-0.100
-552.398	152.432	0.205	-0.285
-551.383	-200.000	-0.021	-0.153
-550.369	-122.894	-0.055	-0.009
-549.354	-141.058	0.158	-0.017
-548.339	-51.717	-0.434	-0.206
-547.325	800.000	0.121	-0.472
-546.310	548.678	0.169	0.413
-545.296	38.956	-0.269	-0.245
-544.281	111.125	0.026	-0.032
-543.266	-200.000	-0.026	-0.161
-542.252	-200.000	-0.023	-0.127
-541.237	-7.179	0.139	-0.096
-540.223	-96.727	-0.344	0.092
-539.208	-164.491	-0.165	0.008
-538.193	426.854	0.132	-0.290
-537.179	343.012	-0.128	-0.254
-536.164	104.232	-0.019	-0.022
-535.150	-200.000	-0.004	-0.189
-534.135	-86.425	0.144	0.045
-533.121	-200.000	0.025	-0.112
-532.106	9.587	0.031	-0.024
-531.091	-200.000	-0.013	-0.122
-530.077	-200.000	0.065	0.293
-529.062	-200.000	0.037	0.179
-528.048	-75.226	0.084	0.031
-527.033	-54.818	0.152	0.070
-526.018	-81.118	-0.064	-0.022
-525.004	-200.000	-0.026	0.140
-523.989	-147.595	-0.564	0.048
-522.975	-200.000	-0.033	-0.186
-521.960	-153.446	-0.529	0.037
-520.945	-185.756	0.171	0.003
-519.931	144.759	-0.228	0.310
-518.916	79.617	0.082	0.090
-517.902	-200.000	-0.042	0.231
-516.887	9.194	-0.050	0.038
-515.872	800.000	0.051	-0.196
-514.858	800.000	-0.041	0.137
-513.843	74.720	0.086	-0.092
-512.829	270.231	0.083	-0.148
-511.814	43.400	-0.076	-0.070
-510.799	14.488	-0.385	0.305
-509.785	800.000	-0.067	-0.212
-508.770	49.750	-0.045	-0.043
-507.756	-2.489	-0.198	-0.141
-506.741	800.000	0.071	-0.202
-505.726	152.413	-0.287	0.399
-504.712	-200.000	-0.056	0.297
-503.697	561.556	-0.106	0.260
-502.683	177.197	0.082	0.121
-501.668	395.719	-0.073	0.154
-500.653	-71.840	-0.222	-0.084
-499.639	280.942	-0.151	-0.274
-498.624	-5.639	-0.180	0.126
-497.610	-172.604	0.166	0.005
-496.595	-72.497	-0.282	0.106
-495.581	28.617	0.141	-0.121
-494.566	-200.000	0.045	-0.310
-493.551	58.474	0.222	-0.222
-492.537	-62.063	0.085	0.036
-491.522	800.000	0.077	-0.266
-490.508	-31.851	0.156	0.089
-489.493	800.000	-0.127	-0.383
-488.478	-97.581	-0.139	0.037
-487.464	800.000	-0.135	0.393
-486.449	-14.416	0.056	-0.037
-485.435	-200.000	0.021	-0.188
-484.420	43.068	0.043	-0.040
-483.405	-114.625	-0.108	0.021
-482.391	-182.352	-0.383	0.007
-481.376	61.251	0.202	0.204
-480.362	51.009	0.240	-0.232
-479.347	-161.355	0.220	-0.012
-478.332	255.080	-0.164	-0.285
-477.318	214.020	-0.254	-0.408
-476.303	48.754	0.129	-0.123
-475.289	422.133	0.097	-0.211
-474.274	-53.204	-0.463	-0.216
-473.259	800.000	0.040	0.148
-472.245	800.000	0.071	0.288
-471.230	-110.905	-0.081	-0.017
-470.216	-81.853	-0.222	0.074
-469.201	61.727	-0.062	0.063
-468.186	-8.120	-0.116	0.079
-467.172	21.415	-0.264	-0.218
-466.157	-69.849	-0.335	0.130
-465.143	-144.741	0.307	0.029
-464.128	-45.589	-0.032	0.016
-463.113	-200.000	0.009	-0.265
-462.099	-125.292	-0.151	-0.023
-461.084	-103.955	-0.140	0.033
-460.070	394.045	-0.026	-0.056
-459.055	279.493	0.187	0.339
-458.040	-101.661	-0.290	0.071
-457.026	-200.000	0.022	0.295
-456.011	49.588	-0.178	0.170
-454.997	66.625	0.280	0.289
-453.982	176.356	0.041	0.060
-452.968	-166.615	0.215	-0.009
-451.953	-107.798	-0.271	0.060
-450.938	321.749	0.083	0.161
-449.924	284.566	-0.115	0.211
-448.909	230.974	0.129	0.214
-447.895	522.227	-0.062	-0.147
-446.880	66.635	0.012	-0.012
-445.865	800.000	-0.065	-0.227
-444.851	-124.529	-0.180	-0.028
-443.836	-159.211	-0.238	-0.014
-442.822	363.991	0.093	0.190
-441.807	-134.201	0.167	-0.021
-440.792	800.000	-0.040	-0.178
-439.778	-89.218	-0.161	0.048
-438.763	-200.000	0.010	0.145
-437.749	-79.731	0.247	0.084
-436.734	-200.000	0.025	0.210
-435.719	-200.000	0.003	-0.048
-434.705	752.414	0.050	-0.136
-433.690	-200.000	0.039	-0.187
-432.676	-129.643	0.256	-0.036
-431.661	392.750	0.103	0.217
-430.646	-11.204	0.052	0.035
-429.632	-175.026	-0.349	0.010
-428.617	-98.458	-0.335	0.087
-427.603	-71.704	0.375	0.142
-426.588	-200.000	0.106	0.601
-425.573	-139.216	-0.127	-0.014
-424.559	-82.359	0.231	0.076
-423.544	717.269	-0.134	0.360
-422.530	-50.143	0.308	-0.148
-421.515	261.972	0.220	0.387
-420.500	35.853	0.080	-0.071
-419.486	147.577	0.244	0.333
-418.471	-151.937	0.300	0.022
-417.457	341.400	-0.254	-0.503
-416.442	374.845	0.093	-0.191
-415.428	-200.000	0.067	0.301
-414.413	188.726	0.146	0.221
-413.398	24.650	0.044	0.037
-412.384	-200.000	-0.052	0.241
-411.369	5.213	0.091	-0.068
-410.355	-114.358	-0.183	0.036
-409.340	458.434	0.096	0.216
-408.325	-151.104	-0.261	0.020
-407.311	214.173	-0.105	0.169
-406.296	-182.618	0.105	-0.002
-405.282	-13.782	0.069	-0.045
-404.267	-200.000	-0.046	-0.254
-403.252	10.174	0.298	-0.229
-402.238	35.045	-0.090	0.079
-401.223	-139.652	0.126	-0.014
-400.209	-5.857	-0.108	-0.075
-399.194	-93.091	-0.257	-0.073
-398.179	-200.000	-0.050	0.237
-397.165	162.984	0.224	-0.318
-396.150	-111.334	0.410	-0.085
-395.136	-200.000	-0.013	0.075
-394.121	158.411	0.128	0.180
-393.106	219.863	-0.082	-0.134
-392.092	800.000	0.109	-0.339
-391.077	800.000	0.056	-0.184
-390.063	-151.410	-0.207	0.016
-389.048	45.360	-0.269	0.251
-388.033	217.192	0.119	0.192
-387.019	-163.073	0.186	-0.009
-386.004	-162.085	-0.312	-0.016
-384.990	114.754	0.202	0.249
-383.975	-114.586	0.181	0.035
-382.960	-200.000	-0.024	0.355
-381.946	800.000	0.059	0.172
-380.931	-146.999	-0.288	0.025
-379.917	-110.538	0.139	-0.029
-378.902	-168.842	-0.224	-0.009
-377.888	-200.000	0.007	0.161
-376.873	37.305	0.213	0.191
-375.858	-179.556	0.241	0.005
-374.844	-94.402	-0.112	0.031
-373.829	92.777	-0.141	-0.161
-372.815	-69.897	-0.363	-0.140
-371.800	21.560	0.039	0.032
-370.785	22.723	0.410	0.339
-369.771	6.924	-0.249	-0.188
-368.756	800.000	0.116	-0.393
-367.742	800.000	-0.100	0.358
-366.727	-200.000	0.000	-0.228
-365.712	470.004	0.108	0.246
-364.698	-17.829	-0.221	0.140
-363.683	91.587	0.106	0.120
-362.669	21.484	-0.165	0.135
-361.654	64.737	0.354	0.361
-360.639	24.129	-0.041	0.034
-359.625	33.526	-0.179	0.158
-358.610	-47.424	0.192	-0.095
-357.596	479.181	0.054	0.124
-356.581	-131.848	0.158	0.021
-355.566	134.315	-0.151	-0.198
-354.552	-92.726	-0.264	0.075
-353.537	-200.000	0.016	0.105
-352.523	-200.000	0.011	0.334
-351.508	2.985	0.063	0.047
-350.493	-8.475	-0.318	0.216
-349.479	130.668	-0.127	-0.164
-348.464	51.355	0.176	0.169
-347.450	-200.000	0.022	-0.201
-346.435	-126.926	0.380	0.056
-345.420	-49.699	0.137	-0.066
-344.406	-200.000	-0.001	0.323
-343.391	-88.235	0.080	0.024
-342.377	-58.564	0.446	-0.196
-341.362	-84.114	0.151	0.048
-340.348	-200.000	-0.029	0.147
-339.333	265.642	-0.075	-0.132
-338.318	-104.147	-0.293	0.069
-337.304	160.944	0.310	0.437
-336.289	-200.000	0.035	0.315
-335.275	-200.000	0.056	0.391
-334.260	-31.358	-0.186	-0.106
-333.245	-130.559	-0.411	-0.056
-332.231	-200.000	-0.051	-0.235
-331.216	-200.000	0.056	-0.345
-330.202	257.597	0.088	0.153
-329.187	500.504	0.091	0.212
-328.172	12.098	-0.199	-0.155
-327.158	578.587	0.039	-0.097
-326.143	-200.000	0.015	0.551
-325.129	-152.910	-0.160	0.011
-324.114	-200.000	0.002	0.151
-323.099	800.000	0.056	-0.230
-322.085	-124.370	0.234	0.037
-321.070	25.438	-0.077	0.065
-320.056	-119.846	-0.145	-0.025
-319.041	-18.489	0.241	0.152
-318.026	-123.057	0.364	-0.059
-317.012	-16.753	0.181	-0.116
-315.997	169.201	-0.128	0.184
-314.983	-7.629	0.074	-0.050
-313.968	800.000	-0.054	-0.191
-312.953	49.721	0.212	-0.201
-311.939	250.814	-0.063	-0.109
-310.924	-200.000	-0.038	0.264
-309.910	-200.000	-0.046	0.235
-308.895	-127.430	0.297	-0.044
-307.880	-0.515	-0.037	-0.026
-306.866	-200.000	0.023	-0.131
-305.851	389.872	-0.051	0.107
-304.837	-32.013	0.239	-0.135
-303.822	59.140	-0.072	0.071
-302.807	-200.000	-0.068	-0.518
-301.793	55.521	0.152	0.148
-300.778	-158.503	0.190	0.011
-299.764	307.417	0.121	-0.227
-298.749	187.455	-0.154	-0.231
-297.735	-200.000	-0.015	0.134
-296.720	76.927	-0.152	0.163
-295.705	46.311	-0.062	0.058
-294.691	133.974	0.057	0.074
-293.676	95.792	-0.054	-0.062
-292.662	-200.000	-0.026	-0.336
-291.647	-55.011	-0.078	0.035
-290.632	-200.000	-0.034	0.496
-289.618	-112.532	0.089	-0.018
-288.603	-35.268	-0.231	-0.127
-287.589	-200.000	0.012	-0.123
-286.574	-179.034	-0.132	-0.003
-285.559	-200.000	-0.011	0.178
-284.545	649.752	0.073	-0.189
-283.530	-74.551	0.293	-0.106
-282.516	-200.000	-0.023	-0.180
-281.501	522.513	-0.045	-0.106
-280.486	263.864	0.067	-0.117
-279.472	800.000	-0.102	-0.311
-278.457	800.000	-0.034	0.134
-277.443	13.577	-0.225	0.176
-276.428	484.266	0.062	-0.142
-275.413	116.458	-0.255	0.315
-274.399	124.760	-0.214	0.271
-273.384	-200.000	0.045	0.228
-272.370	221.934	-0.161	0.261
-271.355	39.610	0.199	0.180
-270.340	69.540	-0.137	0.142
-269.326	238.728	0.175	0.293
-268.311	-82.742	0.163	0.053
-267.297	99.993	0.029	0.034
-266.282	-68.251	-0.115	0.045
-265.267	-72.424	0.157	0.058
-264.253	-124.762	-0.192	0.030
-263.238	760.112	0.073	-0.199
-262.224	190.796	-0.123	-0.186
-261.209	180.172	-0.174	0.257
-260.195	168.264	0.131	-0.188
-259.180	800.000	-0.033	-0.126
-258.165	-6.790	0.081	0.055
-257.151	800.000	0.151	0.526
-256.136	-72.721	-0.056	0.021
-255.122	-200.000	0.013	0.224
-254.107	800.000	0.020	0.059
-253.092	-86.218	0.432	-0.134
-252.078	800.000	-0.024	0.097
-251.063	238.197	0.092	-0.153
-250.049	288.698	-0.111	-0.203
-249.034	134.427	0.055	0.072
-248.019	19.821	-0.225	-0.182
-247.005	56.770	-0.130	-0.128
-245.990	-200.000	0.025	0.120
-244.976	-47.612	0.122	-0.060
-243.961	-115.706	0.205	-0.039
-242.946	-200.000	-0.027	0.241
-241.932	-69.489	0.133	0.051
-240.917	-118.650	-0.295	0.052
-239.903	211.715	0.235	0.373
-238.888	46.411	-0.072	-0.068
-237.873	800.000	0.043	-0.138
-236.859	-129.081	-0.181	-0.025
-235.844	-200.000	0.075	-0.335
-234.830	-54.808	0.109	0.050
-233.815	-107.640	-0.109	0.024
-232.800	-200.000	0.016	-0.170
-231.786	-69.050	-0.195	0.075
-230.771	-90.485	-0.082	-0.024
-229.757	-73.929	0.098	0.036
-228.742	800.000	0.073	0.203
-227.727	4.595	0.191	-0.141
-226.713	-200.000	-0.021	0.172
-225.698	268.029	-0.103	0.181
-224.684	-60.685	-0.206	-0.088
-223.669	-21.300	-0.218	0.134
-222.655	170.577	-0.218	0.314
-221.640	-151.499	-0.125	0.009
-220.625	71.419	0.173	-0.180
-219.611	800.000	0.127	0.501
-218.596	-123.449	0.260	-0.042
-217.582	-52.378	0.279	0.130
-216.567	188.932	0.073	0.110
-215.552	-200.000	-0.001	-0.022
-214.538	-64.558	0.109	0.044
-213.523	-39.877	-0.311	-0.163
-212.509	-78.204	0.014	-0.005
-211.494	274.103	0.152	0.270
-210.479	42.825	-0.182	-0.167
-209.465	-124.599	0.130	0.020
-208.450	-125.153	0.206	0.032
-207.436	-24.974	-0.149	-0.089
-206.421	127.030	0.177	-0.226
-205.406	800.000	0.061	-0.225
-204.392	800.000	-0.077	-0.233
-203.377	-77.200	-0.330	-0.116
-202.363	800.000	0.061	-0.201
-201.348	94.187	0.119	-0.136
-200.333	-121.615	0.203	-0.034
-199.319	216.449	-0.178	-0.285
-198.304	-36.138	0.067	0.036
-197.290	-200.000	0.015	0.166
-196.275	-200.000	-0.039	-0.317
-195.260	59.692	-0.138	0.137
-194.246	-5.212	0.275	-0.190
-193.231	800.000	-0.054	0.160
-192.217	-120.393	0.198	0.034
-191.202	-200.000	0.024	0.486
-190.187	-53.725	0.392	0.179
-189.173	-200.000	-0.022	0.124
-188.158	-83.062	-0.103	-0.033
-187.144	-200.000	-0.018	-0.211
-186.129	-200.000	-0.001	0.104
-185.114	219.024	-0.095	-0.152
-184.100	-5.080	0.349	-0.241
-183.085	-66.698	-0.518	0.206
-182.071	292.767	-0.097	0.178
-181.056	10.147	0.236	-0.180
-180.042	-141.168	0.296	-0.030
-179.027	72.308	-0.132	0.138
-178.012	-62.007	-0.236	0.099
-176.998	251.592	-0.280	0.478
-175.983	157.773	-0.036	-0.050
-174.969	-7.687	-0.394	-0.267
-173.954	-158.764	-0.288	-0.017
-172.939	89.597	0.172	-0.192
-171.925	-50.935	0.182	0.086
-170.910	434.170	0.020	0.043
-169.896	24.680	0.092	-0.077
-168.881	190.881	0.063	-0.095
-167.866	-10.508	-0.171	0.114
-166.852	-89.092	0.187	0.055
-165.837	722.391	-0.142	0.379
-164.823	800.000	0.007	0.025
-163.808	-53.015	0.109	0.050
-162.793	-53.634	0.051	0.024
-161.779	-175.947	-0.298	0.008
-160.764	800.000	0.040	0.150
-159.750	67.085	-0.170	-0.174
-158.735	35.089	-0.148	-0.130
-157.720	-200.000	0.030	-0.157
-156.706	-200.000	0.031	-0.159
-155.691	173.189	-0.203	0.293
-154.677	137.531	0.230	-0.302
-153.662	-34.515	0.311	0.171
-152.647	287.829	0.036	0.066
-151.633	-200.000	-0.013	0.100
-150.618	-43.484	0.108	0.055
-149.604	-61.184	0.166	0.070
-148.589	-200.000	0.016	-0.098
-147.574	82.256	0.190	0.207
-146.560	-129.874	-0.173	0.024
-145.545	-95.479	0.032	0.009
-144.531	-200.000	0.007	-0.278
-143.516	-104.564	-0.210	-0.049
-142.502	-12.766	0.239	-0.156
-141.487	-200.000	-0.012	-0.168
-140.472	324.268	0.079	0.152
-139.458	-119.720	0.270	-0.047
-138.443	408.776	0.063	-0.133
-137.429	160.374	0.086	0.121
-136.414	-16.266	-0.070	0.044
-135.399	-59.081	0.061	0.026
-134.385	-200.000	0.003	-0.025
-133.370	-30.503	-0.264	-0.150
-132.356	283.317	-0.160	0.287
-131.341	-145.758	-0.162	-0.014
-130.326	-1.723	0.220	0.155
-129.312	-16.694	0.239	-0.152
-128.297	677.070	-0.125	0.324
-127.283	92.356	0.136	-0.154
-126.268	-56.924	0.374	0.166
-125.253	-152.125	0.354	-0.026
-124.239	97.233	0.139	-0.159
-123.224	-82.656	0.168	-0.054
-122.210	445.640	0.113	-0.249
-121.195	-17.761	0.295	0.185
