DTS Sentinel unit serial number:	SN413079Multiplexer serial number:	ORYXHardware model number:	OX4-SRSoftware version number:	ORYX F/W v4.00 Oryx Data Collector v3.7.2.0data status	okinstallation	princeton_trtdifferential loss correction	single-endedforward channel	channel 3reverse channel	N/Adate	2019/09/12time	14:58:11forward acquisition time	60.00reverse acquisition time	0.00gamma	496.2192k internal	0.2292k external	0.2292temperature offset calibration	1.0054default loss term (dB/km)	0.3790temperature slope calibration	1.0000multiplexer offset coefficient	1.0000multiplexer slope coefficient	1.0000fibre end	0.00T internal ref (°C)	40.37T ext. ref 1 (°C)	2.34T ext. ref 2 (°C)	37.39length (m)	temperature (°C)	Stokes	anti-Stokes-747.200	-25.135	-0.178	-0.108
-746.185	-126.331	0.091	-0.014
-745.171	-200.000	-0.000	0.196
-744.156	-87.476	0.297	0.092
-743.142	186.587	0.154	-0.235
-742.127	2.001	-0.108	0.079
-741.112	-41.548	-0.079	0.041
-740.098	-200.000	-0.041	-0.279
-739.083	-64.141	0.066	0.027
-738.069	-200.000	0.011	-0.344
-737.054	37.673	-0.181	0.164
-736.039	-118.374	-0.260	-0.047
-735.025	800.000	-0.092	-0.346
-734.010	-138.442	-0.258	-0.029
-732.996	390.141	-0.154	-0.327
-731.981	619.714	-0.103	-0.265
-730.966	-200.000	0.048	0.246
-729.952	800.000	0.036	-0.159
-728.937	-81.734	-0.249	-0.083
-727.923	121.962	0.112	0.142
-726.908	-200.000	-0.013	-0.171
-725.894	-163.725	0.104	0.005
-724.879	-115.542	-0.119	-0.023
-723.864	215.375	-0.068	-0.111
-722.850	-62.257	-0.078	-0.033
-721.835	800.000	0.046	0.186
-720.821	215.360	0.096	-0.156
-719.806	-48.922	0.105	0.052
-718.791	22.144	-0.205	-0.171
-717.777	-35.765	-0.178	-0.099
-716.762	133.523	0.150	-0.198
-715.748	564.741	0.052	-0.130
-714.733	-200.000	0.034	-0.166
-713.718	33.975	0.089	0.079
-712.704	69.883	-0.170	0.179
-711.689	-200.000	-0.035	-0.275
-710.675	60.782	0.158	0.160
-709.660	88.879	0.077	-0.088
-708.645	186.381	-0.085	-0.129
-707.631	-68.691	0.308	0.122
-706.616	-81.173	-0.336	-0.113
-705.602	-8.645	-0.199	0.137
-704.587	-39.636	-0.145	-0.078
-703.572	-200.000	0.056	-0.266
-702.558	144.129	-0.172	-0.235
-701.543	800.000	0.073	-0.305
-700.529	161.791	-0.101	0.144
-699.514	128.826	0.093	0.121
-698.499	9.927	0.051	-0.039
-697.485	-200.000	0.051	0.294
-696.470	563.288	-0.081	0.201
-695.456	-89.594	-0.354	-0.106
-694.441	262.524	-0.205	0.364
-693.426	-196.629	-0.342	0.002
-692.412	81.484	0.229	-0.252
-691.397	800.000	0.052	0.184
-690.383	800.000	0.042	-0.172
-689.368	10.941	-0.182	-0.142
-688.354	800.000	-0.017	0.074
-687.339	6.007	0.122	-0.092
-686.324	700.057	0.067	-0.181
-685.310	-200.000	-0.014	0.246
-684.295	-116.122	0.329	0.062
-683.281	9.119	0.031	-0.024
-682.266	8.206	0.168	-0.129
-681.251	-200.000	-0.044	0.218
-680.237	475.666	-0.184	-0.425
-679.222	140.107	0.104	-0.140
-678.208	103.885	-0.096	-0.116
-677.193	39.839	-0.336	0.308
-676.178	-60.843	-0.198	0.085
-675.164	245.958	-0.280	-0.481
-674.149	800.000	-0.033	-0.108
-673.135	800.000	-0.069	0.243
-672.120	81.745	-0.189	0.208
-671.105	800.000	-0.091	-0.384
-670.091	15.827	-0.126	-0.101
-669.076	-33.410	0.070	0.040
-668.062	-6.358	0.207	0.144
-667.047	-23.958	0.156	-0.095
-666.032	-92.797	0.218	0.062
-665.018	-101.279	0.159	-0.040
-664.003	-149.958	-0.487	0.039
-662.989	-52.977	-0.128	-0.060
-661.974	25.748	0.098	-0.083
-660.959	-99.711	0.060	0.015
-659.945	800.000	-0.068	-0.271
-658.930	-157.653	-0.099	0.006
-657.916	673.454	0.036	-0.096
-656.901	-54.704	-0.226	-0.104
-655.886	-200.000	0.006	-0.239
-654.872	543.727	0.151	-0.367
-653.857	149.585	0.071	-0.098
-652.843	643.702	0.071	0.186
-651.828	23.652	0.064	-0.054
-650.814	-82.214	-0.244	-0.081
-649.799	-200.000	0.049	0.399
-648.784	129.149	-0.128	0.167
-647.770	-200.000	-0.070	-0.317
-646.755	-106.017	0.163	0.037
-645.741	800.000	-0.025	0.076
-644.726	-48.295	0.406	0.200
-643.711	800.000	-0.094	-0.310
-642.697	-48.726	-0.090	-0.044
-641.682	800.000	-0.052	-0.184
-640.668	-200.000	0.005	0.265
-639.653	-71.179	-0.161	-0.061
-638.638	-57.315	-0.148	0.067
-637.624	-89.232	0.304	0.091
-636.609	349.763	-0.164	-0.330
-635.595	-189.907	-0.434	0.005
-634.580	-27.998	0.248	-0.146
-633.565	-200.000	0.064	0.388
-632.551	-98.491	0.261	-0.068
-631.536	243.653	0.072	0.123
-630.522	71.863	0.177	0.187
-629.507	470.860	-0.054	0.124
-628.492	586.388	0.110	-0.275
-627.478	125.636	-0.063	0.081
-626.463	363.236	-0.102	0.209
-625.449	800.000	-0.040	-0.146
-624.434	-44.214	0.257	0.131
-623.419	53.381	0.202	-0.197
-622.405	-94.782	-0.166	0.046
-621.390	278.340	-0.123	-0.224
-620.376	217.494	-0.038	-0.062
-619.361	90.536	-0.157	-0.179
-618.346	-200.000	-0.045	0.256
-617.332	59.068	0.222	-0.222
-616.317	-200.000	-0.346	-0.002
-615.303	800.000	0.043	0.127
-614.288	-200.000	-0.037	0.279
-613.273	245.223	-0.096	0.165
-612.259	359.079	-0.098	0.199
-611.244	-22.059	0.193	-0.119
-610.230	800.000	-0.017	0.058
-609.215	174.232	-0.060	0.089
-608.201	800.000	-0.065	0.243
-607.186	13.222	0.349	-0.275
-606.171	-87.130	0.341	0.106
-605.157	-134.010	-0.298	0.038
-604.142	143.407	0.056	0.075
-603.128	629.403	0.050	-0.129
-602.113	286.137	-0.134	-0.245
-601.098	167.959	0.122	-0.176
-600.084	-7.513	0.205	0.141
-599.069	800.000	-0.071	0.205
-598.055	-200.000	0.037	0.389
-597.040	27.353	-0.234	-0.200
-596.025	-45.532	0.222	-0.112
-595.011	-48.515	0.185	0.091
-593.996	73.996	-0.333	0.355
-592.982	-200.000	0.000	-0.125
-591.967	-86.261	-0.088	-0.027
-590.952	103.611	-0.163	-0.195
-589.938	-54.588	-0.254	0.117
-588.923	396.166	0.111	-0.236
-587.909	-200.000	0.027	0.370
-586.894	374.724	-0.062	-0.129
-585.879	-118.219	-0.130	0.024
-584.865	20.545	-0.224	0.184
-583.850	-200.000	0.031	0.161
-582.836	-167.218	-0.289	-0.012
-581.821	61.452	-0.236	-0.239
-580.806	-200.000	0.094	0.558
-579.792	-92.929	0.430	-0.122
-578.777	-135.302	0.193	-0.023
-577.763	362.899	-0.009	-0.019
-576.748	418.326	0.091	-0.198
-575.733	527.437	0.142	-0.339
-574.719	-112.542	-0.119	-0.024
-573.704	800.000	-0.030	-0.128
-572.690	104.539	-0.207	0.248
-571.675	-70.120	0.415	-0.161
-570.661	-44.432	0.256	-0.130
-569.646	-200.000	-0.226	-0.001
-568.631	-51.073	0.162	-0.077
-567.617	-75.662	0.230	0.083
-566.602	21.006	0.115	0.094
-565.588	-65.896	-0.264	0.107
-564.573	-42.959	-0.217	-0.112
-563.558	349.936	-0.050	-0.100
-562.544	-109.475	0.149	-0.032
-561.529	302.867	-0.075	-0.142
-560.515	51.618	0.318	0.307
-559.500	-85.803	0.133	0.042
-558.485	-74.179	-0.449	-0.165
-557.471	-58.620	-0.071	-0.031
-556.456	-98.290	-0.274	-0.072
-555.442	800.000	-0.065	-0.263
-554.427	-200.000	-0.026	0.234
-553.412	-62.456	-0.205	0.087
-552.398	195.660	0.060	0.093
-551.383	11.066	0.154	-0.119
-550.369	75.717	-0.217	0.233
-549.354	-137.696	0.364	-0.042
-548.339	-200.000	0.027	0.284
-547.325	-69.597	0.351	0.137
-546.310	168.157	-0.024	0.034
-545.296	-200.000	-0.014	-0.074
-544.281	28.875	0.094	-0.081
-543.266	800.000	0.062	0.186
-542.252	-200.000	-0.003	-0.055
-541.237	-48.238	0.133	-0.065
-540.223	88.530	-0.120	-0.135
-539.208	347.997	0.049	0.098
-538.193	-200.000	-0.003	-0.108
-537.179	216.445	0.057	-0.093
-536.164	189.965	-0.108	-0.164
-535.150	1.145	0.235	0.172
-534.135	99.991	0.146	0.172
-533.121	175.618	0.046	-0.068
-532.106	-60.690	-0.232	-0.100
-531.091	800.000	-0.051	-0.151
-530.077	31.750	0.069	0.060
-529.062	-145.712	0.149	-0.014
-528.048	53.047	0.221	0.215
-527.033	12.890	-0.217	0.170
-526.018	367.712	-0.085	0.174
-525.004	800.000	-0.016	-0.056
-523.989	105.611	-0.038	-0.045
-522.975	9.764	-0.442	-0.340
-521.960	632.136	0.068	0.176
-520.945	354.041	-0.085	-0.172
-519.931	312.153	0.027	-0.052
-518.916	16.402	-0.144	0.115
-517.902	-122.982	0.138	-0.023
-516.887	96.472	-0.156	-0.181
-515.872	67.387	0.212	0.220
-514.858	40.361	0.082	-0.075
-513.843	164.054	-0.190	-0.271
-512.829	82.478	0.108	-0.119
-511.814	-200.000	-0.036	-0.352
-510.799	-60.908	0.250	-0.107
-509.785	800.000	-0.119	-0.449
-508.770	-42.110	0.201	0.104
-507.756	40.775	0.111	-0.102
-506.741	-85.211	-0.103	0.033
-505.726	-18.111	0.349	-0.221
-504.712	335.126	-0.174	-0.343
-503.697	-200.000	0.032	-0.178
-502.683	-36.235	-0.234	-0.128
-501.668	-43.363	0.481	-0.247
-500.653	-200.000	0.049	-0.249
-499.639	-200.000	-0.027	0.199
-498.624	-110.756	0.112	-0.023
-497.610	-182.013	0.136	0.003
-496.595	-91.142	0.084	0.024
-495.581	-200.000	-0.004	-0.090
-494.566	-42.953	-0.125	0.064
-493.551	-200.000	0.000	-0.228
-492.537	60.081	-0.181	-0.181
-491.522	800.000	-0.078	0.257
-490.508	-106.970	-0.287	-0.064
-489.493	89.570	-0.107	0.121
-488.478	151.863	0.130	0.180
-487.464	800.000	-0.053	0.179
-486.449	-55.089	-0.234	-0.107
-485.435	-200.000	-0.027	-0.242
-484.420	-188.494	-0.349	0.004
-483.405	-100.744	0.365	0.091
-482.391	-68.423	-0.069	0.027
-481.376	-15.189	0.323	0.210
-480.362	83.505	0.096	0.106
-479.347	9.969	-0.274	-0.211
-478.332	-163.147	-0.273	0.013
-477.318	417.763	0.066	-0.144
-476.303	-200.000	-0.018	0.201
-475.289	-200.000	0.021	0.124
-474.274	-200.000	0.071	0.507
-473.259	-43.919	-0.400	-0.204
-472.245	416.765	-0.184	-0.397
-471.230	-40.017	0.188	0.099
-470.216	-95.082	0.202	0.055
-469.201	-57.607	0.149	0.066
-468.186	-191.153	-0.380	0.004
-467.172	396.119	0.015	-0.032
-466.157	616.135	0.121	-0.306
-465.143	-164.091	0.087	-0.004
-464.128	-200.000	0.052	0.288
-463.113	240.260	0.026	0.044
-462.099	-100.074	0.072	0.018
-461.084	-200.000	0.019	0.197
-460.070	-200.000	0.031	-0.175
-459.055	-200.000	-0.011	0.293
-458.040	800.000	-0.102	0.353
-457.026	48.236	-0.164	0.156
-456.011	251.659	-0.185	0.318
-454.997	800.000	-0.056	0.242
-453.982	-200.000	-0.074	-0.402
-452.968	573.665	-0.081	0.200
-451.953	-189.168	0.145	0.002
-450.938	254.447	0.103	-0.179
-449.924	163.289	0.042	-0.060
-448.909	-200.000	0.024	-0.167
-447.895	-1.233	-0.141	0.101
-446.880	30.466	-0.263	0.227
-445.865	-153.858	-0.194	0.013
-444.851	11.363	-0.103	0.080
-443.836	-200.000	-0.008	0.112
-442.822	152.730	0.101	0.139
-441.807	-181.881	0.194	-0.004
-440.792	117.709	-0.150	0.187
-439.778	-189.261	0.189	-0.002
-438.763	205.539	-0.120	-0.189
-437.749	800.000	-0.034	-0.116
-436.734	-200.000	0.010	-0.247
-435.719	-183.535	-0.164	-0.003
-434.705	-200.000	0.021	0.224
-433.690	-90.717	0.224	0.066
-432.676	-41.024	0.176	-0.092
-431.661	800.000	0.073	-0.215
-430.646	271.292	0.228	0.407
-429.632	11.822	0.080	-0.062
-428.617	-200.000	0.052	-0.236
-427.603	800.000	-0.063	-0.178
-426.588	24.478	-0.066	-0.055
-425.573	-150.590	-0.248	-0.019
-424.559	209.996	0.004	0.007
-423.544	260.012	0.210	-0.366
-422.530	0.894	-0.283	0.205
-421.515	-6.794	-0.249	0.171
-420.500	-115.101	0.366	0.070
-419.486	109.368	0.191	0.232
-418.471	223.998	0.182	0.297
-417.457	-55.575	0.258	-0.117
-416.442	-200.000	-0.012	-0.064
-415.428	54.740	0.266	-0.259
-414.413	-113.316	0.162	0.032
-413.398	590.661	-0.058	0.144
-412.384	2.522	0.155	-0.114
-411.369	-164.443	-0.244	0.011
-410.355	1.878	0.106	0.078
-409.340	11.313	-0.187	0.145
-408.325	117.645	0.123	-0.153
-407.311	-90.431	0.272	-0.080
-406.296	-200.000	0.023	0.234
-405.282	-64.480	-0.260	-0.107
-404.267	-148.796	0.126	-0.010
-403.252	663.589	0.107	0.279
-402.238	-200.000	-0.030	-0.192
-401.223	346.103	-0.146	-0.290
-400.209	104.563	0.214	0.255
-399.194	-200.000	-0.030	0.269
-398.179	125.844	-0.211	-0.270
-397.165	62.500	0.319	-0.322
-396.150	-92.466	-0.152	0.043
-395.136	-147.220	0.202	-0.017
-394.121	-174.063	0.219	0.006
-393.106	-116.498	-0.077	-0.014
-392.092	-200.000	-0.011	0.164
-391.077	341.431	0.109	-0.215
-390.063	-69.059	-0.241	0.094
-389.048	146.653	-0.247	0.335
-388.033	-70.046	0.332	0.127
-387.019	-200.000	-0.115	-0.605
-386.004	-200.000	-0.003	0.092
-384.990	306.390	-0.098	-0.184
-383.975	180.948	0.146	-0.217
-382.960	-191.512	-0.267	-0.003
-381.946	487.843	-0.092	-0.212
-380.931	-101.361	0.119	-0.029
-379.917	288.020	-0.121	0.220
-378.902	-82.968	0.240	-0.078
-377.888	127.922	0.195	-0.250
-376.873	-200.000	0.022	0.141
-375.858	800.000	0.072	0.291
-374.844	579.920	-0.151	-0.373
-373.829	141.358	0.127	-0.170
-372.815	-138.151	-0.182	0.020
-371.800	250.572	-0.085	0.145
-370.785	-29.936	-0.130	-0.074
-369.771	-91.370	-0.261	0.075
-368.756	-110.689	0.387	0.081
-367.742	-65.916	0.449	0.181
-366.727	223.820	-0.063	0.102
-365.712	800.000	0.033	-0.115
-364.698	575.610	0.037	0.092
-363.683	232.802	0.076	-0.126
-362.669	232.816	-0.084	-0.139
-361.654	800.000	-0.080	-0.272
-360.639	800.000	0.084	-0.243
-359.625	51.431	-0.151	-0.145
-358.610	800.000	0.074	0.207
-357.596	-143.362	-0.338	-0.033
-356.581	275.347	0.053	0.094
-355.566	-189.852	0.138	0.002
-354.552	209.434	0.181	-0.285
-353.537	26.911	0.195	-0.165
-352.523	466.947	0.240	-0.541
-351.508	214.339	0.018	-0.029
-350.493	-141.043	-0.347	0.036
-349.479	73.475	-0.191	-0.201
-348.464	-200.000	-0.003	-0.257
-347.450	131.137	0.414	0.536
-346.435	-172.671	-0.147	-0.005
-345.420	-0.811	-0.069	-0.049
-344.406	318.041	0.063	0.121
-343.391	-74.033	-0.173	-0.063
-342.377	-65.705	0.092	0.037
-341.362	-200.000	0.038	-0.420
-340.348	-102.371	-0.180	-0.043
-339.333	-80.511	-0.266	0.089
-338.318	-23.828	-0.111	0.067
-337.304	265.139	0.023	-0.040
-336.289	12.678	0.166	0.129
-335.275	-67.703	-0.412	0.163
-334.260	17.167	-0.140	-0.112
-333.245	-108.154	-0.463	-0.101
-332.231	-17.471	-0.137	0.087
-331.216	82.465	-0.116	-0.127
-330.202	105.325	0.174	0.207
-329.187	-38.896	-0.252	0.134
-328.172	85.232	0.304	0.336
-327.158	800.000	0.058	-0.231
-326.143	-51.811	-0.128	-0.060
-325.129	246.356	-0.055	-0.094
-324.114	-117.082	0.429	-0.079
-323.099	113.999	-0.204	0.249
-322.085	482.281	0.130	0.298
-321.070	-14.364	-0.151	-0.098
-320.056	-200.000	0.028	-0.201
-319.041	-81.752	-0.142	0.047
-318.026	-90.878	0.245	-0.071
-317.012	800.000	-0.095	-0.348
-315.997	-103.333	-0.270	0.064
-314.983	244.052	0.126	0.213
-313.968	523.605	0.077	-0.182
-312.953	115.011	-0.086	-0.106
-311.939	79.093	0.089	-0.096
-310.924	98.521	0.195	-0.227
-309.910	-39.237	-0.047	0.025
-308.895	-200.000	-0.029	0.174
-307.880	740.786	0.095	0.258
-306.866	4.689	-0.325	0.240
-305.851	-200.000	-0.006	-0.137
-304.837	-167.530	-0.219	-0.009
-303.822	-200.000	-0.005	0.248
-302.807	32.903	0.111	0.097
-301.793	-53.935	0.331	0.152
-300.778	-20.753	0.124	-0.077
-299.764	800.000	-0.091	-0.306
-298.749	-200.000	-0.036	0.362
-297.735	72.943	0.263	-0.276
-296.720	-48.066	0.292	0.142
-295.705	-200.000	-0.005	-0.076
-294.691	-200.000	-0.039	0.303
-293.676	282.117	-0.051	-0.091
-292.662	-24.894	0.525	0.313
-291.647	-102.801	0.476	-0.114
-290.632	249.822	0.006	0.010
-289.618	64.483	0.248	0.252
-288.603	545.384	0.067	-0.162
-287.589	67.171	-0.205	0.210
-286.574	-200.000	-0.010	0.381
-285.559	-66.433	0.081	0.032
-284.545	800.000	-0.051	-0.224
-283.530	196.404	0.069	-0.105
-282.516	617.279	0.214	-0.539
-281.501	-26.059	-0.145	-0.086
-280.486	-71.979	-0.145	-0.054
-279.472	-66.498	0.165	0.066
-278.457	-127.190	-0.148	-0.022
-277.443	-75.230	-0.113	-0.041
-276.428	-200.000	-0.015	-0.205
-275.413	-47.287	-0.089	-0.043
-274.399	-130.035	-0.093	-0.013
-273.384	97.181	0.131	0.151
-272.370	271.247	-0.028	0.049
-271.355	-142.207	-0.140	-0.014
-270.340	800.000	-0.076	0.218
-269.326	800.000	0.088	-0.249
-268.311	800.000	-0.044	-0.152
-267.297	-16.493	-0.383	0.244
-266.282	211.853	0.129	0.204
-265.267	40.644	-0.152	-0.138
-264.253	-200.000	0.007	-0.088
-263.238	331.613	0.175	-0.339
-262.224	-200.000	-0.011	-0.223
-261.209	273.083	0.090	-0.160
-260.195	14.521	-0.053	-0.042
-259.180	-154.894	0.129	0.009
-258.165	-200.000	0.000	-0.081
-257.151	175.958	-0.117	0.171
-256.136	149.366	0.086	0.117
-255.122	-111.118	0.348	-0.072
-254.107	601.620	0.093	0.233
-253.092	50.434	-0.309	-0.294
-252.078	-89.891	-0.145	-0.043
-251.063	83.813	0.162	-0.178
-250.049	269.118	-0.098	-0.173
-249.034	800.000	-0.057	0.184
-248.019	-167.735	-0.189	0.008
-247.005	167.855	0.093	0.132
-245.990	341.302	-0.090	0.176
-244.976	337.846	-0.151	0.295
-243.961	-120.624	0.103	-0.018
-242.946	368.715	-0.076	0.154
-241.932	771.630	0.029	0.079
-240.917	-56.952	-0.369	-0.163
-239.903	47.394	0.139	-0.130
-238.888	-15.807	0.275	-0.176
-237.873	400.609	0.108	-0.228
-236.859	277.296	0.011	0.019
-235.844	-130.894	-0.288	0.039
-234.830	-200.000	-0.012	0.181
-233.815	-54.916	0.366	-0.165
-232.800	-161.354	-0.179	0.009
-231.786	54.259	0.134	-0.129
-230.771	58.229	0.066	-0.064
-229.757	239.792	0.159	0.265
-228.742	-101.356	-0.029	-0.007
-227.727	128.411	0.221	0.282
-226.713	-2.646	0.185	0.130
-225.698	-108.102	-0.298	-0.065
-224.684	87.248	-0.087	-0.097
-223.669	92.984	0.166	-0.188
-222.655	-200.000	-0.019	-0.192
-221.640	-184.659	0.374	0.006
-220.625	-90.356	-0.180	0.052
-219.611	42.547	0.164	0.149
-218.596	800.000	0.042	0.145
-217.582	797.183	-0.023	-0.063
-216.567	121.044	-0.269	0.336
-215.552	63.237	-0.127	0.128
-214.538	-200.000	-0.067	0.350
-213.523	-20.032	-0.132	-0.082
-212.509	431.441	0.008	-0.017
-211.494	262.804	-0.235	-0.409
-210.479	-91.244	-0.199	-0.057
-209.465	39.009	0.158	0.141
-208.450	-200.000	0.028	0.345
-207.436	-200.000	-0.010	0.171
-206.421	90.124	0.208	0.234
-205.406	187.438	-0.228	0.341
-204.392	315.935	0.062	0.117
-203.377	722.677	0.175	0.468
-202.363	-73.224	-0.346	0.127
-201.348	-76.543	-0.097	0.034
-200.333	-200.000	0.026	0.182
-199.319	-81.022	0.227	0.075
-198.304	800.000	-0.123	-0.378
-197.290	97.127	-0.127	-0.146
-196.275	-42.968	-0.171	0.087
-195.260	-119.679	0.211	0.037
-194.246	-84.749	0.224	0.071
-193.231	-200.000	-0.553	-0.000
-192.217	-101.578	-0.392	-0.095
-191.202	130.861	0.089	-0.115
-190.187	-77.428	-0.072	0.025
-189.173	-40.228	0.204	-0.106
-188.158	-45.874	-0.207	-0.102
-187.144	138.478	-0.066	0.086
-186.129	-12.533	0.227	0.149
-185.114	468.912	0.060	-0.134
-184.100	800.000	-0.087	0.300
-183.085	-13.440	-0.337	-0.218
-182.071	-200.000	-0.011	0.233
-181.056	281.140	0.083	0.148
-180.042	-200.000	0.013	0.288
-179.027	10.001	-0.205	0.156
-178.012	304.231	-0.148	0.275
-176.998	39.660	-0.290	-0.260
-175.983	-104.643	-0.124	0.029
-174.969	168.805	-0.119	-0.169
-173.954	-69.765	-0.079	-0.030
-172.939	92.886	0.120	-0.136
-171.925	613.044	-0.046	-0.115
-170.910	-200.000	0.047	0.232
-169.896	62.669	-0.142	0.142
-168.881	116.837	-0.101	0.125
-167.866	-152.198	0.108	0.008
-166.852	99.490	0.174	0.202
-165.837	800.000	0.062	-0.233
-164.823	184.031	0.148	-0.219
-163.808	-78.624	0.241	-0.082
-162.793	-3.511	-0.312	-0.217
-161.779	326.564	0.084	0.162
-160.764	800.000	0.051	-0.186
-159.750	800.000	-0.034	-0.148
-158.735	-53.525	0.148	-0.068
-157.720	124.243	0.223	-0.280
-156.706	-67.372	-0.100	-0.039
-155.691	-180.383	-0.265	-0.006
-154.677	52.777	0.090	0.086
-153.662	-84.082	0.044	-0.014
-152.647	76.883	0.049	0.052
-151.633	800.000	0.056	-0.167
-150.618	-73.912	0.404	-0.147
-149.604	-83.918	0.044	0.014
-148.589	-157.183	-0.145	-0.009
-147.574	-138.677	-0.181	-0.020
-146.560	-31.983	0.339	0.190
-145.545	162.245	0.251	-0.352
-144.531	-200.000	-0.012	0.124
-143.516	-200.000	-0.014	-0.091
-142.502	220.880	-0.105	0.169
-141.487	-200.000	0.016	0.164
-140.472	-100.688	0.149	-0.037
-139.458	-200.000	-0.051	-0.271
-138.443	220.575	0.106	-0.170
-137.429	-62.275	0.149	-0.062
-136.414	-117.707	-0.044	-0.008
-135.399	800.000	-0.054	0.152
-134.385	412.878	0.076	-0.161
-133.370	-200.000	0.026	0.229
-132.356	6.289	0.064	0.047
-131.341	-113.112	0.249	-0.049
-130.326	25.877	-0.346	-0.288
-129.312	80.274	0.130	0.140
-128.297	-35.666	-0.321	0.174
-127.283	-19.223	-0.305	-0.189
-126.268	-200.000	-0.036	0.317
-125.253	-167.906	0.107	-0.004
-124.239	27.561	-0.059	0.050
-123.224	800.000	0.041	0.172
-122.210	-200.000	-0.004	0.197
-121.195	252.965	0.269	0.459
