DTS Sentinel unit serial number:	SN413079Multiplexer serial number:	ORYXHardware model number:	OX4-SRSoftware version number:	ORYX F/W v4.00 Oryx Data Collector v3.7.2.0data status	okinstallation	princeton_trtdifferential loss correction	single-endedforward channel	channel 3reverse channel	N/Adate	2019/09/14time	02:24:34forward acquisition time	60.00reverse acquisition time	0.00gamma	496.2192k internal	0.2339k external	0.2339temperature offset calibration	1.0052default loss term (dB/km)	0.3790temperature slope calibration	1.0000multiplexer offset coefficient	1.0000multiplexer slope coefficient	1.0000fibre end	0.00T internal ref (°C)	26.50T ext. ref 1 (°C)	3.21T ext. ref 2 (°C)	21.52length (m)	temperature (°C)	Stokes	anti-Stokes-747.200	-48.515	0.138	0.067
-746.185	-134.858	0.184	0.022
-745.171	-200.000	-0.014	0.149
-744.156	-121.432	-0.147	-0.024
-743.142	-123.175	-0.044	0.007
-742.127	-24.225	-0.321	0.192
-741.112	800.000	-0.023	-0.082
-740.098	-132.973	-0.229	-0.029
-739.083	356.312	0.118	-0.236
-738.069	-200.000	0.019	0.484
-737.054	-200.000	-0.106	0.486
-736.039	-162.443	-0.313	0.016
-735.025	-75.101	0.134	-0.048
-734.010	117.299	-0.307	-0.379
-732.996	106.600	0.105	0.125
-731.981	800.000	-0.015	0.063
-730.966	800.000	-0.048	-0.134
-729.952	265.251	-0.173	-0.302
-728.937	800.000	-0.086	0.293
-727.923	-65.483	0.482	0.194
-726.908	456.971	-0.094	-0.210
-725.894	213.962	-0.065	-0.103
-724.879	-10.475	-0.078	-0.052
-723.864	350.664	-0.084	0.167
-722.850	-162.519	0.210	-0.010
-721.835	800.000	-0.021	0.067
-720.821	800.000	0.058	-0.180
-719.806	-200.000	-0.008	-0.195
-718.791	800.000	0.036	-0.107
-717.777	165.437	0.054	0.076
-716.762	575.066	-0.071	-0.173
-715.748	-200.000	-0.094	-0.726
-714.733	74.231	-0.212	-0.223
-713.718	-200.000	0.014	0.068
-712.704	-200.000	-0.003	-0.025
-711.689	84.648	0.076	0.083
-710.675	800.000	-0.028	0.105
-709.660	-200.000	-0.014	-0.099
-708.645	361.555	-0.064	-0.128
-707.631	-170.800	-0.228	0.008
-706.616	-71.662	-0.188	0.070
-705.602	90.697	-0.188	-0.211
-704.587	264.208	-0.106	-0.185
-703.572	-90.501	0.346	-0.100
-702.558	-132.028	-0.062	0.008
-701.543	31.338	-0.062	-0.053
-700.529	-57.374	-0.390	-0.171
-699.514	-200.000	-0.007	-0.212
-698.499	4.009	-0.069	0.050
-697.485	-146.099	0.109	0.010
-696.470	-133.405	0.205	0.026
-695.456	121.712	0.160	-0.200
-694.441	-36.625	0.112	0.060
-693.426	-58.858	0.210	-0.091
-692.412	-200.000	-0.019	0.149
-691.397	-93.379	-0.260	0.072
-690.383	393.196	-0.078	-0.163
-689.368	-1.379	-0.323	-0.228
-688.354	110.300	-0.265	-0.319
-687.339	-200.000	-0.006	-0.203
-686.324	-130.176	0.072	-0.010
-685.310	503.537	-0.006	-0.014
-684.295	-58.734	-0.100	0.043
-683.281	-200.000	0.000	-0.043
-682.266	-200.000	0.021	-0.291
-681.251	263.030	0.210	-0.366
-680.237	-14.378	-0.306	0.197
-679.222	93.894	-0.102	-0.116
-678.208	-56.102	-0.209	-0.093
-677.193	-200.000	-0.057	0.341
-676.178	-102.504	0.050	-0.012
-675.164	-101.377	-0.072	-0.018
-674.149	242.828	0.139	-0.233
-673.135	386.792	-0.148	0.305
-672.120	-200.000	0.069	0.313
-671.105	-118.319	-0.345	-0.061
-670.091	-108.139	0.168	0.036
-669.076	800.000	-0.099	-0.396
-668.062	246.429	-0.244	-0.412
-667.047	52.368	-0.099	0.094
-666.032	-94.877	-0.351	0.095
-665.018	-59.018	-0.175	-0.076
-664.003	153.549	-0.189	0.258
-662.989	480.637	0.057	-0.130
-661.974	119.284	-0.351	-0.435
-660.959	72.503	-0.124	0.129
-659.945	62.375	-0.211	-0.211
-658.930	270.577	0.081	0.142
-657.916	371.925	0.055	-0.111
-656.901	-89.035	0.093	-0.028
-655.886	-170.628	0.219	-0.008
-654.872	-200.000	0.014	0.366
-653.857	-148.713	0.155	0.013
-652.843	184.650	0.058	0.086
-651.828	-139.417	-0.124	0.013
-650.814	-200.000	-0.028	-0.155
-649.799	47.555	-0.180	0.168
-648.784	-37.693	0.427	-0.227
-647.770	-102.004	-0.324	0.078
-646.755	-65.887	-0.159	0.064
-645.741	-15.671	-0.181	-0.116
-644.726	-157.267	0.054	-0.003
-643.711	151.079	-0.259	0.352
-642.697	214.996	-0.151	-0.239
-641.682	-90.528	-0.182	-0.053
-640.668	800.000	-0.018	-0.061
-639.653	-42.322	0.124	0.063
-638.638	377.274	0.194	-0.396
-637.624	-200.000	-0.007	-0.082
-636.609	102.194	-0.254	-0.297
-635.595	-200.000	0.012	-0.089
-634.580	192.413	0.135	-0.204
-633.565	800.000	-0.086	-0.242
-632.551	-122.124	-0.171	0.028
-631.536	297.006	-0.039	-0.072
-630.522	115.633	0.090	-0.110
-629.507	-137.700	-0.361	-0.041
-628.492	406.870	-0.144	0.304
-627.478	106.427	-0.060	-0.071
-626.463	299.169	0.101	0.185
-625.449	-200.000	-0.011	-0.088
-624.434	800.000	-0.062	0.211
-623.419	717.494	0.138	0.366
-622.405	748.404	-0.080	-0.216
-621.390	199.363	-0.101	0.155
-620.376	20.389	-0.018	0.015
-619.361	-49.354	0.095	0.045
-618.346	-20.158	-0.054	0.033
-617.332	-55.423	-0.027	0.012
-616.317	800.000	-0.028	-0.089
-615.303	-174.356	-0.284	-0.008
-614.288	-200.000	-0.014	-0.199
-613.273	67.303	0.017	-0.017
-612.259	-82.915	-0.296	-0.095
-611.244	669.175	0.053	0.138
-610.230	131.581	-0.194	-0.249
-609.215	-26.467	0.040	-0.024
-608.201	800.000	0.090	0.364
-607.186	191.801	0.107	-0.160
-606.171	39.227	-0.093	-0.083
-605.157	49.599	0.178	-0.168
-604.142	-200.000	-0.029	-0.281
-603.128	-132.547	-0.082	0.011
-602.113	20.293	-0.091	0.074
-601.098	800.000	0.093	-0.296
-600.084	-200.000	-0.026	0.282
-599.069	204.847	-0.116	-0.179
-598.055	483.195	0.040	-0.091
-597.040	62.282	0.258	0.257
-596.025	79.504	-0.224	0.239
-595.011	227.679	0.207	0.336
-593.996	-75.723	-0.234	-0.083
-592.982	-112.715	-0.198	-0.039
-591.967	-149.356	0.187	-0.015
-590.952	135.362	0.244	-0.316
-589.938	-49.952	-0.287	0.136
-588.923	-200.000	0.036	0.245
-587.909	7.108	0.244	-0.182
-586.894	467.825	-0.103	0.231
-585.879	-200.000	0.044	-0.213
-584.865	-200.000	-0.016	0.204
-583.850	-72.926	0.163	0.060
-582.836	423.315	0.067	-0.143
-581.821	-88.512	-0.100	0.030
-580.806	-2.195	-0.150	0.105
-579.792	-200.000	0.027	-0.198
-578.777	-103.615	-0.368	-0.086
-577.763	676.460	-0.065	-0.170
-576.748	225.858	0.229	0.370
-575.733	669.869	0.059	-0.152
-574.719	-56.741	0.245	0.108
-573.704	154.800	-0.021	-0.029
-572.690	305.980	0.105	0.195
-571.675	-21.123	0.081	-0.049
-570.661	153.806	-0.057	-0.078
-569.646	-45.813	0.044	0.022
-568.631	-200.000	-0.032	0.310
-567.617	-200.000	0.034	0.250
-566.602	800.000	-0.046	0.128
-565.588	20.404	-0.127	0.103
-564.573	-112.511	0.270	-0.054
-563.558	-2.133	0.224	0.156
-562.544	-15.222	-0.230	-0.147
-561.529	238.052	0.074	-0.123
-560.515	143.391	0.109	-0.145
-559.500	25.239	0.295	0.244
-558.485	-55.286	-0.046	-0.020
-557.471	55.276	-0.241	-0.232
-556.456	-41.214	0.264	-0.136
-555.442	-59.732	0.137	0.058
-554.427	252.046	0.136	0.231
-553.412	-200.000	0.052	-0.580
-552.398	199.235	-0.151	0.231
-551.383	180.584	-0.189	-0.276
-550.369	126.289	0.221	0.279
-549.354	-124.164	0.219	-0.034
-548.339	800.000	-0.040	0.171
-547.325	-39.861	0.154	-0.080
-546.310	-200.000	-0.086	-0.501
-545.296	-200.000	0.006	0.090
-544.281	-59.680	0.360	0.153
-543.266	264.326	0.099	-0.172
-542.252	460.197	-0.127	-0.282
-541.237	155.306	-0.289	0.395
-540.223	800.000	0.008	-0.032
-539.208	-42.627	0.159	-0.080
-538.193	-145.027	0.351	0.032
-537.179	-125.673	-0.123	-0.019
-536.164	-49.318	-0.199	-0.095
-535.150	87.985	-0.147	0.162
-534.135	16.392	0.189	-0.149
-533.121	-56.942	-0.288	0.127
-532.106	519.094	-0.086	-0.201
-531.091	-140.260	-0.388	-0.040
-530.077	800.000	-0.136	-0.491
-529.062	-43.809	0.348	0.174
-528.048	-200.000	0.049	-0.248
-527.033	-200.000	0.042	0.272
-526.018	-166.587	0.104	-0.004
-525.004	-16.014	-0.219	0.139
-523.989	12.298	0.191	-0.147
-522.975	27.155	-0.041	-0.034
-521.960	73.826	-0.130	-0.136
-520.945	-200.000	-0.048	-0.222
-519.931	647.133	-0.045	0.114
-518.916	-42.336	0.162	0.082
-517.902	800.000	-0.112	-0.339
-516.887	130.911	0.089	-0.114
-515.872	800.000	-0.040	-0.172
-514.858	-69.463	0.308	0.117
-513.843	304.156	0.071	0.130
-512.829	-10.670	0.230	-0.151
-511.814	393.051	-0.146	-0.301
-510.799	626.168	0.029	-0.073
-509.785	460.178	-0.113	0.251
-508.770	-50.849	0.145	-0.068
-507.756	800.000	0.096	0.312
-506.741	188.185	-0.084	0.125
-505.726	104.785	-0.055	0.065
-504.712	-200.000	-0.002	-0.205
-503.697	-82.364	-0.318	0.103
-502.683	340.285	0.193	0.375
-501.668	800.000	0.044	0.130
-500.653	800.000	0.112	-0.323
-499.639	185.239	-0.296	-0.436
-498.624	294.202	0.101	0.183
-497.610	-200.000	-0.032	0.461
-496.595	-200.000	-0.013	0.189
-495.581	-86.120	0.137	0.042
-494.566	-61.320	0.311	-0.130
-493.551	58.659	-0.173	-0.168
-492.537	-200.000	0.021	-0.097
-491.522	164.028	0.092	0.128
-490.508	581.949	-0.120	0.293
-489.493	123.772	0.213	-0.265
-488.478	-21.665	-0.186	-0.112
-487.464	-147.339	0.182	-0.015
-486.449	-41.573	-0.105	-0.054
-485.435	-15.491	-0.147	0.093
-484.420	415.019	0.071	0.150
-483.405	800.000	0.019	0.067
-482.391	800.000	-0.062	-0.226
-481.376	800.000	-0.041	0.143
-480.362	-27.468	0.176	0.102
-479.347	-85.887	-0.257	-0.079
-478.332	800.000	-0.114	0.373
-477.318	24.528	-0.201	-0.165
-476.303	246.075	-0.167	-0.279
-475.289	-126.215	-0.046	0.007
-474.274	241.067	-0.163	-0.270
-473.259	-200.000	-0.004	-0.273
-472.245	-70.284	0.059	0.022
-471.230	-117.880	0.118	0.021
-470.216	16.133	-0.128	0.100
-469.201	119.870	-0.177	0.218
-468.186	-73.577	-0.352	0.127
-467.172	800.000	0.032	0.102
-466.157	105.604	0.217	0.254
-465.143	60.781	-0.216	0.213
-464.128	-7.226	-0.162	-0.109
-463.113	180.541	-0.205	0.298
-462.099	-40.086	-0.113	-0.058
-461.084	-106.365	-0.136	-0.030
-460.070	-200.000	0.011	-0.104
-459.055	-46.497	0.047	0.023
-458.040	206.746	-0.152	-0.235
-457.026	800.000	-0.049	0.189
-456.011	-200.000	0.039	0.175
-454.997	800.000	-0.012	0.041
-453.982	-130.773	0.178	0.024
-452.968	135.782	0.165	0.213
-451.953	72.544	0.077	-0.080
-450.938	-200.000	-0.001	-0.025
-449.924	-143.983	-0.127	0.012
-448.909	38.738	0.099	-0.088
-447.895	-122.693	0.347	0.056
-446.880	72.752	-0.158	0.164
-445.865	-150.537	0.215	-0.016
-444.851	236.463	-0.099	-0.163
-443.836	-200.000	0.029	0.361
-442.822	-170.523	-0.280	-0.010
-441.807	46.829	-0.157	0.145
-440.792	-200.000	-0.043	-0.302
-439.778	-169.830	0.203	0.007
-438.763	39.478	-0.162	-0.144
-437.749	-200.000	0.036	-0.334
-436.734	163.560	0.145	-0.202
-435.719	325.602	0.166	-0.314
-434.705	-170.952	-0.163	-0.006
-433.690	146.697	0.165	0.219
-432.676	289.826	0.046	0.082
-431.661	-22.309	0.131	0.079
-430.646	-200.000	-0.046	0.400
-429.632	-170.770	0.179	-0.006
-428.617	103.592	-0.206	-0.240
-427.603	710.140	-0.054	0.142
-426.588	112.545	0.115	0.137
-425.573	157.968	-0.091	-0.124
-424.559	-39.659	-0.150	0.078
-423.544	-45.447	0.238	-0.117
-422.530	-200.000	0.015	0.257
-421.515	-75.045	-0.051	0.018
-420.500	-88.825	-0.039	-0.012
-419.486	-200.000	-0.099	-0.454
-418.471	154.445	0.047	-0.064
-417.457	214.786	0.076	0.120
-416.442	-84.346	-0.122	-0.038
-415.428	96.496	0.074	0.084
-414.413	768.781	0.109	-0.295
-413.398	-140.231	-0.154	0.016
-412.384	-200.000	-0.004	0.107
-411.369	-137.009	-0.060	0.007
-410.355	-36.070	-0.223	0.119
-409.340	198.818	-0.123	0.187
-408.325	800.000	-0.068	0.242
-407.311	37.260	0.256	-0.224
-406.296	293.542	0.154	-0.279
-405.282	82.791	0.223	-0.240
-404.267	-83.274	-0.135	-0.043
-403.252	-49.295	0.297	-0.140
-402.238	732.709	0.141	-0.373
-401.223	-84.207	0.191	-0.060
-400.209	-18.150	-0.210	-0.130
-399.194	141.095	-0.125	0.164
-398.179	24.009	-0.103	-0.084
-397.165	77.317	-0.240	-0.253
-396.150	36.688	-0.354	-0.309
-395.136	-200.000	-0.002	0.071
-394.121	52.678	-0.167	-0.158
-393.106	516.623	0.091	-0.211
-392.092	54.519	0.049	0.046
-391.077	-36.132	0.122	0.065
-390.063	-200.000	0.018	0.351
-389.048	84.227	-0.178	0.192
-388.033	-119.953	0.100	0.017
-387.019	464.599	-0.133	0.294
-386.004	-96.866	0.348	0.090
-384.990	197.071	-0.212	-0.319
-383.975	-65.433	0.093	0.037
-382.960	-34.323	-0.243	0.132
-381.946	800.000	-0.069	-0.247
-380.931	311.912	0.071	-0.132
-379.917	-200.000	0.013	0.118
-378.902	-82.401	0.222	-0.071
-377.888	388.643	0.105	-0.214
-376.873	-60.903	-0.283	0.118
-375.858	-98.319	0.290	-0.074
-374.844	436.617	0.026	-0.057
-373.829	-101.995	-0.208	0.050
-372.815	480.637	-0.069	-0.154
-371.800	24.247	0.155	0.126
-370.785	-119.240	0.151	-0.026
-369.771	196.466	-0.204	-0.307
-368.756	-200.000	0.003	0.077
-367.742	-200.000	0.002	0.273
-366.727	-200.000	0.116	-0.514
-365.712	88.139	0.083	0.091
-364.698	-20.727	-0.101	0.061
-363.683	-152.588	-0.155	0.011
-362.669	-200.000	0.006	0.179
-361.654	39.322	-0.103	0.091
-360.639	-104.608	0.307	0.070
-359.625	577.282	0.032	0.078
-358.610	-25.777	-0.270	-0.157
-357.596	-100.266	0.253	0.062
-356.581	169.044	-0.206	0.290
-355.566	-200.000	0.002	-0.246
-354.552	180.886	-0.070	-0.101
-353.537	165.151	0.075	0.105
-352.523	-66.258	-0.008	0.003
-351.508	535.339	0.171	-0.400
-350.493	41.578	-0.123	-0.110
-349.479	-169.165	0.198	0.007
-348.464	-200.000	0.094	-0.428
-347.450	-0.447	0.340	0.239
-346.435	-65.869	-0.248	0.098
-345.420	800.000	-0.088	0.273
-344.406	-143.767	0.103	-0.010
-343.391	46.211	0.115	0.105
-342.377	330.049	-0.238	0.452
-341.362	212.267	-0.128	0.199
-340.348	42.482	-0.040	0.036
-339.333	-200.000	-0.040	-0.239
-338.318	-97.876	0.121	-0.031
-337.304	-91.338	-0.533	-0.150
-336.289	800.000	0.142	0.467
-335.275	-65.449	-0.175	-0.070
-334.260	371.671	-0.081	0.163
-333.245	-200.000	-0.020	0.207
-332.231	800.000	-0.114	-0.399
-331.216	-183.922	0.251	-0.004
-330.202	800.000	-0.085	0.246
-329.187	-68.425	0.034	-0.013
-328.172	203.837	-0.101	-0.154
-327.158	-52.688	-0.059	-0.027
-326.143	-51.157	0.228	0.106
-325.129	-200.000	0.027	0.204
-324.114	7.717	0.015	-0.011
-323.099	-200.000	-0.016	-0.091
-322.085	-78.521	-0.057	0.019
-321.070	-200.000	0.002	0.238
-320.056	-34.484	0.325	0.176
-319.041	-3.722	-0.157	-0.107
-318.026	-200.000	0.019	-0.180
-317.012	-79.334	0.172	-0.058
-315.997	-200.000	-0.061	-0.315
-314.983	-200.000	-0.008	0.205
-313.968	-200.000	-0.037	-0.303
-312.953	56.649	0.051	-0.049
-311.939	-10.447	-0.260	-0.170
-310.924	544.617	-0.104	0.244
-309.910	-200.000	-0.032	0.581
-308.895	-200.000	0.033	0.247
-307.880	-60.856	0.129	-0.054
-306.866	-200.000	-0.012	0.174
-305.851	389.038	0.054	-0.111
-304.837	-177.756	-0.273	0.007
-303.822	-69.896	-0.129	-0.048
-302.807	-161.991	0.150	-0.007
-301.793	-74.074	-0.048	0.017
-300.778	298.977	-0.127	-0.231
-299.764	-23.922	-0.186	0.110
-298.749	373.484	0.216	-0.432
-297.735	-57.065	-0.187	0.081
-296.720	430.054	0.137	0.293
-295.705	800.000	0.049	0.169
-294.691	518.328	-0.038	0.087
-293.676	-200.000	0.028	0.132
-292.662	-106.374	-0.052	0.011
-291.647	707.277	-0.129	0.337
-290.632	-200.000	0.005	-0.066
-289.618	328.370	0.081	0.153
-288.603	-129.377	0.416	-0.057
-287.589	-148.220	-0.222	0.018
-286.574	-200.000	-0.019	-0.121
-285.559	-200.000	-0.017	0.107
-284.545	16.244	0.158	-0.123
-283.530	760.660	0.011	0.031
-282.516	-195.628	-0.106	-0.001
-281.501	78.085	-0.095	-0.100
-280.486	-200.000	-0.059	0.254
-279.472	-142.332	0.052	-0.005
-278.457	-32.065	0.165	-0.091
-277.443	800.000	0.091	-0.249
-276.428	-200.000	0.026	0.137
-275.413	800.000	0.085	0.267
-274.399	124.303	-0.141	0.174
-273.384	-17.173	-0.132	-0.082
-272.370	-80.214	-0.186	0.061
-271.355	116.892	-0.056	-0.067
-270.340	102.910	0.105	0.122
-269.326	1.027	0.183	0.129
-268.311	87.528	0.282	0.308
-267.297	5.798	-0.303	0.220
-266.282	279.512	0.213	-0.374
-265.267	-107.757	-0.377	-0.081
-264.253	-12.934	0.213	0.137
-263.238	-200.000	0.060	-0.314
-262.224	-71.704	0.377	0.138
-261.209	146.322	-0.059	0.078
-260.195	-200.000	-0.003	0.179
-259.180	-200.000	-0.001	0.160
-258.165	-162.928	0.304	-0.015
-257.151	98.389	-0.202	-0.229
-256.136	-200.000	-0.014	0.217
-255.122	-37.364	0.154	-0.081
-254.107	-200.000	-0.002	0.082
-253.092	760.005	0.075	0.201
-252.078	-71.592	0.271	0.099
-251.063	-97.963	0.052	-0.013
-250.049	178.066	-0.095	-0.137
-249.034	-90.728	-0.299	-0.085
-248.019	-200.000	0.014	-0.079
-247.005	-66.356	0.099	0.039
-245.990	-146.872	0.502	0.043
-244.976	-200.000	-0.037	-0.346
-243.961	17.661	0.148	-0.116
-242.946	-71.117	-0.281	-0.104
-241.932	800.000	-0.037	-0.125
-240.917	29.741	0.074	-0.062
-239.903	-200.000	-0.013	-0.128
-238.888	-75.241	-0.159	0.056
-237.873	159.959	0.335	0.458
-236.859	-200.000	0.007	0.259
-235.844	-78.318	-0.323	-0.109
-234.830	511.689	-0.079	-0.180
-233.815	-90.401	-0.194	0.055
-232.800	191.086	0.087	0.129
-231.786	-200.000	0.045	-0.422
-230.771	19.238	0.073	-0.058
-229.757	236.697	0.010	-0.017
-228.742	112.630	-0.228	-0.271
-227.727	-85.121	-0.076	-0.023
-226.713	-98.740	0.110	0.028
-225.698	-119.187	-0.264	-0.045
-224.684	88.863	-0.088	-0.097
-223.669	139.833	0.050	-0.065
-222.655	-59.771	0.500	0.210
-221.640	101.800	-0.083	-0.096
-220.625	-200.000	-0.037	0.446
-219.611	232.691	0.203	0.328
-218.596	546.172	0.076	0.177
-217.582	-200.000	-0.013	0.100
-216.567	30.718	0.407	0.342
-215.552	-167.801	-0.087	0.003
-214.538	121.783	0.210	-0.258
-213.523	-65.817	0.037	-0.014
-212.509	255.101	-0.205	0.345
-211.494	-96.704	-0.138	0.036
-210.479	157.724	0.217	-0.295
-209.465	-200.000	0.038	-0.278
-208.450	-200.000	-0.002	0.224
-207.436	-144.596	-0.121	-0.011
-206.421	28.815	-0.206	-0.171
-205.406	-128.369	0.406	-0.057
-204.392	162.413	0.216	0.297
-203.377	277.507	-0.152	-0.265
-202.363	-200.000	-0.002	-0.059
-201.348	322.994	-0.072	0.136
-200.333	-200.000	-0.055	0.282
-199.319	109.494	0.318	-0.373
-198.304	207.997	0.068	-0.105
-197.290	-140.678	-0.081	-0.008
-196.275	5.240	0.087	-0.063
-195.260	5.264	0.225	0.163
-194.246	-84.372	0.317	-0.098
-193.231	800.000	0.034	0.097
-192.217	-126.296	-0.213	0.031
-191.202	-96.559	0.180	0.047
-190.187	-72.363	-0.081	-0.029
-189.173	-200.000	0.000	-0.412
-188.158	122.327	-0.053	-0.065
-187.144	25.253	-0.072	0.059
-186.129	-106.887	-0.275	-0.060
-185.114	-49.166	0.241	0.113
-184.100	12.279	0.190	-0.144
-183.085	-40.406	0.257	-0.131
-182.071	-86.359	0.317	0.096
-181.056	6.861	-0.377	-0.275
-180.042	-200.000	-0.000	0.169
-179.027	-147.154	-0.389	0.033
-178.012	-110.657	-0.386	-0.078
-176.998	-200.000	-0.010	-0.049
-175.983	-151.927	-0.346	-0.025
-174.969	11.996	0.233	0.176
-173.954	800.000	-0.099	0.292
-172.939	800.000	-0.038	-0.153
-171.925	-73.168	0.389	-0.140
-170.910	648.447	-0.060	0.151
-169.896	-99.775	0.282	-0.069
-168.881	-36.452	0.175	-0.092
-167.866	-200.000	-0.009	0.099
-166.852	-200.000	0.014	-0.131
-165.837	-73.065	0.142	-0.051
-164.823	121.939	0.157	-0.192
-163.808	-127.822	0.144	0.020
-162.793	319.805	-0.040	-0.074
-161.779	283.020	0.090	0.158
-160.764	-192.597	-0.149	-0.001
-159.750	-68.382	0.116	0.044
-158.735	-200.000	-0.035	-0.206
-157.720	39.856	0.150	0.132
-156.706	250.239	-0.016	-0.027
-155.691	7.377	0.050	0.037
-154.677	-97.143	-0.422	-0.108
-153.662	800.000	0.041	0.145
-152.647	88.142	0.253	0.275
-151.633	122.688	-0.251	0.308
-150.618	84.424	0.078	-0.084
-149.604	-64.917	-0.316	0.125
-148.589	-86.220	-0.191	-0.058
-147.574	-58.999	0.094	-0.040
-146.560	97.479	0.033	0.037
-145.545	28.414	-0.193	0.160
-144.531	-12.429	-0.248	-0.159
-143.516	69.150	0.139	-0.140
-142.502	-104.572	-0.121	-0.027
-141.487	-98.141	-0.292	-0.074
-140.472	360.190	-0.149	-0.291
-139.458	245.317	0.052	0.086
-138.443	-80.476	-0.426	-0.139
-137.429	-40.729	0.182	0.093
-136.414	-200.000	-0.004	-0.059
-135.399	-12.017	0.204	-0.131
-134.385	146.637	-0.016	0.022
-133.370	-42.379	0.163	0.081
-132.356	-0.759	0.149	-0.103
-131.341	-54.925	0.299	0.132
-130.326	-200.000	0.005	0.084
-129.312	-200.000	0.028	-0.197
-128.297	-83.008	-0.173	0.055
-127.283	241.768	0.068	0.111
-126.268	110.838	0.109	0.128
-125.253	212.431	-0.078	0.121
-124.239	-79.314	-0.203	0.067
-123.224	282.375	-0.104	0.182
