DTS Sentinel unit serial number:	SN413079Multiplexer serial number:	ORYXHardware model number:	OX4-SRSoftware version number:	ORYX F/W v4.00 Oryx Data Collector v3.7.2.0data status	okinstallation	princeton_trtdifferential loss correction	single-endedforward channel	channel 3reverse channel	N/Adate	2019/09/16time	19:52:35forward acquisition time	60.00reverse acquisition time	0.00gamma	496.2192k internal	0.2319k external	0.2319temperature offset calibration	0.9938default loss term (dB/km)	0.3790temperature slope calibration	1.0000multiplexer offset coefficient	1.0000multiplexer slope coefficient	1.0000fibre end	0.00T internal ref (°C)	33.67T ext. ref 1 (°C)	0.06T ext. ref 2 (°C)	26.76length (m)	temperature (°C)	Stokes	anti-Stokes-747.200	-200.000	0.049	0.219
-746.185	-18.421	-0.168	0.106
-745.171	-53.890	0.235	-0.108
-744.156	-23.618	-0.270	-0.164
-743.142	-200.000	0.051	0.283
-742.127	132.171	0.256	0.334
-741.112	-159.513	-0.222	0.013
-740.098	800.000	-0.059	0.174
-739.083	-200.000	-0.032	0.165
-738.069	-200.000	0.020	0.259
-737.054	514.899	0.222	0.523
-736.039	148.308	-0.160	0.219
-735.025	-93.324	0.301	0.084
-734.010	554.428	-0.090	0.219
-732.996	179.637	-0.174	-0.257
-731.981	-82.010	0.224	0.074
-730.966	-22.165	-0.233	-0.143
-729.952	13.669	0.124	-0.098
-728.937	-36.695	-0.094	0.051
-727.923	-122.049	-0.283	-0.047
-726.908	-64.825	0.041	-0.017
-725.894	-74.843	-0.205	-0.074
-724.879	-9.714	0.095	0.064
-723.864	-47.485	-0.096	-0.047
-722.850	-24.632	-0.280	-0.168
-721.835	-16.921	0.296	-0.189
-720.821	-46.271	-0.304	0.151
-719.806	15.375	-0.278	0.221
-718.791	302.238	0.017	-0.032
-717.777	-200.000	0.008	0.141
-716.762	-64.941	0.250	-0.102
-715.748	800.000	0.038	-0.153
-714.733	326.342	0.210	-0.406
-713.718	343.987	-0.057	-0.114
-712.704	8.041	0.344	-0.261
-711.689	-200.000	-0.053	-0.272
-710.675	37.669	-0.301	0.270
-709.660	378.762	0.090	-0.185
-708.645	-200.000	-0.036	-0.183
-707.631	86.550	0.049	-0.055
-706.616	-96.977	0.192	-0.051
-705.602	800.000	-0.057	0.171
-704.587	71.663	-0.217	0.228
-703.572	136.955	-0.127	0.168
-702.558	794.012	0.048	0.132
-701.543	-39.365	0.226	0.120
-700.529	800.000	-0.068	0.240
-699.514	-41.000	0.182	0.095
-698.499	97.282	0.158	0.183
-697.485	-45.989	-0.488	0.243
-696.470	92.737	-0.096	-0.110
-695.456	-168.594	0.120	-0.005
-694.441	-160.093	-0.435	-0.024
-693.426	-200.000	-0.052	0.281
-692.412	164.115	0.318	0.452
-691.397	-156.751	-0.338	0.021
-690.383	-105.618	0.234	0.053
-689.368	664.215	-0.103	0.267
-688.354	-200.000	0.062	0.295
-687.339	12.197	-0.270	0.210
-686.324	-184.674	-0.291	-0.005
-685.310	20.410	-0.213	0.174
-684.295	0.284	-0.159	0.114
-683.281	-99.200	-0.268	0.068
-682.266	21.568	0.135	0.111
-681.251	-17.242	-0.367	0.233
-680.237	4.836	-0.270	-0.200
-679.222	-130.129	0.421	-0.058
-678.208	-45.992	0.278	0.139
-677.193	702.639	-0.080	-0.214
-676.178	165.612	0.096	0.138
-675.164	702.541	0.114	-0.304
-674.149	209.588	-0.104	-0.164
-673.135	-200.000	-0.004	-0.184
-672.120	800.000	0.126	-0.355
-671.105	186.179	0.186	-0.280
-670.091	-3.156	-0.206	-0.145
-669.076	166.020	0.327	0.467
-668.062	-87.175	-0.182	-0.056
-667.047	-90.541	-0.332	-0.097
-666.032	-120.233	0.335	0.058
-665.018	30.649	0.018	-0.016
-664.003	-67.415	-0.155	0.061
-662.989	-81.761	0.013	0.004
-661.974	-200.000	0.008	-0.350
-660.959	-161.084	-0.211	0.011
-659.945	-54.659	0.093	-0.043
-658.930	399.920	0.048	0.101
-657.916	-134.600	-0.116	0.014
-656.901	160.486	0.139	-0.196
-655.886	-200.000	0.035	-0.226
-654.872	434.083	-0.076	-0.166
-653.857	401.143	-0.309	-0.654
-652.843	-200.000	0.004	-0.094
-651.828	755.551	0.124	-0.339
-650.814	-200.000	0.056	0.339
-649.799	-144.070	0.217	0.021
-648.784	164.959	0.222	-0.315
-647.770	528.417	0.026	-0.061
-646.755	-200.000	0.010	-0.155
-645.741	-164.215	0.138	0.006
-644.726	120.575	-0.179	-0.224
-643.711	167.341	0.012	0.018
-642.697	228.235	-0.152	0.249
-641.682	-43.012	0.388	0.198
-640.668	-121.904	-0.266	0.044
-639.653	800.000	-0.067	-0.256
-638.638	-116.576	-0.231	0.043
-637.624	800.000	-0.050	-0.146
-636.609	800.000	0.072	-0.224
-635.595	-69.966	0.424	-0.163
-634.580	46.260	-0.156	0.145
-633.565	800.000	0.091	0.388
-632.551	19.084	-0.586	-0.473
-631.536	-200.000	-0.059	0.287
-630.522	-200.000	-0.054	-0.536
-629.507	-200.000	0.030	-0.155
-628.492	272.472	0.018	-0.032
-627.478	800.000	0.079	-0.219
-626.463	13.457	-0.366	-0.286
-625.449	-129.391	0.117	-0.016
-624.434	136.556	0.123	-0.162
-623.419	144.648	-0.031	-0.042
-622.405	-200.000	-0.021	-0.162
-621.390	-51.635	-0.186	0.087
-620.376	-149.474	-0.111	0.009
-619.361	-113.563	-0.277	0.055
-618.346	800.000	-0.070	-0.274
-617.332	185.886	-0.102	0.152
-616.317	95.296	-0.130	0.150
-615.303	118.756	-0.128	-0.159
-614.288	-200.000	0.050	0.243
-613.273	-200.000	-0.024	0.109
-612.259	94.194	-0.184	-0.210
-611.244	311.269	0.126	-0.237
-610.230	-200.000	-0.022	0.157
-609.215	-153.072	-0.069	-0.005
-608.201	800.000	0.068	-0.212
-607.186	77.074	0.177	0.189
-606.171	35.620	0.058	0.051
-605.157	-144.153	0.127	-0.012
-604.142	800.000	-0.019	0.060
-603.128	-70.661	-0.327	-0.124
-602.113	83.333	0.183	-0.201
-601.098	-1.832	-0.086	-0.061
-600.084	-200.000	-0.009	-0.183
-599.069	94.755	-0.144	-0.165
-598.055	14.742	-0.215	0.169
-597.040	265.137	-0.176	-0.309
-596.025	718.178	-0.129	-0.344
-595.011	263.758	0.031	0.053
-593.996	-114.505	-0.187	-0.036
-592.982	-200.000	0.010	-0.115
-591.967	-46.652	0.238	0.117
-590.952	-127.006	0.209	0.031
-589.938	-183.560	-0.104	-0.002
-588.923	800.000	-0.041	-0.145
-587.909	-112.343	0.349	0.070
-586.894	-27.910	0.136	0.079
-585.879	78.143	0.416	0.447
-584.865	-59.483	-0.125	0.054
-583.850	-16.591	-0.240	-0.153
-582.836	-200.000	-0.049	-0.219
-581.821	331.780	-0.091	-0.176
-580.806	-174.433	0.307	-0.009
-579.792	-200.000	0.016	0.221
-578.777	800.000	0.090	-0.292
-577.763	733.335	0.093	-0.251
-576.748	-49.108	0.171	-0.082
-575.733	488.195	-0.198	-0.454
-574.719	49.824	0.148	0.141
-573.704	-37.826	-0.314	-0.168
-572.690	-126.787	-0.200	0.030
-571.675	-27.393	-0.481	0.281
-570.661	-200.000	0.023	0.212
-569.646	413.864	-0.107	-0.230
-568.631	130.756	0.110	-0.142
-567.617	-47.771	-0.104	-0.051
-566.602	90.510	0.279	0.314
-565.588	42.978	0.152	0.140
-564.573	240.711	0.093	0.155
-563.558	-200.000	0.005	0.276
-562.544	-66.772	-0.123	0.049
-561.529	800.000	0.077	-0.266
-560.515	-109.523	0.145	-0.031
-559.500	-200.000	-0.016	-0.108
-558.485	-65.041	0.048	-0.019
-557.471	60.696	-0.151	0.151
-556.456	626.655	-0.045	0.113
-555.442	-137.418	0.234	0.027
-554.427	97.412	0.145	-0.168
-553.412	-60.059	-0.291	-0.125
-552.398	494.169	-0.096	0.221
-551.383	-37.573	0.073	0.039
-550.369	448.350	-0.113	-0.250
-549.354	-118.968	0.375	-0.066
-548.339	-80.976	0.238	-0.079
-547.325	44.445	0.160	-0.147
-546.310	-161.303	-0.109	0.006
-545.296	300.283	0.011	0.020
-544.281	-200.000	0.034	0.183
-543.266	-196.909	0.245	0.002
-542.252	-200.000	0.042	0.302
-541.237	22.060	0.080	0.065
-540.223	-41.000	0.050	-0.026
-539.208	-58.999	0.225	0.098
-538.193	-87.217	-0.375	0.114
-537.179	-200.000	-0.009	-0.265
-536.164	71.575	0.137	-0.142
-535.150	526.608	-0.013	0.031
-534.135	-200.000	0.042	0.000
-533.121	-200.000	-0.023	0.211
-532.106	59.848	0.058	0.058
-531.091	58.661	-0.378	0.372
-530.077	741.298	-0.046	0.124
-529.062	4.539	-0.319	-0.235
-528.048	52.409	-0.167	-0.160
-527.033	-200.000	-0.007	-0.251
-526.018	-200.000	0.058	-0.484
-525.004	236.855	-0.103	-0.172
-523.989	800.000	-0.111	-0.317
-522.975	103.139	-0.080	-0.094
-521.960	-126.039	-0.349	0.053
-520.945	151.762	-0.063	0.086
-519.931	-200.000	0.014	-0.421
-518.916	-161.005	-0.223	-0.012
-517.902	740.447	-0.111	-0.299
-516.887	407.162	0.116	0.246
-515.872	-55.766	0.151	0.068
-514.858	-85.758	-0.334	0.104
-513.843	446.547	0.122	0.270
-512.829	397.722	-0.168	-0.352
-511.814	-200.000	-0.017	-0.090
-510.799	99.772	0.090	0.105
-509.785	20.958	0.085	0.069
-508.770	-200.000	0.010	0.335
-507.756	14.992	0.085	0.066
-506.741	-200.000	0.017	-0.122
-505.726	493.420	-0.212	0.486
-504.712	-37.185	0.147	0.079
-503.697	-200.000	-0.020	-0.107
-502.683	-200.000	-0.039	0.213
-501.668	-111.372	0.118	0.024
-500.653	-109.015	0.184	0.039
-499.639	40.827	0.206	-0.186
-498.624	-133.801	-0.343	-0.043
-497.610	-121.949	-0.485	-0.080
-496.595	-33.104	0.180	0.100
-495.581	-52.667	0.178	0.082
-494.566	597.686	0.117	-0.291
-493.551	-161.606	0.375	-0.019
-492.537	-174.912	-0.184	0.005
-491.522	-6.745	0.220	-0.150
-490.508	301.769	-0.047	0.086
-489.493	-200.000	0.017	-0.109
-488.478	50.258	-0.316	0.299
-487.464	-7.941	-0.136	-0.092
-486.449	-131.985	0.268	0.035
-485.435	-74.589	0.030	-0.011
-484.420	-107.936	-0.173	-0.038
-483.405	56.129	-0.102	-0.099
-482.391	-200.000	0.037	-0.228
-481.376	-200.000	0.052	-0.311
-480.362	95.227	-0.218	0.248
-479.347	-200.000	0.017	0.353
-478.332	-103.849	0.511	0.120
-477.318	-13.522	-0.116	0.075
-476.303	304.083	0.067	0.124
-475.289	-63.104	-0.192	0.079
-474.274	-103.963	0.233	0.054
-473.259	-3.142	-0.141	-0.099
-472.245	180.942	-0.080	-0.117
-471.230	31.583	-0.139	0.120
-470.216	77.216	0.088	-0.094
-469.201	618.432	0.007	-0.019
-468.186	-147.279	0.248	-0.021
-467.172	-124.123	0.345	0.054
-466.157	800.000	0.121	-0.431
-465.143	-94.329	0.046	-0.013
-464.128	10.595	-0.030	-0.023
-463.113	149.591	-0.084	-0.114
-462.099	222.083	0.186	-0.299
-461.084	-44.319	-0.219	-0.110
-460.070	63.215	-0.205	-0.206
-459.055	-200.000	0.002	-0.057
-458.040	-200.000	-0.028	-0.354
-457.026	800.000	0.028	0.087
-456.011	-200.000	0.015	0.205
-454.997	-71.962	-0.232	-0.086
-453.982	-12.479	-0.196	-0.128
-452.968	-31.217	-0.109	0.062
-451.953	-200.000	-0.074	-0.502
-450.938	195.122	-0.027	0.041
-449.924	466.026	-0.026	0.057
-448.909	-92.868	-0.051	0.014
-447.895	-200.000	0.041	0.403
-446.880	8.394	-0.127	-0.095
-445.865	-96.396	-0.055	0.015
-444.851	-200.000	0.075	0.360
-443.836	-200.000	-0.059	-0.336
-442.822	-126.525	0.093	0.014
-441.807	800.000	0.056	-0.164
-440.792	323.161	0.127	0.242
-439.778	-135.879	-0.055	0.007
-438.763	-44.809	0.072	0.036
-437.749	-200.000	-0.049	0.266
-436.734	800.000	-0.066	-0.231
-435.719	-60.151	0.118	-0.050
-434.705	-23.636	0.115	0.069
-433.690	71.638	-0.169	-0.175
-432.676	-200.000	0.019	-0.091
-431.661	-200.000	-0.022	0.175
-430.646	-38.932	0.151	-0.080
-429.632	301.507	-0.083	-0.154
-428.617	-23.631	0.224	-0.134
-427.603	122.805	0.098	0.123
-426.588	26.827	-0.123	0.103
-425.573	-4.285	0.234	-0.162
-424.559	800.000	0.063	-0.265
-423.544	50.704	-0.123	0.116
-422.530	244.399	-0.138	0.232
-421.515	-200.000	-0.009	-0.067
-420.500	274.885	-0.065	-0.115
-419.486	519.622	0.014	0.033
-418.471	-119.558	0.257	-0.044
-417.457	735.983	-0.130	-0.347
-416.442	-16.324	-0.100	-0.063
-415.428	-200.000	-0.031	0.140
-414.413	-103.668	0.028	0.007
-413.398	56.095	0.228	0.221
-412.384	497.995	-0.110	0.253
-411.369	315.915	0.167	-0.314
-410.355	-77.601	0.169	0.059
-409.340	-47.945	0.231	-0.112
-408.325	226.441	-0.057	0.093
-407.311	466.030	-0.118	-0.265
-406.296	-95.456	-0.054	0.014
-405.282	800.000	0.071	0.282
-404.267	528.501	0.061	0.143
-403.252	-59.421	-0.306	0.131
-402.238	141.201	0.229	0.302
-401.223	-62.397	0.156	0.065
-400.209	-17.755	-0.126	0.079
-399.194	-25.583	0.341	0.201
-398.179	800.000	0.042	-0.137
-397.165	301.695	-0.333	0.614
-396.150	88.125	-0.088	-0.098
-395.136	424.863	0.105	0.226
-394.121	-200.000	-0.048	-0.439
-393.106	97.835	0.019	0.021
-392.092	138.930	0.293	-0.385
-391.077	-88.352	0.486	-0.145
-390.063	-16.828	-0.151	-0.095
-389.048	-200.000	-0.082	-0.566
-388.033	-200.000	0.036	-0.476
-387.019	-200.000	0.021	0.302
-386.004	-200.000	-0.016	0.232
-384.990	103.370	0.050	0.059
-383.975	63.246	-0.084	-0.084
-382.960	138.582	0.050	0.066
-381.946	138.649	-0.072	-0.094
-380.931	-48.093	0.137	0.066
-379.917	-200.000	-0.026	-0.334
-378.902	-120.390	-0.191	0.032
-377.888	-151.899	0.317	-0.023
-376.873	264.004	-0.136	0.235
-375.858	-30.500	0.075	-0.042
-374.844	-107.820	-0.429	-0.093
-373.829	800.000	0.023	0.087
-372.815	-87.827	-0.220	0.066
-371.800	-93.120	-0.064	-0.018
-370.785	253.093	0.118	0.202
-369.771	221.702	0.026	0.042
-368.756	800.000	-0.025	0.073
-367.742	-117.862	-0.158	0.028
-366.727	-160.767	0.219	0.012
-365.712	-39.922	-0.142	0.074
-364.698	-44.316	-0.231	0.115
-363.683	144.595	-0.060	-0.080
-362.669	-200.000	0.000	-0.101
-361.654	-200.000	-0.016	-0.212
-360.639	-44.570	-0.232	0.115
-359.625	338.633	0.042	0.081
-358.610	319.466	0.038	-0.072
-357.596	800.000	0.065	-0.230
-356.581	-200.000	-0.002	0.021
-355.566	442.532	-0.069	-0.151
-354.552	68.669	-0.235	0.241
-353.537	598.642	0.062	0.152
-352.523	79.376	-0.077	-0.082
-351.508	800.000	-0.045	0.196
-350.493	-20.998	0.338	-0.206
-349.479	-41.219	-0.285	0.146
-348.464	192.406	0.264	-0.396
-347.450	-200.000	0.015	0.409
-346.435	119.610	0.199	0.246
-345.420	-34.383	-0.214	-0.117
-344.406	229.351	0.103	-0.168
-343.391	109.853	0.098	0.117
-342.377	-76.049	-0.322	0.113
-341.362	-95.710	-0.186	-0.049
-340.348	-10.565	0.198	-0.131
-339.333	-200.000	0.009	0.200
-338.318	10.153	0.188	0.142
-337.304	-75.679	0.443	-0.157
-336.289	-200.000	0.007	0.107
-335.275	-200.000	-0.079	0.535
-334.260	52.889	0.145	-0.139
-333.245	800.000	-0.056	-0.167
-332.231	-70.302	-0.063	0.024
-331.216	-87.599	-0.033	-0.010
-330.202	232.006	-0.087	0.142
-329.187	-95.235	0.209	0.056
-328.172	800.000	0.124	0.363
-327.158	800.000	-0.042	0.124
-326.143	800.000	0.023	-0.098
-325.129	-200.000	0.064	-0.500
-324.114	42.908	-0.285	-0.258
-323.099	-138.186	-0.068	-0.008
-322.085	-23.307	-0.074	-0.044
-321.070	-20.169	-0.166	0.102
-320.056	-200.000	0.059	0.323
-319.041	12.755	-0.236	-0.181
-318.026	800.000	0.046	0.193
-317.012	800.000	-0.164	0.562
-315.997	139.873	0.170	0.223
-314.983	-59.772	0.135	-0.057
-313.968	266.002	-0.125	0.217
-312.953	-101.974	-0.372	0.089
-311.939	-177.212	0.199	-0.005
-310.924	-200.000	0.024	-0.217
-309.910	-187.646	0.032	0.000
-308.895	-200.000	0.004	-0.056
-307.880	23.467	-0.154	0.126
-306.866	-53.546	-0.183	-0.083
-305.851	424.934	0.155	0.332
-304.837	16.911	0.060	-0.047
-303.822	-114.903	0.324	0.061
-302.807	-200.000	0.009	0.150
-301.793	165.437	-0.033	0.047
-300.778	-28.330	0.129	0.074
-299.764	-144.145	0.107	-0.010
-298.749	-32.372	0.128	-0.071
-297.735	-200.000	0.018	-0.278
-296.720	254.230	0.038	0.065
-295.705	-200.000	-0.024	0.186
-294.691	233.508	0.044	-0.072
-293.676	-133.686	0.112	0.014
-292.662	251.969	0.122	0.207
-291.647	19.097	0.118	0.094
-290.632	-160.497	0.386	0.021
-289.618	143.151	0.243	-0.322
-288.603	-151.745	0.133	0.010
-287.589	-155.559	0.044	0.003
-286.574	-92.268	-0.340	0.095
-285.559	6.606	0.339	0.250
-284.545	-11.456	-0.112	-0.073
-283.530	304.371	-0.046	-0.084
-282.516	-78.704	-0.430	0.146
-281.501	-97.348	0.056	0.014
-280.486	-1.978	-0.233	0.163
-279.472	-124.017	-0.094	0.015
-278.457	-183.379	0.208	0.004
-277.443	-109.931	-0.287	0.060
-276.428	-132.602	0.280	-0.036
-275.413	-74.397	0.072	-0.026
-274.399	-200.000	-0.017	0.392
-273.384	65.080	0.027	0.027
-272.370	-22.816	-0.310	0.186
-271.355	160.989	0.178	0.247
-270.340	388.767	-0.073	0.150
-269.326	-119.132	0.217	-0.038
-268.311	127.691	-0.176	-0.222
-267.297	-31.275	0.210	0.118
-266.282	-190.213	-0.159	-0.002
-265.267	-200.000	-0.013	0.068
-264.253	-51.427	0.026	-0.012
-263.238	-200.000	0.010	-0.388
-262.224	29.506	-0.143	-0.121
-261.209	-128.633	0.160	-0.022
-260.195	398.991	0.140	0.292
-259.180	-33.630	0.377	0.206
-258.165	262.580	-0.150	0.258
-257.151	340.615	-0.159	-0.309
-256.136	-200.000	0.003	-0.244
-255.122	97.129	-0.151	0.172
-254.107	-200.000	0.001	-0.095
-253.092	-54.358	-0.092	0.042
-252.078	-200.000	-0.018	-0.092
-251.063	-74.155	-0.159	-0.057
-250.049	-200.000	-0.036	0.171
-249.034	-200.000	-0.020	0.167
-248.019	111.493	0.206	0.246
-247.005	385.242	-0.082	0.168
-245.990	800.000	0.033	-0.099
-244.976	-200.000	-0.079	0.430
-243.961	-134.216	0.360	0.044
-242.946	-102.050	0.270	-0.065
-241.932	-133.369	0.107	0.013
-240.917	-86.052	-0.109	-0.033
-239.903	-65.802	-0.331	0.131
-238.888	293.010	-0.025	0.045
-237.873	-45.475	-0.039	-0.019
-236.859	-125.957	-0.113	0.017
-235.844	-34.015	0.131	-0.072
-234.830	-60.636	0.233	0.098
-233.815	-109.136	0.066	0.014
-232.800	14.924	-0.087	-0.067
-231.786	387.225	0.120	-0.246
-230.771	88.206	0.086	-0.094
-229.757	14.846	0.035	0.027
-228.742	-200.000	-0.078	0.436
-227.727	-200.000	-0.003	-0.117
-226.713	79.510	0.116	0.123
-225.698	-58.050	0.128	-0.055
-224.684	800.000	0.034	-0.148
-223.669	169.443	-0.123	-0.174
-222.655	24.991	0.199	-0.164
-221.640	-121.421	0.267	0.044
-220.625	-7.903	0.297	0.198
-219.611	477.547	-0.075	-0.169
-218.596	-69.837	-0.137	0.052
-217.582	700.046	-0.125	0.326
-216.567	-200.000	0.051	0.327
-215.552	191.545	0.121	0.180
-214.538	93.946	-0.130	0.146
-213.523	-100.246	0.154	-0.038
-212.509	-160.644	0.123	0.007
-211.494	-3.713	-0.268	-0.184
-210.479	-115.662	0.130	0.024
-209.465	-147.309	0.417	0.035
-208.450	55.907	-0.183	-0.176
-207.436	-45.246	0.279	0.137
-206.421	-79.969	-0.211	-0.070
-205.406	96.499	0.124	0.140
-204.392	27.476	0.102	-0.085
-203.377	71.161	0.162	0.166
-202.363	-96.506	0.143	0.037
-201.348	-102.726	-0.309	0.073
-200.333	125.181	0.053	-0.066
-199.319	236.026	-0.105	-0.172
-198.304	-3.469	0.113	0.078
-197.290	-115.405	0.106	-0.020
-196.275	-200.000	0.031	-0.257
-195.260	-51.914	-0.155	-0.071
-194.246	-66.142	-0.290	0.114
-193.231	-200.000	0.014	0.144
-192.217	211.870	-0.179	0.279
-191.202	70.674	0.044	0.045
-190.187	629.995	0.075	0.187
-189.173	390.716	-0.109	0.223
-188.158	-142.042	-0.202	0.020
-187.144	-200.000	0.023	0.334
-186.129	-54.384	-0.009	-0.004
-185.114	-142.391	-0.227	0.022
-184.100	-61.916	0.286	-0.118
-183.085	165.429	-0.152	0.212
-182.071	-30.625	-0.044	-0.025
-181.056	409.771	-0.150	0.315
-180.042	-2.685	-0.231	0.160
-179.027	237.988	-0.299	-0.492
-178.012	6.336	0.102	-0.075
-176.998	-200.000	-0.044	-0.287
-175.983	800.000	0.047	0.136
-174.969	13.968	0.190	0.146
-173.954	210.245	0.055	0.085
-172.939	-24.089	-0.351	-0.207
-171.925	800.000	-0.059	-0.169
-170.910	363.134	0.099	0.196
-169.896	460.871	-0.114	0.251
-168.881	237.206	0.165	-0.271
-167.866	800.000	-0.068	-0.288
-166.852	-121.884	-0.124	-0.020
-165.837	800.000	0.137	-0.421
-164.823	-47.267	0.022	0.011
-163.808	-115.818	-0.111	0.021
-162.793	174.952	0.018	0.026
-161.779	23.633	-0.124	0.101
-160.764	108.351	-0.159	0.187
-159.750	-200.000	0.014	-0.201
-158.735	-137.741	0.339	-0.038
-157.720	-200.000	0.024	-0.338
-156.706	-137.884	-0.090	-0.010
-155.691	372.469	-0.060	0.121
-154.677	26.115	-0.197	0.162
-153.662	800.000	0.093	0.284
-152.647	-200.000	0.024	-0.228
-151.633	-19.712	0.311	0.190
-150.618	61.643	-0.097	0.095
-149.604	800.000	-0.101	0.320
-148.589	57.681	0.326	-0.315
-147.574	-117.748	0.103	0.018
-146.560	-200.000	-0.023	0.302
-145.545	269.438	-0.102	0.177
-144.531	50.981	0.083	-0.077
-143.516	273.521	-0.165	-0.289
-142.502	-75.680	-0.235	0.082
-141.487	483.163	-0.015	0.034
-140.472	192.038	0.153	0.229
-139.458	166.118	0.096	0.134
-138.443	800.000	-0.024	0.085
-137.429	-138.106	0.254	0.028
-136.414	129.660	0.150	-0.190
-135.399	-94.898	0.032	0.009
-134.385	0.338	0.033	0.023
-133.370	39.869	0.240	0.213
-132.356	59.578	-0.049	0.048
-131.341	68.756	-0.143	0.145
-130.326	-9.135	-0.014	-0.009
-129.312	140.986	-0.398	0.520
-128.297	-108.874	0.147	0.031
-127.283	495.164	0.111	0.252
-126.268	65.128	0.117	0.116
-125.253	-200.000	-0.081	0.360
-124.239	-2.254	0.076	-0.053
-123.224	77.788	-0.115	0.121
-122.210	-14.044	-0.207	0.132
-121.195	423.354	-0.037	0.079
-120.180	136.173	0.115	0.148
