DTS Sentinel unit serial number:	SN413079Multiplexer serial number:	ORYXHardware model number:	OX4-SRSoftware version number:	ORYX F/W v4.00 Oryx Data Collector v3.7.2.0data status	okinstallation	princeton_trtdifferential loss correction	single-endedforward channel	channel 3reverse channel	N/Adate	2019/09/13time	01:24:34forward acquisition time	60.00reverse acquisition time	0.00gamma	496.2192k internal	0.2334k external	0.2334temperature offset calibration	1.0113default loss term (dB/km)	0.3790temperature slope calibration	1.0000multiplexer offset coefficient	1.0000multiplexer slope coefficient	1.0000fibre end	0.00T internal ref (°C)	27.87T ext. ref 1 (°C)	3.71T ext. ref 2 (°C)	22.44length (m)	temperature (°C)	Stokes	anti-Stokes-747.200	260.678	0.150	-0.260
-746.185	-174.255	-0.517	-0.015
-745.171	65.738	0.246	-0.251
-744.156	800.000	0.072	0.235
-743.142	-200.000	0.063	0.310
-742.127	372.889	0.048	0.099
-741.112	-200.000	-0.004	0.175
-740.098	-88.528	-0.178	-0.053
-739.083	274.584	0.184	0.328
-738.069	424.252	-0.167	0.362
-737.054	145.032	0.199	-0.267
-736.039	-114.367	-0.371	0.072
-735.025	75.489	0.163	0.173
-734.010	-42.942	-0.148	0.076
-732.996	-11.438	0.038	-0.025
-731.981	800.000	0.065	-0.285
-730.966	-102.095	-0.249	-0.060
-729.952	71.804	-0.156	0.163
-728.937	280.070	-0.095	-0.170
-727.923	-200.000	-0.005	-0.407
-726.908	69.859	-0.182	0.189
-725.894	-111.697	-0.426	0.087
-724.879	-200.000	0.010	0.168
-723.864	8.148	-0.321	-0.242
-722.850	122.885	-0.155	0.194
-721.835	-200.000	0.075	0.453
-720.821	-134.326	0.351	0.043
-719.806	-200.000	0.014	-0.145
-718.791	199.524	-0.101	-0.155
-717.777	-16.011	0.031	0.020
-716.762	25.516	0.026	0.022
-715.748	-200.000	0.018	0.205
-714.733	-98.304	0.269	-0.069
-713.718	-140.086	0.129	-0.014
-712.704	-69.565	-0.079	0.031
-711.689	-126.542	-0.147	0.022
-710.675	-56.325	0.105	-0.047
-709.660	-200.000	0.039	-0.185
-708.645	-188.501	-0.320	0.004
-707.631	481.787	-0.084	0.190
-706.616	90.845	0.339	-0.381
-705.602	-85.011	0.241	-0.076
-704.587	-200.000	0.033	0.209
-703.572	-81.947	0.238	0.078
-702.558	-85.697	-0.270	0.084
-701.543	-34.399	0.121	-0.067
-700.529	16.356	-0.249	0.197
-699.514	-58.298	-0.292	-0.128
-698.499	103.715	0.130	0.154
-697.485	10.558	-0.314	0.240
-696.470	270.735	-0.065	0.115
-695.456	290.009	0.083	-0.150
-694.441	279.206	-0.017	-0.030
-693.426	-200.000	-0.029	-0.163
-692.412	270.341	0.058	-0.102
-691.397	-82.849	0.246	-0.080
-690.383	305.907	-0.098	-0.183
-689.368	-42.213	-0.071	-0.036
-688.354	70.432	-0.025	0.026
-687.339	-160.757	0.223	-0.012
-686.324	-91.156	0.277	0.080
-685.310	698.428	0.018	0.048
-684.295	-200.000	0.027	-0.152
-683.281	114.304	-0.219	0.267
-682.266	800.000	0.016	-0.068
-681.251	-171.839	0.062	-0.002
-680.237	170.025	0.175	-0.250
-679.222	6.404	-0.029	-0.021
-678.208	-117.256	0.075	-0.014
-677.193	-200.000	-0.056	-0.328
-676.178	0.628	0.173	0.124
-675.164	-200.000	-0.036	-0.162
-674.149	-200.000	0.008	-0.197
-673.135	-70.967	-0.184	-0.069
-672.120	-10.131	-0.091	-0.061
-671.105	-138.392	-0.147	0.016
-670.091	146.854	-0.152	-0.205
-669.076	-154.001	-0.439	-0.030
-668.062	28.720	0.285	-0.242
-667.047	-78.406	0.231	-0.079
-666.032	402.897	-0.057	-0.120
-665.018	116.155	0.072	0.089
-664.003	-12.036	-0.279	-0.183
-662.989	104.021	-0.184	-0.217
-661.974	-200.000	0.035	-0.165
-660.959	-48.121	-0.120	-0.058
-659.945	-163.675	-0.129	-0.006
-658.930	88.352	0.231	-0.257
-657.916	11.067	0.190	0.145
-656.901	800.000	-0.073	0.236
-655.886	-2.124	-0.106	0.075
-654.872	-26.307	-0.252	-0.148
-653.857	-158.269	-0.168	0.010
-652.843	800.000	0.077	-0.252
-651.828	-122.742	0.134	0.022
-650.814	-15.040	-0.149	0.096
-649.799	504.892	-0.083	0.192
-648.784	-200.000	-0.030	-0.169
-647.770	-200.000	0.089	0.404
-646.755	-25.420	-0.291	-0.172
-645.741	-108.635	-0.175	-0.038
-644.726	59.980	0.108	-0.107
-643.711	-54.977	-0.193	-0.087
-642.697	-32.297	-0.220	0.123
-641.682	-200.000	0.036	0.158
-640.668	-171.359	-0.189	-0.006
-639.653	-99.637	-0.360	-0.090
-638.638	-135.016	-0.380	0.046
-637.624	61.203	0.215	-0.213
-636.609	-200.000	0.014	0.062
-635.595	-176.460	0.097	0.003
-634.580	-144.912	0.521	-0.048
-633.565	94.392	0.161	-0.183
-632.551	-28.395	0.368	0.212
-631.536	-17.050	-0.308	-0.194
-630.522	-19.789	-0.136	0.084
-629.507	-200.000	-0.035	-0.352
-628.492	800.000	0.049	0.155
-627.478	27.317	0.256	-0.215
-626.463	-200.000	-0.038	0.000
-625.449	-200.000	0.038	-0.202
-624.434	-29.772	0.114	-0.065
-623.419	44.843	0.083	-0.076
-622.405	628.436	-0.067	0.169
-621.390	131.137	0.160	0.205
-620.376	276.074	-0.222	0.394
-619.361	148.905	-0.168	0.228
-618.346	-137.127	-0.119	0.014
-617.332	35.080	0.113	-0.099
-616.317	-200.000	0.042	0.295
-615.303	232.417	-0.023	-0.037
-614.288	-200.000	0.010	-0.132
-613.273	203.831	-0.013	-0.020
-612.259	385.446	-0.101	-0.209
-611.244	-200.000	0.043	-0.199
-610.230	-200.000	-0.016	0.203
-609.215	-26.537	0.281	-0.164
-608.201	800.000	-0.034	-0.147
-607.186	201.612	-0.082	-0.126
-606.171	-10.162	0.249	-0.165
-605.157	169.669	0.332	-0.475
-604.142	-60.352	-0.066	-0.028
-603.128	-102.351	0.420	-0.101
-602.113	-200.000	-0.042	-0.325
-601.098	-107.712	0.148	-0.032
-600.084	-16.968	0.074	-0.047
-599.069	568.178	-0.080	0.194
-598.055	-200.000	-0.053	-0.237
-597.040	-93.494	0.159	-0.044
-596.025	-104.511	-0.139	0.032
-595.011	210.313	-0.123	0.193
-593.996	-200.000	0.011	0.243
-592.982	-200.000	0.001	0.063
-591.967	91.687	-0.118	-0.133
-590.952	-193.553	-0.225	-0.002
-589.938	344.354	0.018	0.036
-588.923	-52.414	0.231	-0.107
-587.909	-107.292	-0.130	0.029
-586.894	167.285	-0.262	0.371
-585.879	113.453	0.095	0.115
-584.865	-119.173	-0.061	-0.011
-583.850	528.152	0.035	-0.082
-582.836	128.076	-0.132	0.168
-581.821	100.631	-0.209	0.242
-580.806	94.877	-0.052	0.059
-579.792	-200.000	0.000	-0.187
-578.777	-133.535	0.199	-0.025
-577.763	54.122	0.250	0.240
-576.748	-186.219	-0.204	-0.003
-575.733	561.004	-0.142	-0.343
-574.719	342.238	0.237	-0.464
-573.704	800.000	0.057	0.159
-572.690	218.827	-0.081	0.129
-571.675	110.787	0.028	-0.034
-570.661	171.023	0.152	-0.217
-569.646	-153.868	-0.242	0.016
-568.631	460.945	-0.081	-0.181
-567.617	-7.984	-0.198	-0.133
-566.602	84.358	0.163	0.178
-565.588	-13.563	-0.233	0.150
-564.573	-200.000	-0.038	0.245
-563.558	51.233	-0.272	-0.258
-562.544	64.626	0.226	-0.227
-561.529	-200.000	0.002	-0.243
-560.515	-142.748	-0.154	0.015
-559.500	800.000	0.068	0.205
-558.485	511.323	-0.075	0.175
-557.471	-71.271	-0.437	0.164
-556.456	-22.466	-0.151	0.091
-555.442	800.000	-0.049	-0.203
-554.427	800.000	-0.082	-0.341
-553.412	-27.644	0.139	0.081
-552.398	-120.324	-0.185	0.031
-551.383	151.474	0.052	0.070
-550.369	140.854	-0.058	0.076
-549.354	122.182	-0.117	0.146
-548.339	-15.487	-0.115	0.073
-547.325	53.297	0.164	-0.157
-546.310	-73.066	0.116	0.043
-545.296	800.000	-0.101	0.386
-544.281	148.132	-0.022	0.030
-543.266	24.756	-0.040	0.033
-542.252	89.906	-0.124	-0.138
-541.237	-111.835	0.342	0.069
-540.223	-26.142	-0.170	0.100
-539.208	154.785	0.137	0.187
-538.193	-94.189	0.211	-0.058
-537.179	241.823	-0.045	-0.075
-536.164	-158.373	0.259	-0.015
-535.150	-74.673	0.214	0.077
-534.135	-66.900	0.036	-0.014
-533.121	560.737	-0.076	-0.184
-532.106	-108.420	0.314	-0.067
-531.091	800.000	-0.106	0.294
-530.077	-13.037	-0.322	0.209
-529.062	111.957	0.170	-0.205
-528.048	-200.000	-0.014	0.084
-527.033	-92.305	-0.146	0.041
-526.018	594.488	-0.036	0.090
-525.004	-36.657	0.237	-0.127
-523.989	-151.006	-0.120	0.009
-522.975	22.406	0.104	-0.085
-521.960	-200.000	0.001	0.301
-520.945	-48.616	0.127	0.061
-519.931	-54.785	0.171	0.077
-518.916	-48.778	-0.075	0.036
-517.902	-50.201	0.317	0.150
-516.887	147.365	0.070	0.094
-515.872	-112.683	-0.207	-0.041
-514.858	800.000	0.045	0.194
-513.843	-39.194	-0.171	0.090
-512.829	-126.528	0.119	-0.018
-511.814	-155.502	-0.224	-0.014
-510.799	-119.291	0.177	0.031
-509.785	800.000	-0.050	0.155
-508.770	-136.052	0.029	-0.003
-507.756	-183.858	-0.361	0.006
-506.741	-127.261	0.186	-0.027
-505.726	-126.449	0.241	0.036
-504.712	-70.590	-0.168	-0.063
-503.697	-200.000	0.008	0.212
-502.683	77.392	-0.195	0.206
-501.668	800.000	-0.020	0.073
-500.653	61.359	-0.313	-0.310
-499.639	736.829	0.054	0.145
-498.624	-25.602	0.017	-0.010
-497.610	481.062	-0.109	-0.247
-496.595	-64.573	-0.311	-0.126
-495.581	-200.000	-0.034	0.207
-494.566	-21.525	-0.143	0.087
-493.551	-71.732	0.107	-0.040
-492.537	-200.000	-0.006	0.071
-491.522	341.678	0.162	0.316
-490.508	-200.000	-0.034	0.253
-489.493	-200.000	-0.022	-0.342
-488.478	93.264	0.159	0.179
-487.464	800.000	0.011	0.034
-486.449	-122.787	-0.240	0.039
-485.435	-129.230	-0.127	0.018
-484.420	800.000	-0.046	-0.126
-483.405	800.000	0.093	-0.255
-482.391	-46.603	-0.260	-0.127
-481.376	-47.008	-0.213	-0.104
-480.362	-200.000	0.029	-0.204
-479.347	800.000	0.085	0.243
-478.332	119.933	0.148	-0.183
-477.318	-200.000	0.055	0.253
-476.303	-3.285	-0.140	0.097
-475.289	-61.564	-0.311	0.130
-474.274	-117.285	-0.176	0.032
-473.259	133.281	-0.125	-0.161
-472.245	174.447	0.132	0.190
-471.230	-200.000	-0.043	-0.244
-470.216	-52.335	0.309	0.142
-469.201	-200.000	-0.017	-0.174
-468.186	-200.000	-0.002	0.164
-467.172	-200.000	-0.044	-0.217
-466.157	150.048	-0.119	0.160
-465.143	16.073	-0.279	0.219
-464.128	74.349	0.196	-0.205
-463.113	-200.000	-0.014	-0.211
-462.099	-109.475	0.069	0.015
-461.084	52.964	0.158	-0.151
-460.070	800.000	-0.105	-0.338
-459.055	40.211	-0.162	0.145
-458.040	528.111	0.027	-0.063
-457.026	-200.000	0.001	-0.254
-456.011	800.000	-0.067	0.283
-454.997	-200.000	0.002	0.180
-453.982	49.916	-0.351	0.329
-452.968	92.399	-0.126	-0.141
-451.953	-200.000	-0.074	-0.350
-450.938	217.253	-0.172	0.272
-449.924	4.004	0.178	0.129
-448.909	162.453	-0.093	0.130
-447.895	800.000	0.075	0.210
-446.880	-6.999	0.108	0.073
-445.865	332.964	0.116	0.224
-444.851	-84.418	0.039	-0.012
-443.836	800.000	-0.028	0.110
-442.822	800.000	0.077	-0.259
-441.807	-35.939	-0.322	-0.173
-440.792	65.702	0.136	-0.137
-439.778	-62.502	-0.135	-0.056
-438.763	800.000	0.012	0.045
-437.749	4.395	-0.112	0.082
-436.734	-133.619	-0.021	0.003
-435.719	-200.000	0.068	0.386
-434.705	165.366	0.256	0.359
-433.690	-46.505	0.292	-0.142
-432.676	-67.062	-0.237	0.093
-431.661	-200.000	0.028	-0.357
-430.646	800.000	0.090	-0.284
-429.632	-200.000	0.052	-0.433
-428.617	413.750	-0.118	-0.249
-427.603	800.000	0.081	-0.309
-426.588	71.581	-0.053	0.055
-425.573	-139.626	0.133	-0.014
-424.559	-200.000	0.294	0.001
-423.544	-115.735	-0.284	-0.053
-422.530	409.857	-0.099	-0.209
-421.515	208.538	0.178	-0.276
-420.500	800.000	0.107	0.361
-419.486	-200.000	0.005	0.329
-418.471	800.000	-0.042	-0.138
-417.457	-181.176	-0.209	-0.004
-416.442	800.000	-0.083	0.307
-415.428	363.298	-0.026	-0.052
-414.413	-14.462	0.337	0.215
-413.398	58.739	0.179	0.175
-412.384	-200.000	0.006	0.112
-411.369	174.031	-0.034	0.049
-410.355	197.936	0.171	0.260
-409.340	231.979	-0.128	-0.208
-408.325	800.000	0.050	0.177
-407.311	-114.954	0.150	-0.028
-406.296	800.000	0.122	-0.377
-405.282	378.898	0.126	0.256
-404.267	-16.639	0.038	0.024
-403.252	-192.578	-0.165	0.002
-402.238	-2.881	-0.061	-0.042
-401.223	-200.000	0.004	-0.296
-400.209	-200.000	-0.038	-0.259
-399.194	-200.000	-0.035	-0.188
-398.179	42.347	-0.408	-0.367
-397.165	-54.947	-0.199	0.089
-396.150	-67.622	0.413	0.160
-395.136	-98.300	-0.183	0.047
-394.121	800.000	-0.065	0.181
-393.106	800.000	0.136	-0.389
-392.092	-61.186	-0.142	0.059
-391.077	32.217	0.125	-0.107
-390.063	-24.772	-0.111	-0.065
-389.048	714.314	0.097	0.255
-388.033	98.320	-0.300	-0.342
-387.019	342.710	-0.120	-0.232
-386.004	-51.102	0.097	0.045
-384.990	-69.222	-0.358	0.137
-383.975	-119.134	0.196	0.034
-382.960	-24.315	-0.196	-0.116
-381.946	-164.552	-0.208	-0.009
-380.931	106.799	-0.076	0.089
-379.917	-75.186	0.186	-0.066
-378.902	333.025	-0.073	0.139
-377.888	-200.000	0.014	0.123
-376.873	-148.676	-0.151	0.012
-375.858	82.748	-0.124	0.133
-374.844	10.444	0.268	-0.202
-373.829	22.493	-0.137	-0.111
-372.815	-100.965	0.042	0.010
-371.800	214.106	0.109	-0.171
-370.785	-129.025	0.108	0.015
-369.771	-53.411	0.313	-0.142
-368.756	-200.000	-0.031	-0.452
-367.742	146.099	0.073	0.098
-366.727	24.175	0.238	-0.195
-365.712	142.960	-0.122	0.160
-364.698	800.000	-0.053	-0.170
-363.683	529.247	-0.106	-0.248
-362.669	191.418	0.044	-0.066
-361.654	169.345	-0.043	-0.061
-360.639	-103.460	-0.302	-0.070
-359.625	331.200	0.142	0.271
-358.610	800.000	0.084	0.353
-357.596	164.714	-0.075	0.105
-356.581	-177.456	0.188	-0.005
-355.566	800.000	0.009	0.032
-354.552	59.705	-0.062	-0.060
-353.537	479.938	0.042	-0.095
-352.523	-74.983	0.165	0.059
-351.508	36.149	0.030	-0.026
-350.493	-200.000	-0.005	0.256
-349.479	-58.048	0.380	0.164
-348.464	-200.000	0.014	0.114
-347.450	-47.940	-0.059	-0.028
-346.435	-90.201	0.179	-0.051
-345.420	64.119	0.076	0.075
-344.406	-9.934	-0.182	0.120
-343.391	-114.143	0.377	0.072
-342.377	-76.019	0.044	-0.015
-341.362	-86.769	-0.318	-0.096
-340.348	90.907	0.292	0.324
-339.333	-84.163	0.160	0.050
-338.318	10.770	0.164	0.124
-337.304	-200.000	-0.146	0.000
-336.289	-199.902	0.217	0.001
-335.275	334.666	-0.100	0.192
-334.260	-1.039	-0.097	0.068
-333.245	-200.000	-0.002	-0.203
-332.231	800.000	-0.036	0.120
-331.216	88.273	0.103	-0.113
-330.202	180.317	0.114	-0.165
-329.187	146.195	0.045	-0.060
-328.172	-200.000	0.010	-0.247
-327.158	-47.796	-0.121	0.058
-326.143	800.000	-0.081	0.237
-325.129	-100.573	-0.110	-0.027
-324.114	-106.385	0.154	0.034
-323.099	155.727	-0.230	0.313
-322.085	455.436	-0.049	0.107
-321.070	289.721	0.042	-0.075
-320.056	-92.321	-0.120	-0.033
-319.041	-200.000	0.039	0.194
-318.026	247.875	-0.050	0.084
-317.012	-200.000	0.017	-0.106
-315.997	66.192	-0.241	0.242
-314.983	-56.241	0.039	-0.017
-313.968	-172.942	0.205	0.006
-312.953	141.895	-0.026	-0.035
-311.939	29.959	0.223	0.187
-310.924	-34.399	-0.144	0.078
-309.910	-200.000	-0.004	0.049
-308.895	-126.394	0.197	-0.029
-307.880	23.526	0.176	0.143
-306.866	-107.052	-0.153	-0.033
-305.851	331.180	0.097	-0.185
-304.837	129.357	-0.373	-0.471
-303.822	-58.537	0.271	0.116
-302.807	-200.000	-0.017	0.328
-301.793	-88.302	-0.160	0.047
-300.778	800.000	-0.062	0.190
-299.764	-76.356	0.277	-0.096
-298.749	26.695	-0.065	-0.054
-297.735	633.159	0.035	-0.087
-296.720	-88.709	0.252	-0.074
-295.705	237.603	-0.188	0.307
-294.691	-200.000	0.001	0.183
-293.676	-4.740	0.311	-0.212
-292.662	-115.129	0.259	0.048
-291.647	95.348	-0.250	0.282
-290.632	229.429	-0.172	-0.278
-289.618	43.033	0.252	-0.227
-288.603	-180.873	0.171	-0.003
-287.589	778.603	-0.108	-0.291
-286.574	-75.314	0.094	-0.033
-285.559	-57.431	0.122	0.053
-284.545	-47.074	-0.284	-0.137
-283.530	-68.389	0.142	0.055
-282.516	-139.538	0.292	-0.031
-281.501	-151.716	-0.060	0.004
-280.486	-169.079	0.295	0.011
-279.472	-64.695	0.166	-0.067
-278.457	800.000	-0.081	-0.229
-277.443	-200.000	-0.007	0.231
-276.428	636.314	-0.107	0.269
-275.413	200.207	0.130	0.196
-274.399	-34.648	-0.219	-0.118
-273.384	-129.844	0.224	-0.030
-272.370	-135.450	0.186	0.022
-271.355	282.073	0.058	0.103
-270.340	800.000	-0.054	0.148
-269.326	-200.000	-0.066	0.292
-268.311	291.939	0.125	-0.224
-267.297	-200.000	0.064	0.445
-266.282	800.000	-0.173	0.541
-265.267	800.000	0.078	0.336
-264.253	-45.393	0.181	0.088
-263.238	10.688	0.079	0.060
-262.224	409.531	-0.032	0.067
-261.209	-115.443	0.174	-0.032
-260.195	-141.922	0.060	-0.006
-259.180	2.567	-0.172	-0.123
-258.165	-200.000	-0.009	-0.199
-257.151	199.890	0.155	-0.235
-256.136	346.790	0.151	0.293
-255.122	584.827	0.043	-0.104
-254.107	-200.000	0.019	0.223
-253.092	-200.000	-0.045	-0.292
-252.078	-49.327	-0.058	-0.027
-251.063	88.327	0.089	0.097
-250.049	-98.795	0.116	0.029
-249.034	-29.306	-0.241	-0.136
-248.019	167.687	0.018	-0.025
-247.005	-1.567	0.200	0.139
-245.990	231.949	0.079	-0.127
-244.976	-69.105	-0.285	0.108
-243.961	80.951	-0.205	0.218
-242.946	-42.847	-0.298	0.149
-241.932	-200.000	0.007	0.079
-240.917	154.231	0.131	0.177
-239.903	-41.046	-0.139	0.071
-238.888	604.035	-0.042	-0.102
-237.873	25.780	0.284	0.233
-236.859	-71.653	-0.166	-0.061
-235.844	86.363	0.120	0.131
-234.830	-67.315	0.127	-0.049
-233.815	400.341	0.080	0.164
-232.800	-75.124	-0.505	-0.178
-231.786	-8.670	-0.244	0.161
-230.771	800.000	0.103	-0.396
-229.757	-200.000	-0.000	0.159
-228.742	-97.979	0.160	-0.041
-227.727	-60.633	-0.118	0.049
-226.713	-67.666	0.038	-0.015
-225.698	14.227	-0.179	-0.138
-224.684	111.074	0.371	-0.440
-223.669	97.911	-0.186	-0.211
-222.655	-9.053	-0.180	0.119
-221.640	-119.352	0.366	-0.063
-220.625	-120.949	-0.349	0.058
-219.611	-18.595	0.065	-0.040
-218.596	800.000	-0.086	-0.359
-217.582	-200.000	-0.031	-0.144
-216.567	800.000	0.020	0.071
-215.552	800.000	-0.034	-0.115
-214.538	199.602	-0.118	0.178
-213.523	-116.727	-0.244	-0.044
-212.509	-159.556	0.314	-0.017
-211.494	-200.000	0.010	0.098
-210.479	-75.988	-0.206	-0.072
-209.465	83.391	0.057	0.061
-208.450	364.879	-0.142	0.282
-207.436	-65.707	-0.173	0.068
-206.421	-5.461	-0.160	0.108
-205.406	800.000	0.038	-0.126
-204.392	800.000	0.057	-0.206
-203.377	-103.691	0.177	0.041
-202.363	119.164	0.161	-0.195
-201.348	54.053	-0.199	0.188
-200.333	182.107	0.185	-0.268
-199.319	800.000	0.063	0.237
-198.304	54.357	0.210	0.199
-197.290	-91.420	-0.207	0.058
-196.275	60.174	-0.036	-0.035
-195.260	282.837	0.077	-0.136
-194.246	247.725	0.183	-0.304
-193.231	800.000	0.091	-0.268
-192.217	-50.070	-0.079	-0.037
-191.202	800.000	0.025	0.079
-190.187	-172.808	-0.286	0.009
-189.173	-135.975	0.392	-0.045
-188.158	439.966	0.089	0.190
-187.144	800.000	-0.098	-0.277
-186.129	240.988	-0.057	-0.093
-185.114	-200.000	0.029	-0.231
-184.100	-77.198	0.098	0.034
-183.085	118.152	0.226	-0.274
-182.071	544.553	-0.038	0.090
-181.056	-200.000	-0.007	-0.070
-180.042	-95.507	-0.277	0.073
-179.027	646.149	-0.032	-0.080
-178.012	166.809	0.276	-0.385
-176.998	-71.203	-0.274	-0.101
-175.983	-97.390	-0.091	0.023
-174.969	-200.000	-0.041	-0.281
-173.954	8.685	0.187	-0.139
-172.939	-113.826	-0.202	-0.039
-171.925	-111.757	0.222	0.044
-170.910	-200.000	-0.058	0.358
-169.896	-70.250	0.104	-0.039
-168.881	-153.527	0.174	0.012
-167.866	39.855	-0.243	-0.214
-166.852	26.006	-0.212	-0.174
-165.837	800.000	0.071	0.231
-164.823	226.539	-0.106	0.170
-163.808	5.886	-0.170	0.124
-162.793	72.548	-0.079	0.081
-161.779	-39.402	-0.068	0.035
-160.764	-137.593	0.129	-0.014
-159.750	-85.831	0.407	0.124
-158.735	15.034	0.110	-0.085
-157.720	95.138	-0.208	-0.232
-156.706	800.000	0.006	-0.021
-155.691	1.043	0.237	-0.167
-154.677	3.730	0.278	-0.200
-153.662	-13.022	-0.170	-0.109
-152.647	-61.682	-0.176	0.072
-151.633	-2.500	0.146	-0.101
-150.618	-15.606	0.256	0.161
-149.604	109.382	-0.130	0.153
-148.589	87.851	0.154	0.168
-147.574	-38.306	0.206	-0.107
-146.560	-53.785	-0.277	-0.124
-145.545	-29.713	-0.219	-0.123
-144.531	800.000	-0.041	-0.164
-143.516	-163.533	0.283	-0.013
-142.502	13.803	0.245	0.187
-141.487	93.966	0.120	0.134
-140.472	-109.736	-0.321	0.066
-139.458	-200.000	0.024	-0.198
-138.443	-53.681	0.256	-0.115
-137.429	222.616	0.212	0.334
-136.414	-200.000	0.018	0.108
-135.399	-103.527	-0.185	0.043
-134.385	800.000	0.058	-0.186
-133.370	156.713	0.197	0.267
-132.356	105.327	0.276	-0.320
-131.341	-200.000	-0.039	0.261
-130.326	-94.390	0.079	-0.021
-129.312	-58.096	0.290	0.124
-128.297	-11.179	0.203	0.131
-127.283	-37.003	-0.196	-0.103
-126.268	119.186	0.284	0.344
-125.253	-26.739	-0.267	-0.153
-124.239	620.758	-0.028	0.069
-123.224	-91.894	-0.140	-0.039
-122.210	18.605	-0.302	0.237
-121.195	412.091	0.240	0.499
