DTS Sentinel unit serial number:	SN413079Multiplexer serial number:	ORYXHardware model number:	OX4-SRSoftware version number:	ORYX F/W v4.00 Oryx Data Collector v3.7.2.0data status	okinstallation	princeton_trtdifferential loss correction	single-endedforward channel	channel 3reverse channel	N/Adate	2019/09/15time	21:40:34forward acquisition time	60.00reverse acquisition time	0.00gamma	496.2192k internal	0.2329k external	0.2329temperature offset calibration	0.9939default loss term (dB/km)	0.3790temperature slope calibration	1.0000multiplexer offset coefficient	1.0000multiplexer slope coefficient	1.0000fibre end	0.00T internal ref (°C)	30.42T ext. ref 1 (°C)	8.36T ext. ref 2 (°C)	23.50length (m)	temperature (°C)	Stokes	anti-Stokes-747.200	37.452	0.332	-0.297
-746.185	1.254	-0.061	-0.044
-745.171	-125.438	0.230	-0.035
-744.156	627.747	-0.098	0.250
-743.142	800.000	0.127	0.374
-742.127	-111.841	-0.424	0.086
-741.112	54.812	0.118	0.115
-740.098	-57.358	-0.335	0.148
-739.083	-65.911	-0.144	0.058
-738.069	-200.000	0.045	0.305
-737.054	-200.000	-0.019	0.106
-736.039	13.707	-0.309	-0.242
-735.025	-7.578	0.123	0.084
-734.010	-44.983	0.157	0.079
-732.996	426.849	-0.138	-0.299
-731.981	-200.000	-0.037	0.205
-730.966	-200.000	0.001	0.082
-729.952	-200.000	0.019	0.148
-728.937	509.739	0.061	0.142
-727.923	-200.000	-0.000	-0.249
-726.908	-59.401	-0.178	-0.077
-725.894	-121.671	0.054	0.009
-724.879	-200.000	0.043	-0.189
-723.864	168.626	-0.050	-0.071
-722.850	-161.283	0.292	0.015
-721.835	-169.224	-0.284	0.011
-720.821	58.407	0.197	-0.194
-719.806	800.000	0.041	-0.143
-718.791	-200.000	0.005	-0.119
-717.777	800.000	-0.040	-0.134
-716.762	-15.974	0.243	-0.155
-715.748	-200.000	0.016	0.384
-714.733	17.935	0.023	-0.018
-713.718	40.362	-0.215	-0.195
-712.704	-50.403	-0.556	-0.264
-711.689	-200.000	0.001	0.199
-710.675	-2.496	0.385	0.272
-709.660	-41.419	0.231	0.120
-708.645	-200.000	-0.055	0.251
-707.631	303.028	0.053	-0.100
-706.616	173.136	-0.030	-0.044
-705.602	-94.777	-0.257	0.070
-704.587	-200.000	-0.009	0.088
-703.572	-145.237	-0.136	-0.012
-702.558	800.000	-0.162	-0.574
-701.543	704.904	0.046	-0.121
-700.529	-62.707	0.258	0.108
-699.514	800.000	0.061	-0.254
-698.499	-41.668	-0.289	0.149
-697.485	324.692	-0.129	0.248
-696.470	174.499	-0.059	-0.086
-695.456	58.958	0.071	0.070
-694.441	800.000	0.033	0.094
-693.426	16.651	0.053	0.042
-692.412	-36.720	-0.138	-0.074
-691.397	-51.725	0.245	-0.115
-690.383	426.262	0.062	-0.135
-689.368	800.000	-0.028	0.096
-688.354	224.960	-0.105	-0.170
-687.339	-43.395	-0.129	-0.066
-686.324	-64.141	0.099	0.041
-685.310	245.374	0.099	-0.167
-684.295	-155.388	0.047	0.003
-683.281	-119.088	-0.203	-0.036
-682.266	-129.187	-0.145	-0.020
-681.251	-11.512	0.272	-0.180
-680.237	23.877	0.107	-0.089
-679.222	-135.556	0.172	-0.021
-678.208	250.121	-0.210	-0.359
-677.193	-53.811	0.168	-0.077
-676.178	261.393	0.079	0.137
-675.164	-22.111	-0.178	0.108
-674.149	800.000	0.087	-0.356
-673.135	-200.000	0.009	-0.063
-672.120	457.423	0.157	-0.350
-671.105	35.423	0.357	0.315
-670.091	-22.378	-0.244	-0.148
-669.076	800.000	-0.041	-0.117
-668.062	-46.009	-0.272	0.134
-667.047	313.789	0.109	-0.207
-666.032	-200.000	0.008	0.138
-665.018	2.299	0.092	-0.067
-664.003	-52.524	-0.283	-0.131
-662.989	-200.000	0.055	-0.367
-661.974	-131.673	0.286	-0.038
-660.959	-80.745	-0.228	-0.076
-659.945	-200.000	-0.002	-0.188
-658.930	-200.000	0.055	0.273
-657.916	-200.000	-0.228	0.000
-656.901	54.776	-0.266	0.258
-655.886	-113.198	0.240	0.047
-654.872	49.320	-0.131	0.123
-653.857	-2.389	-0.128	-0.090
-652.843	-43.457	0.209	0.106
-651.828	-105.560	-0.422	-0.096
-650.814	-128.636	0.167	-0.024
-649.799	-42.351	-0.396	-0.203
-648.784	-200.000	0.012	0.164
-647.770	294.677	0.213	-0.391
-646.755	-145.060	-0.170	-0.016
-645.741	-200.000	0.028	-0.547
-644.726	-20.913	-0.110	-0.068
-643.711	189.069	0.170	-0.256
-642.697	87.098	-0.169	0.187
-641.682	2.636	0.127	-0.092
-640.668	-150.265	0.133	0.010
-639.653	0.438	-0.078	-0.056
-638.638	-34.096	-0.085	0.047
-637.624	-200.000	0.040	0.181
-636.609	-200.000	0.034	-0.225
-635.595	-125.631	0.156	0.024
-634.580	-200.000	-0.001	0.051
-633.565	-53.572	0.152	0.070
-632.551	-200.000	0.014	0.220
-631.536	-46.461	-0.500	0.246
-630.522	124.904	0.089	-0.113
-629.507	686.739	-0.072	-0.188
-628.492	-81.003	-0.068	0.023
-627.478	-132.292	-0.248	0.032
-626.463	99.472	0.085	-0.099
-625.449	-200.000	-0.015	-0.232
-624.434	-113.559	-0.271	-0.053
-623.419	-198.896	0.019	0.000
-622.405	-200.000	-0.022	-0.536
-621.390	-200.000	-0.043	-0.483
-620.376	-15.485	-0.072	-0.046
-619.361	581.610	-0.018	-0.045
-618.346	337.058	-0.034	-0.067
-617.332	-85.288	-0.138	0.043
-616.317	84.686	0.041	0.045
-615.303	374.660	0.169	0.346
-614.288	-200.000	-0.049	-0.314
-613.273	-100.518	-0.303	0.075
-612.259	547.520	-0.124	-0.299
-611.244	58.221	-0.174	-0.170
-610.230	664.241	0.048	0.124
-609.215	-87.810	-0.289	0.087
-608.201	-53.691	0.100	-0.046
-607.186	-200.000	0.001	-0.094
-606.171	26.564	-0.108	0.091
-605.157	800.000	0.005	-0.020
-604.142	-200.000	0.005	0.239
-603.128	63.646	-0.107	-0.108
-602.113	232.670	0.068	-0.112
-601.098	-130.567	-0.160	-0.022
-600.084	14.229	-0.158	0.123
-599.069	45.626	0.188	0.174
-598.055	800.000	-0.130	-0.445
-597.040	-200.000	-0.028	-0.251
-596.025	-200.000	-0.022	0.380
-595.011	12.043	-0.208	-0.161
-593.996	69.998	0.172	0.177
-592.982	-120.780	-0.119	0.020
-591.967	800.000	-0.073	-0.234
-590.952	-10.025	0.233	0.155
-589.938	-17.957	-0.170	-0.106
-588.923	-200.000	-0.004	-0.159
-587.909	-16.832	-0.450	0.285
-586.894	-99.522	-0.277	-0.070
-585.879	-200.000	-0.004	-0.182
-584.865	-95.103	0.152	-0.041
-583.850	168.310	-0.215	-0.306
-582.836	57.022	0.088	0.086
-581.821	325.903	-0.098	0.188
-580.806	72.665	-0.052	0.055
-579.792	-134.691	0.304	-0.037
-578.777	37.259	0.157	0.140
-577.763	376.172	0.039	0.080
-576.748	-89.048	0.247	0.073
-575.733	296.882	0.053	0.098
-574.719	-122.979	0.172	-0.028
-573.704	-45.605	-0.062	-0.031
-572.690	-200.000	0.053	-0.292
-571.675	152.292	-0.110	0.150
-570.661	-2.357	0.094	0.066
-569.646	800.000	0.060	0.259
-568.631	310.305	0.024	0.044
-567.617	-200.000	0.014	0.175
-566.602	-126.990	0.483	0.071
-565.588	-73.880	-0.131	-0.048
-564.573	-115.527	-0.117	-0.022
-563.558	60.570	0.046	-0.046
-562.544	-103.965	0.287	-0.067
-561.529	800.000	0.049	0.201
-560.515	-200.000	0.031	-0.189
-559.500	800.000	-0.043	0.126
-558.485	-123.778	-0.344	-0.054
-557.471	96.412	-0.141	-0.161
-556.456	31.596	-0.164	-0.141
-555.442	800.000	-0.066	-0.243
-554.427	-200.000	-0.002	0.156
-553.412	44.026	0.053	-0.049
-552.398	84.105	-0.087	-0.095
-551.383	275.871	0.056	-0.100
-550.369	52.140	0.135	-0.128
-549.354	209.289	-0.076	0.120
-548.339	3.339	0.135	0.098
-547.325	69.094	0.111	0.114
-546.310	-12.601	0.055	-0.036
-545.296	-42.126	-0.296	-0.152
-544.281	111.996	-0.300	-0.362
-543.266	-101.619	0.349	-0.085
-542.252	-200.000	-0.019	0.178
-541.237	800.000	0.058	0.232
-540.223	-27.136	0.406	-0.237
-539.208	800.000	0.097	-0.416
-538.193	704.456	-0.074	-0.194
-537.179	57.847	-0.155	0.151
-536.164	800.000	-0.065	0.279
-535.150	245.955	-0.107	-0.181
-534.135	-62.044	0.064	-0.027
-533.121	-13.704	-0.269	0.174
-532.106	-17.143	-0.100	0.063
-531.091	160.810	-0.175	-0.244
-530.077	-190.036	-0.235	0.003
-529.062	-131.733	0.047	-0.006
-528.048	5.769	-0.082	-0.061
-527.033	47.149	-0.076	0.071
-526.018	28.566	0.093	0.079
-525.004	800.000	-0.066	-0.263
-523.989	197.529	0.132	0.201
-522.975	27.014	-0.107	-0.089
-521.960	441.461	0.052	-0.114
-520.945	-105.720	-0.384	-0.087
-519.931	-41.677	0.187	-0.096
-518.916	332.839	0.134	0.259
-517.902	683.063	0.084	0.218
-516.887	83.206	-0.175	0.190
-515.872	-200.000	-0.014	-0.291
-514.858	800.000	-0.064	-0.267
-513.843	84.580	0.166	0.181
-512.829	203.831	-0.117	-0.181
-511.814	800.000	-0.012	-0.036
-510.799	165.318	0.147	0.207
-509.785	516.042	-0.050	-0.116
-508.770	632.544	-0.096	-0.243
-507.756	800.000	0.040	-0.173
-506.741	-69.051	0.175	-0.067
-505.726	759.711	-0.080	-0.217
-504.712	268.966	-0.080	-0.140
-503.697	7.281	0.297	0.221
-502.683	-48.557	-0.333	-0.160
-501.668	294.159	0.083	-0.151
-500.653	-107.688	0.201	-0.044
-499.639	212.827	-0.130	0.205
-498.624	573.976	-0.212	0.517
-497.610	-60.676	0.196	0.083
-496.595	5.723	0.129	-0.095
-495.581	-30.380	-0.225	0.127
-494.566	75.824	-0.220	0.232
-493.551	637.124	0.050	0.128
-492.537	-200.000	0.060	-0.291
-491.522	146.607	-0.058	-0.077
-490.508	221.795	0.229	0.367
-489.493	-154.419	0.155	0.010
-488.478	-162.811	-0.325	-0.016
-487.464	354.740	0.093	-0.184
-486.449	-130.059	-0.081	-0.011
-485.435	800.000	-0.070	-0.300
-484.420	-139.189	0.118	0.013
-483.405	-155.109	0.112	-0.007
-482.391	-72.482	-0.588	-0.217
-481.376	-200.000	-0.171	0.001
-480.362	800.000	0.133	0.395
-479.347	420.162	0.063	-0.134
-478.332	-200.000	-0.003	0.120
-477.318	-78.966	0.252	0.085
-476.303	449.561	-0.152	-0.335
-475.289	-200.000	-0.035	0.322
-474.274	-87.812	-0.134	0.040
-473.259	-200.000	-0.003	0.196
-472.245	800.000	0.053	0.184
-471.230	206.281	-0.071	0.111
-470.216	-200.000	0.022	-0.157
-469.201	287.964	-0.075	0.135
-468.186	-51.598	-0.131	0.061
-467.172	625.384	-0.085	0.212
-466.157	800.000	-0.046	0.131
-465.143	-157.126	-0.081	-0.005
-464.128	-23.408	0.186	0.112
-463.113	-200.000	0.018	0.090
-462.099	800.000	-0.056	0.184
-461.084	-26.631	0.084	0.049
-460.070	165.244	0.152	0.213
-459.055	294.701	0.051	-0.092
-458.040	30.442	0.187	0.159
-457.026	266.794	-0.142	-0.247
-456.011	86.482	0.243	-0.267
-454.997	800.000	0.023	0.097
-453.982	-145.235	0.103	-0.009
-452.968	-92.488	-0.135	-0.038
-451.953	49.361	-0.209	0.196
-450.938	14.263	-0.201	0.156
-449.924	166.920	0.235	0.333
-448.909	-27.755	-0.206	0.119
-447.895	800.000	-0.017	-0.068
-446.880	35.270	-0.268	-0.234
-445.865	-91.322	0.173	0.049
-444.851	-74.320	0.251	-0.090
-443.836	9.627	0.292	-0.220
-442.822	-112.064	-0.413	0.083
-441.807	-131.173	0.220	0.029
-440.792	114.857	-0.154	0.187
-439.778	46.648	-0.136	-0.126
-438.763	123.116	0.170	0.212
-437.749	67.516	-0.220	-0.224
-436.734	11.217	0.088	0.067
-435.719	116.885	0.079	0.097
-434.705	297.094	-0.105	-0.192
-433.690	107.336	0.207	0.245
-432.676	-10.460	0.090	-0.060
-431.661	296.014	0.078	-0.142
-430.646	71.691	0.220	0.228
-429.632	391.766	0.054	-0.112
-428.617	-144.435	0.301	-0.028
-427.603	-171.514	0.217	0.007
-426.588	68.085	-0.208	0.211
-425.573	-83.077	0.232	0.074
-424.559	800.000	0.092	0.319
-423.544	800.000	-0.094	0.329
-422.530	-200.000	-0.012	0.347
-421.515	800.000	-0.087	-0.369
-420.500	-77.746	-0.201	0.069
-419.486	46.198	-0.057	0.053
-418.471	95.127	-0.014	0.016
-417.457	179.263	0.070	-0.102
-416.442	67.204	0.353	0.358
-415.428	6.056	0.107	-0.079
-414.413	435.481	-0.048	0.104
-413.398	323.397	-0.077	0.146
-412.384	196.654	0.224	0.340
-411.369	-200.000	-0.001	0.062
-410.355	-48.318	-0.110	0.053
-409.340	209.543	-0.111	-0.172
-408.325	177.938	0.187	-0.271
-407.311	361.121	-0.099	-0.197
-406.296	55.017	-0.210	0.202
-405.282	-10.115	0.078	-0.052
-404.267	4.976	-0.159	0.116
-403.252	272.519	-0.050	-0.088
-402.238	385.497	0.106	-0.218
-401.223	-200.000	-0.034	-0.211
-400.209	37.868	0.229	0.202
-399.194	800.000	0.095	0.304
-398.179	90.539	-0.086	-0.096
-397.165	29.125	-0.144	-0.121
-396.150	-200.000	-0.015	0.294
-395.136	-89.538	0.092	0.027
-394.121	-200.000	-0.038	-0.171
-393.106	-200.000	0.007	-0.056
-392.092	-105.749	0.274	0.062
-391.077	19.224	0.097	0.077
-390.063	-34.097	-0.295	0.161
-389.048	675.273	-0.068	0.176
-388.033	-182.392	-0.143	0.003
-387.019	-200.000	0.063	0.453
-386.004	-89.150	-0.246	0.072
-384.990	176.238	0.175	-0.253
-383.975	800.000	0.104	-0.388
-382.960	-160.922	0.223	-0.012
-381.946	781.894	-0.050	-0.136
-380.931	4.073	-0.112	-0.081
-379.917	-19.773	-0.350	-0.215
-378.902	360.998	0.071	0.141
-377.888	95.952	0.118	-0.134
-376.873	-51.242	-0.167	-0.078
-375.858	800.000	0.028	-0.088
-374.844	800.000	0.048	0.159
-373.829	128.157	-0.149	0.188
-372.815	-43.548	-0.405	0.203
-371.800	204.005	-0.074	-0.114
-370.785	498.169	-0.088	0.202
-369.771	-143.880	-0.302	0.028
-368.756	-105.377	0.274	-0.062
-367.742	800.000	0.077	-0.243
-366.727	96.396	-0.118	0.134
-365.712	800.000	0.016	0.068
-364.698	251.959	0.098	-0.166
-363.683	-85.863	0.262	-0.080
-362.669	8.565	0.036	-0.027
-361.654	-98.641	0.199	-0.050
-360.639	6.176	-0.067	-0.049
-359.625	12.246	-0.363	-0.278
-358.610	-93.052	-0.174	-0.048
-357.596	10.988	0.309	-0.234
-356.581	777.257	-0.021	0.056
-355.566	-98.254	-0.368	0.094
-354.552	-69.364	0.113	0.043
-353.537	-121.188	-0.314	0.052
-352.523	85.121	-0.312	-0.339
-351.508	-24.055	0.234	0.139
-350.493	146.262	0.067	0.089
-349.479	213.718	-0.200	-0.313
-348.464	-95.171	0.082	0.022
-347.450	-56.145	-0.205	0.091
-346.435	-200.000	-0.035	0.550
-345.420	-200.000	0.018	0.212
-344.406	21.374	0.103	0.083
-343.391	800.000	-0.079	0.324
-342.377	192.722	0.008	-0.012
-341.362	-200.000	-0.023	0.418
-340.348	-33.393	-0.034	-0.018
-339.333	800.000	0.034	-0.122
-338.318	-200.000	-0.024	0.157
-337.304	-89.383	0.161	0.047
-336.289	800.000	0.009	0.040
-335.275	6.997	0.105	0.078
-334.260	7.063	0.182	0.135
-333.245	-154.323	0.126	0.008
-332.231	189.271	0.072	-0.107
-331.216	31.353	-0.336	-0.286
-330.202	800.000	-0.047	-0.177
-329.187	-200.000	0.037	0.165
-328.172	-200.000	0.018	-0.418
-327.158	-82.693	0.217	0.070
-326.143	68.225	-0.122	-0.123
-325.129	-2.926	-0.298	-0.206
-324.114	-187.906	0.153	0.002
-323.099	8.476	0.091	-0.068
-322.085	-200.000	-0.020	-0.229
-321.070	-37.842	-0.109	-0.057
-320.056	-200.000	-0.059	-0.399
-319.041	11.217	-0.131	0.099
-318.026	140.675	0.143	-0.187
-317.012	800.000	0.057	-0.179
-315.997	-200.000	0.007	0.281
-314.983	228.240	0.083	0.133
-313.968	800.000	0.073	0.291
-312.953	335.322	-0.066	-0.127
-311.939	206.139	-0.049	-0.075
-310.924	-118.991	-0.110	-0.019
-309.910	-169.085	0.077	0.003
-308.895	-200.000	0.054	-0.255
-307.880	800.000	0.034	-0.095
-306.866	83.890	0.181	0.195
-305.851	-14.989	-0.017	-0.010
-304.837	-200.000	-0.028	0.234
-303.822	-127.958	-0.377	0.054
-302.807	800.000	0.059	0.181
-301.793	20.189	-0.040	-0.032
-300.778	322.756	-0.136	-0.256
-299.764	800.000	-0.071	-0.256
-298.749	86.376	-0.081	0.088
-297.735	281.498	-0.061	0.108
-296.720	800.000	-0.041	-0.127
-295.705	-200.000	-0.007	-0.308
-294.691	779.409	-0.082	0.221
-293.676	800.000	0.084	-0.301
-292.662	32.174	-0.164	0.140
-291.647	800.000	-0.046	0.195
-290.632	800.000	0.006	0.023
-289.618	252.568	0.189	0.318
-288.603	69.733	-0.117	0.119
-287.589	800.000	0.046	-0.191
-286.574	287.914	0.146	-0.262
-285.559	-121.092	0.257	-0.043
-284.545	261.584	0.134	-0.230
-283.530	15.336	0.115	0.089
-282.516	-175.303	-0.129	0.004
-281.501	-200.000	-0.017	-0.187
-280.486	-200.000	0.025	-0.275
-279.472	-91.876	0.071	-0.020
-278.457	110.362	-0.063	-0.075
-277.443	-200.000	-0.024	0.333
-276.428	418.661	-0.199	0.421
-275.413	800.000	0.047	0.176
-274.399	122.558	-0.067	0.083
-273.384	-17.466	-0.091	-0.057
-272.370	-200.000	-0.006	-0.194
-271.355	-100.742	-0.061	0.015
-270.340	-200.000	0.006	-0.149
-269.326	124.526	0.120	-0.149
-268.311	-200.000	0.003	0.100
-267.297	-33.290	-0.235	-0.129
-266.282	-200.000	-0.044	0.265
-265.267	74.329	0.270	0.281
-264.253	12.049	-0.099	0.075
-263.238	79.382	-0.161	-0.171
-262.224	-173.801	0.231	0.007
-261.209	227.191	-0.115	0.185
-260.195	-109.243	-0.255	-0.054
-259.180	-27.861	0.118	-0.068
-258.165	-27.718	-0.401	-0.230
-257.151	25.704	0.188	-0.154
-256.136	-200.000	0.009	-0.136
-255.122	-200.000	0.002	-0.349
-254.107	278.189	0.084	-0.148
-253.092	800.000	-0.079	0.228
-252.078	800.000	-0.116	0.456
-251.063	-21.900	0.132	0.079
-250.049	-200.000	-0.024	-0.226
-249.034	302.561	0.164	0.300
-248.019	-108.670	0.086	0.018
-247.005	-72.200	0.338	0.124
-245.990	26.926	-0.105	-0.087
-244.976	800.000	0.046	-0.195
-243.961	141.951	0.068	-0.089
-242.946	-101.787	0.262	0.063
-241.932	-91.344	0.450	-0.127
-240.917	-17.724	-0.216	0.134
-239.903	-0.841	-0.301	-0.211
-238.888	146.584	0.077	-0.102
-237.873	148.725	0.158	-0.211
-236.859	190.238	0.110	0.164
-235.844	-35.828	0.312	0.167
-234.830	-32.305	-0.240	-0.132
-233.815	115.459	0.071	-0.086
-232.800	-71.992	0.141	0.052
-231.786	-200.000	-0.048	0.240
-230.771	42.527	0.360	-0.324
-229.757	-200.000	0.033	-0.190
-228.742	-200.000	-0.078	0.386
-227.727	-200.000	0.038	0.205
-226.713	800.000	-0.020	-0.061
-225.698	-200.000	-0.064	-0.343
-224.684	-200.000	-0.033	-0.240
-223.669	497.645	-0.069	0.157
-222.655	-23.687	-0.239	-0.141
-221.640	-76.249	0.148	-0.052
-220.625	-84.503	0.174	-0.054
-219.611	494.949	-0.032	0.072
-218.596	-112.378	0.307	0.061
-217.582	800.000	-0.128	0.479
-216.567	-46.906	-0.272	0.131
-215.552	-90.344	0.362	-0.104
-214.538	417.057	-0.101	-0.213
-213.523	198.359	0.179	-0.270
-212.509	-83.769	0.588	0.185
-211.494	-132.845	0.093	-0.012
-210.479	-102.040	-0.172	0.041
-209.465	800.000	-0.109	0.300
-208.450	54.557	0.161	0.153
-207.436	-136.284	0.212	-0.024
-206.421	30.867	0.294	0.248
-205.406	-148.604	0.155	-0.012
-204.392	-122.104	-0.030	0.005
-203.377	464.641	0.087	-0.193
-202.363	60.180	-0.106	-0.103
-201.348	800.000	0.077	0.238
-200.333	95.867	0.152	-0.171
-199.319	292.194	0.170	0.305
-198.304	-144.578	0.431	-0.039
-197.290	161.150	-0.062	0.085
-196.275	147.788	-0.213	0.283
-195.260	800.000	-0.085	0.319
-194.246	42.800	-0.231	-0.208
-193.231	800.000	0.043	0.165
-192.217	70.653	0.104	-0.107
-191.202	10.569	0.229	0.172
-190.187	529.729	-0.195	0.455
-189.173	-200.000	-0.017	-0.172
-188.158	-147.086	0.079	-0.007
-187.144	-200.000	0.013	0.391
-186.129	800.000	0.091	0.309
-185.114	161.846	0.134	0.185
-184.100	241.898	-0.181	-0.298
-183.085	-124.003	-0.091	0.014
-182.071	-200.000	-0.033	0.230
-181.056	-200.000	-0.008	-0.194
-180.042	204.772	0.087	-0.133
-179.027	800.000	0.040	-0.109
-178.012	525.719	0.095	-0.220
-176.998	-200.000	0.028	-0.459
-175.983	-49.191	0.212	0.100
-174.969	-137.335	0.371	0.041
-173.954	63.858	0.065	0.064
-172.939	391.454	-0.061	0.124
-171.925	-88.816	0.199	-0.058
-170.910	-11.330	0.146	-0.095
-169.896	379.879	-0.138	0.278
-168.881	800.000	0.052	-0.213
-167.866	-171.512	0.076	-0.002
-166.852	-55.312	-0.386	0.171
-165.837	-200.000	-0.032	0.166
-164.823	464.899	0.190	0.419
-163.808	-200.000	-0.017	0.224
-162.793	85.705	-0.276	0.299
-161.779	-39.522	-0.229	-0.118
-160.764	-98.266	0.296	0.075
-159.750	193.029	0.145	0.216
-158.735	325.506	-0.225	-0.423
-157.720	117.604	0.278	-0.337
-156.706	239.056	0.223	-0.365
-155.691	146.665	-0.149	-0.197
-154.677	74.407	0.153	0.158
-153.662	-36.730	-0.103	-0.055
-152.647	-139.305	0.299	0.032
-151.633	5.451	-0.171	-0.124
-150.618	-63.918	0.122	-0.049
-149.604	-200.000	0.027	0.323
-148.589	-99.060	0.168	-0.042
-147.574	-57.073	0.254	-0.110
-146.560	13.492	-0.110	-0.084
-145.545	603.781	0.141	-0.344
-144.531	4.665	0.138	-0.100
-143.516	-98.920	-0.160	-0.040
-142.502	-72.919	-0.124	-0.045
-141.487	-95.840	-0.318	0.084
-140.472	800.000	0.051	-0.213
-139.458	-142.057	-0.237	-0.023
-138.443	-61.464	-0.251	-0.104
-137.429	-147.442	0.185	-0.015
-136.414	121.392	0.183	-0.224
-135.399	428.576	0.132	0.280
-134.385	273.288	-0.205	0.356
-133.370	-68.572	-0.090	0.034
-132.356	-88.705	-0.173	-0.051
-131.341	-200.000	0.018	0.264
-130.326	800.000	0.094	-0.341
-129.312	-100.483	0.166	-0.040
-128.297	104.326	-0.057	0.066
-127.283	-136.962	0.238	-0.027
-126.268	-90.982	-0.226	-0.064
-125.253	-73.961	0.387	-0.138
-124.239	45.332	-0.126	-0.114
-123.224	29.126	0.161	0.134
-122.210	89.173	0.130	0.143
-121.195	145.705	0.017	0.023
-120.180	-200.000	-0.006	0.148
