DTS Sentinel unit serial number:	SN413079Multiplexer serial number:	ORYXHardware model number:	OX4-SRSoftware version number:	ORYX F/W v4.00 Oryx Data Collector v3.7.2.0data status	okinstallation	princeton_trtdifferential loss correction	single-endedforward channel	channel 3reverse channel	N/Adate	2019/09/14time	10:00:35forward acquisition time	60.00reverse acquisition time	0.00gamma	496.2192k internal	0.2313k external	0.2313temperature offset calibration	1.0055default loss term (dB/km)	0.3790temperature slope calibration	1.0000multiplexer offset coefficient	1.0000multiplexer slope coefficient	1.0000fibre end	0.00T internal ref (°C)	33.06T ext. ref 1 (°C)	4.01T ext. ref 2 (°C)	31.70length (m)	temperature (°C)	Stokes	anti-Stokes-747.200	595.454	0.032	0.081
-746.185	-200.000	-0.006	0.094
-745.171	-184.810	0.305	-0.005
-744.156	-200.000	-0.033	-0.155
-743.142	-145.889	-0.314	-0.028
-742.127	800.000	0.046	0.154
-741.112	138.494	-0.139	0.184
-740.098	-200.000	-0.029	0.402
-739.083	-101.751	-0.392	-0.096
-738.069	-200.000	0.019	0.101
-737.054	-96.316	0.153	-0.041
-736.039	-62.427	-0.073	-0.031
-735.025	-170.633	0.216	-0.008
-734.010	-8.761	0.090	0.061
-732.996	47.346	0.188	-0.177
-731.981	-200.000	0.043	-0.360
-730.966	496.393	-0.048	0.112
-729.952	8.940	-0.287	-0.219
-728.937	231.984	-0.124	0.206
-727.923	-200.000	0.012	-0.244
-726.908	6.752	-0.068	-0.051
-725.894	-200.000	0.006	0.126
-724.879	288.761	0.045	0.083
-723.864	-143.191	0.209	0.020
-722.850	-196.389	0.147	0.001
-721.835	113.121	-0.072	-0.088
-720.821	-200.000	-0.021	0.203
-719.806	-2.057	-0.368	0.262
-718.791	-200.000	0.006	-0.034
-717.777	-200.000	0.004	-0.051
-716.762	19.179	-0.213	-0.173
-715.748	217.206	0.058	0.094
-714.733	-200.000	0.004	-0.187
-713.718	163.900	-0.209	0.299
-712.704	141.791	0.031	0.041
-711.689	46.418	0.060	0.056
-710.675	-200.000	0.035	-0.184
-709.660	-4.931	0.370	0.258
-708.645	-141.398	0.074	0.008
-707.631	57.896	-0.064	-0.063
-706.616	800.000	0.125	-0.405
-705.602	-88.023	0.230	-0.070
-704.587	60.840	0.296	-0.297
-703.572	141.223	0.027	0.037
-702.558	325.820	0.236	0.458
-701.543	800.000	-0.006	-0.020
-700.529	-148.357	0.159	-0.013
-699.514	-200.000	-0.000	0.070
-698.499	131.909	-0.064	0.083
-697.485	-83.725	-0.186	0.060
-696.470	57.422	0.205	0.202
-695.456	800.000	0.056	0.172
-694.441	3.596	-0.156	-0.116
-693.426	641.250	-0.093	-0.240
-692.412	-40.148	-0.333	-0.176
-691.397	-200.000	0.010	0.052
-690.383	44.009	-0.088	0.082
-689.368	462.837	0.173	-0.391
-688.354	69.835	0.175	0.183
-687.339	-28.318	0.199	0.116
-686.324	134.596	-0.068	-0.090
-685.310	61.335	0.087	-0.087
-684.295	125.704	0.066	0.084
-683.281	163.620	-0.151	-0.215
-682.266	-99.255	-0.144	0.037
-681.251	-11.819	-0.235	0.156
-680.237	-200.000	-0.011	-0.344
-679.222	-124.683	-0.143	-0.022
-678.208	-127.085	-0.220	-0.033
-677.193	-200.000	0.006	0.075
-676.178	66.135	0.131	0.134
-675.164	160.324	0.055	-0.078
-674.149	379.856	-0.128	0.266
-673.135	800.000	-0.031	-0.124
-672.120	38.938	0.079	-0.071
-671.105	136.797	0.036	-0.048
-670.091	-86.919	-0.133	-0.041
-669.076	800.000	0.047	0.194
-668.062	-73.045	-0.208	0.077
-667.047	-34.171	0.254	-0.141
-666.032	-97.085	-0.099	-0.026
-665.018	14.550	0.144	0.114
-664.003	-22.888	-0.311	-0.190
-662.989	4.296	0.032	0.023
-661.974	-79.714	0.190	-0.065
-660.959	-16.486	0.062	-0.040
-659.945	-136.269	-0.333	0.039
-658.930	800.000	-0.069	-0.261
-657.916	-124.591	-0.270	-0.042
-656.901	-200.000	-0.004	0.052
-655.886	-64.667	-0.150	-0.062
-654.872	116.500	0.056	0.069
-653.857	191.940	0.097	0.147
-652.843	-200.000	-0.037	0.240
-651.828	800.000	0.033	0.130
-650.814	800.000	0.019	-0.076
-649.799	410.863	0.105	-0.225
-648.784	-200.000	-0.012	-0.183
-647.770	737.901	-0.123	0.333
-646.755	-55.884	-0.127	-0.057
-645.741	56.024	0.154	-0.151
-644.726	29.894	0.226	-0.195
-643.711	-133.088	-0.343	0.044
-642.697	800.000	0.042	-0.180
-641.682	286.828	-0.109	0.199
-640.668	-85.542	0.122	-0.038
-639.653	11.306	-0.223	-0.172
-638.638	-142.328	-0.285	0.028
-637.624	-164.079	0.045	-0.002
-636.609	-31.926	0.047	-0.026
-635.595	165.576	0.208	0.297
-634.580	168.682	-0.162	-0.234
-633.565	135.054	0.222	-0.292
-632.551	578.134	-0.047	0.117
-631.536	384.518	-0.173	-0.361
-630.522	-72.707	0.188	0.070
-629.507	-200.000	-0.000	0.342
-628.492	-200.000	0.012	-0.353
-627.478	800.000	-0.098	-0.344
-626.463	-200.000	-0.026	0.194
-625.449	88.425	-0.191	0.214
-624.434	-200.000	0.009	0.412
-623.419	-24.679	0.240	0.144
-622.405	-200.000	-0.012	-0.123
-621.390	-200.000	0.034	-0.178
-620.376	221.351	0.074	0.121
-619.361	72.989	0.094	0.099
-618.346	800.000	0.101	-0.381
-617.332	-200.000	-0.001	-0.338
-616.317	18.694	-0.124	0.100
-615.303	171.646	-0.065	0.095
-614.288	77.455	-0.087	-0.093
-613.273	800.000	0.099	0.333
-612.259	66.790	-0.154	-0.159
-611.244	-77.062	0.102	0.036
-610.230	257.453	-0.079	0.136
-609.215	-69.435	-0.242	0.094
-608.201	-67.279	-0.388	-0.154
-607.186	63.563	-0.175	0.178
-606.171	-200.000	0.005	0.176
-605.157	-200.000	-0.054	0.380
-604.142	281.072	-0.038	-0.068
-603.128	800.000	0.069	-0.235
-602.113	-92.467	-0.175	0.050
-601.098	109.469	-0.203	-0.245
-600.084	-92.562	0.435	0.123
-599.069	800.000	-0.112	-0.335
-598.055	258.685	0.059	-0.103
-597.040	-147.212	0.202	-0.017
-596.025	10.032	-0.312	-0.239
-595.011	-80.571	-0.163	-0.055
-593.996	-200.000	0.006	0.054
-592.982	136.094	-0.072	0.094
-591.967	508.042	0.134	-0.313
-590.952	-6.024	0.079	0.054
-589.938	800.000	0.094	0.274
-588.923	41.911	-0.182	-0.166
-587.909	-200.000	-0.050	0.285
-586.894	800.000	-0.096	0.288
-585.879	-110.062	0.221	-0.047
-584.865	133.714	-0.072	0.094
-583.850	-154.220	0.194	-0.013
-582.836	800.000	0.105	-0.331
-581.821	317.806	-0.174	-0.331
-580.806	259.212	-0.141	0.245
-579.792	13.263	0.031	0.025
-578.777	-200.000	0.003	0.271
-577.763	315.631	0.171	-0.325
-576.748	80.734	0.188	0.204
-575.733	-120.086	-0.345	-0.060
-574.719	-200.000	0.058	-0.301
-573.704	-200.000	0.024	0.166
-572.690	-171.396	-0.239	-0.008
-571.675	-78.520	0.454	0.157
-570.661	265.979	0.095	-0.167
-569.646	93.027	-0.121	-0.138
-568.631	599.842	0.044	-0.111
-567.617	28.114	0.042	0.036
-566.602	-43.138	-0.246	-0.126
-565.588	-134.792	-0.167	0.020
-564.573	-75.985	0.061	0.022
-563.558	-200.000	-0.004	0.280
-562.544	257.644	-0.191	0.331
-561.529	670.077	-0.079	-0.206
-560.515	-50.656	-0.202	-0.096
-559.500	-200.000	-0.028	-0.320
-558.485	-200.000	-0.010	-0.236
-557.471	-128.346	0.057	0.008
-556.456	-200.000	-0.017	-0.462
-555.442	-139.515	0.259	-0.028
-554.427	-20.145	0.125	0.077
-553.412	-200.000	-0.016	-0.225
-552.398	-112.294	-0.066	-0.013
-551.383	7.640	-0.369	-0.278
-550.369	129.129	0.045	0.058
-549.354	800.000	0.034	-0.147
-548.339	-200.000	0.049	0.236
-547.325	250.670	-0.229	-0.392
-546.310	-200.000	0.004	0.245
-545.296	283.307	-0.049	-0.088
-544.281	800.000	0.030	-0.093
-543.266	-79.064	0.371	-0.127
-542.252	-200.000	-0.005	-0.098
-541.237	-98.743	-0.170	0.044
-540.223	691.101	-0.094	-0.248
-539.208	103.142	0.133	-0.157
-538.193	-129.371	0.168	0.023
-537.179	-155.049	0.236	0.016
-536.164	-140.691	-0.458	0.048
-535.150	51.087	0.067	-0.064
-534.135	-60.649	-0.304	-0.130
-533.121	-126.573	-0.235	0.035
-532.106	800.000	0.022	0.062
-531.091	-109.417	0.276	-0.059
-530.077	-115.146	-0.135	0.026
-529.062	108.761	0.247	0.297
-528.048	-200.000	-0.014	-0.429
-527.033	-38.884	0.143	0.076
-526.018	-200.000	0.002	0.128
-525.004	-26.159	-0.322	0.190
-523.989	281.196	0.198	0.357
-522.975	800.000	-0.106	-0.449
-521.960	480.414	-0.095	0.217
-520.945	-127.530	-0.222	0.032
-519.931	-41.361	0.149	-0.077
-518.916	-6.719	0.130	-0.089
-517.902	18.506	0.195	0.157
-516.887	-63.579	-0.357	-0.147
-515.872	-98.253	-0.255	0.066
-514.858	-200.000	0.303	0.000
-513.843	-95.260	-0.220	0.060
-512.829	-189.786	0.388	-0.004
-511.814	23.066	0.122	0.101
-510.799	30.092	-0.174	-0.149
-509.785	-178.216	0.271	-0.006
-508.770	169.368	0.101	0.144
-507.756	208.801	-0.122	-0.192
-506.741	-200.000	0.125	-0.556
-505.726	-200.000	0.022	-0.134
-504.712	96.344	0.080	0.092
-503.697	-5.658	-0.163	-0.112
-502.683	-200.000	-0.012	0.130
-501.668	800.000	-0.070	-0.211
-500.653	218.907	-0.206	-0.331
-499.639	-200.000	0.005	-0.200
-498.624	-90.849	-0.149	-0.043
-497.610	800.000	0.036	0.145
-496.595	-200.000	0.007	-0.107
-495.581	37.339	0.191	-0.170
-494.566	144.238	-0.091	-0.122
-493.551	139.742	-0.038	-0.051
-492.537	-200.000	0.033	-0.358
-491.522	-104.079	0.086	-0.020
-490.508	-200.000	-0.001	0.031
-489.493	186.753	-0.058	-0.087
-488.478	800.000	-0.027	-0.099
-487.464	-112.748	0.332	-0.066
-486.449	-42.983	-0.106	0.054
-485.435	130.488	0.021	0.026
-484.420	30.247	0.167	0.143
-483.405	-73.981	-0.184	-0.067
-482.391	-99.150	0.139	0.035
-481.376	148.611	-0.037	-0.050
-480.362	-200.000	0.030	0.185
-479.347	348.740	0.097	0.192
-478.332	62.970	-0.222	0.223
-477.318	28.926	0.145	0.123
-476.303	-168.074	0.414	0.016
-475.289	292.676	-0.140	0.257
-474.274	800.000	-0.073	-0.207
-473.259	149.559	0.156	0.211
-472.245	12.606	0.135	0.104
-471.230	443.033	0.050	0.110
-470.216	787.451	-0.036	-0.098
-469.201	2.360	0.113	-0.082
-468.186	778.487	-0.016	-0.043
-467.172	132.565	-0.047	0.061
-466.157	68.729	0.138	0.142
-465.143	800.000	0.038	-0.114
-464.128	-41.291	0.073	0.038
-463.113	-200.000	-0.005	0.081
-462.099	-116.940	0.396	0.073
-461.084	411.179	-0.099	0.212
-460.070	-89.023	-0.311	-0.092
-459.055	39.136	-0.079	0.071
-458.040	-28.259	0.140	-0.081
-457.026	50.455	-0.094	-0.089
-456.011	47.838	-0.105	-0.098
-454.997	800.000	-0.024	-0.074
-453.982	-94.054	-0.373	-0.103
-452.968	-119.887	0.280	0.048
-451.953	-3.351	-0.181	0.126
-450.938	342.583	0.162	0.318
-449.924	-69.489	0.059	-0.023
-448.909	800.000	0.081	-0.278
-447.895	-3.224	0.039	0.027
-446.880	21.230	-0.200	-0.162
-445.865	489.207	0.056	0.129
-444.851	-171.165	-0.202	-0.007
-443.836	95.671	0.079	0.090
-442.822	456.898	-0.057	-0.127
-441.807	800.000	-0.036	0.144
-440.792	89.369	-0.028	0.031
-439.778	34.609	0.189	0.166
-438.763	-19.861	-0.453	0.280
-437.749	-200.000	0.005	-0.293
-436.734	-117.327	-0.267	0.049
-435.719	-120.492	0.182	-0.031
-434.705	26.784	-0.232	0.195
-433.690	399.155	0.147	-0.308
-432.676	-73.921	-0.503	0.183
-431.661	-118.451	-0.244	0.043
-430.646	-28.575	0.178	0.103
-429.632	69.367	-0.111	-0.114
-428.617	101.802	0.089	0.105
-427.603	-62.504	-0.144	-0.060
-426.588	800.000	-0.106	0.346
-425.573	1.466	0.332	0.239
-424.559	800.000	0.104	0.357
-423.544	292.816	-0.175	0.319
-422.530	-44.860	0.215	-0.108
-421.515	-55.017	0.086	0.039
-420.500	800.000	0.089	-0.306
-419.486	82.356	-0.086	-0.094
-418.471	-53.288	0.184	-0.085
-417.457	-200.000	0.012	0.309
-416.442	112.411	0.135	-0.163
-415.428	-72.080	0.055	-0.021
-414.413	-136.073	0.067	-0.008
-413.398	205.852	0.074	0.115
-412.384	100.831	-0.279	0.325
-411.369	285.150	-0.179	-0.323
-410.355	-200.000	-0.042	-0.354
-409.340	-119.142	-0.230	-0.040
-408.325	-200.000	-0.020	0.286
-407.311	-143.131	-0.426	-0.041
-406.296	131.062	-0.210	-0.269
-405.282	362.966	0.116	0.234
-404.267	-100.220	-0.231	0.058
-403.252	-41.956	-0.234	-0.120
-402.238	185.225	0.244	-0.362
-401.223	-46.285	0.110	-0.054
-400.209	-200.000	0.046	0.319
-399.194	-135.391	0.104	0.012
-398.179	-17.634	0.187	-0.118
-397.165	264.295	-0.097	0.169
-396.150	-132.332	-0.083	0.011
-395.136	-200.000	0.012	0.341
-394.121	-101.026	0.070	-0.017
-393.106	321.664	0.025	-0.047
-392.092	800.000	-0.070	0.246
-391.077	-200.000	0.053	-0.262
-390.063	140.823	-0.060	0.079
-389.048	-200.000	-0.033	-0.402
-388.033	41.449	0.094	-0.085
-387.019	130.098	0.155	-0.199
-386.004	-85.819	-0.187	0.058
-384.990	180.569	-0.219	-0.322
-383.975	113.207	0.178	-0.216
-382.960	-187.716	-0.112	-0.001
-381.946	-115.214	-0.068	0.013
-380.931	170.750	-0.207	0.297
-379.917	-31.417	-0.091	0.051
-378.902	-76.158	-0.119	-0.042
-377.888	167.765	0.073	0.104
-376.873	549.344	-0.031	0.074
-375.858	-200.000	-0.008	-0.162
-374.844	174.649	0.219	-0.316
-373.829	10.989	0.092	0.070
-372.815	800.000	-0.045	0.163
-371.800	-11.614	0.101	0.066
-370.785	162.056	-0.110	0.154
-369.771	344.585	-0.110	-0.216
-368.756	-66.113	0.355	0.141
-367.742	-156.075	0.312	0.020
-366.727	-176.975	-0.283	-0.007
-365.712	-68.508	0.061	-0.024
-364.698	499.243	-0.078	0.179
-363.683	-177.704	-0.210	-0.005
-362.669	139.116	0.181	0.238
-361.654	469.944	-0.126	0.284
-360.639	-180.761	-0.074	0.002
-359.625	1.562	-0.441	-0.317
-358.610	-200.000	-0.012	-0.195
-357.596	800.000	0.040	-0.122
-356.581	182.574	0.307	0.452
-355.566	229.957	0.126	0.206
-354.552	-60.868	-0.277	-0.117
-353.537	-200.000	0.014	0.092
-352.523	-70.608	-0.305	0.115
-351.508	5.680	-0.368	-0.271
-350.493	8.477	-0.233	0.175
-349.479	-33.332	0.208	0.115
-348.464	-200.000	0.026	-0.197
-347.450	800.000	-0.041	-0.151
-346.435	56.706	0.376	0.365
-345.420	166.696	-0.075	-0.107
-344.406	800.000	-0.033	0.114
-343.391	128.563	-0.018	-0.022
-342.377	205.007	0.074	-0.114
-341.362	-145.143	0.377	-0.034
-340.348	-200.000	0.036	-0.188
-339.333	167.031	0.127	-0.181
-338.318	26.984	0.125	0.105
-337.304	654.094	0.047	-0.121
-336.289	-194.304	-0.296	0.002
-335.275	-79.089	0.232	0.079
-334.260	-76.626	-0.081	0.029
-333.245	54.986	0.068	0.065
-332.231	317.961	-0.207	-0.391
-331.216	-93.687	0.174	0.048
-330.202	163.746	-0.170	0.239
-329.187	800.000	0.067	-0.251
-328.172	-200.000	0.033	0.378
-327.158	260.469	0.101	-0.175
-326.143	23.179	-0.159	-0.131
-325.129	-199.624	0.120	-0.001
-324.114	102.737	-0.053	0.061
-323.099	-116.416	-0.284	-0.052
-322.085	-200.000	0.082	0.360
-321.070	-200.000	0.007	0.177
-320.056	-200.000	0.000	-0.320
-319.041	113.450	0.191	-0.231
-318.026	-200.000	-0.038	-0.459
-317.012	800.000	0.070	0.256
-315.997	-31.607	-0.134	0.075
-314.983	65.565	0.148	-0.149
-313.968	-37.994	-0.514	-0.272
-312.953	800.000	-0.061	-0.248
-311.939	-4.539	0.156	0.108
-310.924	-10.156	0.123	0.082
-309.910	-200.000	-0.065	-0.000
-308.895	-118.109	-0.135	-0.024
-307.880	-72.467	0.347	-0.128
-306.866	578.053	-0.069	0.168
-305.851	-118.410	-0.070	-0.012
-304.837	398.097	0.085	0.178
-303.822	-65.564	-0.074	0.030
-302.807	23.943	-0.122	0.100
-301.793	-200.000	0.025	0.156
-300.778	-41.720	-0.319	0.163
-299.764	800.000	0.068	-0.234
-298.749	7.723	0.202	0.151
-297.735	-94.838	0.125	-0.034
-296.720	10.963	-0.090	0.068
-295.705	-129.699	-0.011	0.002
-294.691	-27.597	0.320	0.185
-293.676	106.847	0.121	0.143
-292.662	6.825	0.188	0.140
-291.647	-104.231	0.221	-0.051
-290.632	262.896	-0.068	0.118
-289.618	-163.200	0.201	-0.010
-288.603	800.000	0.036	-0.121
-287.589	-6.840	0.154	0.104
-286.574	-6.750	-0.204	0.138
-285.559	-28.036	0.134	-0.077
-284.545	-135.967	0.238	0.028
-283.530	35.640	-0.233	-0.204
-282.516	333.065	-0.088	-0.170
-281.501	623.201	0.077	-0.192
-280.486	-200.000	-0.050	-0.640
-279.472	539.054	-0.109	0.258
-278.457	800.000	0.066	-0.221
-277.443	800.000	0.061	0.228
-276.428	-21.910	0.236	-0.143
-275.413	347.440	-0.035	0.069
-274.399	-98.487	0.191	0.049
-273.384	507.892	0.031	0.072
-272.370	36.538	-0.135	-0.118
-271.355	-200.000	0.037	0.354
-270.340	80.413	-0.095	-0.102
-269.326	316.772	0.055	-0.103
-268.311	-134.636	0.202	-0.025
-267.297	240.452	0.159	0.263
-266.282	36.653	0.055	-0.049
-265.267	-200.000	-0.020	0.158
-264.253	-31.043	-0.130	-0.073
-263.238	-98.168	0.107	0.027
-262.224	46.081	-0.039	-0.036
-261.209	-25.441	0.061	-0.036
-260.195	616.996	-0.148	-0.371
-259.180	242.979	-0.043	-0.071
-258.165	-124.380	0.191	-0.030
-257.151	93.723	0.158	-0.178
-256.136	-131.886	-0.064	-0.008
-255.122	112.636	-0.079	-0.095
-254.107	800.000	-0.041	-0.167
-253.092	-105.469	0.188	0.042
-252.078	594.759	0.045	0.110
-251.063	-183.820	-0.124	0.002
-250.049	-113.433	-0.123	0.024
-249.034	800.000	-0.100	0.293
-248.019	-54.783	-0.119	-0.054
-247.005	-17.130	-0.130	0.082
-245.990	-181.127	0.209	0.004
-244.976	-104.750	0.139	-0.032
-243.961	15.992	0.244	0.191
-242.946	55.565	0.175	0.169
-241.932	-73.904	0.205	0.074
-240.917	391.812	-0.020	0.041
-239.903	62.125	0.075	-0.075
-238.888	161.797	-0.101	0.141
-237.873	123.570	-0.067	0.084
-236.859	-138.457	-0.366	-0.040
-235.844	-130.772	0.180	-0.024
-234.830	186.354	0.081	0.120
-233.815	614.955	-0.180	-0.449
-232.800	-73.102	-0.233	0.085
-231.786	-200.000	0.053	-0.282
-230.771	-84.143	0.129	-0.041
-229.757	-107.522	0.295	0.064
-228.742	-51.174	-0.127	0.059
-227.727	413.727	0.138	-0.291
-226.713	-112.279	0.117	0.023
-225.698	-200.000	-0.023	-0.533
-224.684	-146.328	0.397	-0.035
-223.669	131.823	-0.076	0.097
-222.655	4.601	0.289	-0.211
-221.640	-200.000	-0.079	0.496
-220.625	-96.661	0.234	-0.061
-219.611	-187.779	-0.127	-0.002
-218.596	-84.701	-0.252	0.079
-217.582	-46.702	0.225	0.110
-216.567	-131.726	-0.081	0.011
-215.552	132.075	-0.159	0.203
-214.538	566.687	0.041	0.099
-213.523	-200.000	-0.012	0.353
-212.509	-77.668	-0.281	0.097
-211.494	-25.329	0.160	-0.094
-210.479	98.881	-0.206	0.236
-209.465	-157.915	0.266	-0.016
-208.450	-130.743	-0.388	-0.052
-207.436	753.359	-0.020	0.055
-206.421	43.076	0.268	-0.243
-205.406	-48.210	0.215	-0.103
-204.392	-105.506	-0.264	0.060
-203.377	-6.652	-0.084	0.057
-202.363	-34.650	0.116	0.063
-201.348	800.000	-0.171	0.630
-200.333	-200.000	0.025	-0.201
-199.319	-119.559	0.296	-0.051
-198.304	-19.672	0.220	-0.135
-197.290	800.000	-0.043	0.165
-196.275	60.014	0.222	0.218
-195.260	5.766	-0.331	-0.243
-194.246	-76.514	-0.419	0.146
-193.231	800.000	0.067	0.284
-192.217	800.000	0.031	-0.090
-191.202	-83.627	-0.188	0.060
-190.187	800.000	0.098	0.286
-189.173	-200.000	0.053	-0.261
-188.158	-200.000	-0.009	-0.217
-187.144	131.951	0.071	-0.090
-186.129	-22.395	-0.423	-0.254
-185.114	-200.000	-0.054	-0.295
-184.100	-119.187	0.208	0.036
-183.085	7.376	-0.231	0.171
-182.071	16.666	0.138	0.108
-181.056	-200.000	0.056	-0.308
-180.042	-169.071	-0.104	-0.004
-179.027	294.369	0.008	0.014
-178.012	800.000	0.034	-0.107
-176.998	-150.604	0.308	-0.023
-175.983	-179.576	0.294	-0.006
-174.969	-200.000	-0.024	0.183
-173.954	-200.000	0.016	0.399
-172.939	-200.000	-0.021	-0.158
-171.925	-200.000	-0.018	0.283
-170.910	-71.159	0.187	-0.070
-169.896	-200.000	0.050	0.370
-168.881	-122.185	0.210	-0.034
-167.866	29.504	0.103	0.087
-166.852	-93.462	-0.137	0.038
-165.837	800.000	0.091	0.298
-164.823	14.286	-0.103	0.079
-163.808	-69.163	0.454	0.173
-162.793	566.011	0.179	0.431
-161.779	403.785	-0.109	0.227
-160.764	132.541	0.107	0.137
-159.750	-200.000	0.039	0.201
-158.735	585.255	-0.062	0.150
-157.720	-128.161	-0.372	-0.053
-156.706	-59.711	0.285	-0.121
-155.691	-200.000	-0.071	-0.337
-154.677	74.808	-0.126	0.132
-153.662	179.874	0.095	0.139
-152.647	189.490	-0.272	0.404
-151.633	119.043	0.267	0.327
-150.618	800.000	0.060	0.236
-149.604	20.293	-0.131	-0.105
-148.589	42.944	0.212	0.191
-147.574	794.500	-0.041	0.111
-146.560	-48.358	-0.266	-0.127
-145.545	-40.513	0.172	-0.088
-144.531	-200.000	0.037	-0.250
-143.516	-46.713	-0.190	-0.092
-142.502	-0.869	0.281	0.197
-141.487	393.853	-0.085	0.175
-140.472	249.933	-0.067	0.113
-139.458	620.210	-0.074	-0.185
-138.443	282.923	-0.147	0.261
-137.429	465.924	-0.018	0.041
-136.414	-43.218	0.152	-0.076
-135.399	-118.293	-0.105	0.018
-134.385	112.095	0.203	-0.244
-133.370	109.107	0.130	-0.155
-132.356	-69.822	-0.148	0.056
-131.341	-200.000	0.073	0.414
-130.326	191.323	0.166	-0.247
-129.312	-79.793	0.385	0.128
-128.297	-130.502	0.335	-0.045
-127.283	57.109	-0.197	0.190
-126.268	-11.833	-0.233	-0.151
-125.253	245.769	-0.050	-0.083
-124.239	87.634	0.146	0.160
-123.224	-109.748	0.229	-0.048
-122.210	-200.000	-0.052	-0.332
-121.195	-150.232	0.380	0.029
