DTS Sentinel unit serial number:	SN413079Multiplexer serial number:	ORYXHardware model number:	OX4-SRSoftware version number:	ORYX F/W v4.00 Oryx Data Collector v3.7.2.0data status	okinstallation	princeton_trtdifferential loss correction	single-endedforward channel	channel 3reverse channel	N/Adate	2019/09/15time	00:00:35forward acquisition time	60.00reverse acquisition time	0.00gamma	496.2192k internal	0.2320k external	0.2320temperature offset calibration	0.9979default loss term (dB/km)	0.3790temperature slope calibration	1.0000multiplexer offset coefficient	1.0000multiplexer slope coefficient	1.0000fibre end	0.00T internal ref (°C)	32.25T ext. ref 1 (°C)	4.59T ext. ref 2 (°C)	27.17length (m)	temperature (°C)	Stokes	anti-Stokes-747.200	69.842	-0.118	-0.123
-746.185	3.859	-0.226	0.167
-745.171	-115.573	-0.294	0.056
-744.156	663.849	-0.080	0.209
-743.142	375.583	0.032	0.065
-742.127	-83.792	-0.027	-0.009
-741.112	102.466	0.129	-0.153
-740.098	-108.588	-0.326	0.071
-739.083	-164.975	0.055	0.002
-738.069	-200.000	-0.018	0.132
-737.054	-91.750	0.085	-0.025
-736.039	-108.849	-0.201	0.043
-735.025	-130.326	0.301	-0.041
-734.010	-89.634	0.195	0.058
-732.996	18.524	0.210	-0.169
-731.981	53.578	-0.243	0.235
-730.966	37.420	-0.081	0.073
-729.952	-7.666	-0.047	-0.032
-728.937	-109.899	-0.559	0.118
-727.923	-167.128	0.066	0.003
-726.908	565.089	-0.068	-0.165
-725.894	174.124	-0.063	-0.091
-724.879	317.674	-0.167	-0.319
-723.864	-169.016	0.251	-0.009
-722.850	-200.000	-0.014	-0.337
-721.835	269.865	0.114	0.203
-720.821	-104.767	-0.413	0.096
-719.806	-114.040	-0.635	-0.124
-718.791	-16.168	-0.171	-0.110
-717.777	-86.091	0.332	0.104
-716.762	-200.000	-0.005	-0.159
-715.748	131.696	-0.146	-0.189
-714.733	-140.750	-0.326	-0.034
-713.718	-107.714	-0.381	-0.084
-712.704	182.236	0.137	-0.204
-711.689	-200.000	-0.005	0.167
-710.675	-147.265	0.319	0.027
-709.660	-17.377	-0.086	0.054
-708.645	215.997	-0.123	-0.197
-707.631	55.515	0.111	-0.109
-706.616	-64.924	-0.005	-0.002
-705.602	-200.000	-0.059	-0.401
-704.587	34.814	0.056	0.049
-703.572	-24.282	-0.279	0.168
-702.558	-200.000	-0.054	0.254
-701.543	-200.000	-0.048	-0.343
-700.529	455.872	0.085	0.190
-699.514	28.551	0.132	-0.113
-698.499	-200.000	0.013	-0.062
-697.485	689.140	-0.064	-0.169
-696.470	8.374	-0.097	0.074
-695.456	216.398	-0.151	-0.243
-694.441	-200.000	0.008	0.215
-693.426	8.740	-0.150	-0.114
-692.412	800.000	0.061	-0.247
-691.397	800.000	0.042	-0.149
-690.383	19.747	0.287	0.233
-689.368	-27.517	-0.125	-0.074
-688.354	800.000	-0.064	0.203
-687.339	-125.437	-0.239	0.037
-686.324	-146.286	-0.199	0.018
-685.310	46.635	-0.161	-0.151
-684.295	-98.421	-0.149	-0.038
-683.281	-163.572	-0.428	-0.020
-682.266	800.000	-0.048	0.203
-681.251	124.377	-0.067	0.085
-680.237	-54.655	0.359	0.164
-679.222	443.786	0.059	-0.129
-678.208	119.743	-0.109	0.136
-677.193	94.868	-0.337	0.387
-676.178	-200.000	-0.003	0.058
-675.164	-200.000	-0.013	-0.075
-674.149	309.529	0.041	-0.078
-673.135	-200.000	-0.007	0.229
-672.120	122.267	-0.026	0.033
-671.105	800.000	-0.026	-0.080
-670.091	-60.096	-0.186	-0.080
-669.076	565.988	0.136	-0.332
-668.062	113.930	0.018	-0.022
-667.047	270.834	0.109	-0.193
-666.032	231.313	0.073	0.120
-665.018	-16.915	0.201	-0.128
-664.003	203.849	0.229	0.358
-662.989	7.964	-0.123	-0.093
-661.974	-124.990	0.064	-0.010
-660.959	-135.004	-0.083	0.010
-659.945	-55.623	0.101	0.046
-658.930	15.795	0.186	0.147
-657.916	211.185	0.128	-0.202
-656.901	425.664	0.045	-0.097
-655.886	-200.000	-0.045	0.303
-654.872	320.103	0.169	-0.324
-653.857	17.896	0.180	0.145
-652.843	2.723	0.313	-0.229
-651.828	800.000	-0.097	-0.319
-650.814	183.304	-0.155	-0.231
-649.799	327.691	0.159	-0.308
-648.784	-68.734	-0.192	0.075
-647.770	-81.456	0.173	0.057
-646.755	499.815	0.007	-0.016
-645.741	332.905	-0.150	-0.293
-644.726	-86.166	-0.364	-0.113
-643.711	-200.000	0.102	0.493
-642.697	12.731	-0.042	0.032
-641.682	-147.960	0.212	0.018
-640.668	-119.586	-0.321	0.056
-639.653	10.905	-0.225	-0.173
-638.638	307.078	0.130	-0.244
-637.624	-200.000	0.216	-0.000
-636.609	-92.914	0.058	-0.016
-635.595	723.875	0.095	0.255
-634.580	113.011	0.294	0.359
-633.565	285.958	0.060	-0.108
-632.551	-106.898	-0.218	0.049
-631.536	-149.158	-0.084	0.007
-630.522	-53.677	0.137	-0.063
-629.507	800.000	-0.026	-0.108
-628.492	-153.388	-0.133	-0.009
-627.478	147.957	-0.099	0.134
-626.463	188.969	-0.116	-0.175
-625.449	252.470	-0.197	-0.339
-624.434	-135.469	-0.461	0.055
-623.419	-200.000	-0.025	0.211
-622.405	-200.000	-0.015	-0.256
-621.390	7.123	0.060	0.045
-620.376	-20.160	0.208	-0.129
-619.361	49.758	0.049	0.047
-618.346	-15.420	-0.262	-0.168
-617.332	25.179	0.188	-0.157
-616.317	152.110	-0.027	-0.037
-615.303	289.982	-0.142	-0.260
-614.288	-8.215	0.107	-0.072
-613.273	53.925	0.113	0.109
-612.259	125.883	0.207	0.263
-611.244	126.696	0.083	-0.105
-610.230	-103.523	-0.113	-0.027
-609.215	-75.244	0.082	0.030
-608.201	31.511	0.175	0.151
-607.186	-42.578	0.139	-0.071
-606.171	-132.093	0.097	0.013
-605.157	-110.611	0.203	-0.042
-604.142	19.488	0.332	-0.269
-603.128	-14.857	-0.243	0.157
-602.113	-200.000	0.030	-0.183
-601.098	-200.000	-0.010	0.127
-600.084	-80.380	-0.318	0.107
-599.069	773.549	-0.125	0.343
-598.055	-19.302	-0.155	-0.097
-597.040	-36.739	-0.379	-0.204
-596.025	800.000	0.056	0.205
-595.011	-39.756	-0.033	-0.018
-593.996	-152.504	-0.202	0.015
-592.982	149.910	-0.092	0.125
-591.967	-80.415	0.044	0.015
-590.952	-34.558	-0.242	-0.133
-589.938	-153.297	0.129	0.009
-588.923	-175.539	-0.105	-0.003
-587.909	-50.165	0.073	-0.035
-586.894	-71.690	-0.089	-0.033
-585.879	146.803	-0.156	-0.210
-584.865	-200.000	0.077	-0.474
-583.850	18.169	-0.142	-0.114
-582.836	-70.667	-0.133	0.050
-581.821	799.195	0.043	0.120
-580.806	-24.825	0.354	-0.212
-579.792	-121.318	0.087	-0.015
-578.777	25.933	-0.292	-0.244
-577.763	800.000	-0.007	0.021
-576.748	371.900	0.090	0.184
-575.733	800.000	-0.098	-0.332
-574.719	448.742	-0.138	0.306
-573.704	-72.141	0.154	-0.057
-572.690	-61.168	-0.150	-0.064
-571.675	-150.194	-0.242	-0.019
-570.661	-83.842	0.191	-0.061
-569.646	-200.000	-0.006	-0.048
-568.631	-77.904	0.157	0.055
-567.617	-144.651	-0.242	-0.022
-566.602	-52.472	-0.340	0.158
-565.588	75.756	-0.326	0.346
-564.573	-14.057	0.190	-0.123
-563.558	-122.658	-0.141	-0.023
-562.544	-200.000	-0.039	0.316
-561.529	-97.687	-0.111	0.029
-560.515	49.378	-0.107	-0.101
-559.500	224.894	0.128	-0.207
-558.485	-121.552	0.288	-0.048
-557.471	-200.000	-0.025	0.373
-556.456	800.000	0.026	0.111
-555.442	19.345	-0.226	-0.182
-554.427	-200.000	0.009	-0.187
-553.412	-200.000	-0.006	0.115
-552.398	-66.114	-0.161	-0.064
-551.383	-152.809	-0.450	-0.032
-550.369	-105.519	0.186	-0.042
-549.354	-200.000	-0.044	-0.264
-548.339	800.000	0.066	0.275
-547.325	800.000	0.076	-0.262
-546.310	290.187	-0.104	0.190
-545.296	-45.194	0.223	0.111
-544.281	-161.022	0.427	0.022
-543.266	800.000	0.079	-0.253
-542.252	276.180	-0.109	0.193
-541.237	58.509	-0.312	0.307
-540.223	-39.322	0.088	0.046
-539.208	97.378	-0.200	-0.230
-538.193	25.536	-0.131	0.109
-537.179	800.000	-0.106	-0.309
-536.164	-103.172	-0.095	-0.022
-535.150	-143.965	0.283	0.027
-534.135	-20.444	-0.145	0.089
-533.121	530.881	-0.044	-0.104
-532.106	-200.000	0.060	-0.349
-531.091	109.829	0.147	-0.177
-530.077	190.143	0.063	-0.094
-529.062	-200.000	-0.002	0.196
-528.048	-58.366	0.168	-0.073
-527.033	-200.000	-0.040	-0.211
-526.018	-23.105	-0.093	-0.056
-525.004	-25.693	0.086	0.051
-523.989	106.424	-0.165	-0.196
-522.975	800.000	0.032	-0.117
-521.960	-200.000	-0.019	-0.116
-520.945	24.250	-0.039	-0.033
-519.931	-32.788	-0.496	0.277
-518.916	-200.000	0.029	0.169
-517.902	48.988	-0.267	0.251
-516.887	-78.413	-0.078	0.027
-515.872	-200.000	-0.046	-0.232
-514.858	68.326	0.310	-0.319
-513.843	600.225	-0.046	0.113
-512.829	-91.049	0.236	-0.068
-511.814	67.549	-0.305	-0.313
-510.799	-144.430	-0.154	-0.014
-509.785	-169.062	0.304	-0.011
-508.770	335.030	-0.170	-0.331
-507.756	-200.000	-0.029	-0.136
-506.741	-178.616	-0.211	-0.005
-505.726	47.524	0.113	-0.106
-504.712	-42.497	0.054	0.028
-503.697	255.451	0.154	0.264
-502.683	-200.000	-0.027	-0.126
-501.668	445.640	0.208	-0.457
-500.653	22.750	0.117	0.096
-499.639	-49.525	0.271	0.129
-498.624	1.188	-0.198	0.142
-497.610	-200.000	0.024	-0.233
-496.595	-76.689	-0.109	0.038
-495.581	-15.715	-0.216	0.138
-494.566	-105.761	0.260	0.059
-493.551	800.000	0.061	-0.213
-492.537	-91.560	0.198	0.057
-491.522	-82.248	-0.127	0.041
-490.508	800.000	0.028	-0.116
-489.493	213.530	-0.120	0.191
-488.478	87.809	0.247	0.274
-487.464	192.856	0.113	0.171
-486.449	-1.450	-0.131	-0.092
-485.435	16.075	-0.097	0.076
-484.420	-10.963	0.151	0.100
-483.405	131.007	0.160	-0.205
-482.391	-52.677	0.339	-0.157
-481.376	60.177	-0.215	-0.213
-480.362	25.134	-0.337	0.280
-479.347	800.000	-0.033	-0.116
-478.332	241.187	-0.081	0.136
-477.318	-80.937	-0.437	-0.145
-476.303	-200.000	-0.003	0.024
-475.289	800.000	-0.039	0.165
-474.274	-61.672	0.433	0.182
-473.259	1.830	-0.090	-0.065
-472.245	-91.628	0.190	-0.054
-471.230	-200.000	0.004	0.111
-470.216	-180.910	-0.251	0.005
-469.201	224.559	0.192	-0.311
-468.186	251.475	0.081	-0.138
-467.172	-149.327	-0.150	0.012
-466.157	565.759	0.103	0.249
-465.143	-159.937	-0.237	0.013
-464.128	-200.000	0.011	-0.108
-463.113	-116.553	-0.318	-0.059
-462.099	178.634	0.075	0.110
-461.084	77.522	0.059	-0.063
-460.070	319.278	0.166	0.315
-459.055	-67.108	-0.245	0.096
-458.040	-180.330	0.105	-0.002
-457.026	6.301	0.260	-0.193
-456.011	320.818	0.105	0.200
-454.997	737.312	-0.110	0.295
-453.982	-200.000	-0.004	0.053
-452.968	800.000	-0.030	0.111
-451.953	-125.574	-0.369	0.056
-450.938	181.494	0.145	-0.213
-449.924	-84.988	-0.092	0.029
-448.909	6.740	-0.144	0.107
-447.895	-200.000	0.110	-0.498
-446.880	-54.288	-0.216	-0.098
-445.865	-152.614	0.214	0.015
-444.851	-40.334	-0.097	0.051
-443.836	386.409	0.155	-0.320
-442.822	-68.323	-0.060	-0.023
-441.807	-200.000	-0.029	0.183
-440.792	258.067	0.080	0.138
-439.778	55.504	-0.030	-0.029
-438.763	203.058	0.100	0.155
-437.749	175.586	-0.203	0.295
-436.734	-200.000	0.034	-0.194
-435.719	-191.212	0.344	-0.004
-434.705	-200.000	-0.006	0.160
-433.690	-84.993	0.128	-0.040
-432.676	-158.138	0.113	-0.007
-431.661	235.883	-0.151	-0.249
-430.646	153.592	-0.135	0.185
-429.632	692.889	-0.050	-0.130
-428.617	800.000	-0.022	0.085
-427.603	-84.986	-0.236	-0.074
-426.588	678.979	-0.103	0.268
-425.573	-103.913	-0.153	-0.036
-424.559	800.000	0.111	-0.322
-423.544	491.339	-0.043	-0.098
-422.530	104.096	-0.111	0.130
-421.515	423.721	-0.174	-0.373
-420.500	-81.417	0.149	-0.049
-419.486	-75.625	-0.233	-0.083
-418.471	-13.376	-0.218	-0.141
-417.457	-159.807	0.144	0.008
-416.442	29.876	0.125	-0.107
-415.428	25.401	-0.106	0.088
-414.413	233.407	0.109	0.180
-413.398	619.599	0.063	0.157
-412.384	71.781	-0.095	-0.098
-411.369	-30.690	0.217	0.122
-410.355	-77.301	-0.172	-0.060
-409.340	142.433	0.022	0.029
-408.325	-126.043	-0.056	-0.008
-407.311	-200.000	0.015	-0.340
-406.296	139.674	0.195	-0.256
-405.282	800.000	-0.068	-0.230
-404.267	-69.044	-0.014	-0.006
-403.252	-200.000	-0.060	0.368
-402.238	-164.154	-0.028	0.001
-401.223	-55.976	-0.403	0.179
-400.209	-200.000	0.007	0.095
-399.194	-60.993	0.078	-0.033
-398.179	800.000	0.066	-0.280
-397.165	-14.329	0.330	0.212
-396.150	-74.228	-0.122	0.044
-395.136	-63.342	0.240	0.098
-394.121	-77.004	0.239	0.083
-393.106	-152.461	-0.369	0.026
-392.092	-12.159	-0.189	0.123
-391.077	113.587	0.083	-0.101
-390.063	-200.000	-0.012	-0.286
-389.048	800.000	-0.008	-0.028
-388.033	651.769	0.021	-0.053
-387.019	-200.000	-0.030	0.165
-386.004	-9.117	-0.324	0.216
-384.990	-200.000	0.022	-0.213
-383.975	224.656	0.059	-0.094
-382.960	-150.060	0.202	-0.016
-381.946	622.113	0.126	0.317
-380.931	288.053	-0.161	0.290
-379.917	-27.199	0.280	0.163
-378.902	5.597	-0.241	0.178
-377.888	417.577	-0.042	0.090
-376.873	95.669	-0.120	0.137
-375.858	421.145	-0.189	-0.404
-374.844	306.261	0.127	0.235
-373.829	-200.000	0.013	0.062
-372.815	-200.000	-0.021	-0.270
-371.800	-100.164	-0.267	-0.066
-370.785	-128.907	-0.190	-0.027
-369.771	-11.581	0.073	-0.048
-368.756	-78.852	0.204	-0.069
-367.742	800.000	-0.150	-0.417
-366.727	-200.000	0.022	0.164
-365.712	-137.161	0.253	-0.029
-364.698	-157.069	-0.224	-0.014
-363.683	-58.042	-0.328	-0.142
-362.669	-200.000	0.032	0.310
-361.654	218.368	0.327	0.521
-360.639	238.269	-0.162	0.269
-359.625	37.000	0.131	0.116
-358.610	-148.116	-0.399	0.033
-357.596	297.687	0.200	0.367
-356.581	-29.071	-0.227	0.130
-355.566	800.000	-0.047	0.145
-354.552	18.306	0.176	0.140
-353.537	-182.701	0.159	-0.003
-352.523	244.539	0.057	-0.096
-351.508	-49.315	-0.110	-0.052
-350.493	-200.000	0.064	-0.329
-349.479	95.400	0.123	0.139
-348.464	800.000	0.102	-0.285
-347.450	-28.920	0.280	0.160
-346.435	58.723	0.064	0.062
-345.420	0.474	-0.146	-0.104
-344.406	-200.000	-0.019	0.153
-343.391	492.902	0.058	-0.132
-342.377	145.489	-0.184	-0.245
-341.362	-200.000	0.003	0.329
-340.348	-48.842	0.221	0.105
-339.333	-52.554	0.284	0.131
-338.318	26.006	0.145	0.120
-337.304	24.545	0.151	0.125
-336.289	47.353	0.061	-0.056
-335.275	800.000	0.067	-0.211
-334.260	800.000	-0.114	0.429
-333.245	88.183	-0.101	-0.112
-332.231	299.481	0.096	-0.176
-331.216	-16.596	-0.201	-0.127
-330.202	376.850	0.096	-0.195
-329.187	-200.000	-0.002	-0.017
-328.172	-200.000	-0.018	0.108
-327.158	-113.081	0.105	0.021
-326.143	-9.860	-0.209	-0.138
-325.129	-196.814	0.059	0.000
-324.114	-200.000	0.065	-0.489
-323.099	-200.000	-0.002	-0.141
-322.085	182.388	0.063	0.092
-321.070	221.485	-0.026	0.041
-320.056	137.925	-0.099	-0.130
-319.041	-20.652	-0.287	0.175
-318.026	-191.677	0.318	0.003
-317.012	-144.357	0.084	0.008
-315.997	-200.000	0.011	0.150
-314.983	-146.092	0.187	-0.016
-313.968	-200.000	-0.017	0.256
-312.953	-200.000	-0.066	-0.301
-311.939	-200.000	-0.032	-0.202
-310.924	-83.456	-0.288	0.092
-309.910	-200.000	0.033	-0.180
-308.895	-137.717	0.183	-0.020
-307.880	-159.651	0.197	0.011
-306.866	-31.994	-0.200	-0.111
-305.851	15.058	-0.005	-0.004
-304.837	72.859	-0.153	0.159
-303.822	-11.972	0.142	0.092
-302.807	22.401	0.258	0.210
-301.793	-142.886	0.249	-0.024
-300.778	800.000	-0.108	0.335
-299.764	-91.830	0.403	-0.114
-298.749	2.962	-0.231	-0.167
-297.735	-200.000	-0.019	-0.163
-296.720	131.317	0.199	-0.254
-295.705	595.990	-0.098	0.241
-294.691	-13.418	0.454	0.293
-293.676	-117.853	0.292	0.052
-292.662	38.613	0.160	-0.141
-291.647	38.846	-0.245	0.218
-290.632	192.957	-0.053	-0.080
-289.618	47.545	0.047	0.044
-288.603	18.666	0.119	-0.094
-287.589	-200.000	-0.039	0.265
-286.574	-200.000	-0.059	0.563
-285.559	-28.644	0.220	0.126
-284.545	-44.319	-0.301	-0.150
-283.530	31.421	-0.535	0.457
-282.516	115.995	0.211	-0.257
-281.501	800.000	0.047	0.128
-280.486	-148.466	0.256	0.021
-279.472	244.722	-0.168	-0.280
-278.457	-15.290	-0.104	-0.066
-277.443	-106.906	0.154	0.034
-276.428	-200.000	-0.057	0.280
-275.413	800.000	-0.078	-0.242
-274.399	-79.372	0.074	0.025
-273.384	-51.249	0.025	-0.012
-272.370	148.403	0.168	-0.225
-271.355	0.867	-0.291	0.207
-270.340	-200.000	-0.011	-0.348
-269.326	-161.521	0.329	0.017
-268.311	115.128	-0.084	-0.102
-267.297	-142.935	0.231	-0.022
-266.282	72.373	-0.126	0.131
-265.267	-200.000	-0.019	-0.231
-264.253	-138.578	-0.059	0.006
-263.238	-90.148	0.155	0.045
-262.224	-21.621	-0.139	0.084
-261.209	195.923	-0.123	0.186
-260.195	732.679	-0.053	0.141
-259.180	300.086	-0.102	0.186
-258.165	800.000	-0.034	-0.110
-257.151	49.198	0.080	0.075
-256.136	30.873	-0.252	-0.214
-255.122	205.189	-0.161	0.248
-254.107	-56.686	0.352	-0.155
-253.092	326.129	-0.128	-0.243
-252.078	133.393	0.233	-0.299
-251.063	49.990	-0.327	0.306
-250.049	-200.000	0.009	0.233
-249.034	699.315	0.137	-0.356
-248.019	227.766	0.095	0.154
-247.005	-30.742	-0.339	-0.190
-245.990	-61.411	0.233	-0.097
-244.976	-81.517	-0.249	-0.081
-243.961	-200.000	0.019	-0.134
-242.946	-29.263	-0.072	0.041
-241.932	-200.000	-0.015	-0.387
-240.917	-89.757	-0.163	0.047
-239.903	285.341	-0.152	0.272
-238.888	800.000	0.038	0.120
-237.873	343.110	-0.052	-0.100
-236.859	597.585	0.068	0.167
-235.844	-132.817	0.310	-0.039
-234.830	-33.381	-0.337	0.185
-233.815	452.699	-0.065	-0.142
-232.800	32.636	-0.066	-0.057
-231.786	800.000	0.059	0.214
-230.771	-20.262	0.073	-0.044
-229.757	31.152	-0.083	0.071
-228.742	-200.000	0.009	-0.313
-227.727	62.434	-0.100	-0.099
-226.713	587.942	-0.021	0.051
-225.698	280.912	-0.092	0.162
-224.684	388.238	-0.071	0.146
-223.669	787.491	0.127	0.344
-222.655	67.713	-0.233	0.236
-221.640	-200.000	0.009	0.459
-220.625	398.950	0.046	0.095
-219.611	-200.000	-0.032	-0.182
-218.596	-113.281	0.008	-0.002
-217.582	-200.000	0.014	0.091
-216.567	24.224	0.192	-0.157
-215.552	-151.383	0.152	-0.011
-214.538	61.042	-0.182	-0.179
-213.523	78.159	0.143	0.151
-212.509	110.284	0.174	0.207
-211.494	-28.418	-0.238	0.136
-210.479	-155.146	0.602	-0.039
-209.465	159.010	0.208	0.286
-208.450	-101.333	0.344	0.083
-207.436	94.752	0.092	-0.104
-206.421	-172.431	0.287	-0.009
-205.406	4.339	-0.241	-0.175
-204.392	-200.000	0.002	0.014
-203.377	-200.000	-0.031	0.197
-202.363	200.579	0.131	0.199
-201.348	-71.573	-0.217	-0.080
-200.333	97.056	0.229	-0.260
-199.319	-18.638	0.253	0.156
-198.304	151.853	0.178	0.241
-197.290	800.000	-0.056	0.207
-196.275	800.000	-0.106	-0.446
-195.260	-123.226	0.186	0.029
-194.246	800.000	-0.096	-0.416
-193.231	-98.585	-0.142	-0.036
-192.217	-23.114	-0.195	0.116
-191.202	176.879	-0.207	0.298
-190.187	800.000	-0.051	0.177
-189.173	-77.097	0.176	-0.061
-188.158	-32.626	0.444	0.245
-187.144	-104.996	-0.276	-0.063
-186.129	2.349	-0.168	0.120
-185.114	119.355	0.199	0.244
-184.100	157.071	0.244	0.334
-183.085	137.939	0.128	-0.166
-182.071	281.189	-0.054	0.096
-181.056	99.132	0.061	0.070
-180.042	526.896	-0.013	0.031
-179.027	38.029	-0.110	-0.096
-178.012	800.000	0.105	-0.347
-176.998	60.579	-0.161	-0.157
-175.983	-200.000	-0.055	-0.281
-174.969	-64.640	0.279	-0.112
-173.954	-137.973	0.064	-0.007
-172.939	433.545	-0.087	0.186
-171.925	98.964	0.146	0.167
-170.910	-13.214	-0.086	-0.055
-169.896	-157.767	-0.048	0.003
-168.881	37.984	-0.146	-0.128
-167.866	128.374	0.177	-0.222
-166.852	-163.626	0.189	0.009
-165.837	-98.665	0.434	-0.109
-164.823	800.000	0.081	0.286
-163.808	-142.102	0.169	-0.017
-162.793	82.459	0.288	0.309
-161.779	-97.825	0.236	0.060
-160.764	-80.611	0.500	0.165
-159.750	-200.000	-0.008	-0.448
-158.735	605.537	-0.091	-0.225
-157.720	-19.554	-0.216	0.132
-156.706	181.326	-0.078	-0.113
-155.691	585.912	-0.014	-0.035
-154.677	-200.000	0.028	-0.516
-153.662	482.551	-0.084	0.189
-152.647	800.000	-0.022	-0.073
-151.633	-200.000	-0.006	0.334
-150.618	-139.567	-0.338	-0.036
-149.604	800.000	-0.041	-0.171
-148.589	299.370	0.083	-0.151
-147.574	800.000	-0.076	-0.292
-146.560	-45.313	-0.241	-0.118
-145.545	7.663	0.179	0.132
-144.531	-98.177	0.408	-0.104
-143.516	-200.000	0.114	0.517
-142.502	-49.718	0.271	-0.127
-141.487	-200.000	-0.019	-0.168
-140.472	110.735	0.218	-0.259
-139.458	-200.000	-0.034	-0.184
-138.443	-90.599	-0.350	0.100
-137.429	-195.332	-0.037	-0.000
-136.414	-62.271	0.293	0.121
-135.399	-24.026	0.138	0.081
-134.385	134.298	-0.278	-0.355
-133.370	-60.306	-0.353	-0.148
-132.356	-103.142	0.118	0.028
-131.341	-26.306	-0.161	0.093
-130.326	-40.065	0.168	-0.086
-129.312	87.010	0.102	-0.111
-128.297	-118.758	0.185	0.032
-127.283	482.183	-0.077	-0.173
-126.268	-56.342	-0.257	0.113
-125.253	-200.000	-0.006	-0.353
-124.239	-87.455	-0.322	0.096
-123.224	-125.375	-0.171	0.026
-122.210	54.816	0.306	0.291
