DTS Sentinel unit serial number:	SN413079Multiplexer serial number:	ORYXHardware model number:	OX4-SRSoftware version number:	ORYX F/W v4.00 Oryx Data Collector v3.7.2.0data status	okinstallation	princeton_trtdifferential loss correction	single-endedforward channel	channel 3reverse channel	N/Adate	2019/09/18time	09:28:35forward acquisition time	60.00reverse acquisition time	0.00gamma	496.2192k internal	0.2339k external	0.2339temperature offset calibration	0.9941default loss term (dB/km)	0.3790temperature slope calibration	1.0000multiplexer offset coefficient	1.0000multiplexer slope coefficient	1.0000fibre end	0.00T internal ref (°C)	26.30T ext. ref 1 (°C)	0.26T ext. ref 2 (°C)	23.38length (m)	temperature (°C)	Stokes	anti-Stokes-747.200	-200.000	-0.019	0.093
-746.185	19.494	-0.348	0.281
-745.171	35.853	0.262	0.231
-744.156	-110.325	0.207	-0.043
-743.142	137.816	-0.164	-0.216
-742.127	-200.000	-0.014	0.679
-741.112	40.207	-0.052	-0.047
-740.098	-44.088	-0.225	0.113
-739.083	118.476	-0.201	0.249
-738.069	178.635	-0.347	0.508
-737.054	500.768	0.052	-0.121
-736.039	136.666	-0.165	0.216
-735.025	258.489	-0.046	-0.080
-734.010	-25.543	-0.072	-0.043
-732.996	-200.000	-0.017	-0.190
-731.981	52.733	0.054	0.052
-730.966	10.608	-0.135	0.103
-729.952	295.472	-0.048	0.088
-728.937	77.072	-0.177	-0.189
-727.923	-64.340	-0.199	-0.081
-726.908	-200.000	0.007	-0.219
-725.894	-61.511	-0.182	0.077
-724.879	219.760	-0.269	-0.432
-723.864	-87.606	-0.258	-0.078
-722.850	-150.623	0.088	-0.007
-721.835	9.834	-0.179	-0.136
-720.821	-66.589	0.123	0.049
-719.806	-118.150	-0.246	0.044
-718.791	-200.000	0.002	0.101
-717.777	-134.956	-0.201	0.024
-716.762	346.741	0.163	-0.321
-715.748	-200.000	-0.048	-0.247
-714.733	-41.520	0.173	-0.089
-713.718	-21.251	-0.259	-0.159
-712.704	-200.000	0.045	0.245
-711.689	-200.000	0.018	-0.445
-710.675	-145.392	0.135	-0.012
-709.660	95.542	0.198	-0.227
-708.645	800.000	-0.002	-0.005
-707.631	131.654	-0.150	0.193
-706.616	-128.182	-0.248	-0.036
-705.602	800.000	-0.049	-0.194
-704.587	-90.857	-0.525	0.151
-703.572	201.379	-0.174	0.268
-702.558	-137.962	-0.283	-0.032
-701.543	-115.435	0.218	-0.041
-700.529	-0.987	-0.168	0.119
-699.514	-2.041	-0.138	-0.097
-698.499	-200.000	0.011	0.394
-697.485	-200.000	-0.081	0.471
-696.470	58.509	-0.218	0.215
-695.456	368.674	-0.171	-0.347
-694.441	324.429	0.093	-0.177
-693.426	35.855	0.052	-0.046
-692.412	800.000	0.022	0.070
-691.397	-168.930	-0.118	-0.004
-690.383	-200.000	0.008	0.135
-689.368	-120.270	0.272	-0.046
-688.354	406.884	-0.068	0.143
-687.339	49.364	-0.059	0.056
-686.324	385.891	0.027	-0.057
-685.310	-50.211	0.103	-0.049
-684.295	-16.287	-0.100	-0.064
-683.281	438.271	-0.067	-0.146
-682.266	-119.876	0.035	0.006
-681.251	55.969	0.128	0.124
-680.237	-26.436	0.118	-0.069
-679.222	85.154	-0.334	-0.366
-678.208	-73.621	0.198	0.072
-677.193	-55.110	0.195	0.088
-676.178	187.207	0.133	0.198
-675.164	629.207	0.057	0.145
-674.149	-200.000	0.103	-0.532
-673.135	90.514	-0.055	0.062
-672.120	355.116	0.171	0.340
-671.105	-56.617	-0.157	0.069
-670.091	-114.890	0.164	0.031
-669.076	116.896	-0.141	-0.174
-668.062	-45.264	-0.124	0.062
-667.047	-27.815	0.093	-0.054
-666.032	-9.003	-0.212	-0.142
-665.018	84.537	0.064	0.070
-664.003	800.000	-0.060	0.226
-662.989	-200.000	0.004	-0.122
-661.974	-27.367	0.067	-0.039
-660.959	-200.000	0.014	0.145
-659.945	55.479	-0.094	-0.091
-658.930	532.250	-0.025	-0.058
-657.916	675.129	-0.119	-0.310
-656.901	743.602	-0.070	0.188
-655.886	122.804	0.085	0.107
-654.872	668.512	0.158	-0.408
-653.857	-200.000	0.037	-0.235
-652.843	104.409	-0.108	-0.127
-651.828	800.000	0.044	-0.171
-650.814	-43.206	-0.196	0.099
-649.799	-128.270	-0.143	0.020
-648.784	-92.676	-0.151	0.042
-647.770	-32.527	-0.413	-0.230
-646.755	43.663	0.283	0.258
-645.741	-179.014	-0.166	-0.004
-644.726	263.281	-0.085	-0.148
-643.711	20.614	0.191	-0.154
-642.697	-90.914	0.262	-0.075
-641.682	-19.830	-0.278	0.172
-640.668	-97.892	0.208	-0.054
-639.653	15.049	-0.331	-0.259
-638.638	-132.491	0.213	0.027
-637.624	-153.916	0.403	-0.027
-636.609	1.535	0.023	0.016
-635.595	800.000	-0.076	0.300
-634.580	-200.000	0.032	0.236
-633.565	-63.118	0.155	0.064
-632.551	533.475	0.067	-0.159
-631.536	800.000	-0.061	0.199
-630.522	197.597	0.081	0.124
-629.507	105.258	0.316	0.373
-628.492	34.341	-0.061	-0.053
-627.478	-173.333	0.244	0.007
-626.463	523.655	-0.151	0.355
-625.449	120.791	0.082	0.102
-624.434	-84.744	0.142	-0.045
-623.419	115.845	0.045	-0.055
-622.405	-34.246	-0.032	0.018
-621.390	-196.091	-0.189	0.001
-620.376	3.233	0.129	-0.094
-619.361	800.000	0.036	-0.145
-618.346	153.619	0.114	0.156
-617.332	-29.858	-0.339	0.193
-616.317	157.946	-0.143	0.198
-615.303	307.121	0.049	0.091
-614.288	64.450	-0.311	0.312
-613.273	269.102	-0.104	-0.182
-612.259	-200.000	-0.025	-0.284
-611.244	-200.000	0.018	-0.176
-610.230	800.000	-0.087	0.304
-609.215	16.529	-0.205	-0.162
-608.201	800.000	-0.054	0.154
-607.186	-200.000	0.000	0.319
-606.171	-200.000	0.005	-0.023
-605.157	-117.962	-0.174	0.031
-604.142	-61.812	-0.226	-0.094
-603.128	438.804	-0.035	-0.075
-602.113	223.868	0.163	-0.262
-601.098	-67.511	-0.207	-0.081
-600.084	-200.000	0.013	-0.058
-599.069	344.923	0.082	0.161
-598.055	-91.255	-0.053	0.015
-597.040	137.433	0.072	0.094
-596.025	-92.223	0.202	0.057
-595.011	-135.177	-0.335	-0.040
-593.996	598.617	0.092	0.227
-592.982	-79.237	0.226	-0.076
-591.967	359.127	-0.032	-0.063
-590.952	-117.934	0.124	0.022
-589.938	55.035	-0.362	-0.349
-588.923	31.835	0.259	0.222
-587.909	-200.000	-0.007	0.063
-586.894	-129.401	0.306	0.042
-585.879	-148.418	0.442	0.036
-584.865	106.813	0.129	0.153
-583.850	-131.632	-0.065	-0.009
-582.836	800.000	-0.110	-0.465
-581.821	45.995	0.027	0.025
-580.806	-200.000	0.041	0.222
-579.792	41.652	-0.269	-0.243
-578.777	-200.000	0.007	0.132
-577.763	-40.754	-0.219	-0.113
-576.748	120.493	-0.155	-0.192
-575.733	-200.000	0.053	-0.298
-574.719	413.339	-0.051	-0.109
-573.704	-139.897	0.315	0.033
-572.690	-200.000	0.050	0.311
-571.675	233.980	0.130	-0.214
-570.661	-64.409	0.314	0.127
-569.646	-128.966	0.199	-0.028
-568.631	238.452	0.102	-0.168
-567.617	-5.379	-0.243	-0.167
-566.602	223.148	-0.174	-0.280
-565.588	-200.000	0.016	0.153
-564.573	10.487	0.227	-0.173
-563.558	800.000	0.065	-0.190
-562.544	-200.000	-0.011	-0.063
-561.529	800.000	-0.058	0.177
-560.515	-200.000	-0.087	0.416
-559.500	800.000	0.074	0.249
-558.485	-113.437	-0.080	-0.016
-557.471	800.000	-0.065	-0.249
-556.456	114.040	0.273	-0.331
-555.442	42.603	-0.167	0.151
-554.427	-127.884	-0.063	-0.009
-553.412	4.765	-0.119	-0.087
-552.398	-111.792	-0.124	0.025
-551.383	-50.655	0.382	-0.179
-550.369	-86.356	-0.093	0.028
-549.354	-44.144	0.336	0.168
-548.339	-200.000	-0.003	0.095
-547.325	800.000	0.043	-0.153
-546.310	278.894	-0.065	0.116
-545.296	-131.435	-0.307	0.040
-544.281	-184.916	0.339	0.005
-543.266	-32.888	-0.050	-0.028
-542.252	87.074	0.048	0.053
-541.237	-200.000	0.002	0.109
-540.223	26.479	0.208	-0.173
-539.208	28.451	0.032	-0.027
-538.193	69.324	0.152	0.156
-537.179	368.011	0.118	0.237
-536.164	-65.082	0.227	-0.091
-535.150	-82.009	0.314	0.102
-534.135	196.942	0.106	0.161
-533.121	-200.000	0.000	-0.042
-532.106	3.384	0.115	0.083
-531.091	-135.052	0.103	0.012
-530.077	-20.817	-0.099	0.060
-529.062	100.391	0.137	-0.158
-528.048	80.288	-0.206	-0.220
-527.033	31.555	0.225	0.192
-526.018	16.270	-0.369	0.290
-525.004	-108.893	-0.202	0.043
-523.989	-72.007	-0.085	0.031
-522.975	-55.975	-0.071	0.032
-521.960	89.959	0.029	-0.032
-520.945	429.331	0.110	0.235
-519.931	44.964	0.107	0.098
-518.916	-39.221	-0.143	-0.075
-517.902	800.000	0.042	-0.166
-516.887	102.073	0.251	-0.292
-515.872	-34.417	-0.189	-0.103
-514.858	-200.000	-0.004	0.044
-513.843	-120.823	0.135	-0.023
-512.829	-200.000	-0.006	0.141
-511.814	175.026	-0.062	0.089
-510.799	-146.899	-0.099	0.009
-509.785	367.501	-0.101	0.204
-508.770	-93.390	0.149	0.041
-507.756	-75.695	-0.110	0.039
-506.741	-182.947	0.253	0.004
-505.726	-200.000	0.035	0.157
-504.712	-46.854	0.153	-0.074
-503.697	79.548	0.116	-0.123
-502.683	-83.567	0.144	-0.046
-501.668	449.508	-0.156	-0.343
-500.653	129.605	0.097	0.124
-499.639	-132.202	-0.156	0.020
-498.624	151.220	-0.029	-0.039
-497.610	394.809	0.155	-0.322
-496.595	-179.996	-0.223	-0.005
-495.581	-40.827	0.276	-0.142
-494.566	-136.840	0.044	-0.005
-493.551	361.842	0.041	0.082
-492.537	189.526	0.107	-0.159
-491.522	-200.000	0.043	-0.310
-490.508	-134.612	0.210	0.025
-489.493	399.191	-0.155	0.323
-488.478	-56.263	-0.216	-0.095
-487.464	-120.801	-0.200	0.034
-486.449	77.411	0.138	-0.145
-485.435	128.433	0.127	-0.161
-484.420	445.570	-0.125	-0.273
-483.405	-96.514	0.497	0.130
-482.391	-105.135	-0.051	-0.012
-481.376	80.227	-0.084	-0.090
-480.362	14.216	-0.084	0.065
-479.347	800.000	0.071	-0.230
-478.332	-165.240	0.303	0.013
-477.318	-51.575	-0.104	-0.048
-476.303	136.050	-0.094	0.122
-475.289	-200.000	0.016	-0.219
-474.274	456.608	0.089	0.197
-473.259	502.320	0.058	0.133
-472.245	354.215	-0.044	-0.087
-471.230	66.737	-0.160	-0.161
-470.216	-139.585	0.305	-0.032
-469.201	25.283	0.145	-0.120
-468.186	-5.921	0.238	0.161
-467.172	192.501	-0.089	0.133
-466.157	287.815	-0.070	-0.125
-465.143	224.344	-0.085	-0.137
-464.128	-77.340	-0.127	-0.044
-463.113	-79.227	-0.317	-0.107
-462.099	441.757	-0.072	-0.157
-461.084	800.000	0.074	-0.234
-460.070	-43.467	0.224	0.112
-459.055	360.153	0.060	-0.120
-458.040	172.251	0.052	0.074
-457.026	-200.000	-0.024	-0.195
-456.011	800.000	-0.038	0.136
-454.997	-200.000	0.035	-0.235
-453.982	-137.497	0.158	0.018
-452.968	-200.000	-0.014	-0.405
-451.953	18.162	-0.087	0.069
-450.938	117.663	0.136	0.166
-449.924	-200.000	-0.058	-0.330
-448.909	123.217	0.220	-0.273
-447.895	-8.789	-0.177	0.118
-446.880	48.435	-0.227	-0.211
-445.865	273.426	-0.141	0.248
-444.851	25.061	0.056	-0.046
-443.836	184.739	-0.079	0.116
-442.822	-13.659	-0.214	-0.137
-441.807	256.596	0.163	-0.278
-440.792	7.965	-0.100	0.074
-439.778	800.000	-0.075	-0.248
-438.763	61.604	0.191	0.188
-437.749	-144.291	-0.401	0.037
-436.734	800.000	0.021	0.065
-435.719	-189.554	-0.275	0.003
-434.705	800.000	0.056	-0.154
-433.690	358.313	0.225	-0.445
-432.676	691.660	0.055	-0.142
-431.661	800.000	-0.090	-0.308
-430.646	-83.125	0.144	-0.046
-429.632	-200.000	-0.002	-0.174
-428.617	189.836	0.146	0.218
-427.603	-200.000	-0.007	-0.112
-426.588	800.000	-0.077	-0.231
-425.573	-200.000	-0.019	-0.133
-424.559	-138.784	-0.246	0.027
-423.544	-200.000	0.013	-0.112
-422.530	344.147	0.075	-0.146
-421.515	800.000	0.020	0.080
-420.500	66.357	0.222	0.224
-419.486	-75.191	0.340	-0.120
-418.471	-70.728	-0.079	-0.030
-417.457	800.000	-0.059	-0.200
-416.442	179.344	-0.110	-0.159
-415.428	-200.000	0.039	0.262
-414.413	120.796	-0.053	-0.065
-413.398	60.474	-0.029	-0.029
-412.384	-200.000	0.007	0.193
-411.369	249.779	-0.078	-0.130
-410.355	123.145	0.141	0.174
-409.340	-128.668	-0.329	-0.046
-408.325	-200.000	-0.010	0.273
-407.311	-200.000	0.072	-0.459
-406.296	707.389	0.051	-0.135
-405.282	107.950	-0.246	0.290
-404.267	-200.000	-0.155	0.001
-403.252	283.594	-0.153	-0.271
-402.238	-200.000	-0.012	0.169
-401.223	-89.171	0.570	0.167
-400.209	-172.892	0.189	-0.006
-399.194	-200.000	-0.011	0.213
-398.179	-56.633	-0.377	0.165
-397.165	-88.810	-0.184	-0.054
-396.150	-43.149	0.363	0.182
-395.136	-200.000	-0.033	0.248
-394.121	-200.000	0.045	-0.287
-393.106	800.000	0.063	-0.203
-392.092	800.000	-0.043	-0.174
-391.077	800.000	0.071	-0.206
-390.063	-23.154	-0.146	0.087
-389.048	-200.000	0.035	0.157
-388.033	800.000	0.044	-0.127
-387.019	-200.000	-0.000	0.225
-386.004	293.203	-0.152	0.274
-384.990	48.816	-0.271	0.251
-383.975	800.000	0.057	0.191
-382.960	54.789	-0.177	0.168
-381.946	163.618	0.136	-0.189
-380.931	108.976	0.069	-0.082
-379.917	10.113	-0.211	-0.158
-378.902	35.543	-0.165	0.143
-377.888	24.367	-0.039	0.032
-376.873	-117.559	0.460	0.082
-375.858	77.177	-0.197	-0.207
-374.844	35.406	0.096	-0.083
-373.829	-68.948	0.127	-0.048
-372.815	-74.080	-0.407	0.146
-371.800	-200.000	0.014	-0.099
-370.785	-86.542	0.333	0.101
-369.771	-200.000	-0.007	0.317
-368.756	550.242	-0.043	0.103
-367.742	569.758	-0.053	0.127
-366.727	-35.188	-0.222	-0.119
-365.712	-60.810	-0.217	-0.091
-364.698	800.000	-0.076	-0.253
-363.683	30.821	-0.155	-0.131
-362.669	5.497	0.255	-0.186
-361.654	118.194	-0.255	-0.310
-360.639	-47.451	-0.091	0.044
-359.625	800.000	-0.059	-0.243
-358.610	109.114	-0.150	0.177
-357.596	-103.260	-0.304	0.071
-356.581	-200.000	0.020	0.499
-355.566	72.420	0.022	0.022
-354.552	800.000	-0.032	0.106
-353.537	38.641	-0.137	0.121
-352.523	-29.557	-0.304	-0.172
-351.508	-0.924	0.116	-0.081
-350.493	56.782	-0.206	-0.198
-349.479	-62.238	-0.401	-0.165
-348.464	65.414	0.257	0.257
-347.450	-200.000	0.008	0.233
-346.435	22.710	-0.059	-0.048
-345.420	-51.079	0.183	0.085
-344.406	-110.289	-0.218	0.045
-343.391	-130.646	0.143	0.019
-342.377	-200.000	-0.106	-0.522
-341.362	-1.235	0.181	0.126
-340.348	161.046	0.094	-0.129
-339.333	-79.302	0.136	0.046
-338.318	-200.000	0.043	0.347
-337.304	-28.321	-0.129	-0.074
-336.289	413.699	-0.047	-0.098
-335.275	-164.317	-0.223	0.010
-334.260	-150.504	-0.156	0.012
-333.245	-65.780	-0.339	-0.134
-332.231	215.285	-0.169	-0.264
-331.216	-200.000	0.003	-0.044
-330.202	-90.299	0.327	-0.094
-329.187	-69.242	0.326	-0.124
-328.172	-36.942	-0.171	0.090
-327.158	35.039	0.304	0.262
-326.143	-73.345	-0.366	0.132
-325.129	800.000	0.081	-0.278
-324.114	-1.737	-0.109	0.075
-323.099	-200.000	-0.006	0.086
-322.085	-154.281	-0.219	0.015
-321.070	-39.955	0.247	0.127
-320.056	-120.888	-0.052	-0.009
-319.041	-13.444	-0.121	0.078
-318.026	-153.861	-0.188	0.013
-317.012	-21.906	0.233	0.140
-315.997	9.069	-0.107	0.079
-314.983	4.466	-0.278	0.201
-313.968	109.930	-0.249	-0.294
-312.953	461.763	0.064	-0.141
-311.939	-107.837	0.052	0.011
-310.924	-200.000	-0.060	0.276
-309.910	211.183	0.115	0.179
-308.895	-67.391	-0.110	-0.042
-307.880	58.046	0.094	-0.091
-306.866	800.000	0.045	-0.130
-305.851	-200.000	-0.034	0.282
-304.837	718.808	0.097	0.255
-303.822	-200.000	0.001	0.116
-302.807	-44.634	-0.205	0.101
-301.793	27.543	-0.109	0.090
-300.778	187.252	-0.035	-0.052
-299.764	87.738	0.254	-0.277
-298.749	591.250	-0.058	0.141
-297.735	-200.000	0.042	0.339
-296.720	117.633	-0.190	-0.230
-295.705	-52.685	-0.043	0.019
-294.691	-128.462	-0.327	0.046
-293.676	197.766	0.152	-0.229
-292.662	83.257	0.190	-0.204
-291.647	239.623	-0.030	-0.049
-290.632	-148.845	-0.249	0.020
-289.618	-84.561	0.265	0.082
-288.603	251.844	0.204	-0.342
-287.589	-32.001	-0.255	0.141
-286.574	-95.461	-0.154	-0.041
-285.559	-81.912	-0.246	0.079
-284.545	-39.094	-0.061	-0.031
-283.530	-12.381	0.200	-0.129
-282.516	-157.369	0.085	0.005
-281.501	-97.233	-0.275	0.071
-280.486	-200.000	-0.006	0.263
-279.472	-41.401	-0.092	-0.047
-278.457	483.163	0.053	0.118
-277.443	219.018	-0.170	0.268
-276.428	-54.131	-0.174	-0.078
-275.413	-200.000	0.009	0.187
-274.399	-116.962	0.028	-0.005
-273.384	-60.928	-0.214	0.089
-272.370	-53.680	-0.324	-0.146
-271.355	800.000	0.040	0.159
-270.340	-140.098	0.336	-0.035
-269.326	-200.000	0.005	-0.081
-268.311	133.192	0.101	0.128
-267.297	-200.000	0.025	0.186
-266.282	-100.015	-0.084	-0.021
-265.267	-200.000	-0.021	-0.197
-264.253	-200.000	0.045	-0.352
-263.238	54.253	0.061	-0.058
-262.224	686.310	-0.089	0.229
-261.209	800.000	-0.039	0.112
-260.195	-200.000	0.018	0.270
-259.180	-200.000	0.005	0.068
-258.165	-200.000	0.050	0.351
-257.151	-32.782	0.106	0.058
-256.136	-115.562	-0.039	-0.007
-255.122	-87.439	0.183	0.055
-254.107	70.876	-0.205	0.209
-253.092	266.968	0.161	-0.278
-252.078	163.997	0.038	0.052
-251.063	-200.000	-0.026	-0.369
-250.049	800.000	0.074	-0.302
-249.034	800.000	0.071	0.251
-248.019	156.352	0.078	-0.106
-247.005	219.879	-0.155	-0.244
-245.990	-200.000	0.062	-0.350
-244.976	434.955	0.060	-0.128
-243.961	-14.394	-0.395	0.250
-242.946	-149.865	0.385	-0.030
-241.932	360.860	-0.089	-0.175
-240.917	-3.733	-0.153	-0.105
-239.903	-162.637	0.255	0.012
-238.888	187.004	-0.113	-0.166
-237.873	665.598	-0.070	0.177
-236.859	800.000	-0.081	-0.302
-235.844	227.289	-0.233	0.373
-234.830	800.000	-0.054	0.183
-233.815	-200.000	0.015	-0.112
-232.800	472.867	0.102	0.225
-231.786	-47.934	0.232	0.110
-230.771	-46.049	0.210	-0.102
-229.757	-176.915	0.150	-0.004
-228.742	-112.351	-0.304	-0.060
-227.727	-193.326	0.572	-0.005
-226.713	14.851	0.258	0.199
-225.698	-140.937	-0.284	0.029
-224.684	97.576	0.147	0.166
-223.669	-118.589	0.268	-0.046
-222.655	-99.228	0.141	0.035
-221.640	60.608	-0.105	0.102
-220.625	-200.000	0.047	0.205
-219.611	85.696	0.186	0.201
-218.596	-200.000	-0.021	0.249
-217.582	-71.519	0.191	-0.070
-216.567	1.225	-0.176	0.124
-215.552	-141.030	-0.032	0.003
-214.538	108.208	0.028	0.032
-213.523	126.256	0.190	0.236
-212.509	3.176	0.170	-0.121
-211.494	424.581	-0.266	0.563
-210.479	-128.943	-0.165	0.023
-209.465	108.199	0.241	0.282
-208.450	38.991	0.084	-0.073
-207.436	-157.281	-0.420	0.025
-206.421	-43.283	0.119	-0.059
-205.406	113.999	-0.156	-0.187
-204.392	-200.000	-0.021	0.251
-203.377	359.031	0.128	-0.251
-202.363	-102.371	-0.256	0.060
-201.348	-136.382	0.261	-0.030
-200.333	-200.000	0.000	-0.085
-199.319	-109.554	-0.082	0.017
-198.304	92.535	-0.273	0.302
-197.290	-133.451	0.394	-0.049
-196.275	-200.000	-0.081	-0.503
-195.260	-167.449	0.173	0.007
-194.246	15.269	-0.200	0.154
-193.231	-200.000	-0.036	0.263
-192.217	47.016	-0.158	0.144
-191.202	-35.644	-0.297	0.158
-190.187	-99.551	-0.232	-0.057
-189.173	-148.864	0.164	0.013
-188.158	-200.000	0.005	0.090
-187.144	-21.643	0.102	0.061
-186.129	65.549	-0.170	0.169
-185.114	-200.000	-0.079	0.432
-184.100	150.305	0.211	-0.281
-183.085	5.772	0.152	-0.110
-182.071	18.004	0.246	-0.193
-181.056	-200.000	0.004	0.026
-180.042	-200.000	-0.038	-0.189
-179.027	9.099	0.323	0.239
-178.012	800.000	-0.023	-0.082
-176.998	18.209	-0.058	-0.045
-175.983	227.769	-0.051	0.081
-174.969	213.294	0.107	-0.166
-173.954	90.518	0.165	0.181
-172.939	800.000	-0.099	-0.343
-171.925	284.930	0.080	0.141
-170.910	-164.612	-0.522	-0.023
-169.896	518.235	0.022	0.051
-168.881	-171.033	0.210	-0.007
-167.866	-200.000	-0.022	-0.341
-166.852	-121.750	-0.296	-0.048
-165.837	71.054	0.099	0.100
-164.823	206.523	0.142	-0.217
-163.808	501.817	0.137	-0.310
-162.793	37.727	-0.109	0.095
-161.779	-93.720	-0.190	-0.051
-160.764	5.648	-0.127	-0.092
-159.750	800.000	0.033	-0.119
-158.735	463.426	0.093	0.203
-157.720	126.557	0.139	0.173
-156.706	0.812	0.184	0.129
-155.691	732.542	-0.133	0.348
-154.677	800.000	0.085	-0.241
-153.662	710.188	0.020	0.053
-152.647	-167.731	0.219	-0.008
-151.633	-0.995	0.172	-0.120
-150.618	800.000	-0.086	0.368
-149.604	67.669	-0.135	-0.135
-148.589	-146.331	-0.339	-0.029
-147.574	-200.000	-0.031	0.199
-146.560	-200.000	0.008	0.403
-145.545	-132.623	0.295	0.037
-144.531	-11.833	0.051	-0.033
-143.516	-156.677	0.393	0.024
-142.502	800.000	0.066	-0.200
-141.487	800.000	-0.075	-0.263
-140.472	-200.000	-0.002	-0.402
-139.458	344.810	0.153	0.295
-138.443	-125.565	0.026	-0.004
-137.429	-82.731	0.273	0.086
-136.414	-165.783	-0.240	-0.010
-135.399	-126.431	-0.234	-0.034
-134.385	-184.359	-0.314	0.005
-133.370	711.808	0.082	-0.212
-132.356	-126.842	-0.072	-0.010
-131.341	20.932	0.205	0.162
-130.326	141.636	0.072	0.093
-129.312	101.092	0.106	0.121
-128.297	-200.000	0.021	0.284
-127.283	3.774	-0.071	-0.051
-126.268	380.267	-0.098	0.197
-125.253	-200.000	0.028	0.159
-124.239	-154.256	-0.337	0.022
-123.224	25.532	0.171	0.140
-122.210	800.000	-0.095	-0.284
-121.195	189.942	0.069	0.101
