DTS Sentinel unit serial number:	SN413079Multiplexer serial number:	ORYXHardware model number:	OX4-SRSoftware version number:	ORYX F/W v4.00 Oryx Data Collector v3.7.2.0data status	okinstallation	princeton_trtdifferential loss correction	single-endedforward channel	channel 3reverse channel	N/Adate	2019/09/17time	20:24:35forward acquisition time	60.00reverse acquisition time	0.00gamma	496.2192k internal	0.2328k external	0.2328temperature offset calibration	0.9949default loss term (dB/km)	0.3790temperature slope calibration	1.0000multiplexer offset coefficient	1.0000multiplexer slope coefficient	1.0000fibre end	0.00T internal ref (°C)	31.09T ext. ref 1 (°C)	0.21T ext. ref 2 (°C)	21.64length (m)	temperature (°C)	Stokes	anti-Stokes-747.200	101.228	0.203	0.238
-746.185	-118.816	-0.639	0.113
-745.171	-200.000	0.040	-0.239
-744.156	-200.000	0.042	0.415
-743.142	-200.000	-0.004	0.225
-742.127	-166.726	-0.293	0.012
-741.112	-136.225	0.198	-0.023
-740.098	-2.252	-0.304	0.215
-739.083	-16.378	-0.184	-0.117
-738.069	18.242	-0.229	0.184
-737.054	141.649	-0.033	0.044
-736.039	-168.855	-0.230	-0.009
-735.025	-129.304	0.255	0.036
-734.010	-70.537	-0.313	-0.119
-732.996	800.000	0.059	0.188
-731.981	800.000	0.057	-0.221
-730.966	800.000	-0.098	-0.414
-729.952	135.374	-0.154	0.201
-728.937	800.000	0.030	0.122
-727.923	6.708	-0.237	0.178
-726.908	-200.000	-0.053	-0.342
-725.894	-157.730	0.298	0.018
-724.879	-85.196	-0.389	0.122
-723.864	-54.543	0.148	0.068
-722.850	-200.000	0.080	-0.382
-721.835	-200.000	0.052	0.371
-720.821	-44.420	-0.347	0.175
-719.806	62.842	0.092	0.092
-718.791	125.692	-0.222	-0.282
-717.777	-50.000	-0.152	0.073
-716.762	22.000	0.029	-0.024
-715.748	169.302	-0.071	0.101
-714.733	11.654	-0.333	-0.257
-713.718	-38.904	-0.084	0.045
-712.704	145.925	-0.156	-0.210
-711.689	249.180	-0.101	-0.172
-710.675	345.929	-0.174	-0.345
-709.660	-41.762	0.328	0.169
-708.645	800.000	-0.078	-0.250
-707.631	-40.905	-0.109	-0.057
-706.616	800.000	0.060	-0.215
-705.602	-200.000	0.000	-0.340
-704.587	-29.916	0.017	0.010
-703.572	339.611	-0.155	0.304
-702.558	-134.524	-0.152	0.019
-701.543	22.515	-0.337	0.277
-700.529	-200.000	-0.033	-0.268
-699.514	13.272	0.247	-0.192
-698.499	-200.000	-0.031	0.186
-697.485	-104.450	0.123	0.029
-696.470	89.648	0.204	-0.229
-695.456	288.431	0.024	0.044
-694.441	231.722	-0.165	-0.272
-693.426	275.838	-0.123	0.220
-692.412	-103.187	0.352	0.084
-691.397	-200.000	-0.003	0.168
-690.383	-102.683	0.263	-0.063
-689.368	511.941	0.126	-0.296
-688.354	-200.000	-0.004	-0.113
-687.339	-31.127	-0.048	-0.027
-686.324	610.029	0.026	0.064
-685.310	636.335	0.037	0.096
-684.295	800.000	0.057	-0.173
-683.281	-87.124	0.177	-0.054
-682.266	800.000	-0.091	0.303
-681.251	-200.000	0.064	0.314
-680.237	-60.301	0.487	-0.208
-679.222	-200.000	-0.018	-0.175
-678.208	3.280	-0.285	-0.208
-677.193	220.152	-0.232	-0.373
-676.178	-200.000	0.021	0.146
-675.164	-152.189	-0.076	0.006
-674.149	27.623	0.082	-0.070
-673.135	269.578	-0.011	-0.019
-672.120	-95.851	-0.217	-0.058
-671.105	800.000	0.052	0.216
-670.091	77.156	0.070	0.075
-669.076	-57.859	-0.173	-0.076
-668.062	73.355	0.058	0.061
-667.047	149.571	-0.177	0.240
-666.032	418.830	0.214	-0.459
-665.018	-33.694	0.340	0.189
-664.003	31.739	0.218	-0.188
-662.989	-87.443	-0.072	0.022
-661.974	-3.752	0.394	-0.275
-660.959	-200.000	-0.020	-0.272
-659.945	15.891	-0.087	-0.069
-658.930	-86.250	0.154	0.048
-657.916	-144.218	0.073	0.007
-656.901	-32.277	0.086	-0.048
-655.886	-112.162	0.078	-0.016
-654.872	462.590	0.102	-0.229
-653.857	-200.000	0.012	-0.126
-652.843	12.178	-0.153	0.118
-651.828	238.885	0.065	-0.109
-650.814	92.778	-0.226	0.257
-649.799	105.095	0.051	-0.060
-648.784	297.275	-0.047	-0.087
-647.770	13.733	-0.167	0.131
-646.755	2.513	0.167	0.121
-645.741	800.000	0.080	0.300
-644.726	-172.268	-0.043	0.001
-643.711	-200.000	-0.000	0.041
-642.697	-182.981	-0.188	-0.003
-641.682	800.000	0.059	0.224
-640.668	5.020	0.142	0.105
-639.653	-200.000	0.001	0.032
-638.638	-60.737	-0.328	0.139
-637.624	-105.088	-0.194	-0.045
-636.609	-90.096	0.229	0.067
-635.595	610.905	-0.140	0.352
-634.580	60.101	0.100	0.099
-633.565	286.495	-0.164	0.297
-632.551	190.431	-0.078	-0.117
-631.536	-38.765	-0.349	0.185
-630.522	800.000	-0.151	-0.497
-629.507	-66.797	0.192	-0.076
-628.492	11.290	-0.377	-0.289
-627.478	-23.540	0.031	-0.019
-626.463	-116.552	-0.279	0.052
-625.449	800.000	0.053	0.173
-624.434	-59.337	-0.131	0.056
-623.419	-133.470	-0.088	-0.011
-622.405	81.025	0.102	-0.111
-621.390	-130.292	-0.292	0.040
-620.376	489.140	0.082	-0.189
-619.361	800.000	0.143	-0.485
-618.346	-4.731	-0.137	0.095
-617.332	-111.186	-0.176	-0.036
-616.317	800.000	0.076	-0.321
-615.303	196.439	-0.042	-0.064
-614.288	-98.019	0.324	-0.084
-613.273	-10.152	0.098	0.066
-612.259	-145.931	-0.112	0.010
-611.244	684.116	-0.200	-0.523
-610.230	50.629	-0.196	0.186
-609.215	800.000	-0.067	-0.247
-608.201	793.446	0.048	0.134
-607.186	438.499	-0.085	-0.185
-606.171	-38.074	0.143	-0.076
-605.157	628.169	0.024	-0.060
-604.142	-200.000	-0.050	-0.246
-603.128	296.282	0.113	-0.208
-602.113	-125.128	-0.279	0.043
-601.098	690.342	0.162	-0.426
-600.084	-87.233	-0.321	-0.098
-599.069	-117.378	-0.296	0.054
-598.055	47.988	0.170	-0.159
-597.040	-96.547	-0.241	0.064
-596.025	-166.923	0.232	0.010
-595.011	-80.328	0.082	-0.028
-593.996	-80.179	-0.131	0.044
-592.982	-200.000	-0.054	0.372
-591.967	800.000	0.080	-0.339
-590.952	-200.000	0.098	0.504
-589.938	-47.899	-0.112	-0.054
-588.923	-137.615	-0.381	0.043
-587.909	-59.255	-0.233	-0.101
-586.894	-200.000	0.017	-0.113
-585.879	-89.064	0.087	-0.026
-584.865	310.343	-0.145	-0.272
-583.850	-117.993	0.227	0.041
-582.836	-200.000	0.076	0.344
-581.821	-29.501	0.101	-0.058
-580.806	52.275	0.233	-0.222
-579.792	800.000	-0.035	0.144
-578.777	800.000	0.023	0.072
-577.763	-89.982	0.386	-0.113
-576.748	393.980	0.083	-0.173
-575.733	-104.113	-0.225	-0.052
-574.719	-200.000	-0.047	-0.231
-573.704	-30.320	0.179	0.102
-572.690	-54.615	-0.103	0.047
-571.675	-108.012	0.341	0.074
-570.661	86.754	-0.052	0.057
-569.646	396.554	-0.126	0.264
-568.631	800.000	-0.124	0.365
-567.617	-49.710	-0.236	-0.112
-566.602	-150.201	0.377	0.029
-565.588	576.405	-0.020	0.048
-564.573	81.007	-0.120	-0.130
-563.558	-200.000	0.017	-0.245
-562.544	800.000	-0.135	-0.449
-561.529	-129.776	0.210	0.029
-560.515	-66.533	-0.451	0.179
-559.500	-93.321	-0.237	-0.066
-558.485	-200.000	-0.002	-0.026
-557.471	-82.191	-0.111	0.036
-556.456	-200.000	-0.013	-0.143
-555.442	133.937	-0.112	-0.145
-554.427	-145.856	-0.122	-0.011
-553.412	-200.000	0.062	-0.413
-552.398	-153.969	-0.298	-0.020
-551.383	800.000	0.101	-0.373
-550.369	47.929	0.113	0.105
-549.354	42.326	0.277	-0.252
-548.339	-200.000	0.002	0.099
-547.325	383.592	0.090	-0.184
-546.310	800.000	0.130	-0.401
-545.296	-200.000	0.029	-0.470
-544.281	-200.000	-0.001	-0.050
-543.266	270.757	-0.076	-0.134
-542.252	-186.428	-0.247	0.004
-541.237	-116.116	0.286	0.053
-540.223	-200.000	0.007	-0.097
-539.208	575.842	-0.049	-0.120
-538.193	800.000	0.133	0.392
-537.179	-200.000	0.044	0.235
-536.164	534.542	0.038	-0.091
-535.150	-200.000	0.024	0.248
-534.135	-86.837	0.115	0.035
-533.121	-200.000	0.035	0.329
-532.106	-200.000	-0.053	0.261
-531.091	101.411	-0.057	0.066
-530.077	491.975	0.021	-0.049
-529.062	-108.214	0.257	0.056
-528.048	-94.246	-0.117	0.032
-527.033	-200.000	-0.002	-0.415
-526.018	-200.000	0.003	-0.023
-525.004	-24.947	0.096	0.057
-523.989	71.989	-0.183	0.190
-522.975	800.000	0.107	-0.304
-521.960	-92.773	-0.272	0.076
-520.945	-105.079	0.078	-0.018
-519.931	-40.784	0.271	0.140
-518.916	77.952	0.216	0.230
-517.902	-162.397	0.200	0.010
-516.887	-200.000	0.006	0.119
-515.872	-4.639	-0.345	0.238
-514.858	-29.824	0.148	-0.084
-513.843	800.000	-0.033	-0.125
-512.829	-59.284	0.028	0.012
-511.814	-200.000	-0.013	0.057
-510.799	-200.000	-0.046	-0.347
-509.785	179.106	-0.228	-0.333
-508.770	-130.454	-0.094	0.013
-507.756	172.346	0.127	0.183
-506.741	-64.193	-0.245	-0.100
-505.726	38.619	0.139	-0.124
-504.712	800.000	0.072	-0.301
-503.697	-200.000	-0.018	0.120
-502.683	17.199	-0.184	0.146
-501.668	314.073	0.025	0.047
-500.653	-200.000	-0.035	-0.179
-499.639	-200.000	-0.036	-0.383
-498.624	-46.346	0.149	0.073
-497.610	124.373	0.226	0.283
-496.595	11.434	-0.315	-0.241
-495.581	-151.908	0.110	0.008
-494.566	-40.768	-0.349	0.181
-493.551	-18.216	-0.302	-0.189
-492.537	3.978	0.147	0.107
-491.522	643.997	0.101	-0.257
-490.508	17.549	-0.187	0.148
-489.493	-149.398	0.146	0.012
-488.478	-141.969	-0.214	-0.021
-487.464	-200.000	-0.017	0.143
-486.449	-200.000	-0.038	0.283
-485.435	-93.691	0.057	-0.016
-484.420	214.803	0.048	-0.075
-483.405	-200.000	-0.011	0.112
-482.391	33.796	-0.089	0.077
-481.376	62.620	-0.304	-0.303
-480.362	405.667	0.105	0.221
-479.347	-97.143	-0.174	-0.045
-478.332	-200.000	-0.029	0.194
-477.318	-200.000	0.011	-0.139
-476.303	-9.584	0.218	0.145
-475.289	-30.849	-0.151	0.085
-474.274	-160.362	0.551	0.030
-473.259	-50.657	0.148	-0.070
-472.245	-200.000	-0.003	0.040
-471.230	-116.676	0.397	0.073
-470.216	-200.000	-0.055	-0.272
-469.201	-5.792	0.208	-0.142
-468.186	709.894	0.012	-0.031
-467.172	16.458	0.230	0.181
-466.157	-97.737	0.097	-0.025
-465.143	-56.618	0.118	0.052
-464.128	-105.762	-0.187	-0.042
-463.113	382.333	-0.032	-0.066
-462.099	-119.767	0.076	0.013
-461.084	495.375	-0.151	-0.345
-460.070	-152.171	-0.164	-0.012
-459.055	118.826	0.166	0.205
-458.040	-111.879	-0.052	0.010
-457.026	800.000	-0.040	0.132
-456.011	-200.000	-0.008	-0.157
-454.997	-200.000	0.022	0.182
-453.982	-52.183	-0.240	0.111
-452.968	-146.996	0.066	0.006
-451.953	-43.362	-0.344	-0.173
-450.938	-126.556	0.142	-0.021
-449.924	93.464	0.103	0.116
-448.909	55.511	-0.147	0.142
-447.895	19.775	0.034	-0.027
-446.880	-200.000	-0.033	0.255
-445.865	-200.000	-0.026	-0.170
-444.851	-101.379	0.323	-0.078
-443.836	-115.437	-0.052	0.010
-442.822	-200.000	0.041	-0.234
-441.807	-86.868	0.349	-0.106
-440.792	-89.708	-0.143	0.042
-439.778	-47.773	0.249	-0.120
-438.763	-27.624	-0.083	0.048
-437.749	98.079	0.106	-0.122
-436.734	-130.171	-0.132	0.018
-435.719	-200.000	0.022	0.170
-434.705	70.266	-0.103	0.105
-433.690	-200.000	-0.056	0.372
-432.676	-88.563	-0.103	0.031
-431.661	-46.851	0.328	-0.160
-430.646	-47.993	0.314	-0.151
-429.632	50.283	-0.231	0.218
-428.617	800.000	0.133	0.412
-427.603	800.000	-0.005	-0.019
-426.588	800.000	-0.064	0.187
-425.573	-200.000	0.016	-0.260
-424.559	800.000	-0.149	-0.521
-423.544	521.653	-0.118	0.275
-422.530	-73.441	-0.186	0.068
-421.515	-121.133	0.074	0.012
-420.500	-200.000	-0.018	-0.169
-419.486	-153.386	-0.134	-0.009
-418.471	-178.539	0.187	0.004
-417.457	-200.000	0.082	0.519
-416.442	20.111	-0.139	0.111
-415.428	89.524	0.105	-0.117
-414.413	-9.002	0.107	-0.071
-413.398	-200.000	0.014	-0.079
-412.384	-61.966	-0.146	-0.061
-411.369	-75.458	0.243	-0.086
-410.355	-125.749	0.095	0.014
-409.340	56.735	-0.145	0.140
-408.325	-126.631	0.121	-0.018
-407.311	-200.000	0.014	0.103
-406.296	379.275	0.087	0.176
-405.282	135.844	0.070	-0.090
-404.267	-115.288	0.355	0.067
-403.252	272.257	-0.227	-0.398
-402.238	19.949	-0.249	0.200
-401.223	67.591	-0.234	-0.237
-400.209	-125.231	-0.170	-0.026
-399.194	149.828	0.225	0.303
-398.179	800.000	-0.037	0.130
-397.165	-13.453	-0.158	0.102
-396.150	-200.000	-0.048	-0.259
-395.136	-200.000	-0.002	0.033
-394.121	73.748	-0.073	0.076
-393.106	246.373	-0.075	0.126
-392.092	-114.364	0.151	0.029
-391.077	800.000	-0.084	-0.261
-390.063	46.426	0.242	-0.223
-389.048	3.052	0.104	-0.075
-388.033	673.972	0.114	-0.295
-387.019	-74.901	-0.230	-0.082
-386.004	-86.425	0.280	-0.085
-384.990	-200.000	-0.035	0.208
-383.975	-90.277	0.164	0.047
-382.960	181.338	-0.151	-0.221
-381.946	7.733	-0.220	-0.163
-380.931	-22.933	-0.320	0.192
-379.917	170.803	-0.197	-0.281
-378.902	-200.000	0.002	0.318
-377.888	168.518	0.083	0.117
-376.873	-122.941	0.133	0.021
-375.858	196.437	-0.158	-0.239
-374.844	-92.378	-0.252	0.070
-373.829	372.657	0.078	-0.156
-372.815	254.988	0.128	-0.218
-371.800	-133.415	-0.242	0.030
-370.785	-200.000	0.031	0.171
-369.771	800.000	0.063	0.214
-368.756	800.000	0.055	0.162
-367.742	208.060	-0.110	0.170
-366.727	-200.000	-0.009	-0.323
-365.712	-44.000	-0.250	0.125
-364.698	-78.466	-0.071	0.024
-363.683	32.648	0.190	0.163
-362.669	457.442	-0.207	0.456
-361.654	32.661	0.117	0.101
-360.639	-152.065	0.218	0.016
-359.625	221.434	-0.153	-0.244
-358.610	-25.955	0.247	-0.144
-357.596	65.372	0.189	-0.190
-356.581	-141.089	-0.095	0.010
-355.566	-92.798	0.291	-0.081
-354.552	800.000	-0.031	-0.105
-353.537	800.000	0.074	-0.314
-352.523	-47.451	0.162	-0.078
-351.508	-200.000	-0.003	0.081
-350.493	476.986	0.141	-0.315
-349.479	94.362	-0.072	-0.081
-348.464	68.910	-0.236	-0.241
-347.450	-55.053	-0.148	0.066
-346.435	-200.000	0.021	0.167
-345.420	-170.509	-0.386	-0.013
-344.406	564.508	-0.105	0.251
-343.391	181.451	-0.072	-0.105
-342.377	800.000	-0.031	-0.111
-341.362	-48.456	0.356	-0.170
-340.348	523.423	0.058	0.135
-339.333	80.618	-0.120	0.128
-338.318	-106.261	-0.389	-0.086
-337.304	-40.262	0.357	-0.184
-336.289	89.818	0.195	-0.215
-335.275	800.000	0.055	-0.154
-334.260	683.742	0.122	0.317
-333.245	-97.618	0.422	0.109
-332.231	-62.096	-0.096	0.040
-331.216	-133.762	0.504	-0.062
-330.202	-21.644	0.322	0.194
-329.187	4.474	-0.063	-0.046
-328.172	16.339	-0.389	0.304
-327.158	-39.677	0.227	0.118
-326.143	-200.000	0.003	0.062
-325.129	25.481	0.130	0.107
-324.114	-122.588	0.212	-0.034
-323.099	-133.355	-0.349	-0.044
-322.085	-164.996	0.551	0.024
-321.070	-63.829	0.228	0.093
-320.056	-103.866	-0.292	0.068
-319.041	800.000	0.010	0.038
-318.026	-200.000	-0.000	-0.143
-317.012	221.184	0.087	0.139
-315.997	20.132	0.136	0.109
-314.983	-20.270	-0.252	-0.153
-313.968	-22.149	-0.110	0.066
-312.953	-69.975	0.256	0.097
-311.939	104.631	-0.277	0.323
-310.924	156.804	-0.059	-0.080
-309.910	33.994	-0.098	0.085
-308.895	-200.000	-0.055	0.250
-307.880	-200.000	-0.009	0.046
-306.866	23.553	-0.217	-0.177
-305.851	80.912	-0.138	0.148
-304.837	145.577	0.079	0.105
-303.822	396.846	0.082	-0.169
-302.807	-200.000	0.021	-0.449
-301.793	-12.314	0.066	-0.043
-300.778	-97.697	0.124	0.032
-299.764	-0.651	-0.077	0.054
-298.749	-8.930	-0.141	-0.093
-297.735	-91.589	0.387	-0.109
-296.720	800.000	-0.095	0.327
-295.705	-38.420	-0.152	-0.080
-294.691	-36.280	-0.360	-0.192
-293.676	-200.000	-0.027	-0.229
-292.662	236.339	0.166	0.272
-291.647	-70.794	0.034	-0.013
-290.632	800.000	-0.063	-0.215
-289.618	-200.000	-0.049	-0.232
-288.603	-88.738	0.183	-0.054
-287.589	-200.000	-0.004	0.079
-286.574	171.892	0.267	0.380
-285.559	-16.594	0.259	0.163
-284.545	130.721	-0.054	-0.068
-283.530	-200.000	-0.046	0.297
-282.516	-3.051	0.206	-0.142
-281.501	247.019	-0.159	-0.265
-280.486	-18.525	0.207	-0.128
-279.472	322.284	0.175	0.329
-278.457	-200.000	0.004	-0.097
-277.443	683.171	0.059	-0.151
-276.428	-62.891	0.327	-0.134
-275.413	-200.000	-0.029	-0.222
-274.399	171.616	-0.196	-0.278
-273.384	-54.934	0.388	-0.173
-272.370	-72.819	-0.501	0.182
-271.355	-81.199	-0.204	-0.067
-270.340	-20.529	-0.115	-0.070
-269.326	191.042	0.106	-0.158
-268.311	-132.448	0.106	-0.014
-267.297	562.131	-0.154	0.368
-266.282	800.000	0.010	0.039
-265.267	735.787	-0.026	-0.068
-264.253	-200.000	0.027	0.412
-263.238	-129.990	0.152	0.021
-262.224	-20.253	0.257	0.157
-261.209	-123.268	0.421	0.067
-260.195	-40.987	0.274	0.140
-259.180	800.000	0.083	-0.274
-258.165	-200.000	-0.053	-0.244
-257.151	299.687	-0.046	-0.083
-256.136	-200.000	0.018	-0.257
-255.122	-200.000	-0.036	-0.201
-254.107	-59.640	-0.179	-0.076
-253.092	604.345	0.044	-0.109
-252.078	270.822	0.127	0.221
-251.063	-49.015	0.345	-0.163
-250.049	-57.404	-0.262	0.114
-249.034	800.000	-0.059	0.236
-248.019	-69.671	0.176	0.067
-247.005	-23.337	-0.313	0.186
-245.990	-156.140	0.369	-0.023
-244.976	-200.000	0.085	0.437
-243.961	-200.000	-0.004	0.058
-242.946	-85.439	-0.288	0.089
-241.932	-200.000	-0.027	-0.331
-240.917	-102.768	0.128	-0.030
-239.903	-84.883	-0.315	-0.098
-238.888	75.765	0.198	-0.207
-237.873	-111.222	-0.260	-0.053
-236.859	207.516	-0.137	0.211
-235.844	800.000	0.019	0.060
-234.830	-145.335	0.370	0.033
-233.815	-67.427	0.066	0.026
-232.800	-48.874	0.102	0.048
-231.786	532.813	0.197	0.462
-230.771	-14.856	-0.082	-0.052
-229.757	-108.513	0.192	-0.041
-228.742	-35.105	-0.092	-0.049
-227.727	-67.558	0.179	0.069
-226.713	-83.333	0.096	0.030
-225.698	-142.610	-0.325	0.031
-224.684	-200.000	-0.009	0.282
-223.669	-49.597	-0.074	-0.035
-222.655	-146.282	0.287	-0.025
-221.640	311.717	0.067	0.124
-220.625	-200.000	-0.003	-0.241
-219.611	-168.040	0.273	0.011
-218.596	60.796	0.176	-0.172
-217.582	-200.000	-0.002	-0.207
-216.567	-34.258	0.079	-0.043
-215.552	-27.301	-0.212	0.122
-214.538	-11.252	0.262	0.170
-213.523	-85.645	0.250	0.077
-212.509	27.783	-0.257	-0.214
-211.494	-128.730	0.135	-0.019
-210.479	211.424	-0.205	0.319
-209.465	29.993	-0.038	-0.032
-208.450	800.000	0.037	0.151
-207.436	-200.000	-0.010	-0.169
-206.421	-98.137	-0.264	0.067
-205.406	106.444	0.162	0.189
-204.392	800.000	0.079	0.261
-203.377	-121.153	-0.278	0.046
-202.363	-200.000	-0.013	0.178
-201.348	351.513	0.116	0.227
-200.333	-200.000	-0.031	-0.187
-199.319	108.226	-0.227	0.267
-198.304	-1.257	-0.118	-0.082
-197.290	115.498	0.033	0.039
-196.275	800.000	-0.017	0.061
-195.260	-33.333	0.065	0.035
-194.246	-172.871	-0.108	0.003
-193.231	800.000	0.041	-0.174
-192.217	-200.000	-0.005	0.213
-191.202	-51.640	-0.202	-0.093
-190.187	172.203	0.155	0.220
-189.173	-127.481	-0.329	-0.047
-188.158	41.449	-0.052	0.047
-187.144	393.854	0.049	0.100
-186.129	-72.405	-0.387	0.141
-185.114	-200.000	-0.015	0.260
-184.100	0.800	-0.325	0.229
-183.085	-184.497	0.138	0.002
-182.071	800.000	0.205	0.644
-181.056	-81.740	0.115	-0.037
-180.042	45.015	-0.135	-0.122
-179.027	139.562	0.222	-0.288
-178.012	-91.190	0.286	-0.081
-176.998	-144.085	0.132	0.012
-175.983	20.896	0.330	-0.264
-174.969	51.345	0.131	-0.123
-173.954	397.644	0.192	0.396
-172.939	-51.450	-0.167	-0.077
-171.925	-153.440	-0.511	-0.035
-170.910	92.095	-0.143	0.159
-169.896	-59.363	-0.128	-0.054
-168.881	-137.685	-0.226	0.025
-167.866	800.000	-0.106	-0.375
-166.852	-41.751	-0.178	0.090
-165.837	-200.000	-0.010	0.056
-164.823	-200.000	-0.031	0.203
-163.808	-73.281	0.143	-0.051
-162.793	209.219	0.126	-0.194
-161.779	183.438	-0.007	0.010
-160.764	-53.447	-0.262	0.118
-159.750	800.000	0.022	0.094
-158.735	-200.000	0.001	0.037
-157.720	-42.229	-0.119	-0.060
-156.706	-114.869	0.093	-0.017
-155.691	89.106	0.163	0.179
-154.677	-200.000	0.024	-0.316
-153.662	100.604	-0.164	0.188
-152.647	-200.000	0.098	0.514
-151.633	-200.000	-0.250	-0.001
-150.618	800.000	0.149	-0.614
-149.604	-8.506	0.276	0.183
-148.589	-72.723	0.168	0.061
-147.574	742.207	0.041	-0.108
-146.560	-200.000	-0.053	-0.355
-145.545	11.434	0.068	0.051
-144.531	-200.000	-0.017	0.098
-143.516	-184.656	-0.166	-0.003
-142.502	-200.000	-0.015	0.127
-141.487	583.602	0.113	0.273
-140.472	-95.962	-0.197	0.052
-139.458	-40.592	0.335	-0.171
-138.443	-3.822	-0.327	0.224
-137.429	-200.000	0.003	0.348
-136.414	6.589	0.046	-0.034
-135.399	800.000	0.075	0.218
-134.385	56.766	-0.238	0.228
-133.370	593.229	-0.142	-0.346
-132.356	467.960	-0.254	-0.561
-131.341	44.648	0.055	0.050
-130.326	379.319	0.215	-0.432
-129.312	60.179	-0.155	-0.151
-128.297	-20.229	-0.162	-0.098
-127.283	-200.000	0.024	0.465
-126.268	12.848	-0.190	-0.144
-125.253	-123.428	0.401	-0.063
-124.239	-55.452	-0.150	0.066
-123.224	80.296	0.028	-0.029
-122.210	-83.730	-0.163	0.051
