DTS Sentinel unit serial number:	SN413079Multiplexer serial number:	ORYXHardware model number:	OX4-SRSoftware version number:	ORYX F/W v4.00 Oryx Data Collector v3.7.2.0data status	okinstallation	princeton_trtdifferential loss correction	single-endedforward channel	channel 3reverse channel	N/Adate	2019/09/13time	17:08:35forward acquisition time	60.00reverse acquisition time	0.00gamma	496.2192k internal	0.2296k external	0.2296temperature offset calibration	1.0130default loss term (dB/km)	0.3790temperature slope calibration	1.0000multiplexer offset coefficient	1.0000multiplexer slope coefficient	1.0000fibre end	0.00T internal ref (°C)	35.31T ext. ref 1 (°C)	4.81T ext. ref 2 (°C)	34.92length (m)	temperature (°C)	Stokes	anti-Stokes-747.200	32.127	-0.125	-0.110
-746.185	728.202	-0.105	0.286
-745.171	224.796	0.093	0.154
-744.156	-200.000	-0.042	0.378
-743.142	-61.772	-0.272	-0.116
-742.127	-137.587	-0.359	-0.041
-741.112	70.997	-0.055	-0.058
-740.098	-127.838	0.081	-0.012
-739.083	-74.843	-0.047	0.017
-738.069	-56.261	-0.172	0.078
-737.054	133.204	-0.177	-0.234
-736.039	-108.960	-0.088	0.019
-735.025	268.842	0.063	-0.113
-734.010	37.891	-0.138	-0.125
-732.996	27.350	-0.301	-0.258
-731.981	-200.000	0.039	-0.247
-730.966	457.295	0.139	-0.316
-729.952	800.000	0.023	-0.078
-728.937	-44.584	-0.187	-0.095
-727.923	-200.000	0.069	-0.353
-726.908	-98.522	-0.336	0.088
-725.894	-132.648	-0.374	-0.049
-724.879	340.558	0.060	0.120
-723.864	-108.984	-0.149	-0.032
-722.850	-55.114	0.149	-0.069
-721.835	160.308	0.086	0.123
-720.821	-200.000	0.080	-0.371
-719.806	-151.139	-0.126	0.010
-718.791	800.000	-0.037	-0.149
-717.777	-163.209	-0.125	-0.006
-716.762	800.000	-0.054	0.194
-715.748	-128.129	-0.211	0.031
-714.733	-22.035	-0.529	0.328
-713.718	-200.000	-0.025	-0.241
-712.704	137.834	-0.193	-0.258
-711.689	-144.896	0.423	0.039
-710.675	800.000	-0.024	-0.096
-709.660	-72.656	-0.089	0.034
-708.645	-182.789	0.365	-0.007
-707.631	-148.573	0.107	-0.009
-706.616	22.261	0.154	0.128
-705.602	13.887	0.244	-0.194
-704.587	-9.577	0.085	-0.058
-703.572	294.842	0.174	-0.324
-702.558	569.679	-0.148	0.367
-701.543	-40.674	0.041	0.022
-700.529	771.650	0.047	0.131
-699.514	800.000	-0.045	-0.142
-698.499	-88.153	-0.076	0.023
-697.485	-172.974	-0.485	-0.015
-696.470	476.525	0.137	-0.315
-695.456	496.461	-0.118	-0.277
-694.441	18.617	-0.095	0.077
-693.426	80.699	0.152	-0.167
-692.412	800.000	0.083	-0.298
-691.397	800.000	0.082	-0.243
-690.383	-166.888	-0.215	0.009
-689.368	-59.954	0.208	-0.091
-688.354	-200.000	0.018	-0.282
-687.339	-200.000	-0.003	-0.119
-686.324	-200.000	-0.032	0.244
-685.310	-200.000	-0.153	-0.001
-684.295	53.442	0.328	-0.321
-683.281	-200.000	0.065	-0.440
-682.266	-29.653	0.263	-0.153
-681.251	74.512	-0.085	-0.091
-680.237	9.356	-0.101	-0.078
-679.222	-177.724	-0.332	-0.008
-678.208	82.543	0.159	0.176
-677.193	35.103	0.030	0.027
-676.178	-200.000	-0.021	-0.099
-675.164	43.246	-0.072	-0.067
-674.149	46.016	-0.160	-0.151
-673.135	-200.000	-0.054	0.444
-672.120	-200.000	-0.008	0.039
-671.105	216.100	0.070	-0.113
-670.091	-113.407	0.269	0.054
-669.076	-200.000	0.013	-0.176
-668.062	-58.942	0.225	0.099
-667.047	-200.000	0.021	-0.206
-666.032	31.182	-0.141	0.123
-665.018	149.666	-0.181	-0.249
-664.003	-200.000	0.002	0.168
-662.989	-200.000	0.005	-0.320
-661.974	36.024	-0.277	-0.248
-660.959	199.879	-0.047	-0.073
-659.945	293.536	-0.044	-0.082
-658.930	-101.750	-0.111	0.027
-657.916	37.571	-0.129	0.117
-656.901	-200.000	0.017	0.157
-655.886	244.766	-0.094	-0.160
-654.872	228.175	0.071	0.117
-653.857	-58.881	-0.172	0.075
-652.843	762.997	-0.016	-0.044
-651.828	213.367	0.130	0.208
-650.814	800.000	-0.029	0.121
-649.799	-76.880	-0.139	-0.049
-648.784	30.248	0.001	-0.001
-647.770	-117.545	0.185	0.034
-646.755	800.000	0.080	0.335
-645.741	3.433	0.147	-0.109
-644.726	-13.858	-0.279	0.184
-643.711	350.055	-0.133	-0.268
-642.697	15.075	0.239	-0.190
-641.682	0.637	-0.149	-0.109
-640.668	-118.812	0.037	-0.007
-639.653	-200.000	-0.025	0.170
-638.638	800.000	0.065	-0.193
-637.624	148.536	-0.194	0.266
-636.609	-141.280	-0.611	-0.063
-635.595	91.408	-0.082	0.094
-634.580	-200.000	-0.005	0.218
-633.565	-47.740	-0.133	0.066
-632.551	-200.000	0.006	0.146
-631.536	27.891	0.118	-0.101
-630.522	-152.867	0.345	-0.025
-629.507	-200.000	-0.001	-0.039
-628.492	-108.190	-0.297	-0.065
-627.478	-82.944	0.220	-0.072
-626.463	155.817	-0.212	0.297
-625.449	-200.000	-0.012	-0.104
-624.434	-131.448	0.021	-0.003
-623.419	-157.732	-0.080	0.005
-622.405	-158.114	0.206	0.012
-621.390	-182.082	-0.266	-0.005
-620.376	-200.000	0.014	0.068
-619.361	114.725	-0.074	-0.092
-618.346	102.168	-0.083	-0.099
-617.332	-200.000	-0.007	-0.169
-616.317	-200.000	0.133	-0.000
-615.303	301.856	-0.262	-0.492
-614.288	-200.000	0.025	-0.241
-613.273	800.000	-0.021	0.090
-612.259	191.497	0.041	-0.063
-611.244	-61.716	-0.074	-0.032
-610.230	-200.000	0.077	-0.440
-609.215	25.146	-0.156	-0.132
-608.201	71.179	-0.132	-0.140
-607.186	621.778	0.109	-0.278
-606.171	68.268	-0.145	-0.151
-605.157	178.658	-0.103	-0.153
-604.142	-141.568	-0.258	-0.026
-603.128	67.606	0.102	-0.106
-602.113	-200.000	0.018	0.176
-601.098	66.970	0.179	-0.185
-600.084	34.570	0.141	0.125
-599.069	-107.944	0.244	-0.054
-598.055	800.000	0.059	-0.167
-597.040	-124.276	0.296	0.047
-596.025	-138.784	-0.352	-0.039
-595.011	-108.102	0.245	-0.054
-593.996	-54.525	0.121	-0.056
-592.982	-68.295	0.126	0.050
-591.967	-200.000	-0.004	-0.432
-590.952	-200.000	-0.023	0.246
-589.938	86.936	-0.229	-0.257
-588.923	116.819	-0.159	-0.198
-587.909	-177.854	0.200	0.005
-586.894	-1.248	0.302	0.216
-585.879	-159.389	-0.185	0.011
-584.865	-200.000	-0.040	0.200
-583.850	54.641	0.343	-0.336
-582.836	99.577	0.025	-0.030
-581.821	17.301	0.178	-0.144
-580.806	157.626	-0.119	0.168
-579.792	25.358	0.245	0.207
-578.777	800.000	0.088	0.288
-577.763	-153.044	0.306	-0.022
-576.748	-92.848	0.174	-0.049
-575.733	1.814	-0.210	-0.154
-574.719	-99.555	-0.099	-0.025
-573.704	213.772	0.101	0.161
-572.690	147.926	-0.012	-0.016
-571.675	-61.917	-0.126	0.054
-570.661	-36.285	0.220	0.120
-569.646	270.339	-0.129	0.230
-568.631	-25.065	-0.085	-0.051
-567.617	-0.032	-0.042	-0.030
-566.602	511.544	-0.172	0.405
-565.588	1.174	0.085	-0.062
-564.573	92.221	0.179	-0.205
-563.558	596.849	0.038	0.096
-562.544	780.805	-0.148	0.410
-561.529	0.594	-0.235	-0.171
-560.515	29.735	-0.158	0.136
-559.500	-99.757	0.237	-0.060
-558.485	-200.000	0.015	-0.086
-557.471	-141.365	-0.196	-0.020
-556.456	188.731	-0.133	-0.202
-555.442	218.017	-0.037	-0.060
-554.427	-200.000	-0.082	0.436
-553.412	451.062	0.106	-0.238
-552.398	-140.738	0.077	-0.008
-551.383	244.732	-0.125	-0.212
-550.369	-200.000	0.002	-0.486
-549.354	-56.366	0.211	0.095
-548.339	-123.128	0.353	0.057
-547.325	151.808	-0.171	-0.236
-546.310	169.165	0.169	0.244
-545.296	800.000	0.113	0.316
-544.281	-154.205	-0.467	0.032
-543.266	-131.048	-0.241	-0.033
-542.252	254.080	0.078	-0.135
-541.237	-101.529	0.349	-0.086
-540.223	-28.143	0.221	0.130
-539.208	605.498	0.111	0.279
-538.193	800.000	-0.105	0.331
-537.179	125.558	0.255	0.326
-536.164	18.404	-0.161	0.131
-535.150	16.026	-0.147	0.118
-534.135	100.362	0.077	0.091
-533.121	89.226	0.150	0.169
-532.106	-114.805	-0.072	-0.014
-531.091	518.694	0.046	0.108
-530.077	-43.472	-0.107	-0.055
-529.062	88.117	0.123	-0.138
-528.048	-180.652	0.302	-0.006
-527.033	-13.434	0.117	0.077
-526.018	-200.000	0.074	0.341
-525.004	-200.000	0.007	-0.071
-523.989	-92.660	-0.182	0.052
-522.975	32.389	-0.221	-0.194
-521.960	-200.000	0.024	-0.143
-520.945	-58.689	-0.127	0.056
-519.931	-98.093	0.219	-0.057
-518.916	-132.813	-0.201	-0.026
-517.902	32.531	-0.108	0.095
-516.887	65.263	0.387	-0.396
-515.872	800.000	0.108	-0.319
-514.858	21.993	-0.262	-0.216
-513.843	-40.649	0.010	-0.005
-512.829	194.305	0.151	0.231
-511.814	31.646	-0.085	0.074
-510.799	400.541	-0.118	0.251
-509.785	99.689	0.101	0.119
-508.770	35.855	0.266	-0.237
-507.756	178.758	-0.052	-0.076
-506.741	-179.267	0.113	-0.003
-505.726	-200.000	0.063	0.416
-504.712	800.000	0.109	0.321
-503.697	-96.013	0.102	-0.027
-502.683	70.481	0.259	0.271
-501.668	-200.000	0.030	0.183
-500.653	-160.104	-0.596	0.033
-499.639	-62.735	-0.262	-0.110
-498.624	800.000	-0.037	0.118
-497.610	-200.000	-0.009	0.204
-496.595	-76.032	-0.139	-0.050
-495.581	173.985	-0.174	0.254
-494.566	21.672	-0.234	-0.193
-493.551	170.863	-0.205	-0.297
-492.537	-59.941	-0.090	0.039
-491.522	-158.024	0.539	-0.032
-490.508	99.385	-0.160	-0.187
-489.493	207.692	-0.125	0.197
-488.478	800.000	-0.118	0.406
-487.464	338.275	-0.158	0.311
-486.449	-200.000	-0.041	0.196
-485.435	-200.000	0.000	0.411
-484.420	-154.765	0.217	0.015
-483.405	8.996	0.150	0.115
-482.391	-40.118	-0.221	-0.117
-481.376	-10.955	-0.142	0.094
-480.362	800.000	0.027	-0.115
-479.347	-89.457	0.150	0.045
-478.332	-62.083	0.162	0.068
-477.318	-200.000	0.004	-0.254
-476.303	-200.000	0.008	0.317
-475.289	-200.000	0.024	-0.193
-474.274	-98.873	0.502	0.129
-473.259	-64.637	-0.342	0.140
-472.245	-73.157	0.438	-0.162
-471.230	16.526	0.126	-0.101
-470.216	324.464	-0.156	-0.302
-469.201	168.598	-0.244	-0.351
-468.186	-61.158	-0.177	-0.075
-467.172	-39.925	-0.113	-0.060
-466.157	155.606	-0.291	0.405
-465.143	-85.111	-0.316	0.100
-464.128	-155.215	0.232	-0.015
-463.113	-156.006	0.230	-0.015
-462.099	-52.343	-0.112	0.053
-461.084	-66.948	-0.119	-0.048
-460.070	-26.063	-0.263	0.156
-459.055	-200.000	-0.061	-0.282
-458.040	-133.326	-0.100	0.013
-457.026	-148.882	-0.081	0.007
-456.011	-200.000	0.066	-0.401
-454.997	12.260	-0.065	0.050
-453.982	197.254	0.063	0.098
-452.968	-111.922	0.286	-0.058
-451.953	-91.963	0.135	-0.039
-450.938	-34.795	-0.209	0.115
-449.924	176.361	0.177	-0.260
-448.909	374.859	-0.100	-0.207
-447.895	77.487	0.195	-0.210
-446.880	2.466	-0.061	0.045
-445.865	-200.000	-0.018	0.268
-444.851	-67.512	0.348	0.138
-443.836	-200.000	-0.007	0.055
-442.822	47.051	-0.049	0.046
-441.807	88.593	0.286	-0.321
-440.792	-106.981	-0.281	-0.063
-439.778	124.349	-0.215	-0.273
-438.763	-25.731	0.205	-0.122
-437.749	67.605	-0.229	-0.236
-436.734	-46.910	-0.349	0.172
-435.719	197.581	0.115	0.178
-434.705	263.689	0.068	-0.119
-433.690	-115.300	0.143	0.027
-432.676	-98.927	0.206	-0.053
-431.661	500.859	-0.057	0.134
-430.646	146.853	0.084	-0.113
-429.632	-102.328	0.221	-0.054
-428.617	-141.595	-0.329	-0.033
-427.603	-15.155	0.142	-0.091
-426.588	-200.000	-0.029	-0.466
-425.573	547.044	0.126	-0.304
-424.559	-200.000	0.008	-0.142
-423.544	-143.717	0.127	0.012
-422.530	133.822	0.151	-0.197
-421.515	-200.000	-0.036	-0.176
-420.500	-198.808	0.205	0.001
-419.486	133.542	-0.106	0.138
-418.471	107.182	-0.066	0.080
-417.457	-172.933	-0.224	-0.007
-416.442	347.571	0.174	-0.346
-415.428	-57.681	-0.184	-0.081
-414.413	-200.000	-0.045	0.316
-413.398	-200.000	-0.047	0.280
-412.384	198.380	-0.058	-0.090
-411.369	327.165	0.105	-0.204
-410.355	-22.179	-0.178	-0.109
-409.340	68.557	0.071	-0.074
-408.325	-88.545	0.209	-0.063
-407.311	-200.000	-0.005	-0.110
-406.296	60.191	-0.167	-0.166
-405.282	-200.000	0.018	0.131
-404.267	64.684	-0.159	0.162
-403.252	-200.000	-0.010	0.103
-402.238	-200.000	0.032	-0.152
-401.223	6.491	-0.137	-0.103
-400.209	800.000	-0.039	0.133
-399.194	-87.724	-0.364	0.111
-398.179	-66.733	-0.305	0.122
-397.165	800.000	-0.170	0.481
-396.150	-148.823	0.261	0.021
-395.136	137.561	0.111	0.146
-394.121	-125.512	0.087	-0.013
-393.106	-86.530	0.156	-0.048
-392.092	-116.005	-0.274	0.051
-391.077	277.613	0.033	-0.058
-390.063	-15.515	0.070	-0.045
-389.048	-200.000	-0.003	0.204
-388.033	-48.796	-0.203	0.098
-387.019	165.638	-0.048	-0.068
-386.004	-132.693	0.117	-0.015
-384.990	800.000	0.096	0.289
-383.975	-41.755	0.110	0.057
-382.960	-200.000	0.005	-0.137
-381.946	-146.626	-0.006	-0.000
-380.931	-149.032	0.285	0.023
-379.917	-107.257	-0.204	0.045
-378.902	-172.168	-0.366	0.012
-377.888	-94.788	0.270	-0.074
-376.873	148.488	0.150	0.204
-375.858	341.764	-0.113	0.222
-374.844	-200.000	-0.067	-0.382
-373.829	-0.205	0.280	0.200
-372.815	172.606	-0.075	-0.109
-371.800	-200.000	-0.009	-0.150
-370.785	-200.000	-0.038	-0.310
-369.771	800.000	0.032	0.102
-368.756	-200.000	0.025	0.193
-367.742	147.449	0.155	0.210
-366.727	-200.000	-0.066	-0.295
-365.712	146.815	-0.176	0.238
-364.698	-111.792	-0.178	0.036
-363.683	800.000	0.032	-0.120
-362.669	10.975	-0.153	0.118
-361.654	-200.000	-0.014	-0.088
-360.639	136.081	0.332	0.435
-359.625	800.000	-0.058	0.194
-358.610	-46.482	-0.116	0.057
-357.596	-200.000	0.032	-0.163
-356.581	207.789	-0.050	0.079
-355.566	165.745	-0.056	-0.079
-354.552	-114.834	0.303	0.058
-353.537	-6.232	0.176	-0.121
-352.523	122.204	-0.172	0.216
-351.508	-105.323	-0.245	-0.056
-350.493	-197.043	-0.164	-0.001
-349.479	53.456	-0.097	0.093
-348.464	-118.999	0.289	-0.051
-347.450	5.539	-0.204	0.151
-346.435	640.713	0.032	-0.082
-345.420	800.000	0.028	-0.120
-344.406	-200.000	0.049	0.224
-343.391	47.599	0.119	0.112
-342.377	417.872	-0.118	-0.254
-341.362	-55.323	-0.121	0.055
-340.348	11.939	0.068	-0.053
-339.333	177.216	0.170	-0.249
-338.318	-40.060	-0.041	0.022
-337.304	-200.000	0.010	-0.330
-336.289	-6.063	0.314	0.216
-335.275	-200.000	-0.059	-0.398
-334.260	298.881	-0.101	0.186
-333.245	-200.000	-0.023	0.428
-332.231	-40.778	-0.375	-0.195
-331.216	22.828	0.201	-0.166
-330.202	-72.854	-0.154	-0.057
-329.187	295.799	0.085	-0.157
-328.172	14.306	-0.083	0.065
-327.158	-118.214	0.154	0.028
-326.143	53.778	0.315	-0.304
-325.129	119.047	-0.026	-0.032
-324.114	-127.452	0.111	0.016
-323.099	-200.000	-0.012	0.191
-322.085	221.268	0.029	-0.046
-321.070	-49.021	-0.385	-0.185
-320.056	-162.648	-0.220	-0.011
-319.041	39.377	0.222	0.199
-318.026	10.258	-0.155	0.118
-317.012	-85.987	0.367	-0.114
-315.997	164.791	-0.112	-0.159
-314.983	-69.431	0.248	0.096
-313.968	461.991	0.113	0.254
-312.953	800.000	0.017	0.060
-311.939	800.000	-0.084	-0.244
-310.924	82.071	0.082	-0.089
-309.910	-150.683	0.209	0.016
-308.895	48.047	0.255	-0.239
-307.880	45.115	-0.153	-0.142
-306.866	-103.188	-0.091	0.022
-305.851	-200.000	-0.020	0.217
-304.837	19.903	0.151	0.123
-303.822	-51.109	0.148	0.070
-302.807	-200.000	-0.002	0.021
-301.793	-200.000	0.045	0.215
-300.778	-103.063	0.194	0.046
-299.764	260.585	0.162	-0.281
-298.749	-200.000	0.007	-0.115
-297.735	-176.999	-0.199	0.005
-296.720	17.993	0.077	-0.062
-295.705	676.978	-0.113	0.294
-294.691	-140.372	-0.126	0.013
-293.676	34.935	0.218	0.191
-292.662	-200.000	-0.032	-0.168
-291.647	113.822	-0.156	-0.190
-290.632	-84.696	0.098	-0.031
-289.618	-132.103	0.081	-0.011
-288.603	-181.859	-0.307	0.006
-287.589	213.306	-0.147	-0.232
-286.574	30.104	-0.179	-0.153
-285.559	-44.847	-0.130	0.065
-284.545	-200.000	-0.001	-0.069
-283.530	-200.000	-0.008	0.166
-282.516	-181.161	-0.124	0.002
-281.501	32.998	-0.096	-0.084
-280.486	716.153	-0.142	0.379
-279.472	103.092	-0.155	-0.182
-278.457	17.211	-0.336	-0.267
-277.443	625.161	0.060	-0.153
-276.428	787.944	0.130	0.357
-275.413	17.566	-0.158	-0.126
-274.399	94.550	-0.045	-0.052
-273.384	800.000	0.098	0.303
-272.370	-200.000	0.009	0.063
-271.355	563.030	-0.116	0.282
-270.340	519.521	-0.059	0.138
-269.326	-43.245	-0.132	0.067
-268.311	771.570	-0.151	-0.413
-267.297	-58.477	-0.142	0.062
-266.282	-80.042	-0.263	-0.088
-265.267	42.474	-0.125	-0.114
-264.253	-200.000	0.034	-0.373
-263.238	-10.921	0.143	0.095
-262.224	28.560	-0.172	0.146
-261.209	15.738	-0.191	-0.151
-260.195	213.563	-0.149	-0.236
-259.180	247.826	0.221	0.375
-258.165	800.000	-0.042	-0.145
-257.151	-200.000	0.051	-0.324
-256.136	33.558	-0.179	0.156
-255.122	-154.645	0.316	-0.021
-254.107	-135.434	0.185	0.022
-253.092	800.000	-0.064	-0.237
-252.078	72.680	0.128	0.134
-251.063	-61.704	0.295	0.124
-250.049	-26.618	0.168	-0.099
-249.034	30.078	0.188	-0.160
-248.019	800.000	-0.061	0.215
-247.005	3.255	-0.155	0.113
-245.990	-59.334	-0.353	0.152
-244.976	-28.405	0.173	0.100
-243.961	-200.000	-0.003	-0.044
-242.946	-75.893	0.112	0.040
-241.932	-46.905	0.057	0.028
-240.917	34.984	0.390	-0.342
-239.903	613.381	0.029	-0.072
-238.888	-130.416	0.388	-0.053
-237.873	4.384	-0.244	-0.179
-236.859	-200.000	0.068	0.341
-235.844	548.462	0.060	0.143
-234.830	-200.000	-0.030	-0.289
-233.815	-200.000	-0.040	-0.320
-232.800	-128.368	0.031	-0.004
-231.786	173.061	0.141	-0.204
-230.771	370.284	0.170	0.345
-229.757	-45.350	0.205	0.102
-228.742	-89.804	0.229	0.067
-227.727	33.874	0.092	0.080
-226.713	-19.761	-0.243	-0.151
-225.698	211.622	0.117	-0.184
-224.684	800.000	0.030	-0.085
-223.669	-31.249	-0.143	-0.080
-222.655	800.000	0.071	-0.204
-221.640	53.216	0.187	-0.180
-220.625	0.974	-0.056	0.040
-219.611	-42.337	0.083	-0.043
-218.596	15.383	-0.130	0.102
-217.582	238.848	0.162	-0.270
-216.567	-200.000	0.038	0.268
-215.552	-200.000	0.001	-0.009
-214.538	-118.090	-0.304	0.054
-213.523	-140.048	0.225	0.024
-212.509	800.000	-0.059	0.223
-211.494	161.095	0.136	0.190
-210.479	-79.736	0.103	0.035
-209.465	-145.181	-0.071	0.006
-208.450	-133.491	-0.609	0.076
-207.436	-200.000	-0.002	0.183
-206.421	-200.000	0.038	0.186
-205.406	383.480	-0.026	0.054
-204.392	800.000	-0.047	-0.206
-203.377	-200.000	0.006	-0.118
-202.363	-200.000	-0.034	-0.221
-201.348	-27.441	0.185	-0.107
-200.333	124.887	0.041	-0.051
-199.319	800.000	0.155	0.557
-198.304	-200.000	-0.001	-0.060
-197.290	426.171	-0.026	-0.056
-196.275	-120.611	-0.217	0.037
-195.260	-108.086	0.094	-0.020
-194.246	383.464	-0.120	-0.248
-193.231	-0.878	-0.375	-0.265
-192.217	24.324	0.248	0.205
-191.202	64.295	0.199	-0.200
-190.187	-135.397	0.061	-0.007
-189.173	-200.000	-0.017	-0.088
-188.158	-15.797	0.080	0.051
-187.144	337.859	0.090	0.176
-186.129	-58.745	-0.265	0.115
-185.114	158.876	-0.234	-0.325
-184.100	-157.886	-0.435	-0.026
-183.085	-35.588	0.211	0.114
-182.071	-116.103	-0.149	-0.028
-181.056	-142.577	0.175	-0.017
-180.042	-29.460	0.205	0.117
-179.027	230.141	0.179	0.292
-178.012	-20.212	-0.165	0.101
-176.998	-200.000	0.021	0.440
-175.983	-93.050	-0.172	-0.048
-174.969	491.610	0.099	-0.226
-173.954	48.379	0.142	-0.132
-172.939	-200.000	-0.016	0.443
-171.925	-69.393	0.353	0.135
-170.910	80.367	-0.087	0.093
-169.896	70.496	0.042	-0.044
-168.881	66.432	0.151	0.153
-167.866	564.755	-0.100	-0.241
-166.852	-80.450	-0.348	0.116
-165.837	-26.573	-0.042	0.025
-164.823	-107.910	-0.098	-0.021
-163.808	44.382	0.206	0.189
-162.793	-89.547	-0.256	0.075
-161.779	363.772	0.128	-0.257
-160.764	-74.882	-0.037	0.013
-159.750	-200.000	-0.024	0.106
-158.735	141.818	0.099	0.131
-157.720	-1.109	-0.076	-0.053
-156.706	-200.000	-0.011	-0.197
-155.691	49.998	0.332	-0.312
-154.677	-29.737	0.212	0.121
-153.662	800.000	-0.082	0.311
-152.647	96.942	0.142	0.163
-151.633	-200.000	-0.060	0.291
-150.618	-167.900	0.141	-0.006
-149.604	-200.000	0.004	-0.190
-148.589	-200.000	0.006	0.309
-147.574	195.397	0.067	-0.102
-146.560	800.000	-0.093	0.285
-145.545	35.289	0.157	0.137
-144.531	-138.813	0.280	-0.030
-143.516	14.077	0.303	-0.235
-142.502	195.249	-0.021	0.031
-141.487	55.439	0.151	0.146
-140.472	-53.436	0.441	0.201
-139.458	692.537	0.052	-0.135
-138.443	-200.000	0.014	-0.142
-137.429	9.346	0.118	0.089
-136.414	-67.950	0.272	0.106
-135.399	246.953	-0.069	0.116
-134.385	-147.675	0.178	-0.015
-133.370	17.021	0.131	-0.104
-132.356	33.790	-0.213	-0.185
-131.341	116.389	0.021	0.026
-130.326	-132.494	-0.087	-0.011
-129.312	800.000	0.077	0.243
-128.297	10.537	0.252	0.192
-127.283	-159.603	-0.379	-0.021
-126.268	-173.135	0.183	0.006
-125.253	-6.695	-0.269	0.183
-124.239	65.713	0.063	0.064
-123.224	-118.582	-0.268	0.047
-122.210	-165.452	-0.156	0.007
