DTS Sentinel unit serial number:	SN413079Multiplexer serial number:	ORYXHardware model number:	OX4-SRSoftware version number:	ORYX F/W v4.00 Oryx Data Collector v3.7.2.0data status	okinstallation	princeton_trtdifferential loss correction	single-endedforward channel	channel 3reverse channel	N/Adate	2019/09/11time	18:58:11forward acquisition time	60.00reverse acquisition time	0.00gamma	496.2192k internal	0.2291k external	0.2291temperature offset calibration	1.0008default loss term (dB/km)	0.3790temperature slope calibration	1.0000multiplexer offset coefficient	1.0000multiplexer slope coefficient	1.0000fibre end	0.00T internal ref (°C)	42.44T ext. ref 1 (°C)	1.27T ext. ref 2 (°C)	34.63length (m)	temperature (°C)	Stokes	anti-Stokes-747.200	800.000	0.070	-0.302
-746.185	800.000	-0.071	-0.208
-745.171	800.000	0.131	-0.443
-744.156	-4.017	-0.132	0.094
-743.142	146.006	0.041	0.056
-742.127	775.938	0.037	0.104
-741.112	71.470	0.242	-0.257
-740.098	-200.000	-0.056	-0.258
-739.083	-90.982	-0.198	-0.058
-738.069	-200.000	-0.015	0.381
-737.054	-106.379	-0.142	0.033
-736.039	-108.929	-0.221	0.048
-735.025	-200.000	0.020	0.223
-734.010	12.128	-0.294	-0.231
-732.996	-200.000	0.004	-0.095
-731.981	-120.956	-0.272	-0.047
-730.966	163.507	0.241	-0.347
-729.952	22.693	0.088	-0.073
-728.937	437.251	0.006	-0.013
-727.923	800.000	-0.041	-0.127
-726.908	-172.984	0.125	0.004
-725.894	-99.973	-0.191	0.049
-724.879	-34.129	-0.203	-0.114
-723.864	228.051	-0.079	0.132
-722.850	-70.355	-0.073	-0.028
-721.835	71.468	-0.393	-0.417
-720.821	-199.868	0.244	-0.001
-719.806	63.976	-0.066	0.068
-718.791	216.336	-0.215	-0.350
-717.777	-200.000	0.046	-0.261
-716.762	-64.125	-0.416	-0.174
-715.748	-70.294	-0.062	0.024
-714.733	180.884	-0.121	-0.181
-713.718	800.000	-0.073	-0.311
-712.704	-200.000	0.009	-0.254
-711.689	-54.953	-0.360	0.166
-710.675	249.893	-0.219	-0.379
-709.660	511.094	0.050	0.120
-708.645	2.171	-0.260	0.192
-707.631	-120.681	-0.180	-0.031
-706.616	-48.229	-0.072	-0.036
-705.602	-82.583	-0.086	0.028
-704.587	-120.210	0.266	0.046
-703.572	-173.812	0.171	-0.005
-702.558	800.000	0.096	-0.296
-701.543	-46.935	0.107	-0.053
-700.529	800.000	-0.031	0.139
-699.514	-200.000	0.018	0.111
-698.499	-80.802	-0.073	-0.025
-697.485	-100.886	0.215	-0.054
-696.470	56.099	-0.128	0.127
-695.456	-200.000	0.021	-0.195
-694.441	381.628	-0.018	0.037
-693.426	-149.549	-0.114	0.009
-692.412	-200.000	0.018	-0.112
-691.397	800.000	-0.097	-0.374
-690.383	-85.578	-0.237	0.075
-689.368	650.449	-0.064	-0.168
-688.354	-32.717	0.096	0.055
-687.339	-200.000	0.028	-0.189
-686.324	-91.612	0.254	-0.074
-685.310	-200.000	-0.046	0.265
-684.295	-48.072	-0.132	0.065
-683.281	-119.117	-0.388	0.069
-682.266	61.430	0.160	0.162
-681.251	800.000	0.004	0.011
-680.237	-200.000	0.050	0.331
-679.222	497.095	-0.168	0.394
-678.208	744.906	0.027	0.075
-677.193	-200.000	0.021	-0.179
-676.178	320.887	-0.143	0.278
-675.164	-200.000	0.000	-0.055
-674.149	-160.602	0.102	-0.006
-673.135	227.431	0.051	-0.084
-672.120	-137.370	0.193	-0.022
-671.105	6.874	0.078	0.059
-670.091	53.090	0.066	0.065
-669.076	94.632	-0.181	-0.210
-668.062	800.000	-0.119	0.407
-667.047	-46.718	-0.183	0.091
-666.032	-200.000	-0.003	-0.071
-665.018	172.715	-0.117	0.173
-664.003	-144.347	-0.392	0.037
-662.989	-107.624	0.208	0.046
-661.974	627.993	-0.092	-0.237
-660.959	301.166	-0.148	-0.278
-659.945	-172.584	0.076	0.002
-658.930	85.654	0.233	-0.262
-657.916	-92.044	-0.108	-0.031
-656.901	-99.391	-0.388	0.100
-655.886	-82.864	-0.104	-0.034
-654.872	-10.575	0.131	-0.089
-653.857	54.698	-0.149	-0.146
-652.843	-121.154	0.151	0.026
-651.828	-200.000	0.024	-0.127
-650.814	480.290	-0.079	-0.182
-649.799	-50.306	-0.322	0.155
-648.784	-32.109	0.086	-0.049
-647.770	18.906	-0.130	-0.106
-646.755	800.000	0.063	0.216
-645.741	-84.798	-0.175	0.056
-644.726	-82.355	-0.280	-0.093
-643.711	-200.000	0.078	-0.370
-642.697	526.732	-0.059	-0.141
-641.682	-200.000	0.020	-0.171
-640.668	-151.317	-0.070	0.005
-639.653	142.613	0.197	-0.267
-638.638	-17.108	0.228	-0.147
-637.624	800.000	-0.025	0.092
-636.609	-87.288	0.242	0.075
-635.595	366.597	0.053	0.109
-634.580	-59.129	0.040	0.018
-633.565	-74.947	0.375	0.137
-632.551	343.643	-0.051	-0.103
-631.536	800.000	-0.077	-0.219
-630.522	-200.000	0.006	0.050
-629.507	-161.674	-0.386	0.020
-628.492	-200.000	0.031	-0.191
-627.478	439.407	0.144	0.321
-626.463	-131.335	0.303	0.041
-625.449	154.466	-0.153	-0.214
-624.434	-200.000	-0.048	-0.356
-623.419	133.620	0.058	-0.076
-622.405	6.331	-0.134	0.101
-621.390	-163.348	-0.257	-0.013
-620.376	-131.391	0.065	-0.009
-619.361	-200.000	0.025	-0.394
-618.346	-127.753	-0.464	0.068
-617.332	205.510	0.084	0.133
-616.317	-97.888	-0.206	0.054
-615.303	-36.559	0.189	-0.103
-614.288	127.560	-0.073	0.095
-613.273	-81.508	0.252	0.085
-612.259	107.585	0.016	-0.020
-611.244	96.862	-0.159	0.185
-610.230	-118.329	-0.277	-0.050
-609.215	-98.697	0.116	-0.030
-608.201	-100.598	0.196	0.049
-607.186	-200.000	-0.000	0.031
-606.171	800.000	-0.051	0.146
-605.157	-109.774	0.260	0.056
-604.142	-43.010	0.028	-0.015
-603.128	-137.330	0.242	0.028
-602.113	46.943	0.074	-0.070
-601.098	-42.544	-0.267	-0.138
-600.084	186.645	-0.023	0.035
-599.069	-152.893	0.244	-0.018
-598.055	246.123	0.230	-0.394
-597.040	76.221	-0.172	-0.185
-596.025	-52.542	0.130	-0.061
-595.011	10.174	0.213	0.165
-593.996	9.571	-0.200	0.155
-592.982	800.000	0.077	0.245
-591.967	63.253	0.112	0.114
-590.952	-39.097	0.135	-0.072
-589.938	191.081	-0.047	-0.073
-588.923	-200.000	0.005	0.123
-587.909	-200.000	-0.053	-0.327
-586.894	-117.531	0.258	-0.047
-585.879	800.000	-0.017	0.053
-584.865	-200.000	-0.022	0.360
-583.850	-79.970	0.079	0.027
-582.836	-154.162	-0.077	0.005
-581.821	-151.767	-0.040	-0.003
-580.806	-114.544	0.238	0.047
-579.792	-60.418	0.083	-0.036
-578.777	163.783	-0.173	0.248
-577.763	-40.375	-0.136	0.072
-576.748	-95.643	0.144	0.039
-575.733	213.075	0.114	-0.184
-574.719	-156.610	-0.319	-0.020
-573.704	14.145	0.034	-0.027
-572.690	120.291	-0.233	-0.294
-571.675	800.000	0.022	0.066
-570.661	-65.524	-0.148	-0.060
-569.646	-46.385	-0.061	-0.030
-568.631	5.617	-0.138	0.103
-567.617	82.262	-0.073	0.081
-566.602	-32.187	-0.109	-0.062
-565.588	-95.654	0.304	0.083
-564.573	75.731	-0.100	-0.107
-563.558	-78.439	0.234	-0.082
-562.544	-170.150	-0.282	0.010
-561.529	-200.000	0.006	-0.194
-560.515	334.123	-0.239	-0.470
-559.500	14.039	-0.204	-0.162
-558.485	-4.185	0.082	-0.058
-557.471	-200.000	-0.008	0.258
-556.456	772.415	0.090	-0.249
-555.442	115.181	-0.122	-0.151
-554.427	705.457	0.122	-0.326
-553.412	800.000	0.062	-0.175
-552.398	800.000	-0.126	-0.380
-551.383	54.971	0.109	-0.107
-550.369	-103.084	-0.191	0.046
-549.354	-157.156	0.382	0.024
-548.339	-200.000	0.004	-0.037
-547.325	-44.889	-0.148	-0.075
-546.310	800.000	-0.021	-0.067
-545.296	163.310	0.053	-0.075
-544.281	31.526	-0.204	-0.178
-543.266	-200.000	-0.006	-0.072
-542.252	-100.209	0.117	-0.030
-541.237	800.000	0.081	-0.229
-540.223	-42.937	0.040	0.021
-539.208	-63.545	-0.264	-0.110
-538.193	-35.847	-0.037	0.020
-537.179	61.028	0.169	-0.171
-536.164	-200.000	-0.029	0.283
-535.150	-190.982	0.182	0.002
-534.135	205.372	0.140	0.220
-533.121	-200.000	-0.007	-0.121
-532.106	-91.383	0.267	0.078
-531.091	-125.712	-0.246	0.038
-530.077	-96.767	0.249	-0.067
-529.062	-39.178	-0.273	0.146
-528.048	-80.577	0.291	-0.099
-527.033	-149.720	-0.284	0.023
-526.018	-6.329	-0.186	0.129
-525.004	-200.000	0.004	-0.347
-523.989	96.846	0.115	0.134
-522.975	-179.154	-0.170	-0.004
-521.960	360.342	0.047	-0.095
-520.945	177.287	-0.142	0.209
-519.931	2.133	0.121	0.089
-518.916	-163.397	0.147	0.007
-517.902	621.392	0.037	-0.094
-516.887	-59.695	-0.056	-0.024
-515.872	-30.172	0.156	0.090
-514.858	327.431	-0.148	0.288
-513.843	-20.317	-0.177	0.110
-512.829	-200.000	0.012	0.202
-511.814	800.000	-0.064	-0.194
-510.799	191.045	-0.188	-0.286
-509.785	71.838	-0.084	0.089
-508.770	-200.000	-0.029	-0.197
-507.756	632.160	-0.080	-0.206
-506.741	506.340	0.027	0.064
-505.726	800.000	0.049	-0.145
-504.712	321.291	0.095	-0.183
-503.697	-50.773	0.122	0.058
-502.683	1.229	-0.485	0.353
-501.668	-28.216	-0.096	0.056
-500.653	800.000	0.126	-0.442
-499.639	-200.000	-0.016	-0.093
-498.624	21.890	0.301	0.249
-497.610	-140.589	0.342	0.036
-496.595	-96.201	0.184	-0.049
-495.581	-100.640	0.134	-0.034
-494.566	796.899	-0.102	0.284
-493.551	-200.000	-0.040	0.177
-492.537	139.511	-0.197	0.262
-491.522	49.474	-0.187	0.179
-490.508	-200.000	-0.025	-0.465
-489.493	36.706	-0.206	-0.184
-488.478	-93.769	-0.219	0.061
-487.464	800.000	-0.048	-0.189
-486.449	-23.924	0.127	-0.077
-485.435	-200.000	-0.037	0.176
-484.420	-130.707	-0.325	0.044
-483.405	397.023	-0.160	0.338
-482.391	-149.821	0.286	-0.023
-481.376	-115.908	0.562	-0.106
-480.362	269.840	-0.172	-0.307
-479.347	-200.000	0.028	-0.217
-478.332	-105.947	0.292	0.067
-477.318	-183.608	0.123	-0.002
-476.303	215.196	-0.121	-0.195
-475.289	10.362	-0.253	0.195
-474.274	-200.000	-0.003	0.124
-473.259	-200.000	0.007	0.476
-472.245	800.000	0.046	-0.186
-471.230	-200.000	-0.036	0.267
-470.216	-38.065	0.071	0.038
-469.201	-8.460	0.033	0.022
-468.186	-3.157	0.216	-0.153
-467.172	-200.000	0.055	0.516
-466.157	123.225	0.021	0.026
-465.143	-200.000	0.013	-0.324
-464.128	61.508	0.227	0.228
-463.113	241.157	0.101	0.170
-462.099	-35.172	-0.109	-0.060
-461.084	-35.370	-0.061	0.034
-460.070	102.323	0.075	-0.089
-459.055	147.839	0.144	-0.197
-458.040	-200.000	0.013	0.299
-457.026	316.345	-0.118	-0.226
-456.011	-150.848	0.383	0.029
-454.997	800.000	-0.008	0.030
-453.982	518.931	-0.054	0.127
-452.968	476.411	0.049	0.112
-451.953	-200.000	0.058	0.316
-450.938	-156.704	0.063	-0.004
-449.924	-200.000	-0.029	0.258
-448.909	63.055	-0.349	0.354
-447.895	-200.000	0.006	0.039
-446.880	467.150	-0.205	0.466
-445.865	-200.000	0.010	-0.116
-444.851	-102.073	-0.272	0.066
-443.836	-100.613	-0.104	0.026
-442.822	339.844	0.155	0.307
-441.807	800.000	-0.088	0.273
-440.792	-70.960	-0.200	0.076
-439.778	-77.437	-0.140	-0.049
-438.763	-46.609	0.088	-0.044
-437.749	204.786	-0.150	-0.236
-436.734	627.119	-0.166	-0.424
-435.719	-44.887	0.237	-0.119
-434.705	-63.092	-0.171	-0.072
-433.690	87.643	-0.109	0.123
-432.676	457.455	0.071	-0.159
-431.661	-200.000	-0.043	-0.267
-430.646	45.882	-0.129	0.120
-429.632	-128.560	-0.138	-0.020
-428.617	-42.937	0.313	0.161
-427.603	33.867	0.293	-0.258
-426.588	-85.999	0.283	-0.088
-425.573	5.154	-0.125	0.093
-424.559	-58.007	-0.131	0.058
-423.544	40.930	-0.108	-0.098
-422.530	198.737	0.074	0.115
-421.515	2.642	0.249	0.183
-420.500	-106.197	0.353	-0.080
-419.486	-200.000	0.005	0.160
-418.471	136.003	-0.101	0.133
-417.457	-12.512	0.203	-0.134
-416.442	46.893	-0.206	0.194
-415.428	-200.000	-0.013	-0.079
-414.413	309.383	-0.097	0.183
-413.398	-153.884	0.099	-0.007
-412.384	240.561	-0.073	0.123
-411.369	800.000	-0.018	-0.070
-410.355	-200.000	0.001	0.110
-409.340	-200.000	0.010	-0.172
-408.325	41.649	-0.096	-0.088
-407.311	800.000	-0.029	-0.094
-406.296	49.351	0.312	0.297
-405.282	55.467	0.323	-0.316
-404.267	-200.000	-0.030	-0.167
-403.252	-200.000	0.004	0.238
-402.238	6.859	-0.140	0.105
-401.223	-46.232	-0.309	-0.153
-400.209	-200.000	0.054	-0.301
-399.194	-111.900	-0.176	-0.036
-398.179	121.642	0.264	0.332
-397.165	109.010	-0.227	0.274
-396.150	81.068	-0.058	0.063
-395.136	-158.835	-0.175	-0.010
-394.121	-200.000	0.021	0.308
-393.106	-124.163	-0.217	0.034
-392.092	16.884	-0.049	0.039
-391.077	551.143	-0.079	0.192
-390.063	-91.613	-0.061	-0.017
-389.048	71.169	0.077	-0.080
-388.033	42.760	0.252	-0.232
-387.019	-57.009	-0.225	-0.100
-386.004	105.474	-0.038	-0.045
-384.990	-138.985	0.058	0.006
-383.975	800.000	-0.048	-0.188
-382.960	-100.790	0.254	-0.063
-381.946	111.806	0.064	0.078
-380.931	19.851	-0.200	-0.163
-379.917	-46.996	0.029	-0.014
-378.902	-103.089	-0.241	0.058
-377.888	800.000	0.026	0.078
-376.873	186.486	0.056	-0.085
-375.858	-120.009	-0.233	0.040
-374.844	484.190	0.165	0.380
-373.829	651.502	-0.075	-0.193
-372.815	-3.765	-0.439	0.308
-371.800	-117.611	-0.115	0.021
-370.785	-200.000	0.021	-0.142
-369.771	800.000	0.045	0.130
-368.756	-200.000	0.020	-0.210
-367.742	260.764	-0.114	0.198
-366.727	30.307	-0.066	-0.057
-365.712	-89.295	0.306	-0.091
-364.698	243.610	0.073	0.123
-363.683	-103.315	-0.186	0.044
-362.669	-97.812	-0.173	-0.045
-361.654	-200.000	-0.005	-0.151
-360.639	-143.173	-0.168	-0.016
-359.625	-48.354	-0.029	-0.014
-358.610	415.130	0.036	0.078
-357.596	-132.532	-0.092	0.012
-356.581	-50.110	0.105	-0.050
-355.566	236.566	0.268	-0.448
-354.552	493.383	0.111	0.256
-353.537	-48.574	-0.238	-0.116
-352.523	-200.000	0.009	0.403
-351.508	-117.114	-0.325	0.060
-350.493	-40.165	0.320	-0.168
-349.479	800.000	-0.022	-0.096
-348.464	-94.104	-0.047	-0.013
-347.450	-69.806	-0.111	-0.043
-346.435	800.000	-0.075	0.328
-345.420	-200.000	0.029	0.368
-344.406	-14.571	0.151	0.098
-343.391	-150.473	-0.270	0.021
-342.377	145.063	-0.184	-0.248
-341.362	-145.564	-0.053	0.005
-340.348	445.542	0.133	0.296
-339.333	800.000	-0.047	-0.138
-338.318	122.122	-0.108	-0.136
-337.304	-62.320	0.139	-0.058
-336.289	-200.000	-0.018	-0.336
-335.275	-81.202	-0.206	-0.069
-334.260	739.979	-0.034	-0.091
-333.245	-200.000	-0.026	-0.241
-332.231	-200.000	-0.006	0.088
-331.216	-163.866	-0.335	-0.016
-330.202	-112.232	0.170	-0.034
-329.187	-123.535	-0.401	0.064
-328.172	193.581	-0.067	0.102
-327.158	36.148	-0.227	0.202
-326.143	-145.787	0.364	-0.033
-325.129	-40.311	0.287	0.150
-324.114	347.790	-0.074	0.148
-323.099	-200.000	-0.020	-0.212
-322.085	-81.621	-0.240	0.079
-321.070	-200.000	0.008	0.115
-320.056	-38.424	-0.295	-0.157
-319.041	-174.076	-0.114	0.003
-318.026	-200.000	-0.024	0.134
-317.012	-157.014	-0.278	-0.017
-315.997	35.482	0.300	0.265
-314.983	-200.000	-0.042	0.231
-313.968	-54.335	-0.121	-0.055
-312.953	-200.000	-0.029	-0.137
-311.939	-7.057	0.126	0.086
-310.924	-174.521	-0.147	0.004
-309.910	167.355	0.096	0.138
-308.895	800.000	0.066	0.218
-307.880	375.302	0.093	-0.191
-306.866	-174.691	0.304	0.009
-305.851	-73.619	-0.337	-0.123
-304.837	-174.291	-0.069	0.002
-303.822	171.431	0.202	-0.291
-302.807	207.748	0.200	-0.315
-301.793	301.359	0.111	-0.206
-300.778	344.875	0.121	-0.238
-299.764	-31.723	-0.143	0.081
-298.749	-100.027	0.486	-0.122
-297.735	12.745	0.079	0.061
-296.720	337.535	-0.055	-0.108
-295.705	8.673	0.197	-0.149
-294.691	800.000	0.081	-0.258
-293.676	-95.773	0.209	0.056
-292.662	-119.870	0.172	0.030
-291.647	-85.734	0.345	0.108
-290.632	-91.776	0.250	-0.071
-289.618	-18.349	-0.305	-0.192
-288.603	-168.124	-0.268	0.010
-287.589	247.081	0.159	0.270
-286.574	551.384	0.144	0.347
-285.559	-14.616	-0.163	-0.106
-284.545	478.364	0.009	0.020
-283.530	589.073	0.036	0.088
-282.516	46.994	-0.144	-0.135
-281.501	73.153	-0.155	0.163
-280.486	318.619	-0.088	-0.167
-279.472	-144.013	0.055	0.005
-278.457	131.082	-0.086	-0.111
-277.443	296.137	0.079	0.145
-276.428	-102.573	0.206	0.049
-275.413	-137.200	-0.334	-0.038
-274.399	-8.505	0.432	-0.292
-273.384	182.462	0.130	0.192
-272.370	-150.166	0.319	0.025
-271.355	56.147	-0.076	0.074
-270.340	-78.120	0.196	-0.068
-269.326	-51.141	0.339	-0.159
-268.311	-200.000	-0.012	-0.194
-267.297	687.785	-0.075	-0.198
-266.282	99.667	-0.137	-0.160
-265.267	-197.778	-0.243	-0.001
-264.253	-88.886	0.151	0.045
-263.238	800.000	0.081	0.310
-262.224	115.107	-0.043	0.053
-261.209	-53.032	-0.257	-0.119
-260.195	355.151	0.171	0.341
-259.180	11.407	0.180	-0.139
-258.165	47.301	0.100	0.093
-257.151	168.378	0.030	-0.043
-256.136	-200.000	-0.042	0.238
-255.122	-181.529	-0.265	-0.005
-254.107	-68.685	0.150	-0.058
-253.092	-200.000	-0.011	0.093
-252.078	306.281	0.061	0.114
-251.063	-200.000	-0.031	0.400
-250.049	-24.458	-0.240	0.144
-249.034	800.000	0.015	-0.049
-248.019	-139.187	-0.109	0.012
-247.005	2.763	-0.117	-0.085
-245.990	800.000	-0.040	0.169
-244.976	-200.000	0.001	-0.178
-243.961	-200.000	-0.009	-0.172
-242.946	-93.190	-0.151	0.042
-241.932	800.000	0.100	0.344
-240.917	-154.272	0.156	-0.011
-239.903	242.804	0.126	0.211
-238.888	11.982	-0.178	-0.138
-237.873	3.616	-0.038	-0.028
-236.859	-37.347	0.197	-0.106
-235.844	-42.544	0.118	-0.061
-234.830	-200.000	0.016	-0.136
-233.815	689.022	-0.095	0.248
-232.800	-63.913	0.271	0.111
-231.786	8.472	-0.167	-0.126
-230.771	-200.000	0.025	0.261
-229.757	-37.589	-0.048	-0.026
-228.742	-200.000	0.011	-0.169
-227.727	54.762	-0.204	0.197
-226.713	324.836	0.073	-0.139
-225.698	263.337	0.107	-0.186
-224.684	800.000	-0.015	0.061
-223.669	286.106	-0.069	0.125
-222.655	172.153	0.199	0.286
-221.640	423.694	0.097	0.209
-220.625	-76.239	0.025	0.009
-219.611	-51.931	-0.264	0.123
-218.596	-200.000	-0.135	0.000
-217.582	498.609	0.072	0.166
-216.567	-2.763	-0.276	0.193
-215.552	-200.000	0.007	-0.066
-214.538	-40.898	-0.129	-0.067
-213.523	800.000	-0.053	0.212
-212.509	554.916	0.121	0.292
-211.494	15.067	0.105	-0.083
-210.479	79.661	0.101	0.109
-209.465	800.000	-0.076	-0.263
-208.450	69.388	0.238	0.246
-207.436	-200.000	-0.008	-0.051
-206.421	264.304	0.148	0.258
-205.406	-188.730	-0.332	0.004
-204.392	116.562	-0.125	0.153
-203.377	-156.361	0.216	-0.014
-202.363	2.060	0.187	0.136
-201.348	800.000	-0.014	-0.041
-200.333	110.422	-0.272	0.328
-199.319	800.000	0.021	0.076
-198.304	-200.000	0.067	0.448
-197.290	-17.790	-0.095	0.060
-196.275	91.753	-0.050	-0.056
-195.260	444.819	-0.030	0.067
-194.246	-52.637	0.246	-0.114
-193.231	16.921	0.258	-0.205
-192.217	800.000	0.065	-0.232
-191.202	-138.772	0.202	0.022
-190.187	-200.000	0.021	0.311
-189.173	13.988	-0.238	-0.185
-188.158	-62.711	0.160	0.066
-187.144	197.603	-0.186	-0.284
-186.129	800.000	0.019	-0.058
-185.114	800.000	-0.111	-0.402
-184.100	-113.287	-0.274	0.054
-183.085	-51.881	0.128	-0.060
-182.071	-20.407	-0.371	0.228
-181.056	-128.777	0.108	0.015
-180.042	-151.558	0.240	-0.018
-179.027	-104.138	0.067	-0.016
-178.012	-61.181	0.206	0.087
-176.998	-79.485	-0.244	0.083
-175.983	800.000	-0.052	-0.217
-174.969	75.252	0.134	-0.142
-173.954	332.791	0.085	0.164
-172.939	-50.661	-0.349	-0.165
-171.925	-112.776	0.115	0.023
-170.910	-97.869	0.228	-0.059
-169.896	1.628	0.274	-0.198
-168.881	13.705	0.208	0.162
-167.866	-194.369	-0.184	-0.001
-166.852	-87.659	-0.130	-0.039
-165.837	115.047	-0.103	-0.126
-164.823	-194.402	-0.213	0.002
-163.808	320.996	0.177	-0.337
-162.793	-200.000	0.011	-0.154
-161.779	140.333	0.208	-0.274
-160.764	507.672	-0.122	-0.284
-159.750	-78.128	-0.098	0.034
-158.735	-135.180	0.288	-0.035
-157.720	800.000	0.065	-0.268
-156.706	564.798	0.040	0.097
-155.691	800.000	-0.110	0.410
-154.677	-200.000	0.004	0.102
-153.662	800.000	0.058	-0.222
-152.647	-74.022	0.399	-0.145
-151.633	190.755	-0.089	-0.134
-150.618	-134.395	0.326	0.040
-149.604	540.318	-0.091	-0.216
-148.589	-66.788	0.065	-0.026
-147.574	-200.000	-0.003	-0.054
-146.560	-200.000	0.015	0.145
-145.545	-171.018	-0.249	-0.008
-144.531	-163.642	0.137	-0.006
-143.516	800.000	0.037	0.148
-142.502	-110.654	0.401	-0.083
-141.487	149.000	0.147	-0.198
-140.472	21.682	0.185	-0.151
-139.458	-83.907	-0.195	0.062
-138.443	25.372	0.125	-0.104
-137.429	-123.535	0.386	0.061
-136.414	-59.655	0.272	0.117
-135.399	-200.000	-0.001	-0.016
-134.385	3.666	-0.170	0.124
-133.370	-141.412	-0.201	0.020
-132.356	-20.451	-0.203	-0.125
-131.341	-25.826	0.179	-0.106
-130.326	-112.996	-0.354	-0.070
-129.312	-200.000	-0.004	-0.071
-128.297	-200.000	-0.024	0.211
-127.283	263.484	-0.174	0.303
-126.268	-200.000	-0.004	-0.184
-125.253	140.625	0.170	-0.224
-124.239	-152.168	0.177	0.013
-123.224	-200.000	0.020	-0.260
-122.210	-185.281	0.148	-0.002
