DTS Sentinel unit serial number:	SN413079Multiplexer serial number:	ORYXHardware model number:	OX4-SRSoftware version number:	ORYX F/W v4.00 Oryx Data Collector v3.7.2.0data status	okinstallation	princeton_trtdifferential loss correction	single-endedforward channel	channel 3reverse channel	N/Adate	2019/09/17time	05:20:35forward acquisition time	60.00reverse acquisition time	0.00gamma	496.2192k internal	0.2325k external	0.2325temperature offset calibration	0.9939default loss term (dB/km)	0.3790temperature slope calibration	1.0000multiplexer offset coefficient	1.0000multiplexer slope coefficient	1.0000fibre end	0.00T internal ref (°C)	29.36T ext. ref 1 (°C)	0.14T ext. ref 2 (°C)	23.65length (m)	temperature (°C)	Stokes	anti-Stokes-747.200	57.075	-0.223	0.219
-746.185	-200.000	0.008	0.356
-745.171	-81.564	-0.287	-0.095
-744.156	74.704	0.282	0.299
-743.142	220.066	0.102	0.164
-742.127	155.522	0.218	0.302
-741.112	-68.453	0.342	0.134
-740.098	-200.000	-0.033	0.238
-739.083	57.829	-0.239	-0.236
-738.069	-200.000	-0.036	0.249
-737.054	27.269	0.291	-0.246
-736.039	56.450	0.040	-0.039
-735.025	398.888	0.117	0.246
-734.010	180.458	-0.057	0.085
-732.996	-200.000	0.000	-0.216
-731.981	419.695	0.063	-0.136
-730.966	-43.025	-0.196	0.100
-729.952	173.794	-0.219	-0.319
-728.937	-32.975	0.122	-0.068
-727.923	80.075	0.060	0.065
-726.908	48.163	-0.177	0.167
-725.894	-200.000	0.001	0.026
-724.879	123.913	0.194	0.245
-723.864	46.746	0.252	0.236
-722.850	-200.000	0.004	-0.033
-721.835	-94.701	0.511	-0.140
-720.821	-107.931	-0.310	0.068
-719.806	-33.780	0.161	-0.090
-718.791	800.000	0.089	-0.382
-717.777	-200.000	-0.001	0.431
-716.762	485.412	0.040	0.092
-715.748	378.289	0.265	-0.546
-714.733	-58.756	-0.193	-0.084
-713.718	-200.000	0.045	0.293
-712.704	-200.000	0.031	0.251
-711.689	201.657	0.125	0.194
-710.675	-200.000	-0.008	-0.080
-709.660	483.526	0.162	-0.371
-708.645	800.000	-0.057	-0.184
-707.631	-55.011	0.251	-0.114
-706.616	-182.363	-0.337	0.006
-705.602	47.038	-0.216	-0.202
-704.587	-12.983	0.081	-0.053
-703.572	92.701	-0.077	0.087
-702.558	-200.000	-0.018	-0.460
-701.543	-79.854	0.169	0.057
-700.529	-167.808	-0.111	-0.004
-699.514	-114.326	0.174	-0.034
-698.499	-200.000	0.006	-0.029
-697.485	-200.000	0.070	0.353
-696.470	-125.899	-0.264	0.040
-695.456	800.000	-0.033	-0.118
-694.441	-131.893	-0.144	0.019
-693.426	800.000	-0.085	-0.345
-692.412	-200.000	0.017	-0.084
-691.397	-145.968	-0.091	0.008
-690.383	-27.723	-0.241	0.141
-689.368	343.181	0.044	0.086
-688.354	534.298	-0.098	-0.234
-687.339	-108.129	0.146	0.032
-686.324	14.963	-0.266	-0.209
-685.310	124.853	0.081	-0.102
-684.295	600.697	-0.142	0.354
-683.281	121.499	0.172	0.216
-682.266	-41.282	-0.219	-0.114
-681.251	1.036	-0.136	-0.098
-680.237	170.715	-0.290	-0.418
-679.222	139.106	-0.168	-0.222
-678.208	-2.464	0.088	-0.062
-677.193	387.461	0.079	0.164
-676.178	-55.369	-0.324	-0.146
-675.164	-176.567	-0.142	0.004
-674.149	-56.208	0.283	-0.127
-673.135	-39.784	0.049	0.026
-672.120	-88.835	-0.290	-0.087
-671.105	-200.000	0.048	0.278
-670.091	-75.955	0.107	-0.038
-669.076	800.000	-0.073	-0.288
-668.062	32.489	0.161	-0.140
-667.047	-200.000	-0.025	-0.146
-666.032	-14.231	-0.149	0.096
-665.018	800.000	-0.077	0.221
-664.003	278.449	-0.030	0.054
-662.989	800.000	-0.057	-0.203
-661.974	-90.345	-0.046	-0.013
-660.959	-200.000	0.050	-0.417
-659.945	-90.489	0.082	0.024
-658.930	131.424	-0.142	0.184
-657.916	-68.989	0.252	0.098
-656.901	124.580	0.135	-0.170
-655.886	54.247	0.047	0.046
-654.872	23.421	-0.238	-0.197
-653.857	138.402	0.045	-0.059
-652.843	-5.240	0.131	0.091
-651.828	-46.266	0.280	0.138
-650.814	33.966	-0.148	-0.130
-649.799	144.321	-0.093	-0.125
-648.784	165.428	0.108	-0.154
-647.770	-42.174	-0.233	-0.120
-646.755	-4.426	0.158	0.110
-645.741	-173.319	-0.181	0.006
-644.726	-63.990	0.290	-0.119
-643.711	-200.000	-0.009	-0.153
-642.697	96.459	-0.102	0.117
-641.682	10.619	-0.227	0.174
-640.668	-27.536	0.207	0.121
-639.653	800.000	-0.076	-0.255
-638.638	-32.432	-0.101	-0.056
-637.624	800.000	-0.063	-0.181
-636.609	-105.397	0.079	0.018
-635.595	16.585	-0.308	0.245
-634.580	800.000	-0.014	0.056
-633.565	-25.403	0.289	0.171
-632.551	-31.697	0.188	0.106
-631.536	-68.998	-0.256	-0.099
-630.522	44.001	0.314	0.289
-629.507	-200.000	-0.022	0.265
-628.492	-29.440	0.084	-0.048
-627.478	-200.000	0.038	0.278
-626.463	-41.276	-0.275	-0.142
-625.449	41.718	-0.138	-0.126
-624.434	605.866	-0.142	-0.356
-623.419	-138.607	-0.062	0.007
-622.405	-117.121	0.052	-0.010
-621.390	58.010	-0.303	0.298
-620.376	-33.353	-0.182	0.101
-619.361	712.729	-0.028	0.074
-618.346	-54.194	-0.215	0.098
-617.332	-200.000	-0.026	-0.195
-616.317	-90.374	-0.212	0.062
-615.303	169.966	0.115	-0.165
-614.288	-96.496	-0.366	0.097
-613.273	522.029	-0.061	-0.145
-612.259	26.149	-0.124	-0.104
-611.244	136.556	-0.231	0.302
-610.230	21.609	-0.255	0.208
-609.215	113.320	0.060	-0.073
-608.201	800.000	-0.049	-0.198
-607.186	153.234	-0.253	-0.348
-606.171	162.132	-0.071	-0.099
-605.157	250.807	0.202	-0.345
-604.142	-24.771	-0.257	0.153
-603.128	-200.000	-0.066	0.373
-602.113	-30.171	0.101	-0.058
-601.098	2.874	-0.254	-0.185
-600.084	512.052	-0.123	0.286
-599.069	445.149	0.127	-0.280
-598.055	261.296	0.124	-0.215
-597.040	-79.136	-0.220	-0.075
-596.025	124.034	-0.153	-0.192
-595.011	-200.000	-0.005	-0.029
-593.996	795.508	0.090	0.250
-592.982	-37.433	-0.213	-0.114
-591.967	190.095	-0.087	-0.131
-590.952	412.115	0.097	0.206
-589.938	-121.665	-0.036	-0.006
-588.923	-87.238	0.261	0.079
-587.909	261.876	-0.184	0.320
-586.894	-200.000	-0.007	0.198
-585.879	65.991	0.114	0.116
-584.865	208.820	-0.019	-0.030
-583.850	-71.513	0.040	-0.015
-582.836	800.000	0.043	0.127
-581.821	396.374	0.111	-0.233
-580.806	375.018	0.087	-0.178
-579.792	-2.706	-0.099	-0.070
-578.777	275.753	-0.144	-0.255
-577.763	-66.166	0.156	-0.062
-576.748	-70.374	-0.028	-0.011
-575.733	-39.465	-0.330	-0.173
-574.719	14.382	0.131	-0.102
-573.704	299.935	0.104	-0.192
-572.690	-119.863	-0.030	0.005
-571.675	81.187	0.030	-0.033
-570.661	-200.000	0.001	0.096
-569.646	73.035	-0.090	-0.094
-568.631	800.000	0.032	-0.121
-567.617	19.507	-0.333	0.268
-566.602	395.014	-0.035	-0.072
-565.588	800.000	-0.048	-0.150
-564.573	22.971	-0.296	0.243
-563.558	-200.000	-0.020	-0.288
-562.544	633.511	0.122	-0.309
-561.529	40.711	0.077	-0.069
-560.515	205.858	-0.099	0.155
-559.500	-33.755	0.322	-0.178
-558.485	-0.999	0.147	-0.104
-557.471	110.173	-0.118	0.142
-556.456	-168.562	-0.270	0.010
-555.442	73.729	-0.223	-0.234
-554.427	-200.000	-0.014	0.152
-553.412	-110.500	0.175	0.036
-552.398	-200.000	0.006	-0.105
-551.383	-200.000	0.025	0.200
-550.369	226.508	0.181	0.294
-549.354	315.618	-0.106	0.200
-548.339	800.000	-0.064	-0.225
-547.325	-89.489	-0.172	0.051
-546.310	-126.089	0.213	0.032
-545.296	567.792	-0.081	0.197
-544.281	56.469	-0.161	-0.157
-543.266	216.276	0.193	0.307
-542.252	306.735	-0.116	0.217
-541.237	603.765	-0.077	0.193
-540.223	-174.884	-0.235	-0.007
-539.208	-44.094	-0.481	-0.242
-538.193	-200.000	-0.037	0.350
-537.179	-89.660	-0.240	0.070
-536.164	491.062	0.025	-0.058
-535.150	-47.999	0.130	0.063
-534.135	-200.000	0.042	0.215
-533.121	800.000	-0.025	-0.093
-532.106	312.258	0.055	-0.102
-531.091	36.570	0.118	-0.105
-530.077	437.101	-0.066	0.145
-529.062	17.745	0.353	0.281
-528.048	753.946	0.064	0.174
-527.033	-200.000	0.072	-0.324
-526.018	140.639	0.053	-0.069
-525.004	-200.000	-0.071	0.379
-523.989	231.591	-0.224	0.368
-522.975	800.000	-0.043	-0.146
-521.960	-54.618	0.118	0.054
-520.945	-132.881	0.292	-0.037
-519.931	285.690	-0.080	0.145
-518.916	-55.005	0.246	0.111
-517.902	35.262	-0.111	0.097
-516.887	374.315	-0.023	0.046
-515.872	-200.000	-0.014	-0.211
-514.858	800.000	0.088	0.271
-513.843	616.615	-0.088	-0.221
-512.829	-200.000	0.009	-0.281
-511.814	-200.000	-0.041	0.305
-510.799	40.315	0.189	0.170
-509.785	59.149	-0.222	-0.219
-508.770	-88.676	0.339	-0.101
-507.756	-42.450	0.299	-0.153
-506.741	-181.660	-0.297	0.006
-505.726	-200.000	-0.002	-0.014
-504.712	64.075	0.271	0.273
-503.697	-200.000	-0.016	0.218
-502.683	-200.000	0.003	-0.299
-501.668	-104.589	0.087	-0.020
-500.653	1.197	0.126	-0.091
-499.639	-200.000	0.023	-0.300
-498.624	-200.000	0.014	-0.334
-497.610	199.921	-0.076	0.116
-496.595	670.348	-0.066	-0.172
-495.581	-115.945	0.198	-0.037
-494.566	341.426	-0.174	0.340
-493.551	-200.000	0.002	-0.160
-492.537	2.995	0.219	-0.159
-491.522	-200.000	-0.167	-0.000
-490.508	-59.927	-0.244	0.104
-489.493	431.077	-0.089	-0.192
-488.478	-47.498	-0.169	-0.082
-487.464	-118.293	-0.165	-0.029
-486.449	30.636	-0.191	0.163
-485.435	337.855	0.169	0.327
-484.420	-200.000	-0.012	-0.109
-483.405	-73.702	0.071	0.026
-482.391	800.000	-0.137	0.400
-481.376	322.449	0.086	0.164
-480.362	-200.000	0.000	-0.009
-479.347	201.484	-0.023	0.035
-478.332	185.147	-0.156	-0.232
-477.318	-10.414	0.229	0.152
-476.303	11.767	0.185	0.142
-475.289	800.000	-0.008	0.035
-474.274	-13.308	0.029	-0.019
-473.259	-25.015	0.155	-0.092
-472.245	-200.000	-0.231	0.000
-471.230	126.334	-0.170	-0.215
-470.216	800.000	-0.034	-0.141
-469.201	-200.000	0.059	0.264
-468.186	-200.000	-0.037	0.405
-467.172	-129.843	0.143	0.020
-466.157	25.899	-0.034	0.029
-465.143	-90.047	0.143	0.042
-464.128	800.000	-0.092	0.286
-463.113	-105.133	0.076	0.017
-462.099	252.754	-0.016	0.027
-461.084	-48.366	0.131	0.063
-460.070	-112.055	0.136	0.027
-459.055	-61.223	-0.071	-0.030
-458.040	-119.035	-0.143	0.025
-457.026	-200.000	-0.034	-0.333
-456.011	268.727	-0.114	-0.200
-454.997	196.716	0.213	0.323
-453.982	-69.420	0.126	-0.048
-452.968	-117.677	0.359	0.064
-451.953	12.176	-0.291	-0.223
-450.938	61.920	-0.169	-0.168
-449.924	31.813	0.335	0.288
-448.909	328.910	0.055	-0.105
-447.895	110.756	-0.186	-0.223
-446.880	156.960	-0.161	0.222
-445.865	-67.207	0.359	0.141
-444.851	-56.157	-0.266	-0.118
-443.836	143.266	-0.114	0.152
-442.822	-105.386	0.275	0.062
-441.807	-72.496	-0.195	-0.072
-440.792	127.825	0.244	0.310
-439.778	34.580	-0.040	0.035
-438.763	158.848	-0.140	0.194
-437.749	747.610	0.122	-0.327
-436.734	-50.304	-0.068	-0.032
-435.719	-136.386	0.231	0.027
-434.705	-111.220	-0.217	-0.044
-433.690	55.627	0.266	0.257
-432.676	461.147	-0.046	0.103
-431.661	7.985	0.117	0.087
-430.646	2.279	-0.187	-0.135
-429.632	-144.213	-0.079	-0.007
-428.617	-33.167	0.167	-0.092
-427.603	116.094	0.258	0.315
-426.588	544.975	0.100	0.239
-425.573	3.184	-0.050	0.036
-424.559	13.872	-0.060	0.046
-423.544	-41.713	-0.184	0.094
-422.530	800.000	0.099	0.309
-421.515	314.982	0.040	-0.074
-420.500	-200.000	0.006	0.080
-419.486	150.742	0.184	-0.249
-418.471	-200.000	-0.001	0.419
-417.457	146.709	0.307	-0.411
-416.442	7.994	-0.209	0.157
-415.428	582.798	-0.107	-0.263
-414.413	-90.994	-0.170	0.049
-413.398	-200.000	0.038	0.169
-412.384	392.438	0.078	-0.162
-411.369	-96.098	0.279	0.074
-410.355	-200.000	-0.008	-0.123
-409.340	-200.000	-0.054	0.236
-408.325	-89.372	-0.114	-0.033
-407.311	54.319	0.127	-0.121
-406.296	-146.834	-0.109	0.009
-405.282	29.807	0.067	0.057
-404.267	10.411	0.193	0.146
-403.252	-32.115	-0.087	0.049
-402.238	800.000	-0.066	-0.200
-401.223	-200.000	-0.010	0.175
-400.209	24.951	-0.175	0.145
-399.194	86.912	0.128	-0.141
-398.179	-64.047	0.190	0.077
-397.165	119.689	0.240	-0.296
-396.150	514.496	-0.085	-0.197
-395.136	31.842	0.380	0.325
-394.121	223.033	-0.069	-0.111
-393.106	-38.021	-0.215	0.114
-392.092	-9.801	-0.202	0.134
-391.077	99.264	0.270	0.311
-390.063	-200.000	0.029	0.170
-389.048	603.028	-0.007	0.018
-388.033	-64.761	-0.119	-0.048
-387.019	-24.632	-0.153	0.091
-386.004	-51.173	0.085	0.040
-384.990	-67.049	-0.224	0.088
-383.975	-44.026	0.286	-0.143
-382.960	61.268	0.118	-0.117
-381.946	-108.771	-0.524	-0.112
-380.931	-67.723	-0.196	0.076
-379.917	120.040	-0.091	-0.112
-378.902	-160.323	0.207	0.011
-377.888	-200.000	0.045	0.239
-376.873	79.986	0.096	-0.103
-375.858	41.747	-0.314	0.283
-374.844	-138.211	0.165	0.018
-373.829	-200.000	0.132	-0.000
-372.815	209.596	0.081	-0.126
-371.800	7.055	-0.274	0.203
-370.785	-47.741	-0.054	-0.026
-369.771	-15.252	-0.025	0.016
-368.756	440.967	-0.122	0.265
-367.742	258.908	-0.095	-0.163
-366.727	-62.834	0.096	0.040
-365.712	800.000	0.064	-0.196
-364.698	-133.887	0.395	-0.049
-363.683	18.095	-0.203	-0.161
-362.669	-200.000	0.025	-0.165
-361.654	-160.788	0.472	-0.025
-360.639	-200.000	-0.046	0.410
-359.625	-118.588	0.228	-0.040
-358.610	81.226	-0.113	0.121
-357.596	-67.952	-0.248	0.096
-356.581	202.548	0.070	-0.107
-355.566	460.431	0.036	0.080
-354.552	-49.369	-0.187	0.089
-353.537	166.962	0.148	-0.209
-352.523	800.000	-0.155	0.451
-351.508	-200.000	-0.004	0.127
-350.493	-126.467	0.135	0.020
-349.479	29.025	0.152	-0.128
-348.464	-92.280	0.113	-0.032
-347.450	-46.216	0.136	-0.066
-346.435	87.531	0.119	-0.131
-345.420	-120.879	0.336	0.056
-344.406	-0.850	0.229	-0.161
-343.391	800.000	0.056	-0.241
-342.377	-98.532	-0.291	0.074
-341.362	-92.660	-0.204	0.057
-340.348	332.429	-0.128	-0.246
-339.333	-62.787	-0.251	-0.103
-338.318	552.884	-0.028	-0.066
-337.304	-37.696	-0.102	-0.054
-336.289	800.000	0.021	-0.079
-335.275	629.125	0.085	-0.214
-334.260	-108.851	-0.200	-0.042
-333.245	-200.000	0.039	-0.298
-332.231	-200.000	-0.016	-0.240
-331.216	45.225	0.132	-0.121
-330.202	-200.000	-0.019	-0.285
-329.187	643.454	0.066	-0.167
-328.172	-200.000	0.006	-0.058
-327.158	-100.545	0.106	0.026
-326.143	117.661	-0.332	0.406
-325.129	-175.177	-0.257	-0.007
-324.114	277.654	-0.051	0.089
-323.099	-2.492	-0.245	-0.170
-322.085	-86.477	0.203	0.062
-321.070	-200.000	-0.027	-0.180
-320.056	-26.327	-0.117	-0.068
-319.041	-200.000	-0.037	0.163
-318.026	-200.000	0.010	-0.149
-317.012	-200.000	0.042	-0.303
-315.997	92.563	0.139	-0.155
-314.983	-109.353	-0.288	-0.060
-313.968	-153.953	0.150	-0.010
-312.953	-58.549	-0.356	-0.153
-311.939	-67.430	-0.179	-0.070
-310.924	450.300	0.028	0.060
-309.910	-74.854	-0.277	0.098
-308.895	-200.000	0.128	0.000
-307.880	16.349	-0.217	0.170
-306.866	63.935	0.121	0.121
-305.851	800.000	-0.056	-0.168
-304.837	118.813	-0.053	0.065
-303.822	-23.452	0.273	0.162
-302.807	-90.915	-0.257	-0.073
-301.793	-23.912	-0.341	-0.202
-300.778	44.707	-0.153	-0.140
-299.764	10.618	-0.177	0.134
-298.749	800.000	0.053	0.196
-297.735	800.000	0.100	-0.285
-296.720	279.642	0.040	-0.071
-295.705	23.762	-0.314	-0.257
-294.691	17.344	-0.119	0.094
-293.676	-200.000	0.032	0.276
-292.662	-53.347	-0.056	0.026
-291.647	-200.000	0.010	0.167
-290.632	-58.082	0.306	-0.132
-289.618	-53.268	0.295	0.134
-288.603	-200.000	0.021	-0.103
-287.589	261.545	0.095	-0.163
-286.574	13.236	0.026	0.020
-285.559	-40.188	0.189	0.098
-284.545	-103.831	0.349	0.081
-283.530	-10.131	-0.223	0.147
-282.516	-0.326	-0.116	0.082
-281.501	-52.989	-0.114	-0.052
-280.486	181.648	0.166	-0.243
-279.472	273.842	-0.087	-0.152
-278.457	-93.794	0.108	-0.029
-277.443	800.000	0.024	0.082
-276.428	-163.296	0.061	-0.003
-275.413	-147.051	0.166	0.014
-274.399	490.479	0.114	0.259
-273.384	450.171	-0.134	-0.293
-272.370	118.037	0.062	0.075
-271.355	-81.012	0.170	0.056
-270.340	-100.927	0.323	0.079
-269.326	-171.820	-0.076	0.002
-268.311	-107.739	0.257	-0.056
-267.297	-24.219	0.067	-0.039
-266.282	125.475	0.095	-0.119
-265.267	-96.908	-0.447	0.116
-264.253	800.000	0.064	-0.197
-263.238	32.855	-0.070	-0.060
-262.224	-87.469	0.217	-0.065
-261.209	-200.000	0.024	-0.174
-260.195	256.103	-0.283	-0.480
-259.180	23.205	0.158	0.129
-258.165	800.000	-0.014	-0.050
-257.151	-173.294	-0.193	-0.006
-256.136	56.931	0.299	0.288
-255.122	24.784	-0.160	-0.131
-254.107	21.552	-0.103	0.083
-253.092	-200.000	0.034	-0.285
-252.078	165.683	0.173	-0.242
-251.063	-40.342	0.076	0.039
-250.049	-42.696	-0.092	0.046
-249.034	32.550	-0.218	-0.186
-248.019	800.000	0.112	-0.309
-247.005	-61.264	0.077	0.032
-245.990	215.678	-0.184	-0.290
-244.976	-36.945	0.080	0.043
-243.961	75.654	0.124	0.129
-242.946	-29.476	0.231	0.131
-241.932	-98.536	0.429	-0.108
-240.917	-93.455	0.139	-0.038
-239.903	14.908	0.045	0.035
-238.888	509.894	-0.045	-0.104
-237.873	-19.936	0.215	-0.131
-236.859	800.000	0.032	-0.089
-235.844	547.974	0.068	-0.161
-234.830	331.025	-0.107	0.204
-233.815	405.848	-0.013	-0.028
-232.800	190.567	0.081	0.120
-231.786	308.625	0.087	0.161
-230.771	35.380	0.243	0.211
-229.757	387.274	0.129	-0.264
-228.742	-13.253	-0.145	0.093
-227.727	-62.864	0.282	-0.115
-226.713	-200.000	0.062	-0.338
-225.698	-200.000	-0.019	-0.164
-224.684	-65.853	-0.524	0.207
-223.669	246.632	0.053	0.088
-222.655	348.782	0.101	-0.197
-221.640	-200.000	-0.138	-0.000
-220.625	800.000	-0.037	-0.111
-219.611	160.149	-0.154	0.212
-218.596	106.385	0.156	-0.183
-217.582	45.831	-0.233	-0.213
-216.567	291.596	-0.073	-0.131
-215.552	-178.320	0.022	0.001
-214.538	-200.000	0.049	-0.248
-213.523	-135.607	0.136	0.016
-212.509	464.375	0.037	0.081
-211.494	50.878	0.068	-0.063
-210.479	787.522	-0.080	-0.216
-209.465	-59.712	0.126	-0.053
-208.450	800.000	-0.060	0.182
-207.436	-130.804	0.295	0.039
-206.421	114.333	-0.219	-0.263
-205.406	-200.000	0.022	0.115
-204.392	10.769	-0.219	-0.165
-203.377	-136.747	-0.197	0.022
-202.363	-163.971	0.251	0.012
-201.348	198.041	0.237	0.358
-200.333	277.499	0.148	0.261
-199.319	-124.336	0.232	-0.036
-198.304	113.972	-0.102	-0.122
-197.290	682.694	0.054	0.139
-196.275	-200.000	0.010	-0.156
-195.260	-141.353	0.144	-0.014
-194.246	-69.861	-0.030	0.011
-193.231	-200.000	-0.017	-0.164
-192.217	-41.121	0.235	0.120
-191.202	-200.000	0.008	0.147
-190.187	-54.474	0.015	0.007
-189.173	-193.402	-0.300	0.003
-188.158	790.200	0.161	-0.436
-187.144	275.410	0.050	-0.087
-186.129	39.459	-0.252	-0.223
-185.114	12.131	-0.100	-0.076
-184.100	512.045	0.145	0.333
-183.085	129.148	0.290	0.365
-182.071	-30.054	0.559	-0.314
-181.056	-176.961	-0.189	-0.005
-180.042	-200.000	0.029	-0.250
-179.027	119.388	-0.049	0.060
-178.012	-200.000	0.045	-0.227
-176.998	-91.408	-0.157	0.044
-175.983	800.000	-0.084	0.280
-174.969	-5.693	0.308	0.208
-173.954	800.000	0.007	0.026
-172.939	800.000	0.046	-0.134
-171.925	94.129	0.111	0.124
-170.910	-200.000	0.017	0.390
-169.896	-200.000	-0.010	0.310
-168.881	-27.445	-0.188	0.108
-167.866	129.229	-0.164	0.207
-166.852	-62.746	0.296	0.121
-165.837	-127.413	-0.104	0.015
-164.823	463.948	-0.087	0.193
-163.808	-3.727	0.235	0.161
-162.793	88.310	-0.273	0.299
-161.779	-50.571	-0.055	0.026
-160.764	-200.000	-0.019	-0.274
-159.750	-101.136	0.167	0.040
-158.735	63.814	0.168	0.167
-157.720	440.345	-0.044	-0.095
-156.706	800.000	0.084	0.284
-155.691	95.987	0.130	0.147
-154.677	-200.000	-0.005	-0.248
-153.662	-34.039	-0.319	-0.173
-152.647	185.809	0.121	-0.178
-151.633	-23.957	0.222	0.131
-150.618	-200.000	-0.011	0.075
-149.604	774.444	-0.037	-0.098
-148.589	288.199	0.140	0.249
-147.574	-200.000	0.005	0.203
-146.560	-123.207	-0.279	0.044
-145.545	-107.910	0.297	-0.064
-144.531	-200.000	-0.003	-0.134
-143.516	-29.124	0.071	-0.040
-142.502	-200.000	0.040	0.173
-141.487	-192.985	0.089	-0.001
-140.472	-11.337	-0.263	0.171
-139.458	-200.000	0.015	-0.163
-138.443	-200.000	0.027	-0.331
-137.429	-65.779	0.142	-0.056
-136.414	64.192	-0.251	0.249
-135.399	-1.049	0.195	0.136
-134.385	-24.646	-0.182	0.107
-133.370	-31.003	-0.127	-0.070
-132.356	-70.456	-0.104	0.039
-131.341	-200.000	-0.016	-0.077
-130.326	411.440	0.043	0.089
-129.312	-200.000	0.015	0.541
-128.297	800.000	0.072	0.244
-127.283	800.000	0.100	0.280
-126.268	-49.455	-0.105	-0.049
-125.253	-200.000	0.009	-0.097
-124.239	102.056	0.114	0.131
-123.224	730.942	-0.128	0.338
-122.210	-82.013	-0.129	0.041
-121.195	44.831	0.215	0.195
-120.180	-7.110	0.159	0.106
