DTS Sentinel unit serial number:	SN413079Multiplexer serial number:	ORYXHardware model number:	OX4-SRSoftware version number:	ORYX F/W v4.00 Oryx Data Collector v3.7.2.0data status	okinstallation	princeton_trtdifferential loss correction	single-endedforward channel	channel 3reverse channel	N/Adate	2019/09/13time	13:48:35forward acquisition time	60.00reverse acquisition time	0.00gamma	496.2192k internal	0.2302k external	0.2302temperature offset calibration	1.0150default loss term (dB/km)	0.3790temperature slope calibration	1.0000multiplexer offset coefficient	1.0000multiplexer slope coefficient	1.0000fibre end	0.00T internal ref (°C)	35.12T ext. ref 1 (°C)	4.57T ext. ref 2 (°C)	30.95length (m)	temperature (°C)	Stokes	anti-Stokes-747.200	149.138	-0.106	0.146
-746.185	-5.928	0.378	0.264
-745.171	-50.171	-0.206	0.099
-744.156	800.000	0.065	0.237
-743.142	-61.785	-0.294	0.125
-742.127	107.434	-0.248	0.301
-741.112	362.651	0.092	0.188
-740.098	-64.707	0.110	0.045
-739.083	694.774	0.032	-0.085
-738.069	-35.762	-0.199	0.110
-737.054	-9.383	0.271	-0.184
-736.039	289.914	0.087	-0.160
-735.025	98.558	0.156	0.183
-734.010	-18.761	-0.208	-0.132
-732.996	-47.010	-0.472	-0.235
-731.981	-123.905	-0.058	0.009
-730.966	-78.024	-0.135	-0.047
-729.952	-144.040	-0.432	-0.041
-728.937	800.000	-0.102	0.387
-727.923	-200.000	-0.016	-0.261
-726.908	-72.328	-0.177	-0.067
-725.894	12.786	-0.171	0.134
-724.879	-49.183	0.234	-0.114
-723.864	31.340	-0.226	-0.198
-722.850	-114.767	-0.141	0.027
-721.835	-73.000	0.081	0.030
-720.821	517.795	-0.136	-0.324
-719.806	800.000	-0.014	-0.050
-718.791	89.296	-0.138	-0.157
-717.777	800.000	-0.040	-0.137
-716.762	-200.000	0.028	-0.328
-715.748	-137.778	-0.146	0.017
-714.733	-0.239	-0.033	0.024
-713.718	-200.000	-0.017	-0.098
-712.704	-100.806	-0.111	-0.028
-711.689	504.821	0.104	0.245
-710.675	-6.704	0.036	0.025
-709.660	239.127	0.040	-0.067
-708.645	-200.000	0.020	-0.234
-707.631	-59.603	0.131	0.057
-706.616	-80.432	-0.303	0.103
-705.602	204.347	-0.126	-0.199
-704.587	800.000	-0.044	0.152
-703.572	-200.000	-0.006	-0.038
-702.558	104.410	-0.061	0.073
-701.543	-13.411	0.260	-0.171
-700.529	-132.566	0.257	0.034
-699.514	-200.000	0.016	-0.117
-698.499	-31.279	-0.154	-0.088
-697.485	800.000	-0.072	0.304
-696.470	-87.655	-0.321	0.099
-695.456	258.134	-0.104	0.181
-694.441	-76.499	-0.484	-0.173
-693.426	45.414	0.074	-0.069
-692.412	-141.776	-0.380	0.039
-691.397	36.661	0.037	0.034
-690.383	314.102	-0.106	-0.202
-689.368	-56.695	0.301	-0.135
-688.354	427.794	-0.118	0.259
-687.339	-48.258	-0.073	0.036
-686.324	800.000	-0.040	-0.151
-685.310	-21.302	-0.158	0.098
-684.295	227.970	-0.151	-0.250
-683.281	59.474	-0.120	0.120
-682.266	262.437	0.155	-0.274
-681.251	431.535	-0.095	-0.210
-680.237	800.000	0.056	0.183
-679.222	-150.559	-0.116	0.009
-678.208	-127.490	-0.240	0.035
-677.193	178.616	-0.039	-0.058
-676.178	-200.000	0.044	-0.239
-675.164	93.818	-0.202	-0.233
-674.149	-99.875	-0.188	0.048
-673.135	380.870	0.076	-0.159
-672.120	-61.459	-0.076	-0.033
-671.105	-106.730	-0.334	-0.075
-670.091	-200.000	0.006	0.124
-669.076	521.288	-0.161	-0.385
-668.062	-80.326	0.273	0.093
-667.047	-132.747	-0.302	0.039
-666.032	800.000	-0.026	-0.104
-665.018	-200.000	0.009	0.244
-664.003	8.679	-0.077	0.059
-662.989	777.889	-0.074	-0.204
-661.974	23.520	-0.022	-0.019
-660.959	668.135	-0.045	-0.117
-659.945	-60.530	-0.283	-0.122
-658.930	-28.605	-0.250	0.146
-657.916	295.626	0.141	0.263
-656.901	56.872	-0.240	-0.238
-655.886	-170.922	-0.155	0.005
-654.872	-22.520	0.058	-0.036
-653.857	400.351	-0.079	-0.168
-652.843	800.000	0.022	-0.091
-651.828	-135.000	0.321	-0.039
-650.814	161.573	0.108	-0.154
-649.799	425.625	0.068	0.148
-648.784	24.673	-0.117	-0.098
-647.770	117.446	0.228	-0.285
-646.755	800.000	0.110	-0.326
-645.741	124.484	-0.063	0.080
-644.726	-72.016	-0.048	0.018
-643.711	6.985	-0.140	-0.106
-642.697	-0.988	0.085	-0.061
-641.682	-69.678	0.212	-0.082
-640.668	-66.422	-0.293	0.118
-639.653	0.902	0.086	0.062
-638.638	586.549	0.069	-0.173
-637.624	-64.951	-0.278	-0.114
-636.609	107.630	-0.124	-0.150
-635.595	-11.160	0.050	-0.034
-634.580	-118.186	-0.240	-0.043
-633.565	106.692	0.033	0.039
-632.551	-20.885	-0.206	0.128
-631.536	800.000	0.059	0.215
-630.522	-200.000	-0.045	-0.252
-629.507	360.462	-0.137	-0.278
-628.492	-200.000	0.025	-0.178
-627.478	-200.000	0.033	0.242
-626.463	22.121	0.051	-0.042
-625.449	120.475	0.078	0.098
-624.434	-93.749	0.430	0.120
-623.419	114.161	-0.041	-0.050
-622.405	765.627	0.030	-0.084
-621.390	128.537	0.120	-0.155
-620.376	-200.000	0.022	0.224
-619.361	-89.691	-0.290	0.086
-618.346	-160.531	-0.266	-0.014
-617.332	16.880	-0.182	0.146
-616.317	-200.000	0.042	-0.239
-615.303	800.000	-0.074	-0.260
-614.288	-200.000	0.010	0.182
-613.273	-120.409	0.055	0.010
-612.259	-168.278	0.432	-0.017
-611.244	-66.964	0.202	-0.081
-610.230	132.936	-0.157	-0.206
-609.215	13.877	-0.188	-0.148
-608.201	-120.048	-0.202	-0.035
-607.186	-9.038	0.167	0.113
-606.171	-34.500	-0.174	0.097
-605.157	22.333	-0.077	0.064
-604.142	-123.178	0.210	0.034
-603.128	292.558	0.196	0.361
-602.113	142.946	0.012	-0.016
-601.098	83.873	0.065	-0.072
-600.084	-96.351	0.237	0.064
-599.069	-200.000	0.002	0.174
-598.055	14.511	0.091	-0.072
-597.040	87.462	-0.181	0.203
-596.025	-72.373	-0.458	-0.172
-595.011	-200.000	0.132	0.000
-593.996	-6.156	-0.077	-0.053
-592.982	800.000	0.075	-0.260
-591.967	268.859	-0.103	0.184
-590.952	800.000	-0.064	-0.223
-589.938	226.385	-0.079	-0.129
-588.923	103.597	-0.040	0.047
-587.909	-93.320	-0.139	0.039
-586.894	-200.000	0.020	0.326
-585.879	-71.342	0.041	0.016
-584.865	469.799	-0.073	-0.165
-583.850	-36.170	-0.090	-0.049
-582.836	-200.000	0.029	0.317
-581.821	381.512	0.153	0.319
-580.806	429.948	0.063	0.137
-579.792	51.378	0.068	0.065
-578.777	-134.894	0.343	0.042
-577.763	-200.000	-0.000	0.219
-576.748	-200.000	-0.045	-0.234
-575.733	296.570	-0.077	-0.143
-574.719	800.000	0.036	0.102
-573.704	166.139	-0.124	-0.177
-572.690	242.258	0.124	0.210
-571.675	327.866	-0.123	0.238
-570.661	-200.000	-0.029	-0.220
-569.646	-116.987	0.056	0.010
-568.631	-200.000	0.022	-0.181
-567.617	800.000	-0.105	-0.439
-566.602	-46.146	0.083	-0.041
-565.588	-200.000	0.037	0.184
-564.573	-105.983	-0.242	0.055
-563.558	-26.123	0.141	-0.084
-562.544	-200.000	0.009	0.053
-561.529	-106.412	-0.250	0.057
-560.515	27.572	0.053	-0.045
-559.500	571.058	0.024	0.060
-558.485	800.000	-0.040	-0.176
-557.471	-40.300	-0.237	-0.125
-556.456	533.212	0.131	0.314
-555.442	-21.416	-0.142	-0.088
-554.427	116.994	0.089	0.110
-553.412	800.000	-0.115	0.330
-552.398	-82.919	-0.282	0.092
-551.383	-186.523	0.216	0.003
-550.369	-84.692	0.135	0.043
-549.354	96.344	0.071	-0.083
-548.339	-31.740	-0.226	0.128
-547.325	800.000	-0.091	0.257
-546.310	800.000	0.088	0.318
-545.296	800.000	0.022	-0.089
-544.281	-6.037	0.236	-0.163
-543.266	-59.732	0.103	-0.045
-542.252	800.000	-0.092	-0.318
-541.237	276.011	-0.081	0.146
-540.223	55.975	-0.118	0.115
-539.208	-58.160	-0.148	0.065
-538.193	-73.746	-0.352	0.130
-537.179	-30.533	-0.128	0.073
-536.164	800.000	0.051	-0.214
-535.150	462.182	-0.106	-0.239
-534.135	53.007	-0.324	-0.314
-533.121	150.511	-0.022	-0.030
-532.106	199.571	0.192	-0.297
-531.091	67.891	-0.154	-0.159
-530.077	14.678	-0.121	-0.096
-529.062	-200.000	-0.061	-0.279
-528.048	-143.609	-0.285	-0.027
-527.033	-200.000	0.020	0.116
-526.018	800.000	-0.018	0.072
-525.004	18.880	0.183	-0.148
-523.989	800.000	-0.118	0.330
-522.975	466.890	-0.139	0.315
-521.960	24.609	-0.202	0.169
-520.945	-97.930	0.227	-0.059
-519.931	438.649	0.114	0.250
-518.916	50.631	-0.152	0.146
-517.902	325.904	-0.160	-0.309
-516.887	-6.135	0.177	-0.122
-515.872	1.747	0.157	-0.115
-514.858	-164.998	-0.534	-0.024
-513.843	-200.000	0.012	0.355
-512.829	509.765	0.096	0.224
-511.814	407.596	0.086	-0.183
-510.799	283.717	0.044	-0.080
-509.785	-200.000	0.055	-0.288
-508.770	-106.917	-0.236	0.053
-507.756	-200.000	-0.020	0.107
-506.741	-200.000	0.009	-0.094
-505.726	-37.635	0.260	0.140
-504.712	-200.000	0.051	0.309
-503.697	-83.735	-0.102	-0.033
-502.683	-19.181	0.169	0.106
-501.668	-7.537	0.086	-0.059
-500.653	-29.458	0.243	0.141
-499.639	59.373	-0.099	-0.099
-498.624	119.861	-0.041	0.051
-497.610	-126.207	0.060	0.009
-496.595	173.443	-0.244	0.355
-495.581	25.918	-0.126	0.106
-494.566	-200.000	-0.074	-0.363
-493.551	-161.369	-0.053	-0.003
-492.537	-30.442	0.309	-0.177
-491.522	318.946	0.154	-0.295
-490.508	-40.275	-0.175	-0.092
-489.493	36.259	-0.132	0.117
-488.478	81.267	-0.257	0.280
-487.464	147.331	-0.182	-0.248
-486.449	3.183	0.046	-0.033
-485.435	-200.000	-0.061	-0.475
-484.420	-119.878	0.210	0.037
-483.405	382.810	0.121	0.250
-482.391	664.528	-0.004	-0.010
-481.376	-76.473	-0.129	0.046
-480.362	98.258	0.231	0.268
-479.347	-200.000	0.016	-0.073
-478.332	-200.000	0.014	-0.404
-477.318	23.266	-0.260	-0.215
-476.303	800.000	0.089	-0.315
-475.289	-3.684	-0.143	-0.100
-474.274	-28.068	0.261	-0.152
-473.259	89.347	-0.106	0.119
-472.245	-155.044	-0.215	-0.014
-471.230	-126.362	0.120	0.018
-470.216	-49.674	0.213	-0.102
-469.201	-200.000	0.050	-0.381
-468.186	800.000	0.031	-0.131
-467.172	299.194	0.049	0.091
-466.157	-87.633	-0.091	-0.028
-465.143	86.343	-0.087	-0.097
-464.128	-200.000	-0.016	0.124
-463.113	800.000	0.048	-0.170
-462.099	-48.823	0.142	0.069
-461.084	-37.291	0.100	-0.054
-460.070	-157.494	0.228	-0.014
-459.055	147.157	0.108	-0.147
-458.040	800.000	-0.024	-0.084
-457.026	-172.918	0.371	0.012
-456.011	76.323	-0.258	0.275
-454.997	742.870	-0.031	0.085
-453.982	-200.000	-0.053	-0.239
-452.968	-53.209	-0.326	-0.151
-451.953	-138.036	0.069	-0.008
-450.938	-78.740	0.580	-0.199
-449.924	-110.240	-0.197	0.041
-448.909	-147.532	0.063	0.005
-447.895	-32.121	0.213	-0.120
-446.880	353.532	-0.051	-0.103
-445.865	-29.987	0.227	0.130
-444.851	166.532	0.186	0.266
-443.836	-200.000	-0.018	-0.142
-442.822	-100.370	0.066	0.017
-441.807	-200.000	0.047	0.517
-440.792	800.000	-0.064	-0.201
-439.778	800.000	0.028	-0.088
-438.763	-48.997	0.378	-0.182
-437.749	-200.000	0.016	-0.227
-436.734	-121.143	0.411	-0.069
-435.719	14.514	0.120	-0.094
-434.705	696.342	0.023	-0.061
-433.690	-200.000	0.008	0.141
-432.676	800.000	-0.036	0.132
-431.661	720.774	0.028	-0.074
-430.646	-200.000	0.023	0.173
-429.632	223.335	0.081	0.132
-428.617	775.312	0.249	-0.683
-427.603	66.169	-0.203	-0.207
-426.588	525.632	-0.168	0.398
-425.573	800.000	-0.032	0.129
-424.559	-41.323	-0.160	-0.083
-423.544	800.000	-0.069	0.229
-422.530	157.029	0.220	-0.306
-421.515	-200.000	0.019	0.214
-420.500	-15.390	0.016	-0.010
-419.486	-66.302	0.147	-0.059
-418.471	-141.621	-0.218	0.022
-417.457	243.210	0.129	0.217
-416.442	-200.000	-0.012	0.274
-415.428	800.000	-0.065	-0.251
-414.413	800.000	0.077	0.223
-413.398	-200.000	-0.038	0.260
-412.384	-30.180	0.311	0.178
-411.369	-29.647	0.203	0.117
-410.355	-151.911	0.049	0.004
-409.340	453.768	-0.100	-0.223
-408.325	94.527	-0.174	0.199
-407.311	324.060	0.058	0.111
-406.296	800.000	-0.153	-0.564
-405.282	-85.664	-0.095	0.030
-404.267	77.926	-0.040	-0.043
-403.252	174.981	-0.160	-0.233
-402.238	800.000	-0.028	0.112
-401.223	-63.557	-0.193	0.080
-400.209	-51.035	-0.231	-0.109
-399.194	242.115	0.046	0.077
-398.179	-27.639	0.216	0.126
-397.165	-171.401	0.345	0.012
-396.150	267.485	0.109	-0.192
-395.136	-43.989	-0.166	-0.084
-394.121	-79.194	0.182	0.062
-393.106	-93.166	-0.199	0.056
-392.092	32.056	-0.237	0.205
-391.077	-89.942	0.337	-0.099
-390.063	-200.000	0.019	-0.152
-389.048	198.613	-0.134	0.207
-388.033	474.657	-0.043	-0.098
-387.019	-14.014	0.064	0.042
-386.004	238.886	-0.191	-0.320
-384.990	-134.572	0.154	0.019
-383.975	677.155	-0.022	0.057
-382.960	32.928	-0.230	-0.200
-381.946	272.604	-0.162	-0.287
-380.931	318.798	-0.013	0.026
-379.917	95.360	-0.221	0.253
-378.902	22.521	0.267	-0.219
-377.888	-200.000	0.027	0.192
-376.873	137.758	-0.060	0.078
-375.858	-47.854	-0.235	0.114
-374.844	181.977	0.153	-0.226
-373.829	-200.000	0.007	0.043
-372.815	-33.934	-0.047	-0.026
-371.800	434.933	0.083	-0.182
-370.785	190.487	0.135	0.203
-369.771	-136.562	-0.495	-0.058
-368.756	66.210	0.117	0.119
-367.742	800.000	0.046	-0.163
-366.727	800.000	0.027	0.113
-365.712	-19.178	-0.107	0.067
-364.698	-175.808	-0.199	-0.005
-363.683	-40.476	-0.160	0.083
-362.669	800.000	0.035	-0.106
-361.654	32.819	-0.093	-0.080
-360.639	-14.087	-0.086	0.055
-359.625	-62.895	-0.119	0.049
-358.610	472.395	0.040	-0.090
-357.596	-102.511	-0.095	0.023
-356.581	800.000	-0.034	0.151
-355.566	220.766	0.142	-0.229
-354.552	388.232	-0.082	0.170
-353.537	-20.020	0.336	0.208
-352.523	-122.370	0.152	0.025
-351.508	-200.000	0.017	0.095
-350.493	-75.648	-0.128	-0.046
-349.479	800.000	-0.074	0.316
-348.464	134.880	-0.048	-0.062
-347.450	-44.339	0.286	0.144
-346.435	-200.000	0.025	0.280
-345.420	-200.000	-0.037	0.168
-344.406	-115.580	0.102	-0.019
-343.391	249.582	0.166	-0.283
-342.377	-20.483	-0.285	-0.176
-341.362	-55.092	0.075	0.034
-340.348	-200.000	-0.059	-0.359
-339.333	-200.000	0.040	-0.357
-338.318	800.000	-0.054	-0.194
-337.304	47.052	0.195	0.182
-336.289	-99.288	-0.362	0.092
-335.275	-102.599	-0.048	0.011
-334.260	86.683	-0.108	-0.120
-333.245	243.803	-0.170	0.285
-332.231	-135.396	0.109	0.013
-331.216	800.000	-0.041	0.149
-330.202	-26.768	0.374	0.219
-329.187	310.145	-0.066	-0.124
-328.172	-73.391	-0.290	-0.106
-327.158	40.735	-0.075	-0.068
-326.143	233.170	-0.102	-0.169
-325.129	9.359	0.194	0.147
-324.114	54.845	0.185	-0.179
-323.099	-149.600	-0.338	0.027
-322.085	255.985	0.068	0.118
-321.070	237.768	0.084	0.140
-320.056	9.030	-0.117	-0.089
-319.041	-64.798	0.154	-0.063
-318.026	670.046	0.130	-0.337
-317.012	-29.334	-0.268	-0.154
-315.997	-200.000	0.019	0.143
-314.983	-113.197	0.093	0.018
-313.968	-182.074	0.243	0.005
-312.953	341.866	-0.057	0.112
-311.939	-200.000	-0.010	0.251
-310.924	-200.000	-0.049	-0.238
-309.910	364.535	-0.049	-0.099
-308.895	198.024	-0.200	-0.306
-307.880	43.168	0.022	0.020
-306.866	-42.821	0.140	-0.071
-305.851	800.000	0.078	0.282
-304.837	-5.139	0.107	-0.074
-303.822	326.354	0.176	0.338
-302.807	-10.637	-0.208	0.138
-301.793	715.389	-0.052	-0.138
-300.778	-76.548	0.259	-0.091
-299.764	124.472	0.171	0.215
-298.749	-22.833	0.199	-0.120
-297.735	314.911	-0.067	-0.126
-296.720	800.000	0.046	0.184
-295.705	-121.250	-0.346	0.058
-294.691	-116.506	0.224	-0.041
-293.676	-33.486	-0.282	-0.156
-292.662	553.186	-0.146	-0.352
-291.647	13.293	0.157	-0.122
-290.632	-102.829	-0.108	-0.026
-289.618	-177.994	0.461	0.011
-288.603	688.511	-0.113	0.296
-287.589	-64.167	-0.190	-0.078
-286.574	-176.873	0.180	-0.005
-285.559	14.561	-0.110	0.086
-284.545	451.604	-0.094	0.207
-283.530	800.000	0.114	0.488
-282.516	101.397	0.073	-0.085
-281.501	800.000	-0.100	-0.359
-280.486	-100.487	-0.195	-0.048
-279.472	-200.000	-0.011	-0.218
-278.457	-200.000	0.030	-0.254
-277.443	4.898	-0.163	0.120
-276.428	800.000	0.016	0.052
-275.413	800.000	0.168	0.609
-274.399	509.168	-0.067	0.156
-273.384	-200.000	0.041	-0.198
-272.370	-125.502	0.286	-0.043
-271.355	132.141	0.081	0.104
-270.340	25.100	-0.142	-0.118
-269.326	393.645	0.108	-0.224
-268.311	-148.297	0.334	0.027
-267.297	363.141	0.060	-0.121
-266.282	-200.000	-0.003	-0.113
-265.267	145.884	0.194	-0.260
-264.253	-84.874	0.211	-0.066
-263.238	56.752	-0.227	0.221
-262.224	-39.025	0.351	0.185
-261.209	465.420	-0.055	0.123
-260.195	241.207	0.056	0.093
-259.180	677.503	-0.079	0.206
-258.165	-23.381	0.250	0.150
-257.151	800.000	-0.044	-0.167
-256.136	800.000	0.028	0.092
-255.122	465.295	-0.134	-0.300
-254.107	284.245	-0.047	-0.084
-253.092	-105.294	0.332	-0.076
-252.078	-172.510	-0.245	0.008
-251.063	-57.975	0.114	-0.050
-250.049	547.981	-0.013	0.030
-249.034	-200.000	0.015	0.231
-248.019	-42.308	0.086	0.044
-247.005	395.087	-0.109	-0.226
-245.990	-182.641	-0.145	-0.003
-244.976	-200.000	-0.067	0.332
-243.961	299.177	0.096	0.177
-242.946	-110.755	0.271	0.056
-241.932	-133.470	-0.111	-0.014
-240.917	524.345	-0.083	-0.195
-239.903	-200.000	-0.025	-0.316
-238.888	-200.000	-0.052	0.262
-237.873	57.283	-0.189	-0.184
-236.859	-31.896	0.104	0.058
-235.844	-50.630	-0.306	0.144
-234.830	40.320	0.284	-0.255
-233.815	397.920	0.105	0.220
-232.800	800.000	-0.040	-0.156
-231.786	-56.584	-0.267	-0.118
-230.771	-57.785	-0.228	0.099
-229.757	-154.316	0.509	-0.034
-228.742	93.176	0.090	-0.102
-227.727	-169.197	-0.079	-0.003
-226.713	526.644	0.058	-0.135
-225.698	81.330	0.060	0.064
-224.684	101.330	0.239	0.278
-223.669	-127.414	-0.208	-0.030
-222.655	-97.146	0.371	0.097
-221.640	-71.288	0.174	0.065
-220.625	613.669	0.076	0.190
-219.611	-131.257	0.051	0.007
-218.596	594.119	-0.107	-0.264
-217.582	800.000	-0.054	-0.171
-216.567	-74.081	0.233	-0.084
-215.552	-78.347	-0.222	-0.076
-214.538	6.784	0.236	-0.176
-213.523	-200.000	0.020	0.179
-212.509	5.268	0.044	0.032
-211.494	-13.507	0.190	0.123
-210.479	702.932	-0.062	0.162
-209.465	-200.000	-0.111	0.543
-208.450	800.000	-0.063	0.217
-207.436	21.808	-0.206	-0.167
-206.421	229.726	-0.150	0.244
-205.406	-200.000	-0.073	0.338
-204.392	-200.000	0.025	0.133
-203.377	800.000	-0.068	0.213
-202.363	22.061	0.133	-0.108
-201.348	77.622	-0.075	-0.079
-200.333	-158.387	-0.241	-0.014
-199.319	148.859	-0.090	0.121
-198.304	167.779	0.127	-0.180
-197.290	-2.676	0.225	0.157
-196.275	-49.756	-0.267	-0.126
-195.260	-82.438	-0.089	0.029
-194.246	351.028	-0.176	-0.348
-193.231	444.512	-0.173	-0.378
-192.217	73.032	-0.045	0.046
-191.202	170.288	-0.033	0.046
-190.187	580.330	-0.119	0.291
-189.173	-153.416	0.278	-0.019
-188.158	-128.293	-0.412	0.059
-187.144	-165.964	0.191	-0.008
-186.129	-27.673	0.133	-0.077
-185.114	248.236	-0.088	0.148
-184.100	800.000	0.080	0.240
-183.085	482.336	-0.157	0.356
-182.071	373.237	-0.051	-0.104
-181.056	-125.502	-0.111	-0.017
-180.042	-70.989	-0.474	0.178
-179.027	-200.000	-0.029	0.263
-178.012	-200.000	-0.018	-0.161
-176.998	70.455	0.212	-0.218
-175.983	800.000	0.103	-0.369
-174.969	458.603	-0.084	-0.187
-173.954	9.536	0.056	-0.042
-172.939	-14.099	0.163	0.105
-171.925	224.165	-0.141	0.227
-170.910	94.230	0.055	-0.062
-169.896	-176.160	-0.108	0.003
-168.881	625.547	0.028	0.071
-167.866	431.302	-0.136	0.294
-166.852	-148.335	-0.225	0.018
-165.837	-84.166	0.264	0.083
-164.823	-187.931	-0.118	0.002
-163.808	-156.059	0.257	0.016
-162.793	-175.068	0.197	-0.005
-161.779	755.241	-0.086	-0.232
-160.764	-1.403	0.057	0.040
-159.750	-200.000	-0.003	0.039
-158.735	-200.000	-0.036	0.207
-157.720	50.987	0.134	-0.127
-156.706	-10.745	0.147	0.097
-155.691	800.000	0.024	0.074
-154.677	-0.094	0.024	-0.017
-153.662	113.353	0.139	-0.168
-152.647	28.384	-0.281	0.237
-151.633	24.935	0.349	0.288
-150.618	161.811	0.146	-0.204
-149.604	-81.176	-0.286	0.094
-148.589	-136.440	0.250	0.029
-147.574	-200.000	-0.038	-0.210
-146.560	204.299	-0.059	0.091
-145.545	577.508	-0.020	0.049
-144.531	-200.000	-0.071	0.352
-143.516	-49.654	0.254	0.120
-142.502	-200.000	-0.023	0.190
-141.487	-3.186	-0.200	0.139
-140.472	192.573	0.091	-0.136
-139.458	-172.609	-0.133	0.004
-138.443	-17.361	0.166	0.104
-137.429	-121.678	-0.158	0.026
-136.414	800.000	0.103	0.287
-135.399	173.336	-0.110	0.158
-134.385	-85.564	-0.329	0.102
-133.370	5.231	0.073	0.054
-132.356	-200.000	0.066	-0.332
-131.341	761.142	0.025	0.068
-130.326	760.827	0.069	0.186
-129.312	-59.103	0.167	0.072
-128.297	150.694	0.223	0.301
-127.283	-200.000	0.037	0.302
-126.268	800.000	0.111	-0.428
-125.253	-31.518	-0.207	-0.116
-124.239	-200.000	0.018	-0.254
-123.224	136.048	0.101	0.131
-122.210	-15.618	-0.116	-0.074
-121.195	221.965	0.154	-0.246
