DTS Sentinel unit serial number:	SN413079Multiplexer serial number:	ORYXHardware model number:	OX4-SRSoftware version number:	ORYX F/W v4.00 Oryx Data Collector v3.7.2.0data status	okinstallation	princeton_trtdifferential loss correction	single-endedforward channel	channel 3reverse channel	N/Adate	2019/09/19time	10:24:34forward acquisition time	60.00reverse acquisition time	0.00gamma	496.2192k internal	0.2343k external	0.2343temperature offset calibration	0.9984default loss term (dB/km)	0.3790temperature slope calibration	1.0000multiplexer offset coefficient	1.0000multiplexer slope coefficient	1.0000fibre end	0.00T internal ref (°C)	24.25T ext. ref 1 (°C)	0.70T ext. ref 2 (°C)	19.86length (m)	temperature (°C)	Stokes	anti-Stokes-747.200	-200.000	-0.031	0.156
-746.185	-148.364	0.269	-0.022
-745.171	800.000	0.024	-0.090
-744.156	195.413	0.241	0.367
-743.142	346.804	-0.121	0.238
-742.127	348.652	-0.107	0.211
-741.112	-57.210	-0.220	-0.097
-740.098	-200.000	-0.035	-0.410
-739.083	-186.084	-0.182	-0.003
-738.069	-57.599	-0.066	-0.029
-737.054	217.200	0.110	-0.175
-736.039	-200.000	-0.020	-0.375
-735.025	-54.007	0.415	0.189
-734.010	-21.773	-0.171	-0.104
-732.996	192.908	0.061	0.092
-731.981	800.000	0.076	-0.299
-730.966	229.877	0.116	-0.189
-729.952	31.471	0.188	-0.161
-728.937	89.201	-0.114	-0.127
-727.923	69.962	0.055	-0.057
-726.908	-137.903	-0.379	-0.042
-725.894	34.844	-0.126	-0.111
-724.879	-96.891	-0.278	-0.073
-723.864	77.693	-0.241	-0.257
-722.850	-17.540	-0.053	-0.033
-721.835	415.528	-0.123	-0.262
-720.821	78.697	-0.260	-0.278
-719.806	-200.000	0.041	0.280
-718.791	61.394	-0.094	0.094
-717.777	241.645	-0.108	-0.180
-716.762	57.992	-0.104	-0.102
-715.748	-119.326	-0.205	0.036
-714.733	-108.456	-0.149	0.032
-713.718	274.316	0.173	0.307
-712.704	-200.000	0.016	0.183
-711.689	-103.072	0.075	-0.018
-710.675	295.918	0.193	-0.354
-709.660	16.158	0.196	0.154
-708.645	-22.509	-0.166	0.101
-707.631	-200.000	-0.049	-0.226
-706.616	193.692	0.088	-0.133
-705.602	470.698	-0.066	-0.148
-704.587	209.874	-0.065	0.102
-703.572	-120.382	0.322	0.055
-702.558	474.343	-0.141	-0.318
-701.543	-39.116	-0.422	-0.222
-700.529	800.000	0.050	-0.196
-699.514	-200.000	-0.025	0.185
-698.499	-200.000	0.014	0.084
-697.485	-139.502	-0.171	0.018
-696.470	-200.000	0.067	-0.377
-695.456	-1.066	-0.145	0.103
-694.441	-118.415	-0.241	-0.043
-693.426	-46.538	-0.196	-0.096
-692.412	-31.938	-0.182	0.102
-691.397	471.091	-0.083	0.186
-690.383	261.224	0.125	0.217
-689.368	243.345	0.140	0.235
-688.354	79.895	-0.100	-0.107
-687.339	-178.865	0.363	-0.008
-686.324	-8.863	-0.003	0.002
-685.310	-141.729	0.262	0.026
-684.295	-76.131	0.024	0.008
-683.281	185.456	0.069	-0.103
-682.266	-83.338	0.238	0.076
-681.251	79.966	-0.179	0.192
-680.237	-126.546	0.176	0.026
-679.222	207.425	-0.090	-0.140
-678.208	8.629	-0.063	-0.047
-677.193	242.929	0.033	-0.055
-676.178	40.840	-0.299	0.269
-675.164	-38.847	0.125	-0.066
-674.149	1.008	-0.145	-0.104
-673.135	534.294	-0.161	-0.381
-672.120	100.018	-0.144	0.166
-671.105	595.335	0.115	0.285
-670.091	-57.520	-0.166	-0.073
-669.076	-102.627	-0.356	-0.085
-668.062	-13.889	0.185	0.120
-667.047	-200.000	-0.062	0.317
-666.032	800.000	0.081	-0.222
-665.018	190.077	-0.161	-0.241
-664.003	127.043	-0.184	0.233
-662.989	-16.847	-0.418	-0.264
-661.974	606.256	0.140	-0.349
-660.959	-132.648	0.163	0.021
-659.945	306.950	-0.077	0.143
-658.930	-55.034	-0.355	0.160
-657.916	-82.777	0.040	-0.013
-656.901	384.529	0.067	-0.139
-655.886	-200.000	-0.018	-0.208
-654.872	-92.664	0.356	-0.100
-653.857	475.199	-0.151	0.341
-652.843	33.953	-0.263	0.228
-651.828	800.000	0.075	-0.257
-650.814	-108.475	0.091	0.020
-649.799	-170.652	0.047	0.002
-648.784	28.746	0.207	0.175
-647.770	391.280	-0.042	-0.087
-646.755	-200.000	0.046	-0.206
-645.741	-39.753	0.146	0.076
-644.726	-200.000	0.086	0.477
-643.711	800.000	0.046	-0.189
-642.697	13.270	-0.185	0.143
-641.682	523.196	0.103	-0.241
-640.668	-200.000	0.114	-0.559
-639.653	259.127	0.138	-0.237
-638.638	187.517	0.159	-0.237
-637.624	-80.943	-0.150	-0.050
-636.609	217.658	0.054	0.086
-635.595	224.214	-0.082	-0.132
-634.580	-200.000	-0.067	0.293
-633.565	800.000	-0.070	-0.231
-632.551	-67.386	-0.194	-0.076
-631.536	800.000	-0.076	-0.257
-630.522	89.304	-0.060	-0.067
-629.507	59.847	0.110	0.108
-628.492	-87.180	0.075	-0.023
-627.478	-11.823	0.252	0.165
-626.463	740.233	0.124	0.331
-625.449	-8.261	-0.406	0.272
-624.434	-200.000	0.022	-0.199
-623.419	-64.786	-0.273	-0.110
-622.405	-129.072	0.307	-0.043
-621.390	487.541	0.067	0.153
-620.376	-81.396	0.353	0.116
-619.361	117.406	-0.215	-0.263
-618.346	-200.000	0.045	-0.386
-617.332	60.130	0.126	0.124
-616.317	588.458	0.031	-0.077
-615.303	-145.261	-0.061	0.005
-614.288	15.299	-0.249	-0.195
-613.273	-160.207	0.157	-0.008
-612.259	-198.963	-0.176	-0.001
-611.244	-89.719	-0.443	-0.129
-610.230	-200.000	-0.005	-0.174
-609.215	178.436	0.248	-0.361
-608.201	-51.312	-0.361	-0.168
-607.186	200.336	-0.139	-0.212
-606.171	52.525	-0.261	-0.248
-605.157	96.133	-0.333	0.379
-604.142	-82.223	-0.139	0.045
-603.128	800.000	-0.041	-0.153
-602.113	-99.054	-0.240	-0.061
-601.098	-200.000	0.010	0.113
-600.084	-137.774	-0.067	0.007
-599.069	67.285	0.117	0.119
-598.055	-200.000	-0.008	0.171
-597.040	509.181	0.127	0.293
-596.025	142.472	0.128	-0.169
-595.011	-200.000	0.001	0.138
-593.996	141.477	-0.082	-0.107
-592.982	430.707	0.008	0.018
-591.967	-200.000	-0.017	0.081
-590.952	110.758	-0.118	-0.142
-589.938	-68.387	0.083	-0.032
-588.923	800.000	0.090	-0.249
-587.909	-200.000	-0.036	0.264
-586.894	720.367	-0.060	0.158
-585.879	-118.393	-0.057	-0.010
-584.865	98.831	-0.042	-0.049
-583.850	20.530	0.255	0.205
-582.836	116.476	0.159	0.194
-581.821	-77.161	-0.325	-0.113
-580.806	800.000	0.104	0.316
-579.792	-200.000	-0.014	-0.118
-578.777	-40.038	0.309	0.160
-577.763	295.051	0.155	0.283
-576.748	-123.425	-0.159	0.025
-575.733	800.000	0.066	0.203
-574.719	128.892	-0.140	0.178
-573.704	93.699	-0.110	0.124
-572.690	-38.616	0.112	-0.059
-571.675	-90.887	0.138	-0.040
-570.661	-200.000	0.061	-0.341
-569.646	88.486	0.073	-0.081
-568.631	444.594	0.067	0.147
-567.617	-71.591	0.090	-0.034
-566.602	-29.289	0.152	0.086
-565.588	246.207	-0.019	0.032
-564.573	268.833	-0.011	-0.020
-563.558	54.273	-0.101	0.096
-562.544	175.159	0.020	0.028
-561.529	24.773	-0.083	-0.069
-560.515	-149.832	0.120	-0.009
-559.500	800.000	0.058	0.192
-558.485	-89.632	0.168	-0.049
-557.471	-76.800	0.189	-0.066
-556.456	-113.079	0.257	-0.050
-555.442	-20.262	0.040	0.025
-554.427	24.589	0.079	0.065
-553.412	-200.000	0.045	0.408
-552.398	12.008	0.042	-0.032
-551.383	-200.000	-0.008	-0.166
-550.369	-28.693	-0.262	-0.150
-549.354	-123.917	-0.106	-0.017
-548.339	161.380	0.077	0.108
-547.325	479.615	0.054	0.123
-546.310	227.053	-0.178	0.287
-545.296	-144.260	-0.172	0.016
-544.281	800.000	-0.037	0.125
-543.266	15.846	-0.170	0.133
-542.252	-6.887	0.286	0.193
-541.237	9.281	-0.119	-0.089
-540.223	415.115	-0.038	0.081
-539.208	-43.095	0.283	-0.142
-538.193	27.634	-0.426	-0.356
-537.179	-173.276	-0.184	-0.006
-536.164	86.108	0.146	-0.160
-535.150	698.858	-0.048	0.126
-534.135	-200.000	0.030	0.240
-533.121	156.046	0.089	0.122
-532.106	-66.907	-0.042	0.017
-531.091	101.186	-0.281	-0.325
-530.077	83.978	-0.191	-0.207
-529.062	0.993	0.236	-0.168
-528.048	-157.631	0.263	-0.016
-527.033	-145.157	-0.511	-0.046
-526.018	-141.839	-0.233	-0.023
-525.004	800.000	-0.040	-0.159
-523.989	800.000	-0.050	0.189
-522.975	243.682	-0.143	0.238
-521.960	-126.144	0.223	-0.033
-520.945	-200.000	0.077	0.571
-519.931	-200.000	-0.037	-0.239
-518.916	106.741	0.191	-0.225
-517.902	800.000	-0.035	-0.140
-516.887	-27.752	-0.154	0.089
-515.872	-103.563	-0.210	0.049
-514.858	334.333	0.021	0.041
-513.843	200.279	-0.072	0.109
-512.829	-161.741	-0.207	0.010
-511.814	-47.819	0.083	0.040
-510.799	-200.000	0.009	-0.063
-509.785	-47.246	0.213	0.103
-508.770	-17.991	-0.337	-0.210
-507.756	-72.734	-0.191	0.070
-506.741	-200.000	-0.069	0.478
-505.726	800.000	-0.119	0.345
-504.712	456.536	-0.115	-0.252
-503.697	-200.000	0.006	-0.092
-502.683	-170.652	-0.227	0.008
-501.668	-58.033	-0.118	-0.051
-500.653	-200.000	-0.001	0.188
-499.639	-78.771	-0.152	0.051
-498.624	-67.519	0.195	-0.076
-497.610	-200.000	-0.029	0.234
-496.595	112.717	0.227	0.272
-495.581	-10.183	-0.156	-0.102
-494.566	-95.131	0.027	0.007
-493.551	-149.367	-0.218	-0.017
-492.537	251.935	-0.046	0.078
-491.522	-98.868	-0.175	-0.044
-490.508	-65.603	0.166	-0.066
-489.493	-200.000	-0.032	0.323
-488.478	-200.000	-0.029	-0.337
-487.464	-118.655	0.093	0.016
-486.449	-11.680	-0.143	-0.093
-485.435	-200.000	0.011	0.266
-484.420	145.030	-0.119	0.157
-483.405	800.000	0.026	-0.103
-482.391	-200.000	0.018	-0.385
-481.376	-179.517	0.164	-0.004
-480.362	334.204	0.128	-0.246
-479.347	-145.871	0.204	-0.018
-478.332	-67.776	-0.460	-0.178
-477.318	800.000	0.057	-0.159
-476.303	-200.000	0.057	-0.266
-475.289	800.000	0.047	0.166
-474.274	78.297	-0.105	0.111
-473.259	-22.936	-0.100	-0.060
-472.245	48.441	0.084	-0.078
-471.230	-94.090	0.382	0.104
-470.216	-91.083	-0.285	0.081
-469.201	-113.500	0.195	-0.038
-468.186	-200.000	0.026	-0.248
-467.172	-105.709	0.161	-0.036
-466.157	-23.024	0.186	-0.111
-465.143	-200.000	-0.042	-0.217
-464.128	-78.224	0.197	-0.067
-463.113	-200.000	0.033	0.178
-462.099	68.390	-0.255	0.259
-461.084	-185.728	-0.219	-0.003
-460.070	-66.923	0.289	0.113
-459.055	800.000	-0.085	-0.239
-458.040	25.934	0.210	-0.174
-457.026	29.162	0.452	0.379
-456.011	-106.449	0.073	0.016
-454.997	-200.000	-0.005	-0.129
-453.982	26.770	0.203	0.169
-452.968	47.644	-0.057	-0.053
-451.953	-63.288	-0.090	0.037
-450.938	-51.300	0.288	0.134
-449.924	772.875	0.027	-0.074
-448.909	-38.033	0.056	-0.030
-447.895	-200.000	0.027	-0.122
-446.880	-200.000	0.020	-0.094
-445.865	-38.178	0.139	0.073
-444.851	177.065	-0.122	-0.176
-443.836	800.000	0.081	-0.254
-442.822	-35.555	-0.115	0.062
-441.807	-73.421	-0.105	-0.038
-440.792	189.050	-0.216	-0.319
-439.778	-34.650	0.028	-0.015
-438.763	113.337	0.155	-0.186
-437.749	242.377	-0.113	-0.188
-436.734	-200.000	0.030	0.173
-435.719	527.297	0.117	0.272
-434.705	-22.327	-0.211	0.127
-433.690	121.838	0.235	0.290
-432.676	-56.830	0.130	0.057
-431.661	-156.744	-0.140	0.009
-430.646	-116.054	-0.263	-0.048
-429.632	800.000	-0.114	-0.327
-428.617	370.856	-0.031	-0.062
-427.603	381.526	-0.078	0.159
-426.588	466.113	0.084	-0.186
-425.573	-200.000	0.026	0.305
-424.559	-99.143	-0.092	-0.023
-423.544	-200.000	0.023	-0.456
-422.530	-200.000	0.076	0.414
-421.515	-152.598	0.066	0.005
-420.500	222.296	-0.105	0.167
-419.486	363.167	-0.162	-0.321
-418.471	-122.608	0.346	-0.055
-417.457	-200.000	-0.032	0.243
-416.442	98.644	-0.159	-0.181
-415.428	13.406	-0.045	0.035
-414.413	47.970	0.207	0.192
-413.398	61.188	0.197	-0.193
-412.384	-26.326	0.313	-0.182
-411.369	-0.341	0.162	-0.114
-410.355	800.000	0.073	0.258
-409.340	-28.229	-0.246	-0.140
-408.325	68.467	-0.197	0.199
-407.311	-180.836	-0.211	-0.004
-406.296	374.625	0.089	0.179
-405.282	-66.505	0.151	0.059
-404.267	-128.594	0.025	0.004
-403.252	800.000	0.076	0.260
-402.238	-61.829	0.505	0.209
-401.223	321.790	0.082	0.154
-400.209	122.246	-0.085	-0.104
-399.194	113.222	0.095	0.114
-398.179	35.052	-0.059	0.051
-397.165	-90.698	-0.180	-0.051
-396.150	-65.767	-0.298	-0.118
-395.136	-161.048	-0.216	0.011
-394.121	141.514	0.026	-0.034
-393.106	4.729	-0.137	-0.100
-392.092	800.000	0.056	-0.235
-391.077	-70.890	0.232	0.086
-390.063	-59.814	0.280	-0.118
-389.048	800.000	0.068	-0.192
-388.033	-145.798	-0.294	0.026
-387.019	-196.397	0.408	0.003
-386.004	97.194	0.168	0.190
-384.990	-200.000	0.055	0.250
-383.975	-23.192	-0.136	0.081
-382.960	671.402	0.056	-0.142
-381.946	150.506	-0.169	-0.227
-380.931	-200.000	-0.052	-0.468
-379.917	211.181	-0.077	0.119
-378.902	46.478	0.199	0.182
-377.888	12.801	-0.124	-0.095
-376.873	-29.212	0.268	-0.152
-375.858	-170.053	0.106	-0.004
-374.844	-41.633	0.183	0.093
-373.829	104.031	-0.178	-0.207
-372.815	-72.315	0.131	0.048
-371.800	-12.838	-0.109	0.070
-370.785	-117.936	0.120	-0.021
-369.771	-200.000	0.016	0.101
-368.756	-200.000	0.031	-0.211
-367.742	83.648	-0.069	-0.075
-366.727	17.145	0.278	0.218
-365.712	97.283	0.194	0.220
-364.698	-200.000	-0.005	0.379
-363.683	-100.552	-0.325	0.079
-362.669	-66.814	0.156	0.061
-361.654	-84.793	0.194	-0.060
-360.639	349.949	-0.066	0.129
-359.625	-69.426	0.161	-0.061
-358.610	-39.522	0.268	-0.138
-357.596	749.971	0.043	-0.115
-356.581	-28.320	-0.244	0.139
-355.566	-115.104	-0.077	0.014
-354.552	-123.084	-0.299	-0.047
-353.537	-5.251	-0.093	-0.063
-352.523	-23.891	-0.235	0.138
-351.508	-200.000	-0.079	-0.412
-350.493	-20.822	-0.391	-0.236
-349.479	-86.996	0.421	-0.127
-348.464	91.750	-0.072	-0.080
-347.450	4.678	0.389	0.282
-346.435	-70.131	-0.169	-0.064
-345.420	-43.151	0.228	-0.114
-344.406	35.771	0.141	-0.122
-343.391	442.279	0.070	-0.151
-342.377	200.496	-0.124	0.188
-341.362	-124.419	0.221	0.034
-340.348	-200.000	-0.006	0.047
-339.333	800.000	-0.033	0.095
-338.318	-115.010	0.049	-0.009
-337.304	32.857	0.075	0.064
-336.289	-200.000	0.007	0.237
-335.275	-200.000	0.021	0.160
-334.260	-101.221	-0.227	-0.055
-333.245	-46.725	0.507	-0.245
-332.231	-56.554	-0.301	-0.132
-331.216	-10.672	-0.147	-0.096
-330.202	-52.886	-0.213	0.096
-329.187	63.193	-0.322	0.318
-328.172	56.437	0.134	0.128
-327.158	-179.586	-0.332	0.007
-326.143	-92.998	0.245	0.067
-325.129	10.357	-0.086	0.065
-324.114	86.897	0.228	-0.248
-323.099	-200.000	0.023	-0.148
-322.085	-89.445	-0.237	-0.069
-321.070	-101.759	0.191	-0.046
-320.056	2.929	-0.145	0.104
-319.041	575.814	0.058	-0.140
-318.026	-85.783	0.177	0.054
-317.012	68.799	-0.115	-0.116
-315.997	373.124	-0.085	0.169
-314.983	-200.000	0.084	-0.370
-313.968	-40.983	0.185	-0.094
-312.953	800.000	-0.063	0.184
-311.939	99.543	-0.149	0.170
-310.924	-16.753	-0.218	0.136
-309.910	609.990	-0.073	0.180
-308.895	-138.506	0.021	0.002
-307.880	41.633	0.096	0.085
-306.866	-128.471	0.214	-0.030
-305.851	-59.376	-0.064	-0.027
-304.837	603.178	-0.079	-0.194
-303.822	374.936	0.173	-0.347
-302.807	-23.327	0.017	0.010
-301.793	-173.364	0.097	0.003
-300.778	-47.197	-0.118	0.057
-299.764	39.361	0.260	0.229
-298.749	-50.370	-0.290	-0.135
-297.735	800.000	-0.088	0.254
-296.720	800.000	0.056	0.165
-295.705	-103.216	-0.092	0.021
-294.691	77.265	-0.133	-0.140
-293.676	351.973	0.080	-0.156
-292.662	-200.000	-0.002	0.132
-291.647	292.324	0.085	-0.153
-290.632	-32.807	-0.080	0.044
-289.618	-139.546	0.023	0.002
-288.603	176.430	-0.159	-0.227
-287.589	211.762	-0.050	0.078
-286.574	-103.929	-0.277	0.064
-285.559	68.222	0.164	0.165
-284.545	-179.529	-0.200	0.004
-283.530	451.987	0.030	0.066
-282.516	44.579	0.214	-0.194
-281.501	91.007	0.239	-0.263
-280.486	119.716	-0.065	-0.079
-279.472	145.710	0.083	0.110
-278.457	660.218	0.106	0.269
-277.443	-87.119	0.244	0.073
-276.428	277.106	-0.124	0.216
-275.413	8.490	0.201	0.148
-274.399	89.850	0.200	-0.220
-273.384	-56.072	-0.246	0.108
-272.370	-126.785	-0.115	-0.017
-271.355	-84.426	0.351	0.109
-270.340	26.728	0.020	-0.016
-269.326	113.512	0.175	0.209
-268.311	30.515	-0.143	0.120
-267.297	-63.356	0.252	-0.102
-266.282	-102.333	0.166	-0.039
-265.267	-187.262	0.173	0.002
-264.253	-200.000	0.006	0.042
-263.238	174.358	0.100	-0.143
-262.224	0.605	0.222	-0.156
-261.209	-64.942	0.086	0.034
-260.195	9.801	-0.148	0.110
-259.180	144.801	0.088	-0.115
-258.165	-200.000	0.068	0.450
-257.151	462.929	-0.234	0.514
-256.136	800.000	0.093	0.288
-255.122	-200.000	-0.067	0.358
-254.107	-26.104	-0.215	0.124
-253.092	103.499	-0.168	0.193
-252.078	-200.000	0.057	0.455
-251.063	800.000	-0.065	0.179
-250.049	-90.968	-0.299	-0.084
-249.034	800.000	-0.037	-0.152
-248.019	158.475	0.152	0.207
-247.005	453.226	-0.057	0.123
-245.990	-61.238	0.137	-0.057
-244.976	-200.000	-0.012	-0.108
-243.961	130.948	-0.086	-0.109
-242.946	17.539	-0.070	0.054
-241.932	-88.386	0.300	0.088
-240.917	383.595	-0.052	0.104
-239.903	411.235	0.087	-0.180
-238.888	-59.619	0.158	0.067
-237.873	358.085	0.053	-0.103
-236.859	27.674	0.150	-0.124
-235.844	800.000	-0.094	0.298
-234.830	-70.542	0.273	-0.102
-233.815	23.290	-0.056	-0.045
-232.800	250.790	-0.081	0.135
-231.786	-200.000	0.036	-0.165
-230.771	-166.173	-0.408	0.017
-229.757	800.000	0.076	-0.309
-228.742	-119.711	0.137	-0.023
-227.727	-200.000	0.022	0.212
-226.713	50.914	0.099	-0.092
-225.698	-47.637	-0.104	0.050
-224.684	-200.000	-0.004	0.147
-223.669	201.657	-0.085	-0.129
-222.655	-157.828	0.154	-0.009
-221.640	-11.265	-0.187	-0.121
-220.625	47.363	-0.156	0.142
-219.611	115.999	0.011	-0.013
-218.596	-59.929	-0.156	-0.065
-217.582	458.754	-0.104	-0.226
-216.567	-200.000	0.039	-0.207
-215.552	-131.150	0.267	-0.035
-214.538	350.927	-0.082	0.158
-213.523	412.851	0.146	-0.305
-212.509	-200.000	-0.065	0.403
-211.494	46.942	0.137	0.125
-210.479	118.433	0.113	-0.137
-209.465	-200.000	0.034	-0.176
-208.450	-200.000	-0.034	-0.546
-207.436	-200.000	0.004	-0.198
-206.421	-38.046	-0.178	-0.092
-205.406	249.554	-0.127	0.210
-204.392	-52.536	-0.127	0.058
-203.377	-122.843	-0.312	-0.049
-202.363	-200.000	0.027	-0.313
-201.348	-180.730	-0.170	-0.003
-200.333	-51.242	-0.244	0.112
-199.319	-200.000	-0.010	-0.206
-198.304	12.283	-0.061	0.046
-197.290	40.489	0.037	0.033
-196.275	0.547	-0.142	-0.100
-195.260	576.823	-0.072	0.172
-194.246	23.368	-0.149	0.120
-193.231	8.000	-0.328	-0.241
-192.217	356.062	-0.085	0.165
-191.202	39.717	-0.219	0.192
-190.187	-101.328	0.284	0.068
-189.173	-177.379	-0.246	-0.006
-188.158	-35.489	-0.245	-0.130
-187.144	134.540	0.248	-0.316
-186.129	-75.276	-0.459	-0.160
-185.114	-87.454	0.296	0.088
-184.100	-117.724	0.111	-0.020
-183.085	376.294	0.054	0.109
-182.071	399.730	-0.107	0.219
-181.056	800.000	0.048	-0.196
-180.042	-4.334	-0.406	-0.275
-179.027	-111.056	-0.319	0.064
-178.012	136.587	-0.123	-0.158
-176.998	-45.471	0.100	-0.048
-175.983	-22.591	-0.140	-0.083
-174.969	31.373	0.169	-0.142
-173.954	800.000	0.113	-0.382
-172.939	164.627	0.086	0.119
-171.925	-9.237	0.115	0.076
-170.910	-77.947	-0.324	0.109
-169.896	24.671	0.248	0.201
-168.881	-122.811	-0.219	0.035
-167.866	569.144	0.077	-0.184
-166.852	49.004	0.141	0.130
-165.837	40.088	-0.069	-0.061
-164.823	401.268	0.176	-0.362
-163.808	800.000	0.062	-0.188
-162.793	-63.519	0.136	0.055
-161.779	-103.856	-0.044	0.010
-160.764	-200.000	-0.041	0.249
-159.750	-114.574	0.392	-0.073
-158.735	170.383	-0.065	-0.090
-157.720	-81.542	0.406	0.131
-156.706	44.507	0.085	-0.076
-155.691	44.789	-0.276	-0.248
-154.677	-72.504	-0.069	0.025
-153.662	-52.141	0.088	-0.040
-152.647	-200.000	0.030	0.221
-151.633	211.786	0.103	0.158
-150.618	164.074	-0.175	-0.241
-149.604	167.821	0.073	0.102
-148.589	-175.630	-0.174	0.005
-147.574	800.000	0.092	-0.347
-146.560	-120.475	0.185	0.031
-145.545	800.000	0.070	-0.215
-144.531	800.000	-0.056	-0.172
-143.516	676.782	-0.081	0.206
-142.502	-200.000	-0.015	-0.111
-141.487	-200.000	0.049	-0.287
-140.472	-98.748	-0.217	0.054
-139.458	42.006	0.202	0.179
-138.443	-141.963	0.192	0.019
-137.429	-137.578	0.315	0.035
-136.414	-79.175	0.054	0.018
-135.399	-200.000	0.031	0.209
-134.385	-47.650	0.226	0.107
-133.370	161.256	-0.109	0.149
-132.356	800.000	0.032	-0.116
-131.341	800.000	0.090	0.338
-130.326	394.054	-0.099	0.201
-129.312	83.504	-0.167	0.178
-128.297	73.483	0.147	-0.151
-127.283	-70.576	-0.240	0.089
-126.268	14.850	-0.350	-0.268
-125.253	-67.472	-0.333	-0.128
-124.239	-200.000	0.004	-0.130
-123.224	-200.000	0.019	-0.125
-122.210	-200.000	-0.093	-0.420
-121.195	-151.543	0.487	0.035
