DTS Sentinel unit serial number:	SN413079Multiplexer serial number:	ORYXHardware model number:	OX4-SRSoftware version number:	ORYX F/W v4.00 Oryx Data Collector v3.7.2.0data status	okinstallation	princeton_trtdifferential loss correction	single-endedforward channel	channel 3reverse channel	N/Adate	2019/09/17time	11:28:35forward acquisition time	60.00reverse acquisition time	0.00gamma	496.2192k internal	0.2322k external	0.2322temperature offset calibration	0.9955default loss term (dB/km)	0.3790temperature slope calibration	1.0000multiplexer offset coefficient	1.0000multiplexer slope coefficient	1.0000fibre end	0.00T internal ref (°C)	30.64T ext. ref 1 (°C)	0.34T ext. ref 2 (°C)	26.42length (m)	temperature (°C)	Stokes	anti-Stokes-747.200	621.659	-0.055	0.139
-746.185	-133.977	-0.347	-0.043
-745.171	-29.705	-0.176	-0.102
-744.156	19.500	-0.053	0.043
-743.142	-200.000	0.014	-0.138
-742.127	-93.792	0.145	0.040
-741.112	800.000	0.096	-0.277
-740.098	66.444	-0.172	-0.176
-739.083	-200.000	0.036	0.177
-738.069	793.844	-0.020	-0.056
-737.054	800.000	0.020	-0.060
-736.039	-96.032	-0.115	0.031
-735.025	-18.460	-0.011	-0.007
-734.010	73.082	-0.227	-0.239
-732.996	-32.741	0.168	-0.094
-731.981	-200.000	0.006	-0.199
-730.966	760.518	-0.090	-0.245
-729.952	38.618	-0.120	0.108
-728.937	-97.280	-0.217	-0.057
-727.923	272.735	0.182	-0.324
-726.908	-200.000	-0.021	-0.196
-725.894	284.053	0.090	-0.163
-724.879	101.456	-0.208	-0.245
-723.864	-71.105	0.154	-0.059
-722.850	-16.379	-0.197	-0.126
-721.835	-103.722	0.057	-0.013
-720.821	113.792	-0.235	0.289
-719.806	-88.745	-0.274	-0.082
-718.791	-62.463	-0.309	-0.130
-717.777	-122.659	-0.224	-0.037
-716.762	-200.000	-0.006	-0.213
-715.748	-40.184	-0.254	0.134
-714.733	-74.755	0.022	-0.008
-713.718	-128.029	-0.219	0.032
-712.704	-132.614	0.210	0.027
-711.689	-56.075	0.311	-0.140
-710.675	800.000	0.073	-0.243
-709.660	-96.767	-0.381	-0.101
-708.645	-144.487	-0.249	-0.023
-707.631	351.929	-0.105	-0.209
-706.616	-200.000	-0.004	-0.224
-705.602	-59.804	-0.101	-0.044
-704.587	1.241	-0.153	-0.111
-703.572	344.986	0.013	0.025
-702.558	177.917	0.035	-0.052
-701.543	186.411	-0.109	-0.164
-700.529	-200.000	-0.023	-0.116
-699.514	60.932	-0.170	0.170
-698.499	-200.000	0.026	-0.254
-697.485	-200.000	-0.036	-0.315
-696.470	3.149	-0.281	-0.206
-695.456	800.000	-0.041	0.148
-694.441	139.626	0.244	-0.324
-693.426	-46.395	0.169	-0.084
-692.412	-27.965	0.092	-0.054
-691.397	316.222	0.042	0.081
-690.383	247.670	0.131	-0.223
-689.368	-56.815	0.084	-0.038
-688.354	255.835	-0.139	-0.240
-687.339	-112.482	0.183	-0.037
-686.324	37.252	-0.151	-0.135
-685.310	-131.238	-0.079	0.011
-684.295	257.184	-0.094	0.163
-683.281	2.465	0.278	-0.203
-682.266	542.149	-0.079	-0.190
-681.251	25.071	-0.129	0.108
-680.237	-79.935	-0.279	-0.094
-679.222	-71.827	0.159	0.060
-678.208	153.390	-0.090	0.125
-677.193	-200.000	-0.029	-0.215
-676.178	-68.301	0.116	0.046
-675.164	-47.737	0.115	-0.056
-674.149	96.415	-0.149	-0.172
-673.135	379.004	0.077	-0.159
-672.120	-200.000	-0.009	-0.093
-671.105	-32.373	-0.116	-0.065
-670.091	143.308	0.109	-0.147
-669.076	218.465	0.105	0.169
-668.062	-200.000	0.008	-0.049
-667.047	89.226	0.064	0.071
-666.032	-200.000	-0.047	-0.331
-665.018	-114.274	-0.185	-0.036
-664.003	175.057	0.222	-0.324
-662.989	-200.000	-0.008	-0.252
-661.974	800.000	-0.050	-0.150
-660.959	-63.744	0.199	0.082
-659.945	-200.000	-0.063	0.360
-658.930	321.236	0.126	0.241
-657.916	-105.723	0.109	-0.025
-656.901	-44.271	-0.180	-0.091
-655.886	-26.430	-0.044	-0.026
-654.872	271.175	0.013	-0.023
-653.857	236.631	0.092	0.153
-652.843	114.132	-0.053	0.064
-651.828	-9.894	-0.214	-0.143
-650.814	48.145	-0.152	-0.143
-649.799	-200.000	0.000	0.180
-648.784	-200.000	-0.013	-0.191
-647.770	174.057	0.083	0.121
-646.755	-200.000	0.011	0.228
-645.741	550.998	-0.053	0.128
-644.726	15.202	0.356	-0.281
-643.711	100.894	0.080	-0.094
-642.697	158.618	-0.209	-0.291
-641.682	-200.000	0.007	0.386
-640.668	59.877	-0.034	0.034
-639.653	-115.091	-0.283	0.054
-638.638	-200.000	0.008	-0.387
-637.624	-200.000	0.057	-0.311
-636.609	-90.898	0.126	-0.036
-635.595	263.676	-0.107	0.186
-634.580	-110.304	-0.272	0.057
-633.565	20.670	0.156	-0.127
-632.551	-82.110	0.251	-0.082
-631.536	-71.544	-0.186	0.070
-630.522	84.403	-0.172	0.189
-629.507	615.375	0.028	-0.071
-628.492	-113.763	0.215	0.042
-627.478	800.000	-0.031	0.112
-626.463	-136.604	0.299	-0.035
-625.449	354.701	0.091	-0.181
-624.434	-200.000	-0.007	-0.111
-623.419	-200.000	0.010	0.115
-622.405	739.989	-0.032	0.086
-621.390	612.677	-0.039	0.098
-620.376	-200.000	-0.051	0.244
-619.361	742.427	0.047	0.126
-618.346	527.395	-0.142	-0.337
-617.332	800.000	0.069	-0.237
-616.317	-102.148	-0.577	0.139
-615.303	-39.227	-0.329	-0.174
-614.288	148.992	-0.256	-0.347
-613.273	37.126	0.094	-0.084
-612.259	800.000	0.051	0.223
-611.244	64.135	0.238	-0.241
-610.230	-200.000	-0.013	-0.182
-609.215	-52.420	0.342	-0.159
-608.201	-200.000	-0.019	-0.171
-607.186	-137.916	0.162	-0.018
-606.171	132.814	0.171	0.222
-605.157	-8.625	0.090	-0.061
-604.142	469.066	0.062	-0.141
-603.128	-144.607	-0.175	-0.016
-602.113	800.000	0.121	-0.358
-601.098	800.000	-0.055	0.170
-600.084	-200.000	0.013	0.155
-599.069	106.460	-0.265	0.315
-598.055	-168.963	-0.266	0.010
-597.040	-3.906	0.128	0.089
-596.025	46.822	-0.041	0.038
-595.011	800.000	0.070	-0.200
-593.996	50.102	-0.241	-0.228
-592.982	-117.773	-0.153	-0.028
-591.967	-200.000	0.050	0.281
-590.952	-12.472	-0.109	0.072
-589.938	334.090	0.103	-0.201
-588.923	800.000	-0.065	0.182
-587.909	94.707	0.078	0.089
-586.894	-124.731	0.305	-0.047
-585.879	100.177	-0.094	0.109
-584.865	-200.000	0.011	-0.258
-583.850	186.243	0.046	-0.069
-582.836	643.244	0.092	0.237
-581.821	-200.000	-0.000	0.045
-580.806	-126.461	0.213	-0.032
-579.792	61.632	-0.178	-0.178
-578.777	212.466	0.048	-0.075
-577.763	-20.516	-0.114	0.070
-576.748	-19.157	0.267	0.166
-575.733	-52.420	0.152	0.071
-574.719	-200.000	-0.001	-0.106
-573.704	-22.250	-0.132	0.080
-572.690	-29.132	-0.080	0.046
-571.675	-200.000	0.001	-0.224
-570.661	800.000	0.124	-0.348
-569.646	-200.000	-0.059	-0.350
-568.631	-146.557	-0.426	0.037
-567.617	20.409	-0.135	-0.110
-566.602	-200.000	-0.008	-0.128
-565.588	-41.315	0.197	0.102
-564.573	-200.000	0.012	-0.151
-563.558	22.323	-0.236	0.193
-562.544	3.166	-0.027	0.020
-561.529	3.667	-0.279	-0.204
-560.515	-200.000	-0.010	0.095
-559.500	-109.405	0.236	0.050
-558.485	256.818	0.238	-0.409
-557.471	-200.000	0.048	0.235
-556.456	-200.000	-0.024	0.114
-555.442	81.118	0.297	0.321
-554.427	2.935	-0.416	-0.303
-553.412	-127.066	-0.227	0.033
-552.398	288.425	-0.048	-0.088
-551.383	-105.571	-0.369	-0.084
-550.369	-200.000	-0.030	0.226
-549.354	-121.547	0.145	0.024
-548.339	421.000	-0.108	-0.233
-547.325	261.203	-0.185	-0.320
-546.310	800.000	0.076	0.257
-545.296	-114.529	0.183	-0.035
-544.281	321.870	0.038	-0.073
-543.266	-73.821	-0.146	0.053
-542.252	-93.948	-0.396	0.109
-541.237	331.042	0.125	-0.241
-540.223	301.813	-0.082	0.151
-539.208	-64.801	-0.402	-0.163
-538.193	-200.000	-0.095	0.000
-537.179	-200.000	0.050	-0.250
-536.164	-48.045	0.154	-0.075
-535.150	213.946	-0.238	0.378
-534.135	713.755	-0.130	0.346
-533.121	-86.230	-0.208	0.064
-532.106	-64.723	0.071	0.029
-531.091	-107.719	0.175	0.038
-530.077	-33.187	-0.247	-0.137
-529.062	305.549	-0.066	-0.123
-528.048	-69.552	0.160	-0.062
-527.033	64.251	0.113	0.114
-526.018	385.943	-0.161	0.333
-525.004	800.000	-0.042	0.180
-523.989	445.181	0.062	0.136
-522.975	-67.713	0.081	0.032
-521.960	79.952	-0.100	0.107
-520.945	380.602	-0.200	-0.411
-519.931	-13.102	-0.126	-0.082
-518.916	-44.941	-0.235	0.117
-517.902	50.794	-0.301	-0.285
-516.887	-37.517	0.250	0.134
-515.872	-200.000	0.022	0.195
-514.858	-81.835	-0.141	0.046
-513.843	-71.569	-0.154	0.058
-512.829	-200.000	-0.022	-0.323
-511.814	61.485	0.272	-0.271
-510.799	153.919	0.103	-0.142
-509.785	-153.913	-0.242	0.017
-508.770	-48.518	-0.129	0.062
-507.756	800.000	-0.121	0.505
-506.741	-200.000	-0.006	0.164
-505.726	59.230	-0.039	-0.038
-504.712	-107.240	0.318	-0.070
-503.697	-130.220	-0.220	0.030
-502.683	44.172	-0.006	-0.006
-501.668	800.000	0.067	0.266
-500.653	-200.000	0.010	-0.156
-499.639	321.263	-0.055	0.105
-498.624	-6.392	0.075	-0.051
-497.610	-18.996	0.191	0.119
-496.595	-131.895	-0.090	-0.012
-495.581	540.014	-0.059	-0.141
-494.566	115.535	0.075	-0.092
-493.551	-31.318	-0.130	-0.073
-492.537	173.612	-0.122	0.176
-491.522	800.000	-0.077	-0.328
-490.508	-52.408	-0.147	-0.068
-489.493	-200.000	0.013	-0.282
-488.478	428.928	0.118	-0.255
-487.464	-93.867	0.054	-0.015
-486.449	-30.575	-0.107	0.061
-485.435	23.110	-0.082	-0.067
-484.420	161.392	0.087	0.121
-483.405	-140.685	-0.054	0.006
-482.391	-200.000	-0.074	0.361
-481.376	-112.092	-0.424	-0.085
-480.362	-103.892	0.102	0.024
-479.347	195.395	0.101	0.154
-478.332	6.463	-0.264	-0.196
-477.318	-200.000	-0.030	-0.215
-476.303	800.000	-0.083	-0.233
-475.289	-3.205	0.193	-0.134
-474.274	-200.000	0.026	0.169
-473.259	-130.156	0.032	-0.004
-472.245	-121.780	0.276	-0.046
-471.230	-116.109	-0.253	-0.047
-470.216	56.081	-0.102	0.098
-469.201	-45.289	0.126	-0.062
-468.186	-29.213	-0.127	-0.073
-467.172	232.546	-0.078	0.128
-466.157	489.790	0.085	0.193
-465.143	-168.700	-0.249	0.009
-464.128	90.159	0.139	0.155
-463.113	239.283	-0.081	-0.134
-462.099	800.000	0.035	0.118
-461.084	-187.842	0.177	-0.002
-460.070	-200.000	-0.021	-0.243
-459.055	-75.002	-0.106	0.038
-458.040	-25.015	-0.160	0.095
-457.026	800.000	-0.049	-0.176
-456.011	-200.000	0.020	-0.154
-454.997	-9.680	-0.263	-0.175
-453.982	-21.781	-0.238	0.144
-452.968	-200.000	0.024	0.193
-451.953	56.612	0.113	-0.110
-450.938	-134.984	0.153	-0.018
-449.924	-36.870	-0.137	0.073
-448.909	498.723	0.015	-0.034
-447.895	-20.296	0.193	0.119
-446.880	800.000	-0.095	-0.392
-445.865	-200.000	-0.031	0.301
-444.851	170.015	0.101	0.144
-443.836	-200.000	0.044	-0.200
-442.822	-200.000	-0.053	0.233
-441.807	-200.000	-0.019	0.304
-440.792	800.000	-0.074	-0.210
-439.778	-58.742	0.258	-0.112
-438.763	-35.315	-0.150	-0.081
-437.749	-48.116	0.037	-0.018
-436.734	-200.000	-0.041	0.251
-435.719	-178.047	0.141	-0.003
-434.705	800.000	0.040	0.120
-433.690	-93.000	-0.085	0.024
-432.676	408.338	0.182	0.384
-431.661	-95.318	0.140	0.038
-430.646	-49.461	-0.120	0.057
-429.632	1.534	-0.106	0.076
-428.617	116.478	-0.069	-0.085
-427.603	177.520	-0.067	-0.097
-426.588	19.944	0.113	0.091
-425.573	-200.000	0.044	0.243
-424.559	227.159	0.145	0.234
-423.544	-32.898	-0.062	-0.034
-422.530	-181.836	0.144	-0.003
-421.515	-123.830	0.069	-0.011
-420.500	-124.008	-0.147	-0.023
-419.486	672.480	0.083	0.216
-418.471	-7.790	-0.337	0.227
-417.457	123.107	-0.082	0.102
-416.442	-106.948	0.345	0.076
-415.428	356.522	-0.107	0.212
-414.413	178.918	0.178	0.259
-413.398	35.193	0.088	0.077
-412.384	-103.691	0.108	-0.025
-411.369	-64.878	-0.153	-0.062
-410.355	-13.134	0.147	-0.095
-409.340	331.183	-0.084	-0.162
-408.325	281.878	0.103	0.184
-407.311	42.925	0.074	-0.067
-406.296	704.759	0.065	0.171
-405.282	-153.401	-0.188	-0.013
-404.267	193.804	0.196	-0.296
-403.252	-48.552	-0.241	-0.115
-402.238	-5.719	0.092	0.063
-401.223	304.906	-0.122	0.226
-400.209	800.000	-0.026	-0.084
-399.194	-88.725	0.583	0.173
-398.179	-185.100	-0.386	-0.006
-397.165	-110.482	0.329	0.068
-396.150	-80.343	0.268	-0.089
-395.136	-200.000	-0.020	0.149
-394.121	-200.000	-0.024	0.322
-393.106	-35.793	0.152	-0.082
-392.092	168.194	0.131	-0.185
-391.077	-105.657	-0.098	-0.022
-390.063	-79.774	-0.146	0.049
-389.048	-154.620	0.359	0.024
-388.033	-200.000	-0.016	-0.140
-387.019	351.271	0.103	0.203
-386.004	80.592	-0.239	-0.257
-384.990	19.685	-0.218	-0.175
-383.975	233.243	-0.066	-0.108
-382.960	800.000	-0.127	0.396
-381.946	-200.000	0.022	0.217
-380.931	800.000	0.033	-0.100
-379.917	-130.109	-0.094	0.013
-378.902	-200.000	0.000	0.158
-377.888	332.838	0.111	0.213
-376.873	2.945	-0.087	0.063
-375.858	-119.742	0.268	-0.046
-374.844	-200.000	-0.007	-0.093
-373.829	-200.000	0.024	-0.175
-372.815	-95.196	-0.194	0.052
-371.800	-56.984	0.157	0.069
-370.785	-200.000	-0.023	0.147
-369.771	110.687	0.049	0.058
-368.756	800.000	0.124	0.422
-367.742	-200.000	-0.021	-0.203
-366.727	-200.000	0.025	-0.342
-365.712	-161.166	0.382	-0.020
-364.698	-87.962	0.270	0.081
-363.683	11.908	0.143	-0.110
-362.669	-77.208	0.148	0.051
-361.654	2.764	-0.184	0.133
-360.639	56.220	-0.206	0.199
-359.625	416.398	0.091	-0.193
-358.610	3.532	-0.062	0.045
-357.596	-200.000	-0.010	-0.046
-356.581	-200.000	0.040	-0.286
-355.566	-180.952	-0.500	-0.010
-354.552	-77.613	-0.112	0.039
-353.537	750.667	-0.109	0.293
-352.523	-21.107	-0.062	-0.038
-351.508	196.417	0.184	0.279
-350.493	21.063	0.259	-0.209
-349.479	62.032	-0.335	-0.332
-348.464	127.166	0.195	0.246
-347.450	78.596	-0.141	-0.150
-346.435	-95.421	0.093	0.025
-345.420	-32.671	-0.301	-0.167
-344.406	-81.575	0.074	0.024
-343.391	143.063	-0.078	0.104
-342.377	800.000	-0.024	0.105
-341.362	-200.000	0.125	-0.000
-340.348	-200.000	-0.025	0.388
-339.333	148.094	0.147	0.198
-338.318	-121.477	0.298	0.049
-337.304	800.000	0.060	-0.195
-336.289	-91.728	-0.157	-0.044
-335.275	-5.648	0.057	0.039
-334.260	55.103	-0.216	0.208
-333.245	-200.000	0.002	0.114
-332.231	28.874	0.075	0.063
-331.216	407.482	0.154	-0.323
-330.202	-60.017	-0.066	0.028
-329.187	-112.959	0.179	0.035
-328.172	664.962	0.073	-0.187
-327.158	-169.934	0.182	0.006
-326.143	-83.641	0.382	-0.121
-325.129	55.544	0.201	-0.193
-324.114	-36.504	0.198	-0.106
-323.099	193.607	0.022	-0.034
-322.085	182.393	0.053	-0.077
-321.070	165.595	0.140	-0.197
-320.056	-200.000	0.008	-0.057
-319.041	-200.000	0.279	-0.000
-318.026	-133.179	0.158	-0.020
-317.012	-200.000	0.110	0.000
-315.997	-57.811	0.100	0.043
-314.983	-116.064	-0.147	-0.027
-313.968	-36.416	-0.070	-0.038
-312.953	-200.000	-0.002	0.323
-311.939	-200.000	0.000	-0.186
-310.924	-65.338	-0.098	0.039
-309.910	189.289	-0.124	0.184
-308.895	-56.226	0.273	-0.121
-307.880	-113.424	0.186	-0.036
-306.866	73.468	0.074	0.077
-305.851	-200.000	0.001	0.147
-304.837	113.737	-0.147	0.178
-303.822	527.626	-0.123	-0.288
-302.807	29.119	0.224	-0.189
-301.793	108.299	0.140	0.166
-300.778	800.000	-0.059	0.165
-299.764	-200.000	-0.007	0.233
-298.749	-124.493	0.115	0.018
-297.735	-200.000	0.001	-0.126
-296.720	-134.794	0.227	0.027
-295.705	-200.000	0.005	0.103
-294.691	-200.000	0.061	0.449
-293.676	4.074	0.199	-0.144
-292.662	-25.966	0.169	-0.099
-291.647	34.087	-0.060	0.052
-290.632	-6.486	0.217	-0.146
-289.618	355.836	-0.196	0.387
-288.603	-86.268	0.387	-0.118
-287.589	252.784	-0.293	-0.495
-286.574	-47.275	0.198	0.096
-285.559	227.120	-0.093	-0.150
-284.545	-200.000	-0.014	-0.269
-283.530	36.814	0.280	-0.246
-282.516	-200.000	0.014	-0.179
-281.501	288.737	0.147	0.264
-280.486	451.231	0.093	-0.205
-279.472	516.721	-0.200	0.463
-278.457	-200.000	0.012	-0.061
-277.443	-96.059	0.168	-0.044
-276.428	495.168	-0.087	-0.198
-275.413	-111.927	0.340	-0.068
-274.399	460.538	-0.166	0.368
-273.384	435.841	-0.113	-0.245
-272.370	356.347	0.276	-0.545
-271.355	-13.871	-0.199	0.128
-270.340	-102.009	0.335	-0.080
-269.326	-200.000	0.026	-0.132
-268.311	472.674	-0.056	-0.126
-267.297	-16.402	0.141	-0.088
-266.282	11.707	0.011	-0.008
-265.267	-134.224	0.296	-0.036
-264.253	-3.996	0.280	0.193
-263.238	781.858	-0.152	-0.411
-262.224	-13.172	-0.245	0.158
-261.209	-200.000	-0.075	0.408
-260.195	-75.773	-0.327	-0.115
-259.180	-109.258	-0.175	-0.037
-258.165	-200.000	-0.041	0.217
-257.151	-68.985	0.332	0.127
-256.136	-84.075	-0.287	0.090
-255.122	-200.000	-0.065	0.291
-254.107	-65.554	-0.121	0.048
-253.092	-200.000	0.033	-0.206
-252.078	-140.885	0.125	0.013
-251.063	-200.000	-0.001	-0.111
-250.049	-200.000	-0.037	-0.233
-249.034	-33.198	0.137	-0.075
-248.019	147.152	-0.152	-0.202
-247.005	519.187	0.096	-0.222
-245.990	270.330	-0.034	-0.059
-244.976	389.478	-0.199	0.409
-243.961	30.439	0.091	0.077
-242.946	-60.474	0.447	-0.188
-241.932	51.019	-0.131	-0.123
-240.917	294.933	-0.089	-0.162
-239.903	75.582	-0.169	0.176
-238.888	-84.009	-0.276	-0.087
-237.873	38.376	-0.142	0.126
-236.859	-43.574	0.046	0.023
-235.844	266.185	0.011	-0.020
-234.830	9.138	-0.469	-0.351
-233.815	-57.930	0.277	-0.120
-232.800	119.423	-0.216	-0.264
-231.786	202.478	0.118	-0.181
-230.771	-200.000	-0.011	-0.058
-229.757	-200.000	0.019	0.194
-228.742	-54.754	0.299	-0.134
-227.727	-137.861	0.179	-0.020
-226.713	395.635	-0.060	0.125
-225.698	-200.000	0.002	0.173
-224.684	800.000	-0.055	-0.161
-223.669	245.334	0.150	0.250
-222.655	-126.434	-0.114	0.017
-221.640	-53.130	-0.145	-0.066
-220.625	-4.352	0.214	0.146
-219.611	-152.419	0.358	0.025
-218.596	1.432	-0.147	-0.105
-217.582	-191.236	-0.169	-0.002
-216.567	800.000	0.041	0.158
-215.552	446.244	-0.052	-0.112
-214.538	-42.995	0.154	-0.077
-213.523	-184.420	-0.069	-0.001
-212.509	121.869	-0.176	-0.217
-211.494	395.547	0.077	0.159
-210.479	-102.407	0.128	-0.030
-209.465	-200.000	0.000	-0.068
-208.450	41.297	0.158	-0.142
-207.436	317.168	0.043	0.081
-206.421	3.512	0.268	0.193
-205.406	659.354	0.072	-0.182
-204.392	-128.944	0.205	-0.028
-203.377	265.803	0.154	0.265
-202.363	-39.966	-0.246	0.127
-201.348	338.596	-0.112	0.215
-200.333	-126.852	-0.109	0.016
-199.319	484.868	0.086	-0.194
-198.304	800.000	-0.084	0.234
-197.290	-69.444	-0.205	0.078
-196.275	222.805	-0.111	-0.176
-195.260	-3.729	-0.071	-0.049
-194.246	-75.427	0.209	-0.074
-193.231	-57.097	0.117	0.051
-192.217	89.975	0.079	-0.087
-191.202	498.079	0.134	0.305
-190.187	-53.565	0.116	0.053
-189.173	52.311	0.130	-0.123
-188.158	-200.000	0.004	-0.191
-187.144	800.000	0.127	-0.381
-186.129	-27.583	0.200	0.115
-185.114	800.000	-0.044	0.139
-184.100	70.810	-0.075	-0.076
-183.085	-4.086	-0.131	-0.090
-182.071	-101.499	-0.117	0.028
-181.056	80.435	-0.200	-0.213
-180.042	-117.631	-0.068	-0.012
-179.027	-200.000	0.011	0.128
-178.012	-129.935	-0.156	0.021
-176.998	-89.448	-0.169	0.049
-175.983	305.633	-0.190	-0.349
-174.969	108.498	0.094	-0.111
-173.954	-47.118	0.131	-0.063
-172.939	142.068	-0.242	0.317
-171.925	-200.000	0.012	0.130
-170.910	800.000	0.100	0.325
-169.896	-78.501	-0.121	-0.041
-168.881	-103.172	-0.154	-0.036
-167.866	68.693	-0.039	0.039
-166.852	448.621	-0.041	0.090
-165.837	-200.000	0.037	0.240
-164.823	800.000	0.025	-0.075
-163.808	15.236	-0.031	0.024
-162.793	-175.435	0.262	-0.007
-161.779	322.726	0.057	0.108
-160.764	103.229	-0.266	-0.308
-159.750	164.939	-0.194	0.270
-158.735	-36.122	-0.069	-0.037
-157.720	779.530	0.109	0.293
-156.706	-10.785	-0.373	0.244
-155.691	-200.000	-0.002	-0.013
-154.677	-26.108	0.189	-0.110
-153.662	-118.710	-0.019	0.003
-152.647	-80.441	-0.260	0.086
-151.633	-71.016	-0.114	0.042
-150.618	-42.814	0.207	0.104
-149.604	74.932	0.190	-0.198
-148.589	4.374	-0.265	0.192
-147.574	-200.000	0.035	0.331
-146.560	527.484	0.079	0.184
-145.545	58.648	0.065	-0.063
-144.531	66.032	0.401	0.402
-143.516	89.913	0.360	0.396
-142.502	-200.000	0.043	-0.293
-141.487	-200.000	-0.011	-0.116
-140.472	-102.636	-0.157	0.037
-139.458	800.000	-0.082	0.327
-138.443	99.279	-0.151	-0.173
-137.429	-6.200	0.338	-0.228
-136.414	171.244	0.139	0.196
-135.399	-26.907	0.176	-0.101
-134.385	800.000	0.108	-0.390
-133.370	375.277	0.061	0.123
-132.356	6.551	-0.042	-0.031
-131.341	104.049	0.169	0.196
-130.326	74.540	0.216	0.224
-129.312	211.195	-0.106	0.165
-128.297	617.908	-0.066	-0.164
-127.283	171.719	-0.212	-0.300
-126.268	28.661	0.210	0.175
-125.253	77.594	-0.205	0.215
-124.239	-200.000	0.026	-0.122
-123.224	-200.000	0.001	0.035
-122.210	274.457	-0.135	0.235
