DTS Sentinel unit serial number:	SN413079Multiplexer serial number:	ORYXHardware model number:	OX4-SRSoftware version number:	ORYX F/W v4.00 Oryx Data Collector v3.7.2.0data status	okinstallation	princeton_trtdifferential loss correction	single-endedforward channel	channel 3reverse channel	N/Adate	2019/09/13time	01:40:35forward acquisition time	60.00reverse acquisition time	0.00gamma	496.2192k internal	0.2334k external	0.2334temperature offset calibration	1.0123default loss term (dB/km)	0.3790temperature slope calibration	1.0000multiplexer offset coefficient	1.0000multiplexer slope coefficient	1.0000fibre end	0.00T internal ref (°C)	27.75T ext. ref 1 (°C)	3.78T ext. ref 2 (°C)	22.39length (m)	temperature (°C)	Stokes	anti-Stokes-747.200	469.337	0.052	0.117
-746.185	142.337	0.062	0.083
-745.171	-200.000	-0.031	0.240
-744.156	-98.806	0.308	-0.079
-743.142	460.266	-0.036	0.080
-742.127	-113.529	-0.325	0.064
-741.112	202.244	-0.168	-0.260
-740.098	59.798	0.261	0.259
-739.083	97.514	-0.295	0.341
-738.069	-200.000	0.019	-0.150
-737.054	-122.638	-0.067	0.011
-736.039	-53.202	-0.180	0.083
-735.025	-163.807	0.432	0.020
-734.010	800.000	-0.029	-0.083
-732.996	-74.791	-0.169	-0.061
-731.981	800.000	0.084	-0.309
-730.966	238.286	-0.069	-0.114
-729.952	81.872	0.118	-0.129
-728.937	800.000	0.015	-0.059
-727.923	268.904	-0.115	-0.203
-726.908	-200.000	-0.003	-0.108
-725.894	-200.000	-0.010	-0.342
-724.879	185.394	0.155	0.232
-723.864	284.445	0.102	0.184
-722.850	108.884	-0.224	-0.269
-721.835	-44.725	-0.190	-0.095
-720.821	88.909	-0.094	0.105
-719.806	99.255	-0.017	0.020
-718.791	800.000	0.109	0.351
-717.777	-173.469	-0.389	-0.012
-716.762	-192.256	-0.294	-0.003
-715.748	-50.823	0.185	0.087
-714.733	-135.633	-0.330	0.039
-713.718	351.448	-0.047	-0.094
-712.704	-7.395	-0.287	0.195
-711.689	109.610	-0.022	-0.026
-710.675	95.251	-0.132	-0.151
-709.660	-200.000	0.046	-0.454
-708.645	-95.827	-0.115	0.031
-707.631	-39.724	0.124	0.065
-706.616	-98.838	-0.057	-0.015
-705.602	-38.414	-0.187	-0.099
-704.587	-54.882	0.181	-0.082
-703.572	-12.114	0.254	-0.167
-702.558	131.519	0.204	0.264
-701.543	-200.000	0.047	0.276
-700.529	8.892	-0.150	0.114
-699.514	800.000	0.008	-0.030
-698.499	-200.000	0.000	-0.093
-697.485	-174.085	-0.573	0.017
-696.470	-200.000	0.008	-0.094
-695.456	-69.503	0.290	-0.112
-694.441	-74.707	0.091	-0.033
-693.426	-3.447	-0.218	-0.152
-692.412	-200.000	-0.020	0.186
-691.397	269.648	-0.121	-0.214
-690.383	30.510	0.101	-0.087
-689.368	-200.000	-0.005	0.042
-688.354	79.917	0.264	0.285
-687.339	800.000	0.084	0.246
-686.324	-200.000	0.035	0.325
-685.310	-200.000	0.137	0.000
-684.295	229.471	-0.104	-0.170
-683.281	-200.000	0.008	-0.126
-682.266	300.272	0.096	-0.178
-681.251	800.000	-0.126	-0.447
-680.237	800.000	-0.093	-0.339
-679.222	707.574	0.056	0.147
-678.208	5.389	-0.318	0.235
-677.193	800.000	-0.076	0.252
-676.178	-147.001	-0.259	-0.022
-675.164	-95.694	-0.330	0.088
-674.149	-115.105	0.259	-0.049
-673.135	-87.964	0.336	-0.101
-672.120	-1.270	-0.320	0.227
-671.105	-128.752	-0.226	0.032
-670.091	41.974	0.137	-0.124
-669.076	-106.366	-0.292	0.065
-668.062	369.228	-0.113	-0.229
-667.047	161.706	0.199	-0.279
-666.032	-36.655	-0.214	0.115
-665.018	-58.892	0.170	-0.074
-664.003	-96.330	-0.203	-0.054
-662.989	-200.000	0.009	0.306
-661.974	-122.125	0.483	-0.079
-660.959	172.503	0.228	0.329
-659.945	-126.768	0.239	-0.035
-658.930	-190.435	0.211	-0.002
-657.916	21.054	-0.067	0.054
-656.901	281.205	-0.184	0.331
-655.886	-35.987	0.332	0.180
-654.872	-145.196	0.094	-0.009
-653.857	44.307	0.205	-0.189
-652.843	10.822	0.205	-0.157
-651.828	-200.000	0.021	-0.097
-650.814	122.069	0.052	-0.065
-649.799	-69.956	-0.040	-0.015
-648.784	18.879	0.160	-0.128
-647.770	44.645	0.109	-0.101
-646.755	-33.048	0.052	0.029
-645.741	-200.000	-0.380	0.001
-644.726	-7.698	0.409	0.277
-643.711	-34.031	-0.395	-0.217
-642.697	-35.889	0.207	-0.112
-641.682	-77.112	-0.232	0.081
-640.668	14.236	-0.237	-0.185
-639.653	-200.000	-0.040	0.202
-638.638	347.800	0.104	0.205
-637.624	-200.000	0.054	0.359
-636.609	800.000	-0.084	-0.275
-635.595	-9.981	0.218	-0.145
-634.580	41.530	0.145	-0.131
-633.565	60.907	0.135	-0.134
-632.551	-180.822	0.047	0.001
-631.536	-75.321	-0.088	-0.031
-630.522	124.111	0.012	0.015
-629.507	-200.000	-0.018	0.128
-628.492	57.784	-0.044	-0.043
-627.478	94.037	-0.176	0.200
-626.463	-9.368	0.124	-0.083
-625.449	-39.559	-0.172	0.090
-624.434	-15.295	0.301	0.193
-623.419	156.376	0.133	-0.183
-622.405	228.193	0.123	-0.200
-621.390	385.234	-0.028	0.057
-620.376	161.129	-0.239	-0.334
-619.361	105.339	-0.226	-0.267
-618.346	-59.117	-0.234	-0.101
-617.332	-79.361	-0.273	-0.092
-616.317	-15.974	-0.187	0.119
-615.303	-200.000	-0.026	0.278
-614.288	399.429	-0.231	0.485
-613.273	-148.061	0.538	-0.045
-612.259	-200.000	-0.007	-0.330
-611.244	496.360	-0.084	-0.193
-610.230	-200.000	-0.014	-0.367
-609.215	4.420	-0.098	-0.072
-608.201	89.432	0.150	-0.167
-607.186	-173.311	0.249	0.008
-606.171	-200.000	0.028	0.282
-605.157	-146.392	-0.212	-0.019
-604.142	-200.000	0.004	-0.232
-603.128	-200.000	0.013	0.331
-602.113	-67.950	-0.172	-0.067
-601.098	74.423	0.233	-0.245
-600.084	102.954	-0.109	-0.128
-599.069	193.684	0.196	0.296
-598.055	-93.599	-0.408	-0.113
-597.040	-35.789	0.171	-0.093
-596.025	-27.584	0.299	0.174
-595.011	-19.783	-0.316	0.195
-593.996	-200.000	0.055	-0.314
-592.982	-170.438	0.361	-0.013
-591.967	-200.000	-0.042	0.427
-590.952	-24.324	-0.157	-0.094
-589.938	730.703	0.063	0.169
-588.923	313.472	-0.158	-0.298
-587.909	157.033	-0.053	0.073
-586.894	-46.317	0.127	0.062
-585.879	283.250	-0.130	0.234
-584.865	800.000	-0.022	0.077
-583.850	-30.802	-0.120	-0.068
-582.836	23.245	-0.237	0.194
-581.821	-70.144	-0.172	0.065
-580.806	21.940	0.139	-0.113
-579.792	194.328	0.069	0.105
-578.777	94.026	-0.152	-0.172
-577.763	257.566	-0.069	-0.119
-576.748	-1.198	0.181	-0.128
-575.733	713.163	-0.069	-0.182
-574.719	149.154	-0.108	-0.146
-573.704	-200.000	-0.025	-0.161
-572.690	67.701	-0.148	-0.151
-571.675	-200.000	0.006	0.260
-570.661	650.263	0.047	0.120
-569.646	-170.100	0.136	0.005
-568.631	-15.880	-0.050	-0.032
-567.617	-200.000	-0.037	0.220
-566.602	-200.000	-0.015	0.369
-565.588	80.705	0.162	-0.174
-564.573	201.098	-0.182	-0.280
-563.558	800.000	-0.010	0.031
-562.544	-116.040	0.144	0.027
-561.529	-11.152	0.328	0.216
-560.515	-200.000	0.053	-0.654
-559.500	-200.000	0.035	-0.310
-558.485	210.376	-0.022	0.035
-557.471	394.461	0.125	0.260
-556.456	-200.000	-0.046	-0.226
-555.442	-109.210	0.205	-0.043
-554.427	-134.187	-0.416	0.051
-553.412	-155.794	-0.069	0.004
-552.398	-127.984	-0.044	-0.006
-551.383	-200.000	-0.035	-0.215
-550.369	-200.000	-0.067	-0.297
-549.354	800.000	0.069	0.241
-548.339	800.000	-0.055	-0.198
-547.325	-93.613	-0.253	0.070
-546.310	-200.000	-0.020	0.122
-545.296	-11.227	-0.342	-0.225
-544.281	-101.906	0.231	0.056
-543.266	-44.391	0.160	0.080
-542.252	397.229	-0.185	0.387
-541.237	-97.654	-0.371	-0.096
-540.223	153.313	0.058	0.079
-539.208	206.579	-0.024	0.037
-538.193	103.053	-0.117	-0.137
-537.179	-187.770	-0.131	-0.002
-536.164	87.663	-0.207	0.228
-535.150	267.868	-0.228	0.398
-534.135	67.094	-0.103	-0.105
-533.121	47.102	-0.169	-0.156
-532.106	-29.252	0.128	-0.073
-531.091	44.626	0.097	0.089
-530.077	-61.024	-0.272	-0.115
-529.062	-87.757	0.278	-0.084
-528.048	37.190	0.084	-0.074
-527.033	775.737	-0.055	0.150
-526.018	138.504	-0.076	0.099
-525.004	-200.000	0.013	-0.106
-523.989	119.325	-0.064	0.079
-522.975	220.320	0.188	-0.300
-521.960	16.994	-0.137	0.108
-520.945	800.000	0.110	0.325
-519.931	61.264	-0.233	0.231
-518.916	338.933	-0.078	-0.150
-517.902	-51.516	0.119	-0.055
-516.887	-56.923	-0.053	0.023
-515.872	-15.563	-0.208	0.132
-514.858	42.701	0.060	-0.055
-513.843	213.818	0.089	-0.140
-512.829	-115.184	-0.071	-0.013
-511.814	-108.455	0.418	-0.090
-510.799	-113.798	0.140	-0.027
-509.785	236.876	-0.132	-0.218
-508.770	-200.000	0.007	-0.456
-507.756	-200.000	0.015	-0.192
-506.741	800.000	0.123	-0.386
-505.726	523.375	0.075	0.175
-504.712	-120.971	-0.214	0.036
-503.697	-81.751	0.088	0.029
-502.683	442.930	-0.032	0.069
-501.668	-86.757	-0.236	0.072
-500.653	101.299	0.127	-0.147
-499.639	124.989	0.197	-0.247
-498.624	71.847	-0.238	0.247
-497.610	800.000	0.014	0.049
-496.595	-57.408	0.205	-0.090
-495.581	-200.000	0.058	0.363
-494.566	19.170	0.217	-0.174
-493.551	-71.669	-0.312	-0.116
-492.537	80.249	-0.208	-0.223
-491.522	-85.420	-0.232	0.072
-490.508	-0.411	0.091	-0.064
-489.493	35.749	-0.020	-0.017
-488.478	87.794	0.061	0.067
-487.464	54.257	-0.242	-0.232
-486.449	21.942	0.211	0.172
-485.435	280.187	-0.158	-0.280
-484.420	21.992	-0.312	0.253
-483.405	-30.524	0.332	0.187
-482.391	111.883	-0.118	-0.141
-481.376	-53.561	0.332	0.151
-480.362	130.400	0.131	0.167
-479.347	-200.000	0.025	0.111
-478.332	-170.232	-0.044	0.002
-477.318	8.847	-0.147	-0.110
-476.303	-177.031	0.181	0.005
-475.289	458.548	-0.082	-0.180
-474.274	234.114	0.035	0.058
-473.259	673.530	-0.155	-0.399
-472.245	-200.000	-0.038	0.180
-471.230	-112.890	-0.273	0.054
-470.216	-112.678	-0.126	-0.025
-469.201	251.544	-0.123	0.207
-468.186	186.449	-0.184	-0.272
-467.172	-62.446	0.341	0.141
-466.157	645.534	0.093	-0.236
-465.143	-114.144	0.309	-0.059
-464.128	-200.000	0.038	0.267
-463.113	-200.000	0.009	0.053
-462.099	-13.615	-0.195	-0.125
-461.084	-35.412	0.260	-0.141
-460.070	508.341	0.055	-0.126
-459.055	268.959	-0.098	-0.170
-458.040	141.838	0.174	0.229
-457.026	-98.165	-0.134	-0.034
-456.011	783.119	0.080	0.219
-454.997	-188.895	0.148	0.002
-453.982	-200.000	-0.037	0.174
-452.968	800.000	-0.075	0.259
-451.953	238.129	-0.156	-0.257
-450.938	-38.189	0.015	-0.008
-449.924	445.557	-0.093	0.204
-448.909	250.157	-0.146	-0.246
-447.895	-109.426	0.173	-0.036
-446.880	-112.300	-0.174	0.035
-445.865	412.888	0.066	-0.139
-444.851	-95.841	0.071	0.019
-443.836	-56.554	-0.046	-0.020
-442.822	-179.846	-0.425	0.009
-441.807	-70.591	-0.051	-0.019
-440.792	123.543	-0.238	0.297
-439.778	-49.441	0.130	0.062
-438.763	-42.254	0.314	-0.159
-437.749	-135.130	-0.392	-0.047
-436.734	203.343	-0.169	0.259
-435.719	28.913	-0.234	0.197
-434.705	800.000	0.027	0.083
-433.690	-160.378	0.274	-0.015
-432.676	51.675	-0.269	-0.254
-431.661	800.000	-0.110	0.330
-430.646	338.352	-0.065	-0.125
-429.632	-92.779	0.350	0.097
-428.617	-81.163	0.015	-0.005
-427.603	435.085	-0.139	0.300
-426.588	-57.520	0.158	0.069
-425.573	596.555	0.076	-0.188
-424.559	-6.633	-0.273	0.184
-423.544	28.086	-0.169	-0.142
-422.530	29.260	0.122	0.103
-421.515	800.000	0.078	0.309
-420.500	208.252	0.039	-0.060
-419.486	314.579	0.210	0.393
-418.471	-200.000	0.005	0.101
-417.457	409.244	0.090	-0.190
-416.442	-200.000	0.033	-0.316
-415.428	76.699	-0.269	-0.283
-414.413	176.881	-0.189	0.273
-413.398	-200.000	-0.028	0.267
-412.384	143.775	-0.045	-0.059
-411.369	417.973	0.152	-0.323
-410.355	10.074	-0.232	-0.175
-409.340	-200.000	0.025	0.131
-408.325	30.689	0.166	-0.141
-407.311	109.446	0.264	0.314
-406.296	800.000	0.090	0.357
-405.282	149.837	0.122	-0.164
-404.267	657.511	-0.072	0.184
-403.252	-75.461	-0.258	0.091
-402.238	800.000	-0.045	0.135
-401.223	800.000	-0.102	0.300
-400.209	433.669	-0.137	0.295
-399.194	77.152	0.099	-0.105
-398.179	146.380	0.154	-0.205
-397.165	238.550	-0.114	0.189
-396.150	170.309	-0.108	-0.154
-395.136	-96.936	-0.349	0.091
-394.121	178.433	-0.009	-0.013
-393.106	-85.960	0.085	-0.026
-392.092	294.089	0.157	0.284
-391.077	-124.655	0.517	-0.079
-390.063	-200.000	0.031	0.180
-389.048	800.000	0.049	0.169
-388.033	95.898	-0.222	0.251
-387.019	-141.599	-0.154	0.015
-386.004	138.091	-0.105	-0.137
-384.990	580.867	0.142	0.345
-383.975	394.977	-0.086	0.179
-382.960	-1.507	-0.391	0.273
-381.946	-170.308	0.217	0.008
-380.931	-200.000	-0.009	-0.087
-379.917	-123.889	0.085	0.013
-378.902	-132.369	0.125	0.016
-377.888	-200.000	0.003	-0.116
-376.873	-94.219	-0.109	-0.030
-375.858	-200.000	0.015	-0.078
-374.844	-174.716	0.087	0.002
-373.829	-200.000	0.056	-0.296
-372.815	-126.969	0.069	0.010
-371.800	-200.000	-0.031	0.494
-370.785	5.515	-0.353	-0.258
-369.771	-71.076	0.114	-0.043
-368.756	-50.294	0.356	-0.167
-367.742	-200.000	0.015	0.101
-366.727	-42.892	-0.155	0.078
-365.712	-51.069	-0.345	-0.160
-364.698	-99.981	0.201	0.050
-363.683	69.751	-0.117	0.119
-362.669	105.805	0.087	-0.102
-361.654	15.065	0.338	0.262
-360.639	-200.000	-0.011	-0.130
-359.625	788.385	-0.072	-0.195
-358.610	-200.000	0.006	0.246
-357.596	37.895	0.085	-0.074
-356.581	-149.697	-0.212	0.017
-355.566	-84.461	0.092	0.029
-354.552	-107.235	-0.175	0.038
-353.537	-200.000	0.014	0.163
-352.523	388.863	0.056	-0.115
-351.508	22.232	-0.157	0.127
-350.493	-200.000	0.011	0.131
-349.479	46.499	0.083	-0.076
-348.464	-139.695	0.044	-0.005
-347.450	-65.419	0.395	0.157
-346.435	338.077	0.124	0.239
-345.420	-200.000	-0.075	-0.445
-344.406	-94.032	-0.414	0.112
-343.391	-138.833	-0.071	-0.008
-342.377	-200.000	-0.064	0.279
-341.362	-200.000	0.034	0.177
-340.348	65.021	0.235	-0.235
-339.333	-153.030	0.366	0.026
-338.318	-200.000	-0.008	-0.034
-337.304	210.255	0.183	-0.284
-336.289	6.417	-0.063	-0.046
-335.275	569.252	0.065	0.155
-334.260	-200.000	-0.009	0.212
-333.245	-200.000	0.032	-0.163
-332.231	26.118	-0.295	0.244
-331.216	55.377	0.112	-0.107
-330.202	80.312	0.147	-0.157
-329.187	-20.208	-0.163	0.099
-328.172	519.623	0.089	-0.206
-327.158	-200.000	-0.005	0.081
-326.143	-86.956	-0.196	0.059
-325.129	-3.800	-0.255	0.175
-324.114	-88.275	0.250	-0.074
-323.099	-78.697	-0.120	0.041
-322.085	-104.532	-0.131	-0.030
-321.070	453.891	0.131	-0.287
-320.056	765.170	-0.085	-0.229
-319.041	88.430	0.243	-0.266
-318.026	-39.254	0.146	0.076
-317.012	-65.654	-0.094	-0.037
-315.997	247.743	0.132	0.221
-314.983	-113.422	-0.048	-0.009
-313.968	-99.353	0.355	-0.088
-312.953	-127.860	0.074	0.011
-311.939	-59.244	-0.240	0.102
-310.924	-200.000	0.024	0.268
-309.910	-49.518	0.171	0.081
-308.895	-21.867	0.210	0.127
-307.880	-141.640	-0.522	0.052
-306.866	800.000	-0.032	0.121
-305.851	-145.830	0.266	0.023
-304.837	-200.000	-0.038	0.309
-303.822	-200.000	-0.008	-0.063
-302.807	800.000	-0.011	0.045
-301.793	123.652	-0.127	-0.157
-300.778	800.000	-0.086	-0.327
-299.764	-39.290	-0.073	0.038
-298.749	349.286	-0.183	0.357
-297.735	21.331	-0.391	0.314
-296.720	-184.015	-0.376	-0.006
-295.705	-200.000	0.028	-0.395
-294.691	179.659	-0.132	0.190
-293.676	596.013	0.135	-0.329
-292.662	113.550	-0.118	0.141
-291.647	-57.316	0.211	-0.092
-290.632	-200.000	-0.011	-0.327
-289.618	73.055	0.269	0.278
-288.603	-200.000	-0.066	-0.318
-287.589	800.000	0.029	0.084
-286.574	10.531	0.133	-0.100
-285.559	-76.028	0.208	0.073
-284.545	-10.840	0.153	-0.099
-283.530	245.387	-0.123	-0.204
-282.516	456.842	-0.055	0.121
-281.501	800.000	-0.086	0.284
-280.486	-200.000	-0.035	0.387
-279.472	-155.091	-0.290	-0.019
-278.457	800.000	-0.076	-0.248
-277.443	23.947	-0.214	-0.174
-276.428	-7.104	0.183	0.123
-275.413	-144.816	-0.214	0.019
-274.399	261.880	0.078	-0.133
-273.384	-116.563	0.192	-0.035
-272.370	150.002	0.123	0.165
-271.355	-94.435	0.065	-0.018
-270.340	16.677	-0.198	0.155
-269.326	-32.609	-0.281	0.154
-268.311	-45.580	0.293	-0.143
-267.297	-107.156	-0.186	-0.040
-266.282	772.238	-0.046	0.123
-265.267	-67.650	0.532	-0.205
-264.253	800.000	0.090	-0.245
-263.238	-134.367	-0.121	0.015
-262.224	-41.889	0.194	0.098
-261.209	-57.472	-0.430	0.186
-260.195	133.407	0.052	0.066
-259.180	-159.113	-0.116	0.006
-258.165	56.367	0.370	0.355
-257.151	-200.000	0.019	0.153
-256.136	-124.656	0.349	-0.053
-255.122	-200.000	-0.054	-0.341
-254.107	341.954	0.134	-0.259
-253.092	-200.000	-0.041	0.444
-252.078	-200.000	-0.012	-0.118
-251.063	8.658	-0.163	0.121
-250.049	51.784	0.334	-0.314
-249.034	-20.229	0.411	-0.250
-248.019	628.114	0.032	-0.079
-247.005	-200.000	-0.001	-0.087
-245.990	-200.000	0.083	0.480
-244.976	277.641	0.073	-0.128
-243.961	-126.156	0.110	-0.016
-242.946	-200.000	0.005	-0.075
-241.932	-104.802	-0.077	0.017
-240.917	800.000	-0.074	-0.233
-239.903	800.000	-0.077	-0.296
-238.888	-128.181	-0.141	0.020
-237.873	-200.000	-0.008	-0.206
-236.859	118.757	0.046	-0.056
-235.844	800.000	0.050	0.185
-234.830	84.902	-0.107	-0.116
-233.815	-99.108	-0.065	-0.016
-232.800	469.753	-0.144	-0.318
-231.786	183.396	-0.175	0.255
-230.771	-200.000	-0.060	-0.266
-229.757	-137.624	-0.178	0.020
-228.742	178.052	0.072	0.103
-227.727	389.672	-0.080	-0.164
-226.713	-200.000	0.016	-0.202
-225.698	800.000	-0.072	0.210
-224.684	-35.597	0.146	-0.078
-223.669	423.877	-0.010	-0.020
-222.655	-113.566	0.119	-0.023
-221.640	258.553	0.074	0.125
-220.625	-128.416	0.278	0.039
-219.611	163.380	0.075	-0.103
-218.596	-200.000	0.000	0.211
-217.582	-200.000	0.014	0.227
-216.567	148.475	0.210	-0.280
-215.552	167.070	0.097	-0.136
-214.538	-200.000	-0.008	0.053
-213.523	701.067	0.043	0.111
-212.509	-63.744	0.277	0.112
-211.494	-121.142	0.313	-0.052
-210.479	-30.172	0.197	0.110
-209.465	-147.454	0.160	-0.013
-208.450	251.293	0.026	-0.043
-207.436	-200.000	0.029	0.411
-206.421	-200.000	-0.173	-0.751
-205.406	800.000	0.025	-0.095
-204.392	-83.875	-0.145	-0.045
-203.377	487.864	-0.103	-0.230
-202.363	800.000	0.048	0.153
-201.348	-99.885	-0.267	-0.066
-200.333	800.000	0.019	0.060
-199.319	800.000	-0.085	0.320
-198.304	800.000	-0.073	0.271
-197.290	31.254	0.155	0.131
-196.275	435.419	-0.066	0.141
-195.260	800.000	-0.073	0.203
-194.246	6.557	-0.127	-0.093
-193.231	105.721	-0.238	0.277
-192.217	61.469	0.184	0.180
-191.202	-200.000	-0.022	-0.140
-190.187	800.000	-0.050	0.201
-189.173	-146.621	-0.332	-0.028
-188.158	-179.625	0.128	0.003
-187.144	-25.758	0.131	0.076
-186.129	40.281	0.232	0.205
-185.114	562.418	0.085	0.203
-184.100	-154.913	0.225	0.015
-183.085	-49.572	0.239	-0.112
-182.071	-50.874	0.114	0.053
-181.056	-24.741	0.194	-0.114
-180.042	432.889	0.045	0.097
-179.027	131.837	0.194	-0.246
-178.012	160.669	0.162	0.222
-176.998	-200.000	-0.034	-0.299
-175.983	-53.604	-0.379	-0.170
-174.969	-200.000	0.001	-0.201
-173.954	-94.963	0.267	-0.071
-172.939	-57.045	0.351	-0.152
-171.925	-82.410	0.116	-0.037
-170.910	672.196	-0.034	0.086
-169.896	363.361	-0.112	-0.222
-168.881	16.903	0.247	-0.192
-167.866	339.608	0.150	-0.288
-166.852	-91.320	0.102	0.029
-165.837	-97.188	-0.090	0.023
-164.823	311.375	-0.099	-0.183
-163.808	-110.441	-0.498	0.102
-162.793	139.805	-0.228	-0.295
-161.779	302.492	-0.196	0.356
-160.764	5.155	0.451	-0.327
-159.750	6.829	0.026	-0.019
-158.735	-98.823	-0.122	0.031
-157.720	180.859	-0.169	-0.244
-156.706	800.000	0.085	0.286
-155.691	5.864	0.132	-0.096
-154.677	39.355	0.310	-0.272
-153.662	-128.882	0.221	0.030
-152.647	251.242	0.190	0.317
-151.633	33.199	0.170	-0.145
-150.618	-30.216	0.032	0.018
-149.604	-69.878	-0.214	-0.080
-148.589	-67.330	-0.585	-0.226
-147.574	-200.000	0.010	0.080
-146.560	-200.000	-0.020	-0.158
-145.545	-200.000	0.043	-0.278
-144.531	487.158	0.032	-0.071
-143.516	-51.556	0.065	-0.030
-142.502	-68.767	-0.084	0.032
-141.487	10.603	0.220	0.165
-140.472	-145.426	0.247	-0.022
-139.458	-77.436	-0.138	-0.047
-138.443	54.553	-0.063	-0.059
-137.429	-33.680	0.285	0.154
-136.414	-136.322	0.139	-0.016
-135.399	-86.119	0.193	0.059
-134.385	-138.662	0.164	0.018
-133.370	-124.625	0.186	-0.028
-132.356	122.532	0.200	0.245
-131.341	-144.262	-0.223	-0.020
-130.326	48.195	0.084	0.077
-129.312	-27.685	0.140	-0.080
-128.297	192.684	0.077	0.115
-127.283	800.000	0.118	0.323
-126.268	23.768	0.281	-0.227
-125.253	246.504	-0.212	-0.352
-124.239	-47.552	-0.251	0.120
-123.224	-200.000	-0.208	-0.001
-122.210	262.992	0.191	-0.326
-121.195	-200.000	-0.042	-0.214
