DTS Sentinel unit serial number:	SN413079Multiplexer serial number:	ORYXHardware model number:	OX4-SRSoftware version number:	ORYX F/W v4.00 Oryx Data Collector v3.7.2.0data status	okinstallation	princeton_trtdifferential loss correction	single-endedforward channel	channel 3reverse channel	N/Adate	2019/09/11time	18:50:11forward acquisition time	60.00reverse acquisition time	0.00gamma	496.2192k internal	0.2290k external	0.2290temperature offset calibration	1.0001default loss term (dB/km)	0.3790temperature slope calibration	1.0000multiplexer offset coefficient	1.0000multiplexer slope coefficient	1.0000fibre end	0.00T internal ref (°C)	42.94T ext. ref 1 (°C)	1.23T ext. ref 2 (°C)	35.03length (m)	temperature (°C)	Stokes	anti-Stokes-747.200	-67.762	-0.255	0.102
-746.185	-52.197	0.119	-0.057
-745.171	35.945	0.159	0.143
-744.156	-200.000	-0.005	0.284
-743.142	800.000	0.106	0.383
-742.127	239.949	-0.221	0.378
-741.112	31.103	0.080	0.070
-740.098	800.000	0.102	0.380
-739.083	-47.814	0.252	-0.125
-738.069	-127.652	0.161	0.024
-737.054	-36.225	0.057	-0.031
-736.039	-200.000	0.034	-0.293
-735.025	260.757	-0.093	0.165
-734.010	-43.074	0.444	0.231
-732.996	43.473	-0.166	-0.155
-731.981	800.000	-0.035	-0.156
-730.966	-46.595	0.398	0.200
-729.952	-75.444	-0.271	0.099
-728.937	-50.795	-0.061	0.029
-727.923	-200.000	0.008	-0.155
-726.908	-112.612	-0.381	-0.078
-725.894	-61.924	-0.013	0.006
-724.879	-200.000	-0.000	-0.255
-723.864	-200.000	0.147	0.001
-722.850	66.377	0.302	0.314
-721.835	742.870	0.055	0.151
-720.821	-97.238	-0.448	-0.120
-719.806	-200.000	0.001	-0.581
-718.791	-83.343	-0.095	-0.031
-717.777	-200.000	0.036	0.229
-716.762	-102.820	0.296	-0.072
-715.748	-200.000	0.019	0.094
-714.733	162.412	0.227	-0.326
-713.718	37.684	-0.165	-0.150
-712.704	433.405	-0.078	-0.173
-711.689	159.348	-0.106	-0.151
-710.675	442.726	0.014	-0.031
-709.660	-87.356	-0.193	0.060
-708.645	-155.309	-0.214	-0.014
-707.631	74.842	-0.243	-0.262
-706.616	800.000	-0.090	0.376
-705.602	603.870	0.090	-0.229
-704.587	310.789	0.050	0.095
-703.572	513.737	-0.046	-0.110
-702.558	-26.603	-0.197	-0.118
-701.543	-52.589	-0.234	0.111
-700.529	182.732	-0.168	0.253
-699.514	-80.650	-0.253	0.086
-698.499	-139.785	0.043	0.005
-697.485	-200.000	0.040	0.201
-696.470	-11.864	-0.258	-0.173
-695.456	-145.017	0.297	-0.028
-694.441	-139.766	0.287	0.031
-693.426	209.427	0.167	0.268
-692.412	800.000	-0.051	-0.204
-691.397	-117.133	0.038	0.007
-690.383	79.284	0.053	0.059
-689.368	-41.412	0.030	0.016
-688.354	800.000	-0.076	0.254
-687.339	172.572	0.196	0.288
-686.324	-99.331	0.156	0.040
-685.310	-25.134	-0.103	0.062
-684.295	-4.111	0.317	0.224
-683.281	-183.490	-0.308	0.005
-682.266	-200.000	-0.018	-0.241
-681.251	175.625	-0.156	-0.232
-680.237	-32.910	0.283	0.161
-679.222	512.485	-0.029	-0.069
-678.208	51.072	-0.102	0.099
-677.193	-200.000	0.027	0.298
-676.178	-199.900	0.177	0.001
-675.164	-200.000	0.028	-0.174
-674.149	61.147	-0.230	-0.233
-673.135	147.474	0.227	0.312
-672.120	217.271	0.365	0.593
-671.105	800.000	0.046	-0.203
-670.091	100.303	-0.104	-0.123
-669.076	503.851	-0.125	-0.297
-668.062	-16.174	-0.244	0.158
-667.047	98.151	-0.051	0.060
-666.032	-126.110	0.370	0.057
-665.018	245.530	0.071	0.122
-664.003	-91.169	-0.389	-0.114
-662.989	800.000	-0.121	-0.366
-661.974	19.534	-0.149	-0.122
-660.959	-60.492	0.044	0.019
-659.945	32.316	-0.270	-0.238
-658.930	95.769	0.135	-0.157
-657.916	-89.228	0.142	0.043
-656.901	55.551	-0.034	0.033
-655.886	800.000	-0.075	0.250
-654.872	283.344	-0.155	-0.283
-653.857	20.889	0.185	-0.153
-652.843	41.108	-0.236	-0.218
-651.828	745.888	-0.030	-0.081
-650.814	-76.311	0.102	0.037
-649.799	-119.986	0.212	0.037
-648.784	-49.166	0.197	-0.096
-647.770	-140.659	-0.180	0.019
-646.755	368.930	-0.138	-0.285
-645.741	-21.413	0.327	-0.204
-644.726	-117.699	0.404	0.074
-643.711	-43.427	-0.169	-0.087
-642.697	800.000	-0.071	-0.205
-641.682	800.000	0.072	-0.228
-640.668	800.000	-0.069	-0.197
-639.653	-123.462	0.304	0.049
-638.638	-83.061	-0.284	0.093
-637.624	706.019	-0.024	-0.065
-636.609	-200.000	0.030	-0.140
-635.595	76.299	0.061	-0.066
-634.580	-200.000	0.009	-0.334
-633.565	-162.002	-0.055	-0.003
-632.551	79.568	-0.104	0.114
-631.536	2.589	-0.245	-0.181
-630.522	83.697	0.254	-0.283
-629.507	-114.229	-0.431	-0.085
-628.492	800.000	0.060	-0.191
-627.478	491.656	-0.101	-0.235
-626.463	-124.750	-0.172	-0.027
-625.449	800.000	0.088	0.298
-624.434	-162.004	-0.091	-0.005
-623.419	308.228	0.137	-0.260
-622.405	-61.776	-0.118	0.050
-621.390	800.000	0.013	-0.039
-620.376	50.110	0.239	-0.230
-619.361	420.827	0.142	-0.311
-618.346	-38.276	0.031	-0.017
-617.332	-200.000	-0.182	-0.001
-616.317	-84.787	-0.032	0.010
-615.303	-125.576	-0.293	-0.045
-614.288	-22.068	-0.213	-0.132
-613.273	-18.579	-0.148	-0.094
-612.259	123.448	0.251	-0.321
-611.244	176.491	-0.160	0.238
-610.230	12.370	0.365	-0.287
-609.215	291.037	0.044	0.081
-608.201	590.617	0.075	-0.188
-607.186	85.091	-0.160	-0.179
-606.171	115.360	0.130	-0.162
-605.157	800.000	0.034	0.146
-604.142	-159.570	-0.072	-0.004
-603.128	-75.500	-0.436	-0.158
-602.113	771.776	0.048	-0.133
-601.098	-200.000	-0.006	-0.088
-600.084	-107.250	-0.165	-0.037
-599.069	-200.000	-0.014	-0.134
-598.055	507.995	0.025	-0.059
-597.040	35.122	0.169	0.151
-596.025	-200.000	-0.004	-0.178
-595.011	17.000	0.085	0.069
-593.996	-15.283	-0.046	-0.030
-592.982	-165.188	0.280	-0.013
-591.967	-155.984	-0.017	-0.001
-590.952	-116.962	-0.168	0.031
-589.938	1.983	0.182	0.133
-588.923	-35.564	-0.151	0.083
-587.909	-75.679	-0.301	0.109
-586.894	509.748	0.209	-0.496
-585.879	-200.000	-0.000	0.134
-584.865	132.959	-0.149	-0.196
-583.850	-200.000	0.019	-0.085
-582.836	-154.783	0.317	0.021
-581.821	-69.793	-0.306	-0.119
-580.806	221.709	-0.043	0.071
-579.792	531.099	0.040	0.097
-578.777	-95.595	0.289	-0.079
-577.763	173.368	0.262	-0.384
-576.748	800.000	-0.035	0.117
-575.733	-49.057	-0.267	-0.130
-574.719	800.000	-0.026	-0.114
-573.704	-200.000	0.017	-0.262
-572.690	800.000	0.039	-0.168
-571.675	-4.207	-0.236	0.166
-570.661	107.697	0.051	-0.061
-569.646	207.727	0.084	-0.134
-568.631	189.886	-0.080	-0.122
-567.617	12.687	-0.115	0.090
-566.602	-44.001	-0.137	0.070
-565.588	68.753	0.114	0.119
-564.573	800.000	-0.043	0.170
-563.558	-67.900	-0.245	-0.097
-562.544	-149.311	-0.210	-0.017
-561.529	167.580	-0.109	-0.158
-560.515	-58.426	0.148	-0.065
-559.500	217.368	-0.122	0.198
-558.485	216.887	0.091	-0.147
-557.471	-200.000	0.029	-0.201
-556.456	481.812	0.056	0.129
-555.442	92.872	0.154	0.177
-554.427	104.837	-0.118	0.141
-553.412	-140.241	-0.434	-0.046
-552.398	-9.316	-0.208	-0.141
-551.383	15.161	0.235	0.188
-550.369	94.938	0.096	-0.111
-549.354	-200.000	0.016	-0.390
-548.339	362.777	-0.177	-0.361
-547.325	-200.000	-0.022	-0.309
-546.310	-165.162	-0.198	-0.009
-545.296	-200.000	-0.001	-0.132
-544.281	-200.000	0.004	0.042
-543.266	360.001	0.157	-0.319
-542.252	65.090	0.294	0.302
-541.237	-200.000	-0.008	0.112
-540.223	430.774	-0.110	0.242
-539.208	-47.933	0.036	-0.018
-538.193	-17.558	-0.202	0.129
-537.179	426.272	-0.135	-0.296
-536.164	-49.993	-0.145	-0.070
-535.150	243.351	-0.136	0.231
-534.135	-47.636	0.106	-0.052
-533.121	-75.735	0.066	0.024
-532.106	-74.117	-0.024	0.009
-531.091	-42.590	-0.113	-0.059
-530.077	-31.146	0.160	0.091
-529.062	15.011	-0.149	-0.119
-528.048	-200.000	-0.023	-0.128
-527.033	243.082	-0.098	0.166
-526.018	-93.767	0.079	0.022
-525.004	-22.262	0.302	-0.186
-523.989	-200.000	0.009	0.120
-522.975	-200.000	-0.013	0.067
-521.960	-119.829	0.053	-0.009
-520.945	-39.048	0.179	0.095
-519.931	-74.588	-0.387	0.141
-518.916	-120.925	-0.293	0.050
-517.902	-21.127	-0.244	0.151
-516.887	-140.007	-0.088	0.009
-515.872	-200.000	0.011	-0.061
-514.858	7.620	0.156	0.119
-513.843	800.000	0.059	0.240
-512.829	-69.225	0.341	0.133
-511.814	183.112	0.101	-0.151
-510.799	-153.566	0.283	0.020
-509.785	-58.122	0.098	-0.043
-508.770	-104.823	-0.203	0.047
-507.756	-200.000	-0.016	-0.099
-506.741	-37.940	0.073	0.039
-505.726	-117.884	0.042	-0.008
-504.712	-200.000	-0.013	0.274
-503.697	-200.000	-0.005	-0.124
-502.683	-81.795	-0.082	0.027
-501.668	800.000	-0.021	-0.068
-500.653	123.504	-0.172	0.219
-499.639	50.579	-0.176	-0.169
-498.624	-81.782	-0.492	-0.164
-497.610	512.934	0.025	-0.060
-496.595	-127.737	0.467	0.068
-495.581	70.183	-0.118	0.123
-494.566	-184.423	-0.425	-0.007
-493.551	202.808	0.191	0.299
-492.537	74.438	0.136	0.145
-491.522	-173.826	0.312	0.009
-490.508	95.938	0.181	-0.210
-489.493	113.522	-0.141	-0.174
-488.478	-115.889	0.080	0.015
-487.464	-40.704	-0.048	-0.025
-486.449	-156.865	0.085	0.005
-485.435	16.071	-0.294	0.235
-484.420	-90.433	-0.132	-0.039
-483.405	-162.642	0.307	-0.015
-482.391	-25.414	0.071	0.043
-481.376	-200.000	0.059	0.351
-480.362	-135.663	-0.252	-0.030
-479.347	-90.140	0.218	-0.064
-478.332	-200.000	-0.041	-0.449
-477.318	-28.605	-0.060	0.035
-476.303	-45.767	0.152	-0.076
-475.289	-200.000	0.038	0.173
-474.274	171.789	0.255	0.372
-473.259	180.863	-0.099	0.147
-472.245	348.070	-0.134	0.268
-471.230	175.030	0.165	0.242
-470.216	403.968	-0.040	-0.085
-469.201	58.362	0.241	-0.239
-468.186	326.792	-0.041	-0.080
-467.172	-171.895	-0.090	0.003
-466.157	-113.947	-0.280	-0.055
-465.143	-64.530	-0.379	-0.156
-464.128	1.503	0.312	0.228
-463.113	-200.000	-0.021	0.447
-462.099	-200.000	-0.032	0.190
-461.084	375.953	0.084	0.174
-460.070	-47.922	0.226	0.111
-459.055	-200.000	-0.005	-0.173
-458.040	170.647	-0.158	0.229
-457.026	-179.082	0.287	-0.007
-456.011	800.000	-0.095	-0.310
-454.997	-9.484	-0.048	-0.033
-453.982	-130.799	-0.275	0.037
-452.968	-31.659	-0.164	-0.093
-451.953	-38.796	0.234	0.125
-450.938	129.024	-0.234	-0.302
-449.924	-153.426	-0.047	-0.003
-448.909	101.752	-0.031	-0.036
-447.895	-175.930	0.223	-0.006
-446.880	-132.537	-0.315	0.041
-445.865	547.079	-0.015	-0.036
-444.851	9.398	0.104	0.080
-443.836	38.351	-0.157	-0.142
-442.822	-159.035	0.047	0.003
-441.807	586.142	-0.025	-0.061
-440.792	-25.091	-0.180	-0.108
-439.778	-129.701	0.206	0.029
-438.763	-200.000	-0.045	0.226
-437.749	800.000	-0.090	-0.374
-436.734	800.000	0.082	-0.272
-435.719	336.606	0.035	-0.069
-434.705	12.486	-0.136	-0.106
-433.690	800.000	0.111	-0.318
-432.676	-101.635	-0.291	0.071
-431.661	-200.000	0.014	-0.164
-430.646	715.493	-0.052	0.140
-429.632	-109.613	0.152	-0.032
-428.617	104.573	0.096	-0.115
-427.603	800.000	-0.054	-0.178
-426.588	-26.228	-0.152	-0.091
-425.573	-60.711	0.170	0.073
-424.559	737.680	0.084	-0.229
-423.544	-136.105	0.430	0.051
-422.530	-60.811	0.249	0.107
-421.515	-98.513	-0.317	-0.082
-420.500	-94.771	0.327	0.090
-419.486	-2.659	-0.288	0.204
-418.471	73.333	0.156	-0.165
-417.457	-7.443	0.352	0.241
-416.442	-200.000	-0.068	-0.313
-415.428	4.329	0.158	-0.117
-414.413	-200.000	-0.013	0.606
-413.398	297.158	-0.010	0.019
-412.384	1.485	0.425	-0.309
-411.369	65.790	0.123	-0.126
-410.355	43.268	-0.136	-0.126
-409.340	336.107	0.066	0.130
-408.325	667.218	-0.087	-0.227
-407.311	-135.720	-0.195	0.023
-406.296	-200.000	0.281	-0.001
-405.282	308.866	0.128	-0.242
-404.267	301.347	-0.080	-0.150
-403.252	374.702	-0.058	0.120
-402.238	-4.802	-0.250	-0.174
-401.223	-163.430	-0.319	-0.015
-400.209	227.640	0.182	0.300
-399.194	-78.850	-0.270	0.093
-398.179	134.201	-0.161	-0.211
-397.165	71.486	0.288	0.303
-396.150	-61.809	0.218	-0.092
-395.136	510.046	0.083	-0.195
-394.121	-200.000	-0.001	0.151
-393.106	-7.213	-0.279	0.191
-392.092	-19.741	0.111	0.069
-391.077	354.549	0.106	-0.213
-390.063	87.433	0.058	0.065
-389.048	470.013	0.148	-0.336
-388.033	5.977	0.393	-0.294
-387.019	800.000	-0.042	0.125
-386.004	-0.259	-0.081	-0.058
-384.990	32.904	-0.105	-0.092
-383.975	-1.251	-0.169	0.120
-382.960	145.474	-0.080	-0.108
-381.946	179.592	0.162	0.239
-380.931	34.658	0.160	-0.141
-379.917	339.713	0.073	0.144
-378.902	-59.457	-0.338	0.147
-377.888	60.051	0.114	0.114
-376.873	800.000	-0.041	0.162
-375.858	349.794	-0.052	-0.105
-374.844	-150.905	-0.128	0.010
-373.829	-154.840	0.143	0.010
-372.815	800.000	-0.106	0.310
-371.800	-200.000	-0.024	0.120
-370.785	-114.844	-0.393	0.076
-369.771	163.210	-0.114	-0.162
-368.756	-140.284	-0.210	-0.022
-367.742	-135.791	0.131	0.016
-366.727	-25.678	0.194	-0.116
-365.712	-100.162	0.221	0.056
-364.698	119.863	0.079	-0.099
-363.683	-155.662	-0.385	0.025
-362.669	617.349	0.033	-0.085
-361.654	-200.000	0.176	-0.001
-360.639	254.410	-0.207	0.357
-359.625	54.300	-0.060	-0.058
-358.610	-93.474	-0.093	-0.026
-357.596	214.770	0.087	-0.139
-356.581	-128.777	-0.175	-0.025
-355.566	-200.000	-0.011	0.094
-354.552	-200.000	-0.000	0.115
-353.537	466.885	-0.052	0.118
-352.523	54.609	0.127	-0.124
-351.508	453.333	-0.057	0.127
-350.493	-166.715	0.240	-0.010
-349.479	-182.384	0.088	0.002
-348.464	-141.746	-0.352	-0.036
-347.450	800.000	-0.092	-0.333
-346.435	-122.357	0.167	-0.028
-345.420	-118.768	0.170	0.030
-344.406	148.506	0.176	0.240
-343.391	-58.969	0.265	-0.115
-342.377	522.006	0.027	0.063
-341.362	426.490	-0.108	-0.234
-340.348	-200.000	0.018	-0.176
-339.333	93.831	0.074	-0.085
-338.318	591.548	-0.105	0.262
-337.304	-6.604	0.107	0.073
-336.289	800.000	0.026	-0.094
-335.275	-200.000	0.021	-0.229
-334.260	13.711	0.172	0.135
-333.245	37.129	-0.154	-0.137
-332.231	468.447	-0.035	0.080
-331.216	242.218	-0.072	0.121
-330.202	-200.000	-0.041	0.271
-329.187	-200.000	0.017	0.330
-328.172	-23.176	0.150	-0.091
-327.158	-123.309	0.340	0.055
-326.143	-81.743	0.132	-0.044
-325.129	-111.241	0.078	-0.016
-324.114	72.969	-0.153	0.161
-323.099	-54.872	-0.192	0.087
-322.085	-200.000	-0.020	-0.094
-321.070	754.623	-0.120	-0.327
-320.056	29.755	-0.163	0.140
-319.041	305.849	0.119	-0.223
-318.026	-2.763	-0.166	0.117
-317.012	-200.000	-0.023	-0.107
-315.997	24.363	0.125	0.104
-314.983	800.000	-0.058	0.183
-313.968	800.000	-0.070	0.250
-312.953	539.636	0.031	-0.075
-311.939	-21.775	-0.138	0.085
-310.924	-85.088	0.208	0.065
-309.910	-24.110	0.302	-0.182
-308.895	-112.978	0.152	-0.030
-307.880	13.305	0.198	0.155
-306.866	-200.000	-0.009	-0.255
-305.851	537.029	0.033	0.078
-304.837	800.000	-0.006	-0.018
-303.822	-200.000	-0.007	-0.125
-302.807	-74.887	0.321	-0.116
-301.793	-81.836	-0.248	-0.082
-300.778	233.612	0.141	-0.234
-299.764	32.799	0.170	0.148
-298.749	800.000	-0.081	-0.233
-297.735	-66.014	0.164	0.066
-296.720	-77.848	0.106	0.037
-295.705	-35.920	0.282	0.154
-294.691	-157.288	-0.027	0.002
-293.676	-72.876	0.263	0.097
-292.662	-200.000	0.019	0.093
-291.647	-200.000	-0.004	-0.036
-290.632	23.992	-0.189	-0.157
-289.618	-142.235	-0.037	0.004
-288.603	-66.056	0.080	0.032
-287.589	-87.557	-0.062	0.019
-286.574	-59.375	0.169	-0.073
-285.559	800.000	-0.069	-0.229
-284.545	542.651	-0.063	-0.151
-283.530	-122.961	-0.045	0.007
-282.516	61.481	0.350	0.350
-281.501	800.000	-0.079	0.303
-280.486	-106.106	-0.241	-0.054
-279.472	122.475	0.132	-0.166
-278.457	47.803	0.082	0.077
-277.443	-200.000	0.012	0.283
-276.428	-200.000	0.004	-0.443
-275.413	-2.280	0.055	0.039
-274.399	-98.092	0.589	-0.153
-273.384	-86.995	0.098	0.030
-272.370	83.449	-0.115	-0.126
-271.355	14.659	0.011	0.008
-270.340	576.993	0.112	-0.275
-269.326	-200.000	0.023	0.240
-268.311	62.947	-0.153	0.154
-267.297	441.046	0.098	0.216
-266.282	11.442	-0.200	0.154
-265.267	89.289	-0.130	0.146
-264.253	-147.318	0.179	0.015
-263.238	8.279	-0.170	0.128
-262.224	800.000	0.147	0.496
-261.209	184.438	-0.078	0.117
-260.195	-43.686	0.229	0.116
-259.180	-200.000	0.010	0.201
-258.165	800.000	0.100	0.341
-257.151	-200.000	-0.019	0.143
-256.136	12.407	-0.197	0.153
-255.122	-200.000	0.025	-0.242
-254.107	251.706	0.273	0.466
-253.092	33.154	-0.131	0.114
-252.078	-56.216	-0.156	0.070
-251.063	-7.126	0.194	0.132
-250.049	-28.800	-0.284	0.164
-249.034	449.288	0.066	0.145
-248.019	224.877	-0.150	-0.244
-247.005	800.000	-0.077	-0.295
-245.990	168.355	-0.108	-0.155
-244.976	108.704	0.164	0.197
-243.961	-200.000	-0.055	0.385
-242.946	-99.606	0.227	0.057
-241.932	-132.416	-0.246	-0.032
-240.917	738.529	-0.084	0.227
-239.903	800.000	-0.019	-0.054
-238.888	-82.176	0.289	-0.095
-237.873	-60.224	0.147	0.063
-236.859	9.750	0.154	-0.117
-235.844	-200.000	0.003	-0.325
-234.830	-82.263	-0.049	0.016
-233.815	-106.809	-0.094	0.021
-232.800	-65.703	-0.123	0.050
-231.786	-200.000	0.009	-0.184
-230.771	242.589	0.177	0.298
-229.757	430.078	-0.166	0.360
-228.742	328.268	-0.096	0.185
-227.727	86.752	-0.142	-0.158
-226.713	111.582	0.356	0.432
-225.698	-87.030	-0.113	-0.034
-224.684	287.679	-0.150	-0.272
-223.669	-111.299	-0.315	-0.065
-222.655	-200.000	0.011	-0.161
-221.640	-46.857	-0.300	0.147
-220.625	-200.000	-0.027	0.159
-219.611	43.332	0.117	0.107
-218.596	-66.134	-0.436	0.175
-217.582	133.993	-0.158	0.205
-216.567	-200.000	0.003	0.021
-215.552	554.695	0.131	0.316
-214.538	-200.000	0.024	0.228
-213.523	32.765	0.164	0.142
-212.509	800.000	-0.084	0.357
-211.494	243.842	0.195	-0.328
-210.479	-113.554	-0.244	0.048
-209.465	-171.304	0.220	-0.007
-208.450	-200.000	0.023	0.145
-207.436	281.761	-0.223	0.401
-206.421	331.074	-0.015	0.029
-205.406	6.273	-0.267	-0.199
-204.392	-171.231	-0.223	0.008
-203.377	-84.454	0.214	0.068
-202.363	-7.252	-0.155	0.106
-201.348	-155.053	-0.411	-0.027
-200.333	394.664	0.140	-0.292
-199.319	53.954	0.134	0.129
-198.304	-134.845	0.122	0.015
-197.290	-139.209	0.208	0.022
-196.275	-20.060	-0.253	-0.156
-195.260	800.000	-0.082	-0.235
-194.246	212.305	-0.055	0.087
-193.231	-41.619	0.218	0.112
-192.217	74.581	-0.183	-0.193
-191.202	-200.000	-0.051	0.398
-190.187	800.000	-0.039	0.162
-189.173	211.239	0.202	0.319
-188.158	-151.351	0.266	0.020
-187.144	-7.546	-0.208	-0.141
-186.129	120.651	-0.192	0.240
-185.114	712.313	-0.050	0.132
-184.100	54.091	0.117	-0.113
-183.085	38.565	-0.320	0.286
-182.071	62.937	-0.008	-0.008
-181.056	-128.940	-0.087	-0.012
-180.042	-150.955	0.380	0.029
-179.027	56.481	-0.210	0.205
-178.012	-119.047	0.122	0.021
-176.998	259.582	0.089	-0.154
-175.983	-200.000	-0.065	-0.304
-174.969	-184.143	0.269	0.004
-173.954	-33.698	-0.217	0.120
-172.939	800.000	-0.110	0.373
-171.925	-73.941	-0.219	0.080
-170.910	76.190	-0.083	0.088
-169.896	-200.000	0.020	-0.311
-168.881	-143.984	0.076	-0.007
-167.866	210.229	0.174	-0.274
-166.852	-106.142	-0.419	0.094
-165.837	-200.000	-0.037	-0.205
-164.823	-0.832	0.248	-0.176
-163.808	57.694	0.244	0.239
-162.793	-200.000	0.011	0.174
-161.779	800.000	0.058	-0.185
-160.764	-48.089	-0.099	-0.048
-159.750	-200.000	0.006	0.148
-158.735	-108.341	0.285	0.061
-157.720	629.559	0.066	0.168
-156.706	-49.702	-0.227	0.108
-155.691	-11.079	0.084	0.056
-154.677	800.000	-0.105	0.306
-153.662	167.157	-0.099	-0.140
-152.647	382.146	0.130	-0.266
-151.633	384.684	0.104	-0.214
-150.618	115.038	0.172	-0.211
-149.604	-92.196	-0.234	0.066
-148.589	155.571	0.120	-0.166
-147.574	239.595	0.084	0.139
-146.560	279.076	0.292	0.521
-145.545	-115.605	-0.008	-0.002
-144.531	-129.775	-0.166	0.023
-143.516	-200.000	-0.064	0.312
-142.502	-200.000	-0.014	-0.428
-141.487	800.000	0.042	-0.181
-140.472	-62.930	-0.361	0.149
-139.458	800.000	0.060	0.258
-138.443	800.000	0.015	0.057
-137.429	-173.661	0.137	0.004
-136.414	-76.492	-0.227	-0.080
-135.399	47.442	0.426	0.397
-134.385	800.000	-0.083	0.237
-133.370	-85.340	-0.250	0.078
-132.356	80.098	0.129	0.138
-131.341	131.837	-0.177	-0.228
-130.326	-81.617	0.368	-0.121
-129.312	-152.842	0.307	-0.022
-128.297	-128.905	0.289	-0.041
-127.283	132.936	0.128	0.165
-126.268	271.062	-0.156	0.275
-125.253	-200.000	0.263	0.000
-124.239	-50.314	-0.244	0.115
-123.224	4.191	-0.294	-0.215
-122.210	-104.022	-0.279	0.065
-121.195	-76.598	-0.232	-0.081
