DTS Sentinel unit serial number:	SN413079Multiplexer serial number:	ORYXHardware model number:	OX4-SRSoftware version number:	ORYX F/W v4.00 Oryx Data Collector v3.7.2.0data status	okinstallation	princeton_trtdifferential loss correction	single-endedforward channel	channel 3reverse channel	N/Adate	2019/09/15time	08:32:34forward acquisition time	60.00reverse acquisition time	0.00gamma	496.2192k internal	0.2320k external	0.2320temperature offset calibration	0.9979default loss term (dB/km)	0.3790temperature slope calibration	1.0000multiplexer offset coefficient	1.0000multiplexer slope coefficient	1.0000fibre end	0.00T internal ref (°C)	31.69T ext. ref 1 (°C)	4.97T ext. ref 2 (°C)	28.77length (m)	temperature (°C)	Stokes	anti-Stokes-747.200	-200.000	-0.028	-0.147
-746.185	202.343	0.109	0.170
-745.171	-200.000	0.017	0.109
-744.156	-200.000	0.023	0.113
-743.142	-198.935	0.082	-0.000
-742.127	-200.000	-0.004	0.185
-741.112	462.687	0.130	-0.293
-740.098	-46.831	-0.220	0.109
-739.083	4.253	-0.210	-0.156
-738.069	-31.308	-0.291	-0.166
-737.054	93.259	0.030	0.034
-736.039	-82.388	-0.517	-0.170
-735.025	30.807	0.158	-0.137
-734.010	800.000	0.043	-0.149
-732.996	63.271	-0.172	-0.175
-731.981	-200.000	0.042	0.298
-730.966	-76.308	-0.085	0.030
-729.952	-200.000	0.011	-0.117
-728.937	-164.113	0.390	-0.018
-727.923	-2.199	0.094	-0.067
-726.908	-101.743	0.419	-0.103
-725.894	90.076	0.144	-0.163
-724.879	59.001	-0.160	-0.159
-723.864	-200.000	0.008	-0.309
-722.850	-160.789	0.402	0.021
-721.835	68.206	0.100	0.103
-720.821	800.000	-0.091	0.356
-719.806	-200.000	0.011	0.218
-718.791	-167.502	-0.092	-0.004
-717.777	-198.746	-0.325	-0.002
-716.762	-1.331	-0.073	-0.052
-715.748	-200.000	-0.032	-0.218
-714.733	389.291	-0.072	-0.150
-713.718	166.178	-0.180	0.258
-712.704	450.197	0.113	0.252
-711.689	-100.388	0.304	-0.076
-710.675	-128.198	0.286	-0.041
-709.660	-96.075	-0.250	0.067
-708.645	234.656	-0.078	-0.129
-707.631	-200.000	0.012	0.115
-706.616	-88.657	-0.282	0.085
-705.602	-23.331	0.120	0.073
-704.587	-71.953	-0.144	0.054
-703.572	800.000	-0.074	-0.222
-702.558	-111.625	-0.366	-0.075
-701.543	-72.880	-0.110	0.041
-700.529	-200.000	0.002	0.417
-699.514	3.441	-0.256	0.188
-698.499	800.000	0.061	-0.264
-697.485	-200.000	0.047	-0.374
-696.470	-200.000	-0.057	-0.477
-695.456	-2.838	-0.188	0.132
-694.441	411.070	0.201	-0.430
-693.426	-48.371	0.216	0.105
-692.412	-189.317	0.236	0.003
-691.397	230.916	-0.212	-0.350
-690.383	-194.057	-0.232	-0.002
-689.368	111.588	-0.113	0.137
-688.354	-84.602	-0.190	-0.060
-687.339	800.000	0.138	-0.497
-686.324	800.000	-0.068	-0.268
-685.310	-200.000	0.038	-0.182
-684.295	-200.000	0.021	-0.104
-683.281	-87.054	0.226	-0.069
-682.266	85.096	-0.169	0.187
-681.251	-136.797	-0.184	-0.021
-680.237	-200.000	0.001	-0.106
-679.222	-28.663	0.168	-0.098
-678.208	-115.382	0.037	-0.007
-677.193	178.427	0.097	-0.143
-676.178	302.769	0.108	0.201
-675.164	8.002	0.165	-0.125
-674.149	-27.074	0.167	0.098
-673.135	-200.000	0.058	0.369
-672.120	-200.000	-0.033	0.178
-671.105	-200.000	-0.000	-0.191
-670.091	-200.000	-0.016	-0.157
-669.076	394.372	-0.217	0.456
-668.062	-200.000	0.013	-0.214
-667.047	-42.197	-0.165	-0.085
-666.032	335.625	0.075	0.147
-665.018	-46.167	0.416	0.207
-664.003	147.876	-0.139	-0.189
-662.989	-26.498	0.143	-0.085
-661.974	-200.000	0.017	0.178
-660.959	-200.000	-0.048	-0.372
-659.945	800.000	0.132	-0.445
-658.930	-200.000	-0.017	-0.186
-657.916	-143.337	0.252	0.024
-656.901	-172.708	-0.027	0.001
-655.886	-117.624	-0.281	-0.051
-654.872	-166.296	-0.170	0.007
-653.857	-96.041	-0.442	-0.118
-652.843	203.734	-0.044	0.069
-651.828	800.000	0.068	-0.224
-650.814	-200.000	0.011	-0.065
-649.799	153.453	-0.022	0.030
-648.784	-200.000	-0.006	-0.115
-647.770	141.007	0.021	0.028
-646.755	-54.923	-0.319	-0.145
-645.741	34.718	0.121	-0.106
-644.726	627.723	0.159	0.405
-643.711	-200.000	0.001	-0.093
-642.697	-80.597	0.179	-0.060
-641.682	41.439	0.089	-0.081
-640.668	-200.000	-0.093	-0.519
-639.653	-125.989	0.200	-0.030
-638.638	-200.000	-0.043	-0.225
-637.624	10.605	-0.300	-0.230
-636.609	-169.794	-0.234	-0.008
-635.595	-47.928	-0.104	0.051
-634.580	-200.000	-0.011	-0.254
-633.565	702.816	-0.061	0.162
-632.551	-160.489	0.582	0.031
-631.536	-121.106	0.157	-0.026
-630.522	-90.905	-0.187	0.054
-629.507	-143.962	-0.039	-0.004
-628.492	-200.000	-0.008	0.053
-627.478	-200.000	-0.020	-0.092
-626.463	-65.203	-0.375	0.152
-625.449	-200.000	-0.018	0.112
-624.434	-101.813	0.117	-0.029
-623.419	-96.261	0.261	-0.070
-622.405	-200.000	-0.036	0.176
-621.390	-1.414	-0.177	-0.126
-620.376	-134.190	-0.191	0.024
-619.361	-16.878	0.199	-0.127
-618.346	-144.074	0.172	-0.016
-617.332	-117.822	0.344	-0.062
-616.317	330.728	0.056	0.108
-615.303	81.692	0.088	-0.096
-614.288	252.865	0.182	-0.313
-613.273	-175.465	0.152	-0.004
-612.259	167.257	-0.086	-0.123
-611.244	800.000	-0.068	0.257
-610.230	-121.846	0.284	-0.047
-609.215	-159.079	0.357	0.020
-608.201	175.401	-0.139	-0.203
-607.186	-133.283	0.229	0.029
-606.171	-200.000	-0.005	-0.145
-605.157	-15.620	-0.143	-0.092
-604.142	-52.799	0.189	-0.088
-603.128	-185.069	-0.075	0.001
-602.113	-55.597	0.036	0.016
-601.098	96.588	-0.098	0.113
-600.084	628.489	-0.080	0.204
-599.069	56.248	0.244	-0.238
-598.055	606.151	0.060	-0.150
-597.040	-200.000	0.018	0.176
-596.025	136.705	0.054	-0.072
-595.011	242.883	-0.141	0.238
-593.996	-114.427	0.353	0.068
-592.982	363.265	-0.291	-0.588
-591.967	-45.534	0.312	0.155
-590.952	214.031	-0.109	-0.174
-589.938	-145.571	-0.055	-0.005
-588.923	95.704	0.094	0.108
-587.909	-47.346	0.096	0.047
-586.894	100.034	0.072	0.084
-585.879	-58.614	-0.203	-0.089
-584.865	302.302	0.147	-0.273
-583.850	372.696	-0.081	-0.166
-582.836	-3.634	0.300	0.210
-581.821	81.965	0.223	0.243
-580.806	-105.439	0.292	-0.067
-579.792	-13.664	0.194	0.126
-578.777	86.180	0.128	0.141
-577.763	81.350	0.247	-0.268
-576.748	-1.287	-0.088	-0.062
-575.733	19.589	0.154	0.124
-574.719	-39.802	0.246	0.129
-573.704	-106.216	0.200	0.045
-572.690	-153.696	0.388	0.027
-571.675	66.550	-0.137	-0.140
-570.661	266.838	-0.095	-0.168
-569.646	-139.775	0.179	0.019
-568.631	140.537	-0.047	0.062
-567.617	435.974	-0.048	0.104
-566.602	-128.996	-0.276	-0.039
-565.588	29.828	0.151	0.130
-564.573	-200.000	-0.004	0.462
-563.558	-200.000	-0.020	0.089
-562.544	-182.755	-0.245	-0.004
-561.529	800.000	-0.038	-0.119
-560.515	-38.436	-0.127	-0.068
-559.500	601.731	-0.050	0.125
-558.485	-196.733	-0.180	-0.001
-557.471	-200.000	0.027	-0.279
-556.456	800.000	0.072	-0.235
-555.442	-149.167	-0.100	-0.008
-554.427	575.410	0.154	-0.378
-553.412	-200.000	-0.068	-0.422
-552.398	-123.714	0.295	0.047
-551.383	-74.901	0.381	0.137
-550.369	-85.056	0.168	0.053
-549.354	-200.000	0.030	-0.238
-548.339	412.876	-0.003	0.006
-547.325	600.903	-0.091	0.226
-546.310	-38.586	-0.149	-0.079
-545.296	-200.000	-0.002	-0.213
-544.281	-33.229	-0.130	-0.072
-543.266	286.046	0.150	0.271
-542.252	140.877	-0.300	-0.398
-541.237	-104.806	-0.199	0.046
-540.223	341.489	-0.073	0.143
-539.208	584.770	0.062	-0.154
-538.193	29.355	-0.303	0.258
-537.179	-22.074	0.178	0.109
-536.164	-28.083	-0.074	-0.043
-535.150	-70.829	-0.038	-0.014
-534.135	-18.954	-0.322	0.201
-533.121	800.000	-0.184	-0.625
-532.106	-21.214	-0.231	-0.141
-531.091	-72.539	0.055	-0.021
-530.077	39.250	0.092	0.082
-529.062	13.053	0.198	0.153
-528.048	341.669	0.028	-0.056
-527.033	-200.000	-0.009	0.134
-526.018	569.604	-0.087	-0.211
-525.004	221.305	0.035	0.056
-523.989	234.209	0.062	-0.102
-522.975	800.000	0.047	0.153
-521.960	-111.398	0.347	-0.071
-520.945	-3.705	-0.284	0.198
-519.931	-200.000	0.029	-0.149
-518.916	-180.002	0.301	-0.006
-517.902	375.006	-0.072	-0.148
-516.887	-200.000	0.009	0.157
-515.872	6.553	0.116	-0.086
-514.858	117.876	-0.164	-0.202
-513.843	714.936	0.143	-0.380
-512.829	158.339	0.099	-0.138
-511.814	-200.000	-0.011	-0.199
-510.799	-124.573	0.348	-0.054
-509.785	-78.180	0.312	0.108
-508.770	-200.000	0.012	0.147
-507.756	-115.951	0.031	0.006
-506.741	-120.254	-0.335	0.057
-505.726	40.751	-0.058	0.052
-504.712	-17.012	0.098	0.062
-503.697	292.641	-0.152	-0.277
-502.683	144.291	0.219	-0.293
-501.668	21.530	0.079	0.064
-500.653	-64.054	-0.170	0.069
-499.639	67.265	0.093	0.095
-498.624	-200.000	-0.005	0.085
-497.610	153.079	-0.177	0.243
-496.595	390.612	-0.088	-0.183
-495.581	-200.000	0.004	-0.417
-494.566	800.000	-0.077	-0.255
-493.551	167.335	-0.115	0.163
-492.537	-93.148	0.208	0.058
-491.522	-96.351	-0.231	-0.061
-490.508	-44.481	-0.068	0.034
-489.493	25.823	0.189	-0.158
-488.478	43.924	0.179	-0.165
-487.464	-167.768	0.079	0.003
-486.449	-38.420	-0.322	-0.171
-485.435	-200.000	-0.054	-0.438
-484.420	-200.000	-0.005	0.081
-483.405	-88.293	0.167	0.050
-482.391	800.000	0.026	-0.094
-481.376	-200.000	0.042	0.256
-480.362	800.000	-0.131	0.412
-479.347	-8.862	-0.361	-0.242
-478.332	-94.263	0.271	0.074
-477.318	-200.000	-0.063	0.517
-476.303	12.081	-0.101	0.078
-475.289	196.798	0.187	0.286
-474.274	-133.772	0.150	0.019
-473.259	-138.733	-0.212	0.023
-472.245	-107.126	0.242	-0.053
-471.230	-65.127	0.366	-0.148
-470.216	-4.213	-0.256	-0.178
-469.201	-30.629	0.060	-0.034
-468.186	800.000	-0.034	0.115
-467.172	20.098	-0.269	-0.217
-466.157	-153.963	0.171	0.012
-465.143	-50.023	0.313	-0.148
-464.128	-200.000	-0.047	0.260
-463.113	-200.000	0.042	0.237
-462.099	225.232	-0.162	-0.263
-461.084	94.043	0.254	0.289
-460.070	1.343	-0.144	-0.104
-459.055	-200.000	-0.062	0.392
-458.040	90.996	0.104	-0.116
-457.026	-200.000	-0.013	-0.453
-456.011	-70.076	-0.318	-0.121
-454.997	-120.469	-0.183	-0.031
-453.982	-200.000	-0.032	-0.144
-452.968	138.248	0.117	-0.153
-451.953	65.812	-0.168	0.171
-450.938	-121.243	-0.113	-0.019
-449.924	-91.174	0.150	0.043
-448.909	-55.401	-0.420	0.188
-447.895	79.436	-0.031	0.033
-446.880	-17.896	0.300	-0.188
-445.865	139.751	-0.076	-0.100
-444.851	203.271	-0.106	0.164
-443.836	6.803	-0.292	0.217
-442.822	86.367	0.171	-0.188
-441.807	-44.486	-0.155	0.078
-440.792	149.210	0.089	0.121
-439.778	-46.312	-0.103	0.051
-438.763	-87.649	0.276	0.083
-437.749	575.682	-0.103	0.252
-436.734	267.080	-0.178	-0.312
-435.719	-81.639	-0.457	-0.150
-434.705	800.000	0.092	0.271
-433.690	133.069	0.213	-0.275
-432.676	136.670	0.072	-0.093
-431.661	-63.818	0.221	-0.090
-430.646	-97.694	0.207	-0.054
-429.632	34.616	0.171	0.149
-428.617	-27.094	0.046	0.027
-427.603	-103.047	-0.246	-0.058
-426.588	-41.774	-0.122	-0.062
-425.573	86.012	-0.077	-0.085
-424.559	463.145	-0.127	0.282
-423.544	496.874	0.047	0.109
-422.530	91.083	-0.117	0.132
-421.515	-151.339	0.062	-0.005
-420.500	-77.553	-0.138	-0.048
-419.486	-51.901	-0.171	0.080
-418.471	-145.927	-0.380	0.034
-417.457	134.098	-0.040	-0.052
-416.442	-200.000	0.045	0.409
-415.428	10.773	0.053	-0.040
-414.413	12.815	-0.191	-0.147
-413.398	-83.028	0.175	-0.056
-412.384	-200.000	0.017	0.185
-411.369	393.244	0.115	0.239
-410.355	-2.043	-0.122	0.086
-409.340	78.144	-0.209	-0.223
-408.325	-91.855	-0.058	-0.016
-407.311	41.145	-0.302	-0.273
-406.296	-163.502	-0.348	-0.016
-405.282	-200.000	-0.028	-0.253
-404.267	385.382	-0.150	-0.309
-403.252	143.697	0.023	-0.030
-402.238	190.387	0.075	0.113
-401.223	9.112	-0.092	0.069
-400.209	50.338	0.193	0.182
-399.194	117.149	-0.221	0.270
-398.179	-200.000	0.001	-0.059
-397.165	800.000	-0.088	-0.362
-396.150	29.123	0.180	0.152
-395.136	120.062	-0.304	-0.376
-394.121	332.457	-0.113	-0.218
-393.106	-127.387	0.327	-0.047
-392.092	170.340	-0.140	-0.200
-391.077	-109.982	-0.145	0.030
-390.063	29.439	0.247	0.209
-389.048	65.545	0.204	0.206
-388.033	-200.000	0.015	0.223
-387.019	-51.858	-0.169	-0.078
-386.004	-61.143	0.092	0.039
-384.990	-200.000	0.035	-0.197
-383.975	566.264	-0.057	-0.138
-382.960	70.304	-0.138	0.143
-381.946	-59.562	-0.146	-0.062
-380.931	-116.938	-0.132	0.024
-379.917	-200.000	-0.002	0.187
-378.902	-200.000	0.027	-0.194
-377.888	206.688	-0.129	0.200
-376.873	61.258	-0.353	0.350
-375.858	72.888	-0.110	-0.114
-374.844	-55.384	0.243	-0.109
-373.829	308.596	0.050	0.093
-372.815	56.168	-0.061	-0.059
-371.800	-200.000	0.004	-0.312
-370.785	7.919	-0.130	0.097
-369.771	45.183	-0.069	0.063
-368.756	-26.263	0.415	-0.243
-367.742	800.000	0.075	0.241
-366.727	-200.000	0.040	0.254
-365.712	-53.619	0.199	0.090
-364.698	150.687	0.061	0.083
-363.683	-2.311	-0.027	0.019
-362.669	800.000	0.021	-0.074
-361.654	-11.000	-0.390	-0.257
-360.639	800.000	-0.017	0.069
-359.625	46.527	-0.113	0.105
-358.610	11.905	-0.305	0.233
-357.596	5.366	0.070	-0.051
-356.581	608.031	-0.116	-0.288
-355.566	20.366	0.137	-0.110
-354.552	-200.000	-0.005	0.133
-353.537	800.000	0.064	0.270
-352.523	-97.646	0.156	0.040
-351.508	124.424	-0.097	0.122
-350.493	-62.151	-0.043	0.018
-349.479	-115.809	-0.179	0.033
-348.464	-45.936	-0.103	0.051
-347.450	-11.514	0.180	-0.118
-346.435	-72.356	-0.255	0.094
-345.420	-14.653	0.306	-0.196
-344.406	-200.000	0.167	0.001
-343.391	-118.625	0.289	-0.051
-342.377	800.000	-0.112	0.436
-341.362	142.510	-0.128	0.169
-340.348	-153.493	0.402	0.028
-339.333	-13.501	0.056	-0.036
-338.318	-200.000	-0.075	0.362
-337.304	-95.818	-0.482	-0.128
-336.289	-90.696	-0.088	0.025
-335.275	-97.817	-0.247	-0.064
-334.260	-145.441	-0.280	-0.025
-333.245	129.757	0.089	-0.113
-332.231	376.373	-0.087	-0.176
-331.216	-80.016	-0.183	0.061
-330.202	589.369	0.082	-0.201
-329.187	201.658	-0.004	0.007
-328.172	800.000	0.047	0.195
-327.158	174.001	0.139	0.200
-326.143	-200.000	-0.040	0.360
-325.129	800.000	0.012	-0.042
-324.114	-93.902	-0.215	-0.059
-323.099	-67.950	-0.087	0.034
-322.085	-51.743	-0.227	-0.105
-321.070	-133.954	-0.058	0.007
-320.056	-200.000	-0.041	-0.245
-319.041	119.122	-0.143	0.176
-318.026	390.696	0.086	0.178
-317.012	-121.640	-0.078	0.013
-315.997	-200.000	-0.003	-0.213
-314.983	145.164	0.196	-0.260
-313.968	151.992	0.209	-0.284
-312.953	-200.000	-0.065	0.372
-311.939	69.280	0.233	-0.239
-310.924	63.903	0.102	0.102
-309.910	800.000	-0.189	0.606
-308.895	171.962	-0.212	0.303
-307.880	463.291	-0.135	0.300
-306.866	-200.000	0.002	-0.152
-305.851	-108.953	-0.110	-0.023
-304.837	-200.000	-0.014	-0.161
-303.822	759.080	0.067	0.181
-302.807	2.705	0.121	-0.087
-301.793	-125.363	0.287	-0.043
-300.778	35.711	-0.243	-0.212
-299.764	-53.251	0.305	0.139
-298.749	45.135	0.039	0.036
-297.735	41.925	-0.240	-0.216
-296.720	55.405	-0.192	0.184
-295.705	-98.383	-0.307	-0.078
-294.691	25.982	0.129	0.107
-293.676	356.051	0.118	0.233
-292.662	156.082	-0.112	0.153
-291.647	-146.090	0.098	0.009
-290.632	517.507	-0.075	-0.175
-289.618	226.717	0.012	0.019
-288.603	-101.416	-0.397	-0.096
-287.589	-186.150	0.140	0.002
-286.574	-200.000	-0.004	0.256
-285.559	186.890	0.080	-0.118
-284.545	-71.620	-0.085	-0.031
-283.530	23.288	-0.156	0.127
-282.516	-46.696	0.214	-0.104
-281.501	333.981	0.142	0.273
-280.486	-124.484	-0.330	0.051
-279.472	-125.371	0.151	0.023
-278.457	127.720	-0.118	0.149
-277.443	-200.000	0.039	-0.307
-276.428	-200.000	0.019	0.108
-275.413	-200.000	-0.040	0.239
-274.399	-157.831	-0.088	0.005
-273.384	129.778	-0.195	0.248
-272.370	800.000	-0.025	0.082
-271.355	228.671	-0.141	-0.227
-270.340	164.139	0.066	0.093
-269.326	-82.495	0.130	0.042
-268.311	172.748	0.071	0.102
-267.297	470.324	0.066	-0.147
-266.282	9.100	-0.218	0.163
-265.267	-52.316	0.132	0.061
-264.253	262.112	0.182	0.313
-263.238	-27.014	-0.104	-0.060
-262.224	-200.000	-0.010	0.225
-261.209	800.000	-0.076	0.240
-260.195	145.188	0.179	-0.237
-259.180	2.343	-0.364	0.261
-258.165	578.089	0.069	0.167
-257.151	1.768	0.111	0.079
-256.136	-134.261	-0.247	0.030
-255.122	8.733	-0.330	-0.247
-254.107	12.033	0.145	0.111
-253.092	-90.630	0.067	0.019
-252.078	32.305	0.181	-0.155
-251.063	-32.478	0.168	0.093
-250.049	-13.254	0.211	0.136
-249.034	70.598	0.076	0.078
-248.019	-60.623	-0.259	0.109
-247.005	-200.000	0.004	-0.056
-245.990	13.738	0.349	-0.269
-244.976	-200.000	0.044	0.228
-243.961	-152.537	-0.165	-0.012
-242.946	335.731	-0.101	0.195
-241.932	-200.000	0.008	0.079
-240.917	800.000	0.080	-0.239
-239.903	283.246	0.012	-0.021
-238.888	92.397	0.072	0.081
-237.873	-200.000	-0.006	0.105
-236.859	-43.825	-0.153	-0.076
-235.844	-24.856	0.212	-0.125
-234.830	-162.954	0.369	0.018
-233.815	580.816	-0.121	0.293
-232.800	107.399	0.094	-0.111
-231.786	238.900	0.188	-0.309
-230.771	-66.114	-0.234	0.093
-229.757	249.905	0.076	0.128
-228.742	173.223	0.183	-0.261
-227.727	-20.171	-0.294	-0.180
-226.713	-200.000	0.005	0.070
-225.698	-200.000	0.001	0.208
-224.684	-200.000	-0.028	0.132
-223.669	-200.000	-0.006	-0.105
-222.655	-69.481	-0.252	-0.096
-221.640	-80.896	-0.259	0.085
-220.625	-89.899	-0.039	-0.011
-219.611	-182.466	0.219	0.004
-218.596	3.265	0.327	-0.236
-217.582	44.479	0.019	-0.017
-216.567	158.465	0.081	-0.112
-215.552	-145.907	-0.290	0.025
-214.538	-200.000	-0.004	0.157
-213.523	39.303	0.199	-0.177
-212.509	-29.585	-0.136	-0.077
-211.494	-76.883	0.258	0.089
-210.479	48.422	-0.084	-0.078
-209.465	-190.799	-0.340	-0.004
-208.450	319.787	0.076	0.143
-207.436	-200.000	-0.084	-0.380
-206.421	-73.033	0.218	0.079
-205.406	120.464	0.111	-0.136
-204.392	-31.055	-0.185	-0.103
-203.377	-200.000	-0.001	-0.503
-202.363	-117.900	-0.217	-0.039
-201.348	-150.602	0.208	-0.016
-200.333	180.759	0.029	0.041
-199.319	800.000	0.074	-0.225
-198.304	-200.000	-0.002	-0.186
-197.290	-25.199	-0.274	0.160
-196.275	638.565	-0.069	0.175
-195.260	-36.920	0.137	-0.073
-194.246	-200.000	-0.019	-0.359
-193.231	-200.000	-0.042	0.208
-192.217	383.470	0.117	0.238
-191.202	-127.467	-0.328	0.047
-190.187	-16.829	-0.231	0.145
-189.173	110.568	-0.159	0.189
-188.158	22.868	-0.089	0.072
-187.144	-19.553	0.339	0.207
-186.129	12.591	0.125	0.096
-185.114	-16.689	0.189	0.118
-184.100	800.000	0.105	0.293
-183.085	800.000	-0.051	-0.174
-182.071	81.245	0.124	0.132
-181.056	-20.937	0.221	0.134
-180.042	-148.707	0.229	-0.018
-179.027	-200.000	0.017	-0.100
-178.012	23.960	0.081	0.066
-176.998	-200.000	0.031	-0.190
-175.983	-120.208	-0.067	-0.011
-174.969	800.000	-0.053	0.167
-173.954	105.951	0.178	-0.209
-172.939	800.000	0.074	-0.255
-171.925	-97.556	0.256	0.066
-170.910	-200.000	-0.005	0.271
-169.896	60.258	-0.130	-0.127
-168.881	100.823	0.104	0.119
-167.866	-108.394	-0.043	-0.009
-166.852	173.555	0.243	0.347
-165.837	17.048	-0.234	0.183
-164.823	-200.000	0.024	-0.116
-163.808	721.198	0.160	0.422
-162.793	-118.719	-0.179	-0.031
-161.779	-200.000	-0.012	-0.166
-160.764	-17.968	0.227	0.141
-159.750	-18.468	0.056	-0.034
-158.735	131.813	-0.109	-0.139
-157.720	-157.576	0.101	-0.006
-156.706	445.266	0.048	0.104
-155.691	-118.451	0.167	-0.029
-154.677	144.951	0.241	-0.318
-153.662	-68.266	-0.212	0.082
-152.647	154.719	-0.088	0.120
-151.633	140.752	-0.121	-0.158
-150.618	-105.899	-0.237	0.053
-149.604	-200.000	-0.006	0.189
-148.589	-200.000	-0.013	-0.168
-147.574	67.080	-0.147	-0.148
-146.560	-77.846	0.372	0.127
-145.545	461.016	0.066	-0.145
-144.531	-134.215	0.394	-0.048
-143.516	800.000	-0.048	0.177
-142.502	47.247	-0.068	-0.062
-141.487	615.749	0.090	0.222
-140.472	123.178	-0.110	0.136
-139.458	-103.884	0.208	-0.048
-138.443	-200.000	0.013	-0.160
-137.429	726.627	-0.016	-0.043
-136.414	341.112	-0.059	-0.114
-135.399	-51.464	0.251	0.116
-134.385	330.161	0.044	-0.084
-133.370	-175.345	-0.031	0.001
-132.356	800.000	-0.043	0.184
-131.341	-116.677	-0.306	-0.056
-130.326	-109.650	0.235	-0.049
-129.312	101.874	-0.135	0.155
-128.297	229.329	-0.161	0.259
-127.283	6.162	0.178	-0.130
-126.268	-162.714	0.273	-0.013
-125.253	-200.000	0.008	0.082
-124.239	-200.000	-0.012	0.107
-123.224	-98.794	0.110	0.028
-122.210	253.837	-0.106	0.179
