DTS Sentinel unit serial number:	SN413079Multiplexer serial number:	ORYXHardware model number:	OX4-SRSoftware version number:	ORYX F/W v4.00 Oryx Data Collector v3.7.2.0data status	okinstallation	princeton_trtdifferential loss correction	single-endedforward channel	channel 3reverse channel	N/Adate	2019/09/11time	08:22:11forward acquisition time	60.00reverse acquisition time	0.00gamma	496.2192k internal	0.2317k external	0.2317temperature offset calibration	0.9941default loss term (dB/km)	0.3790temperature slope calibration	1.0000multiplexer offset coefficient	1.0000multiplexer slope coefficient	1.0000fibre end	0.00T internal ref (°C)	32.81T ext. ref 1 (°C)	0.08T ext. ref 2 (°C)	30.34length (m)	temperature (°C)	Stokes	anti-Stokes-747.200	-53.179	0.274	0.127
-746.185	383.725	-0.102	0.212
-745.171	258.474	0.084	-0.146
-744.156	-42.836	-0.380	0.196
-743.142	38.914	0.368	-0.333
-742.127	800.000	-0.054	0.167
-741.112	127.887	-0.119	-0.153
-740.098	709.846	-0.085	-0.229
-739.083	38.857	-0.032	0.029
-738.069	-4.180	-0.180	0.127
-737.054	311.681	-0.135	-0.256
-736.039	-29.799	-0.269	-0.155
-735.025	23.572	0.044	0.036
-734.010	532.423	-0.110	0.263
-732.996	400.304	0.043	-0.091
-731.981	186.713	-0.080	-0.121
-730.966	300.102	0.089	-0.166
-729.952	80.066	0.108	0.117
-728.937	53.085	0.162	-0.157
-727.923	436.412	-0.129	0.285
-726.908	-48.532	-0.249	-0.121
-725.894	-2.264	-0.174	-0.123
-724.879	94.176	-0.132	0.152
-723.864	170.378	-0.056	-0.081
-722.850	697.693	-0.061	0.162
-721.835	-200.000	0.009	0.152
-720.821	21.149	0.170	-0.140
-719.806	800.000	-0.046	-0.168
-718.791	-76.988	0.211	0.074
-717.777	99.833	0.203	0.238
-716.762	-56.203	-0.158	-0.071
-715.748	-63.466	-0.196	-0.081
-714.733	-108.612	-0.137	0.030
-713.718	591.036	-0.046	-0.116
-712.704	12.139	-0.162	-0.126
-711.689	245.730	0.088	-0.150
-710.675	130.479	0.187	-0.242
-709.660	110.946	-0.066	-0.080
-708.645	-200.000	0.036	-0.227
-707.631	170.508	-0.088	0.127
-706.616	-200.000	0.000	-0.020
-705.602	-150.146	-0.086	-0.007
-704.587	-200.000	-0.024	-0.201
-703.572	-200.000	-0.018	-0.096
-702.558	159.587	-0.101	0.142
-701.543	-72.625	0.290	0.108
-700.529	-65.212	-0.061	-0.025
-699.514	-171.782	-0.289	-0.010
-698.499	246.400	-0.051	0.087
-697.485	469.972	-0.072	-0.163
-696.470	78.328	-0.171	-0.185
-695.456	352.485	0.103	-0.206
-694.441	-112.396	0.203	0.041
-693.426	-80.343	-0.039	0.013
-692.412	240.781	0.165	-0.279
-691.397	-99.383	0.102	0.026
-690.383	-180.008	-0.096	0.002
-689.368	179.658	0.091	-0.135
-688.354	-109.248	0.310	0.066
-687.339	300.757	0.212	0.395
-686.324	220.771	0.121	-0.196
-685.310	-129.525	-0.385	-0.054
-684.295	-144.108	-0.180	0.017
-683.281	-60.975	-0.308	-0.131
-682.266	-66.160	0.351	0.141
-681.251	662.645	-0.053	0.138
-680.237	404.485	0.213	0.454
-679.222	-111.452	0.164	0.034
-678.208	15.725	0.038	0.030
-677.193	-97.318	-0.260	-0.068
-676.178	-59.148	-0.114	-0.050
-675.164	-35.937	-0.176	-0.096
-674.149	-17.241	0.089	-0.056
-673.135	-200.000	0.021	-0.244
-672.120	-10.847	-0.159	0.106
-671.105	-200.000	-0.008	-0.063
-670.091	2.324	-0.247	-0.180
-669.076	373.590	-0.135	0.278
-668.062	-8.807	0.201	0.136
-667.047	-193.308	-0.259	-0.002
-666.032	-156.008	-0.281	-0.018
-665.018	185.119	0.277	-0.415
-664.003	-38.699	0.247	-0.132
-662.989	-91.560	-0.057	-0.017
-661.974	6.629	0.036	-0.027
-660.959	-200.000	0.039	-0.214
-659.945	-65.476	0.181	-0.073
-658.930	34.759	-0.255	0.225
-657.916	130.496	0.126	0.163
-656.901	-105.706	-0.242	-0.055
-655.886	-134.892	0.082	-0.010
-654.872	-200.000	0.075	-0.464
-653.857	-124.479	-0.128	0.020
-652.843	-137.536	0.338	-0.038
-651.828	28.010	-0.130	-0.111
-650.814	-52.580	-0.235	-0.109
-649.799	63.314	-0.188	-0.190
-648.784	481.998	-0.141	-0.323
-647.770	-109.464	-0.119	0.025
-646.755	68.493	-0.157	-0.162
-645.741	357.216	-0.062	-0.124
-644.726	-28.562	-0.279	0.162
-643.711	-127.819	0.400	0.058
-642.697	-200.000	0.048	-0.321
-641.682	-100.666	-0.472	-0.118
-640.668	800.000	0.085	-0.314
-639.653	-200.000	-0.016	-0.242
-638.638	304.655	0.045	-0.084
-637.624	-169.182	0.048	-0.002
-636.609	544.467	-0.084	-0.203
-635.595	5.703	0.017	0.013
-634.580	-139.078	-0.140	0.015
-633.565	-152.443	-0.067	0.005
-632.551	-4.917	0.192	-0.133
-631.536	800.000	-0.063	-0.247
-630.522	-120.631	0.124	-0.021
-629.507	-31.676	0.254	-0.144
-628.492	-49.509	0.194	-0.093
-627.478	-200.000	-0.053	0.243
-626.463	-16.858	-0.044	-0.028
-625.449	153.499	0.140	-0.193
-624.434	581.307	0.093	-0.230
-623.419	-178.961	-0.281	-0.006
-622.405	-115.355	-0.216	-0.041
-621.390	-73.813	-0.118	-0.043
-620.376	421.065	0.096	-0.207
-619.361	253.600	-0.164	-0.282
-618.346	195.996	-0.106	-0.162
-617.332	10.864	-0.269	-0.207
-616.317	8.681	0.148	0.113
-615.303	332.257	-0.165	0.321
-614.288	-146.980	0.478	0.041
-613.273	-86.318	0.337	0.105
-612.259	-200.000	-0.012	-0.295
-611.244	-37.733	-0.185	-0.099
-610.230	713.620	0.141	-0.377
-609.215	-200.000	0.037	-0.225
-608.201	-146.611	0.098	0.009
-607.186	192.954	0.188	0.287
-606.171	-94.016	-0.287	0.079
-605.157	49.990	-0.210	0.200
-604.142	-30.135	0.065	-0.037
-603.128	428.558	0.026	0.056
-602.113	-70.375	0.207	-0.079
-601.098	800.000	0.090	-0.289
-600.084	-8.427	0.144	0.097
-599.069	12.649	-0.314	0.244
-598.055	-160.817	-0.115	-0.006
-597.040	-91.197	-0.201	0.058
-596.025	-29.055	-0.057	0.033
-595.011	-103.345	0.316	-0.075
-593.996	18.720	0.175	-0.141
-592.982	800.000	0.042	-0.168
-591.967	-11.601	-0.262	0.173
-590.952	800.000	-0.024	0.104
-589.938	136.848	-0.172	0.227
-588.923	751.806	0.053	0.145
-587.909	-86.244	0.110	0.034
-586.894	-128.212	-0.122	-0.018
-585.879	800.000	0.088	-0.334
-584.865	-200.000	-0.024	-0.171
-583.850	-115.030	-0.273	0.052
-582.836	341.912	-0.098	0.192
-581.821	150.439	0.211	-0.288
-580.806	3.151	-0.132	-0.097
-579.792	712.312	-0.129	0.343
-578.777	-132.831	0.185	-0.024
-577.763	800.000	-0.091	-0.291
-576.748	-134.636	0.196	0.024
-575.733	-155.669	-0.157	-0.010
-574.719	250.523	0.104	-0.178
-573.704	132.618	-0.068	0.088
-572.690	293.188	0.043	-0.078
-571.675	64.818	-0.202	0.205
-570.661	-37.651	-0.167	-0.089
-569.646	370.248	0.128	-0.260
-568.631	128.662	0.025	0.032
-567.617	-200.000	0.039	-0.197
-566.602	800.000	0.089	-0.373
-565.588	-53.622	-0.474	-0.218
-564.573	2.570	-0.116	-0.085
-563.558	-200.000	-0.003	-0.211
-562.544	-57.564	0.245	-0.108
-561.529	-113.370	0.215	-0.042
-560.515	174.625	-0.136	-0.197
-559.500	610.263	0.116	-0.290
-558.485	-95.002	-0.301	-0.082
-557.471	-117.347	-0.410	0.075
-556.456	168.798	-0.118	-0.169
-555.442	800.000	0.098	-0.366
-554.427	-124.267	-0.390	-0.061
-553.412	-22.131	-0.189	0.115
-552.398	-68.154	-0.102	-0.040
-551.383	240.095	-0.155	0.259
-550.369	176.627	0.089	0.130
-549.354	343.323	0.074	-0.146
-548.339	71.187	0.155	0.161
-547.325	-65.978	0.062	0.025
-546.310	-200.000	0.008	0.226
-545.296	800.000	-0.061	0.225
-544.281	-200.000	-0.012	-0.153
-543.266	69.477	0.091	0.094
-542.252	-8.158	0.178	-0.121
-541.237	-200.000	0.024	-0.121
-540.223	474.076	-0.114	-0.258
-539.208	359.741	0.035	-0.071
-538.193	-200.000	-0.040	0.215
-537.179	-6.209	-0.047	0.032
-536.164	-146.127	-0.109	0.010
-535.150	-27.902	-0.090	0.052
-534.135	-200.000	0.045	0.428
-533.121	151.267	-0.032	-0.044
-532.106	79.335	0.153	0.164
-531.091	218.080	0.031	-0.049
-530.077	-200.000	0.027	-0.274
-529.062	-121.095	-0.292	-0.049
-528.048	-200.000	-0.023	-0.226
-527.033	-10.023	-0.215	-0.144
-526.018	189.241	0.266	0.400
-525.004	171.058	-0.088	-0.127
-523.989	-26.187	-0.295	0.174
-522.975	122.553	0.272	0.341
-521.960	172.166	-0.223	0.322
-520.945	800.000	-0.094	-0.280
-519.931	-22.086	-0.235	0.143
-518.916	331.233	0.049	0.095
-517.902	-104.541	-0.127	-0.029
-516.887	177.421	0.189	0.276
-515.872	-21.588	-0.230	0.140
-514.858	-103.488	-0.130	0.031
-513.843	313.073	-0.094	-0.177
-512.829	295.407	0.139	0.255
-511.814	-84.403	0.272	-0.086
-510.799	-139.661	0.205	0.022
-509.785	8.598	0.215	0.163
-508.770	137.161	0.116	-0.152
-507.756	-143.379	-0.148	-0.014
-506.741	-102.140	0.174	0.042
-505.726	118.575	0.050	0.061
-504.712	-119.388	0.329	-0.057
-503.697	-55.930	-0.161	-0.072
-502.683	-200.000	-0.001	-0.314
-501.668	1.945	-0.093	0.068
-500.653	16.306	0.350	0.277
-499.639	-88.353	0.240	-0.072
-498.624	-30.725	0.138	0.078
-497.610	313.908	0.170	-0.320
-496.595	316.901	0.083	0.157
-495.581	800.000	0.055	0.229
-494.566	-96.494	-0.221	0.059
-493.551	-68.442	0.368	0.143
-492.537	-200.000	-0.004	0.338
-491.522	-200.000	0.027	-0.491
-490.508	-145.844	0.134	-0.012
-489.493	175.114	-0.057	-0.083
-488.478	-200.000	-0.012	-0.320
-487.464	95.621	-0.027	-0.031
-486.449	-99.063	0.124	-0.031
-485.435	510.848	0.028	-0.065
-484.420	-200.000	-0.013	0.141
-483.405	37.402	0.164	-0.146
-482.391	54.578	0.289	-0.279
-481.376	380.188	-0.149	0.306
-480.362	26.370	0.149	-0.125
-479.347	-112.338	0.205	0.041
-478.332	-45.061	-0.401	0.200
-477.318	107.577	-0.058	-0.069
-476.303	109.685	-0.053	0.063
-475.289	-18.651	-0.213	-0.133
-474.274	138.563	-0.039	-0.051
-473.259	64.524	0.365	-0.368
-472.245	800.000	-0.036	0.124
-471.230	688.778	-0.043	-0.113
-470.216	43.772	-0.089	-0.082
-469.201	800.000	0.050	0.191
-468.186	-53.053	-0.038	-0.018
-467.172	-44.604	-0.023	0.012
-466.157	-145.730	-0.057	-0.005
-465.143	800.000	0.027	-0.084
-464.128	11.199	-0.287	-0.220
-463.113	69.892	0.080	0.082
-462.099	583.013	-0.094	0.230
-461.084	-86.866	0.249	-0.076
-460.070	-200.000	0.047	0.249
-459.055	-97.568	-0.176	0.046
-458.040	59.756	0.100	0.099
-457.026	-68.961	0.367	0.142
-456.011	208.679	0.056	-0.088
-454.997	319.935	-0.026	0.049
-453.982	240.003	-0.022	-0.036
-452.968	22.658	0.110	-0.090
-451.953	33.745	-0.282	0.245
-450.938	-200.000	0.054	0.261
-449.924	-119.737	0.201	0.035
-448.909	-200.000	-0.034	-0.156
-447.895	-93.964	-0.372	-0.102
-446.880	231.293	0.050	0.083
-445.865	42.142	0.297	0.270
-444.851	34.407	-0.179	0.156
-443.836	138.119	0.131	0.172
-442.822	-127.080	-0.158	-0.023
-441.807	270.905	-0.021	-0.036
-440.792	-200.000	-0.038	0.246
-439.778	-24.375	-0.174	-0.104
-438.763	-200.000	-0.008	-0.123
-437.749	61.976	0.155	0.155
-436.734	141.520	-0.079	0.105
-435.719	87.375	0.154	0.171
-434.705	-200.000	-0.002	-0.163
-433.690	-88.369	-0.152	-0.045
-432.676	800.000	-0.087	0.349
-431.661	225.079	0.178	0.289
-430.646	306.337	-0.033	-0.062
-429.632	77.402	-0.210	0.223
-428.617	112.206	-0.038	0.046
-427.603	-200.000	0.018	0.151
-426.588	46.365	-0.166	0.154
-425.573	-134.847	0.217	0.026
-424.559	99.609	0.106	0.123
-423.544	-12.296	0.212	0.139
-422.530	800.000	-0.025	0.088
-421.515	-87.597	-0.077	0.023
-420.500	-38.172	-0.137	-0.072
-419.486	-8.650	0.195	-0.131
-418.471	139.810	-0.097	0.128
-417.457	-21.090	-0.333	-0.204
-416.442	-48.324	-0.061	0.029
-415.428	-200.000	-0.074	0.337
-414.413	143.542	0.075	0.099
-413.398	-135.267	0.125	0.015
-412.384	257.643	0.161	0.277
-411.369	521.901	-0.063	-0.147
-410.355	800.000	-0.083	0.333
-409.340	185.978	-0.114	0.169
-408.325	-200.000	0.010	-0.234
-407.311	152.689	0.042	0.058
-406.296	-200.000	0.001	-0.113
-405.282	214.103	-0.136	0.216
-404.267	800.000	0.082	-0.324
-403.252	-200.000	-0.001	-0.111
-402.238	84.927	0.071	0.078
-401.223	-200.000	0.057	0.370
-400.209	-82.138	-0.137	0.045
-399.194	-104.191	-0.090	-0.021
-398.179	-200.000	0.052	0.259
-397.165	165.770	-0.233	0.330
-396.150	152.939	0.141	0.192
-395.136	-200.000	-0.039	0.273
-394.121	404.807	-0.082	0.172
-393.106	0.832	0.193	-0.138
-392.092	-46.152	0.285	-0.140
-391.077	-200.000	0.005	0.068
-390.063	184.186	-0.205	-0.303
-389.048	266.233	-0.059	0.102
-388.033	0.822	-0.054	-0.039
-387.019	800.000	-0.059	-0.194
-386.004	184.337	-0.156	-0.230
-384.990	-121.342	-0.107	0.018
-383.975	40.325	0.330	-0.296
-382.960	152.312	-0.140	-0.191
-381.946	736.113	-0.045	-0.121
-380.931	-110.010	0.226	-0.047
-379.917	-65.843	-0.314	0.125
-378.902	22.241	0.097	-0.079
-377.888	-72.312	-0.122	-0.045
-376.873	-112.618	-0.225	0.045
-375.858	-98.775	0.466	0.118
-374.844	162.856	-0.131	-0.184
-373.829	-200.000	0.018	-0.129
-372.815	-18.863	-0.074	-0.046
-371.800	116.434	-0.082	-0.100
-370.785	-26.537	0.291	0.170
-369.771	61.088	-0.122	0.121
-368.756	74.208	-0.265	-0.278
-367.742	155.518	0.011	0.015
-366.727	-69.824	-0.129	-0.049
-365.712	-134.666	0.181	-0.022
-364.698	-200.000	0.008	0.090
-363.683	-45.684	-0.261	-0.129
-362.669	-200.000	0.004	0.259
-361.654	41.859	0.227	0.206
-360.639	-24.355	-0.363	0.216
-359.625	59.200	0.181	-0.178
-358.610	-162.112	0.292	0.015
-357.596	-101.280	0.292	-0.071
-356.581	-54.129	-0.244	-0.111
-355.566	88.203	-0.083	-0.091
-354.552	-189.694	0.486	-0.006
-353.537	99.200	-0.089	-0.103
-352.523	-133.707	-0.284	-0.035
-351.508	-58.777	-0.116	0.050
-350.493	6.782	-0.327	0.243
-349.479	-200.000	-0.037	0.329
-348.464	-47.704	0.123	0.060
-347.450	-200.000	0.012	0.220
-346.435	-200.000	0.006	0.069
-345.420	-80.682	-0.068	-0.023
-344.406	-170.634	0.308	0.011
-343.391	-200.000	-0.082	0.365
-342.377	-13.995	-0.056	0.036
-341.362	-200.000	0.014	0.113
-340.348	208.632	0.208	0.324
-339.333	326.093	0.017	0.033
-338.318	-200.000	-0.009	0.219
-337.304	35.021	-0.152	-0.133
-336.289	311.328	0.041	0.077
-335.275	66.325	-0.285	0.288
-334.260	-152.654	-0.151	-0.011
-333.245	-161.017	0.287	-0.015
-332.231	223.049	-0.217	-0.349
-331.216	800.000	-0.029	-0.106
-330.202	800.000	0.073	0.312
-329.187	-186.282	0.093	-0.001
-328.172	-89.773	0.238	-0.070
-327.158	15.289	0.165	0.129
-326.143	-86.363	-0.065	0.020
-325.129	18.674	0.284	-0.226
-324.114	-200.000	-0.036	-0.295
-323.099	56.545	-0.216	-0.210
-322.085	-200.000	0.019	-0.243
-321.070	-19.964	0.129	0.079
-320.056	20.946	-0.128	0.104
-319.041	512.268	0.083	0.192
-318.026	371.389	0.090	0.183
-317.012	34.109	0.133	-0.115
-315.997	423.649	-0.058	0.124
-314.983	-157.436	0.454	-0.027
-313.968	37.456	0.152	-0.134
-312.953	-133.589	-0.061	0.008
-311.939	-138.509	-0.238	-0.026
-310.924	-15.962	-0.059	0.037
-309.910	-27.519	0.168	-0.097
-308.895	-22.543	0.224	0.135
-307.880	716.173	0.108	0.285
-306.866	-108.773	-0.183	-0.039
-305.851	-61.714	0.124	-0.052
-304.837	546.886	-0.117	0.280
-303.822	125.795	-0.244	-0.307
-302.807	206.544	-0.099	-0.153
-301.793	320.548	-0.080	0.151
-300.778	-200.000	-0.044	0.241
-299.764	800.000	0.063	0.205
-298.749	-200.000	0.008	-0.291
-297.735	43.908	0.194	0.177
-296.720	264.539	-0.209	0.361
-295.705	74.186	-0.227	-0.237
-294.691	-200.000	0.001	0.250
-293.676	800.000	-0.065	-0.250
-292.662	-143.555	-0.064	-0.006
-291.647	-113.870	0.306	0.059
-290.632	792.348	-0.103	-0.282
-289.618	-200.000	-0.003	-0.368
-288.603	84.659	0.145	0.158
-287.589	59.130	-0.194	0.190
-286.574	-63.787	-0.152	0.062
-285.559	460.508	0.088	0.196
-284.545	800.000	0.062	-0.243
-283.530	-27.083	0.154	0.089
-282.516	-62.329	0.102	-0.042
-281.501	-124.871	-0.223	0.034
-280.486	163.503	0.077	-0.108
-279.472	-19.481	-0.072	0.044
-278.457	123.800	0.154	0.192
-277.443	-106.128	0.170	-0.038
-276.428	-200.000	0.011	-0.054
-275.413	-75.850	0.301	-0.106
-274.399	472.203	-0.052	0.116
-273.384	458.786	0.131	0.290
-272.370	70.760	-0.151	-0.156
-271.355	-126.992	-0.536	0.078
-270.340	743.275	0.084	-0.225
-269.326	417.139	0.103	0.218
-268.311	-24.380	0.052	0.031
-267.297	-4.677	0.049	-0.034
-266.282	-200.000	-0.076	0.335
-265.267	-173.413	0.417	-0.013
-264.253	-24.562	0.119	0.070
-263.238	294.209	0.104	0.189
-262.224	168.385	0.089	0.126
-261.209	-157.521	-0.064	0.004
-260.195	-200.000	-0.009	-0.218
-259.180	-125.145	-0.325	0.049
-258.165	-26.789	0.124	0.072
-257.151	-111.761	0.305	0.061
-256.136	55.945	0.196	-0.189
-255.122	-110.272	0.150	-0.031
-254.107	800.000	0.148	-0.501
-253.092	-3.538	-0.176	0.122
-252.078	-127.070	-0.186	0.027
-251.063	-200.000	0.024	0.128
-250.049	-171.516	-0.166	0.005
-249.034	232.443	0.035	0.057
-248.019	-200.000	0.000	0.216
-247.005	-193.972	-0.169	-0.001
-245.990	-36.774	0.410	-0.218
-244.976	-24.804	0.269	-0.158
-243.961	-29.603	0.231	-0.131
-242.946	-148.906	-0.145	-0.012
-241.932	250.390	-0.060	0.101
-240.917	48.666	-0.017	0.016
-239.903	107.187	0.244	0.288
-238.888	152.556	0.195	0.264
-237.873	621.438	0.065	-0.164
-236.859	-200.000	0.022	0.122
-235.844	-32.252	-0.332	-0.184
-234.830	-26.787	-0.283	-0.164
-233.815	-17.900	-0.099	0.062
-232.800	29.715	-0.097	-0.082
-231.786	-200.000	0.053	0.000
-230.771	-79.273	0.336	0.113
-229.757	13.923	-0.326	0.252
-228.742	419.418	-0.073	0.155
-227.727	6.915	-0.235	-0.174
-226.713	-200.000	0.012	-0.073
-225.698	-200.000	-0.043	0.225
-224.684	-148.478	0.080	0.006
-223.669	-60.768	0.241	0.101
-222.655	-4.848	-0.228	0.156
-221.640	-200.000	0.002	-0.224
-220.625	95.923	-0.036	0.041
-219.611	330.278	0.082	0.156
-218.596	-107.394	-0.387	0.084
-217.582	5.072	-0.262	0.191
-216.567	-200.000	0.055	-0.528
-215.552	36.803	-0.185	0.162
-214.538	800.000	0.010	-0.029
-213.523	61.786	0.171	0.169
-212.509	3.126	0.196	-0.141
-211.494	51.446	0.093	0.088
-210.479	170.527	0.144	-0.205
-209.465	-200.000	0.000	0.248
-208.450	164.068	0.051	-0.071
-207.436	5.722	-0.161	-0.118
-206.421	29.978	0.312	-0.263
-205.406	800.000	0.117	-0.375
-204.392	-147.441	-0.185	-0.015
-203.377	212.861	-0.244	-0.381
-202.363	-200.000	-0.010	-0.130
-201.348	-200.000	-0.011	0.171
-200.333	-26.971	-0.124	0.071
-199.319	-200.000	0.014	0.083
-198.304	278.799	-0.049	0.087
-197.290	-99.141	-0.130	-0.033
-196.275	80.167	-0.235	0.250
-195.260	-200.000	0.276	-0.000
-194.246	-64.910	0.131	-0.053
-193.231	11.517	-0.215	0.163
-192.217	632.491	0.073	-0.183
-191.202	-63.833	-0.194	0.079
-190.187	-27.670	-0.293	0.168
-189.173	301.129	-0.077	-0.141
-188.158	800.000	0.055	-0.163
-187.144	-200.000	-0.003	-0.070
-186.129	-81.784	0.345	0.112
-185.114	56.469	0.074	0.071
-184.100	161.719	-0.159	-0.220
-183.085	-12.545	0.204	-0.132
-182.071	67.366	0.236	-0.239
-181.056	181.910	-0.136	0.198
-180.042	110.272	-0.139	0.165
-179.027	-82.464	-0.121	0.039
-178.012	-51.197	0.246	0.114
-176.998	800.000	0.095	-0.334
-175.983	28.089	-0.271	0.227
-174.969	156.554	-0.094	-0.129
-173.954	20.109	0.035	-0.028
-172.939	-148.427	0.316	0.026
-171.925	171.239	0.091	0.129
-170.910	530.223	0.038	-0.089
-169.896	245.219	0.069	-0.114
-168.881	-36.986	-0.079	-0.042
-167.866	-78.876	-0.113	-0.038
-166.852	760.008	-0.049	0.132
-165.837	164.153	0.147	-0.206
-164.823	277.303	0.175	0.308
-163.808	-200.000	-0.024	-0.160
-162.793	11.521	-0.113	0.086
-161.779	365.588	-0.081	-0.161
-160.764	261.211	0.054	0.092
-159.750	96.796	-0.119	0.135
-158.735	800.000	0.101	-0.348
-157.720	284.881	0.087	-0.155
-156.706	45.110	0.071	-0.065
-155.691	-59.323	-0.083	-0.036
-154.677	-88.041	0.060	-0.018
-153.662	48.641	0.152	-0.141
-152.647	-192.399	0.174	0.002
-151.633	168.612	0.125	0.177
-150.618	-105.486	0.168	-0.038
-149.604	5.690	-0.195	0.142
-148.589	268.241	0.118	-0.204
-147.574	146.207	-0.120	0.160
-146.560	-6.140	0.471	-0.318
-145.545	-92.024	-0.010	0.003
-144.531	-183.095	-0.238	-0.004
-143.516	-115.390	-0.109	-0.020
-142.502	-200.000	-0.023	-0.124
-141.487	-22.667	0.196	0.117
-140.472	57.758	0.154	-0.149
-139.458	313.405	0.008	-0.015
-138.443	248.453	-0.173	-0.289
-137.429	-133.748	0.256	-0.032
-136.414	-16.271	0.259	-0.163
-135.399	800.000	-0.005	0.015
-134.385	388.270	-0.024	0.050
-133.370	-160.081	0.117	0.006
-132.356	163.094	-0.117	-0.162
-131.341	-39.313	0.191	-0.099
-130.326	194.267	-0.073	-0.109
-129.312	-95.650	0.022	0.006
-128.297	-11.351	-0.059	-0.039
-127.283	157.273	0.153	-0.209
-126.268	-107.606	0.262	-0.057
-125.253	-84.183	0.192	-0.060
-124.239	-103.176	-0.248	-0.058
-123.224	-12.646	-0.174	0.112
-122.210	682.943	-0.020	0.051
-121.195	115.837	-0.270	-0.326
