DTS Sentinel unit serial number:	SN413079Multiplexer serial number:	ORYXHardware model number:	OX4-SRSoftware version number:	ORYX F/W v4.00 Oryx Data Collector v3.7.2.0data status	okinstallation	princeton_trtdifferential loss correction	single-endedforward channel	channel 3reverse channel	N/Adate	2019/09/11time	21:38:10forward acquisition time	60.00reverse acquisition time	0.00gamma	496.2192k internal	0.2310k external	0.2310temperature offset calibration	1.0038default loss term (dB/km)	0.3790temperature slope calibration	1.0000multiplexer offset coefficient	1.0000multiplexer slope coefficient	1.0000fibre end	0.00T internal ref (°C)	35.87T ext. ref 1 (°C)	1.67T ext. ref 2 (°C)	30.31length (m)	temperature (°C)	Stokes	anti-Stokes-747.200	-200.000	-0.069	-0.399
-746.185	-93.728	0.156	0.044
-745.171	-150.365	0.174	0.014
-744.156	-72.446	-0.268	0.101
-743.142	2.374	-0.191	0.141
-742.127	293.635	-0.144	0.267
-741.112	152.515	-0.221	-0.307
-740.098	-81.651	-0.149	-0.050
-739.083	-43.197	0.105	0.054
-738.069	168.890	0.114	0.165
-737.054	190.518	-0.129	-0.196
-736.039	404.004	-0.131	-0.279
-735.025	-118.009	0.268	-0.049
-734.010	513.804	-0.087	0.206
-732.996	-50.643	-0.234	0.112
-731.981	-200.000	-0.013	0.123
-730.966	46.847	-0.236	0.223
-729.952	-200.000	-0.052	-0.266
-728.937	-125.742	-0.109	0.017
-727.923	321.651	-0.199	-0.383
-726.908	402.031	-0.027	0.057
-725.894	-198.090	-0.113	-0.001
-724.879	-12.097	0.195	0.129
-723.864	800.000	-0.012	0.041
-722.850	445.257	0.042	0.095
-721.835	-50.423	-0.207	-0.099
-720.821	-21.806	-0.154	-0.095
-719.806	800.000	0.124	0.376
-718.791	-15.381	0.094	0.061
-717.777	208.938	-0.093	0.147
-716.762	800.000	-0.096	0.310
-715.748	116.791	0.046	0.057
-714.733	17.835	0.199	-0.160
-713.718	246.895	-0.123	-0.210
-712.704	-6.807	0.089	-0.061
-711.689	-200.000	-0.008	-0.364
-710.675	218.764	-0.149	-0.241
-709.660	-200.000	0.023	-0.238
-708.645	-200.000	0.012	0.067
-707.631	87.671	-0.199	0.223
-706.616	55.274	-0.095	-0.093
-705.602	-22.926	-0.141	-0.086
-704.587	-14.748	-0.227	0.148
-703.572	-38.024	0.090	-0.049
-702.558	-200.000	-0.015	0.071
-701.543	-74.528	0.286	0.105
-700.529	63.220	0.207	-0.211
-699.514	-139.686	-0.266	0.029
-698.499	-103.297	0.217	-0.052
-697.485	659.597	0.180	0.470
-696.470	710.130	0.064	0.171
-695.456	12.873	-0.249	-0.195
-694.441	133.314	0.195	-0.255
-693.426	-53.800	0.103	0.048
-692.412	-120.604	-0.469	0.080
-691.397	431.134	0.045	-0.100
-690.383	133.569	-0.123	-0.162
-689.368	266.812	-0.148	-0.263
-688.354	-59.834	0.135	-0.059
-687.339	-64.042	-0.306	0.127
-686.324	-200.000	0.007	-0.111
-685.310	-51.907	0.177	0.083
-684.295	18.587	0.090	-0.073
-683.281	800.000	-0.057	-0.195
-682.266	-168.388	0.036	0.001
-681.251	800.000	0.039	0.154
-680.237	800.000	-0.130	-0.483
-679.222	-139.444	-0.099	-0.011
-678.208	-123.180	-0.414	-0.067
-677.193	-100.975	0.069	0.017
-676.178	-66.508	-0.343	0.138
-675.164	-200.000	-0.034	-0.268
-674.149	-200.000	-0.032	0.307
-673.135	-200.000	-0.031	-0.206
-672.120	-128.168	-0.184	-0.027
-671.105	377.129	0.030	-0.061
-670.091	-200.000	-0.066	-0.304
-669.076	-115.407	0.123	-0.024
-668.062	-200.000	-0.018	-0.121
-667.047	615.103	-0.022	0.055
-666.032	733.945	0.121	0.328
-665.018	-105.910	-0.161	0.037
-664.003	-40.531	0.093	0.049
-662.989	-200.000	0.080	-0.463
-661.974	68.011	-0.222	-0.230
-660.959	-35.161	-0.123	0.068
-659.945	800.000	-0.027	0.116
-658.930	82.138	-0.093	-0.102
-657.916	-104.031	0.053	-0.012
-656.901	-37.750	-0.171	0.092
-655.886	291.108	0.064	-0.117
-654.872	91.855	-0.236	-0.269
-653.857	-25.381	-0.417	-0.249
-652.843	-37.941	-0.062	-0.033
-651.828	800.000	0.049	-0.158
-650.814	180.384	-0.075	-0.111
-649.799	19.386	0.272	-0.221
-648.784	31.663	0.161	-0.140
-647.770	5.558	-0.197	0.147
-646.755	154.843	0.110	0.153
-645.741	441.181	-0.171	-0.379
-644.726	-6.292	0.120	0.083
-643.711	-200.000	-0.039	-0.236
-642.697	-200.000	0.026	0.129
-641.682	378.335	-0.220	-0.456
-640.668	800.000	-0.047	-0.172
-639.653	-200.000	-0.004	-0.024
-638.638	246.095	-0.099	-0.168
-637.624	-120.979	0.120	0.020
-636.609	800.000	-0.030	-0.121
-635.595	281.466	0.070	0.126
-634.580	-171.962	-0.178	0.006
-633.565	-24.292	0.095	-0.057
-632.551	-200.000	-0.029	0.150
-631.536	800.000	-0.042	0.130
-630.522	2.534	0.153	-0.112
-629.507	-75.625	-0.418	0.150
-628.492	-39.017	-0.228	-0.121
-627.478	294.989	0.083	0.154
-626.463	187.338	-0.175	-0.264
-625.449	-55.157	-0.087	-0.039
-624.434	-108.924	0.268	0.058
-623.419	-145.188	-0.302	-0.028
-622.405	-57.420	-0.256	0.114
-621.390	15.562	0.176	0.140
-620.376	84.163	-0.175	-0.193
-619.361	800.000	-0.030	0.122
-618.346	-200.000	-0.004	0.193
-617.332	-89.940	0.151	-0.044
-616.317	71.023	-0.308	-0.323
-615.303	800.000	-0.028	-0.109
-614.288	11.449	-0.174	0.135
-613.273	328.172	-0.043	-0.083
-612.259	-28.881	-0.127	0.074
-611.244	-62.803	-0.260	-0.109
-610.230	-200.000	-0.014	-0.098
-609.215	-145.260	-0.126	0.011
-608.201	49.859	0.221	-0.210
-607.186	-200.000	-0.021	0.410
-606.171	94.170	-0.108	0.124
-605.157	800.000	-0.015	0.059
-604.142	145.633	-0.125	0.169
-603.128	-130.181	-0.311	-0.043
-602.113	132.697	0.068	-0.089
-601.098	-134.613	0.109	-0.013
-600.084	-58.802	0.147	-0.064
-599.069	49.002	-0.253	0.240
-598.055	107.053	-0.091	0.109
-597.040	-200.000	0.020	0.163
-596.025	275.705	0.047	-0.084
-595.011	-20.946	0.089	0.055
-593.996	-149.086	0.145	0.012
-592.982	-200.000	-0.016	-0.272
-591.967	1.896	0.138	0.100
-590.952	205.076	-0.153	0.240
-589.938	96.797	0.142	0.164
-588.923	-200.000	0.007	-0.066
-587.909	87.010	0.141	-0.157
-586.894	120.963	0.057	-0.072
-585.879	347.417	-0.044	-0.088
-584.865	579.845	-0.064	0.158
-583.850	-159.844	0.151	-0.008
-582.836	-179.185	0.089	-0.002
-581.821	-36.612	-0.206	-0.112
-580.806	458.716	-0.054	0.121
-579.792	684.748	-0.090	0.238
-578.777	95.861	0.226	-0.260
-577.763	-127.217	-0.209	0.031
-576.748	234.494	0.086	0.143
-575.733	317.421	-0.085	-0.162
-574.719	196.029	0.154	0.236
-573.704	-90.938	0.228	0.066
-572.690	-113.048	0.331	-0.066
-571.675	130.140	0.183	-0.237
-570.661	479.887	-0.068	-0.155
-569.646	199.269	-0.083	-0.128
-568.631	-132.326	-0.247	0.032
-567.617	-200.000	-0.015	0.086
-566.602	-63.059	-0.334	-0.139
-565.588	210.889	0.206	-0.327
-564.573	-200.000	-0.009	-0.341
-563.558	-200.000	0.013	-0.181
-562.544	164.946	0.108	0.153
-561.529	-78.615	-0.187	-0.065
-560.515	199.293	-0.033	-0.051
-559.500	-117.996	-0.228	-0.041
-558.485	-23.825	0.106	-0.064
-557.471	486.618	0.095	0.219
-556.456	-173.168	0.353	0.011
-555.442	-102.865	0.149	0.036
-554.427	-200.000	0.074	-0.434
-553.412	-85.846	-0.106	0.033
-552.398	276.181	-0.136	0.244
-551.383	283.598	0.124	0.224
-550.369	203.864	-0.130	0.203
-549.354	-88.232	-0.360	0.109
-548.339	800.000	-0.048	0.166
-547.325	24.897	-0.202	-0.169
-546.310	55.550	-0.174	0.169
-545.296	16.888	-0.271	-0.216
-544.281	376.083	0.115	-0.237
-543.266	74.433	0.101	-0.107
-542.252	800.000	0.052	-0.167
-541.237	311.663	-0.038	-0.073
-540.223	-95.798	-0.242	0.065
-539.208	-61.839	-0.166	-0.070
-538.193	800.000	0.008	0.023
-537.179	-89.259	0.278	0.083
-536.164	-92.959	0.094	-0.026
-535.150	-135.457	0.144	0.017
-534.135	272.376	-0.101	0.179
-533.121	-200.000	0.004	0.289
-532.106	-47.211	0.065	-0.032
-531.091	-73.952	-0.130	0.048
-530.077	392.626	0.130	-0.272
-529.062	128.638	-0.129	0.166
-528.048	-150.476	0.118	-0.009
-527.033	800.000	0.040	-0.151
-526.018	300.412	0.051	-0.094
-525.004	800.000	-0.029	0.091
-523.989	-124.739	0.238	-0.037
-522.975	776.096	-0.029	0.080
-521.960	-200.000	-0.023	-0.316
-520.945	800.000	0.023	0.069
-519.931	-35.337	0.069	-0.038
-518.916	-156.679	-0.127	0.008
-517.902	800.000	0.096	0.308
-516.887	-81.593	-0.343	0.114
-515.872	-92.972	-0.152	0.043
-514.858	-55.696	0.269	0.121
-513.843	-84.570	-0.153	0.049
-512.829	264.446	-0.094	-0.165
-511.814	-200.000	-0.037	-0.420
-510.799	4.232	-0.341	0.251
-509.785	248.685	-0.118	-0.201
-508.770	-78.526	-0.228	-0.079
-507.756	19.109	-0.137	0.111
-506.741	290.591	-0.064	-0.116
-505.726	98.591	0.049	-0.056
-504.712	184.992	0.117	-0.174
-503.697	34.802	0.206	0.181
-502.683	-144.758	0.400	-0.037
-501.668	-147.696	0.263	-0.022
-500.653	800.000	-0.064	0.201
-499.639	6.604	0.057	-0.042
-498.624	383.740	-0.232	-0.480
-497.610	-200.000	0.048	0.214
-496.595	-112.665	0.347	-0.069
-495.581	-189.445	0.158	-0.002
-494.566	103.478	0.150	0.177
-493.551	114.306	-0.235	-0.288
-492.537	-53.138	0.353	0.163
-491.522	-113.371	0.051	0.010
-490.508	-200.000	-0.024	0.166
-489.493	71.808	-0.211	-0.221
-488.478	100.530	0.287	0.335
-487.464	-106.400	0.163	0.037
-486.449	-71.529	0.270	-0.101
-485.435	388.536	-0.014	0.029
-484.420	415.237	0.113	0.243
-483.405	-86.421	-0.249	-0.077
-482.391	800.000	-0.051	-0.196
-481.376	800.000	-0.029	0.098
-480.362	29.951	-0.368	0.315
-479.347	476.699	-0.132	0.301
-478.332	-11.007	0.267	-0.177
-477.318	800.000	0.007	-0.022
-476.303	-69.396	-0.131	0.051
-475.289	800.000	-0.065	-0.201
-474.274	-133.405	0.017	0.002
-473.259	238.649	0.017	-0.029
-472.245	-87.240	-0.043	0.013
-471.230	529.164	0.038	-0.091
-470.216	64.526	-0.269	-0.272
-469.201	-143.572	0.081	0.008
-468.186	-200.000	0.006	0.129
-467.172	100.433	0.268	-0.313
-466.157	57.037	-0.165	-0.162
-465.143	83.734	-0.095	0.104
-464.128	28.713	0.089	0.076
-463.113	-64.377	-0.223	0.091
-462.099	800.000	0.088	-0.257
-461.084	-46.554	-0.248	0.122
-460.070	800.000	-0.023	-0.070
-459.055	-97.208	-0.186	0.049
-458.040	-126.002	0.234	0.035
-457.026	800.000	0.074	0.294
-456.011	800.000	0.018	-0.060
-454.997	-59.354	0.197	-0.085
-453.982	719.529	0.054	0.143
-452.968	-153.240	0.312	0.022
-451.953	72.983	0.240	-0.252
-450.938	-200.000	0.002	-0.376
-449.924	-3.532	0.370	0.258
-448.909	110.285	0.298	0.359
-447.895	148.844	0.144	-0.195
-446.880	109.623	0.089	-0.108
-445.865	305.996	0.120	-0.223
-444.851	-200.000	-0.005	0.067
-443.836	-200.000	-0.035	-0.271
-442.822	-124.057	0.168	-0.026
-441.807	82.343	-0.250	0.272
-440.792	-5.954	-0.037	0.025
-439.778	-200.000	0.039	-0.238
-438.763	-177.345	0.231	-0.006
-437.749	63.222	0.188	-0.189
-436.734	25.265	-0.164	-0.137
-435.719	800.000	0.011	0.041
-434.705	-152.502	0.323	-0.023
-433.690	396.138	0.081	0.170
-432.676	74.816	-0.150	-0.158
-431.661	800.000	0.103	-0.367
-430.646	113.618	-0.267	-0.326
-429.632	-19.434	0.496	0.309
-428.617	-66.133	-0.419	0.168
-427.603	-200.000	0.057	-0.271
-426.588	3.079	0.310	-0.226
-425.573	-75.738	0.312	-0.111
-424.559	-95.866	0.220	0.059
-423.544	-6.181	-0.217	0.149
-422.530	100.389	-0.220	-0.256
-421.515	206.536	-0.162	-0.252
-420.500	404.845	-0.053	0.112
-419.486	9.678	-0.027	-0.021
-418.471	-3.377	0.109	0.076
-417.457	-200.000	-0.030	-0.213
-416.442	304.772	-0.135	-0.252
-415.428	265.317	-0.071	-0.124
-414.413	-106.407	-0.208	-0.047
-413.398	-83.098	-0.278	-0.090
-412.384	105.917	0.252	0.299
-411.369	280.843	0.111	-0.199
-410.355	598.100	0.139	0.345
-409.340	-200.000	-0.023	-0.199
-408.325	91.610	0.190	-0.214
-407.311	-103.538	-0.152	-0.036
-406.296	145.252	-0.174	-0.233
-405.282	800.000	0.038	-0.147
-404.267	211.596	0.093	-0.146
-403.252	-78.638	-0.378	0.130
-402.238	46.879	0.144	-0.134
-401.223	-200.000	0.014	0.192
-400.209	-114.101	-0.147	-0.029
-399.194	445.441	0.057	-0.126
-398.179	-200.000	0.039	-0.260
-397.165	-104.591	0.080	0.018
-396.150	92.423	-0.178	0.201
-395.136	-144.453	-0.133	-0.012
-394.121	800.000	-0.018	-0.051
-393.106	11.009	-0.495	-0.379
-392.092	72.651	0.357	-0.373
-391.077	139.269	0.110	-0.145
-390.063	-113.854	0.234	0.046
-389.048	313.759	-0.114	0.214
-388.033	-170.180	-0.241	-0.009
-387.019	800.000	0.071	0.258
-386.004	-59.798	0.225	-0.096
-384.990	25.017	0.078	0.065
-383.975	-127.905	0.133	-0.019
-382.960	-13.750	-0.310	0.201
-381.946	73.551	-0.167	0.175
-380.931	-200.000	0.031	-0.297
-379.917	162.194	0.055	-0.078
-378.902	204.393	0.020	0.030
-377.888	691.714	-0.034	-0.088
-376.873	-148.473	-0.046	0.004
-375.858	-131.106	-0.219	-0.029
-374.844	-67.431	0.131	0.051
-373.829	-200.000	-0.013	0.189
-372.815	9.515	-0.331	-0.251
-371.800	-38.092	-0.017	0.009
-370.785	-80.650	-0.194	0.065
-369.771	-110.338	0.012	-0.003
-368.756	103.338	0.213	0.250
-367.742	17.973	-0.138	-0.110
-366.727	133.559	-0.180	0.233
-365.712	-131.812	-0.268	0.035
-364.698	27.665	-0.348	-0.293
-363.683	454.780	0.092	0.205
-362.669	150.917	-0.201	0.274
-361.654	57.726	0.237	-0.232
-360.639	-125.663	0.080	0.012
-359.625	9.819	0.360	-0.273
-358.610	-13.557	-0.068	-0.044
-357.596	-144.360	0.197	-0.018
-356.581	509.590	-0.052	0.121
-355.566	240.947	-0.018	-0.029
-354.552	-11.655	-0.187	-0.123
-353.537	-143.404	-0.266	-0.025
-352.523	800.000	0.043	-0.176
-351.508	116.934	-0.041	-0.051
-350.493	-138.099	0.240	-0.027
-349.479	-191.687	-0.202	-0.002
-348.464	-49.507	-0.301	0.143
-347.450	-75.694	0.234	0.083
-346.435	358.486	0.115	0.231
-345.420	-100.283	0.235	0.058
-344.406	800.000	0.022	0.092
-343.391	103.904	0.141	0.166
-342.377	-200.000	-0.014	0.127
-341.362	800.000	0.101	0.293
-340.348	-81.152	0.051	0.017
-339.333	90.731	-0.144	-0.161
-338.318	-70.250	0.065	-0.025
-337.304	-38.777	0.210	-0.111
-336.289	-142.012	0.489	0.049
-335.275	217.831	-0.071	-0.114
-334.260	-13.338	-0.125	0.081
-333.245	174.324	-0.091	-0.131
-332.231	6.168	0.181	0.134
-331.216	0.338	-0.140	-0.100
-330.202	93.577	-0.087	0.098
-329.187	-126.082	0.166	0.025
-328.172	349.930	0.145	0.287
-327.158	24.357	0.129	0.107
-326.143	165.114	-0.106	0.150
-325.129	-186.697	-0.090	0.001
-324.114	-200.000	-0.059	0.263
-323.099	62.867	0.202	0.202
-322.085	-34.106	-0.248	0.136
-321.070	-72.596	-0.081	0.030
-320.056	800.000	-0.065	0.236
-319.041	3.299	0.118	0.086
-318.026	-139.103	-0.183	-0.020
-317.012	329.418	-0.099	-0.191
-315.997	-17.144	0.083	0.052
-314.983	150.923	0.097	-0.132
-313.968	204.472	-0.054	-0.084
-312.953	342.122	-0.121	-0.237
-311.939	69.493	0.122	-0.126
-310.924	-200.000	0.016	-0.440
-309.910	5.701	-0.369	-0.272
-308.895	-30.639	-0.267	-0.151
-307.880	-135.514	-0.109	0.013
-306.866	-82.645	-0.160	-0.052
-305.851	-79.765	0.159	0.054
-304.837	-200.000	-0.024	-0.211
-303.822	-139.568	-0.045	0.005
-302.807	327.083	0.165	0.316
-301.793	236.379	-0.297	0.490
-300.778	-122.648	-0.060	-0.010
-299.764	699.364	0.070	-0.184
-298.749	-60.055	0.390	0.166
-297.735	-200.000	-0.074	0.513
-296.720	368.036	-0.042	0.084
-295.705	800.000	-0.094	0.313
-294.691	206.767	0.123	0.191
-293.676	-141.099	-0.095	0.010
-292.662	22.520	0.182	0.149
-291.647	-112.888	-0.049	-0.010
-290.632	-17.275	0.341	0.215
-289.618	-5.779	-0.278	0.190
-288.603	640.781	0.081	0.207
-287.589	-200.000	-0.012	0.193
-286.574	401.515	-0.137	0.288
-285.559	800.000	0.026	-0.113
-284.545	-128.704	-0.209	0.029
-283.530	788.507	0.034	0.093
-282.516	134.534	0.065	-0.084
-281.501	800.000	0.095	0.268
-280.486	-200.000	0.025	-0.150
-279.472	800.000	0.025	-0.094
-278.457	-14.103	0.157	-0.101
-277.443	-200.000	-0.019	0.130
-276.428	-19.976	-0.142	0.087
-275.413	174.758	0.249	-0.360
-274.399	-53.963	0.436	0.198
-273.384	198.003	0.059	-0.090
-272.370	412.573	0.055	-0.118
-271.355	-46.875	0.091	0.044
-270.340	-152.340	0.249	0.018
-269.326	320.225	0.125	0.236
-268.311	-68.787	0.246	-0.095
-267.297	66.217	0.150	-0.151
-266.282	91.653	-0.047	0.053
-265.267	-64.015	0.358	-0.146
-264.253	-11.076	-0.484	-0.318
-263.238	191.997	0.192	0.288
-262.224	604.664	0.166	0.411
-261.209	-94.091	0.122	-0.033
-260.195	260.149	-0.122	0.210
-259.180	-34.602	0.050	-0.027
-258.165	38.690	-0.069	-0.061
-257.151	591.772	0.048	-0.117
-256.136	226.560	0.236	-0.381
-255.122	-104.260	-0.264	0.061
-254.107	543.789	-0.087	0.206
-253.092	7.281	-0.072	0.054
-252.078	-140.803	0.366	0.038
-251.063	-67.206	-0.129	0.051
-250.049	460.106	-0.041	-0.091
-249.034	464.672	-0.041	0.090
-248.019	199.303	0.172	0.262
-247.005	-26.147	0.141	0.083
-245.990	-59.511	-0.410	0.175
-244.976	38.575	0.261	0.232
-243.961	196.353	-0.187	0.283
-242.946	561.339	0.078	0.187
-241.932	-91.448	-0.153	-0.043
-240.917	-167.354	-0.269	-0.011
-239.903	206.961	0.054	-0.084
-238.888	166.167	0.240	-0.338
-237.873	-126.955	-0.300	0.044
-236.859	-74.851	0.234	-0.084
-235.844	-56.535	-0.162	0.071
-234.830	-140.834	0.128	-0.013
-233.815	13.974	0.063	0.049
-232.800	800.000	0.068	0.257
-231.786	-200.000	0.054	0.000
-230.771	-200.000	0.005	0.216
-229.757	332.414	0.155	0.298
-228.742	89.708	0.126	-0.140
-227.727	77.100	0.063	-0.067
-226.713	-94.045	-0.310	0.085
-225.698	-126.459	0.210	0.031
-224.684	6.545	0.080	0.059
-223.669	-55.438	-0.232	-0.103
-222.655	-3.693	-0.143	-0.099
-221.640	107.898	0.079	-0.094
-220.625	156.360	-0.093	0.128
-219.611	260.900	0.133	0.229
-218.596	-108.059	0.314	-0.068
-217.582	119.430	0.067	0.082
-216.567	693.423	-0.062	-0.162
-215.552	-200.000	-0.019	0.100
-214.538	61.251	-0.014	0.014
-213.523	-147.956	-0.110	-0.009
-212.509	264.623	0.098	-0.170
-211.494	800.000	0.119	0.487
-210.479	50.227	-0.193	-0.182
-209.465	99.659	-0.076	-0.088
-208.450	800.000	0.074	-0.215
-207.436	800.000	-0.074	0.217
-206.421	-65.684	-0.089	-0.035
-205.406	43.460	0.199	-0.181
-204.392	-34.279	0.241	-0.132
-203.377	-26.364	0.165	0.096
-202.363	-1.769	0.324	0.227
-201.348	44.754	0.063	-0.058
-200.333	-23.024	0.193	0.115
-199.319	-164.904	0.388	-0.017
-198.304	-135.252	-0.378	-0.045
-197.290	-121.209	-0.381	-0.063
-196.275	277.985	0.095	-0.168
-195.260	44.446	-0.282	-0.257
-194.246	-84.744	0.189	0.059
-193.231	800.000	0.046	0.150
-192.217	-82.247	0.342	0.111
-191.202	-134.668	-0.355	0.043
-190.187	-200.000	0.038	0.225
-189.173	-57.204	-0.073	0.032
-188.158	42.342	0.248	-0.224
-187.144	-153.047	-0.118	-0.008
-186.129	121.762	-0.203	0.251
-185.114	313.989	-0.132	0.248
-184.100	-149.425	-0.095	0.007
-183.085	-200.000	-0.009	0.241
-182.071	-200.000	0.001	-0.064
-181.056	-52.602	-0.066	-0.030
-180.042	89.624	-0.175	-0.194
-179.027	-88.595	-0.257	-0.076
-178.012	201.837	0.119	0.182
-176.998	130.390	-0.016	-0.020
-175.983	800.000	0.050	-0.170
-174.969	800.000	-0.078	-0.267
-173.954	800.000	0.035	-0.118
-172.939	-200.000	0.006	-0.156
-171.925	3.372	-0.105	0.076
-170.910	-173.594	0.082	0.002
-169.896	-200.000	-0.014	-0.085
-168.881	-50.890	-0.246	-0.115
-167.866	-200.000	-0.001	0.026
-166.852	83.944	-0.338	0.367
-165.837	800.000	-0.056	-0.201
-164.823	800.000	-0.129	0.356
-163.808	800.000	0.025	-0.077
-162.793	-18.481	-0.165	0.102
-161.779	215.853	0.061	0.096
-160.764	-143.616	0.053	0.005
-159.750	800.000	-0.049	-0.180
-158.735	279.087	0.037	0.065
-157.720	-128.541	-0.166	0.023
-156.706	301.667	-0.157	0.287
-155.691	-167.063	0.240	-0.010
-154.677	246.868	0.064	-0.107
-153.662	444.794	0.094	-0.204
-152.647	-124.343	0.221	0.034
-151.633	-163.742	-0.218	0.010
-150.618	-131.339	0.345	-0.045
-149.604	25.623	0.249	0.206
-148.589	-95.246	0.151	-0.040
-147.574	800.000	0.068	-0.265
-146.560	-70.643	-0.307	0.115
-145.545	800.000	0.021	-0.083
-144.531	-200.000	0.043	-0.210
-143.516	396.965	0.079	0.164
-142.502	-200.000	-0.024	0.172
-141.487	54.889	-0.238	0.228
-140.472	-63.873	-0.352	-0.143
-139.458	-151.420	0.252	0.019
-138.443	150.992	0.238	0.321
-137.429	-73.793	0.051	-0.018
-136.414	105.438	-0.115	-0.134
-135.399	165.967	0.158	0.221
-134.385	43.645	-0.243	-0.221
-133.370	373.189	-0.177	0.357
-132.356	323.606	0.123	-0.232
-131.341	800.000	-0.024	0.077
-130.326	410.196	0.266	0.560
-129.312	-6.574	-0.064	0.044
-128.297	-141.456	0.174	0.017
-127.283	-200.000	-0.026	-0.138
-126.268	-115.485	0.172	-0.032
-125.253	-175.714	0.186	0.005
-124.239	-10.891	-0.283	0.185
-123.224	-124.225	0.072	0.011
-122.210	-17.204	-0.263	0.164
-121.195	-200.000	-0.047	0.270
