DTS Sentinel unit serial number:	SN413079Multiplexer serial number:	ORYXHardware model number:	OX4-SRSoftware version number:	ORYX F/W v4.00 Oryx Data Collector v3.7.2.0data status	okinstallation	princeton_trtdifferential loss correction	single-endedforward channel	channel 3reverse channel	N/Adate	2019/09/12time	18:04:04forward acquisition time	15.00reverse acquisition time	0.00gamma	496.2192k internal	0.2316k external	0.2316temperature offset calibration	1.0092default loss term (dB/km)	0.3790temperature slope calibration	1.0000multiplexer offset coefficient	1.0000multiplexer slope coefficient	1.0000fibre end	0.00T internal ref (°C)	33.75T ext. ref 1 (°C)	3.00T ext. ref 2 (°C)	28.19length (m)	temperature (°C)	Stokes	anti-Stokes-747.200	-127.434	-1.191	0.175
-746.185	282.082	-0.570	1.035
-745.171	105.731	0.262	0.314
-744.156	-128.666	0.810	-0.116
-743.142	723.917	0.028	-0.075
-742.127	14.220	-0.760	-0.600
-741.112	-108.904	0.346	0.075
-740.098	151.170	0.462	0.636
-739.083	140.262	0.260	-0.348
-738.069	1.279	0.369	-0.269
-737.054	-200.000	0.038	-0.677
-736.039	444.279	-0.108	0.239
-735.025	123.839	0.726	0.923
-734.010	183.168	0.070	0.104
-732.996	-11.132	0.278	0.186
-731.981	-117.492	-0.728	-0.133
-730.966	-21.255	0.791	-0.489
-729.952	242.275	-0.186	-0.315
-728.937	68.158	0.185	0.192
-727.923	-200.000	0.001	-0.084
-726.908	-146.361	-0.388	0.034
-725.894	15.102	-0.396	-0.314
-724.879	83.488	-0.227	-0.251
-723.864	245.671	0.215	-0.367
-722.850	-29.058	-0.699	-0.406
-721.835	27.952	-0.214	0.183
-720.821	800.000	-0.339	1.058
-719.806	-149.488	-1.188	0.095
-718.791	406.989	-0.361	-0.771
-717.777	-155.133	0.617	0.041
-716.762	-86.665	0.755	-0.234
-715.748	218.239	0.437	0.706
-714.733	-57.861	-0.419	-0.185
-713.718	-111.841	-0.187	-0.038
-712.704	-39.444	-0.572	0.303
-711.689	134.120	-0.068	0.089
-710.675	52.320	0.300	-0.289
-709.660	607.742	-0.209	0.526
-708.645	-200.000	0.133	0.000
-707.631	-58.053	-0.464	0.205
-706.616	11.717	-1.014	-0.787
-705.602	-124.739	-0.802	0.126
-704.587	99.580	0.235	-0.276
-703.572	-2.202	-0.440	-0.312
-702.558	-0.309	0.435	-0.312
-701.543	-200.000	0.003	-0.053
-700.529	-200.000	-0.108	0.879
-699.514	800.000	0.182	-0.678
-698.499	-83.203	-0.549	0.179
-697.485	-200.000	0.019	-0.681
-696.470	-44.933	-0.547	0.276
-695.456	14.518	0.272	-0.215
-694.441	17.941	0.515	0.415
-693.426	-54.788	-0.250	0.114
-692.412	186.442	-0.234	-0.353
-691.397	86.382	-0.243	-0.270
-690.383	78.204	-0.080	0.086
-689.368	-74.066	0.423	-0.155
-688.354	268.816	-0.250	-0.443
-687.339	304.295	-0.228	-0.428
-686.324	366.584	0.426	0.869
-685.310	9.324	-0.173	0.132
-684.295	33.690	-0.551	-0.484
-683.281	-140.962	-0.064	-0.007
-682.266	44.458	0.678	-0.629
-681.251	6.484	0.321	-0.241
-680.237	-151.340	-0.195	0.015
-679.222	119.390	-0.458	0.572
-678.208	-200.000	0.058	0.619
-677.193	590.260	0.181	0.450
-676.178	199.109	-0.294	-0.455
-675.164	-200.000	-0.032	-0.321
-674.149	142.632	-0.453	0.608
-673.135	-129.151	0.190	-0.027
-672.120	40.875	0.563	0.513
-671.105	-87.616	-0.388	0.118
-670.091	786.706	-0.317	-0.877
-669.076	392.912	-0.361	0.758
-668.062	-166.613	0.448	0.019
-667.047	98.763	-0.363	-0.423
-666.032	36.081	-0.525	-0.467
-665.018	-200.000	-0.097	0.927
-664.003	664.143	0.324	0.845
-662.989	256.784	0.348	0.604
-661.974	800.000	-0.053	0.232
-660.959	-146.642	0.705	0.062
-659.945	-142.777	-0.349	-0.034
-658.930	-116.888	0.656	0.121
-657.916	14.352	-0.953	-0.750
-656.901	-140.167	-0.899	-0.095
-655.886	-31.012	-0.583	0.332
-654.872	800.000	-0.081	-0.354
-653.857	30.978	-0.663	0.574
-652.843	21.757	-0.345	0.283
-651.828	23.935	-0.756	-0.629
-650.814	55.345	0.460	-0.450
-649.799	-51.926	0.400	-0.188
-648.784	21.494	-0.538	-0.442
-647.770	-152.011	-0.966	-0.071
-646.755	-165.709	-0.681	0.030
-645.741	-200.000	-0.036	-0.385
-644.726	-200.000	0.068	-0.794
-643.711	236.187	0.194	-0.324
-642.697	33.046	0.579	0.506
-641.682	-200.000	0.171	0.813
-640.668	615.208	-0.316	-0.799
-639.653	-142.382	0.668	-0.066
-638.638	-125.151	-0.660	0.102
-637.624	-58.153	-0.432	0.190
-636.609	-118.599	-0.652	-0.116
-635.595	3.851	0.370	-0.273
-634.580	-200.000	0.058	-0.667
-633.565	564.820	-0.211	0.517
-632.551	371.590	0.107	0.219
-631.536	-56.512	-0.498	-0.223
-630.522	-33.058	-0.466	-0.261
-629.507	-200.000	-0.051	0.455
-628.492	-46.453	-0.971	0.481
-627.478	-200.000	0.002	0.529
-626.463	-130.076	0.220	0.030
-625.449	-88.847	0.708	0.212
-624.434	-13.438	-0.412	0.270
-623.419	-41.942	0.380	-0.196
-622.405	153.677	0.316	-0.437
-621.390	177.743	0.407	-0.598
-620.376	279.033	-0.248	0.447
-619.361	62.834	-0.163	-0.165
-618.346	-88.479	-0.800	0.241
-617.332	-74.728	0.661	0.240
-616.317	-93.596	-0.579	-0.161
-615.303	-61.601	0.818	0.346
-614.288	800.000	-0.078	0.268
-613.273	-137.271	-0.488	-0.056
-612.259	-38.763	-0.658	0.350
-611.244	-200.000	-0.075	0.932
-610.230	629.670	-0.366	-0.933
-609.215	782.828	0.162	0.447
-608.201	-34.280	0.366	-0.202
-607.186	6.700	0.327	-0.245
-606.171	-65.717	-0.324	-0.131
-605.157	-200.000	-0.003	-0.587
-604.142	-200.000	0.108	-1.244
-603.128	130.585	0.607	-0.784
-602.113	-200.000	0.014	0.171
-601.098	-200.000	-0.086	0.578
-600.084	800.000	0.172	0.699
-599.069	104.896	0.678	-0.806
-598.055	-163.964	0.640	0.030
-597.040	-89.903	0.311	-0.091
-596.025	-200.000	0.012	0.256
-595.011	-107.576	-0.377	-0.083
-593.996	37.966	1.141	-1.021
-592.982	-52.710	-0.702	0.326
-591.967	-77.899	1.270	0.441
-590.952	-94.282	0.551	0.152
-589.938	209.790	-0.060	0.095
-588.923	-125.568	0.147	0.022
-587.909	301.404	0.584	-1.086
-586.894	-79.455	-0.203	-0.069
-585.879	39.469	0.560	-0.505
-584.865	800.000	-0.041	-0.156
-583.850	56.534	0.442	-0.432
-582.836	-60.588	0.553	0.236
-581.821	349.427	0.181	-0.360
-580.806	245.915	0.368	-0.624
-579.792	-47.557	0.312	-0.152
-578.777	200.351	-0.580	-0.897
-577.763	-68.689	-0.449	0.175
-576.748	-35.543	0.239	-0.131
-575.733	-200.000	-0.011	0.898
-574.719	-192.561	-0.298	0.003
-573.704	-200.000	0.020	0.126
-572.690	-73.248	-0.354	0.130
-571.675	-200.000	0.026	-0.306
-570.661	-61.398	-0.208	0.088
-569.646	604.798	0.052	0.131
-568.631	-85.029	-0.762	-0.240
-567.617	302.136	-0.084	-0.157
-566.602	-81.035	0.152	0.051
-565.588	-99.960	-0.268	-0.067
-564.573	-114.439	-0.292	-0.057
-563.558	-68.672	-0.338	0.132
-562.544	176.846	0.393	0.575
-561.529	109.035	0.196	0.235
-560.515	800.000	-0.246	0.707
-559.500	-102.326	0.147	-0.036
-558.485	173.896	-0.162	-0.235
-557.471	-46.968	0.730	-0.358
-556.456	-117.091	-0.592	-0.108
-555.442	-46.905	0.740	0.364
-554.427	-114.436	0.322	0.062
-553.412	800.000	-0.226	-0.982
-552.398	-200.000	0.016	0.445
-551.383	464.096	0.365	0.820
-550.369	180.692	0.417	-0.615
-549.354	-200.000	-0.052	0.725
-548.339	48.844	-0.506	0.478
-547.325	-23.107	1.207	-0.731
-546.310	-200.000	0.081	-0.586
-545.296	-200.000	-0.003	-0.305
-544.281	63.496	0.139	0.141
-543.266	-180.722	0.625	-0.013
-542.252	-20.416	0.290	0.179
-541.237	-96.572	0.668	-0.177
-540.223	-114.857	-0.257	-0.049
-539.208	186.889	-0.400	0.599
-538.193	88.552	-0.435	0.486
-537.179	-184.414	0.242	0.004
-536.164	111.597	0.196	0.237
-535.150	-118.380	-0.135	0.024
-534.135	34.132	-0.187	-0.163
-533.121	-200.000	0.029	-0.377
-532.106	-125.270	-0.284	-0.044
-531.091	147.426	-0.407	-0.550
-530.077	-5.218	0.137	-0.094
-529.062	-40.190	0.936	-0.489
-528.048	256.569	-0.318	-0.549
-527.033	-200.000	-0.194	0.888
-526.018	-104.316	0.263	0.061
-525.004	-108.801	-1.070	-0.230
-523.989	800.000	-0.259	-0.925
-522.975	-200.000	0.086	0.713
-521.960	472.664	0.063	0.143
-520.945	-200.000	0.037	0.233
-519.931	-200.000	-0.021	0.739
-518.916	23.479	0.584	-0.482
-517.902	-56.235	0.723	-0.323
-516.887	-167.402	-0.375	0.015
-515.872	-82.433	0.684	0.223
-514.858	497.118	0.196	-0.453
-513.843	-80.206	0.423	-0.142
-512.829	-103.821	-0.238	-0.056
-511.814	800.000	0.272	0.920
-510.799	8.005	0.372	0.280
-509.785	-200.000	-0.004	0.566
-508.770	800.000	0.149	-0.450
-507.756	-94.188	-0.504	-0.138
-506.741	-77.590	0.961	-0.334
-505.726	159.371	0.371	-0.517
-504.712	278.870	0.278	-0.498
-503.697	-140.092	-0.516	-0.054
-502.683	375.614	0.233	-0.477
-501.668	-125.103	0.987	-0.152
-500.653	414.528	-0.087	-0.185
-499.639	130.524	0.536	0.689
-498.624	22.700	0.736	0.604
-497.610	93.897	0.305	-0.347
-496.595	-80.474	-0.333	-0.111
-495.581	131.130	-0.416	-0.536
-494.566	-200.000	0.150	0.719
-493.551	800.000	0.168	-0.625
-492.537	7.554	-0.653	-0.490
-491.522	-47.485	0.436	0.213
-490.508	404.080	-0.046	-0.097
-489.493	-75.272	0.689	-0.247
-488.478	-103.138	-0.347	0.082
-487.464	400.542	-0.104	-0.219
-486.449	-1.269	0.678	-0.480
-485.435	-112.576	-0.686	0.137
-484.420	-110.989	1.188	0.245
-483.405	251.668	-0.336	-0.574
-482.391	-92.129	-0.807	-0.229
-481.376	-119.410	0.426	-0.074
-480.362	-102.328	-0.982	0.236
-479.347	-200.000	-0.194	-1.045
-478.332	609.302	-0.373	-0.934
-477.318	-200.000	-0.002	-0.214
-476.303	-200.000	-0.019	-0.542
-475.289	231.208	0.264	0.433
-474.274	-46.072	0.406	0.200
-473.259	36.114	0.430	-0.379
-472.245	-200.000	-0.109	-0.630
-471.230	395.111	0.251	0.524
-470.216	128.587	-0.051	0.065
-469.201	800.000	-0.106	-0.426
-468.186	5.802	0.267	-0.198
-467.172	-77.693	-0.719	0.249
-466.157	-136.505	-0.388	-0.045
-465.143	79.882	-0.366	0.394
-464.128	-160.333	-0.143	-0.008
-463.113	29.001	0.336	0.286
-462.099	-200.000	-0.068	0.656
-461.084	-150.512	-0.235	0.018
-460.070	-71.028	1.473	-0.555
-459.055	-115.673	0.196	-0.037
-458.040	30.652	-0.289	0.247
-457.026	-127.183	-0.976	-0.143
-456.011	-200.000	0.030	-0.425
-454.997	-138.377	-0.611	0.067
-453.982	647.943	-0.145	-0.372
-452.968	544.063	-0.142	0.340
-451.953	800.000	0.245	-0.694
-450.938	-191.101	-0.762	-0.008
-449.924	42.551	-0.348	0.317
-448.909	208.649	0.094	-0.147
-447.895	800.000	-0.230	0.644
-446.880	800.000	0.032	0.119
-445.865	-200.000	-0.017	-0.230
-444.851	553.155	0.248	-0.598
-443.836	-20.640	0.354	-0.218
-442.822	800.000	-0.218	-0.611
-441.807	-83.805	-0.457	-0.146
-440.792	608.473	0.063	-0.159
-439.778	-200.000	-0.065	0.449
-438.763	-39.819	-0.835	-0.437
-437.749	-200.000	-0.082	-0.635
-436.734	-164.610	-0.815	0.037
-435.719	800.000	0.085	-0.235
-434.705	800.000	0.134	-0.382
-433.690	51.583	-0.319	0.304
-432.676	141.455	0.270	0.358
-431.661	-105.450	-0.601	-0.137
-430.646	800.000	-0.170	0.478
-429.632	-145.046	-0.405	0.037
-428.617	30.385	0.454	0.388
-427.603	509.488	0.176	0.410
-426.588	103.896	-0.157	0.184
-425.573	-200.000	-0.010	0.670
-424.559	-34.899	-0.467	0.255
-423.544	-52.029	0.422	-0.196
-422.530	-90.293	-0.257	-0.075
-421.515	-200.000	0.508	0.002
-420.500	733.255	0.274	-0.732
-419.486	-200.000	0.015	0.089
-418.471	412.716	-0.246	-0.522
-417.457	510.212	-0.407	0.946
-416.442	270.530	0.205	-0.361
-415.428	-200.000	-0.021	0.532
-414.413	312.920	-0.246	-0.463
-413.398	-99.517	-0.354	0.089
-412.384	-90.100	-0.209	-0.061
-411.369	51.758	-0.594	-0.565
-410.355	800.000	-0.111	0.483
-409.340	-15.494	-0.330	-0.211
-408.325	-87.838	-0.728	-0.219
-407.311	72.411	0.148	-0.155
-406.296	-92.839	-0.357	0.100
-405.282	-200.000	0.057	-0.287
-404.267	188.316	-0.045	0.067
-403.252	800.000	-0.102	0.359
-402.238	66.319	-0.362	-0.367
-401.223	158.260	-0.237	-0.329
-400.209	-88.262	-0.706	-0.211
-399.194	-200.000	-0.071	0.442
-398.179	413.783	0.374	0.796
-397.165	35.524	0.232	0.203
-396.150	-127.788	-0.182	0.026
-395.136	-48.293	-0.590	0.284
-394.121	311.716	0.230	-0.430
-393.106	800.000	0.129	-0.519
-392.092	-200.000	-0.112	0.852
-391.077	-200.000	0.030	-0.937
-390.063	31.457	0.794	-0.681
-389.048	394.082	-0.267	0.556
-388.033	-74.419	-0.428	-0.154
-387.019	-200.000	0.211	1.018
-386.004	-56.451	-0.144	0.064
-384.990	77.022	-0.362	0.384
-383.975	399.470	0.194	0.405
-382.960	-98.007	-0.403	0.104
-381.946	-30.413	0.523	-0.296
-380.931	745.680	0.092	0.247
-379.917	-84.852	0.264	-0.083
-378.902	800.000	0.229	0.631
-377.888	800.000	0.262	-0.766
-376.873	-77.489	-0.525	-0.182
-375.858	-200.000	0.064	0.306
-374.844	-69.563	0.279	-0.107
-373.829	34.636	-0.572	0.499
-372.815	-162.611	0.411	-0.020
-371.800	-145.682	-0.573	-0.051
-370.785	-200.000	0.094	-0.950
-369.771	-82.921	0.460	0.148
-368.756	728.081	-0.043	0.115
-367.742	-76.157	0.468	-0.165
-366.727	332.079	-0.225	-0.433
-365.712	800.000	-0.190	-0.586
-364.698	800.000	0.195	-0.800
-363.683	66.475	-0.461	0.467
-362.669	800.000	-0.185	0.666
-361.654	-200.000	-0.051	-0.419
-360.639	800.000	0.292	0.980
-359.625	653.420	0.042	0.108
-358.610	-52.716	-0.514	0.237
-357.596	-154.609	0.320	0.021
-356.581	-200.000	-0.051	-0.943
-355.566	-115.045	0.828	-0.157
-354.552	-200.000	-0.142	0.822
-353.537	-123.678	1.219	-0.193
-352.523	-200.000	0.042	0.356
-351.508	800.000	-0.065	-0.194
-350.493	248.114	0.265	0.447
-349.479	-200.000	-0.045	-0.251
-348.464	-196.261	-0.173	0.001
-347.450	-29.635	-0.541	0.308
-346.435	138.006	0.534	0.699
-345.420	-200.000	0.071	0.793
-344.406	19.677	0.794	0.637
-343.391	475.636	0.376	-0.846
-342.377	533.761	-0.093	0.219
-341.362	-103.669	-0.620	0.145
-340.348	5.746	-0.446	0.329
-339.333	18.787	-0.631	0.504
-338.318	-153.659	0.018	-0.001
-337.304	800.000	-0.060	-0.164
-336.289	-200.000	-0.132	-0.578
-335.275	-112.332	-0.901	-0.180
-334.260	-104.360	-0.693	0.160
-333.245	-114.390	-0.061	0.012
-332.231	145.342	-0.265	0.354
-331.216	-46.459	0.468	-0.229
-330.202	298.773	-0.020	0.036
-329.187	-18.093	0.309	0.193
-328.172	-200.000	-0.021	-0.145
-327.158	-62.885	-0.395	-0.163
-326.143	14.908	0.336	-0.262
-325.129	385.143	0.061	-0.126
-324.114	-52.467	-0.800	-0.368
-323.099	-200.000	0.136	0.792
-322.085	800.000	-0.238	0.829
-321.070	46.982	-0.611	0.566
-320.056	-142.014	-0.815	-0.081
-319.041	-68.809	-0.570	0.220
-318.026	117.818	0.454	-0.557
-317.012	6.304	-0.118	-0.087
-315.997	-62.461	0.432	0.179
-314.983	-200.000	-0.116	0.544
-313.968	-27.000	-0.500	0.291
-312.953	548.443	0.211	0.504
-311.939	137.038	-0.133	-0.173
-310.924	-200.000	-0.012	-0.264
-309.910	-132.715	-1.020	0.130
-308.895	-200.000	-0.010	0.483
-307.880	-12.049	-0.196	0.128
-306.866	-102.485	0.865	0.206
-305.851	-200.000	-0.110	0.631
-304.837	-200.000	-0.115	0.575
-303.822	16.157	0.434	0.340
-302.807	193.999	-0.100	-0.151
-301.793	800.000	0.294	-0.941
-300.778	123.167	-0.218	-0.272
-299.764	92.317	0.545	-0.611
-298.749	563.154	-0.363	0.875
-297.735	236.003	0.706	1.161
-296.720	171.439	0.454	0.648
-295.705	-200.000	-0.003	1.175
-294.691	-38.936	-0.594	0.311
-293.676	-55.648	0.853	0.380
-292.662	-90.828	0.305	0.088
-291.647	-23.384	-0.233	0.140
-290.632	-42.659	0.291	-0.147
-289.618	-181.635	0.441	-0.008
-288.603	-27.179	0.586	0.340
-287.589	206.563	-0.383	0.593
-286.574	-163.058	-0.618	-0.030
-285.559	-27.682	-0.700	-0.404
-284.545	800.000	-0.130	-0.511
-283.530	-59.511	0.432	0.185
-282.516	-114.669	-0.637	0.121
-281.501	-12.593	0.745	-0.484
-280.486	-107.224	0.123	0.027
-279.472	-115.908	-0.380	-0.070
-278.457	800.000	-0.149	-0.508
-277.443	-96.620	-0.573	-0.150
-276.428	-91.959	-0.570	0.161
-275.413	-200.000	0.077	-0.340
-274.399	169.205	0.507	0.720
-273.384	-101.067	-0.895	-0.218
-272.370	-89.276	1.002	-0.294
-271.355	-200.000	-0.072	-0.403
-270.340	335.951	-0.328	-0.633
-269.326	-200.000	0.044	0.376
-268.311	-200.000	-0.033	0.244
-267.297	-39.350	0.307	0.160
-266.282	108.400	0.118	0.140
-265.267	800.000	-0.223	-0.640
-264.253	168.204	-0.070	0.099
-263.238	2.349	0.542	0.389
-262.224	35.702	-0.417	0.364
-261.209	-27.199	-0.183	0.106
-260.195	-107.747	-0.610	-0.132
-259.180	-200.000	0.033	-0.300
-258.165	70.092	-0.467	0.479
-257.151	-39.011	-0.590	-0.309
-256.136	800.000	-0.338	-1.252
-255.122	7.332	-0.320	0.237
-254.107	35.024	0.421	0.366
-253.092	-122.457	0.952	0.154
-252.078	-26.579	0.920	-0.535
-251.063	-31.688	0.217	-0.121
-250.049	-62.567	0.538	-0.222
-249.034	15.353	0.558	-0.435
-248.019	22.113	0.594	0.482
-247.005	-200.000	-0.025	0.414
-245.990	-200.000	0.174	0.823
-244.976	17.750	-0.384	-0.303
-243.961	2.465	0.306	0.220
-242.946	-200.000	-0.024	0.182
-241.932	-57.281	0.352	0.154
-240.917	107.668	-0.643	0.761
-239.903	236.727	-0.279	-0.460
-238.888	17.443	-0.476	0.376
-237.873	-200.000	-0.132	0.741
-236.859	730.829	0.012	0.031
-235.844	-152.884	0.921	0.065
-234.830	-83.780	-0.707	0.224
-233.815	-71.183	-0.316	0.118
-232.800	-200.000	0.160	0.951
-231.786	98.932	0.127	0.145
-230.771	-200.000	0.055	0.420
-229.757	663.981	0.091	-0.234
-228.742	399.682	-0.091	0.189
-227.727	87.787	-0.221	0.243
-226.713	677.662	-0.314	0.811
-225.698	-80.518	0.473	-0.156
-224.684	-38.056	0.340	-0.179
-223.669	-105.066	-0.952	0.216
-222.655	591.308	0.155	0.380
-221.640	-78.421	1.108	-0.377
-220.625	-73.526	-0.672	0.243
-219.611	-200.000	-0.003	0.675
-218.596	-17.182	-0.743	0.465
-217.582	27.643	-0.676	-0.564
-216.567	436.093	-0.291	-0.628
-215.552	800.000	0.223	0.769
-214.538	112.732	-0.621	0.746
-213.523	-200.000	-0.064	-0.376
-212.509	45.979	0.693	-0.636
-211.494	-101.071	-0.809	-0.197
-210.479	-200.000	-0.031	0.452
-209.465	-200.000	0.045	-0.561
-208.450	-200.000	-0.069	0.767
-207.436	128.172	-0.173	-0.218
-206.421	76.780	0.462	-0.487
-205.406	152.204	0.367	0.496
-204.392	12.899	0.668	0.512
-203.377	-99.001	0.383	0.096
-202.363	800.000	0.141	0.455
-201.348	-112.471	-0.621	-0.123
-200.333	-24.056	0.275	0.163
-199.319	800.000	0.246	0.695
-198.304	-10.218	-0.279	-0.184
-197.290	-58.807	-0.816	-0.350
-196.275	145.621	-0.164	-0.218
-195.260	-63.077	-0.614	-0.251
-194.246	4.542	0.291	0.212
-193.231	-42.517	-0.986	-0.498
-192.217	800.000	0.199	-0.831
-191.202	14.009	0.466	0.359
-190.187	-200.000	0.121	-0.658
-189.173	-46.552	0.898	0.437
-188.158	800.000	-0.121	-0.381
-187.144	180.879	0.357	-0.520
-186.129	213.895	0.372	-0.584
-185.114	-165.122	0.889	0.039
-184.100	-200.000	0.194	-0.898
-183.085	-200.000	-0.129	0.712
-182.071	19.373	-0.214	-0.170
-181.056	800.000	-0.074	-0.256
-180.042	394.594	-0.101	-0.210
-179.027	-200.000	-0.060	-0.602
-178.012	-200.000	-0.040	0.587
-176.998	-15.214	-0.277	0.176
-175.983	13.780	-0.497	-0.382
-174.969	-131.086	0.411	-0.054
-173.954	83.393	0.490	0.529
-172.939	-43.592	0.444	0.222
-171.925	800.000	0.095	-0.410
-170.910	54.273	-0.068	0.065
-169.896	800.000	0.140	0.605
-168.881	24.814	0.756	-0.620
-167.866	-200.000	-0.103	-0.481
-166.852	72.345	-0.330	0.340
-165.837	800.000	0.128	0.405
-164.823	-112.210	0.096	0.019
-163.808	-176.724	0.818	0.021
-162.793	-28.666	0.421	0.240
-161.779	556.483	-0.212	-0.505
-160.764	-142.525	-0.445	0.043
-159.750	-169.397	0.370	0.013
-158.735	-130.994	-0.425	-0.056
-157.720	249.543	0.225	0.378
-156.706	34.987	-0.479	-0.415
-155.691	59.928	-0.789	-0.771
-154.677	-50.115	0.694	-0.325
-153.662	-87.206	0.483	0.145
-152.647	532.272	-0.233	-0.545
-151.633	-90.430	0.576	0.165
-150.618	-130.940	-0.437	0.058
-149.604	183.597	-0.370	0.541
-148.589	-172.304	0.264	0.008
-147.574	800.000	-0.123	0.420
-146.560	102.025	-0.317	-0.366
-145.545	-200.000	0.008	0.300
-144.531	-200.000	-0.034	0.461
-143.516	-20.790	0.346	-0.210
-142.502	-139.686	-0.680	-0.072
-141.487	-66.233	0.399	-0.157
-140.472	254.403	-0.355	-0.602
-139.458	-131.290	0.488	-0.064
-138.443	-136.208	0.509	-0.059
-137.429	-130.215	-0.920	-0.124
-136.414	-89.954	0.116	-0.034
-135.399	-200.000	-0.046	-0.524
-134.385	-34.807	0.729	-0.394
-133.370	-105.515	-0.372	0.084
-132.356	76.689	-0.534	-0.561
-131.341	-200.000	0.045	-0.623
-130.326	428.184	0.295	-0.630
-129.312	142.418	0.173	0.228
-128.297	800.000	0.163	-0.552
-127.283	352.536	-0.543	1.064
-126.268	-169.316	-0.242	-0.009
-125.253	65.773	0.720	0.722
-124.239	-40.751	0.545	-0.279
-123.224	800.000	-0.074	0.243
-122.210	104.446	0.251	0.292
