DTS Sentinel unit serial number:	SN413079Multiplexer serial number:	ORYXHardware model number:	OX4-SRSoftware version number:	ORYX F/W v4.00 Oryx Data Collector v3.7.2.0data status	okinstallation	princeton_trtdifferential loss correction	single-endedforward channel	channel 3reverse channel	N/Adate	2019/09/12time	16:02:11forward acquisition time	60.00reverse acquisition time	0.00gamma	496.2192k internal	0.2298k external	0.2298temperature offset calibration	1.0067default loss term (dB/km)	0.3790temperature slope calibration	1.0000multiplexer offset coefficient	1.0000multiplexer slope coefficient	1.0000fibre end	0.00T internal ref (°C)	38.92T ext. ref 1 (°C)	2.49T ext. ref 2 (°C)	31.90length (m)	temperature (°C)	Stokes	anti-Stokes-747.200	-102.525	0.297	0.072
-746.185	-200.000	0.001	0.203
-745.171	-79.050	-0.286	0.099
-744.156	800.000	0.020	0.076
-743.142	87.283	0.207	-0.234
-742.127	-200.000	-0.011	0.532
-741.112	-114.474	-0.114	-0.022
-740.098	-46.075	-0.256	-0.129
-739.083	45.457	0.336	0.317
-738.069	-13.299	0.487	0.322
-737.054	50.431	-0.127	-0.122
-736.039	44.419	0.039	0.036
-735.025	203.759	0.202	0.319
-734.010	50.425	-0.113	-0.109
-732.996	800.000	0.062	-0.237
-731.981	49.062	-0.076	0.073
-730.966	-62.475	-0.133	-0.056
-729.952	58.799	-0.153	0.154
-728.937	-57.820	-0.130	-0.058
-727.923	312.943	-0.053	0.102
-726.908	-153.853	0.134	0.009
-725.894	142.745	0.096	-0.130
-724.879	-69.060	-0.076	-0.030
-723.864	-132.961	-0.272	0.035
-722.850	45.241	-0.242	0.228
-721.835	596.360	-0.035	-0.088
-720.821	-169.618	0.136	-0.005
-719.806	-127.242	0.111	0.017
-718.791	346.575	-0.140	0.280
-717.777	-25.896	-0.122	-0.074
-716.762	49.276	0.155	-0.149
-715.748	-200.000	0.010	0.137
-714.733	-200.000	0.001	-0.135
-713.718	-36.312	-0.180	-0.099
-712.704	179.799	-0.239	-0.357
-711.689	156.979	-0.128	-0.180
-710.675	800.000	-0.110	-0.319
-709.660	-200.000	0.018	-0.082
-708.645	17.899	0.133	-0.108
-707.631	120.846	-0.204	0.259
-706.616	-67.290	-0.149	-0.060
-705.602	-50.611	-0.170	0.082
-704.587	-200.000	-0.017	-0.197
-703.572	800.000	0.058	-0.188
-702.558	19.794	0.155	-0.127
-701.543	491.379	-0.102	0.237
-700.529	413.590	0.117	-0.254
-699.514	-31.763	-0.061	-0.035
-698.499	-1.653	-0.275	-0.197
-697.485	-200.000	0.071	-0.575
-696.470	270.023	-0.151	-0.270
-695.456	122.080	-0.172	0.219
-694.441	-52.470	-0.054	0.025
-693.426	58.956	0.172	-0.172
-692.412	45.664	-0.126	0.119
-691.397	44.898	-0.265	0.249
-690.383	-200.000	-0.025	-0.188
-689.368	-45.085	-0.255	-0.129
-688.354	-59.699	-0.179	0.078
-687.339	164.435	0.066	-0.095
-686.324	-200.000	0.043	0.201
-685.310	-115.013	-0.107	0.021
-684.295	-96.642	-0.368	-0.099
-683.281	149.085	0.154	0.212
-682.266	67.670	-0.190	-0.198
-681.251	-126.842	0.183	0.027
-680.237	529.729	0.172	0.413
-679.222	800.000	-0.019	-0.083
-678.208	-105.563	-0.152	-0.035
-677.193	800.000	-0.046	0.132
-676.178	140.680	0.085	0.115
-675.164	50.784	0.359	-0.347
-674.149	-146.801	-0.334	0.029
-673.135	-200.000	-0.008	0.219
-672.120	-143.164	0.026	-0.003
-671.105	121.805	-0.106	-0.135
-670.091	-116.333	0.269	0.051
-669.076	-49.875	0.133	0.064
-668.062	-126.629	0.476	0.072
-667.047	641.916	-0.061	-0.158
-666.032	80.977	0.027	0.030
-665.018	33.308	0.338	0.299
-664.003	60.018	-0.160	-0.161
-662.989	-66.370	0.288	-0.117
-661.974	-32.559	-0.140	-0.079
-660.959	375.287	-0.114	-0.236
-659.945	-88.490	-0.338	0.103
-658.930	466.978	0.115	0.263
-657.916	102.273	0.218	-0.260
-656.901	693.592	0.087	0.232
-655.886	86.225	-0.396	0.444
-654.872	800.000	-0.019	-0.053
-653.857	160.036	0.069	0.097
-652.843	800.000	-0.068	-0.268
-651.828	209.883	0.062	-0.099
-650.814	-91.094	-0.090	-0.026
-649.799	25.846	-0.081	-0.069
-648.784	215.996	-0.216	-0.350
-647.770	-93.966	-0.233	-0.065
-646.755	-183.264	-0.210	0.004
-645.741	105.294	-0.154	0.185
-644.726	-88.893	0.234	-0.070
-643.711	-200.000	-0.070	-0.420
-642.697	-74.530	0.303	0.111
-641.682	28.294	0.083	0.071
-640.668	384.331	0.062	-0.131
-639.653	800.000	0.084	-0.328
-638.638	-56.533	0.026	-0.012
-637.624	-51.631	0.316	0.150
-636.609	2.630	-0.175	-0.129
-635.595	-120.973	0.527	0.090
-634.580	381.447	0.227	0.474
-633.565	-100.898	0.034	-0.008
-632.551	-200.000	0.040	0.254
-631.536	-170.906	0.230	-0.008
-630.522	-200.000	0.080	0.686
-629.507	-155.488	-0.185	-0.012
-628.492	-50.097	-0.203	0.098
-627.478	-30.958	-0.373	-0.214
-626.463	174.412	-0.034	-0.049
-625.449	501.200	0.062	-0.146
-624.434	-200.000	-0.018	0.317
-623.419	-135.903	-0.237	0.028
-622.405	-131.359	-0.298	0.040
-621.390	445.367	0.103	0.229
-620.376	-200.000	0.013	-0.161
-619.361	-50.675	0.131	0.062
-618.346	-68.070	0.314	0.124
-617.332	-90.373	0.257	0.076
-616.317	54.035	0.145	-0.142
-615.303	152.012	0.049	-0.068
-614.288	-169.003	0.273	-0.010
-613.273	380.611	0.060	-0.126
-612.259	16.819	-0.293	-0.236
-611.244	-102.645	-0.140	0.034
-610.230	-142.841	-0.413	-0.041
-609.215	-166.284	-0.305	-0.013
-608.201	218.146	-0.142	0.230
-607.186	-32.356	-0.060	0.034
-606.171	160.929	-0.125	0.178
-605.157	125.371	-0.036	0.047
-604.142	113.707	-0.213	-0.263
-603.128	54.543	-0.214	0.209
-602.113	-167.871	-0.326	-0.013
-601.098	3.568	-0.141	-0.104
-600.084	-52.296	-0.120	-0.056
-599.069	-71.475	0.161	-0.061
-598.055	800.000	0.004	0.016
-597.040	-19.988	-0.309	0.194
-596.025	520.852	-0.037	-0.087
-595.011	-200.000	-0.039	-0.234
-593.996	771.610	-0.073	-0.202
-592.982	-85.192	-0.188	-0.060
-591.967	12.787	-0.277	-0.217
-590.952	91.574	-0.023	0.027
-589.938	144.938	-0.055	-0.075
-588.923	131.061	0.221	-0.288
-587.909	33.514	-0.202	-0.178
-586.894	-62.116	0.348	0.147
-585.879	-150.416	0.186	-0.015
-584.865	-172.601	-0.177	0.006
-583.850	587.296	-0.074	0.185
-582.836	349.014	-0.148	0.297
-581.821	-200.000	0.048	-0.424
-580.806	183.524	-0.111	0.166
-579.792	245.691	0.061	0.105
-578.777	-15.714	-0.092	-0.059
-577.763	33.816	0.060	-0.053
-576.748	-59.556	0.276	0.120
-575.733	465.341	-0.161	-0.366
-574.719	189.078	0.315	-0.479
-573.704	-200.000	0.081	-0.483
-572.690	-166.560	0.239	0.010
-571.675	-39.462	-0.108	0.058
-570.661	143.943	-0.146	-0.197
-569.646	5.014	0.234	-0.175
-568.631	-200.000	0.015	0.092
-567.617	736.214	0.059	0.161
-566.602	137.337	-0.186	-0.246
-565.588	-71.890	0.173	0.065
-564.573	49.276	0.143	0.136
-563.558	800.000	0.032	-0.132
-562.544	-13.257	-0.051	0.034
-561.529	-200.000	0.009	0.124
-560.515	-123.705	0.121	-0.019
-559.500	800.000	-0.085	-0.251
-558.485	-98.310	0.135	0.035
-557.471	800.000	0.079	-0.222
-556.456	-200.000	-0.078	-0.441
-555.442	151.349	-0.065	-0.089
-554.427	30.162	-0.173	-0.150
-553.412	-167.229	0.091	0.004
-552.398	-91.205	-0.155	-0.045
-551.383	-49.979	0.205	-0.099
-550.369	8.691	-0.226	-0.173
-549.354	-139.136	0.232	0.025
-548.339	36.636	-0.143	0.128
-547.325	-65.170	-0.141	-0.058
-546.310	-44.256	0.065	-0.033
-545.296	-200.000	0.007	-0.277
-544.281	99.228	0.194	-0.228
-543.266	800.000	-0.085	0.313
-542.252	7.056	-0.269	-0.203
-541.237	414.652	-0.124	0.268
-540.223	-131.424	0.068	0.009
-539.208	638.634	0.068	0.176
-538.193	-113.888	0.222	-0.044
-537.179	115.767	0.074	-0.092
-536.164	495.185	0.127	0.296
-535.150	-68.101	0.261	-0.103
-534.135	-136.473	-0.374	0.044
-533.121	-116.736	-0.118	0.022
-532.106	168.017	-0.060	0.086
-531.091	-134.910	0.312	-0.038
-530.077	-200.000	0.007	-0.409
-529.062	-72.103	-0.121	-0.045
-528.048	-32.077	0.381	-0.216
-527.033	116.201	0.180	0.224
-526.018	-70.478	0.060	0.023
-525.004	269.166	0.112	-0.199
-523.989	410.208	-0.074	0.158
-522.975	-200.000	-0.040	0.295
-521.960	549.156	-0.155	0.375
-520.945	-111.111	-0.019	0.004
-519.931	-76.095	-0.224	0.080
-518.916	522.408	0.045	0.107
-517.902	-180.585	-0.171	0.004
-516.887	-200.000	0.027	-0.341
-515.872	-200.000	0.040	-0.239
-514.858	446.161	0.134	-0.299
-513.843	-200.000	-0.030	-0.336
-512.829	55.221	-0.225	0.220
-511.814	105.489	-0.177	0.212
-510.799	-200.000	0.012	-0.235
-509.785	91.628	-0.304	-0.346
-508.770	75.684	0.164	0.175
-507.756	-200.000	-0.024	0.198
-506.741	247.275	0.025	0.043
-505.726	-96.251	-0.265	0.071
-504.712	-200.000	0.019	-0.189
-503.697	288.641	-0.141	-0.259
-502.683	-39.916	-0.272	0.143
-501.668	-60.762	0.190	0.082
-500.653	54.761	0.135	0.132
-499.639	97.179	-0.076	-0.088
-498.624	50.041	-0.036	0.035
-497.610	-77.528	0.135	0.047
-496.595	99.265	0.115	0.134
-495.581	13.310	0.024	-0.019
-494.566	39.581	-0.102	0.092
-493.551	-200.000	-0.027	0.209
-492.537	-29.103	0.143	0.083
-491.522	463.210	0.061	-0.138
-490.508	366.847	0.072	0.146
-489.493	-200.000	-0.042	0.243
-488.478	-141.286	0.052	0.005
-487.464	800.000	-0.063	-0.180
-486.449	-130.792	-0.152	0.021
-485.435	-200.000	0.031	-0.144
-484.420	63.543	0.185	0.188
-483.405	800.000	0.029	-0.101
-482.391	-56.672	0.261	0.117
-481.376	1.662	0.202	-0.147
-480.362	-65.783	-0.431	-0.174
-479.347	64.799	-0.091	-0.093
-478.332	-133.345	-0.262	-0.033
-477.318	28.418	-0.094	-0.081
-476.303	-1.282	-0.072	0.051
-475.289	230.700	0.110	0.182
-474.274	-200.000	0.037	0.249
-473.259	-86.285	-0.307	0.096
-472.245	-24.937	0.095	-0.057
-471.230	-200.000	0.005	-0.101
-470.216	273.765	0.194	-0.347
-469.201	-200.000	0.031	-0.335
-468.186	-200.000	-0.031	-0.154
-467.172	102.294	0.136	-0.160
-466.157	-82.698	0.197	0.064
-465.143	153.377	-0.064	-0.088
-464.128	-93.897	-0.235	-0.065
-463.113	-30.015	0.237	0.136
-462.099	-133.112	0.238	0.030
-461.084	800.000	0.035	-0.126
-460.070	330.694	0.071	-0.137
-459.055	-200.000	0.044	-0.233
-458.040	-99.061	-0.222	0.057
-457.026	190.461	0.093	-0.141
-456.011	-34.146	0.138	0.077
-454.997	390.120	0.116	0.243
-453.982	165.877	-0.285	0.408
-452.968	-23.258	0.078	-0.047
-451.953	364.763	-0.119	0.242
-450.938	104.787	-0.114	-0.136
-449.924	-200.000	-0.072	-0.418
-448.909	-200.000	-0.024	-0.131
-447.895	-98.501	0.137	-0.035
-446.880	307.549	0.123	-0.231
-445.865	-32.621	0.181	0.102
-444.851	-153.295	-0.411	0.029
-443.836	-200.000	-0.007	0.331
-442.822	-118.707	0.276	0.049
-441.807	-61.200	0.060	-0.025
-440.792	-11.511	0.182	0.120
-439.778	-200.000	-0.016	0.083
-438.763	-59.449	-0.081	-0.035
-437.749	398.594	-0.166	-0.351
-436.734	66.385	0.125	-0.128
-435.719	-200.000	0.041	0.374
-434.705	108.072	-0.153	0.184
-433.690	-113.603	0.068	-0.013
-432.676	181.984	-0.156	0.231
-431.661	53.587	-0.015	0.014
-430.646	10.583	-0.022	-0.017
-429.632	-62.027	-0.216	0.091
-428.617	57.922	-0.068	-0.067
-427.603	-200.000	-0.017	0.261
-426.588	-59.231	-0.181	-0.078
-425.573	-130.153	0.234	0.032
-424.559	-200.000	0.007	0.093
-423.544	-77.693	0.205	0.072
-422.530	270.069	0.100	-0.176
-421.515	-77.560	-0.068	0.024
-420.500	800.000	0.035	-0.102
-419.486	-49.400	0.228	0.110
-418.471	-60.574	0.321	0.137
-417.457	800.000	-0.009	0.040
-416.442	211.510	0.065	0.104
-415.428	-125.283	-0.188	-0.029
-414.413	-66.419	0.307	-0.123
-413.398	-114.661	-0.223	-0.043
-412.384	471.238	-0.044	-0.100
-411.369	-142.316	-0.208	0.021
-410.355	50.598	-0.127	0.121
-409.340	62.816	-0.088	0.089
-408.325	-176.612	0.075	0.002
-407.311	24.037	-0.095	0.079
-406.296	62.990	0.136	-0.137
-405.282	-129.586	0.264	-0.037
-404.267	538.168	0.044	0.106
-403.252	140.405	-0.048	-0.064
-402.238	-149.718	-0.182	-0.014
-401.223	-62.480	-0.059	0.025
-400.209	-83.504	0.176	0.057
-399.194	-200.000	-0.067	0.304
-398.179	264.230	0.217	-0.381
-397.165	-200.000	0.008	-0.053
-396.150	-200.000	-0.003	0.282
-395.136	-132.292	0.069	0.009
-394.121	358.118	0.028	0.056
-393.106	-116.990	0.061	0.011
-392.092	73.184	-0.138	0.145
-391.077	-36.460	-0.092	-0.050
-390.063	-200.000	-0.035	-0.177
-389.048	-200.000	0.061	0.314
-388.033	10.443	0.155	0.119
-387.019	325.766	-0.194	-0.373
-386.004	800.000	-0.033	0.104
-384.990	88.763	0.152	0.170
-383.975	-12.035	-0.169	0.112
-382.960	-88.248	0.094	-0.028
-381.946	13.974	-0.099	0.077
-380.931	99.809	-0.131	-0.153
-379.917	-200.000	-0.013	-0.306
-378.902	-107.411	-0.193	0.043
-377.888	24.574	-0.121	0.101
-376.873	-150.468	0.092	-0.007
-375.858	-57.728	0.296	-0.130
-374.844	75.422	-0.129	0.137
-373.829	800.000	0.079	0.252
-372.815	193.050	-0.155	-0.235
-371.800	27.008	0.102	-0.086
-370.785	800.000	0.036	0.147
-369.771	-42.888	-0.313	-0.160
-368.756	800.000	0.027	-0.102
-367.742	144.868	-0.185	-0.249
-366.727	-124.161	-0.203	-0.032
-365.712	-76.289	-0.277	-0.098
-364.698	-113.233	-0.111	-0.022
-363.683	-103.914	0.085	0.020
-362.669	251.100	-0.095	0.162
-361.654	44.766	0.177	0.163
-360.639	-200.000	-0.024	0.143
-359.625	355.989	0.121	-0.243
-358.610	-9.132	-0.097	0.065
-357.596	734.539	0.040	0.107
-356.581	-57.432	0.166	0.073
-355.566	-200.000	0.020	-0.171
-354.552	-200.000	-0.037	0.194
-353.537	-72.788	-0.152	0.056
-352.523	-61.572	-0.219	-0.092
-351.508	800.000	0.065	0.253
-350.493	-21.837	0.148	-0.090
-349.479	-133.384	-0.155	0.020
-348.464	-1.406	0.132	0.093
-347.450	-200.000	0.042	0.262
-346.435	154.599	-0.127	0.175
-345.420	-57.796	-0.315	-0.138
-344.406	-12.447	-0.090	-0.059
-343.391	800.000	-0.112	0.482
-342.377	767.731	0.078	-0.214
-341.362	800.000	-0.103	0.401
-340.348	-37.461	0.160	-0.086
-339.333	-10.240	0.208	-0.139
-338.318	-200.000	0.003	0.376
-337.304	366.411	0.117	-0.238
-336.289	14.974	-0.143	0.112
-335.275	693.741	0.055	0.145
-334.260	-3.276	0.067	-0.047
-333.245	-150.126	0.105	-0.008
-332.231	800.000	0.034	0.121
-331.216	-200.000	-0.038	0.253
-330.202	-200.000	0.049	0.217
-329.187	-200.000	0.035	-0.411
-328.172	-147.684	0.080	0.007
-327.158	336.079	-0.113	0.220
-326.143	47.260	-0.077	-0.072
-325.129	42.728	0.193	-0.177
-324.114	-200.000	-0.073	-0.388
-323.099	136.356	0.066	-0.086
-322.085	-15.998	-0.198	0.126
-321.070	-107.311	-0.286	-0.063
-320.056	286.751	-0.171	-0.310
-319.041	-73.906	-0.212	0.077
-318.026	-81.776	0.257	-0.085
-317.012	-199.174	-0.194	0.001
-315.997	253.476	0.209	-0.358
-314.983	-200.000	0.055	-0.290
-313.968	366.310	0.047	-0.095
-312.953	726.012	-0.050	-0.135
-311.939	-200.000	0.014	0.138
-310.924	800.000	-0.096	0.287
-309.910	-200.000	0.097	0.470
-308.895	-200.000	0.035	0.371
-307.880	576.524	-0.067	0.164
-306.866	139.695	0.073	0.097
-305.851	-184.164	-0.047	0.001
-304.837	-94.737	0.152	-0.041
-303.822	376.585	0.146	-0.299
-302.807	-189.882	0.496	-0.006
-301.793	-200.000	0.025	0.233
-300.778	316.313	0.221	-0.418
-299.764	81.159	0.237	-0.257
-298.749	-137.231	-0.451	0.051
-297.735	41.469	0.240	-0.218
-296.720	133.699	0.126	0.164
-295.705	-200.000	-0.002	0.125
-294.691	350.696	-0.083	-0.164
-293.676	-200.000	0.005	0.217
-292.662	391.429	0.093	0.194
-291.647	-10.173	0.118	-0.079
-290.632	171.695	-0.064	0.093
-289.618	-200.000	-0.025	-0.111
-288.603	-93.303	0.063	0.018
-287.589	-200.000	0.001	0.172
-286.574	-200.000	0.423	0.000
-285.559	-132.556	0.216	-0.028
-284.545	-75.518	-0.036	0.013
-283.530	-200.000	0.005	-0.315
-282.516	522.724	-0.064	-0.152
-281.501	385.197	0.149	-0.309
-280.486	-200.000	-0.026	0.130
-279.472	-60.478	-0.301	0.128
-278.457	-118.705	0.076	-0.013
-277.443	155.352	0.171	0.235
-276.428	-154.881	0.370	0.024
-275.413	139.136	-0.170	-0.225
-274.399	-98.504	0.064	-0.016
-273.384	-14.414	0.200	-0.129
-272.370	-200.000	0.005	0.204
-271.355	-50.466	-0.093	-0.044
-270.340	-169.515	0.142	0.005
-269.326	-78.647	0.115	0.039
-268.311	323.927	0.120	-0.230
-267.297	-104.086	-0.136	-0.032
-266.282	674.241	0.044	-0.115
-265.267	258.068	0.038	-0.065
-264.253	-162.942	0.150	0.007
-263.238	-200.000	-0.011	-0.085
-262.224	800.000	-0.111	0.338
-261.209	730.367	-0.162	0.433
-260.195	-73.781	-0.176	0.064
-259.180	-116.979	0.419	0.077
-258.165	17.866	-0.254	-0.203
-257.151	92.082	0.244	-0.275
-256.136	56.199	-0.065	0.063
-255.122	-133.597	0.148	-0.019
-254.107	-83.698	0.134	0.043
-253.092	-200.000	0.009	-0.075
-252.078	-117.246	0.029	0.005
-251.063	-125.510	0.022	-0.003
-250.049	387.944	-0.129	0.268
-249.034	23.341	0.235	0.193
-248.019	390.922	-0.147	0.305
-247.005	-200.000	-0.003	0.073
-245.990	-200.000	0.036	0.321
-244.976	-200.000	0.028	0.180
-243.961	-36.568	0.272	0.146
-242.946	1.248	0.175	-0.126
-241.932	506.388	0.099	0.229
-240.917	-200.000	0.001	0.172
-239.903	-56.905	0.348	0.154
-238.888	-200.000	0.006	-0.172
-237.873	-106.649	-0.136	-0.030
-236.859	-140.925	0.430	-0.044
-235.844	97.429	0.153	-0.176
-234.830	593.459	-0.025	0.061
-233.815	-84.347	0.506	-0.160
-232.800	-69.823	0.222	0.085
-231.786	-179.122	0.212	-0.005
-230.771	-143.526	0.176	0.017
-229.757	-200.000	0.002	-0.179
-228.742	-77.571	-0.325	-0.113
-227.727	594.601	-0.063	0.156
-226.713	-66.107	-0.177	-0.071
-225.698	345.871	-0.132	0.259
-224.684	-127.968	0.458	-0.066
-223.669	-111.653	0.018	-0.004
-222.655	-154.532	-0.435	-0.029
-221.640	-62.153	-0.131	-0.055
-220.625	-200.000	0.055	-0.247
-219.611	190.086	0.102	-0.153
-218.596	298.621	0.079	0.146
-217.582	68.305	0.115	-0.117
-216.567	-200.000	0.003	-0.025
-215.552	-19.237	0.123	-0.076
-214.538	181.618	0.034	0.050
-213.523	-113.104	-0.161	0.032
-212.509	-200.000	0.008	0.049
-211.494	-81.571	-0.093	0.030
-210.479	140.515	0.109	0.144
-209.465	-45.933	-0.120	0.059
-208.450	-49.500	-0.056	-0.027
-207.436	-200.000	-0.005	-0.309
-206.421	-125.104	-0.227	-0.035
-205.406	-138.824	-0.125	0.014
-204.392	800.000	0.039	-0.151
-203.377	-120.914	-0.143	-0.024
-202.363	245.796	0.074	-0.125
-201.348	800.000	0.043	0.139
-200.333	-65.232	-0.071	0.029
-199.319	76.030	-0.054	-0.058
-198.304	-94.400	-0.040	-0.011
-197.290	768.617	-0.058	-0.157
-196.275	81.719	0.150	-0.162
-195.260	58.754	0.211	0.207
-194.246	-75.168	-0.163	0.058
-193.231	162.875	0.201	0.282
-192.217	214.201	-0.159	0.251
-191.202	-150.782	-0.104	0.008
-190.187	-62.179	-0.327	-0.136
-189.173	212.887	-0.093	0.146
-188.158	9.721	-0.073	0.055
-187.144	-200.000	0.011	0.200
-186.129	-200.000	-0.046	-0.349
-185.114	-48.791	-0.325	0.156
-184.100	-170.963	-0.099	-0.003
-183.085	20.100	-0.224	0.181
-182.071	37.123	-0.161	-0.142
-181.056	600.976	0.121	0.300
-180.042	237.174	-0.098	0.163
-179.027	115.689	-0.223	0.273
-178.012	482.067	-0.117	-0.266
-176.998	161.464	-0.099	-0.138
-175.983	-124.872	0.342	0.053
-174.969	-47.355	-0.294	-0.143
-173.954	323.675	0.094	-0.179
-172.939	-4.814	0.196	-0.135
-171.925	800.000	-0.031	0.094
-170.910	-133.202	-0.170	-0.022
-169.896	84.961	-0.083	0.091
-168.881	26.905	0.191	-0.160
-167.866	368.871	-0.248	-0.500
-166.852	630.765	-0.049	-0.125
-165.837	69.543	0.116	0.119
-164.823	36.033	-0.336	0.295
-163.808	800.000	-0.109	0.448
-162.793	-200.000	0.022	0.310
-161.779	128.887	-0.259	-0.330
-160.764	-89.138	0.345	0.102
-159.750	-168.824	-0.283	-0.011
-158.735	800.000	0.020	-0.071
-157.720	58.555	-0.110	0.107
-156.706	139.323	-0.072	-0.094
-155.691	-200.000	0.009	0.104
-154.677	800.000	0.039	0.135
-153.662	340.625	0.073	0.142
-152.647	-200.000	0.030	0.252
-151.633	-151.120	0.247	-0.019
-150.618	497.066	0.078	-0.180
-149.604	24.379	-0.310	-0.256
-148.589	57.242	0.188	0.183
-147.574	85.608	0.109	-0.119
-146.560	-200.000	-0.011	0.127
-145.545	-53.861	0.209	-0.095
-144.531	2.173	0.115	0.083
-143.516	-200.000	-0.033	-0.197
-142.502	14.276	-0.297	-0.231
-141.487	-0.290	0.216	-0.153
-140.472	256.892	-0.158	0.271
-139.458	11.554	-0.193	0.147
-138.443	800.000	0.024	-0.093
-137.429	610.507	0.034	-0.086
-136.414	-19.388	-0.225	-0.139
-135.399	19.709	-0.040	0.032
-134.385	-7.146	-0.156	0.106
-133.370	-168.947	-0.386	0.014
-132.356	79.447	-0.127	-0.135
-131.341	28.792	0.016	0.013
-130.326	124.103	-0.204	0.256
-129.312	800.000	-0.067	0.270
-128.297	86.128	0.232	-0.254
-127.283	-120.069	-0.133	0.023
-126.268	-55.752	-0.056	0.025
-125.253	-145.676	-0.158	-0.014
-124.239	-15.275	-0.077	0.049
-123.224	-72.587	0.257	-0.094
-122.210	197.149	-0.128	0.194
-121.195	304.871	-0.095	0.175
