DTS Sentinel unit serial number:	SN413079Multiplexer serial number:	ORYXHardware model number:	OX4-SRSoftware version number:	ORYX F/W v4.00 Oryx Data Collector v3.7.2.0data status	okinstallation	princeton_trtdifferential loss correction	single-endedforward channel	channel 3reverse channel	N/Adate	2019/09/14time	05:08:35forward acquisition time	60.00reverse acquisition time	0.00gamma	496.2192k internal	0.2336k external	0.2336temperature offset calibration	1.0057default loss term (dB/km)	0.3790temperature slope calibration	1.0000multiplexer offset coefficient	1.0000multiplexer slope coefficient	1.0000fibre end	0.00T internal ref (°C)	26.87T ext. ref 1 (°C)	3.38T ext. ref 2 (°C)	21.98length (m)	temperature (°C)	Stokes	anti-Stokes-747.200	375.397	0.086	0.177
-746.185	4.393	0.071	0.052
-745.171	-200.000	0.002	-0.012
-744.156	-200.000	-0.043	0.308
-743.142	98.133	-0.161	-0.186
-742.127	-200.000	-0.021	-0.122
-741.112	-112.867	-0.142	0.028
-740.098	-111.750	-0.174	0.035
-739.083	67.127	-0.275	-0.282
-738.069	-200.000	-0.015	0.185
-737.054	-29.016	-0.196	0.113
-736.039	-49.053	-0.267	0.128
-735.025	445.961	0.188	0.416
-734.010	87.139	-0.401	-0.445
-732.996	639.899	0.096	-0.245
-731.981	17.392	-0.290	-0.231
-730.966	-16.824	-0.179	-0.114
-729.952	-134.323	0.097	-0.012
-728.937	-0.256	-0.227	-0.162
-727.923	-48.203	0.235	0.114
-726.908	307.519	-0.240	-0.450
-725.894	800.000	-0.129	-0.407
-724.879	143.049	-0.088	-0.118
-723.864	-129.575	-0.195	0.027
-722.850	-143.868	-0.296	0.028
-721.835	-189.646	-0.177	-0.002
-720.821	416.205	0.109	-0.233
-719.806	-200.000	0.008	0.232
-718.791	-99.732	-0.093	0.023
-717.777	800.000	-0.033	0.105
-716.762	800.000	-0.063	-0.246
-715.748	800.000	-0.048	-0.204
-714.733	1.762	0.142	0.103
-713.718	-33.058	0.080	0.044
-712.704	81.344	0.076	0.082
-711.689	-200.000	-0.001	-0.116
-710.675	148.779	0.225	-0.306
-709.660	-22.981	-0.421	-0.255
-708.645	-200.000	-0.024	0.338
-707.631	-165.952	-0.262	-0.011
-706.616	76.307	0.158	-0.168
-705.602	-7.654	-0.230	-0.156
-704.587	404.013	-0.037	-0.077
-703.572	-107.621	0.329	-0.072
-702.558	48.627	0.177	-0.166
-701.543	409.522	0.090	-0.190
-700.529	-75.244	-0.072	0.026
-699.514	113.413	-0.116	-0.142
-698.499	111.676	0.140	0.169
-697.485	54.843	0.129	-0.125
-696.470	-187.692	0.088	0.001
-695.456	18.667	-0.200	0.160
-694.441	208.423	-0.196	-0.306
-693.426	-200.000	-0.002	-0.413
-692.412	-63.338	-0.178	-0.074
-691.397	148.334	-0.162	-0.219
-690.383	150.543	0.073	0.099
-689.368	-43.172	0.172	0.087
-688.354	800.000	-0.127	-0.451
-687.339	284.825	-0.124	-0.224
-686.324	-200.000	0.003	-0.148
-685.310	-36.008	-0.199	-0.108
-684.295	-162.696	-0.259	0.013
-683.281	-200.000	-0.022	0.174
-682.266	-72.371	0.268	-0.099
-681.251	-32.624	-0.158	-0.088
-680.237	689.054	0.070	-0.184
-679.222	164.658	0.045	0.064
-678.208	52.409	-0.113	-0.108
-677.193	-24.487	-0.389	0.232
-676.178	-200.000	0.012	-0.169
-675.164	777.140	0.086	-0.236
-674.149	-51.969	-0.154	-0.072
-673.135	174.955	0.162	-0.235
-672.120	800.000	0.079	-0.250
-671.105	36.030	-0.095	-0.084
-670.091	-13.250	-0.138	0.090
-669.076	176.928	-0.053	-0.078
-668.062	-200.000	-0.020	-0.310
-667.047	-171.042	-0.043	-0.001
-666.032	-101.605	-0.343	0.084
-665.018	95.769	0.081	-0.092
-664.003	45.230	0.239	-0.220
-662.989	-200.000	0.003	0.204
-661.974	124.760	0.189	-0.239
-660.959	-114.585	-0.226	-0.043
-659.945	-200.000	-0.039	-0.262
-658.930	266.233	-0.127	-0.222
-657.916	-130.860	-0.142	-0.019
-656.901	-54.728	0.325	-0.147
-655.886	90.986	0.060	-0.067
-654.872	-165.373	0.447	0.020
-653.857	784.972	0.043	0.118
-652.843	-132.971	0.578	-0.074
-651.828	-99.615	0.423	-0.106
-650.814	1.536	0.187	-0.134
-649.799	-52.730	0.139	0.064
-648.784	204.174	0.076	-0.118
-647.770	-200.000	-0.039	-0.536
-646.755	-52.966	-0.141	-0.065
-645.741	320.344	0.069	0.130
-644.726	-164.406	0.174	-0.008
-643.711	610.845	-0.099	-0.247
-642.697	-139.127	-0.457	-0.049
-641.682	-142.133	-0.103	-0.010
-640.668	385.818	-0.070	-0.144
-639.653	-103.839	0.096	0.022
-638.638	37.460	-0.129	-0.114
-637.624	-29.541	-0.177	0.101
-636.609	-1.232	-0.056	0.040
-635.595	-161.152	-0.126	-0.007
-634.580	-116.024	-0.128	0.024
-633.565	-81.667	-0.166	-0.054
-632.551	134.174	-0.094	0.122
-631.536	124.491	-0.176	-0.222
-630.522	-81.049	-0.285	0.094
-629.507	-200.000	0.034	-0.165
-628.492	-200.000	0.042	0.255
-627.478	-154.059	0.242	0.016
-626.463	23.779	0.060	0.050
-625.449	-7.402	0.298	0.202
-624.434	672.925	-0.094	-0.243
-623.419	800.000	0.051	0.198
-622.405	-1.954	-0.177	0.125
-621.390	271.907	-0.146	-0.257
-620.376	106.823	-0.058	0.069
-619.361	425.380	0.067	-0.145
-618.346	-200.000	-0.016	-0.247
-617.332	716.045	-0.093	0.248
-616.317	669.907	0.043	0.111
-615.303	-200.000	0.032	0.312
-614.288	183.322	0.108	-0.159
-613.273	127.395	0.180	-0.228
-612.259	-63.337	0.307	0.126
-611.244	40.522	0.319	0.287
-610.230	-14.095	-0.233	0.150
-609.215	281.534	-0.130	-0.232
-608.201	-22.106	0.381	0.231
-607.186	-147.614	-0.231	0.019
-606.171	-139.388	-0.435	0.047
-605.157	-48.310	0.131	-0.063
-604.142	26.635	-0.057	0.047
-603.128	-115.745	-0.288	0.054
-602.113	-200.000	0.071	0.360
-601.098	677.070	0.016	0.042
-600.084	125.956	0.133	0.167
-599.069	-42.063	0.157	-0.080
-598.055	188.651	0.224	0.335
-597.040	30.870	-0.275	-0.235
-596.025	-47.487	0.103	-0.050
-595.011	-200.000	0.018	-0.501
-593.996	-200.000	-0.026	-0.185
-592.982	310.444	0.062	-0.116
-591.967	-126.189	0.383	0.057
-590.952	-43.581	-0.386	0.194
-589.938	-200.000	-0.030	-0.200
-588.923	-103.839	0.223	-0.052
-587.909	200.406	-0.227	-0.349
-586.894	-14.741	0.426	0.273
-585.879	800.000	-0.055	0.174
-584.865	-161.525	-0.050	-0.003
-583.850	-90.791	-0.458	0.132
-582.836	-85.494	-0.219	-0.068
-581.821	223.410	0.072	-0.116
-580.806	-76.696	-0.250	-0.087
-579.792	315.712	0.145	0.273
-578.777	135.722	0.294	0.382
-577.763	467.681	0.096	0.214
-576.748	-10.933	0.130	-0.085
-575.733	-139.613	0.111	0.012
-574.719	219.757	-0.071	0.113
-573.704	-144.826	0.216	0.020
-572.690	-48.867	0.136	-0.065
-571.675	164.783	-0.139	-0.196
-570.661	-199.513	0.196	0.001
-569.646	-14.918	-0.221	0.142
-568.631	20.183	-0.122	-0.098
-567.617	86.373	0.224	-0.246
-566.602	-99.601	0.283	0.071
-565.588	-168.404	0.183	0.007
-564.573	-155.261	-0.105	0.007
-563.558	-111.484	0.220	-0.045
-562.544	84.446	-0.200	-0.218
-561.529	-116.544	-0.076	0.014
-560.515	-85.569	0.276	0.085
-559.500	-156.197	-0.044	-0.003
-558.485	-50.321	0.210	-0.099
-557.471	-200.000	-0.009	0.129
-556.456	62.117	-0.068	-0.068
-555.442	25.592	0.164	-0.136
-554.427	-200.000	0.029	0.240
-553.412	-75.515	0.172	-0.061
-552.398	0.829	-0.285	-0.203
-551.383	122.964	0.105	-0.131
-550.369	74.928	-0.064	-0.067
-549.354	-200.000	0.074	0.000
-548.339	-27.031	-0.258	-0.150
-547.325	19.893	-0.265	-0.213
-546.310	294.949	-0.067	-0.121
-545.296	-200.000	-0.005	0.062
-544.281	72.975	0.113	-0.117
-543.266	-150.285	-0.108	-0.008
-542.252	26.646	0.200	0.167
-541.237	175.097	-0.129	-0.186
-540.223	-15.462	-0.235	-0.149
-539.208	-15.093	-0.401	0.256
-538.193	-82.403	-0.248	0.080
-537.179	-200.000	0.057	0.260
-536.164	309.669	0.227	0.423
-535.150	265.845	0.108	0.187
-534.135	-200.000	-0.456	0.001
-533.121	9.149	-0.082	0.062
-532.106	-81.737	0.129	0.042
-531.091	-128.328	0.282	-0.040
-530.077	-169.005	0.092	-0.003
-529.062	-194.531	-0.398	0.003
-528.048	69.160	-0.071	-0.072
-527.033	110.660	0.167	0.200
-526.018	20.752	-0.192	-0.155
-525.004	70.698	-0.156	-0.161
-523.989	127.064	-0.216	-0.272
-522.975	-200.000	-0.012	0.239
-521.960	-27.064	-0.214	0.124
-520.945	316.788	-0.156	0.294
-519.931	456.706	-0.074	0.164
-518.916	0.554	0.125	0.089
-517.902	-123.700	0.386	0.061
-516.887	673.784	-0.144	-0.373
-515.872	-64.736	-0.244	0.098
-514.858	-200.000	0.011	-0.091
-513.843	800.000	-0.031	0.114
-512.829	45.316	-0.319	0.293
-511.814	-45.529	0.274	0.135
-510.799	-21.148	-0.046	-0.028
-509.785	136.030	0.177	-0.230
-508.770	800.000	0.148	-0.427
-507.756	-117.079	0.223	0.040
-506.741	68.351	0.208	0.212
-505.726	-106.806	-0.179	0.040
-504.712	800.000	0.077	0.261
-503.697	73.852	0.230	0.240
-502.683	-136.867	0.522	-0.060
-501.668	-180.964	-0.238	-0.005
-500.653	-4.488	0.053	-0.036
-499.639	110.058	0.159	0.190
-498.624	-69.898	0.068	-0.026
-497.610	493.053	-0.128	0.292
-496.595	-152.493	-0.112	-0.008
-495.581	127.519	0.084	-0.106
-494.566	276.937	-0.119	0.210
-493.551	800.000	0.096	0.290
-492.537	-169.130	-0.170	0.006
-491.522	101.726	-0.045	-0.052
-490.508	-20.634	0.079	0.048
-489.493	331.135	-0.075	-0.145
-488.478	-79.505	0.012	0.004
-487.464	-158.351	0.303	-0.018
-486.449	800.000	0.056	-0.220
-485.435	-107.781	-0.070	0.015
-484.420	800.000	0.050	0.191
-483.405	-66.242	-0.117	0.046
-482.391	-63.636	-0.358	0.146
-481.376	158.503	-0.100	0.138
-480.362	-119.784	0.284	0.049
-479.347	261.449	-0.120	-0.207
-478.332	202.361	0.170	0.261
-477.318	352.541	0.057	0.111
-476.303	-101.021	0.231	-0.056
-475.289	-140.511	-0.400	-0.041
-474.274	-200.000	-0.001	-0.184
-473.259	-49.807	-0.239	0.113
-472.245	1.361	-0.131	-0.093
-471.230	31.262	0.154	-0.131
-470.216	22.165	0.153	0.124
-469.201	-154.164	-0.365	-0.025
-468.186	329.312	-0.158	-0.302
-467.172	-66.982	-0.173	-0.068
-466.157	-30.012	-0.240	-0.136
-465.143	-60.159	-0.266	-0.113
-464.128	-156.751	0.474	-0.029
-463.113	-140.591	-0.196	-0.020
-462.099	-120.124	-0.230	-0.039
-461.084	581.540	-0.074	0.179
-460.070	-166.143	-0.131	0.006
-459.055	-118.585	-0.372	0.065
-458.040	-135.624	0.220	-0.026
-457.026	92.848	-0.280	-0.314
-456.011	616.995	0.137	-0.342
-454.997	-86.028	0.249	0.076
-453.982	252.031	-0.079	-0.133
-452.968	241.560	0.076	0.127
-451.953	-114.397	-0.262	0.050
-450.938	-200.000	0.028	-0.316
-449.924	-128.997	0.185	0.026
-448.909	-164.854	-0.269	0.012
-447.895	-123.100	0.079	-0.013
-446.880	53.258	0.185	0.176
-445.865	-111.244	0.109	-0.022
-444.851	-200.000	-0.003	0.201
-443.836	102.071	0.141	0.164
-442.822	-200.000	0.015	-0.081
-441.807	-191.787	0.361	-0.004
-440.792	-44.956	-0.172	-0.085
-439.778	243.924	-0.111	-0.185
-438.763	30.372	-0.058	-0.049
-437.749	-115.016	0.067	0.013
-436.734	-75.638	0.231	0.081
-435.719	-60.266	0.070	-0.030
-434.705	-73.335	-0.213	0.077
-433.690	-16.193	0.066	0.041
-432.676	-81.823	0.227	-0.074
-431.661	-10.597	0.162	-0.106
-430.646	-82.748	-0.120	0.039
-429.632	800.000	-0.100	0.289
-428.617	-71.731	0.194	0.072
-427.603	-163.858	-0.198	-0.009
-426.588	250.796	0.089	-0.150
-425.573	35.374	0.173	-0.150
-424.559	36.930	0.163	-0.143
-423.544	-115.473	0.173	-0.032
-422.530	-78.354	-0.179	-0.061
-421.515	-162.824	0.242	-0.012
-420.500	154.850	0.133	0.181
-419.486	448.785	-0.064	-0.140
-418.471	131.361	0.196	-0.249
-417.457	-4.416	-0.150	0.103
-416.442	452.651	0.014	-0.030
-415.428	-67.785	-0.074	0.029
-414.413	104.244	0.224	-0.261
-413.398	281.466	-0.032	0.057
-412.384	-53.581	-0.256	-0.116
-411.369	-15.244	0.399	0.253
-410.355	800.000	0.047	0.157
-409.340	-41.581	0.113	0.057
-408.325	-152.464	0.271	0.019
-407.311	-104.938	0.214	-0.049
-406.296	-94.523	-0.118	0.032
-405.282	132.722	0.126	-0.160
-404.267	-200.000	0.024	-0.241
-403.252	800.000	-0.035	0.111
-402.238	-200.000	-0.012	-0.263
-401.223	-91.288	-0.199	-0.056
-400.209	140.639	0.157	-0.206
-399.194	547.121	0.091	-0.216
-398.179	-119.062	0.302	0.052
-397.165	-200.000	-0.021	-0.223
-396.150	-118.350	0.219	-0.038
-395.136	-49.351	-0.205	-0.097
-394.121	298.401	-0.035	0.063
-393.106	-200.000	0.022	-0.246
-392.092	-68.759	-0.350	-0.134
-391.077	-200.000	0.004	0.081
-390.063	-70.051	-0.287	-0.108
-389.048	-153.586	0.089	0.006
-388.033	356.607	-0.061	0.119
-387.019	174.907	0.040	-0.057
-386.004	50.564	-0.112	-0.105
-384.990	-200.000	-0.005	-0.183
-383.975	35.098	-0.400	-0.347
-382.960	800.000	-0.026	0.090
-381.946	242.725	-0.077	-0.128
-380.931	37.731	-0.017	0.015
-379.917	450.734	-0.105	-0.230
-378.902	-120.715	-0.102	0.017
-377.888	450.703	0.097	0.211
-376.873	3.113	0.195	0.140
-375.858	-91.809	-0.070	-0.020
-374.844	800.000	-0.033	-0.126
-373.829	16.010	-0.021	0.016
-372.815	346.970	-0.040	-0.078
-371.800	-200.000	-0.000	0.003
-370.785	417.966	-0.058	-0.123
-369.771	-200.000	-0.012	0.182
-368.756	-200.000	0.022	-0.185
-367.742	623.906	-0.132	0.330
-366.727	-58.245	0.321	-0.138
-365.712	-200.000	-0.035	-0.213
-364.698	-200.000	0.029	-0.138
-363.683	-56.958	-0.036	-0.016
-362.669	-117.356	-0.122	-0.022
-361.654	343.125	-0.165	-0.320
-360.639	800.000	-0.093	0.342
-359.625	-200.000	-0.016	0.086
-358.610	-200.000	-0.045	-0.383
-357.596	63.895	0.152	-0.151
-356.581	-170.760	0.271	0.009
-355.566	363.407	0.181	0.360
-354.552	800.000	-0.046	0.177
-353.537	-186.036	0.185	-0.003
-352.523	-68.225	0.364	-0.140
-351.508	47.103	-0.084	0.077
-350.493	-105.017	0.175	0.040
-349.479	97.146	0.229	0.260
-348.464	-163.973	-0.165	0.008
-347.450	-200.000	0.002	-0.086
-346.435	515.890	0.098	0.227
-345.420	-32.834	0.175	0.096
-344.406	800.000	0.048	-0.169
-343.391	800.000	0.068	-0.266
-342.377	-200.000	0.033	-0.165
-341.362	-58.188	-0.318	0.137
-340.348	164.973	-0.073	-0.102
-339.333	800.000	0.019	-0.056
-338.318	63.742	-0.146	-0.145
-337.304	-60.304	-0.086	0.036
-336.289	35.271	-0.229	-0.198
-335.275	-134.820	0.171	0.020
-334.260	114.802	-0.135	-0.162
-333.245	728.720	0.048	-0.127
-332.231	-200.000	-0.004	-0.112
-331.216	46.443	0.288	0.264
-330.202	800.000	0.039	-0.146
-329.187	484.504	-0.047	0.105
-328.172	800.000	0.111	0.456
-327.158	608.643	-0.086	0.212
-326.143	-200.000	-0.019	0.351
-325.129	170.462	0.075	-0.106
-324.114	117.928	-0.063	0.077
-323.099	-137.145	-0.573	0.065
-322.085	-42.045	0.072	0.036
-321.070	-114.912	0.426	-0.080
-320.056	756.953	-0.093	-0.250
-319.041	-200.000	-0.001	-0.049
-318.026	422.583	0.188	0.400
-317.012	196.932	0.043	0.064
-315.997	31.668	-0.188	-0.160
-314.983	45.361	0.213	-0.194
-313.968	608.814	0.112	-0.275
-312.953	-31.535	0.281	0.156
-311.939	-152.093	0.175	-0.013
-310.924	5.460	-0.121	0.088
-309.910	85.349	-0.075	0.081
-308.895	-161.563	-0.272	0.014
-307.880	-91.987	-0.304	-0.085
-306.866	-61.147	0.199	0.083
-305.851	177.025	-0.183	-0.263
-304.837	-52.399	-0.034	-0.015
-303.822	-56.013	-0.088	-0.039
-302.807	-200.000	-0.060	-0.303
-301.793	-2.029	-0.289	0.201
-300.778	41.697	0.202	-0.180
-299.764	-12.344	0.126	-0.081
-298.749	163.680	0.192	-0.267
-297.735	122.910	0.209	-0.258
-296.720	-127.614	0.052	-0.007
-295.705	252.174	-0.165	-0.277
-294.691	-81.963	-0.190	0.061
-293.676	-200.000	-0.007	0.308
-292.662	-98.528	-0.258	-0.065
-291.647	800.000	0.076	0.227
-290.632	-17.415	-0.349	-0.217
-289.618	70.452	0.095	-0.097
-288.603	-19.799	0.168	-0.102
-287.589	86.695	0.197	0.214
-286.574	19.913	-0.332	0.264
-285.559	800.000	-0.081	0.293
-284.545	800.000	-0.080	0.296
-283.530	-200.000	-0.010	-0.304
-282.516	-200.000	-0.029	0.220
-281.501	800.000	-0.116	-0.333
-280.486	-187.560	-0.183	-0.002
-279.472	274.911	0.125	-0.218
-278.457	-149.692	0.489	0.038
-277.443	-200.000	0.000	-0.217
-276.428	67.426	0.120	-0.120
-275.413	-2.992	-0.100	-0.069
-274.399	-196.852	0.394	-0.003
-273.384	-116.694	0.237	-0.043
-272.370	-133.628	0.283	0.035
-271.355	-95.859	-0.144	-0.038
-270.340	85.861	0.163	0.177
-269.326	254.481	0.089	0.150
-268.311	-200.000	0.030	0.257
-267.297	53.725	-0.249	-0.236
-266.282	93.608	0.231	-0.258
-265.267	294.837	-0.033	-0.060
-264.253	-200.000	0.018	-0.119
-263.238	562.362	0.181	0.432
-262.224	62.917	-0.288	-0.284
-261.209	166.634	-0.153	-0.213
-260.195	2.024	0.056	0.040
-259.180	462.051	-0.009	0.021
-258.165	773.285	-0.129	0.347
-257.151	525.356	0.072	0.166
-256.136	103.189	0.079	-0.091
-255.122	800.000	0.082	-0.226
-254.107	800.000	-0.064	0.189
-253.092	-90.025	-0.200	-0.058
-252.078	-200.000	-0.011	-0.084
-251.063	-89.918	-0.021	0.006
-250.049	-83.604	-0.095	0.030
-249.034	72.289	-0.110	0.113
-248.019	-200.000	0.009	0.277
-247.005	114.107	0.045	-0.054
-245.990	261.231	-0.112	0.190
-244.976	558.014	-0.168	0.399
-243.961	107.109	-0.161	0.188
-242.946	133.498	0.170	0.217
-241.932	-196.472	-0.040	0.000
-240.917	182.359	-0.095	0.138
-239.903	55.842	-0.144	0.137
-238.888	409.522	-0.063	-0.131
-237.873	-200.000	0.014	-0.466
-236.859	256.990	-0.106	0.179
-235.844	-72.672	0.184	-0.067
-234.830	-189.932	-0.184	-0.002
-233.815	-126.578	0.178	0.026
-232.800	-15.041	0.348	0.220
-231.786	-200.000	-0.055	0.250
-230.771	142.814	0.146	0.191
-229.757	-200.000	0.063	0.342
-228.742	43.758	0.277	-0.250
-227.727	390.007	-0.188	0.384
-226.713	74.605	-0.220	-0.228
-225.698	-4.045	0.204	-0.139
-224.684	-74.834	-0.073	-0.026
-223.669	-64.468	-0.159	-0.064
-222.655	-200.000	-0.024	0.175
-221.640	18.155	0.264	0.207
-220.625	35.779	-0.192	-0.166
-219.611	-200.000	0.004	-0.359
-218.596	-20.982	0.073	0.044
-217.582	41.208	-0.123	0.109
-216.567	-3.615	0.106	0.072
-215.552	800.000	-0.089	-0.341
-214.538	-200.000	-0.006	-0.077
-213.523	-200.000	0.054	0.321
-212.509	800.000	0.068	0.194
-211.494	-87.023	0.316	-0.095
-210.479	-156.241	0.067	-0.004
-209.465	34.510	-0.182	-0.157
-208.450	358.312	0.089	0.176
-207.436	-200.000	-0.032	-0.164
-206.421	-200.000	0.045	0.404
-205.406	259.582	-0.052	0.088
-204.392	-200.000	-0.005	0.119
-203.377	-101.554	0.065	-0.016
-202.363	-92.969	-0.167	0.046
-201.348	-138.669	0.217	-0.023
-200.333	-114.569	0.104	-0.020
-199.319	407.982	-0.108	0.224
-198.304	67.622	-0.105	-0.106
-197.290	-106.367	0.229	0.050
-196.275	-132.444	-0.274	0.035
-195.260	-104.140	0.081	0.019
-194.246	800.000	-0.120	-0.425
-193.231	-13.483	-0.275	0.175
-192.217	-88.246	0.286	0.084
-191.202	147.738	-0.166	0.219
-190.187	207.697	0.101	0.154
-189.173	286.723	-0.098	-0.173
-188.158	-133.875	-0.266	-0.032
-187.144	-157.944	-0.197	-0.011
-186.129	190.113	-0.083	0.123
-185.114	184.567	0.226	0.329
-184.100	-113.738	0.357	0.068
-183.085	-157.012	0.239	0.014
-182.071	-78.535	0.046	0.015
-181.056	121.908	0.238	0.292
-180.042	-39.169	0.061	-0.032
-179.027	-200.000	-0.001	0.238
-178.012	-200.000	-0.045	0.241
-176.998	46.703	-0.087	-0.080
-175.983	-127.436	0.274	0.039
-174.969	-83.524	0.139	-0.044
-173.954	-128.442	-0.336	-0.047
-172.939	-200.000	0.015	0.127
-171.925	356.994	-0.161	-0.315
-170.910	-121.839	0.127	-0.021
-169.896	69.630	-0.243	-0.246
-168.881	-43.702	0.220	0.109
-167.866	-83.035	-0.501	-0.158
-166.852	-159.853	0.331	-0.018
-165.837	-200.000	-0.043	-0.399
-164.823	-42.638	0.109	0.054
-163.808	40.767	-0.081	0.072
-162.793	-200.000	-0.003	-0.320
-161.779	-17.238	-0.222	0.138
-160.764	-159.063	0.353	-0.020
-159.750	66.560	-0.266	0.266
-158.735	800.000	-0.152	-0.420
-157.720	-74.034	0.298	-0.106
-156.706	66.252	-0.088	0.087
-155.691	29.261	0.072	0.060
-154.677	800.000	-0.033	-0.122
-153.662	-200.000	-0.022	0.171
-152.647	-19.161	-0.109	0.066
-151.633	-200.000	-0.046	0.338
-150.618	-7.141	0.218	0.145
-149.604	-59.365	0.234	-0.099
-148.589	-200.000	-0.014	-0.103
-147.574	-109.849	0.074	-0.015
-146.560	-188.153	-0.057	0.001
-145.545	340.393	0.159	0.305
-144.531	-200.000	0.059	0.370
-143.516	-119.037	0.094	0.016
-142.502	-56.222	0.068	-0.030
-141.487	-47.293	0.078	0.037
-140.472	-72.007	-0.285	-0.104
-139.458	31.563	-0.149	-0.125
-138.443	800.000	0.096	0.352
-137.429	71.978	-0.241	-0.246
-136.414	-34.521	-0.108	0.058
-135.399	-22.464	0.240	-0.142
-134.385	800.000	0.063	-0.222
-133.370	-112.680	0.068	-0.013
-132.356	91.506	0.293	0.323
-131.341	-149.338	-0.244	0.019
-130.326	-200.000	-0.002	-0.180
-129.312	524.653	0.074	0.171
-128.297	-40.670	-0.235	0.119
-127.283	783.755	-0.085	0.229
-126.268	-74.511	-0.572	0.202
-125.253	-200.000	-0.030	-0.387
-124.239	77.292	-0.103	-0.107
-123.224	19.806	0.419	-0.330
