DTS Sentinel unit serial number:	SN413079Multiplexer serial number:	ORYXHardware model number:	OX4-SRSoftware version number:	ORYX F/W v4.00 Oryx Data Collector v3.7.2.0data status	okinstallation	princeton_trtdifferential loss correction	single-endedforward channel	channel 3reverse channel	N/Adate	2019/09/12time	08:22:11forward acquisition time	60.00reverse acquisition time	0.00gamma	496.2192k internal	0.2312k external	0.2312temperature offset calibration	1.0031default loss term (dB/km)	0.3790temperature slope calibration	1.0000multiplexer offset coefficient	1.0000multiplexer slope coefficient	1.0000fibre end	0.00T internal ref (°C)	33.52T ext. ref 1 (°C)	1.69T ext. ref 2 (°C)	30.05length (m)	temperature (°C)	Stokes	anti-Stokes-747.200	800.000	-0.165	0.505
-746.185	-200.000	-0.026	0.329
-745.171	72.222	0.079	-0.083
-744.156	57.525	-0.141	0.140
-743.142	62.022	-0.181	0.183
-742.127	-200.000	-0.021	0.561
-741.112	24.820	-0.103	0.086
-740.098	-200.000	0.034	0.419
-739.083	-17.255	0.097	0.062
-738.069	70.949	-0.213	0.223
-737.054	261.217	0.098	0.172
-736.039	-123.711	-0.364	0.058
-735.025	800.000	0.059	-0.224
-734.010	527.182	-0.086	-0.206
-732.996	91.404	0.103	0.117
-731.981	-87.972	0.300	0.091
-730.966	-139.207	-0.269	-0.029
-729.952	452.897	0.137	-0.306
-728.937	36.671	0.028	0.025
-727.923	800.000	0.080	-0.259
-726.908	-200.000	-0.028	-0.154
-725.894	-200.000	0.002	0.135
-724.879	800.000	-0.033	0.116
-723.864	172.856	-0.003	0.005
-722.850	-3.976	-0.053	-0.037
-721.835	-177.694	-0.253	-0.006
-720.821	800.000	-0.098	0.328
-719.806	20.474	-0.213	0.175
-718.791	800.000	0.044	-0.135
-717.777	232.707	0.083	-0.138
-716.762	-10.139	-0.096	0.065
-715.748	-69.390	0.038	0.015
-714.733	113.115	-0.119	-0.146
-713.718	-122.042	0.061	0.010
-712.704	-128.397	0.233	-0.034
-711.689	-78.880	-0.334	-0.115
-710.675	-200.000	-0.011	-0.171
-709.660	-4.038	0.131	0.092
-708.645	45.357	-0.239	0.224
-707.631	178.292	-0.097	-0.143
-706.616	-142.460	-0.251	-0.025
-705.602	-80.464	0.160	-0.054
-704.587	-37.798	-0.214	-0.115
-703.572	-95.660	-0.397	0.108
-702.558	67.444	0.293	-0.303
-701.543	-152.531	0.516	0.037
-700.529	-8.904	0.023	-0.015
-699.514	120.085	0.019	-0.024
-698.499	19.490	0.047	0.038
-697.485	-200.000	-0.017	0.142
-696.470	-3.920	0.137	0.096
-695.456	54.436	-0.234	-0.228
-694.441	59.886	-0.174	0.174
-693.426	-60.857	-0.336	-0.144
-692.412	385.149	-0.043	-0.089
-691.397	-43.885	-0.158	0.080
-690.383	20.107	-0.092	0.076
-689.368	82.067	-0.050	-0.054
-688.354	-56.603	0.048	0.021
-687.339	-200.000	0.050	-0.349
-686.324	-67.512	-0.242	-0.096
-685.310	-62.303	-0.389	0.164
-684.295	194.476	-0.111	-0.170
-683.281	-182.217	0.284	0.005
-682.266	332.837	-0.112	0.219
-681.251	-200.000	-0.022	0.142
-680.237	-23.165	0.180	0.110
-679.222	45.818	-0.290	-0.272
-678.208	800.000	-0.056	-0.167
-677.193	360.898	-0.115	-0.232
-676.178	87.834	-0.179	-0.201
-675.164	-200.000	-0.087	0.488
-674.149	69.674	0.098	0.103
-673.135	4.241	-0.305	-0.226
-672.120	433.628	-0.091	-0.201
-671.105	-43.404	-0.343	-0.176
-670.091	-44.874	-0.285	-0.144
-669.076	-155.181	0.114	-0.008
-668.062	800.000	0.108	0.340
-667.047	-200.000	0.002	-0.100
-666.032	254.862	0.085	-0.147
-665.018	65.063	0.221	0.226
-664.003	-142.710	-0.566	0.056
-662.989	181.180	0.314	0.467
-661.974	104.192	-0.128	-0.153
-660.959	-14.505	-0.422	0.275
-659.945	160.690	-0.047	-0.067
-658.930	-108.476	0.068	0.015
-657.916	800.000	-0.095	-0.370
-656.901	141.937	-0.394	-0.528
-655.886	134.525	-0.206	-0.270
-654.872	-200.000	-0.020	0.096
-653.857	51.965	0.087	0.084
-652.843	-13.731	-0.380	-0.248
-651.828	-200.000	0.060	-0.341
-650.814	220.911	0.085	-0.139
-649.799	323.299	-0.129	-0.248
-648.784	59.986	-0.062	-0.062
-647.770	57.817	-0.281	0.278
-646.755	-94.499	0.369	-0.102
-645.741	-63.188	-0.360	-0.150
-644.726	280.467	-0.119	0.215
-643.711	-200.000	-0.075	0.379
-642.697	-151.729	0.062	-0.005
-641.682	123.394	0.158	-0.200
-640.668	-146.177	-0.183	-0.016
-639.653	-3.551	0.235	-0.165
-638.638	101.030	-0.108	-0.127
-637.624	5.764	-0.272	-0.203
-636.609	49.772	-0.153	0.146
-635.595	-100.249	-0.065	0.016
-634.580	-154.247	-0.270	0.018
-633.565	558.975	-0.042	-0.103
-632.551	329.193	-0.017	0.033
-631.536	-90.885	-0.082	0.024
-630.522	77.950	-0.243	0.261
-629.507	800.000	-0.047	0.133
-628.492	-200.000	0.040	0.337
-627.478	-200.000	0.032	0.307
-626.463	-200.000	0.081	-0.000
-625.449	800.000	-0.111	-0.365
-624.434	215.732	-0.014	0.022
-623.419	86.779	0.032	-0.036
-622.405	800.000	-0.048	0.184
-621.390	11.975	-0.172	-0.134
-620.376	-89.946	0.093	-0.027
-619.361	-119.661	0.190	-0.033
-618.346	419.517	0.193	0.416
-617.332	793.504	-0.051	0.142
-616.317	793.557	0.049	-0.136
-615.303	-42.187	0.069	0.035
-614.288	362.940	-0.084	0.169
-613.273	-65.550	-0.119	0.048
-612.259	800.000	-0.042	-0.175
-611.244	-144.916	0.139	0.013
-610.230	-200.000	0.036	0.298
-609.215	77.772	0.115	0.123
-608.201	202.048	0.228	-0.354
-607.186	-200.000	0.053	-0.264
-606.171	-85.755	0.244	0.076
-605.157	800.000	0.020	-0.077
-604.142	-200.000	0.005	-0.273
-603.128	-71.447	-0.065	-0.025
-602.113	-200.000	-0.108	0.000
-601.098	-200.000	-0.017	-0.138
-600.084	98.267	-0.113	0.132
-599.069	-200.000	-0.043	-0.213
-598.055	-75.065	0.161	0.058
-597.040	415.157	0.055	-0.119
-596.025	-36.159	-0.067	-0.036
-595.011	59.837	0.280	0.279
-593.996	-118.836	0.418	0.074
-592.982	-44.119	0.346	-0.175
-591.967	71.002	-0.187	0.195
-590.952	-71.415	-0.218	0.082
-589.938	-193.745	-0.420	0.004
-588.923	7.219	0.360	-0.271
-587.909	-200.000	0.033	-0.196
-586.894	-96.033	0.326	-0.088
-585.879	25.542	-0.180	-0.151
-584.865	-34.475	0.051	0.028
-583.850	159.924	0.082	-0.115
-582.836	63.119	-0.041	-0.042
-581.821	-195.770	-0.290	0.002
-580.806	-40.169	0.192	0.101
-579.792	-177.297	-0.328	0.008
-578.777	800.000	0.032	0.095
-577.763	-145.059	-0.027	-0.002
-576.748	-61.761	0.186	0.078
-575.733	-158.515	0.480	0.028
-574.719	174.741	0.036	-0.053
-573.704	5.160	-0.324	0.241
-572.690	-200.000	0.009	-0.116
-571.675	62.986	-0.024	-0.024
-570.661	178.096	0.147	0.216
-569.646	-36.708	-0.427	0.231
-568.631	6.321	0.187	0.140
-567.617	-68.460	-0.110	-0.043
-566.602	-76.139	0.301	-0.107
-565.588	428.403	0.086	0.187
-564.573	800.000	-0.123	0.373
-563.558	137.129	0.151	-0.199
-562.544	-200.000	0.011	0.181
-561.529	506.989	-0.147	-0.343
-560.515	-36.153	0.210	0.114
-559.500	69.762	-0.292	-0.303
-558.485	123.707	-0.139	-0.176
-557.471	-200.000	0.019	0.105
-556.456	17.703	-0.081	-0.065
-555.442	19.505	-0.095	0.077
-554.427	250.467	0.154	0.264
-553.412	-83.506	0.289	-0.093
-552.398	-129.872	0.335	0.046
-551.383	-147.415	0.235	0.020
-550.369	58.101	0.185	-0.183
-549.354	-83.332	-0.115	-0.037
-548.339	-137.216	-0.061	-0.007
-547.325	-34.464	0.092	-0.051
-546.310	29.084	0.303	0.259
-545.296	479.510	0.143	0.326
-544.281	501.963	0.036	0.085
-543.266	-74.525	0.206	0.075
-542.252	91.645	-0.335	0.379
-541.237	800.000	0.085	-0.247
-540.223	48.990	0.224	-0.212
-539.208	402.629	0.148	0.314
-538.193	-13.919	-0.106	-0.069
-537.179	-105.265	0.246	0.056
-536.164	100.143	0.124	-0.144
-535.150	-200.000	-0.057	0.293
-534.135	191.974	-0.019	0.028
-533.121	-160.319	-0.222	0.012
-532.106	-200.000	-0.014	0.207
-531.091	-164.230	-0.097	0.004
-530.077	800.000	0.082	-0.282
-529.062	475.488	0.075	0.170
-528.048	141.757	-0.050	-0.067
-527.033	-21.856	0.169	-0.103
-526.018	339.141	0.075	-0.148
-525.004	37.509	0.038	0.034
-523.989	126.563	-0.134	-0.171
-522.975	-200.000	0.011	-0.229
-521.960	-24.990	0.144	0.086
-520.945	-200.000	-0.001	-0.026
-519.931	-179.669	0.098	-0.002
-518.916	800.000	0.034	0.137
-517.902	-200.000	-0.081	-0.368
-516.887	261.045	0.146	-0.254
-515.872	121.806	-0.142	-0.179
-514.858	-61.119	0.190	0.081
-513.843	-189.505	-0.539	-0.006
-512.829	-33.240	0.136	-0.076
-511.814	265.229	-0.102	-0.179
-510.799	-200.000	0.012	0.072
-509.785	-48.017	-0.082	0.040
-508.770	-200.000	0.032	-0.153
-507.756	-14.472	-0.076	0.049
-506.741	239.292	-0.021	-0.036
-505.726	-142.858	0.227	-0.022
-504.712	800.000	-0.104	-0.323
-503.697	393.369	0.095	0.199
-502.683	-50.496	-0.075	0.036
-501.668	12.765	0.283	0.220
-500.653	713.490	-0.116	-0.310
-499.639	421.246	-0.058	0.125
-498.624	-16.577	-0.088	0.056
-497.610	-200.000	0.007	-0.137
-496.595	407.274	-0.096	-0.205
-495.581	800.000	0.119	-0.364
-494.566	543.104	0.099	-0.237
-493.551	-200.000	-0.052	-0.287
-492.537	-83.685	-0.011	-0.004
-491.522	-148.868	-0.306	0.025
-490.508	800.000	-0.039	-0.167
-489.493	-41.350	-0.264	-0.137
-488.478	-79.901	0.346	-0.117
-487.464	325.347	0.147	-0.282
-486.449	444.256	0.077	-0.170
-485.435	147.305	-0.060	-0.081
-484.420	800.000	0.009	0.032
-483.405	-72.607	-0.328	0.122
-482.391	-115.784	0.178	-0.034
-481.376	39.026	0.106	0.095
-480.362	227.640	0.092	-0.150
-479.347	800.000	-0.075	0.278
-478.332	-200.000	0.114	0.000
-477.318	37.954	-0.209	-0.187
-476.303	-29.700	-0.156	0.089
-475.289	-100.442	-0.217	-0.054
-474.274	-25.675	0.153	0.091
-473.259	-109.834	0.383	0.081
-472.245	408.456	-0.075	0.159
-471.230	409.571	0.089	0.190
-470.216	48.706	-0.208	0.196
-469.201	-49.407	-0.107	-0.051
-468.186	15.108	0.258	0.203
-467.172	-200.000	-0.011	0.135
-466.157	66.133	0.257	-0.261
-465.143	14.333	-0.126	0.098
-464.128	5.121	-0.323	0.239
-463.113	75.877	0.139	-0.147
-462.099	-103.469	0.350	-0.083
-461.084	-200.000	-0.038	0.236
-460.070	-121.857	-0.374	0.062
-459.055	-74.045	0.355	-0.129
-458.040	-200.000	0.044	0.231
-457.026	-43.347	-0.128	0.065
-456.011	-38.888	-0.192	0.102
-454.997	-89.612	-0.112	-0.033
-453.982	24.957	-0.228	-0.190
-452.968	-200.000	0.062	-0.367
-451.953	167.224	-0.137	0.195
-450.938	797.663	0.157	0.434
-449.924	800.000	0.127	-0.438
-448.909	-200.000	0.027	-0.133
-447.895	97.293	0.118	0.136
-446.880	-200.000	-0.044	0.311
-445.865	-143.901	-0.160	-0.015
-444.851	423.462	-0.081	0.174
-443.836	-65.761	-0.139	0.056
-442.822	84.126	0.103	0.113
-441.807	-200.000	-0.024	0.234
-440.792	3.635	-0.389	0.284
-439.778	-200.000	0.074	0.360
-438.763	-59.371	0.282	-0.122
-437.749	800.000	-0.049	-0.168
-436.734	-126.246	0.247	0.037
-435.719	-200.000	-0.038	-0.277
-434.705	-200.000	-0.019	-0.259
-433.690	-106.525	0.157	-0.035
-432.676	-200.000	-0.007	0.075
-431.661	236.661	-0.096	-0.160
-430.646	50.819	0.020	-0.019
-429.632	-125.405	-0.264	0.040
-428.617	-200.000	0.000	0.051
-427.603	53.053	0.238	0.228
-426.588	-131.720	0.388	-0.051
-425.573	-164.538	0.271	0.012
-424.559	10.625	0.091	0.070
-423.544	-164.209	-0.189	-0.009
-422.530	311.689	-0.061	-0.115
-421.515	511.001	0.120	-0.280
-420.500	-76.245	-0.220	0.078
-419.486	23.722	-0.087	0.072
-418.471	-200.000	0.002	-0.203
-417.457	800.000	0.008	0.023
-416.442	-104.574	0.286	0.066
-415.428	450.191	0.164	-0.362
-414.413	123.240	0.116	-0.146
-413.398	-200.000	-0.010	0.378
-412.384	-55.110	-0.218	0.098
-411.369	-92.577	0.180	-0.051
-410.355	-1.243	0.336	0.238
-409.340	-1.976	-0.227	0.160
-408.325	-200.000	0.010	0.136
-407.311	-113.553	-0.040	0.008
-406.296	62.669	-0.280	0.280
-405.282	80.444	0.350	0.378
-404.267	800.000	0.080	-0.308
-403.252	-200.000	-0.013	-0.166
-402.238	-200.000	-0.002	-0.027
-401.223	800.000	0.023	-0.067
-400.209	115.965	0.065	0.080
-399.194	-70.242	0.383	-0.146
-398.179	34.713	-0.244	-0.213
-397.165	362.842	0.174	-0.350
-396.150	23.781	-0.191	-0.158
-395.136	-34.477	-0.022	-0.012
-394.121	89.099	-0.066	-0.073
-393.106	800.000	-0.080	0.311
-392.092	269.684	-0.127	-0.223
-391.077	-148.793	0.257	0.021
-390.063	-56.949	-0.221	-0.098
-389.048	795.953	-0.131	-0.360
-388.033	-112.905	0.055	0.011
-387.019	-82.040	-0.127	0.041
-386.004	195.364	-0.094	0.142
-384.990	-24.262	0.342	0.204
-383.975	-33.623	-0.150	-0.083
-382.960	1.546	0.077	0.055
-381.946	800.000	-0.024	-0.099
-380.931	800.000	-0.096	0.358
-379.917	145.066	-0.169	-0.226
-378.902	309.145	-0.167	-0.311
-377.888	-131.367	0.231	0.031
-376.873	800.000	-0.094	0.327
-375.858	-27.513	-0.077	0.045
-374.844	-12.902	-0.304	-0.198
-373.829	-21.574	-0.140	-0.086
-372.815	0.225	-0.131	0.094
-371.800	-200.000	-0.042	-0.216
-370.785	800.000	0.139	-0.438
-369.771	800.000	0.035	0.141
-368.756	-88.280	-0.159	0.048
-367.742	594.119	0.092	0.227
-366.727	-32.824	0.097	-0.054
-365.712	189.283	-0.162	0.243
-364.698	-23.605	0.075	0.045
-363.683	-130.726	0.238	0.032
-362.669	-15.329	0.181	0.116
-361.654	-64.552	0.237	0.096
-360.639	-200.000	-0.024	0.178
-359.625	453.691	-0.090	-0.200
-358.610	-7.686	0.160	0.108
-357.596	-200.000	0.003	0.234
-356.581	168.654	0.066	0.094
-355.566	-116.604	-0.445	0.082
-354.552	236.385	0.080	0.132
-353.537	-200.000	0.044	0.204
-352.523	-37.751	-0.375	0.200
-351.508	-74.724	0.225	-0.081
-350.493	551.850	-0.082	0.197
-349.479	-167.985	0.257	0.010
-348.464	-67.275	0.145	-0.057
-347.450	-30.099	-0.276	-0.157
-346.435	800.000	0.012	0.033
-345.420	-197.006	0.032	-0.000
-344.406	215.311	0.145	0.230
-343.391	-200.000	0.014	-0.159
-342.377	157.100	-0.114	-0.157
-341.362	-200.000	-0.028	0.160
-340.348	-63.098	-0.067	-0.027
-339.333	729.620	0.038	0.102
-338.318	202.336	-0.123	0.190
-337.304	90.895	-0.144	-0.161
-336.289	-153.457	-0.123	0.008
-335.275	-146.643	-0.222	0.019
-334.260	252.247	-0.089	0.152
-333.245	-200.000	0.003	0.129
-332.231	418.909	0.100	-0.214
-331.216	-200.000	-0.040	0.319
-330.202	-168.440	0.233	0.009
-329.187	-200.000	-0.015	-0.072
-328.172	-22.790	0.101	0.061
-327.158	-119.723	0.230	-0.040
-326.143	800.000	0.054	-0.165
-325.129	30.195	-0.199	0.170
-324.114	-151.139	0.180	-0.013
-323.099	-200.000	-0.038	0.197
-322.085	-121.811	-0.235	-0.039
-321.070	-200.000	0.026	-0.252
-320.056	-200.000	0.100	-0.457
-319.041	-200.000	-0.045	-0.230
-318.026	-124.385	-0.261	0.041
-317.012	104.365	-0.019	-0.023
-315.997	-200.000	0.007	-0.067
-314.983	-155.909	0.282	-0.018
-313.968	88.225	-0.175	0.194
-312.953	-170.533	0.164	-0.006
-311.939	-52.615	0.057	0.026
-310.924	-200.000	-0.003	-0.070
-309.910	78.093	0.075	-0.079
-308.895	352.154	0.039	0.077
-307.880	-200.000	-0.007	0.245
-306.866	149.643	0.053	0.072
-305.851	549.322	-0.085	-0.203
-304.837	366.917	0.043	-0.086
-303.822	-157.034	-0.058	-0.004
-302.807	-200.000	0.047	0.234
-301.793	-45.831	0.170	0.084
-300.778	800.000	0.070	0.254
-299.764	800.000	-0.064	-0.187
-298.749	-112.998	0.159	0.031
-297.735	-138.752	-0.240	0.026
-296.720	10.014	-0.155	0.118
-295.705	-46.489	-0.159	0.078
-294.691	27.627	0.193	-0.162
-293.676	399.465	0.148	-0.310
-292.662	22.625	-0.244	-0.199
-291.647	-193.894	0.181	0.002
-290.632	-146.440	0.213	0.018
-289.618	8.440	-0.230	-0.173
-288.603	800.000	0.098	0.376
-287.589	579.669	-0.145	0.355
-286.574	-116.286	0.377	-0.070
-285.559	-64.415	-0.184	-0.075
-284.545	800.000	0.037	-0.153
-283.530	-200.000	0.035	-0.178
-282.516	318.430	0.116	-0.219
-281.501	-200.000	0.006	-0.066
-280.486	800.000	-0.109	-0.301
-279.472	204.797	0.102	-0.158
-278.457	-66.405	0.254	-0.101
-277.443	227.973	0.121	-0.197
-276.428	-94.800	0.416	-0.112
-275.413	-11.608	0.085	0.056
-274.399	-41.217	-0.141	-0.073
-273.384	438.719	0.047	-0.102
-272.370	-141.420	-0.137	-0.014
-271.355	-29.854	0.287	-0.163
-270.340	-159.538	0.192	-0.011
-269.326	-200.000	-0.026	-0.257
-268.311	174.215	0.104	-0.150
-267.297	527.125	0.055	-0.129
-266.282	-200.000	0.017	0.414
-265.267	779.377	-0.122	0.331
-264.253	28.785	0.224	0.189
-263.238	76.435	0.112	0.118
-262.224	93.852	-0.253	-0.285
-261.209	147.717	0.136	0.183
-260.195	-66.521	-0.179	0.071
-259.180	-11.579	-0.306	0.200
-258.165	643.579	0.053	0.134
-257.151	-200.000	0.023	0.300
-256.136	-194.674	-0.030	0.000
-255.122	-200.000	0.066	0.461
-254.107	709.222	-0.073	-0.192
-253.092	-111.398	0.146	0.030
-252.078	37.033	-0.155	-0.136
-251.063	-117.901	-0.431	0.077
-250.049	-200.000	0.013	0.095
-249.034	-46.354	0.163	0.080
-248.019	-200.000	-0.088	-0.613
-247.005	-29.456	0.166	-0.094
-245.990	-89.633	-0.277	0.081
-244.976	-11.213	0.202	-0.132
-243.961	-171.172	-0.439	-0.015
-242.946	-200.000	0.086	0.415
-241.932	-72.625	0.252	0.092
-240.917	-133.533	0.237	-0.030
-239.903	76.276	-0.361	0.380
-238.888	-70.107	0.043	-0.016
-237.873	116.925	0.112	0.137
-236.859	-36.508	-0.135	-0.072
-235.844	-186.181	-0.158	-0.002
-234.830	-1.465	-0.076	0.053
-233.815	-91.148	0.152	0.043
-232.800	-77.442	-0.476	-0.164
-231.786	374.529	-0.077	-0.157
-230.771	131.998	-0.179	0.229
-229.757	-178.149	0.048	0.001
-228.742	-200.000	0.080	-0.465
-227.727	68.111	-0.190	-0.194
-226.713	-33.055	-0.352	-0.194
-225.698	338.102	0.066	-0.128
-224.684	-200.000	0.030	-0.357
-223.669	-124.329	-0.390	0.061
-222.655	62.194	-0.209	-0.208
-221.640	151.845	-0.140	-0.190
-220.625	72.797	-0.096	-0.100
-219.611	-46.381	-0.199	0.097
-218.596	-19.807	0.046	0.028
-217.582	-29.706	0.164	-0.093
-216.567	800.000	-0.114	-0.458
-215.552	-75.913	0.096	-0.034
-214.538	800.000	-0.063	0.246
-213.523	-112.487	0.025	-0.005
-212.509	-200.000	0.048	-0.242
-211.494	-76.195	0.183	0.064
-210.479	-200.000	-0.050	0.324
-209.465	-86.934	0.275	-0.083
-208.450	-166.857	0.073	0.003
-207.436	-4.104	-0.237	-0.163
-206.421	46.775	0.165	0.152
-205.406	800.000	0.123	0.423
-204.392	-125.721	-0.175	-0.026
-203.377	18.158	0.143	0.113
-202.363	66.987	-0.155	-0.157
-201.348	-74.304	-0.288	-0.103
-200.333	132.411	-0.206	-0.264
-199.319	-22.877	-0.260	-0.156
-198.304	-74.531	0.301	0.108
-197.290	-200.000	-0.003	0.101
-196.275	-9.676	0.077	-0.051
-195.260	108.451	-0.085	-0.100
-194.246	-200.000	0.033	0.228
-193.231	-29.189	-0.113	0.065
-192.217	779.541	-0.103	-0.280
-191.202	-146.385	0.134	-0.012
-190.187	-166.325	0.072	0.003
-189.173	-200.000	-0.023	0.179
-188.158	-29.670	0.061	-0.035
-187.144	20.202	0.121	-0.097
-186.129	-123.115	0.179	-0.028
-185.114	60.804	-0.029	0.028
-184.100	-18.401	-0.362	0.224
-183.085	-28.413	-0.216	0.124
-182.071	-104.442	-0.171	-0.039
-181.056	261.743	0.049	0.085
-180.042	46.003	0.267	-0.246
-179.027	454.925	0.005	-0.011
-178.012	-3.990	0.287	0.198
-176.998	-104.580	0.230	0.053
-175.983	-54.497	0.182	0.082
-174.969	-175.410	-0.429	-0.012
-173.954	-104.271	0.333	-0.077
-172.939	800.000	0.054	0.210
-171.925	-200.000	-0.014	-0.170
-170.910	-3.066	0.218	-0.151
-169.896	-117.165	-0.103	-0.019
-168.881	109.384	-0.238	0.282
-167.866	98.058	0.116	-0.133
-166.852	-146.737	0.278	0.024
-165.837	-59.631	0.093	-0.040
-164.823	-1.910	-0.261	0.182
-163.808	-200.000	-0.040	0.203
-162.793	-66.825	-0.319	0.125
-161.779	-200.000	-0.019	0.191
-160.764	-188.104	-0.215	-0.003
-159.750	-96.484	0.301	-0.079
-158.735	214.504	0.023	0.036
-157.720	62.347	-0.186	-0.184
-156.706	-120.015	0.074	0.013
-155.691	17.308	-0.289	0.228
-154.677	-147.887	-0.092	-0.008
-153.662	-82.124	-0.244	-0.079
-152.647	191.314	0.058	0.087
-151.633	140.624	-0.119	0.156
-150.618	-200.000	0.003	-0.065
-149.604	800.000	-0.055	-0.183
-148.589	80.402	0.034	0.036
-147.574	483.228	-0.116	0.260
-146.560	-200.000	-0.011	0.051
-145.545	597.960	-0.069	-0.170
-144.531	-173.567	0.447	0.013
-143.516	-200.000	-0.009	-0.369
-142.502	-200.000	0.026	0.139
-141.487	139.895	-0.130	0.170
-140.472	-18.721	0.330	0.204
-139.458	225.078	0.033	0.053
-138.443	337.427	-0.050	0.095
-137.429	40.649	-0.371	0.331
-136.414	177.617	-0.099	0.142
-135.399	-200.000	-0.032	0.205
-134.385	312.680	0.122	-0.227
-133.370	80.725	-0.206	-0.220
-132.356	192.831	0.213	-0.319
-131.341	55.293	0.261	-0.250
-130.326	-96.302	-0.155	0.041
-129.312	-166.332	0.434	-0.018
-128.297	93.173	-0.146	-0.163
-127.283	185.282	0.145	0.213
-126.268	18.639	-0.090	0.071
-125.253	800.000	-0.047	-0.186
-124.239	-90.638	-0.217	-0.062
-123.224	48.375	0.050	-0.047
-122.210	-200.000	-0.009	-0.521
-121.195	364.792	0.065	0.129
