DTS Sentinel unit serial number:	SN413079Multiplexer serial number:	ORYXHardware model number:	OX4-SRSoftware version number:	ORYX F/W v4.00 Oryx Data Collector v3.7.2.0data status	okinstallation	princeton_trtdifferential loss correction	single-endedforward channel	channel 3reverse channel	N/Adate	2019/09/15time	07:24:35forward acquisition time	60.00reverse acquisition time	0.00gamma	496.2192k internal	0.2324k external	0.2324temperature offset calibration	0.9975default loss term (dB/km)	0.3790temperature slope calibration	1.0000multiplexer offset coefficient	1.0000multiplexer slope coefficient	1.0000fibre end	0.00T internal ref (°C)	30.56T ext. ref 1 (°C)	4.86T ext. ref 2 (°C)	25.79length (m)	temperature (°C)	Stokes	anti-Stokes-747.200	7.028	0.201	0.151
-746.185	689.097	0.066	-0.174
-745.171	-139.924	-0.211	-0.022
-744.156	-200.000	-0.047	0.294
-743.142	-8.631	-0.084	0.057
-742.127	-15.325	-0.137	0.088
-741.112	-58.966	0.205	0.089
-740.098	800.000	0.073	-0.212
-739.083	14.943	-0.067	-0.053
-738.069	-200.000	0.073	0.504
-737.054	-200.000	-0.221	0.001
-736.039	-200.000	0.022	-0.291
-735.025	-17.853	0.267	0.169
-734.010	112.718	-0.269	-0.329
-732.996	-200.000	0.074	-0.397
-731.981	410.415	-0.195	-0.418
-730.966	16.337	0.435	-0.346
-729.952	163.227	0.234	-0.333
-728.937	800.000	-0.084	0.315
-727.923	292.012	0.050	-0.093
-726.908	81.161	-0.488	-0.532
-725.894	-43.300	0.290	0.148
-724.879	388.946	-0.081	0.170
-723.864	-132.200	-0.361	-0.047
-722.850	110.878	-0.165	0.201
-721.835	-200.000	-0.010	-0.272
-720.821	295.009	-0.191	-0.353
-719.806	-134.293	0.265	0.033
-718.791	-200.000	0.016	-0.115
-717.777	394.425	-0.030	0.062
-716.762	-200.000	0.011	0.131
-715.748	122.830	0.257	0.324
-714.733	358.354	0.053	0.107
-713.718	-108.182	-0.230	-0.050
-712.704	452.496	0.117	0.261
-711.689	197.538	0.047	-0.073
-710.675	31.248	0.236	0.204
-709.660	-147.790	0.388	-0.033
-708.645	75.961	0.173	-0.184
-707.631	800.000	-0.078	-0.261
-706.616	-37.431	-0.144	-0.078
-705.602	-109.503	0.102	0.022
-704.587	29.800	0.059	0.050
-703.572	185.811	0.233	-0.349
-702.558	466.975	-0.025	0.057
-701.543	-66.831	0.090	0.036
-700.529	490.185	-0.081	0.187
-699.514	205.874	0.134	0.211
-698.499	-31.155	0.115	0.065
-697.485	-69.155	-0.199	-0.077
-696.470	-12.707	0.086	-0.057
-695.456	731.804	0.073	0.197
-694.441	1.901	0.085	0.062
-693.426	-200.000	-0.035	-0.206
-692.412	-41.108	-0.155	-0.081
-691.397	-86.870	-0.274	-0.084
-690.383	-200.000	-0.048	0.238
-689.368	308.913	0.075	0.142
-688.354	800.000	-0.021	0.058
-687.339	157.135	-0.040	0.055
-686.324	85.178	-0.313	-0.346
-685.310	-134.201	-0.118	-0.015
-684.295	-111.223	0.278	-0.057
-683.281	-106.126	-0.366	-0.083
-682.266	139.495	-0.116	0.154
-681.251	-62.696	-0.326	0.136
-680.237	59.774	-0.081	-0.081
-679.222	-101.805	-0.398	-0.097
-678.208	61.201	0.114	0.115
-677.193	516.059	0.143	-0.336
-676.178	-11.445	0.119	0.079
-675.164	182.980	-0.095	0.142
-674.149	-200.000	-0.034	0.168
-673.135	-200.000	-0.008	-0.133
-672.120	-21.740	0.250	-0.153
-671.105	58.623	0.214	-0.211
-670.091	-56.227	0.022	0.010
-669.076	333.970	0.049	-0.096
-668.062	-185.413	0.168	-0.003
-667.047	-52.009	-0.250	0.117
-666.032	-200.000	0.010	0.266
-665.018	-164.873	0.302	0.014
-664.003	-89.016	-0.151	0.045
-662.989	105.468	0.061	0.073
-661.974	800.000	-0.029	0.128
-660.959	-61.996	-0.103	0.043
-659.945	25.460	-0.119	-0.100
-658.930	45.216	0.169	-0.157
-657.916	-120.110	0.110	-0.019
-656.901	-92.455	0.380	0.107
-655.886	800.000	-0.064	-0.223
-654.872	-200.000	-0.002	-0.209
-653.857	-200.000	0.072	0.429
-652.843	-200.000	-0.028	-0.167
-651.828	19.429	0.198	-0.160
-650.814	-134.870	0.131	0.016
-649.799	800.000	-0.059	-0.186
-648.784	-200.000	-0.114	-0.517
-647.770	800.000	0.076	-0.288
-646.755	32.338	-0.215	-0.187
-645.741	-200.000	-0.015	0.161
-644.726	-12.216	-0.213	0.140
-643.711	17.274	0.307	0.245
-642.697	384.901	-0.091	-0.189
-641.682	747.042	0.120	0.324
-640.668	77.057	-0.113	-0.121
-639.653	-200.000	0.008	-0.074
-638.638	-162.860	0.125	-0.006
-637.624	-200.000	-0.016	-0.263
-636.609	82.802	-0.134	-0.147
-635.595	9.404	-0.106	0.080
-634.580	-54.767	0.121	-0.055
-633.565	-200.000	0.040	-0.247
-632.551	-200.000	-0.061	-0.288
-631.536	343.596	-0.025	-0.049
-630.522	73.469	0.055	-0.058
-629.507	800.000	0.052	-0.194
-628.492	-63.072	-0.363	0.151
-627.478	-17.791	-0.269	0.170
-626.463	348.008	0.108	0.214
-625.449	-200.000	-0.018	0.251
-624.434	800.000	-0.134	-0.420
-623.419	253.927	-0.082	0.142
-622.405	-200.000	0.026	0.402
-621.390	-97.020	-0.343	0.090
-620.376	91.805	0.172	0.194
-619.361	-38.055	-0.354	-0.189
-618.346	-36.264	0.019	-0.010
-617.332	-50.374	-0.276	-0.131
-616.317	800.000	0.054	0.234
-615.303	67.150	-0.140	0.143
-614.288	-61.565	0.192	0.081
-613.273	790.558	-0.112	0.309
-612.259	-112.043	0.248	-0.050
-611.244	-26.672	-0.269	0.158
-610.230	-52.928	-0.165	0.076
-609.215	-200.000	0.051	-0.350
-608.201	252.694	0.079	-0.135
-607.186	-26.857	0.234	-0.137
-606.171	-200.000	-0.068	-0.327
-605.157	11.458	-0.106	-0.081
-604.142	-22.843	-0.395	0.239
-603.128	132.879	-0.203	0.263
-602.113	4.326	0.112	-0.082
-601.098	800.000	-0.042	-0.126
-600.084	160.755	0.084	-0.118
-599.069	72.947	0.141	-0.148
-598.055	-200.000	0.045	0.356
-597.040	-163.335	-0.187	-0.009
-596.025	-142.938	0.073	0.007
-595.011	679.800	0.031	-0.080
-593.996	34.582	-0.232	0.204
-592.982	-48.732	0.120	0.058
-591.967	-200.000	-0.037	0.252
-590.952	-24.058	-0.161	0.097
-589.938	34.828	-0.274	0.241
-588.923	141.719	0.256	-0.341
-587.909	-163.221	-0.153	0.007
-586.894	292.374	-0.047	0.085
-585.879	-131.901	-0.019	0.002
-584.865	15.447	-0.120	0.094
-583.850	-30.553	0.259	0.147
-582.836	-12.902	-0.040	0.026
-581.821	-35.008	-0.367	0.201
-580.806	-67.461	-0.158	-0.062
-579.792	-156.926	0.124	-0.008
-578.777	160.987	0.252	-0.353
-577.763	34.537	-0.176	0.154
-576.748	-200.000	-0.001	0.199
-575.733	-170.602	-0.289	0.010
-574.719	59.232	0.235	-0.232
-573.704	-26.029	-0.166	-0.098
-572.690	-66.342	-0.263	-0.105
-571.675	209.535	0.060	0.094
-570.661	-88.351	-0.262	-0.079
-569.646	152.272	-0.263	-0.359
-568.631	-3.455	0.079	-0.055
-567.617	-43.339	0.195	0.099
-566.602	405.885	0.075	-0.158
-565.588	344.517	-0.141	-0.278
-564.573	93.575	0.225	-0.256
-563.558	138.190	0.231	-0.304
-562.544	251.326	0.149	-0.253
-561.529	314.822	0.033	0.063
-560.515	413.000	-0.074	-0.157
-559.500	-92.365	0.072	0.020
-558.485	258.202	-0.070	0.122
-557.471	153.980	-0.057	0.078
-556.456	224.888	0.196	0.317
-555.442	118.087	-0.020	-0.024
-554.427	-92.512	-0.285	-0.080
-553.412	309.194	0.063	0.118
-552.398	-56.759	-0.129	-0.057
-551.383	-200.000	-0.031	0.256
-550.369	-89.618	-0.180	-0.053
-549.354	88.133	0.248	-0.276
-548.339	-112.687	-0.178	0.035
-547.325	-76.975	0.183	-0.064
-546.310	-62.526	0.207	0.086
-545.296	-200.000	-0.033	-0.324
-544.281	15.200	0.201	0.158
-543.266	-200.000	-0.035	0.244
-542.252	-6.737	0.317	-0.216
-541.237	226.226	0.168	-0.273
-540.223	-127.516	-0.199	-0.029
-539.208	45.381	-0.078	-0.072
-538.193	410.013	-0.195	0.414
-537.179	59.773	0.161	-0.159
-536.164	800.000	-0.045	-0.192
-535.150	-76.474	0.064	-0.023
-534.135	-86.657	-0.164	0.050
-533.121	-76.043	-0.202	0.071
-532.106	-43.642	0.239	-0.120
-531.091	31.109	0.059	-0.051
-530.077	317.676	-0.087	-0.165
-529.062	-86.435	0.086	-0.026
-528.048	95.521	0.031	0.035
-527.033	-200.000	-0.003	-0.033
-526.018	204.859	-0.125	-0.194
-525.004	-200.000	0.065	0.289
-523.989	-200.000	0.050	0.234
-522.975	-200.000	-0.021	-0.357
-521.960	-77.949	0.491	-0.169
-520.945	-200.000	-0.023	0.135
-519.931	800.000	-0.072	-0.234
-518.916	343.840	-0.110	-0.215
-517.902	-54.686	-0.300	-0.136
-516.887	4.276	-0.160	0.117
-515.872	45.433	0.151	-0.139
-514.858	-58.737	0.165	-0.071
-513.843	-18.812	-0.186	0.116
-512.829	-63.856	0.166	0.068
-511.814	-150.073	-0.207	0.016
-510.799	-49.972	0.086	0.041
-509.785	800.000	0.064	0.179
-508.770	-61.237	0.413	0.174
-507.756	125.934	0.113	-0.142
-506.741	102.087	-0.154	0.180
-505.726	248.135	-0.092	0.156
-504.712	-43.031	0.169	0.086
-503.697	-77.070	0.361	-0.126
-502.683	21.885	-0.087	-0.071
-501.668	-84.765	0.168	0.053
-500.653	203.388	0.043	-0.067
-499.639	138.636	0.045	-0.059
-498.624	-200.000	0.039	0.223
-497.610	91.105	-0.183	0.206
-496.595	-163.110	0.275	-0.013
-495.581	172.728	-0.220	-0.317
-494.566	-173.783	-0.361	-0.011
-493.551	-95.259	-0.340	-0.092
-492.537	-200.000	0.031	0.273
-491.522	-200.000	0.012	-0.179
-490.508	-133.188	-0.386	0.049
-489.493	348.654	0.058	0.115
-488.478	61.078	0.087	-0.086
-487.464	-144.972	0.424	0.039
-486.449	-172.399	0.335	0.011
-485.435	-200.000	0.031	0.189
-484.420	191.396	0.282	-0.424
-483.405	-48.449	-0.247	-0.119
-482.391	-63.980	0.305	-0.124
-481.376	-200.000	-0.039	0.212
-480.362	800.000	0.070	0.238
-479.347	599.129	0.095	0.237
-478.332	-77.265	0.233	0.081
-477.318	180.918	0.163	-0.239
-476.303	-200.000	-0.018	0.135
-475.289	-100.988	-0.121	-0.030
-474.274	94.767	-0.167	0.190
-473.259	-200.000	-0.049	-0.323
-472.245	-200.000	0.025	-0.160
-471.230	-175.638	-0.069	0.002
-470.216	595.612	-0.081	-0.201
-469.201	-43.370	-0.153	0.077
-468.186	-62.474	-0.285	-0.118
-467.172	2.536	-0.208	-0.151
-466.157	90.537	-0.315	-0.353
-465.143	21.706	-0.033	-0.027
-464.128	-78.232	-0.525	-0.180
-463.113	-35.287	-0.187	0.102
-462.099	-127.212	0.074	0.011
-461.084	-4.168	0.099	0.069
-460.070	22.095	0.263	0.214
-459.055	169.089	0.088	0.126
-458.040	-113.332	-0.241	-0.047
-457.026	64.852	0.063	-0.063
-456.011	229.497	0.125	0.204
-454.997	-8.577	0.080	-0.053
-453.982	-49.622	-0.077	0.037
-452.968	-133.600	0.028	-0.003
-451.953	-200.000	-0.020	0.177
-450.938	-109.797	0.216	-0.045
-449.924	-73.332	0.282	-0.103
-448.909	632.460	0.175	0.443
-447.895	560.860	-0.096	0.231
-446.880	79.641	-0.074	-0.080
-445.865	-144.829	0.163	-0.015
-444.851	690.414	0.107	-0.280
-443.836	800.000	0.013	0.052
-442.822	627.030	0.091	-0.230
-441.807	138.832	-0.201	-0.263
-440.792	-200.000	-0.005	-0.056
-439.778	339.889	0.090	0.175
-438.763	-18.976	-0.214	0.133
-437.749	-200.000	0.041	0.316
-436.734	-168.451	-0.243	-0.009
-435.719	179.569	0.215	0.314
-434.705	-198.766	-0.121	-0.001
-433.690	416.177	0.085	0.181
-432.676	93.806	-0.200	-0.226
-431.661	-200.000	-0.012	0.216
-430.646	209.369	-0.023	-0.037
-429.632	-179.692	-0.224	0.005
-428.617	69.198	0.327	-0.335
-427.603	-51.881	0.433	-0.201
-426.588	-200.000	-0.007	-0.260
-425.573	-200.000	0.020	-0.245
-424.559	72.002	0.151	0.157
-423.544	-200.000	0.080	0.493
-422.530	-119.585	0.330	-0.057
-421.515	-30.414	-0.115	-0.065
-420.500	800.000	0.030	-0.126
-419.486	187.984	-0.126	0.187
-418.471	-200.000	0.034	0.178
-417.457	72.474	-0.194	0.202
-416.442	800.000	0.033	-0.128
-415.428	-69.267	0.232	-0.089
-414.413	-154.292	0.293	-0.020
-413.398	203.335	0.095	0.147
-412.384	-200.000	-0.040	-0.270
-411.369	306.544	-0.111	0.207
-410.355	-64.874	-0.191	-0.077
-409.340	800.000	0.049	-0.194
-408.325	-200.000	0.049	0.264
-407.311	97.261	-0.138	0.158
-406.296	-8.924	-0.060	-0.040
-405.282	-74.358	-0.146	-0.052
-404.267	-103.688	-0.080	-0.019
-403.252	-32.628	-0.185	-0.103
-402.238	-109.364	0.171	-0.036
-401.223	122.072	-0.055	0.069
-400.209	800.000	0.049	-0.161
-399.194	197.894	-0.188	-0.286
-398.179	-26.262	-0.070	0.041
-397.165	-200.000	0.000	-0.245
-396.150	-161.461	-0.117	0.006
-395.136	-200.000	0.001	-0.049
-394.121	-120.295	-0.017	0.003
-393.106	-200.000	-0.011	-0.173
-392.092	-16.704	0.354	-0.223
-391.077	800.000	0.026	-0.107
-390.063	-21.111	0.113	-0.069
-389.048	-200.000	-0.008	0.200
-388.033	287.302	-0.044	-0.079
-387.019	677.875	0.082	-0.213
-386.004	-200.000	0.019	0.144
-384.990	800.000	0.080	0.276
-383.975	-44.814	0.152	0.075
-382.960	-200.000	0.001	0.023
-381.946	-160.570	-0.401	-0.021
-380.931	-22.973	0.402	-0.242
-379.917	-33.833	-0.313	0.172
-378.902	-18.002	0.061	-0.038
-377.888	-200.000	-0.031	-0.202
-376.873	-200.000	-0.036	-0.220
-375.858	800.000	-0.050	0.151
-374.844	140.459	-0.040	0.052
-373.829	100.902	-0.203	0.235
-372.815	-0.784	-0.182	-0.128
-371.800	-200.000	0.022	-0.256
-370.785	-28.381	-0.233	0.134
-369.771	-178.793	-0.265	0.006
-368.756	-171.587	0.096	-0.003
-367.742	-123.878	0.315	-0.049
-366.727	-26.045	-0.132	-0.077
-365.712	-122.969	0.216	-0.035
-364.698	-88.018	0.319	-0.095
-363.683	-149.902	-0.026	-0.002
-362.669	-39.371	-0.259	0.135
-361.654	369.744	-0.157	0.316
-360.639	112.173	0.117	-0.141
-359.625	-66.041	-0.281	-0.112
-358.610	303.553	0.054	0.099
-357.596	-80.414	0.134	-0.045
-356.581	-160.403	-0.195	-0.010
-355.566	657.300	0.027	-0.070
-354.552	-134.721	0.059	-0.007
-353.537	-6.411	0.048	0.032
-352.523	-200.000	0.035	0.267
-351.508	-108.855	-0.158	-0.034
-350.493	13.356	0.102	0.079
-349.479	-44.713	0.323	0.160
-348.464	-151.027	-0.050	-0.004
-347.450	21.135	0.212	0.171
-346.435	158.074	0.170	0.234
-345.420	-83.193	-0.299	0.096
-344.406	800.000	-0.075	-0.308
-343.391	297.196	-0.080	0.145
-342.377	169.607	-0.098	0.140
-341.362	-75.117	-0.275	0.098
-340.348	800.000	-0.097	-0.328
-339.333	-98.997	0.051	-0.013
-338.318	47.015	0.075	-0.070
-337.304	-200.000	-0.096	0.476
-336.289	-40.417	0.136	-0.070
-335.275	-68.554	0.264	-0.102
-334.260	-75.282	-0.216	-0.077
-333.245	-177.946	-0.260	-0.006
-332.231	-200.000	-0.008	-0.068
-331.216	25.881	0.293	0.242
-330.202	-26.142	0.108	0.063
-329.187	-200.000	-0.041	-0.208
-328.172	-41.606	0.103	0.052
-327.158	565.413	-0.108	0.259
-326.143	-200.000	0.022	0.189
-325.129	-140.029	0.345	0.036
-324.114	-200.000	-0.002	-0.196
-323.099	-75.819	0.054	-0.019
-322.085	-33.908	0.147	-0.080
-321.070	76.041	-0.169	0.178
-320.056	-200.000	-0.042	-0.292
-319.041	-73.388	0.096	-0.035
-318.026	91.774	0.120	-0.134
-317.012	13.501	-0.067	-0.051
-315.997	298.529	-0.054	-0.098
-314.983	-88.794	0.357	-0.105
-313.968	-200.000	0.003	-0.230
-312.953	14.161	0.178	0.138
-311.939	535.195	-0.063	0.147
-310.924	-50.571	0.362	-0.169
-309.910	-200.000	0.013	0.420
-308.895	-59.635	0.311	0.132
-307.880	-100.631	0.220	-0.054
-306.866	-82.884	-0.208	-0.067
-305.851	-62.381	0.341	0.141
-304.837	-151.960	-0.083	0.006
-303.822	82.206	0.157	-0.169
-302.807	123.933	0.235	-0.293
-301.793	3.708	-0.082	0.059
-300.778	62.148	-0.091	0.090
-299.764	71.503	-0.188	0.194
-298.749	-49.296	0.368	0.174
-297.735	88.300	0.211	-0.233
-296.720	-200.000	-0.011	0.050
-295.705	-200.000	-0.068	0.399
-294.691	-200.000	0.025	0.170
-293.676	-124.738	0.217	0.033
-292.662	-113.876	-0.129	0.025
-291.647	-50.176	-0.308	0.145
-290.632	622.777	-0.127	-0.317
-289.618	800.000	0.051	0.153
-288.603	-200.000	-0.015	0.098
-287.589	95.514	0.084	-0.095
-286.574	612.569	0.073	-0.181
-285.559	-89.767	0.179	-0.052
-284.545	-80.595	-0.194	-0.064
-283.530	347.721	-0.208	0.406
-282.516	800.000	-0.122	0.356
-281.501	40.567	0.186	-0.166
-280.486	47.370	-0.273	-0.252
-279.472	-60.379	-0.134	0.056
-278.457	-180.462	0.018	-0.000
-277.443	-106.083	-0.154	-0.034
-276.428	713.719	0.111	0.291
-275.413	-71.087	0.180	-0.067
-274.399	49.313	-0.301	0.280
-273.384	18.186	0.148	0.117
-272.370	-64.610	-0.125	-0.050
-271.355	305.092	-0.113	-0.208
-270.340	143.006	-0.069	0.091
-269.326	522.554	-0.039	-0.091
-268.311	-110.253	0.159	-0.033
-267.297	-56.093	0.093	0.041
-266.282	-79.328	0.465	0.156
-265.267	702.485	-0.037	0.097
-264.253	-70.529	0.285	-0.107
-263.238	26.793	-0.194	-0.161
-262.224	-156.946	0.138	-0.008
-261.209	-130.042	0.191	0.026
-260.195	-181.525	0.088	0.002
-259.180	-87.288	-0.114	0.034
-258.165	800.000	-0.076	0.271
-257.151	133.022	0.119	0.152
-256.136	-53.957	0.163	0.074
-255.122	255.810	-0.231	-0.392
-254.107	103.038	-0.056	-0.065
-253.092	29.978	-0.051	-0.043
-252.078	800.000	0.065	0.243
-251.063	-3.548	0.117	0.081
-250.049	-200.000	0.035	0.292
-249.034	-38.356	-0.151	-0.079
-248.019	-53.257	0.197	0.089
-247.005	-59.417	0.095	-0.040
-245.990	-104.221	0.213	0.049
-244.976	-200.000	0.009	0.241
-243.961	147.641	-0.110	-0.146
-242.946	-42.242	0.173	0.088
-241.932	-51.193	0.318	-0.148
-240.917	-107.165	-0.072	0.016
-239.903	-94.577	0.221	0.060
-238.888	-24.521	-0.088	0.052
-237.873	30.362	0.103	-0.087
-236.859	-144.008	0.451	0.042
-235.844	447.917	0.100	0.218
-234.830	250.349	-0.148	-0.248
-233.815	-187.180	0.192	0.003
-232.800	-21.829	0.354	-0.213
-231.786	-51.745	-0.346	-0.160
-230.771	-200.000	-0.004	-0.181
-229.757	-162.744	0.265	-0.013
-228.742	-170.602	0.352	-0.012
-227.727	103.773	-0.179	0.208
-226.713	25.570	0.205	-0.169
-225.698	245.830	-0.031	-0.051
-224.684	35.248	-0.046	-0.040
-223.669	-175.637	-0.197	-0.005
-222.655	-62.460	0.280	0.115
-221.640	82.446	-0.106	-0.114
-220.625	800.000	-0.130	0.445
-219.611	-111.190	-0.302	-0.061
-218.596	-31.874	-0.187	-0.103
-217.582	800.000	-0.030	0.089
-216.567	-74.213	-0.168	0.060
-215.552	-200.000	-0.028	0.307
-214.538	-200.000	0.066	0.304
-213.523	-28.994	-0.427	0.242
-212.509	-171.975	0.271	0.009
-211.494	800.000	-0.047	0.155
-210.479	307.559	-0.050	-0.093
-209.465	187.874	-0.055	-0.081
-208.450	800.000	-0.045	0.133
-207.436	-200.000	0.062	-0.373
-206.421	-135.410	-0.239	-0.028
-205.406	93.205	-0.097	0.108
-204.392	-200.000	0.124	0.543
-203.377	51.391	0.186	-0.175
-202.363	-179.398	0.220	-0.005
-201.348	-91.386	-0.111	0.031
-200.333	-95.121	-0.193	-0.052
-199.319	-200.000	-0.003	-0.102
-198.304	172.761	-0.108	-0.154
-197.290	272.816	0.087	0.151
-196.275	800.000	-0.110	-0.410
-195.260	-4.984	0.007	-0.005
-194.246	13.649	-0.289	0.222
-193.231	21.648	0.211	0.169
-192.217	241.285	0.134	0.221
-191.202	443.756	-0.046	0.100
-190.187	-200.000	-0.007	-0.074
-189.173	-1.839	-0.174	-0.121
-188.158	-200.000	0.022	-0.173
-187.144	-35.102	0.336	0.181
-186.129	173.239	-0.090	-0.128
-185.114	331.177	0.098	0.186
-184.100	364.587	-0.118	0.235
-183.085	287.000	-0.163	0.290
-182.071	800.000	0.076	-0.226
-181.056	-48.114	-0.074	-0.035
-180.042	800.000	0.051	-0.189
-179.027	376.923	0.105	-0.213
-178.012	531.226	-0.046	-0.108
-176.998	800.000	-0.083	-0.234
-175.983	0.740	-0.193	-0.136
-174.969	561.423	-0.004	0.009
-173.954	230.928	-0.055	-0.090
-172.939	373.873	-0.064	0.129
-171.925	-200.000	0.007	-0.099
-170.910	-200.000	-0.051	-0.263
-169.896	-38.547	-0.159	-0.083
-168.881	767.101	-0.048	0.130
-167.866	148.926	-0.203	0.271
-166.852	249.447	0.046	-0.077
-165.837	-200.000	-0.034	0.250
-164.823	76.956	0.220	0.230
-163.808	50.858	0.229	-0.215
-162.793	-200.000	0.015	0.144
-161.779	25.975	-0.051	-0.042
-160.764	-31.673	-0.346	0.192
-159.750	-9.545	0.166	0.109
-158.735	451.933	-0.068	-0.148
-157.720	-171.629	-0.202	-0.007
-156.706	-200.000	0.032	-0.147
-155.691	-200.000	0.177	-0.000
-154.677	13.141	0.129	0.098
-153.662	-84.451	-0.151	0.047
-152.647	10.725	0.074	-0.056
-151.633	-4.940	-0.332	-0.225
-150.618	-94.064	0.122	-0.033
-149.604	97.376	-0.023	0.026
-148.589	-113.011	-0.402	0.078
-147.574	-66.061	0.246	0.097
-146.560	-107.733	0.301	0.065
-145.545	-61.274	-0.121	0.050
-144.531	-140.763	0.130	-0.013
-143.516	-170.789	-0.060	0.002
-142.502	18.094	0.178	0.140
-141.487	-31.355	-0.061	0.034
-140.472	-158.374	0.152	0.009
-139.458	218.745	-0.205	0.323
-138.443	20.082	0.203	0.161
-137.429	-85.438	0.091	-0.028
-136.414	180.522	0.221	-0.319
-135.399	441.409	0.132	-0.285
-134.385	-43.986	-0.095	-0.047
-133.370	490.635	0.116	0.262
-132.356	-77.357	0.307	-0.105
-131.341	-41.432	-0.061	0.031
-130.326	66.138	0.078	0.078
-129.312	147.059	-0.185	-0.245
-128.297	430.000	0.099	-0.211
-127.283	-120.356	0.258	-0.043
-126.268	3.047	-0.128	0.091
-125.253	99.907	-0.073	-0.084
-124.239	-108.278	0.263	-0.056
-123.224	-49.221	0.146	0.069
-122.210	155.704	-0.173	-0.235
