DTS Sentinel unit serial number:	SN413079Multiplexer serial number:	ORYXHardware model number:	OX4-SRSoftware version number:	ORYX F/W v4.00 Oryx Data Collector v3.7.2.0data status	okinstallation	princeton_trtdifferential loss correction	single-endedforward channel	channel 3reverse channel	N/Adate	2019/09/17time	06:48:35forward acquisition time	60.00reverse acquisition time	0.00gamma	496.2192k internal	0.2333k external	0.2333temperature offset calibration	0.9944default loss term (dB/km)	0.3790temperature slope calibration	1.0000multiplexer offset coefficient	1.0000multiplexer slope coefficient	1.0000fibre end	0.00T internal ref (°C)	27.78T ext. ref 1 (°C)	0.12T ext. ref 2 (°C)	21.10length (m)	temperature (°C)	Stokes	anti-Stokes-747.200	-200.000	0.249	-0.001
-746.185	185.437	-0.167	-0.249
-745.171	-66.596	0.159	0.063
-744.156	-127.355	-0.208	0.030
-743.142	-32.265	0.371	-0.208
-742.127	-34.695	0.100	0.055
-741.112	-111.047	-0.140	-0.029
-740.098	-200.000	0.002	0.202
-739.083	-172.187	0.184	-0.006
-738.069	-106.215	0.108	-0.024
-737.054	800.000	-0.069	0.266
-736.039	100.026	-0.081	-0.094
-735.025	-172.029	0.204	0.007
-734.010	360.917	-0.196	-0.394
-732.996	800.000	-0.004	0.015
-731.981	-77.124	0.057	-0.020
-730.966	-47.135	-0.066	-0.033
-729.952	-197.312	0.248	-0.002
-728.937	-200.000	0.012	-0.262
-727.923	81.614	-0.110	-0.120
-726.908	-61.666	-0.322	-0.136
-725.894	505.424	-0.129	-0.299
-724.879	-200.000	0.000	-0.359
-723.864	-86.784	-0.250	0.077
-722.850	15.485	-0.193	0.152
-721.835	70.430	-0.261	-0.271
-720.821	-165.037	-0.175	0.008
-719.806	313.221	-0.283	-0.535
-718.791	440.691	-0.153	-0.336
-717.777	-95.658	-0.134	0.036
-716.762	352.276	-0.068	-0.134
-715.748	800.000	0.061	-0.175
-714.733	-174.050	-0.160	0.005
-713.718	429.810	0.115	0.250
-712.704	85.343	-0.232	-0.255
-711.689	62.093	-0.180	-0.181
-710.675	-73.551	-0.233	-0.085
-709.660	-200.000	0.019	-0.119
-708.645	-14.048	0.177	0.115
-707.631	-98.083	-0.248	-0.064
-706.616	800.000	0.028	0.080
-705.602	96.506	-0.077	-0.089
-704.587	-200.000	-0.025	-0.590
-703.572	-200.000	-0.014	-0.214
-702.558	-95.615	-0.024	0.006
-701.543	753.631	0.083	-0.226
-700.529	800.000	-0.039	-0.153
-699.514	153.815	0.194	-0.267
-698.499	130.760	0.044	0.056
-697.485	113.588	-0.133	0.162
-696.470	469.433	-0.118	-0.265
-695.456	-200.000	0.027	-0.365
-694.441	-68.095	-0.091	0.036
-693.426	218.668	0.119	0.190
-692.412	-81.763	0.174	0.057
-691.397	-55.070	-0.419	-0.189
-690.383	-137.922	-0.199	-0.022
-689.368	-0.907	0.157	0.111
-688.354	-24.475	0.146	0.087
-687.339	800.000	-0.079	-0.252
-686.324	-178.479	0.282	-0.007
-685.310	-94.347	-0.328	-0.090
-684.295	-200.000	0.021	-0.201
-683.281	-200.000	-0.020	0.254
-682.266	-14.408	-0.097	-0.062
-681.251	477.347	0.094	-0.214
-680.237	138.252	0.195	0.256
-679.222	281.327	0.138	-0.248
-678.208	-66.197	-0.240	0.096
-677.193	-200.000	-0.049	0.239
-676.178	14.424	0.279	-0.218
-675.164	231.146	0.134	0.220
-674.149	-129.823	0.198	0.027
-673.135	168.793	0.048	0.069
-672.120	128.412	-0.135	0.173
-671.105	-200.000	0.044	-0.249
-670.091	146.469	-0.213	-0.286
-669.076	72.279	-0.196	0.204
-668.062	214.980	-0.033	0.053
-667.047	-200.000	-0.029	0.229
-666.032	-75.390	-0.152	-0.054
-665.018	-200.000	0.007	0.115
-664.003	-162.115	0.027	-0.001
-662.989	-149.387	-0.204	0.016
-661.974	43.241	0.126	0.115
-660.959	82.281	0.050	0.054
-659.945	-177.883	-0.264	0.006
-658.930	800.000	-0.043	0.157
-657.916	-129.831	0.285	-0.039
-656.901	800.000	0.038	0.107
-655.886	-17.863	0.225	-0.141
-654.872	52.215	0.099	-0.094
-653.857	-101.579	0.272	-0.066
-652.843	32.416	-0.053	-0.046
-651.828	-160.793	0.121	-0.006
-650.814	41.676	0.411	-0.373
-649.799	97.315	0.188	-0.216
-648.784	800.000	-0.136	0.449
-647.770	-8.008	-0.140	0.095
-646.755	-12.966	-0.022	-0.014
-645.741	-163.825	0.635	0.030
-644.726	-183.672	-0.099	0.002
-643.711	53.313	0.140	0.135
-642.697	548.831	-0.167	0.401
-641.682	45.057	0.088	0.081
-640.668	416.593	0.123	0.263
-639.653	-200.000	-0.010	-0.141
-638.638	-24.319	0.085	0.051
-637.624	150.593	-0.122	0.165
-636.609	800.000	0.081	0.340
-635.595	-200.000	-0.026	0.187
-634.580	-200.000	0.014	0.286
-633.565	146.579	-0.202	-0.272
-632.551	-200.000	0.006	0.092
-631.536	149.960	-0.034	-0.046
-630.522	-193.657	-0.132	-0.001
-629.507	-38.194	-0.148	-0.078
-628.492	57.016	0.024	0.023
-627.478	-200.000	0.026	-0.183
-626.463	151.432	-0.070	-0.095
-625.449	-111.498	-0.031	-0.006
-624.434	-200.000	0.070	0.000
-623.419	132.598	0.073	0.094
-622.405	-29.453	-0.052	-0.030
-621.390	-91.925	-0.101	0.029
-620.376	9.441	0.354	0.268
-619.361	121.992	-0.168	0.210
-618.346	-4.354	0.331	-0.229
-617.332	207.380	-0.055	0.085
-616.317	800.000	0.091	-0.292
-615.303	196.787	0.105	0.159
-614.288	-122.075	0.189	0.031
-613.273	-200.000	-0.023	0.104
-612.259	-200.000	-0.015	0.246
-611.244	266.929	0.076	0.133
-610.230	274.043	-0.163	-0.288
-609.215	-200.000	-0.013	-0.064
-608.201	-200.000	0.037	0.194
-607.186	-31.239	0.087	-0.049
-606.171	800.000	-0.096	-0.300
-605.157	800.000	0.056	0.164
-604.142	-80.639	0.237	-0.079
-603.128	17.280	-0.237	0.188
-602.113	-62.543	-0.301	0.125
-601.098	139.495	-0.184	-0.242
-600.084	-135.158	-0.092	-0.011
-599.069	152.671	0.188	-0.256
-598.055	264.356	-0.141	-0.245
-597.040	800.000	0.038	-0.121
-596.025	-86.327	-0.150	-0.046
-595.011	-200.000	-0.022	-0.145
-593.996	-8.159	-0.099	-0.066
-592.982	-56.099	0.137	-0.061
-591.967	-200.000	0.004	-0.149
-590.952	411.440	-0.049	0.105
-589.938	-156.505	-0.130	-0.008
-588.923	6.444	0.129	-0.096
-587.909	-115.621	0.306	-0.057
-586.894	-126.988	-0.234	0.034
-585.879	89.994	-0.086	-0.096
-584.865	394.638	-0.090	0.188
-583.850	201.260	0.101	0.155
-582.836	73.840	0.091	-0.096
-581.821	-156.479	-0.434	0.027
-580.806	234.634	0.139	-0.228
-579.792	-200.000	0.015	0.184
-578.777	800.000	0.091	0.294
-577.763	34.259	-0.036	0.031
-576.748	-107.416	-0.262	-0.057
-575.733	-142.007	0.189	-0.019
-574.719	-21.958	-0.287	0.174
-573.704	556.937	0.016	0.039
-572.690	8.580	0.084	-0.063
-571.675	800.000	-0.059	-0.195
-570.661	312.186	0.020	0.037
-569.646	-200.000	-0.034	0.224
-568.631	152.884	-0.070	0.096
-567.617	369.687	-0.095	-0.191
-566.602	-42.981	-0.126	0.064
-565.588	-122.467	0.234	-0.038
-564.573	-36.178	0.106	0.057
-563.558	-52.603	0.184	0.085
-562.544	92.650	0.165	-0.186
-561.529	65.684	0.236	0.239
-560.515	247.889	0.118	0.199
-559.500	50.647	-0.289	0.273
-558.485	-126.808	0.137	0.020
-557.471	22.952	-0.230	-0.188
-556.456	-21.937	0.386	0.234
-555.442	664.638	0.066	-0.170
-554.427	-19.746	0.074	-0.046
-553.412	-200.000	0.046	-0.234
-552.398	800.000	-0.030	0.083
-551.383	-11.810	0.190	0.124
-550.369	-200.000	-0.004	0.214
-549.354	-200.000	-0.014	0.168
-548.339	789.081	0.188	-0.514
-547.325	640.811	0.018	0.045
-546.310	800.000	0.091	0.300
-545.296	0.592	-0.208	-0.149
-544.281	800.000	0.072	0.208
-543.266	800.000	0.070	0.237
-542.252	-200.000	-0.003	0.125
-541.237	-99.894	-0.017	-0.004
-540.223	139.290	0.061	0.080
-539.208	-9.243	-0.175	-0.116
-538.193	-82.405	-0.267	-0.086
-537.179	63.131	-0.273	0.273
-536.164	-200.000	0.021	0.144
-535.150	41.925	0.355	0.321
-534.135	-200.000	-0.038	0.370
-533.121	-100.495	-0.152	-0.038
-532.106	800.000	0.050	-0.207
-531.091	-70.347	-0.272	0.103
-530.077	54.371	0.204	-0.196
-529.062	800.000	-0.150	-0.470
-528.048	800.000	0.067	-0.212
-527.033	-72.779	0.607	0.223
-526.018	-200.000	0.009	0.168
-525.004	-200.000	-0.049	-0.404
-523.989	-9.717	-0.190	-0.126
-522.975	-138.890	0.343	-0.037
-521.960	222.973	0.171	-0.275
-520.945	-200.000	-0.014	-0.201
-519.931	800.000	-0.032	0.117
-518.916	-200.000	-0.011	0.086
-517.902	775.223	0.050	-0.136
-516.887	-13.781	0.279	-0.180
-515.872	-86.665	-0.468	0.143
-514.858	491.089	0.022	-0.049
-513.843	118.454	0.145	-0.178
-512.829	-200.000	0.003	-0.072
-511.814	435.816	0.045	-0.097
-510.799	383.215	-0.047	0.097
-509.785	800.000	0.160	0.607
-508.770	-82.943	0.180	-0.058
-507.756	800.000	0.108	0.309
-506.741	-200.000	-0.060	-0.472
-505.726	348.701	0.102	0.200
-504.712	38.237	-0.080	0.071
-503.697	-48.641	0.280	-0.134
-502.683	-200.000	-0.060	-0.354
-501.668	-108.657	-0.251	-0.054
-500.653	89.282	-0.504	-0.560
-499.639	49.447	-0.091	0.085
-498.624	278.137	-0.209	0.370
-497.610	252.475	0.092	0.156
-496.595	306.619	-0.056	0.104
-495.581	-99.644	0.205	0.051
-494.566	-101.452	-0.100	-0.024
-493.551	-61.766	-0.034	-0.014
-492.537	-200.000	-0.010	0.072
-491.522	800.000	0.007	-0.027
-490.508	123.548	-0.189	0.236
-489.493	225.776	-0.069	0.111
-488.478	73.188	0.168	-0.174
-487.464	-81.880	-0.282	0.092
-486.449	525.471	0.127	0.298
-485.435	-114.053	0.069	0.013
-484.420	72.328	-0.255	-0.264
-483.405	-200.000	-0.007	-0.081
-482.391	800.000	-0.138	-0.401
-481.376	-84.126	0.131	-0.041
-480.362	-4.854	-0.216	0.149
-479.347	44.076	-0.105	-0.096
-478.332	-9.200	0.279	0.186
-477.318	22.742	0.031	0.025
-476.303	431.517	0.153	-0.330
-475.289	-43.616	0.064	-0.032
-474.274	800.000	0.105	0.302
-473.259	-96.120	-0.117	0.031
-472.245	31.038	-0.192	-0.164
-471.230	-63.484	-0.062	0.025
-470.216	-173.389	-0.499	0.015
-469.201	-56.827	-0.066	-0.029
-468.186	800.000	0.106	-0.325
-467.172	24.382	0.174	-0.143
-466.157	183.580	-0.093	-0.137
-465.143	62.567	-0.321	-0.319
-464.128	-14.869	0.143	0.091
-463.113	425.996	-0.146	-0.313
-462.099	-9.326	0.057	-0.038
-461.084	-128.118	0.260	-0.037
-460.070	-200.000	-0.017	-0.079
-459.055	164.088	0.168	-0.235
-458.040	-73.911	-0.043	-0.016
-457.026	-38.559	-0.284	0.149
-456.011	613.164	0.180	-0.447
-454.997	324.072	-0.066	-0.125
-453.982	299.160	0.063	0.115
-452.968	800.000	-0.018	-0.066
-451.953	-200.000	0.013	0.166
-450.938	272.704	-0.088	0.155
-449.924	773.923	0.078	0.212
-448.909	800.000	-0.028	0.086
-447.895	-200.000	-0.043	-0.295
-446.880	114.927	-0.111	-0.135
-445.865	87.039	0.189	-0.208
-444.851	-200.000	0.015	0.097
-443.836	244.041	-0.076	0.126
-442.822	65.441	0.263	0.265
-441.807	413.497	0.043	0.091
-440.792	154.376	-0.261	-0.356
-439.778	-91.866	0.421	0.119
-438.763	247.776	0.161	0.270
-437.749	67.978	-0.044	-0.044
-436.734	80.420	-0.039	0.042
-435.719	54.646	0.116	0.111
-434.705	800.000	-0.081	0.261
-433.690	-200.000	0.006	-0.028
-432.676	-86.042	0.350	0.107
-431.661	-200.000	-0.081	0.394
-430.646	800.000	-0.052	0.198
-429.632	78.273	-0.112	0.119
-428.617	94.017	0.226	-0.254
-427.603	800.000	-0.064	0.270
-426.588	151.232	-0.067	-0.091
-425.573	-200.000	0.022	-0.240
-424.559	-162.103	0.176	-0.009
-423.544	47.558	-0.131	0.121
-422.530	800.000	-0.051	0.180
-421.515	234.860	-0.051	0.084
-420.500	-58.944	-0.093	0.040
-419.486	-132.934	0.232	0.029
-418.471	-200.000	0.033	0.309
-417.457	-148.510	-0.169	-0.014
-416.442	-35.346	0.067	0.036
-415.428	800.000	-0.105	0.426
-414.413	800.000	0.065	-0.215
-413.398	7.295	-0.177	0.131
-412.384	-105.554	0.557	-0.125
-411.369	-96.908	0.151	0.039
-410.355	633.760	0.108	0.273
-409.340	15.558	-0.334	0.260
-408.325	629.221	0.143	-0.358
-407.311	-35.976	-0.096	-0.052
-406.296	61.899	0.039	0.039
-405.282	2.151	0.080	-0.057
-404.267	800.000	0.020	-0.087
-403.252	43.599	-0.065	0.059
-402.238	259.545	-0.055	-0.095
-401.223	-84.568	0.281	0.088
-400.209	232.922	0.185	0.301
-399.194	42.260	0.248	0.224
-398.179	226.327	0.111	-0.179
-397.165	-200.000	0.037	-0.375
-396.150	-121.332	-0.229	0.038
-395.136	800.000	0.024	0.083
-394.121	700.291	-0.092	0.239
-393.106	331.357	0.210	-0.401
-392.092	-50.630	0.404	-0.189
-391.077	193.262	-0.108	0.161
-390.063	-77.300	-0.254	-0.088
-389.048	57.105	-0.349	0.337
-388.033	-121.813	0.289	0.047
-387.019	800.000	0.063	0.211
-386.004	114.554	0.125	0.152
-384.990	-200.000	-0.031	0.174
-383.975	-200.000	0.038	-0.343
-382.960	-200.000	0.000	0.080
-381.946	-49.860	-0.136	0.064
-380.931	800.000	0.088	-0.329
-379.917	-200.000	0.007	-0.119
-378.902	1.933	0.285	-0.204
-377.888	-9.449	0.058	-0.038
-376.873	-12.552	-0.146	0.094
-375.858	94.291	0.140	-0.158
-374.844	62.508	-0.154	-0.152
-373.829	-95.438	-0.107	-0.029
-372.815	-200.000	-0.006	0.183
-371.800	800.000	-0.032	-0.118
-370.785	26.580	0.259	-0.215
-369.771	39.875	-0.367	-0.326
-368.756	-16.684	-0.070	-0.044
-367.742	47.143	0.211	-0.194
-366.727	-59.616	0.086	-0.037
-365.712	-200.000	0.023	0.117
-364.698	-115.340	0.255	-0.048
-363.683	201.231	0.056	-0.086
-362.669	-143.156	-0.181	-0.017
-361.654	165.112	-0.193	-0.269
-360.639	-200.000	0.035	0.174
-359.625	46.593	0.305	0.281
-358.610	-134.855	0.045	0.005
-357.596	414.160	-0.065	-0.138
-356.581	-200.000	0.045	-0.433
-355.566	800.000	-0.039	-0.150
-354.552	124.016	-0.199	-0.248
-353.537	60.525	0.108	0.106
-352.523	-200.000	-0.020	-0.340
-351.508	-55.477	-0.153	0.068
-350.493	-124.556	0.512	0.079
-349.479	15.025	0.128	-0.099
-348.464	-37.644	-0.205	0.108
-347.450	-200.000	-0.019	0.231
-346.435	800.000	0.101	-0.276
-345.420	216.937	-0.156	0.246
-344.406	93.421	-0.110	0.124
-343.391	227.476	0.069	0.111
-342.377	27.893	0.179	-0.149
-341.362	-3.645	0.172	-0.118
-340.348	-37.756	-0.224	0.118
-339.333	144.697	-0.102	-0.135
-338.318	-31.084	0.146	0.081
-337.304	-136.657	-0.010	0.001
-336.289	-39.269	-0.040	-0.021
-335.275	3.373	-0.288	-0.208
-334.260	-200.000	-0.045	-0.326
-333.245	38.415	-0.109	-0.096
-332.231	-36.358	-0.444	0.237
-331.216	249.328	-0.125	0.209
-330.202	-23.168	-0.262	-0.156
-329.187	168.717	-0.109	-0.154
-328.172	86.651	-0.076	0.083
-327.158	-144.032	0.202	-0.019
-326.143	-99.612	0.110	-0.027
-325.129	-108.960	-0.109	0.023
-324.114	-79.634	-0.067	0.022
-323.099	-200.000	-0.029	-0.229
-322.085	104.591	0.131	0.153
-321.070	24.202	-0.290	0.237
-320.056	-101.196	-0.479	0.116
-319.041	-200.000	0.024	-0.115
-318.026	14.881	0.107	-0.083
-317.012	800.000	0.030	0.085
-315.997	3.284	0.153	0.110
-314.983	18.041	-0.118	-0.093
-313.968	110.837	-0.037	-0.044
-312.953	12.026	0.130	-0.099
-311.939	-2.581	-0.384	-0.266
-310.924	284.029	0.208	-0.370
-309.910	-85.530	0.209	-0.064
-308.895	224.964	-0.050	0.080
-307.880	-64.397	-0.338	0.136
-306.866	-78.999	0.216	0.073
-305.851	800.000	-0.124	0.359
-304.837	20.121	-0.058	0.046
-303.822	85.253	-0.234	0.254
-302.807	800.000	0.141	-0.454
-301.793	326.810	-0.029	-0.055
-300.778	-153.459	-0.167	-0.011
-299.764	800.000	0.090	-0.362
-298.749	6.279	0.253	-0.186
-297.735	86.400	0.100	-0.109
-296.720	211.769	-0.073	0.113
-295.705	-29.556	0.053	0.030
-294.691	-200.000	0.024	-0.128
-293.676	-94.044	-0.114	-0.031
-292.662	215.022	-0.071	0.112
-291.647	-119.853	-0.263	-0.045
-290.632	-200.000	0.008	0.251
-289.618	-99.638	-0.092	0.023
-288.603	-155.364	-0.153	-0.010
-287.589	800.000	-0.091	0.288
-286.574	89.471	0.034	-0.038
-285.559	-200.000	0.017	0.097
-284.545	-42.810	0.109	0.055
-283.530	-200.000	-0.018	0.092
-282.516	-34.534	-0.291	-0.157
-281.501	-124.579	-0.145	0.022
-280.486	245.669	-0.103	-0.171
-279.472	645.680	-0.102	0.256
-278.457	378.958	0.050	0.101
-277.443	-75.757	0.424	0.149
-276.428	-87.231	-0.221	-0.066
-275.413	68.317	0.160	-0.161
-274.399	108.080	0.152	0.179
-273.384	-96.124	-0.187	0.049
-272.370	-119.265	-0.275	0.047
-271.355	-191.824	0.331	-0.003
-270.340	-12.532	0.042	-0.027
-269.326	800.000	0.071	0.197
-268.311	161.672	-0.146	0.202
-267.297	-157.148	-0.310	0.019
-266.282	800.000	0.033	0.107
-265.267	168.535	0.125	-0.176
-264.253	49.658	-0.233	0.216
-263.238	-81.750	0.273	0.088
-262.224	153.492	-0.222	0.300
-261.209	28.749	0.081	-0.068
-260.195	148.975	0.111	-0.149
-259.180	-79.814	0.114	0.038
-258.165	-116.338	0.201	-0.037
-257.151	-200.000	0.012	0.098
-256.136	800.000	0.033	0.130
-255.122	206.356	-0.238	0.365
-254.107	800.000	-0.025	-0.103
-253.092	87.470	0.151	-0.165
-252.078	78.688	-0.092	-0.097
-251.063	58.527	-0.341	0.330
-250.049	33.366	0.117	-0.100
-249.034	-65.290	0.296	-0.118
-248.019	-26.893	-0.171	-0.098
-247.005	-200.000	0.016	-0.240
-245.990	-200.000	-0.013	-0.112
-244.976	366.706	-0.055	-0.110
-243.961	-175.604	-0.162	-0.004
-242.946	407.382	-0.212	0.442
-241.932	-9.988	-0.328	-0.215
-240.917	-55.867	0.123	-0.054
-239.903	86.045	0.176	0.191
-238.888	800.000	0.027	-0.076
-237.873	-200.000	-0.086	0.375
-236.859	-200.000	0.014	-0.108
-235.844	43.871	0.155	-0.140
-234.830	602.475	0.041	-0.099
-233.815	96.480	0.255	0.287
-232.800	-37.780	0.198	0.104
-231.786	-174.780	-0.294	-0.008
-230.771	-64.231	0.140	-0.056
-229.757	-2.712	0.124	-0.086
-228.742	16.158	0.199	0.155
-227.727	80.078	0.150	-0.159
-226.713	375.980	0.103	-0.206
-225.698	592.993	-0.049	0.120
-224.684	-200.000	0.003	-0.336
-223.669	-6.716	-0.345	-0.231
-222.655	-21.316	0.423	-0.254
-221.640	-48.083	-0.259	0.123
-220.625	1.245	0.195	-0.138
-219.611	113.336	0.050	0.060
-218.596	-123.575	0.183	0.029
-217.582	-200.000	-0.023	-0.165
-216.567	800.000	-0.034	-0.115
-215.552	-44.845	0.076	0.037
-214.538	-12.471	0.271	-0.174
-213.523	-18.693	-0.280	0.172
-212.509	-200.000	0.012	-0.412
-211.494	800.000	0.111	-0.310
-210.479	-200.000	-0.016	-0.242
-209.465	195.279	0.229	0.343
-208.450	800.000	0.022	0.077
-207.436	-158.730	-0.144	0.008
-206.421	354.165	-0.075	0.146
-205.406	-55.048	0.140	0.062
-204.392	-88.820	0.319	0.093
-203.377	358.270	0.280	-0.549
-202.363	145.698	-0.206	0.272
-201.348	-76.783	-0.285	0.098
-200.333	78.309	-0.107	-0.112
-199.319	800.000	0.046	0.138
-198.304	55.648	-0.202	-0.192
-197.290	-42.952	0.227	-0.113
-196.275	-26.243	-0.111	-0.064
-195.260	-56.207	-0.193	-0.085
-194.246	800.000	0.055	-0.197
-193.231	-200.000	0.000	0.212
-192.217	-143.591	0.258	-0.024
-191.202	800.000	-0.031	-0.095
-190.187	143.088	-0.071	-0.093
-189.173	150.870	0.115	0.154
-188.158	-200.000	-0.015	-0.101
-187.144	-73.988	0.283	-0.101
-186.129	141.477	0.259	-0.337
-185.114	249.849	-0.172	-0.287
-184.100	144.424	0.143	-0.187
-183.085	-81.020	0.236	0.077
-182.071	-156.852	0.102	-0.006
-181.056	-99.811	-0.187	-0.046
-180.042	-200.000	0.031	0.367
-179.027	800.000	0.087	0.280
-178.012	763.510	0.074	0.197
-176.998	800.000	0.019	0.072
-175.983	-94.425	-0.121	0.033
-174.969	-105.394	-0.058	-0.013
-173.954	126.271	-0.082	-0.102
-172.939	800.000	-0.027	0.097
-171.925	-50.762	0.331	0.153
-170.910	496.220	-0.070	-0.159
-169.896	-200.000	-0.042	0.258
-168.881	-17.795	0.064	-0.039
-167.866	-200.000	-0.027	0.203
-166.852	-52.329	-0.144	-0.066
-165.837	126.514	-0.062	0.077
-164.823	-120.848	0.147	0.024
-163.808	460.841	0.065	-0.143
-162.793	-30.363	-0.136	0.076
-161.779	-86.917	-0.050	0.015
-160.764	687.206	-0.076	-0.195
-159.750	528.355	-0.101	0.235
-158.735	-83.705	-0.269	-0.084
-157.720	-66.624	-0.246	-0.096
-156.706	-59.006	-0.290	0.123
-155.691	-80.917	-0.306	0.100
-154.677	-200.000	-0.006	-0.120
-153.662	-82.941	-0.199	-0.063
-152.647	159.333	-0.223	0.304
-151.633	488.235	0.032	0.072
-150.618	-72.062	0.162	-0.059
-149.604	26.990	-0.109	-0.090
-148.589	-133.101	0.334	-0.042
-147.574	-147.118	0.375	0.031
-146.560	-171.156	0.229	-0.008
-145.545	525.891	0.152	0.351
-144.531	-200.000	-0.028	-0.139
-143.516	-0.728	-0.053	0.037
-142.502	-200.000	0.051	0.230
-141.487	-181.786	-0.139	-0.003
-140.472	-78.537	-0.188	-0.063
-139.458	-44.081	0.152	-0.075
-138.443	800.000	0.090	0.292
-137.429	-54.193	-0.148	-0.066
-136.414	-98.102	-0.248	0.063
-135.399	608.234	-0.043	0.106
-134.385	-200.000	0.001	0.384
-133.370	800.000	0.101	0.359
-132.356	-10.960	0.431	0.280
-131.341	-200.000	-0.012	0.117
-130.326	217.787	0.061	-0.096
-129.312	31.345	-0.195	0.164
-128.297	-200.000	0.062	0.398
-127.283	-15.604	0.308	0.193
-126.268	119.043	0.044	0.054
-125.253	215.856	0.172	-0.268
-124.239	-38.446	0.173	-0.090
-123.224	-130.464	-0.150	-0.020
-122.210	-109.059	-0.243	0.051
-121.195	42.173	-0.127	0.114
-120.180	-200.000	0.027	-0.157
