DTS Sentinel unit serial number:	SN413079Multiplexer serial number:	ORYXHardware model number:	OX4-SRSoftware version number:	ORYX F/W v4.00 Oryx Data Collector v3.7.2.0data status	okinstallation	princeton_trtdifferential loss correction	single-endedforward channel	channel 3reverse channel	N/Adate	2019/09/17time	11:52:34forward acquisition time	60.00reverse acquisition time	0.00gamma	496.2192k internal	0.2322k external	0.2322temperature offset calibration	0.9959default loss term (dB/km)	0.3790temperature slope calibration	1.0000multiplexer offset coefficient	1.0000multiplexer slope coefficient	1.0000fibre end	0.00T internal ref (°C)	31.00T ext. ref 1 (°C)	0.42T ext. ref 2 (°C)	26.94length (m)	temperature (°C)	Stokes	anti-Stokes-747.200	-62.583	0.338	-0.142
-746.185	444.944	0.057	0.127
-745.171	460.696	-0.049	0.110
-744.156	-200.000	-0.014	0.201
-743.142	221.640	0.131	0.213
-742.127	129.676	-0.239	0.309
-741.112	60.772	-0.190	-0.190
-740.098	68.191	-0.111	0.115
-739.083	354.822	0.086	0.172
-738.069	278.580	0.096	-0.173
-737.054	234.397	0.262	-0.436
-736.039	379.722	-0.209	-0.433
-735.025	89.382	0.027	0.030
-734.010	-46.926	-0.284	0.140
-732.996	83.400	-0.124	-0.137
-731.981	160.836	0.088	-0.124
-730.966	-108.947	-0.151	0.032
-729.952	-145.941	0.223	-0.020
-728.937	-200.000	-0.017	-0.079
-727.923	-84.884	0.274	0.087
-726.908	35.714	0.246	-0.218
-725.894	-27.521	-0.131	0.077
-724.879	-80.061	-0.261	0.088
-723.864	800.000	-0.058	-0.168
-722.850	-200.000	0.019	0.119
-721.835	299.725	0.120	-0.224
-720.821	-9.045	-0.061	-0.041
-719.806	43.184	0.102	-0.094
-718.791	17.422	-0.421	0.338
-717.777	-81.235	0.421	-0.140
-716.762	9.131	0.310	-0.236
-715.748	-65.822	-0.240	0.097
-714.733	197.874	-0.259	0.400
-713.718	162.906	-0.013	-0.019
-712.704	-192.162	0.216	-0.002
-711.689	-66.486	-0.286	-0.114
-710.675	3.604	0.093	0.069
-709.660	-136.729	-0.139	0.016
-708.645	800.000	-0.073	-0.273
-707.631	234.317	0.133	-0.221
-706.616	-200.000	-0.005	-0.178
-705.602	82.344	0.157	-0.172
-704.587	-39.766	0.312	-0.165
-703.572	183.334	-0.154	-0.230
-702.558	-200.000	-0.004	-0.275
-701.543	800.000	0.077	-0.224
-700.529	800.000	0.036	0.101
-699.514	-200.000	0.061	0.323
-698.499	580.567	-0.206	0.510
-697.485	5.596	0.139	0.104
-696.470	-106.001	0.101	-0.023
-695.456	694.971	-0.055	-0.145
-694.441	-200.000	-0.031	-0.333
-693.426	22.179	-0.076	-0.062
-692.412	-76.648	-0.477	0.169
-691.397	90.130	0.072	-0.082
-690.383	133.564	0.120	-0.157
-689.368	-60.125	-0.230	0.099
-688.354	-87.724	-0.108	-0.033
-687.339	327.312	-0.106	-0.204
-686.324	-17.220	-0.126	-0.080
-685.310	-71.344	-0.184	-0.069
-684.295	-200.000	0.013	0.534
-683.281	-152.187	0.145	0.011
-682.266	800.000	0.064	-0.180
-681.251	-200.000	-0.008	-0.095
-680.237	131.554	0.148	0.192
-679.222	-64.118	0.142	0.058
-678.208	92.823	0.103	0.117
-677.193	800.000	-0.026	-0.093
-676.178	-141.683	0.095	0.010
-675.164	677.930	-0.057	-0.149
-674.149	800.000	-0.064	0.207
-673.135	-139.773	0.148	0.016
-672.120	195.593	-0.057	-0.087
-671.105	-200.000	0.017	-0.270
-670.091	-47.171	-0.135	0.066
-669.076	33.300	-0.019	-0.017
-668.062	-94.763	0.155	0.042
-667.047	-18.310	-0.208	-0.131
-666.032	-200.000	0.017	-0.227
-665.018	-200.000	-0.040	0.274
-664.003	-200.000	0.022	-0.192
-662.989	-200.000	-0.014	0.550
-661.974	-38.108	0.161	0.086
-660.959	717.550	0.121	-0.325
-659.945	-47.310	-0.144	-0.071
-658.930	-0.795	0.259	-0.185
-657.916	-54.130	-0.109	0.050
-656.901	-10.914	-0.077	-0.052
-655.886	-153.022	0.255	0.018
-654.872	-14.533	-0.067	0.043
-653.857	33.758	0.118	-0.104
-652.843	231.739	-0.086	-0.142
-651.828	-66.199	0.115	-0.046
-650.814	13.266	0.342	-0.267
-649.799	168.687	0.155	-0.222
-648.784	86.292	0.337	-0.374
-647.770	-200.000	0.009	0.245
-646.755	-97.118	-0.249	-0.066
-645.741	14.060	-0.409	-0.321
-644.726	-156.359	0.305	0.019
-643.711	132.888	0.105	0.136
-642.697	-136.838	-0.252	0.029
-641.682	-2.359	-0.264	-0.187
-640.668	28.151	0.162	0.138
-639.653	112.639	0.120	-0.147
-638.638	-113.200	0.259	0.051
-637.624	-90.144	0.284	-0.083
-636.609	-154.746	0.301	0.020
-635.595	-132.792	0.166	-0.021
-634.580	-107.326	-0.171	-0.038
-633.565	273.249	0.189	0.336
-632.551	7.042	0.367	0.275
-631.536	-200.000	-0.002	-0.147
-630.522	-124.680	-0.188	-0.029
-629.507	800.000	0.079	-0.233
-628.492	800.000	-0.049	-0.188
-627.478	-200.000	-0.044	-0.268
-626.463	-21.050	0.150	0.093
-625.449	-96.589	-0.301	-0.080
-624.434	28.804	0.195	0.166
-623.419	95.194	-0.062	0.071
-622.405	-117.300	0.237	-0.043
-621.390	-200.000	-0.045	0.449
-620.376	-33.856	-0.238	0.132
-619.361	-89.300	-0.312	0.092
-618.346	-159.105	0.171	0.010
-617.332	-55.899	0.032	-0.014
-616.317	417.514	0.101	0.217
-615.303	-50.398	0.065	0.031
-614.288	-200.000	0.008	-0.113
-613.273	-45.675	-0.239	0.119
-612.259	235.310	-0.148	0.245
-611.244	56.687	0.123	-0.121
-610.230	-200.000	-0.023	-0.115
-609.215	800.000	-0.074	-0.237
-608.201	-200.000	0.021	0.171
-607.186	76.927	0.232	-0.248
-606.171	800.000	0.071	0.271
-605.157	215.273	0.076	-0.122
-604.142	-89.986	0.065	-0.019
-603.128	-200.000	-0.044	0.359
-602.113	800.000	-0.154	0.467
-601.098	-46.700	0.243	-0.119
-600.084	-145.036	0.122	0.011
-599.069	291.090	0.213	-0.388
-598.055	109.215	0.061	0.073
-597.040	-112.720	0.166	-0.033
-596.025	-200.000	-0.048	-0.288
-595.011	203.047	-0.213	-0.331
-593.996	-200.000	0.012	-0.147
-592.982	69.145	0.095	-0.098
-591.967	5.394	0.179	-0.132
-590.952	-200.000	-0.003	0.068
-589.938	-90.898	-0.232	0.067
-588.923	30.042	0.148	-0.127
-587.909	55.175	-0.223	-0.217
-586.894	-32.299	0.215	0.121
-585.879	133.890	-0.182	0.236
-584.865	121.840	0.113	-0.142
-583.850	-132.606	-0.255	-0.033
-582.836	-125.624	0.176	-0.027
-581.821	-200.000	0.001	-0.105
-580.806	224.516	-0.075	0.121
-579.792	-95.605	-0.170	-0.046
-578.777	-34.601	0.123	-0.068
-577.763	-200.000	0.026	0.125
-576.748	-131.789	0.360	-0.047
-575.733	43.222	0.285	-0.262
-574.719	-91.073	-0.468	-0.135
-573.704	-13.950	0.158	0.102
-572.690	-173.183	-0.198	-0.006
-571.675	76.563	0.047	-0.050
-570.661	-115.549	-0.083	-0.016
-569.646	-83.005	0.044	-0.014
-568.631	-200.000	-0.022	-0.165
-567.617	221.684	-0.030	-0.048
-566.602	172.105	0.275	-0.396
-565.588	541.767	-0.123	0.294
-564.573	208.474	-0.148	0.233
-563.558	279.562	-0.139	0.249
-562.544	88.193	-0.202	-0.224
-561.529	800.000	0.083	-0.342
-560.515	-47.317	-0.115	0.056
-559.500	107.425	0.205	-0.245
-558.485	23.015	-0.152	-0.125
-557.471	-45.127	-0.317	-0.158
-556.456	800.000	0.042	0.135
-555.442	-40.953	-0.357	-0.185
-554.427	-39.564	0.056	0.029
-553.412	-67.636	0.121	-0.048
-552.398	7.711	0.329	0.247
-551.383	74.976	-0.134	0.141
-550.369	464.957	-0.085	-0.190
-549.354	-60.791	0.134	0.057
-548.339	-171.725	-0.364	0.012
-547.325	60.497	-0.249	-0.247
-546.310	-126.412	-0.198	-0.030
-545.296	-200.000	0.019	0.149
-544.281	347.602	0.030	-0.059
-543.266	800.000	0.048	-0.161
-542.252	137.787	0.092	-0.121
-541.237	-19.497	0.052	0.033
-540.223	-65.105	-0.245	-0.099
-539.208	-170.230	-0.061	0.002
-538.193	371.861	-0.090	0.182
-537.179	131.323	-0.081	-0.104
-536.164	120.463	0.304	-0.379
-535.150	228.683	0.035	0.058
-534.135	-61.794	0.259	-0.109
-533.121	-148.072	0.101	0.008
-532.106	-74.271	0.237	-0.086
-531.091	50.586	-0.174	0.165
-530.077	-80.145	-0.231	0.077
-529.062	-27.899	0.151	-0.088
-528.048	235.869	0.020	0.033
-527.033	344.685	-0.073	-0.144
-526.018	-200.000	0.009	0.167
-525.004	-141.946	0.493	0.049
-523.989	156.691	-0.177	-0.245
-522.975	29.358	-0.115	-0.098
-521.960	800.000	0.038	0.128
-520.945	109.155	-0.213	-0.255
-519.931	-200.000	0.056	-0.298
-518.916	49.710	0.163	0.154
-517.902	120.248	0.117	-0.145
-516.887	88.464	-0.107	0.119
-515.872	-150.826	-0.111	0.008
-514.858	159.898	-0.011	0.016
-513.843	-200.000	0.043	0.319
-512.829	-78.331	-0.184	-0.063
-511.814	112.588	0.143	0.173
-510.799	-200.000	-0.050	-0.330
-509.785	375.505	0.111	0.226
-508.770	-200.000	-0.025	-0.206
-507.756	-1.884	0.323	0.227
-506.741	800.000	-0.066	-0.185
-505.726	-200.000	0.036	0.166
-504.712	-139.828	-0.100	0.011
-503.697	482.451	-0.028	-0.064
-502.683	-139.476	0.381	-0.041
-501.668	16.736	0.309	-0.245
-500.653	-19.788	0.138	-0.085
-499.639	-4.670	-0.243	0.168
-498.624	-200.000	-0.014	-0.143
-497.610	716.521	0.050	-0.133
-496.595	-53.519	-0.267	0.122
-495.581	-66.293	-0.176	-0.070
-494.566	239.066	-0.118	-0.196
-493.551	-14.225	0.363	-0.234
-492.537	400.473	-0.095	0.200
-491.522	-48.003	-0.311	0.151
-490.508	181.175	0.069	0.101
-489.493	-82.979	-0.485	-0.156
-488.478	-200.000	-0.009	0.154
-487.464	800.000	0.047	-0.141
-486.449	529.751	-0.251	-0.594
-485.435	39.380	-0.151	-0.135
-484.420	9.198	-0.196	0.148
-483.405	800.000	-0.035	0.136
-482.391	-200.000	0.006	0.174
-481.376	70.672	-0.192	-0.199
-480.362	800.000	-0.036	0.147
-479.347	-200.000	0.016	-0.156
-478.332	-200.000	-0.027	-0.258
-477.318	-128.138	0.258	-0.037
-476.303	3.592	-0.099	-0.072
-475.289	-140.635	0.275	-0.028
-474.274	182.089	0.216	0.319
-473.259	206.759	-0.045	-0.070
-472.245	-22.500	-0.243	0.147
-471.230	-111.250	0.379	0.078
-470.216	278.540	0.031	-0.055
-469.201	112.158	-0.079	0.095
-468.186	-200.000	-0.022	-0.163
-467.172	266.646	-0.169	-0.295
-466.157	800.000	-0.126	-0.472
-465.143	-93.446	0.137	-0.038
-464.128	-6.914	-0.068	0.046
-463.113	73.968	-0.101	0.106
-462.099	14.349	-0.358	-0.279
-461.084	-73.930	-0.433	-0.157
-460.070	-79.844	-0.144	-0.048
-459.055	489.446	-0.040	-0.091
-458.040	130.438	0.236	-0.302
-457.026	-144.262	0.333	-0.031
-456.011	191.638	-0.208	-0.313
-454.997	-3.282	0.116	0.081
-453.982	-200.000	0.010	0.320
-452.968	310.525	-0.145	-0.272
-451.953	71.629	0.142	-0.147
-450.938	233.781	0.136	0.224
-449.924	-200.000	-0.001	-0.127
-448.909	73.704	-0.169	-0.177
-447.895	-8.647	-0.068	0.046
-446.880	-172.147	-0.245	-0.008
-445.865	115.996	0.230	0.281
-444.851	-16.026	0.283	0.180
-443.836	32.463	0.144	0.124
-442.822	82.471	0.104	-0.113
-441.807	3.636	-0.223	0.163
-440.792	-200.000	0.032	-0.148
-439.778	-62.700	0.224	0.093
-438.763	-200.000	-0.034	0.153
-437.749	-200.000	0.003	0.186
-436.734	18.519	-0.239	-0.191
-435.719	145.482	-0.069	0.092
-434.705	-76.828	0.335	0.117
-433.690	119.165	-0.159	-0.196
-432.676	800.000	0.107	-0.330
-431.661	-68.524	-0.191	0.074
-430.646	23.547	0.113	0.093
-429.632	497.383	-0.081	0.185
-428.617	-55.511	-0.091	0.041
-427.603	-200.000	0.008	-0.098
-426.588	-85.019	-0.303	-0.095
-425.573	142.189	0.256	-0.339
-424.559	-200.000	-0.014	-0.113
-423.544	-200.000	-0.043	0.200
-422.530	-85.435	-0.315	0.098
-421.515	754.459	-0.057	0.155
-420.500	-69.790	0.222	0.085
-419.486	-101.229	0.308	-0.075
-418.471	-43.268	-0.199	0.101
-417.457	800.000	0.136	0.385
-416.442	20.186	0.216	0.174
-415.428	-81.650	0.279	0.091
-414.413	-100.533	-0.373	-0.092
-413.398	800.000	0.144	-0.413
-412.384	73.115	0.174	0.181
-411.369	-110.783	-0.411	0.084
-410.355	-200.000	0.011	-0.153
-409.340	-40.368	0.317	0.164
-408.325	-200.000	0.019	0.151
-407.311	141.367	0.230	-0.304
-406.296	-200.000	-0.013	-0.137
-405.282	-200.000	-0.059	-0.345
-404.267	29.118	0.261	-0.221
-403.252	12.334	-0.194	0.149
-402.238	4.054	-0.388	0.283
-401.223	436.819	0.074	0.161
-400.209	63.767	0.102	-0.102
-399.194	-111.926	0.234	-0.047
-398.179	800.000	-0.023	0.091
-397.165	800.000	-0.035	-0.099
-396.150	188.700	-0.076	-0.114
-395.136	-200.000	-0.011	0.414
-394.121	46.540	-0.345	0.319
-393.106	-160.321	0.252	0.014
-392.092	-112.144	0.332	-0.066
-391.077	800.000	0.016	-0.054
-390.063	800.000	0.067	0.249
-389.048	56.281	-0.275	0.266
-388.033	-182.918	-0.432	-0.008
-387.019	800.000	-0.043	0.122
-386.004	294.944	-0.094	0.172
-384.990	-200.000	-0.028	0.221
-383.975	44.165	-0.182	0.167
-382.960	-200.000	-0.043	0.290
-381.946	256.029	0.123	-0.210
-380.931	-78.600	-0.130	-0.044
-379.917	79.814	-0.095	-0.102
-378.902	-65.479	-0.021	0.009
-377.888	-200.000	-0.023	0.133
-376.873	800.000	0.038	-0.110
-375.858	800.000	0.119	0.329
-374.844	-200.000	-0.006	0.090
-373.829	110.556	-0.224	-0.268
-372.815	-93.327	-0.174	-0.048
-371.800	688.294	0.087	-0.226
-370.785	-111.092	0.059	-0.012
-369.771	-75.795	-0.391	0.138
-368.756	154.478	0.133	0.182
-367.742	80.173	-0.132	0.141
-366.727	617.348	-0.160	-0.399
-365.712	-127.123	-0.352	0.051
-364.698	27.743	0.254	-0.213
-363.683	86.030	0.305	-0.335
-362.669	307.047	0.032	0.059
-361.654	256.286	0.199	0.340
-360.639	-170.595	0.239	-0.008
-359.625	-109.238	0.135	-0.028
-358.610	-21.549	-0.253	-0.154
-357.596	493.705	0.039	0.088
-356.581	78.972	-0.045	0.048
-355.566	800.000	-0.089	0.314
-354.552	96.745	0.045	0.051
-353.537	-12.912	-0.067	-0.044
-352.523	-40.948	-0.293	0.151
-351.508	28.490	-0.073	0.061
-350.493	15.237	-0.393	-0.307
-349.479	255.544	0.134	-0.229
-348.464	416.159	0.080	-0.169
-347.450	-133.570	-0.244	-0.030
-346.435	-138.470	0.123	0.013
-345.420	-200.000	-0.046	0.272
-344.406	-23.161	0.257	-0.154
-343.391	-200.000	-0.026	-0.154
-342.377	229.956	0.070	0.114
-341.362	156.190	-0.104	0.142
-340.348	29.363	-0.109	0.092
-339.333	800.000	-0.071	0.286
-338.318	-19.387	0.225	0.139
-337.304	-82.540	0.155	-0.050
-336.289	475.125	-0.088	-0.198
-335.275	27.299	-0.112	-0.093
-334.260	486.529	0.061	0.138
-333.245	6.070	0.020	0.015
-332.231	-102.609	0.107	-0.025
-331.216	800.000	-0.043	-0.168
-330.202	217.610	-0.036	0.057
-329.187	614.025	-0.130	0.325
-328.172	68.801	-0.035	0.036
-327.158	-6.501	0.203	-0.138
-326.143	800.000	-0.056	0.156
-325.129	-200.000	-0.027	-0.133
-324.114	505.011	-0.061	0.139
-323.099	-62.977	0.087	0.036
-322.085	-200.000	-0.035	-0.200
-321.070	96.247	0.046	-0.052
-320.056	48.526	0.069	0.064
-319.041	202.453	0.092	0.141
-318.026	240.131	0.049	0.081
-317.012	-87.103	0.436	0.132
-315.997	-124.472	0.156	0.024
-314.983	11.181	-0.151	-0.115
-313.968	-36.719	-0.302	0.161
-312.953	-17.686	-0.140	0.088
-311.939	-49.942	0.167	0.079
-310.924	-133.755	-0.025	-0.003
-309.910	-48.557	-0.439	0.210
-308.895	-68.742	0.210	-0.081
-307.880	593.584	-0.094	-0.231
-306.866	-200.000	-0.027	-0.207
-305.851	262.165	-0.071	-0.122
-304.837	405.032	0.151	-0.315
-303.822	-130.666	-0.149	0.020
-302.807	-77.752	0.222	0.076
-301.793	-18.809	0.219	0.135
-300.778	-200.000	0.035	0.291
-299.764	44.976	-0.305	0.279
-298.749	-135.483	0.097	-0.011
-297.735	89.008	-0.036	0.040
-296.720	-56.076	-0.026	0.011
-295.705	173.812	0.120	0.173
-294.691	800.000	0.122	0.440
-293.676	-55.961	0.147	0.065
-292.662	800.000	-0.073	-0.229
-291.647	-47.548	-0.235	-0.113
-290.632	-16.166	0.306	-0.193
-289.618	21.277	0.165	0.133
-288.603	-43.218	0.145	0.073
-287.589	-130.657	0.279	0.037
-286.574	-5.049	-0.216	-0.148
-285.559	-38.173	0.380	-0.200
-284.545	-67.331	0.171	-0.067
-283.530	800.000	0.113	0.325
-282.516	-200.000	-0.027	0.130
-281.501	564.838	-0.092	0.221
-280.486	30.357	0.089	-0.075
-279.472	800.000	0.070	0.217
-278.457	800.000	0.053	-0.199
-277.443	-65.500	0.124	0.050
-276.428	176.725	-0.091	-0.132
-275.413	389.694	-0.220	-0.453
-274.399	574.486	-0.095	-0.230
-273.384	218.260	-0.098	-0.155
-272.370	161.163	-0.079	0.110
-271.355	-85.078	-0.318	0.099
-270.340	36.556	0.343	0.300
-269.326	103.044	0.127	0.148
-268.311	-200.000	-0.078	0.372
-267.297	-200.000	0.018	0.135
-266.282	-200.000	-0.026	0.223
-265.267	352.179	-0.143	0.281
-264.253	-71.394	0.368	-0.137
-263.238	-21.164	-0.110	0.067
-262.224	214.816	0.175	-0.276
-261.209	-36.297	-0.057	-0.030
-260.195	-200.000	0.018	0.342
-259.180	800.000	-0.065	-0.179
-258.165	-119.208	0.462	0.080
-257.151	-111.362	0.239	0.048
-256.136	83.110	-0.149	-0.161
-255.122	319.499	-0.024	0.046
-254.107	-116.232	-0.037	0.007
-253.092	-200.000	-0.000	0.063
-252.078	173.934	-0.099	0.142
-251.063	38.142	0.337	-0.297
-250.049	-61.302	-0.451	-0.188
-249.034	800.000	0.019	-0.077
-248.019	-200.000	0.076	-0.349
-247.005	-200.000	0.072	0.404
-245.990	-17.398	-0.305	0.191
-244.976	800.000	-0.040	0.115
-243.961	66.763	-0.124	0.125
-242.946	62.521	0.013	-0.013
-241.932	-57.966	-0.062	0.027
-240.917	338.557	0.042	-0.081
-239.903	43.807	-0.115	-0.104
-238.888	35.981	-0.337	0.294
-237.873	-200.000	0.081	0.372
-236.859	251.707	-0.168	0.283
-235.844	11.960	0.249	0.190
-234.830	175.033	-0.174	-0.250
-233.815	-4.290	-0.378	0.259
-232.800	-132.962	-0.138	0.017
-231.786	-41.916	-0.296	0.150
-230.771	35.872	0.225	-0.196
-229.757	-14.762	0.198	0.126
-228.742	-138.579	-0.235	0.026
-227.727	-87.041	0.126	-0.038
-226.713	-117.247	-0.121	-0.022
-225.698	-113.500	-0.189	0.037
-224.684	800.000	0.082	-0.267
-223.669	109.970	-0.144	-0.171
-222.655	-200.000	-0.068	-0.413
-221.640	-200.000	-0.026	-0.133
-220.625	-85.625	0.121	0.037
-219.611	-200.000	0.043	0.235
-218.596	-108.100	0.146	-0.031
-217.582	513.163	-0.116	0.267
-216.567	800.000	0.089	-0.291
-215.552	800.000	0.056	0.156
-214.538	-83.441	-0.538	-0.170
-213.523	-200.000	0.023	-0.145
-212.509	-5.748	0.095	0.064
-211.494	-3.893	-0.206	-0.142
-210.479	-200.000	0.053	-0.232
-209.465	134.039	0.077	0.098
-208.450	-200.000	0.023	-0.126
-207.436	-54.753	0.359	-0.160
-206.421	33.787	0.181	0.156
-205.406	-200.000	-0.013	-0.085
-204.392	20.815	0.234	-0.187
-203.377	-71.464	-0.075	-0.028
-202.363	303.642	0.031	0.056
-201.348	207.828	0.106	-0.164
-200.333	108.769	0.056	0.067
-199.319	-12.525	0.150	-0.097
-198.304	-200.000	-0.036	-0.278
-197.290	-38.301	0.165	-0.086
-196.275	800.000	-0.052	-0.187
-195.260	137.080	0.118	0.153
-194.246	179.326	-0.200	0.290
-193.231	-200.000	-0.038	0.173
-192.217	71.243	-0.220	-0.225
-191.202	-104.451	-0.052	0.012
-190.187	306.479	0.039	0.072
-189.173	10.697	0.194	0.146
-188.158	-57.105	-0.168	0.073
-187.144	-143.388	-0.309	0.029
-186.129	-157.284	0.271	0.016
-185.114	789.553	-0.078	0.212
-184.100	800.000	0.042	-0.142
-183.085	-110.534	-0.270	0.055
-182.071	-200.000	-0.020	-0.151
-181.056	-51.558	-0.142	0.066
-180.042	-147.658	-0.295	0.025
-179.027	378.021	0.105	0.213
-178.012	188.099	0.159	-0.235
-176.998	-133.866	0.427	0.052
-175.983	-200.000	0.044	0.311
-174.969	-107.283	-0.215	0.047
-173.954	-100.712	0.392	0.095
-172.939	-6.000	-0.098	0.066
-171.925	-200.000	0.012	0.110
-170.910	687.322	-0.022	0.056
-169.896	-142.442	0.332	-0.032
-168.881	167.344	-0.171	-0.241
-167.866	24.491	0.148	0.121
-166.852	-200.000	-0.009	0.093
-165.837	800.000	-0.119	0.352
-164.823	-200.000	0.016	0.278
-163.808	-16.239	-0.194	-0.122
-162.793	-71.849	0.228	-0.084
-161.779	-190.395	0.103	0.001
-160.764	290.397	0.153	0.275
-159.750	-200.000	0.018	0.171
-158.735	-59.035	-0.177	0.075
-157.720	-200.000	0.021	-0.102
-156.706	39.412	-0.049	0.043
-155.691	-45.580	0.274	-0.134
-154.677	-200.000	0.001	0.015
-153.662	-26.076	0.163	0.095
-152.647	800.000	-0.038	0.144
-151.633	-78.212	-0.140	0.047
-150.618	684.596	-0.054	-0.138
-149.604	-42.474	-0.235	0.118
-148.589	-1.052	-0.270	-0.188
-147.574	-200.000	0.053	-0.246
-146.560	-73.430	0.089	-0.032
-145.545	-128.450	-0.286	0.040
-144.531	174.799	-0.115	0.164
-143.516	800.000	-0.029	0.088
-142.502	-76.668	0.117	-0.041
-141.487	-200.000	-0.021	0.127
-140.472	-136.699	-0.288	0.033
-139.458	307.752	0.166	0.306
-138.443	-113.273	0.198	-0.038
-137.429	327.177	-0.125	-0.237
-136.414	352.434	0.124	-0.242
-135.399	-200.000	0.030	0.154
-134.385	111.029	0.269	-0.320
-133.370	-98.834	-0.195	-0.049
-132.356	-200.000	0.000	0.226
-131.341	80.789	-0.279	0.297
-130.326	614.641	-0.013	0.032
-129.312	22.886	0.177	-0.143
-128.297	-119.600	0.217	-0.037
-127.283	28.729	0.228	0.190
-126.268	-26.526	0.255	-0.148
-125.253	28.599	-0.028	-0.023
-124.239	-76.233	0.106	0.037
-123.224	-94.781	0.304	-0.081
-122.210	-200.000	0.013	0.181
-121.195	800.000	-0.072	-0.271
-120.180	13.633	-0.331	-0.253
