DTS Sentinel unit serial number:	SN413079Multiplexer serial number:	ORYXHardware model number:	OX4-SRSoftware version number:	ORYX F/W v4.00 Oryx Data Collector v3.7.2.0data status	okinstallation	princeton_trtdifferential loss correction	single-endedforward channel	channel 3reverse channel	N/Adate	2019/09/15time	06:24:35forward acquisition time	60.00reverse acquisition time	0.00gamma	496.2192k internal	0.2325k external	0.2325temperature offset calibration	0.9976default loss term (dB/km)	0.3790temperature slope calibration	1.0000multiplexer offset coefficient	1.0000multiplexer slope coefficient	1.0000fibre end	0.00T internal ref (°C)	30.50T ext. ref 1 (°C)	4.84T ext. ref 2 (°C)	25.34length (m)	temperature (°C)	Stokes	anti-Stokes-747.200	-187.119	0.171	0.002
-746.185	287.467	-0.054	0.098
-745.171	-186.629	0.103	0.001
-744.156	-61.833	-0.557	0.235
-743.142	800.000	-0.062	-0.191
-742.127	-33.602	-0.172	0.096
-741.112	-200.000	-0.009	-0.099
-740.098	-130.730	-0.359	-0.049
-739.083	-38.690	-0.081	-0.043
-738.069	209.921	-0.117	0.185
-737.054	-80.124	0.023	0.008
-736.039	35.144	-0.158	0.139
-735.025	47.911	0.280	0.264
-734.010	320.837	-0.176	0.337
-732.996	-141.258	-0.178	-0.018
-731.981	-181.248	-0.270	-0.005
-730.966	-7.839	0.079	-0.054
-729.952	-23.909	-0.083	0.050
-728.937	-149.374	0.159	-0.013
-727.923	-151.289	-0.334	-0.025
-726.908	112.000	-0.129	-0.157
-725.894	-106.685	-0.420	-0.094
-724.879	-200.000	-0.003	-0.146
-723.864	-200.000	-0.003	0.240
-722.850	83.068	-0.227	0.249
-721.835	472.213	0.125	0.283
-720.821	-98.263	0.288	-0.075
-719.806	169.459	-0.044	0.063
-718.791	498.463	0.056	-0.129
-717.777	-59.982	-0.241	-0.104
-716.762	800.000	-0.040	-0.166
-715.748	-186.464	0.294	0.004
-714.733	453.902	-0.181	-0.404
-713.718	800.000	0.054	-0.212
-712.704	490.965	0.039	-0.089
-711.689	453.912	-0.204	-0.454
-710.675	-119.918	-0.336	0.058
-709.660	-92.183	0.117	-0.033
-708.645	-143.906	0.169	-0.016
-707.631	-200.000	0.004	-0.137
-706.616	101.374	0.091	0.106
-705.602	800.000	-0.047	-0.172
-704.587	-200.000	0.009	0.077
-703.572	-102.554	0.559	-0.135
-702.558	70.760	-0.033	-0.035
-701.543	-159.327	0.186	0.010
-700.529	1.892	0.139	0.101
-699.514	185.661	-0.134	0.201
-698.499	-5.751	0.305	-0.211
-697.485	-200.000	-0.008	0.057
-696.470	-200.000	0.001	-0.143
-695.456	-36.455	-0.361	0.196
-694.441	-88.708	0.301	0.090
-693.426	522.686	-0.049	-0.116
-692.412	-200.000	0.008	0.257
-691.397	-57.765	0.199	0.088
-690.383	692.689	0.133	-0.352
-689.368	-200.000	-0.018	-0.275
-688.354	742.698	0.110	-0.299
-687.339	-18.621	0.201	-0.126
-686.324	-55.746	-0.236	-0.106
-685.310	800.000	0.010	0.044
-684.295	106.970	-0.272	-0.325
-683.281	525.949	-0.021	0.050
-682.266	-200.000	-0.009	-0.126
-681.251	16.459	0.123	0.098
-680.237	-200.000	-0.088	0.389
-679.222	-200.000	0.011	0.147
-678.208	283.548	-0.035	0.064
-677.193	-84.582	-0.203	0.064
-676.178	800.000	-0.039	0.146
-675.164	-119.456	-0.082	0.014
-674.149	-200.000	-0.007	-0.170
-673.135	136.002	0.088	0.116
-672.120	-10.797	0.224	0.149
-671.105	54.918	0.143	0.139
-670.091	39.194	0.269	0.242
-669.076	800.000	-0.115	-0.340
-668.062	-85.939	0.276	0.086
-667.047	150.826	0.083	-0.114
-666.032	-34.615	0.234	-0.129
-665.018	142.881	-0.142	0.190
-664.003	537.168	-0.035	0.085
-662.989	117.681	0.133	-0.164
-661.974	-130.737	0.408	-0.055
-660.959	-200.000	-0.000	0.062
-659.945	-91.571	0.053	0.015
-658.930	-200.000	0.008	-0.457
-657.916	498.389	-0.099	-0.228
-656.901	-200.000	-0.024	0.187
-655.886	-72.849	-0.211	-0.078
-654.872	-200.000	0.006	-0.031
-653.857	-200.000	0.029	0.163
-652.843	738.524	0.095	0.256
-651.828	800.000	0.031	-0.132
-650.814	-119.626	-0.504	0.088
-649.799	-98.948	-0.070	-0.018
-648.784	-200.000	0.005	0.145
-647.770	402.388	-0.028	0.059
-646.755	-133.831	-0.246	0.031
-645.741	44.894	-0.039	0.036
-644.726	47.622	0.085	-0.080
-643.711	800.000	0.036	0.140
-642.697	114.468	-0.131	0.161
-641.682	-200.000	-0.023	-0.333
-640.668	288.548	0.200	-0.364
-639.653	-146.488	-0.158	-0.014
-638.638	-153.883	-0.083	0.006
-637.624	-32.991	-0.334	-0.187
-636.609	800.000	-0.027	-0.109
-635.595	143.533	0.083	-0.110
-634.580	10.802	-0.162	0.124
-633.565	356.014	0.118	-0.236
-632.551	-137.887	0.357	-0.040
-631.536	-200.000	-0.004	-0.130
-630.522	-55.049	0.253	0.114
-629.507	-30.658	0.326	0.185
-628.492	153.616	0.125	0.172
-627.478	231.888	-0.140	0.230
-626.463	451.227	0.153	-0.340
-625.449	258.596	-0.054	0.094
-624.434	-18.013	-0.159	0.100
-623.419	-71.056	-0.044	0.017
-622.405	2.983	-0.205	-0.150
-621.390	-20.718	0.075	-0.046
-620.376	54.733	-0.084	-0.081
-619.361	539.789	-0.123	-0.295
-618.346	-162.688	0.194	-0.010
-617.332	-200.000	-0.016	-0.320
-616.317	-114.053	-0.075	0.015
-615.303	-200.000	0.035	0.166
-614.288	4.563	-0.072	0.053
-613.273	-200.000	0.014	-0.140
-612.259	-200.000	0.008	0.173
-611.244	250.642	0.084	-0.144
-610.230	72.681	0.238	-0.249
-609.215	157.985	0.243	-0.338
-608.201	-162.046	-0.207	0.010
-607.186	-2.147	0.305	-0.215
-606.171	192.145	-0.107	0.162
-605.157	-107.818	0.195	-0.043
-604.142	128.552	-0.015	-0.019
-603.128	56.446	-0.094	-0.092
-602.113	-67.418	0.062	-0.024
-601.098	800.000	-0.047	-0.183
-600.084	-73.036	0.100	-0.037
-599.069	193.454	0.090	0.136
-598.055	-150.047	0.176	0.014
-597.040	45.894	0.072	0.067
-596.025	-199.732	-0.389	-0.002
-595.011	-71.462	-0.248	0.093
-593.996	-190.647	-0.202	0.002
-592.982	70.530	0.179	0.186
-591.967	800.000	0.071	0.299
-590.952	158.020	-0.131	-0.182
-589.938	-139.126	-0.143	-0.015
-588.923	167.313	-0.175	0.250
-587.909	-109.799	-0.349	-0.073
-586.894	-155.076	0.413	-0.027
-585.879	14.237	0.109	-0.085
-584.865	-11.710	-0.120	-0.079
-583.850	11.851	0.044	-0.034
-582.836	-200.000	0.021	0.149
-581.821	-63.870	-0.190	-0.078
-580.806	92.924	-0.166	-0.188
-579.792	48.622	-0.261	-0.245
-578.777	103.704	0.268	-0.315
-577.763	-194.259	0.153	-0.001
-576.748	244.143	0.126	0.212
-575.733	-31.016	0.134	0.076
-574.719	-104.020	-0.017	0.004
-573.704	267.119	0.059	0.103
-572.690	-114.404	-0.131	0.025
-571.675	-41.933	-0.186	0.096
-570.661	52.744	-0.090	0.086
-569.646	-149.020	-0.166	-0.013
-568.631	-6.117	-0.235	-0.161
-567.617	-50.424	-0.237	0.112
-566.602	-185.834	0.337	0.005
-565.588	6.041	0.122	0.091
-564.573	-136.925	0.170	0.020
-563.558	-110.003	-0.159	0.033
-562.544	-200.000	-0.025	-0.164
-561.529	10.746	-0.116	0.088
-560.515	-200.000	0.036	0.162
-559.500	144.805	0.072	0.096
-558.485	392.833	0.063	-0.132
-557.471	800.000	0.029	-0.115
-556.456	241.230	0.083	0.139
-555.442	-14.960	-0.244	0.157
-554.427	-152.421	-0.109	0.008
-553.412	144.555	0.169	-0.226
-552.398	-77.138	0.264	0.092
-551.383	-167.190	0.137	-0.006
-550.369	83.645	-0.284	-0.310
-549.354	53.633	0.148	-0.142
-548.339	455.190	0.050	-0.110
-547.325	146.694	-0.154	0.207
-546.310	2.412	0.206	-0.149
-545.296	246.989	0.095	-0.160
-544.281	-173.044	-0.154	-0.005
-543.266	800.000	-0.103	-0.324
-542.252	-200.000	-0.018	0.186
-541.237	57.833	-0.141	0.138
-540.223	-200.000	-0.034	-0.316
-539.208	-90.918	-0.108	0.031
-538.193	-54.934	0.080	0.036
-537.179	223.138	0.114	-0.185
-536.164	-200.000	0.035	-0.162
-535.150	-151.426	0.350	-0.026
-534.135	729.421	0.049	-0.130
-533.121	109.479	-0.087	-0.105
-532.106	-58.798	0.262	0.113
-531.091	-124.172	-0.507	-0.080
-530.077	54.689	-0.176	-0.170
-529.062	45.626	0.082	-0.076
-528.048	105.267	0.127	-0.150
-527.033	800.000	0.042	0.138
-526.018	-200.000	-0.020	0.148
-525.004	71.243	0.198	0.205
-523.989	55.027	0.096	0.093
-522.975	134.928	-0.048	0.063
-521.960	305.216	-0.245	0.455
-520.945	298.518	-0.201	0.370
-519.931	-160.564	-0.522	-0.028
-518.916	-62.246	0.037	-0.015
-517.902	243.145	0.094	0.158
-516.887	800.000	0.008	0.031
-515.872	-194.977	0.078	-0.001
-514.858	782.608	0.047	-0.129
-513.843	646.473	0.070	-0.179
-512.829	-46.321	-0.069	0.034
-511.814	800.000	0.072	-0.313
-510.799	800.000	-0.015	0.053
-509.785	-143.663	-0.081	-0.008
-508.770	-200.000	0.025	0.178
-507.756	-200.000	-0.021	-0.252
-506.741	217.401	-0.061	0.097
-505.726	800.000	0.104	0.356
-504.712	-190.010	-0.061	0.001
-503.697	37.976	-0.142	0.126
-502.683	-56.931	0.193	0.085
-501.668	-200.000	-0.068	-0.363
-500.653	117.319	-0.064	-0.079
-499.639	-35.198	0.176	0.096
-498.624	88.866	-0.183	-0.204
-497.610	177.527	-0.200	-0.292
-496.595	71.976	-0.285	0.296
-495.581	-200.000	-0.030	0.160
-494.566	42.980	0.118	-0.108
-493.551	-40.263	-0.244	-0.127
-492.537	541.299	-0.092	-0.218
-491.522	-90.103	-0.152	-0.044
-490.508	18.700	0.196	0.157
-489.493	13.902	-0.124	-0.096
-488.478	-78.592	0.143	-0.049
-487.464	800.000	-0.088	0.259
-486.449	263.590	-0.133	-0.231
-485.435	-36.516	-0.090	0.048
-484.420	-200.000	-0.036	-0.231
-483.405	-200.000	0.011	0.156
-482.391	97.302	0.082	0.095
-481.376	150.011	-0.244	0.331
-480.362	800.000	-0.078	-0.317
-479.347	-21.917	-0.307	0.186
-478.332	-180.967	0.438	-0.009
-477.318	-133.355	0.092	-0.012
-476.303	595.398	-0.138	-0.342
-475.289	201.887	-0.123	0.190
-474.274	-28.003	0.287	-0.166
-473.259	13.324	0.230	0.178
-472.245	-90.888	0.050	0.014
-471.230	-51.373	0.140	-0.066
-470.216	127.670	-0.187	-0.237
-469.201	-172.776	0.219	-0.007
-468.186	82.751	0.059	0.064
-467.172	-99.369	-0.143	0.036
-466.157	612.587	0.114	0.285
-465.143	-77.854	0.415	0.143
-464.128	556.277	0.017	0.041
-463.113	39.548	-0.274	0.245
-462.099	-42.645	0.186	0.094
-461.084	-200.000	-0.015	-0.166
-460.070	-153.136	0.086	0.006
-459.055	-200.000	0.026	0.219
-458.040	800.000	0.081	-0.275
-457.026	-65.620	0.113	-0.045
-456.011	-9.333	-0.100	0.067
-454.997	0.324	0.361	-0.257
-453.982	89.290	0.169	-0.188
-452.968	-173.904	0.171	-0.005
-451.953	65.367	0.025	0.025
-450.938	-89.522	-0.176	-0.052
-449.924	800.000	-0.078	0.245
-448.909	228.868	0.111	-0.180
-447.895	360.651	0.105	0.209
-446.880	420.338	0.056	0.119
-445.865	-140.890	-0.245	-0.025
-444.851	-200.000	0.027	-0.120
-443.836	800.000	-0.108	-0.406
-442.822	800.000	-0.039	0.147
-441.807	-14.018	0.098	0.063
-440.792	-113.948	0.207	0.040
-439.778	37.162	-0.283	0.250
-438.763	299.765	-0.064	-0.117
-437.749	-136.694	0.208	-0.024
-436.734	219.194	-0.182	0.291
-435.719	-19.785	0.091	0.056
-434.705	27.258	-0.182	0.152
-433.690	529.548	-0.073	0.171
-432.676	195.041	0.172	0.261
-431.661	-22.874	0.211	-0.127
-430.646	-200.000	-0.004	-0.081
-429.632	-4.075	-0.163	0.113
-428.617	-90.239	-0.140	0.041
-427.603	-95.445	-0.224	-0.060
-426.588	118.573	-0.209	0.258
-425.573	-200.000	-0.021	0.169
-424.559	78.530	-0.131	-0.140
-423.544	-58.583	-0.086	0.037
-422.530	24.397	-0.235	0.193
-421.515	800.000	-0.040	0.163
-420.500	-7.885	-0.085	0.057
-419.486	-38.481	-0.380	0.200
-418.471	-200.000	0.037	0.456
-417.457	19.953	-0.214	0.172
-416.442	-79.704	0.228	0.077
-415.428	-103.788	0.173	0.040
-414.413	-82.999	-0.213	0.068
-413.398	143.234	0.149	-0.198
-412.384	-200.000	0.007	-0.148
-411.369	-122.437	0.198	-0.032
-410.355	-5.016	0.190	-0.130
-409.340	83.057	0.195	-0.212
-408.325	34.542	-0.247	-0.215
-407.311	188.101	-0.013	-0.020
-406.296	-147.463	-0.291	-0.024
-405.282	-32.362	0.282	0.157
-404.267	188.554	0.107	-0.159
-403.252	-200.000	0.008	-0.108
-402.238	-135.210	-0.024	-0.003
-401.223	55.062	0.081	-0.078
-400.209	-36.855	0.109	-0.058
-399.194	-200.000	0.017	0.399
-398.179	800.000	-0.101	0.392
-397.165	-16.517	-0.128	0.080
-396.150	105.911	0.077	-0.091
-395.136	-200.000	0.014	-0.206
-394.121	-200.000	-0.005	-0.353
-393.106	800.000	0.090	-0.381
-392.092	800.000	0.033	-0.138
-391.077	176.538	0.071	-0.103
-390.063	800.000	0.092	-0.290
-389.048	-36.135	0.119	0.064
-388.033	-6.633	-0.145	0.098
-387.019	436.085	0.109	0.237
-386.004	466.265	0.057	-0.128
-384.990	-47.888	0.172	-0.083
-383.975	-200.000	0.047	-0.291
-382.960	-117.067	-0.238	0.043
-381.946	800.000	0.012	-0.035
-380.931	166.888	-0.110	-0.155
-379.917	-71.114	0.079	-0.029
-378.902	-200.000	0.054	0.361
-377.888	-133.015	0.134	-0.017
-376.873	362.416	-0.116	-0.231
-375.858	17.773	-0.449	-0.355
-374.844	-102.317	0.064	0.015
-373.829	-200.000	-0.017	0.386
-372.815	-66.124	-0.184	-0.073
-371.800	-200.000	0.130	0.000
-370.785	212.650	0.135	0.212
-369.771	-117.900	-0.415	0.074
-368.756	800.000	-0.016	-0.063
-367.742	800.000	0.063	-0.195
-366.727	-200.000	0.018	0.200
-365.712	800.000	-0.027	0.081
-364.698	800.000	0.071	0.256
-363.683	762.398	-0.056	-0.150
-362.669	10.722	0.275	-0.209
-361.654	101.007	0.164	-0.190
-360.639	-200.000	-0.058	-0.364
-359.625	298.683	-0.129	0.236
-358.610	32.385	0.117	-0.100
-357.596	-173.702	0.200	-0.006
-356.581	-113.235	0.143	-0.028
-355.566	-81.528	0.203	-0.066
-354.552	127.323	-0.160	-0.202
-353.537	800.000	-0.099	-0.361
-352.523	151.185	-0.011	-0.015
-351.508	-15.416	0.454	0.288
-350.493	-200.000	-0.015	0.170
-349.479	217.720	-0.223	0.353
-348.464	244.124	0.116	-0.194
-347.450	139.480	0.170	0.222
-346.435	15.732	-0.143	0.112
-345.420	180.004	0.206	0.300
-344.406	-200.000	-0.004	0.120
-343.391	800.000	0.071	0.258
-342.377	589.728	0.153	-0.375
-341.362	261.033	-0.135	-0.231
-340.348	-200.000	0.497	-0.002
-339.333	-200.000	-0.025	-0.150
-338.318	78.579	0.159	-0.169
-337.304	19.938	-0.322	-0.257
-336.289	166.186	0.241	0.338
-335.275	-132.516	0.325	0.042
-334.260	600.240	-0.048	-0.117
-333.245	292.073	-0.141	0.255
-332.231	101.124	0.054	-0.062
-331.216	-98.602	-0.359	-0.091
-330.202	-76.232	-0.020	0.007
-329.187	-60.446	-0.434	0.183
-328.172	85.145	0.302	-0.329
-327.158	-88.206	0.302	0.090
-326.143	-88.815	-0.132	0.039
-325.129	-79.225	0.047	0.016
-324.114	-62.585	0.154	-0.063
-323.099	-84.952	0.388	0.121
-322.085	11.505	0.190	-0.145
-321.070	127.378	0.062	-0.079
-320.056	-199.098	0.155	0.001
-319.041	118.725	-0.153	0.187
-318.026	-198.006	0.136	-0.001
-317.012	-136.350	-0.172	-0.020
-315.997	72.015	0.196	-0.203
-314.983	800.000	0.024	0.076
-313.968	-144.506	-0.450	0.041
-312.953	25.374	-0.021	0.017
-311.939	-88.431	0.311	0.092
-310.924	-142.224	0.228	0.022
-309.910	96.449	0.095	0.108
-308.895	800.000	0.099	-0.361
-307.880	592.192	0.038	-0.092
-306.866	-200.000	-0.054	0.311
-305.851	187.457	-0.227	0.336
-304.837	423.415	0.131	0.279
-303.822	-200.000	0.015	0.103
-302.807	151.001	0.148	0.200
-301.793	800.000	-0.057	-0.227
-300.778	800.000	-0.160	0.488
-299.764	-121.852	0.203	0.033
-298.749	-101.395	-0.159	0.039
-297.735	110.377	0.178	-0.212
-296.720	83.926	-0.077	-0.083
-295.705	5.367	-0.116	0.085
-294.691	-164.772	0.279	-0.012
-293.676	61.170	-0.160	0.158
-292.662	800.000	-0.007	0.026
-291.647	-8.716	-0.026	-0.018
-290.632	-200.000	-0.416	-0.000
-289.618	-72.785	-0.332	0.121
-288.603	226.845	-0.064	0.103
-287.589	-200.000	-0.033	0.298
-286.574	345.316	-0.047	-0.091
-285.559	-200.000	0.084	0.564
-284.545	155.658	-0.132	0.180
-283.530	766.551	-0.026	0.071
-282.516	-200.000	0.014	0.140
-281.501	-70.607	-0.151	-0.056
-280.486	-168.017	-0.540	0.021
-279.472	29.625	0.271	-0.229
-278.457	-69.652	0.162	0.062
-277.443	177.814	-0.074	-0.107
-276.428	180.187	-0.225	-0.327
-275.413	326.800	-0.077	-0.146
-274.399	81.102	-0.163	-0.174
-273.384	-11.592	-0.103	0.067
-272.370	-20.026	-0.345	-0.211
-271.355	-59.713	0.366	0.156
-270.340	-108.474	0.482	-0.103
-269.326	73.648	-0.405	-0.420
-268.311	325.524	0.095	0.180
-267.297	29.578	-0.097	-0.081
-266.282	-132.707	0.198	0.025
-265.267	-58.767	0.150	-0.064
-264.253	54.004	-0.290	-0.276
-263.238	-18.874	-0.196	-0.121
-262.224	310.858	0.159	-0.295
-261.209	-114.149	-0.201	0.038
-260.195	-100.801	0.172	0.042
-259.180	-200.000	-0.000	0.214
-258.165	17.471	-0.035	0.028
-257.151	800.000	-0.018	0.049
-256.136	6.294	0.132	0.097
-255.122	146.647	-0.168	0.223
-254.107	-166.725	-0.141	-0.006
-253.092	-200.000	0.059	0.430
-252.078	800.000	-0.048	0.135
-251.063	15.294	0.212	0.165
-250.049	800.000	0.005	0.019
-249.034	-177.388	-0.124	-0.003
-248.019	211.662	0.037	0.057
-247.005	42.811	-0.221	0.199
-245.990	304.488	0.128	0.234
-244.976	800.000	0.044	0.169
-243.961	356.797	-0.123	-0.242
-242.946	-200.000	-0.007	0.070
-241.932	-200.000	-0.040	0.294
-240.917	-88.343	-0.316	0.094
-239.903	230.986	-0.063	0.102
-238.888	179.978	-0.225	0.326
-237.873	-200.000	0.006	0.126
-236.859	-153.292	0.289	-0.020
-235.844	342.937	-0.056	-0.108
-234.830	-200.000	-0.020	0.174
-233.815	24.263	-0.098	-0.080
-232.800	-139.152	-0.098	-0.010
-231.786	283.256	0.043	0.077
-230.771	800.000	-0.043	0.167
-229.757	-200.000	0.010	-0.110
-228.742	800.000	-0.074	-0.222
-227.727	-83.316	0.121	0.038
-226.713	101.780	0.108	-0.124
-225.698	-82.762	0.369	0.118
-224.684	-200.000	0.006	0.041
-223.669	800.000	-0.005	-0.013
-222.655	-53.649	0.266	0.120
-221.640	100.680	0.093	0.107
-220.625	164.914	-0.164	-0.229
-219.611	-181.223	0.506	0.010
-218.596	127.720	0.054	0.068
-217.582	-142.966	0.293	-0.028
-216.567	452.105	0.102	0.223
-215.552	-200.000	-0.203	0.000
-214.538	-143.986	-0.229	-0.021
-213.523	-22.784	0.171	0.102
-212.509	-55.887	-0.054	0.024
-211.494	-96.964	-0.402	0.104
-210.479	474.558	-0.089	0.198
-209.465	41.665	0.110	0.099
-208.450	145.250	0.215	0.285
-207.436	-142.904	0.193	0.019
-206.421	15.796	0.080	-0.062
-205.406	449.128	0.095	-0.208
-204.392	-39.670	-0.231	-0.119
-203.377	-200.000	-0.012	-0.193
-202.363	22.719	-0.059	0.047
-201.348	66.753	0.115	0.116
-200.333	17.821	0.326	-0.256
-199.319	-150.608	0.112	0.008
-198.304	360.686	-0.156	-0.309
-197.290	-200.000	-0.013	-0.128
-196.275	-200.000	-0.038	-0.296
-195.260	92.452	-0.058	-0.065
-194.246	-59.151	0.170	0.072
-193.231	-200.000	-0.019	-0.387
-192.217	-200.000	-0.041	-0.255
-191.202	800.000	0.158	-0.527
-190.187	-100.701	-0.237	-0.058
-189.173	-111.087	-0.111	0.023
-188.158	-160.042	-0.374	0.020
-187.144	-98.764	0.120	-0.030
-186.129	229.134	0.072	-0.116
-185.114	25.089	0.047	0.039
-184.100	38.563	0.152	0.134
-183.085	679.011	-0.106	-0.271
-182.071	800.000	-0.071	-0.221
-181.056	-200.000	-0.000	0.104
-180.042	-200.000	-0.014	0.351
-179.027	-163.438	0.136	-0.006
-178.012	-115.730	-0.161	-0.030
-176.998	-0.449	0.186	0.131
-175.983	-200.000	-0.003	-0.302
-174.969	-127.838	0.065	0.009
-173.954	-75.380	0.149	0.053
-172.939	-19.346	0.107	0.066
-171.925	-200.000	0.035	0.205
-170.910	-119.159	0.342	-0.059
-169.896	800.000	0.023	0.064
-168.881	312.681	0.145	0.269
-167.866	51.663	-0.191	-0.180
-166.852	-131.335	-0.186	-0.024
-165.837	330.944	-0.135	-0.256
-164.823	224.000	-0.303	0.483
-163.808	-130.317	0.221	0.030
-162.793	-32.049	-0.346	0.191
-161.779	-187.258	0.051	0.001
-160.764	-75.470	-0.096	-0.034
-159.750	13.044	0.029	-0.022
-158.735	800.000	-0.057	-0.229
-157.720	21.073	-0.147	0.117
-156.706	-4.464	-0.107	-0.073
-155.691	51.917	0.098	0.092
-154.677	-11.357	-0.139	0.090
-153.662	36.731	0.224	-0.195
-152.647	-200.000	-0.003	-0.163
-151.633	138.316	0.055	-0.071
-150.618	9.016	0.192	0.143
-149.604	77.485	-0.026	0.027
-148.589	477.063	-0.073	-0.163
-147.574	-182.082	0.187	-0.003
-146.560	-200.000	0.012	-0.326
-145.545	800.000	-0.026	0.097
-144.531	-34.684	-0.369	-0.199
-143.516	9.439	0.417	-0.311
-142.502	657.314	0.124	-0.314
-141.487	-117.667	-0.078	-0.014
-140.472	188.367	0.070	-0.104
-139.458	-80.735	0.252	0.083
-138.443	140.110	-0.197	0.256
-137.429	-171.536	0.030	0.001
-136.414	60.851	-0.081	0.080
-135.399	-200.000	-0.008	0.092
-134.385	20.549	0.152	0.121
-133.370	-26.453	-0.057	-0.033
-132.356	-64.052	0.272	0.109
-131.341	-84.165	0.174	0.054
-130.326	800.000	0.116	-0.383
-129.312	-172.833	-0.364	-0.011
-128.297	147.317	-0.060	0.079
-127.283	34.015	-0.253	-0.217
-126.268	33.700	-0.160	0.137
-125.253	332.446	0.069	-0.132
-124.239	7.758	-0.233	-0.172
-123.224	202.244	0.157	-0.238
-122.210	45.504	-0.041	-0.038
-121.195	-200.000	-0.024	0.367
