DTS Sentinel unit serial number:	SN413079Multiplexer serial number:	ORYXHardware model number:	OX4-SRSoftware version number:	ORYX F/W v4.00 Oryx Data Collector v3.7.2.0data status	okinstallation	princeton_trtdifferential loss correction	single-endedforward channel	channel 3reverse channel	N/Adate	2019/09/11time	21:10:11forward acquisition time	60.00reverse acquisition time	0.00gamma	496.2192k internal	0.2308k external	0.2308temperature offset calibration	1.0034default loss term (dB/km)	0.3790temperature slope calibration	1.0000multiplexer offset coefficient	1.0000multiplexer slope coefficient	1.0000fibre end	0.00T internal ref (°C)	36.44T ext. ref 1 (°C)	1.62T ext. ref 2 (°C)	30.50length (m)	temperature (°C)	Stokes	anti-Stokes-747.200	-177.989	-0.183	0.004
-746.185	-43.082	-0.430	0.221
-745.171	-137.188	-0.265	0.031
-744.156	-102.128	-0.068	0.017
-743.142	22.701	0.104	-0.087
-742.127	-141.908	0.387	-0.039
-741.112	800.000	-0.043	-0.139
-740.098	366.345	-0.102	0.208
-739.083	105.953	0.073	-0.088
-738.069	249.796	-0.025	-0.044
-737.054	-88.102	0.079	-0.024
-736.039	-111.728	-0.326	0.067
-735.025	-125.938	0.178	-0.027
-734.010	184.927	-0.039	0.059
-732.996	-200.000	0.019	-0.253
-731.981	-1.822	0.133	0.095
-730.966	-20.656	0.130	0.081
-729.952	-89.277	0.107	0.032
-728.937	-183.816	-0.310	-0.005
-727.923	83.333	0.202	0.223
-726.908	-86.810	-0.326	0.101
-725.894	-200.000	-0.005	0.100
-724.879	733.222	0.192	-0.522
-723.864	651.398	-0.111	0.288
-722.850	-7.741	-0.359	0.246
-721.835	-64.307	0.202	-0.084
-720.821	-70.413	-0.244	-0.094
-719.806	-99.634	-0.073	-0.019
-718.791	-200.000	-0.015	-0.210
-717.777	-90.599	0.045	0.013
-716.762	-200.000	0.028	-0.139
-715.748	82.282	-0.059	-0.065
-714.733	-112.870	-0.136	0.027
-713.718	79.097	-0.304	0.331
-712.704	800.000	0.020	0.082
-711.689	77.462	0.177	0.191
-710.675	-73.212	-0.333	-0.124
-709.660	14.881	0.123	0.097
-708.645	-90.123	-0.041	-0.012
-707.631	65.297	-0.258	-0.265
-706.616	24.308	-0.431	-0.362
-705.602	134.322	0.149	-0.195
-704.587	-75.121	-0.255	-0.093
-703.572	800.000	0.091	-0.274
-702.558	-22.846	0.177	0.108
-701.543	-200.000	0.048	-0.463
-700.529	10.400	0.086	-0.066
-699.514	800.000	0.053	0.201
-698.499	43.239	-0.150	0.139
-697.485	-94.235	-0.476	0.132
-696.470	-28.065	0.035	-0.021
-695.456	85.702	-0.234	0.261
-694.441	-200.000	0.045	0.271
-693.426	-73.798	-0.228	-0.084
-692.412	-121.435	-0.214	0.036
-691.397	-43.779	0.116	0.059
-690.383	439.211	-0.049	0.108
-689.368	-200.000	-0.021	-0.275
-688.354	-200.000	0.020	-0.219
-687.339	231.340	-0.151	-0.252
-686.324	-53.833	0.129	0.059
-685.310	-138.043	-0.106	-0.012
-684.295	-182.077	0.349	0.007
-683.281	77.747	-0.086	0.093
-682.266	-125.707	-0.607	0.093
-681.251	-104.872	-0.446	-0.104
-680.237	113.621	-0.227	-0.280
-679.222	188.508	-0.282	-0.428
-678.208	-200.000	-0.029	-0.287
-677.193	-200.000	0.007	-0.274
-676.178	-56.679	0.294	-0.132
-675.164	66.540	-0.054	-0.056
-674.149	248.327	-0.025	0.042
-673.135	-200.000	-0.007	-0.061
-672.120	-200.000	-0.010	-0.381
-671.105	61.648	0.089	-0.090
-670.091	6.714	0.067	-0.051
-669.076	-97.879	0.102	0.027
-668.062	800.000	-0.065	0.205
-667.047	312.542	0.061	-0.117
-666.032	109.931	-0.042	-0.051
-665.018	-41.647	-0.234	-0.122
-664.003	377.388	0.051	-0.106
-662.989	-200.000	0.022	-0.192
-661.974	-147.277	0.103	-0.009
-660.959	1.797	0.083	-0.061
-659.945	-115.164	0.211	0.040
-658.930	34.973	-0.056	0.049
-657.916	87.139	-0.159	0.179
-656.901	800.000	-0.114	0.324
-655.886	56.633	-0.106	0.105
-654.872	583.108	0.085	-0.211
-653.857	-90.856	-0.187	0.055
-652.843	-116.866	0.301	0.056
-651.828	452.965	0.124	0.278
-650.814	263.809	0.099	-0.174
-649.799	113.992	0.286	-0.352
-648.784	-200.000	-0.059	0.314
-647.770	-125.245	-0.347	-0.054
-646.755	10.051	0.294	-0.226
-645.741	15.070	-0.171	-0.136
-644.726	-200.000	-0.035	-0.165
-643.711	86.305	0.098	-0.109
-642.697	-34.602	0.120	0.067
-641.682	-109.626	0.209	-0.045
-640.668	15.275	-0.343	-0.272
-639.653	-153.533	-0.379	-0.027
-638.638	-24.919	-0.145	0.087
-637.624	-196.344	-0.427	0.003
-636.609	232.080	-0.151	0.251
-635.595	-200.000	0.042	0.273
-634.580	-127.593	0.167	0.025
-633.565	-23.618	0.120	-0.073
-632.551	231.485	-0.123	-0.204
-631.536	651.466	-0.081	-0.210
-630.522	-87.455	-0.257	-0.079
-629.507	60.726	-0.282	-0.283
-628.492	-112.670	-0.297	-0.060
-627.478	268.488	-0.156	-0.277
-626.463	-39.233	0.104	-0.055
-625.449	-25.687	0.136	-0.081
-624.434	800.000	-0.070	-0.214
-623.419	139.031	0.158	0.210
-622.405	-74.435	-0.036	-0.013
-621.390	-16.425	-0.209	-0.134
-620.376	20.816	-0.124	0.102
-619.361	485.952	-0.058	-0.134
-618.346	800.000	0.036	0.144
-617.332	-122.141	-0.148	0.024
-616.317	300.677	-0.055	-0.102
-615.303	-119.178	-0.246	0.043
-614.288	321.468	0.045	-0.086
-613.273	-200.000	-0.024	-0.121
-612.259	-79.599	-0.173	-0.059
-611.244	-179.607	0.182	0.004
-610.230	92.093	-0.230	-0.262
-609.215	154.444	0.075	-0.105
-608.201	-108.415	-0.168	-0.037
-607.186	-12.726	-0.105	-0.069
-606.171	-26.330	0.090	0.053
-605.157	658.341	0.049	0.128
-604.142	79.424	-0.198	0.215
-603.128	-128.555	-0.159	0.023
-602.113	151.507	-0.089	0.123
-601.098	22.062	-0.230	0.190
-600.084	-66.667	0.119	-0.048
-599.069	800.000	0.059	0.184
-598.055	-186.203	-0.270	-0.004
-597.040	-67.434	0.219	0.087
-596.025	-7.686	-0.279	-0.190
-595.011	-126.993	-0.269	0.040
-593.996	-185.121	-0.130	-0.002
-592.982	22.992	0.271	-0.225
-591.967	266.033	0.119	0.210
-590.952	800.000	-0.086	0.242
-589.938	-200.000	-0.010	0.122
-588.923	132.062	-0.253	-0.329
-587.909	577.046	0.051	0.125
-586.894	106.590	-0.179	0.214
-585.879	-180.273	-0.282	0.006
-584.865	-161.486	-0.422	-0.022
-583.850	24.018	-0.373	0.311
-582.836	284.800	0.059	0.107
-581.821	379.863	-0.164	-0.340
-580.806	238.557	0.106	0.178
-579.792	26.219	-0.148	-0.125
-578.777	-200.000	-0.370	-0.001
-577.763	-81.724	0.231	0.077
-576.748	193.261	0.212	-0.324
-575.733	275.615	-0.062	0.111
-574.719	459.063	0.125	0.280
-573.704	20.109	-0.153	-0.124
-572.690	800.000	0.057	-0.202
-571.675	-77.843	0.326	0.114
-570.661	118.429	-0.212	0.264
-569.646	-117.448	-0.051	0.009
-568.631	93.967	-0.344	0.394
-567.617	-43.276	0.378	-0.193
-566.602	-134.344	0.176	0.022
-565.588	800.000	-0.086	0.331
-564.573	11.219	-0.209	-0.162
-563.558	-200.000	-0.005	-0.207
-562.544	-200.000	0.014	-0.134
-561.529	-200.000	0.000	0.057
-560.515	216.164	0.054	-0.086
-559.500	-200.000	0.049	-0.260
-558.485	-200.000	-0.029	-0.131
-557.471	-112.272	0.224	-0.045
-556.456	271.769	0.172	0.306
-555.442	-165.086	0.178	-0.008
-554.427	-39.082	-0.125	-0.067
-553.412	-66.923	-0.173	-0.069
-552.398	-88.818	0.181	-0.054
-551.383	-45.021	0.248	-0.125
-550.369	-94.705	-0.159	0.043
-549.354	800.000	-0.115	-0.357
-548.339	800.000	-0.074	0.257
-547.325	-102.253	0.191	0.046
-546.310	-8.704	0.406	0.274
-545.296	-200.000	-0.011	-0.056
-544.281	194.996	-0.159	-0.243
-543.266	249.567	0.262	0.449
-542.252	3.013	0.104	-0.076
-541.237	-42.563	-0.216	0.111
-540.223	-171.787	0.282	0.009
-539.208	-200.000	-0.032	-0.238
-538.193	-114.859	-0.259	-0.050
-537.179	-200.000	-0.025	0.124
-536.164	26.134	-0.302	0.254
-535.150	-112.619	0.055	-0.011
-534.135	-57.224	0.168	-0.075
-533.121	-134.842	0.228	0.028
-532.106	30.325	-0.249	0.214
-531.091	800.000	-0.092	-0.384
-530.077	-147.325	-0.227	-0.019
-529.062	-200.000	0.005	0.026
-528.048	-115.032	-0.046	0.009
-527.033	-57.969	-0.244	-0.107
-526.018	-112.602	-0.039	-0.008
-525.004	58.937	-0.228	-0.226
-523.989	591.445	0.067	0.167
-522.975	-63.250	0.119	-0.049
-521.960	-154.587	0.311	0.021
-520.945	-200.000	0.040	0.269
-519.931	-97.517	0.164	0.043
-518.916	25.379	0.356	-0.298
-517.902	-62.162	0.305	0.128
-516.887	357.643	0.236	0.474
-515.872	-200.000	0.022	0.140
-514.858	800.000	-0.041	0.123
-513.843	-30.308	-0.397	0.227
-512.829	-200.000	0.030	0.174
-511.814	4.674	0.254	0.188
-510.799	26.798	-0.225	0.190
-509.785	-73.131	-0.243	-0.090
-508.770	708.097	0.030	-0.081
-507.756	800.000	-0.087	-0.375
-506.741	-200.000	0.002	0.421
-505.726	-111.283	0.170	0.035
-504.712	168.194	-0.107	-0.154
-503.697	77.077	0.030	-0.032
-502.683	-35.584	-0.131	-0.072
-501.668	-74.572	0.178	-0.065
-500.653	42.157	0.116	0.107
-499.639	-65.823	0.188	0.076
-498.624	-111.744	-0.149	0.030
-497.610	318.469	-0.115	-0.219
-496.595	-200.000	0.028	0.263
-495.581	-200.000	0.043	0.231
-494.566	-97.108	-0.111	-0.029
-493.551	165.701	-0.152	0.217
-492.537	380.409	-0.067	0.139
-491.522	-200.000	-0.034	-0.334
-490.508	-168.137	-0.247	0.010
-489.493	-200.000	0.037	0.188
-488.478	800.000	0.056	-0.211
-487.464	-80.523	0.427	-0.143
-486.449	8.213	0.105	0.079
-485.435	-57.206	0.224	0.099
-484.420	148.954	-0.114	0.155
-483.405	-106.365	-0.047	-0.011
-482.391	-59.441	-0.230	-0.100
-481.376	2.073	-0.222	-0.161
-480.362	800.000	0.032	0.127
-479.347	-64.456	-0.218	0.089
-478.332	28.606	-0.191	0.162
-477.318	-83.418	-0.357	-0.115
-476.303	800.000	-0.110	-0.334
-475.289	-166.225	-0.227	-0.010
-474.274	407.628	-0.062	0.133
-473.259	728.959	-0.113	-0.302
-472.245	-123.693	-0.219	0.035
-471.230	194.376	0.115	0.176
-470.216	366.483	0.072	-0.147
-469.201	-25.128	-0.031	-0.018
-468.186	-22.428	0.247	0.150
-467.172	56.180	-0.064	-0.062
-466.157	-67.071	0.187	0.074
-465.143	-18.514	0.270	-0.170
-464.128	517.282	-0.119	0.279
-463.113	757.116	0.019	0.052
-462.099	72.155	-0.127	-0.133
-461.084	-200.000	0.027	0.425
-460.070	-2.461	-0.214	-0.151
-459.055	474.759	-0.173	-0.392
-458.040	800.000	0.008	0.029
-457.026	201.205	0.162	-0.251
-456.011	265.122	0.177	0.310
-454.997	171.830	0.056	-0.081
-453.982	-47.237	-0.222	-0.109
-452.968	644.458	-0.080	-0.205
-451.953	-200.000	0.020	0.101
-450.938	800.000	-0.042	0.130
-449.924	800.000	-0.046	-0.164
-448.909	64.953	0.072	-0.073
-447.895	570.464	0.110	0.269
-446.880	-4.518	-0.154	0.107
-445.865	20.112	-0.094	0.076
-444.851	-200.000	-0.022	0.109
-443.836	-10.510	-0.195	-0.129
-442.822	-118.277	-0.090	0.016
-441.807	83.231	-0.365	0.399
-440.792	-98.238	-0.167	0.043
-439.778	-10.364	-0.038	0.025
-438.763	522.778	0.130	0.308
-437.749	-97.794	-0.272	-0.071
-436.734	-200.000	-0.019	0.389
-435.719	275.423	-0.117	-0.209
-434.705	191.617	0.118	-0.178
-433.690	68.426	-0.329	-0.339
-432.676	-136.067	0.026	0.003
-431.661	-178.216	0.087	-0.002
-430.646	45.526	-0.096	0.089
-429.632	-200.000	-0.043	0.198
-428.617	237.985	0.068	0.113
-427.603	149.188	-0.100	0.136
-426.588	156.596	-0.242	0.336
-425.573	-87.025	-0.117	-0.036
-424.559	35.603	0.120	0.106
-423.544	-200.000	0.005	0.069
-422.530	10.579	0.285	-0.218
-421.515	-63.338	-0.220	0.091
-420.500	-20.028	-0.066	-0.041
-419.486	-61.308	0.177	0.075
-418.471	800.000	-0.087	-0.244
-417.457	54.425	0.220	0.212
-416.442	49.445	-0.112	-0.106
-415.428	-140.306	0.233	0.025
-414.413	-22.795	0.079	-0.048
-413.398	348.866	-0.055	-0.108
-412.384	94.666	-0.237	-0.270
-411.369	-80.084	0.196	0.066
-410.355	-97.868	-0.072	0.019
-409.340	-200.000	-0.002	-0.054
-408.325	10.148	-0.139	-0.106
-407.311	278.598	-0.089	-0.160
-406.296	-36.930	0.196	-0.105
-405.282	-116.430	-0.060	-0.011
-404.267	-15.608	0.219	0.140
-403.252	413.605	0.082	0.176
-402.238	-200.000	-0.023	-0.169
-401.223	84.266	-0.171	-0.188
-400.209	56.836	-0.308	-0.301
-399.194	-200.000	0.019	0.322
-398.179	89.957	0.102	-0.115
-397.165	-34.277	0.125	-0.069
-396.150	105.964	-0.218	-0.259
-395.136	522.792	0.139	-0.328
-394.121	344.137	0.069	-0.136
-393.106	-88.476	0.108	-0.032
-392.092	230.439	-0.168	-0.275
-391.077	319.421	0.089	-0.169
-390.063	121.933	0.127	0.159
-389.048	286.709	-0.105	0.190
-388.033	800.000	-0.037	-0.155
-387.019	-200.000	0.044	-0.242
-386.004	-6.092	0.030	0.021
-384.990	502.868	-0.056	0.129
-383.975	509.231	0.104	-0.242
-382.960	-60.477	0.149	-0.063
-381.946	-123.244	0.174	-0.028
-380.931	15.674	-0.049	0.039
-379.917	31.443	0.175	0.151
-378.902	-56.548	0.302	0.134
-377.888	-105.045	0.083	0.019
-376.873	529.898	-0.128	0.303
-375.858	0.756	-0.136	-0.098
-374.844	-156.171	-0.205	0.013
-373.829	-124.181	-0.213	0.033
-372.815	-200.000	0.011	-0.324
-371.800	106.762	0.181	0.216
-370.785	-12.998	0.264	0.172
-369.771	-98.375	-0.299	0.077
-368.756	-200.000	0.008	0.051
-367.742	800.000	-0.057	0.192
-366.727	75.010	0.116	-0.123
-365.712	-200.000	0.035	-0.208
-364.698	288.814	-0.086	0.157
-363.683	-110.616	-0.188	0.039
-362.669	84.301	-0.118	-0.129
-361.654	-144.479	0.136	0.013
-360.639	57.652	0.107	0.105
-359.625	224.431	0.144	0.233
-358.610	-57.228	0.179	-0.079
-357.596	19.600	0.069	-0.056
-356.581	-200.000	-0.017	-0.283
-355.566	-134.531	0.091	0.011
-354.552	-18.898	0.228	-0.142
-353.537	-110.602	0.298	0.062
-352.523	-200.000	0.045	-0.295
-351.508	-10.023	0.339	0.225
-350.493	370.670	0.113	0.230
-349.479	311.887	-0.147	0.277
-348.464	800.000	0.099	-0.321
-347.450	189.919	0.094	0.141
-346.435	800.000	-0.062	0.218
-345.420	37.027	0.203	-0.180
-344.406	49.921	-0.109	0.103
-343.391	53.105	-0.128	0.123
-342.377	-79.484	-0.324	-0.109
-341.362	494.602	0.088	0.202
-340.348	704.641	-0.032	0.085
-339.333	-144.693	0.316	0.029
-338.318	-200.000	-0.009	0.187
-337.304	-76.901	-0.310	0.108
-336.289	208.131	0.163	-0.255
-335.275	327.947	0.127	-0.244
-334.260	-192.505	0.203	-0.002
-333.245	77.447	-0.214	-0.228
-332.231	15.616	0.370	0.291
-331.216	-200.000	0.026	0.333
-330.202	800.000	0.021	-0.089
-329.187	748.144	-0.037	-0.100
-328.172	-13.753	-0.182	0.118
-327.158	800.000	-0.024	-0.101
-326.143	-181.138	0.393	-0.008
-325.129	156.789	0.236	0.326
-324.114	-82.158	0.182	0.059
-323.099	-50.989	-0.095	0.045
-322.085	-199.403	0.220	-0.001
-321.070	-200.000	-0.033	0.422
-320.056	-22.973	0.084	0.050
-319.041	-118.782	0.287	-0.051
-318.026	800.000	-0.023	-0.073
-317.012	-34.322	0.381	-0.209
-315.997	-60.427	0.326	-0.139
-314.983	800.000	-0.032	0.108
-313.968	-115.161	0.292	0.055
-312.953	27.001	0.149	0.125
-311.939	-108.542	0.083	0.018
-310.924	72.567	-0.112	-0.116
-309.910	-50.372	-0.372	-0.176
-308.895	75.829	-0.231	0.244
-307.880	559.695	-0.147	-0.355
-306.866	20.062	0.061	0.049
-305.851	800.000	-0.123	-0.352
-304.837	-163.733	0.215	-0.010
-303.822	523.010	0.043	-0.101
-302.807	-56.443	-0.062	0.027
-301.793	107.707	0.218	0.259
-300.778	800.000	0.052	-0.219
-299.764	76.423	0.231	-0.245
-298.749	605.924	-0.100	0.250
-297.735	191.115	-0.138	0.208
-296.720	-200.000	0.042	-0.330
-295.705	562.417	-0.095	-0.228
-294.691	-40.757	-0.179	0.092
-293.676	339.512	-0.085	-0.165
-292.662	54.813	-0.169	0.163
-291.647	-200.000	0.052	0.296
-290.632	173.730	0.207	0.299
-289.618	800.000	-0.051	0.160
-288.603	-124.429	-0.166	0.026
-287.589	-149.692	0.039	-0.003
-286.574	66.106	-0.054	-0.055
-285.559	113.844	-0.042	-0.052
-284.545	29.989	-0.180	-0.154
-283.530	154.594	0.140	-0.192
-282.516	-65.855	-0.063	0.025
-281.501	156.077	-0.098	0.134
-280.486	28.991	0.107	-0.091
-279.472	-55.342	-0.087	0.039
-278.457	-66.100	0.071	-0.028
-277.443	66.183	-0.125	-0.127
-276.428	-0.210	0.466	-0.331
-275.413	-200.000	-0.001	0.072
-274.399	-17.172	0.476	0.300
-273.384	-137.806	-0.318	-0.036
-272.370	-125.368	0.388	-0.059
-271.355	764.692	0.092	0.250
-270.340	-67.829	-0.170	-0.066
-269.326	129.250	0.200	-0.255
-268.311	-85.580	0.111	-0.034
-267.297	17.983	-0.231	0.184
-266.282	299.961	-0.204	-0.375
-265.267	-200.000	-0.078	0.444
-264.253	10.738	0.167	0.127
-263.238	-200.000	-0.074	-0.432
-262.224	-77.350	-0.292	0.101
-261.209	-200.000	0.000	-0.140
-260.195	147.502	-0.135	-0.181
-259.180	317.522	0.095	0.179
-258.165	-200.000	-0.015	-0.078
-257.151	800.000	0.063	-0.223
-256.136	58.652	-0.189	0.185
-255.122	-147.203	0.291	-0.025
-254.107	-170.490	0.303	0.011
-253.092	-190.395	-0.262	0.003
-252.078	-179.228	0.087	-0.002
-251.063	-200.000	-0.021	-0.107
-250.049	800.000	-0.016	0.058
-249.034	537.208	-0.060	-0.143
-248.019	-96.893	0.129	-0.034
-247.005	800.000	0.147	0.454
-245.990	-200.000	-0.039	-0.212
-244.976	-95.390	-0.078	-0.021
-243.961	-86.735	0.219	-0.067
-242.946	-200.000	-0.034	0.213
-241.932	161.002	0.230	0.321
-240.917	590.295	0.136	-0.334
-239.903	62.318	-0.178	-0.177
-238.888	-45.819	0.334	-0.164
-237.873	-200.000	-0.014	-0.180
-236.859	-200.000	0.020	0.176
-235.844	-37.585	-0.083	0.044
-234.830	-5.812	-0.194	0.133
-233.815	232.520	0.136	-0.223
-232.800	402.413	-0.010	-0.022
-231.786	-200.000	-0.002	0.395
-230.771	-200.000	0.019	0.203
-229.757	37.136	-0.277	0.244
-228.742	800.000	0.099	-0.282
-227.727	120.595	0.053	0.066
-226.713	-83.450	0.246	0.078
-225.698	-95.564	-0.214	-0.057
-224.684	-58.192	-0.178	0.077
-223.669	-147.060	0.285	-0.024
-222.655	-150.533	0.185	0.014
-221.640	54.425	0.094	-0.090
-220.625	503.145	-0.044	0.102
-219.611	91.284	-0.314	-0.351
-218.596	-112.165	0.252	-0.050
-217.582	54.008	0.017	0.016
-216.567	-200.000	0.008	0.051
-215.552	-200.000	0.087	0.402
-214.538	148.647	-0.162	0.218
-213.523	15.644	0.177	-0.139
-212.509	627.391	0.173	0.434
-211.494	205.351	0.151	-0.233
-210.479	-200.000	0.003	-0.026
-209.465	172.564	-0.188	-0.269
-208.450	-64.850	0.171	-0.069
-207.436	416.941	0.114	-0.243
-206.421	45.434	0.194	0.178
-205.406	19.202	0.184	-0.147
-204.392	-77.287	-0.353	-0.122
-203.377	-2.268	0.181	-0.126
-202.363	497.280	-0.068	0.155
-201.348	83.709	-0.208	0.226
-200.333	772.696	0.031	0.084
-199.319	-7.229	0.194	-0.131
-198.304	272.162	0.089	-0.156
-197.290	161.156	-0.174	0.242
-196.275	-108.342	-0.390	-0.084
-195.260	69.927	0.192	0.197
-194.246	109.266	0.142	-0.170
-193.231	411.383	0.076	0.161
-192.217	-23.184	0.244	-0.146
-191.202	111.849	-0.085	-0.102
-190.187	652.199	0.108	-0.277
-189.173	115.738	-0.103	0.126
-188.158	-97.741	0.270	0.070
-187.144	-200.000	0.012	0.208
-186.129	-123.518	-0.302	0.048
-185.114	-4.675	-0.163	-0.112
-184.100	800.000	-0.059	-0.228
-183.085	-200.000	0.047	-0.460
-182.071	800.000	-0.091	-0.355
-181.056	-29.571	0.212	-0.121
-180.042	-130.716	0.382	0.051
-179.027	-84.441	0.296	0.093
-178.012	78.820	-0.073	-0.077
-176.998	301.720	-0.142	0.261
-175.983	13.304	0.057	0.044
-174.969	800.000	-0.077	-0.261
-173.954	-136.335	-0.057	-0.007
-172.939	103.942	-0.057	0.067
-171.925	401.197	-0.091	0.190
-170.910	-12.563	-0.174	0.113
-169.896	-200.000	0.017	0.295
-168.881	-200.000	-0.016	-0.100
-167.866	157.578	0.131	-0.181
-166.852	-148.560	0.267	-0.022
-165.837	-53.111	0.128	-0.058
-164.823	13.833	-0.124	-0.096
-163.808	-167.881	0.565	-0.022
-162.793	467.017	-0.089	0.199
-161.779	800.000	-0.035	0.145
-160.764	164.675	0.096	-0.135
-159.750	-200.000	-0.021	-0.167
-158.735	647.760	0.072	0.183
-157.720	-200.000	0.011	0.126
-156.706	-86.070	0.262	0.081
-155.691	181.189	0.143	-0.209
-154.677	713.401	0.073	0.192
-153.662	-200.000	-0.005	-0.132
-152.647	-82.264	-0.215	0.070
-151.633	294.932	0.109	0.198
-150.618	214.099	-0.082	0.129
-149.604	78.404	0.138	0.147
-148.589	95.106	0.102	-0.116
-147.574	489.455	-0.165	-0.375
-146.560	4.060	-0.152	0.110
-145.545	800.000	0.079	0.264
-144.531	-200.000	0.002	-0.030
-143.516	-53.530	0.157	-0.071
-142.502	286.411	-0.074	0.133
-141.487	160.606	-0.073	-0.101
-140.472	90.549	0.120	-0.133
-139.458	285.767	-0.073	-0.131
-138.443	-17.484	0.307	-0.192
-137.429	-8.607	0.172	-0.115
-136.414	766.022	-0.039	0.105
-135.399	508.719	-0.220	-0.508
-134.385	-34.915	-0.161	0.087
-133.370	-24.030	0.314	-0.186
-132.356	335.574	0.062	0.120
-131.341	-109.700	-0.152	-0.032
-130.326	-101.617	0.381	-0.092
-129.312	53.609	-0.200	0.191
-128.297	185.022	-0.006	-0.009
-127.283	-74.013	-0.052	0.019
-126.268	-36.329	-0.238	-0.127
-125.253	152.698	-0.080	0.109
-124.239	748.740	-0.100	-0.268
-123.224	-159.520	0.301	-0.017
-122.210	160.840	-0.123	-0.170
-121.195	-53.156	-0.124	0.056
