DTS Sentinel unit serial number:	SN413079Multiplexer serial number:	ORYXHardware model number:	OX4-SRSoftware version number:	ORYX F/W v4.00 Oryx Data Collector v3.7.2.0data status	okinstallation	princeton_trtdifferential loss correction	single-endedforward channel	channel 3reverse channel	N/Adate	2019/09/15time	17:36:35forward acquisition time	60.00reverse acquisition time	0.00gamma	496.2192k internal	0.2286k external	0.2286temperature offset calibration	0.9930default loss term (dB/km)	0.3790temperature slope calibration	1.0000multiplexer offset coefficient	1.0000multiplexer slope coefficient	1.0000fibre end	0.00T internal ref (°C)	44.87T ext. ref 1 (°C)	6.21T ext. ref 2 (°C)	40.28length (m)	temperature (°C)	Stokes	anti-Stokes-747.200	130.624	-0.077	0.101
-746.185	-102.149	-0.166	-0.041
-745.171	-200.000	0.007	0.144
-744.156	-99.402	0.206	0.053
-743.142	-145.749	-0.224	-0.021
-742.127	25.182	-0.040	0.034
-741.112	-150.508	-0.068	0.005
-740.098	34.534	0.177	0.159
-739.083	800.000	-0.034	0.118
-738.069	179.439	-0.266	0.400
-737.054	87.869	0.158	-0.180
-736.039	0.395	-0.104	-0.076
-735.025	16.523	0.285	-0.231
-734.010	163.971	0.201	-0.291
-732.996	-65.459	0.219	-0.090
-731.981	-31.080	-0.229	-0.132
-730.966	-122.758	0.179	-0.030
-729.952	221.111	-0.147	-0.243
-728.937	-104.241	-0.228	0.054
-727.923	44.836	0.064	0.060
-726.908	-11.952	-0.300	-0.202
-725.894	-104.026	-0.216	0.052
-724.879	-200.000	-0.006	-0.112
-723.864	0.209	-0.199	-0.145
-722.850	-115.152	0.319	-0.062
-721.835	-71.139	0.256	0.099
-720.821	219.120	0.174	-0.286
-719.806	-200.000	-0.002	0.044
-718.791	391.752	-0.127	0.270
-717.777	-54.395	0.301	-0.140
-716.762	-123.868	0.202	0.033
-715.748	-28.361	0.178	0.105
-714.733	-200.000	-0.006	0.330
-713.718	160.957	0.120	-0.171
-712.704	341.585	-0.072	0.144
-711.689	-104.989	-0.287	0.067
-710.675	586.495	0.045	-0.113
-709.660	531.637	-0.085	-0.206
-708.645	23.116	0.157	-0.132
-707.631	-10.989	0.100	-0.067
-706.616	14.479	-0.192	0.153
-705.602	144.739	0.102	-0.140
-704.587	204.403	0.157	0.250
-703.572	800.000	0.087	-0.281
-702.558	35.091	-0.181	0.163
-701.543	-27.137	-0.106	0.063
-700.529	-100.810	0.062	0.016
-699.514	-52.695	-0.148	0.070
-698.499	93.038	-0.084	-0.097
-697.485	12.776	-0.175	-0.139
-696.470	-127.073	0.127	0.019
-695.456	152.454	0.151	-0.212
-694.441	-92.072	0.101	-0.029
-693.426	-200.000	-0.003	0.023
-692.412	-200.000	0.003	-0.323
-691.397	800.000	-0.052	0.218
-690.383	-42.972	-0.386	-0.201
-689.368	361.922	-0.176	0.361
-688.354	-24.971	-0.127	-0.077
-687.339	-10.319	0.181	0.123
-686.324	-140.333	-0.195	-0.021
-685.310	16.913	-0.173	-0.140
-684.295	308.951	-0.067	-0.128
-683.281	-61.593	0.180	0.077
-682.266	542.445	0.052	-0.127
-681.251	-20.401	-0.330	0.208
-680.237	194.152	0.183	-0.284
-679.222	225.334	-0.284	-0.471
-678.208	15.363	-0.209	-0.168
-677.193	-53.837	-0.106	0.049
-676.178	-48.091	0.115	0.057
-675.164	-200.000	-0.032	-0.166
-674.149	-10.488	0.104	0.071
-673.135	-200.000	-0.003	-0.157
-672.120	-200.000	0.055	0.280
-671.105	57.676	0.105	-0.105
-670.091	-174.549	-0.519	-0.015
-669.076	-18.673	-0.235	0.150
-668.062	-83.697	0.255	0.083
-667.047	-200.000	0.100	0.000
-666.032	-200.000	-0.038	-0.375
-665.018	630.334	0.060	-0.156
-664.003	-26.811	0.276	0.165
-662.989	298.636	0.077	-0.145
-661.974	-124.045	-0.321	-0.052
-660.959	-200.000	0.043	-0.204
-659.945	178.195	-0.279	0.416
-658.930	-102.828	-0.080	0.019
-657.916	-116.043	-0.287	0.055
-656.901	171.459	-0.105	0.154
-655.886	125.112	0.157	0.202
-654.872	58.190	0.029	0.029
-653.857	103.005	0.100	-0.120
-652.843	-102.249	-0.158	-0.039
-651.828	143.821	0.083	-0.113
-650.814	-45.331	-0.436	0.221
-649.799	-141.119	0.092	-0.010
-648.784	300.929	-0.093	-0.175
-647.770	-35.540	-0.253	-0.140
-646.755	321.886	0.041	-0.081
-645.741	-51.394	-0.102	0.049
-644.726	-146.181	0.067	0.006
-643.711	210.630	0.147	-0.236
-642.697	-47.514	0.126	-0.062
-641.682	15.009	0.112	-0.090
-640.668	632.534	-0.120	-0.311
-639.653	292.251	0.089	0.165
-638.638	185.670	0.089	-0.135
-637.624	-49.004	-0.225	0.110
-636.609	-37.484	-0.258	0.141
-635.595	800.000	0.116	0.351
-634.580	800.000	0.021	0.093
-633.565	800.000	0.065	-0.183
-632.551	-200.000	-0.044	-0.272
-631.536	-110.675	0.095	0.020
-630.522	-200.000	0.011	-0.319
-629.507	93.852	0.202	0.233
-628.492	387.689	0.051	-0.108
-627.478	-19.886	-0.343	-0.217
-626.463	116.014	0.114	-0.143
-625.449	800.000	-0.060	-0.205
-624.434	372.621	0.057	0.117
-623.419	265.313	-0.070	-0.124
-622.405	-200.000	0.001	0.292
-621.390	-67.916	-0.052	0.021
-620.376	-200.000	0.052	0.312
-619.361	-53.179	-0.252	-0.118
-618.346	-57.431	0.224	-0.100
-617.332	-200.000	0.015	-0.103
-616.317	131.945	-0.095	-0.125
-615.303	338.589	-0.103	0.204
-614.288	171.929	-0.035	-0.051
-613.273	-33.391	0.095	-0.054
-612.259	-122.235	-0.351	-0.059
-611.244	-68.161	0.106	-0.042
-610.230	54.026	-0.221	0.217
-609.215	-62.213	0.141	-0.060
-608.201	158.043	0.245	-0.347
-607.186	-200.000	0.036	0.310
-606.171	330.727	0.142	0.279
-605.157	-147.871	-0.107	-0.009
-604.142	-200.000	0.019	-0.355
-603.128	-200.000	-0.060	-0.383
-602.113	-59.476	0.290	-0.127
-601.098	-184.532	0.211	0.003
-600.084	800.000	-0.033	0.116
-599.069	21.799	-0.109	0.091
-598.055	-28.697	-0.185	-0.109
-597.040	121.878	-0.139	-0.177
-596.025	800.000	-0.108	-0.345
-595.011	32.241	0.120	0.106
-593.996	126.217	0.192	-0.247
-592.982	443.428	0.153	0.341
-591.967	138.494	0.018	-0.025
-590.952	24.271	0.041	-0.035
-589.938	171.636	-0.070	-0.103
-588.923	181.395	0.119	0.179
-587.909	-61.578	0.110	-0.047
-586.894	-99.031	-0.496	-0.128
-585.879	-95.812	0.159	-0.043
-584.865	23.552	-0.149	0.125
-583.850	105.264	0.032	-0.038
-582.836	-107.346	-0.277	-0.062
-581.821	-200.000	-0.046	-0.423
-580.806	800.000	-0.136	-0.489
-579.792	179.542	0.103	0.153
-578.777	-188.603	0.352	-0.004
-577.763	227.149	-0.115	0.191
-576.748	-84.028	0.062	-0.020
-575.733	-75.993	-0.236	0.085
-574.719	-200.000	-0.030	-0.296
-573.704	-200.000	-0.037	0.230
-572.690	438.245	-0.143	-0.318
-571.675	-151.638	-0.055	0.004
-570.661	-79.791	0.178	-0.061
-569.646	47.389	0.173	0.164
-568.631	-24.052	0.228	-0.139
-567.617	644.437	0.137	-0.355
-566.602	-49.470	0.170	-0.083
-565.588	53.729	-0.034	0.033
-564.573	800.000	0.046	0.199
-563.558	-42.442	-0.187	0.097
-562.544	-172.724	0.253	0.008
-561.529	-83.611	0.391	0.127
-560.515	-87.565	0.359	0.111
-559.500	-200.000	-0.039	-0.237
-558.485	758.378	-0.069	0.191
-557.471	-117.429	-0.191	-0.035
-556.456	-69.617	-0.191	-0.075
-555.442	496.189	0.037	-0.086
-554.427	-100.421	0.104	0.026
-553.412	-200.000	0.002	0.154
-552.398	-200.000	0.040	0.232
-551.383	-200.000	-0.013	0.156
-550.369	-200.000	0.017	-0.081
-549.354	-94.627	0.210	0.058
-548.339	-200.000	-0.015	0.167
-547.325	73.998	-0.270	0.288
-546.310	9.998	-0.194	-0.150
-545.296	800.000	-0.088	0.308
-544.281	-95.453	0.195	-0.053
-543.266	-200.000	-0.030	0.265
-542.252	-200.000	0.014	0.306
-541.237	800.000	0.026	0.107
-540.223	-122.454	0.085	0.014
-539.208	-154.846	-0.137	-0.009
-538.193	-111.550	0.405	0.084
-537.179	800.000	-0.019	-0.068
-536.164	10.342	-0.278	0.215
-535.150	-200.000	-0.012	0.204
-534.135	55.421	0.135	-0.133
-533.121	-164.274	0.292	0.014
-532.106	-191.959	-0.292	-0.003
-531.091	-108.156	0.257	0.057
-530.077	-200.000	0.013	0.059
-529.062	256.733	-0.034	0.060
-528.048	320.118	-0.129	-0.250
-527.033	-39.715	-0.244	-0.130
-526.018	7.676	0.057	-0.043
-525.004	-200.000	0.004	-0.047
-523.989	-32.427	0.189	-0.107
-522.975	36.505	0.309	-0.278
-521.960	8.604	-0.095	0.073
-520.945	-200.000	0.005	-0.028
-519.931	-92.953	0.183	0.052
-518.916	86.253	0.124	-0.139
-517.902	-12.348	0.326	-0.217
-516.887	-87.575	-0.351	0.108
-515.872	-78.937	-0.120	-0.042
-514.858	60.853	-0.162	-0.163
-513.843	-67.029	0.117	0.047
-512.829	-200.000	0.006	-0.160
-511.814	-61.978	0.087	0.037
-510.799	-4.851	-0.080	0.056
-509.785	-120.830	0.242	0.042
-508.770	-55.692	-0.132	0.060
-507.756	620.524	0.044	-0.113
-506.741	-200.000	-0.002	0.095
-505.726	134.836	-0.108	-0.143
-504.712	800.000	-0.128	0.400
-503.697	156.672	-0.154	0.216
-502.683	572.005	-0.060	0.148
-501.668	-32.915	-0.117	0.066
-500.653	34.500	-0.164	0.145
-499.639	-9.223	0.029	0.020
-498.624	521.626	0.023	-0.054
-497.610	-200.000	0.024	-0.209
-496.595	29.573	-0.211	0.183
-495.581	0.181	0.089	0.065
-494.566	800.000	0.021	0.064
-493.551	238.473	0.110	-0.186
-492.537	800.000	0.073	0.225
-491.522	-200.000	0.002	-0.292
-490.508	25.042	0.220	-0.185
-489.493	230.303	0.079	-0.130
-488.478	207.082	-0.151	0.240
-487.464	434.684	-0.151	-0.332
-486.449	21.425	-0.077	-0.064
-485.435	321.198	0.047	-0.091
-484.420	-148.248	-0.080	0.007
-483.405	-200.000	0.018	-0.085
-482.391	286.996	-0.189	0.347
-481.376	-29.722	0.105	0.061
-480.362	79.059	-0.099	0.108
-479.347	-67.260	-0.410	-0.164
-478.332	-8.886	0.338	-0.230
-477.318	150.176	-0.190	-0.262
-476.303	-169.896	0.220	-0.008
-475.289	32.159	-0.228	0.200
-474.274	-0.675	-0.276	-0.199
-473.259	-200.000	0.043	-0.252
-472.245	-179.196	-0.436	0.010
-471.230	-135.195	0.176	0.022
-470.216	-200.000	0.007	-0.174
-469.201	-163.563	0.269	0.013
-468.186	-126.732	-0.091	0.014
-467.172	156.796	0.234	-0.329
-466.157	78.136	-0.302	-0.327
-465.143	-15.616	-0.237	-0.153
-464.128	363.620	-0.085	0.174
-463.113	-80.080	0.081	0.028
-462.099	40.972	0.189	0.173
-461.084	181.582	0.133	-0.199
-460.070	-113.046	0.513	0.103
-459.055	-50.893	-0.313	-0.149
-458.040	-121.489	-0.082	0.014
-457.026	-76.452	0.314	-0.112
-456.011	-200.000	0.025	-0.209
-454.997	21.339	-0.401	-0.331
-453.982	-26.988	0.135	0.080
-452.968	129.234	-0.193	0.250
-451.953	-7.846	0.304	-0.208
-450.938	628.709	-0.074	0.189
-449.924	97.908	0.209	-0.244
-448.909	457.587	-0.056	-0.125
-447.895	-200.000	-0.066	0.405
-446.880	-200.000	-0.023	0.218
-445.865	498.942	0.073	-0.171
-444.851	-200.000	0.010	0.270
-443.836	-200.000	0.009	-0.125
-442.822	800.000	-0.070	0.267
-441.807	-121.933	-0.225	0.038
-440.792	371.433	0.087	0.179
-439.778	-200.000	-0.005	0.200
-438.763	58.768	-0.139	0.138
-437.749	101.732	-0.084	0.099
-436.734	58.319	-0.166	0.165
-435.719	66.412	0.156	-0.160
-434.705	-120.119	0.373	0.065
-433.690	-64.148	0.211	0.087
-432.676	460.187	0.248	0.559
-431.661	38.895	0.097	0.088
-430.646	565.768	0.023	-0.057
-429.632	89.197	-0.363	-0.410
-428.617	-129.505	-0.086	0.012
-427.603	82.735	-0.113	-0.124
-426.588	-33.797	0.112	0.063
-425.573	-14.697	0.226	-0.147
-424.559	-200.000	-0.023	0.278
-423.544	-158.118	0.332	-0.020
-422.530	10.666	-0.045	0.035
-421.515	-200.000	-0.025	0.255
-420.500	23.820	0.091	0.076
-419.486	-46.523	0.248	-0.123
-418.471	115.573	-0.076	-0.095
-417.457	-30.880	0.202	0.116
-416.442	-200.000	0.026	0.139
-415.428	800.000	0.020	0.060
-414.413	-188.188	-0.190	0.002
-413.398	25.758	-0.027	-0.023
-412.384	8.011	0.097	-0.074
-411.369	-61.108	-0.050	0.022
-410.355	800.000	-0.178	-0.534
-409.340	13.990	-0.171	0.135
-408.325	-17.871	0.256	-0.163
-407.311	-200.000	-0.017	0.080
-406.296	-200.000	-0.002	0.179
-405.282	-143.548	-0.381	0.037
-404.267	71.439	0.209	0.220
-403.252	-200.000	0.037	0.273
-402.238	48.994	-0.131	0.124
-401.223	138.608	-0.183	0.243
-400.209	14.315	0.166	0.131
-399.194	-62.472	-0.182	-0.077
-398.179	65.153	-0.385	-0.394
-397.165	-200.000	-0.027	-0.373
-396.150	163.950	0.194	0.276
-395.136	154.907	-0.345	-0.480
-394.121	41.471	0.254	0.233
-393.106	-48.126	0.145	-0.071
-392.092	-13.781	-0.188	-0.123
-391.077	51.162	-0.041	0.039
-390.063	158.409	-0.082	-0.115
-389.048	311.926	-0.017	-0.033
-388.033	-180.160	0.336	-0.007
-387.019	11.143	-0.101	-0.078
-386.004	-92.263	0.312	0.089
-384.990	-47.976	-0.186	-0.091
-383.975	-25.336	-0.118	-0.071
-382.960	-176.638	-0.149	0.004
-381.946	-125.550	0.121	0.019
-380.931	116.132	0.068	0.084
-379.917	-200.000	-0.021	-0.185
-378.902	19.329	-0.135	-0.110
-377.888	-168.629	-0.029	0.001
-376.873	269.941	-0.193	0.344
-375.858	-6.877	0.140	-0.096
-374.844	265.830	0.122	0.216
-373.829	-200.000	-0.002	0.168
-372.815	-113.082	-0.085	-0.017
-371.800	9.821	-0.080	-0.062
-370.785	420.365	-0.113	-0.244
-369.771	-78.601	0.143	0.049
-368.756	-135.501	0.245	-0.030
-367.742	-140.203	0.137	-0.015
-366.727	-200.000	-0.020	0.153
-365.712	800.000	0.052	-0.170
-364.698	-136.590	-0.231	0.027
-363.683	153.171	0.013	0.018
-362.669	787.124	-0.119	0.331
-361.654	-126.310	0.456	0.069
-360.639	159.427	-0.119	0.167
-359.625	-78.981	-0.227	0.078
-358.610	551.020	-0.084	-0.204
-357.596	48.886	-0.350	-0.332
-356.581	-150.785	0.131	-0.010
-355.566	-48.295	0.085	0.042
-354.552	800.000	-0.046	-0.180
-353.537	121.448	-0.159	-0.200
-352.523	265.658	0.229	0.404
-351.508	415.067	0.109	0.235
-350.493	-96.982	0.021	0.006
-349.479	688.823	-0.101	0.268
-348.464	11.491	-0.140	0.108
-347.450	-122.202	-0.117	0.019
-346.435	-107.383	0.341	-0.076
-345.420	-12.688	-0.179	0.118
-344.406	91.329	-0.371	-0.421
-343.391	-102.768	-0.260	0.063
-342.377	-59.419	0.119	-0.052
-341.362	800.000	-0.093	0.279
-340.348	-118.452	0.050	-0.009
-339.333	227.823	0.070	0.115
-338.318	-67.840	-0.110	-0.044
-337.304	-36.116	0.085	-0.046
-336.289	41.084	-0.048	-0.044
-335.275	13.397	0.277	0.217
-334.260	255.825	0.045	-0.079
-333.245	-200.000	-0.000	-0.293
-332.231	-40.241	0.175	0.092
-331.216	-138.405	-0.338	0.038
-330.202	800.000	0.159	-0.444
-329.187	-200.000	-0.027	0.225
-328.172	-64.687	0.100	0.041
-327.158	-10.322	-0.173	-0.116
-326.143	-163.806	0.124	-0.006
-325.129	252.030	0.143	-0.246
-324.114	-81.291	0.357	0.119
-323.099	233.889	-0.136	0.225
-322.085	120.103	0.080	-0.100
-321.070	800.000	-0.022	-0.063
-320.056	-90.345	0.055	-0.016
-319.041	-200.000	-0.049	0.274
-318.026	-200.000	-0.056	0.334
-317.012	163.162	-0.039	0.055
-315.997	-73.707	0.181	0.066
-314.983	-181.837	0.491	-0.009
-313.968	411.839	0.158	0.338
-312.953	237.608	-0.173	0.289
-311.939	-200.000	-0.057	-0.290
-310.924	745.070	-0.066	0.180
-309.910	-200.000	0.013	-0.520
-308.895	800.000	0.050	-0.170
-307.880	-14.647	-0.217	-0.141
-306.866	-90.170	-0.338	0.099
-305.851	-136.523	0.306	0.036
-304.837	30.297	-0.273	0.235
-303.822	-114.322	-0.332	0.064
-302.807	-9.580	0.147	-0.099
-301.793	800.000	-0.062	-0.240
-300.778	-200.000	0.011	0.155
-299.764	-200.000	-0.007	0.032
-298.749	-52.015	-0.051	-0.024
-297.735	32.175	0.092	-0.080
-296.720	5.119	0.210	-0.156
-295.705	483.371	0.082	-0.189
-294.691	-21.521	0.232	-0.143
-293.676	3.804	0.130	0.096
-292.662	-91.015	-0.182	0.053
-291.647	-200.000	0.023	-0.109
-290.632	-86.518	-0.198	-0.061
-289.618	-200.000	0.035	0.532
-288.603	-11.073	-0.189	0.126
-287.589	-150.305	-0.225	0.017
-286.574	184.819	-0.033	-0.049
-285.559	-147.883	-0.063	0.005
-284.545	-37.120	-0.190	-0.103
-283.530	-90.794	0.228	0.066
-282.516	-46.974	0.053	0.026
-281.501	-35.537	0.023	-0.012
-280.486	120.798	-0.038	0.047
-279.472	800.000	0.070	0.260
-278.457	-103.756	0.323	-0.076
-277.443	47.657	-0.157	-0.148
-276.428	32.572	0.228	-0.198
-275.413	229.380	-0.112	0.183
-274.399	611.270	0.070	-0.175
-273.384	316.611	-0.151	-0.288
-272.370	-86.044	0.112	0.035
-271.355	800.000	0.008	0.025
-270.340	-17.096	-0.240	-0.152
-269.326	259.134	0.075	0.130
-268.311	233.924	-0.147	-0.244
-267.297	-20.872	-0.102	0.063
-266.282	122.477	0.118	-0.148
-265.267	435.938	-0.045	0.098
-264.253	-42.453	-0.107	-0.055
-263.238	-18.023	0.092	-0.058
-262.224	-78.345	-0.166	-0.057
-261.209	-12.968	-0.079	0.052
-260.195	-68.882	0.116	-0.045
-259.180	23.212	-0.272	0.225
-258.165	-200.000	0.033	0.300
-257.151	645.454	0.066	0.171
-256.136	800.000	-0.006	0.028
-255.122	-133.294	-0.127	-0.016
-254.107	-102.223	0.445	0.108
-253.092	-141.533	-0.433	0.044
-252.078	800.000	0.063	-0.191
-251.063	-200.000	-0.026	0.204
-250.049	-97.001	0.113	0.030
-249.034	52.101	0.131	-0.126
-248.019	800.000	0.075	-0.256
-247.005	24.570	0.118	-0.098
-245.990	-101.635	-0.330	-0.081
-244.976	800.000	-0.027	-0.104
-243.961	-4.864	0.127	0.088
-242.946	675.134	0.147	0.385
-241.932	17.371	-0.404	0.323
-240.917	-115.172	0.056	-0.011
-239.903	-22.831	-0.215	-0.131
-238.888	51.995	-0.291	0.279
-237.873	-88.482	0.084	-0.025
-236.859	609.177	-0.042	-0.106
-235.844	-6.174	0.071	0.049
-234.830	-141.301	0.393	-0.040
-233.815	-77.761	0.076	-0.027
-232.800	-166.043	0.277	0.012
-231.786	-75.621	0.088	-0.031
-230.771	-28.451	0.185	0.107
-229.757	55.223	0.221	0.215
-228.742	-25.213	0.137	-0.081
-227.727	78.131	0.164	0.176
-226.713	-116.195	-0.244	0.046
-225.698	-200.000	0.018	0.188
-224.684	477.647	0.051	0.116
-223.669	800.000	-0.053	-0.156
-222.655	-77.849	-0.330	0.115
-221.640	-200.000	0.000	0.147
-220.625	-180.339	-0.110	0.002
-219.611	-171.907	-0.181	0.006
-218.596	-79.599	0.307	-0.104
-217.582	-1.106	0.072	0.051
-216.567	24.788	-0.075	-0.062
-215.552	-4.982	-0.051	0.035
-214.538	-67.356	-0.139	-0.055
-213.523	-120.082	-0.378	-0.065
-212.509	-133.970	0.302	-0.038
-211.494	-15.330	-0.372	-0.239
-210.479	15.214	0.228	0.180
-209.465	-57.404	0.215	0.095
-208.450	594.612	0.129	0.320
-207.436	800.000	-0.096	0.285
-206.421	533.614	-0.029	0.068
-205.406	-200.000	-0.012	0.104
-204.392	44.641	0.354	-0.327
-203.377	-42.940	0.439	-0.224
-202.363	-84.118	0.411	0.131
-201.348	800.000	-0.067	-0.195
-200.333	14.035	0.127	-0.100
-199.319	-48.071	-0.125	-0.061
-198.304	9.810	-0.297	0.226
-197.290	-18.263	-0.101	-0.063
-196.275	19.840	-0.212	-0.172
-195.260	-200.000	-0.022	0.410
-194.246	-42.912	-0.279	-0.142
-193.231	-200.000	-0.043	0.220
-192.217	218.302	-0.092	0.148
-191.202	-108.176	-0.374	-0.081
-190.187	800.000	0.059	-0.198
-189.173	-200.000	0.043	0.202
-188.158	208.217	-0.133	-0.209
-187.144	-200.000	0.013	0.085
-186.129	70.269	-0.080	-0.083
-185.114	-25.616	-0.064	-0.038
-184.100	-80.062	0.049	-0.016
-183.085	-200.000	0.028	0.254
-182.071	-66.443	-0.132	0.053
-181.056	15.326	0.229	-0.180
-180.042	194.370	-0.084	0.128
-179.027	800.000	0.068	-0.213
-178.012	800.000	-0.070	-0.226
-176.998	-70.439	0.302	0.115
-175.983	800.000	-0.030	0.103
-174.969	595.932	-0.126	-0.313
-173.954	-177.732	0.196	0.005
-172.939	92.738	-0.065	0.073
-171.925	-69.442	0.350	0.135
-170.910	800.000	0.020	0.085
-169.896	800.000	-0.004	0.013
-168.881	181.498	-0.193	-0.285
-167.866	25.263	-0.200	-0.167
-166.852	800.000	0.034	0.103
-165.837	-57.012	0.138	-0.061
-164.823	-124.933	-0.257	0.040
-163.808	-30.491	-0.088	0.050
-162.793	-118.361	-0.117	-0.021
-161.779	-112.433	0.319	-0.064
-160.764	61.147	0.214	0.213
-159.750	-15.641	0.095	0.061
-158.735	-88.236	-0.287	0.086
-157.720	99.679	-0.190	-0.221
-156.706	-74.623	-0.144	-0.052
-155.691	223.099	0.135	0.218
-154.677	45.467	0.092	-0.085
-153.662	-90.123	-0.132	0.039
-152.647	-39.983	0.156	0.081
-151.633	-41.234	0.097	-0.050
-150.618	800.000	0.070	-0.200
-149.604	800.000	0.046	-0.137
-148.589	431.030	-0.068	0.147
-147.574	-66.612	0.092	-0.037
-146.560	27.985	-0.224	0.190
-145.545	490.804	-0.120	-0.275
-144.531	61.788	-0.224	-0.223
-143.516	-169.436	0.180	-0.007
-142.502	-3.346	0.139	-0.097
-141.487	215.383	0.124	-0.197
-140.472	-81.045	-0.128	-0.042
-139.458	-200.000	0.019	-0.212
-138.443	-108.279	-0.105	-0.023
-137.429	32.415	-0.170	-0.147
-136.414	-59.754	0.165	0.071
-135.399	-47.662	-0.142	0.069
-134.385	-16.590	-0.223	0.141
-133.370	-5.374	-0.222	-0.152
-132.356	44.832	0.182	-0.168
-131.341	800.000	-0.074	0.288
-130.326	-33.926	0.207	-0.114
-129.312	-106.973	0.383	0.085
-128.297	-200.000	0.025	-0.287
-127.283	800.000	0.030	0.122
-126.268	690.402	0.085	-0.223
-125.253	-108.027	-0.214	0.047
-124.239	-164.632	-0.204	-0.009
-123.224	-85.313	0.115	-0.036
-122.210	-191.232	0.079	-0.001
-121.195	177.426	0.310	0.452
