DTS Sentinel unit serial number:	SN413079Multiplexer serial number:	ORYXHardware model number:	OX4-SRSoftware version number:	ORYX F/W v4.00 Oryx Data Collector v3.7.2.0data status	okinstallation	princeton_trtdifferential loss correction	single-endedforward channel	channel 3reverse channel	N/Adate	2019/09/18time	08:32:35forward acquisition time	60.00reverse acquisition time	0.00gamma	496.2192k internal	0.2341k external	0.2341temperature offset calibration	0.9950default loss term (dB/km)	0.3790temperature slope calibration	1.0000multiplexer offset coefficient	1.0000multiplexer slope coefficient	1.0000fibre end	0.00T internal ref (°C)	24.37T ext. ref 1 (°C)	0.22T ext. ref 2 (°C)	20.10length (m)	temperature (°C)	Stokes	anti-Stokes-747.200	-200.000	0.012	-0.267
-746.185	-126.524	-0.371	0.055
-745.171	33.701	0.387	0.337
-744.156	-200.000	-0.019	0.181
-743.142	-150.751	-0.171	-0.013
-742.127	-100.148	-0.395	-0.098
-741.112	-170.294	-0.112	-0.004
-740.098	135.365	-0.191	0.249
-739.083	-109.809	0.175	0.037
-738.069	-9.796	-0.243	-0.162
-737.054	9.668	0.188	-0.143
-736.039	800.000	-0.077	-0.228
-735.025	-55.376	0.286	0.129
-734.010	453.640	-0.045	-0.099
-732.996	-16.753	0.149	-0.095
-731.981	-129.074	-0.180	-0.025
-730.966	220.156	-0.136	-0.219
-729.952	-137.078	-0.310	-0.036
-728.937	-130.385	-0.167	-0.023
-727.923	151.649	0.195	-0.266
-726.908	-24.820	0.102	-0.060
-725.894	800.000	-0.083	-0.263
-724.879	101.215	-0.229	-0.267
-723.864	800.000	0.033	0.097
-722.850	-81.211	0.061	-0.020
-721.835	25.140	-0.241	-0.200
-720.821	800.000	0.066	-0.193
-719.806	-148.384	0.037	0.003
-718.791	-96.271	-0.351	0.093
-717.777	62.183	-0.050	0.050
-716.762	-200.000	-0.005	-0.036
-715.748	550.070	-0.055	0.132
-714.733	433.314	-0.122	-0.266
-713.718	53.654	-0.081	0.078
-712.704	329.017	-0.145	-0.279
-711.689	37.185	0.032	-0.029
-710.675	-193.145	-0.357	0.003
-709.660	87.048	-0.092	-0.101
-708.645	800.000	0.080	-0.288
-707.631	-130.410	-0.204	-0.028
-706.616	214.925	0.074	-0.117
-705.602	469.956	0.018	0.041
-704.587	-107.880	-0.362	0.079
-703.572	-156.309	0.231	0.014
-702.558	-200.000	0.039	0.210
-701.543	-191.452	-0.096	0.001
-700.529	226.350	-0.095	0.154
-699.514	800.000	0.077	0.214
-698.499	-159.352	0.202	0.011
-697.485	-106.587	-0.188	0.042
-696.470	-55.490	-0.097	-0.044
-695.456	-34.092	-0.315	0.173
-694.441	-200.000	0.011	-0.305
-693.426	-119.269	0.257	-0.045
-692.412	23.986	0.150	0.124
-691.397	-153.172	0.213	0.015
-690.383	8.233	-0.367	-0.276
-689.368	800.000	0.001	0.002
-688.354	-170.716	0.204	0.007
-687.339	-136.341	-0.277	0.032
-686.324	-116.060	-0.323	0.060
-685.310	187.506	0.144	0.215
-684.295	15.003	0.185	-0.145
-683.281	290.437	-0.084	-0.153
-682.266	-30.561	0.225	-0.128
-681.251	-200.000	0.052	-0.229
-680.237	-200.000	0.014	-0.200
-679.222	53.377	-0.244	0.234
-678.208	739.998	-0.151	0.404
-677.193	-106.132	-0.277	0.062
-676.178	-141.119	-0.301	0.031
-675.164	-41.480	0.283	-0.146
-674.149	800.000	0.096	-0.414
-673.135	-189.893	-0.111	-0.001
-672.120	-200.000	0.014	0.157
-671.105	-166.203	0.072	0.003
-670.091	-136.678	-0.240	-0.028
-669.076	-72.466	-0.164	-0.060
-668.062	218.750	0.095	-0.152
-667.047	-44.040	-0.154	0.078
-666.032	355.832	-0.087	-0.173
-665.018	-71.951	0.111	-0.041
-664.003	226.375	0.169	-0.275
-662.989	-25.061	0.115	0.068
-661.974	96.896	-0.224	-0.257
-660.959	-71.297	-0.113	-0.042
-659.945	-70.923	0.278	0.105
-658.930	2.354	0.380	-0.275
-657.916	108.650	0.093	-0.111
-656.901	-84.009	-0.265	-0.084
-655.886	-200.000	-0.002	-0.042
-654.872	509.082	0.102	0.237
-653.857	15.572	0.260	-0.204
-652.843	-98.894	0.121	0.031
-651.828	526.482	0.027	0.065
-650.814	-130.579	-0.313	0.042
-649.799	34.561	-0.188	-0.164
-648.784	-87.829	-0.163	0.049
-647.770	-200.000	-0.010	0.201
-646.755	167.718	0.102	0.144
-645.741	126.040	-0.151	-0.191
-644.726	277.168	0.049	-0.088
-643.711	301.852	0.281	-0.519
-642.697	800.000	-0.095	-0.283
-641.682	-109.836	-0.081	-0.017
-640.668	51.975	0.342	-0.325
-639.653	435.533	-0.177	-0.384
-638.638	-57.916	0.171	0.074
-637.624	-172.363	-0.338	0.011
-636.609	800.000	0.074	0.208
-635.595	-40.222	-0.195	-0.101
-634.580	-200.000	-0.016	0.105
-633.565	95.334	-0.075	-0.086
-632.551	0.525	-0.125	-0.090
-631.536	-106.513	-0.068	0.015
-630.522	-79.279	-0.188	-0.064
-629.507	-3.706	0.106	-0.073
-628.492	-49.448	-0.048	0.023
-627.478	-126.828	-0.106	0.016
-626.463	-200.000	0.012	0.229
-625.449	74.092	-0.166	-0.174
-624.434	128.287	0.121	0.153
-623.419	-200.000	0.035	0.277
-622.405	-24.176	-0.450	-0.268
-621.390	93.731	0.240	0.271
-620.376	37.620	0.173	0.153
-619.361	-38.466	-0.278	-0.147
-618.346	800.000	-0.038	-0.144
-617.332	-149.426	0.172	-0.014
-616.317	124.080	0.275	-0.344
-615.303	333.561	-0.163	0.315
-614.288	-65.894	-0.083	-0.033
-613.273	30.895	-0.069	0.059
-612.259	-71.103	-0.393	-0.147
-611.244	-41.320	-0.235	0.121
-610.230	-74.679	-0.205	0.074
-609.215	-200.000	-0.006	0.212
-608.201	800.000	0.088	-0.267
-607.186	800.000	-0.055	0.164
-606.171	8.796	-0.096	-0.072
-605.157	-108.305	-0.113	0.024
-604.142	189.680	-0.147	-0.220
-603.128	94.559	0.199	-0.226
-602.113	-200.000	-0.005	-0.466
-601.098	800.000	0.058	-0.244
-600.084	-74.733	-0.172	-0.062
-599.069	800.000	-0.074	-0.218
-598.055	-200.000	0.004	-0.207
-597.040	31.939	0.148	-0.127
-596.025	14.574	-0.252	0.197
-595.011	-112.882	-0.079	-0.016
-593.996	-84.213	0.159	0.050
-592.982	77.391	-0.263	0.279
-591.967	156.825	-0.277	-0.382
-590.952	182.171	-0.025	-0.036
-589.938	556.606	0.068	-0.162
-588.923	177.944	0.106	-0.153
-587.909	-153.054	0.109	-0.008
-586.894	570.171	0.117	0.283
-585.879	1.167	-0.120	-0.086
-584.865	461.510	-0.081	0.181
-583.850	120.886	0.274	-0.340
-582.836	24.839	0.400	0.330
-581.821	-200.000	-0.001	0.020
-580.806	407.838	0.103	-0.217
-579.792	-200.000	-0.026	-0.166
-578.777	575.590	-0.062	0.151
-577.763	-200.000	0.041	0.285
-576.748	688.566	0.028	0.073
-575.733	-102.065	-0.428	0.103
-574.719	122.422	0.105	0.131
-573.704	-12.114	0.210	-0.137
-572.690	-200.000	-0.015	0.076
-571.675	-94.336	0.252	0.068
-570.661	-55.977	0.132	-0.059
-569.646	120.424	0.076	0.094
-568.631	-149.767	0.147	-0.012
-567.617	69.501	0.157	0.161
-566.602	-94.582	0.155	-0.042
-565.588	-200.000	-0.035	-0.179
-564.573	301.182	-0.092	0.169
-563.558	-200.000	0.008	0.367
-562.544	8.656	0.251	-0.189
-561.529	-128.297	0.086	0.012
-560.515	508.741	-0.063	0.145
-559.500	110.757	0.045	-0.054
-558.485	197.999	0.038	0.057
-557.471	-20.344	-0.174	-0.106
-556.456	144.387	0.173	-0.230
-555.442	125.206	0.148	0.186
-554.427	28.674	0.190	0.160
-553.412	-21.740	-0.483	0.293
-552.398	-127.866	0.255	0.037
-551.383	365.373	0.015	0.031
-550.369	-80.365	-0.133	0.044
-549.354	800.000	0.109	0.432
-548.339	150.304	-0.211	-0.285
-547.325	-133.991	0.110	0.014
-546.310	-151.798	-0.436	0.032
-545.296	268.949	-0.111	-0.193
-544.281	800.000	0.011	0.040
-543.266	800.000	0.007	-0.026
-542.252	-61.025	0.247	0.104
-541.237	61.186	-0.161	0.159
-540.223	105.874	-0.085	-0.101
-539.208	-139.992	0.138	0.014
-538.193	-66.837	0.031	0.012
-537.179	-136.577	0.304	0.035
-536.164	-200.000	-0.003	-0.030
-535.150	-200.000	0.046	-0.211
-534.135	-3.819	0.217	-0.149
-533.121	-83.498	-0.125	0.040
-532.106	-69.670	0.133	-0.051
-531.091	-152.871	-0.176	-0.012
-530.077	-124.992	-0.266	-0.041
-529.062	-200.000	0.054	-0.271
-528.048	570.776	-0.049	0.119
-527.033	-116.477	-0.129	0.024
-526.018	-200.000	-0.083	-0.559
-525.004	-143.236	-0.074	0.007
-523.989	-92.652	-0.081	0.023
-522.975	100.730	-0.037	-0.043
-521.960	-109.744	-0.143	-0.030
-520.945	21.597	0.145	-0.118
-519.931	-104.936	0.217	-0.049
-518.916	78.144	-0.293	0.310
-517.902	-93.105	-0.066	-0.018
-516.887	661.096	-0.111	0.284
-515.872	-45.066	0.293	-0.145
-514.858	-9.391	0.343	0.228
-513.843	110.231	-0.187	-0.224
-512.829	800.000	-0.038	0.130
-511.814	-159.555	-0.198	-0.011
-510.799	800.000	-0.101	-0.280
-509.785	-109.670	-0.510	-0.107
-508.770	-55.028	-0.241	0.108
-507.756	101.871	-0.104	0.121
-506.741	-88.177	-0.237	0.070
-505.726	683.688	-0.119	-0.307
-504.712	-9.759	-0.381	-0.252
-503.697	-125.225	0.237	0.036
-502.683	-200.000	0.019	-0.160
-501.668	8.766	-0.164	-0.123
-500.653	-156.779	0.275	-0.017
-499.639	229.152	0.259	0.419
-498.624	-104.736	0.100	0.023
-497.610	291.924	-0.050	-0.090
-496.595	-66.443	-0.446	0.176
-495.581	68.686	-0.133	-0.136
-494.566	-85.119	-0.064	0.020
-493.551	459.903	0.086	0.191
-492.537	88.055	-0.021	-0.024
-491.522	-14.236	0.107	0.068
-490.508	-200.000	0.035	0.166
-489.493	-131.653	0.103	0.013
-488.478	-111.275	0.226	-0.046
-487.464	-105.842	-0.257	0.058
-486.449	-200.000	0.081	0.451
-485.435	239.957	0.101	0.167
-484.420	-151.706	-0.200	0.015
-483.405	21.623	-0.270	0.218
-482.391	17.992	0.323	0.255
-481.376	-40.088	0.419	-0.217
-480.362	671.441	-0.034	-0.087
-479.347	156.067	0.143	0.195
-478.332	233.943	0.160	-0.262
-477.318	-99.412	0.151	-0.038
-476.303	-54.022	-0.353	0.159
-475.289	800.000	-0.092	0.279
-474.274	-58.239	-0.309	-0.133
-473.259	319.008	-0.095	-0.179
-472.245	275.979	-0.057	0.101
-471.230	-142.710	0.254	-0.025
-470.216	173.164	0.248	0.354
-469.201	-37.174	-0.259	0.138
-468.186	-200.000	-0.007	0.113
-467.172	420.831	0.169	0.358
-466.157	108.049	-0.114	-0.134
-465.143	-87.735	-0.361	0.108
-464.128	-200.000	0.047	0.205
-463.113	657.205	0.062	0.159
-462.099	-200.000	0.026	0.195
-461.084	-125.511	0.252	0.038
-460.070	-116.769	0.300	0.055
-459.055	-78.254	0.195	0.066
-458.040	-38.716	-0.190	-0.099
-457.026	-200.000	-0.018	-0.107
-456.011	-12.257	-0.078	0.051
-454.997	800.000	-0.118	-0.345
-453.982	136.984	0.327	0.424
-452.968	800.000	0.058	-0.167
-451.953	88.822	0.060	-0.066
-450.938	30.124	0.316	-0.267
-449.924	119.867	0.297	-0.365
-448.909	-200.000	0.051	0.324
-447.895	-116.632	0.205	0.037
-446.880	-200.000	0.043	-0.433
-445.865	-1.619	-0.226	-0.158
-444.851	147.195	0.019	0.025
-443.836	43.057	0.067	-0.061
-442.822	-200.000	-0.005	0.179
-441.807	-54.559	-0.136	0.061
-440.792	-25.702	-0.370	-0.216
-439.778	-200.000	0.305	0.001
-438.763	6.656	-0.351	-0.259
-437.749	800.000	0.155	-0.522
-436.734	769.274	0.101	0.273
-435.719	-103.594	-0.109	0.025
-434.705	-38.693	-0.078	0.041
-433.690	-4.152	0.231	0.158
-432.676	-200.000	-0.013	-0.157
-431.661	-74.908	-0.117	-0.042
-430.646	-200.000	0.041	-0.461
-429.632	-200.000	0.022	-0.103
-428.617	-25.652	0.161	-0.094
-427.603	755.460	0.103	0.277
-426.588	-66.010	0.168	-0.067
-425.573	-98.370	0.078	-0.020
-424.559	751.340	-0.166	0.444
-423.544	717.712	0.068	-0.178
-422.530	-66.636	-0.239	-0.094
-421.515	-177.632	0.219	0.005
-420.500	-140.405	-0.224	-0.023
-419.486	-118.430	-0.270	0.047
-418.471	-71.225	-0.092	0.034
-417.457	-104.005	-0.191	0.044
-416.442	800.000	0.061	0.218
-415.428	800.000	-0.060	-0.182
-414.413	-200.000	0.039	0.242
-413.398	529.522	0.067	0.156
-412.384	0.133	-0.139	-0.098
-411.369	800.000	0.125	0.437
-410.355	-92.900	0.229	-0.063
-409.340	-200.000	0.028	-0.165
-408.325	800.000	0.042	0.119
-407.311	-155.250	0.399	-0.026
-406.296	-98.363	0.388	0.098
-405.282	229.360	-0.038	0.061
-404.267	-17.814	0.357	-0.222
-403.252	21.599	0.058	0.047
-402.238	293.119	0.176	0.317
-401.223	-91.310	-0.280	-0.079
-400.209	46.224	0.294	0.269
-399.194	163.556	0.153	0.213
-398.179	453.478	0.172	-0.376
-397.165	98.883	-0.071	0.081
-396.150	136.548	-0.208	0.269
-395.136	82.438	0.188	0.201
-394.121	280.416	0.101	-0.179
-393.106	-58.063	-0.231	-0.100
-392.092	-159.596	0.075	-0.004
-391.077	-103.709	0.192	-0.045
-390.063	800.000	-0.036	0.134
-389.048	71.206	-0.156	-0.160
-388.033	-170.036	-0.192	-0.007
-387.019	-84.874	0.497	0.154
-386.004	320.292	0.023	-0.044
-384.990	293.908	0.154	-0.277
-383.975	63.559	0.400	0.397
-382.960	-200.000	-0.011	-0.413
-381.946	-20.855	-0.371	-0.225
-380.931	-156.037	-0.295	0.018
-379.917	-200.000	-0.007	-0.128
-378.902	-119.827	0.138	-0.024
-377.888	127.729	0.095	0.119
-376.873	-41.814	-0.250	-0.127
-375.858	633.483	-0.154	0.386
-374.844	14.722	-0.168	-0.130
-373.829	800.000	0.040	-0.129
-372.815	-200.000	-0.107	-0.565
-371.800	151.446	0.250	-0.336
-370.785	-200.000	0.034	0.211
-369.771	800.000	-0.036	-0.121
-368.756	-64.458	-0.247	0.099
-367.742	-148.658	0.405	0.033
-366.727	-116.331	0.339	0.062
-365.712	475.543	0.092	-0.206
-364.698	28.468	-0.059	-0.049
-363.683	595.425	-0.227	0.555
-362.669	16.952	0.204	0.160
-361.654	-200.000	-0.003	-0.344
-360.639	-37.770	0.020	0.011
-359.625	513.710	0.039	-0.091
-358.610	-27.690	-0.100	0.057
-357.596	-102.122	-0.246	0.058
-356.581	-105.821	-0.194	0.043
-355.566	66.941	-0.235	-0.236
-354.552	-101.738	0.163	-0.039
-353.537	-35.612	-0.172	-0.092
-352.523	-21.092	-0.086	-0.052
-351.508	-63.744	-0.027	0.011
-350.493	-87.260	-0.061	-0.018
-349.479	401.138	-0.039	-0.080
-348.464	-102.356	0.318	-0.075
-347.450	100.527	-0.213	-0.244
-346.435	-200.000	-0.007	0.355
-345.420	199.092	0.057	-0.086
-344.406	436.046	0.090	0.193
-343.391	28.267	-0.141	0.118
-342.377	-160.881	-0.147	0.008
-341.362	84.214	-0.124	0.134
-340.348	-200.000	-0.001	0.285
-339.333	338.353	-0.054	-0.105
-338.318	-105.863	0.216	0.048
-337.304	374.937	0.067	-0.134
-336.289	-200.000	0.019	0.213
-335.275	309.645	0.085	-0.158
-334.260	242.619	-0.074	0.122
-333.245	-73.805	-0.227	-0.081
-332.231	-51.513	0.238	-0.109
-331.216	-200.000	-0.003	-0.393
-330.202	569.313	0.123	0.295
-329.187	-200.000	-0.064	0.599
-328.172	-200.000	0.018	0.097
-327.158	-48.763	0.405	-0.192
-326.143	-123.422	0.056	0.009
-325.129	-94.155	0.141	-0.038
-324.114	286.162	0.119	0.212
-323.099	-200.000	0.018	0.167
-322.085	374.091	-0.143	-0.287
-321.070	-135.459	-0.190	0.022
-320.056	-200.000	0.027	0.149
-319.041	-163.772	-0.264	0.012
-318.026	-136.558	0.501	0.057
-317.012	-10.589	-0.076	0.050
-315.997	-24.796	0.052	-0.030
-314.983	35.989	-0.220	0.191
-313.968	-75.805	-0.076	0.027
-312.953	-200.000	0.003	-0.051
-311.939	286.710	-0.179	-0.319
-310.924	-145.696	-0.341	0.030
-309.910	308.863	-0.125	-0.230
-308.895	-45.977	0.118	0.057
-307.880	237.450	0.052	0.085
-306.866	-200.000	-0.035	0.176
-305.851	112.154	0.104	0.124
-304.837	-97.227	0.257	-0.066
-303.822	-200.000	-0.077	-0.465
-302.807	-200.000	-0.008	0.047
-301.793	-70.220	0.142	0.053
-300.778	800.000	0.076	-0.307
-299.764	69.600	0.074	-0.075
-298.749	-89.025	0.129	-0.038
-297.735	-5.260	0.103	0.070
-296.720	-79.428	-0.247	-0.082
-295.705	-140.714	0.142	-0.014
-294.691	103.500	0.050	0.058
-293.676	3.770	0.016	0.011
-292.662	-129.495	-0.163	-0.022
-291.647	64.950	-0.039	-0.039
-290.632	-44.691	-0.281	-0.138
-289.618	-22.924	0.147	0.087
-288.603	94.949	-0.095	0.107
-287.589	101.644	0.053	-0.060
-286.574	58.272	-0.101	0.097
-285.559	-49.524	0.220	0.103
-284.545	157.994	0.090	-0.122
-283.530	-11.503	0.169	-0.109
-282.516	136.627	-0.142	0.182
-281.501	-44.815	-0.139	-0.068
-280.486	-58.661	0.286	0.122
-279.472	13.892	-0.181	-0.139
-278.457	214.605	-0.095	0.148
-277.443	207.742	0.168	0.258
-276.428	53.200	0.193	0.182
-275.413	-200.000	0.004	0.025
-274.399	-200.000	-0.007	-0.055
-273.384	-13.356	-0.152	-0.097
-272.370	-87.816	0.480	0.142
-271.355	-76.341	-0.455	-0.157
-270.340	-22.365	0.174	0.104
-269.326	800.000	0.160	-0.435
-268.311	570.637	-0.150	-0.358
-267.297	209.491	-0.061	0.094
-266.282	111.537	0.225	-0.267
-265.267	-200.000	-0.006	-0.063
-264.253	800.000	-0.038	-0.143
-263.238	791.977	0.037	-0.100
-262.224	-184.556	-0.181	0.003
-261.209	175.769	0.199	0.284
-260.195	-189.831	-0.221	-0.002
-259.180	-192.531	-0.285	0.003
-258.165	-200.000	0.034	-0.166
-257.151	87.549	-0.115	0.125
-256.136	-6.530	-0.208	-0.139
-255.122	-8.581	-0.240	-0.158
-254.107	341.688	-0.083	0.160
-253.092	-25.965	-0.082	0.048
-252.078	-55.266	0.325	-0.143
-251.063	-163.711	0.252	-0.012
-250.049	325.280	0.054	0.102
-249.034	-200.000	-0.018	0.138
-248.019	661.795	0.123	0.312
-247.005	-114.176	-0.123	-0.023
-245.990	-68.188	-0.113	0.043
-244.976	-58.984	0.390	0.166
-243.961	238.233	-0.078	0.127
-242.946	-200.000	-0.029	-0.248
-241.932	800.000	-0.082	0.255
-240.917	-74.572	0.307	0.109
-239.903	-200.000	0.033	0.692
-238.888	-200.000	-0.005	0.229
-237.873	-200.000	0.030	0.317
-236.859	92.657	-0.032	-0.036
-235.844	468.151	-0.056	0.124
-234.830	-89.071	0.200	-0.058
-233.815	-89.339	-0.124	0.036
-232.800	-99.403	-0.340	0.084
-231.786	7.348	0.138	0.101
-230.771	229.692	-0.221	-0.355
-229.757	800.000	-0.077	-0.215
-228.742	51.446	0.108	-0.101
-227.727	60.927	0.101	-0.099
-226.713	-200.000	0.007	-0.145
-225.698	411.405	0.099	0.206
-224.684	138.549	0.048	0.062
-223.669	-107.415	0.172	0.037
-222.655	-162.463	-0.334	-0.016
-221.640	252.272	0.087	0.145
-220.625	-181.538	-0.292	0.006
-219.611	-106.218	0.142	0.031
-218.596	-200.000	0.013	0.137
-217.582	697.453	0.162	0.418
-216.567	175.416	0.112	-0.160
-215.552	-87.409	-0.292	0.087
-214.538	-57.801	0.183	0.079
-213.523	390.898	0.121	-0.246
-212.509	42.919	0.012	0.011
-211.494	-77.785	0.109	0.037
-210.479	451.136	0.128	0.277
-209.465	27.143	-0.297	0.245
-208.450	800.000	-0.059	0.175
-207.436	60.635	-0.417	-0.406
-206.421	376.384	0.105	-0.211
-205.406	-119.915	-0.247	0.042
-204.392	-96.367	0.388	0.101
-203.377	-200.000	-0.007	-0.203
-202.363	-118.428	-0.218	-0.038
-201.348	7.743	-0.251	-0.184
-200.333	-48.805	-0.150	-0.071
-199.319	-200.000	0.049	0.225
-198.304	800.000	-0.066	0.268
-197.290	-105.396	0.160	-0.036
-196.275	800.000	0.031	0.121
-195.260	-139.406	0.135	-0.014
-194.246	-18.105	-0.195	-0.120
-193.231	310.498	-0.104	-0.191
-192.217	-200.000	0.037	-0.606
-191.202	-200.000	-0.081	-0.384
-190.187	-200.000	-0.007	-0.161
-189.173	99.978	0.134	0.152
-188.158	-98.261	-0.060	-0.015
-187.144	-8.230	-0.046	-0.031
-186.129	210.211	0.149	0.229
-185.114	-111.508	-0.574	-0.114
-184.100	174.936	0.328	0.465
-183.085	-167.691	-0.276	0.011
-182.071	-117.000	0.353	-0.063
-181.056	-200.000	0.058	0.422
-180.042	800.000	-0.125	0.339
-179.027	164.105	0.154	0.212
-178.012	-69.858	-0.144	-0.054
-176.998	-189.922	0.022	-0.000
-175.983	-62.195	0.181	-0.074
-174.969	-44.738	0.184	-0.090
-173.954	266.645	0.075	0.129
-172.939	-175.159	0.363	0.010
-171.925	614.824	-0.092	-0.227
-170.910	191.100	-0.216	-0.318
-169.896	578.929	-0.131	-0.314
-168.881	-63.186	-0.029	0.012
-167.866	32.219	-0.275	0.233
-166.852	-94.770	0.113	-0.030
-165.837	-94.608	-0.115	0.031
-164.823	800.000	-0.095	-0.371
-163.808	800.000	0.067	0.217
-162.793	-97.491	0.411	0.105
-161.779	-125.133	0.212	0.032
-160.764	800.000	0.129	-0.404
-159.750	800.000	-0.112	-0.401
-158.735	-200.000	-0.020	0.177
-157.720	-122.468	-0.273	-0.044
-156.706	-119.422	0.507	0.086
-155.691	-159.831	-0.269	0.014
-154.677	-160.685	0.309	0.016
-153.662	19.448	-0.284	-0.224
-152.647	0.738	0.131	0.092
-151.633	454.307	-0.178	0.385
-150.618	29.299	-0.081	-0.068
-149.604	-200.000	0.018	0.088
-148.589	75.680	-0.071	0.073
-147.574	186.024	0.142	0.207
-146.560	-200.000	-0.039	-0.249
-145.545	177.775	-0.058	-0.083
-144.531	43.815	-0.074	-0.066
-143.516	266.703	0.193	0.331
-142.502	-126.448	0.072	0.010
-141.487	104.759	0.193	0.223
-140.472	-17.047	0.095	-0.058
-139.458	494.962	-0.105	-0.236
-138.443	-16.559	-0.227	0.141
-137.429	-200.000	0.000	-0.180
-136.414	-14.525	-0.293	0.184
-135.399	-17.405	-0.031	0.019
-134.385	-23.681	-0.197	0.115
-133.370	55.507	0.126	0.119
-132.356	-37.365	-0.280	0.146
-131.341	-18.530	-0.289	-0.176
-130.326	-200.000	0.008	0.051
-129.312	-68.225	-0.335	0.128
-128.297	-22.107	0.148	0.088
-127.283	26.418	-0.343	-0.280
-126.268	-12.391	0.109	-0.070
-125.253	292.964	0.081	0.144
-124.239	-63.004	-0.112	0.045
-123.224	-96.207	0.268	-0.069
-122.210	97.442	0.163	-0.183
