DTS Sentinel unit serial number:	SN413079Multiplexer serial number:	ORYXHardware model number:	OX4-SRSoftware version number:	ORYX F/W v4.00 Oryx Data Collector v3.7.2.0data status	okinstallation	princeton_trtdifferential loss correction	single-endedforward channel	channel 3reverse channel	N/Adate	2019/09/17time	23:52:35forward acquisition time	60.00reverse acquisition time	0.00gamma	496.2192k internal	0.2344k external	0.2344temperature offset calibration	0.9955default loss term (dB/km)	0.3790temperature slope calibration	1.0000multiplexer offset coefficient	1.0000multiplexer slope coefficient	1.0000fibre end	0.00T internal ref (°C)	23.94T ext. ref 1 (°C)	0.17T ext. ref 2 (°C)	17.30length (m)	temperature (°C)	Stokes	anti-Stokes-747.200	-95.218	-0.112	0.030
-746.185	110.945	0.069	0.083
-745.171	-98.663	-0.173	0.044
-744.156	-27.466	-0.107	0.062
-743.142	-200.000	-0.033	0.228
-742.127	-200.000	0.027	0.412
-741.112	-200.000	-0.037	0.298
-740.098	744.694	-0.100	0.270
-739.083	500.169	0.157	0.363
-738.069	-2.880	-0.348	0.243
-737.054	-200.000	-0.003	0.037
-736.039	179.490	-0.199	0.291
-735.025	112.600	0.086	-0.104
-734.010	-107.180	-0.089	0.020
-732.996	800.000	0.044	0.140
-731.981	39.506	-0.220	0.197
-730.966	800.000	0.045	0.154
-729.952	-200.000	-0.007	-0.259
-728.937	-149.495	0.104	0.008
-727.923	185.271	0.073	0.109
-726.908	-200.000	0.074	-0.426
-725.894	643.358	-0.045	0.114
-724.879	-46.369	0.185	0.091
-723.864	800.000	-0.059	0.173
-722.850	-148.734	-0.155	-0.013
-721.835	80.921	0.082	0.089
-720.821	-28.263	-0.103	0.060
-719.806	192.018	-0.173	-0.260
-718.791	-69.172	-0.236	0.091
-717.777	-147.531	-0.266	-0.022
-716.762	-132.204	-0.229	-0.030
-715.748	-31.863	0.151	0.084
-714.733	93.033	-0.173	0.196
-713.718	-104.952	0.149	-0.034
-712.704	174.153	-0.155	-0.224
-711.689	27.309	0.098	-0.082
-710.675	164.849	0.085	0.119
-709.660	199.299	-0.171	-0.262
-708.645	172.957	-0.245	-0.352
-707.631	-159.782	0.282	0.016
-706.616	57.891	-0.098	0.096
-705.602	-200.000	0.040	0.408
-704.587	-48.964	0.379	-0.181
-703.572	147.732	0.072	-0.098
-702.558	-82.183	-0.310	0.101
-701.543	46.690	0.048	0.044
-700.529	112.339	-0.177	0.214
-699.514	-78.355	-0.220	0.075
-698.499	250.550	0.054	-0.091
-697.485	110.495	0.193	-0.232
-696.470	-200.000	0.008	-0.087
-695.456	165.957	-0.146	-0.206
-694.441	377.693	0.072	-0.147
-693.426	337.138	-0.108	-0.210
-692.412	-200.000	-0.001	-0.330
-691.397	-78.444	0.129	-0.044
-690.383	-200.000	0.025	-0.150
-689.368	173.715	0.106	-0.153
-688.354	800.000	0.050	0.192
-687.339	140.590	0.028	0.037
-686.324	-24.009	-0.299	-0.178
-685.310	-18.278	-0.210	-0.131
-684.295	52.518	-0.147	-0.140
-683.281	-196.891	-0.311	0.002
-682.266	27.434	-0.128	-0.107
-681.251	71.897	0.057	0.060
-680.237	47.731	0.060	-0.056
-679.222	-200.000	-0.001	0.236
-678.208	-200.000	0.016	-0.073
-677.193	-102.886	-0.183	-0.043
-676.178	604.796	0.108	0.268
-675.164	-136.273	-0.224	-0.026
-674.149	-68.656	-0.442	-0.171
-673.135	336.525	-0.114	0.221
-672.120	106.653	0.103	0.122
-671.105	-25.652	0.096	-0.056
-670.091	-55.721	0.342	0.152
-669.076	-200.000	-0.005	0.024
-668.062	-179.113	-0.217	-0.005
-667.047	-16.826	0.203	-0.128
-666.032	-200.000	0.021	-0.098
-665.018	163.091	-0.154	-0.216
-664.003	-200.000	0.010	-0.183
-662.989	96.595	-0.141	-0.161
-661.974	22.067	0.156	-0.127
-660.959	-38.558	0.133	-0.070
-659.945	231.344	0.122	-0.199
-658.930	0.238	-0.220	-0.157
-657.916	-146.155	0.173	0.015
-656.901	-82.271	-0.180	-0.058
-655.886	409.593	0.137	0.289
-654.872	-71.687	0.253	-0.094
-653.857	54.308	0.186	0.178
-652.843	-0.669	0.133	0.094
-651.828	-200.000	-0.044	-0.313
-650.814	45.568	-0.059	0.055
-649.799	-35.523	0.144	0.078
-648.784	379.670	-0.066	0.135
-647.770	2.503	0.244	-0.176
-646.755	-200.000	0.026	-0.154
-645.741	-64.766	-0.402	-0.162
-644.726	142.365	-0.098	0.130
-643.711	-200.000	0.007	-0.114
-642.697	-200.000	0.015	0.153
-641.682	-35.308	0.150	-0.081
-640.668	-100.407	0.366	-0.091
-639.653	-200.000	-0.001	-0.272
-638.638	-28.515	0.250	0.144
-637.624	-90.128	-0.073	0.021
-636.609	-73.071	-0.044	0.016
-635.595	2.303	0.052	-0.037
-634.580	-82.370	0.164	-0.053
-633.565	-54.090	0.036	-0.016
-632.551	54.480	-0.095	0.091
-631.536	-200.000	0.070	0.503
-630.522	-51.871	0.170	-0.079
-629.507	477.461	-0.092	-0.207
-628.492	42.113	-0.114	0.103
-627.478	45.842	-0.269	0.248
-626.463	220.391	-0.119	-0.190
-625.449	154.240	0.291	-0.398
-624.434	94.723	0.248	-0.281
-623.419	-66.677	-0.128	0.051
-622.405	626.444	-0.138	0.346
-621.390	-200.000	-0.048	-0.313
-620.376	-88.018	-0.048	0.014
-619.361	59.105	0.148	0.145
-618.346	-200.000	-0.009	-0.229
-617.332	18.098	0.124	-0.099
-616.317	-111.623	0.036	0.007
-615.303	355.232	0.083	-0.165
-614.288	-200.000	0.027	0.319
-613.273	-27.055	0.098	0.057
-612.259	-200.000	-0.176	-0.001
-611.244	417.990	-0.159	-0.338
-610.230	800.000	0.060	-0.207
-609.215	-200.000	0.013	-0.142
-608.201	-91.696	0.053	-0.015
-607.186	42.439	0.059	-0.053
-606.171	-78.238	0.315	-0.108
-605.157	-67.239	-0.192	0.075
-604.142	211.244	0.099	0.155
-603.128	800.000	0.020	0.059
-602.113	143.515	0.071	0.094
-601.098	-35.727	0.074	0.040
-600.084	-63.662	-0.378	-0.154
-599.069	2.178	-0.206	-0.148
-598.055	800.000	0.079	0.227
-597.040	-31.456	-0.345	-0.193
-596.025	-103.729	-0.253	0.059
-595.011	-67.091	0.038	-0.015
-593.996	-97.722	-0.156	-0.040
-592.982	61.505	-0.247	-0.244
-591.967	-102.034	-0.367	-0.088
-590.952	-116.821	-0.229	0.042
-589.938	-12.109	0.255	-0.166
-588.923	-57.385	-0.097	-0.043
-587.909	188.600	-0.177	0.264
-586.894	800.000	-0.046	0.130
-585.879	-200.000	0.012	-0.355
-584.865	-200.000	0.025	-0.231
-583.850	94.233	-0.127	0.143
-582.836	-200.000	-0.012	-0.324
-581.821	-84.871	0.059	-0.018
-580.806	35.855	0.080	0.070
-579.792	252.609	0.077	-0.130
-578.777	800.000	-0.108	0.448
-577.763	-6.311	-0.336	0.228
-576.748	37.749	-0.056	-0.049
-575.733	-200.000	0.005	-0.080
-574.719	-75.044	-0.167	0.059
-573.704	47.429	-0.054	-0.050
-572.690	-200.000	-0.073	-0.451
-571.675	-105.486	-0.245	-0.055
-570.661	-95.925	0.148	-0.039
-569.646	-50.976	0.281	-0.131
-568.631	-21.278	0.226	-0.137
-567.617	-36.409	-0.187	-0.100
-566.602	13.230	-0.197	-0.152
-565.588	128.365	-0.178	-0.225
-564.573	-38.140	-0.220	0.116
-563.558	-200.000	0.043	-0.596
-562.544	639.197	0.100	-0.254
-561.529	-200.000	0.002	-0.141
-560.515	25.300	0.093	0.077
-559.500	262.457	0.011	0.019
-558.485	-111.578	0.162	-0.033
-557.471	-54.093	0.271	0.122
-556.456	176.275	-0.090	-0.130
-555.442	-53.869	0.122	0.055
-554.427	800.000	-0.024	-0.068
-553.412	265.802	-0.207	-0.359
-552.398	-82.255	-0.210	-0.068
-551.383	-130.846	-0.306	-0.041
-550.369	-91.745	0.013	0.004
-549.354	800.000	-0.046	-0.180
-548.339	524.961	0.090	0.210
-547.325	-47.560	-0.221	-0.107
-546.310	-85.086	0.434	0.135
-545.296	800.000	-0.113	0.391
-544.281	735.331	-0.068	-0.181
-543.266	-84.443	0.219	0.069
-542.252	-150.597	0.470	0.036
-541.237	-142.102	-0.220	-0.022
-540.223	143.283	0.153	0.202
-539.208	-186.837	-0.093	0.001
-538.193	-77.730	0.182	0.062
-537.179	-152.208	0.203	-0.015
-536.164	-92.333	0.018	0.005
-535.150	36.870	0.385	0.337
-534.135	-47.419	-0.131	-0.063
-533.121	46.736	0.256	-0.236
-532.106	15.794	-0.107	-0.084
-531.091	-10.085	-0.312	0.205
-530.077	12.803	0.081	0.062
-529.062	30.783	0.075	0.064
-528.048	18.155	-0.331	0.262
-527.033	800.000	0.095	-0.312
-526.018	56.578	0.188	0.182
-525.004	319.773	-0.031	0.059
-523.989	223.202	-0.067	0.107
-522.975	34.982	-0.177	0.154
-521.960	46.840	0.071	-0.066
-520.945	-39.795	-0.177	0.092
-519.931	-46.205	-0.255	-0.125
-518.916	-13.274	-0.136	0.088
-517.902	383.613	0.021	0.043
-516.887	-38.807	-0.319	0.167
-515.872	800.000	0.109	-0.462
-514.858	-6.275	-0.079	-0.053
-513.843	349.674	0.047	0.093
-512.829	-200.000	-0.074	0.619
-511.814	800.000	-0.058	0.200
-510.799	15.875	0.160	0.125
-509.785	-113.498	-0.190	0.037
-508.770	74.779	-0.119	-0.124
-507.756	-24.616	-0.105	-0.062
-506.741	-74.141	-0.333	-0.119
-505.726	6.751	0.163	-0.120
-504.712	-0.332	-0.230	-0.162
-503.697	-125.509	-0.068	0.010
-502.683	-200.000	-0.001	-0.023
-501.668	628.298	0.094	-0.235
-500.653	-200.000	-0.015	0.481
-499.639	73.034	0.064	-0.066
-498.624	552.225	0.078	0.186
-497.610	-111.516	-0.124	0.025
-496.595	233.517	-0.069	0.113
-495.581	68.339	-0.138	0.140
-494.566	800.000	-0.021	-0.071
-493.551	-200.000	-0.034	0.221
-492.537	49.760	-0.075	0.070
-491.522	-45.047	0.308	0.152
-490.508	800.000	0.061	-0.212
-489.493	18.293	0.353	-0.279
-488.478	618.978	0.040	0.100
-487.464	-200.000	0.025	0.161
-486.449	-49.280	-0.013	0.006
-485.435	150.387	-0.230	0.310
-484.420	-169.867	0.101	-0.004
-483.405	-103.013	-0.405	0.095
-482.391	105.493	-0.190	-0.222
-481.376	-200.000	0.009	0.283
-480.362	-101.540	0.022	-0.005
-479.347	5.671	-0.145	-0.106
-478.332	-9.028	-0.186	-0.123
-477.318	-200.000	-0.061	-0.301
-476.303	800.000	0.005	-0.019
-475.289	-37.047	0.128	0.068
-474.274	-200.000	0.010	0.303
-473.259	-200.000	0.170	-0.001
-472.245	800.000	0.073	-0.251
-471.230	-187.190	0.168	0.002
-470.216	800.000	0.061	-0.213
-469.201	445.634	0.051	-0.111
-468.186	-168.454	0.226	0.009
-467.172	800.000	-0.083	-0.249
-466.157	113.791	0.053	-0.064
-465.143	29.840	0.286	0.241
-464.128	570.438	-0.088	-0.212
-463.113	-73.688	-0.227	-0.082
-462.099	-1.257	-0.256	-0.179
-461.084	-86.840	0.267	-0.081
-460.070	456.558	0.068	0.149
-459.055	-72.223	0.198	0.073
-458.040	-150.915	-0.079	0.006
-457.026	-195.451	0.088	0.001
-456.011	-24.864	0.024	0.014
-454.997	7.566	-0.187	-0.138
-453.982	-200.000	-0.019	-0.365
-452.968	800.000	0.049	0.150
-451.953	-61.267	0.084	0.035
-450.938	-112.816	-0.430	-0.084
-449.924	82.635	0.174	-0.187
-448.909	-200.000	-0.011	0.069
-447.895	524.559	0.086	-0.200
-446.880	-200.000	-0.016	0.148
-445.865	145.669	-0.043	0.057
-444.851	47.811	0.149	0.138
-443.836	800.000	-0.103	-0.324
-442.822	-159.894	-0.109	-0.006
-441.807	496.949	-0.054	0.123
-440.792	141.762	0.128	0.167
-439.778	488.512	0.010	0.023
-438.763	800.000	-0.087	-0.337
-437.749	-200.000	-0.023	0.171
-436.734	256.650	0.100	-0.170
-435.719	800.000	-0.016	-0.062
-434.705	-79.019	0.201	-0.068
-433.690	800.000	-0.028	0.094
-432.676	-200.000	-0.030	0.259
-431.661	-166.167	0.351	-0.015
-430.646	800.000	0.018	-0.056
-429.632	650.470	0.076	0.194
-428.617	-200.000	-0.007	0.287
-427.603	52.329	0.157	-0.148
-426.588	0.386	0.066	-0.047
-425.573	-200.000	0.032	-0.224
-424.559	150.889	0.016	0.021
-423.544	-118.034	-0.396	-0.070
-422.530	301.226	-0.104	-0.189
-421.515	138.655	0.142	0.185
-420.500	800.000	-0.061	0.204
-419.486	181.346	-0.113	0.164
-418.471	51.067	0.153	0.143
-417.457	800.000	0.076	0.262
-416.442	-40.357	0.179	-0.092
-415.428	-200.000	-0.007	0.070
-414.413	-200.000	0.070	0.464
-413.398	126.611	-0.242	0.303
-412.384	-131.035	0.140	0.018
-411.369	-26.494	-0.415	0.240
-410.355	-52.747	-0.172	0.078
-409.340	-1.712	-0.182	-0.126
-408.325	-200.000	-0.004	-0.237
-407.311	289.017	-0.051	0.091
-406.296	-200.000	0.012	-0.210
-405.282	40.115	0.102	-0.091
-404.267	800.000	-0.089	0.264
-403.252	105.807	0.141	-0.165
-402.238	-159.492	0.174	0.010
-401.223	-200.000	-0.004	-0.088
-400.209	-51.189	0.069	-0.032
-399.194	-122.724	0.114	-0.018
-398.179	-200.000	0.056	-0.328
-397.165	-69.832	-0.296	0.112
-396.150	-200.000	-0.068	-0.489
-395.136	-49.445	0.085	0.040
-394.121	-10.591	0.269	-0.176
-393.106	-25.043	0.122	0.071
-392.092	-141.373	0.106	0.011
-391.077	-9.438	-0.130	0.086
-390.063	-30.005	0.086	0.048
-389.048	-113.153	-0.112	-0.022
-388.033	381.999	-0.019	0.039
-387.019	-145.308	0.212	0.019
-386.004	-200.000	-0.046	0.222
-384.990	800.000	-0.069	-0.224
-383.975	-35.601	-0.345	0.185
-382.960	-5.907	-0.072	-0.049
-381.946	201.252	0.105	0.160
-380.931	-114.908	0.126	-0.024
-379.917	24.892	-0.084	0.069
-378.902	800.000	0.039	-0.127
-377.888	-200.000	0.010	-0.109
-376.873	395.346	0.110	0.227
-375.858	-57.051	0.288	0.125
-374.844	-97.959	0.087	-0.022
-373.829	292.598	-0.046	0.082
-372.815	-106.503	-0.217	-0.048
-371.800	800.000	-0.110	0.346
-370.785	-200.000	0.016	0.217
-369.771	-145.529	-0.053	-0.005
-368.756	-71.021	0.180	0.067
-367.742	432.540	0.130	-0.279
-366.727	-93.464	0.285	-0.078
-365.712	800.000	0.018	0.076
-364.698	800.000	0.021	-0.088
-363.683	-37.663	0.285	-0.150
-362.669	-130.077	-0.146	0.020
-361.654	-56.708	0.065	0.028
-360.639	264.452	-0.176	0.301
-359.625	-89.848	-0.195	0.056
-358.610	70.769	0.227	-0.232
-357.596	-158.959	-0.153	-0.009
-356.581	-92.634	0.360	-0.099
-355.566	-132.820	-0.109	0.014
-354.552	47.656	0.258	-0.237
-353.537	-162.286	-0.186	-0.009
-352.523	59.091	0.168	0.163
-351.508	-200.000	0.042	-0.204
-350.493	-69.193	-0.264	0.100
-349.479	227.281	0.077	0.124
-348.464	-200.000	0.000	-0.180
-347.450	743.117	-0.076	0.201
-346.435	103.810	0.169	-0.196
-345.420	-113.397	-0.104	-0.020
-344.406	607.710	0.070	0.172
-343.391	98.535	0.146	-0.165
-342.377	-200.000	-0.018	-0.146
-341.362	-200.000	-0.002	-0.098
-340.348	-5.469	0.074	-0.050
-339.333	-103.646	-0.083	-0.019
-338.318	-200.000	0.029	0.157
-337.304	-200.000	-0.015	0.374
-336.289	130.070	-0.071	0.090
-335.275	528.715	-0.139	0.323
-334.260	52.118	-0.041	-0.038
-333.245	-66.074	0.181	-0.071
-332.231	-100.423	0.253	0.062
-331.216	143.749	0.025	0.033
-330.202	186.802	0.110	0.162
-329.187	-59.669	-0.175	-0.074
-328.172	-130.115	-0.329	-0.044
-327.158	-17.828	-0.072	0.044
-326.143	103.659	0.130	0.150
-325.129	-161.638	-0.089	0.004
-324.114	-160.040	0.208	-0.011
-323.099	266.206	-0.110	0.189
-322.085	104.201	0.149	0.173
-321.070	-59.726	-0.069	0.029
-320.056	94.955	0.083	-0.093
-319.041	-19.906	0.181	0.110
-318.026	47.345	0.159	0.146
-317.012	-104.291	0.124	-0.028
-315.997	-200.000	0.043	-0.226
-314.983	-84.988	0.150	-0.046
-313.968	-200.000	0.012	0.092
-312.953	-62.151	-0.059	0.024
-311.939	55.325	-0.150	0.142
-310.924	532.115	-0.029	0.067
-309.910	141.150	-0.126	-0.164
-308.895	30.719	-0.236	-0.199
-307.880	-31.593	-0.204	0.113
-306.866	-200.000	0.028	-0.240
-305.851	-112.073	0.155	0.031
-304.837	-81.303	-0.100	0.033
-303.822	-31.625	0.057	0.032
-302.807	53.138	-0.277	0.261
-301.793	-200.000	-0.001	-0.266
-300.778	-200.000	-0.003	-0.464
-299.764	-149.202	0.283	-0.022
-298.749	89.416	-0.133	0.146
-297.735	-200.000	-0.007	-0.364
-296.720	-136.146	-0.271	-0.031
-295.705	364.636	-0.070	0.138
-294.691	171.817	0.119	-0.168
-293.676	-133.446	0.283	0.035
-292.662	800.000	0.037	-0.102
-291.647	-171.853	-0.265	-0.009
-290.632	66.292	-0.133	-0.133
-289.618	112.498	0.197	0.234
-288.603	-60.456	-0.049	-0.021
-287.589	-26.555	0.313	-0.181
-286.574	132.749	-0.141	-0.178
-285.559	-29.963	0.116	0.065
-284.545	209.809	0.108	-0.167
-283.530	-68.355	-0.224	0.086
-282.516	91.620	-0.276	0.305
-281.501	-200.000	0.019	-0.242
-280.486	-133.431	-0.068	-0.008
-279.472	-200.000	0.207	0.000
-278.457	16.616	0.099	-0.077
-277.443	-200.000	0.005	0.103
-276.428	-134.822	-0.074	0.009
-275.413	-200.000	-0.053	0.264
-274.399	-75.424	0.065	0.023
-273.384	-99.173	0.136	-0.034
-272.370	74.185	-0.224	-0.231
-271.355	-56.625	0.084	0.037
-270.340	-69.757	-0.170	0.064
-269.326	192.911	-0.068	0.101
-268.311	-90.762	0.163	0.046
-267.297	110.112	-0.103	0.121
-266.282	-4.911	0.061	0.042
-265.267	160.367	0.028	-0.038
-264.253	18.177	0.126	-0.099
-263.238	-114.113	0.274	0.052
-262.224	-90.546	-0.304	0.086
-261.209	9.796	-0.248	-0.185
-260.195	-48.851	0.183	0.086
-259.180	260.014	-0.246	-0.417
-258.165	-124.275	0.040	0.006
-257.151	-200.000	-0.108	-0.000
-256.136	-72.997	-0.163	0.059
-255.122	-34.243	0.225	-0.122
-254.107	11.877	-0.216	0.163
-253.092	283.650	-0.212	0.374
-252.078	-49.631	-0.272	0.127
-251.063	-200.000	-0.005	-0.308
-250.049	76.602	0.127	0.132
-249.034	54.441	0.230	0.217
-248.019	-185.019	0.141	-0.002
-247.005	800.000	0.014	0.047
-245.990	-89.336	-0.255	0.074
-244.976	-24.768	-0.178	0.104
-243.961	-88.389	0.224	0.066
-242.946	334.599	0.086	-0.163
-241.932	-49.017	-0.370	0.174
-240.917	-200.000	0.085	-0.419
-239.903	-153.000	0.278	-0.019
-238.888	-171.509	-0.153	0.005
-237.873	751.389	-0.080	-0.212
-236.859	106.252	0.211	-0.246
-235.844	800.000	0.050	0.172
-234.830	-200.000	-0.000	0.015
-233.815	-200.000	0.027	-0.172
-232.800	-200.000	-0.003	0.147
-231.786	239.755	-0.111	0.181
-230.771	-188.591	0.285	-0.003
-229.757	-68.196	-0.306	-0.117
-228.742	501.797	0.093	-0.211
-227.727	-200.000	0.064	-0.305
-226.713	37.901	-0.194	-0.169
-225.698	326.964	0.043	-0.080
-224.684	215.499	0.237	0.369
-223.669	-138.743	0.050	0.005
-222.655	149.723	0.049	-0.065
-221.640	-48.820	0.397	0.187
-220.625	-95.764	-0.209	0.055
-219.611	778.111	0.115	0.308
-218.596	-59.730	0.297	-0.125
-217.582	-77.654	-0.091	0.031
-216.567	162.991	-0.287	0.395
-215.552	800.000	-0.037	-0.112
-214.538	151.150	0.075	0.101
-213.523	-95.883	0.264	0.069
-212.509	35.239	0.214	-0.183
-211.494	800.000	0.003	-0.010
-210.479	149.068	-0.147	0.195
-209.465	16.176	-0.180	0.139
-208.450	-92.997	-0.244	0.067
-207.436	-67.321	0.214	0.083
-206.421	-200.000	0.029	0.250
-205.406	-200.000	-0.034	-0.456
-204.392	800.000	-0.096	-0.261
-203.377	123.541	0.227	-0.279
-202.363	63.683	0.029	0.029
-201.348	584.896	-0.054	0.131
-200.333	-200.000	0.024	-0.186
-199.319	-46.678	-0.238	-0.114
-198.304	-33.558	0.063	-0.034
-197.290	110.691	0.202	0.238
-196.275	-52.942	0.227	-0.102
-195.260	-28.756	0.315	-0.178
-194.246	-18.497	-0.234	-0.143
-193.231	800.000	0.065	0.226
-192.217	580.559	0.082	-0.196
-191.202	657.186	0.042	0.105
-190.187	-55.421	0.072	-0.032
-189.173	800.000	-0.047	0.138
-188.158	-112.524	-0.082	0.016
-187.144	238.516	0.098	-0.160
-186.129	-59.134	-0.305	0.129
-185.114	618.427	0.137	0.337
-184.100	-50.289	0.321	0.149
-183.085	-56.091	0.186	0.081
-182.071	131.004	0.185	0.233
-181.056	800.000	-0.047	-0.143
-180.042	-73.294	-0.413	-0.148
-179.027	-69.773	0.050	0.019
-178.012	220.043	0.135	-0.211
-176.998	-14.123	0.276	-0.174
-175.983	-106.058	0.284	0.063
-174.969	-70.943	-0.073	-0.027
-173.954	-200.000	0.012	0.310
-172.939	-102.652	-0.123	0.029
-171.925	800.000	0.141	0.518
-170.910	234.112	0.100	0.161
-169.896	-200.000	0.006	-0.118
-168.881	-152.251	0.167	-0.012
-167.866	26.055	-0.100	-0.082
-166.852	-96.395	-0.246	0.064
-165.837	59.833	0.133	-0.129
-164.823	359.570	0.037	-0.072
-163.808	-33.879	-0.214	-0.116
-162.793	-200.000	0.016	0.210
-161.779	-199.613	-0.285	0.001
-160.764	113.300	0.092	0.109
-159.750	25.915	0.052	0.042
-158.735	306.657	-0.170	0.309
-157.720	63.309	-0.258	0.253
-156.706	800.000	0.105	0.428
-155.691	10.512	-0.061	0.046
-154.677	-200.000	0.019	-0.152
-153.662	-200.000	0.008	-0.058
-152.647	-98.574	0.071	-0.018
-151.633	-200.000	0.016	0.176
-150.618	-200.000	-0.053	-0.266
-149.604	604.737	0.067	0.162
-148.589	441.439	-0.086	0.183
-147.574	-21.235	-0.337	0.202
-146.560	-146.653	-0.113	0.010
-145.545	276.104	-0.150	0.261
-144.531	-200.000	-0.015	-0.235
-143.516	-200.000	0.026	-0.162
-142.502	53.431	-0.191	0.179
-141.487	-200.000	-0.010	0.142
-140.472	-189.853	-0.116	-0.001
-139.458	-26.653	0.080	0.046
-138.443	148.531	0.143	0.188
-137.429	300.765	0.009	0.016
-136.414	106.111	-0.287	0.332
-135.399	88.211	0.206	0.224
-134.385	3.892	-0.211	-0.150
-133.370	82.024	0.181	0.191
-132.356	351.907	0.115	0.223
-131.341	-200.000	-0.062	0.298
-130.326	-200.000	-0.040	0.221
-129.312	-200.000	-0.018	0.172
-128.297	800.000	0.040	0.112
-127.283	-177.036	0.270	0.007
-126.268	-80.038	-0.300	-0.098
-125.253	79.723	0.250	-0.262
-124.239	-30.501	-0.123	-0.068
-123.224	-200.000	0.037	0.231
-122.210	214.500	0.063	0.098
-121.195	-139.343	-0.240	0.025
-120.180	-200.000	-0.017	-0.073
