DTS Sentinel unit serial number:	SN413079Multiplexer serial number:	ORYXHardware model number:	OX4-SRSoftware version number:	ORYX F/W v4.00 Oryx Data Collector v3.7.2.0data status	okinstallation	princeton_trtdifferential loss correction	single-endedforward channel	channel 3reverse channel	N/Adate	2019/09/13time	21:44:34forward acquisition time	60.00reverse acquisition time	0.00gamma	496.2192k internal	0.2334k external	0.2334temperature offset calibration	1.0056default loss term (dB/km)	0.3790temperature slope calibration	1.0000multiplexer offset coefficient	1.0000multiplexer slope coefficient	1.0000fibre end	0.00T internal ref (°C)	28.12T ext. ref 1 (°C)	3.09T ext. ref 2 (°C)	22.85length (m)	temperature (°C)	Stokes	anti-Stokes-747.200	94.907	-0.080	0.092
-746.185	93.958	-0.310	0.354
-745.171	-132.793	-0.068	-0.009
-744.156	392.043	0.246	0.514
-743.142	471.414	0.072	-0.164
-742.127	-152.348	0.117	0.008
-741.112	90.820	0.169	-0.190
-740.098	-53.473	-0.105	-0.049
-739.083	-80.791	0.179	0.060
-738.069	-45.286	-0.068	0.034
-737.054	-57.246	0.111	-0.049
-736.039	10.063	-0.179	-0.137
-735.025	25.446	0.437	0.365
-734.010	645.400	0.070	-0.179
-732.996	800.000	-0.085	-0.338
-731.981	24.237	-0.124	-0.103
-730.966	-136.310	-0.200	0.023
-729.952	-200.000	0.013	0.373
-728.937	-1.657	-0.233	-0.165
-727.923	365.206	-0.194	-0.392
-726.908	-20.006	-0.142	-0.088
-725.894	415.560	-0.108	-0.232
-724.879	86.528	-0.345	0.382
-723.864	-89.041	-0.265	0.079
-722.850	-102.871	0.128	0.031
-721.835	-143.943	0.453	0.043
-720.821	-200.000	0.007	-0.560
-719.806	20.027	-0.212	-0.172
-718.791	214.148	-0.033	-0.053
-717.777	800.000	0.035	0.115
-716.762	-200.000	-0.010	0.208
-715.748	-200.000	-0.028	0.172
-714.733	-10.678	0.143	-0.095
-713.718	48.028	-0.192	-0.180
-712.704	277.881	0.099	-0.177
-711.689	51.103	-0.220	0.210
-710.675	386.614	0.048	0.099
-709.660	-10.976	0.077	-0.051
-708.645	-108.305	0.067	-0.014
-707.631	800.000	-0.042	-0.158
-706.616	414.274	0.165	-0.352
-705.602	508.418	0.059	-0.138
-704.587	473.565	-0.089	-0.202
-703.572	800.000	-0.136	-0.569
-702.558	77.280	-0.180	0.193
-701.543	-200.000	0.000	0.097
-700.529	63.904	0.084	0.085
-699.514	33.045	-0.307	-0.267
-698.499	80.681	-0.136	-0.147
-697.485	340.588	0.113	0.221
-696.470	366.829	0.029	-0.059
-695.456	419.697	-0.079	-0.171
-694.441	800.000	0.053	0.174
-693.426	-148.095	-0.157	0.013
-692.412	23.990	0.228	0.189
-691.397	-131.877	0.278	0.036
-690.383	-200.000	0.017	-0.083
-689.368	-200.000	-0.051	-0.245
-688.354	179.697	-0.045	-0.066
-687.339	471.933	-0.054	-0.121
-686.324	22.265	0.104	-0.085
-685.310	-102.001	0.394	0.095
-684.295	-200.000	-0.041	-0.179
-683.281	-200.000	-0.010	0.053
-682.266	-101.040	0.467	-0.115
-681.251	568.498	-0.039	-0.095
-680.237	-198.549	-0.225	-0.001
-679.222	49.856	0.071	-0.067
-678.208	261.346	-0.072	0.126
-677.193	89.677	-0.188	-0.211
-676.178	800.000	0.034	-0.111
-675.164	-200.000	-0.089	-0.425
-674.149	-14.767	-0.147	0.094
-673.135	-6.417	-0.097	0.066
-672.120	-4.570	-0.138	0.096
-671.105	5.552	0.145	0.107
-670.091	800.000	0.060	0.177
-669.076	12.532	-0.160	0.124
-668.062	-29.202	0.184	-0.106
-667.047	-63.313	0.184	0.076
-666.032	48.448	0.137	-0.129
-665.018	186.463	0.173	-0.259
-664.003	-149.140	0.212	-0.017
-662.989	800.000	-0.039	0.162
-661.974	165.787	0.109	-0.154
-660.959	-200.000	0.021	-0.131
-659.945	373.883	-0.150	-0.305
-658.930	-14.822	0.162	0.104
-657.916	240.126	-0.064	-0.108
-656.901	23.293	-0.195	0.161
-655.886	-71.421	0.192	0.072
-654.872	800.000	0.034	0.115
-653.857	-45.156	0.433	-0.216
-652.843	229.132	-0.235	0.385
-651.828	-10.753	-0.118	-0.078
-650.814	-97.684	0.077	0.020
-649.799	-2.428	-0.259	0.182
-648.784	-192.215	0.234	-0.002
-647.770	-200.000	0.022	-0.161
-646.755	13.729	0.067	-0.052
-645.741	148.092	0.063	0.086
-644.726	-160.146	-0.060	-0.003
-643.711	-52.465	-0.319	0.148
-642.697	-80.164	0.456	0.153
-641.682	541.600	0.044	0.104
-640.668	-102.569	-0.035	0.008
-639.653	723.773	-0.108	0.288
-638.638	-53.735	-0.365	-0.167
-637.624	57.964	0.060	0.058
-636.609	-200.000	0.069	-0.311
-635.595	-200.000	-0.016	0.122
-634.580	160.521	-0.071	-0.099
-633.565	-60.228	-0.239	-0.102
-632.551	41.718	0.279	-0.253
-631.536	287.375	0.179	-0.324
-630.522	199.180	0.113	0.174
-629.507	-162.441	0.268	-0.013
-628.492	48.232	0.031	0.029
-627.478	-49.676	0.229	-0.109
-626.463	800.000	-0.089	-0.310
-625.449	-32.673	-0.133	-0.074
-624.434	-200.000	0.016	-0.124
-623.419	-153.808	-0.369	-0.025
-622.405	800.000	-0.076	-0.215
-621.390	-100.409	0.244	-0.061
-620.376	-171.864	-0.168	0.005
-619.361	-52.573	-0.208	-0.096
-618.346	75.344	-0.239	-0.252
-617.332	31.233	-0.195	0.168
-616.317	-62.570	0.257	0.107
-615.303	80.726	-0.068	-0.073
-614.288	-40.167	-0.227	0.118
-613.273	-110.798	0.203	0.042
-612.259	159.812	-0.209	-0.291
-611.244	149.914	-0.017	0.022
-610.230	-29.905	0.303	0.172
-609.215	148.710	-0.157	-0.212
-608.201	383.241	0.113	0.233
-607.186	-200.000	-0.072	0.399
-606.171	-134.837	0.179	-0.022
-605.157	-0.018	0.461	-0.329
-604.142	36.733	0.017	-0.015
-603.128	800.000	-0.039	0.147
-602.113	264.848	0.192	-0.335
-601.098	24.238	-0.250	0.206
-600.084	-56.381	0.191	0.085
-599.069	-63.638	-0.327	-0.134
-598.055	79.468	0.185	-0.198
-597.040	128.319	-0.171	-0.217
-596.025	-200.000	-0.033	-0.242
-595.011	112.240	0.053	-0.064
-593.996	33.559	0.030	0.026
-592.982	800.000	0.151	0.437
-591.967	-200.000	-0.001	-0.053
-590.952	115.156	0.246	-0.300
-589.938	-200.000	-0.023	-0.239
-588.923	-200.000	-0.020	-0.285
-587.909	330.268	0.133	0.255
-586.894	289.823	0.055	0.100
-585.879	107.879	0.128	0.153
-584.865	589.375	0.096	-0.236
-583.850	-87.573	0.328	0.099
-582.836	-91.045	-0.142	-0.041
-581.821	-200.000	-0.039	0.224
-580.806	-200.000	-0.035	-0.536
-579.792	-3.430	0.216	-0.150
-578.777	81.865	-0.129	0.139
-577.763	115.514	-0.054	0.066
-576.748	-87.098	0.184	0.056
-575.733	-96.830	-0.287	-0.075
-574.719	-120.383	-0.046	-0.008
-573.704	22.949	-0.153	0.125
-572.690	-158.779	-0.194	-0.011
-571.675	29.787	-0.033	-0.028
-570.661	141.318	0.073	-0.096
-569.646	79.233	-0.102	0.109
-568.631	-136.031	0.157	0.018
-567.617	93.492	-0.021	-0.023
-566.602	-81.209	-0.266	0.088
-565.588	-151.326	-0.040	0.003
-564.573	-28.172	0.342	-0.197
-563.558	-79.932	0.212	0.071
-562.544	800.000	-0.047	0.190
-561.529	12.820	-0.268	0.207
-560.515	383.311	0.118	0.242
-559.500	-70.626	-0.185	0.070
-558.485	-51.176	0.131	-0.061
-557.471	33.683	-0.198	-0.172
-556.456	-133.923	-0.490	0.061
-555.442	-18.677	-0.100	-0.062
-554.427	34.195	-0.046	0.040
-553.412	728.601	-0.019	0.051
-552.398	-166.519	-0.254	0.011
-551.383	-200.000	-0.002	0.117
-550.369	90.119	0.268	-0.299
-549.354	800.000	0.140	-0.414
-548.339	-12.467	-0.192	0.125
-547.325	-200.000	-0.056	-0.340
-546.310	-200.000	0.002	-0.160
-545.296	106.757	-0.191	0.226
-544.281	800.000	0.059	-0.247
-543.266	-104.182	0.200	0.046
-542.252	-200.000	0.058	0.337
-541.237	-170.221	-0.122	0.004
-540.223	-200.000	0.006	0.237
-539.208	363.705	-0.106	-0.212
-538.193	-22.430	0.100	0.061
-537.179	-200.000	0.040	0.266
-536.164	-89.323	0.229	-0.067
-535.150	264.605	-0.238	0.414
-534.135	-146.069	0.114	-0.010
-533.121	-0.331	0.084	-0.059
-532.106	705.607	0.135	-0.355
-531.091	500.792	0.071	0.164
-530.077	-8.631	0.138	-0.092
-529.062	-200.000	-0.025	-0.192
-528.048	-72.555	-0.288	0.106
-527.033	-63.479	0.177	0.072
-526.018	800.000	-0.068	-0.219
-525.004	604.897	0.133	0.331
-523.989	82.843	0.251	0.271
-522.975	-83.700	-0.049	0.016
-521.960	6.915	0.027	-0.020
-520.945	-200.000	-0.007	-0.144
-519.931	57.812	0.442	-0.431
-518.916	78.585	0.232	0.247
-517.902	156.614	0.090	-0.123
-516.887	-101.900	0.237	-0.057
-515.872	590.600	0.042	0.104
-514.858	-74.563	-0.230	-0.082
-513.843	-36.994	-0.081	0.043
-512.829	-200.000	0.026	0.117
-511.814	-90.373	0.262	-0.076
-510.799	589.245	-0.093	-0.227
-509.785	425.085	0.083	-0.178
-508.770	-152.700	-0.146	-0.010
-507.756	-129.313	-0.159	-0.022
-506.741	252.694	0.038	-0.065
-505.726	-107.751	-0.594	0.129
-504.712	-200.000	-0.009	0.163
-503.697	-200.000	-0.036	-0.200
-502.683	100.363	0.319	0.369
-501.668	162.333	-0.112	0.157
-500.653	-50.042	-0.245	-0.116
-499.639	-136.849	-0.128	-0.015
-498.624	13.204	0.199	-0.153
-497.610	543.763	0.026	-0.061
-496.595	684.383	0.055	-0.144
-495.581	729.090	-0.020	-0.052
-494.566	-75.029	0.311	-0.111
-493.551	31.128	0.109	0.093
-492.537	201.381	-0.119	-0.182
-491.522	164.643	-0.042	-0.059
-490.508	-200.000	-0.032	-0.160
-489.493	196.543	-0.118	0.179
-488.478	95.476	-0.118	0.134
-487.464	-113.123	-0.052	-0.010
-486.449	-90.261	-0.290	-0.084
-485.435	73.165	-0.200	0.209
-484.420	-56.020	-0.309	-0.137
-483.405	121.372	0.104	-0.128
-482.391	56.726	0.048	-0.046
-481.376	-119.502	-0.355	-0.061
-480.362	46.741	0.135	-0.125
-479.347	-120.613	-0.230	-0.039
-478.332	-116.080	0.124	0.023
-477.318	729.045	0.114	0.303
-476.303	270.520	0.123	-0.215
-475.289	-186.929	0.146	-0.002
-474.274	-42.311	-0.153	-0.078
-473.259	-143.797	0.111	0.010
-472.245	-200.000	-0.003	0.057
-471.230	298.325	0.079	-0.144
-470.216	800.000	-0.123	0.354
-469.201	-161.790	-0.163	-0.008
-468.186	528.831	0.044	-0.103
-467.172	98.716	0.158	-0.182
-466.157	62.310	-0.058	0.058
-465.143	-119.145	0.068	-0.012
-464.128	800.000	-0.152	0.470
-463.113	-29.507	-0.048	0.027
-462.099	-129.077	0.500	-0.070
-461.084	67.468	0.080	0.081
-460.070	-42.833	-0.246	0.124
-459.055	800.000	-0.066	-0.219
-458.040	5.525	-0.222	-0.163
-457.026	156.575	0.055	-0.075
-456.011	-45.587	-0.196	0.096
-454.997	-59.301	-0.409	-0.175
-453.982	-200.000	-0.018	-0.194
-452.968	-52.714	0.144	0.066
-451.953	-135.159	0.119	0.014
-450.938	-130.860	0.079	-0.010
-449.924	-32.835	-0.129	-0.071
-448.909	447.145	0.171	-0.374
-447.895	-192.831	-0.048	0.000
-446.880	-87.339	0.449	0.135
-445.865	-90.425	0.165	-0.047
-444.851	-200.000	0.092	0.000
-443.836	-24.516	-0.163	0.096
-442.822	800.000	0.130	0.467
-441.807	68.447	-0.243	0.247
-440.792	-72.496	-0.194	-0.071
-439.778	-22.551	0.164	-0.098
-438.763	-2.618	0.085	-0.059
-437.749	-102.073	0.275	-0.066
-436.734	-200.000	0.021	0.208
-435.719	128.568	0.076	-0.096
-434.705	-125.736	-0.215	-0.032
-433.690	-92.769	-0.273	-0.076
-432.676	-200.000	0.002	0.133
-431.661	34.096	-0.199	-0.172
-430.646	-30.284	-0.142	0.080
-429.632	800.000	0.052	0.217
-428.617	192.136	0.026	-0.039
-427.603	137.280	0.109	0.142
-426.588	-86.137	0.171	0.052
-425.573	38.468	0.172	0.152
-424.559	134.178	-0.150	-0.192
-423.544	-135.475	-0.179	0.021
-422.530	800.000	0.038	-0.117
-421.515	270.752	0.048	0.083
-420.500	-200.000	0.051	0.305
-419.486	155.328	0.093	0.127
-418.471	-103.005	0.195	-0.046
-417.457	-137.462	0.005	-0.001
-416.442	347.457	-0.272	0.532
-415.428	160.381	0.117	-0.162
-414.413	102.785	0.193	0.224
-413.398	26.347	-0.298	-0.247
-412.384	89.122	-0.128	-0.142
-411.369	-37.231	-0.102	-0.054
-410.355	-200.000	-0.018	0.136
-409.340	-45.020	0.147	0.073
-408.325	611.528	0.049	-0.122
-407.311	86.691	-0.025	0.028
-406.296	203.704	0.198	0.304
-405.282	-41.388	0.184	-0.094
-404.267	800.000	-0.069	0.233
-403.252	-90.204	0.245	0.071
-402.238	43.373	-0.173	0.157
-401.223	173.865	-0.123	-0.176
-400.209	-200.000	-0.029	-0.166
-399.194	-42.903	-0.289	0.146
-398.179	-59.957	0.137	-0.058
-397.165	40.163	0.062	-0.055
-396.150	-0.224	0.124	-0.088
-395.136	-16.244	-0.138	-0.087
-394.121	242.392	-0.089	0.147
-393.106	-162.338	0.204	0.010
-392.092	222.231	-0.013	-0.020
-391.077	-200.000	0.027	0.331
-390.063	263.466	-0.051	0.088
-389.048	120.529	0.334	-0.411
-388.033	-77.524	-0.040	0.014
-387.019	645.375	-0.130	-0.330
-386.004	-200.000	-0.027	-0.275
-384.990	800.000	0.055	0.153
-383.975	-88.741	0.148	0.044
-382.960	-200.000	-0.001	0.094
-381.946	-110.541	0.243	-0.050
-380.931	800.000	-0.029	0.091
-379.917	-14.844	0.056	-0.036
-378.902	26.846	-0.155	0.129
-377.888	-200.000	-0.070	0.403
-376.873	174.675	0.129	0.185
-375.858	66.976	0.190	0.192
-374.844	-177.287	-0.211	0.005
-373.829	-129.380	0.140	0.019
-372.815	-69.460	-0.280	0.106
-371.800	441.892	0.096	-0.208
-370.785	124.753	0.131	-0.163
-369.771	-200.000	0.056	-0.251
-368.756	171.110	0.119	-0.169
-367.742	43.230	0.077	-0.070
-366.727	-2.164	0.180	0.125
-365.712	308.325	0.151	0.280
-364.698	-120.462	0.069	0.012
-363.683	-57.158	0.179	0.078
-362.669	-0.132	-0.271	-0.191
-361.654	-200.000	-0.028	-0.398
-360.639	-200.000	-0.121	-0.000
-359.625	-15.600	0.122	0.077
-358.610	-200.000	0.007	-0.029
-357.596	124.792	-0.170	0.213
-356.581	-43.752	-0.118	0.059
-355.566	312.392	-0.142	-0.263
-354.552	359.137	0.115	-0.228
-353.537	71.784	0.154	-0.158
-352.523	201.155	-0.039	0.059
-351.508	-200.000	0.022	0.293
-350.493	24.871	0.132	-0.109
-349.479	471.684	0.088	0.197
-348.464	-112.569	0.270	0.053
-347.450	515.763	-0.080	-0.186
-346.435	160.290	-0.215	0.297
-345.420	167.272	-0.192	0.269
-344.406	800.000	0.030	0.100
-343.391	229.958	0.197	0.318
-342.377	35.507	-0.037	-0.032
-341.362	-141.711	0.311	-0.031
-340.348	-43.152	-0.060	0.030
-339.333	254.810	0.171	-0.290
-338.318	-94.010	0.389	-0.106
-337.304	130.204	-0.080	-0.101
-336.289	-110.901	-0.078	-0.016
-335.275	-145.621	-0.099	0.009
-334.260	800.000	0.084	0.349
-333.245	-200.000	0.022	-0.302
-332.231	-120.348	-0.147	0.025
-331.216	-102.743	0.147	0.035
-330.202	800.000	0.061	-0.173
-329.187	-107.361	-0.245	-0.053
-328.172	-38.803	0.292	0.152
-327.158	800.000	-0.113	-0.331
-326.143	119.274	-0.176	0.216
-325.129	-153.007	0.182	0.013
-324.114	148.234	0.176	-0.235
-323.099	-109.320	0.184	0.039
-322.085	57.456	0.088	0.085
-321.070	292.738	-0.093	0.168
-320.056	-53.657	0.235	-0.106
-319.041	800.000	-0.086	-0.271
-318.026	281.827	-0.080	0.142
-317.012	-32.508	0.151	-0.083
-315.997	107.533	0.077	-0.091
-314.983	-200.000	0.003	-0.023
-313.968	677.369	-0.024	-0.062
-312.953	-68.225	-0.202	-0.078
-311.939	-88.768	-0.421	0.124
-310.924	-85.681	-0.194	-0.060
-309.910	-157.179	-0.294	0.018
-308.895	-31.133	0.171	-0.095
-307.880	13.722	-0.268	0.206
-306.866	-12.840	-0.182	0.117
-305.851	-79.176	-0.446	0.149
-304.837	800.000	-0.149	-0.524
-303.822	27.480	-0.132	0.110
-302.807	-200.000	0.047	0.231
-301.793	-200.000	-0.051	0.344
-300.778	409.538	0.049	0.103
-299.764	800.000	0.046	-0.188
-298.749	-128.237	-0.345	-0.049
-297.735	-57.073	-0.211	0.092
-296.720	126.194	0.072	0.090
-295.705	-140.044	0.228	0.024
-294.691	-35.393	-0.183	0.098
-293.676	-200.000	-0.029	-0.159
-292.662	-119.945	-0.306	-0.052
-291.647	-59.979	-0.113	-0.048
-290.632	198.963	-0.067	-0.101
-289.618	317.426	-0.159	0.297
-288.603	91.801	-0.051	-0.056
-287.589	-35.606	0.166	0.089
-286.574	134.218	-0.206	0.264
-285.559	-66.817	-0.060	0.023
-284.545	673.908	-0.128	-0.329
-283.530	800.000	0.080	-0.219
-282.516	-67.837	0.112	-0.043
-281.501	-200.000	0.070	0.382
-280.486	-37.924	-0.307	0.161
-279.472	800.000	0.090	-0.305
-278.457	800.000	0.036	-0.142
-277.443	-200.000	-0.034	0.227
-276.428	800.000	0.020	0.080
-275.413	-200.000	-0.101	-0.538
-274.399	406.522	-0.093	-0.193
-273.384	-200.000	0.012	0.086
-272.370	-200.000	-0.051	-0.256
-271.355	-81.101	-0.290	-0.095
-270.340	-20.234	-0.205	-0.125
-269.326	12.918	0.207	0.158
-268.311	289.500	0.071	-0.126
-267.297	183.493	0.168	-0.245
-266.282	800.000	0.096	0.401
-265.267	-200.000	0.028	0.253
-264.253	56.929	-0.442	0.425
-263.238	112.102	0.352	0.419
-262.224	-118.233	0.216	-0.038
-261.209	64.700	0.122	-0.122
-260.195	131.307	0.141	0.179
-259.180	-107.831	-0.101	-0.022
-258.165	-35.248	0.099	-0.053
-257.151	-29.897	0.094	-0.053
-256.136	800.000	0.062	-0.225
-255.122	-11.341	-0.156	-0.101
-254.107	-200.000	0.017	0.252
-253.092	485.553	0.100	-0.224
-252.078	514.641	-0.080	-0.184
-251.063	103.663	0.146	0.168
-250.049	-122.814	0.354	-0.056
-249.034	-51.132	0.228	0.105
-248.019	241.052	-0.142	0.234
-247.005	-181.923	-0.173	0.003
-245.990	0.407	0.247	0.174
-244.976	-123.179	0.149	-0.024
-243.961	-80.155	0.257	0.085
-242.946	-177.460	-0.086	0.002
-241.932	297.403	-0.030	0.055
-240.917	114.429	-0.080	-0.096
-239.903	0.700	-0.194	-0.137
-238.888	-66.701	-0.095	0.037
-237.873	307.747	0.047	-0.086
-236.859	-54.425	-0.242	-0.108
-235.844	475.958	-0.102	0.228
-234.830	2.479	-0.078	-0.055
-233.815	465.374	-0.046	0.101
-232.800	-55.707	-0.316	-0.139
-231.786	49.163	-0.208	-0.193
-230.771	118.069	-0.062	-0.076
-229.757	39.448	0.067	-0.059
-228.742	-93.480	-0.227	0.062
-227.727	-56.472	0.166	0.072
-226.713	800.000	0.043	-0.148
-225.698	-62.018	0.227	0.093
-224.684	-200.000	0.046	0.292
-223.669	-34.603	0.136	-0.073
-222.655	-200.000	0.052	-0.234
-221.640	41.301	-0.260	-0.232
-220.625	800.000	-0.129	-0.370
-219.611	-200.000	0.033	-0.186
-218.596	256.837	-0.064	0.108
-217.582	-200.000	-0.009	0.100
-216.567	-87.554	0.330	-0.098
-215.552	-57.801	-0.164	0.070
-214.538	-28.499	-0.093	0.053
-213.523	-200.000	-0.006	-0.053
-212.509	-93.725	-0.258	0.070
-211.494	159.349	-0.024	-0.032
-210.479	-200.000	-0.020	-0.144
-209.465	172.663	0.165	-0.233
-208.450	-31.458	0.307	0.170
-207.436	5.552	0.103	0.075
-206.421	174.109	0.263	0.375
-205.406	72.029	-0.140	-0.144
-204.392	380.808	-0.164	-0.331
-203.377	642.824	-0.026	-0.066
-202.363	10.170	-0.385	0.288
-201.348	67.662	0.190	0.191
-200.333	143.341	-0.022	-0.028
-199.319	12.766	-0.195	0.148
-198.304	155.002	0.067	-0.090
-197.290	-60.060	-0.510	-0.214
-196.275	-18.102	0.177	0.109
-195.260	-112.320	-0.046	-0.009
-194.246	-121.697	0.214	0.035
-193.231	-200.000	0.047	0.236
-192.217	162.611	-0.222	0.307
-191.202	-76.162	-0.198	-0.069
-190.187	383.249	0.036	-0.072
-189.173	-0.963	-0.042	0.029
-188.158	-186.903	0.021	0.000
-187.144	800.000	-0.053	0.187
-186.129	-200.000	-0.011	0.073
-185.114	-200.000	0.043	0.233
-184.100	-146.806	0.344	-0.029
-183.085	-51.086	0.226	-0.104
-182.071	-95.992	0.352	0.092
-181.056	184.843	0.146	0.213
-180.042	184.265	-0.051	-0.075
-179.027	214.923	0.042	0.066
-178.012	201.669	-0.075	0.114
-176.998	-78.846	0.358	0.120
-175.983	-200.000	-0.021	-0.404
-174.969	322.449	0.136	-0.255
-173.954	307.249	0.042	-0.076
-172.939	-45.303	-0.224	-0.109
-171.925	-47.083	0.117	0.056
-170.910	205.677	-0.143	0.218
-169.896	122.873	-0.083	-0.102
-168.881	800.000	-0.088	0.359
-167.866	129.916	0.108	-0.136
-166.852	86.851	0.190	-0.207
-165.837	-71.272	-0.233	-0.086
-164.823	-200.000	-0.019	-0.088
-163.808	-142.888	0.034	-0.003
-162.793	-105.257	0.288	-0.064
-161.779	166.664	0.025	-0.035
-160.764	119.004	0.213	0.259
-159.750	794.281	0.044	-0.120
-158.735	227.655	0.139	0.223
-157.720	800.000	0.044	0.138
-156.706	129.413	-0.276	0.347
-155.691	243.736	-0.265	0.437
-154.677	-116.661	-0.027	-0.005
-153.662	139.963	0.151	0.196
-152.647	800.000	0.143	-0.437
-151.633	-151.107	0.036	0.003
-150.618	22.563	0.288	0.231
-149.604	800.000	-0.032	-0.114
-148.589	92.506	-0.073	0.080
-147.574	800.000	-0.079	-0.230
-146.560	273.469	-0.146	0.254
-145.545	-83.873	0.086	-0.027
-144.531	-3.924	-0.125	-0.085
-143.516	-200.000	0.043	-0.369
-142.502	57.564	0.179	-0.171
-141.487	5.254	-0.143	-0.104
-140.472	800.000	0.080	0.275
-139.458	-49.458	0.239	0.112
-138.443	-9.579	-0.256	-0.168
-137.429	-200.000	0.039	0.472
-136.414	133.138	-0.146	0.185
-135.399	20.498	-0.167	-0.132
-134.385	-69.569	-0.183	-0.069
-133.370	-48.408	-0.065	0.031
-132.356	286.544	-0.166	0.295
-131.341	22.185	0.038	-0.031
-130.326	-27.486	0.524	-0.299
-129.312	-200.000	0.002	-0.104
-128.297	-77.873	0.453	-0.153
-127.283	316.025	-0.116	-0.215
-126.268	-121.376	-0.217	-0.036
-125.253	67.455	-0.206	-0.207
-124.239	19.681	0.093	-0.073
-123.224	-200.000	0.029	-0.151
-122.210	-185.782	0.327	0.005
-121.195	800.000	-0.035	-0.126
