DTS Sentinel unit serial number:	SN413079Multiplexer serial number:	ORYXHardware model number:	OX4-SRSoftware version number:	ORYX F/W v4.00 Oryx Data Collector v3.7.2.0data status	okinstallation	princeton_trtdifferential loss correction	single-endedforward channel	channel 3reverse channel	N/Adate	2019/09/17time	02:56:35forward acquisition time	60.00reverse acquisition time	0.00gamma	496.2192k internal	0.2323k external	0.2323temperature offset calibration	0.9940default loss term (dB/km)	0.3790temperature slope calibration	1.0000multiplexer offset coefficient	1.0000multiplexer slope coefficient	1.0000fibre end	0.00T internal ref (°C)	29.94T ext. ref 1 (°C)	0.12T ext. ref 2 (°C)	24.89length (m)	temperature (°C)	Stokes	anti-Stokes-747.200	73.964	0.147	0.156
-746.185	157.936	0.174	0.243
-745.171	-24.325	-0.135	-0.081
-744.156	-200.000	0.028	0.287
-743.142	-39.166	-0.156	-0.083
-742.127	-200.000	-0.021	0.258
-741.112	-200.000	-0.026	0.172
-740.098	-168.896	-0.161	0.006
-739.083	16.351	-0.352	0.280
-738.069	-200.000	-0.047	0.273
-737.054	-124.011	-0.163	0.026
-736.039	-113.150	-0.244	-0.049
-735.025	-85.031	0.337	0.107
-734.010	18.691	0.140	-0.113
-732.996	-112.006	-0.241	-0.049
-731.981	111.575	0.083	0.101
-730.966	-129.181	-0.241	-0.034
-729.952	800.000	-0.057	0.165
-728.937	169.314	0.089	-0.128
-727.923	-200.000	-0.036	0.333
-726.908	-41.232	0.014	-0.007
-725.894	338.530	-0.120	-0.236
-724.879	-160.428	-0.155	0.008
-723.864	-200.000	0.158	0.000
-722.850	-67.130	-0.299	0.119
-721.835	-107.718	-0.160	-0.035
-720.821	281.386	0.211	-0.382
-719.806	272.113	-0.037	-0.067
-718.791	451.443	0.115	-0.257
-717.777	699.523	0.039	-0.102
-716.762	77.469	-0.284	-0.304
-715.748	-26.325	-0.189	0.112
-714.733	-108.199	0.209	0.046
-713.718	301.355	0.240	0.447
-712.704	276.595	-0.143	0.256
-711.689	-200.000	0.013	0.075
-710.675	128.676	-0.262	-0.337
-709.660	-121.472	0.276	0.046
-708.645	-200.000	0.080	-0.410
-707.631	-127.261	-0.196	0.029
-706.616	-88.331	0.144	0.043
-705.602	-151.937	0.343	-0.025
-704.587	187.542	-0.086	-0.130
-703.572	-59.659	-0.247	-0.107
-702.558	5.535	-0.230	-0.171
-701.543	-37.777	-0.166	0.089
-700.529	-34.231	0.012	0.006
-699.514	-92.953	0.256	0.072
-698.499	-1.200	-0.307	0.218
-697.485	-200.000	-0.048	0.330
-696.470	-56.647	-0.066	-0.029
-695.456	99.164	0.044	0.052
-694.441	-49.291	-0.413	-0.199
-693.426	-200.000	0.014	-0.252
-692.412	24.028	-0.073	0.060
-691.397	-37.165	0.052	0.028
-690.383	-48.344	-0.095	-0.046
-689.368	-200.000	0.036	0.200
-688.354	-9.229	-0.235	-0.159
-687.339	31.280	-0.159	0.137
-686.324	231.172	-0.150	-0.248
-685.310	198.066	-0.028	-0.043
-684.295	171.925	0.096	-0.139
-683.281	1.232	-0.109	-0.079
-682.266	-200.000	0.069	-0.449
-681.251	-86.991	0.244	-0.075
-680.237	16.892	-0.193	-0.154
-679.222	800.000	-0.019	0.057
-678.208	-200.000	0.020	-0.199
-677.193	-200.000	0.019	-0.274
-676.178	-86.258	0.132	-0.041
-675.164	-23.331	-0.207	0.126
-674.149	44.990	-0.159	-0.148
-673.135	-86.770	-0.098	-0.030
-672.120	437.221	-0.097	0.214
-671.105	-13.626	-0.242	0.158
-670.091	-200.000	0.013	-0.146
-669.076	-81.925	-0.252	0.083
-668.062	-87.810	-0.132	-0.040
-667.047	-200.000	0.038	0.496
-666.032	-37.156	-0.299	0.161
-665.018	18.871	0.192	0.155
-664.003	800.000	0.159	0.485
-662.989	-147.330	-0.641	0.055
-661.974	-13.115	-0.235	0.154
-660.959	249.531	-0.018	-0.030
-659.945	-200.000	0.003	-0.169
-658.930	52.662	0.068	-0.065
-657.916	-161.084	0.312	0.016
-656.901	140.718	-0.186	0.247
-655.886	180.543	0.225	-0.333
-654.872	-200.000	-0.055	-0.452
-653.857	203.320	0.138	-0.214
-652.843	-86.573	-0.116	0.036
-651.828	130.679	-0.139	-0.180
-650.814	178.269	-0.142	-0.208
-649.799	-200.000	0.026	-0.376
-648.784	-94.698	0.120	0.033
-647.770	-101.926	0.109	-0.026
-646.755	126.993	-0.202	-0.258
-645.741	-200.000	0.022	0.244
-644.726	83.453	0.103	-0.112
-643.711	-118.500	-0.136	-0.024
-642.697	13.974	-0.153	-0.120
-641.682	-65.028	-0.206	-0.084
-640.668	-200.000	-0.043	-0.327
-639.653	-51.536	-0.211	0.099
-638.638	-200.000	-0.076	0.407
-637.624	-200.000	0.004	0.264
-636.609	-67.724	0.097	-0.038
-635.595	-187.640	0.316	-0.004
-634.580	-118.149	-0.200	0.036
-633.565	-200.000	-0.014	-0.082
-632.551	-143.665	-0.345	0.033
-631.536	82.038	0.027	-0.030
-630.522	-200.000	-0.009	-0.081
-629.507	28.791	0.104	0.089
-628.492	-32.007	0.247	-0.139
-627.478	-37.744	0.185	0.099
-626.463	-49.039	-0.340	0.164
-625.449	-200.000	-0.017	-0.278
-624.434	-200.000	0.005	-0.122
-623.419	-6.046	-0.169	-0.116
-622.405	-200.000	-0.003	0.289
-621.390	-183.867	0.143	-0.002
-620.376	235.816	-0.179	-0.298
-619.361	-33.989	-0.104	0.058
-618.346	800.000	0.071	0.215
-617.332	800.000	-0.112	-0.368
-616.317	112.505	0.292	-0.355
-615.303	-54.489	-0.472	0.215
-614.288	60.105	0.208	0.206
-613.273	-103.821	-0.077	0.018
-612.259	-200.000	-0.022	-0.224
-611.244	540.200	-0.141	-0.337
-610.230	-56.236	0.075	-0.033
-609.215	800.000	-0.053	0.157
-608.201	-200.000	0.010	-0.197
-607.186	800.000	0.073	-0.209
-606.171	-46.213	-0.120	-0.059
-605.157	-181.697	0.225	-0.004
-604.142	-200.000	0.025	0.231
-603.128	629.474	0.149	0.378
-602.113	-200.000	-0.009	-0.239
-601.098	-164.013	-0.291	-0.014
-600.084	14.700	0.253	0.198
-599.069	70.209	0.256	0.265
-598.055	-1.191	0.214	-0.152
-597.040	133.777	-0.096	-0.124
-596.025	-147.616	-0.181	0.015
-595.011	202.252	0.093	-0.143
-593.996	-75.880	-0.204	0.073
-592.982	-135.148	-0.198	0.024
-591.967	800.000	-0.058	0.213
-590.952	554.011	-0.043	-0.104
-589.938	259.988	0.105	0.182
-588.923	151.850	-0.161	-0.220
-587.909	800.000	0.109	-0.313
-586.894	186.339	-0.178	-0.265
-585.879	-38.835	-0.066	-0.035
-584.865	26.649	0.061	0.051
-583.850	-58.408	-0.078	0.034
-582.836	15.428	-0.110	-0.087
-581.821	-200.000	-0.006	-0.232
-580.806	86.914	-0.110	-0.122
-579.792	141.484	-0.145	-0.193
-578.777	-2.644	0.087	-0.061
-577.763	198.489	-0.250	-0.384
-576.748	183.774	0.014	-0.020
-575.733	-200.000	0.061	0.365
-574.719	800.000	-0.077	-0.285
-573.704	231.232	-0.292	0.479
-572.690	-200.000	0.004	-0.224
-571.675	67.464	0.133	0.136
-570.661	183.733	-0.159	-0.236
-569.646	800.000	0.100	-0.283
-568.631	212.893	0.083	-0.132
-567.617	-12.355	0.050	0.033
-566.602	119.079	-0.131	-0.162
-565.588	286.040	-0.127	-0.230
-564.573	109.807	-0.024	-0.028
-563.558	-200.000	-0.015	0.141
-562.544	-39.228	-0.197	-0.104
-561.529	90.311	0.158	0.177
-560.515	46.899	-0.250	-0.233
-559.500	-57.096	-0.447	-0.198
-558.485	-200.000	-0.007	-0.115
-557.471	-126.725	0.421	-0.062
-556.456	-200.000	-0.021	-0.168
-555.442	66.397	-0.165	-0.168
-554.427	-110.931	0.495	0.102
-553.412	-12.512	0.238	0.156
-552.398	-22.750	0.180	-0.109
-551.383	-43.160	0.216	0.110
-550.369	67.790	-0.161	0.165
-549.354	-150.056	-0.371	0.029
-548.339	-76.064	0.163	0.058
-547.325	-121.376	-0.382	0.064
-546.310	-200.000	0.008	-0.060
-545.296	800.000	0.072	0.200
-544.281	-93.361	0.165	0.046
-543.266	-200.000	-0.048	0.225
-542.252	20.061	0.265	-0.214
-541.237	19.325	-0.274	-0.220
-540.223	-200.000	0.019	-0.202
-539.208	-50.366	0.301	0.142
-538.193	27.804	-0.300	-0.253
-537.179	-37.088	-0.095	0.051
-536.164	453.054	-0.081	0.180
-535.150	-165.739	0.261	-0.011
-534.135	-97.585	-0.249	0.065
-533.121	-120.502	-0.123	-0.021
-532.106	705.290	-0.061	0.162
-531.091	22.854	0.124	-0.102
-530.077	-63.427	-0.270	0.111
-529.062	-200.000	0.012	-0.067
-528.048	-96.582	0.141	-0.037
-527.033	-200.000	0.004	-0.346
-526.018	-20.811	0.323	0.198
-525.004	-93.122	0.145	0.041
-523.989	483.314	0.078	0.178
-522.975	65.963	-0.064	0.065
-521.960	51.983	0.100	-0.096
-520.945	-188.954	-0.147	0.002
-519.931	25.714	0.126	0.105
-518.916	-189.065	0.272	-0.003
-517.902	488.319	-0.131	0.299
-516.887	215.299	0.074	0.117
-515.872	151.340	0.028	-0.038
-514.858	-200.000	0.001	0.274
-513.843	-117.285	-0.155	-0.028
-512.829	-174.877	-0.253	-0.007
-511.814	30.017	0.168	-0.144
-510.799	36.693	0.150	-0.133
-509.785	366.618	0.253	-0.510
-508.770	800.000	0.059	0.181
-507.756	-104.293	-0.135	0.031
-506.741	41.179	-0.143	-0.129
-505.726	-122.843	0.203	-0.033
-504.712	184.094	0.343	-0.508
-503.697	53.519	-0.145	0.139
-502.683	348.944	0.036	0.071
-501.668	-111.317	0.322	-0.066
-500.653	-38.639	0.243	-0.129
-499.639	54.469	-0.142	-0.137
-498.624	591.855	0.099	-0.245
-497.610	800.000	-0.111	0.314
-496.595	800.000	0.067	-0.254
-495.581	-156.894	0.233	-0.014
-494.566	54.464	-0.351	-0.338
-493.551	249.299	0.059	-0.100
-492.537	-64.183	-0.090	-0.037
-491.522	-73.633	-0.296	-0.108
-490.508	-22.573	0.261	-0.158
-489.493	102.312	0.218	0.255
-488.478	51.073	-0.178	0.169
-487.464	-43.353	-0.075	-0.038
-486.449	-200.000	0.035	-0.232
-485.435	-153.162	0.059	0.004
-484.420	625.732	0.173	-0.437
-483.405	104.245	0.257	-0.302
-482.391	26.603	0.169	0.141
-481.376	-200.000	0.007	-0.038
-480.362	800.000	0.091	0.285
-479.347	-200.000	-0.031	-0.144
-478.332	-22.724	0.081	0.049
-477.318	55.727	-0.157	0.152
-476.303	497.020	-0.170	0.391
-475.289	-144.748	-0.299	0.027
-474.274	-200.000	-0.011	0.096
-473.259	124.331	0.172	0.217
-472.245	80.395	0.085	0.091
-471.230	10.711	-0.086	0.066
-470.216	-200.000	-0.003	0.277
-469.201	800.000	-0.018	0.049
-468.186	372.078	-0.069	-0.140
-467.172	-68.332	0.189	0.073
-466.157	-104.017	-0.247	0.057
-465.143	-69.036	-0.177	0.068
-464.128	-80.789	-0.134	-0.045
-463.113	1.595	-0.126	-0.090
-462.099	33.089	0.045	0.039
-461.084	239.466	0.189	0.314
-460.070	52.169	-0.162	0.154
-459.055	800.000	-0.026	0.081
-458.040	-70.317	0.247	0.094
-457.026	245.943	0.024	-0.041
-456.011	-200.000	0.045	0.346
-454.997	449.602	-0.065	0.143
-453.982	-49.711	-0.198	0.094
-452.968	-124.245	0.170	0.027
-451.953	800.000	-0.084	-0.243
-450.938	-200.000	-0.021	-0.516
-449.924	-200.000	0.067	-0.561
-448.909	-200.000	0.020	-0.147
-447.895	-200.000	0.013	0.102
-446.880	-80.470	0.110	0.037
-445.865	276.406	-0.152	0.270
-444.851	-55.630	-0.271	-0.121
-443.836	-164.366	-0.101	0.005
-442.822	-73.294	-0.075	-0.027
-441.807	800.000	0.118	-0.344
-440.792	470.373	-0.064	-0.144
-439.778	-99.153	0.096	0.024
-438.763	644.079	0.063	-0.160
-437.749	-78.382	-0.111	-0.038
-436.734	-17.151	0.102	-0.064
-435.719	-12.870	-0.249	0.162
-434.705	-57.930	-0.352	-0.153
-433.690	124.266	0.216	0.271
-432.676	-79.628	-0.405	-0.136
-431.661	-47.737	-0.042	-0.020
-430.646	585.304	-0.138	0.338
-429.632	390.537	-0.091	-0.187
-428.617	-181.467	0.081	0.002
-427.603	-189.454	-0.293	0.003
-426.588	-110.837	-0.196	0.040
-425.573	-104.652	0.161	-0.037
-424.559	36.783	0.223	-0.197
-423.544	-200.000	-0.059	-0.258
-422.530	7.063	-0.191	-0.142
-421.515	34.645	-0.215	-0.187
-420.500	117.246	-0.101	-0.124
-419.486	16.862	0.158	0.124
-418.471	-15.837	-0.337	0.214
-417.457	285.344	0.102	-0.183
-416.442	227.731	0.081	0.132
-415.428	-200.000	-0.002	-0.025
-414.413	64.710	-0.254	0.256
-413.398	18.290	0.131	0.104
-412.384	92.359	-0.293	-0.329
-411.369	519.521	-0.062	-0.145
-410.355	-151.261	-0.465	-0.035
-409.340	-37.809	-0.340	-0.180
-408.325	58.384	-0.135	0.132
-407.311	177.774	0.164	0.238
-406.296	-73.674	-0.104	-0.038
-405.282	800.000	-0.036	0.103
-404.267	-117.145	0.242	-0.044
-403.252	-19.673	0.063	0.039
-402.238	-61.670	0.131	-0.055
-401.223	-41.169	-0.282	0.145
-400.209	178.225	-0.129	0.188
-399.194	-200.000	-0.027	0.223
-398.179	276.382	0.142	0.252
-397.165	-102.114	0.189	0.045
-396.150	-200.000	0.041	0.375
-395.136	81.422	-0.173	0.186
-394.121	-75.100	0.259	0.092
-393.106	551.804	-0.068	-0.162
-392.092	-75.374	0.183	-0.065
-391.077	316.449	0.071	-0.134
-390.063	27.009	0.225	0.188
-389.048	236.384	0.076	0.126
-388.033	194.702	0.302	0.456
-387.019	-165.473	-0.171	0.007
-386.004	-12.529	-0.196	-0.128
-384.990	-111.419	0.097	-0.020
-383.975	800.000	-0.029	0.104
-382.960	318.502	0.109	-0.206
-381.946	-44.810	0.217	-0.108
-380.931	-200.000	-0.041	0.184
-379.917	-200.000	0.062	0.293
-378.902	312.169	0.089	0.167
-377.888	-54.140	-0.234	-0.106
-376.873	-174.106	0.464	0.014
-375.858	46.405	-0.238	0.220
-374.844	800.000	0.021	-0.080
-373.829	-200.000	-0.010	0.200
-372.815	-32.470	-0.175	-0.097
-371.800	105.533	-0.241	-0.284
-370.785	-200.000	0.019	-0.091
-369.771	-200.000	-0.017	0.088
-368.756	211.314	-0.288	0.450
-367.742	472.504	0.098	-0.220
-366.727	-21.029	-0.169	0.103
-365.712	-200.000	0.022	0.500
-364.698	800.000	-0.041	-0.118
-363.683	-87.494	-0.175	0.053
-362.669	-87.162	-0.089	0.027
-361.654	-184.035	0.095	0.002
-360.639	14.606	-0.103	0.080
-359.625	-200.000	0.028	0.132
-358.610	-200.000	-0.003	0.072
-357.596	-158.302	0.132	0.008
-356.581	-89.720	-0.155	0.045
-355.566	-82.349	0.294	-0.095
-354.552	693.771	0.070	0.182
-353.537	85.578	-0.115	0.125
-352.523	-154.138	-0.423	-0.029
-351.508	165.315	-0.116	-0.163
-350.493	21.382	-0.260	0.210
-349.479	-95.542	-0.211	-0.056
-348.464	20.757	-0.186	-0.150
-347.450	800.000	0.147	-0.424
-346.435	-200.000	0.013	0.158
-345.420	-7.108	0.232	-0.156
-344.406	23.475	-0.275	0.225
-343.391	323.985	0.019	-0.037
-342.377	800.000	0.057	0.184
-341.362	-154.376	0.016	-0.001
-340.348	28.685	0.063	0.053
-339.333	207.874	0.119	0.184
-338.318	44.040	0.228	0.208
-337.304	45.399	0.114	-0.104
-336.289	83.808	0.241	-0.262
-335.275	-88.909	-0.203	-0.060
-334.260	153.818	0.068	-0.093
-333.245	-78.880	0.278	0.094
-332.231	-142.903	-0.185	-0.018
-331.216	266.797	-0.096	-0.167
-330.202	-200.000	-0.024	-0.251
-329.187	16.730	0.353	0.278
-328.172	428.453	-0.084	-0.179
-327.158	-77.216	0.352	-0.122
-326.143	-137.141	-0.200	-0.023
-325.129	31.660	0.022	0.019
-324.114	-36.385	0.178	0.095
-323.099	-85.304	0.157	-0.049
-322.085	800.000	-0.015	-0.050
-321.070	-96.430	-0.208	-0.055
-320.056	-62.647	0.383	0.158
-319.041	273.479	0.125	0.219
-318.026	-200.000	-0.040	0.283
-317.012	-72.424	-0.023	-0.009
-315.997	-200.000	-0.045	0.362
-314.983	524.675	0.072	0.169
-313.968	-200.000	0.007	0.140
-312.953	-120.499	-0.348	0.059
-311.939	-200.000	-0.015	-0.244
-310.924	800.000	-0.052	-0.195
-309.910	-6.532	0.283	0.192
-308.895	800.000	0.043	-0.163
-307.880	-200.000	0.012	-0.162
-306.866	16.370	0.042	0.033
-305.851	-42.233	0.200	0.101
-304.837	474.404	0.093	-0.208
-303.822	-200.000	0.022	0.123
-302.807	-75.180	0.328	0.116
-301.793	-104.294	0.119	0.027
-300.778	800.000	-0.104	0.367
-299.764	-24.162	-0.275	-0.163
-298.749	51.933	-0.130	0.123
-297.735	-200.000	0.015	-0.300
-296.720	8.720	-0.303	-0.226
-295.705	-3.449	0.147	-0.101
-294.691	386.913	0.049	-0.101
-293.676	33.329	-0.197	0.170
-292.662	-105.813	0.345	-0.077
-291.647	169.568	0.058	0.082
-290.632	800.000	-0.089	0.371
-289.618	167.641	-0.216	0.305
-288.603	322.981	0.183	-0.345
-287.589	111.510	0.048	0.057
-286.574	549.690	0.058	-0.137
-285.559	22.912	0.179	0.146
-284.545	128.432	0.254	0.321
-283.530	800.000	0.085	0.273
-282.516	-190.364	0.091	0.001
-281.501	14.821	0.041	-0.032
-280.486	143.166	0.115	0.151
-279.472	-15.250	0.379	-0.240
-278.457	-200.000	-0.004	-0.065
-277.443	-200.000	0.028	0.160
-276.428	-34.155	0.109	-0.059
-275.413	-200.000	-0.034	0.488
-274.399	-200.000	0.029	-0.174
-273.384	-133.261	0.071	-0.009
-272.370	-200.000	-0.006	-0.349
-271.355	13.593	0.163	0.125
-270.340	-61.650	0.161	-0.067
-269.326	4.441	0.236	-0.171
-268.311	272.900	-0.058	-0.101
-267.297	546.168	-0.128	-0.303
-266.282	61.870	-0.194	0.191
-265.267	77.468	0.175	0.184
-264.253	337.634	-0.040	0.077
-263.238	800.000	0.044	0.132
-262.224	-19.376	-0.188	-0.115
-261.209	66.899	0.039	-0.039
-260.195	332.925	-0.134	-0.256
-259.180	800.000	0.028	0.090
-258.165	11.344	-0.268	0.203
-257.151	-135.616	0.179	0.021
-256.136	-75.700	0.378	0.133
-255.122	-200.000	0.022	0.261
-254.107	-138.782	0.200	0.022
-253.092	10.466	0.074	0.056
-252.078	580.218	-0.074	0.179
-251.063	15.676	0.269	0.210
-250.049	-149.530	-0.230	-0.018
-249.034	-156.348	0.232	-0.014
-248.019	-22.659	0.102	-0.061
-247.005	-115.111	0.250	-0.047
-245.990	-66.156	0.287	-0.113
-244.976	-121.869	-0.264	0.043
-243.961	-200.000	0.013	-0.107
-242.946	800.000	-0.005	0.019
-241.932	111.174	0.094	-0.112
-240.917	101.300	0.198	-0.229
-239.903	526.411	-0.081	-0.190
-238.888	-62.041	-0.062	0.026
-237.873	800.000	-0.076	0.280
-236.859	-25.965	0.229	0.134
-235.844	186.321	0.060	-0.089
-234.830	-129.684	-0.261	0.036
-233.815	242.787	-0.113	0.188
-232.800	46.416	0.168	-0.154
-231.786	-200.000	-0.023	-0.110
-230.771	-200.000	0.002	0.203
-229.757	-41.268	0.308	0.157
-228.742	240.120	0.217	-0.358
-227.727	-200.000	-0.003	0.589
-226.713	1.899	0.093	0.066
-225.698	8.446	0.085	0.063
-224.684	19.596	-0.305	0.243
-223.669	-130.850	-0.194	-0.026
-222.655	757.629	0.053	0.141
-221.640	-75.885	-0.069	0.024
-220.625	76.182	0.142	-0.149
-219.611	727.727	0.009	0.025
-218.596	530.968	0.120	0.281
-217.582	0.554	-0.201	0.142
-216.567	-200.000	0.008	0.087
-215.552	-148.501	0.213	-0.017
-214.538	-122.008	-0.322	0.052
-213.523	0.831	0.158	0.112
-212.509	-158.336	-0.444	-0.026
-211.494	-101.407	0.331	0.080
-210.479	25.739	0.134	0.111
-209.465	800.000	-0.021	-0.074
-208.450	54.994	0.227	-0.216
-207.436	-172.643	0.059	-0.002
-206.421	-109.200	0.099	-0.021
-205.406	-119.007	0.230	0.040
-204.392	-134.041	-0.190	0.023
-203.377	-154.382	0.147	0.010
-202.363	-162.543	0.310	0.015
-201.348	34.239	0.262	0.226
-200.333	800.000	0.042	-0.119
-199.319	8.958	-0.353	0.263
-198.304	13.694	-0.058	0.044
-197.290	-157.974	0.225	-0.013
-196.275	-91.614	0.122	0.034
-195.260	315.548	-0.194	-0.362
-194.246	142.334	-0.218	-0.286
-193.231	162.367	-0.104	-0.145
-192.217	-39.885	0.169	0.087
-191.202	53.103	-0.197	0.186
-190.187	323.899	0.052	-0.099
-189.173	21.268	0.161	0.129
-188.158	168.971	-0.130	-0.183
-187.144	800.000	0.052	-0.159
-186.129	-85.003	0.161	-0.050
-185.114	-173.534	0.223	0.007
-184.100	56.889	-0.057	-0.055
-183.085	-200.000	-0.054	-0.301
-182.071	124.763	-0.201	0.250
-181.056	102.237	-0.256	0.295
-180.042	420.881	0.035	-0.074
-179.027	585.254	0.147	0.357
-178.012	452.664	-0.101	-0.220
-176.998	-105.793	-0.253	0.057
-175.983	361.326	0.031	-0.061
-174.969	-168.265	0.178	0.007
-173.954	-200.000	0.017	0.079
-172.939	160.489	0.155	0.214
-171.925	-93.330	-0.328	-0.090
-170.910	93.258	0.123	-0.137
-169.896	-200.000	-0.051	-0.251
-168.881	652.961	-0.111	-0.280
-167.866	-200.000	0.041	-0.272
-166.852	-52.628	-0.258	0.118
-165.837	78.487	0.145	-0.152
-164.823	-92.878	-0.151	-0.042
-163.808	413.919	-0.082	-0.171
-162.793	140.860	-0.190	0.248
-161.779	112.665	-0.165	0.197
-160.764	-162.496	0.084	0.004
-159.750	511.746	-0.026	-0.060
-158.735	-51.638	0.199	0.092
-157.720	800.000	-0.020	-0.073
-156.706	2.141	-0.285	0.203
-155.691	-200.000	0.034	-0.162
-154.677	-90.169	-0.135	-0.039
-153.662	-200.000	0.014	-0.320
-152.647	-104.595	0.110	0.025
-151.633	-200.000	-0.038	-0.163
-150.618	-49.921	-0.355	-0.166
-149.604	800.000	0.043	0.166
-148.589	361.334	0.119	0.235
-147.574	800.000	-0.050	0.146
-146.560	-200.000	-0.017	-0.278
-145.545	-200.000	0.001	-0.091
-144.531	-200.000	-0.032	0.191
-143.516	-82.760	-0.019	0.006
-142.502	-43.366	-0.187	-0.093
-141.487	216.603	0.050	-0.078
-140.472	-200.000	-0.005	-0.129
-139.458	393.199	0.051	0.104
-138.443	164.222	0.142	-0.198
-137.429	-109.355	0.072	-0.015
-136.414	617.140	-0.069	-0.172
-135.399	338.534	0.187	0.359
-134.385	-87.781	0.186	0.055
-133.370	172.645	-0.056	-0.080
-132.356	-200.000	0.008	0.119
-131.341	108.239	0.123	0.145
-130.326	10.697	-0.149	-0.112
-129.312	-200.000	0.008	-0.177
-128.297	222.714	-0.121	0.192
-127.283	94.978	0.115	0.129
-126.268	-200.000	-0.050	-0.328
-125.253	-121.630	-0.224	-0.037
-124.239	-67.101	0.267	-0.104
-123.224	226.838	0.137	-0.218
-122.210	-200.000	0.005	0.201
-121.195	-145.113	0.239	0.021
