DTS Sentinel unit serial number:	SN413079Multiplexer serial number:	ORYXHardware model number:	OX4-SRSoftware version number:	ORYX F/W v4.00 Oryx Data Collector v3.7.2.0data status	okinstallation	princeton_trtdifferential loss correction	single-endedforward channel	channel 3reverse channel	N/Adate	2019/09/11time	04:06:11forward acquisition time	60.00reverse acquisition time	0.00gamma	496.2192k internal	0.2330k external	0.2330temperature offset calibration	0.9913default loss term (dB/km)	0.3790temperature slope calibration	1.0000multiplexer offset coefficient	1.0000multiplexer slope coefficient	1.0000fibre end	0.00T internal ref (°C)	29.56T ext. ref 1 (°C)	-0.29T ext. ref 2 (°C)	23.61length (m)	temperature (°C)	Stokes	anti-Stokes-747.200	124.406	0.060	-0.075
-746.185	484.017	0.126	0.289
-745.171	221.401	-0.142	0.230
-744.156	-194.480	0.044	0.000
-743.142	-87.508	-0.271	0.083
-742.127	96.994	0.100	0.116
-741.112	254.106	0.066	0.114
-740.098	800.000	-0.064	-0.251
-739.083	279.720	0.117	0.211
-738.069	-200.000	-0.084	0.393
-737.054	-200.000	0.039	-0.172
-736.039	70.701	0.075	0.078
-735.025	75.683	0.175	0.186
-734.010	21.598	-0.309	-0.253
-732.996	156.268	-0.277	-0.384
-731.981	-4.548	-0.339	0.236
-730.966	158.600	-0.175	-0.244
-729.952	404.954	-0.164	-0.347
-728.937	-200.000	-0.026	-0.394
-727.923	572.481	-0.073	0.179
-726.908	800.000	-0.029	-0.090
-725.894	-119.543	0.178	0.031
-724.879	-21.744	0.243	0.149
-723.864	132.486	0.203	0.264
-722.850	800.000	-0.104	-0.319
-721.835	-128.545	-0.313	0.045
-720.821	104.930	-0.140	-0.166
-719.806	-200.000	0.007	-0.204
-718.791	-200.000	0.031	0.516
-717.777	-125.674	0.098	-0.015
-716.762	19.265	-0.360	-0.291
-715.748	40.809	0.168	0.152
-714.733	146.153	0.094	-0.127
-713.718	109.790	-0.228	-0.275
-712.704	30.506	-0.298	-0.256
-711.689	-34.536	0.347	0.191
-710.675	-200.000	0.007	0.169
-709.660	10.668	-0.262	0.201
-708.645	103.268	-0.099	-0.117
-707.631	-65.363	-0.173	0.070
-706.616	81.562	-0.305	-0.332
-705.602	27.213	0.232	-0.196
-704.587	109.563	0.317	-0.382
-703.572	51.730	0.216	-0.207
-702.558	781.546	0.089	0.244
-701.543	261.112	0.047	-0.081
-700.529	-149.242	0.236	0.019
-699.514	-122.584	-0.191	0.031
-698.499	256.910	0.133	-0.230
-697.485	462.114	0.085	-0.190
-696.470	-157.234	-0.120	-0.007
-695.456	10.816	-0.114	0.088
-694.441	-151.407	-0.102	-0.008
-693.426	211.071	-0.033	0.052
-692.412	445.604	-0.079	0.175
-691.397	22.849	-0.254	-0.209
-690.383	800.000	0.046	-0.169
-689.368	800.000	0.060	-0.171
-688.354	-178.286	0.147	-0.003
-687.339	-74.128	0.037	-0.013
-686.324	-152.929	0.314	-0.022
-685.310	800.000	0.060	0.253
-684.295	60.330	0.099	-0.099
-683.281	-11.673	0.085	-0.056
-682.266	32.161	0.300	-0.260
-681.251	114.986	0.144	-0.176
-680.237	-16.609	-0.140	-0.089
-679.222	800.000	-0.045	-0.132
-678.208	174.125	-0.228	0.330
-677.193	-200.000	0.015	0.250
-676.178	269.316	0.105	-0.185
-675.164	31.068	-0.149	-0.128
-674.149	57.775	-0.028	-0.028
-673.135	800.000	-0.041	-0.151
-672.120	-52.782	-0.122	0.057
-671.105	363.150	-0.038	-0.076
-670.091	63.313	-0.173	-0.174
-669.076	-111.669	-0.135	0.028
-668.062	800.000	-0.068	0.205
-667.047	255.696	0.029	-0.050
-666.032	456.640	-0.090	0.201
-665.018	-99.563	-0.080	-0.020
-664.003	-200.000	0.024	-0.123
-662.989	-169.864	-0.208	0.007
-661.974	646.175	0.103	-0.265
-660.959	12.279	-0.284	-0.219
-659.945	-200.000	-0.380	0.000
-658.930	-74.795	-0.450	-0.162
-657.916	137.017	0.127	-0.167
-656.901	-168.383	-0.279	0.011
-655.886	-27.028	0.157	-0.092
-654.872	-200.000	-0.020	-0.125
-653.857	-60.608	0.139	0.059
-652.843	393.959	0.074	0.156
-651.828	800.000	0.129	0.373
-650.814	-123.309	-0.132	0.021
-649.799	124.111	-0.114	0.143
-648.784	-200.000	-0.021	-0.134
-647.770	-70.858	-0.185	-0.070
-646.755	-76.464	0.334	0.118
-645.741	-200.000	-0.010	-0.138
-644.726	-24.695	0.449	-0.268
-643.711	-183.707	0.223	0.004
-642.697	302.704	-0.152	0.282
-641.682	-96.758	0.287	0.076
-640.668	800.000	0.036	0.106
-639.653	-19.330	-0.154	0.096
-638.638	66.399	-0.187	0.191
-637.624	-114.580	-0.497	0.096
-636.609	800.000	-0.055	-0.190
-635.595	263.530	0.127	-0.221
-634.580	-169.453	-0.030	0.001
-633.565	-96.539	-0.481	-0.127
-632.551	99.421	0.140	-0.162
-631.536	-107.289	-0.128	0.028
-630.522	95.996	0.117	-0.134
-629.507	800.000	-0.120	-0.389
-628.492	-138.697	0.130	-0.014
-627.478	451.101	-0.095	0.210
-626.463	-200.000	-0.007	0.050
-625.449	573.056	-0.067	0.164
-624.434	24.521	-0.242	0.200
-623.419	-108.496	-0.131	0.028
-622.405	40.822	-0.228	0.206
-621.390	-200.000	-0.031	0.141
-620.376	-200.000	-0.043	-0.225
-619.361	-200.000	-0.008	-0.203
-618.346	9.029	0.160	-0.121
-617.332	-110.493	0.372	-0.077
-616.317	61.601	-0.296	0.295
-615.303	-200.000	0.018	-0.295
-614.288	-191.243	0.197	-0.002
-613.273	18.349	-0.181	-0.145
-612.259	-73.715	-0.055	0.020
-611.244	800.000	-0.093	-0.380
-610.230	409.302	-0.134	-0.285
-609.215	800.000	-0.027	-0.079
-608.201	368.349	-0.117	-0.236
-607.186	-6.704	-0.211	0.144
-606.171	800.000	-0.091	-0.306
-605.157	112.747	0.037	0.044
-604.142	-200.000	-0.009	-0.103
-603.128	-174.301	-0.091	0.003
-602.113	-59.816	0.137	0.059
-601.098	107.236	0.099	-0.118
-600.084	274.451	-0.038	0.067
-599.069	9.708	0.223	-0.169
-598.055	-38.821	0.246	-0.130
-597.040	-122.921	0.123	0.020
-596.025	1.983	-0.194	0.140
-595.011	-200.000	0.074	-0.480
-593.996	575.652	0.114	0.279
-592.982	-200.000	0.036	-0.413
-591.967	800.000	-0.049	-0.197
-590.952	50.396	-0.262	-0.248
-589.938	800.000	-0.026	-0.105
-588.923	800.000	0.045	-0.171
-587.909	-35.163	-0.193	0.105
-586.894	-49.423	0.292	-0.139
-585.879	-39.287	-0.122	-0.064
-584.865	47.657	0.295	-0.275
-583.850	178.304	-0.038	0.055
-582.836	419.639	-0.079	-0.168
-581.821	-21.232	0.124	-0.076
-580.806	-200.000	0.012	0.073
-579.792	151.765	-0.071	-0.097
-578.777	-126.418	-0.350	0.052
-577.763	-200.000	0.022	-0.367
-576.748	13.397	0.071	-0.055
-575.733	-102.731	-0.137	-0.033
-574.719	-43.395	-0.119	0.060
-573.704	39.486	-0.295	-0.264
-572.690	-130.590	-0.168	-0.023
-571.675	-200.000	0.039	-0.417
-570.661	-72.421	-0.187	-0.069
-569.646	-200.000	-0.006	-0.059
-568.631	800.000	-0.044	0.187
-567.617	-200.000	-0.048	-0.269
-566.602	40.815	-0.090	-0.081
-565.588	800.000	-0.045	-0.183
-564.573	-54.537	0.169	-0.077
-563.558	-68.322	-0.241	0.094
-562.544	79.922	-0.110	0.118
-561.529	194.627	-0.173	0.262
-560.515	-200.000	-0.011	0.076
-559.500	800.000	-0.163	0.522
-558.485	-37.459	0.340	-0.182
-557.471	29.765	0.078	0.066
-556.456	333.777	0.076	0.146
-555.442	-7.794	-0.069	-0.047
-554.427	562.598	0.103	-0.249
-553.412	-87.704	-0.322	0.097
-552.398	-51.367	-0.084	0.039
-551.383	-126.692	-0.201	-0.030
-550.369	800.000	0.081	0.318
-549.354	-51.556	0.047	-0.022
-548.339	-116.379	0.108	0.020
-547.325	40.959	0.039	0.035
-546.310	-36.906	-0.197	0.105
-545.296	-18.513	-0.226	-0.141
-544.281	127.496	0.217	-0.276
-543.266	-182.618	-0.257	-0.005
-542.252	-6.854	-0.114	-0.077
-541.237	196.965	0.116	-0.177
-540.223	474.602	-0.080	0.180
-539.208	-6.048	0.080	-0.055
-538.193	-13.178	-0.142	0.092
-537.179	102.460	0.282	-0.329
-536.164	110.295	-0.078	0.094
-535.150	-67.322	0.379	0.149
-534.135	151.306	-0.061	-0.083
-533.121	80.723	0.140	0.151
-532.106	156.088	-0.143	0.196
-531.091	800.000	-0.059	-0.183
-530.077	93.911	0.160	-0.181
-529.062	-70.007	-0.491	-0.187
-528.048	800.000	0.085	-0.281
-527.033	-160.507	0.012	0.001
-526.018	-157.707	0.472	0.028
-525.004	81.768	-0.193	0.209
-523.989	31.298	-0.030	-0.025
-522.975	106.413	0.102	-0.121
-521.960	-200.000	0.033	-0.239
-520.945	-88.966	-0.159	0.047
-519.931	-53.578	-0.169	-0.077
-518.916	-78.621	0.190	0.065
-517.902	22.841	-0.207	0.169
-516.887	269.525	0.067	-0.117
-515.872	-200.000	0.003	0.138
-514.858	-106.210	0.215	0.048
-513.843	-167.216	-0.183	0.007
-512.829	-90.243	-0.068	-0.020
-511.814	-109.373	0.075	0.016
-510.799	-122.794	-0.218	0.035
-509.785	-166.378	-0.352	-0.015
-508.770	210.594	0.155	0.243
-507.756	89.103	-0.051	0.057
-506.741	-50.875	0.160	-0.075
-505.726	-111.480	0.161	0.033
-504.712	-30.042	-0.114	-0.065
-503.697	-24.277	0.240	-0.143
-502.683	276.801	-0.164	-0.290
-501.668	47.815	0.184	-0.171
-500.653	-77.682	-0.211	-0.073
-499.639	-200.000	-0.037	-0.177
-498.624	-123.591	-0.323	0.051
-497.610	13.181	0.032	0.024
-496.595	792.609	0.071	0.194
-495.581	-68.151	0.255	0.099
-494.566	-112.983	-0.248	0.049
-493.551	800.000	0.077	0.239
-492.537	0.971	-0.239	-0.171
-491.522	-92.774	0.539	-0.150
-490.508	800.000	0.072	0.269
-489.493	406.978	-0.114	0.241
-488.478	237.864	0.182	-0.301
-487.464	63.107	-0.134	-0.134
-486.449	800.000	-0.078	0.299
-485.435	-200.000	-0.004	0.347
-484.420	-90.396	-0.335	0.097
-483.405	-40.314	-0.223	0.115
-482.391	405.656	0.056	0.118
-481.376	58.076	-0.139	-0.136
-480.362	-172.986	-0.273	-0.008
-479.347	163.607	0.179	0.252
-478.332	-200.000	-0.014	0.159
-477.318	184.194	0.094	0.139
-476.303	496.294	-0.035	0.081
-475.289	-129.121	-0.201	0.028
-474.274	164.308	-0.137	-0.192
-473.259	42.349	-0.060	-0.055
-472.245	-200.000	0.000	0.084
-471.230	-200.000	0.057	0.347
-470.216	88.205	0.023	0.025
-469.201	382.102	-0.139	0.284
-468.186	139.153	-0.184	0.241
-467.172	-7.361	-0.283	-0.191
-466.157	147.794	-0.180	-0.242
-465.143	800.000	-0.043	0.127
-464.128	538.989	0.117	0.277
-463.113	347.959	0.073	-0.144
-462.099	-153.991	0.110	0.007
-461.084	245.088	-0.074	0.124
-460.070	-200.000	0.041	-0.274
-459.055	41.676	-0.182	0.164
-458.040	-101.856	0.161	-0.039
-457.026	-139.221	0.102	0.011
-456.011	253.576	0.137	-0.233
-454.997	-112.716	0.317	0.063
-453.982	-172.407	-0.194	0.006
-452.968	217.446	0.084	0.133
-451.953	-200.000	-0.007	0.036
-450.938	-108.504	0.322	0.069
-449.924	-200.000	-0.044	0.229
-448.909	129.513	-0.228	-0.290
-447.895	-93.589	-0.261	0.072
-446.880	-130.898	-0.139	-0.018
-445.865	-44.484	-0.219	-0.109
-444.851	-62.298	0.152	-0.063
-443.836	148.070	-0.072	-0.097
-442.822	-106.409	-0.363	0.081
-441.807	300.976	0.077	-0.141
-440.792	-130.361	-0.088	-0.012
-439.778	114.453	0.134	0.162
-438.763	112.284	0.051	-0.062
-437.749	800.000	0.110	0.401
-436.734	-39.613	0.112	-0.058
-435.719	-180.010	0.017	0.000
-434.705	62.743	-0.097	-0.097
-433.690	-7.692	0.374	0.251
-432.676	-76.111	-0.094	-0.033
-431.661	21.813	0.134	-0.109
-430.646	-200.000	-0.086	0.425
-429.632	8.469	0.154	-0.115
-428.617	313.425	-0.178	-0.333
-427.603	-159.459	-0.479	-0.027
-426.588	-200.000	0.009	0.312
-425.573	-102.450	0.254	0.060
-424.559	-151.817	0.127	-0.009
-423.544	455.692	0.139	0.306
-422.530	194.567	0.052	-0.078
-421.515	573.259	-0.066	-0.161
-420.500	65.323	-0.124	-0.125
-419.486	-14.734	-0.222	-0.142
-418.471	-200.000	0.032	-0.161
-417.457	-91.934	0.227	0.064
-416.442	-92.621	-0.519	-0.145
-415.428	-182.014	0.068	-0.001
-414.413	18.581	-0.162	-0.129
-413.398	-40.155	0.111	0.058
-412.384	-13.247	-0.219	-0.141
-411.369	-138.559	0.258	0.028
-410.355	-17.607	-0.143	-0.089
-409.340	-65.828	0.608	-0.242
-408.325	-200.000	-0.029	-0.228
-407.311	251.012	-0.048	0.081
-406.296	-200.000	0.051	0.310
-405.282	-200.000	-0.081	0.481
-404.267	-18.431	0.264	-0.164
-403.252	-200.000	0.036	0.262
-402.238	-73.169	0.235	0.086
-401.223	-146.837	-0.415	0.036
-400.209	118.986	0.151	0.185
-399.194	-36.705	0.296	0.158
-398.179	388.529	-0.099	0.204
-397.165	480.046	0.200	0.451
-396.150	57.795	-0.182	0.177
-395.136	78.279	-0.017	0.018
-394.121	-200.000	0.009	-0.152
-393.106	74.496	-0.114	-0.119
-392.092	800.000	-0.044	-0.136
-391.077	-89.223	-0.091	0.027
-390.063	-71.187	0.454	0.169
-389.048	-109.839	-0.223	0.047
-388.033	106.811	-0.227	-0.267
-387.019	-39.779	0.283	-0.147
-386.004	-200.000	0.021	-0.247
-384.990	70.760	0.173	-0.178
-383.975	-62.308	0.157	-0.065
-382.960	-94.529	-0.175	0.047
-381.946	800.000	0.086	-0.276
-380.931	8.999	-0.209	0.156
-379.917	-148.003	0.194	0.016
-378.902	-102.954	0.175	-0.041
-377.888	-200.000	-0.004	-0.110
-376.873	-95.781	-0.120	-0.032
-375.858	-200.000	-0.009	-0.043
-374.844	-8.193	0.222	-0.149
-373.829	-89.008	-0.291	0.085
-372.815	783.953	-0.037	0.100
-371.800	66.145	0.195	0.197
-370.785	-93.354	-0.075	-0.021
-369.771	-154.347	0.265	-0.018
-368.756	-133.419	-0.354	0.044
-367.742	-48.028	0.142	-0.068
-366.727	-2.985	0.123	0.085
-365.712	245.089	0.128	0.213
-364.698	193.633	-0.132	-0.199
-363.683	-200.000	-0.059	-0.282
-362.669	103.515	0.120	0.140
-361.654	136.728	-0.057	0.074
-360.639	183.760	-0.135	0.198
-359.625	357.792	0.089	-0.176
-358.610	800.000	0.028	-0.101
-357.596	754.599	-0.022	-0.060
-356.581	-200.000	-0.029	-0.431
-355.566	-16.899	0.120	-0.075
-354.552	-82.898	-0.078	-0.025
-353.537	-111.981	0.167	0.033
-352.523	447.428	0.135	-0.294
-351.508	250.928	-0.169	0.285
-350.493	-103.971	-0.077	0.018
-349.479	63.236	-0.371	0.368
-348.464	-13.378	0.175	0.113
-347.450	-200.000	0.005	-0.065
-346.435	800.000	0.045	-0.173
-345.420	-200.000	-0.017	0.094
-344.406	-159.298	0.255	0.014
-343.391	-131.420	-0.237	0.031
-342.377	264.072	-0.045	-0.078
-341.362	800.000	0.058	0.173
-340.348	-95.327	0.231	-0.062
-339.333	-151.677	-0.314	-0.023
-338.318	398.640	0.143	0.297
-337.304	31.241	0.150	0.127
-336.289	800.000	-0.038	-0.111
-335.275	341.676	0.095	-0.184
-334.260	394.531	-0.072	-0.148
-333.245	800.000	-0.119	0.351
-332.231	129.891	0.182	-0.230
-331.216	-113.115	0.693	-0.135
-330.202	-200.000	-0.028	0.247
-329.187	85.493	-0.073	0.079
-328.172	792.022	-0.025	-0.069
-327.158	-200.000	0.020	-0.338
-326.143	72.152	0.285	0.294
-325.129	-200.000	-0.066	0.399
-324.114	-5.677	0.345	0.234
-323.099	-40.597	-0.243	-0.125
-322.085	-40.652	-0.056	0.029
-321.070	800.000	-0.018	0.078
-320.056	9.093	0.098	-0.073
-319.041	211.287	-0.151	-0.235
-318.026	800.000	0.037	-0.160
-317.012	-0.493	-0.060	0.042
-315.997	800.000	0.037	0.142
-314.983	-200.000	0.036	0.346
-313.968	-100.561	-0.093	-0.023
-312.953	391.040	-0.242	0.497
-311.939	-94.817	0.186	0.050
-310.924	-200.000	0.003	0.103
-309.910	-109.222	0.215	-0.045
-308.895	655.414	-0.099	-0.251
-307.880	-200.000	-0.018	-0.105
-306.866	-200.000	-0.042	0.233
-305.851	-142.839	0.203	0.020
-304.837	-136.132	-0.145	-0.017
-303.822	78.661	-0.127	0.134
-302.807	514.513	0.132	0.305
-301.793	-200.000	-0.003	-0.049
-300.778	411.657	-0.066	0.138
-299.764	-200.000	0.051	0.252
-298.749	-73.555	0.138	-0.050
-297.735	-106.981	0.317	-0.069
-296.720	2.977	-0.148	-0.106
-295.705	447.034	-0.079	-0.173
-294.691	-61.784	0.222	0.092
-293.676	50.265	0.104	0.097
-292.662	-97.712	0.136	-0.035
-291.647	-127.805	-0.130	-0.019
-290.632	-58.960	0.180	0.077
-289.618	-23.294	-0.181	0.108
-288.603	-77.874	0.276	0.094
-287.589	-200.000	-0.020	0.180
-286.574	29.518	0.113	0.095
-285.559	800.000	0.043	0.152
-284.545	-114.990	-0.091	0.017
-283.530	272.154	0.080	-0.140
-282.516	-132.176	0.084	-0.011
-281.501	-38.450	-0.215	-0.112
-280.486	-27.617	0.426	0.245
-279.472	-200.000	-0.048	0.287
-278.457	16.679	0.150	-0.118
-277.443	-200.000	0.006	0.104
-276.428	-154.288	-0.443	0.030
-275.413	185.739	0.119	-0.175
-274.399	-136.965	-0.229	0.026
-273.384	-195.424	-0.089	0.001
-272.370	-200.000	-0.045	-0.232
-271.355	800.000	0.060	0.212
-270.340	-24.748	0.189	-0.111
-269.326	800.000	0.019	-0.062
-268.311	140.610	0.084	0.110
-267.297	213.610	-0.107	0.167
-266.282	-200.000	0.041	-0.217
-265.267	-200.000	0.029	-0.248
-264.253	800.000	-0.052	-0.184
-263.238	-200.000	0.005	-0.049
-262.224	800.000	0.069	-0.258
-261.209	152.547	-0.210	-0.284
-260.195	-200.000	-0.039	0.201
-259.180	31.834	0.289	0.246
-258.165	-53.300	-0.095	0.043
-257.151	-200.000	-0.011	0.181
-256.136	606.699	-0.151	0.373
-255.122	21.342	-0.166	0.133
-254.107	800.000	0.102	0.309
-253.092	-141.301	0.541	-0.054
-252.078	595.194	0.028	-0.068
-251.063	800.000	0.054	-0.206
-250.049	-153.882	0.226	0.015
-249.034	251.201	-0.166	0.279
-248.019	-76.794	0.163	-0.056
-247.005	-118.505	0.313	0.055
-245.990	-134.154	0.223	0.027
-244.976	-200.000	-0.039	0.265
-243.961	127.457	0.140	-0.175
-242.946	363.484	0.056	-0.112
-241.932	-127.394	-0.261	0.038
-240.917	-141.099	0.058	0.006
-239.903	79.420	-0.193	0.204
-238.888	-163.748	-0.165	0.008
-237.873	-129.231	0.346	0.048
-236.859	31.826	0.192	0.163
-235.844	416.566	-0.055	0.116
-234.830	800.000	-0.044	0.143
-233.815	30.219	-0.069	0.058
-232.800	156.020	0.061	0.084
-231.786	83.600	-0.128	-0.138
-230.771	522.546	-0.093	-0.216
-229.757	106.637	-0.284	-0.333
-228.742	-77.040	0.187	-0.065
-227.727	-200.000	0.013	0.250
-226.713	29.904	0.156	0.131
-225.698	-127.876	0.217	-0.031
-224.684	-32.027	-0.278	0.154
-223.669	179.266	0.075	0.109
-222.655	26.471	0.092	-0.076
-221.640	414.752	-0.057	-0.120
-220.625	-131.960	0.043	-0.006
-219.611	49.520	-0.163	-0.151
-218.596	-128.102	0.299	-0.042
-217.582	343.671	0.127	-0.246
-216.567	224.714	-0.026	0.041
-215.552	270.859	-0.094	-0.164
-214.538	800.000	0.013	0.043
-213.523	109.376	0.112	0.132
-212.509	-113.704	-0.284	0.055
-211.494	-200.000	-0.035	0.156
-210.479	172.691	-0.039	-0.055
-209.465	-57.324	0.288	-0.125
-208.450	-200.000	-0.034	-0.356
-207.436	-25.335	-0.062	0.036
-206.421	207.929	0.054	0.083
-205.406	-54.471	-0.301	-0.134
-204.392	260.473	0.008	-0.014
-203.377	58.691	0.108	-0.104
-202.363	-119.963	0.163	0.028
-201.348	63.895	0.050	-0.049
-200.333	-127.742	-0.097	-0.014
-199.319	737.087	-0.039	0.102
-198.304	-200.000	0.030	-0.250
-197.290	77.144	-0.071	-0.074
-196.275	272.845	-0.139	-0.242
-195.260	366.330	0.139	0.276
-194.246	175.644	0.110	0.157
-193.231	19.890	0.144	-0.114
-192.217	153.026	0.068	-0.092
-191.202	211.521	0.134	0.208
-190.187	165.795	0.016	-0.022
-189.173	393.472	-0.128	0.262
-188.158	-117.125	0.415	0.074
-187.144	457.547	-0.033	0.071
-186.129	253.523	0.051	-0.086
-185.114	181.470	-0.117	-0.169
-184.100	-119.997	-0.241	-0.041
-183.085	75.919	0.162	0.169
-182.071	96.196	-0.141	-0.159
-181.056	-200.000	0.028	-0.208
-180.042	-13.331	0.130	0.083
-179.027	-44.795	0.091	-0.045
-178.012	800.000	0.029	0.093
-176.998	-200.000	0.008	-0.375
-175.983	-104.557	0.232	0.053
-174.969	201.875	-0.069	-0.104
-173.954	649.241	0.082	0.207
-172.939	-200.000	-0.006	0.137
-171.925	-200.000	-0.011	0.125
-170.910	-13.380	0.221	0.141
-169.896	-144.275	-0.300	0.028
-168.881	800.000	0.182	0.540
-167.866	-200.000	-0.026	-0.438
-166.852	208.942	-0.045	-0.069
-165.837	-80.913	-0.323	0.105
-164.823	-130.395	0.294	0.039
-163.808	-200.000	-0.029	-0.159
-162.793	-136.456	0.133	-0.015
-161.779	-48.562	0.146	0.069
-160.764	-200.000	-0.068	0.308
-159.750	74.029	-0.406	-0.419
-158.735	443.229	0.073	-0.156
-157.720	-144.769	0.042	-0.004
-156.706	101.515	-0.117	-0.134
-155.691	413.305	0.173	0.362
-154.677	-47.987	-0.074	0.035
-153.662	800.000	-0.146	-0.476
-152.647	293.582	-0.136	0.245
-151.633	-200.000	-0.044	0.216
-150.618	29.963	0.166	-0.139
-149.604	-76.743	0.245	-0.084
-148.589	33.003	-0.057	-0.048
-147.574	92.669	0.257	0.285
-146.560	100.060	0.137	-0.156
-145.545	139.959	0.249	-0.322
-144.531	-85.058	0.301	-0.093
-143.516	-92.845	0.361	-0.099
-142.502	122.293	0.120	0.148
-141.487	-200.000	0.025	-0.323
-140.472	635.127	0.090	0.225
-139.458	-141.097	-0.147	-0.015
-138.443	-167.156	-0.299	-0.012
-137.429	800.000	-0.120	-0.459
-136.414	37.201	-0.265	-0.230
-135.399	-34.263	0.092	-0.049
-134.385	-200.000	-0.018	0.255
-133.370	11.072	0.317	-0.238
-132.356	117.532	-0.292	-0.353
-131.341	-118.824	-0.267	-0.046
-130.326	-200.000	0.026	0.135
-129.312	-84.885	-0.124	-0.038
-128.297	-87.979	0.211	0.062
-127.283	800.000	-0.060	-0.238
-126.268	-31.964	-0.572	-0.315
-125.253	177.100	0.092	0.131
-124.239	151.803	-0.144	0.192
-123.224	-200.000	0.022	-0.236
-122.210	199.128	-0.074	-0.111
