DTS Sentinel unit serial number:	SN413079Multiplexer serial number:	ORYXHardware model number:	OX4-SRSoftware version number:	ORYX F/W v4.00 Oryx Data Collector v3.7.2.0data status	okinstallation	princeton_trtdifferential loss correction	single-endedforward channel	channel 3reverse channel	N/Adate	2019/09/18time	20:56:35forward acquisition time	60.00reverse acquisition time	0.00gamma	496.2192k internal	0.2343k external	0.2343temperature offset calibration	1.0012default loss term (dB/km)	0.3790temperature slope calibration	1.0000multiplexer offset coefficient	1.0000multiplexer slope coefficient	1.0000fibre end	0.00T internal ref (°C)	26.75T ext. ref 1 (°C)	1.09T ext. ref 2 (°C)	18.13length (m)	temperature (°C)	Stokes	anti-Stokes-747.200	800.000	-0.068	0.232
-746.185	-200.000	0.036	0.424
-745.171	-90.321	-0.351	-0.102
-744.156	-134.804	-0.218	0.027
-743.142	41.302	0.130	0.118
-742.127	432.773	-0.119	0.259
-741.112	236.863	-0.019	0.031
-740.098	-132.115	-0.519	-0.067
-739.083	-7.078	-0.124	-0.084
-738.069	800.000	-0.047	0.143
-737.054	22.046	-0.193	-0.157
-736.039	421.281	0.147	-0.315
-735.025	-153.549	-0.154	0.011
-734.010	-171.803	0.109	-0.004
-732.996	643.343	0.040	0.103
-731.981	-139.280	-0.095	0.010
-730.966	800.000	0.030	0.101
-729.952	-97.030	-0.287	-0.075
-728.937	-200.000	-0.012	-0.053
-727.923	12.322	-0.202	0.156
-726.908	-31.333	-0.478	0.269
-725.894	738.907	-0.131	0.352
-724.879	241.516	0.196	-0.328
-723.864	12.464	0.086	0.066
-722.850	680.502	-0.131	0.342
-721.835	-103.707	-0.137	0.032
-720.821	-157.389	-0.158	-0.010
-719.806	14.357	-0.366	-0.286
-718.791	-200.000	0.017	-0.146
-717.777	-1.906	-0.149	-0.105
-716.762	-200.000	0.046	-0.329
-715.748	-200.000	-0.011	0.234
-714.733	405.800	-0.194	-0.409
-713.718	-200.000	0.016	-0.095
-712.704	-40.353	-0.031	0.016
-711.689	-111.069	-0.171	0.035
-710.675	101.443	-0.192	0.224
-709.660	-23.234	-0.206	0.124
-708.645	-45.588	-0.289	0.143
-707.631	-56.601	-0.309	0.137
-706.616	29.068	-0.280	-0.238
-705.602	-200.000	0.052	-0.268
-704.587	-200.000	-0.034	-0.374
-703.572	48.015	-0.120	-0.112
-702.558	116.523	-0.126	0.155
-701.543	-200.000	0.013	0.104
-700.529	98.972	0.171	0.198
-699.514	118.696	0.143	-0.176
-698.499	-200.000	0.012	0.062
-697.485	800.000	-0.020	-0.069
-696.470	644.306	0.117	-0.298
-695.456	-200.000	0.028	0.316
-694.441	168.017	-0.287	-0.408
-693.426	-100.996	-0.243	0.059
-692.412	-13.870	0.100	0.064
-691.397	-75.068	-0.185	0.066
-690.383	-76.624	-0.254	-0.089
-689.368	-144.624	-0.230	0.021
-688.354	-200.000	-0.010	-0.060
-687.339	-200.000	0.054	-0.280
-686.324	107.534	-0.145	0.172
-685.310	-200.000	0.006	0.295
-684.295	316.982	-0.088	0.167
-683.281	-200.000	0.011	-0.191
-682.266	28.574	-0.090	-0.076
-681.251	-200.000	0.021	0.277
-680.237	38.197	0.215	0.191
-679.222	-200.000	0.048	-0.251
-678.208	161.328	-0.088	0.122
-677.193	-200.000	-0.025	0.310
-676.178	800.000	0.067	-0.241
-675.164	-1.249	-0.211	0.149
-674.149	-81.315	0.013	-0.004
-673.135	-19.908	0.145	0.089
-672.120	90.919	0.056	0.063
-671.105	-77.509	-0.224	0.078
-670.091	-45.862	-0.239	-0.118
-669.076	225.166	-0.061	-0.098
-668.062	22.725	0.141	-0.115
-667.047	-128.726	0.285	-0.040
-666.032	-200.000	0.063	-0.289
-665.018	47.328	-0.138	-0.128
-664.003	-90.774	0.042	0.012
-662.989	209.200	-0.162	-0.253
-661.974	-100.446	0.084	0.021
-660.959	208.327	0.025	-0.039
-659.945	-35.791	-0.125	-0.067
-658.930	-200.000	0.030	-0.307
-657.916	-110.066	-0.061	-0.013
-656.901	800.000	-0.067	-0.263
-655.886	-50.159	0.218	-0.103
-654.872	800.000	-0.028	0.107
-653.857	-200.000	0.063	-0.450
-652.843	800.000	-0.100	-0.301
-651.828	732.319	0.061	-0.163
-650.814	78.369	0.091	0.097
-649.799	-200.000	0.047	-0.268
-648.784	189.928	-0.188	0.282
-647.770	64.004	0.341	0.342
-646.755	539.249	0.053	-0.126
-645.741	-200.000	-0.046	0.222
-644.726	-63.701	-0.300	-0.123
-643.711	35.638	0.161	0.141
-642.697	517.766	-0.090	-0.210
-641.682	121.629	0.143	0.177
-640.668	800.000	-0.060	-0.209
-639.653	800.000	-0.040	0.134
-638.638	-200.000	0.005	-0.197
-637.624	800.000	-0.043	-0.175
-636.609	-200.000	0.039	0.198
-635.595	-200.000	-0.019	-0.132
-634.580	-200.000	0.083	0.380
-633.565	-25.143	0.194	-0.114
-632.551	-97.108	0.174	0.045
-631.536	-88.338	-0.366	0.109
-630.522	46.045	-0.122	0.112
-629.507	478.474	-0.174	0.394
-628.492	-200.000	0.050	-0.334
-627.478	586.792	0.121	-0.297
-626.463	-179.894	0.236	0.005
-625.449	-200.000	-0.016	-0.159
-624.434	42.423	-0.257	-0.233
-623.419	-110.535	0.184	0.038
-622.405	216.027	-0.078	-0.124
-621.390	114.289	-0.183	0.222
-620.376	-104.876	-0.224	-0.051
-619.361	-161.853	0.209	-0.011
-618.346	292.994	0.026	-0.048
-617.332	-200.000	0.020	-0.145
-616.317	-92.566	0.034	0.009
-615.303	253.773	-0.212	0.360
-614.288	800.000	0.031	0.100
-613.273	-200.000	-0.006	-0.047
-612.259	-142.045	-0.132	0.013
-611.244	115.333	-0.091	0.110
-610.230	-41.562	0.359	-0.184
-609.215	-57.910	-0.323	-0.141
-608.201	-200.000	0.040	-0.250
-607.186	313.499	0.020	-0.037
-606.171	-36.130	-0.125	-0.067
-605.157	-18.178	0.091	0.057
-604.142	-120.615	-0.130	0.022
-603.128	-131.830	0.232	-0.030
-602.113	-174.192	-0.225	-0.007
-601.098	53.562	0.069	0.066
-600.084	-200.000	0.065	0.339
-599.069	-122.695	-0.204	-0.033
-598.055	-33.152	0.164	0.090
-597.040	127.022	0.127	0.160
-596.025	-200.000	0.027	0.321
-595.011	-41.342	-0.261	-0.134
-593.996	607.127	-0.163	0.406
-592.982	-45.224	-0.222	0.110
-591.967	491.493	0.102	0.232
-590.952	-200.000	-0.046	0.264
-589.938	-10.986	-0.074	-0.048
-588.923	-200.000	-0.002	-0.271
-587.909	-35.441	-0.167	0.090
-586.894	30.589	0.076	0.064
-585.879	-73.412	0.159	0.058
-584.865	800.000	-0.149	-0.417
-583.850	-130.186	-0.485	0.066
-582.836	63.431	-0.161	-0.160
-581.821	-200.000	0.042	-0.242
-580.806	-42.742	-0.415	-0.210
-579.792	-200.000	-0.044	-0.301
-578.777	176.312	0.064	0.093
-577.763	116.408	0.081	-0.099
-576.748	-200.000	0.020	0.164
-575.733	106.170	-0.135	0.160
-574.719	31.888	0.192	0.165
-573.704	220.520	-0.130	-0.207
-572.690	5.013	0.315	0.230
-571.675	519.001	0.046	0.107
-570.661	-60.760	0.135	0.057
-569.646	25.843	-0.142	-0.118
-568.631	800.000	-0.099	0.329
-567.617	-70.267	-0.069	-0.026
-566.602	29.381	-0.233	0.197
-565.588	-200.000	0.039	0.243
-564.573	-200.000	-0.007	-0.033
-563.558	36.871	-0.109	0.096
-562.544	6.118	-0.065	-0.048
-561.529	-200.000	0.002	0.163
-560.515	-82.077	0.290	-0.094
-559.500	22.833	-0.106	-0.086
-558.485	-75.405	-0.283	-0.100
-557.471	-77.652	0.268	0.092
-556.456	-200.000	-0.006	0.078
-555.442	-142.755	0.063	0.006
-554.427	-80.418	0.194	0.064
-553.412	800.000	-0.022	0.064
-552.398	101.370	-0.154	0.178
-551.383	51.739	-0.131	0.124
-550.369	-200.000	-0.007	0.082
-549.354	-132.787	0.084	-0.011
-548.339	-85.111	-0.194	-0.060
-547.325	-51.466	0.140	-0.065
-546.310	-170.943	-0.235	0.008
-545.296	90.494	-0.179	-0.200
-544.281	-138.472	-0.213	-0.023
-543.266	-200.000	0.043	-0.349
-542.252	-109.191	0.036	-0.008
-541.237	571.484	-0.009	-0.021
-540.223	37.150	-0.102	-0.090
-539.208	383.231	-0.182	0.372
-538.193	-115.129	-0.118	-0.022
-537.179	-135.152	0.348	0.042
-536.164	12.101	0.200	0.153
-535.150	-38.697	-0.011	0.006
-534.135	800.000	-0.109	-0.355
-533.121	219.209	0.118	-0.187
-532.106	-178.814	-0.150	0.003
-531.091	-200.000	0.004	0.032
-530.077	135.683	-0.159	0.206
-529.062	2.443	0.173	-0.124
-528.048	97.274	0.201	-0.230
-527.033	199.940	-0.174	0.265
-526.018	-200.000	0.028	-0.265
-525.004	-6.957	-0.202	0.136
-523.989	-200.000	-0.010	0.088
-522.975	240.582	0.081	-0.133
-521.960	212.288	-0.201	0.315
-520.945	-149.033	0.050	0.004
-519.931	-200.000	0.013	0.185
-518.916	-200.000	-0.018	-0.145
-517.902	-200.000	0.043	-0.203
-516.887	397.583	-0.104	-0.215
-515.872	204.279	-0.058	0.089
-514.858	-200.000	-0.006	-0.102
-513.843	-129.162	0.187	0.026
-512.829	410.900	0.161	0.339
-511.814	-46.093	-0.250	-0.122
-510.799	800.000	-0.056	-0.157
-509.785	-53.734	0.400	0.181
-508.770	800.000	0.036	-0.138
-507.756	165.273	0.046	-0.064
-506.741	-150.950	0.230	0.017
-505.726	20.446	0.342	-0.274
-504.712	499.222	-0.107	0.245
-503.697	57.365	0.178	0.172
-502.683	169.635	0.156	0.220
-501.668	165.939	-0.120	0.169
-500.653	-86.693	-0.115	-0.035
-499.639	-146.480	0.143	-0.012
-498.624	165.819	-0.040	-0.056
-497.610	-200.000	-0.282	0.001
-496.595	62.495	-0.148	0.146
-495.581	86.607	-0.118	0.129
-494.566	-200.000	0.000	0.115
-493.551	-200.000	0.021	-0.125
-492.537	-158.162	-0.191	0.011
-491.522	318.726	0.054	-0.101
-490.508	17.578	0.356	-0.281
-489.493	-43.600	-0.303	0.152
-488.478	-44.469	-0.191	0.095
-487.464	246.542	0.010	0.017
-486.449	-200.000	-0.045	0.343
-485.435	-200.000	0.058	0.398
-484.420	-165.251	0.210	0.009
-483.405	-200.000	-0.023	-0.118
-482.391	-112.875	0.221	0.043
-481.376	185.283	0.232	-0.341
-480.362	-200.000	-0.039	0.213
-479.347	-86.969	0.282	-0.085
-478.332	800.000	-0.078	-0.252
-477.318	-0.909	0.171	-0.120
-476.303	-11.891	-0.297	0.193
-475.289	800.000	0.089	-0.308
-474.274	583.797	-0.173	0.420
-473.259	-45.087	-0.396	0.195
-472.245	-163.693	0.334	-0.016
-471.230	-74.356	0.158	0.056
-470.216	800.000	-0.069	-0.253
-469.201	14.548	-0.111	0.086
-468.186	57.173	0.047	-0.045
-467.172	-21.189	-0.278	-0.168
-466.157	-102.289	-0.056	0.013
-465.143	-141.735	0.199	-0.020
-464.128	-102.711	0.477	-0.113
-463.113	727.985	-0.084	-0.223
-462.099	82.213	-0.158	-0.170
-461.084	-112.115	-0.043	-0.008
-460.070	110.252	0.083	0.099
-459.055	-200.000	-0.019	-0.262
-458.040	-74.642	0.219	-0.078
-457.026	-200.000	-0.054	0.273
-456.011	368.393	-0.031	0.063
-454.997	-134.039	0.423	0.052
-453.982	30.841	-0.156	-0.132
-452.968	45.132	0.214	-0.195
-451.953	201.016	0.244	0.372
-450.938	244.387	-0.085	-0.141
-449.924	-47.863	-0.402	0.193
-448.909	-106.903	-0.091	0.020
-447.895	-200.000	0.012	-0.106
-446.880	291.044	-0.051	-0.092
-445.865	-177.189	-0.229	0.006
-444.851	800.000	-0.089	-0.330
-443.836	-119.149	-0.173	0.030
-442.822	-122.889	0.315	0.050
-441.807	419.751	-0.096	-0.203
-440.792	-29.213	-0.028	-0.016
-439.778	151.511	0.151	0.203
-438.763	486.746	-0.071	-0.160
-437.749	215.059	0.071	-0.112
-436.734	-200.000	-0.069	0.363
-435.719	-178.330	0.211	0.005
-434.705	152.205	-0.202	0.272
-433.690	779.529	-0.085	0.231
-432.676	-81.754	0.246	-0.080
-431.661	-8.642	0.238	-0.158
-430.646	800.000	-0.042	0.117
-429.632	290.651	-0.152	-0.274
-428.617	-164.689	0.112	0.005
-427.603	-128.933	-0.293	0.041
-426.588	-200.000	-0.031	-0.263
-425.573	133.935	-0.103	-0.132
-424.559	60.084	0.104	0.101
-423.544	-76.194	-0.098	0.034
-422.530	-28.856	0.128	0.073
-421.515	800.000	-0.061	0.257
-420.500	-127.690	0.230	-0.033
-419.486	63.243	-0.102	-0.101
-418.471	-58.752	-0.252	-0.108
-417.457	52.611	0.135	-0.127
-416.442	-63.728	0.126	0.051
-415.428	151.145	-0.176	-0.236
-414.413	27.969	0.076	0.063
-413.398	339.834	0.066	0.128
-412.384	21.558	-0.218	-0.175
-411.369	-200.000	0.017	0.178
-410.355	327.813	0.169	0.321
-409.340	-45.775	-0.433	0.212
-408.325	-200.000	-0.013	0.181
-407.311	88.845	-0.339	-0.372
-406.296	-64.987	0.263	0.105
-405.282	-200.000	0.001	-0.096
-404.267	800.000	0.089	0.305
-403.252	-108.215	0.146	-0.031
-402.238	800.000	-0.030	0.092
-401.223	240.479	0.230	-0.379
-400.209	461.855	0.039	-0.086
-399.194	-25.594	-0.232	-0.135
-398.179	0.289	0.165	0.117
-397.165	-93.113	0.227	-0.062
-396.150	-105.991	0.368	0.082
-395.136	-0.762	-0.213	0.149
-394.121	-70.787	-0.322	-0.120
-393.106	-82.042	-0.171	0.055
-392.092	237.013	-0.108	-0.176
-391.077	-101.173	0.400	0.097
-390.063	30.275	0.143	-0.121
-389.048	194.770	-0.126	0.189
-388.033	-200.000	-0.014	0.155
-387.019	-146.152	-0.200	0.017
-386.004	7.671	0.389	0.287
-384.990	-200.000	-0.028	-0.250
-383.975	5.111	0.134	-0.098
-382.960	-63.521	-0.203	-0.082
-381.946	316.117	0.044	-0.081
-380.931	138.784	0.105	0.136
-379.917	-25.507	-0.209	-0.122
-378.902	418.649	-0.129	0.272
-377.888	-152.075	0.281	0.020
-376.873	-200.000	0.005	0.374
-375.858	212.043	-0.056	-0.087
-374.844	-56.812	0.228	0.099
-373.829	800.000	0.010	-0.043
-372.815	670.185	-0.030	-0.077
-371.800	-51.822	-0.171	0.079
-370.785	-61.589	0.138	-0.057
-369.771	153.778	-0.088	-0.118
-368.756	80.361	-0.176	0.187
-367.742	-200.000	-0.035	-0.283
-366.727	5.530	0.151	0.110
-365.712	-200.000	-0.021	0.121
-364.698	-156.251	0.139	-0.009
-363.683	364.328	-0.100	-0.198
-362.669	-97.870	0.066	-0.017
-361.654	-105.389	0.281	-0.063
-360.639	-200.000	0.029	-0.193
-359.625	96.336	-0.212	0.239
-358.610	-46.269	0.177	0.086
-357.596	9.473	0.226	0.169
-356.581	-41.607	0.318	0.161
-355.566	-3.961	0.218	0.149
-354.552	-93.351	0.251	0.069
-353.537	41.857	-0.149	-0.133
-352.523	82.659	0.086	-0.092
-351.508	-20.349	-0.149	0.090
-350.493	-25.992	-0.275	0.160
-349.479	238.670	-0.126	-0.206
-348.464	157.333	-0.056	0.076
-347.450	248.068	0.147	-0.245
-346.435	-173.842	-0.244	0.007
-345.420	11.645	-0.123	-0.093
-344.406	-7.720	-0.108	-0.072
-343.391	21.951	0.068	-0.054
-342.377	-128.675	0.142	-0.020
-341.362	-18.567	-0.328	0.202
-340.348	-200.000	0.014	-0.063
-339.333	53.579	-0.167	-0.158
-338.318	800.000	-0.050	0.170
-337.304	542.008	0.049	0.116
-336.289	-14.542	-0.214	0.136
-335.275	10.892	0.072	-0.054
-334.260	74.565	-0.101	0.105
-333.245	-51.100	0.327	-0.151
-332.231	-110.222	0.012	0.002
-331.216	-200.000	-0.047	0.245
-330.202	-200.000	0.012	0.234
-329.187	17.226	-0.352	-0.275
-328.172	800.000	0.043	-0.163
-327.158	-9.241	-0.121	0.080
-326.143	16.411	-0.151	0.117
-325.129	17.756	0.020	-0.015
-324.114	-200.000	0.004	-0.170
-323.099	39.307	0.197	0.173
-322.085	58.633	-0.249	0.241
-321.070	56.320	-0.152	-0.145
-320.056	-80.279	-0.186	-0.061
-319.041	-25.776	-0.090	0.052
-318.026	800.000	0.028	0.088
-317.012	323.469	-0.181	0.340
-315.997	-36.758	0.065	0.034
-314.983	-114.721	0.248	0.047
-313.968	107.815	0.126	-0.147
-312.953	22.010	-0.127	-0.102
-311.939	-86.214	-0.362	-0.110
-310.924	513.911	0.059	-0.134
-309.910	103.004	-0.064	-0.073
-308.895	34.070	0.280	0.240
-307.880	-200.000	-0.062	0.533
-306.866	76.562	0.128	-0.133
-305.851	-126.298	0.098	0.014
-304.837	-69.665	-0.366	0.138
-303.822	-200.000	-0.021	-0.148
-302.807	-36.594	-0.226	-0.120
-301.793	616.723	-0.139	-0.342
-300.778	-140.001	-0.360	-0.037
-299.764	-40.836	-0.182	-0.093
-298.749	-63.704	0.113	-0.046
-297.735	643.339	-0.090	-0.226
-296.720	-151.458	0.230	-0.017
-295.705	-74.376	0.273	0.097
-294.691	251.405	-0.109	0.183
-293.676	-75.032	0.206	-0.073
-292.662	396.109	-0.122	0.251
-291.647	800.000	-0.035	-0.118
-290.632	84.022	0.288	0.309
-289.618	48.549	0.260	-0.240
-288.603	-32.897	0.084	-0.046
-287.589	-36.931	0.137	-0.072
-286.574	800.000	-0.128	-0.358
-285.559	-21.919	-0.071	0.042
-284.545	-53.973	-0.115	-0.051
-283.530	-85.994	0.451	-0.137
-282.516	-200.000	0.021	0.099
-281.501	-54.778	0.306	-0.136
-280.486	-200.000	0.016	-0.249
-279.472	-130.919	-0.099	-0.013
-278.457	46.534	-0.316	-0.289
-277.443	400.810	0.053	-0.110
-276.428	-36.999	0.118	-0.062
-275.413	117.332	-0.018	-0.022
-274.399	-57.697	-0.106	0.046
-273.384	-16.682	-0.077	0.048
-272.370	-128.138	0.115	0.016
-271.355	67.005	0.040	-0.040
-270.340	-200.000	-0.043	-0.229
-269.326	761.930	0.035	-0.094
-268.311	173.726	-0.113	0.161
-267.297	-96.041	0.279	-0.073
-266.282	-85.135	0.224	-0.069
-265.267	-115.517	0.458	-0.085
-264.253	-49.579	0.095	0.044
-263.238	-200.000	0.049	0.287
-262.224	-200.000	-0.044	0.239
-261.209	800.000	0.009	-0.028
-260.195	800.000	0.053	0.224
-259.180	800.000	-0.083	-0.242
-258.165	-12.065	0.114	-0.073
-257.151	725.786	0.044	-0.115
-256.136	-191.431	-0.123	-0.001
-255.122	-129.672	-0.181	-0.024
-254.107	800.000	0.032	-0.107
-253.092	-87.918	0.294	0.087
-252.078	-80.234	0.116	-0.038
-251.063	133.904	0.123	-0.156
-250.049	660.568	-0.157	-0.398
-249.034	-200.000	0.011	0.199
-248.019	-1.928	-0.178	-0.123
-247.005	-81.494	-0.334	0.108
-245.990	-192.156	0.193	-0.002
-244.976	800.000	-0.062	0.262
-243.961	64.634	0.231	-0.229
-242.946	-200.000	-0.029	-0.182
-241.932	19.954	0.181	-0.143
-240.917	800.000	0.075	0.229
-239.903	800.000	0.065	0.258
-238.888	-1.236	0.171	-0.119
-237.873	6.932	-0.217	-0.159
-236.859	-200.000	-0.063	0.293
-235.844	-72.365	0.320	0.116
-234.830	500.294	-0.138	-0.313
-233.815	-93.091	0.134	0.037
-232.800	154.023	0.103	0.139
-231.786	-200.000	-0.009	0.093
-230.771	-200.000	-0.013	0.086
-229.757	-200.000	-0.038	-0.331
-228.742	800.000	-0.053	0.197
-227.727	69.957	-0.120	-0.121
-226.713	-200.000	0.045	0.303
-225.698	60.225	0.159	0.155
-224.684	21.166	-0.115	-0.091
-223.669	-200.000	0.015	0.320
-222.655	-200.000	-0.006	-0.060
-221.640	37.396	0.084	0.073
-220.625	-65.450	0.128	-0.050
-219.611	6.443	-0.302	0.220
-218.596	800.000	-0.104	0.315
-217.582	689.023	0.125	-0.321
-216.567	800.000	-0.042	-0.118
-215.552	677.960	-0.021	0.052
-214.538	-200.000	-0.062	0.307
-213.523	190.244	-0.207	0.305
-212.509	-74.690	0.281	0.099
-211.494	-130.182	0.272	-0.036
-210.479	263.083	0.069	-0.118
-209.465	-200.000	-0.039	-0.177
-208.450	-68.934	-0.072	0.027
-207.436	590.976	0.112	0.270
-206.421	-118.415	0.214	-0.037
-205.406	40.707	-0.149	0.132
-204.392	448.025	-0.113	-0.243
-203.377	-82.516	0.395	-0.126
-202.363	-200.000	-0.023	-0.173
-201.348	58.532	0.115	-0.111
-200.333	105.649	0.042	-0.049
-199.319	-113.125	-0.156	-0.030
-198.304	-110.975	0.055	-0.011
-197.290	240.751	0.194	0.317
-196.275	61.361	-0.185	-0.180
-195.260	-5.778	0.234	-0.157
-194.246	56.940	-0.106	-0.101
-193.231	800.000	-0.041	-0.164
-192.217	800.000	-0.073	0.256
-191.202	40.300	0.102	-0.090
-190.187	-60.048	0.230	-0.096
-189.173	-200.000	-0.010	-0.150
-188.158	-184.145	0.356	-0.006
-187.144	272.063	0.092	0.158
-186.129	302.738	0.202	0.366
-185.114	-200.000	0.005	-0.206
-184.100	61.650	-0.055	0.054
-183.085	-173.310	-0.268	0.008
-182.071	-200.000	0.055	-0.247
-181.056	100.160	-0.224	-0.254
-180.042	-132.798	0.286	0.036
-179.027	322.144	0.142	0.264
-178.012	-98.301	0.139	-0.035
-176.998	47.378	-0.356	0.325
-175.983	-16.110	-0.029	0.018
-174.969	73.384	0.079	0.081
-173.954	267.095	-0.079	-0.135
-172.939	10.793	-0.121	0.090
-171.925	-80.126	-0.221	0.072
-170.910	107.508	-0.098	-0.114
-169.896	-200.000	-0.030	-0.445
-168.881	800.000	-0.041	-0.134
-167.866	209.421	-0.167	-0.256
-166.852	54.931	0.247	-0.234
-165.837	-25.848	0.158	0.091
-164.823	39.609	-0.119	-0.104
-163.808	-47.949	-0.264	-0.125
-162.793	-59.917	-0.208	0.087
-161.779	-26.436	0.204	0.117
-160.764	-200.000	-0.001	-0.170
-159.750	137.279	0.361	-0.462
-158.735	150.163	-0.151	0.200
-157.720	-115.910	-0.237	0.043
-156.706	41.232	-0.145	-0.128
-155.691	24.571	0.236	0.191
-154.677	-38.396	0.075	0.039
-153.662	-106.054	-0.283	-0.062
-152.647	149.900	-0.178	-0.237
-151.633	155.930	0.292	-0.393
-150.618	800.000	0.007	-0.028
-149.604	37.199	0.216	-0.187
-148.589	-200.000	-0.018	0.181
-147.574	-79.267	-0.086	-0.029
-146.560	167.729	0.021	0.030
-145.545	-200.000	0.011	-0.075
-144.531	61.090	-0.123	-0.120
-143.516	60.003	-0.081	0.078
-142.502	90.217	0.108	0.118
-141.487	32.711	-0.216	0.183
-140.472	-1.685	-0.278	-0.191
-139.458	276.060	0.123	0.213
-138.443	-23.957	0.079	0.046
-137.429	-200.000	0.010	0.144
-136.414	-142.816	0.133	-0.013
-135.399	-62.039	-0.333	-0.136
-134.385	451.885	0.057	0.123
-133.370	-27.025	0.092	-0.053
-132.356	-68.071	-0.107	-0.041
-131.341	-140.406	0.260	0.027
-130.326	-179.872	-0.143	-0.003
-129.312	664.627	-0.108	-0.273
-128.297	81.477	0.033	-0.035
-127.283	88.444	0.105	-0.113
-126.268	8.479	-0.224	0.165
-125.253	-74.954	0.420	0.147
-124.239	-54.558	-0.152	-0.067
-123.224	-70.413	0.274	0.101
-122.210	-85.691	0.198	-0.060
-121.195	97.085	-0.031	0.035
