DTS Sentinel unit serial number:	SN413079Multiplexer serial number:	ORYXHardware model number:	OX4-SRSoftware version number:	ORYX F/W v4.00 Oryx Data Collector v3.7.2.0data status	okinstallation	princeton_trtdifferential loss correction	single-endedforward channel	channel 3reverse channel	N/Adate	2019/09/12time	04:22:10forward acquisition time	60.00reverse acquisition time	0.00gamma	496.2192k internal	0.2324k external	0.2324temperature offset calibration	1.0075default loss term (dB/km)	0.3790temperature slope calibration	1.0000multiplexer offset coefficient	1.0000multiplexer slope coefficient	1.0000fibre end	0.00T internal ref (°C)	31.72T ext. ref 1 (°C)	2.24T ext. ref 2 (°C)	25.31length (m)	temperature (°C)	Stokes	anti-Stokes-747.200	-194.865	-0.068	0.001
-746.185	800.000	-0.043	0.125
-745.171	-90.201	0.103	-0.030
-744.156	162.511	-0.159	0.226
-743.142	-132.105	-0.532	-0.070
-742.127	-160.883	-0.430	-0.023
-741.112	800.000	-0.069	-0.246
-740.098	131.784	0.126	0.164
-739.083	-65.965	0.210	0.085
-738.069	110.252	-0.265	0.321
-737.054	470.246	-0.013	0.030
-736.039	27.268	0.287	-0.243
-735.025	-61.356	-0.170	-0.072
-734.010	265.692	-0.105	-0.186
-732.996	12.520	-0.355	-0.276
-731.981	273.289	-0.080	-0.142
-730.966	223.117	-0.091	0.148
-729.952	-200.000	-0.002	-0.138
-728.937	-200.000	0.041	-0.537
-727.923	371.844	0.134	0.274
-726.908	94.176	-0.182	0.209
-725.894	19.047	-0.137	-0.111
-724.879	15.855	-0.286	-0.227
-723.864	-10.350	0.229	-0.153
-722.850	102.249	-0.051	-0.060
-721.835	-29.682	-0.495	-0.285
-720.821	-200.000	-0.003	-0.496
-719.806	-35.624	-0.267	-0.146
-718.791	-168.496	-0.367	-0.014
-717.777	29.011	0.145	0.124
-716.762	-123.722	-0.143	-0.023
-715.748	101.147	-0.098	-0.115
-714.733	-200.000	0.062	-0.333
-713.718	-46.347	-0.179	0.089
-712.704	245.668	0.073	-0.124
-711.689	314.926	-0.060	-0.114
-710.675	-104.534	-0.097	0.023
-709.660	209.866	0.083	-0.131
-708.645	71.497	-0.137	0.144
-707.631	800.000	-0.029	0.127
-706.616	800.000	-0.070	-0.204
-705.602	125.148	0.116	-0.147
-704.587	-200.000	-0.007	-0.073
-703.572	264.967	-0.255	-0.448
-702.558	7.384	0.363	0.274
-701.543	-176.699	0.142	0.004
-700.529	280.720	-0.035	0.064
-699.514	37.760	0.150	0.134
-698.499	-161.201	-0.493	0.026
-697.485	488.465	0.039	-0.089
-696.470	115.910	0.119	-0.146
-695.456	800.000	0.048	0.141
-694.441	-200.000	-0.014	0.140
-693.426	-49.039	-0.329	-0.159
-692.412	-101.014	0.249	0.062
-691.397	-55.100	-0.301	0.136
-690.383	283.916	0.094	-0.171
-689.368	62.752	-0.315	-0.318
-688.354	-31.334	-0.063	0.036
-687.339	65.924	0.191	-0.195
-686.324	-119.942	0.181	-0.031
-685.310	-121.411	-0.147	0.025
-684.295	-62.368	-0.088	-0.037
-683.281	324.743	-0.044	-0.084
-682.266	-121.338	-0.216	-0.036
-681.251	-200.000	0.024	0.139
-680.237	-200.000	0.040	-0.295
-679.222	399.874	-0.074	-0.157
-678.208	70.810	-0.185	-0.193
-677.193	-146.101	0.266	-0.024
-676.178	108.586	0.231	0.277
-675.164	0.526	-0.178	-0.128
-674.149	-175.241	-0.253	-0.007
-673.135	-200.000	0.052	-0.404
-672.120	18.990	0.380	-0.307
-671.105	800.000	0.017	0.065
-670.091	3.798	-0.048	-0.035
-669.076	-92.415	-0.080	0.023
-668.062	-142.983	0.010	0.001
-667.047	-108.126	-0.304	-0.066
-666.032	-12.316	0.356	0.234
-665.018	-144.183	-0.067	0.006
-664.003	-96.998	-0.085	-0.022
-662.989	800.000	-0.128	-0.408
-661.974	-131.899	-0.179	-0.023
-660.959	175.759	-0.091	-0.133
-659.945	-75.077	-0.140	0.050
-658.930	-184.306	-0.231	0.004
-657.916	-200.000	0.020	0.115
-656.901	-91.136	-0.255	0.074
-655.886	200.931	-0.208	-0.322
-654.872	-200.000	0.024	0.158
-653.857	-62.701	0.184	0.077
-652.843	104.133	0.167	0.197
-651.828	407.018	0.119	-0.252
-650.814	99.964	0.081	-0.095
-649.799	68.534	-0.053	0.055
-648.784	-12.966	0.204	-0.134
-647.770	-200.000	-0.049	0.281
-646.755	195.437	0.324	-0.495
-645.741	-200.000	0.055	-0.447
-644.726	-200.000	0.033	-0.186
-643.711	-103.952	-0.262	-0.061
-642.697	800.000	-0.014	-0.049
-641.682	79.129	0.063	0.068
-640.668	-160.676	-0.475	-0.025
-639.653	-38.604	0.396	-0.210
-638.638	-87.570	0.231	-0.070
-637.624	46.923	0.048	-0.045
-636.609	800.000	-0.070	-0.261
-635.595	-59.982	-0.371	-0.159
-634.580	-21.388	-0.162	-0.099
-633.565	800.000	0.039	0.153
-632.551	800.000	-0.074	0.211
-631.536	-15.991	-0.219	-0.140
-630.522	72.323	0.238	-0.249
-629.507	-188.818	-0.138	-0.002
-628.492	537.221	-0.110	0.262
-627.478	-80.919	0.168	-0.056
-626.463	672.840	-0.080	0.208
-625.449	327.327	-0.047	-0.091
-624.434	290.982	-0.160	-0.292
-623.419	-89.709	-0.309	-0.091
-622.405	-1.358	0.082	-0.058
-621.390	-109.363	0.129	-0.027
-620.376	800.000	0.071	-0.214
-619.361	241.759	0.045	0.075
-618.346	-172.293	0.232	-0.007
-617.332	-54.690	0.138	0.063
-616.317	-77.160	-0.232	0.081
-615.303	295.988	-0.028	-0.052
-614.288	82.136	-0.256	0.279
-613.273	88.231	0.327	-0.364
-612.259	-5.640	0.420	0.289
-611.244	-195.017	-0.259	-0.002
-610.230	229.862	-0.194	-0.319
-609.215	-128.827	-0.174	-0.025
-608.201	-1.115	-0.381	0.270
-607.186	191.171	-0.049	0.073
-606.171	-92.920	-0.358	-0.100
-605.157	-86.124	-0.211	0.065
-604.142	-35.479	0.185	0.101
-603.128	-152.603	-0.232	-0.017
-602.113	-165.983	0.150	-0.006
-601.098	-145.100	0.181	0.017
-600.084	-200.000	0.047	0.242
-599.069	800.000	-0.061	0.206
-598.055	-200.000	-0.016	0.230
-597.040	-56.281	-0.113	0.051
-596.025	-43.119	-0.562	-0.286
-595.011	800.000	-0.063	0.224
-593.996	-200.000	-0.000	0.295
-592.982	-71.694	0.120	0.045
-591.967	121.154	0.068	0.085
-590.952	80.679	0.059	-0.064
-589.938	-126.982	-0.305	0.045
-588.923	-200.000	0.005	-0.215
-587.909	449.747	-0.123	-0.272
-586.894	42.990	0.056	-0.052
-585.879	-48.772	0.446	-0.215
-584.865	212.380	0.135	-0.214
-583.850	-128.624	-0.419	-0.060
-582.836	-128.676	0.326	-0.046
-581.821	-104.537	0.356	0.082
-580.806	-42.642	-0.266	0.136
-579.792	-29.241	0.132	-0.076
-578.777	120.098	0.136	-0.169
-577.763	-50.973	0.230	0.108
-576.748	109.310	-0.132	0.159
-575.733	-124.377	-0.101	-0.016
-574.719	-200.000	-0.035	-0.214
-573.704	115.996	0.085	0.105
-572.690	800.000	-0.085	-0.326
-571.675	148.308	0.103	-0.139
-570.661	-92.107	-0.162	0.046
-569.646	9.631	-0.212	0.161
-568.631	800.000	0.031	-0.106
-567.617	-48.029	0.151	-0.073
-566.602	-76.985	0.265	-0.093
-565.588	172.063	-0.027	-0.039
-564.573	89.903	-0.055	-0.061
-563.558	116.912	-0.135	0.166
-562.544	-121.664	-0.320	-0.053
-561.529	230.522	-0.073	-0.120
-560.515	60.377	-0.142	0.141
-559.500	-133.127	-0.131	0.017
-558.485	146.297	0.219	0.295
-557.471	-78.292	-0.081	-0.028
-556.456	-200.000	-0.047	0.259
-555.442	-126.321	0.080	-0.012
-554.427	-26.773	0.312	-0.183
-553.412	503.570	-0.104	0.241
-552.398	-52.180	-0.166	0.077
-551.383	-157.402	-0.127	0.008
-550.369	800.000	-0.117	0.327
-549.354	49.068	0.136	0.128
-548.339	-20.090	0.240	0.148
-547.325	-200.000	-0.005	-0.301
-546.310	-165.621	-0.073	-0.003
-545.296	-106.637	0.284	-0.063
-544.281	-200.000	0.040	0.378
-543.266	-18.415	-0.241	-0.151
-542.252	243.286	-0.082	0.137
-541.237	413.348	0.078	0.166
-540.223	187.483	0.069	-0.103
-539.208	114.887	-0.161	-0.196
-538.193	535.631	0.094	0.224
-537.179	104.005	0.223	-0.263
-536.164	100.755	-0.114	0.133
-535.150	-37.740	0.051	0.027
-534.135	82.070	0.082	0.089
-533.121	-76.704	0.192	-0.067
-532.106	-200.000	0.065	-0.303
-531.091	253.247	-0.106	0.181
-530.077	13.730	-0.534	0.415
-529.062	129.424	0.288	0.369
-528.048	-200.000	0.014	-0.189
-527.033	-200.000	-0.002	-0.185
-526.018	-200.000	0.004	0.047
-525.004	-141.907	0.189	-0.019
-523.989	49.836	-0.115	-0.109
-522.975	93.319	0.079	0.089
-521.960	179.256	0.030	-0.043
-520.945	-128.764	-0.226	0.032
-519.931	252.436	0.114	0.195
-518.916	800.000	-0.054	-0.158
-517.902	-200.000	0.019	-0.148
-516.887	-14.698	-0.260	-0.167
-515.872	-95.928	0.237	-0.063
-514.858	800.000	0.078	0.237
-513.843	142.261	0.301	0.399
-512.829	-177.437	0.324	0.008
-511.814	557.012	-0.172	-0.416
-510.799	-85.089	-0.322	0.101
-509.785	-148.946	0.203	-0.016
-508.770	81.034	-0.112	0.121
-507.756	5.608	0.194	0.144
-506.741	79.943	-0.194	-0.208
-505.726	7.743	0.241	-0.181
-504.712	466.595	-0.062	0.140
-503.697	84.540	0.221	-0.242
-502.683	13.607	-0.083	0.064
-501.668	-200.000	-0.000	0.207
-500.653	36.498	0.229	0.202
-499.639	-156.339	-0.179	0.011
-498.624	-200.000	-0.016	0.106
-497.610	204.283	-0.088	-0.137
-496.595	5.842	0.389	0.288
-495.581	-86.853	0.220	0.067
-494.566	-76.891	0.199	-0.070
-493.551	-136.267	0.229	-0.027
-492.537	180.088	-0.173	0.254
-491.522	212.434	0.067	0.106
-490.508	-5.451	-0.032	0.022
-489.493	-93.737	-0.149	0.041
-488.478	82.511	-0.202	-0.219
-487.464	-34.182	0.131	0.072
-486.449	54.575	-0.057	-0.055
-485.435	-75.523	-0.449	-0.160
-484.420	446.268	0.048	-0.106
-483.405	101.587	-0.267	0.311
-482.391	-140.937	0.436	0.045
-481.376	-3.114	-0.168	0.117
-480.362	-29.904	-0.150	-0.085
-479.347	-154.027	0.119	-0.008
-478.332	-80.610	0.175	0.058
-477.318	800.000	0.093	0.367
-476.303	-12.592	0.094	0.061
-475.289	800.000	0.041	0.139
-474.274	98.028	-0.272	-0.313
-473.259	0.117	-0.003	0.002
-472.245	-200.000	-0.078	0.436
-471.230	-200.000	0.003	0.174
-470.216	800.000	-0.032	0.131
-469.201	389.212	-0.103	0.214
-468.186	-56.149	-0.259	-0.115
-467.172	122.103	0.130	0.162
-466.157	451.025	0.138	0.305
-465.143	-49.670	0.175	-0.083
-464.128	88.054	0.210	0.232
-463.113	-75.894	-0.317	0.112
-462.099	656.192	0.050	-0.129
-461.084	800.000	0.042	0.160
-460.070	-45.716	-0.056	0.028
-459.055	-90.433	0.265	0.077
-458.040	-57.782	-0.171	0.075
-457.026	-34.196	0.412	-0.226
-456.011	-200.000	-0.042	-0.192
-454.997	-200.000	-0.002	-0.074
-453.982	800.000	-0.018	-0.076
-452.968	487.381	-0.043	0.097
-451.953	-98.880	0.382	0.097
-450.938	-102.461	-0.149	-0.036
-449.924	180.905	0.104	0.152
-448.909	52.674	-0.370	-0.352
-447.895	-42.781	0.131	-0.066
-446.880	56.531	-0.211	-0.205
-445.865	-190.693	-0.372	0.004
-444.851	-101.690	0.134	-0.033
-443.836	-8.494	0.063	0.042
-442.822	-200.000	0.038	0.290
-441.807	135.550	0.148	0.192
-440.792	-127.850	0.140	0.020
-439.778	-115.610	0.375	0.070
-438.763	-143.283	0.306	0.029
-437.749	22.678	0.083	0.068
-436.734	667.300	0.102	-0.264
-435.719	1.374	-0.074	-0.053
-434.705	-25.457	0.247	0.146
-433.690	-200.000	0.036	-0.317
-432.676	115.409	-0.058	0.071
-431.661	-122.130	0.140	-0.023
-430.646	-115.926	-0.135	-0.025
-429.632	169.224	0.113	-0.161
-428.617	-200.000	0.032	0.211
-427.603	25.291	0.237	-0.197
-426.588	800.000	-0.027	-0.087
-425.573	-128.101	0.333	0.048
-424.559	-200.000	-0.079	-0.372
-423.544	-200.000	0.066	0.334
-422.530	-7.231	-0.307	0.207
-421.515	91.845	-0.052	-0.059
-420.500	-28.572	-0.235	-0.135
-419.486	52.952	0.270	-0.257
-418.471	34.165	-0.276	-0.240
-417.457	348.692	-0.050	-0.098
-416.442	150.053	0.227	-0.307
-415.428	-200.000	0.013	-0.255
-414.413	54.252	-0.254	-0.244
-413.398	-124.984	-0.070	-0.011
-412.384	165.030	0.153	-0.216
-411.369	-95.093	-0.138	0.037
-410.355	-86.257	-0.392	0.120
-409.340	-200.000	0.057	-0.289
-408.325	800.000	-0.105	-0.391
-407.311	-29.656	-0.149	-0.085
-406.296	-84.417	-0.221	0.070
-405.282	205.275	-0.215	-0.332
-404.267	800.000	-0.118	0.437
-403.252	-200.000	-0.002	0.083
-402.238	-108.221	-0.173	0.037
-401.223	223.332	0.019	0.031
-400.209	800.000	-0.054	0.185
-399.194	-99.113	-0.205	-0.052
-398.179	-92.095	-0.030	-0.008
-397.165	800.000	-0.050	-0.163
-396.150	164.788	0.041	0.057
-395.136	-200.000	0.006	0.115
-394.121	-200.000	-0.024	-0.146
-393.106	274.480	0.069	-0.121
-392.092	-134.231	0.181	-0.022
-391.077	0.705	0.068	-0.049
-390.063	-200.000	0.046	-0.231
-389.048	13.844	-0.192	0.149
-388.033	106.753	0.153	-0.180
-387.019	-128.502	-0.286	-0.040
-386.004	-91.937	-0.114	0.032
-384.990	79.398	0.261	-0.278
-383.975	-104.689	-0.159	-0.036
-382.960	-101.504	-0.484	0.117
-381.946	800.000	-0.054	0.165
-380.931	-200.000	-0.006	0.086
-379.917	-126.875	-0.329	0.048
-378.902	-133.868	-0.030	-0.004
-377.888	-22.118	0.398	0.240
-376.873	-126.730	-0.093	0.014
-375.858	144.470	0.152	0.203
-374.844	-162.782	0.126	-0.006
-373.829	6.106	-0.066	-0.049
-372.815	-200.000	-0.036	0.286
-371.800	800.000	-0.105	0.373
-370.785	-98.500	0.063	-0.016
-369.771	96.358	-0.096	-0.109
-368.756	800.000	0.055	0.239
-367.742	-200.000	-0.050	0.318
-366.727	81.164	-0.247	0.265
-365.712	-13.475	0.144	0.093
-364.698	-200.000	0.046	0.332
-363.683	-86.459	-0.153	-0.047
-362.669	-20.572	-0.177	0.108
-361.654	79.531	-0.047	0.050
-360.639	-84.659	0.034	-0.011
-359.625	-150.384	-0.260	-0.020
-358.610	122.739	0.272	0.338
-357.596	-139.779	-0.112	0.012
-356.581	-200.000	0.007	-0.229
-355.566	-20.667	-0.217	-0.133
-354.552	257.406	0.090	0.154
-353.537	104.840	0.040	0.046
-352.523	148.489	-0.061	-0.082
-351.508	-200.000	0.002	-0.219
-350.493	800.000	-0.018	-0.060
-349.479	182.658	0.175	-0.256
-348.464	258.409	0.148	0.253
-347.450	-200.000	-0.176	0.000
-346.435	154.473	-0.044	0.060
-345.420	-35.682	0.268	0.145
-344.406	101.147	0.238	0.275
-343.391	-200.000	-0.011	0.239
-342.377	-75.616	-0.163	-0.058
-341.362	146.500	-0.074	-0.098
-340.348	327.849	-0.240	0.458
-339.333	-115.599	-0.125	-0.023
-338.318	381.124	-0.161	-0.329
-337.304	130.127	-0.112	-0.142
-336.289	64.114	-0.229	0.229
-335.275	551.370	0.055	0.131
-334.260	27.404	-0.124	-0.104
-333.245	-200.000	0.004	0.244
-332.231	197.397	-0.117	0.177
-331.216	-57.246	-0.291	0.127
-330.202	-8.242	0.184	-0.123
-329.187	61.158	-0.052	0.051
-328.172	-27.450	-0.200	-0.116
-327.158	-200.000	-0.044	0.332
-326.143	-92.208	0.115	-0.032
-325.129	10.234	-0.184	-0.139
-324.114	-200.000	0.064	0.420
-323.099	-72.938	-0.075	-0.027
-322.085	-200.000	-0.012	0.224
-321.070	-69.703	0.352	0.134
-320.056	746.834	0.073	0.194
-319.041	80.612	0.214	-0.229
-318.026	157.067	0.036	-0.050
-317.012	-44.608	0.499	0.247
-315.997	348.007	-0.147	0.288
-314.983	-117.484	-0.436	-0.078
-313.968	261.908	0.080	0.138
-312.953	107.579	-0.044	0.052
-311.939	71.291	0.095	0.098
-310.924	-200.000	-0.026	0.294
-309.910	-200.000	0.021	0.166
-308.895	-93.950	0.262	-0.072
-307.880	30.050	0.144	0.122
-306.866	87.240	-0.253	-0.278
-305.851	-60.374	0.202	-0.085
-304.837	-200.000	0.041	0.332
-303.822	-117.743	-0.453	0.081
-302.807	38.536	-0.156	-0.138
-301.793	-94.555	-0.191	0.052
-300.778	-200.000	0.045	0.244
-299.764	416.997	0.117	0.248
-298.749	-200.000	0.035	-0.215
-297.735	129.964	-0.068	-0.087
-296.720	-133.178	-0.099	0.012
-295.705	800.000	0.071	-0.228
-294.691	220.258	-0.164	-0.261
-293.676	-139.738	-0.221	0.023
-292.662	800.000	0.030	0.094
-291.647	344.922	-0.101	0.196
-290.632	269.859	0.070	-0.122
-289.618	168.858	0.126	-0.178
-288.603	-200.000	-0.057	0.449
-287.589	3.680	0.194	0.141
-286.574	74.259	0.324	-0.338
-285.559	-184.316	-0.366	-0.006
-284.545	-129.483	-0.033	-0.005
-283.530	-72.976	-0.259	-0.094
-282.516	-121.902	-0.190	0.031
-281.501	-155.804	0.181	-0.011
-280.486	-11.929	0.153	0.099
-279.472	-34.932	0.088	-0.048
-278.457	331.953	0.131	-0.251
-277.443	517.555	0.130	-0.301
-276.428	800.000	-0.026	-0.108
-275.413	176.024	0.130	-0.187
-274.399	89.202	-0.113	0.125
-273.384	-144.786	-0.146	-0.013
-272.370	-43.990	0.293	0.146
-271.355	-109.207	-0.178	-0.038
-270.340	-72.114	-0.067	-0.025
-269.326	-50.268	-0.320	-0.150
-268.311	-187.663	-0.231	-0.003
-267.297	800.000	0.051	-0.202
-266.282	800.000	-0.036	0.121
-265.267	-200.000	0.034	-0.215
-264.253	247.802	-0.066	-0.111
-263.238	-200.000	-0.002	0.063
-262.224	16.343	-0.187	-0.146
-261.209	-23.031	0.230	-0.137
-260.195	118.516	-0.167	-0.204
-259.180	-200.000	0.045	-0.256
-258.165	-44.238	0.264	-0.131
-257.151	219.238	0.114	0.181
-256.136	507.187	0.088	-0.203
-255.122	-114.235	0.060	0.012
-254.107	58.448	0.126	0.123
-253.092	800.000	0.064	-0.218
-252.078	144.975	-0.197	-0.260
-251.063	-200.000	-0.039	-0.229
-250.049	-91.457	-0.033	-0.009
-249.034	17.830	0.133	-0.105
-248.019	132.191	0.209	-0.266
-247.005	-69.276	0.184	0.070
-245.990	-156.546	-0.170	0.010
-244.976	9.518	-0.207	-0.155
-243.961	-147.671	-0.196	0.016
-242.946	-69.883	0.192	0.072
-241.932	-53.165	-0.224	0.102
-240.917	-88.468	-0.058	-0.017
-239.903	20.073	0.313	0.250
-238.888	-119.397	0.411	0.071
-237.873	-39.278	0.337	-0.175
-236.859	-100.114	0.276	-0.068
-235.844	-172.330	-0.143	-0.005
-234.830	-200.000	0.029	0.352
-233.815	-200.000	0.003	0.020
-232.800	-115.341	-0.308	0.057
-231.786	-128.515	0.269	0.038
-230.771	800.000	0.042	0.138
-229.757	-30.807	0.301	0.169
-228.742	-108.485	-0.048	-0.010
-227.727	-62.613	0.196	-0.080
-226.713	-83.469	-0.258	0.082
-225.698	294.037	0.049	-0.089
-224.684	-200.000	0.067	-0.384
-223.669	175.628	-0.067	-0.096
-222.655	800.000	-0.057	-0.219
-221.640	462.482	0.107	-0.237
-220.625	-74.946	-0.275	-0.097
-219.611	232.118	0.048	0.078
-218.596	162.920	0.133	-0.185
-217.582	-200.000	0.003	-0.183
-216.567	239.869	0.119	0.196
-215.552	-200.000	0.009	0.112
-214.538	-92.756	-0.104	-0.029
-213.523	-43.272	0.114	0.057
-212.509	15.574	-0.130	-0.101
-211.494	-168.515	0.207	0.008
-210.479	-7.866	-0.278	0.186
-209.465	190.630	0.152	0.226
-208.450	-200.000	0.004	0.154
-207.436	194.068	-0.034	-0.050
-206.421	-200.000	0.010	-0.318
-205.406	396.414	-0.088	0.181
-204.392	408.694	0.032	-0.067
-203.377	23.708	0.194	0.158
-202.363	461.249	0.096	0.211
-201.348	449.860	-0.134	-0.292
-200.333	-134.950	-0.228	0.027
-199.319	800.000	0.070	0.223
-198.304	3.030	-0.216	0.155
-197.290	219.542	-0.105	-0.165
-196.275	-136.259	-0.166	-0.019
-195.260	119.287	-0.231	0.283
-194.246	-200.000	0.030	-0.159
-193.231	-14.854	0.298	-0.189
-192.217	21.094	-0.081	0.065
-191.202	332.698	0.136	-0.259
-190.187	-99.316	0.232	0.058
-189.173	776.448	0.121	0.328
-188.158	-41.392	-0.293	-0.149
-187.144	-200.000	-0.031	0.134
-186.129	30.246	0.177	-0.150
-185.114	84.022	-0.315	-0.340
-184.100	800.000	-0.049	0.172
-183.085	117.810	-0.165	-0.201
-182.071	800.000	-0.022	-0.081
-181.056	-106.703	0.296	-0.065
-180.042	-131.691	-0.207	-0.027
-179.027	-167.490	0.032	0.001
-178.012	117.609	0.175	-0.212
-176.998	-200.000	-0.015	-0.116
-175.983	182.426	-0.026	0.038
-174.969	-71.239	0.167	-0.062
-173.954	103.775	0.222	-0.257
-172.939	-46.175	-0.190	0.092
-171.925	221.802	0.114	-0.180
-170.910	-84.869	0.275	-0.085
-169.896	-71.086	0.176	0.065
-168.881	261.783	-0.088	-0.150
-167.866	-200.000	-0.039	-0.253
-166.852	73.849	-0.108	0.111
-165.837	-88.702	0.382	-0.112
-164.823	-100.402	0.261	0.064
-163.808	22.846	0.142	0.115
-162.793	337.461	-0.113	-0.217
-161.779	800.000	-0.028	0.112
-160.764	-87.861	0.129	0.038
-159.750	800.000	0.092	-0.316
-158.735	-50.456	0.078	-0.036
-157.720	-32.575	0.314	0.173
-156.706	-37.169	-0.026	0.014
-155.691	593.998	0.110	0.267
-154.677	-180.876	0.398	0.008
-153.662	47.070	-0.170	-0.156
-152.647	17.575	0.084	-0.066
-151.633	-94.697	0.048	-0.013
-150.618	-90.196	0.150	-0.043
-149.604	-200.000	0.003	-0.123
-148.589	-71.749	0.236	-0.087
-147.574	-149.052	-0.250	0.020
-146.560	-38.538	0.116	-0.060
-145.545	99.674	-0.096	0.109
-144.531	800.000	-0.132	-0.389
-143.516	-72.055	0.220	-0.081
-142.502	371.849	-0.084	0.167
-141.487	324.331	0.214	-0.403
-140.472	800.000	-0.048	-0.164
-139.458	241.175	0.093	-0.153
-138.443	-25.187	0.113	0.066
-137.429	-200.000	-0.005	0.126
-136.414	-152.182	-0.086	0.006
-135.399	-103.261	0.152	-0.035
-134.385	-61.361	-0.115	0.048
-133.370	-119.609	0.088	0.015
-132.356	-164.944	-0.234	-0.010
-131.341	-105.937	-0.271	-0.060
-130.326	-23.984	0.174	0.102
-129.312	27.371	0.040	0.033
-128.297	-197.953	0.136	-0.001
-127.283	-35.094	0.106	0.057
-126.268	476.872	-0.098	-0.219
-125.253	264.740	0.116	0.200
-124.239	56.121	0.322	-0.308
-123.224	-164.188	-0.141	-0.006
-122.210	520.724	-0.148	0.343
