DTS Sentinel unit serial number:	SN413079Multiplexer serial number:	ORYXHardware model number:	OX4-SRSoftware version number:	ORYX F/W v4.00 Oryx Data Collector v3.7.2.0data status	okinstallation	princeton_trtdifferential loss correction	single-endedforward channel	channel 3reverse channel	N/Adate	2019/09/14time	07:44:35forward acquisition time	60.00reverse acquisition time	0.00gamma	496.2192k internal	0.2339k external	0.2339temperature offset calibration	1.0050default loss term (dB/km)	0.3790temperature slope calibration	1.0000multiplexer offset coefficient	1.0000multiplexer slope coefficient	1.0000fibre end	0.00T internal ref (°C)	26.37T ext. ref 1 (°C)	3.49T ext. ref 2 (°C)	22.46length (m)	temperature (°C)	Stokes	anti-Stokes-747.200	-45.091	-0.126	0.063
-746.185	189.218	0.067	0.100
-745.171	80.911	-0.209	0.226
-744.156	-17.275	0.133	-0.084
-743.142	15.200	-0.214	-0.169
-742.127	291.261	-0.061	0.112
-741.112	-200.000	-0.031	-0.216
-740.098	36.528	-0.274	0.243
-739.083	172.462	0.207	0.298
-738.069	-12.715	-0.348	0.227
-737.054	38.222	-0.141	0.126
-736.039	-7.640	-0.206	0.140
-735.025	-62.668	0.315	0.131
-734.010	580.638	0.102	0.251
-732.996	-0.377	0.083	-0.059
-731.981	14.964	0.041	-0.032
-730.966	800.000	-0.099	-0.384
-729.952	223.294	0.107	-0.173
-728.937	-26.582	-0.165	0.097
-727.923	-34.350	0.104	-0.057
-726.908	-35.560	-0.046	0.025
-725.894	-53.612	-0.290	-0.133
-724.879	55.050	-0.121	-0.117
-723.864	-111.596	0.113	-0.023
-722.850	800.000	0.073	-0.279
-721.835	-65.700	-0.182	-0.073
-720.821	-74.373	-0.244	0.088
-719.806	133.468	0.164	0.213
-718.791	-80.375	0.267	-0.089
-717.777	-151.175	0.289	-0.022
-716.762	-200.000	-0.004	-0.321
-715.748	471.234	0.120	-0.271
-714.733	-153.808	-0.237	-0.016
-713.718	-200.000	0.011	-0.177
-712.704	-119.152	-0.161	-0.028
-711.689	57.627	0.158	0.154
-710.675	39.792	-0.132	0.119
-709.660	2.771	-0.154	-0.112
-708.645	-108.076	0.485	0.105
-707.631	70.175	0.083	-0.086
-706.616	-51.480	0.096	0.045
-705.602	-200.000	-0.046	0.323
-704.587	-200.000	0.037	-0.240
-703.572	-75.686	-0.236	-0.084
-702.558	-54.517	0.135	0.061
-701.543	-125.058	0.204	-0.031
-700.529	-176.082	0.238	0.006
-699.514	182.277	-0.125	-0.184
-698.499	-108.748	-0.296	-0.064
-697.485	-200.000	0.033	0.240
-696.470	750.167	0.025	-0.068
-695.456	144.812	-0.227	0.304
-694.441	-36.787	-0.221	-0.119
-693.426	118.328	-0.129	-0.160
-692.412	-0.614	-0.202	-0.143
-691.397	-48.121	0.177	-0.085
-690.383	-167.961	-0.134	0.005
-689.368	-35.437	0.420	0.228
-688.354	-70.045	0.393	-0.150
-687.339	147.213	0.144	0.193
-686.324	-53.991	0.166	-0.076
-685.310	585.731	-0.027	0.066
-684.295	250.395	0.094	-0.159
-683.281	-52.664	-0.184	0.085
-682.266	218.145	0.041	0.065
-681.251	-143.699	-0.115	-0.011
-680.237	292.126	-0.064	0.117
-679.222	241.592	-0.096	0.161
-678.208	230.235	-0.117	-0.191
-677.193	-46.806	-0.020	0.010
-676.178	-124.474	-0.177	0.027
-675.164	-200.000	0.006	0.065
-674.149	320.668	0.028	0.053
-673.135	140.937	0.071	-0.094
-672.120	-51.761	0.129	-0.060
-671.105	-92.092	-0.053	0.015
-670.091	-73.933	0.052	-0.019
-669.076	-200.000	-0.048	-0.269
-668.062	800.000	-0.089	0.261
-667.047	800.000	0.081	-0.311
-666.032	-52.166	0.209	0.097
-665.018	393.231	0.111	-0.232
-664.003	66.469	0.098	0.100
-662.989	133.871	-0.171	-0.221
-661.974	421.558	0.139	-0.298
-660.959	-107.101	0.033	0.007
-659.945	232.824	-0.157	0.258
-658.930	-116.738	0.100	0.018
-657.916	179.512	-0.074	-0.108
-656.901	-30.443	-0.108	0.061
-655.886	-154.971	-0.089	-0.006
-654.872	-200.000	0.017	-0.194
-653.857	-146.479	-0.313	-0.027
-652.843	800.000	-0.071	0.248
-651.828	-200.000	0.010	-0.062
-650.814	-85.597	-0.283	0.088
-649.799	-141.333	0.318	0.032
-648.784	-8.835	-0.197	0.132
-647.770	-181.642	-0.317	0.006
-646.755	-200.000	0.011	-0.085
-645.741	143.728	0.315	-0.420
-644.726	-192.768	-0.416	-0.004
-643.711	800.000	0.062	0.173
-642.697	57.577	0.119	-0.116
-641.682	41.258	0.093	-0.084
-640.668	800.000	-0.026	0.105
-639.653	687.511	-0.022	0.058
-638.638	289.720	-0.179	-0.324
-637.624	-90.748	-0.199	-0.057
-636.609	-174.761	-0.344	0.010
-635.595	40.960	0.159	0.143
-634.580	-94.600	-0.346	-0.094
-633.565	-90.084	-0.135	0.039
-632.551	63.582	0.117	0.118
-631.536	-66.434	0.103	0.041
-630.522	-182.699	-0.078	-0.001
-629.507	35.381	0.158	-0.138
-628.492	-52.282	0.293	0.136
-627.478	70.535	-0.163	0.168
-626.463	-5.148	-0.222	-0.152
-625.449	-17.255	-0.152	0.095
-624.434	-25.513	-0.212	0.125
-623.419	16.786	0.205	-0.162
-622.405	-133.052	-0.185	0.023
-621.390	792.516	0.145	-0.397
-620.376	-143.477	0.290	-0.028
-619.361	-90.424	-0.258	0.075
-618.346	139.110	0.244	-0.321
-617.332	-36.590	-0.227	-0.122
-616.317	-76.537	-0.350	0.123
-615.303	132.790	0.028	0.036
-614.288	-11.219	0.215	-0.142
-613.273	-1.206	-0.180	-0.127
-612.259	800.000	0.097	0.350
-611.244	-200.000	0.001	0.087
-610.230	-45.693	-0.402	-0.199
-609.215	-200.000	-0.018	-0.272
-608.201	-200.000	0.006	-0.125
-607.186	202.005	-0.024	0.036
-606.171	-200.000	-0.050	-0.294
-605.157	-83.301	-0.157	-0.050
-604.142	-200.000	0.007	-0.309
-603.128	29.937	0.153	-0.130
-602.113	143.361	-0.070	-0.092
-601.098	-103.149	0.270	-0.064
-600.084	-200.000	0.006	0.164
-599.069	-109.145	0.116	0.025
-598.055	-90.519	0.191	-0.055
-597.040	-200.000	-0.030	0.240
-596.025	-171.883	-0.044	-0.001
-595.011	-200.000	0.029	0.176
-593.996	-6.699	-0.260	0.177
-592.982	-130.110	0.119	-0.016
-591.967	98.170	-0.048	0.055
-590.952	-200.000	-0.023	0.240
-589.938	-8.008	0.187	0.126
-588.923	-192.548	-0.170	-0.002
-587.909	-200.000	-0.007	-0.127
-586.894	-112.300	-0.074	0.015
-585.879	-200.000	-0.037	-0.245
-584.865	-14.970	0.085	-0.054
-583.850	-200.000	0.022	0.167
-582.836	185.732	0.208	0.309
-581.821	-12.241	-0.131	0.086
-580.806	-189.283	-0.058	-0.001
-579.792	-49.295	0.244	-0.116
-578.777	-66.539	0.302	-0.119
-577.763	34.474	-0.160	-0.139
-576.748	31.688	0.095	-0.081
-575.733	-20.100	-0.039	-0.024
-574.719	58.907	-0.080	-0.078
-573.704	12.793	-0.046	-0.035
-572.690	70.512	-0.059	-0.061
-571.675	-170.143	0.300	0.011
-570.661	568.099	0.039	-0.095
-569.646	461.077	0.143	0.319
-568.631	16.709	0.079	-0.062
-567.617	592.955	-0.080	-0.197
-566.602	700.844	0.080	-0.209
-565.588	353.498	-0.128	-0.252
-564.573	800.000	0.076	0.238
-563.558	-200.000	-0.053	0.240
-562.544	393.141	-0.140	0.291
-561.529	-31.722	0.105	0.059
-560.515	148.817	0.193	-0.260
-559.500	-57.172	0.195	-0.085
-558.485	-60.893	0.235	-0.099
-557.471	485.604	0.176	0.399
-556.456	12.279	-0.251	0.193
-555.442	-28.990	-0.222	0.127
-554.427	-86.396	0.099	0.030
-553.412	-105.487	-0.426	0.096
-552.398	-54.338	0.122	-0.055
-551.383	257.336	0.184	0.315
-550.369	-77.555	0.298	0.103
-549.354	-81.671	-0.317	0.104
-548.339	800.000	0.014	0.045
-547.325	-1.824	0.165	-0.116
-546.310	161.967	-0.095	-0.132
-545.296	344.018	-0.116	-0.226
-544.281	-82.012	-0.119	-0.039
-543.266	517.582	-0.078	0.181
-542.252	-200.000	0.012	-0.135
-541.237	800.000	0.047	-0.164
-540.223	443.994	0.133	0.289
-539.208	-132.592	-0.258	-0.033
-538.193	-200.000	-0.047	-0.347
-537.179	-137.011	0.195	-0.022
-536.164	-98.380	-0.280	-0.071
-535.150	84.352	-0.170	-0.185
-534.135	-66.083	-0.104	-0.041
-533.121	19.039	0.217	-0.173
-532.106	8.966	-0.052	0.039
-531.091	-200.000	-0.008	0.136
-530.077	-172.000	0.130	0.004
-529.062	-200.000	-0.048	0.386
-528.048	43.179	0.057	0.051
-527.033	-119.222	0.153	-0.026
-526.018	-200.000	0.018	0.173
-525.004	-121.606	0.444	-0.073
-523.989	-200.000	-0.002	0.010
-522.975	7.775	-0.329	0.245
-521.960	-137.782	-0.130	0.014
-520.945	-13.463	-0.020	0.013
-519.931	147.201	0.166	0.222
-518.916	-101.616	0.169	-0.041
-517.902	-63.252	-0.282	0.116
-516.887	-200.000	-0.009	0.130
-515.872	-155.567	-0.223	0.014
-514.858	-136.178	0.119	-0.014
-513.843	-169.606	-0.335	-0.012
-512.829	-147.422	0.101	-0.009
-511.814	-200.000	0.075	0.343
-510.799	800.000	0.030	-0.092
-509.785	-200.000	-0.013	0.094
-508.770	299.851	0.032	-0.059
-507.756	-11.961	-0.108	-0.070
-506.741	427.447	0.130	0.278
-505.726	-18.509	0.237	-0.147
-504.712	86.021	-0.073	-0.080
-503.697	-200.000	0.414	-0.001
-502.683	-200.000	-0.014	-0.283
-501.668	-200.000	0.044	-0.267
-500.653	800.000	0.036	-0.153
-499.639	800.000	-0.018	-0.053
-498.624	-52.477	0.164	0.075
-497.610	643.364	-0.076	-0.191
-496.595	-96.703	0.194	-0.051
-495.581	-200.000	0.015	0.209
-494.566	80.325	-0.124	-0.133
-493.551	739.776	0.059	0.157
-492.537	-184.764	0.202	-0.003
-491.522	241.801	-0.159	0.264
-490.508	348.467	0.181	-0.354
-489.493	-97.977	-0.109	-0.028
-488.478	-50.982	0.212	0.099
-487.464	270.132	-0.135	0.236
-486.449	-200.000	0.064	0.353
-485.435	215.074	-0.081	0.127
-484.420	-33.177	-0.379	-0.208
-483.405	-35.466	0.095	0.051
-482.391	-200.000	-0.051	0.320
-481.376	-21.349	0.173	-0.105
-480.362	-47.961	-0.263	0.126
-479.347	211.062	0.019	-0.030
-478.332	-148.289	0.253	-0.021
-477.318	-200.000	0.007	0.095
-476.303	-145.301	-0.392	0.035
-475.289	-74.714	-0.228	-0.082
-474.274	-71.007	0.259	0.097
-473.259	-110.862	-0.247	-0.051
-472.245	-200.000	-0.030	-0.239
-471.230	-57.414	-0.173	0.076
-470.216	199.147	0.097	-0.147
-469.201	40.870	0.145	-0.129
-468.186	-57.239	0.163	0.071
-467.172	174.664	0.154	-0.220
-466.157	-200.000	0.028	-0.328
-465.143	-120.844	-0.213	0.036
-464.128	-31.037	-0.150	0.084
-463.113	-200.000	-0.089	0.418
-462.099	168.430	-0.011	-0.015
-461.084	238.149	-0.023	0.038
-460.070	-84.451	-0.342	-0.107
-459.055	138.338	-0.212	0.276
-458.040	-112.589	-0.262	-0.052
-457.026	371.451	0.167	0.337
-456.011	42.823	0.123	-0.111
-454.997	18.987	0.114	0.091
-453.982	-25.728	-0.313	0.183
-452.968	-200.000	-0.007	-0.126
-451.953	-200.000	0.008	0.070
-450.938	51.727	0.151	-0.143
-449.924	-97.514	0.069	0.018
-448.909	417.471	0.100	-0.212
-447.895	-171.555	-0.160	0.005
-446.880	260.399	0.178	-0.304
-445.865	-68.347	0.170	0.065
-444.851	180.517	0.221	0.321
-443.836	91.908	-0.015	-0.017
-442.822	-162.978	-0.328	0.016
-441.807	-200.000	-0.037	0.239
-440.792	-79.155	-0.195	-0.065
-439.778	491.036	-0.096	-0.218
-438.763	260.774	0.129	-0.221
-437.749	252.959	-0.090	0.152
-436.734	-200.000	0.042	-0.281
-435.719	535.809	0.031	0.073
-434.705	800.000	0.027	0.111
-433.690	-10.695	-0.191	0.125
-432.676	800.000	0.092	-0.319
-431.661	-49.153	-0.194	-0.092
-430.646	-16.914	-0.130	-0.082
-429.632	351.561	-0.100	0.197
-428.617	-113.526	0.424	-0.082
-427.603	-100.767	0.079	0.019
-426.588	-200.000	-0.022	0.181
-425.573	228.303	-0.039	-0.064
-424.559	34.403	0.247	0.213
-423.544	-106.759	0.074	0.016
-422.530	-129.524	0.198	0.027
-421.515	-200.000	0.031	0.371
-420.500	282.875	0.187	-0.333
-419.486	62.388	-0.205	0.203
-418.471	-146.002	0.101	-0.009
-417.457	62.738	-0.078	-0.077
-416.442	-105.980	0.334	-0.074
-415.428	214.788	-0.152	-0.239
-414.413	108.236	-0.123	-0.145
-413.398	-93.357	-0.168	-0.046
-412.384	12.629	-0.119	-0.091
-411.369	-118.555	-0.038	-0.007
-410.355	-33.681	-0.152	-0.083
-409.340	-107.932	-0.071	-0.015
-408.325	-200.000	0.013	-0.082
-407.311	-136.036	-0.303	0.035
-406.296	96.393	0.334	-0.379
-405.282	800.000	-0.029	-0.082
-404.267	20.940	0.205	-0.164
-403.252	-11.996	0.371	0.241
-402.238	754.724	-0.069	0.184
-401.223	210.580	0.087	-0.135
-400.209	-170.961	0.227	-0.008
-399.194	127.339	0.101	0.127
-398.179	150.808	-0.238	0.320
-397.165	-75.698	0.055	0.019
-396.150	-0.696	-0.068	0.048
-395.136	800.000	-0.055	0.198
-394.121	73.983	-0.016	-0.017
-393.106	167.682	-0.112	-0.157
-392.092	166.629	-0.081	0.114
-391.077	800.000	0.061	-0.200
-390.063	364.892	0.060	-0.120
-389.048	-46.192	-0.315	0.153
-388.033	140.805	0.151	0.197
-387.019	111.112	-0.159	0.189
-386.004	4.734	0.159	-0.116
-384.990	-200.000	0.013	-0.119
-383.975	160.645	0.172	-0.238
-382.960	45.369	0.188	0.172
-381.946	176.169	-0.036	0.051
-380.931	197.758	0.046	0.069
-379.917	-200.000	0.001	0.037
-378.902	108.105	0.227	-0.268
-377.888	23.143	-0.053	0.043
-376.873	-13.278	-0.118	0.076
-375.858	-57.499	0.159	0.069
-374.844	800.000	0.089	-0.310
-373.829	-200.000	-0.030	-0.380
-372.815	37.284	0.355	-0.311
-371.800	139.403	-0.249	0.324
-370.785	-200.000	0.030	0.134
-369.771	-24.959	-0.039	0.023
-368.756	12.563	0.164	-0.125
-367.742	-166.815	-0.202	-0.008
-366.727	800.000	0.114	-0.379
-365.712	2.335	-0.165	0.118
-364.698	-112.772	-0.100	-0.020
-363.683	-47.628	-0.324	0.155
-362.669	-1.613	-0.165	0.115
-361.654	148.445	-0.080	-0.107
-360.639	-166.766	-0.285	0.012
-359.625	-46.687	-0.261	-0.126
-358.610	-65.697	0.232	-0.092
-357.596	-106.776	-0.105	-0.023
-356.581	-200.000	-0.047	0.252
-355.566	-200.000	-0.046	0.286
-354.552	-43.567	0.112	-0.056
-353.537	190.775	0.178	-0.265
-352.523	-80.855	-0.196	-0.064
-351.508	800.000	-0.028	0.077
-350.493	800.000	0.174	-0.543
-349.479	250.017	-0.111	0.186
-348.464	247.012	-0.030	0.050
-347.450	-200.000	-0.029	0.313
-346.435	-200.000	-0.047	0.249
-345.420	-200.000	-0.009	0.163
-344.406	88.525	0.018	0.020
-343.391	-200.000	-0.006	0.030
-342.377	565.854	0.034	0.081
-341.362	85.582	-0.141	0.153
-340.348	-47.755	-0.015	-0.007
-339.333	16.360	0.304	-0.237
-338.318	-125.854	-0.158	0.023
-337.304	-68.937	0.175	0.067
-336.289	604.358	0.036	-0.089
-335.275	751.742	0.050	-0.133
-334.260	44.403	0.035	-0.031
-333.245	51.321	0.109	0.102
-332.231	-28.454	0.264	-0.150
-331.216	0.002	-0.176	-0.124
-330.202	-88.055	-0.237	-0.070
-329.187	259.801	0.138	0.236
-328.172	-50.636	0.293	0.136
-327.158	159.683	-0.127	-0.175
-326.143	-76.193	-0.226	0.079
-325.129	-200.000	0.015	0.098
-324.114	800.000	0.009	-0.032
-323.099	-103.585	-0.219	-0.051
-322.085	120.883	-0.113	-0.139
-321.070	1.458	0.164	-0.117
-320.056	-65.186	0.126	-0.050
-319.041	-103.769	0.111	0.026
-318.026	68.483	-0.156	-0.157
-317.012	-200.000	-0.047	0.253
-315.997	-200.000	-0.017	0.090
-314.983	-111.118	-0.102	0.021
-313.968	-91.359	0.140	-0.040
-312.953	217.492	-0.085	-0.134
-311.939	184.703	0.092	-0.134
-310.924	800.000	0.027	-0.114
-309.910	-200.000	-0.004	0.168
-308.895	-3.401	0.226	-0.155
-307.880	-158.797	-0.407	-0.023
-306.866	-200.000	0.130	0.000
-305.851	96.653	0.235	0.266
-304.837	503.447	0.107	0.244
-303.822	607.195	0.131	0.323
-302.807	-125.782	-0.117	-0.017
-301.793	541.281	-0.099	0.232
-300.778	333.150	-0.090	0.172
-299.764	-200.000	-0.026	0.446
-298.749	119.269	-0.252	-0.307
-297.735	51.096	0.048	0.045
-296.720	-200.000	0.001	-0.104
-295.705	-200.000	0.010	-0.247
-294.691	-200.000	0.015	-0.109
-293.676	55.847	0.127	0.121
-292.662	-200.000	0.004	0.115
-291.647	47.801	0.059	0.055
-290.632	-143.965	-0.123	-0.011
-289.618	-58.678	0.181	0.077
-288.603	229.323	0.107	0.172
-287.589	-200.000	0.010	-0.079
-286.574	800.000	0.026	0.105
-285.559	-200.000	0.016	-0.299
-284.545	-200.000	0.018	-0.453
-283.530	267.140	-0.082	0.141
-282.516	-200.000	-0.053	0.278
-281.501	-200.000	0.033	0.159
-280.486	-9.099	0.150	0.099
-279.472	17.120	-0.224	-0.175
-278.457	257.290	0.163	0.276
-277.443	148.957	-0.099	-0.132
-276.428	-173.763	0.159	0.005
-275.413	-10.054	0.264	-0.173
-274.399	-116.841	0.157	-0.028
-273.384	105.246	-0.060	-0.070
-272.370	-73.755	-0.388	-0.139
-271.355	-50.282	0.376	0.175
-270.340	-43.735	-0.261	0.129
-269.326	-140.037	-0.248	0.026
-268.311	-55.035	-0.229	0.102
-267.297	63.941	0.202	-0.200
-266.282	800.000	-0.058	0.182
-265.267	-94.346	0.224	0.060
-264.253	-168.342	-0.116	-0.004
-263.238	800.000	-0.057	0.186
-262.224	420.323	-0.034	-0.071
-261.209	214.581	0.135	-0.211
-260.195	-100.106	0.350	-0.086
-259.180	-2.158	-0.303	-0.210
-258.165	-22.636	-0.050	0.030
-257.151	-200.000	0.010	0.063
-256.136	-200.000	-0.001	-0.155
-255.122	276.110	0.199	-0.348
-254.107	-200.000	0.027	-0.151
-253.092	-198.993	0.316	0.002
-252.078	-93.492	0.295	-0.080
-251.063	147.533	-0.051	0.067
-250.049	-122.503	-0.112	0.018
-249.034	-26.960	0.103	-0.059
-248.019	-200.000	0.007	0.064
-247.005	-35.264	0.074	0.040
-245.990	32.769	0.215	0.183
-244.976	-5.331	-0.141	0.095
-243.961	-59.511	-0.496	0.209
-242.946	800.000	0.049	0.187
-241.932	-88.708	-0.244	-0.071
-240.917	800.000	0.015	0.061
-239.903	800.000	-0.065	-0.177
-238.888	21.779	0.167	-0.134
-237.873	-152.750	-0.186	-0.013
-236.859	-83.270	0.364	0.115
-235.844	646.404	-0.046	0.115
-234.830	-200.000	-0.013	0.206
-233.815	-16.330	-0.176	-0.110
-232.800	129.763	0.090	0.113
-231.786	-200.000	0.017	-0.253
-230.771	-200.000	-0.036	-0.279
-229.757	28.409	-0.157	-0.130
-228.742	-115.119	-0.132	0.025
-227.727	-46.857	-0.282	-0.135
-226.713	-42.061	0.139	-0.070
-225.698	800.000	0.079	-0.296
-224.684	399.844	-0.200	-0.412
-223.669	-200.000	0.024	-0.299
-222.655	-83.013	-0.160	-0.051
-221.640	-200.000	-0.019	-0.123
-220.625	241.980	0.131	0.216
-219.611	508.426	0.153	-0.350
-218.596	392.381	-0.129	-0.264
-217.582	-200.000	-0.022	0.443
-216.567	-153.830	-0.131	-0.009
-215.552	800.000	0.061	0.184
-214.538	800.000	0.071	0.210
-213.523	121.439	-0.193	0.236
-212.509	82.163	0.116	0.124
-211.494	-29.134	-0.150	0.085
-210.479	379.889	-0.069	0.139
-209.465	-8.635	0.097	-0.064
-208.450	161.172	-0.115	-0.158
-207.436	800.000	0.083	-0.320
-206.421	117.862	0.135	-0.164
-205.406	-142.536	-0.076	0.007
-204.392	759.417	-0.019	-0.050
-203.377	96.062	0.127	0.143
-202.363	319.567	-0.096	0.179
-201.348	-97.160	0.214	0.055
-200.333	800.000	-0.088	0.335
-199.319	575.081	0.150	0.358
-198.304	-117.716	0.146	0.026
-197.290	-119.738	0.115	0.019
-196.275	-103.577	0.104	0.024
-195.260	-142.296	-0.189	-0.018
-194.246	-82.082	0.380	0.122
-193.231	800.000	0.107	0.318
-192.217	-200.000	-0.047	-0.411
-191.202	160.742	0.104	0.142
-190.187	130.808	0.108	0.135
-189.173	78.501	-0.195	-0.204
-188.158	-115.618	-0.154	0.028
-187.144	27.352	-0.137	0.113
-186.129	385.061	-0.072	-0.146
-185.114	-69.757	0.131	-0.049
-184.100	-77.446	0.243	0.083
-183.085	-123.201	0.146	0.023
-182.071	-168.245	0.123	-0.005
-181.056	-22.657	-0.202	-0.120
-180.042	116.980	0.039	0.047
-179.027	-34.450	-0.115	0.062
-178.012	131.810	-0.055	-0.069
-176.998	-14.029	-0.275	-0.174
-175.983	800.000	0.130	0.557
-174.969	-107.360	0.403	-0.087
-173.954	-95.378	0.049	-0.013
-172.939	-200.000	-0.035	-0.283
-171.925	88.182	0.132	0.144
-170.910	69.049	0.297	-0.299
-169.896	-200.000	-0.037	-0.341
-168.881	-100.899	-0.021	0.005
-167.866	38.988	-0.037	0.033
-166.852	-52.894	-0.220	0.099
-165.837	-168.452	-0.219	-0.008
-164.823	25.452	0.088	0.072
-163.808	41.357	-0.270	-0.240
-162.793	-62.614	-0.108	-0.044
-161.779	-105.492	0.209	0.046
-160.764	56.025	0.239	0.227
-159.750	-200.000	0.025	0.145
-158.735	53.364	-0.150	0.141
-157.720	96.810	-0.321	-0.361
-156.706	-56.170	-0.098	-0.043
-155.691	201.344	0.281	0.424
-154.677	-120.318	-0.111	0.019
-153.662	-97.669	0.159	0.040
-152.647	481.161	-0.048	0.106
-151.633	-87.799	0.211	0.062
-150.618	-12.828	-0.145	-0.093
-149.604	-91.184	0.141	0.040
-148.589	-200.000	0.073	-0.402
-147.574	437.451	0.137	0.293
-146.560	-200.000	-0.034	0.233
-145.545	800.000	-0.086	0.360
-144.531	-62.281	0.229	0.093
-143.516	-68.896	0.341	-0.129
-142.502	-200.000	-0.035	0.250
-141.487	800.000	0.052	-0.214
-140.472	800.000	-0.030	0.086
-139.458	-37.538	0.186	0.097
-138.443	-147.836	-0.266	-0.022
-137.429	6.668	0.161	0.117
-136.414	171.187	0.057	-0.080
-135.399	-48.840	0.165	-0.077
-134.385	-74.758	-0.293	0.103
-133.370	17.874	-0.107	0.084
-132.356	37.659	-0.197	0.171
-131.341	800.000	0.070	-0.242
-130.326	84.444	-0.119	-0.127
-129.312	-44.599	0.206	0.101
-128.297	35.668	0.122	0.105
-127.283	-149.267	0.270	0.021
-126.268	-116.999	-0.303	0.054
-125.253	800.000	-0.063	-0.203
-124.239	-151.846	-0.028	0.002
-123.224	800.000	0.110	0.383
-122.210	118.724	-0.211	0.255
-121.195	-94.618	0.156	0.041
