DTS Sentinel unit serial number:	SN413079Multiplexer serial number:	ORYXHardware model number:	OX4-SRSoftware version number:	ORYX F/W v4.00 Oryx Data Collector v3.7.2.0data status	okinstallation	princeton_trtdifferential loss correction	single-endedforward channel	channel 3reverse channel	N/Adate	2019/09/10time	23:50:11forward acquisition time	60.00reverse acquisition time	0.00gamma	496.2192k internal	0.2331k external	0.2331temperature offset calibration	0.9918default loss term (dB/km)	0.3790temperature slope calibration	1.0000multiplexer offset coefficient	1.0000multiplexer slope coefficient	1.0000fibre end	0.00T internal ref (°C)	29.50T ext. ref 1 (°C)	-0.31T ext. ref 2 (°C)	22.93length (m)	temperature (°C)	Stokes	anti-Stokes-747.200	81.784	-0.127	0.138
-746.185	121.611	-0.226	-0.283
-745.171	800.000	0.104	0.307
-744.156	-200.000	-0.062	0.352
-743.142	-142.194	0.172	-0.017
-742.127	46.338	0.091	0.085
-741.112	438.965	-0.089	0.196
-740.098	-101.191	-0.127	0.031
-739.083	-42.688	-0.205	-0.105
-738.069	-200.000	0.003	-0.021
-737.054	800.000	-0.160	0.491
-736.039	-17.227	-0.110	-0.070
-735.025	-128.769	0.188	-0.027
-734.010	-100.729	-0.288	-0.071
-732.996	-43.813	-0.597	-0.303
-731.981	129.946	0.181	-0.233
-730.966	-128.163	-0.296	0.043
-729.952	314.002	0.199	0.376
-728.937	-165.863	-0.269	-0.012
-727.923	-20.888	0.190	-0.117
-726.908	6.142	-0.117	0.087
-725.894	169.684	-0.319	0.459
-724.879	20.366	-0.073	0.059
-723.864	218.785	-0.165	-0.265
-722.850	26.935	-0.298	-0.251
-721.835	595.162	0.053	-0.132
-720.821	-118.651	-0.370	0.066
-719.806	-200.000	-0.046	-0.376
-718.791	-137.162	0.269	0.031
-717.777	29.668	0.231	0.198
-716.762	146.217	0.215	0.290
-715.748	70.359	0.093	-0.096
-714.733	218.166	0.131	-0.210
-713.718	-200.000	0.025	0.143
-712.704	153.601	-0.136	-0.188
-711.689	-167.358	0.346	0.014
-710.675	35.770	-0.203	-0.179
-709.660	-200.000	0.042	-0.233
-708.645	142.834	-0.161	-0.214
-707.631	-116.358	-0.047	-0.009
-706.616	518.404	0.092	-0.216
-705.602	-40.646	-0.063	-0.033
-704.587	63.111	0.116	-0.116
-703.572	-200.000	0.007	0.106
-702.558	-152.237	-0.269	0.020
-701.543	83.055	-0.132	0.144
-700.529	-168.878	0.528	-0.020
-699.514	126.791	-0.051	-0.065
-698.499	66.235	-0.205	0.209
-697.485	-200.000	-0.030	-0.422
-696.470	389.449	0.120	-0.250
-695.456	159.612	0.092	0.129
-694.441	11.028	-0.029	0.023
-693.426	7.847	-0.239	0.180
-692.412	-108.058	-0.359	0.078
-691.397	-36.355	0.139	0.075
-690.383	-200.000	0.000	-0.107
-689.368	-111.852	-0.220	0.045
-688.354	22.051	-0.103	-0.084
-687.339	-200.000	0.005	-0.152
-686.324	-178.981	-0.371	0.008
-685.310	-74.835	0.025	0.009
-684.295	-117.864	-0.264	0.048
-683.281	-173.616	-0.159	0.005
-682.266	20.044	-0.326	0.264
-681.251	63.499	-0.222	-0.223
-680.237	-157.025	-0.149	0.009
-679.222	238.618	-0.069	-0.116
-678.208	-108.005	0.332	0.072
-677.193	32.430	0.119	0.104
-676.178	466.137	-0.089	-0.200
-675.164	-51.208	0.177	-0.083
-674.149	395.289	-0.164	-0.342
-673.135	-61.613	0.272	0.114
-672.120	-200.000	-0.033	0.422
-671.105	-200.000	-0.040	0.275
-670.091	253.224	-0.149	-0.255
-669.076	-7.913	-0.084	0.057
-668.062	-41.562	-0.249	0.129
-667.047	39.970	-0.143	-0.129
-666.032	-131.097	0.135	-0.018
-665.018	52.735	0.123	0.118
-664.003	-193.076	-0.176	0.002
-662.989	-200.000	-0.013	-0.168
-661.974	-21.407	-0.315	-0.193
-660.959	-141.634	0.152	-0.015
-659.945	-15.159	-0.183	0.118
-658.930	-200.000	-0.044	-0.227
-657.916	258.858	0.065	-0.112
-656.901	-71.979	0.381	0.142
-655.886	302.849	-0.050	0.092
-654.872	-53.663	0.172	-0.079
-653.857	-65.987	-0.086	0.034
-652.843	800.000	-0.128	-0.373
-651.828	184.537	0.136	-0.203
-650.814	800.000	0.052	-0.148
-649.799	-200.000	-0.015	-0.159
-648.784	-125.603	0.443	0.067
-647.770	-60.578	0.241	-0.102
-646.755	-63.098	-0.252	0.104
-645.741	211.826	-0.078	0.123
-644.726	-75.869	0.231	0.082
-643.711	-99.047	-0.143	0.036
-642.697	-11.273	0.147	-0.097
-641.682	443.952	0.168	-0.369
-640.668	-6.220	-0.244	0.167
-639.653	-31.203	-0.193	0.109
-638.638	39.987	-0.223	-0.201
-637.624	279.584	-0.101	-0.180
-636.609	70.155	0.140	0.145
-635.595	686.244	0.119	-0.312
-634.580	-49.467	-0.183	-0.088
-633.565	119.331	-0.211	0.262
-632.551	-38.073	0.158	-0.084
-631.536	48.337	-0.158	0.148
-630.522	199.522	0.122	-0.187
-629.507	-0.410	-0.133	-0.095
-628.492	33.816	0.524	0.457
-627.478	-86.077	-0.054	0.017
-626.463	-200.000	0.014	-0.156
-625.449	-116.576	0.110	-0.020
-624.434	-200.000	-0.005	-0.128
-623.419	125.289	0.193	0.244
-622.405	-200.000	0.028	0.211
-621.390	-107.579	0.359	-0.079
-620.376	28.899	0.314	-0.266
-619.361	449.469	-0.052	-0.115
-618.346	-123.756	-0.113	0.018
-617.332	119.566	-0.130	-0.161
-616.317	-131.022	-0.154	-0.021
-615.303	-165.856	0.170	-0.007
-614.288	-163.839	0.162	0.008
-613.273	-22.268	-0.121	-0.074
-612.259	334.475	-0.087	0.168
-611.244	665.737	0.087	0.225
-610.230	108.419	0.093	0.111
-609.215	87.626	-0.240	-0.266
-608.201	-145.849	-0.431	-0.038
-607.186	738.550	0.050	-0.134
-606.171	-71.184	0.094	0.035
-605.157	-200.000	-0.019	-0.294
-604.142	-84.212	-0.202	-0.064
-603.128	-82.782	0.347	0.112
-602.113	-128.156	0.190	-0.027
-601.098	535.280	0.115	-0.272
-600.084	-200.000	-0.019	0.216
-599.069	-200.000	0.078	-0.468
-598.055	-123.868	-0.437	-0.069
-597.040	122.516	0.164	-0.205
-596.025	228.497	-0.117	-0.191
-595.011	-39.417	0.310	0.162
-593.996	-200.000	-0.002	-0.036
-592.982	-19.069	-0.191	-0.119
-591.967	50.280	0.061	-0.058
-590.952	-134.068	-0.178	-0.022
-589.938	-200.000	-0.011	-0.106
-588.923	295.096	0.234	-0.429
-587.909	-25.397	0.061	0.036
-586.894	497.823	-0.099	0.228
-585.879	317.950	-0.155	0.294
-584.865	-51.111	0.234	0.110
-583.850	-200.000	0.017	-0.078
-582.836	-173.522	-0.125	-0.004
-581.821	-15.331	-0.191	-0.122
-580.806	-10.404	0.310	0.205
-579.792	7.553	0.347	0.260
-578.777	-31.917	-0.274	0.154
-577.763	278.131	-0.213	0.379
-576.748	-51.542	-0.318	0.149
-575.733	-66.833	0.271	0.107
-574.719	-61.113	-0.051	0.021
-573.704	-200.000	-0.022	-0.143
-572.690	388.282	-0.052	-0.107
-571.675	-36.410	-0.295	0.159
-570.661	0.159	0.228	0.162
-569.646	-115.299	0.226	0.043
-568.631	320.169	0.067	-0.127
-567.617	145.943	-0.203	0.271
-566.602	800.000	0.073	0.209
-565.588	462.287	-0.063	-0.141
-564.573	-123.997	0.153	0.024
-563.558	800.000	0.030	0.116
-562.544	-68.438	-0.072	0.028
-561.529	-62.138	-0.045	0.019
-560.515	76.948	-0.210	-0.223
-559.500	-200.000	-0.021	0.263
-558.485	-120.459	-0.173	0.029
-557.471	-200.000	-0.007	-0.214
-556.456	-78.616	-0.153	-0.052
-555.442	-113.229	0.483	-0.095
-554.427	800.000	-0.037	-0.164
-553.412	172.615	-0.166	0.239
-552.398	-31.839	0.021	-0.011
-551.383	-106.454	0.458	0.102
-550.369	-200.000	0.002	0.244
-549.354	-200.000	-0.009	-0.130
-548.339	800.000	0.033	-0.139
-547.325	109.134	-0.071	0.084
-546.310	27.008	-0.077	-0.065
-545.296	-163.204	0.302	-0.014
-544.281	-57.011	-0.496	-0.219
-543.266	64.339	0.155	0.156
-542.252	-134.821	0.106	0.013
-541.237	-84.244	0.344	-0.109
-540.223	60.373	-0.167	-0.165
-539.208	-96.034	-0.323	0.086
-538.193	3.365	0.246	0.179
-537.179	-17.641	0.174	-0.109
-536.164	-144.039	0.179	-0.017
-535.150	-200.000	-0.056	0.000
-534.135	31.701	-0.155	0.133
-533.121	-71.231	-0.234	0.088
-532.106	-100.914	-0.321	-0.079
-531.091	191.525	0.126	0.190
-530.077	29.985	-0.096	0.081
-529.062	144.906	-0.078	-0.104
-528.048	454.602	-0.044	-0.098
-527.033	761.359	-0.101	-0.272
-526.018	-145.188	-0.291	0.026
-525.004	0.283	0.109	-0.078
-523.989	95.560	0.117	-0.133
-522.975	77.235	0.102	0.109
-521.960	-148.273	0.230	0.019
-520.945	-139.361	0.030	-0.003
-519.931	-109.957	-0.087	-0.018
-518.916	81.022	0.153	0.164
-517.902	-173.384	-0.121	0.004
-516.887	51.944	-0.198	-0.188
-515.872	800.000	-0.146	-0.473
-514.858	-167.501	0.064	0.003
-513.843	475.893	-0.160	-0.360
-512.829	202.098	0.169	-0.260
-511.814	129.093	0.144	0.184
-510.799	50.583	-0.278	-0.263
-509.785	228.804	-0.046	-0.074
-508.770	635.116	0.078	0.197
-507.756	24.201	0.095	-0.078
-506.741	-106.671	0.248	0.055
-505.726	-200.000	0.042	-0.439
-504.712	206.797	-0.062	-0.096
-503.697	-38.119	-0.234	0.124
-502.683	22.708	0.396	-0.323
-501.668	280.546	0.069	-0.123
-500.653	-12.416	-0.068	0.044
-499.639	-78.545	-0.360	-0.123
-498.624	-178.751	0.145	0.003
-497.610	66.110	-0.343	0.347
-496.595	800.000	-0.118	0.416
-495.581	679.428	0.079	0.205
-494.566	-9.952	-0.144	0.095
-493.551	-158.717	0.284	0.016
-492.537	-72.031	-0.193	-0.071
-491.522	-62.118	0.314	0.130
-490.508	-15.759	0.280	-0.178
-489.493	489.926	0.029	0.066
-488.478	-19.907	-0.150	-0.092
-487.464	-41.070	-0.122	-0.063
-486.449	800.000	0.095	-0.367
-485.435	492.331	0.160	-0.366
-484.420	5.510	0.116	0.085
-483.405	-46.797	0.059	0.029
-482.391	-69.260	-0.084	-0.032
-481.376	-12.091	0.180	-0.117
-480.362	-200.000	-0.022	-0.272
-479.347	-200.000	-0.002	-0.020
-478.332	-164.408	0.188	-0.009
-477.318	800.000	0.050	0.139
-476.303	-124.380	-0.501	-0.078
-475.289	-120.072	0.134	0.023
-474.274	-108.701	0.088	-0.019
-473.259	-62.718	0.092	0.038
-472.245	-102.215	-0.294	0.070
-471.230	39.333	0.185	0.165
-470.216	240.175	-0.082	0.136
-469.201	-145.161	-0.493	0.045
-468.186	377.112	0.077	0.156
-467.172	800.000	0.090	0.370
-466.157	800.000	-0.049	-0.156
-465.143	800.000	-0.070	-0.290
-464.128	581.053	0.046	0.112
-463.113	192.597	-0.125	0.188
-462.099	-200.000	-0.275	0.001
-461.084	-76.440	-0.255	0.089
-460.070	13.457	-0.314	0.243
-459.055	-55.160	0.522	-0.234
-458.040	-74.976	-0.410	-0.146
-457.026	115.201	0.084	-0.101
-456.011	-53.568	-0.315	0.143
-454.997	2.961	0.205	0.148
-453.982	-90.471	-0.166	0.048
-452.968	-59.051	0.417	-0.179
-451.953	282.953	-0.096	0.172
-450.938	-200.000	0.028	-0.445
-449.924	70.594	0.200	-0.206
-448.909	-154.443	-0.228	-0.015
-447.895	-82.701	0.450	0.145
-446.880	-75.246	-0.254	0.090
-445.865	-36.869	0.078	0.041
-444.851	-139.796	0.255	-0.027
-443.836	265.534	-0.055	-0.096
-442.822	182.127	-0.120	0.176
-441.807	51.170	-0.081	-0.077
-440.792	-200.000	-0.028	-0.249
-439.778	800.000	-0.039	-0.120
-438.763	-34.929	-0.079	0.043
-437.749	-200.000	0.010	-0.055
-436.734	-111.088	0.287	-0.058
-435.719	-200.000	-0.002	-0.294
-434.705	-48.840	0.074	0.035
-433.690	81.103	0.075	0.080
-432.676	-111.230	0.132	-0.027
-431.661	-57.550	-0.188	0.082
-430.646	-5.768	0.278	0.189
-429.632	-173.976	0.140	-0.004
-428.617	800.000	0.071	0.209
-427.603	322.304	0.097	-0.184
-426.588	-20.557	-0.198	-0.121
-425.573	-136.137	-0.078	0.009
-424.559	275.907	0.040	-0.070
-423.544	800.000	0.072	-0.271
-422.530	-13.207	-0.043	-0.028
-421.515	27.165	0.053	-0.044
-420.500	607.098	-0.076	0.188
-419.486	-18.470	0.289	-0.179
-418.471	104.165	0.279	-0.326
-417.457	22.166	0.122	-0.099
-416.442	-47.315	-0.084	0.041
-415.428	-200.000	-0.011	0.268
-414.413	276.438	0.105	0.185
-413.398	234.655	-0.131	-0.215
-412.384	-155.329	0.194	0.013
-411.369	-137.732	-0.492	0.055
-410.355	235.066	0.110	0.180
-409.340	-200.000	-0.033	0.179
-408.325	114.569	0.126	0.152
-407.311	89.585	-0.307	-0.341
-406.296	83.616	-0.132	0.143
-405.282	-200.000	-0.015	-0.137
-404.267	-200.000	-0.008	-0.089
-403.252	-200.000	-0.006	0.039
-402.238	-200.000	-0.014	0.243
-401.223	166.849	-0.029	0.040
-400.209	50.431	-0.194	0.182
-399.194	492.628	-0.093	0.212
-398.179	-122.480	0.176	0.028
-397.165	-87.399	-0.123	-0.037
-396.150	800.000	-0.014	0.056
-395.136	-28.346	0.541	0.310
-394.121	53.170	0.045	-0.042
-393.106	125.056	0.158	0.198
-392.092	-131.336	-0.156	-0.021
-391.077	742.558	-0.061	0.162
-390.063	-15.829	-0.263	0.166
-389.048	-200.000	0.001	0.210
-388.033	-51.550	0.140	-0.065
-387.019	-4.397	0.200	0.137
-386.004	-200.000	-0.007	-0.184
-384.990	-33.748	-0.411	-0.225
-383.975	-200.000	0.002	-0.063
-382.960	-68.821	0.159	0.061
-381.946	-2.105	-0.088	-0.061
-380.931	-39.328	-0.376	0.196
-379.917	583.458	0.088	0.214
-378.902	-55.160	0.157	-0.070
-377.888	-21.361	-0.179	-0.108
-376.873	-200.000	0.019	-0.352
-375.858	-119.174	-0.154	-0.027
-374.844	99.622	-0.057	0.065
-373.829	733.727	-0.066	0.174
-372.815	19.615	0.207	0.165
-371.800	-59.387	0.429	0.183
-370.785	43.146	0.194	0.176
-369.771	-200.000	0.044	-0.281
-368.756	368.313	-0.106	-0.212
-367.742	-200.000	-0.006	0.206
-366.727	450.413	-0.024	0.052
-365.712	338.192	0.051	-0.098
-364.698	-118.895	-0.342	0.060
-363.683	779.856	0.017	-0.045
-362.669	353.911	0.084	0.165
-361.654	70.571	-0.266	0.273
-360.639	-72.406	-0.239	0.088
-359.625	-200.000	-0.057	0.366
-358.610	-200.000	0.024	-0.169
-357.596	-39.978	0.340	-0.176
-356.581	109.367	-0.169	0.200
-355.566	-177.415	-0.331	-0.008
-354.552	-18.536	-0.154	0.096
-353.537	-200.000	0.019	0.154
-352.523	101.018	0.113	-0.130
-351.508	2.736	0.120	-0.086
-350.493	95.645	0.250	-0.282
-349.479	-45.487	0.100	0.049
-348.464	-38.709	-0.107	0.056
-347.450	800.000	-0.095	-0.266
-346.435	-200.000	-0.016	-0.320
-345.420	-185.335	-0.509	-0.008
-344.406	800.000	-0.051	0.213
-343.391	-41.812	0.276	-0.140
-342.377	-138.061	0.159	0.018
-341.362	-53.803	-0.096	-0.043
-340.348	-200.000	0.022	0.334
-339.333	-126.228	-0.082	0.012
-338.318	177.825	-0.091	-0.132
-337.304	-150.145	0.124	-0.010
-336.289	132.240	-0.024	-0.030
-335.275	-200.000	-0.045	-0.363
-334.260	56.383	-0.176	0.169
-333.245	-77.437	0.198	-0.068
-332.231	247.526	-0.068	0.115
-331.216	-200.000	0.007	0.199
-330.202	281.046	0.016	0.028
-329.187	1.351	0.228	0.162
-328.172	15.449	0.111	0.087
-327.158	163.070	0.211	-0.294
-326.143	416.053	-0.185	0.390
-325.129	-200.000	-0.053	0.450
-324.114	3.870	-0.173	-0.125
-323.099	553.333	-0.047	-0.111
-322.085	6.136	0.334	-0.245
-321.070	-32.823	0.171	-0.094
-320.056	81.612	-0.052	-0.056
-319.041	-71.416	-0.267	-0.099
-318.026	-27.468	-0.234	-0.134
-317.012	-200.000	-0.013	0.237
-315.997	-200.000	0.026	-0.446
-314.983	77.768	0.148	0.156
-313.968	-131.324	-0.075	-0.010
-312.953	-14.852	0.238	-0.151
-311.939	-36.334	-0.173	-0.092
-310.924	-104.130	-0.320	-0.074
-309.910	-95.616	0.065	-0.017
-308.895	-200.000	0.005	0.075
-307.880	378.001	-0.128	0.260
-306.866	296.054	-0.101	0.184
-305.851	-88.502	0.314	-0.093
-304.837	51.474	-0.031	-0.029
-303.822	-4.585	0.052	-0.035
-302.807	-63.724	-0.354	0.143
-301.793	-75.613	0.151	-0.053
-300.778	-150.797	-0.208	-0.016
-299.764	-34.024	-0.234	-0.127
-298.749	23.647	-0.079	0.064
-297.735	467.745	-0.025	0.054
-296.720	-200.000	-0.003	-0.071
-295.705	-52.052	0.206	-0.095
-294.691	-200.000	0.027	-0.259
-293.676	240.307	-0.057	0.094
-292.662	800.000	-0.036	0.106
-291.647	800.000	-0.069	-0.222
-290.632	133.650	-0.081	0.103
-289.618	206.633	-0.079	-0.121
-288.603	763.316	0.073	-0.196
-287.589	800.000	-0.035	0.149
-286.574	131.953	0.048	0.061
-285.559	-29.712	0.243	-0.137
-284.545	-200.000	0.035	0.192
-283.530	320.038	-0.183	-0.343
-282.516	-35.281	0.389	0.209
-281.501	169.270	-0.138	-0.195
-280.486	-58.160	0.223	-0.096
-279.472	-90.560	-0.302	0.086
-278.457	-200.000	-0.286	0.001
-277.443	-142.384	0.323	0.031
-276.428	-110.959	-0.325	-0.066
-275.413	-200.000	-0.027	0.172
-274.399	-133.865	0.214	0.026
-273.384	-200.000	0.002	-0.060
-272.370	-200.000	0.046	0.279
-271.355	33.618	0.148	-0.127
-270.340	-36.008	0.041	0.022
-269.326	-7.000	-0.339	-0.228
-268.311	95.334	-0.071	-0.080
-267.297	263.726	-0.107	-0.184
-266.282	-38.721	0.087	0.045
-265.267	688.637	0.116	0.300
-264.253	0.356	-0.104	0.073
-263.238	23.806	-0.204	0.166
-262.224	-200.000	0.011	-0.097
-261.209	134.682	-0.091	0.117
-260.195	-90.932	0.084	0.024
-259.180	42.817	-0.105	-0.094
-258.165	-32.354	-0.316	0.174
-257.151	-94.040	-0.382	-0.103
-256.136	30.325	0.208	-0.175
-255.122	290.098	0.056	0.101
-254.107	80.661	-0.180	-0.191
-253.092	137.272	-0.185	0.239
-252.078	800.000	-0.051	0.160
-251.063	398.685	-0.051	0.106
-250.049	64.333	0.219	0.218
-249.034	-123.619	-0.095	0.015
-248.019	78.492	-0.148	-0.156
-247.005	-200.000	0.013	-0.096
-245.990	537.233	0.041	0.096
-244.976	800.000	-0.071	0.217
-243.961	-200.000	-0.006	0.187
-242.946	-34.647	-0.122	-0.066
-241.932	-26.659	0.179	-0.104
-240.917	800.000	-0.061	-0.194
-239.903	-200.000	0.010	-0.101
-238.888	238.207	0.087	0.143
-237.873	-200.000	-0.006	-0.123
-236.859	-174.312	-0.168	0.005
-235.844	-179.250	0.173	0.004
-234.830	-187.547	-0.143	-0.002
-233.815	-200.000	-0.013	-0.144
-232.800	8.590	0.111	0.083
-231.786	-93.561	0.248	0.068
-230.771	800.000	0.094	0.292
-229.757	-128.316	0.209	0.029
-228.742	111.044	-0.151	-0.179
-227.727	298.582	-0.100	-0.181
-226.713	-135.478	0.232	-0.027
-225.698	-89.550	-0.235	-0.068
-224.684	-200.000	0.002	0.199
-223.669	-111.942	0.205	0.041
-222.655	-173.206	0.205	-0.006
-221.640	-134.462	-0.283	0.034
-220.625	-200.000	0.526	-0.001
-219.611	-98.078	-0.298	-0.076
-218.596	-130.689	-0.474	-0.063
-217.582	72.142	-0.111	0.114
-216.567	97.495	0.154	0.175
-215.552	-17.332	-0.120	-0.075
-214.538	-31.671	0.235	-0.130
-213.523	-200.000	-0.001	0.166
-212.509	112.985	0.123	0.146
-211.494	-37.937	-0.210	0.110
-210.479	-9.731	0.092	0.060
-209.465	220.170	0.118	-0.186
-208.450	98.979	-0.037	-0.042
-207.436	-98.227	-0.259	0.065
-206.421	-102.946	0.208	0.049
-205.406	-72.079	-0.128	-0.047
-204.392	-200.000	0.067	-0.528
-203.377	-66.314	0.099	-0.039
-202.363	-66.066	0.296	-0.116
-201.348	-179.096	-0.239	0.005
-200.333	800.000	-0.072	-0.203
-199.319	-129.701	-0.232	0.032
-198.304	-200.000	-0.000	0.202
-197.290	-4.869	-0.102	0.069
-196.275	-173.672	-0.134	-0.004
-195.260	-94.285	-0.026	0.007
-194.246	18.897	-0.267	0.211
-193.231	800.000	0.048	0.154
-192.217	-97.484	0.144	-0.037
-191.202	-200.000	-0.025	0.170
-190.187	-200.000	-0.021	0.244
-189.173	-200.000	0.006	-0.079
-188.158	-43.790	0.288	-0.143
-187.144	-200.000	-0.027	0.277
-186.129	-105.654	-0.417	0.093
-185.114	800.000	0.071	0.272
-184.100	-102.008	0.267	0.064
-183.085	94.945	-0.054	0.060
-182.071	800.000	0.132	-0.569
-181.056	-16.663	0.196	-0.122
-180.042	-140.957	0.444	0.045
-179.027	800.000	-0.051	0.205
-178.012	153.802	0.108	0.146
-176.998	-60.856	0.381	0.159
-175.983	-53.947	0.014	0.006
-174.969	800.000	-0.066	-0.266
-173.954	410.597	0.158	0.329
-172.939	298.647	-0.065	0.118
-171.925	88.266	0.111	0.121
-170.910	266.162	0.179	0.307
-169.896	133.450	-0.295	-0.375
-168.881	367.182	0.043	0.085
-167.866	-104.393	-0.035	-0.008
-166.852	-200.000	-0.047	-0.290
-165.837	-42.024	-0.221	0.111
-164.823	-108.423	-0.152	0.032
-163.808	800.000	-0.063	-0.270
-162.793	-46.845	-0.195	0.094
-161.779	-25.715	0.320	-0.186
-160.764	-160.060	0.245	-0.013
-159.750	-200.000	-0.080	0.410
-158.735	-68.113	0.211	0.081
-157.720	-49.962	0.246	-0.115
-156.706	377.839	0.192	0.386
-155.691	-164.399	0.289	-0.013
-154.677	295.337	0.146	-0.262
-153.662	52.134	0.167	-0.157
-152.647	275.424	-0.048	0.084
-151.633	-200.000	-0.004	0.059
-150.618	-52.449	-0.069	-0.031
-149.604	-119.732	0.341	0.058
-148.589	-19.383	-0.132	0.080
-147.574	267.854	-0.110	0.189
-146.560	-172.334	0.375	-0.012
-145.545	24.897	-0.112	-0.091
-144.531	-21.437	0.197	0.118
-143.516	-82.812	-0.163	0.052
-142.502	360.610	0.174	0.343
-141.487	-200.000	0.010	0.083
-140.472	76.789	0.197	0.206
-139.458	-200.000	0.015	-0.135
-138.443	800.000	0.100	-0.292
-137.429	-200.000	-0.026	-0.115
-136.414	-200.000	-0.018	0.087
-135.399	-87.828	0.161	0.048
-134.385	-32.029	0.139	-0.076
-133.370	-81.302	0.400	0.130
-132.356	199.210	-0.107	-0.162
-131.341	46.387	0.277	0.252
-130.326	22.455	-0.284	-0.228
-129.312	-0.909	-0.205	-0.142
-128.297	-200.000	-0.004	-0.079
-127.283	226.961	-0.018	-0.029
-126.268	-17.121	0.173	0.107
-125.253	35.232	0.188	-0.162
-124.239	-200.000	0.027	0.198
-123.224	-106.939	0.126	0.027
-122.210	-115.417	0.217	-0.040
