DTS Sentinel unit serial number:	SN413079Multiplexer serial number:	ORYXHardware model number:	OX4-SRSoftware version number:	ORYX F/W v4.00 Oryx Data Collector v3.7.2.0data status	okinstallation	princeton_trtdifferential loss correction	single-endedforward channel	channel 3reverse channel	N/Adate	2019/09/12time	12:34:11forward acquisition time	60.00reverse acquisition time	0.00gamma	496.2192k internal	0.2292k external	0.2292temperature offset calibration	1.0042default loss term (dB/km)	0.3790temperature slope calibration	1.0000multiplexer offset coefficient	1.0000multiplexer slope coefficient	1.0000fibre end	0.00T internal ref (°C)	40.48T ext. ref 1 (°C)	2.01T ext. ref 2 (°C)	35.48length (m)	temperature (°C)	Stokes	anti-Stokes-747.200	-200.000	0.016	-0.177
-746.185	267.507	0.127	0.227
-745.171	-153.121	-0.309	-0.022
-744.156	-200.000	0.029	0.319
-743.142	80.277	-0.027	0.030
-742.127	800.000	-0.049	0.140
-741.112	800.000	-0.050	-0.202
-740.098	13.583	0.089	-0.071
-739.083	394.333	-0.156	-0.332
-738.069	407.172	0.221	0.478
-737.054	-96.355	0.030	-0.008
-736.039	22.687	0.072	-0.060
-735.025	-200.000	0.004	-0.417
-734.010	-50.832	-0.161	0.078
-732.996	732.931	-0.084	-0.231
-731.981	-104.728	0.212	-0.050
-730.966	115.626	-0.135	0.168
-729.952	-98.645	-0.434	-0.113
-728.937	2.619	-0.243	-0.180
-727.923	-187.642	0.148	0.002
-726.908	7.716	-0.502	0.385
-725.894	-200.000	-0.011	0.506
-724.879	-114.870	-0.300	0.059
-723.864	-151.862	-0.386	0.029
-722.850	-161.380	-0.154	-0.008
-721.835	-74.816	-0.279	0.102
-720.821	210.551	0.015	-0.024
-719.806	6.264	-0.049	-0.037
-718.791	527.845	0.107	0.258
-717.777	-7.178	-0.348	0.242
-716.762	800.000	-0.055	-0.226
-715.748	-3.763	-0.219	-0.156
-714.733	-192.086	-0.198	-0.002
-713.718	32.365	0.373	0.329
-712.704	54.180	-0.257	-0.253
-711.689	232.206	0.129	-0.216
-710.675	6.349	-0.295	0.224
-709.660	233.198	0.078	0.130
-708.645	-71.142	-0.220	0.084
-707.631	67.647	-0.095	0.099
-706.616	-25.740	-0.078	0.047
-705.602	800.000	0.122	-0.402
-704.587	281.599	-0.095	0.174
-703.572	150.144	-0.110	0.152
-702.558	40.088	-0.102	-0.094
-701.543	-116.921	0.141	-0.026
-700.529	-114.272	0.219	0.043
-699.514	-200.000	0.045	-0.286
-698.499	-74.582	0.356	0.131
-697.485	-97.425	-0.228	-0.061
-696.470	-200.000	0.022	-0.320
-695.456	-136.767	0.081	0.010
-694.441	-200.000	-0.036	0.226
-693.426	129.880	0.073	0.095
-692.412	-22.847	0.159	0.098
-691.397	-200.000	0.000	0.170
-690.383	-200.000	0.031	0.284
-689.368	-1.521	0.144	-0.104
-688.354	-52.887	-0.202	-0.095
-687.339	-43.875	0.133	0.068
-686.324	-200.000	0.048	0.215
-685.310	-112.014	0.274	-0.056
-684.295	-74.834	-0.434	-0.159
-683.281	-200.000	0.053	-0.259
-682.266	52.161	-0.147	0.143
-681.251	-36.555	-0.170	0.094
-680.237	-123.723	0.155	0.025
-679.222	-200.000	0.002	-0.191
-678.208	75.987	-0.164	-0.177
-677.193	-53.704	0.072	0.034
-676.178	151.477	-0.198	-0.275
-675.164	13.642	-0.265	0.210
-674.149	95.234	-0.111	-0.130
-673.135	746.594	0.114	-0.312
-672.120	-200.000	0.000	0.036
-671.105	-85.323	-0.059	0.019
-670.091	800.000	0.107	-0.401
-669.076	-79.820	-0.388	-0.133
-668.062	166.776	-0.174	-0.252
-667.047	-200.000	-0.021	-0.148
-666.032	-108.046	0.181	-0.040
-665.018	-60.324	0.177	0.077
-664.003	12.258	0.090	-0.071
-662.989	-200.000	-0.022	0.171
-661.974	-75.874	0.180	0.065
-660.959	255.823	0.099	-0.174
-659.945	71.951	-0.221	-0.235
-658.930	537.486	-0.086	-0.208
-657.916	22.802	-0.146	0.122
-656.901	395.756	0.196	-0.417
-655.886	-49.269	0.076	0.037
-654.872	-200.000	-0.019	0.101
-653.857	-114.242	-0.198	0.039
-652.843	-200.000	-0.053	-0.242
-651.828	-200.000	-0.012	0.328
-650.814	408.570	0.156	-0.336
-649.799	-200.000	-0.002	0.062
-648.784	-92.231	0.193	-0.056
-647.770	22.965	0.061	-0.051
-646.755	-34.543	-0.154	0.086
-645.741	-25.671	0.158	-0.095
-644.726	-200.000	-0.006	-0.138
-643.711	-29.384	0.086	-0.050
-642.697	-48.299	-0.311	-0.153
-641.682	-200.000	-0.007	-0.289
-640.668	800.000	0.050	-0.183
-639.653	-44.295	-0.151	0.077
-638.638	-200.000	-0.009	-0.105
-637.624	319.573	0.097	0.188
-636.609	-19.834	-0.071	-0.044
-635.595	-200.000	0.004	0.065
-634.580	-35.259	-0.151	0.084
-633.565	220.712	-0.108	-0.177
-632.551	504.639	-0.069	-0.163
-631.536	-32.503	0.218	0.124
-630.522	-58.615	-0.215	0.095
-629.507	-5.188	0.300	0.210
-628.492	122.624	-0.079	0.101
-627.478	-139.741	-0.298	-0.032
-626.463	-15.000	0.224	0.146
-625.449	800.000	-0.087	0.251
-624.434	800.000	0.125	-0.361
-623.419	32.471	-0.099	-0.087
-622.405	-17.319	-0.132	-0.085
-621.390	-144.355	0.181	0.017
-620.376	-24.541	0.193	-0.117
-619.361	596.300	-0.125	0.316
-618.346	-72.132	0.192	-0.073
-617.332	-144.614	-0.291	-0.027
-616.317	19.884	0.048	-0.040
-615.303	-74.654	-0.190	-0.070
-614.288	-200.000	-0.029	-0.159
-613.273	296.672	-0.064	0.119
-612.259	-86.591	0.283	0.088
-611.244	44.384	-0.177	0.165
-610.230	-200.000	0.046	-0.269
-609.215	265.572	0.194	-0.345
-608.201	-84.425	0.079	-0.025
-607.186	-135.028	0.045	-0.005
-606.171	737.321	0.054	-0.149
-605.157	-200.000	0.012	0.241
-604.142	-142.700	-0.301	0.030
-603.128	172.165	0.179	0.261
-602.113	-87.483	-0.116	0.036
-601.098	-200.000	0.016	-0.393
-600.084	87.652	0.277	-0.312
-599.069	-200.000	0.005	-0.291
-598.055	540.499	0.121	0.292
-597.040	-200.000	-0.015	0.069
-596.025	103.779	0.013	-0.016
-595.011	-200.000	-0.016	0.106
-593.996	19.619	0.072	0.059
-592.982	-144.298	0.198	-0.019
-591.967	11.497	0.051	0.040
-590.952	-157.157	-0.388	-0.024
-589.938	-200.000	-0.018	-0.080
-588.923	541.661	0.107	-0.261
-587.909	162.464	-0.103	-0.146
-586.894	-25.607	0.310	0.186
-585.879	437.680	-0.097	-0.214
-584.865	-124.977	-0.354	-0.055
-583.850	73.159	0.131	0.140
-582.836	81.725	-0.128	0.141
-581.821	-59.980	0.139	-0.060
-580.806	14.064	0.280	-0.222
-579.792	-27.307	-0.251	0.149
-578.777	103.534	0.216	0.258
-577.763	76.792	0.145	-0.156
-576.748	-65.633	-0.300	0.123
-575.733	116.204	-0.057	-0.071
-574.719	-185.356	-0.125	-0.002
-573.704	147.818	0.063	-0.086
-572.690	-23.896	0.131	-0.079
-571.675	-170.207	-0.541	-0.019
-570.661	96.605	0.049	-0.057
-569.646	-200.000	0.005	0.189
-568.631	-165.276	-0.201	0.009
-567.617	444.046	-0.160	-0.356
-566.602	14.652	-0.142	-0.113
-565.588	179.319	0.130	-0.193
-564.573	-200.000	-0.036	-0.319
-563.558	800.000	0.080	-0.227
-562.544	639.012	0.088	-0.227
-561.529	26.334	-0.183	0.156
-560.515	-134.933	0.414	-0.051
-559.500	6.516	-0.279	-0.211
-558.485	-23.089	-0.261	0.160
-557.471	92.061	-0.140	0.160
-556.456	800.000	0.035	0.107
-555.442	173.411	-0.190	0.278
-554.427	167.618	0.204	0.294
-553.412	55.480	0.229	0.225
-552.398	-200.000	-0.030	0.205
-551.383	-130.634	-0.300	-0.041
-550.369	644.950	-0.024	0.062
-549.354	137.189	-0.147	0.195
-548.339	699.196	-0.056	-0.149
-547.325	-58.482	-0.411	0.181
-546.310	45.591	-0.132	-0.124
-545.296	133.765	0.154	0.202
-544.281	127.439	-0.080	-0.103
-543.266	359.301	0.061	-0.124
-542.252	561.446	0.144	-0.353
-541.237	450.010	-0.172	-0.385
-540.223	-200.000	0.006	0.130
-539.208	168.919	0.280	0.405
-538.193	-53.830	-0.270	0.125
-537.179	-17.216	-0.107	-0.069
-536.164	30.740	0.235	-0.204
-535.150	800.000	-0.081	-0.300
-534.135	-90.004	0.288	-0.085
-533.121	-99.105	0.378	0.097
-532.106	110.539	0.108	-0.131
-531.091	-142.212	0.167	-0.017
-530.077	-81.612	-0.446	0.149
-529.062	64.857	0.063	0.065
-528.048	-36.762	-0.145	0.079
-527.033	166.089	-0.165	-0.237
-526.018	-156.279	-0.311	-0.020
-525.004	-6.192	0.232	-0.161
-523.989	-165.327	-0.415	-0.019
-522.975	91.771	-0.117	-0.134
-521.960	800.000	0.022	0.067
-520.945	-8.813	0.214	-0.146
-519.931	257.649	-0.078	0.136
-518.916	-200.000	-0.015	-0.083
-517.902	-200.000	-0.036	0.172
-516.887	9.979	-0.232	0.179
-515.872	-81.760	-0.328	0.109
-514.858	800.000	-0.026	-0.093
-513.843	-200.000	0.019	0.158
-512.829	-200.000	0.007	0.580
-511.814	-200.000	-0.002	0.207
-510.799	38.987	-0.226	0.205
-509.785	-115.424	0.217	0.042
-508.770	58.423	-0.289	-0.288
-507.756	-200.000	0.008	0.038
-506.741	-62.237	0.073	0.031
-505.726	800.000	0.039	0.168
-504.712	-165.559	-0.132	0.006
-503.697	48.570	-0.153	0.146
-502.683	317.481	-0.154	0.296
-501.668	62.525	-0.178	-0.180
-500.653	800.000	-0.066	0.284
-499.639	-0.047	-0.181	0.130
-498.624	-56.349	0.118	-0.053
-497.610	-112.858	0.065	-0.013
-496.595	-155.793	0.152	0.010
-495.581	53.778	0.100	0.098
-494.566	-2.675	-0.084	-0.059
-493.551	166.089	-0.060	0.086
-492.537	647.054	-0.081	-0.209
-491.522	-40.382	-0.084	0.044
-490.508	77.241	0.110	-0.118
-489.493	800.000	0.043	-0.175
-488.478	800.000	0.027	0.110
-487.464	71.636	0.182	0.191
-486.449	-75.615	-0.080	0.029
-485.435	-94.835	-0.404	0.111
-484.420	-191.868	-0.067	-0.001
-483.405	-153.554	0.125	-0.009
-482.391	668.916	-0.098	-0.257
-481.376	181.769	-0.080	0.120
-480.362	105.863	-0.072	-0.086
-479.347	-113.268	0.182	0.036
-478.332	-64.478	0.085	0.035
-477.318	11.688	0.249	0.194
-476.303	316.326	-0.089	0.171
-475.289	-64.027	0.331	0.137
-474.274	-67.470	-0.070	-0.028
-473.259	188.157	0.168	-0.255
-472.245	56.955	-0.087	-0.086
-471.230	38.533	0.056	0.051
-470.216	-94.163	-0.439	-0.122
-469.201	-99.402	-0.093	0.024
-468.186	-34.190	0.021	-0.012
-467.172	111.747	0.077	0.094
-466.157	-51.851	-0.317	0.149
-465.143	800.000	-0.049	0.208
-464.128	-200.000	0.013	0.306
-463.113	68.937	0.083	-0.086
-462.099	-27.437	0.304	-0.179
-461.084	632.199	-0.101	-0.259
-460.070	-91.826	-0.067	-0.019
-459.055	800.000	-0.052	0.146
-458.040	800.000	0.011	0.045
-457.026	314.677	-0.092	0.175
-456.011	-108.556	-0.285	0.062
-454.997	-73.532	0.089	-0.033
-453.982	-54.289	0.355	0.163
-452.968	-43.797	0.299	0.153
-451.953	-115.165	0.235	-0.045
-450.938	84.421	-0.256	0.284
-449.924	-106.197	-0.222	-0.050
-448.909	-128.608	0.035	-0.005
-447.895	-2.166	0.268	0.190
-446.880	504.736	0.061	0.142
-445.865	116.337	0.114	0.141
-444.851	800.000	-0.048	0.143
-443.836	751.912	0.066	0.180
-442.822	-26.369	0.092	-0.055
-441.807	800.000	0.011	0.030
-440.792	310.862	-0.105	0.200
-439.778	269.807	-0.077	0.136
-438.763	-200.000	0.000	0.059
-437.749	-44.242	-0.318	-0.162
-436.734	-200.000	0.088	-0.451
-435.719	-136.444	-0.201	-0.024
-434.705	252.181	-0.104	-0.179
-433.690	-200.000	-0.001	-0.180
-432.676	537.120	-0.083	-0.199
-431.661	-87.206	0.141	-0.043
-430.646	-200.000	-0.053	0.346
-429.632	-47.322	-0.144	-0.071
-428.617	139.784	0.184	-0.245
-427.603	224.469	-0.082	-0.135
-426.588	800.000	0.077	-0.248
-425.573	20.344	0.165	-0.135
-424.559	-200.000	0.066	0.309
-423.544	-105.538	0.036	-0.008
-422.530	695.638	0.039	-0.104
-421.515	317.163	-0.167	-0.320
-420.500	-113.010	-0.346	-0.069
-419.486	-51.578	0.295	0.139
-418.471	-130.256	0.166	-0.023
-417.457	261.353	-0.110	-0.193
-416.442	359.468	0.047	-0.096
-415.428	-200.000	-0.024	0.348
-414.413	-171.513	0.375	-0.013
-413.398	-78.929	-0.099	-0.034
-412.384	180.702	0.171	-0.254
-411.369	-71.714	0.021	0.008
-410.355	800.000	-0.031	-0.100
-409.340	-185.352	-0.404	-0.006
-408.325	-63.325	-0.129	0.054
-407.311	800.000	0.030	-0.104
-406.296	89.281	-0.137	0.154
-405.282	140.431	-0.062	-0.082
-404.267	-74.889	-0.271	0.098
-403.252	3.020	0.235	-0.172
-402.238	300.128	0.158	0.293
-401.223	26.029	0.241	0.203
-400.209	255.285	0.148	0.257
-399.194	-25.107	-0.205	-0.122
-398.179	-161.842	-0.095	0.005
-397.165	-200.000	0.012	0.290
-396.150	800.000	0.058	0.186
-395.136	17.499	-0.195	0.157
-394.121	-111.640	-0.373	0.076
-393.106	-36.124	-0.272	-0.149
-392.092	-58.243	-0.229	-0.101
-391.077	-73.892	-0.316	-0.116
-390.063	800.000	0.044	0.143
-389.048	114.919	0.099	0.122
-388.033	-53.101	-0.065	-0.030
-387.019	350.267	-0.088	-0.176
-386.004	12.795	0.285	-0.222
-384.990	-114.317	0.206	-0.040
-383.975	-161.069	0.367	-0.019
-382.960	800.000	-0.069	0.304
-381.946	-134.898	0.423	-0.052
-380.931	-169.842	0.190	0.007
-379.917	-10.382	0.205	-0.137
-378.902	213.621	0.058	-0.092
-377.888	206.274	-0.083	-0.131
-376.873	66.050	-0.114	0.117
-375.858	394.075	-0.027	0.056
-374.844	667.422	-0.056	-0.147
-373.829	-131.994	0.268	-0.035
-372.815	-200.000	-0.027	-0.193
-371.800	-38.727	0.148	-0.079
-370.785	-200.000	0.004	-0.244
-369.771	212.809	-0.095	0.152
-368.756	-12.494	-0.139	-0.092
-367.742	-100.320	-0.230	0.057
-366.727	139.679	0.187	0.249
-365.712	-67.747	0.433	-0.171
-364.698	-61.692	-0.237	-0.100
-363.683	-146.209	-0.264	-0.023
-362.669	-200.000	-0.050	0.305
-361.654	800.000	-0.019	0.082
-360.639	-53.186	0.251	0.116
-359.625	-136.457	0.335	-0.039
-358.610	134.636	0.066	-0.086
-357.596	-16.734	0.355	0.227
-356.581	-200.000	0.004	0.267
-355.566	-25.396	0.157	-0.093
-354.552	-114.295	-0.395	0.077
-353.537	58.967	0.114	-0.113
-352.523	-149.616	0.111	-0.009
-351.508	12.645	0.423	-0.329
-350.493	211.445	0.115	0.182
-349.479	-68.864	-0.199	0.077
-348.464	-200.000	0.021	0.141
-347.450	800.000	-0.059	0.190
-346.435	-131.552	0.181	0.024
-345.420	-200.000	0.019	0.204
-344.406	440.826	0.126	-0.278
-343.391	-139.518	0.171	0.018
-342.377	800.000	-0.033	0.135
-341.362	-200.000	-0.001	-0.043
-340.348	-63.800	0.072	-0.030
-339.333	-4.045	-0.157	0.109
-338.318	-200.000	-0.037	0.184
-337.304	-34.967	0.145	-0.080
-336.289	264.134	0.081	0.142
-335.275	-91.229	-0.319	0.092
-334.260	144.697	-0.193	0.260
-333.245	271.178	-0.240	0.427
-332.231	-62.134	0.209	-0.088
-331.216	421.962	0.203	-0.439
-330.202	-1.115	0.041	-0.029
-329.187	-45.970	0.207	0.103
-328.172	39.471	-0.107	0.096
-327.158	-164.229	0.462	0.021
-326.143	103.616	0.102	0.120
-325.129	-137.135	0.178	-0.020
-324.114	-156.527	0.145	-0.009
-323.099	179.026	0.137	-0.201
-322.085	-180.238	0.199	-0.004
-321.070	-200.000	-0.365	0.000
-320.056	46.364	-0.119	-0.111
-319.041	-37.801	0.105	-0.056
-318.026	-45.807	0.136	0.068
-317.012	800.000	-0.027	-0.091
-315.997	67.734	0.090	-0.093
-314.983	301.980	-0.247	-0.459
-313.968	-200.000	-0.031	-0.264
-312.953	800.000	0.092	-0.261
-311.939	-200.000	0.002	-0.085
-310.924	-30.120	-0.185	0.106
-309.910	25.770	0.323	-0.271
-308.895	-62.428	-0.236	0.099
-307.880	182.843	-0.136	0.202
-306.866	-200.000	-0.005	0.385
-305.851	1.877	-0.240	0.174
-304.837	340.994	0.103	-0.203
-303.822	-168.908	-0.339	0.013
-302.807	155.332	0.007	0.010
-301.793	-200.000	0.031	0.139
-300.778	141.573	-0.198	-0.264
-299.764	-183.074	-0.170	0.003
-298.749	143.849	0.241	0.323
-297.735	-200.000	-0.000	0.412
-296.720	649.882	0.035	-0.091
-295.705	-42.860	0.081	0.042
-294.691	-200.000	-0.008	0.167
-293.676	-148.571	0.395	-0.032
-292.662	-200.000	0.010	0.375
-291.647	535.066	0.068	-0.162
-290.632	708.331	-0.066	-0.177
-289.618	265.449	0.164	0.287
-288.603	111.803	0.073	0.089
-287.589	45.949	-0.229	0.213
-286.574	63.279	-0.127	-0.128
-285.559	80.255	-0.230	-0.249
-284.545	46.704	0.332	-0.310
-283.530	-158.241	-0.165	0.010
-282.516	14.645	0.118	-0.093
-281.501	204.529	0.139	0.216
-280.486	-21.498	-0.187	0.115
-279.472	190.381	0.075	0.114
-278.457	-119.474	0.249	-0.043
-277.443	20.802	-0.202	0.164
-276.428	279.018	0.148	0.266
-275.413	800.000	-0.051	-0.179
-274.399	84.323	-0.153	0.168
-273.384	6.460	-0.186	0.139
-272.370	-16.326	-0.244	0.156
-271.355	-120.242	0.273	0.047
-270.340	-110.878	-0.447	0.092
-269.326	-200.000	0.077	0.526
-268.311	-30.783	-0.160	-0.091
-267.297	123.638	0.134	-0.168
-266.282	96.878	0.044	0.051
-265.267	-200.000	0.013	-0.437
-264.253	93.946	0.127	0.144
-263.238	-34.052	0.262	-0.145
-262.224	800.000	-0.028	-0.119
-261.209	-199.865	-0.015	0.000
-260.195	-200.000	-0.001	-0.066
-259.180	350.709	0.093	-0.184
-258.165	-200.000	-0.024	0.603
-257.151	71.996	0.038	0.040
-256.136	-200.000	-0.046	0.282
-255.122	-91.183	-0.111	0.032
-254.107	-46.663	-0.182	0.089
-253.092	43.734	-0.193	-0.177
-252.078	-183.652	-0.130	-0.002
-251.063	-107.389	0.209	-0.046
-250.049	800.000	0.072	-0.266
-249.034	29.177	-0.061	0.052
-248.019	-169.439	-0.294	-0.011
-247.005	-94.680	-0.219	-0.060
-245.990	105.134	0.088	-0.105
-244.976	127.233	-0.124	0.158
-243.961	91.204	-0.082	0.093
-242.946	800.000	0.118	-0.380
-241.932	-196.695	-0.292	-0.002
-240.917	141.033	-0.160	0.213
-239.903	-58.101	0.018	0.008
-238.888	-41.908	0.283	-0.146
-237.873	253.733	0.140	-0.239
-236.859	-20.668	0.115	0.071
-235.844	-176.322	-0.118	0.003
-234.830	168.920	0.036	0.052
-233.815	-200.000	0.013	0.110
-232.800	78.726	-0.179	0.192
-231.786	407.372	0.160	0.339
-230.771	112.611	-0.277	0.337
-229.757	653.165	-0.056	-0.143
-228.742	-55.130	0.113	0.051
-227.727	-200.000	0.025	0.140
-226.713	-64.201	-0.190	0.078
-225.698	102.024	-0.123	-0.144
-224.684	-138.710	0.106	-0.012
-223.669	201.945	0.123	-0.190
-222.655	800.000	0.061	-0.206
-221.640	-116.777	0.264	-0.049
-220.625	800.000	-0.062	-0.190
-219.611	62.834	-0.124	-0.125
-218.596	10.629	0.480	0.367
-217.582	-200.000	0.002	-0.105
-216.567	-88.069	0.068	0.020
-215.552	396.467	0.248	-0.519
-214.538	-145.444	0.281	0.025
-213.523	-105.393	-0.417	0.095
-212.509	800.000	0.031	0.094
-211.494	-183.887	-0.098	-0.002
-210.479	36.601	0.065	-0.057
-209.465	120.594	-0.186	-0.232
-208.450	-49.906	-0.116	0.055
-207.436	800.000	0.056	-0.164
-206.421	-10.627	-0.146	0.097
-205.406	-97.031	0.163	-0.043
-204.392	74.021	0.116	0.122
-203.377	-62.032	0.165	0.069
-202.363	79.255	0.043	0.046
-201.348	-80.039	0.150	0.050
-200.333	215.250	0.126	0.201
-199.319	-200.000	-0.044	-0.270
-198.304	-200.000	0.049	-0.506
-197.290	-134.734	-0.028	-0.003
-196.275	71.188	0.131	-0.136
-195.260	53.934	-0.194	0.186
-194.246	-149.954	-0.084	0.007
-193.231	137.754	-0.171	-0.225
-192.217	-159.437	0.456	-0.026
-191.202	-149.188	0.495	-0.040
-190.187	380.516	0.167	-0.344
-189.173	-5.267	-0.097	-0.067
-188.158	70.255	0.173	-0.179
-187.144	800.000	-0.103	-0.306
-186.129	120.119	0.038	-0.047
-185.114	-61.058	-0.082	0.035
-184.100	159.470	0.186	0.259
-183.085	-74.458	-0.231	0.083
-182.071	-136.746	0.230	-0.027
-181.056	-121.304	-0.263	-0.044
-180.042	-23.968	0.145	-0.087
-179.027	-200.000	0.013	0.119
-178.012	800.000	-0.062	0.183
-176.998	-200.000	-0.017	-0.109
-175.983	-75.004	-0.237	0.085
-174.969	-22.788	-0.305	-0.184
-173.954	5.511	0.081	-0.060
-172.939	355.241	-0.013	0.026
-171.925	-200.000	-0.007	-0.047
-170.910	800.000	0.057	-0.190
-169.896	122.479	0.042	-0.053
-168.881	-86.167	-0.163	-0.050
-167.866	-50.319	0.178	0.084
-166.852	-166.317	0.091	0.004
-165.837	800.000	0.072	0.201
-164.823	134.672	-0.062	-0.081
-163.808	25.062	-0.062	-0.052
-162.793	768.319	-0.164	-0.445
-161.779	-115.182	-0.245	0.046
-160.764	-200.000	-0.007	-0.215
-159.750	-27.322	0.327	0.190
-158.735	-87.823	0.333	-0.100
-157.720	202.909	0.176	-0.272
-156.706	-22.639	0.211	-0.127
-155.691	800.000	-0.166	-0.584
-154.677	168.375	0.060	0.086
-153.662	-6.086	0.103	0.071
-152.647	227.907	0.070	0.114
-151.633	800.000	0.093	0.386
-150.618	-129.694	-0.206	0.028
-149.604	23.855	-0.320	-0.263
-148.589	618.530	-0.144	0.361
-147.574	-56.811	-0.210	0.093
-146.560	231.872	0.116	-0.190
-145.545	-200.000	-0.048	-0.224
-144.531	-200.000	-0.126	0.586
-143.516	-142.872	0.217	-0.021
-142.502	-107.842	-0.385	0.084
-141.487	-200.000	-0.068	-0.467
-140.472	390.958	0.162	0.336
-139.458	308.898	-0.140	-0.262
-138.443	111.767	0.107	-0.129
-137.429	-55.697	-0.025	-0.011
-136.414	-112.093	0.092	0.018
-135.399	-200.000	0.006	0.201
-134.385	-189.684	-0.337	-0.004
-133.370	2.965	0.020	-0.014
-132.356	-84.417	-0.124	0.039
-131.341	-200.000	-0.010	-0.182
-130.326	-120.017	0.100	-0.017
-129.312	149.926	0.076	0.104
-128.297	-200.000	-0.015	0.117
-127.283	-200.000	0.002	0.032
-126.268	800.000	-0.121	0.361
-125.253	272.876	0.040	-0.070
-124.239	-142.225	-0.191	0.019
-123.224	233.781	0.159	-0.261
-122.210	527.645	0.074	-0.174
-121.195	-200.000	0.076	0.402
