DTS Sentinel unit serial number:	SN413079Multiplexer serial number:	ORYXHardware model number:	OX4-SRSoftware version number:	ORYX F/W v4.00 Oryx Data Collector v3.7.2.0data status	okinstallation	princeton_trtdifferential loss correction	single-endedforward channel	channel 3reverse channel	N/Adate	2019/09/13time	06:12:34forward acquisition time	60.00reverse acquisition time	0.00gamma	496.2192k internal	0.2338k external	0.2338temperature offset calibration	1.0138default loss term (dB/km)	0.3790temperature slope calibration	1.0000multiplexer offset coefficient	1.0000multiplexer slope coefficient	1.0000fibre end	0.00T internal ref (°C)	26.12T ext. ref 1 (°C)	4.09T ext. ref 2 (°C)	20.91length (m)	temperature (°C)	Stokes	anti-Stokes-747.200	56.654	-0.115	0.113
-746.185	39.930	0.246	-0.221
-745.171	77.128	-0.154	0.164
-744.156	94.134	-0.040	0.045
-743.142	-26.810	0.161	0.094
-742.127	408.601	-0.112	0.238
-741.112	-200.000	0.049	0.299
-740.098	279.019	-0.049	-0.088
-739.083	-200.000	-0.002	0.109
-738.069	138.602	-0.064	0.084
-737.054	245.543	0.036	-0.060
-736.039	128.416	0.134	-0.172
-735.025	396.970	-0.080	0.167
-734.010	46.611	-0.082	0.076
-732.996	800.000	-0.058	-0.167
-731.981	-95.593	-0.111	0.030
-730.966	-31.480	0.282	0.159
-729.952	-200.000	-0.005	-0.106
-728.937	-121.250	0.208	-0.035
-727.923	33.604	0.089	-0.077
-726.908	-200.000	-0.473	-0.001
-725.894	800.000	-0.100	-0.357
-724.879	-122.690	-0.195	0.032
-723.864	47.143	0.112	0.104
-722.850	800.000	-0.061	-0.181
-721.835	-113.003	0.064	-0.013
-720.821	45.512	-0.178	0.164
-719.806	-73.436	-0.354	0.130
-718.791	800.000	0.091	-0.352
-717.777	277.482	-0.117	0.209
-716.762	-41.907	-0.113	0.058
-715.748	-150.201	0.328	-0.025
-714.733	800.000	-0.031	0.128
-713.718	800.000	-0.021	-0.083
-712.704	-11.702	0.081	0.053
-711.689	366.366	-0.073	-0.148
-710.675	711.593	0.032	-0.085
-709.660	-46.878	-0.108	-0.053
-708.645	-109.037	0.471	0.101
-707.631	-17.688	-0.259	-0.163
-706.616	-109.059	-0.029	0.006
-705.602	10.596	-0.218	-0.166
-704.587	-109.557	0.267	-0.056
-703.572	-200.000	-0.004	0.131
-702.558	-200.000	-0.015	-0.110
-701.543	44.397	0.182	0.167
-700.529	561.467	-0.056	0.137
-699.514	-39.366	-0.120	-0.063
-698.499	-93.759	0.219	0.060
-697.485	-200.000	-0.014	0.237
-696.470	171.990	-0.230	0.331
-695.456	74.800	-0.030	0.032
-694.441	-48.306	0.200	0.097
-693.426	-152.661	0.256	0.018
-692.412	-200.000	-0.039	0.283
-691.397	-200.000	0.056	0.000
-690.383	-166.781	0.154	0.006
-689.368	222.791	-0.222	-0.358
-688.354	-200.000	-0.051	-0.309
-687.339	-41.644	-0.209	0.108
-686.324	-67.043	0.084	-0.033
-685.310	-200.000	0.022	0.139
-684.295	111.797	0.061	0.074
-683.281	-142.541	0.157	-0.015
-682.266	-16.261	-0.283	0.180
-681.251	233.259	-0.080	0.132
-680.237	527.330	0.080	-0.188
-679.222	800.000	-0.068	0.272
-678.208	137.618	-0.164	0.215
-677.193	30.337	-0.145	0.124
-676.178	-200.000	-0.046	-0.235
-675.164	82.052	0.056	-0.061
-674.149	800.000	0.062	-0.204
-673.135	21.148	0.275	0.223
-672.120	-87.655	-0.136	-0.041
-671.105	-37.617	-0.256	0.136
-670.091	-50.043	0.423	-0.200
-669.076	118.949	0.124	0.153
-668.062	209.738	-0.156	-0.245
-667.047	-74.150	0.250	0.090
-666.032	124.241	0.070	-0.088
-665.018	-200.000	-0.004	0.076
-664.003	-157.626	0.487	-0.029
-662.989	380.263	-0.133	-0.273
-661.974	216.021	-0.042	0.066
-660.959	-1.311	0.069	0.049
-659.945	72.671	0.080	-0.083
-658.930	800.000	-0.146	0.440
-657.916	351.461	0.024	0.047
-656.901	-75.337	-0.174	0.062
-655.886	167.648	0.172	0.244
-654.872	-103.910	-0.200	0.047
-653.857	148.179	0.140	0.189
-652.843	800.000	-0.043	-0.139
-651.828	-84.907	0.153	0.048
-650.814	-74.442	0.245	-0.088
-649.799	-85.890	0.154	0.048
-648.784	800.000	-0.064	0.274
-647.770	69.341	-0.097	0.100
-646.755	-120.821	-0.149	-0.025
-645.741	98.970	-0.056	0.064
-644.726	-94.829	0.089	-0.024
-643.711	202.695	0.212	-0.328
-642.697	114.030	-0.085	-0.103
-641.682	27.865	-0.086	0.072
-640.668	95.580	0.097	0.111
-639.653	-148.620	0.446	0.036
-638.638	-200.000	0.024	0.247
-637.624	800.000	0.063	0.207
-636.609	49.632	0.195	0.183
-635.595	95.004	-0.207	0.236
-634.580	-200.000	0.056	-0.329
-633.565	123.798	-0.106	-0.133
-632.551	-20.910	-0.139	0.085
-631.536	-28.334	-0.228	-0.132
-630.522	-17.652	0.127	-0.079
-629.507	-84.048	-0.355	0.113
-628.492	339.880	0.087	-0.170
-627.478	-44.416	-0.349	-0.175
-626.463	-200.000	0.044	0.524
-625.449	204.130	0.142	0.220
-624.434	-200.000	-0.065	-0.464
-623.419	-95.012	-0.348	0.094
-622.405	12.530	0.128	0.099
-621.390	399.239	0.069	-0.145
-620.376	-46.342	-0.046	-0.023
-619.361	-112.945	-0.300	-0.059
-618.346	-105.749	-0.141	0.032
-617.332	182.731	-0.049	0.072
-616.317	211.255	0.052	-0.082
-615.303	-9.083	0.214	-0.143
-614.288	-100.980	0.279	-0.068
-613.273	577.037	0.086	0.210
-612.259	-200.000	0.005	-0.162
-611.244	116.453	-0.153	-0.187
-610.230	-122.039	-0.052	-0.009
-609.215	200.431	0.133	-0.203
-608.201	-55.835	-0.112	-0.050
-607.186	-200.000	0.054	-0.244
-606.171	-200.000	-0.015	-0.357
-605.157	-45.650	-0.296	-0.146
-604.142	-200.000	0.047	-0.207
-603.128	60.761	-0.291	-0.288
-602.113	125.462	0.085	0.107
-601.098	-200.000	0.035	0.209
-600.084	-200.000	-0.008	0.196
-599.069	-200.000	-0.004	-0.105
-598.055	186.205	0.068	-0.101
-597.040	537.035	0.071	-0.169
-596.025	-66.346	-0.199	0.079
-595.011	800.000	-0.083	-0.233
-593.996	-200.000	-0.001	0.040
-592.982	459.696	-0.099	0.219
-591.967	-73.535	-0.188	-0.068
-590.952	-72.452	-0.171	-0.063
-589.938	800.000	0.026	0.081
-588.923	-47.799	-0.142	0.069
-587.909	-134.130	-0.255	-0.031
-586.894	187.451	0.179	0.266
-585.879	94.932	-0.195	0.221
-584.865	105.230	-0.135	0.159
-583.850	406.659	-0.076	0.159
-582.836	151.299	0.045	0.061
-581.821	-93.423	-0.254	-0.070
-580.806	23.400	-0.257	-0.211
-579.792	-116.265	0.109	-0.020
-578.777	-43.750	0.186	-0.093
-577.763	17.105	0.223	0.176
-576.748	-18.160	-0.217	-0.135
-575.733	121.844	-0.147	-0.182
-574.719	-108.505	-0.290	0.062
-573.704	273.566	0.044	0.077
-572.690	103.532	0.041	0.047
-571.675	124.108	0.151	0.189
-570.661	251.837	-0.052	0.088
-569.646	-200.000	-0.012	-0.269
-568.631	-200.000	0.021	0.126
-567.617	-152.935	0.263	-0.018
-566.602	79.769	0.083	-0.089
-565.588	-200.000	0.035	0.312
-564.573	295.381	-0.078	0.142
-563.558	272.923	-0.081	-0.142
-562.544	93.736	0.035	-0.039
-561.529	-29.206	-0.139	-0.080
-560.515	194.815	-0.032	0.049
-559.500	-117.891	0.302	-0.054
-558.485	51.599	0.139	-0.131
-557.471	-109.730	0.200	-0.042
-556.456	311.172	0.191	0.357
-555.442	-169.993	0.149	-0.005
-554.427	574.548	-0.059	-0.144
-553.412	-41.095	-0.236	-0.122
-552.398	251.373	0.208	0.352
-551.383	-200.000	-0.005	-0.177
-550.369	800.000	-0.122	-0.402
-549.354	72.626	-0.203	0.211
-548.339	-112.944	0.394	0.078
-547.325	-18.340	-0.095	0.059
-546.310	800.000	-0.089	-0.260
-545.296	-200.000	-0.017	0.250
-544.281	131.732	-0.119	-0.153
-543.266	-61.550	-0.202	0.085
-542.252	178.911	-0.048	-0.070
-541.237	-49.382	-0.102	-0.049
-540.223	-59.442	0.179	-0.077
-539.208	800.000	-0.058	-0.214
-538.193	800.000	-0.014	0.050
-537.179	577.665	-0.027	0.065
-536.164	-41.865	-0.347	0.177
-535.150	-25.573	-0.050	-0.029
-534.135	-122.614	-0.190	-0.031
-533.121	-57.643	0.030	0.013
-532.106	-143.959	0.158	0.015
-531.091	-111.142	0.137	0.028
-530.077	123.987	-0.134	0.167
-529.062	-52.176	0.095	-0.044
-528.048	477.253	-0.096	0.217
-527.033	-99.873	0.246	-0.061
-526.018	-109.218	0.133	-0.028
-525.004	-115.858	-0.261	-0.049
-523.989	79.734	-0.097	-0.104
-522.975	-59.624	-0.118	0.050
-521.960	658.297	-0.069	0.178
-520.945	-23.779	0.101	-0.060
-519.931	-200.000	0.000	-0.075
-518.916	231.858	0.069	-0.112
-517.902	-200.000	0.001	-0.297
-516.887	50.554	-0.132	0.125
-515.872	-16.032	0.383	0.242
-514.858	246.140	-0.095	-0.158
-513.843	152.627	0.156	0.212
-512.829	-200.000	-0.035	0.371
-511.814	800.000	0.075	0.286
-510.799	-94.186	0.241	0.066
-509.785	-188.372	0.131	0.002
-508.770	-120.817	-0.547	-0.092
-507.756	182.240	0.198	0.290
-506.741	213.051	-0.151	-0.237
-505.726	6.013	0.165	-0.121
-504.712	-118.839	0.427	-0.075
-503.697	-49.557	0.127	-0.060
-502.683	33.507	-0.084	-0.073
-501.668	-24.451	-0.387	-0.229
-500.653	-167.319	-0.288	-0.012
-499.639	-51.335	-0.412	-0.192
-498.624	62.635	0.132	-0.131
-497.610	249.428	-0.076	0.128
-496.595	170.134	0.165	-0.235
-495.581	-200.000	-0.057	-0.393
-494.566	-124.585	-0.089	-0.014
-493.551	800.000	0.051	0.156
-492.537	-200.000	0.020	0.130
-491.522	-105.119	0.157	-0.036
-490.508	-200.000	-0.044	-0.265
-489.493	299.342	-0.041	0.074
-488.478	-92.296	-0.045	-0.013
-487.464	169.447	0.065	-0.093
-486.449	466.114	-0.161	0.357
-485.435	193.450	-0.152	-0.228
-484.420	-49.389	-0.166	-0.079
-483.405	428.539	0.079	-0.170
-482.391	-200.000	0.065	-0.441
-481.376	-168.166	0.104	0.004
-480.362	-125.508	-0.357	-0.054
-479.347	-144.417	-0.153	0.014
-478.332	86.681	0.157	-0.172
-477.318	41.926	0.116	0.104
-476.303	192.767	0.099	0.149
-475.289	361.006	0.084	0.168
-474.274	-50.463	0.271	-0.127
-473.259	208.384	-0.180	0.279
-472.245	800.000	0.073	0.252
-471.230	734.538	0.068	0.181
-470.216	163.540	-0.057	0.079
-469.201	-200.000	-0.048	-0.321
-468.186	-84.433	0.501	0.157
-467.172	10.782	-0.054	-0.041
-466.157	-200.000	0.020	0.167
-465.143	-200.000	-0.012	-0.201
-464.128	-143.627	-0.238	0.022
-463.113	800.000	0.150	0.417
-462.099	-79.435	0.202	0.068
-461.084	511.901	0.064	-0.149
-460.070	-128.523	0.297	0.042
-459.055	-33.628	0.217	0.119
-458.040	166.299	0.118	0.166
-457.026	800.000	-0.064	0.266
-456.011	-200.000	-0.010	0.128
-454.997	111.368	-0.170	0.203
-453.982	-123.545	-0.161	-0.025
-452.968	-18.003	-0.267	-0.166
-451.953	-22.151	-0.256	-0.154
-450.938	-120.448	0.267	0.045
-449.924	493.328	-0.150	0.340
-448.909	-193.034	0.551	-0.005
-447.895	285.320	-0.156	-0.280
-446.880	-10.755	0.038	-0.025
-445.865	-127.068	0.444	-0.065
-444.851	102.962	-0.199	-0.231
-443.836	422.492	-0.045	-0.096
-442.822	99.440	-0.026	-0.030
-441.807	-37.802	-0.127	0.067
-440.792	-161.107	-0.140	0.007
-439.778	229.225	-0.103	0.166
-438.763	-0.144	0.125	0.088
-437.749	-28.542	-0.093	-0.053
-436.734	756.259	0.051	0.137
-435.719	114.350	0.117	0.141
-434.705	182.369	0.151	-0.220
-433.690	-65.501	0.215	0.085
-432.676	-200.000	0.042	0.284
-431.661	26.651	-0.141	-0.117
-430.646	76.375	-0.079	-0.083
-429.632	237.018	-0.100	0.164
-428.617	-104.741	0.148	-0.034
-427.603	-115.023	-0.406	-0.076
-426.588	-166.216	-0.064	0.003
-425.573	-200.000	0.055	-0.299
-424.559	-169.581	-0.124	0.004
-423.544	800.000	-0.160	0.453
-422.530	-200.000	-0.113	0.000
-421.515	-200.000	-0.005	-0.045
-420.500	-200.000	-0.037	0.164
-419.486	-7.306	0.047	0.031
-418.471	-200.000	-0.014	0.154
-417.457	-120.504	-0.188	0.032
-416.442	-200.000	-0.000	0.030
-415.428	260.449	0.048	-0.083
-414.413	-113.893	0.203	-0.039
-413.398	800.000	-0.073	-0.206
-412.384	44.301	0.268	-0.244
-411.369	-200.000	-0.006	-0.143
-410.355	-200.000	0.038	0.169
-409.340	-200.000	0.005	0.104
-408.325	-143.747	-0.272	-0.026
-407.311	192.603	-0.208	-0.311
-406.296	-114.756	0.124	0.023
-405.282	-126.169	-0.166	0.025
-404.267	-55.120	0.216	0.096
-403.252	800.000	0.083	0.270
-402.238	-109.420	0.210	0.044
-401.223	-179.644	0.171	-0.004
-400.209	205.358	-0.166	-0.255
-399.194	-95.584	0.208	-0.055
-398.179	800.000	0.032	0.094
-397.165	800.000	0.084	-0.355
-396.150	-200.000	0.053	-0.331
-395.136	-44.968	0.280	0.138
-394.121	-108.707	-0.208	0.044
-393.106	20.723	0.192	-0.154
-392.092	-200.000	-0.005	-0.184
-391.077	-121.579	-0.390	0.064
-390.063	-143.443	0.257	-0.024
-389.048	-138.676	0.300	-0.032
-388.033	800.000	0.053	0.147
-387.019	-200.000	-0.005	-0.118
-386.004	-200.000	0.009	0.321
-384.990	227.749	-0.053	0.086
-383.975	-200.000	-0.005	-0.166
-382.960	405.559	-0.189	0.393
-381.946	57.006	0.135	0.130
-380.931	-200.000	-0.027	0.143
-379.917	-63.834	0.212	-0.086
-378.902	-77.633	0.122	-0.042
-377.888	-200.000	-0.003	0.109
-376.873	48.642	0.294	0.272
-375.858	-60.324	-0.063	0.027
-374.844	352.842	-0.119	0.234
-373.829	-200.000	-0.030	0.342
-372.815	-200.000	0.032	0.312
-371.800	800.000	-0.064	0.187
-370.785	119.041	0.079	-0.096
-369.771	-164.508	-0.208	0.009
-368.756	289.992	0.076	-0.137
-367.742	-97.694	-0.060	0.015
-366.727	-145.230	-0.137	-0.012
-365.712	11.592	0.169	0.128
-364.698	-100.410	0.414	0.101
-363.683	329.374	0.100	-0.191
-362.669	51.543	0.144	-0.136
-361.654	-200.000	0.045	0.229
-360.639	69.807	0.180	-0.184
-359.625	29.875	0.247	0.208
-358.610	605.608	-0.031	0.076
-357.596	-200.000	0.077	0.379
-356.581	-56.136	-0.291	-0.128
-355.566	-200.000	0.010	-0.244
-354.552	800.000	0.124	-0.375
-353.537	147.488	0.254	-0.338
-352.523	-39.300	-0.432	0.224
-351.508	36.883	0.084	-0.073
-350.493	-39.958	-0.159	0.082
-349.479	-200.000	-0.238	-0.001
-348.464	-23.225	-0.241	-0.144
-347.450	-76.801	0.344	-0.119
-346.435	503.786	0.146	-0.334
-345.420	800.000	0.065	0.191
-344.406	181.797	0.033	-0.048
-343.391	4.583	0.249	0.181
-342.377	800.000	0.070	0.259
-341.362	-158.114	-0.289	-0.017
-340.348	-64.762	0.141	0.056
-339.333	-200.000	-0.005	-0.298
-338.318	-17.186	-0.079	0.049
-337.304	61.278	-0.160	0.157
-336.289	-200.000	-0.054	-0.560
-335.275	800.000	0.066	0.229
-334.260	-33.646	-0.351	0.191
-333.245	-200.000	-0.048	-0.418
-332.231	-77.466	-0.356	0.122
-331.216	-91.500	0.091	-0.026
-330.202	-200.000	-0.004	-0.217
-329.187	-200.000	0.037	-0.310
-328.172	-79.903	0.385	-0.128
-327.158	-28.407	-0.205	-0.117
-326.143	-51.273	-0.074	-0.034
-325.129	-23.910	-0.210	0.124
-324.114	-200.000	0.004	0.089
-323.099	97.370	-0.201	-0.228
-322.085	413.780	0.068	0.143
-321.070	-135.497	0.097	-0.011
-320.056	45.645	0.308	0.281
-319.041	-75.866	-0.405	-0.142
-318.026	534.271	-0.084	-0.196
-317.012	104.678	0.198	0.231
-315.997	677.410	-0.172	0.441
-314.983	-25.242	0.154	0.090
-313.968	511.475	-0.169	-0.387
-312.953	196.652	-0.072	0.108
-311.939	261.967	-0.199	0.341
-310.924	800.000	0.098	-0.328
-309.910	3.589	0.313	-0.225
-308.895	-200.000	-0.021	0.188
-307.880	197.504	-0.035	-0.052
-306.866	71.380	-0.262	-0.268
-305.851	786.745	-0.093	0.253
-304.837	58.943	0.243	0.236
-303.822	58.942	0.120	0.116
-302.807	-200.000	-0.023	-0.131
-301.793	13.376	-0.041	-0.032
-300.778	475.224	0.122	0.271
-299.764	-62.922	-0.150	-0.061
-298.749	203.784	0.207	0.316
-297.735	34.329	-0.293	-0.252
-296.720	-98.403	-0.238	0.060
-295.705	-137.797	0.216	0.024
-294.691	800.000	-0.149	0.443
-293.676	75.159	0.157	0.164
-292.662	-131.434	0.183	0.024
-291.647	800.000	-0.072	-0.218
-290.632	116.203	0.263	0.318
-289.618	800.000	-0.044	-0.128
-288.603	590.211	0.111	-0.270
-287.589	178.790	0.214	-0.309
-286.574	734.972	-0.107	-0.281
-285.559	800.000	0.039	0.154
-284.545	195.708	0.171	-0.256
-283.530	-27.879	-0.200	-0.114
-282.516	40.191	0.184	-0.163
-281.501	-6.866	0.284	0.190
-280.486	-117.486	0.087	-0.015
-279.472	-54.439	-0.140	0.062
-278.457	-200.000	-0.011	0.110
-277.443	-158.394	-0.246	-0.014
-276.428	-93.795	0.023	-0.006
-275.413	-83.833	0.260	-0.082
-274.399	229.014	-0.167	-0.268
-273.384	-77.359	0.263	-0.090
-272.370	-53.841	0.148	-0.067
-271.355	-155.757	0.576	-0.036
-270.340	-200.000	-0.002	-0.133
-269.326	-121.640	-0.357	0.058
-268.311	-83.540	0.153	-0.048
-267.297	-3.127	-0.052	0.036
-266.282	193.880	0.090	0.133
-265.267	4.770	0.222	0.160
-264.253	10.444	-0.300	-0.225
-263.238	5.167	-0.189	-0.137
-262.224	-200.000	-0.020	0.160
-261.209	-100.289	0.310	-0.076
-260.195	35.612	-0.138	0.120
-259.180	-139.596	0.427	0.045
-258.165	-38.317	-0.121	0.063
-257.151	3.604	0.369	0.265
-256.136	-106.265	0.315	0.069
-255.122	-72.668	0.020	0.007
-254.107	49.748	-0.164	0.152
-253.092	-124.845	0.136	0.021
-252.078	-4.781	-0.404	-0.274
-251.063	-104.439	-0.173	-0.039
-250.049	67.511	0.010	-0.010
-249.034	800.000	-0.020	0.082
-248.019	-61.281	0.042	-0.017
-247.005	-77.005	-0.263	-0.090
-245.990	-95.512	-0.424	0.112
-244.976	-19.542	0.205	0.125
-243.961	322.751	0.038	-0.072
-242.946	-170.891	0.274	0.009
-241.932	-200.000	0.009	-0.054
-240.917	-8.136	0.095	0.063
-239.903	-200.000	0.028	-0.287
-238.888	87.549	-0.134	-0.146
-237.873	27.016	0.261	-0.215
-236.859	140.889	-0.022	-0.029
-235.844	651.695	0.093	0.233
-234.830	15.562	-0.233	0.180
-233.815	-65.105	0.041	-0.016
-232.800	-200.000	-0.007	-0.228
-231.786	187.861	-0.047	-0.070
-230.771	-200.000	-0.035	-0.303
-229.757	-147.145	0.318	0.027
-228.742	127.270	-0.130	-0.162
-227.727	215.565	-0.144	0.225
-226.713	-92.832	0.296	0.081
-225.698	800.000	0.019	-0.061
-224.684	4.615	-0.281	0.203
-223.669	466.714	0.120	0.264
-222.655	-105.226	0.356	0.080
-221.640	-86.748	-0.386	0.116
-220.625	22.467	-0.256	-0.206
-219.611	111.197	-0.154	-0.183
-218.596	-200.000	0.010	0.048
-217.582	179.056	0.082	-0.117
-216.567	128.625	0.073	0.091
-215.552	-200.000	0.005	-0.381
-214.538	348.186	0.073	-0.141
-213.523	512.721	-0.097	0.222
-212.509	16.446	0.125	0.097
-211.494	-7.929	-0.232	-0.154
-210.479	-160.559	0.382	0.020
-209.465	-128.919	-0.230	0.032
-208.450	800.000	0.082	0.284
-207.436	-6.593	0.139	-0.093
-206.421	800.000	-0.063	0.230
-205.406	-200.000	0.026	0.242
-204.392	800.000	0.044	-0.156
-203.377	102.549	-0.123	0.142
-202.363	95.880	-0.046	0.052
-201.348	-105.667	0.219	0.049
-200.333	20.524	-0.307	-0.244
-199.319	386.452	0.147	0.299
-198.304	682.980	0.126	0.322
-197.290	-200.000	-0.033	-0.234
-196.275	346.347	0.068	-0.132
-195.260	208.568	-0.041	0.064
-194.246	-200.000	-0.048	0.236
-193.231	-80.974	-0.286	-0.093
-192.217	-53.551	-0.224	-0.101
-191.202	205.612	0.040	-0.061
-190.187	142.706	-0.210	0.275
-189.173	168.847	0.033	0.046
-188.158	-200.000	-0.002	0.035
-187.144	-113.935	0.284	0.054
-186.129	317.872	-0.108	-0.201
-185.114	24.168	0.098	-0.079
-184.100	800.000	0.058	0.158
-183.085	224.111	-0.116	0.185
-182.071	-200.000	-0.005	0.138
-181.056	-200.000	0.010	-0.092
-180.042	404.531	0.185	-0.383
-179.027	97.071	-0.084	0.094
-178.012	-25.274	0.251	0.146
-176.998	-108.611	0.034	-0.007
-175.983	41.833	-0.103	-0.091
-174.969	356.489	-0.048	0.094
-173.954	237.829	0.163	-0.266
-172.939	239.869	-0.033	-0.054
-171.925	-200.000	-0.016	-0.154
-170.910	-200.000	-0.008	0.134
-169.896	-77.497	-0.025	0.008
-168.881	-107.437	-0.089	-0.019
-167.866	-122.738	-0.234	0.037
-166.852	-11.283	0.284	-0.183
-165.837	-32.221	-0.187	-0.103
-164.823	800.000	0.155	-0.428
-163.808	323.035	0.125	0.234
-162.793	800.000	0.121	-0.334
-161.779	-86.627	-0.189	-0.057
-160.764	800.000	-0.025	-0.086
-159.750	17.362	-0.346	0.269
-158.735	-149.600	0.159	0.012
-157.720	-42.040	0.348	-0.175
-156.706	-125.048	-0.193	0.029
-155.691	-81.278	-0.374	0.121
-154.677	800.000	0.030	0.100
-153.662	-200.000	-0.006	-0.311
-152.647	-75.256	-0.205	0.072
-151.633	-200.000	-0.069	0.310
-150.618	20.571	-0.257	0.204
-149.604	-40.437	-0.179	0.091
-148.589	-41.601	-0.349	-0.176
-147.574	-200.000	0.002	-0.139
-146.560	-127.215	-0.200	0.029
-145.545	-93.906	-0.325	-0.087
-144.531	-200.000	-0.013	-0.282
-143.516	-200.000	-0.025	0.153
-142.502	800.000	0.121	-0.406
-141.487	-117.241	0.178	0.032
-140.472	-200.000	0.014	0.403
-139.458	182.260	-0.105	0.151
-138.443	98.900	0.086	0.098
-137.429	255.902	0.080	0.135
-136.414	-200.000	0.014	-0.081
-135.399	-15.314	-0.138	-0.086
-134.385	-29.371	0.285	-0.160
-133.370	570.329	0.064	-0.152
-132.356	47.628	-0.157	-0.144
-131.341	104.645	0.073	-0.084
-130.326	-200.000	0.008	0.230
-129.312	-200.000	-0.056	0.283
-128.297	-126.501	0.303	0.044
-127.283	-30.234	0.206	0.115
-126.268	53.513	0.085	-0.080
-125.253	83.991	0.151	0.161
-124.239	141.280	-0.199	-0.258
-123.224	-110.882	-0.104	-0.021
-122.210	199.917	0.130	-0.195
