DTS Sentinel unit serial number:	SN413079Multiplexer serial number:	ORYXHardware model number:	OX4-SRSoftware version number:	ORYX F/W v4.00 Oryx Data Collector v3.7.2.0data status	okinstallation	princeton_trtdifferential loss correction	single-endedforward channel	channel 3reverse channel	N/Adate	2019/09/13time	07:16:35forward acquisition time	60.00reverse acquisition time	0.00gamma	496.2192k internal	0.2338k external	0.2338temperature offset calibration	1.0139default loss term (dB/km)	0.3790temperature slope calibration	1.0000multiplexer offset coefficient	1.0000multiplexer slope coefficient	1.0000fibre end	0.00T internal ref (°C)	26.06T ext. ref 1 (°C)	4.17T ext. ref 2 (°C)	21.48length (m)	temperature (°C)	Stokes	anti-Stokes-747.200	39.124	0.068	0.061
-746.185	55.729	0.121	0.117
-745.171	-70.233	-0.158	0.060
-744.156	658.821	0.059	-0.151
-743.142	-200.000	0.089	-0.444
-742.127	27.580	-0.233	0.197
-741.112	-125.852	-0.200	0.030
-740.098	-6.259	0.142	-0.097
-739.083	-33.013	-0.059	-0.033
-738.069	800.000	-0.089	0.299
-737.054	-200.000	0.009	-0.204
-736.039	-144.705	-0.294	0.027
-735.025	-56.889	0.376	0.166
-734.010	359.593	0.075	0.151
-732.996	4.823	0.023	-0.017
-731.981	-92.611	-0.099	0.028
-730.966	-182.498	0.163	0.003
-729.952	800.000	0.072	-0.281
-728.937	184.915	-0.145	0.216
-727.923	2.886	-0.269	-0.196
-726.908	-14.304	-0.312	-0.202
-725.894	539.227	0.020	0.049
-724.879	-171.981	0.019	0.001
-723.864	-200.000	0.005	-0.177
-722.850	-200.000	0.042	0.294
-721.835	259.974	0.104	-0.181
-720.821	65.608	-0.243	0.246
-719.806	-23.675	0.205	-0.123
-718.791	97.306	-0.189	-0.218
-717.777	-200.000	0.025	0.384
-716.762	-175.690	0.199	0.005
-715.748	800.000	-0.064	0.180
-714.733	-200.000	-0.050	-0.404
-713.718	46.134	-0.226	-0.209
-712.704	43.614	-0.138	-0.127
-711.689	-62.373	-0.053	0.022
-710.675	800.000	-0.115	0.347
-709.660	119.261	-0.061	0.076
-708.645	-34.377	0.113	-0.062
-707.631	189.134	0.172	-0.258
-706.616	-200.000	-0.052	-0.262
-705.602	293.537	0.140	-0.256
-704.587	800.000	0.090	-0.371
-703.572	800.000	-0.105	0.363
-702.558	21.622	-0.076	0.062
-701.543	162.863	-0.195	0.274
-700.529	-167.084	0.352	-0.014
-699.514	-88.738	-0.063	0.019
-698.499	401.067	-0.181	-0.380
-697.485	752.333	0.060	0.161
-696.470	296.701	0.052	0.096
-695.456	-200.000	-0.001	-0.186
-694.441	-200.000	-0.006	-0.241
-693.426	-116.444	0.197	0.036
-692.412	-124.190	0.233	-0.037
-691.397	310.053	0.185	0.347
-690.383	-83.301	-0.034	-0.011
-689.368	-119.938	-0.090	-0.015
-688.354	-200.000	-0.049	-0.251
-687.339	-200.000	0.009	-0.102
-686.324	-66.260	-0.265	-0.106
-685.310	23.441	-0.228	-0.187
-684.295	-62.210	0.218	-0.091
-683.281	343.941	-0.142	-0.278
-682.266	800.000	0.033	-0.134
-681.251	334.801	0.196	-0.380
-680.237	-112.585	0.217	0.043
-679.222	800.000	0.018	-0.055
-678.208	-200.000	-0.008	0.138
-677.193	-200.000	0.032	0.256
-676.178	-200.000	-0.001	-0.180
-675.164	-21.186	-0.292	0.179
-674.149	7.102	-0.276	0.206
-673.135	-36.708	0.126	0.067
-672.120	231.828	0.126	-0.206
-671.105	-200.000	0.045	0.202
-670.091	192.553	0.075	-0.114
-669.076	42.472	-0.172	0.156
-668.062	-106.632	0.182	0.041
-667.047	77.124	-0.138	0.147
-666.032	-200.000	0.007	0.040
-665.018	-162.199	-0.371	0.019
-664.003	128.854	-0.072	-0.091
-662.989	-90.554	0.219	-0.063
-661.974	416.096	-0.094	-0.201
-660.959	-200.000	-0.011	0.228
-659.945	-200.000	-0.021	-0.133
-658.930	800.000	-0.104	-0.311
-657.916	-9.593	0.115	0.077
-656.901	-5.357	-0.406	0.279
-655.886	-200.000	-0.042	0.246
-654.872	-73.768	-0.440	-0.160
-653.857	230.037	-0.093	-0.153
-652.843	-200.000	0.032	-0.149
-651.828	-200.000	0.007	0.117
-650.814	-200.000	-0.001	-0.370
-649.799	-81.255	-0.483	-0.159
-648.784	198.350	0.243	0.371
-647.770	83.047	0.088	0.096
-646.755	145.870	-0.180	-0.242
-645.741	269.181	0.080	-0.140
-644.726	-44.574	0.243	-0.121
-643.711	-84.914	-0.174	-0.055
-642.697	623.303	-0.184	-0.462
-641.682	115.695	-0.154	0.188
-640.668	65.499	0.110	0.112
-639.653	452.332	-0.108	0.240
-638.638	800.000	0.057	-0.238
-637.624	800.000	-0.047	0.195
-636.609	277.912	-0.076	0.135
-635.595	203.471	0.071	-0.109
-634.580	-200.000	0.005	-0.268
-633.565	-174.024	-0.107	0.003
-632.551	-200.000	-0.041	-0.244
-631.536	60.905	0.156	-0.155
-630.522	143.367	-0.131	-0.174
-629.507	-78.893	-0.098	-0.033
-628.492	-65.856	0.270	0.108
-627.478	800.000	0.100	0.312
-626.463	-71.194	0.115	0.043
-625.449	766.681	-0.149	-0.406
-624.434	-102.465	0.798	0.191
-623.419	800.000	0.031	0.101
-622.405	68.607	0.192	-0.197
-621.390	-200.000	0.102	-0.000
-620.376	-35.336	0.294	0.160
-619.361	-1.109	-0.462	-0.326
-618.346	-65.780	0.192	-0.077
-617.332	800.000	-0.032	0.126
-616.317	800.000	-0.057	0.164
-615.303	-200.000	0.040	-0.265
-614.288	-102.855	-0.033	0.008
-613.273	-200.000	-0.006	-0.119
-612.259	185.809	0.061	-0.091
-611.244	380.942	0.153	0.314
-610.230	-200.000	0.004	0.251
-609.215	274.462	-0.072	-0.126
-608.201	330.541	0.152	-0.293
-607.186	410.735	-0.101	0.213
-606.171	-200.000	0.019	0.207
-605.157	-200.000	-0.038	0.287
-604.142	800.000	0.040	0.155
-603.128	-1.831	-0.226	0.158
-602.113	-64.045	-0.173	0.071
-601.098	-112.699	-0.300	0.060
-600.084	21.727	0.145	-0.118
-599.069	40.234	-0.006	-0.005
-598.055	-151.282	0.227	-0.017
-597.040	-200.000	-0.004	0.053
-596.025	10.555	-0.138	0.105
-595.011	-200.000	-0.016	-0.083
-593.996	155.220	0.038	0.052
-592.982	-93.783	0.034	-0.009
-591.967	-163.149	0.284	-0.014
-590.952	-52.466	-0.033	-0.015
-589.938	81.155	0.080	-0.086
-588.923	39.339	0.118	0.105
-587.909	157.466	0.060	-0.083
-586.894	-91.297	-0.418	-0.119
-585.879	800.000	-0.091	0.269
-584.865	-86.835	0.053	-0.016
-583.850	-94.807	0.274	-0.074
-582.836	-32.276	0.271	-0.151
-581.821	-200.000	0.028	0.162
-580.806	-94.999	0.229	0.062
-579.792	186.610	-0.275	0.408
-578.777	145.146	0.035	0.047
-577.763	-133.173	-0.142	-0.018
-576.748	800.000	0.038	-0.129
-575.733	-87.541	0.480	0.145
-574.719	-117.679	0.116	0.021
-573.704	800.000	-0.034	0.128
-572.690	-18.809	0.194	0.121
-571.675	-87.881	0.237	0.071
-570.661	-79.836	-0.176	-0.059
-569.646	79.456	0.335	-0.358
-568.631	225.146	-0.114	0.184
-567.617	-76.084	-0.107	-0.038
-566.602	-83.468	-0.121	0.039
-565.588	17.775	-0.084	-0.067
-564.573	-146.262	0.431	0.038
-563.558	251.405	0.125	0.212
-562.544	-18.366	0.235	0.146
-561.529	-101.113	-0.436	0.106
-560.515	683.237	-0.082	-0.214
-559.500	-200.000	-0.021	-0.220
-558.485	-200.000	0.084	0.394
-557.471	-148.823	0.289	0.023
-556.456	-51.674	0.151	0.070
-555.442	-68.878	-0.269	-0.104
-554.427	-118.602	0.072	-0.013
-553.412	54.181	0.048	-0.046
-552.398	71.143	-0.207	-0.213
-551.383	379.426	0.094	0.191
-550.369	800.000	0.050	-0.150
-549.354	-7.690	-0.208	-0.140
-548.339	2.450	0.256	0.185
-547.325	800.000	0.023	-0.065
-546.310	-52.001	0.182	0.084
-545.296	215.642	0.063	-0.100
-544.281	800.000	-0.062	-0.258
-543.266	-200.000	0.022	0.206
-542.252	-18.476	0.194	0.120
-541.237	-109.021	-0.068	0.014
-540.223	115.394	-0.166	0.202
-539.208	-139.723	-0.203	-0.021
-538.193	291.616	0.092	0.167
-537.179	-144.473	0.227	0.021
-536.164	800.000	0.072	-0.282
-535.150	178.433	-0.043	0.063
-534.135	-45.178	0.173	-0.086
-533.121	-97.665	-0.192	0.049
-532.106	179.512	0.112	0.164
-531.091	-200.000	-0.022	-0.117
-530.077	-200.000	-0.014	0.361
-529.062	-200.000	-0.020	0.297
-528.048	324.633	0.252	-0.479
-527.033	-200.000	-0.022	-0.256
-526.018	-44.674	0.156	0.077
-525.004	-120.076	-0.214	-0.036
-523.989	53.923	-0.116	0.111
-522.975	-97.798	-0.156	-0.040
-521.960	-71.305	0.143	0.053
-520.945	-200.000	-0.010	-0.099
-519.931	-34.333	-0.112	0.061
-518.916	105.643	0.094	0.111
-517.902	-200.000	-0.003	0.159
-516.887	89.931	0.065	0.072
-515.872	-106.579	0.059	0.013
-514.858	261.583	-0.199	-0.343
-513.843	-200.000	0.029	0.242
-512.829	-132.044	0.191	-0.025
-511.814	143.555	0.246	0.326
-510.799	88.106	0.155	0.171
-509.785	-54.153	0.078	-0.035
-508.770	-200.000	-0.033	-0.197
-507.756	-163.382	-0.048	0.002
-506.741	88.639	0.049	0.054
-505.726	-189.640	0.204	-0.002
-504.712	-88.845	0.228	0.067
-503.697	-200.000	0.021	-0.191
-502.683	-80.677	0.173	-0.057
-501.668	800.000	0.069	0.228
-500.653	200.046	0.073	0.112
-499.639	151.626	-0.026	-0.035
-498.624	121.891	-0.146	0.181
-497.610	4.261	-0.137	-0.099
-496.595	-66.269	0.160	-0.063
-495.581	-200.000	0.012	0.398
-494.566	-106.444	-0.283	-0.063
-493.551	800.000	-0.051	-0.196
-492.537	-200.000	-0.020	0.398
-491.522	-69.438	-0.097	-0.037
-490.508	-13.018	0.202	-0.131
-489.493	-200.000	0.002	-0.217
-488.478	800.000	-0.041	-0.161
-487.464	-41.703	-0.192	-0.098
-486.449	-75.321	-0.377	-0.133
-485.435	-167.833	0.130	0.005
-484.420	144.849	0.304	-0.404
-483.405	-200.000	-0.012	-0.105
-482.391	260.174	0.069	0.119
-481.376	-93.846	0.260	0.071
-480.362	522.777	-0.056	0.131
-479.347	110.466	0.145	-0.173
-478.332	-101.743	0.235	-0.056
-477.318	-200.000	-0.037	0.180
-476.303	-173.944	0.436	-0.013
-475.289	-103.891	-0.155	-0.036
-474.274	-109.036	-0.022	0.005
-473.259	282.761	0.005	0.009
-472.245	32.793	-0.204	0.175
-471.230	-125.765	-0.174	0.026
-470.216	-200.000	0.068	0.339
-469.201	-200.000	-0.014	0.115
-468.186	71.329	-0.142	-0.146
-467.172	-127.948	-0.379	-0.054
-466.157	549.027	0.149	0.354
-465.143	-200.000	-0.002	-0.069
-464.128	-134.030	-0.336	-0.041
-463.113	163.362	-0.066	0.092
-462.099	-77.114	-0.069	0.024
-461.084	-113.444	0.100	-0.019
-460.070	84.837	0.180	0.195
-459.055	-108.943	-0.098	0.021
-458.040	68.579	-0.072	-0.073
-457.026	88.214	0.061	0.068
-456.011	338.192	0.051	0.099
-454.997	-133.658	0.180	-0.022
-453.982	-200.000	0.033	-0.160
-452.968	4.561	-0.272	-0.198
-451.953	-200.000	0.037	-0.174
-450.938	-36.772	-0.212	-0.113
-449.924	43.338	-0.035	0.032
-448.909	-200.000	0.043	0.262
-447.895	14.587	-0.071	0.055
-446.880	173.516	0.344	0.492
-445.865	634.771	-0.114	0.287
-444.851	276.913	0.097	-0.172
-443.836	133.606	-0.221	-0.283
-442.822	-103.160	0.049	0.011
-441.807	800.000	-0.031	0.100
-440.792	7.339	-0.373	-0.276
-439.778	165.490	0.187	-0.262
-438.763	800.000	0.098	-0.330
-437.749	-91.591	-0.286	0.081
-436.734	1.299	-0.230	-0.164
-435.719	15.694	-0.055	0.043
-434.705	800.000	0.052	-0.194
-433.690	17.283	-0.292	-0.230
-432.676	13.813	-0.160	-0.123
-431.661	-161.997	0.234	-0.012
-430.646	-200.000	0.029	-0.217
-429.632	-61.286	-0.216	0.090
-428.617	744.336	-0.066	-0.175
-427.603	-200.000	-0.036	0.462
-426.588	-59.357	-0.096	-0.041
-425.573	16.210	-0.060	0.047
-424.559	-17.553	-0.221	0.138
-423.544	-103.153	-0.238	0.056
-422.530	-152.781	0.134	-0.009
-421.515	-3.910	0.292	0.201
-420.500	327.309	-0.012	0.022
-419.486	-200.000	-0.018	0.206
-418.471	-82.090	-0.188	-0.061
-417.457	97.890	-0.131	0.150
-416.442	318.407	0.032	0.059
-415.428	800.000	0.048	-0.154
-414.413	-139.454	-0.122	0.013
-413.398	23.131	-0.055	-0.045
-412.384	-114.077	0.185	-0.035
-411.369	-2.710	0.342	-0.237
-410.355	522.773	0.053	0.124
-409.340	-75.384	0.171	0.060
-408.325	217.241	0.083	0.131
-407.311	-27.650	0.149	-0.086
-406.296	224.590	-0.104	-0.167
-405.282	36.047	-0.370	-0.323
-404.267	800.000	0.054	-0.155
-403.252	-70.715	0.198	0.074
-402.238	143.097	-0.205	0.270
-401.223	-136.682	0.171	-0.020
-400.209	800.000	-0.082	-0.247
-399.194	140.102	-0.118	-0.154
-398.179	-15.785	0.255	-0.161
-397.165	11.449	-0.118	0.089
-396.150	-101.418	-0.345	0.083
-395.136	-74.598	-0.148	0.053
-394.121	-200.000	0.014	-0.148
-393.106	-41.384	-0.112	-0.057
-392.092	408.854	-0.189	-0.396
-391.077	-180.108	0.156	0.003
-390.063	-200.000	0.040	0.197
-389.048	32.738	-0.332	0.284
-388.033	-75.721	-0.213	-0.075
-387.019	-200.000	0.029	0.196
-386.004	153.367	-0.044	-0.060
-384.990	47.663	-0.224	-0.207
-383.975	800.000	0.034	-0.145
-382.960	-155.566	-0.433	-0.028
-381.946	-200.000	0.020	-0.103
-380.931	37.846	-0.171	-0.150
-379.917	528.270	0.139	-0.324
-378.902	-90.884	0.196	0.056
-377.888	-57.630	-0.236	0.102
-376.873	800.000	-0.100	-0.278
-375.858	-29.776	-0.105	0.059
-374.844	-200.000	0.052	-0.232
-373.829	-200.000	0.055	0.242
-372.815	-9.012	0.328	0.217
-371.800	-137.166	-0.209	-0.024
-370.785	-32.366	-0.232	-0.128
-369.771	-113.510	-0.063	-0.012
-368.756	379.001	-0.075	-0.151
-367.742	-200.000	0.020	-0.139
-366.727	93.243	-0.185	0.207
-365.712	371.982	0.063	-0.126
-364.698	-200.000	0.015	-0.138
-363.683	-101.746	-0.355	0.085
-362.669	44.606	0.275	-0.250
-361.654	-200.000	-0.016	-0.250
-360.639	-111.896	0.049	-0.010
-359.625	191.835	0.273	0.407
-358.610	275.919	0.077	-0.134
-357.596	98.002	-0.087	0.099
-356.581	-86.737	-0.287	0.087
-355.566	759.811	0.081	0.218
-354.552	-154.416	-0.076	0.005
-353.537	-65.524	0.274	0.109
-352.523	-73.116	-0.260	-0.094
-351.508	800.000	-0.040	0.129
-350.493	135.770	-0.113	0.146
-349.479	-87.620	-0.160	0.048
-348.464	66.311	0.149	-0.149
-347.450	-77.313	-0.199	-0.068
-346.435	-56.156	-0.099	0.043
-345.420	-65.694	0.218	-0.086
-344.406	-53.730	-0.173	-0.078
-343.391	599.265	-0.067	0.163
-342.377	800.000	-0.023	-0.093
-341.362	325.824	0.163	0.309
-340.348	-200.000	-0.064	-0.378
-339.333	800.000	-0.104	-0.354
-338.318	105.612	0.200	-0.233
-337.304	343.944	0.017	0.034
-336.289	-150.679	-0.075	0.006
-335.275	-200.000	0.034	0.299
-334.260	130.237	0.057	-0.073
-333.245	-130.177	-0.205	0.028
-332.231	69.541	0.120	0.122
-331.216	-31.826	0.136	-0.075
-330.202	354.945	-0.200	-0.392
-329.187	-12.706	-0.131	0.084
-328.172	800.000	-0.098	0.360
-327.158	66.784	0.334	-0.336
-326.143	-200.000	-0.060	-0.449
-325.129	372.545	-0.028	0.057
-324.114	97.735	0.263	0.298
-323.099	66.942	-0.119	-0.120
-322.085	-6.445	-0.212	-0.143
-321.070	-9.430	-0.242	-0.159
-320.056	-76.244	0.328	-0.114
-319.041	52.573	0.191	0.180
-318.026	-200.000	-0.007	0.103
-317.012	104.364	0.037	-0.043
-315.997	232.490	-0.095	0.154
-314.983	52.839	0.113	0.107
-313.968	-129.054	0.155	-0.021
-312.953	800.000	0.032	0.116
-311.939	18.079	-0.175	0.138
-310.924	-200.000	-0.034	-0.254
-309.910	102.098	-0.067	-0.077
-308.895	3.223	0.124	-0.089
-307.880	-94.554	0.387	-0.104
-306.866	627.992	-0.040	-0.100
-305.851	-171.748	-0.435	0.014
-304.837	116.999	-0.106	-0.129
-303.822	252.025	0.131	0.220
-302.807	-56.560	0.253	0.111
-301.793	216.934	0.109	-0.171
-300.778	180.688	0.159	-0.231
-299.764	164.034	-0.196	0.273
-298.749	97.457	0.112	-0.127
-297.735	-96.595	0.174	0.045
-296.720	-74.051	0.177	-0.063
-295.705	193.599	-0.013	-0.019
-294.691	13.332	-0.048	-0.036
-293.676	225.175	-0.168	-0.268
-292.662	-200.000	-0.007	-0.144
-291.647	-104.516	0.232	-0.053
-290.632	137.269	0.154	-0.199
-289.618	207.820	0.027	0.042
-288.603	-106.465	0.259	-0.057
-287.589	-200.000	0.040	0.204
-286.574	800.000	-0.063	0.253
-285.559	-45.677	-0.543	-0.265
-284.545	363.512	0.113	-0.224
-283.530	800.000	-0.052	0.187
-282.516	660.822	0.076	0.192
-281.501	141.073	-0.139	0.182
-280.486	800.000	0.069	0.267
-279.472	-37.542	-0.057	0.030
-278.457	-144.926	0.150	0.014
-277.443	-124.218	0.267	-0.041
-276.428	-180.802	-0.309	-0.006
-275.413	508.871	-0.083	0.191
-274.399	-113.942	0.165	0.032
-273.384	1.661	0.154	-0.109
-272.370	336.214	0.092	-0.176
-271.355	-200.000	-0.025	0.216
-270.340	57.633	-0.180	0.174
-269.326	-200.000	-0.039	0.266
-268.311	-119.839	0.267	-0.045
-267.297	-92.891	0.128	-0.035
-266.282	13.968	0.089	0.068
-265.267	107.144	0.139	0.163
-264.253	-95.358	-0.213	-0.056
-263.238	800.000	0.128	-0.354
-262.224	-17.695	0.070	0.043
-261.209	-200.000	-0.080	0.357
-260.195	-48.248	0.387	0.184
-259.180	355.743	-0.065	0.128
-258.165	-200.000	0.013	-0.086
-257.151	762.949	-0.035	0.093
-256.136	-169.851	-0.387	0.014
-255.122	54.111	-0.191	-0.180
-254.107	-117.829	0.217	-0.038
-253.092	599.842	-0.066	0.161
-252.078	-41.815	0.126	0.063
-251.063	-81.686	-0.188	-0.061
-250.049	-200.000	-0.025	0.121
-249.034	9.892	0.077	0.058
-248.019	328.122	-0.175	0.330
-247.005	293.869	0.136	-0.244
-245.990	-200.000	0.010	0.095
-244.976	800.000	0.028	0.108
-243.961	-70.848	-0.022	-0.008
-242.946	-18.731	0.139	-0.085
-241.932	-85.004	-0.203	-0.063
-240.917	-11.444	0.104	0.067
-239.903	-155.018	-0.200	0.013
-238.888	178.177	-0.297	-0.426
-237.873	-118.311	0.194	-0.034
-236.859	800.000	-0.118	-0.381
-235.844	-200.000	-0.050	-0.378
-234.830	-200.000	0.022	0.155
-233.815	-200.000	-0.008	0.286
-232.800	-150.032	-0.093	0.007
-231.786	-200.000	0.035	0.271
-230.771	-25.355	-0.134	0.078
-229.757	-60.625	-0.209	-0.087
-228.742	127.958	-0.111	0.139
-227.727	773.547	0.062	0.167
-226.713	-140.660	0.109	-0.011
-225.698	374.526	-0.069	0.138
-224.684	121.951	-0.120	0.147
-223.669	-55.115	0.094	-0.041
-222.655	-12.632	0.252	0.161
-221.640	257.348	-0.160	-0.271
-220.625	-150.929	-0.367	-0.027
-219.611	-200.000	-0.229	0.001
-218.596	-21.602	0.071	0.042
-217.582	125.045	-0.342	0.423
-216.567	535.411	-0.044	0.104
-215.552	-200.000	0.010	-0.192
-214.538	-200.000	-0.018	-0.085
-213.523	800.000	0.065	0.260
-212.509	-200.000	-0.005	-0.073
-211.494	800.000	-0.044	-0.166
-210.479	-68.794	-0.057	-0.022
-209.465	-116.935	-0.124	-0.022
-208.450	7.214	0.145	0.107
-207.436	-128.211	0.254	0.036
-206.421	-180.063	-0.150	0.003
-205.406	-3.167	0.254	0.174
-204.392	185.927	0.154	-0.226
-203.377	64.208	-0.267	0.264
-202.363	192.543	0.127	0.189
-201.348	58.473	0.264	-0.255
-200.333	-200.000	0.078	0.364
-199.319	64.539	-0.079	0.078
-198.304	156.563	-0.231	-0.314
-197.290	-69.036	0.190	0.072
-196.275	-200.000	-0.005	-0.097
-195.260	50.218	0.235	0.218
-194.246	-96.169	-0.295	0.077
-193.231	22.348	0.207	0.166
-192.217	-200.000	0.027	0.316
-191.202	-19.840	-0.184	-0.112
-190.187	202.707	-0.067	-0.101
-189.173	-200.000	0.024	-0.162
-188.158	-148.557	0.106	0.008
-187.144	-55.872	0.271	-0.119
-186.129	-200.000	0.020	0.112
-185.114	-125.525	-0.228	0.034
-184.100	463.375	-0.086	0.188
-183.085	175.076	0.033	0.046
-182.071	-200.000	-0.001	-0.198
-181.056	-170.688	-0.163	0.006
-180.042	14.299	0.287	-0.220
-179.027	-109.396	-0.305	-0.063
-178.012	-91.365	0.227	0.064
-176.998	149.314	-0.198	-0.263
-175.983	460.076	-0.126	-0.275
-174.969	608.782	-0.093	0.227
-173.954	118.598	-0.170	0.205
-172.939	49.778	0.140	0.129
-171.925	-93.878	-0.210	0.057
-170.910	-200.000	0.042	-0.181
-169.896	224.409	-0.097	0.154
-168.881	-200.000	0.013	0.068
-167.866	95.311	0.052	-0.058
-166.852	-161.842	0.288	-0.014
-165.837	-200.000	0.034	0.281
-164.823	-200.000	0.027	0.142
-163.808	-2.093	0.147	0.101
-162.793	610.150	-0.102	-0.250
-161.779	205.405	-0.145	0.220
-160.764	-64.830	-0.123	0.049
-159.750	-200.000	-0.001	-0.424
-158.735	-153.979	0.313	-0.021
-157.720	800.000	0.076	-0.275
-156.706	265.812	-0.155	-0.265
-155.691	36.364	-0.181	-0.157
-154.677	93.543	0.300	-0.333
-153.662	363.039	0.087	-0.171
-152.647	-200.000	-0.024	-0.206
-151.633	136.530	0.201	0.257
-150.618	800.000	0.051	0.196
-149.604	-100.825	0.159	-0.038
-148.589	-16.490	0.282	0.175
-147.574	-23.331	-0.327	0.193
-146.560	39.987	0.149	0.131
-145.545	681.035	0.012	-0.029
-144.531	-160.023	0.253	0.014
-143.516	-200.000	-0.031	0.149
-142.502	130.228	-0.247	-0.310
-141.487	62.117	-0.101	0.098
-140.472	138.412	-0.058	0.074
-139.458	32.703	0.127	-0.108
-138.443	800.000	0.111	0.302
-137.429	800.000	-0.054	0.217
-136.414	-200.000	-0.006	-0.351
-135.399	254.312	-0.071	-0.119
-134.385	-93.042	-0.247	0.068
-133.370	800.000	0.131	0.388
-132.356	-138.041	0.105	0.011
-131.341	-200.000	0.375	0.001
-130.326	150.707	-0.100	0.133
-129.312	-70.351	0.313	0.116
-128.297	-72.634	-0.073	0.026
-127.283	126.747	-0.133	-0.165
-126.268	-102.620	-0.326	-0.076
-125.253	-168.351	0.311	-0.012
-124.239	-31.140	-0.210	0.116
-123.224	-120.655	0.211	0.035
-122.210	-160.626	-0.294	0.015
