DTS Sentinel unit serial number:	SN413079Multiplexer serial number:	ORYXHardware model number:	OX4-SRSoftware version number:	ORYX F/W v4.00 Oryx Data Collector v3.7.2.0data status	okinstallation	princeton_trtdifferential loss correction	single-endedforward channel	channel 3reverse channel	N/Adate	2019/09/12time	18:05:04forward acquisition time	15.00reverse acquisition time	0.00gamma	496.2192k internal	0.2316k external	0.2316temperature offset calibration	1.0103default loss term (dB/km)	0.3790temperature slope calibration	1.0000multiplexer offset coefficient	1.0000multiplexer slope coefficient	1.0000fibre end	0.00T internal ref (°C)	33.69T ext. ref 1 (°C)	2.94T ext. ref 2 (°C)	28.20length (m)	temperature (°C)	Stokes	anti-Stokes-747.200	-147.893	-0.463	0.039
-746.185	-25.718	0.218	0.130
-745.171	-200.000	-0.002	-0.242
-744.156	-200.000	-0.010	0.317
-743.142	800.000	-0.290	0.848
-742.127	498.907	-0.280	0.654
-741.112	-82.230	0.340	0.112
-740.098	133.030	0.165	-0.216
-739.083	113.431	-0.521	-0.641
-738.069	-12.914	0.929	-0.613
-737.054	-88.109	-0.264	-0.080
-736.039	269.837	-0.191	-0.340
-735.025	391.626	-0.249	-0.523
-734.010	44.740	-0.630	-0.587
-732.996	-109.770	-0.354	-0.075
-731.981	-101.505	-0.684	-0.169
-730.966	-200.000	0.000	0.376
-729.952	-200.000	0.099	-0.690
-728.937	31.758	0.390	-0.340
-727.923	93.129	-0.388	-0.444
-726.908	-69.687	0.345	0.133
-725.894	800.000	0.243	-0.856
-724.879	-45.237	-0.524	-0.263
-723.864	800.000	0.214	-0.909
-722.850	18.652	0.056	0.045
-721.835	747.425	0.152	-0.414
-720.821	628.539	0.239	0.611
-719.806	43.661	-0.492	-0.456
-718.791	-200.000	0.057	-0.366
-717.777	83.894	-0.210	0.232
-716.762	-80.015	-0.444	-0.151
-715.748	332.735	-0.059	-0.116
-714.733	3.954	0.468	0.346
-713.718	100.767	0.549	0.646
-712.704	-117.269	-0.290	0.053
-711.689	216.457	-0.142	0.228
-710.675	800.000	0.155	0.511
-709.660	-168.117	-0.829	-0.033
-708.645	-18.125	0.762	-0.483
-707.631	-74.528	0.473	0.172
-706.616	-92.878	-0.248	-0.070
-705.602	-140.533	0.682	-0.072
-704.587	-160.074	-0.807	0.044
-703.572	36.729	-0.479	-0.428
-702.558	-62.544	-0.591	-0.248
-701.543	-127.474	0.173	-0.025
-700.529	-74.683	-0.392	0.142
-699.514	345.427	0.450	0.895
-698.499	96.486	-0.377	-0.436
-697.485	344.128	-0.496	0.984
-696.470	800.000	0.263	-0.975
-695.456	108.013	-0.437	0.527
-694.441	2.640	0.149	0.109
-693.426	318.080	0.399	0.764
-692.412	121.013	-0.474	0.596
-691.397	-93.412	0.202	0.057
-690.383	23.500	-0.463	-0.385
-689.368	672.214	-0.155	0.407
-688.354	-140.395	-0.597	0.063
-687.339	174.467	-0.139	-0.203
-686.324	211.364	0.239	-0.380
-685.310	-178.943	-0.560	0.013
-684.295	59.416	0.457	-0.455
-683.281	-53.174	0.385	0.179
-682.266	-200.000	-0.030	-0.239
-681.251	-112.805	0.206	0.041
-680.237	139.453	0.278	-0.369
-679.222	-94.613	0.339	-0.093
-678.208	-130.224	-0.666	0.092
-677.193	78.874	0.390	-0.422
-676.178	-158.253	0.157	-0.009
-675.164	-40.156	-1.148	-0.604
-674.149	-59.504	0.782	0.339
-673.135	-164.502	0.535	-0.025
-672.120	433.347	-0.320	0.702
-671.105	-68.629	0.226	-0.089
-670.091	-134.568	-0.559	-0.069
-669.076	-87.822	-0.182	-0.055
-668.062	-88.662	1.197	0.360
-667.047	-2.645	0.223	-0.157
-666.032	-82.149	0.463	-0.152
-665.018	-190.870	-0.544	0.006
-664.003	-54.511	-0.770	-0.352
-662.989	-145.433	-0.356	0.032
-661.974	150.736	0.200	-0.274
-660.959	-200.000	0.005	-0.124
-659.945	32.744	-0.312	0.273
-658.930	117.506	0.224	-0.279
-657.916	126.868	0.117	0.149
-656.901	-75.576	0.114	-0.041
-655.886	-45.768	0.591	-0.295
-654.872	-106.938	0.428	0.096
-653.857	-80.324	0.221	0.075
-652.843	800.000	0.060	-0.196
-651.828	58.254	-0.270	-0.267
-650.814	301.508	0.517	-0.964
-649.799	-140.297	0.575	-0.061
-648.784	379.140	0.190	-0.392
-647.770	3.703	0.183	0.134
-646.755	106.425	-0.295	0.353
-645.741	101.607	0.310	-0.365
-644.726	-147.580	0.750	0.064
-643.711	800.000	-0.124	-0.374
-642.697	-200.000	0.014	-0.197
-641.682	-103.343	0.578	0.137
-640.668	49.883	-0.605	-0.576
-639.653	-71.178	-0.494	0.187
-638.638	-115.193	-0.576	0.110
-637.624	-200.000	0.055	0.511
-636.609	-131.956	-0.673	-0.089
-635.595	-200.000	0.060	0.517
-634.580	-200.000	-0.077	0.648
-633.565	-200.000	0.025	-0.298
-632.551	800.000	-0.179	-0.557
-631.536	-68.820	-0.239	-0.093
-630.522	-65.509	-0.389	-0.158
-629.507	135.926	0.196	0.257
-628.492	62.866	0.667	0.673
-627.478	234.765	-0.331	-0.550
-626.463	117.752	-0.258	0.320
-625.449	264.778	0.200	0.351
-624.434	-200.000	-0.151	-0.826
-623.419	-65.516	-0.537	-0.217
-622.405	180.273	0.276	-0.409
-621.390	-200.000	-0.086	1.178
-620.376	68.316	0.443	0.458
-619.361	-69.349	-0.873	-0.338
-618.346	69.890	0.113	0.118
-617.332	-49.097	0.230	-0.111
-616.317	27.658	-0.334	-0.284
-615.303	31.439	-0.076	-0.066
-614.288	-61.093	-0.878	-0.374
-613.273	-14.918	0.406	0.262
-612.259	-73.287	0.795	0.293
-611.244	-158.792	0.976	0.056
-610.230	-143.466	0.412	-0.040
-609.215	-76.017	-0.169	-0.060
-608.201	305.091	-0.299	0.559
-607.186	800.000	-0.193	0.712
-606.171	580.538	-0.071	0.176
-605.157	-148.161	-1.292	-0.108
-604.142	115.896	0.294	-0.362
-603.128	54.452	-0.377	-0.366
-602.113	-144.116	-0.597	-0.056
-601.098	-108.659	0.360	-0.078
-600.084	-200.000	0.061	0.803
-599.069	142.776	0.247	0.330
-598.055	38.313	-0.638	0.572
-597.040	-126.475	0.895	-0.134
-596.025	-71.243	-0.910	0.344
-595.011	-200.000	0.012	-0.138
-593.996	800.000	0.199	-0.833
-592.982	193.006	-0.170	-0.259
-591.967	-80.068	0.501	-0.169
-590.952	453.997	-0.296	-0.661
-589.938	-142.404	-0.487	-0.048
-588.923	204.642	-0.139	0.217
-587.909	-101.862	0.460	-0.112
-586.894	-109.693	0.335	-0.071
-585.879	290.855	0.391	-0.716
-584.865	100.647	-0.838	-0.980
-583.850	33.720	0.392	-0.344
-582.836	-200.000	0.069	-0.346
-581.821	-84.367	0.166	0.053
-580.806	-1.364	-0.512	-0.364
-579.792	219.819	0.387	0.623
-578.777	42.179	0.102	0.094
-577.763	-171.959	0.300	-0.010
-576.748	21.462	-0.336	-0.275
-575.733	800.000	-0.171	-0.588
-574.719	-119.614	-0.622	0.108
-573.704	210.189	0.312	-0.493
-572.690	800.000	-0.053	-0.206
-571.675	-143.150	-0.387	0.038
-570.661	35.209	0.296	0.261
-569.646	-200.000	-0.052	0.516
-568.631	-128.876	0.303	-0.043
-567.617	94.984	-0.483	-0.553
-566.602	-200.000	0.117	0.845
-565.588	800.000	0.180	-0.567
-564.573	146.722	0.469	-0.634
-563.558	86.103	-0.283	-0.313
-562.544	-34.452	-0.584	0.322
-561.529	350.508	-0.432	0.858
-560.515	800.000	-0.087	-0.289
-559.500	-22.481	0.205	-0.125
-558.485	523.258	-0.248	0.586
-557.471	-200.000	0.109	0.538
-556.456	18.527	-0.696	0.559
-555.442	213.105	-0.480	0.763
-554.427	-200.000	0.035	0.794
-553.412	-7.517	-0.352	0.240
-552.398	218.880	-0.270	0.434
-551.383	-200.000	-0.009	1.026
-550.369	-59.756	-0.641	-0.276
-549.354	-200.000	0.018	0.454
-548.339	243.053	-0.225	0.379
-547.325	-42.177	-0.874	0.449
-546.310	-33.132	0.370	0.206
-545.296	13.230	0.084	0.066
-544.281	85.220	-0.493	0.544
-543.266	49.501	1.120	-1.060
-542.252	-159.812	-0.405	-0.022
-541.237	210.478	-0.381	-0.602
-540.223	66.996	-0.380	-0.389
-539.208	-39.627	-0.168	-0.089
-538.193	-138.831	0.252	-0.028
-537.179	18.616	-0.823	0.662
-536.164	102.736	0.164	-0.192
-535.150	-200.000	-0.029	0.310
-534.135	-97.691	-0.511	-0.133
-533.121	-138.954	0.425	-0.046
-532.106	-52.681	0.766	0.355
-531.091	89.660	-0.306	-0.343
-530.077	-70.739	-0.404	-0.153
-529.062	-77.863	-0.820	-0.285
-528.048	-200.000	-0.066	0.000
-527.033	-113.740	-0.622	-0.122
-526.018	-26.412	-0.782	0.461
-525.004	-112.486	0.521	0.104
-523.989	-54.928	0.769	-0.348
-522.975	-59.422	-0.318	-0.137
-521.960	166.017	-0.221	0.314
-520.945	-65.636	0.931	-0.375
-519.931	800.000	-0.109	-0.413
-518.916	-114.340	-0.812	-0.157
-517.902	71.103	0.453	0.472
-516.887	-32.191	-0.683	0.383
-515.872	36.741	0.224	0.199
-514.858	-95.923	0.493	0.132
-513.843	-169.606	-0.464	0.017
-512.829	-78.283	-0.611	-0.211
-511.814	-198.178	-1.135	-0.007
-510.799	-200.000	-0.011	0.540
-509.785	-200.000	0.064	-1.089
-508.770	107.949	-0.262	-0.314
-507.756	39.243	-0.240	-0.216
-506.741	17.285	0.342	0.273
-505.726	-200.000	0.018	-0.181
-504.712	-200.000	0.082	-0.611
-503.697	-26.639	-0.748	0.439
-502.683	-23.135	-0.269	-0.162
-501.668	-98.943	0.249	-0.063
-500.653	31.725	-0.604	0.521
-499.639	-200.000	-0.083	-1.075
-498.624	-128.266	-0.709	-0.102
-497.610	55.868	-0.553	0.538
-496.595	275.113	0.429	0.762
-495.581	232.453	-0.249	0.411
-494.566	-107.171	0.801	-0.177
-493.551	-134.057	0.905	-0.112
-492.537	-196.348	-0.406	-0.003
-491.522	-200.000	0.001	0.651
-490.508	147.850	-0.143	0.194
-489.493	-200.000	0.029	0.149
-488.478	-118.130	-0.169	-0.030
-487.464	-111.184	0.989	0.203
-486.449	347.493	-0.146	-0.289
-485.435	128.754	-0.264	-0.337
-484.420	166.721	0.590	-0.839
-483.405	-29.652	-0.254	0.145
-482.391	-107.415	-0.550	-0.121
-481.376	-83.643	-0.615	0.197
-480.362	190.600	-0.492	-0.742
-479.347	-74.874	1.034	0.372
-478.332	3.557	-0.738	-0.540
-477.318	-114.659	0.276	0.053
-476.303	504.168	0.019	0.044
-475.289	167.406	-0.322	0.458
-474.274	-200.000	0.070	-0.470
-473.259	-59.183	0.066	-0.028
-472.245	239.728	0.215	-0.359
-471.230	800.000	-0.029	0.097
-470.216	-200.000	-0.030	0.743
-469.201	-4.651	0.327	-0.226
-468.186	-26.026	0.551	0.325
-467.172	196.915	0.196	-0.299
-466.157	122.196	0.288	0.360
-465.143	-200.000	-0.070	0.774
-464.128	93.782	0.162	-0.184
-463.113	-200.000	0.029	0.556
-462.099	207.118	0.207	0.324
-461.084	210.882	-0.320	-0.505
-460.070	-101.696	-0.789	-0.192
-459.055	71.742	0.355	-0.369
-458.040	-200.000	-0.020	0.407
-457.026	34.646	0.310	-0.271
-456.011	-200.000	-0.003	0.334
-454.997	57.185	0.275	-0.269
-453.982	-4.540	0.187	0.130
-452.968	-60.246	-0.262	0.112
-451.953	613.697	-0.127	-0.319
-450.938	-80.327	0.997	-0.334
-449.924	-122.104	0.319	-0.052
-448.909	384.065	0.372	-0.768
-447.895	6.460	0.218	-0.162
-446.880	54.492	-0.404	0.389
-445.865	-74.206	0.220	-0.080
-444.851	64.818	0.335	-0.339
-443.836	49.997	-0.168	-0.159
-442.822	800.000	-0.153	0.499
-441.807	-200.000	0.024	-0.295
-440.792	-32.965	0.162	-0.090
-439.778	37.765	0.565	-0.503
-438.763	800.000	0.048	0.175
-437.749	-63.479	-0.660	0.272
-436.734	29.798	0.328	0.279
-435.719	-121.507	0.744	0.124
-434.705	-115.825	0.747	-0.140
-433.690	-133.909	0.207	0.026
-432.676	-123.090	0.554	0.089
-431.661	77.164	0.338	-0.360
-430.646	-200.000	-0.068	0.732
-429.632	800.000	0.078	0.326
-428.617	-15.796	-0.508	-0.324
-427.603	-123.544	0.454	0.072
-426.588	800.000	0.095	0.279
-425.573	-61.803	-0.260	0.109
-424.559	-77.991	-0.623	0.215
-423.544	94.942	0.399	-0.454
-422.530	-19.046	1.350	0.839
-421.515	60.489	-0.221	0.219
-420.500	687.269	-0.228	-0.596
-419.486	20.273	0.606	0.490
-418.471	51.025	-0.058	0.055
-417.457	-200.000	-0.034	-0.165
-416.442	-143.507	0.650	0.062
-415.428	800.000	-0.058	-0.193
-414.413	800.000	0.112	0.429
-413.398	-119.734	-0.455	0.079
-412.384	605.351	0.177	0.440
-411.369	-163.940	-0.098	0.005
-410.355	-200.000	0.011	0.441
-409.340	-129.447	0.945	0.131
-408.325	361.616	0.245	-0.492
-407.311	-200.000	0.096	-0.974
-406.296	-101.809	0.489	0.118
-405.282	70.508	0.498	0.515
-404.267	-97.709	-0.229	0.059
-403.252	-175.229	0.279	-0.008
-402.238	-2.591	-0.136	0.095
-401.223	-117.198	0.393	-0.071
-400.209	647.019	0.091	-0.233
-399.194	-154.943	0.737	0.049
-398.179	2.082	-0.370	-0.267
-397.165	-2.512	0.340	0.238
-396.150	-200.000	0.066	-0.437
-395.136	800.000	0.067	-0.249
-394.121	8.887	0.274	0.206
-393.106	58.700	0.463	-0.455
-392.092	201.420	0.052	0.080
-391.077	188.722	0.205	-0.307
-390.063	-143.703	-0.165	0.016
-389.048	-47.900	-0.345	-0.167
-388.033	-200.000	0.024	0.284
-387.019	-200.000	-0.001	-0.330
-386.004	49.599	0.258	-0.243
-384.990	81.057	0.263	-0.284
-383.975	122.181	-0.180	-0.225
-382.960	-92.917	0.509	-0.142
-381.946	16.823	0.326	-0.258
-380.931	-138.126	0.588	0.065
-379.917	800.000	0.229	0.753
-378.902	-63.475	0.650	-0.267
-377.888	-200.000	0.057	-0.905
-376.873	-57.932	-0.166	0.072
-375.858	292.329	0.157	0.286
-374.844	59.274	0.239	0.235
-373.829	-19.236	0.931	0.577
-372.815	238.135	-0.109	-0.181
-371.800	352.289	0.173	0.343
-370.785	-92.702	-0.375	-0.105
-369.771	-126.967	-0.178	-0.026
-368.756	310.739	0.272	-0.509
-367.742	358.962	0.258	-0.514
-366.727	-30.067	-0.342	0.194
-365.712	219.876	0.094	-0.150
-364.698	-200.000	0.058	0.256
-363.683	161.260	-0.181	0.253
-362.669	-140.062	0.906	-0.095
-361.654	383.232	0.304	0.625
-360.639	-45.439	-0.813	-0.402
-359.625	-51.636	-0.744	-0.346
-358.610	-76.804	0.620	-0.217
-357.596	-6.123	0.453	0.309
-356.581	407.186	-0.405	0.854
-355.566	319.477	0.199	0.376
-354.552	-97.483	-0.292	0.076
-353.537	535.368	0.192	-0.456
-352.523	800.000	0.146	0.455
-351.508	800.000	-0.145	-0.406
-350.493	800.000	-0.302	-0.880
-349.479	-28.697	-0.435	0.250
-348.464	82.222	0.602	0.651
-347.450	-200.000	-0.002	-0.304
-346.435	-200.000	-0.003	-0.524
-345.420	253.955	-0.486	-0.828
-344.406	-54.505	0.644	-0.291
-343.391	174.674	-0.101	-0.146
-342.377	69.778	-0.370	-0.380
-341.362	-77.649	0.282	-0.097
-340.348	-101.090	0.876	0.214
-339.333	-200.000	-0.022	0.171
-338.318	800.000	0.004	-0.013
-337.304	-62.370	0.984	-0.408
-336.289	-33.409	0.385	-0.212
-335.275	-200.000	0.158	0.731
-334.260	800.000	-0.247	0.689
-333.245	-63.615	-0.597	-0.244
-332.231	158.444	-0.345	0.477
-331.216	-200.000	-0.041	0.639
-330.202	-200.000	0.050	0.424
-329.187	95.200	0.517	0.587
-328.172	404.194	-0.441	0.926
-327.158	-121.640	-0.806	0.133
-326.143	800.000	0.174	0.653
-325.129	497.105	0.322	-0.739
-324.114	-104.009	-0.678	0.157
-323.099	800.000	0.076	-0.227
-322.085	-200.000	-0.018	-0.506
-321.070	-200.000	-0.087	-0.707
-320.056	800.000	-0.095	0.347
-319.041	69.198	0.283	-0.290
-318.026	800.000	-0.198	0.598
-317.012	-45.642	-1.347	-0.664
-315.997	65.926	-0.361	-0.364
-314.983	-110.925	-0.278	0.057
-313.968	26.140	-0.614	0.511
-312.953	370.378	0.371	-0.749
-311.939	-200.000	-0.141	-0.839
-310.924	-16.475	-0.440	0.278
-309.910	800.000	-0.123	-0.513
-308.895	-112.174	-0.137	-0.027
-307.880	800.000	0.211	-0.817
-306.866	276.778	-0.309	-0.546
-305.851	-31.102	-0.611	-0.343
-304.837	79.607	0.346	-0.369
-303.822	233.069	0.407	0.667
-302.807	-61.720	1.081	0.451
-301.793	-200.000	-0.075	0.501
-300.778	-29.733	-0.465	0.264
-299.764	497.539	-0.190	0.436
-298.749	266.619	-0.247	-0.430
-297.735	-194.053	0.337	0.003
-296.720	-123.090	-0.088	-0.014
-295.705	413.020	-0.394	-0.833
-294.691	26.117	-0.371	-0.308
-293.676	75.364	0.625	0.657
-292.662	-126.080	-0.776	0.116
-291.647	-34.727	0.189	0.103
-290.632	-200.000	-0.014	-0.817
-289.618	-200.000	0.091	-0.566
-288.603	-134.986	0.876	0.105
-287.589	-76.642	-1.030	0.360
-286.574	-122.143	-0.341	-0.056
-285.559	-102.503	0.317	-0.075
-284.545	218.367	0.236	-0.375
-283.530	-184.100	-0.409	0.007
-282.516	-42.103	0.905	-0.461
-281.501	-198.533	-1.124	0.006
-280.486	233.236	0.206	0.337
-279.472	-89.465	-0.583	-0.171
-278.457	-14.047	0.880	-0.565
-277.443	-200.000	-0.005	-0.142
-276.428	-86.637	-0.552	-0.168
-275.413	800.000	0.078	-0.321
-274.399	49.441	-0.056	0.052
-273.384	-1.364	-0.589	0.414
-272.370	-23.893	0.147	0.088
-271.355	210.867	0.488	0.764
-270.340	-66.894	0.749	0.294
-269.326	97.196	0.388	0.443
-268.311	224.263	-0.306	0.491
-267.297	707.016	0.117	-0.309
-266.282	649.185	0.073	-0.186
-265.267	800.000	-0.306	-0.859
-264.253	-40.274	-0.357	0.185
-263.238	-76.728	0.294	-0.102
-262.224	625.158	-0.470	-1.178
-261.209	-200.000	-0.020	-0.428
-260.195	209.773	0.413	0.643
-259.180	166.868	-0.672	0.948
-258.165	16.985	0.452	0.356
-257.151	653.986	-0.234	0.596
-256.136	-200.000	-0.030	0.174
-255.122	-43.287	0.379	-0.191
-254.107	-200.000	0.071	0.451
-253.092	284.168	-0.208	0.371
-252.078	-200.000	-0.049	-0.226
-251.063	11.963	-0.042	0.032
-250.049	-119.503	-0.419	0.072
-249.034	800.000	-0.188	0.725
-248.019	-13.155	-0.287	-0.185
-247.005	8.953	-0.317	-0.237
-245.990	-17.949	0.948	0.590
-244.976	1.367	0.530	0.379
-243.961	180.530	0.434	0.634
-242.946	-200.000	0.023	0.421
-241.932	-104.980	0.690	-0.157
-240.917	-200.000	-0.023	0.478
-239.903	800.000	-0.078	0.252
-238.888	-122.392	0.549	-0.089
-237.873	-44.587	0.267	-0.132
-236.859	-54.088	-0.594	-0.268
-235.844	-9.877	-0.688	-0.455
-234.830	-104.710	0.393	-0.090
-233.815	-200.000	-0.014	-0.170
-232.800	10.508	-0.072	0.055
-231.786	277.193	0.191	-0.337
-230.771	133.977	0.188	0.241
-229.757	-75.157	0.405	0.144
-228.742	15.707	0.353	0.275
-227.727	180.566	-0.172	0.251
-226.713	-200.000	-0.210	1.086
-225.698	73.489	-0.356	0.370
-224.684	-200.000	0.018	0.269
-223.669	-149.012	0.314	0.025
-222.655	132.666	0.258	-0.331
-221.640	-98.703	-0.866	-0.219
-220.625	-180.520	-0.260	0.005
-219.611	383.793	0.236	-0.482
-218.596	-18.334	0.208	0.129
-217.582	448.679	-0.040	-0.088
-216.567	38.639	0.160	0.142
-215.552	-92.608	-0.372	-0.104
-214.538	66.973	0.495	0.500
-213.523	25.863	0.400	-0.331
-212.509	148.762	0.678	-0.910
-211.494	-98.850	-0.802	0.202
-210.479	449.647	-0.154	-0.337
-209.465	-33.415	-0.493	0.271
-208.450	-200.000	0.000	-0.920
-207.436	800.000	-0.229	0.780
-206.421	-200.000	-0.010	0.056
-205.406	-74.049	0.594	-0.213
-204.392	-40.465	-0.345	0.178
-203.377	-90.077	0.647	0.187
-202.363	-68.226	0.562	-0.217
-201.348	-109.337	0.201	0.042
-200.333	-37.488	-0.165	0.087
-199.319	-200.000	-0.020	0.540
-198.304	-200.000	0.023	0.321
-197.290	-62.598	0.353	-0.145
-196.275	-109.397	0.192	0.040
-195.260	-93.780	-0.154	-0.042
-194.246	-200.000	0.028	-0.291
-193.231	2.646	-0.171	0.123
-192.217	-104.308	0.533	0.123
-191.202	8.889	0.436	0.326
-190.187	-48.662	-0.650	-0.310
-189.173	-116.393	0.313	0.057
-188.158	-73.249	0.258	-0.094
-187.144	-200.000	-0.118	0.546
-186.129	531.234	0.265	-0.621
-185.114	-156.945	0.233	-0.014
-184.100	-200.000	0.004	0.491
-183.085	-200.000	-0.110	-0.738
-182.071	-133.108	-0.919	-0.115
-181.056	-53.537	0.715	-0.324
-180.042	-65.658	0.627	0.249
-179.027	67.367	-0.704	-0.712
-178.012	-200.000	0.046	-0.215
-176.998	800.000	0.261	0.976
-175.983	-156.439	-0.376	-0.023
-174.969	674.770	-0.250	-0.642
-173.954	-24.199	0.836	-0.494
-172.939	-36.779	-0.343	-0.182
-171.925	337.884	0.309	0.595
-170.910	42.320	-0.842	0.758
-169.896	-159.919	0.218	-0.012
-168.881	558.600	-0.171	-0.409
-167.866	-200.000	0.050	-0.365
-166.852	533.506	-0.178	-0.419
-165.837	53.531	0.395	0.375
-164.823	272.926	-0.386	-0.675
-163.808	800.000	-0.279	-0.793
-162.793	-1.925	-0.381	-0.265
-161.779	-28.517	-0.599	0.342
-160.764	-151.552	-0.375	0.028
-159.750	18.689	-0.483	-0.383
-158.735	27.209	-0.509	0.423
-157.720	-83.048	0.323	-0.103
-156.706	-200.000	0.110	-0.541
-155.691	-63.698	0.731	0.297
-154.677	-75.228	-0.421	0.149
-153.662	-138.784	-0.615	-0.066
-152.647	534.707	-0.123	0.288
-151.633	800.000	-0.037	-0.113
-150.618	-50.309	-0.224	-0.105
-149.604	-20.493	1.016	-0.618
-148.589	-200.000	-0.108	-0.581
-147.574	-200.000	0.049	-0.863
-146.560	-52.346	0.608	-0.279
-145.545	772.265	0.074	0.199
-144.531	-122.579	0.477	-0.077
-143.516	95.709	0.414	-0.468
-142.502	-200.000	-0.003	0.526
-141.487	800.000	0.209	-0.855
-140.472	-200.000	0.008	0.095
-139.458	-26.988	-0.733	-0.423
-138.443	-13.840	0.222	0.142
-137.429	45.352	-0.464	0.424
-136.414	800.000	-0.057	0.237
-135.399	-105.668	0.947	0.212
-134.385	-46.480	-0.803	0.390
-133.370	78.068	-0.164	0.173
-132.356	309.481	-0.423	-0.782
-131.341	-32.501	0.808	0.445
-130.326	134.728	0.520	-0.667
-129.312	26.275	0.454	-0.375
-128.297	119.292	0.487	0.596
-127.283	352.752	0.190	0.372
-126.268	798.217	-0.231	0.630
-125.253	-147.717	0.490	0.041
-124.239	248.047	0.238	-0.398
-123.224	33.389	0.325	0.279
-122.210	-146.804	-0.230	0.020
-121.195	-200.000	0.064	-0.511
