DTS Sentinel unit serial number:	SN413079Multiplexer serial number:	ORYXHardware model number:	OX4-SRSoftware version number:	ORYX F/W v4.00 Oryx Data Collector v3.7.2.0data status	okinstallation	princeton_trtdifferential loss correction	single-endedforward channel	channel 3reverse channel	N/Adate	2019/09/19time	00:20:34forward acquisition time	60.00reverse acquisition time	0.00gamma	496.2192k internal	0.2346k external	0.2346temperature offset calibration	0.9992default loss term (dB/km)	0.3790temperature slope calibration	1.0000multiplexer offset coefficient	1.0000multiplexer slope coefficient	1.0000fibre end	0.00T internal ref (°C)	22.67T ext. ref 1 (°C)	0.74T ext. ref 2 (°C)	15.65length (m)	temperature (°C)	Stokes	anti-Stokes-747.200	-92.437	0.288	0.081
-746.185	-55.224	-0.077	0.034
-745.171	-80.520	0.101	0.034
-744.156	-17.100	0.333	0.210
-743.142	308.023	-0.136	0.253
-742.127	175.435	0.064	-0.093
-741.112	440.463	0.118	0.258
-740.098	-138.844	-0.072	0.008
-739.083	-39.908	-0.122	0.063
-738.069	-43.627	-0.241	-0.122
-737.054	-200.000	-0.050	0.304
-736.039	-66.227	-0.313	-0.125
-735.025	800.000	-0.024	0.086
-734.010	265.385	-0.194	-0.338
-732.996	-82.674	-0.367	-0.119
-731.981	-130.076	-0.240	0.033
-730.966	112.986	-0.105	0.127
-729.952	-110.015	-0.513	-0.107
-728.937	-189.791	-0.130	-0.001
-727.923	50.591	0.174	0.164
-726.908	230.413	-0.179	-0.293
-725.894	-200.000	-0.026	-0.373
-724.879	-116.074	0.128	0.024
-723.864	-200.000	-0.002	-0.093
-722.850	203.037	0.096	0.148
-721.835	-67.952	0.077	-0.030
-720.821	-23.231	0.241	-0.145
-719.806	-62.937	-0.227	-0.094
-718.791	259.450	-0.061	0.105
-717.777	-200.000	0.003	0.094
-716.762	-99.328	-0.352	-0.089
-715.748	-51.455	0.084	0.039
-714.733	-76.621	0.243	-0.085
-713.718	69.747	-0.090	0.092
-712.704	-78.219	-0.305	-0.105
-711.689	800.000	-0.099	-0.426
-710.675	-200.000	0.024	0.169
-709.660	26.779	-0.212	0.177
-708.645	68.272	0.097	-0.099
-707.631	-119.723	0.056	-0.010
-706.616	186.554	-0.112	-0.167
-705.602	-200.000	0.016	-0.541
-704.587	-200.000	-0.006	-0.220
-703.572	-16.482	0.181	-0.115
-702.558	42.928	0.018	0.016
-701.543	294.012	-0.270	-0.493
-700.529	-4.580	-0.328	0.226
-699.514	-109.979	0.100	0.021
-698.499	274.844	-0.153	-0.271
-697.485	-200.000	-0.013	-0.125
-696.470	800.000	0.049	-0.139
-695.456	167.772	-0.221	-0.314
-694.441	-81.337	0.174	-0.057
-693.426	150.392	-0.085	0.115
-692.412	-200.000	0.002	-0.069
-691.397	-88.756	-0.063	-0.019
-690.383	99.232	0.182	0.210
-689.368	-66.950	-0.359	-0.142
-688.354	69.111	-0.264	-0.271
-687.339	-200.000	0.028	-0.417
-686.324	-14.758	0.076	0.049
-685.310	-4.637	-0.026	-0.018
-684.295	-73.293	-0.151	-0.055
-683.281	252.823	-0.092	0.157
-682.266	-63.607	-0.363	0.148
-681.251	127.168	-0.142	0.180
-680.237	119.958	0.102	-0.126
-679.222	-78.189	0.131	0.045
-678.208	88.761	-0.343	-0.381
-677.193	-9.409	0.442	-0.295
-676.178	511.123	-0.103	-0.240
-675.164	800.000	0.033	0.093
-674.149	229.636	0.018	0.029
-673.135	277.039	0.274	0.485
-672.120	-44.413	-0.379	-0.189
-671.105	-112.698	-0.242	0.048
-670.091	-200.000	-0.033	0.496
-669.076	4.407	0.199	-0.145
-668.062	79.588	0.051	-0.054
-667.047	800.000	-0.036	-0.137
-666.032	-101.801	0.124	-0.030
-665.018	398.018	-0.204	0.426
-664.003	-19.090	-0.328	0.203
-662.989	-9.191	-0.079	0.053
-661.974	124.185	-0.117	0.146
-660.959	-78.971	0.153	-0.052
-659.945	-12.512	0.316	-0.206
-658.930	800.000	0.054	0.203
-657.916	361.219	-0.120	0.241
-656.901	198.340	0.247	-0.377
-655.886	22.708	0.122	-0.099
-654.872	-200.000	-0.016	-0.113
-653.857	-124.123	-0.179	0.028
-652.843	59.555	0.092	0.090
-651.828	209.778	0.018	0.028
-650.814	800.000	0.151	-0.504
-649.799	-200.000	0.023	0.285
-648.784	286.597	-0.241	0.434
-647.770	120.554	0.233	0.288
-646.755	-200.000	0.084	0.372
-645.741	-200.000	0.043	-0.212
-644.726	-122.291	0.201	-0.033
-643.711	-4.458	-0.079	-0.054
-642.697	-86.406	-0.345	0.106
-641.682	-200.000	0.021	0.283
-640.668	-200.000	-0.056	-0.283
-639.653	711.037	0.046	-0.121
-638.638	-68.896	-0.227	-0.087
-637.624	-200.000	-0.032	-0.298
-636.609	-140.023	0.280	0.029
-635.595	-115.479	-0.033	0.006
-634.580	18.811	0.216	0.173
-633.565	-113.172	-0.305	-0.060
-632.551	800.000	-0.018	-0.055
-631.536	-140.486	0.256	-0.027
-630.522	-200.000	-0.003	-0.177
-629.507	800.000	-0.062	-0.264
-628.492	157.125	0.102	-0.140
-627.478	-200.000	-0.040	0.194
-626.463	-195.724	-0.267	-0.002
-625.449	-139.244	0.025	0.003
-624.434	9.103	-0.377	-0.284
-623.419	293.674	-0.094	0.171
-622.405	280.006	0.240	-0.427
-621.390	-79.824	0.262	-0.088
-620.376	-91.457	-0.282	-0.080
-619.361	-73.443	0.266	-0.097
-618.346	-81.144	0.312	0.103
-617.332	800.000	0.053	-0.152
-616.317	242.094	0.090	-0.151
-615.303	800.000	-0.058	-0.198
-614.288	-200.000	0.259	-0.000
-613.273	-64.552	0.069	0.028
-612.259	-75.808	-0.102	0.036
-611.244	-140.664	0.343	-0.035
-610.230	-14.006	0.231	0.148
-609.215	247.792	-0.029	-0.049
-608.201	-37.569	0.169	0.090
-607.186	213.419	-0.162	-0.254
-606.171	-166.328	-0.092	0.004
-605.157	-200.000	-0.051	0.308
-604.142	-200.000	0.013	0.159
-603.128	-6.267	-0.507	-0.344
-602.113	1.009	-0.345	0.246
-601.098	218.949	-0.007	0.010
-600.084	-134.247	-0.310	0.038
-599.069	-169.527	0.204	0.007
-598.055	-85.379	-0.305	-0.094
-597.040	-65.182	0.155	0.062
-596.025	122.053	-0.105	-0.130
-595.011	166.631	-0.160	0.226
-593.996	7.480	-0.209	-0.155
-592.982	-166.509	0.157	0.007
-591.967	36.682	0.175	-0.154
-590.952	419.689	0.034	0.072
-589.938	-76.037	-0.088	0.031
-588.923	-132.051	0.416	0.054
-587.909	369.108	-0.075	-0.150
-586.894	293.109	0.126	0.229
-585.879	-151.052	-0.165	0.012
-584.865	-200.000	0.024	-0.188
-583.850	328.196	0.152	0.291
-582.836	-200.000	0.014	-0.192
-581.821	-147.450	-0.184	0.015
-580.806	-200.000	-0.124	-0.563
-579.792	-200.000	0.074	-0.605
-578.777	-200.000	0.070	0.358
-577.763	103.489	-0.303	0.353
-576.748	-56.036	0.240	0.106
-575.733	-156.702	-0.285	-0.017
-574.719	-200.000	-0.003	-0.092
-573.704	800.000	0.101	-0.378
-572.690	400.800	-0.060	0.124
-571.675	16.981	0.168	0.132
-570.661	800.000	-0.131	-0.439
-569.646	101.035	-0.143	0.165
-568.631	800.000	-0.049	0.164
-567.617	445.877	0.183	-0.400
-566.602	-200.000	-0.042	-0.194
-565.588	-193.217	-0.202	-0.002
-564.573	294.869	0.069	-0.126
-563.558	397.822	-0.113	-0.235
-562.544	-117.458	0.092	0.016
-561.529	800.000	-0.141	0.392
-560.515	-35.313	-0.150	0.081
-559.500	-55.490	0.082	0.036
-558.485	-200.000	0.020	0.118
-557.471	-65.169	-0.318	-0.127
-556.456	57.429	-0.239	-0.231
-555.442	-200.000	0.062	0.296
-554.427	-200.000	0.044	0.307
-553.412	-44.059	-0.312	0.156
-552.398	800.000	0.064	-0.257
-551.383	-49.295	-0.020	0.009
-550.369	633.276	0.078	0.196
-549.354	294.903	0.103	0.188
-548.339	-200.000	-0.004	-0.109
-547.325	419.331	0.041	-0.087
-546.310	-200.000	-0.022	-0.120
-545.296	106.809	-0.237	-0.280
-544.281	-96.519	0.202	-0.053
-543.266	175.530	0.015	-0.022
-542.252	-200.000	-0.019	-0.099
-541.237	30.962	-0.035	-0.030
-540.223	31.311	0.219	0.187
-539.208	48.935	0.080	-0.074
-538.193	-103.940	0.050	0.012
-537.179	-200.000	0.009	-0.194
-536.164	-179.607	0.234	0.005
-535.150	-96.634	0.230	0.060
-534.135	-200.000	-0.029	-0.148
-533.121	0.530	0.055	0.039
-532.106	-200.000	-0.027	-0.193
-531.091	-1.690	0.230	-0.161
-530.077	211.939	0.131	-0.205
-529.062	-69.339	0.155	0.059
-528.048	-9.534	-0.227	0.150
-527.033	-200.000	-0.029	0.268
-526.018	-200.000	-0.027	-0.186
-525.004	30.569	0.147	0.125
-523.989	-200.000	0.011	0.066
-522.975	-200.000	-0.011	-0.355
-521.960	-11.955	0.152	0.099
-520.945	800.000	0.164	-0.559
-519.931	191.555	-0.142	-0.212
-518.916	-200.000	-0.051	0.303
-517.902	50.996	0.110	0.104
-516.887	-78.604	0.133	-0.045
-515.872	15.998	0.236	0.184
-514.858	-118.419	-0.046	0.008
-513.843	-20.424	0.174	-0.106
-512.829	-90.825	-0.277	-0.079
-511.814	163.596	-0.086	-0.120
-510.799	-200.000	-0.043	0.238
-509.785	-111.482	0.160	0.032
-508.770	-159.954	-0.145	0.008
-507.756	800.000	-0.057	-0.201
-506.741	-88.984	0.303	-0.089
-505.726	169.600	0.041	-0.058
-504.712	792.573	-0.013	0.034
-503.697	60.644	0.201	0.198
-502.683	-200.000	0.013	0.062
-501.668	-114.904	0.335	0.063
-500.653	800.000	0.094	0.263
-499.639	800.000	-0.010	0.034
-498.624	-200.000	-0.191	-0.001
-497.610	-23.212	-0.178	0.106
-496.595	-200.000	-0.009	-0.119
-495.581	45.247	0.277	-0.253
-494.566	-200.000	-0.007	0.146
-493.551	88.630	-0.135	-0.149
-492.537	-200.000	0.041	0.234
-491.522	289.499	0.089	0.161
-490.508	24.251	-0.210	-0.172
-489.493	-3.148	-0.421	-0.291
-488.478	800.000	-0.044	-0.170
-487.464	800.000	0.125	-0.374
-486.449	-55.351	-0.078	-0.035
-485.435	128.985	-0.083	-0.105
-484.420	-186.588	-0.094	-0.001
-483.405	264.769	0.014	0.024
-482.391	-159.378	-0.190	-0.011
-481.376	-30.856	0.235	0.131
-480.362	-200.000	0.013	-0.417
-479.347	-23.363	-0.030	-0.018
-478.332	643.823	-0.111	0.281
-477.318	-200.000	0.028	-0.246
-476.303	-11.106	0.207	0.135
-475.289	573.112	-0.122	0.294
-474.274	-43.381	-0.273	-0.137
-473.259	155.678	0.097	0.132
-472.245	-71.017	-0.218	-0.081
-471.230	800.000	0.090	0.301
-470.216	-48.498	0.248	-0.118
-469.201	-171.328	-0.277	-0.009
-468.186	-44.349	0.315	-0.156
-467.172	-77.298	-0.268	-0.092
-466.157	-200.000	-0.022	-0.267
-465.143	507.999	-0.069	-0.157
-464.128	-200.000	-0.044	0.521
-463.113	83.014	0.162	0.174
-462.099	-200.000	-0.022	-0.127
-461.084	-91.163	-0.070	0.020
-460.070	-200.000	0.011	0.280
-459.055	-41.289	0.114	-0.058
-458.040	-24.385	-0.159	0.094
-457.026	-154.873	0.043	-0.003
-456.011	110.630	0.115	-0.137
-454.997	-97.351	0.275	-0.071
-453.982	-200.000	-0.049	0.307
-452.968	238.200	-0.075	-0.124
-451.953	671.280	0.113	-0.289
-450.938	-200.000	-0.020	-0.166
-449.924	22.360	0.286	0.231
-448.909	800.000	0.105	-0.306
-447.895	-2.600	0.063	0.044
-446.880	-160.642	0.070	-0.004
-445.865	-200.000	-0.019	-0.166
-444.851	63.071	-0.118	0.117
-443.836	-94.455	0.284	0.077
-442.822	-112.761	0.375	-0.074
-441.807	57.228	-0.212	0.205
-440.792	208.414	0.135	-0.208
-439.778	-122.325	0.122	0.020
-438.763	-200.000	-0.072	-0.314
-437.749	800.000	-0.092	-0.262
-436.734	-94.705	0.077	0.021
-435.719	71.779	0.104	-0.107
-434.705	115.655	-0.134	0.162
-433.690	-67.113	0.064	-0.025
-432.676	800.000	-0.108	0.300
-431.661	800.000	0.063	0.216
-430.646	-49.375	-0.173	0.082
-429.632	454.437	0.050	-0.109
-428.617	-200.000	0.067	-0.320
-427.603	78.367	-0.059	-0.062
-426.588	800.000	-0.037	0.126
-425.573	-103.469	-0.101	0.023
-424.559	-154.752	0.222	0.015
-423.544	8.363	-0.203	0.151
-422.530	311.543	-0.050	0.093
-421.515	-86.766	0.281	0.085
-420.500	-81.878	-0.327	0.106
-419.486	800.000	0.043	-0.144
-418.471	-67.497	-0.281	0.109
-417.457	-34.616	0.120	-0.065
-416.442	45.086	0.187	0.170
-415.428	-113.023	0.082	0.016
-414.413	-23.622	0.120	-0.071
-413.398	-200.000	-0.290	0.000
-412.384	26.780	0.147	-0.122
-411.369	-105.357	0.236	-0.053
-410.355	95.149	0.201	0.226
-409.340	83.841	0.202	0.218
-408.325	-200.000	-0.018	-0.197
-407.311	-90.973	0.274	-0.078
-406.296	-200.000	0.024	0.166
-405.282	-200.000	-0.019	-0.163
-404.267	-92.732	-0.379	-0.105
-403.252	800.000	-0.060	0.193
-402.238	30.096	-0.217	-0.182
-401.223	5.326	0.119	0.086
-400.209	800.000	-0.074	0.289
-399.194	-116.362	0.133	0.024
-398.179	631.397	-0.037	0.093
-397.165	-108.586	-0.384	-0.081
-396.150	-12.105	-0.153	-0.099
-395.136	7.529	-0.107	0.079
-394.121	-38.970	0.150	-0.078
-393.106	52.983	-0.299	0.282
-392.092	-0.547	0.117	0.082
-391.077	-146.603	-0.242	-0.021
-390.063	190.819	0.104	0.155
-389.048	-61.252	-0.273	0.113
-388.033	441.059	-0.102	-0.220
-387.019	15.017	0.070	0.054
-386.004	423.612	0.169	0.357
-384.990	-200.000	0.056	0.359
-383.975	-200.000	-0.036	0.227
-382.960	-200.000	0.032	0.383
-381.946	800.000	-0.031	0.098
-380.931	104.201	0.067	0.078
-379.917	1.653	-0.262	-0.186
-378.902	-109.960	-0.152	0.031
-377.888	-128.787	0.032	-0.004
-376.873	436.612	0.118	0.252
-375.858	46.956	0.059	0.054
-374.844	92.119	-0.175	-0.194
-373.829	252.378	-0.037	0.062
-372.815	-54.385	-0.211	-0.094
-371.800	-21.519	-0.258	0.155
-370.785	-25.918	0.244	0.142
-369.771	329.937	-0.131	0.248
-368.756	-200.000	0.018	-0.108
-367.742	23.530	-0.066	-0.053
-366.727	-38.596	0.344	0.179
-365.712	-43.458	-0.067	-0.033
-364.698	375.526	-0.027	-0.054
-363.683	-78.201	0.168	-0.057
-362.669	284.944	-0.180	-0.319
-361.654	800.000	0.079	-0.247
-360.639	-184.735	0.282	-0.004
-359.625	310.974	-0.186	0.343
-358.610	800.000	-0.022	-0.075
-357.596	-110.862	-0.250	0.051
-356.581	-200.000	0.050	0.323
-355.566	800.000	0.054	0.185
-354.552	147.535	-0.058	-0.076
-353.537	-82.292	0.112	-0.036
-352.523	797.854	0.150	-0.408
-351.508	-75.015	-0.425	-0.150
-350.493	-200.000	-0.023	-0.178
-349.479	-200.000	0.011	0.253
-348.464	-200.000	-0.024	0.280
-347.450	-38.302	-0.131	0.068
-346.435	190.141	0.070	0.103
-345.420	-200.000	0.004	0.113
-344.406	-88.385	-0.218	-0.064
-343.391	-200.000	-0.062	0.314
-342.377	800.000	0.030	0.107
-341.362	178.318	-0.234	0.337
-340.348	133.126	0.113	-0.143
-339.333	-200.000	-0.011	-0.071
-338.318	-200.000	-0.034	0.158
-337.304	-32.065	0.246	-0.136
-336.289	79.498	-0.246	0.260
-335.275	-200.000	0.050	0.242
-334.260	-200.000	-0.025	0.289
-333.245	114.232	-0.277	0.332
-332.231	-193.538	0.244	-0.002
-331.216	-18.668	0.284	0.174
-330.202	-102.703	-0.406	0.095
-329.187	-200.000	0.023	0.328
-328.172	-200.000	-0.031	-0.175
-327.158	16.035	-0.143	-0.111
-326.143	-149.220	-0.309	0.024
-325.129	160.116	-0.097	0.134
-324.114	-97.351	0.326	-0.084
-323.099	188.483	-0.291	-0.428
-322.085	-21.869	0.146	-0.087
-321.070	579.160	-0.097	0.235
-320.056	-90.933	-0.217	0.061
-319.041	800.000	0.037	-0.105
-318.026	-200.000	-0.018	0.087
-317.012	410.984	-0.057	-0.118
-315.997	186.960	0.100	-0.147
-314.983	-99.239	-0.355	-0.088
-313.968	-200.000	0.119	-0.581
-312.953	147.674	-0.173	0.230
-311.939	-70.640	0.194	-0.072
-310.924	-127.607	0.248	-0.035
-309.910	100.331	-0.185	0.211
-308.895	-74.678	0.299	0.106
-307.880	264.566	-0.123	-0.210
-306.866	106.687	-0.143	-0.167
-305.851	14.474	-0.198	-0.152
-304.837	-70.645	0.159	0.059
-303.822	-73.943	-0.268	0.096
-302.807	800.000	0.052	-0.156
-301.793	-113.145	0.592	0.115
-300.778	-200.000	-0.015	0.284
-299.764	-129.046	-0.096	0.013
-298.749	-68.918	0.150	-0.057
-297.735	-77.725	0.161	0.055
-296.720	152.246	-0.267	0.359
-295.705	630.199	0.043	0.106
-294.691	-200.000	0.046	-0.273
-293.676	-200.000	-0.006	-0.369
-292.662	-67.539	-0.199	0.077
-291.647	-200.000	0.024	0.185
-290.632	-58.682	0.044	-0.019
-289.618	-60.417	-0.007	-0.003
-288.603	-200.000	0.008	0.046
-287.589	-11.703	0.086	0.055
-286.574	-65.186	-0.227	-0.090
-285.559	-200.000	-0.017	0.192
-284.545	-78.084	0.259	0.088
-283.530	531.293	-0.109	-0.254
-282.516	-200.000	-0.011	-0.079
-281.501	-200.000	-0.024	0.239
-280.486	-200.000	-0.030	0.446
-279.472	-54.318	0.184	0.082
-278.457	-152.170	0.523	0.037
-277.443	98.576	-0.164	-0.186
-276.428	130.326	0.135	-0.170
-275.413	800.000	-0.038	0.151
-274.399	-58.653	0.098	0.042
-273.384	-63.420	0.324	-0.131
-272.370	-97.882	-0.292	-0.074
-271.355	73.455	0.194	0.199
-270.340	62.280	0.264	0.258
-269.326	800.000	-0.078	0.294
-268.311	-93.435	-0.345	0.094
-267.297	-200.000	-0.039	0.234
-266.282	-46.085	0.167	0.081
-265.267	-110.927	-0.160	0.032
-264.253	592.157	0.173	0.420
-263.238	-89.926	-0.331	0.095
-262.224	-59.373	0.055	-0.023
-261.209	287.469	-0.116	0.206
-260.195	25.019	-0.219	-0.178
-259.180	-200.000	-0.022	0.119
-258.165	-30.343	0.337	-0.188
-257.151	-154.307	-0.173	0.011
-256.136	-125.113	-0.227	0.034
-255.122	375.801	0.050	0.100
-254.107	-56.923	-0.248	-0.107
-253.092	393.604	-0.051	-0.105
-252.078	260.844	0.090	0.152
-251.063	159.788	-0.134	-0.184
-250.049	-200.000	0.054	0.295
-249.034	-75.261	-0.244	-0.085
-248.019	800.000	0.109	0.338
-247.005	-123.277	-0.305	0.048
-245.990	143.512	0.130	-0.170
-244.976	132.400	-0.103	-0.130
-243.961	-66.672	-0.192	0.074
-242.946	655.579	0.040	0.101
-241.932	-200.000	0.061	-0.298
-240.917	138.422	0.147	-0.189
-239.903	-14.701	0.275	-0.173
-238.888	-200.000	-0.024	0.228
-237.873	312.228	-0.097	-0.178
-236.859	3.774	0.046	-0.033
-235.844	18.541	0.190	0.149
-234.830	-86.808	-0.205	0.061
-233.815	7.346	-0.069	0.051
-232.800	-78.395	0.422	0.142
-231.786	-105.619	-0.318	0.071
-230.771	175.854	-0.153	-0.218
-229.757	-200.000	-0.019	-0.155
-228.742	-35.213	-0.187	-0.100
-227.727	-43.481	-0.132	0.065
-226.713	359.457	0.084	-0.164
-225.698	-200.000	0.002	-0.104
-224.684	30.569	0.296	-0.248
-223.669	-111.003	-0.354	-0.071
-222.655	-33.239	0.353	0.192
-221.640	23.417	0.081	0.065
-220.625	-187.237	-0.089	-0.001
-219.611	73.289	-0.161	0.165
-218.596	-79.130	0.072	-0.024
-217.582	-13.300	-0.409	-0.260
-216.567	-61.949	0.224	-0.092
-215.552	7.862	-0.276	0.203
-214.538	-145.355	0.352	0.031
-213.523	-141.084	0.318	0.032
-212.509	-200.000	0.014	0.121
-211.494	417.312	0.128	-0.268
-210.479	5.387	-0.263	-0.190
-209.465	800.000	0.136	-0.547
-208.450	204.598	0.140	-0.213
-207.436	-200.000	0.049	-0.417
-206.421	227.189	0.101	-0.160
-205.406	-200.000	0.024	-0.112
-204.392	77.020	0.108	-0.112
-203.377	114.262	0.032	-0.038
-202.363	-139.734	0.326	-0.034
-201.348	-115.077	0.098	0.018
-200.333	-103.804	0.124	-0.028
-199.319	-18.653	0.289	0.176
-198.304	13.150	0.119	0.090
-197.290	-19.246	-0.082	0.050
-196.275	98.035	-0.095	0.107
-195.260	223.669	-0.303	-0.479
-194.246	-15.134	0.372	-0.233
-193.231	39.807	0.238	0.209
-192.217	-58.354	-0.048	-0.020
-191.202	-200.000	0.001	-0.029
-190.187	306.441	-0.121	0.221
-189.173	599.116	0.064	0.156
-188.158	-74.250	-0.252	0.089
-187.144	428.326	-0.119	-0.251
-186.129	-152.128	0.255	-0.018
-185.114	-10.721	-0.275	0.178
-184.100	334.128	0.015	-0.028
-183.085	127.276	0.017	-0.021
-182.071	352.056	0.038	-0.073
-181.056	38.747	-0.076	0.066
-180.042	-131.206	-0.128	0.017
-179.027	-59.386	-0.358	0.151
-178.012	-11.206	0.188	-0.121
-176.998	-200.000	-0.101	-0.000
-175.983	2.467	-0.131	-0.093
-174.969	-200.000	-0.073	-0.439
-173.954	800.000	-0.058	0.193
-172.939	-26.875	-0.023	0.013
-171.925	38.248	0.282	-0.246
-170.910	-200.000	-0.030	-0.151
-169.896	-183.073	0.111	0.002
-168.881	-56.971	0.238	-0.103
-167.866	79.945	0.138	0.145
-166.852	-13.002	-0.227	-0.145
-165.837	530.524	0.082	-0.189
-164.823	536.201	-0.126	0.292
-163.808	-155.694	0.166	0.010
-162.793	86.738	-0.015	0.016
-161.779	11.237	0.211	-0.158
-160.764	-200.000	0.086	0.413
-159.750	-118.637	0.132	0.023
-158.735	54.108	0.245	-0.230
-157.720	800.000	0.062	0.252
-156.706	300.800	-0.067	0.121
-155.691	582.803	-0.034	-0.082
-154.677	126.677	0.154	-0.191
-153.662	-200.000	0.020	-0.211
-152.647	-11.386	0.086	0.055
-151.633	-192.374	-0.273	-0.003
-150.618	-109.934	0.369	-0.076
-149.604	-105.581	0.056	0.012
-148.589	64.797	0.094	0.093
-147.574	-173.019	-0.104	0.003
-146.560	149.517	-0.035	0.046
-145.545	-200.000	0.006	0.125
-144.531	14.804	0.107	0.082
-143.516	800.000	-0.043	-0.156
-142.502	800.000	0.105	-0.325
-141.487	62.292	0.035	-0.034
-140.472	-60.120	-0.340	-0.142
-139.458	-200.000	-0.025	-0.158
-138.443	129.037	0.129	-0.161
-137.429	800.000	0.040	0.118
-136.414	483.988	0.078	-0.174
-135.399	115.403	-0.065	-0.078
-134.385	-25.133	-0.103	-0.059
-133.370	-75.723	0.339	0.117
-132.356	193.770	0.159	0.235
-131.341	754.246	0.056	-0.147
-130.326	76.361	-0.104	-0.107
-129.312	107.496	0.166	-0.193
-128.297	134.651	0.044	0.056
-127.283	-200.000	0.009	0.164
-126.268	348.046	-0.129	-0.249
-125.253	-200.000	0.013	-0.120
-124.239	537.343	-0.034	0.080
-123.224	-25.780	-0.151	0.087
-122.210	-49.944	0.172	-0.080
