DTS Sentinel unit serial number:	SN413079Multiplexer serial number:	ORYXHardware model number:	OX4-SRSoftware version number:	ORYX F/W v4.00 Oryx Data Collector v3.7.2.0data status	okinstallation	princeton_trtdifferential loss correction	single-endedforward channel	channel 3reverse channel	N/Adate	2019/09/12time	15:10:10forward acquisition time	60.00reverse acquisition time	0.00gamma	496.2192k internal	0.2292k external	0.2292temperature offset calibration	1.0053default loss term (dB/km)	0.3790temperature slope calibration	1.0000multiplexer offset coefficient	1.0000multiplexer slope coefficient	1.0000fibre end	0.00T internal ref (°C)	40.58T ext. ref 1 (°C)	2.37T ext. ref 2 (°C)	37.87length (m)	temperature (°C)	Stokes	anti-Stokes-747.200	-45.580	-0.153	-0.077
-746.185	120.817	0.087	0.111
-745.171	257.257	-0.168	-0.296
-744.156	-200.000	0.026	0.503
-743.142	-18.813	0.104	0.066
-742.127	800.000	-0.055	0.225
-741.112	-110.999	-0.230	-0.048
-740.098	351.740	-0.039	-0.080
-739.083	109.782	-0.230	0.283
-738.069	800.000	-0.061	0.221
-737.054	800.000	0.092	-0.409
-736.039	-0.172	0.197	-0.144
-735.025	168.996	0.095	0.139
-734.010	227.494	0.158	-0.264
-732.996	-146.573	0.141	0.013
-731.981	368.348	0.174	-0.359
-730.966	-88.697	-0.420	0.128
-729.952	-149.289	-0.426	0.035
-728.937	-61.946	0.098	-0.042
-727.923	-28.809	-0.147	-0.086
-726.908	219.546	-0.066	-0.107
-725.894	-200.000	0.038	-0.184
-724.879	-129.307	0.272	0.039
-723.864	99.044	-0.246	-0.291
-722.850	-168.286	0.103	-0.004
-721.835	35.493	-0.229	0.206
-720.821	-85.351	-0.106	-0.034
-719.806	696.680	-0.064	0.172
-718.791	-94.571	-0.205	-0.057
-717.777	-83.419	-0.168	-0.055
-716.762	97.215	0.177	-0.207
-715.748	-155.015	0.182	-0.012
-714.733	800.000	0.088	0.303
-713.718	-200.000	-0.036	0.340
-712.704	-7.436	-0.105	0.072
-711.689	-174.694	0.120	0.003
-710.675	297.086	-0.205	0.384
-709.660	-26.497	0.308	0.184
-708.645	-200.000	0.039	-0.189
-707.631	-200.000	-0.076	-0.512
-706.616	-144.498	-0.299	0.028
-705.602	-67.625	0.123	-0.049
-704.587	47.174	-0.071	-0.068
-703.572	-144.451	0.281	-0.027
-702.558	200.582	0.025	0.039
-701.543	214.487	0.199	-0.321
-700.529	800.000	-0.074	0.263
-699.514	1.702	0.159	0.117
-698.499	-200.000	0.001	0.168
-697.485	-50.960	-0.234	-0.112
-696.470	-200.000	0.033	-0.429
-695.456	3.096	-0.176	0.131
-694.441	173.611	0.152	-0.225
-693.426	159.213	0.116	0.165
-692.412	203.575	-0.090	-0.143
-691.397	-159.423	-0.215	0.012
-690.383	-200.000	0.003	-0.200
-689.368	-14.783	-0.364	-0.239
-688.354	-46.244	0.150	-0.075
-687.339	-200.000	0.002	-0.177
-686.324	800.000	-0.021	-0.060
-685.310	800.000	0.116	0.503
-684.295	34.519	0.060	0.053
-683.281	800.000	-0.034	0.097
-682.266	-15.947	0.358	-0.232
-681.251	-200.000	-0.029	-0.323
-680.237	85.103	-0.066	-0.074
-679.222	-200.000	0.006	-0.046
-678.208	-200.000	-0.011	0.300
-677.193	-85.948	0.101	0.032
-676.178	269.376	0.059	0.106
-675.164	-49.691	0.078	-0.038
-674.149	-200.000	0.007	-0.082
-673.135	389.075	0.146	-0.308
-672.120	-200.000	0.092	-0.415
-671.105	-200.000	-0.036	-0.215
-670.091	-11.145	-0.083	-0.056
-669.076	-200.000	0.012	-0.242
-668.062	10.336	-0.190	-0.148
-667.047	-200.000	0.032	0.318
-666.032	373.286	-0.102	-0.211
-665.018	161.554	-0.151	0.215
-664.003	-94.393	-0.088	0.024
-662.989	133.661	0.029	-0.039
-661.974	-200.000	-0.065	0.329
-660.959	134.216	-0.152	0.201
-659.945	-157.725	-0.243	-0.015
-658.930	-155.506	0.326	0.021
-657.916	-200.000	0.049	0.405
-656.901	-110.095	0.157	0.033
-655.886	-74.799	-0.216	0.079
-654.872	-95.818	0.088	0.024
-653.857	-200.000	-0.077	-0.436
-652.843	127.720	0.138	0.179
-651.828	-200.000	0.004	0.027
-650.814	-72.346	0.260	0.098
-649.799	-200.000	0.173	0.000
-648.784	-115.271	-0.463	-0.089
-647.770	183.681	0.044	-0.067
-646.755	202.242	0.062	-0.097
-645.741	-157.060	0.326	0.020
-644.726	-38.928	-0.097	-0.052
-643.711	-200.000	0.013	0.065
-642.697	-20.361	0.235	0.147
-641.682	-200.000	0.086	-0.394
-640.668	-135.789	-0.314	-0.038
-639.653	317.096	-0.076	0.146
-638.638	518.751	0.110	-0.263
-637.624	68.307	0.260	-0.271
-636.609	45.013	-0.138	0.130
-635.595	-200.000	0.002	-0.159
-634.580	33.482	0.186	-0.165
-633.565	-200.000	0.017	0.279
-632.551	-200.000	0.010	-0.101
-631.536	800.000	0.069	-0.232
-630.522	-63.947	-0.084	-0.035
-629.507	-19.060	-0.115	-0.073
-628.492	-200.000	0.010	-0.140
-627.478	800.000	-0.109	-0.319
-626.463	396.594	-0.051	-0.109
-625.449	-61.731	0.239	-0.102
-624.434	-200.000	0.009	-0.145
-623.419	800.000	0.048	0.193
-622.405	-5.257	0.532	0.373
-621.390	-21.413	0.380	-0.236
-620.376	254.767	-0.123	0.215
-619.361	-200.000	0.035	-0.317
-618.346	800.000	-0.036	-0.112
-617.332	27.644	0.254	-0.218
-616.317	-200.000	0.029	0.214
-615.303	-200.000	0.040	-0.222
-614.288	-8.360	-0.171	0.117
-613.273	-22.530	0.223	-0.138
-612.259	-141.273	-0.241	0.025
-611.244	-98.859	-0.358	0.093
-610.230	90.757	0.218	0.249
-609.215	36.633	0.080	-0.072
-608.201	-200.000	-0.137	0.001
-607.186	-14.123	-0.158	-0.104
-606.171	128.161	0.085	0.111
-605.157	-126.600	-0.361	0.055
-604.142	-6.922	-0.125	0.087
-603.128	-1.367	0.216	0.155
-602.113	-200.000	-0.036	0.200
-601.098	-70.851	0.381	-0.146
-600.084	-200.000	0.024	0.134
-599.069	111.299	0.076	0.094
-598.055	-63.258	0.245	0.103
-597.040	263.596	0.145	-0.256
-596.025	-92.123	-0.273	-0.078
-595.011	-200.000	-0.016	0.114
-593.996	800.000	-0.059	0.235
-592.982	-76.058	-0.143	0.051
-591.967	-100.734	0.089	0.022
-590.952	-200.000	-0.014	0.243
-589.938	-176.483	-0.228	-0.006
-588.923	88.342	-0.140	0.158
-587.909	800.000	0.036	0.152
-586.894	-63.641	0.413	-0.173
-585.879	-88.136	0.050	-0.015
-584.865	-90.430	0.111	0.033
-583.850	137.658	-0.099	0.131
-582.836	-143.738	-0.067	-0.006
-581.821	103.744	0.153	-0.183
-580.806	-27.802	-0.286	0.169
-579.792	-141.023	0.204	0.021
-578.777	89.520	-0.072	-0.082
-577.763	-16.312	0.230	0.149
-576.748	-185.680	0.044	0.001
-575.733	-49.683	-0.067	-0.032
-574.719	800.000	-0.189	-0.560
-573.704	4.028	0.150	0.111
-572.690	-177.073	-0.061	-0.002
-571.675	120.976	0.260	0.329
-570.661	493.666	-0.049	-0.115
-569.646	-200.000	0.004	0.146
-568.631	14.637	0.168	-0.134
-567.617	-200.000	0.008	0.113
-566.602	603.104	0.052	-0.131
-565.588	-7.860	0.063	-0.043
-564.573	-200.000	-0.033	0.148
-563.558	124.151	-0.029	-0.037
-562.544	-180.907	-0.285	-0.006
-561.529	-64.969	-0.128	-0.053
-560.515	258.138	0.034	0.059
-559.500	154.731	0.045	-0.063
-558.485	800.000	0.049	0.142
-557.471	-200.000	-0.022	-0.504
-556.456	-77.528	-0.067	0.024
-555.442	-200.000	-0.035	0.191
-554.427	-115.721	-0.059	0.011
-553.412	101.635	-0.087	-0.103
-552.398	-52.532	0.115	-0.054
-551.383	-11.934	-0.278	-0.185
-550.369	-88.467	0.184	-0.056
-549.354	800.000	0.037	0.111
-548.339	127.111	-0.123	-0.159
-547.325	-59.155	-0.151	-0.066
-546.310	800.000	0.018	-0.076
-545.296	260.644	0.121	0.212
-544.281	-130.536	0.391	0.054
-543.266	211.814	0.133	0.213
-542.252	35.711	-0.176	-0.157
-541.237	-117.088	0.206	0.038
-540.223	-132.326	0.375	0.049
-539.208	-38.689	0.288	0.155
-538.193	707.020	0.093	-0.249
-537.179	486.464	0.092	0.214
-536.164	-200.000	-0.076	0.482
-535.150	101.361	0.103	-0.122
-534.135	-136.458	-0.342	0.040
-533.121	800.000	-0.080	-0.237
-532.106	485.256	-0.041	0.095
-531.091	42.308	0.057	0.053
-530.077	39.218	0.175	0.159
-529.062	-200.000	-0.038	0.231
-528.048	217.460	0.076	0.123
-527.033	-200.000	-0.032	0.227
-526.018	622.625	0.029	0.075
-525.004	-200.000	0.092	-0.496
-523.989	61.232	0.062	-0.062
-522.975	489.676	0.050	0.116
-521.960	-200.000	0.014	-0.248
-520.945	800.000	-0.017	0.058
-519.931	480.746	0.092	0.212
-518.916	-68.085	0.077	0.030
-517.902	-200.000	-0.006	0.087
-516.887	103.265	0.172	0.205
-515.872	-200.000	0.034	-0.334
-514.858	-200.000	0.005	0.197
-513.843	-100.869	-0.266	-0.066
-512.829	-31.002	0.261	-0.150
-511.814	800.000	-0.035	0.106
-510.799	-105.757	-0.068	-0.015
-509.785	-200.000	-0.013	-0.080
-508.770	9.895	-0.116	-0.089
-507.756	166.232	-0.219	-0.314
-506.741	-200.000	0.005	0.035
-505.726	-200.000	0.003	-0.246
-504.712	-200.000	-0.018	-0.201
-503.697	-31.461	0.102	-0.058
-502.683	-200.000	-0.033	-0.427
-501.668	-67.936	-0.125	-0.049
-500.653	38.072	0.186	0.167
-499.639	43.772	-0.129	-0.120
-498.624	-200.000	-0.004	0.143
-497.610	-33.776	-0.094	0.052
-496.595	-100.921	0.131	-0.033
-495.581	98.279	0.082	-0.095
-494.566	-28.283	0.313	-0.183
-493.551	800.000	0.020	0.060
-492.537	-105.583	-0.213	-0.049
-491.522	17.130	0.065	-0.053
-490.508	-200.000	0.040	0.371
-489.493	-200.000	0.026	-0.233
-488.478	800.000	0.070	-0.257
-487.464	103.447	0.232	-0.276
-486.449	-85.732	-0.254	-0.080
-485.435	40.931	-0.081	-0.074
-484.420	-156.240	0.341	-0.022
-483.405	800.000	0.132	0.397
-482.391	-168.909	-0.080	-0.003
-481.376	800.000	-0.014	0.050
-480.362	-117.585	-0.082	-0.015
-479.347	65.512	0.085	0.087
-478.332	52.016	-0.169	0.164
-477.318	139.344	-0.125	-0.166
-476.303	-92.320	0.124	0.036
-475.289	-200.000	0.022	0.129
-474.274	33.675	0.192	0.169
-473.259	46.464	0.053	-0.050
-472.245	69.157	0.202	-0.210
-471.230	-95.755	-0.271	0.073
-470.216	-200.000	0.047	-0.350
-469.201	800.000	-0.101	0.326
-468.186	52.091	0.083	0.080
-467.172	800.000	-0.101	-0.319
-466.157	-200.000	-0.026	-0.141
-465.143	441.731	-0.262	0.580
-464.128	-200.000	0.040	0.204
-463.113	-200.000	-0.030	0.143
-462.099	-200.000	-0.045	0.198
-461.084	723.751	0.062	0.168
-460.070	-111.950	-0.411	0.084
-459.055	-200.000	0.052	-0.274
-458.040	215.185	-0.127	-0.204
-457.026	55.000	0.208	0.203
-456.011	-111.779	-0.367	-0.075
-454.997	800.000	0.180	0.537
-453.982	-46.488	-0.102	0.050
-452.968	263.267	0.098	-0.172
-451.953	330.020	0.026	-0.050
-450.938	800.000	-0.014	0.061
-449.924	800.000	0.075	0.251
-448.909	248.342	0.077	0.132
-447.895	-88.593	-0.326	-0.098
-446.880	152.495	0.104	-0.143
-445.865	-52.970	0.108	-0.050
-444.851	289.645	0.095	-0.175
-443.836	-200.000	-0.051	-0.405
-442.822	128.431	0.186	-0.240
-441.807	800.000	-0.013	-0.042
-440.792	-35.699	0.241	-0.132
-439.778	-198.620	0.118	0.001
-438.763	-200.000	-0.015	0.078
-437.749	-200.000	-0.005	0.133
-436.734	1.939	0.204	0.149
-435.719	264.397	0.147	0.259
-434.705	-10.021	0.159	0.107
-433.690	796.646	0.032	-0.090
-432.676	400.950	0.084	-0.179
-431.661	764.696	-0.049	-0.134
-430.646	-122.485	0.387	0.064
-429.632	-121.542	0.199	-0.033
-428.617	370.019	-0.054	-0.111
-427.603	39.913	-0.103	0.094
-426.588	-200.000	-0.011	-0.048
-425.573	173.655	0.128	-0.186
-424.559	26.128	0.363	0.306
-423.544	-138.781	-0.176	0.019
-422.530	-47.010	-0.446	-0.220
-421.515	61.664	0.128	-0.129
-420.500	-91.042	-0.144	0.042
-419.486	71.025	0.145	-0.152
-418.471	-200.000	-0.006	0.072
-417.457	-72.333	0.305	-0.114
-416.442	721.805	-0.116	0.313
-415.428	-163.568	-0.231	0.011
-414.413	-153.749	-0.341	-0.024
-413.398	-90.287	0.417	0.122
-412.384	800.000	-0.069	0.302
-411.369	22.801	0.086	0.071
-410.355	-200.000	0.020	0.282
-409.340	800.000	-0.097	0.325
-408.325	239.699	-0.094	0.158
-407.311	-145.766	0.149	-0.013
-406.296	197.454	-0.152	-0.235
-405.282	800.000	0.106	-0.317
-404.267	-48.355	-0.139	0.067
-403.252	316.755	-0.032	-0.061
-402.238	-79.753	-0.295	-0.100
-401.223	-29.817	-0.286	0.165
-400.209	-74.252	0.130	0.048
-399.194	-140.575	0.161	0.017
-398.179	-48.586	0.107	0.052
-397.165	-49.373	0.318	0.153
-396.150	-7.788	-0.201	0.137
-395.136	-59.315	-0.044	-0.019
-394.121	376.852	-0.124	-0.255
-393.106	110.949	0.090	0.110
-392.092	-28.518	-0.173	0.101
-391.077	800.000	-0.067	0.192
-390.063	-200.000	0.019	0.312
-389.048	50.613	0.145	0.138
-388.033	800.000	0.102	-0.286
-387.019	3.877	0.021	-0.015
-386.004	800.000	-0.042	-0.140
-384.990	-90.515	-0.214	0.063
-383.975	-146.879	-0.160	0.014
-382.960	175.576	0.228	-0.334
-381.946	33.403	-0.192	0.168
-380.931	-200.000	0.021	-0.215
-379.917	-200.000	-0.004	-0.081
-378.902	-200.000	-0.010	0.184
-377.888	-91.715	0.088	-0.025
-376.873	800.000	0.069	-0.237
-375.858	-197.498	0.105	-0.001
-374.844	-200.000	-0.006	0.237
-373.829	465.697	0.112	0.252
-372.815	800.000	-0.021	0.073
-371.800	537.720	0.186	0.445
-370.785	76.372	-0.199	0.212
-369.771	-39.140	0.120	0.064
-368.756	241.167	0.177	-0.297
-367.742	-200.000	-0.002	0.175
-366.727	800.000	0.080	-0.293
-365.712	-83.233	-0.407	-0.132
-364.698	-200.000	0.030	0.180
-363.683	-30.669	0.191	0.109
-362.669	45.024	0.068	-0.064
-361.654	33.396	0.090	0.079
-360.639	67.371	0.217	-0.223
-359.625	-102.503	0.125	0.030
-358.610	437.255	0.030	-0.066
-357.596	26.314	0.193	0.163
-356.581	180.809	-0.160	0.237
-355.566	64.763	0.091	0.092
-354.552	130.935	-0.069	0.089
-353.537	6.600	0.166	-0.124
-352.523	7.301	-0.041	0.031
-351.508	-200.000	-0.010	-0.053
-350.493	-136.222	-0.410	-0.048
-349.479	-91.560	0.344	-0.099
-348.464	-26.972	0.097	0.057
-347.450	-157.529	0.200	-0.012
-346.435	-54.328	0.177	0.081
-345.420	-200.000	-0.008	0.152
-344.406	800.000	-0.094	0.386
-343.391	-64.203	-0.084	-0.034
-342.377	-13.927	-0.368	-0.240
-341.362	40.445	-0.247	-0.224
-340.348	36.025	0.050	-0.044
-339.333	-106.305	0.119	0.027
-338.318	-25.959	0.229	-0.136
-337.304	-200.000	0.000	-0.039
-336.289	-181.992	0.346	-0.007
-335.275	800.000	0.121	-0.422
-334.260	-118.881	-0.150	-0.026
-333.245	507.089	0.150	0.350
-332.231	201.741	0.148	0.230
-331.216	800.000	-0.094	0.269
-330.202	-23.514	0.332	0.201
-329.187	-200.000	0.005	0.060
-328.172	-200.000	-0.009	0.280
-327.158	357.349	-0.028	-0.056
-326.143	800.000	-0.082	0.263
-325.129	592.357	0.047	-0.117
-324.114	-109.874	0.066	-0.014
-323.099	-200.000	-0.014	0.138
-322.085	135.079	-0.204	0.267
-321.070	19.891	0.070	0.057
-320.056	-65.486	-0.294	0.119
-319.041	-200.000	0.066	0.394
-318.026	800.000	0.016	-0.049
-317.012	29.606	0.092	-0.078
-315.997	83.610	-0.057	-0.063
-314.983	-178.142	-0.022	0.001
-313.968	-29.989	0.176	-0.101
-312.953	101.106	-0.175	-0.205
-311.939	-28.883	0.156	0.090
-310.924	60.738	-0.022	0.022
-309.910	512.126	-0.027	0.064
-308.895	800.000	-0.052	-0.179
-307.880	-122.743	0.123	-0.020
-306.866	52.968	0.085	0.082
-305.851	-200.000	-0.040	0.294
-304.837	-200.000	-0.014	-0.062
-303.822	-200.000	0.002	0.048
-302.807	800.000	0.129	-0.387
-301.793	-195.212	-0.205	-0.002
-300.778	41.814	0.228	0.208
-299.764	120.350	-0.214	-0.268
-298.749	118.959	-0.258	-0.320
-297.735	-91.502	-0.193	-0.055
-296.720	367.045	0.145	0.295
-295.705	-70.063	-0.079	0.030
-294.691	104.211	-0.039	-0.046
-293.676	-27.169	0.119	-0.069
-292.662	-170.567	-0.525	0.018
-291.647	36.053	0.019	-0.017
-290.632	800.000	0.052	0.207
-289.618	111.729	-0.016	-0.019
-288.603	-27.441	0.049	0.029
-287.589	-103.010	0.164	0.039
-286.574	-126.318	-0.197	0.030
-285.559	-200.000	-0.062	0.422
-284.545	101.858	-0.120	-0.140
-283.530	-52.046	0.249	-0.116
-282.516	74.657	-0.151	0.160
-281.501	800.000	-0.048	0.187
-280.486	-82.343	-0.286	0.094
-279.472	-188.310	0.111	-0.001
-278.457	-40.228	-0.065	0.034
-277.443	-200.000	-0.027	0.145
-276.428	-2.530	-0.187	-0.132
-275.413	607.920	-0.080	0.200
-274.399	112.722	-0.190	-0.232
-273.384	482.714	-0.003	0.007
-272.370	253.894	-0.209	0.360
-271.355	59.582	0.160	-0.158
-270.340	-83.470	-0.283	0.091
-269.326	130.620	-0.111	-0.142
-268.311	-138.447	-0.455	0.050
-267.297	-151.431	-0.156	0.012
-266.282	800.000	0.066	0.213
-265.267	407.152	-0.101	0.214
-264.253	118.322	0.103	-0.128
-263.238	260.431	0.143	0.248
-262.224	45.602	-0.137	-0.127
-261.209	800.000	-0.092	-0.386
-260.195	670.031	0.144	-0.374
-259.180	800.000	-0.153	-0.501
-258.165	17.580	0.156	0.124
-257.151	-153.414	-0.362	-0.025
-256.136	66.470	-0.155	0.158
-255.122	-68.418	-0.101	-0.040
-254.107	800.000	0.053	-0.173
-253.092	800.000	0.014	0.061
-252.078	-153.848	0.264	-0.018
-251.063	-200.000	0.005	-0.156
-250.049	64.723	0.215	0.218
-249.034	-105.103	-0.230	0.053
-248.019	57.885	-0.173	-0.170
-247.005	800.000	0.058	-0.197
-245.990	-67.057	-0.015	0.006
-244.976	49.998	0.145	0.137
-243.961	20.819	-0.137	-0.111
-242.946	-200.000	0.059	0.278
-241.932	-149.973	-0.200	-0.016
-240.917	461.922	0.102	-0.228
-239.903	196.835	0.047	0.072
-238.888	-137.902	0.441	0.049
-237.873	-134.536	-0.072	0.009
-236.859	-200.000	0.591	0.002
-235.844	-124.193	-0.165	-0.026
-234.830	800.000	-0.042	0.153
-233.815	-200.000	0.035	0.324
-232.800	800.000	0.043	0.121
-231.786	413.259	0.167	0.357
-230.771	619.630	-0.054	-0.136
-229.757	63.122	-0.045	-0.046
-228.742	-200.000	0.004	-0.249
-227.727	30.475	-0.198	0.170
-226.713	234.680	-0.118	0.195
-225.698	-99.654	-0.266	-0.067
-224.684	-107.107	-0.121	0.027
-223.669	609.121	0.034	0.085
-222.655	-200.000	-0.004	-0.034
-221.640	-44.617	-0.159	0.080
-220.625	449.908	-0.074	0.164
-219.611	-200.000	-0.025	0.128
-218.596	-166.543	-0.115	-0.005
-217.582	247.077	-0.103	0.175
-216.567	-136.301	0.159	0.019
-215.552	207.104	-0.140	0.219
-214.538	2.273	-0.112	0.081
-213.523	126.106	-0.056	0.071
-212.509	-129.415	-0.195	-0.027
-211.494	102.121	-0.206	0.241
-210.479	-115.168	-0.221	-0.042
-209.465	281.370	0.220	0.395
-208.450	29.583	0.111	-0.094
-207.436	473.561	-0.103	-0.233
-206.421	-46.590	-0.238	-0.117
-205.406	699.227	-0.091	-0.239
-204.392	-200.000	-0.060	-0.267
-203.377	-70.923	0.408	-0.154
-202.363	-13.075	-0.159	-0.104
-201.348	800.000	0.037	-0.145
-200.333	-200.000	-0.017	-0.190
-199.319	108.895	-0.250	-0.299
-198.304	-200.000	-0.070	-0.461
-197.290	470.331	-0.114	-0.258
-196.275	-77.223	-0.224	0.078
-195.260	800.000	-0.076	0.263
-194.246	558.199	0.056	-0.134
-193.231	-200.000	-0.025	0.112
-192.217	270.360	0.209	0.368
-191.202	-138.440	0.064	-0.007
-190.187	-162.028	-0.430	-0.022
-189.173	-113.573	-0.055	-0.011
-188.158	466.875	-0.155	0.348
-187.144	-8.958	0.160	-0.107
-186.129	-88.066	0.191	-0.057
-185.114	-61.544	0.283	0.119
-184.100	-90.933	-0.089	-0.026
-183.085	-82.100	0.040	0.013
-182.071	-200.000	0.014	-0.290
-181.056	58.865	0.128	-0.126
-180.042	755.682	-0.134	-0.364
-179.027	57.634	-0.205	-0.201
-178.012	-192.330	-0.258	-0.002
-176.998	350.841	-0.109	-0.215
-175.983	-55.334	-0.212	-0.095
-174.969	374.417	0.091	0.185
-173.954	-86.501	-0.275	-0.084
-172.939	-64.833	0.334	-0.135
-171.925	395.374	0.191	-0.399
-170.910	386.729	0.131	-0.270
-169.896	800.000	0.026	-0.095
-168.881	19.699	0.151	-0.121
-167.866	-200.000	-0.003	-0.136
-166.852	-200.000	-0.005	-0.212
-165.837	-200.000	-0.013	-0.467
-164.823	-127.785	-0.274	-0.040
-163.808	-53.071	0.247	-0.113
-162.793	-200.000	0.002	-0.070
-161.779	-173.470	-0.214	0.006
-160.764	-179.405	-0.347	0.008
-159.750	-200.000	0.027	0.138
-158.735	-57.634	0.071	0.031
-157.720	-200.000	-0.024	-0.178
-156.706	-69.968	-0.023	-0.009
-155.691	-91.725	-0.348	-0.099
-154.677	-200.000	0.047	0.239
-153.662	157.088	0.093	0.129
-152.647	-200.000	-0.003	0.114
-151.633	-141.898	-0.109	0.011
-150.618	-133.204	-0.432	-0.055
-149.604	-117.154	0.260	0.047
-148.589	168.196	-0.079	0.112
-147.574	-200.000	0.007	-0.033
-146.560	-174.405	0.477	0.014
-145.545	-90.117	0.144	0.042
-144.531	-58.488	-0.111	0.048
-143.516	343.010	-0.112	0.219
-142.502	21.761	-0.126	-0.102
-141.487	33.370	0.158	-0.137
-140.472	26.508	-0.058	0.049
-139.458	152.362	0.095	-0.130
-138.443	361.366	-0.029	0.058
-137.429	62.630	-0.194	0.194
-136.414	-200.000	-0.029	-0.135
-135.399	800.000	-0.051	-0.142
-134.385	-123.575	0.020	-0.003
-133.370	-4.122	-0.112	-0.077
-132.356	-136.185	0.323	-0.038
-131.341	310.410	-0.040	0.075
-130.326	241.263	-0.091	-0.151
-129.312	42.074	-0.165	0.149
-128.297	-90.525	-0.043	0.012
-127.283	800.000	-0.082	-0.287
-126.268	117.534	-0.222	0.273
-125.253	224.990	-0.172	-0.278
-124.239	-53.539	0.183	0.083
-123.224	330.393	0.045	0.086
-122.210	-56.886	0.433	-0.191
