DTS Sentinel unit serial number:	SN413079Multiplexer serial number:	ORYXHardware model number:	OX4-SRSoftware version number:	ORYX F/W v4.00 Oryx Data Collector v3.7.2.0data status	okinstallation	princeton_trtdifferential loss correction	single-endedforward channel	channel 3reverse channel	N/Adate	2019/09/15time	04:32:35forward acquisition time	60.00reverse acquisition time	0.00gamma	496.2192k internal	0.2324k external	0.2324temperature offset calibration	0.9971default loss term (dB/km)	0.3790temperature slope calibration	1.0000multiplexer offset coefficient	1.0000multiplexer slope coefficient	1.0000fibre end	0.00T internal ref (°C)	30.87T ext. ref 1 (°C)	4.68T ext. ref 2 (°C)	25.48length (m)	temperature (°C)	Stokes	anti-Stokes-747.200	-200.000	0.001	-0.190
-746.185	41.950	-0.346	0.317
-745.171	-52.388	-0.200	0.094
-744.156	800.000	-0.075	0.260
-743.142	38.399	-0.137	-0.123
-742.127	191.587	-0.175	0.267
-741.112	82.136	-0.174	0.191
-740.098	149.124	0.207	-0.283
-739.083	50.303	-0.042	0.040
-738.069	-200.000	0.041	0.312
-737.054	361.112	-0.061	-0.123
-736.039	-128.737	-0.259	-0.037
-735.025	385.194	0.122	0.253
-734.010	26.972	-0.204	0.172
-732.996	-28.594	-0.259	-0.151
-731.981	-200.000	0.025	-0.152
-730.966	-38.218	0.055	-0.030
-729.952	800.000	-0.045	-0.196
-728.937	-71.253	0.149	0.056
-727.923	-161.490	-0.164	-0.009
-726.908	-200.000	0.028	-0.227
-725.894	-200.000	0.012	0.064
-724.879	-200.000	-0.055	0.270
-723.864	-56.883	0.072	-0.032
-722.850	-87.023	0.316	0.097
-721.835	-51.003	-0.211	0.100
-720.821	800.000	-0.052	-0.178
-719.806	-142.298	-0.165	0.016
-718.791	-135.776	0.183	-0.022
-717.777	116.999	-0.157	0.194
-716.762	99.003	-0.248	0.289
-715.748	504.196	-0.101	-0.236
-714.733	-200.000	0.007	-0.421
-713.718	-200.000	0.036	0.262
-712.704	-200.000	0.034	0.158
-711.689	-108.816	-0.397	0.086
-710.675	34.585	-0.260	0.229
-709.660	153.029	0.224	0.309
-708.645	-100.008	0.058	-0.015
-707.631	-61.174	-0.271	-0.115
-706.616	-7.857	-0.206	0.140
-705.602	-15.900	-0.370	0.238
-704.587	-200.000	-0.019	0.179
-703.572	144.877	0.108	-0.146
-702.558	398.187	-0.102	0.215
-701.543	90.976	-0.315	0.356
-700.529	-1.609	-0.126	-0.090
-699.514	-108.857	0.375	-0.081
-698.499	197.310	-0.048	-0.073
-697.485	-200.000	0.010	0.210
-696.470	512.236	-0.035	-0.081
-695.456	800.000	0.047	0.182
-694.441	-103.470	0.197	-0.047
-693.426	132.393	-0.197	0.256
-692.412	-200.000	-0.059	0.362
-691.397	39.320	-0.230	-0.207
-690.383	-88.720	-0.208	0.062
-689.368	-200.000	0.030	0.297
-688.354	46.420	-0.106	-0.099
-687.339	598.148	-0.041	0.101
-686.324	57.320	-0.319	-0.314
-685.310	-9.148	0.015	0.010
-684.295	8.053	0.064	-0.049
-683.281	-32.821	-0.183	-0.102
-682.266	-183.093	-0.157	0.003
-681.251	-85.288	0.316	-0.099
-680.237	-200.000	-0.041	-0.274
-679.222	-130.848	-0.331	-0.045
-678.208	-68.473	0.044	0.017
-677.193	-17.401	-0.055	-0.035
-676.178	592.885	0.075	-0.186
-675.164	171.349	0.102	0.148
-674.149	-31.268	0.281	0.160
-673.135	-52.022	-0.337	-0.158
-672.120	162.586	-0.087	0.123
-671.105	245.153	0.276	-0.467
-670.091	-200.000	-0.000	-0.314
-669.076	-200.000	0.013	-0.164
-668.062	168.655	0.214	0.307
-667.047	-200.000	0.036	-0.195
-666.032	-200.000	-0.020	0.405
-665.018	800.000	0.071	0.211
-664.003	-69.011	0.120	0.047
-662.989	-200.000	0.030	0.135
-661.974	-66.169	0.280	0.112
-660.959	-109.155	0.147	0.031
-659.945	-200.000	-0.055	-0.454
-658.930	751.231	0.051	0.137
-657.916	-80.054	-0.151	0.051
-656.901	-104.775	-0.518	-0.120
-655.886	54.013	-0.099	-0.096
-654.872	-200.000	0.022	-0.318
-653.857	161.589	0.048	-0.068
-652.843	800.000	-0.087	-0.261
-651.828	355.043	0.136	0.273
-650.814	-180.019	0.316	0.007
-649.799	-200.000	-0.055	-0.374
-648.784	225.467	-0.044	-0.071
-647.770	212.389	-0.051	0.081
-646.755	-161.798	-0.268	0.014
-645.741	145.941	-0.292	0.394
-644.726	302.771	0.113	-0.210
-643.711	-9.028	-0.109	-0.073
-642.697	194.419	0.206	-0.314
-641.682	26.747	-0.231	-0.195
-640.668	-185.462	0.275	0.004
-639.653	800.000	0.048	0.158
-638.638	-114.505	-0.268	-0.052
-637.624	110.459	-0.060	0.072
-636.609	800.000	0.090	0.336
-635.595	478.006	0.148	0.336
-634.580	187.244	-0.186	-0.278
-633.565	-200.000	0.016	-0.077
-632.551	5.329	-0.410	-0.304
-631.536	-140.837	-0.054	0.006
-630.522	-200.000	0.030	-0.248
-629.507	-60.517	-0.155	-0.066
-628.492	358.552	0.194	0.389
-627.478	85.470	-0.105	-0.115
-626.463	800.000	-0.111	-0.395
-625.449	136.656	0.215	0.282
-624.434	-200.000	-0.015	-0.195
-623.419	-51.417	-0.267	0.126
-622.405	213.126	-0.088	0.140
-621.390	-200.000	-0.005	0.132
-620.376	261.122	-0.031	-0.054
-619.361	406.580	0.207	0.439
-618.346	800.000	-0.078	0.277
-617.332	800.000	0.031	-0.092
-616.317	-200.000	-0.000	-0.040
-615.303	-133.113	-0.190	0.024
-614.288	-4.477	-0.228	0.158
-613.273	-28.703	-0.228	0.132
-612.259	337.093	0.009	-0.018
-611.244	91.322	-0.118	-0.134
-610.230	-71.460	-0.229	-0.086
-609.215	209.690	0.228	0.359
-608.201	-200.000	-0.037	0.316
-607.186	-12.846	0.018	0.012
-606.171	-111.122	0.087	0.018
-605.157	-136.958	0.173	-0.020
-604.142	-200.000	0.011	0.167
-603.128	31.930	0.187	0.162
-602.113	-200.000	-0.068	0.311
-601.098	-28.579	0.233	0.135
-600.084	313.961	-0.122	-0.231
-599.069	-84.856	-0.414	0.130
-598.055	21.964	0.159	0.130
-597.040	21.250	-0.155	0.126
-596.025	-200.000	-0.011	0.286
-595.011	2.245	0.308	0.223
-593.996	-200.000	-0.023	0.167
-592.982	168.679	0.090	0.129
-591.967	800.000	0.040	-0.115
-590.952	-173.782	-0.224	-0.007
-589.938	-24.516	-0.095	-0.057
-588.923	-124.402	0.115	-0.018
-587.909	54.205	-0.073	-0.070
-586.894	42.478	-0.037	-0.034
-585.879	210.425	0.098	0.154
-584.865	-68.665	0.254	0.099
-583.850	-200.000	-0.005	-0.060
-582.836	-200.000	0.018	0.103
-581.821	287.858	-0.156	0.284
-580.806	-52.809	0.039	-0.018
-579.792	-200.000	0.059	0.474
-578.777	-137.840	0.027	-0.003
-577.763	-200.000	-0.008	-0.080
-576.748	119.817	0.171	-0.213
-575.733	-200.000	0.017	-0.338
-574.719	-95.309	0.189	-0.051
-573.704	800.000	0.096	-0.345
-572.690	-98.205	0.234	-0.060
-571.675	-79.271	-0.242	-0.082
-570.661	247.475	-0.144	-0.244
-569.646	-200.000	-0.033	0.168
-568.631	-47.370	-0.078	-0.038
-567.617	-200.000	0.015	0.130
-566.602	-128.663	-0.119	0.017
-565.588	99.782	0.331	0.384
-564.573	110.730	-0.074	-0.089
-563.558	800.000	0.015	-0.048
-562.544	-81.760	-0.309	0.101
-561.529	1.949	-0.324	0.234
-560.515	70.048	-0.194	-0.201
-559.500	-149.135	-0.206	0.017
-558.485	194.789	-0.044	-0.067
-557.471	74.723	0.197	0.208
-556.456	-200.000	0.047	0.208
-555.442	-112.697	0.186	-0.037
-554.427	16.765	-0.329	-0.261
-553.412	319.496	-0.111	-0.211
-552.398	-200.000	0.022	-0.249
-551.383	800.000	0.076	0.230
-550.369	800.000	0.058	-0.220
-549.354	171.835	0.087	-0.126
-548.339	-133.535	-0.103	0.013
-547.325	800.000	-0.044	0.159
-546.310	215.241	-0.213	0.338
-545.296	-103.400	0.100	-0.024
-544.281	403.646	-0.189	-0.398
-543.266	800.000	0.022	0.068
-542.252	726.602	-0.079	0.210
-541.237	-50.700	-0.330	0.155
-540.223	-200.000	0.246	0.001
-539.208	-64.840	-0.138	-0.056
-538.193	-200.000	-0.019	0.096
-537.179	-55.071	0.047	-0.021
-536.164	412.152	0.093	-0.198
-535.150	92.274	0.183	-0.207
-534.135	800.000	-0.094	-0.282
-533.121	63.272	-0.049	0.049
-532.106	-200.000	0.021	0.103
-531.091	75.910	-0.265	0.281
-530.077	800.000	0.045	-0.174
-529.062	-23.559	-0.202	-0.121
-528.048	-119.413	-0.376	0.065
-527.033	330.867	0.090	-0.173
-526.018	-200.000	-0.033	0.162
-525.004	-147.089	0.129	-0.011
-523.989	127.594	0.093	0.119
-522.975	41.049	-0.241	-0.218
-521.960	-59.346	0.109	-0.047
-520.945	261.580	-0.034	0.059
-519.931	-200.000	-0.028	-0.267
-518.916	-122.957	0.162	0.026
-517.902	800.000	-0.098	0.288
-516.887	-182.489	-0.245	-0.005
-515.872	-165.972	-0.225	0.010
-514.858	-200.000	-0.010	-0.174
-513.843	273.815	0.150	0.266
-512.829	-200.000	-0.012	-0.190
-511.814	-64.099	-0.085	-0.035
-510.799	65.516	-0.073	0.073
-509.785	-134.897	0.099	0.012
-508.770	800.000	0.013	-0.055
-507.756	-89.695	-0.312	0.091
-506.741	36.202	0.165	-0.146
-505.726	-150.199	-0.186	-0.014
-504.712	-115.932	-0.457	0.085
-503.697	800.000	0.046	-0.181
-502.683	-200.000	-0.171	0.000
-501.668	230.102	0.154	-0.252
-500.653	50.895	-0.189	0.179
-499.639	-171.111	0.043	0.001
-498.624	40.216	-0.068	-0.061
-497.610	-95.415	-0.360	0.097
-496.595	-147.530	0.351	-0.030
-495.581	-140.014	-0.165	-0.017
-494.566	-42.011	0.294	0.151
-493.551	-200.000	-0.025	0.173
-492.537	-5.501	0.216	-0.149
-491.522	12.191	0.373	-0.287
-490.508	-17.409	0.042	0.026
-489.493	-155.630	-0.152	0.010
-488.478	-120.826	-0.382	0.064
-487.464	-189.359	-0.216	-0.003
-486.449	392.125	-0.096	-0.199
-485.435	632.669	0.149	-0.377
-484.420	-200.000	0.024	0.204
-483.405	800.000	0.060	-0.220
-482.391	121.290	0.168	-0.210
-481.376	165.730	0.120	0.169
-480.362	-63.016	0.107	0.044
-479.347	-129.236	-0.370	0.052
-478.332	-200.000	0.031	0.469
-477.318	-140.427	0.248	-0.026
-476.303	-200.000	0.015	-0.149
-475.289	4.216	-0.141	0.103
-474.274	271.522	-0.196	0.345
-473.259	184.313	0.042	0.062
-472.245	-182.792	0.135	-0.002
-471.230	-200.000	0.019	0.264
-470.216	12.497	0.125	-0.096
-469.201	-200.000	-0.016	0.367
-468.186	50.808	0.047	-0.045
-467.172	-105.810	0.147	-0.033
-466.157	-58.851	-0.291	0.126
-465.143	-125.962	-0.232	0.035
-464.128	-86.118	-0.202	-0.062
-463.113	-73.552	0.081	0.029
-462.099	800.000	0.040	0.133
-461.084	228.945	0.020	0.033
-460.070	-200.000	-0.010	0.157
-459.055	91.007	0.156	0.174
-458.040	-200.000	-0.019	-0.223
-457.026	-200.000	-0.092	-0.487
-456.011	-129.251	-0.248	-0.034
-454.997	-127.622	0.027	0.004
-453.982	-200.000	-0.031	-0.220
-452.968	102.969	0.039	-0.045
-451.953	-10.108	-0.154	-0.102
-450.938	-200.000	0.001	0.171
-449.924	-92.959	0.372	0.104
-448.909	610.615	0.074	0.185
-447.895	-167.474	-0.187	-0.007
-446.880	-200.000	0.015	0.193
-445.865	511.336	0.074	0.171
-444.851	28.017	-0.089	-0.075
-443.836	-36.588	-0.129	-0.069
-442.822	800.000	-0.099	-0.340
-441.807	200.758	-0.162	0.249
-440.792	-40.979	-0.310	0.160
-439.778	-200.000	0.027	-0.232
-438.763	76.803	-0.098	0.104
-437.749	32.671	0.330	-0.285
-436.734	187.639	0.163	-0.242
-435.719	-200.000	0.259	0.001
-434.705	-10.576	-0.231	0.152
-433.690	800.000	-0.037	-0.116
-432.676	312.828	-0.201	0.377
-431.661	50.405	0.239	0.226
-430.646	-200.000	-0.023	0.292
-429.632	-138.774	-0.356	0.039
-428.617	-124.932	0.200	-0.031
-427.603	77.047	-0.120	-0.127
-426.588	136.965	0.088	-0.115
-425.573	122.880	-0.159	0.199
-424.559	9.986	0.409	-0.310
-423.544	60.916	0.360	-0.356
-422.530	118.426	-0.025	-0.030
-421.515	-200.000	-0.023	0.219
-420.500	-161.801	0.298	0.015
-419.486	-81.363	0.084	0.028
-418.471	-108.111	-0.109	-0.023
-417.457	-117.697	-0.135	0.024
-416.442	-56.802	0.230	0.102
-415.428	-15.337	-0.116	0.074
-414.413	-116.871	0.193	0.035
-413.398	-107.942	0.450	-0.098
-412.384	248.425	0.164	-0.276
-411.369	65.709	0.118	-0.120
-410.355	-200.000	0.022	-0.219
-409.340	1.790	0.085	0.061
-408.325	254.820	-0.068	-0.116
-407.311	-15.321	-0.171	-0.109
-406.296	23.143	-0.254	-0.208
-405.282	-61.135	0.235	0.099
-404.267	563.569	0.024	0.059
-403.252	15.831	-0.093	0.073
-402.238	553.916	0.060	-0.144
-401.223	-127.043	-0.142	0.021
-400.209	211.349	0.182	0.285
-399.194	-124.668	-0.247	0.038
-398.179	-76.672	-0.210	-0.073
-397.165	-65.180	-0.180	0.072
-396.150	-133.898	-0.184	-0.023
-395.136	-60.637	-0.183	-0.077
-394.121	168.263	0.099	0.140
-393.106	253.281	0.126	0.213
-392.092	-134.825	0.123	-0.015
-391.077	267.332	-0.105	-0.182
-390.063	800.000	-0.039	0.158
-389.048	513.219	0.170	0.395
-388.033	15.635	-0.271	0.212
-387.019	-42.218	-0.200	0.102
-386.004	-50.209	-0.102	-0.048
-384.990	-200.000	0.039	-0.313
-383.975	800.000	-0.088	0.292
-382.960	-200.000	-0.001	0.239
-381.946	-111.315	-0.097	-0.020
-380.931	-45.321	0.282	-0.139
-379.917	-149.834	0.282	-0.022
-378.902	-135.695	0.497	0.059
-377.888	-160.680	-0.351	-0.019
-376.873	-200.000	0.001	0.363
-375.858	64.566	0.125	0.126
-374.844	410.492	-0.054	-0.113
-373.829	199.036	-0.079	0.120
-372.815	-21.960	0.307	-0.186
-371.800	-147.577	0.135	-0.011
-370.785	765.303	0.089	0.242
-369.771	-200.000	0.008	0.376
-368.756	-168.348	0.261	-0.010
-367.742	-95.800	0.143	0.038
-366.727	-103.881	0.076	-0.018
-365.712	-200.000	-0.023	-0.233
-364.698	13.760	-0.197	-0.153
-363.683	194.948	-0.100	-0.152
-362.669	79.300	0.357	-0.381
-361.654	800.000	-0.032	-0.112
-360.639	-26.380	-0.185	-0.108
-359.625	127.346	0.153	0.193
-358.610	-200.000	0.022	-0.151
-357.596	237.868	-0.036	0.059
-356.581	-7.193	0.248	-0.167
-355.566	-139.662	-0.245	-0.026
-354.552	85.598	-0.021	-0.023
-353.537	-47.911	-0.268	-0.129
-352.523	206.025	0.017	0.027
-351.508	194.759	0.177	0.266
-350.493	-200.000	-0.045	0.200
-349.479	-64.456	0.074	0.030
-348.464	169.889	-0.104	0.148
-347.450	255.436	-0.051	0.087
-346.435	-107.525	-0.533	0.116
-345.420	-9.177	0.270	0.179
-344.406	300.172	-0.241	-0.443
-343.391	-200.000	-0.017	0.192
-342.377	-174.464	0.231	-0.007
-341.362	-120.436	-0.295	0.050
-340.348	-131.212	-0.133	-0.018
-339.333	-6.834	-0.190	-0.128
-338.318	39.297	-0.108	0.096
-337.304	17.676	-0.212	-0.168
-336.289	-148.461	-0.017	-0.001
-335.275	99.890	-0.035	0.041
-334.260	-34.681	0.344	0.187
-333.245	145.599	0.167	0.222
-332.231	54.015	-0.245	-0.234
-331.216	-200.000	0.015	-0.293
-330.202	-101.099	-0.186	-0.045
-329.187	-97.947	0.314	-0.081
-328.172	-51.782	0.248	-0.115
-327.158	286.286	0.055	0.098
-326.143	800.000	0.050	0.212
-325.129	-41.785	0.201	-0.103
-324.114	57.072	0.142	-0.138
-323.099	-200.000	0.033	-0.322
-322.085	278.414	-0.127	-0.225
-321.070	-200.000	-0.087	0.436
-320.056	146.255	0.148	-0.197
-319.041	190.564	0.130	0.194
-318.026	-200.000	0.025	-0.195
-317.012	172.944	-0.168	-0.240
-315.997	172.975	-0.271	-0.387
-314.983	-8.261	0.311	-0.208
-313.968	61.122	0.013	-0.013
-312.953	14.049	-0.437	0.338
-311.939	-173.933	-0.230	-0.007
-310.924	-13.996	0.130	0.083
-309.910	-62.616	0.209	0.086
-308.895	168.240	0.081	-0.115
-307.880	-157.229	0.413	0.025
-306.866	400.450	0.154	-0.320
-305.851	-200.000	0.044	0.209
-304.837	391.519	0.024	-0.050
-303.822	-200.000	-0.037	0.272
-302.807	504.039	0.069	-0.157
-301.793	800.000	0.018	0.057
-300.778	-200.000	-0.012	-0.332
-299.764	-200.000	0.020	0.124
-298.749	186.447	-0.086	0.128
-297.735	-13.716	-0.129	-0.083
-296.720	-64.395	-0.190	0.077
-295.705	-78.918	-0.158	0.053
-294.691	137.333	0.112	0.145
-293.676	55.146	-0.165	0.158
-292.662	-60.519	0.032	0.014
-291.647	-48.434	-0.137	0.065
-290.632	-94.022	0.107	0.029
-289.618	174.153	0.220	-0.315
-288.603	-151.270	-0.030	0.002
-287.589	34.121	-0.107	-0.092
-286.574	-200.000	-0.016	-0.396
-285.559	-116.008	0.249	0.046
-284.545	-200.000	0.007	-0.274
-283.530	371.077	-0.157	0.317
-282.516	-200.000	0.006	0.112
-281.501	-6.075	0.171	0.116
-280.486	-103.311	0.356	0.083
-279.472	-55.427	-0.226	-0.100
-278.457	-64.214	-0.288	0.117
-277.443	54.727	0.194	0.186
-276.428	9.787	0.362	-0.272
-275.413	-121.807	0.012	0.002
-274.399	39.411	-0.102	0.090
-273.384	90.513	0.060	-0.067
-272.370	221.137	0.092	-0.146
-271.355	-200.000	-0.036	-0.305
-270.340	66.164	-0.199	-0.200
-269.326	-200.000	0.001	-0.174
-268.311	800.000	-0.047	0.172
-267.297	-44.501	-0.263	-0.131
-266.282	800.000	0.098	-0.310
-265.267	800.000	0.055	-0.186
-264.253	-200.000	0.025	-0.177
-263.238	228.243	-0.151	-0.244
-262.224	216.235	0.046	-0.073
-261.209	-200.000	0.014	0.223
-260.195	23.123	-0.155	-0.126
-259.180	70.827	-0.110	-0.113
-258.165	-200.000	0.053	0.265
-257.151	-200.000	0.051	-0.380
-256.136	-63.794	-0.287	-0.117
-255.122	800.000	-0.019	-0.062
-254.107	-92.986	0.270	-0.075
-253.092	-112.721	0.165	-0.032
-252.078	-169.537	0.188	0.007
-251.063	768.345	0.060	0.161
-250.049	29.911	-0.149	-0.126
-249.034	-64.789	-0.297	-0.119
-248.019	422.760	0.070	0.149
-247.005	228.183	-0.067	0.109
-245.990	-189.961	0.185	0.002
-244.976	-194.072	-0.119	0.001
-243.961	800.000	-0.047	-0.154
-242.946	-200.000	-0.002	0.186
-241.932	800.000	-0.048	0.140
-240.917	187.454	-0.126	-0.186
-239.903	-74.852	-0.219	0.078
-238.888	-200.000	0.031	0.177
-237.873	800.000	-0.089	-0.337
-236.859	-200.000	0.039	-0.182
-235.844	310.644	0.079	0.147
-234.830	-63.701	0.229	0.093
-233.815	-200.000	-0.030	-0.269
-232.800	75.166	0.259	0.271
-231.786	710.999	0.061	0.160
-230.771	-46.178	0.447	-0.218
-229.757	-63.743	0.224	0.091
-228.742	-103.137	0.311	-0.073
-227.727	-68.950	-0.224	0.085
-226.713	791.968	0.101	0.275
-225.698	70.420	0.273	0.279
-224.684	800.000	0.078	-0.254
-223.669	92.236	-0.045	0.050
-222.655	7.067	-0.142	-0.105
-221.640	-86.063	0.340	0.104
-220.625	-117.145	-0.210	0.038
-219.611	15.047	-0.093	0.072
-218.596	-200.000	0.034	-0.304
-217.582	47.874	0.235	-0.217
-216.567	-82.318	0.266	0.085
-215.552	-86.801	0.426	-0.129
-214.538	12.810	-0.092	0.071
-213.523	32.874	0.217	0.186
-212.509	291.631	-0.024	-0.043
-211.494	215.589	-0.264	-0.415
-210.479	800.000	0.040	-0.152
-209.465	-77.486	-0.099	-0.034
-208.450	-73.791	0.222	-0.080
-207.436	261.657	-0.173	-0.296
-206.421	-200.000	0.019	-0.093
-205.406	98.898	0.240	-0.274
-204.392	-200.000	-0.035	0.200
-203.377	-200.000	-0.050	-0.228
-202.363	-170.110	0.040	-0.001
-201.348	-200.000	0.045	-0.217
-200.333	29.150	-0.221	-0.185
-199.319	800.000	0.073	0.298
-198.304	800.000	-0.011	0.037
-197.290	-116.030	0.412	-0.076
-196.275	-144.152	0.501	0.046
-195.260	416.953	-0.082	-0.172
-194.246	-168.887	0.126	0.005
-193.231	-200.000	0.023	0.138
-192.217	105.146	0.193	0.226
-191.202	123.117	0.170	0.211
-190.187	-48.986	-0.255	0.121
-189.173	-146.182	-0.048	0.004
-188.158	54.267	-0.314	0.298
-187.144	-133.630	-0.122	0.015
-186.129	110.604	-0.133	-0.158
-185.114	-118.841	-0.273	0.047
-184.100	-85.896	0.203	-0.062
-183.085	-183.597	0.036	-0.001
-182.071	530.411	0.052	0.121
-181.056	-200.000	-0.023	0.309
-180.042	2.072	0.211	0.150
-179.027	-29.254	0.370	0.209
-178.012	205.079	0.098	0.151
-176.998	-2.643	-0.087	0.060
-175.983	-14.344	0.203	0.129
-174.969	61.574	0.008	-0.008
-173.954	175.928	-0.029	0.041
-172.939	-33.400	0.375	-0.205
-171.925	-109.328	-0.026	-0.005
-170.910	-89.269	-0.267	0.078
-169.896	37.589	0.082	-0.072
-168.881	197.902	-0.092	-0.138
-167.866	139.806	-0.157	-0.204
-166.852	-66.652	-0.207	0.081
-165.837	-155.121	-0.130	-0.008
-164.823	330.419	0.104	0.197
-163.808	5.081	0.323	0.234
-162.793	-22.105	0.194	0.116
-161.779	62.930	-0.143	0.142
-160.764	800.000	0.078	-0.258
-159.750	-66.009	-0.174	-0.069
-158.735	-30.346	-0.084	-0.047
-157.720	-100.602	-0.036	0.009
-156.706	-61.557	0.344	-0.143
-155.691	-50.152	0.155	-0.072
-154.677	-172.591	0.048	-0.001
-153.662	19.749	0.150	-0.119
-152.647	70.746	-0.239	-0.244
-151.633	437.655	-0.092	0.197
-150.618	56.558	0.262	0.251
-149.604	-133.353	-0.131	-0.016
-148.589	-200.000	0.007	-0.059
-147.574	74.752	0.054	0.056
-146.560	-115.832	-0.210	-0.039
-145.545	639.251	-0.064	-0.161
-144.531	713.323	0.055	0.143
-143.516	-200.000	-0.023	-0.211
-142.502	122.267	0.166	-0.205
-141.487	-196.149	0.033	0.000
-140.472	47.408	0.232	-0.213
-139.458	8.885	0.024	0.018
-138.443	-94.572	-0.068	0.018
-137.429	91.162	0.108	-0.120
-136.414	313.502	-0.103	0.190
-135.399	729.095	0.128	0.337
-134.385	136.728	-0.028	0.036
-133.370	395.290	0.204	-0.419
-132.356	-106.061	-0.223	-0.049
-131.341	-66.289	0.151	-0.059
-130.326	-200.000	0.024	0.505
-129.312	487.210	-0.101	0.228
-128.297	-170.366	0.245	-0.008
-127.283	800.000	0.071	-0.301
-126.268	6.366	-0.099	0.073
-125.253	-70.547	-0.219	0.082
-124.239	125.956	-0.195	-0.242
-123.224	361.191	-0.065	-0.129
-122.210	-118.412	-0.182	-0.032
