DTS Sentinel unit serial number:	SN413079Multiplexer serial number:	ORYXHardware model number:	OX4-SRSoftware version number:	ORYX F/W v4.00 Oryx Data Collector v3.7.2.0data status	okinstallation	princeton_trtdifferential loss correction	single-endedforward channel	channel 3reverse channel	N/Adate	2019/09/18time	18:20:34forward acquisition time	60.00reverse acquisition time	0.00gamma	496.2192k internal	0.2293k external	0.2293temperature offset calibration	0.9993default loss term (dB/km)	0.3790temperature slope calibration	1.0000multiplexer offset coefficient	1.0000multiplexer slope coefficient	1.0000fibre end	0.00T internal ref (°C)	38.75T ext. ref 1 (°C)	0.92T ext. ref 2 (°C)	31.91length (m)	temperature (°C)	Stokes	anti-Stokes-747.200	446.345	0.193	-0.435
-746.185	-200.000	-0.017	0.168
-745.171	28.812	0.138	0.119
-744.156	266.636	-0.046	0.083
-743.142	240.867	-0.126	-0.215
-742.127	20.740	0.166	0.137
-741.112	-200.000	-0.010	0.081
-740.098	-27.115	-0.546	0.326
-739.083	800.000	-0.059	-0.196
-738.069	112.173	-0.166	-0.206
-737.054	-35.541	-0.097	0.054
-736.039	800.000	-0.021	0.078
-735.025	-31.780	-0.293	0.168
-734.010	-117.627	-0.189	-0.035
-732.996	119.280	-0.121	0.154
-731.981	540.557	-0.049	-0.119
-730.966	139.295	-0.266	-0.358
-729.952	-33.297	-0.139	-0.079
-728.937	105.932	0.211	-0.256
-727.923	-74.135	-0.215	-0.079
-726.908	530.028	0.090	0.217
-725.894	380.567	-0.090	0.189
-724.879	-200.000	0.002	0.049
-723.864	800.000	-0.052	0.154
-722.850	-44.011	-0.253	-0.130
-721.835	-107.370	0.103	-0.023
-720.821	-118.168	0.035	0.006
-719.806	343.563	-0.033	-0.067
-718.791	5.453	0.231	0.174
-717.777	59.276	-0.189	0.190
-716.762	-200.000	0.021	0.221
-715.748	12.316	-0.195	-0.153
-714.733	-87.648	0.146	0.045
-713.718	-39.318	-0.081	-0.043
-712.704	-76.599	-0.124	0.045
-711.689	-200.000	0.049	-0.264
-710.675	648.117	0.062	-0.163
-709.660	-74.421	0.159	0.059
-708.645	-21.507	-0.172	-0.107
-707.631	161.339	0.270	-0.386
-706.616	-85.336	0.113	0.036
-705.602	-133.490	-0.075	-0.010
-704.587	800.000	0.051	-0.170
-703.572	389.831	0.041	0.087
-702.558	800.000	-0.017	-0.051
-701.543	-90.691	0.038	-0.011
-700.529	-88.599	0.229	-0.070
-699.514	-132.209	-0.357	0.047
-698.499	121.345	-0.152	-0.193
-697.485	28.803	-0.120	-0.104
-696.470	-149.329	0.135	-0.011
-695.456	158.363	-0.143	-0.202
-694.441	319.941	0.119	-0.231
-693.426	-67.080	-0.276	-0.111
-692.412	-84.915	-0.168	0.054
-691.397	-55.748	0.298	-0.136
-690.383	-40.347	0.118	-0.062
-689.368	-200.000	-0.003	-0.154
-688.354	-200.000	0.057	-0.255
-687.339	-200.000	0.038	0.287
-686.324	-200.000	0.032	-0.210
-685.310	361.047	-0.079	0.161
-684.295	182.971	-0.109	0.165
-683.281	-200.000	0.056	0.416
-682.266	797.978	-0.026	0.072
-681.251	-200.000	-0.008	0.086
-680.237	-200.000	-0.051	-0.235
-679.222	-200.000	0.016	-0.090
-678.208	-142.605	0.195	0.019
-677.193	41.700	0.293	0.271
-676.178	99.883	0.179	-0.212
-675.164	-200.000	-0.021	-0.245
-674.149	166.774	0.176	-0.255
-673.135	800.000	0.071	-0.249
-672.120	-200.000	-0.057	-0.264
-671.105	-155.532	-0.017	-0.001
-670.091	470.406	-0.136	0.312
-669.076	-200.000	0.009	-0.152
-668.062	159.520	0.289	-0.410
-667.047	-6.419	0.200	0.139
-666.032	-78.111	-0.144	-0.051
-665.018	-200.000	-0.052	-0.298
-664.003	-5.334	-0.245	-0.172
-662.989	-200.000	-0.002	-0.257
-661.974	1.261	0.173	0.127
-660.959	-117.196	-0.054	-0.010
-659.945	114.793	-0.197	-0.245
-658.930	-200.000	-0.010	0.465
-657.916	117.484	-0.216	-0.271
-656.901	40.116	-0.280	0.257
-655.886	-6.740	0.259	-0.179
-654.872	228.372	0.134	-0.223
-653.857	91.621	-0.306	-0.350
-652.843	212.928	0.064	-0.103
-651.828	19.228	-0.227	-0.186
-650.814	-125.951	-0.153	-0.024
-649.799	-200.000	-0.003	-0.014
-648.784	-200.000	0.022	0.396
-647.770	246.278	0.128	0.219
-646.755	295.431	-0.035	-0.065
-645.741	426.262	0.070	-0.154
-644.726	230.279	0.152	-0.254
-643.711	80.172	0.179	-0.196
-642.697	66.505	-0.212	0.219
-641.682	207.826	-0.106	0.168
-640.668	-88.532	0.056	-0.017
-639.653	-150.048	-0.232	-0.018
-638.638	165.198	-0.113	-0.162
-637.624	-100.798	-0.286	-0.072
-636.609	-200.000	-0.046	-0.259
-635.595	-89.071	0.348	-0.105
-634.580	-108.882	-0.181	-0.039
-633.565	-148.185	0.388	0.033
-632.551	800.000	0.042	-0.171
-631.536	123.426	0.248	-0.317
-630.522	26.840	-0.281	0.240
-629.507	-69.298	-0.393	0.154
-628.492	800.000	0.046	0.176
-627.478	99.989	0.188	-0.222
-626.463	-15.186	-0.113	0.074
-625.449	-84.498	-0.283	0.091
-624.434	-200.000	-0.003	-0.170
-623.419	-200.000	0.016	-0.330
-622.405	28.986	-0.053	-0.046
-621.390	599.143	0.163	-0.411
-620.376	-102.620	-0.340	-0.083
-619.361	-200.000	0.016	-0.159
-618.346	-10.647	-0.143	0.096
-617.332	800.000	0.036	0.149
-616.317	-48.304	-0.299	0.147
-615.303	800.000	-0.064	-0.194
-614.288	171.713	-0.137	-0.200
-613.273	207.175	-0.176	-0.280
-612.259	-200.000	-0.009	0.040
-611.244	-42.951	-0.150	-0.078
-610.230	-42.116	0.080	-0.042
-609.215	-133.988	0.117	-0.015
-608.201	753.534	-0.121	-0.334
-607.186	-76.900	0.103	0.037
-606.171	8.209	0.207	-0.158
-605.157	76.956	0.058	0.062
-604.142	-121.458	0.367	0.062
-603.128	-77.042	-0.327	0.116
-602.113	-50.607	-0.322	0.154
-601.098	766.269	0.075	0.207
-600.084	278.335	-0.181	0.327
-599.069	800.000	-0.053	-0.231
-598.055	119.649	0.071	0.089
-597.040	434.451	-0.168	-0.370
-596.025	304.877	-0.239	-0.452
-595.011	-200.000	0.026	0.309
-593.996	35.188	-0.198	-0.176
-592.982	-200.000	-0.000	0.422
-591.967	-200.000	-0.007	-0.344
-590.952	-55.106	0.196	0.089
-589.938	-200.000	0.014	-0.110
-588.923	-32.558	0.126	-0.071
-587.909	48.170	-0.206	-0.196
-586.894	-5.967	-0.083	0.058
-585.879	56.431	0.206	0.204
-584.865	-105.791	0.366	-0.084
-583.850	18.020	-0.208	-0.169
-582.836	800.000	-0.062	-0.271
-581.821	172.042	-0.083	-0.121
-580.806	128.758	0.055	0.072
-579.792	-28.020	-0.185	-0.109
-578.777	171.288	0.121	0.177
-577.763	205.338	-0.054	-0.086
-576.748	491.337	-0.096	-0.224
-575.733	-97.249	-0.478	-0.127
-574.719	-172.334	-0.211	0.007
-573.704	-25.962	-0.144	0.086
-572.690	-54.010	-0.195	-0.090
-571.675	-169.473	-0.153	-0.006
-570.661	59.261	0.072	0.072
-569.646	-51.316	-0.032	-0.015
-568.631	-200.000	-0.034	-0.232
-567.617	199.109	0.185	0.288
-566.602	-200.000	-0.001	0.162
-565.588	27.491	0.121	0.104
-564.573	164.144	-0.089	-0.127
-563.558	-142.018	-0.325	-0.033
-562.544	272.631	0.262	-0.469
-561.529	-200.000	0.035	0.163
-560.515	76.765	0.065	-0.070
-559.500	800.000	0.112	-0.399
-558.485	124.143	-0.055	-0.070
-557.471	276.985	0.049	-0.088
-556.456	-90.095	-0.106	0.031
-555.442	-200.000	-0.003	-0.019
-554.427	206.014	-0.115	-0.181
-553.412	-66.357	0.131	0.053
-552.398	-32.201	0.263	0.149
-551.383	50.526	0.177	-0.170
-550.369	4.540	0.315	-0.235
-549.354	247.293	0.267	0.459
-548.339	-7.082	0.097	-0.067
-547.325	47.700	-0.048	-0.045
-546.310	-8.313	-0.215	0.147
-545.296	-9.951	-0.165	0.112
-544.281	-159.935	-0.040	-0.002
-543.266	-200.000	-0.046	-0.386
-542.252	800.000	0.033	-0.094
-541.237	266.821	0.293	-0.519
-540.223	-92.440	-0.166	0.047
-539.208	5.802	-0.268	0.201
-538.193	-99.161	-0.234	-0.060
-537.179	187.783	0.107	-0.162
-536.164	107.689	0.210	0.253
-535.150	143.930	0.208	0.281
-534.135	-124.761	0.276	-0.043
-533.121	305.467	0.140	0.264
-532.106	-51.501	0.206	0.098
-531.091	-128.683	-0.096	0.014
-530.077	800.000	-0.031	0.115
-529.062	48.261	0.126	0.119
-528.048	-200.000	0.007	-0.082
-527.033	-29.963	-0.256	-0.148
-526.018	-108.982	-0.256	-0.055
-525.004	141.212	-0.263	0.352
-523.989	800.000	0.076	0.267
-522.975	691.353	-0.058	-0.153
-521.960	58.586	-0.217	-0.216
-520.945	-73.189	-0.151	0.056
-519.931	218.206	0.123	0.199
-518.916	800.000	0.086	0.294
-517.902	14.026	0.141	0.111
-516.887	800.000	-0.080	0.270
-515.872	-15.928	0.175	-0.113
-514.858	-200.000	0.011	0.172
-513.843	-200.000	-0.051	-0.276
-512.829	50.600	-0.171	-0.164
-511.814	-154.116	0.138	-0.009
-510.799	-159.553	0.104	0.006
-509.785	432.002	0.067	0.148
-508.770	-25.852	-0.115	0.069
-507.756	154.347	0.163	0.227
-506.741	800.000	-0.072	-0.234
-505.726	-162.109	0.387	-0.020
-504.712	-21.756	0.218	-0.134
-503.697	-200.000	0.041	0.187
-502.683	-11.739	0.053	0.035
-501.668	30.201	0.166	0.143
-500.653	-200.000	0.055	0.341
-499.639	-73.685	0.104	-0.038
-498.624	128.897	0.237	0.306
-497.610	-2.549	-0.219	0.155
-496.595	800.000	-0.029	0.118
-495.581	400.170	0.030	-0.064
-494.566	-169.011	0.371	0.014
-493.551	-200.000	0.009	-0.155
-492.537	113.295	0.145	-0.178
-491.522	-115.790	-0.099	-0.019
-490.508	800.000	0.010	-0.037
-489.493	173.534	-0.228	0.334
-488.478	800.000	0.132	-0.449
-487.464	800.000	-0.043	-0.184
-486.449	-102.076	0.261	-0.064
-485.435	110.320	0.079	-0.096
-484.420	43.432	-0.414	-0.383
-483.405	-18.207	-0.179	0.113
-482.391	-70.088	-0.268	0.103
-481.376	-200.000	-0.014	0.185
-480.362	142.265	0.030	0.041
-479.347	70.529	0.108	0.113
-478.332	40.807	-0.193	-0.176
-477.318	-118.371	-0.140	0.025
-476.303	-132.346	0.063	-0.008
-475.289	-78.825	-0.052	-0.018
-474.274	-91.751	0.392	-0.113
-473.259	48.797	-0.100	0.095
-472.245	-63.893	0.054	-0.022
-471.230	-17.340	-0.301	-0.192
-470.216	-48.022	0.236	-0.115
-469.201	-87.714	0.050	-0.015
-468.186	-200.000	-0.017	0.171
-467.172	-106.090	0.104	0.024
-466.157	87.443	0.247	-0.277
-465.143	443.905	0.099	-0.219
-464.128	14.682	-0.217	-0.172
-463.113	472.199	-0.138	0.314
-462.099	800.000	0.079	0.226
-461.084	-82.860	-0.372	-0.122
-460.070	-200.000	0.066	0.432
-459.055	-143.213	-0.203	-0.020
-458.040	-200.000	0.017	0.101
-457.026	-125.151	-0.211	-0.033
-456.011	174.687	0.150	0.220
-454.997	221.876	-0.089	0.145
-453.982	99.443	-0.060	0.070
-452.968	-136.534	-0.422	-0.050
-451.953	201.338	0.202	0.315
-450.938	800.000	-0.025	-0.085
-449.924	177.487	0.119	0.175
-448.909	-151.665	0.227	0.017
-447.895	38.388	0.261	0.235
-446.880	594.693	-0.121	-0.302
-445.865	800.000	-0.060	0.196
-444.851	-97.208	-0.137	0.036
-443.836	-29.580	0.216	-0.125
-442.822	527.635	-0.114	0.272
-441.807	302.276	0.040	-0.075
-440.792	-95.097	-0.274	-0.075
-439.778	24.992	0.333	-0.279
-438.763	-43.625	0.059	-0.030
-437.749	300.455	-0.071	0.133
-436.734	142.107	0.094	0.126
-435.719	-124.048	-0.262	-0.042
-434.705	154.334	-0.169	-0.234
-433.690	-5.397	0.041	0.028
-432.676	-200.000	-0.001	0.041
-431.661	-54.875	0.195	-0.089
-430.646	71.505	-0.149	-0.157
-429.632	-157.384	0.101	-0.006
-428.617	-53.010	0.266	-0.123
-427.603	8.496	0.103	0.078
-426.588	45.518	-0.274	0.256
-425.573	236.726	-0.064	0.108
-424.559	-93.728	0.158	-0.044
-423.544	-68.722	0.216	-0.084
-422.530	-50.525	-0.229	-0.109
-421.515	775.256	0.053	0.145
-420.500	189.481	0.063	-0.095
-419.486	-54.584	-0.209	-0.095
-418.471	-200.000	0.037	-0.186
-417.457	703.283	-0.058	0.155
-416.442	-125.209	-0.216	-0.033
-415.428	-119.005	-0.203	0.036
-414.413	-200.000	0.035	-0.221
-413.398	-200.000	-0.045	0.382
-412.384	-122.685	-0.294	0.048
-411.369	595.827	-0.111	0.278
-410.355	-61.986	-0.184	0.078
-409.340	-116.392	-0.121	-0.023
-408.325	-4.221	-0.112	-0.078
-407.311	800.000	0.035	-0.124
-406.296	-55.164	0.205	0.093
-405.282	800.000	0.044	-0.188
-404.267	-68.642	0.106	0.042
-403.252	800.000	0.039	-0.153
-402.238	221.593	-0.212	-0.344
-401.223	-200.000	0.014	-0.154
-400.209	-148.447	0.448	-0.037
-399.194	-162.621	0.270	-0.013
-398.179	-200.000	-0.024	0.239
-397.165	-130.805	-0.138	-0.019
-396.150	-140.610	0.265	0.028
-395.136	283.833	0.084	0.153
-394.121	654.850	0.062	0.162
-393.106	-151.999	-0.346	0.025
-392.092	-41.133	-0.079	0.041
-391.077	-107.709	0.149	0.033
-390.063	87.613	0.328	-0.366
-389.048	-44.011	-0.079	-0.040
-388.033	-118.930	0.246	0.043
-387.019	-81.486	-0.233	0.077
-386.004	302.664	0.131	0.245
-384.990	604.872	0.139	0.349
-383.975	-200.000	0.080	-0.382
-382.960	66.188	-0.162	0.166
-381.946	-62.129	0.141	0.059
-380.931	30.757	-0.162	0.140
-379.917	800.000	0.025	0.083
-378.902	800.000	0.113	-0.343
-377.888	-27.112	-0.239	0.141
-376.873	-200.000	-0.017	0.136
-375.858	4.183	0.454	0.335
-374.844	214.838	0.035	-0.057
-373.829	39.451	-0.327	-0.296
-372.815	-200.000	-0.003	-0.050
-371.800	107.787	0.281	0.337
-370.785	169.790	0.159	0.229
-369.771	-118.989	-0.332	-0.059
-368.756	215.281	-0.035	0.056
-367.742	71.925	-0.067	0.070
-366.727	-85.897	0.062	-0.019
-365.712	-20.954	0.181	0.112
-364.698	-2.317	-0.263	0.186
-363.683	-16.842	0.222	-0.141
-362.669	42.200	-0.088	-0.080
-361.654	348.707	-0.204	0.405
-360.639	32.978	0.269	-0.235
-359.625	35.108	0.015	0.013
-358.610	295.055	0.091	-0.168
-357.596	81.320	0.179	0.195
-356.581	-40.911	0.183	-0.095
-355.566	127.312	-0.222	0.284
-354.552	-133.530	0.132	0.017
-353.537	-91.671	-0.079	-0.023
-352.523	800.000	-0.093	0.271
-351.508	196.312	-0.156	-0.239
-350.493	159.630	-0.325	0.455
-349.479	25.235	-0.126	0.106
-348.464	800.000	0.072	-0.282
-347.450	-57.676	0.269	-0.119
-346.435	-200.000	0.084	-0.503
-345.420	355.951	-0.043	-0.087
-344.406	90.340	-0.159	0.180
-343.391	492.129	-0.130	0.301
-342.377	494.942	0.086	0.198
-341.362	800.000	0.076	0.294
-340.348	25.241	-0.187	-0.156
-339.333	-86.289	0.196	-0.061
-338.318	-95.569	-0.169	0.045
-337.304	371.042	-0.034	-0.069
-336.289	-111.664	0.313	0.064
-335.275	800.000	-0.037	0.109
-334.260	182.521	0.112	-0.166
-333.245	-21.781	0.045	0.028
-332.231	-109.843	-0.215	0.045
-331.216	73.564	-0.155	-0.163
-330.202	120.316	0.163	-0.203
-329.187	64.201	0.173	0.175
-328.172	-200.000	-0.037	-0.170
-327.158	-55.384	0.500	0.226
-326.143	147.827	0.103	-0.139
-325.129	-200.000	0.206	0.000
-324.114	-200.000	-0.005	-0.299
-323.099	-41.000	0.369	-0.192
-322.085	-125.779	0.161	-0.025
-321.070	-200.000	-0.037	-0.468
-320.056	-176.649	-0.217	0.006
-319.041	-200.000	0.016	-0.206
-318.026	-51.971	0.172	-0.080
-317.012	-24.777	0.186	-0.111
-315.997	499.330	0.050	0.116
-314.983	527.754	-0.135	0.321
-313.968	-200.000	0.010	-0.501
-312.953	-200.000	0.011	0.377
-311.939	3.809	0.220	-0.162
-310.924	8.206	0.257	-0.194
-309.910	-86.029	0.194	-0.060
-308.895	-135.963	-0.428	0.051
-307.880	-200.000	0.007	-0.176
-306.866	-172.216	-0.156	-0.005
-305.851	535.944	-0.141	0.337
-304.837	-200.000	-0.039	0.301
-303.822	-85.997	-0.298	0.093
-302.807	72.469	0.160	-0.167
-301.793	118.725	0.113	0.140
-300.778	78.722	0.064	0.068
-299.764	-62.732	0.169	0.070
-298.749	800.000	0.084	-0.327
-297.735	162.642	0.182	0.257
-296.720	69.053	-0.282	0.291
-295.705	249.043	0.076	0.129
-294.691	-157.265	0.198	0.012
-293.676	-80.112	0.170	0.057
-292.662	-51.967	-0.368	-0.172
-291.647	156.321	0.173	-0.240
-290.632	-42.001	-0.234	0.120
-289.618	77.247	0.076	0.081
-288.603	-146.494	-0.134	0.012
-287.589	-63.226	0.123	0.051
-286.574	-115.155	-0.338	-0.064
-285.559	-15.480	-0.383	0.246
-284.545	239.192	0.148	-0.247
-283.530	584.754	0.164	0.406
-282.516	179.656	-0.164	0.241
-281.501	198.619	-0.159	-0.244
-280.486	-76.261	0.247	-0.088
-279.472	84.618	-0.191	-0.210
-278.457	194.190	0.120	-0.183
-277.443	58.725	0.239	-0.236
-276.428	-96.111	0.201	-0.054
-275.413	-137.203	-0.056	-0.006
-274.399	800.000	0.071	0.237
-273.384	675.468	-0.080	-0.209
-272.370	103.383	0.019	0.023
-271.355	-125.273	-0.236	0.036
-270.340	-200.000	-0.019	-0.154
-269.326	83.269	-0.219	-0.240
-268.311	-200.000	-0.017	0.119
-267.297	-31.783	0.064	0.036
-266.282	20.196	0.279	-0.226
-265.267	-200.000	0.033	-0.278
-264.253	102.053	-0.233	0.273
-263.238	-162.626	-0.172	-0.009
-262.224	-63.750	0.075	-0.031
-261.209	-171.046	-0.198	-0.007
-260.195	-200.000	0.004	0.027
-259.180	-109.155	0.220	-0.047
-258.165	135.042	0.181	-0.236
-257.151	256.092	0.044	-0.075
-256.136	14.163	0.241	0.188
-255.122	800.000	0.108	0.328
-254.107	-200.000	-0.025	0.189
-253.092	-98.116	-0.213	-0.055
-252.078	-157.033	0.169	-0.010
-251.063	474.018	0.216	0.489
-250.049	800.000	-0.033	-0.130
-249.034	-175.084	0.253	0.007
-248.019	-91.437	-0.123	-0.035
-247.005	-200.000	0.018	-0.432
-245.990	-172.562	0.388	-0.012
-244.976	234.109	-0.240	-0.396
-243.961	68.737	-0.129	-0.132
-242.946	-200.000	-0.018	-0.152
-241.932	48.015	-0.271	0.254
-240.917	-140.655	-0.229	0.024
-239.903	-180.616	0.200	-0.004
-238.888	800.000	-0.068	-0.198
-237.873	-129.732	-0.306	-0.042
-236.859	-110.537	-0.097	-0.020
-235.844	296.629	-0.047	0.087
-234.830	-200.000	0.004	0.363
-233.815	-107.089	0.293	0.065
-232.800	-200.000	0.013	-0.115
-231.786	800.000	-0.096	-0.343
-230.771	-58.336	0.288	0.126
-229.757	-32.296	-0.112	0.063
-228.742	-200.000	0.014	0.237
-227.727	-200.000	-0.011	-0.076
-226.713	-89.900	0.242	0.071
-225.698	-87.350	-0.116	-0.035
-224.684	800.000	-0.083	-0.329
-223.669	192.248	-0.050	-0.076
-222.655	472.556	0.115	-0.259
-221.640	-200.000	0.036	-0.201
-220.625	-200.000	0.029	-0.318
-219.611	19.123	-0.105	0.085
-218.596	6.154	-0.189	-0.141
-217.582	-200.000	0.010	-0.415
-216.567	800.000	0.061	0.180
-215.552	530.797	-0.113	0.268
-214.538	800.000	-0.088	0.245
-213.523	-200.000	0.014	0.114
-212.509	-200.000	-0.008	0.114
-211.494	-200.000	-0.033	0.317
-210.479	-87.072	-0.113	0.034
-209.465	221.457	-0.224	0.360
-208.450	-103.929	0.250	-0.059
-207.436	-200.000	0.031	0.147
-206.421	-32.517	-0.103	0.058
-205.406	-200.000	-0.012	-0.409
-204.392	-88.234	0.112	-0.033
-203.377	-200.000	-0.012	-0.222
-202.363	-0.101	0.247	-0.176
-201.348	8.097	-0.179	0.134
-200.333	-33.969	-0.214	0.118
-199.319	185.704	0.173	-0.257
-198.304	-200.000	0.013	-0.155
-197.290	655.360	0.032	0.083
-196.275	129.131	0.184	0.235
-195.260	-22.533	-0.061	-0.037
-194.246	-103.620	0.289	0.068
-193.231	12.233	-0.244	-0.188
-192.217	113.036	0.132	-0.161
-191.202	-181.287	-0.044	-0.001
-190.187	800.000	0.071	0.245
-189.173	32.808	-0.056	0.048
-188.158	20.389	0.264	0.214
-187.144	-119.685	-0.365	-0.063
-186.129	-200.000	0.026	-0.117
-185.114	-4.730	0.043	-0.030
-184.100	-200.000	0.042	-0.208
-183.085	377.203	0.045	0.091
-182.071	-91.939	0.212	0.060
-181.056	302.295	-0.038	0.070
-180.042	-22.798	-0.172	0.104
-179.027	-151.019	0.231	0.017
-178.012	-169.754	-0.385	0.014
-176.998	112.295	-0.187	0.227
-175.983	-41.025	0.119	-0.061
-174.969	800.000	0.072	0.256
-173.954	-99.748	0.232	-0.058
-172.939	-124.511	0.265	0.041
-171.925	22.794	-0.204	0.167
-170.910	269.212	-0.050	0.089
-169.896	-166.006	-0.210	-0.009
-168.881	-200.000	0.005	0.120
-167.866	-200.000	-0.014	0.201
-166.852	-62.225	-0.140	0.058
-165.837	106.788	-0.242	-0.287
-164.823	-6.894	0.113	0.077
-163.808	800.000	-0.151	0.429
-162.793	800.000	0.101	0.381
-161.779	800.000	0.092	0.290
-160.764	178.177	-0.135	0.197
-159.750	486.809	0.120	0.274
-158.735	-24.437	0.412	-0.245
-157.720	800.000	0.063	-0.257
-156.706	372.985	-0.105	0.213
-155.691	-129.180	-0.312	0.044
-154.677	-200.000	-0.002	-0.014
-153.662	289.162	0.104	0.189
-152.647	102.889	-0.142	-0.166
-151.633	-132.026	0.063	-0.008
-150.618	68.554	0.008	0.008
-149.604	-168.478	0.441	0.017
-148.589	-12.141	0.108	0.071
-147.574	-107.389	-0.226	0.049
-146.560	-200.000	0.047	-0.412
-145.545	75.083	-0.165	0.174
-144.531	800.000	-0.164	0.570
-143.516	40.596	0.188	-0.169
-142.502	-200.000	-0.039	0.301
-141.487	-200.000	0.003	0.116
-140.472	256.097	0.108	0.186
-139.458	-7.881	0.123	-0.083
-138.443	-108.409	-0.054	-0.012
-137.429	-92.832	0.032	-0.009
-136.414	-156.535	-0.230	0.014
-135.399	-40.183	-0.233	-0.121
-134.385	-200.000	0.046	0.217
-133.370	-83.076	0.306	-0.098
-132.356	-161.578	0.269	-0.014
-131.341	309.663	-0.059	0.109
-130.326	237.702	-0.140	0.231
-129.312	450.720	-0.062	-0.137
-128.297	218.286	-0.175	0.279
-127.283	181.913	-0.164	-0.242
-126.268	-200.000	0.026	-0.168
-125.253	-137.300	-0.130	-0.015
-124.239	-130.266	-0.198	-0.027
-123.224	266.629	0.182	-0.317
-122.210	-97.624	0.293	-0.076
