DTS Sentinel unit serial number:	SN413079Multiplexer serial number:	ORYXHardware model number:	OX4-SRSoftware version number:	ORYX F/W v4.00 Oryx Data Collector v3.7.2.0data status	okinstallation	princeton_trtdifferential loss correction	single-endedforward channel	channel 3reverse channel	N/Adate	2019/09/17time	12:00:35forward acquisition time	60.00reverse acquisition time	0.00gamma	496.2192k internal	0.2321k external	0.2321temperature offset calibration	0.9961default loss term (dB/km)	0.3790temperature slope calibration	1.0000multiplexer offset coefficient	1.0000multiplexer slope coefficient	1.0000fibre end	0.00T internal ref (°C)	31.12T ext. ref 1 (°C)	0.41T ext. ref 2 (°C)	27.21length (m)	temperature (°C)	Stokes	anti-Stokes-747.200	-104.385	-0.118	-0.028
-746.185	119.688	0.109	0.137
-745.171	124.350	0.126	0.161
-744.156	774.472	-0.030	0.083
-743.142	800.000	-0.100	0.318
-742.127	800.000	0.109	0.429
-741.112	-66.613	-0.226	0.090
-740.098	-10.254	-0.073	0.049
-739.083	-187.017	-0.035	0.000
-738.069	-0.888	-0.156	0.112
-737.054	800.000	-0.088	0.270
-736.039	-157.694	-0.236	0.014
-735.025	-82.120	0.195	0.064
-734.010	-15.968	0.182	0.117
-732.996	-170.366	-0.592	0.021
-731.981	-1.561	-0.202	-0.144
-730.966	800.000	-0.061	0.173
-729.952	-200.000	0.055	0.252
-728.937	-200.000	0.026	-0.264
-727.923	-54.092	-0.303	-0.139
-726.908	-200.000	0.015	-0.322
-725.894	-75.260	-0.118	0.042
-724.879	-200.000	0.014	0.087
-723.864	-200.000	0.012	-0.127
-722.850	-138.144	0.455	-0.051
-721.835	-81.706	-0.398	0.132
-720.821	800.000	0.053	0.175
-719.806	-136.279	-0.098	0.012
-718.791	287.464	0.165	-0.302
-717.777	-26.332	0.202	-0.120
-716.762	675.962	0.165	0.432
-715.748	-94.201	0.277	0.077
-714.733	-56.558	0.121	0.054
-713.718	-48.842	-0.325	0.157
-712.704	118.503	0.127	-0.158
-711.689	-89.216	-0.106	-0.031
-710.675	-20.010	0.209	-0.130
-709.660	-200.000	0.008	-0.068
-708.645	-132.826	-0.628	0.081
-707.631	-152.296	0.240	0.017
-706.616	-29.874	0.035	0.020
-705.602	-5.910	-0.325	-0.224
-704.587	-105.866	0.079	-0.018
-703.572	-200.000	-0.022	-0.333
-702.558	-68.561	-0.370	0.145
-701.543	800.000	0.039	0.114
-700.529	-120.742	-0.293	-0.050
-699.514	800.000	-0.079	0.330
-698.499	-64.593	-0.139	-0.057
-697.485	-200.000	-0.019	-0.180
-696.470	28.669	-0.322	-0.275
-695.456	219.504	0.255	-0.412
-694.441	49.924	0.161	-0.154
-693.426	35.489	-0.158	0.140
-692.412	-200.000	0.091	-0.476
-691.397	141.049	0.179	-0.238
-690.383	-135.939	0.344	0.041
-689.368	800.000	0.058	-0.186
-688.354	118.886	-0.097	0.121
-687.339	162.846	0.076	-0.108
-686.324	-123.428	0.197	0.032
-685.310	444.915	-0.087	0.193
-684.295	162.096	-0.207	-0.292
-683.281	176.046	-0.136	0.198
-682.266	-200.000	-0.042	-0.225
-681.251	-169.072	-0.158	-0.006
-680.237	429.287	0.107	-0.233
-679.222	-49.096	-0.011	-0.006
-678.208	102.124	0.061	0.072
-677.193	-148.719	0.368	-0.030
-676.178	75.434	0.059	-0.062
-675.164	-97.274	-0.309	-0.081
-674.149	-29.344	0.303	0.175
-673.135	112.614	0.066	0.080
-672.120	-104.402	0.278	-0.065
-671.105	-52.094	-0.118	0.055
-670.091	-115.511	-0.106	-0.020
-669.076	-136.778	-0.243	0.028
-668.062	123.817	-0.171	0.216
-667.047	-200.000	-0.028	-0.143
-666.032	-95.427	0.079	0.021
-665.018	62.746	0.281	0.284
-664.003	-24.609	-0.230	-0.138
-662.989	21.844	0.242	0.199
-661.974	-75.155	-0.206	-0.074
-660.959	-70.180	-0.248	-0.095
-659.945	-200.000	0.038	0.222
-658.930	-139.848	-0.168	-0.018
-657.916	-54.651	0.078	0.036
-656.901	-61.256	-0.041	-0.017
-655.886	86.367	-0.169	-0.187
-654.872	350.964	0.064	-0.128
-653.857	800.000	0.036	-0.136
-652.843	-57.069	0.342	-0.152
-651.828	-15.594	-0.434	0.279
-650.814	302.918	0.035	-0.066
-649.799	800.000	-0.061	0.190
-648.784	-200.000	0.005	-0.142
-647.770	800.000	0.075	-0.299
-646.755	125.645	0.195	-0.247
-645.741	192.070	-0.225	0.342
-644.726	240.572	0.137	-0.230
-643.711	-200.000	-0.029	-0.145
-642.697	-200.000	0.007	0.312
-641.682	800.000	0.072	0.230
-640.668	800.000	-0.053	0.174
-639.653	-73.325	-0.164	0.060
-638.638	202.174	0.129	-0.200
-637.624	-58.013	-0.353	-0.155
-636.609	470.096	-0.068	0.154
-635.595	20.936	-0.315	-0.257
-634.580	-49.120	0.109	0.052
-633.565	-11.506	-0.187	0.124
-632.551	-49.509	0.160	0.077
-631.536	-187.431	-0.337	-0.005
-630.522	-101.810	-0.280	-0.068
-629.507	800.000	-0.045	-0.154
-628.492	52.133	-0.112	-0.107
-627.478	223.252	-0.136	-0.221
-626.463	-100.218	0.113	-0.028
-625.449	-76.391	0.066	-0.023
-624.434	504.145	0.115	0.267
-623.419	15.252	0.207	0.163
-622.405	33.574	-0.155	0.135
-621.390	-85.260	-0.084	-0.026
-620.376	-166.133	0.098	-0.004
-619.361	-33.255	-0.160	0.089
-618.346	-51.454	-0.354	0.166
-617.332	-101.635	-0.150	-0.037
-616.317	800.000	-0.066	-0.226
-615.303	216.171	0.102	-0.163
-614.288	-17.077	0.097	-0.062
-613.273	211.370	0.106	0.168
-612.259	-200.000	-0.016	0.109
-611.244	520.604	-0.047	0.110
-610.230	208.529	-0.011	-0.017
-609.215	88.662	0.038	-0.043
-608.201	-13.152	0.454	0.296
-607.186	-200.000	0.015	-0.265
-606.171	800.000	-0.089	-0.387
-605.157	443.665	0.128	-0.283
-604.142	-155.120	-0.194	0.013
-603.128	-107.928	-0.029	0.006
-602.113	-132.261	-0.099	0.013
-601.098	-200.000	-0.012	-0.350
-600.084	-120.826	-0.289	-0.049
-599.069	800.000	-0.051	-0.167
-598.055	-6.617	0.230	-0.157
-597.040	-200.000	0.021	0.222
-596.025	-6.516	0.083	0.057
-595.011	663.653	0.055	0.142
-593.996	107.243	0.258	0.309
-592.982	50.149	0.168	0.160
-591.967	-200.000	0.008	0.380
-590.952	65.543	-0.437	0.445
-589.938	-129.880	-0.073	-0.010
-588.923	90.181	0.149	0.167
-587.909	-200.000	-0.004	-0.042
-586.894	92.284	-0.147	-0.167
-585.879	760.161	-0.017	-0.048
-584.865	-41.023	-0.152	0.079
-583.850	326.109	0.133	-0.256
-582.836	-61.457	0.300	-0.126
-581.821	11.520	-0.270	-0.208
-580.806	-110.266	-0.175	-0.037
-579.792	541.935	0.037	0.088
-578.777	800.000	-0.028	0.096
-577.763	800.000	-0.058	0.216
-576.748	-200.000	-0.023	-0.161
-575.733	-115.451	0.188	0.036
-574.719	41.400	-0.246	-0.224
-573.704	49.644	0.071	-0.067
-572.690	800.000	-0.104	0.290
-571.675	-121.175	-0.284	0.048
-570.661	-200.000	0.001	-0.160
-569.646	90.381	0.282	0.317
-568.631	137.249	0.101	0.133
-567.617	-200.000	0.017	-0.568
-566.602	249.141	0.117	-0.198
-565.588	339.835	-0.164	0.321
-564.573	748.764	-0.019	-0.050
-563.558	25.215	0.216	-0.180
-562.544	-200.000	-0.009	-0.152
-561.529	114.728	0.207	-0.253
-560.515	250.440	0.175	-0.298
-559.500	800.000	-0.023	-0.073
-558.485	179.760	0.109	0.160
-557.471	-200.000	0.026	-0.208
-556.456	800.000	-0.028	-0.116
-555.442	-200.000	-0.035	-0.167
-554.427	119.982	0.124	0.154
-553.412	35.589	0.293	-0.258
-552.398	-138.383	-0.472	-0.052
-551.383	-75.498	-0.201	-0.072
-550.369	524.672	0.120	0.283
-549.354	-52.232	0.105	0.049
-548.339	81.784	0.077	0.084
-547.325	14.642	-0.191	-0.150
-546.310	-200.000	0.002	0.104
-545.296	-200.000	0.023	0.161
-544.281	222.574	-0.267	0.431
-543.266	-83.795	-0.220	-0.070
-542.252	-128.577	0.330	-0.047
-541.237	-45.186	-0.120	-0.060
-540.223	-51.317	-0.077	-0.036
-539.208	-159.583	0.227	-0.013
-538.193	764.526	0.143	0.389
-537.179	311.028	0.073	0.136
-536.164	298.174	0.267	0.493
-535.150	-86.003	-0.200	-0.062
-534.135	-200.000	0.049	0.261
-533.121	226.896	0.122	0.199
-532.106	-54.423	-0.078	-0.036
-531.091	140.812	-0.199	0.263
-530.077	-200.000	-0.050	-0.279
-529.062	543.006	0.102	0.244
-528.048	-200.000	-0.058	0.270
-527.033	-200.000	0.020	0.263
-526.018	517.357	-0.038	0.088
-525.004	27.458	0.135	-0.114
-523.989	38.830	0.192	-0.172
-522.975	-46.312	-0.208	-0.103
-521.960	-200.000	-0.046	0.209
-520.945	248.419	-0.090	-0.153
-519.931	35.642	0.231	-0.204
-518.916	217.933	0.053	0.085
-517.902	588.704	0.091	0.225
-516.887	-91.189	-0.369	-0.106
-515.872	-46.605	0.190	0.094
-514.858	-200.000	0.001	0.175
-513.843	15.523	0.165	-0.130
-512.829	-200.000	-0.027	-0.189
-511.814	-85.209	-0.040	-0.013
-510.799	800.000	0.061	0.262
-509.785	93.225	0.102	-0.116
-508.770	62.960	0.115	-0.115
-507.756	424.625	-0.196	-0.422
-506.741	-65.989	0.313	-0.125
-505.726	239.605	-0.163	-0.272
-504.712	31.270	0.078	-0.067
-503.697	-137.857	0.230	-0.026
-502.683	-17.607	-0.202	-0.127
-501.668	-200.000	-0.007	-0.078
-500.653	25.462	-0.160	0.133
-499.639	-187.248	0.036	0.000
-498.624	98.315	-0.134	0.155
-497.610	-100.150	-0.355	0.088
-496.595	253.455	0.060	0.103
-495.581	142.575	-0.052	-0.069
-494.566	-200.000	-0.066	-0.456
-493.551	-35.968	0.039	-0.021
-492.537	621.355	-0.100	-0.251
-491.522	160.073	-0.113	-0.158
-490.508	800.000	0.017	0.062
-489.493	800.000	0.050	-0.169
-488.478	364.414	0.118	0.238
-487.464	-200.000	0.024	0.191
-486.449	141.698	-0.091	0.120
-485.435	237.415	-0.245	-0.406
-484.420	-60.645	-0.251	0.107
-483.405	97.426	0.069	0.080
-482.391	-200.000	-0.014	-0.274
-481.376	-200.000	-0.001	0.243
-480.362	21.470	0.359	-0.292
-479.347	58.796	-0.195	0.192
-478.332	117.836	0.066	-0.081
-477.318	74.646	-0.074	-0.078
-476.303	28.192	0.080	-0.068
-475.289	-52.769	-0.319	0.147
-474.274	418.351	-0.068	0.145
-473.259	-122.426	0.352	0.057
-472.245	93.595	0.131	0.148
-471.230	800.000	-0.045	-0.178
-470.216	137.951	-0.068	-0.089
-469.201	800.000	-0.051	0.222
-468.186	176.265	-0.182	-0.264
-467.172	800.000	-0.169	-0.577
-466.157	65.946	-0.105	0.107
-465.143	326.571	-0.274	-0.524
-464.128	-200.000	0.011	-0.125
-463.113	-200.000	0.061	-0.415
-462.099	135.085	-0.197	0.256
-461.084	800.000	0.085	0.360
-460.070	-149.839	-0.299	-0.023
-459.055	-200.000	0.020	-0.140
-458.040	-3.749	0.253	-0.176
-457.026	-38.686	-0.151	0.080
-456.011	-130.738	-0.056	0.008
-454.997	228.292	-0.057	-0.092
-453.982	-8.651	0.352	0.236
-452.968	224.577	0.144	0.233
-451.953	46.017	0.255	-0.236
-450.938	-200.000	0.037	-0.364
-449.924	-100.403	0.148	0.037
-448.909	42.478	0.065	-0.059
-447.895	190.729	0.125	0.188
-446.880	-200.000	0.030	-0.206
-445.865	146.677	-0.143	-0.193
-444.851	-26.935	-0.254	0.148
-443.836	-200.000	-0.030	-0.414
-442.822	88.182	0.072	0.080
-441.807	60.239	-0.097	-0.096
-440.792	800.000	0.064	0.258
-439.778	523.084	-0.040	-0.094
-438.763	-119.907	0.197	0.034
-437.749	10.029	0.014	0.011
-436.734	-200.000	-0.027	-0.246
-435.719	31.313	0.101	0.087
-434.705	-120.222	-0.110	0.019
-433.690	40.372	0.095	-0.086
-432.676	356.775	0.216	-0.430
-431.661	-80.811	0.261	0.086
-430.646	88.710	0.107	-0.118
-429.632	-74.800	0.389	0.139
-428.617	-200.000	-0.029	0.158
-427.603	-200.000	-0.014	-0.186
-426.588	2.749	0.128	-0.093
-425.573	265.859	-0.127	-0.221
-424.559	-200.000	-0.026	0.167
-423.544	-200.000	-0.009	0.474
-422.530	-200.000	0.030	0.153
-421.515	-98.165	0.283	-0.073
-420.500	208.474	0.146	-0.228
-419.486	-66.296	0.299	-0.119
-418.471	800.000	0.036	0.143
-417.457	1.543	0.120	0.086
-416.442	20.398	0.259	-0.209
-415.428	-126.054	-0.133	-0.020
-414.413	-105.039	0.116	0.026
-413.398	800.000	0.044	-0.174
-412.384	154.112	-0.120	0.165
-411.369	-200.000	0.047	0.222
-410.355	-105.466	-0.422	0.096
-409.340	-200.000	-0.017	-0.277
-408.325	324.953	-0.106	0.202
-407.311	-200.000	0.017	0.634
-406.296	-107.424	-0.031	0.007
-405.282	-200.000	-0.016	0.195
-404.267	-30.428	0.211	-0.119
-403.252	36.915	-0.147	0.130
-402.238	-79.091	-0.048	0.016
-401.223	-130.390	-0.228	0.031
-400.209	800.000	0.074	-0.226
-399.194	-162.533	-0.220	-0.011
-398.179	-40.233	0.004	-0.002
-397.165	-85.635	-0.451	0.140
-396.150	-200.000	-0.063	-0.284
-395.136	145.480	-0.214	-0.285
-394.121	486.685	0.093	-0.212
-393.106	-200.000	-0.008	0.181
-392.092	-200.000	-0.012	0.138
-391.077	-200.000	-0.036	0.293
-390.063	311.596	0.170	0.318
-389.048	-122.467	0.274	-0.045
-388.033	21.812	-0.028	0.023
-387.019	19.370	0.157	0.125
-386.004	800.000	0.017	-0.064
-384.990	-200.000	-0.013	0.209
-383.975	800.000	0.077	-0.292
-382.960	467.531	0.150	0.336
-381.946	-200.000	0.027	0.358
-380.931	-63.678	0.183	-0.075
-379.917	-200.000	-0.023	-0.126
-378.902	1.694	-0.067	-0.048
-377.888	-89.304	-0.194	-0.057
-376.873	72.795	-0.454	0.472
-375.858	11.374	-0.125	-0.095
-374.844	-200.000	-0.033	0.219
-373.829	95.785	-0.192	0.218
-372.815	218.437	0.081	-0.129
-371.800	223.788	-0.056	-0.090
-370.785	800.000	0.109	-0.353
-369.771	176.137	-0.175	-0.252
-368.756	-63.824	-0.236	0.096
-367.742	-38.174	-0.103	0.054
-366.727	24.393	0.223	-0.184
-365.712	286.914	-0.125	0.226
-364.698	-200.000	-0.016	-0.079
-363.683	800.000	-0.140	-0.429
-362.669	157.470	0.089	0.123
-361.654	-49.936	-0.146	-0.069
-360.639	800.000	-0.081	0.229
-359.625	-101.889	0.341	-0.082
-358.610	-16.000	-0.130	-0.082
-357.596	-89.973	-0.157	-0.045
-356.581	-200.000	0.018	-0.098
-355.566	-5.947	0.234	-0.160
-354.552	591.062	-0.050	-0.123
-353.537	-95.202	0.302	0.081
-352.523	40.902	0.240	0.215
-351.508	745.994	-0.080	-0.214
-350.493	245.116	-0.179	0.299
-349.479	-200.000	-0.001	-0.224
-348.464	800.000	0.133	-0.409
-347.450	-137.385	0.206	-0.023
-346.435	-200.000	0.001	-0.240
-345.420	-50.308	-0.268	-0.126
-344.406	-127.890	0.138	0.020
-343.391	-200.000	0.009	-0.095
-342.377	-200.000	0.040	-0.339
-341.362	-43.739	0.228	-0.114
-340.348	-200.000	-0.052	-0.291
-339.333	175.747	0.082	-0.119
-338.318	-57.352	0.353	0.154
-337.304	800.000	-0.035	0.141
-336.289	-200.000	0.004	0.044
-335.275	-200.000	0.036	0.224
-334.260	-100.484	0.045	-0.011
-333.245	70.929	0.092	0.095
-332.231	-100.233	-0.441	-0.109
-331.216	800.000	-0.061	0.227
-330.202	-102.434	0.202	0.048
-329.187	290.452	-0.296	-0.536
-328.172	98.062	0.070	-0.080
-327.158	-15.935	-0.188	0.119
-326.143	-200.000	0.000	-0.320
-325.129	-200.000	0.012	0.129
-324.114	-53.093	0.341	0.156
-323.099	-200.000	0.020	0.367
-322.085	-155.453	-0.118	-0.008
-321.070	63.796	0.163	0.162
-320.056	23.220	-0.154	0.126
-319.041	-200.000	-0.178	0.000
-318.026	303.811	-0.214	0.394
-317.012	-106.478	0.100	0.022
-315.997	-138.445	-0.167	0.018
-314.983	-130.280	-0.222	0.030
-313.968	422.441	0.015	-0.033
-312.953	107.794	-0.072	0.086
-311.939	-200.000	-0.010	-0.177
-310.924	101.005	0.203	0.235
-309.910	-200.000	-0.003	0.239
-308.895	-118.299	0.300	-0.053
-307.880	-85.058	-0.449	0.140
-306.866	-107.043	0.228	0.050
-305.851	74.918	-0.042	-0.044
-304.837	267.953	0.211	-0.368
-303.822	-103.918	-0.173	0.040
-302.807	-200.000	-0.030	0.171
-301.793	-2.863	-0.162	0.112
-300.778	89.783	-0.116	-0.128
-299.764	-200.000	0.011	-0.113
-298.749	800.000	0.179	0.496
-297.735	107.350	-0.098	0.116
-296.720	-72.393	-0.158	0.058
-295.705	-90.903	0.189	-0.054
-294.691	-200.000	0.023	-0.226
-293.676	-4.098	-0.243	-0.167
-292.662	-200.000	0.049	0.420
-291.647	103.370	0.146	-0.170
-290.632	59.429	0.348	0.341
-289.618	25.169	-0.205	0.169
-288.603	-200.000	0.026	0.235
-287.589	475.188	0.089	0.201
-286.574	-200.000	0.034	0.204
-285.559	-200.000	-0.052	0.317
-284.545	-200.000	-0.052	-0.249
-283.530	-64.910	-0.077	-0.031
-282.516	61.389	-0.225	-0.222
-281.501	-198.489	0.265	-0.001
-280.486	800.000	-0.057	0.228
-279.472	-33.471	0.037	-0.020
-278.457	800.000	0.132	0.496
-277.443	-200.000	0.012	0.309
-276.428	-200.000	-0.401	-0.001
-275.413	377.488	-0.048	0.097
-274.399	-83.301	0.148	-0.047
-273.384	39.832	0.120	0.107
-272.370	-200.000	0.007	-0.236
-271.355	-34.019	-0.013	0.007
-270.340	23.723	0.210	0.171
-269.326	-19.022	0.043	-0.026
-268.311	-127.984	0.134	-0.019
-267.297	800.000	-0.081	-0.246
-266.282	-165.208	-0.219	-0.010
-265.267	-200.000	0.036	-0.294
-264.253	-128.698	0.229	0.032
-263.238	800.000	0.032	0.125
-262.224	-4.301	-0.103	0.071
-261.209	-200.000	0.033	-0.192
-260.195	65.462	-0.187	0.187
-259.180	-137.564	0.201	0.023
-258.165	79.147	0.176	-0.187
-257.151	-141.482	0.244	0.024
-256.136	-95.691	0.099	0.026
-255.122	-43.177	0.157	0.079
-254.107	-26.440	0.030	0.018
-253.092	-69.652	0.306	-0.116
-252.078	7.319	0.182	0.135
-251.063	175.669	-0.133	-0.192
-250.049	122.055	0.146	-0.181
-249.034	250.269	-0.091	-0.154
-248.019	800.000	-0.091	0.270
-247.005	4.116	-0.144	0.104
-245.990	660.942	-0.037	-0.095
-244.976	-91.053	-0.217	0.062
-243.961	339.248	0.248	0.480
-242.946	291.166	-0.082	-0.149
-241.932	-200.000	0.052	-0.271
-240.917	-57.181	-0.120	0.052
-239.903	-200.000	-0.024	-0.267
-238.888	-193.563	0.176	-0.001
-237.873	221.162	0.167	-0.265
-236.859	77.140	0.025	0.026
-235.844	-97.304	0.226	0.058
-234.830	188.011	0.144	0.214
-233.815	338.757	-0.144	-0.278
-232.800	800.000	-0.079	-0.335
-231.786	-180.912	0.136	0.003
-230.771	800.000	0.039	0.148
-229.757	46.470	0.108	0.100
-228.742	14.525	-0.305	-0.236
-227.727	-9.987	0.269	-0.177
-226.713	-3.207	-0.087	0.060
-225.698	-12.125	-0.225	-0.146
-224.684	116.337	0.152	-0.184
-223.669	-48.966	0.221	-0.105
-222.655	160.887	-0.205	0.283
-221.640	105.823	0.120	-0.141
-220.625	87.500	-0.181	0.198
-219.611	96.043	-0.240	0.272
-218.596	-200.000	-0.034	-0.412
-217.582	114.421	0.194	-0.234
-216.567	-16.991	-0.332	-0.208
-215.552	-200.000	-0.056	0.326
-214.538	-17.449	0.096	0.060
-213.523	93.530	0.035	-0.039
-212.509	-200.000	-0.000	0.135
-211.494	56.654	-0.277	0.267
-210.479	513.786	-0.106	0.245
-209.465	-200.000	0.006	-0.058
-208.450	21.874	0.199	-0.160
-207.436	76.571	0.164	0.173
-206.421	800.000	0.063	0.209
-205.406	800.000	0.011	0.048
-204.392	463.673	0.083	-0.183
-203.377	-118.711	0.163	0.028
-202.363	800.000	0.051	-0.209
-201.348	556.067	-0.092	-0.220
-200.333	-9.944	0.135	0.089
-199.319	-166.641	0.017	-0.001
-198.304	-130.138	0.113	-0.015
-197.290	163.224	-0.243	0.338
-196.275	30.647	-0.156	0.132
-195.260	-59.774	-0.191	0.081
-194.246	-200.000	0.001	0.043
-193.231	58.950	0.219	0.213
-192.217	-200.000	-0.028	0.128
-191.202	-200.000	0.018	0.088
-190.187	-200.000	0.008	-0.074
-189.173	225.347	-0.024	-0.038
-188.158	800.000	-0.115	-0.319
-187.144	92.862	0.119	-0.133
-186.129	46.277	0.239	0.219
-185.114	18.968	0.114	-0.091
-184.100	-193.201	-0.223	-0.002
-183.085	-26.721	0.320	-0.185
-182.071	800.000	-0.116	-0.316
-181.056	148.122	0.081	-0.109
-180.042	-107.416	0.135	0.029
-179.027	82.650	-0.107	-0.114
-178.012	-21.724	0.203	-0.122
-176.998	-70.818	0.218	0.081
-175.983	-27.903	0.167	0.096
-174.969	-75.294	-0.325	-0.115
-173.954	-122.904	0.103	-0.016
-172.939	-132.386	0.124	0.016
-171.925	-200.000	-0.044	-0.237
-170.910	-46.966	-0.237	0.114
-169.896	-138.603	-0.233	-0.025
-168.881	-194.123	0.115	0.001
-167.866	800.000	0.055	0.160
-166.852	-200.000	-0.038	0.383
-165.837	-21.676	0.257	0.155
-164.823	348.585	0.132	-0.257
-163.808	80.989	-0.109	0.117
-162.793	800.000	0.078	0.316
-161.779	-81.219	-0.114	0.037
-160.764	312.458	0.066	0.123
-159.750	94.948	-0.044	-0.050
-158.735	-200.000	0.014	-0.351
-157.720	-116.023	-0.355	-0.065
-156.706	-133.746	-0.241	0.030
-155.691	-200.000	-0.024	0.181
-154.677	-90.618	-0.108	0.031
-153.662	-96.710	0.352	-0.092
-152.647	-51.657	-0.342	0.158
-151.633	94.607	-0.126	0.141
-150.618	577.690	0.064	0.156
-149.604	-133.217	-0.399	0.050
-148.589	292.975	0.065	0.116
-147.574	-200.000	-0.007	0.077
-146.560	-168.989	0.557	-0.021
-145.545	95.193	0.157	-0.177
-144.531	-70.998	-0.266	-0.099
-143.516	170.091	0.097	-0.137
-142.502	800.000	0.119	0.363
-141.487	539.395	0.132	0.309
-140.472	-93.814	0.184	-0.050
-139.458	-37.078	-0.256	0.135
-138.443	52.088	-0.097	-0.091
-137.429	116.041	-0.159	-0.193
-136.414	15.217	-0.077	-0.059
-135.399	800.000	-0.056	-0.201
-134.385	-110.645	0.342	-0.070
-133.370	406.575	-0.104	0.218
-132.356	-200.000	-0.044	-0.268
-131.341	-89.824	-0.288	-0.083
-130.326	800.000	-0.043	0.130
-129.312	99.898	0.121	0.138
-128.297	-14.503	-0.159	0.101
-127.283	-75.383	-0.145	0.051
-126.268	-17.849	0.111	0.069
-125.253	772.867	0.170	-0.459
-124.239	-200.000	0.015	0.125
-123.224	-200.000	-0.020	0.215
-122.210	27.728	-0.259	0.215
-121.195	5.989	0.135	-0.099
