DTS Sentinel unit serial number:	SN413079Multiplexer serial number:	ORYXHardware model number:	OX4-SRSoftware version number:	ORYX F/W v4.00 Oryx Data Collector v3.7.2.0data status	okinstallation	princeton_trtdifferential loss correction	single-endedforward channel	channel 3reverse channel	N/Adate	2019/09/15time	03:48:35forward acquisition time	60.00reverse acquisition time	0.00gamma	496.2192k internal	0.2323k external	0.2323temperature offset calibration	0.9971default loss term (dB/km)	0.3790temperature slope calibration	1.0000multiplexer offset coefficient	1.0000multiplexer slope coefficient	1.0000fibre end	0.00T internal ref (°C)	30.94T ext. ref 1 (°C)	4.62T ext. ref 2 (°C)	25.88length (m)	temperature (°C)	Stokes	anti-Stokes-747.200	-200.000	-0.010	-0.088
-746.185	-10.593	0.450	0.301
-745.171	-200.000	0.007	0.221
-744.156	32.228	-0.224	-0.195
-743.142	-200.000	0.008	-0.150
-742.127	112.919	-0.150	0.183
-741.112	-200.000	0.027	0.405
-740.098	-5.763	-0.343	-0.237
-739.083	-151.700	0.131	-0.010
-738.069	-90.431	0.254	0.074
-737.054	562.026	0.108	0.263
-736.039	-41.948	-0.338	0.175
-735.025	-120.384	0.261	-0.045
-734.010	800.000	-0.065	-0.211
-732.996	385.526	0.211	-0.438
-731.981	-153.250	0.226	-0.016
-730.966	-200.000	0.036	0.438
-729.952	-200.000	0.011	-0.454
-728.937	-155.404	0.232	-0.015
-727.923	-200.000	-0.450	-0.000
-726.908	-118.493	-0.306	0.055
-725.894	-128.579	0.165	-0.024
-724.879	-82.175	0.168	-0.055
-723.864	-22.394	-0.180	0.110
-722.850	3.609	0.134	0.099
-721.835	-156.055	0.410	-0.026
-720.821	388.467	-0.063	-0.132
-719.806	281.031	-0.082	-0.149
-718.791	-53.076	0.052	-0.024
-717.777	-200.000	-0.086	-0.428
-716.762	-70.167	0.104	0.040
-715.748	68.586	-0.093	-0.096
-714.733	-200.000	-0.058	-0.369
-713.718	-0.752	-0.133	-0.095
-712.704	800.000	-0.094	0.277
-711.689	100.702	0.023	0.028
-710.675	-108.122	0.072	-0.016
-709.660	418.995	-0.092	-0.199
-708.645	129.667	0.260	0.335
-707.631	512.036	-0.138	-0.325
-706.616	-101.230	-0.127	-0.031
-705.602	786.742	0.153	-0.424
-704.587	-30.873	-0.173	0.099
-703.572	35.766	0.043	0.038
-702.558	51.985	-0.102	0.098
-701.543	9.430	-0.103	0.079
-700.529	744.704	0.103	-0.279
-699.514	-200.000	0.050	0.236
-698.499	193.674	-0.055	-0.085
-697.485	-122.109	-0.119	-0.020
-696.470	800.000	0.092	-0.294
-695.456	3.347	0.171	0.126
-694.441	-97.884	-0.065	-0.017
-693.426	229.638	-0.184	-0.302
-692.412	-9.695	-0.128	-0.086
-691.397	223.716	-0.070	0.114
-690.383	14.342	-0.204	-0.160
-689.368	-97.700	-0.194	0.051
-688.354	-146.844	-0.066	-0.006
-687.339	-104.908	0.209	-0.048
-686.324	-200.000	-0.029	0.144
-685.310	-135.549	-0.144	-0.017
-684.295	-200.000	-0.027	0.183
-683.281	-131.185	-0.198	0.026
-682.266	-88.824	0.124	-0.037
-681.251	-25.653	-0.166	0.099
-680.237	-83.378	-0.073	0.024
-679.222	130.077	-0.287	0.370
-678.208	128.383	-0.130	-0.167
-677.193	-200.000	0.035	0.246
-676.178	525.511	-0.101	0.241
-675.164	-200.000	-0.031	0.183
-674.149	91.600	0.108	-0.122
-673.135	-200.000	-0.055	-0.364
-672.120	-70.771	0.309	0.118
-671.105	-68.343	-0.289	0.113
-670.091	-113.794	0.164	-0.032
-669.076	-127.748	-0.117	-0.017
-668.062	320.364	0.064	0.122
-667.047	-200.000	0.001	0.249
-666.032	-81.176	-0.175	0.058
-665.018	-95.264	-0.249	0.068
-664.003	-67.143	-0.185	-0.073
-662.989	-144.178	0.306	-0.029
-661.974	31.623	0.156	-0.135
-660.959	-96.068	-0.302	-0.081
-659.945	-28.012	0.159	0.092
-658.930	-30.548	-0.148	-0.084
-657.916	-74.810	0.130	0.047
-656.901	-93.024	0.281	-0.079
-655.886	119.239	-0.296	0.368
-654.872	4.471	-0.115	-0.085
-653.857	0.708	0.076	-0.055
-652.843	-120.190	-0.182	0.031
-651.828	45.127	-0.175	-0.162
-650.814	800.000	0.139	-0.423
-649.799	-107.004	0.189	-0.042
-648.784	297.897	-0.055	0.101
-647.770	-200.000	-0.371	-0.001
-646.755	-200.000	0.030	0.132
-645.741	13.130	-0.210	0.163
-644.726	-12.689	0.247	-0.162
-643.711	692.020	0.112	-0.295
-642.697	-84.835	-0.079	-0.025
-641.682	-200.000	-0.028	-0.208
-640.668	-120.645	0.330	-0.056
-639.653	-55.356	-0.153	-0.069
-638.638	-123.822	0.203	-0.032
-637.624	-198.331	-0.293	-0.002
-636.609	35.012	0.175	0.154
-635.595	-200.000	-0.002	0.064
-634.580	11.851	0.235	-0.182
-633.565	11.865	0.153	-0.118
-632.551	22.993	-0.139	-0.115
-631.536	-177.658	-0.240	0.006
-630.522	596.509	-0.071	-0.176
-629.507	800.000	-0.038	-0.156
-628.492	-109.271	-0.262	-0.056
-627.478	84.833	0.085	0.094
-626.463	-38.400	0.187	0.100
-625.449	493.352	0.166	-0.382
-624.434	-125.751	0.204	-0.031
-623.419	269.349	-0.071	-0.125
-622.405	-100.203	-0.070	-0.017
-621.390	39.019	0.138	-0.124
-620.376	-28.094	0.301	-0.175
-619.361	643.134	0.023	-0.058
-618.346	256.252	0.038	-0.066
-617.332	45.739	-0.068	-0.063
-616.317	-95.582	0.077	-0.021
-615.303	61.077	-0.083	0.083
-614.288	-200.000	-0.404	0.001
-613.273	-71.496	-0.173	-0.065
-612.259	-141.544	-0.058	0.006
-611.244	30.262	-0.149	-0.127
-610.230	-141.945	-0.279	-0.028
-609.215	771.320	-0.142	-0.390
-608.201	-22.707	0.162	0.098
-607.186	-1.851	0.243	0.172
-606.171	150.798	0.230	-0.314
-605.157	-200.000	0.017	0.090
-604.142	1.588	-0.074	-0.053
-603.128	95.736	0.188	-0.215
-602.113	800.000	-0.029	-0.097
-601.098	800.000	-0.044	-0.140
-600.084	213.145	0.071	-0.113
-599.069	-61.229	-0.170	0.072
-598.055	-37.127	-0.140	0.075
-597.040	-200.000	0.007	0.172
-596.025	119.653	-0.029	0.036
-595.011	-134.022	-0.319	-0.040
-593.996	-128.193	0.290	-0.042
-592.982	-94.658	-0.528	0.144
-591.967	-125.526	0.115	0.018
-590.952	358.986	-0.225	0.451
-589.938	88.554	-0.081	0.090
-588.923	560.102	-0.161	-0.391
-587.909	-55.093	0.211	0.095
-586.894	800.000	0.077	-0.297
-585.879	-200.000	0.042	-0.250
-584.865	105.306	0.128	-0.152
-583.850	-60.233	-0.378	0.161
-582.836	15.886	-0.095	-0.075
-581.821	-85.816	0.349	0.109
-580.806	-4.800	0.131	-0.091
-579.792	327.869	0.071	-0.136
-578.777	-80.559	-0.375	-0.125
-577.763	2.634	0.130	-0.095
-576.748	-157.362	-0.104	0.006
-575.733	-140.841	-0.087	0.009
-574.719	-200.000	0.016	-0.121
-573.704	23.043	0.322	-0.265
-572.690	-200.000	-0.002	-0.382
-571.675	-121.818	0.351	0.058
-570.661	-122.576	-0.127	0.021
-569.646	186.215	-0.146	-0.218
-568.631	212.570	-0.215	0.340
-567.617	-0.666	-0.133	-0.094
-566.602	180.772	-0.089	-0.131
-565.588	-79.332	0.295	-0.100
-564.573	380.759	0.160	-0.330
-563.558	-97.913	-0.225	0.058
-562.544	-81.242	0.230	0.076
-561.529	-87.961	0.165	-0.050
-560.515	-68.161	0.126	0.049
-559.500	800.000	0.117	0.461
-558.485	-200.000	-0.025	0.183
-557.471	107.582	-0.150	0.179
-556.456	98.729	-0.162	0.188
-555.442	206.469	-0.031	-0.049
-554.427	-66.861	-0.181	-0.072
-553.412	-200.000	-0.012	-0.135
-552.398	55.321	0.096	-0.093
-551.383	-7.675	-0.237	-0.160
-550.369	-125.163	0.017	0.003
-549.354	24.944	-0.214	0.178
-548.339	361.418	-0.046	0.093
-547.325	35.754	0.187	-0.165
-546.310	55.632	0.156	0.151
-545.296	-107.271	-0.325	-0.072
-544.281	-200.000	-0.019	0.275
-543.266	744.236	0.059	0.159
-542.252	-112.631	0.460	0.092
-541.237	270.361	0.102	0.179
-540.223	-180.513	0.247	-0.005
-539.208	-108.119	-0.160	-0.035
-538.193	19.699	-0.080	0.064
-537.179	-88.661	-0.151	0.045
-536.164	-88.242	-0.147	0.044
-535.150	800.000	-0.037	0.110
-534.135	-138.671	0.147	0.016
-533.121	-117.202	0.122	0.022
-532.106	-39.464	-0.274	0.144
-531.091	111.462	0.104	-0.126
-530.077	-200.000	-0.021	-0.111
-529.062	-127.879	0.151	-0.022
-528.048	5.475	0.207	-0.153
-527.033	-51.565	0.275	-0.128
-526.018	800.000	-0.054	-0.229
-525.004	-122.588	-0.399	0.065
-523.989	-34.632	0.198	0.109
-522.975	-75.811	0.326	0.116
-521.960	800.000	0.025	-0.073
-520.945	-51.684	0.096	0.045
-519.931	-93.059	0.205	0.057
-518.916	80.267	0.025	0.027
-517.902	302.592	0.143	-0.265
-516.887	366.879	0.041	-0.084
-515.872	227.923	0.196	0.319
-514.858	-94.620	0.284	0.077
-513.843	-110.198	0.084	0.017
-512.829	47.424	-0.062	0.058
-511.814	-116.069	0.227	0.042
-510.799	-200.000	-0.013	-0.079
-509.785	453.990	0.019	-0.043
-508.770	166.427	-0.145	0.206
-507.756	-140.862	0.106	-0.011
-506.741	504.139	-0.096	-0.222
-505.726	331.907	-0.095	-0.183
-504.712	-22.340	-0.162	0.098
-503.697	-123.033	0.198	0.032
-502.683	800.000	-0.056	-0.177
-501.668	-149.424	-0.245	-0.020
-500.653	1.710	-0.060	0.043
-499.639	800.000	-0.050	-0.162
-498.624	-150.417	0.219	-0.017
-497.610	26.756	-0.128	-0.107
-496.595	-44.290	0.360	-0.181
-495.581	271.220	0.032	-0.056
-494.566	-200.000	0.053	0.367
-493.551	-200.000	-0.014	-0.106
-492.537	-25.301	0.168	-0.099
-491.522	783.873	0.094	0.257
-490.508	113.002	0.068	0.082
-489.493	-9.613	-0.122	0.081
-488.478	88.998	0.063	-0.070
-487.464	-106.984	-0.465	-0.103
-486.449	-200.000	-0.027	0.135
-485.435	-73.298	-0.166	0.061
-484.420	800.000	0.109	-0.438
-483.405	-117.560	-0.168	-0.030
-482.391	-171.962	0.144	0.005
-481.376	-102.806	0.364	0.087
-480.362	146.027	0.130	-0.174
-479.347	220.029	-0.188	-0.300
-478.332	773.992	0.030	0.081
-477.318	29.155	0.431	-0.366
-476.303	800.000	-0.061	0.205
-475.289	-149.338	-0.185	-0.015
-474.274	122.728	-0.331	0.414
-473.259	24.249	0.166	0.137
-472.245	-2.162	-0.120	0.084
-471.230	627.355	-0.003	0.007
-470.216	-100.334	0.228	-0.056
-469.201	-107.409	0.328	-0.072
-468.186	-41.772	0.376	-0.193
-467.172	-71.749	0.129	-0.048
-466.157	-98.340	-0.424	-0.108
-465.143	-131.532	-0.182	0.024
-464.128	206.217	0.071	-0.111
-463.113	13.366	-0.308	0.239
-462.099	744.101	-0.101	-0.271
-461.084	-160.551	0.321	0.017
-460.070	-145.255	-0.273	-0.025
-459.055	43.884	0.140	0.129
-458.040	-63.975	-0.232	0.095
-457.026	-40.818	-0.231	-0.120
-456.011	-24.149	0.296	-0.176
-454.997	206.861	0.111	-0.173
-453.982	-200.000	-0.078	0.367
-452.968	298.917	0.024	0.045
-451.953	800.000	-0.059	-0.231
-450.938	277.462	-0.187	0.333
-449.924	126.690	-0.077	-0.097
-448.909	-3.323	0.289	0.201
-447.895	800.000	-0.041	-0.127
-446.880	34.737	-0.072	-0.063
-445.865	42.225	0.065	-0.059
-444.851	344.961	0.103	0.201
-443.836	24.419	-0.162	0.134
-442.822	-200.000	-0.000	-0.016
-441.807	28.421	-0.203	0.171
-440.792	-168.828	-0.266	-0.010
-439.778	-7.406	-0.080	-0.054
-438.763	102.572	0.225	0.263
-437.749	228.800	0.186	-0.303
-436.734	391.279	-0.059	-0.123
-435.719	-114.615	-0.277	-0.053
-434.705	178.015	0.071	-0.103
-433.690	253.979	-0.046	-0.078
-432.676	-200.000	-0.032	0.175
-431.661	-200.000	0.002	0.133
-430.646	-87.346	-0.052	0.016
-429.632	146.405	0.154	0.206
-428.617	-94.114	0.286	-0.078
-427.603	-98.011	0.142	0.036
-426.588	133.580	-0.081	-0.104
-425.573	707.650	-0.063	-0.166
-424.559	800.000	0.011	0.050
-423.544	-116.706	-0.171	-0.031
-422.530	-26.022	-0.172	0.101
-421.515	-200.000	-0.004	-0.034
-420.500	-100.459	-0.140	0.035
-419.486	-142.399	0.110	0.011
-418.471	800.000	-0.059	-0.191
-417.457	-1.926	-0.164	-0.115
-416.442	212.315	0.304	-0.478
-415.428	-157.690	-0.440	-0.026
-414.413	-200.000	0.045	-0.240
-413.398	-200.000	0.049	-0.291
-412.384	-34.692	0.172	-0.094
-411.369	-130.420	-0.409	0.055
-410.355	-99.506	-0.203	-0.051
-409.340	-5.735	0.153	-0.104
-408.325	349.212	-0.107	0.210
-407.311	446.894	-0.135	-0.296
-406.296	-200.000	0.031	-0.217
-405.282	-131.019	-0.285	-0.038
-404.267	-200.000	0.035	0.193
-403.252	-26.624	0.214	-0.125
-402.238	-200.000	0.053	0.629
-401.223	-77.824	-0.352	-0.121
-400.209	62.649	0.145	-0.144
-399.194	-141.180	-0.105	0.011
-398.179	213.632	0.262	0.412
-397.165	85.382	0.056	0.061
-396.150	-92.243	-0.234	-0.066
-395.136	97.685	-0.174	-0.200
-394.121	413.226	-0.049	0.103
-393.106	-82.735	0.288	0.093
-392.092	800.000	-0.059	-0.189
-391.077	443.058	-0.044	-0.096
-390.063	-200.000	-0.004	-0.078
-389.048	392.386	0.103	0.212
-388.033	-200.000	0.018	-0.097
-387.019	-200.000	0.022	-0.313
-386.004	800.000	0.108	-0.441
-384.990	89.739	0.153	-0.170
-383.975	22.783	-0.142	-0.116
-382.960	-26.881	-0.242	-0.141
-381.946	-19.113	0.140	0.087
-380.931	480.819	-0.060	-0.135
-379.917	-91.277	0.092	-0.026
-378.902	245.370	-0.077	0.129
-377.888	-85.525	-0.040	0.013
-376.873	365.651	0.040	-0.079
-375.858	-200.000	0.005	-0.176
-374.844	424.807	0.054	-0.115
-373.829	-140.543	-0.212	0.022
-372.815	-158.296	-0.200	-0.012
-371.800	-62.410	0.081	0.034
-370.785	-131.720	-0.390	0.051
-369.771	-200.000	0.030	-0.160
-368.756	66.808	0.184	0.186
-367.742	321.327	-0.062	-0.118
-366.727	-177.627	0.297	-0.007
-365.712	3.166	0.198	0.144
-364.698	-46.107	-0.176	0.086
-363.683	406.938	0.061	0.129
-362.669	173.307	-0.076	0.109
-361.654	-93.149	0.176	0.049
-360.639	-180.704	-0.229	-0.005
-359.625	-200.000	0.039	0.186
-358.610	-38.937	-0.169	0.089
-357.596	-6.837	0.170	0.115
-356.581	176.613	-0.211	-0.305
-355.566	-45.734	-0.366	0.180
-354.552	-200.000	-0.004	0.119
-353.537	4.502	-0.172	0.126
-352.523	125.025	-0.103	-0.130
-351.508	83.901	-0.283	-0.307
-350.493	-24.000	-0.044	0.026
-349.479	43.738	0.214	0.195
-348.464	-183.380	-0.245	0.004
-347.450	-81.927	-0.052	-0.017
-346.435	106.367	0.111	-0.131
-345.420	-200.000	0.050	0.287
-344.406	34.443	-0.193	0.168
-343.391	-175.865	-0.304	-0.008
-342.377	434.576	0.141	0.305
-341.362	272.690	0.216	-0.379
-340.348	461.101	-0.111	0.245
-339.333	800.000	-0.051	0.178
-338.318	-200.000	0.066	0.298
-337.304	800.000	0.029	-0.092
-336.289	-4.104	-0.101	-0.069
-335.275	-200.000	0.052	0.340
-334.260	352.657	0.108	-0.214
-333.245	141.725	0.208	-0.273
-332.231	-4.912	-0.122	-0.084
-331.216	42.204	-0.058	0.053
-330.202	-200.000	-0.047	0.241
-329.187	-17.669	-0.116	-0.072
-328.172	299.057	0.129	0.235
-327.158	-68.158	0.171	0.066
-326.143	-200.000	-0.004	-0.023
-325.129	-27.975	-0.124	0.072
-324.114	-62.768	0.269	-0.111
-323.099	18.858	0.112	0.089
-322.085	800.000	-0.118	0.435
-321.070	-169.625	-0.273	-0.010
-320.056	800.000	0.042	-0.122
-319.041	87.410	0.173	0.190
-318.026	155.004	0.165	0.226
-317.012	158.961	0.103	0.142
-315.997	-200.000	0.058	0.400
-314.983	-91.282	-0.283	-0.080
-313.968	415.784	-0.137	0.289
-312.953	-62.210	0.297	-0.123
-311.939	-83.893	0.505	-0.160
-310.924	777.258	-0.033	0.090
-309.910	-135.512	-0.233	0.028
-308.895	93.730	0.156	-0.175
-307.880	800.000	0.092	-0.252
-306.866	-130.004	0.385	0.052
-305.851	-200.000	0.011	-0.098
-304.837	740.392	-0.087	0.233
-303.822	598.712	0.181	0.446
-302.807	-200.000	-0.021	-0.383
-301.793	-2.613	0.155	0.108
-300.778	41.834	0.284	-0.256
-299.764	800.000	0.089	-0.252
-298.749	504.157	0.164	-0.377
-297.735	-103.131	0.274	-0.064
-296.720	-200.000	-0.070	0.312
-295.705	28.168	0.088	0.074
-294.691	-155.912	-0.144	-0.009
-293.676	-12.288	0.272	-0.176
-292.662	134.595	-0.172	-0.221
-291.647	50.445	-0.060	0.056
-290.632	-87.556	0.084	0.025
-289.618	58.247	0.265	-0.258
-288.603	-9.436	-0.124	0.082
-287.589	211.066	-0.208	0.324
-286.574	79.580	0.258	-0.274
-285.559	-183.934	-0.245	0.004
-284.545	-200.000	0.033	-0.182
-283.530	-22.759	0.131	-0.079
-282.516	-55.292	-0.095	0.042
-281.501	-200.000	-0.016	0.205
-280.486	32.976	-0.222	0.190
-279.472	628.643	-0.107	-0.269
-278.457	800.000	-0.067	0.227
-277.443	-200.000	-0.015	-0.427
-276.428	119.730	0.103	0.126
-275.413	-53.517	-0.049	-0.022
-274.399	115.998	-0.078	0.095
-273.384	-109.542	0.181	0.038
-272.370	387.118	-0.117	-0.240
-271.355	-101.577	-0.172	-0.041
-270.340	-106.057	-0.127	-0.028
-269.326	-200.000	-0.028	-0.158
-268.311	55.579	-0.113	0.108
-267.297	34.637	-0.253	0.219
-266.282	114.913	-0.329	-0.398
-265.267	800.000	0.007	-0.024
-264.253	-110.927	0.479	0.098
-263.238	38.447	-0.213	0.188
-262.224	-53.780	0.252	-0.114
-261.209	23.456	0.208	0.170
-260.195	467.313	-0.089	-0.197
-259.180	-154.133	-0.083	-0.006
-258.165	94.319	-0.171	-0.193
-257.151	-200.000	-0.072	-0.390
-256.136	-53.980	-0.126	-0.057
-255.122	-61.842	-0.307	0.128
-254.107	274.207	-0.074	-0.129
-253.092	251.243	0.149	0.252
-252.078	388.659	0.207	0.425
-251.063	800.000	-0.092	0.308
-250.049	101.716	-0.182	-0.210
-249.034	-145.035	-0.157	0.014
-248.019	19.346	0.303	0.241
-247.005	-52.040	-0.348	0.160
-245.990	-10.535	0.331	0.217
-244.976	24.583	0.025	-0.020
-243.961	-200.000	0.024	0.178
-242.946	28.926	0.298	-0.250
-241.932	320.350	-0.113	0.213
-240.917	24.010	0.211	0.173
-239.903	371.822	0.061	0.122
-238.888	61.668	-0.093	0.092
-237.873	-40.285	-0.315	0.162
-236.859	589.467	-0.106	0.259
-235.844	800.000	-0.041	0.146
-234.830	-200.000	-0.012	-0.074
-233.815	-200.000	0.005	0.163
-232.800	-22.748	-0.199	-0.119
-231.786	48.226	0.108	0.100
-230.771	-200.000	-0.014	0.087
-229.757	-86.995	-0.069	0.021
-228.742	93.442	0.207	-0.232
-227.727	-126.277	-0.057	-0.008
-226.713	-165.237	0.485	0.021
-225.698	-109.164	-0.276	-0.058
-224.684	29.187	0.160	0.135
-223.669	-119.922	-0.281	-0.048
-222.655	-73.442	0.052	0.019
-221.640	-138.149	-0.207	0.023
-220.625	-200.000	-0.009	-0.043
-219.611	800.000	0.081	-0.300
-218.596	800.000	-0.063	0.227
-217.582	-200.000	0.049	0.253
-216.567	-168.678	0.239	-0.009
-215.552	-47.052	-0.129	-0.063
-214.538	-200.000	-0.079	-0.443
-213.523	800.000	0.076	-0.317
-212.509	-200.000	0.061	0.275
-211.494	800.000	0.095	0.377
-210.479	-47.012	-0.052	-0.025
-209.465	35.942	-0.171	0.149
-208.450	-152.775	-0.155	-0.011
-207.436	-153.135	0.328	-0.023
-206.421	646.012	-0.122	0.308
-205.406	-106.255	0.142	0.032
-204.392	-200.000	0.009	0.084
-203.377	-133.422	0.328	-0.041
-202.363	-89.175	0.199	-0.058
-201.348	33.656	-0.243	0.209
-200.333	84.458	0.171	0.185
-199.319	-200.000	0.029	0.292
-198.304	-200.000	-0.025	0.307
-197.290	-97.647	0.146	-0.037
-196.275	-200.000	-0.011	-0.053
-195.260	-200.000	-0.052	0.356
-194.246	68.270	-0.139	-0.141
-193.231	132.982	0.259	0.331
-192.217	35.725	-0.098	0.085
-191.202	53.907	-0.169	0.161
-190.187	-19.396	-0.133	0.082
-189.173	249.220	0.180	0.302
-188.158	800.000	-0.039	-0.143
-187.144	-12.933	0.141	-0.091
-186.129	800.000	0.013	0.036
-185.114	302.410	-0.136	0.248
-184.100	-200.000	0.042	0.339
-183.085	-72.022	-0.287	0.105
-182.071	800.000	-0.088	0.266
-181.056	71.038	0.120	0.123
-180.042	800.000	0.050	0.141
-179.027	411.219	0.217	-0.456
-178.012	7.699	0.099	-0.073
-176.998	110.447	0.050	-0.060
-175.983	-0.922	-0.089	0.062
-174.969	642.454	0.036	0.090
-173.954	-24.878	0.106	-0.062
-172.939	252.096	-0.051	-0.085
-171.925	25.054	0.066	0.054
-170.910	410.510	-0.038	-0.079
-169.896	291.900	-0.043	-0.078
-168.881	138.462	-0.147	-0.191
-167.866	-200.000	0.004	0.113
-166.852	373.964	0.111	0.222
-165.837	-200.000	-0.034	-0.178
-164.823	12.470	0.223	-0.170
-163.808	-1.881	-0.076	0.053
-162.793	800.000	0.033	-0.107
-161.779	-57.326	-0.393	-0.171
-160.764	800.000	-0.057	0.230
-159.750	76.727	-0.219	-0.229
-158.735	-200.000	-0.004	0.206
-157.720	800.000	-0.073	0.251
-156.706	-168.617	-0.097	-0.004
-155.691	-115.870	0.054	-0.010
-154.677	148.727	0.067	-0.089
-153.662	-94.623	0.359	-0.096
-152.647	718.941	-0.050	0.132
-151.633	-173.700	0.149	0.004
-150.618	148.707	0.183	0.244
-149.604	41.477	0.135	-0.120
-148.589	-200.000	-0.016	-0.133
-147.574	48.626	0.142	-0.131
-146.560	15.113	0.300	0.232
-145.545	-26.469	0.101	0.059
-144.531	-78.198	-0.167	-0.057
-143.516	-97.065	0.237	0.061
-142.502	1.214	0.169	0.119
-141.487	-140.395	0.140	-0.014
-140.472	-114.025	-0.243	-0.046
-139.458	41.660	-0.125	0.112
-138.443	328.015	-0.046	-0.087
-137.429	-44.162	0.322	0.160
-136.414	-45.402	-0.209	0.102
-135.399	800.000	-0.041	0.122
-134.385	-70.458	-0.199	0.074
-133.370	-63.265	-0.373	-0.151
-132.356	432.201	0.039	0.083
-131.341	-130.335	0.274	-0.037
-130.326	-30.622	-0.143	0.080
-129.312	404.104	-0.018	0.038
-128.297	281.442	-0.151	-0.267
-127.283	800.000	-0.060	-0.200
-126.268	-200.000	-0.002	0.138
-125.253	-197.001	0.247	0.002
-124.239	753.794	0.034	0.092
-123.224	-40.992	-0.290	-0.148
-122.210	-38.796	0.258	0.134
