DTS Sentinel unit serial number:	SN413079Multiplexer serial number:	ORYXHardware model number:	OX4-SRSoftware version number:	ORYX F/W v4.00 Oryx Data Collector v3.7.2.0data status	okinstallation	princeton_trtdifferential loss correction	single-endedforward channel	channel 3reverse channel	N/Adate	2019/09/16time	02:00:35forward acquisition time	60.00reverse acquisition time	0.00gamma	496.2192k internal	0.2336k external	0.2336temperature offset calibration	0.9950default loss term (dB/km)	0.3790temperature slope calibration	1.0000multiplexer offset coefficient	1.0000multiplexer slope coefficient	1.0000fibre end	0.00T internal ref (°C)	27.44T ext. ref 1 (°C)	10.10T ext. ref 2 (°C)	22.41length (m)	temperature (°C)	Stokes	anti-Stokes-747.200	85.140	0.091	0.100
-746.185	359.841	-0.044	-0.089
-745.171	-158.029	0.159	0.009
-744.156	-92.536	-0.616	0.174
-743.142	167.480	-0.075	0.107
-742.127	429.655	-0.080	0.174
-741.112	800.000	0.073	0.212
-740.098	-144.823	0.247	0.023
-739.083	-200.000	0.015	-0.244
-738.069	-66.187	-0.259	0.104
-737.054	-200.000	-0.008	-0.046
-736.039	-37.163	-0.202	0.109
-735.025	405.053	0.055	0.117
-734.010	325.172	-0.054	0.103
-732.996	359.915	0.177	0.355
-731.981	-140.987	-0.255	0.026
-730.966	-35.112	0.151	-0.083
-729.952	43.938	-0.032	-0.030
-728.937	800.000	0.072	0.229
-727.923	-6.380	-0.126	0.087
-726.908	380.417	-0.069	0.143
-725.894	-136.167	-0.205	0.024
-724.879	48.795	0.277	-0.261
-723.864	68.117	0.041	0.042
-722.850	-119.927	-0.335	0.058
-721.835	98.526	0.168	0.194
-720.821	514.552	-0.074	0.173
-719.806	785.238	-0.049	0.134
-718.791	88.709	-0.046	-0.051
-717.777	11.035	-0.286	0.219
-716.762	-78.906	0.224	0.077
-715.748	-200.000	0.022	0.148
-714.733	-74.132	0.334	0.121
-713.718	-191.466	-0.264	0.003
-712.704	-19.561	-0.206	0.128
-711.689	800.000	0.059	0.227
-710.675	-80.835	-0.411	0.137
-709.660	-152.003	0.258	-0.019
-708.645	77.629	0.157	-0.168
-707.631	34.625	0.143	-0.126
-706.616	800.000	-0.015	-0.062
-705.602	-11.083	0.073	-0.049
-704.587	52.332	0.180	0.173
-703.572	44.225	-0.070	-0.064
-702.558	-36.501	-0.377	0.203
-701.543	800.000	0.083	0.244
-700.529	-200.000	-0.001	-0.121
-699.514	-200.000	0.037	0.272
-698.499	199.882	-0.066	0.101
-697.485	587.544	0.116	0.286
-696.470	447.576	-0.133	0.294
-695.456	-200.000	0.024	-0.145
-694.441	-169.992	-0.291	0.010
-693.426	-200.000	-0.060	-0.442
-692.412	-0.445	-0.154	-0.109
-691.397	-200.000	0.049	-0.331
-690.383	52.641	-0.113	-0.108
-689.368	-200.000	0.001	0.294
-688.354	-45.994	-0.071	0.035
-687.339	63.854	-0.114	-0.115
-686.324	68.254	0.083	-0.086
-685.310	2.980	-0.149	0.109
-684.295	-176.441	-0.348	-0.009
-683.281	-96.493	-0.403	-0.107
-682.266	56.654	-0.165	0.161
-681.251	127.796	-0.259	-0.330
-680.237	800.000	0.097	0.330
-679.222	28.521	-0.069	0.058
-678.208	591.100	-0.049	0.122
-677.193	115.776	-0.161	-0.197
-676.178	-89.341	-0.081	0.024
-675.164	-200.000	0.084	0.422
-674.149	137.062	0.078	0.102
-673.135	-94.321	-0.170	0.046
-672.120	-200.000	0.013	-0.317
-671.105	-46.559	-0.264	-0.129
-670.091	67.387	0.232	0.237
-669.076	220.062	-0.158	0.254
-668.062	480.624	-0.103	-0.234
-667.047	401.345	0.073	0.153
-666.032	-37.261	0.155	0.083
-665.018	-190.141	0.240	0.003
-664.003	-200.000	-0.061	0.273
-662.989	-67.155	-0.144	-0.057
-661.974	-18.898	0.189	0.117
-660.959	-80.166	-0.013	-0.004
-659.945	-200.000	-0.008	-0.155
-658.930	625.371	-0.030	-0.076
-657.916	504.388	0.082	-0.190
-656.901	-160.444	-0.041	0.002
-655.886	-81.612	0.256	-0.084
-654.872	41.249	-0.267	-0.242
-653.857	95.723	-0.121	0.139
-652.843	28.441	-0.117	-0.099
-651.828	-170.213	0.240	0.008
-650.814	7.720	-0.085	-0.064
-649.799	74.073	0.106	-0.111
-648.784	-133.726	0.250	0.031
-647.770	-200.000	0.058	0.434
-646.755	-200.000	0.019	-0.571
-645.741	365.742	-0.075	0.151
-644.726	-168.793	-0.350	-0.013
-643.711	-51.893	0.209	0.097
-642.697	-186.214	-0.132	0.002
-641.682	767.240	0.056	-0.152
-640.668	-103.322	-0.236	-0.056
-639.653	-129.559	0.382	-0.053
-638.638	597.960	-0.157	-0.390
-637.624	26.231	-0.287	0.239
-636.609	-93.982	-0.066	0.018
-635.595	345.008	0.082	-0.161
-634.580	-46.173	0.100	0.049
-633.565	-200.000	-0.014	-0.128
-632.551	-200.000	0.017	0.272
-631.536	-135.805	0.199	0.023
-630.522	294.103	0.077	0.141
-629.507	-17.262	-0.388	0.245
-628.492	-83.784	0.158	0.050
-627.478	44.789	-0.139	0.127
-626.463	-40.579	0.277	-0.144
-625.449	-31.181	0.232	0.131
-624.434	800.000	0.121	0.336
-623.419	-51.608	0.067	-0.031
-622.405	249.089	0.190	-0.322
-621.390	800.000	0.014	-0.059
-620.376	-200.000	-0.014	-0.280
-619.361	-95.484	-0.194	-0.052
-618.346	-33.206	0.211	-0.117
-617.332	61.305	0.112	-0.111
-616.317	311.118	-0.258	-0.483
-615.303	314.182	0.093	0.175
-614.288	503.012	0.016	-0.038
-613.273	112.922	-0.125	-0.152
-612.259	343.258	-0.043	0.083
-611.244	149.414	-0.105	0.142
-610.230	-59.170	-0.092	0.039
-609.215	467.532	-0.046	-0.102
-608.201	80.389	-0.183	0.197
-607.186	-200.000	-0.013	0.121
-606.171	800.000	-0.093	-0.403
-605.157	-44.855	-0.128	0.064
-604.142	-200.000	0.022	0.178
-603.128	48.794	-0.242	0.227
-602.113	47.699	0.204	0.190
-601.098	-69.210	-0.337	-0.129
-600.084	-200.000	0.035	0.295
-599.069	218.740	0.160	0.255
-598.055	800.000	0.037	-0.130
-597.040	-200.000	0.097	-0.546
-596.025	119.452	-0.091	-0.112
-595.011	-53.829	-0.184	0.084
-593.996	52.047	-0.309	-0.294
-592.982	-188.453	0.188	-0.002
-591.967	-200.000	-0.031	-0.173
-590.952	127.397	-0.107	0.135
-589.938	259.951	0.024	-0.042
-588.923	-28.060	-0.341	-0.197
-587.909	800.000	-0.055	0.211
-586.894	640.890	-0.047	-0.120
-585.879	-4.649	-0.157	0.108
-584.865	157.149	0.173	-0.239
-583.850	-60.752	-0.170	0.072
-582.836	41.931	0.108	0.098
-581.821	156.913	0.127	0.176
-580.806	106.259	0.053	0.063
-579.792	511.424	-0.073	0.170
-578.777	-200.000	0.013	-0.224
-577.763	-54.637	0.205	-0.092
-576.748	-166.726	-0.150	-0.006
-575.733	-139.144	-0.046	-0.005
-574.719	-200.000	-0.008	0.098
-573.704	-26.251	-0.404	0.237
-572.690	-155.765	0.249	-0.016
-571.675	37.035	-0.092	-0.081
-570.661	50.690	0.151	0.143
-569.646	-26.702	-0.369	0.215
-568.631	-78.845	0.182	-0.062
-567.617	-200.000	0.001	-0.298
-566.602	-200.000	0.029	0.189
-565.588	800.000	-0.052	-0.172
-564.573	-195.713	0.181	-0.001
-563.558	-200.000	-0.013	0.151
-562.544	-159.915	-0.278	0.015
-561.529	800.000	0.081	-0.240
-560.515	-36.472	0.146	-0.079
-559.500	-42.166	-0.093	0.048
-558.485	252.539	-0.110	0.187
-557.471	-154.025	0.287	0.019
-556.456	261.874	0.107	-0.185
-555.442	637.778	-0.029	0.072
-554.427	324.470	0.099	0.188
-553.412	-200.000	-0.074	-0.325
-552.398	20.940	0.320	0.259
-551.383	-106.312	0.085	-0.019
-550.369	31.514	0.235	0.201
-549.354	800.000	-0.036	0.141
-548.339	212.885	0.164	-0.258
-547.325	-68.858	-0.128	0.049
-546.310	314.886	-0.061	0.114
-545.296	58.107	0.247	0.241
-544.281	-38.330	-0.071	-0.038
-543.266	-103.679	-0.201	0.047
-542.252	-134.884	0.064	0.008
-541.237	304.228	0.158	0.291
-540.223	513.748	0.098	0.227
-539.208	224.581	-0.123	0.199
-538.193	-83.503	-0.373	-0.119
-537.179	-200.000	-0.012	0.312
-536.164	10.077	-0.213	-0.161
-535.150	-104.631	-0.193	-0.044
-534.135	533.736	0.074	-0.175
-533.121	365.066	0.191	-0.382
-532.106	-64.249	-0.170	0.069
-531.091	-141.953	0.214	-0.021
-530.077	-166.493	0.350	0.015
-529.062	-131.363	0.216	0.028
-528.048	276.336	0.221	0.391
-527.033	55.158	-0.327	0.315
-526.018	-71.072	-0.168	0.063
-525.004	126.976	-0.177	-0.224
-523.989	500.818	0.101	-0.232
-522.975	-131.522	0.321	0.042
-521.960	-7.101	-0.230	0.155
-520.945	800.000	0.026	0.103
-519.931	800.000	0.066	-0.262
-518.916	-87.806	0.455	0.136
-517.902	-107.324	0.140	-0.031
-516.887	571.855	-0.080	0.193
-515.872	30.930	-0.119	0.101
-514.858	698.396	0.080	0.209
-513.843	-7.824	-0.077	-0.051
-512.829	-14.459	0.032	-0.020
-511.814	-11.713	0.042	0.028
-510.799	793.785	0.077	-0.210
-509.785	529.530	-0.060	-0.141
-508.770	-200.000	0.048	0.537
-507.756	-8.020	0.063	-0.042
-506.741	-200.000	-0.009	-0.129
-505.726	68.922	0.059	-0.061
-504.712	-200.000	-0.063	0.303
-503.697	669.729	0.099	-0.255
-502.683	152.438	-0.216	0.293
-501.668	71.378	-0.312	0.322
-500.653	133.494	0.100	-0.128
-499.639	-103.161	-0.235	0.055
-498.624	214.123	-0.073	-0.115
-497.610	-200.000	-0.011	0.065
-496.595	23.323	0.161	0.132
-495.581	-86.424	-0.285	-0.087
-494.566	680.024	-0.119	0.308
-493.551	20.766	0.193	0.155
-492.537	27.990	-0.288	-0.241
-491.522	60.571	-0.181	-0.178
-490.508	-200.000	0.072	-0.354
-489.493	800.000	0.076	0.329
-488.478	-200.000	-0.043	-0.313
-487.464	244.584	0.109	0.181
-486.449	-104.269	-0.055	0.013
-485.435	-200.000	-0.014	-0.071
-484.420	29.188	-0.184	0.155
-483.405	-200.000	-0.046	-0.214
-482.391	-88.486	0.292	0.087
-481.376	61.391	0.110	0.109
-480.362	-120.196	0.228	0.039
-479.347	184.615	0.170	0.250
-478.332	-200.000	0.069	0.572
-477.318	800.000	0.108	0.366
-476.303	-200.000	0.017	0.171
-475.289	-200.000	-0.014	-0.124
-474.274	-139.347	0.252	0.027
-473.259	-200.000	-0.026	0.329
-472.245	-122.191	-0.101	-0.016
-471.230	-200.000	-0.030	-0.160
-470.216	-200.000	0.021	-0.140
-469.201	53.638	0.161	-0.153
-468.186	-56.356	0.328	0.145
-467.172	-93.504	-0.429	-0.118
-466.157	35.626	0.160	0.140
-465.143	-150.151	-0.201	0.015
-464.128	-12.767	0.181	0.117
-463.113	-159.734	-0.308	-0.017
-462.099	800.000	-0.128	-0.492
-461.084	-18.814	0.019	-0.012
-460.070	800.000	0.058	0.249
-459.055	79.649	0.246	-0.263
-458.040	-110.464	0.323	-0.067
-457.026	800.000	0.088	-0.328
-456.011	76.196	0.196	-0.206
-454.997	800.000	0.012	0.048
-453.982	-9.665	0.349	0.231
-452.968	-123.234	-0.313	0.050
-451.953	443.269	-0.084	0.183
-450.938	527.659	0.108	0.253
-449.924	-125.895	0.169	-0.025
-448.909	35.990	-0.123	0.108
-447.895	535.113	0.071	0.168
-446.880	715.049	0.080	0.210
-445.865	32.234	-0.246	0.211
-444.851	301.330	-0.033	-0.061
-443.836	24.667	0.103	-0.084
-442.822	-200.000	-0.010	-0.189
-441.807	-200.000	0.336	0.000
-440.792	134.076	-0.174	-0.224
-439.778	-17.308	-0.251	-0.157
-438.763	-200.000	-0.039	0.328
-437.749	-25.994	0.264	-0.154
-436.734	68.034	-0.050	0.051
-435.719	176.695	0.266	-0.384
-434.705	800.000	0.007	0.028
-433.690	110.692	-0.137	-0.163
-432.676	43.019	-0.083	-0.075
-431.661	743.637	-0.038	-0.100
-430.646	3.569	0.208	-0.150
-429.632	-200.000	-0.028	0.266
-428.617	-14.889	0.312	0.199
-427.603	652.770	-0.062	0.157
-426.588	30.268	0.223	0.189
-425.573	800.000	-0.080	0.231
-424.559	-78.385	0.076	-0.026
-423.544	23.375	0.042	-0.034
-422.530	307.065	-0.040	-0.074
-421.515	-56.694	-0.354	-0.156
-420.500	-139.589	-0.165	0.017
-419.486	-82.395	-0.182	0.059
-418.471	44.427	0.173	-0.158
-417.457	6.144	-0.223	-0.164
-416.442	82.835	-0.214	0.231
-415.428	350.014	-0.070	-0.137
-414.413	-62.340	0.360	-0.149
-413.398	-81.870	-0.048	-0.015
-412.384	-77.840	-0.311	0.106
-411.369	-200.000	-0.036	0.349
-410.355	6.818	-0.252	0.186
-409.340	370.397	-0.080	0.160
-408.325	-95.526	0.242	0.064
-407.311	-110.102	0.196	0.041
-406.296	800.000	0.041	0.126
-405.282	-102.047	-0.396	-0.095
-404.267	105.933	0.316	-0.371
-403.252	-35.215	0.097	-0.052
-402.238	201.042	-0.100	0.152
-401.223	10.724	-0.256	-0.193
-400.209	273.911	0.148	0.260
-399.194	130.207	-0.088	-0.111
-398.179	204.948	0.066	0.102
-397.165	-200.000	-0.066	0.434
-396.150	-30.679	-0.103	-0.058
-395.136	800.000	-0.067	-0.255
-394.121	-200.000	0.002	-0.072
-393.106	-33.046	0.182	-0.100
-392.092	274.943	-0.098	-0.173
-391.077	-94.618	-0.152	0.041
-390.063	569.433	-0.109	0.263
-389.048	-200.000	-0.020	0.335
-388.033	-150.796	0.262	-0.020
-387.019	-140.621	-0.140	0.014
-386.004	800.000	0.022	-0.091
-384.990	-200.000	0.066	-0.349
-383.975	-15.404	-0.120	0.076
-382.960	800.000	-0.017	-0.070
-381.946	-104.481	-0.271	-0.062
-380.931	276.339	-0.022	-0.038
-379.917	101.814	-0.282	0.325
-378.902	-200.000	-0.034	-0.148
-377.888	-97.870	0.252	0.064
-376.873	-28.938	0.378	-0.215
-375.858	20.659	-0.072	0.058
-374.844	74.872	0.198	0.207
-373.829	-44.163	-0.193	0.096
-372.815	-200.000	-0.027	-0.226
-371.800	32.103	-0.166	-0.142
-370.785	74.270	-0.283	0.294
-369.771	716.018	0.051	0.134
-368.756	800.000	0.072	-0.301
-367.742	-109.428	0.216	-0.045
-366.727	265.602	-0.098	-0.170
-365.712	-61.675	0.099	-0.041
-364.698	-200.000	-0.008	0.000
-363.683	-200.000	0.036	0.183
-362.669	95.973	-0.169	0.191
-361.654	133.216	0.106	-0.136
-360.639	-134.384	-0.121	0.015
-359.625	800.000	0.069	-0.264
-358.610	-127.913	-0.194	-0.028
-357.596	-21.262	-0.231	-0.139
-356.581	-40.203	-0.131	-0.068
-355.566	800.000	0.088	-0.306
-354.552	-83.477	-0.080	0.025
-353.537	433.919	0.063	0.136
-352.523	-146.131	-0.315	0.027
-351.508	-200.000	-0.128	0.000
-350.493	20.576	0.295	-0.236
-349.479	45.676	0.205	0.187
-348.464	470.308	0.119	0.264
-347.450	42.404	-0.249	-0.224
-346.435	-4.830	0.403	-0.275
-345.420	170.377	-0.087	0.124
-344.406	-4.649	-0.215	0.147
-343.391	-74.504	0.255	-0.091
-342.377	331.014	0.127	-0.241
-341.362	46.652	-0.479	0.439
-340.348	228.915	0.085	0.136
-339.333	-200.000	0.058	-0.279
-338.318	-97.783	0.292	-0.075
-337.304	375.125	0.070	-0.141
-336.289	-200.000	0.008	0.000
-335.275	-22.278	0.280	-0.168
-334.260	-200.000	-0.037	-0.177
-333.245	279.041	0.132	-0.233
-332.231	173.539	-0.044	-0.062
-331.216	-147.020	-0.201	-0.017
-330.202	800.000	0.114	0.343
-329.187	172.001	-0.075	0.106
-328.172	-200.000	0.021	-0.125
-327.158	130.539	-0.216	0.274
-326.143	246.340	0.141	0.234
-325.129	-27.536	-0.236	0.135
-324.114	170.061	-0.053	-0.074
-323.099	-156.411	-0.051	0.003
-322.085	-28.575	-0.125	0.071
-321.070	800.000	0.033	-0.115
-320.056	25.484	-0.091	0.075
-319.041	-0.157	0.086	0.060
-318.026	118.094	0.121	-0.147
-317.012	-200.000	-0.042	-0.383
-315.997	-113.025	0.132	0.026
-314.983	800.000	-0.082	-0.271
-313.968	228.898	-0.051	0.082
-312.953	74.450	0.189	0.196
-311.939	800.000	-0.024	-0.086
-310.924	12.608	0.191	0.145
-309.910	371.230	-0.139	-0.278
-308.895	-103.644	-0.123	-0.028
-307.880	-109.241	-0.293	0.061
-306.866	-61.039	0.289	-0.121
-305.851	130.339	-0.148	-0.187
-304.837	800.000	0.043	-0.123
-303.822	-26.712	0.244	-0.141
-302.807	-122.492	0.120	0.019
-301.793	800.000	-0.013	-0.056
-300.778	38.155	-0.184	-0.161
-299.764	269.076	-0.153	-0.266
-298.749	-50.231	0.138	-0.064
-297.735	800.000	0.053	-0.148
-296.720	712.029	-0.105	-0.275
-295.705	-68.392	-0.131	0.050
-294.691	-200.000	0.042	-0.194
-293.676	227.930	-0.122	0.196
-292.662	-89.776	0.141	0.041
-291.647	25.183	-0.107	-0.088
-290.632	93.326	0.237	0.264
-289.618	19.460	0.283	-0.224
-288.603	-200.000	0.001	-0.263
-287.589	393.897	-0.051	-0.106
-286.574	-121.062	-0.306	0.051
-285.559	-49.486	0.296	-0.139
-284.545	-175.708	-0.222	-0.006
-283.530	-2.871	0.165	0.114
-282.516	372.785	-0.087	-0.175
-281.501	-200.000	-0.033	0.286
-280.486	-122.315	0.247	-0.040
-279.472	94.359	0.163	0.182
-278.457	260.436	0.095	0.163
-277.443	-200.000	-0.091	0.424
-276.428	467.240	0.273	0.604
-275.413	-22.651	-0.318	0.190
-274.399	-200.000	0.030	-0.379
-273.384	213.417	0.199	-0.310
-272.370	67.674	0.126	0.127
-271.355	-86.112	-0.287	0.087
-270.340	-26.330	-0.126	-0.073
-269.326	800.000	-0.051	0.193
-268.311	14.252	-0.262	0.201
-267.297	256.669	0.202	-0.341
-266.282	290.791	-0.101	-0.180
-265.267	-73.545	-0.523	-0.188
-264.253	-134.194	-0.252	-0.031
-263.238	-131.388	-0.239	0.031
-262.224	800.000	0.065	0.219
-261.209	205.360	-0.205	0.314
-260.195	-33.759	-0.131	-0.071
-259.180	60.589	0.184	0.179
-258.165	33.119	-0.309	0.264
-257.151	-200.000	-0.010	0.225
-256.136	-22.497	-0.423	-0.252
-255.122	47.109	-0.149	0.137
-254.107	401.543	-0.036	-0.074
-253.092	-61.665	0.077	0.032
-252.078	-28.319	0.336	-0.191
-251.063	181.214	-0.130	-0.188
-250.049	-200.000	-0.032	-0.155
-249.034	-62.096	0.273	-0.112
-248.019	-200.000	0.039	-0.251
-247.005	71.249	-0.133	-0.136
-245.990	119.677	-0.085	0.104
-244.976	12.220	-0.082	-0.062
-243.961	51.841	0.049	0.046
-242.946	-200.000	0.009	0.208
-241.932	484.730	-0.158	0.354
-240.917	412.003	-0.125	0.261
-239.903	180.541	0.243	-0.351
-238.888	-120.944	0.165	-0.027
-237.873	284.699	0.114	-0.203
-236.859	99.171	-0.126	0.144
-235.844	491.073	0.087	-0.195
-234.830	214.588	0.200	-0.313
-233.815	-131.975	0.102	-0.013
-232.800	75.193	0.151	-0.157
-231.786	-63.697	-0.015	-0.006
-230.771	-113.501	0.239	0.046
-229.757	-200.000	-0.005	-0.166
-228.742	14.845	-0.285	0.219
-227.727	391.223	-0.180	-0.368
-226.713	-53.379	-0.069	0.031
-225.698	163.600	-0.208	0.288
-224.684	68.061	0.282	0.284
-223.669	64.754	-0.204	0.203
-222.655	-57.496	0.068	0.029
-221.640	800.000	-0.036	-0.098
-220.625	-200.000	-0.054	0.243
-219.611	161.721	-0.079	-0.109
-218.596	-200.000	0.016	-0.158
-217.582	6.286	0.214	0.156
-216.567	-200.000	0.010	0.089
-215.552	-164.502	0.099	-0.004
-214.538	108.562	0.043	0.050
-213.523	800.000	0.071	0.293
-212.509	-58.796	0.232	0.099
-211.494	143.844	0.277	0.363
-210.479	13.576	0.093	-0.071
-209.465	-6.620	-0.257	0.172
-208.450	-200.000	0.017	-0.311
-207.436	-81.818	0.290	-0.094
-206.421	-86.546	-0.268	-0.081
-205.406	135.196	-0.143	0.183
-204.392	800.000	0.071	-0.253
-203.377	258.196	0.159	-0.269
-202.363	-200.000	0.011	-0.099
-201.348	141.225	0.189	-0.246
-200.333	172.800	0.184	-0.261
-199.319	800.000	-0.123	-0.335
-198.304	153.557	0.081	-0.109
-197.290	-90.496	-0.215	0.061
-196.275	624.815	-0.077	0.190
-195.260	13.297	-0.116	0.088
-194.246	-107.744	0.255	-0.055
-193.231	-1.713	0.348	-0.241
-192.217	-30.673	0.130	-0.072
-191.202	-64.392	0.128	-0.051
-190.187	-200.000	-0.016	0.130
-189.173	-38.182	0.121	0.063
-188.158	90.447	0.145	-0.160
-187.144	-34.861	-0.125	0.067
-186.129	101.294	0.163	-0.187
-185.114	25.836	0.151	-0.124
-184.100	800.000	0.024	0.069
-183.085	199.379	-0.099	0.149
-182.071	268.523	-0.092	0.158
-181.056	-51.410	-0.161	0.074
-180.042	-200.000	-0.050	-0.294
-179.027	800.000	-0.029	-0.080
-178.012	14.933	-0.069	0.053
-176.998	160.328	-0.198	0.271
-175.983	-127.347	-0.008	0.001
-174.969	-23.580	-0.148	-0.087
-173.954	800.000	0.062	0.198
-172.939	85.337	0.095	-0.102
-171.925	44.103	0.136	-0.123
-170.910	43.700	0.039	0.035
-169.896	78.288	-0.210	0.220
-168.881	-13.293	0.481	-0.307
-167.866	-200.000	0.002	0.166
-166.852	-200.000	0.053	-0.260
-165.837	416.626	0.053	0.111
-164.823	631.386	0.022	0.056
-163.808	2.375	-0.188	-0.133
-162.793	800.000	-0.017	-0.066
-161.779	-25.011	-0.311	-0.181
-160.764	-59.556	-0.054	0.023
-159.750	428.869	0.037	-0.079
-158.735	-200.000	-0.022	0.187
-157.720	56.406	-0.164	-0.156
-156.706	-115.185	0.194	-0.036
-155.691	-200.000	0.275	0.000
-154.677	-114.628	-0.096	0.018
-153.662	-110.129	-0.180	-0.037
-152.647	175.111	0.015	-0.022
-151.633	-170.118	0.175	0.006
-150.618	150.382	0.148	0.197
-149.604	608.920	-0.231	0.566
-148.589	-37.105	0.237	-0.124
-147.574	20.134	-0.072	-0.057
-146.560	124.832	0.236	0.291
-145.545	102.412	-0.132	0.151
-144.531	63.733	-0.130	0.128
-143.516	573.660	-0.019	-0.046
-142.502	32.390	0.119	0.101
-141.487	1.488	0.189	0.134
-140.472	-52.368	0.099	0.045
-139.458	-90.288	0.200	-0.057
-138.443	-200.000	-0.036	-0.387
-137.429	274.933	-0.164	-0.286
-136.414	-200.000	0.007	-0.056
-135.399	-200.000	0.014	-0.115
-134.385	16.135	-0.250	0.193
-133.370	-131.017	-0.230	0.030
-132.356	-200.000	-0.001	0.299
-131.341	-38.643	0.119	0.062
-130.326	656.032	-0.085	0.215
-129.312	182.062	0.228	-0.329
-128.297	800.000	-0.065	0.254
-127.283	-200.000	-0.016	0.164
-126.268	-6.668	-0.267	-0.178
-125.253	86.802	0.173	0.187
-124.239	205.612	0.093	0.142
-123.224	-200.000	-0.008	-0.117
-122.210	288.790	-0.122	0.218
-121.195	93.322	0.156	-0.173
-120.180	-128.219	0.338	0.047
