DTS Sentinel unit serial number:	SN413079Multiplexer serial number:	ORYXHardware model number:	OX4-SRSoftware version number:	ORYX F/W v4.00 Oryx Data Collector v3.7.2.0data status	okinstallation	princeton_trtdifferential loss correction	single-endedforward channel	channel 3reverse channel	N/Adate	2019/09/16time	04:44:35forward acquisition time	60.00reverse acquisition time	0.00gamma	496.2192k internal	0.2336k external	0.2336temperature offset calibration	0.9957default loss term (dB/km)	0.3790temperature slope calibration	1.0000multiplexer offset coefficient	1.0000multiplexer slope coefficient	1.0000fibre end	0.00T internal ref (°C)	27.19T ext. ref 1 (°C)	10.92T ext. ref 2 (°C)	21.47length (m)	temperature (°C)	Stokes	anti-Stokes-747.200	-10.256	0.204	-0.136
-746.185	380.130	-0.108	-0.222
-745.171	-18.354	0.486	0.305
-744.156	81.097	-0.195	0.211
-743.142	53.844	0.019	-0.018
-742.127	-200.000	0.257	0.000
-741.112	54.891	0.325	-0.315
-740.098	800.000	-0.064	0.203
-739.083	-200.000	0.043	0.195
-738.069	-200.000	-0.022	0.201
-737.054	29.085	-0.144	-0.122
-736.039	800.000	0.038	-0.129
-735.025	-200.000	0.024	-0.193
-734.010	800.000	-0.078	-0.265
-732.996	163.778	0.087	0.122
-731.981	-110.889	-0.064	0.013
-730.966	800.000	-0.080	0.262
-729.952	28.463	0.169	-0.143
-728.937	-200.000	-0.083	-0.432
-727.923	115.704	-0.060	-0.074
-726.908	-96.247	0.216	-0.057
-725.894	-46.488	0.376	-0.185
-724.879	108.561	0.113	0.135
-723.864	-18.332	-0.373	-0.234
-722.850	-200.000	-0.060	-0.285
-721.835	278.718	0.153	0.274
-720.821	-162.170	-0.242	0.012
-719.806	-200.000	0.016	-0.111
-718.791	28.555	0.179	-0.152
-717.777	43.090	-0.237	0.217
-716.762	73.090	0.069	0.073
-715.748	-151.695	-0.303	-0.022
-714.733	228.565	-0.098	0.160
-713.718	-49.723	-0.155	0.074
-712.704	-136.135	0.068	0.008
-711.689	-198.445	-0.023	0.000
-710.675	247.964	-0.040	0.068
-709.660	-12.404	-0.270	0.177
-708.645	-90.568	0.257	0.075
-707.631	-73.639	0.084	-0.031
-706.616	192.647	-0.111	-0.169
-705.602	276.636	-0.256	0.457
-704.587	-149.930	-0.385	0.030
-703.572	-200.000	-0.019	0.247
-702.558	-80.894	-0.347	-0.115
-701.543	800.000	-0.098	-0.371
-700.529	800.000	0.086	0.301
-699.514	-200.000	0.008	-0.179
-698.499	800.000	0.029	-0.123
-697.485	179.899	-0.091	-0.134
-696.470	800.000	0.066	0.237
-695.456	-95.691	-0.196	0.052
-694.441	-11.411	-0.075	0.050
-693.426	-200.000	-0.032	0.198
-692.412	41.964	-0.200	0.182
-691.397	-81.854	0.088	-0.029
-690.383	14.352	-0.247	0.193
-689.368	18.632	0.224	0.180
-688.354	-8.767	-0.271	0.182
-687.339	-5.303	0.134	0.092
-686.324	-67.406	-0.136	-0.054
-685.310	280.351	0.190	-0.340
-684.295	-200.000	-0.022	0.222
-683.281	109.371	-0.177	-0.212
-682.266	-153.725	0.110	-0.008
-681.251	-200.000	-0.010	-0.092
-680.237	21.248	-0.100	0.081
-679.222	271.657	-0.115	0.203
-678.208	-116.527	-0.342	0.063
-677.193	-200.000	-0.003	-0.239
-676.178	764.470	-0.078	-0.212
-675.164	-162.309	-0.375	-0.019
-674.149	552.934	-0.039	0.095
-673.135	105.435	0.267	0.316
-672.120	-10.450	-0.289	-0.192
-671.105	-200.000	-0.049	-0.227
-670.091	-200.000	0.006	-0.219
-669.076	7.849	-0.237	0.178
-668.062	25.343	0.164	0.136
-667.047	800.000	0.025	0.070
-666.032	329.574	-0.156	-0.300
-665.018	70.628	0.085	-0.088
-664.003	-69.681	0.327	0.125
-662.989	41.635	0.356	0.322
-661.974	800.000	-0.050	-0.205
-660.959	-200.000	0.012	-0.212
-659.945	84.238	-0.246	0.269
-658.930	-140.014	-0.121	-0.013
-657.916	-108.225	0.071	0.015
-656.901	24.157	0.244	0.202
-655.886	44.218	0.093	0.085
-654.872	278.235	0.118	0.211
-653.857	23.940	-0.103	0.085
-652.843	-73.432	0.214	0.078
-651.828	-78.098	-0.050	-0.017
-650.814	-143.038	0.185	0.018
-649.799	615.831	0.133	0.335
-648.784	177.595	-0.097	-0.142
-647.770	-200.000	0.020	-0.312
-646.755	209.149	0.093	-0.145
-645.741	-200.000	0.028	-0.250
-644.726	-154.825	-0.150	0.010
-643.711	30.299	0.132	0.113
-642.697	800.000	-0.047	-0.137
-641.682	-55.280	-0.352	-0.158
-640.668	-74.552	-0.182	-0.066
-639.653	-57.604	-0.507	-0.222
-638.638	-200.000	0.033	-0.309
-637.624	163.240	0.126	0.177
-636.609	-26.194	-0.175	-0.103
-635.595	114.323	0.048	-0.059
-634.580	-159.490	0.448	-0.025
-633.565	43.231	-0.365	-0.333
-632.551	-156.378	0.152	0.009
-631.536	-37.518	0.184	-0.098
-630.522	-200.000	0.057	-0.609
-629.507	301.280	-0.103	-0.189
-628.492	-200.000	0.068	-0.509
-627.478	-133.687	-0.213	-0.027
-626.463	-37.056	0.317	0.170
-625.449	-104.930	-0.429	-0.098
-624.434	-86.704	0.204	0.062
-623.419	-33.274	-0.221	0.122
-622.405	-133.503	0.119	0.015
-621.390	-200.000	-0.011	-0.113
-620.376	27.933	0.290	-0.244
-619.361	-31.286	-0.095	-0.053
-618.346	424.284	0.038	-0.082
-617.332	256.236	0.186	-0.319
-616.317	-5.669	0.389	-0.267
-615.303	-89.155	0.373	-0.110
-614.288	382.316	-0.177	0.363
-613.273	800.000	-0.069	-0.208
-612.259	-122.504	0.340	0.055
-611.244	-11.773	-0.250	0.164
-610.230	66.787	-0.221	-0.225
-609.215	-200.000	0.029	0.292
-608.201	-10.914	0.175	0.116
-607.186	-89.895	0.033	-0.010
-606.171	-200.000	0.003	0.112
-605.157	-128.277	0.314	0.045
-604.142	68.880	-0.063	-0.065
-603.128	461.159	0.076	-0.169
-602.113	222.444	-0.006	0.009
-601.098	-134.310	0.250	-0.031
-600.084	460.384	-0.050	-0.111
-599.069	-200.000	-0.053	0.381
-598.055	-125.628	-0.191	0.029
-597.040	-145.955	0.154	0.014
-596.025	185.656	0.027	-0.039
-595.011	162.477	0.098	0.137
-593.996	-135.026	-0.166	-0.020
-592.982	467.831	0.027	-0.060
-591.967	-100.446	0.253	-0.062
-590.952	-114.525	0.056	-0.011
-589.938	370.650	-0.085	0.172
-588.923	755.430	-0.119	-0.322
-587.909	-148.952	0.121	0.010
-586.894	800.000	0.034	-0.121
-585.879	43.283	0.023	-0.021
-584.865	-200.000	-0.012	0.081
-583.850	800.000	-0.085	-0.337
-582.836	-165.498	0.222	0.010
-581.821	-200.000	0.047	-0.257
-580.806	20.202	0.257	0.207
-579.792	-200.000	0.038	0.191
-578.777	-96.474	-0.082	0.022
-577.763	-200.000	0.005	-0.372
-576.748	-25.779	0.485	-0.285
-575.733	-47.328	0.277	0.135
-574.719	800.000	-0.026	0.099
-573.704	-108.947	-0.159	0.034
-572.690	-92.923	-0.149	-0.041
-571.675	-40.994	0.168	0.086
-570.661	-74.690	-0.500	-0.179
-569.646	78.587	0.095	-0.101
-568.631	800.000	-0.076	-0.245
-567.617	302.268	0.195	0.360
-566.602	197.220	0.106	-0.161
-565.588	158.935	0.129	0.179
-564.573	-33.536	-0.203	-0.112
-563.558	421.027	-0.058	0.123
-562.544	-114.448	0.208	-0.040
-561.529	-161.799	0.073	0.004
-560.515	-200.000	-0.004	-0.090
-559.500	-187.272	0.232	-0.003
-558.485	12.298	0.316	-0.243
-557.471	-200.000	-0.008	-0.136
-556.456	-2.620	0.131	-0.091
-555.442	-139.373	-0.420	0.045
-554.427	130.270	0.244	0.312
-553.412	230.704	-0.190	0.309
-552.398	800.000	-0.033	-0.098
-551.383	-200.000	-0.029	-0.194
-550.369	30.102	-0.057	0.048
-549.354	-200.000	0.044	0.208
-548.339	-87.723	-0.315	0.095
-547.325	219.797	0.062	-0.099
-546.310	-88.774	0.429	-0.127
-545.296	241.011	-0.175	-0.292
-544.281	135.727	0.022	-0.028
-543.266	-76.820	-0.166	0.058
-542.252	-65.797	0.147	0.059
-541.237	122.516	-0.078	0.098
-540.223	-137.052	-0.096	0.011
-539.208	-200.000	0.281	-0.001
-538.193	723.437	-0.081	-0.215
-537.179	-200.000	0.035	-0.200
-536.164	-94.331	-0.251	0.068
-535.150	268.133	0.083	0.145
-534.135	-95.258	-0.284	-0.076
-533.121	90.525	-0.067	-0.075
-532.106	-23.454	0.256	-0.153
-531.091	-97.017	-0.287	0.075
-530.077	101.553	-0.086	0.100
-529.062	-120.411	-0.087	-0.015
-528.048	-171.733	-0.222	-0.007
-527.033	298.522	-0.181	-0.332
-526.018	331.123	-0.022	-0.043
-525.004	-200.000	-0.162	0.001
-523.989	-39.991	0.209	-0.109
-522.975	-93.171	-0.181	-0.050
-521.960	-67.725	-0.124	-0.048
-520.945	-200.000	-0.060	0.297
-519.931	-153.985	0.098	-0.007
-518.916	-200.000	-0.004	-0.115
-517.902	118.491	-0.204	-0.251
-516.887	-20.945	-0.227	-0.139
-515.872	-78.544	0.531	-0.181
-514.858	-120.299	-0.037	-0.006
-513.843	54.069	-0.167	0.160
-512.829	-200.000	0.013	-0.284
-511.814	-11.786	0.087	-0.057
-510.799	800.000	0.010	-0.028
-509.785	411.948	0.130	0.276
-508.770	-50.392	0.218	-0.102
-507.756	-23.064	0.123	-0.074
-506.741	182.471	-0.034	0.049
-505.726	359.368	-0.069	0.138
-504.712	127.797	0.095	-0.120
-503.697	153.294	0.234	0.318
-502.683	-42.975	0.283	0.143
-501.668	112.860	-0.117	0.141
-500.653	296.628	-0.107	-0.196
-499.639	100.188	0.227	-0.261
-498.624	-61.764	0.114	0.047
-497.610	116.106	-0.051	0.063
-496.595	800.000	-0.070	0.275
-495.581	-114.293	0.189	0.036
-494.566	118.008	0.284	-0.348
-493.551	-126.447	-0.266	0.039
-492.537	-59.812	-0.106	-0.045
-491.522	-200.000	-0.018	0.326
-490.508	1.012	0.189	-0.135
-489.493	800.000	0.040	-0.134
-488.478	800.000	-0.070	-0.204
-487.464	82.695	-0.206	-0.223
-486.449	36.091	0.047	0.042
-485.435	-150.011	0.276	-0.021
-484.420	165.834	0.278	-0.391
-483.405	735.872	-0.101	-0.270
-482.391	-57.117	-0.152	-0.066
-481.376	53.857	0.074	-0.071
-480.362	-107.156	0.394	-0.086
-479.347	169.090	0.118	-0.167
-478.332	-200.000	-0.025	0.123
-477.318	86.817	-0.106	-0.116
-476.303	164.692	-0.130	0.182
-475.289	-93.487	-0.166	-0.046
-474.274	-11.735	0.118	-0.077
-473.259	-67.898	-0.200	-0.078
-472.245	-148.316	0.026	-0.002
-471.230	61.241	-0.099	-0.098
-470.216	185.234	-0.081	0.120
-469.201	-200.000	0.033	0.474
-468.186	-11.703	0.266	-0.173
-467.172	-200.000	0.009	-0.064
-466.157	-133.384	-0.152	-0.019
-465.143	-47.323	0.227	-0.110
-464.128	178.295	-0.049	0.071
-463.113	-19.266	0.307	-0.190
-462.099	-47.079	0.216	0.105
-461.084	-44.572	0.176	-0.087
-460.070	-200.000	-0.003	0.149
-459.055	800.000	0.080	-0.250
-458.040	-8.997	-0.159	0.106
-457.026	221.721	-0.070	-0.112
-456.011	187.058	-0.124	-0.183
-454.997	130.760	-0.158	-0.201
-453.982	171.561	-0.170	-0.242
-452.968	4.774	-0.131	-0.095
-451.953	171.034	-0.126	-0.179
-450.938	-77.238	0.249	-0.086
-449.924	10.542	-0.183	-0.138
-448.909	-155.299	0.343	0.022
-447.895	296.305	-0.025	-0.045
-446.880	-83.101	0.284	-0.091
-445.865	-85.732	0.199	-0.061
-444.851	465.686	0.050	-0.110
-443.836	62.667	-0.234	0.232
-442.822	800.000	-0.060	0.261
-441.807	110.296	-0.111	0.132
-440.792	-136.191	0.363	0.042
-439.778	-118.280	-0.135	-0.024
-438.763	-71.807	0.310	-0.115
-437.749	181.820	0.200	-0.292
-436.734	193.859	-0.047	0.071
-435.719	800.000	-0.077	-0.271
-434.705	-77.906	0.107	-0.036
-433.690	11.072	-0.184	-0.139
-432.676	-70.976	0.082	-0.031
-431.661	-45.695	-0.090	0.044
-430.646	-200.000	-0.004	0.194
-429.632	-94.161	0.111	0.030
-428.617	-45.939	-0.283	-0.138
-427.603	455.533	-0.051	-0.112
-426.588	800.000	-0.032	0.135
-425.573	-200.000	0.006	0.169
-424.559	-82.739	-0.151	0.048
-423.544	56.779	-0.135	0.130
-422.530	355.188	0.096	-0.189
-421.515	-200.000	-0.027	-0.167
-420.500	84.900	-0.086	-0.094
-419.486	190.042	0.278	0.414
-418.471	350.505	-0.026	0.052
-417.457	-8.645	0.251	-0.167
-416.442	353.476	-0.102	-0.201
-415.428	-62.953	0.202	0.083
-414.413	-157.891	0.134	-0.008
-413.398	174.390	0.111	0.160
-412.384	-200.000	0.022	-0.207
-411.369	82.278	-0.160	-0.172
-410.355	55.148	0.206	-0.197
-409.340	-15.547	0.457	0.289
-408.325	-51.124	-0.085	0.039
-407.311	43.825	-0.340	0.309
-406.296	67.466	-0.148	0.149
-405.282	800.000	0.145	0.436
-404.267	-75.613	0.460	0.162
-403.252	204.296	-0.145	-0.223
-402.238	-200.000	-0.001	0.023
-401.223	507.450	0.126	0.289
-400.209	2.732	-0.123	-0.088
-399.194	-17.809	-0.124	-0.077
-398.179	23.436	-0.176	0.143
-397.165	800.000	-0.084	0.245
-396.150	-160.854	0.190	-0.010
-395.136	-141.706	0.253	0.025
-394.121	-131.813	-0.645	0.084
-393.106	-123.818	0.234	-0.037
-392.092	119.968	0.040	0.049
-391.077	-160.339	-0.362	-0.019
-390.063	-40.498	0.282	0.145
-389.048	260.372	0.036	-0.061
-388.033	-200.000	0.044	-0.240
-387.019	-88.919	0.107	-0.031
-386.004	55.386	-0.207	0.198
-384.990	122.508	0.243	0.301
-383.975	800.000	0.140	0.417
-382.960	-18.051	-0.047	0.029
-381.946	11.124	-0.118	0.089
-380.931	-40.899	-0.147	-0.075
-379.917	239.627	0.035	-0.058
-378.902	75.998	-0.106	0.111
-377.888	-200.000	0.047	0.257
-376.873	288.651	0.081	-0.146
-375.858	-90.118	-0.085	-0.025
-374.844	-24.369	0.065	-0.038
-373.829	-58.657	-0.254	-0.109
-372.815	-99.606	-0.512	-0.127
-371.800	71.763	0.070	-0.072
-370.785	-200.000	-0.043	-0.346
-369.771	-146.856	-0.339	0.029
-368.756	-116.018	0.082	0.015
-367.742	-200.000	-0.016	-0.224
-366.727	800.000	-0.061	0.177
-365.712	155.606	0.077	0.105
-364.698	560.374	0.062	0.148
-363.683	4.386	0.164	0.119
-362.669	37.209	0.144	-0.127
-361.654	-120.402	0.274	-0.046
-360.639	-200.000	-0.055	0.325
-359.625	97.979	0.095	-0.108
-358.610	-83.397	-0.136	0.043
-357.596	11.685	0.227	0.172
-356.581	241.398	0.014	0.023
-355.566	288.006	0.104	0.186
-354.552	800.000	-0.019	0.062
-353.537	-83.199	-0.282	0.090
-352.523	134.611	-0.113	0.146
-351.508	-140.690	-0.197	0.020
-350.493	-200.000	-0.002	-0.216
-349.479	5.428	0.089	0.065
-348.464	-135.099	0.281	0.033
-347.450	-200.000	-0.017	0.177
-346.435	-174.012	-0.418	0.012
-345.420	-67.969	-0.166	-0.064
-344.406	-200.000	0.048	0.262
-343.391	115.804	-0.140	-0.169
-342.377	-151.807	-0.194	-0.014
-341.362	-100.198	-0.370	0.091
-340.348	-200.000	0.037	0.238
-339.333	251.752	0.278	-0.468
-338.318	593.398	-0.086	-0.211
-337.304	115.852	-0.189	-0.229
-336.289	-6.181	-0.095	-0.064
-335.275	26.500	-0.305	0.252
-334.260	-18.680	-0.064	0.040
-333.245	210.476	-0.251	0.390
-332.231	749.943	-0.057	0.152
-331.216	-108.413	0.106	-0.023
-330.202	-87.702	-0.356	-0.106
-329.187	46.841	0.220	0.202
-328.172	90.871	-0.171	0.189
-327.158	-200.000	0.013	0.122
-326.143	-160.070	0.198	0.011
-325.129	800.000	0.106	0.302
-324.114	-106.324	0.300	-0.066
-323.099	-77.658	0.253	0.087
-322.085	-102.808	0.327	0.077
-321.070	-62.235	-0.341	-0.140
-320.056	-6.409	-0.162	0.109
-319.041	-200.000	0.031	0.149
-318.026	-200.000	0.033	0.147
-317.012	800.000	-0.080	0.321
-315.997	-135.611	0.163	0.019
-314.983	800.000	0.050	-0.209
-313.968	-200.000	-0.075	0.345
-312.953	-98.908	0.240	0.060
-311.939	462.907	0.149	0.328
-310.924	-56.029	-0.139	-0.061
-309.910	800.000	0.071	-0.248
-308.895	-163.840	0.244	-0.011
-307.880	-116.928	-0.061	0.011
-306.866	-61.363	-0.074	0.031
-305.851	-73.978	0.350	0.125
-304.837	-200.000	0.034	0.276
-303.822	-200.000	-0.021	0.198
-302.807	-137.851	0.301	-0.033
-301.793	-150.028	-0.087	-0.007
-300.778	-120.696	0.165	0.028
-299.764	188.372	0.121	-0.178
-298.749	256.199	-0.100	-0.169
-297.735	-200.000	0.030	-0.311
-296.720	153.777	-0.079	0.106
-295.705	-200.000	-0.020	0.151
-294.691	-200.000	-0.021	0.121
-293.676	217.755	-0.067	0.105
-292.662	-200.000	-0.020	0.130
-291.647	80.818	0.200	0.213
-290.632	157.906	-0.274	-0.374
-289.618	-76.904	-0.148	0.051
-288.603	-15.349	-0.096	0.060
-287.589	-171.970	0.200	-0.006
-286.574	173.012	-0.044	-0.063
-285.559	-99.257	0.130	0.032
-284.545	-39.003	-0.191	-0.099
-283.530	-72.092	-0.375	0.137
-282.516	26.027	-0.297	-0.244
-281.501	-134.028	-0.221	-0.027
-280.486	597.563	0.084	0.205
-279.472	-200.000	0.015	0.196
-278.457	-42.588	0.293	-0.147
-277.443	-200.000	-0.014	-0.119
-276.428	-200.000	-0.185	0.001
-275.413	-55.570	-0.176	-0.078
-274.399	336.305	-0.045	0.086
-273.384	800.000	-0.038	0.129
-272.370	400.129	0.205	0.423
-271.355	-83.470	0.211	-0.067
-270.340	-54.256	-0.077	0.034
-269.326	-40.720	0.208	0.106
-268.311	86.941	-0.121	0.132
-267.297	10.562	-0.155	0.116
-266.282	-41.925	0.249	0.126
-265.267	-24.661	-0.313	-0.184
-264.253	-104.226	0.120	-0.028
-263.238	251.395	-0.277	-0.464
-262.224	-74.259	-0.262	-0.093
-261.209	800.000	0.050	-0.202
-260.195	189.310	-0.068	0.100
-259.180	800.000	0.108	-0.431
-258.165	-200.000	-0.020	0.161
-257.151	-200.000	0.011	0.260
-256.136	50.812	0.189	0.176
-255.122	59.042	-0.394	-0.382
-254.107	185.247	-0.134	0.196
-253.092	-200.000	-0.040	0.300
-252.078	174.289	0.180	0.256
-251.063	131.708	0.195	-0.247
-250.049	-200.000	-0.041	-0.205
-249.034	-200.000	-0.051	-0.405
-248.019	-28.296	-0.089	0.051
-247.005	-200.000	-0.010	-0.176
-245.990	800.000	0.015	-0.045
-244.976	179.916	0.150	0.217
-243.961	458.440	-0.184	0.402
-242.946	61.369	0.132	0.129
-241.932	-25.838	-0.091	0.053
-240.917	-166.033	0.247	0.010
-239.903	-53.897	-0.143	-0.064
-238.888	-200.000	0.018	0.267
-237.873	-94.412	0.203	0.055
-236.859	-101.511	-0.147	-0.035
-235.844	-164.475	-0.205	0.009
-234.830	792.168	0.021	-0.058
-233.815	-123.383	0.186	-0.029
-232.800	-200.000	-0.032	-0.338
-231.786	58.294	-0.160	-0.154
-230.771	-200.000	0.006	-0.406
-229.757	326.128	-0.046	-0.087
-228.742	-178.204	-0.255	0.006
-227.727	800.000	0.016	-0.068
-226.713	-167.730	-0.259	0.010
-225.698	-200.000	0.000	-0.216
-224.684	800.000	0.053	-0.171
-223.669	-200.000	-0.024	-0.106
-222.655	96.082	-0.090	0.101
-221.640	198.395	0.119	0.180
-220.625	131.655	0.187	0.237
-219.611	-141.586	-0.048	0.005
-218.596	470.138	-0.169	0.374
-217.582	-136.711	-0.251	0.028
-216.567	-26.388	-0.128	0.074
-215.552	-187.996	-0.186	-0.002
-214.538	102.440	0.085	0.098
-213.523	382.075	0.045	0.091
-212.509	-156.222	0.251	0.016
-211.494	-55.974	-0.106	0.046
-210.479	3.555	-0.005	-0.003
-209.465	10.977	-0.240	-0.180
-208.450	800.000	0.072	0.200
-207.436	21.370	0.036	-0.029
-206.421	472.522	-0.192	0.425
-205.406	138.287	-0.200	0.258
-204.392	-29.566	-0.264	0.148
-203.377	-54.006	0.120	-0.054
-202.363	-76.894	0.267	0.092
-201.348	271.749	-0.227	0.394
-200.333	694.243	-0.095	0.244
-199.319	175.253	0.296	-0.421
-198.304	27.521	-0.087	0.072
-197.290	22.143	-0.328	-0.263
-196.275	-51.286	0.650	-0.299
-195.260	46.360	0.316	0.288
-194.246	800.000	0.210	0.609
-193.231	-200.000	-0.015	0.081
-192.217	-71.574	-0.138	0.051
-191.202	93.688	0.055	0.061
-190.187	333.410	-0.042	-0.080
-189.173	-80.731	-0.340	0.111
-188.158	800.000	-0.063	-0.218
-187.144	-200.000	0.042	0.468
-186.129	-200.000	-0.025	-0.325
-185.114	-105.370	0.099	-0.022
-184.100	-147.583	-0.628	-0.052
-183.085	266.097	0.160	0.275
-182.071	90.365	0.088	0.097
-181.056	9.003	-0.252	0.187
-180.042	-200.000	-0.012	-0.150
-179.027	22.019	-0.212	0.170
-178.012	-190.227	-0.152	-0.002
-176.998	68.353	0.270	-0.272
-175.983	-25.287	-0.334	-0.194
-174.969	256.274	0.158	-0.266
-173.954	-200.000	0.017	0.162
-172.939	-27.856	-0.006	0.003
-171.925	-68.208	-0.367	-0.140
-170.910	24.442	0.239	-0.194
-169.896	104.325	0.330	0.382
-168.881	800.000	0.039	0.157
-167.866	-71.131	-0.525	0.194
-166.852	800.000	0.040	-0.130
-165.837	31.670	0.185	0.156
-164.823	-200.000	-0.010	0.118
-163.808	153.599	0.156	-0.210
-162.793	-88.414	0.230	0.067
-161.779	130.914	0.188	0.236
-160.764	-151.707	-0.425	0.031
-159.750	500.624	0.209	0.473
-158.735	-91.386	-0.207	0.058
-157.720	-106.184	-0.205	0.045
-156.706	-92.107	0.100	-0.028
-155.691	109.635	0.208	0.245
-154.677	72.903	0.099	-0.101
-153.662	-122.430	0.113	0.018
-152.647	-200.000	0.030	0.194
-151.633	-14.029	-0.256	-0.162
-150.618	-200.000	-0.018	0.098
-149.604	124.323	0.095	0.117
-148.589	41.510	0.115	-0.102
-147.574	-54.294	-0.232	-0.103
-146.560	105.712	-0.065	-0.076
-145.545	-89.140	0.189	-0.055
-144.531	111.276	-0.023	0.027
-143.516	800.000	-0.093	0.329
-142.502	696.598	-0.113	0.292
-141.487	-58.341	0.280	0.119
-140.472	293.364	-0.142	-0.254
-139.458	-60.615	0.212	0.088
-138.443	443.474	0.029	0.062
-137.429	-85.816	0.044	0.013
-136.414	-120.467	-0.304	0.051
-135.399	-200.000	0.001	-0.036
-134.385	81.572	-0.224	-0.237
-133.370	66.718	0.177	0.177
-132.356	-124.170	0.381	-0.059
-131.341	36.068	-0.026	-0.023
-130.326	-200.000	0.036	0.208
-129.312	176.558	-0.207	-0.294
-128.297	800.000	-0.114	-0.342
-127.283	673.969	0.065	0.165
-126.268	4.174	0.129	0.092
-125.253	-126.197	-0.088	0.013
-124.239	-200.000	0.031	-0.301
-123.224	163.064	-0.080	-0.110
-122.210	46.317	-0.054	0.049
