DTS Sentinel unit serial number:	SN413079Multiplexer serial number:	ORYXHardware model number:	OX4-SRSoftware version number:	ORYX F/W v4.00 Oryx Data Collector v3.7.2.0data status	okinstallation	princeton_trtdifferential loss correction	single-endedforward channel	channel 3reverse channel	N/Adate	2019/09/18time	00:28:34forward acquisition time	60.00reverse acquisition time	0.00gamma	496.2192k internal	0.2345k external	0.2345temperature offset calibration	0.9950default loss term (dB/km)	0.3790temperature slope calibration	1.0000multiplexer offset coefficient	1.0000multiplexer slope coefficient	1.0000fibre end	0.00T internal ref (°C)	23.56T ext. ref 1 (°C)	0.17T ext. ref 2 (°C)	17.12length (m)	temperature (°C)	Stokes	anti-Stokes-747.200	334.447	0.102	0.197
-746.185	-50.726	0.138	0.065
-745.171	390.838	-0.224	-0.465
-744.156	22.809	-0.374	0.307
-743.142	800.000	-0.015	-0.055
-742.127	79.759	-0.066	-0.071
-741.112	38.904	0.093	-0.083
-740.098	2.542	0.196	0.142
-739.083	-138.235	0.060	0.007
-738.069	571.346	0.085	-0.207
-737.054	-33.709	0.052	-0.029
-736.039	133.657	-0.143	-0.185
-735.025	22.414	-0.076	0.062
-734.010	-41.149	-0.306	-0.158
-732.996	245.688	-0.238	-0.401
-731.981	209.473	0.216	0.339
-730.966	525.609	-0.062	-0.147
-729.952	-136.375	-0.175	0.020
-728.937	-11.185	0.124	-0.082
-727.923	-59.964	-0.333	-0.142
-726.908	-59.494	-0.097	0.042
-725.894	137.801	-0.057	-0.075
-724.879	-162.242	-0.137	-0.007
-723.864	800.000	-0.095	-0.343
-722.850	83.432	-0.220	-0.239
-721.835	389.907	-0.022	0.046
-720.821	330.243	0.110	-0.211
-719.806	-200.000	0.002	-0.174
-718.791	-128.475	-0.060	-0.008
-717.777	-65.759	-0.298	0.119
-716.762	327.224	0.070	0.135
-715.748	800.000	0.071	-0.290
-714.733	224.678	0.251	-0.406
-713.718	49.573	0.237	-0.223
-712.704	-200.000	-0.041	-0.423
-711.689	-200.000	0.012	-0.326
-710.675	-200.000	-0.012	-0.349
-709.660	-200.000	-0.009	-0.213
-708.645	2.613	0.343	0.248
-707.631	-164.092	0.412	0.019
-706.616	548.820	0.080	-0.190
-705.602	67.130	-0.098	0.100
-704.587	-200.000	0.010	0.328
-703.572	82.675	-0.108	0.117
-702.558	-151.014	0.175	0.013
-701.543	425.555	0.067	0.145
-700.529	267.320	-0.156	0.273
-699.514	-84.968	0.217	-0.068
-698.499	-149.047	-0.255	-0.020
-697.485	413.055	0.070	0.148
-696.470	110.150	0.140	0.168
-695.456	-200.000	0.026	0.132
-694.441	121.063	-0.077	0.096
-693.426	-47.094	0.191	0.093
-692.412	341.230	-0.089	-0.173
-691.397	-68.283	0.268	-0.104
-690.383	114.519	-0.228	0.277
-689.368	85.578	0.098	-0.107
-688.354	127.105	0.011	-0.015
-687.339	-115.555	0.053	-0.010
-686.324	94.441	0.335	0.379
-685.310	36.761	0.240	-0.212
-684.295	-138.576	0.255	-0.028
-683.281	-76.280	-0.250	0.088
-682.266	-200.000	-0.019	0.172
-681.251	-200.000	0.013	0.218
-680.237	743.040	-0.161	-0.433
-679.222	775.077	-0.051	-0.138
-678.208	-200.000	-0.025	-0.188
-677.193	800.000	-0.037	-0.148
-676.178	438.588	-0.091	0.198
-675.164	118.492	-0.183	-0.226
-674.149	796.660	0.109	0.300
-673.135	-200.000	-0.039	0.303
-672.120	311.262	0.043	-0.081
-671.105	-200.000	0.091	-0.407
-670.091	-102.509	-0.306	-0.073
-669.076	-37.348	0.116	-0.062
-668.062	-156.847	0.056	0.003
-667.047	154.280	0.178	-0.244
-666.032	-37.274	-0.645	-0.344
-665.018	-85.717	-0.076	-0.024
-664.003	378.313	0.081	0.166
-662.989	-200.000	-0.097	-0.727
-661.974	36.011	0.161	-0.141
-660.959	71.194	0.167	0.173
-659.945	384.775	0.097	-0.199
-658.930	-200.000	-0.048	-0.280
-657.916	-200.000	0.497	0.001
-656.901	378.112	-0.154	-0.315
-655.886	800.000	-0.052	0.147
-654.872	-130.638	-0.043	-0.006
-653.857	-137.621	0.168	0.019
-652.843	-0.116	-0.267	-0.189
-651.828	-105.115	-0.043	0.010
-650.814	-42.500	0.277	-0.141
-649.799	-200.000	0.008	0.313
-648.784	-124.672	-0.287	0.044
-647.770	-78.815	-0.094	0.032
-646.755	-49.650	0.455	0.216
-645.741	-52.480	0.208	0.096
-644.726	779.035	-0.099	-0.271
-643.711	354.968	-0.126	0.249
-642.697	800.000	-0.076	0.243
-641.682	-200.000	-0.013	-0.086
-640.668	193.779	-0.216	-0.326
-639.653	-20.111	-0.323	-0.198
-638.638	800.000	-0.064	-0.277
-637.624	-200.000	0.014	-0.148
-636.609	112.677	-0.089	0.108
-635.595	-200.000	0.029	0.210
-634.580	319.675	-0.100	0.189
-633.565	-200.000	-0.030	-0.402
-632.551	316.887	-0.111	-0.209
-631.536	-121.755	-0.128	0.021
-630.522	-125.220	0.032	-0.005
-629.507	-152.617	-0.152	0.011
-628.492	23.332	0.123	-0.100
-627.478	99.651	0.336	-0.387
-626.463	-126.313	-0.319	0.047
-625.449	-200.000	0.027	-0.250
-624.434	427.842	0.130	-0.279
-623.419	-200.000	-0.014	-0.070
-622.405	-40.520	-0.287	0.148
-621.390	-200.000	-0.048	-0.356
-620.376	132.150	-0.123	-0.158
-619.361	-200.000	-0.111	0.585
-618.346	-200.000	-0.046	0.332
-617.332	800.000	-0.090	-0.348
-616.317	800.000	-0.034	-0.133
-615.303	-40.618	0.225	-0.116
-614.288	49.881	-0.069	-0.065
-613.273	201.783	0.049	-0.076
-612.259	-96.959	0.396	0.103
-611.244	322.967	0.068	-0.128
-610.230	-105.197	0.239	-0.054
-609.215	-8.972	-0.118	0.079
-608.201	-200.000	-0.058	-0.291
-607.186	800.000	-0.142	0.554
-606.171	748.058	0.051	0.136
-605.157	24.944	0.254	0.210
-604.142	-73.010	0.058	0.021
-603.128	265.472	-0.294	-0.510
-602.113	-43.172	-0.240	-0.121
-601.098	800.000	0.109	-0.459
-600.084	114.444	0.161	0.196
-599.069	-200.000	0.023	0.206
-598.055	30.788	-0.171	-0.146
-597.040	-94.755	0.334	-0.090
-596.025	485.278	-0.045	0.102
-595.011	-200.000	-0.003	0.116
-593.996	525.142	-0.084	-0.197
-592.982	679.900	-0.074	0.191
-591.967	-159.284	-0.142	-0.008
-590.952	799.052	0.162	-0.444
-589.938	-15.557	-0.217	-0.138
-588.923	277.444	0.160	0.283
-587.909	41.803	-0.043	-0.039
-586.894	762.790	-0.057	0.153
-585.879	167.880	0.043	0.061
-584.865	-45.558	-0.035	0.017
-583.850	-200.000	-0.022	0.111
-582.836	-133.372	0.103	0.013
-581.821	316.335	-0.158	-0.297
-580.806	-8.661	0.251	0.168
-579.792	228.074	-0.022	-0.036
-578.777	-19.452	0.077	-0.047
-577.763	-200.000	0.011	-0.050
-576.748	-16.156	-0.299	-0.189
-575.733	440.280	-0.059	0.129
-574.719	-71.398	-0.093	0.035
-573.704	60.485	0.228	0.225
-572.690	-143.449	0.098	-0.009
-571.675	166.047	-0.090	0.127
-570.661	-200.000	0.021	-0.172
-569.646	99.027	0.139	-0.160
-568.631	126.717	0.118	0.148
-567.617	-119.433	-0.437	0.075
-566.602	19.205	-0.189	-0.151
-565.588	3.162	0.233	0.168
-564.573	-200.000	-0.005	-0.231
-563.558	76.757	-0.236	-0.249
-562.544	142.572	0.110	-0.145
-561.529	-166.633	0.091	0.004
-560.515	567.178	-0.029	-0.069
-559.500	-30.420	0.298	-0.168
-558.485	-108.700	-0.045	0.009
-557.471	-148.813	-0.296	-0.024
-556.456	27.173	0.160	-0.134
-555.442	-68.284	-0.370	0.143
-554.427	-147.211	0.166	-0.014
-553.412	-37.603	0.122	-0.065
-552.398	-32.810	-0.070	0.039
-551.383	-97.273	-0.280	-0.073
-550.369	-200.000	-0.044	-0.366
-549.354	114.144	0.300	-0.362
-548.339	-82.033	-0.278	-0.090
-547.325	-200.000	-0.037	0.163
-546.310	-125.274	0.168	0.026
-545.296	255.236	0.057	0.097
-544.281	-94.731	0.261	-0.070
-543.266	35.155	-0.243	-0.211
-542.252	-3.351	-0.133	-0.092
-541.237	395.865	0.035	0.072
-540.223	76.693	-0.037	0.039
-539.208	-116.004	-0.237	0.044
-538.193	97.227	-0.044	0.050
-537.179	246.301	-0.127	-0.212
-536.164	-200.000	0.032	0.173
-535.150	-49.652	-0.065	0.031
-534.135	-187.249	0.209	0.003
-533.121	-86.655	-0.387	0.118
-532.106	800.000	-0.027	-0.086
-531.091	-31.162	0.321	0.179
-530.077	129.787	-0.113	-0.144
-529.062	201.289	0.071	0.109
-528.048	4.650	-0.306	-0.223
-527.033	-70.654	0.196	-0.073
-526.018	488.390	0.115	0.260
-525.004	588.633	0.079	0.194
-523.989	61.867	-0.262	-0.259
-522.975	210.187	-0.107	0.166
-521.960	-60.198	-0.326	0.138
-520.945	7.509	-0.330	-0.245
-519.931	-115.043	-0.257	-0.048
-518.916	-90.091	-0.153	0.044
-517.902	469.713	-0.201	-0.447
-516.887	-43.373	0.274	0.138
-515.872	-200.000	0.050	-0.277
-514.858	-200.000	-0.019	0.290
-513.843	-36.803	0.174	0.092
-512.829	54.978	0.064	-0.061
-511.814	-34.797	0.152	-0.082
-510.799	-84.697	0.234	-0.073
-509.785	-27.532	-0.123	-0.071
-508.770	-173.248	0.188	0.006
-507.756	-17.557	0.390	0.243
-506.741	134.656	0.132	0.170
-505.726	15.874	-0.260	0.203
-504.712	-200.000	0.012	-0.067
-503.697	278.007	-0.147	-0.259
-502.683	301.110	0.196	0.358
-501.668	1.429	-0.123	0.088
-500.653	367.012	-0.028	-0.056
-499.639	84.731	-0.193	0.210
-498.624	20.395	-0.130	0.104
-497.610	800.000	0.089	-0.289
-496.595	-86.462	-0.066	-0.020
-495.581	-49.784	-0.022	-0.010
-494.566	54.854	-0.006	0.006
-493.551	-200.000	0.033	-0.277
-492.537	559.076	-0.092	-0.219
-491.522	800.000	-0.058	-0.167
-490.508	77.288	-0.078	0.082
-489.493	78.696	0.313	0.332
-488.478	209.368	0.179	0.277
-487.464	-200.000	0.037	0.216
-486.449	800.000	0.109	0.370
-485.435	800.000	0.026	-0.111
-484.420	-197.249	-0.250	-0.002
-483.405	800.000	-0.020	0.059
-482.391	34.613	0.071	-0.061
-481.376	-119.992	-0.168	0.029
-480.362	138.347	0.083	-0.108
-479.347	-54.506	0.242	0.109
-478.332	-58.472	-0.246	-0.106
-477.318	-46.881	-0.241	-0.117
-476.303	-9.270	0.273	0.181
-475.289	-39.972	-0.311	0.160
-474.274	-34.756	-0.239	-0.130
-473.259	-48.459	0.090	0.043
-472.245	-144.018	-0.307	0.029
-471.230	-200.000	-0.036	0.228
-470.216	428.796	0.103	-0.221
-469.201	-200.000	-0.005	-0.127
-468.186	-147.779	0.097	0.008
-467.172	-21.449	-0.180	-0.109
-466.157	-200.000	-0.037	0.338
-465.143	40.743	-0.106	0.094
-464.128	7.691	0.335	0.248
-463.113	-38.497	0.206	-0.108
-462.099	303.879	-0.201	0.368
-461.084	-186.122	-0.205	-0.003
-460.070	-200.000	-0.022	-0.512
-459.055	-200.000	-0.007	0.093
-458.040	435.772	0.077	-0.165
-457.026	-200.000	0.026	-0.182
-456.011	395.325	-0.060	0.125
-454.997	-200.000	-0.026	-0.150
-453.982	80.368	0.079	0.084
-452.968	-200.000	-0.048	0.347
-451.953	800.000	0.094	-0.294
-450.938	60.903	0.209	0.205
-449.924	800.000	0.057	0.186
-448.909	-22.812	0.315	0.188
-447.895	65.972	-0.246	-0.247
-446.880	57.789	0.102	0.099
-445.865	-200.000	0.029	0.289
-444.851	-163.456	-0.142	0.007
-443.836	746.713	-0.013	0.036
-442.822	-110.927	-0.212	-0.043
-441.807	-25.674	0.422	-0.246
-440.792	26.003	0.081	0.067
-439.778	38.566	0.071	0.062
-438.763	-98.140	0.257	0.065
-437.749	361.732	-0.121	0.240
-436.734	-76.686	0.089	0.031
-435.719	-113.069	0.368	-0.072
-434.705	202.328	0.128	0.195
-433.690	460.984	-0.259	-0.571
-432.676	-125.090	-0.413	-0.063
-431.661	91.621	0.121	-0.135
-430.646	-200.000	-0.007	-0.423
-429.632	-80.334	0.106	0.035
-428.617	196.994	-0.146	0.221
-427.603	-115.061	-0.231	-0.043
-426.588	-200.000	-0.017	0.327
-425.573	177.220	0.216	-0.310
-424.559	800.000	-0.020	0.056
-423.544	22.730	0.102	-0.083
-422.530	-200.000	-0.036	-0.255
-421.515	-200.000	-0.003	-0.265
-420.500	-200.000	0.002	-0.081
-419.486	450.863	-0.150	-0.326
-418.471	-13.523	-0.163	-0.104
-417.457	-200.000	-0.065	-0.375
-416.442	116.753	-0.138	0.167
-415.428	277.575	0.047	-0.083
-414.413	-21.469	0.113	0.068
-413.398	-122.329	-0.294	0.047
-412.384	27.189	-0.100	-0.083
-411.369	465.831	-0.112	-0.247
-410.355	-200.000	0.002	0.064
-409.340	-159.553	-0.171	0.009
-408.325	800.000	-0.024	-0.071
-407.311	-139.330	-0.186	0.020
-406.296	39.837	-0.100	-0.089
-405.282	-89.237	0.055	-0.016
-404.267	34.026	-0.164	-0.141
-403.252	501.802	-0.098	0.223
-402.238	-47.962	-0.168	-0.080
-401.223	-200.000	-0.033	0.287
-400.209	1.408	-0.166	0.118
-399.194	-58.243	-0.006	-0.003
-398.179	178.699	-0.116	-0.167
-397.165	-108.215	0.203	-0.043
-396.150	264.478	-0.112	-0.193
-395.136	548.351	0.193	0.457
-394.121	65.352	0.131	-0.131
-393.106	-75.263	-0.197	-0.069
-392.092	43.111	-0.150	0.135
-391.077	-86.074	-0.348	0.106
-390.063	95.449	-0.203	-0.228
-389.048	-200.000	0.010	0.222
-388.033	-165.801	-0.230	0.010
-387.019	59.518	-0.277	0.270
-386.004	345.494	0.101	-0.195
-384.990	216.933	-0.175	-0.274
-383.975	800.000	-0.099	-0.331
-382.960	-61.297	-0.135	-0.056
-381.946	800.000	0.057	-0.229
-380.931	-115.042	-0.315	-0.059
-379.917	153.705	0.283	0.382
-378.902	-38.335	-0.229	-0.120
-377.888	204.437	0.096	-0.147
-376.873	409.644	0.151	-0.315
-375.858	-79.989	0.096	0.032
-374.844	267.823	-0.045	0.078
-373.829	-200.000	0.045	0.429
-372.815	50.571	0.069	0.065
-371.800	-108.552	-0.278	0.059
-370.785	-163.694	-0.068	0.003
-369.771	800.000	-0.085	0.286
-368.756	800.000	-0.055	0.206
-367.742	-200.000	-0.012	-0.109
-366.727	-152.552	0.278	0.020
-365.712	-122.612	-0.226	-0.036
-364.698	152.572	0.090	0.121
-363.683	298.590	-0.124	0.225
-362.669	-8.900	-0.131	0.087
-361.654	-200.000	-0.009	-0.065
-360.639	-200.000	0.003	-0.260
-359.625	51.868	-0.090	-0.085
-358.610	9.630	0.250	-0.186
-357.596	-200.000	0.012	-0.175
-356.581	-112.647	-0.111	-0.022
-355.566	-200.000	0.059	0.303
-354.552	151.311	0.163	-0.219
-353.537	-30.314	0.529	0.296
-352.523	-107.236	0.193	0.042
-351.508	-200.000	-0.021	-0.357
-350.493	126.524	0.189	0.235
-349.479	-13.287	0.149	0.095
-348.464	58.330	-0.314	-0.304
-347.450	800.000	-0.067	-0.231
-346.435	-107.044	-0.058	-0.013
-345.420	800.000	-0.031	-0.122
-344.406	292.829	0.130	-0.234
-343.391	129.392	-0.194	-0.245
-342.377	571.038	-0.013	0.030
-341.362	-200.000	-0.091	0.488
-340.348	-78.385	0.039	0.013
-339.333	174.139	-0.332	-0.473
-338.318	-65.267	0.274	0.109
-337.304	-200.000	-0.139	0.000
-336.289	57.789	0.207	-0.199
-335.275	-67.943	-0.379	-0.146
-334.260	-60.525	-0.351	-0.147
-333.245	-65.809	0.287	0.113
-332.231	-52.806	0.350	0.159
-331.216	800.000	-0.031	-0.110
-330.202	-177.676	0.245	0.006
-329.187	-136.925	0.165	-0.019
-328.172	-86.307	-0.130	0.040
-327.158	-159.132	0.187	0.010
-326.143	-52.964	0.206	0.093
-325.129	330.422	0.190	0.360
-324.114	800.000	0.074	0.278
-323.099	115.565	-0.270	0.324
-322.085	126.226	-0.062	0.078
-321.070	-200.000	-0.017	0.167
-320.056	-200.000	0.000	-0.208
-319.041	21.442	0.118	-0.094
-318.026	-200.000	-0.040	-0.195
-317.012	-200.000	-0.004	-0.291
-315.997	-74.056	0.191	-0.068
-314.983	-200.000	0.076	0.497
-313.968	-72.407	-0.185	-0.067
-312.953	333.090	-0.110	0.210
-311.939	-200.000	0.102	0.494
-310.924	27.339	0.075	-0.062
-309.910	-18.154	0.237	0.146
-308.895	381.116	0.064	-0.130
-307.880	-200.000	-0.023	-0.401
-306.866	-35.349	-0.060	0.032
-305.851	-200.000	-0.012	0.179
-304.837	-186.236	0.135	0.002
-303.822	800.000	0.117	-0.374
-302.807	15.860	0.160	-0.124
-301.793	-8.985	-0.215	0.142
-300.778	-200.000	0.037	-0.249
-299.764	9.869	-0.134	-0.100
-298.749	-3.082	0.161	0.111
-297.735	40.158	-0.180	-0.159
-296.720	-200.000	-0.003	-0.056
-295.705	-134.957	-0.109	-0.013
-294.691	49.698	0.216	-0.200
-293.676	-33.288	0.436	0.237
-292.662	796.697	-0.161	0.437
-291.647	-135.473	-0.185	0.022
-290.632	33.332	-0.100	0.085
-289.618	-92.448	0.605	-0.167
-288.603	-200.000	0.059	0.454
-287.589	-130.955	-0.339	0.045
-286.574	-200.000	-0.002	-0.115
-285.559	-104.116	-0.203	0.046
-284.545	800.000	-0.060	0.194
-283.530	272.959	0.263	-0.457
-282.516	800.000	0.111	0.396
-281.501	30.917	-0.115	-0.097
-280.486	-169.697	0.563	-0.020
-279.472	-162.763	-0.131	-0.006
-278.457	25.531	0.181	-0.148
-277.443	-17.096	0.323	0.200
-276.428	-40.632	0.185	0.094
-275.413	800.000	-0.017	0.063
-274.399	-86.933	-0.030	0.009
-273.384	-18.456	0.266	-0.163
-272.370	-173.639	-0.217	0.006
-271.355	235.289	0.168	0.273
-270.340	221.090	0.165	0.260
-269.326	391.944	-0.050	0.103
-268.311	19.800	0.269	-0.213
-267.297	24.680	0.287	0.233
-266.282	-92.189	0.185	0.051
-265.267	-200.000	0.055	0.397
-264.253	-116.875	0.125	-0.023
-263.238	-200.000	-0.004	-0.176
-262.224	-139.407	-0.044	0.005
-261.209	124.530	0.302	0.373
-260.195	-200.000	0.031	-0.292
-259.180	-171.548	-0.244	-0.008
-258.165	-0.044	-0.225	0.157
-257.151	6.960	0.242	-0.177
-256.136	-44.865	0.378	-0.185
-255.122	246.435	-0.126	-0.209
-254.107	-90.450	-0.362	-0.103
-253.092	-135.937	-0.258	0.030
-252.078	-155.061	0.124	0.008
-251.063	245.005	0.205	-0.338
-250.049	326.215	0.048	0.089
-249.034	-0.942	-0.167	0.116
-248.019	-59.213	-0.349	-0.148
-247.005	-200.000	-0.004	-0.157
-245.990	-60.205	-0.344	-0.144
-244.976	171.147	0.130	0.183
-243.961	-20.216	0.283	-0.171
-242.946	-34.844	-0.086	0.046
-241.932	-78.703	-0.159	0.053
-240.917	800.000	-0.043	0.161
-239.903	-159.098	-0.345	-0.019
-238.888	457.566	-0.099	0.216
-237.873	800.000	-0.056	0.222
-236.859	-200.000	-0.009	0.078
-235.844	183.102	-0.161	0.233
-234.830	98.975	0.316	-0.358
-233.815	786.045	-0.019	0.051
-232.800	191.798	0.190	-0.281
-231.786	721.723	0.007	0.018
-230.771	-75.667	0.251	-0.088
-229.757	-2.614	0.159	0.109
-228.742	753.049	-0.074	0.195
-227.727	-147.845	0.165	0.013
-226.713	-83.127	-0.186	0.059
-225.698	-21.855	0.108	-0.065
-224.684	-65.281	0.048	0.019
-223.669	100.837	0.213	0.243
-222.655	231.205	0.039	-0.063
-221.640	35.534	0.356	0.307
-220.625	-25.218	0.292	-0.170
-219.611	43.528	0.181	-0.162
-218.596	-4.238	-0.061	0.042
-217.582	-123.011	0.261	-0.041
-216.567	40.549	0.024	-0.021
-215.552	-131.992	0.532	0.068
-214.538	136.109	0.360	0.459
-213.523	192.406	-0.184	-0.272
-212.509	-200.000	0.006	0.099
-211.494	-200.000	-0.027	0.262
-210.479	-165.250	-0.232	-0.010
-209.465	51.901	0.133	0.124
-208.450	-200.000	0.030	0.207
-207.436	-38.774	-0.284	-0.147
-206.421	-64.344	-0.386	0.154
-205.406	-26.838	0.156	-0.089
-204.392	-118.206	0.078	0.014
-203.377	87.627	-0.053	-0.058
-202.363	800.000	0.070	0.214
-201.348	213.831	-0.023	0.035
-200.333	800.000	0.079	0.248
-199.319	-200.000	0.002	-0.166
-198.304	-1.856	0.249	0.171
-197.290	673.020	-0.092	-0.234
-196.275	169.215	-0.129	-0.181
-195.260	47.411	0.055	0.050
-194.246	800.000	-0.105	-0.350
-193.231	573.809	0.042	0.100
-192.217	102.540	0.220	0.252
-191.202	237.015	0.127	0.207
-190.187	-122.211	-0.125	-0.020
-189.173	-65.742	0.063	0.025
-188.158	42.410	-0.103	0.091
-187.144	166.658	0.114	0.158
-186.129	198.334	0.099	0.148
-185.114	164.773	-0.282	0.389
-184.100	15.115	-0.292	0.224
-183.085	24.149	-0.337	0.272
-182.071	121.609	0.186	0.227
-181.056	-35.123	0.311	0.166
-180.042	364.229	-0.015	0.029
-179.027	43.173	0.056	0.050
-178.012	-86.283	0.066	0.020
-176.998	-200.000	0.010	-0.190
-175.983	-181.790	0.193	0.004
-174.969	-200.000	0.005	-0.401
-173.954	6.267	0.156	0.113
-172.939	-200.000	-0.052	0.437
-171.925	-95.625	0.473	-0.124
-170.910	800.000	0.057	0.216
-169.896	-61.930	-0.337	0.138
-168.881	101.912	0.111	-0.126
-167.866	-5.574	-0.260	0.174
-166.852	-200.000	-0.026	0.284
-165.837	-0.995	-0.096	0.067
-164.823	51.132	-0.139	0.129
-163.808	-10.894	-0.072	-0.046
-162.793	800.000	0.082	-0.229
-161.779	-108.746	0.313	0.066
-160.764	-100.758	0.141	-0.034
-159.750	800.000	-0.068	-0.220
-158.735	391.930	-0.124	-0.252
-157.720	199.228	-0.034	-0.051
-156.706	518.314	0.137	-0.313
-155.691	734.011	-0.086	-0.226
-154.677	56.143	-0.090	0.085
-153.662	800.000	0.068	-0.211
-152.647	-200.000	0.002	0.217
-151.633	-36.691	-0.108	-0.057
-150.618	-29.273	0.413	0.231
-149.604	-60.183	-0.231	0.096
-148.589	65.213	-0.185	-0.183
-147.574	-200.000	-0.002	0.069
-146.560	352.842	0.185	-0.359
-145.545	-133.655	-0.149	0.018
-144.531	-164.965	-0.041	-0.002
-143.516	-200.000	0.014	0.168
-142.502	155.594	0.119	-0.160
-141.487	-200.000	0.005	-0.036
-140.472	-139.787	-0.162	-0.017
-139.458	34.164	0.186	-0.159
-138.443	-120.730	-0.184	-0.030
-137.429	-200.000	0.054	-0.253
-136.414	-35.552	-0.428	-0.227
-135.399	-139.699	-0.286	-0.030
-134.385	118.275	0.207	-0.249
-133.370	-65.566	0.567	-0.222
-132.356	121.099	0.076	-0.092
-131.341	342.912	0.179	-0.341
-130.326	800.000	0.115	0.342
-129.312	800.000	-0.206	0.560
-128.297	-42.510	-0.090	-0.045
-127.283	800.000	-0.041	-0.143
-126.268	8.899	-0.280	0.206
-125.253	-90.320	0.194	0.055
-124.239	-200.000	-0.007	0.097
-123.224	-57.260	-0.026	-0.011
-122.210	-135.405	-0.177	-0.021
