DTS Sentinel unit serial number:	SN413079Multiplexer serial number:	ORYXHardware model number:	OX4-SRSoftware version number:	ORYX F/W v4.00 Oryx Data Collector v3.7.2.0data status	okinstallation	princeton_trtdifferential loss correction	single-endedforward channel	channel 3reverse channel	N/Adate	2019/09/16time	21:44:35forward acquisition time	60.00reverse acquisition time	0.00gamma	496.2192k internal	0.2325k external	0.2325temperature offset calibration	0.9939default loss term (dB/km)	0.3790temperature slope calibration	1.0000multiplexer offset coefficient	1.0000multiplexer slope coefficient	1.0000fibre end	0.00T internal ref (°C)	31.31T ext. ref 1 (°C)	0.06T ext. ref 2 (°C)	25.62length (m)	temperature (°C)	Stokes	anti-Stokes-747.200	78.748	-0.130	0.140
-746.185	153.451	-0.215	-0.297
-745.171	-81.318	0.239	-0.080
-744.156	-30.920	0.253	0.144
-743.142	-36.601	-0.304	0.165
-742.127	45.545	-0.235	0.219
-741.112	-34.610	0.089	0.049
-740.098	800.000	0.126	0.406
-739.083	-139.541	-0.355	0.038
-738.069	16.173	0.221	-0.175
-737.054	131.133	0.185	-0.239
-736.039	-200.000	0.011	-0.209
-735.025	-200.000	0.040	0.230
-734.010	800.000	-0.164	0.541
-732.996	-8.737	-0.165	0.111
-731.981	-67.304	-0.379	-0.150
-730.966	-102.720	0.161	-0.039
-729.952	17.151	-0.249	0.199
-728.937	800.000	0.017	-0.067
-727.923	-54.236	-0.371	-0.170
-726.908	-27.975	-0.481	-0.281
-725.894	-200.000	0.018	-0.098
-724.879	102.887	-0.177	0.209
-723.864	-81.324	-0.212	-0.070
-722.850	59.493	-0.085	0.085
-721.835	279.340	0.062	0.112
-720.821	-200.000	-0.009	0.043
-719.806	200.800	-0.081	-0.125
-718.791	-47.814	0.195	-0.095
-717.777	134.882	0.034	-0.045
-716.762	-20.394	0.040	-0.025
-715.748	800.000	-0.058	-0.167
-714.733	-200.000	-0.099	-0.658
-713.718	-200.000	0.006	-0.107
-712.704	-200.000	0.033	-0.162
-711.689	-200.000	0.018	-0.238
-710.675	-102.348	-0.026	-0.006
-709.660	73.183	-0.212	-0.223
-708.645	162.643	-0.294	-0.416
-707.631	-82.056	0.095	0.031
-706.616	68.365	-0.148	-0.152
-705.602	-3.776	0.327	-0.229
-704.587	25.675	0.197	0.166
-703.572	-195.237	-0.053	0.000
-702.558	-200.000	0.000	0.018
-701.543	-87.931	-0.089	-0.027
-700.529	222.718	-0.096	-0.155
-699.514	-95.305	0.254	0.069
-698.499	36.997	0.104	-0.093
-697.485	-200.000	-0.046	-0.268
-696.470	-200.000	0.017	0.382
-695.456	-200.000	-0.008	-0.306
-694.441	264.549	0.099	0.173
-693.426	800.000	0.079	0.290
-692.412	-37.822	-0.145	0.077
-691.397	-163.642	0.371	0.018
-690.383	-200.000	-0.003	0.196
-689.368	800.000	-0.036	0.158
-688.354	28.022	0.119	-0.101
-687.339	-200.000	0.031	-0.192
-686.324	336.387	-0.180	-0.352
-685.310	-200.000	-0.002	0.073
-684.295	800.000	-0.060	-0.226
-683.281	105.790	0.218	-0.259
-682.266	78.860	-0.072	-0.077
-681.251	176.552	0.311	-0.455
-680.237	-154.387	-0.327	0.022
-679.222	-200.000	0.087	-0.409
-678.208	-65.546	-0.202	0.082
-677.193	408.043	0.106	-0.225
-676.178	86.121	-0.014	-0.016
-675.164	-4.598	0.076	0.053
-674.149	-200.000	0.009	-0.282
-673.135	-200.000	-0.010	0.310
-672.120	201.798	-0.439	0.681
-671.105	40.065	-0.109	-0.098
-670.091	367.884	-0.220	-0.447
-669.076	-139.173	-0.324	-0.035
-668.062	-17.230	0.338	-0.214
-667.047	-24.336	-0.097	-0.058
-666.032	-46.566	-0.127	0.063
-665.018	0.013	-0.145	0.104
-664.003	576.417	0.078	-0.191
-662.989	-45.341	0.230	-0.115
-661.974	-47.930	0.093	-0.045
-660.959	-200.000	0.000	-0.295
-659.945	-168.855	0.184	-0.007
-658.930	158.468	0.037	-0.052
-657.916	-37.265	0.344	-0.185
-656.901	716.907	-0.100	0.266
-655.886	-47.219	0.158	0.077
-654.872	-164.008	-0.141	-0.007
-653.857	169.050	-0.234	-0.336
-652.843	8.537	0.266	0.202
-651.828	71.193	-0.249	0.259
-650.814	552.670	-0.181	0.436
-649.799	44.878	-0.182	-0.169
-648.784	-111.628	0.126	-0.026
-647.770	-200.000	-0.024	-0.223
-646.755	800.000	-0.089	0.291
-645.741	-21.954	-0.386	0.236
-644.726	-91.669	-0.185	0.053
-643.711	-192.906	-0.015	-0.000
-642.697	-60.847	0.205	-0.087
-641.682	50.746	-0.088	-0.084
-640.668	-30.539	-0.287	0.163
-639.653	-200.000	-0.009	0.218
-638.638	751.456	-0.035	0.094
-637.624	-32.558	-0.440	0.246
-636.609	-30.050	-0.166	-0.095
-635.595	800.000	-0.029	0.114
-634.580	281.885	-0.057	0.103
-633.565	399.423	-0.041	-0.085
-632.551	-200.000	-0.031	-0.161
-631.536	-125.850	0.290	-0.044
-630.522	92.031	-0.102	-0.115
-629.507	-141.395	-0.459	0.047
-628.492	389.132	0.040	-0.082
-627.478	-70.688	-0.311	-0.118
-626.463	21.294	-0.058	-0.048
-625.449	-4.895	0.099	-0.069
-624.434	363.876	0.157	-0.316
-623.419	800.000	-0.052	0.185
-622.405	800.000	-0.086	-0.310
-621.390	-200.000	0.028	0.201
-620.376	-200.000	0.017	-0.270
-619.361	-200.000	-0.027	-0.334
-618.346	347.646	-0.197	-0.389
-617.332	0.653	-0.197	-0.141
-616.317	-200.000	0.015	-0.072
-615.303	-160.424	-0.141	0.008
-614.288	7.102	-0.222	0.166
-613.273	110.809	-0.130	0.156
-612.259	685.127	0.027	-0.072
-611.244	-52.896	-0.421	0.195
-610.230	-73.889	0.323	0.118
-609.215	493.829	-0.086	0.198
-608.201	-121.943	0.110	-0.018
-607.186	-130.738	0.199	0.027
-606.171	170.403	0.060	-0.087
-605.157	-2.704	-0.189	0.133
-604.142	-25.861	-0.280	0.165
-603.128	-102.795	0.275	-0.066
-602.113	126.758	0.061	-0.078
-601.098	-200.000	0.002	0.131
-600.084	29.228	-0.078	-0.067
-599.069	-160.372	0.308	0.017
-598.055	-200.000	0.016	-0.205
-597.040	151.649	0.094	-0.129
-596.025	93.980	0.077	0.087
-595.011	142.414	-0.133	0.177
-593.996	800.000	-0.058	0.177
-592.982	4.576	-0.169	0.124
-591.967	-137.501	-0.145	-0.016
-590.952	-17.454	-0.141	0.089
-589.938	-36.107	0.407	-0.221
-588.923	800.000	0.042	-0.124
-587.909	-56.259	-0.060	-0.027
-586.894	800.000	-0.013	-0.054
-585.879	-200.000	0.005	0.301
-584.865	-40.023	-0.033	-0.017
-583.850	-37.487	-0.180	0.096
-582.836	800.000	-0.122	0.398
-581.821	-35.814	-0.174	0.094
-580.806	-200.000	0.021	-0.160
-579.792	34.316	0.205	-0.179
-578.777	800.000	0.093	-0.334
-577.763	187.745	-0.139	-0.209
-576.748	-200.000	0.016	0.190
-575.733	32.046	0.350	0.303
-574.719	639.091	-0.073	-0.187
-573.704	658.697	0.067	-0.172
-572.690	-135.594	0.088	-0.011
-571.675	-21.260	0.044	-0.027
-570.661	41.104	-0.015	0.014
-569.646	777.301	0.082	-0.223
-568.631	-60.036	-0.171	-0.073
-567.617	-190.402	-0.104	0.001
-566.602	191.660	0.119	-0.180
-565.588	-87.363	-0.112	-0.034
-564.573	-67.552	0.048	0.019
-563.558	-47.279	0.159	-0.078
-562.544	20.321	-0.153	-0.124
-561.529	-42.772	0.169	-0.086
-560.515	-200.000	0.000	0.117
-559.500	130.460	-0.026	0.034
-558.485	31.660	0.023	-0.020
-557.471	800.000	-0.019	0.077
-556.456	-44.550	0.231	-0.116
-555.442	-57.399	0.055	-0.024
-554.427	159.831	-0.090	0.125
-553.412	55.188	-0.303	0.293
-552.398	-200.000	-0.084	0.428
-551.383	-23.476	-0.036	0.022
-550.369	-107.148	0.124	-0.027
-549.354	-200.000	0.018	-0.445
-548.339	20.787	-0.143	-0.116
-547.325	38.329	-0.279	0.249
-546.310	54.467	-0.222	-0.214
-545.296	-200.000	0.025	-0.119
-544.281	247.801	0.051	0.086
-543.266	-130.377	-0.444	0.060
-542.252	21.551	0.201	0.164
-541.237	118.721	-0.249	0.308
-540.223	229.741	-0.120	0.197
-539.208	219.942	0.054	0.086
-538.193	-2.721	-0.102	0.072
-537.179	-38.172	-0.232	-0.123
-536.164	-189.817	-0.247	-0.003
-535.150	-200.000	-0.007	0.066
-534.135	-200.000	-0.041	0.308
-533.121	-63.228	-0.068	-0.028
-532.106	-200.000	0.034	-0.341
-531.091	44.210	0.233	0.214
-530.077	-138.417	-0.238	-0.026
-529.062	-72.826	0.282	0.104
-528.048	31.025	0.284	-0.244
-527.033	800.000	-0.103	0.349
-526.018	-200.000	0.020	0.121
-525.004	47.311	-0.203	-0.189
-523.989	696.296	-0.072	0.190
-522.975	67.230	-0.042	-0.043
-521.960	-200.000	-0.020	0.243
-520.945	-28.852	0.058	-0.033
-519.931	-9.486	0.129	-0.086
-518.916	104.332	0.279	0.329
-517.902	-33.855	0.046	-0.025
-516.887	220.412	0.069	0.111
-515.872	624.371	0.089	0.224
-514.858	646.585	-0.031	-0.079
-513.843	135.007	0.175	0.228
-512.829	-200.000	-0.002	-0.068
-511.814	-97.790	-0.203	-0.052
-510.799	-41.952	-0.078	0.040
-509.785	-93.199	-0.062	0.017
-508.770	-52.626	-0.064	-0.029
-507.756	15.558	0.053	-0.042
-506.741	37.636	0.056	0.050
-505.726	-200.000	0.080	0.379
-504.712	168.706	-0.220	0.314
-503.697	-139.137	0.381	-0.041
-502.683	86.021	-0.195	-0.215
-501.668	-64.597	-0.087	-0.035
-500.653	-25.572	-0.130	-0.077
-499.639	-155.910	0.068	0.004
-498.624	-149.831	-0.152	-0.012
-497.610	-200.000	0.035	0.300
-496.595	-200.000	0.022	-0.285
-495.581	10.584	-0.164	-0.125
-494.566	-200.000	-0.030	0.189
-493.551	-200.000	0.050	-0.435
-492.537	-129.070	0.123	0.017
-491.522	205.982	-0.018	0.029
-490.508	-158.155	0.050	0.003
-489.493	-200.000	-0.014	-0.195
-488.478	725.796	0.072	-0.193
-487.464	-57.833	-0.223	0.097
-486.449	800.000	-0.077	-0.258
-485.435	-139.628	-0.298	-0.032
-484.420	205.503	-0.161	0.249
-483.405	-200.000	-0.027	0.119
-482.391	96.293	-0.033	0.038
-481.376	-58.131	-0.294	-0.128
-480.362	397.140	0.098	0.206
-479.347	263.158	0.113	0.196
-478.332	-87.375	-0.085	-0.026
-477.318	73.915	-0.017	-0.018
-476.303	31.820	0.285	-0.245
-475.289	151.125	-0.213	-0.290
-474.274	-200.000	0.041	0.325
-473.259	-40.176	-0.568	0.296
-472.245	102.310	-0.023	0.027
-471.230	-147.949	-0.147	0.012
-470.216	-28.293	-0.193	-0.111
-469.201	-200.000	-0.013	-0.349
-468.186	-200.000	0.020	0.170
-467.172	800.000	0.016	-0.043
-466.157	-200.000	-0.036	0.359
-465.143	7.260	0.116	0.086
-464.128	137.409	0.100	0.131
-463.113	-44.038	-0.299	0.150
-462.099	-43.716	-0.207	-0.104
-461.084	86.872	0.263	0.290
-460.070	-200.000	0.003	0.019
-459.055	76.722	0.159	0.168
-458.040	476.658	-0.078	-0.177
-457.026	-124.209	0.111	0.017
-456.011	-200.000	-0.032	-0.200
-454.997	-80.594	0.256	-0.085
-453.982	56.670	0.062	-0.060
-452.968	50.685	-0.196	-0.186
-451.953	674.109	0.092	0.239
-450.938	48.800	0.049	0.046
-449.924	800.000	0.053	-0.206
-448.909	-71.543	-0.225	-0.084
-447.895	-65.790	0.444	-0.177
-446.880	-28.419	-0.169	0.097
-445.865	150.002	0.037	0.050
-444.851	157.848	-0.122	-0.168
-443.836	-200.000	-0.008	-0.330
-442.822	800.000	-0.042	-0.163
-441.807	-200.000	-0.038	-0.180
-440.792	162.210	-0.123	0.172
-439.778	100.117	-0.036	-0.041
-438.763	-36.013	0.175	0.094
-437.749	-56.668	-0.061	0.027
-436.734	-89.480	0.321	0.094
-435.719	-200.000	-0.017	-0.138
-434.705	-148.070	-0.215	-0.018
-433.690	-51.730	0.374	0.174
-432.676	-200.000	-0.232	0.001
-431.661	255.722	-0.113	-0.193
-430.646	438.736	0.096	0.209
-429.632	350.741	0.110	0.217
-428.617	29.032	-0.077	-0.065
-427.603	-200.000	0.012	0.096
-426.588	-126.741	-0.224	0.033
-425.573	-111.541	-0.124	0.025
-424.559	-152.591	0.215	0.015
-423.544	-151.752	0.330	0.024
-422.530	-57.808	-0.221	-0.096
-421.515	-104.882	-0.281	0.064
-420.500	-46.508	-0.098	-0.048
-419.486	96.626	0.038	0.044
-418.471	194.609	-0.027	-0.041
-417.457	488.500	0.177	0.402
-416.442	74.216	0.083	0.086
-415.428	-103.936	-0.009	-0.002
-414.413	-39.530	-0.164	-0.086
-413.398	-200.000	0.005	0.103
-412.384	-23.656	0.461	0.275
-411.369	58.676	-0.136	0.133
-410.355	-200.000	-0.032	-0.236
-409.340	136.846	-0.089	0.116
-408.325	11.239	0.052	0.040
-407.311	463.294	0.045	0.100
-406.296	800.000	-0.033	-0.114
-405.282	-9.316	-0.073	0.049
-404.267	-86.151	0.282	0.087
-403.252	-161.758	0.148	0.008
-402.238	152.143	-0.048	-0.065
-401.223	85.251	-0.130	-0.141
-400.209	-200.000	0.030	-0.174
-399.194	649.701	0.078	0.199
-398.179	685.077	0.092	-0.240
-397.165	-103.390	0.193	0.045
-396.150	232.478	-0.092	-0.150
-395.136	-173.633	0.555	-0.017
-394.121	-200.000	-0.033	0.446
-393.106	-40.694	-0.089	-0.046
-392.092	200.097	0.055	0.084
-391.077	792.267	-0.105	0.287
-390.063	158.245	0.070	0.097
-389.048	434.306	-0.015	-0.032
-388.033	-200.000	0.029	-0.175
-387.019	-200.000	0.049	-0.473
-386.004	138.587	-0.078	-0.102
-384.990	800.000	-0.121	0.368
-383.975	-35.229	-0.110	0.060
-382.960	-40.582	0.220	0.114
-381.946	-200.000	-0.055	0.428
-380.931	800.000	0.085	-0.300
-379.917	-41.469	-0.016	0.008
-378.902	-159.783	-0.153	-0.008
-377.888	-7.489	0.140	0.094
-376.873	-200.000	0.054	0.237
-375.858	-200.000	0.003	-0.128
-374.844	585.937	-0.096	-0.235
-373.829	535.147	0.013	0.030
-372.815	240.243	0.175	0.290
-371.800	735.261	-0.071	-0.190
-370.785	548.699	0.160	-0.381
-369.771	50.823	0.162	-0.153
-368.756	-200.000	-0.014	0.479
-367.742	170.736	0.096	0.137
-366.727	348.525	-0.098	-0.193
-365.712	-148.734	0.224	-0.018
-364.698	63.178	-0.113	0.113
-363.683	115.895	-0.259	0.315
-362.669	-139.199	0.129	-0.014
-361.654	35.605	0.064	-0.056
-360.639	117.897	-0.102	0.125
-359.625	800.000	-0.073	-0.270
-358.610	-87.088	0.121	0.037
-357.596	118.905	0.081	-0.099
-356.581	11.711	-0.100	-0.076
-355.566	7.262	0.311	0.231
-354.552	-121.858	0.206	0.034
-353.537	212.481	0.257	0.403
-352.523	-160.378	0.179	-0.010
-351.508	390.976	0.058	0.119
-350.493	-37.485	-0.071	-0.038
-349.479	-36.744	0.121	0.064
-348.464	-149.877	-0.313	0.024
-347.450	800.000	0.091	-0.363
-346.435	-76.805	0.319	-0.111
-345.420	-92.991	0.074	-0.021
-344.406	-148.688	-0.045	0.004
-343.391	76.439	-0.356	-0.375
-342.377	800.000	0.051	-0.216
-341.362	-200.000	-0.001	0.069
-340.348	106.577	0.089	0.105
-339.333	-106.665	0.234	-0.052
-338.318	-54.097	0.169	0.076
-337.304	434.521	0.109	0.235
-336.289	-36.695	0.174	0.093
-335.275	87.636	0.178	-0.196
-334.260	-200.000	-0.003	0.253
-333.245	-120.695	-0.038	0.006
-332.231	-51.615	-0.155	-0.072
-331.216	133.495	-0.188	-0.242
-330.202	21.548	-0.306	-0.247
-329.187	-156.851	-0.015	0.001
-328.172	-164.115	0.095	-0.004
-327.158	-111.347	0.139	0.028
-326.143	255.734	-0.102	-0.174
-325.129	362.499	0.134	0.266
-324.114	104.905	-0.121	-0.141
-323.099	-48.358	0.218	-0.104
-322.085	-55.938	0.162	-0.072
-321.070	109.161	0.206	0.245
-320.056	-85.984	0.079	0.024
-319.041	-116.146	-0.130	0.024
-318.026	-92.322	-0.331	0.093
-317.012	800.000	-0.091	-0.255
-315.997	81.537	-0.201	0.216
-314.983	-86.632	-0.248	-0.075
-313.968	-40.800	-0.128	0.066
-312.953	-7.243	-0.138	-0.093
-311.939	800.000	-0.104	-0.357
-310.924	800.000	0.072	-0.227
-309.910	-200.000	0.031	0.253
-308.895	-78.432	-0.144	-0.049
-307.880	665.849	0.069	0.178
-306.866	-109.489	-0.254	-0.053
-305.851	-106.055	0.207	0.046
-304.837	-200.000	-0.102	-0.561
-303.822	760.441	0.088	-0.237
-302.807	-75.749	0.294	0.103
-301.793	9.541	-0.334	0.251
-300.778	-120.727	0.197	0.033
-299.764	252.003	0.011	-0.018
-298.749	102.114	-0.176	0.204
-297.735	-49.754	-0.108	-0.051
-296.720	-88.274	0.098	-0.029
-295.705	114.096	-0.244	-0.294
-294.691	-200.000	0.008	0.211
-293.676	-37.245	0.291	-0.154
-292.662	468.632	-0.155	-0.344
-291.647	-200.000	0.010	0.057
-290.632	-200.000	0.079	0.431
-289.618	-115.623	-0.152	-0.028
-288.603	219.767	-0.084	0.133
-287.589	800.000	0.030	0.120
-286.574	-4.478	-0.143	0.098
-285.559	-200.000	0.267	-0.001
-284.545	-200.000	0.053	0.299
-283.530	-86.177	0.127	-0.039
-282.516	-100.343	-0.189	0.046
-281.501	-52.267	-0.355	0.163
-280.486	7.648	-0.254	-0.188
-279.472	800.000	0.058	0.190
-278.457	-7.728	0.330	0.221
-277.443	3.416	0.145	-0.104
-276.428	-200.000	0.170	-0.000
-275.413	36.065	-0.261	0.228
-274.399	800.000	0.017	-0.074
-273.384	-200.000	-0.082	0.388
-272.370	-41.506	-0.260	0.133
-271.355	-61.966	-0.250	0.103
-270.340	87.113	-0.134	-0.146
-269.326	15.243	0.260	0.202
-268.311	40.401	0.113	0.100
-267.297	57.234	0.151	-0.146
-266.282	67.613	-0.198	0.200
-265.267	-95.044	-0.142	0.038
-264.253	77.034	-0.015	-0.016
-263.238	220.319	-0.157	-0.249
-262.224	22.075	-0.093	0.075
-261.209	-200.000	0.027	-0.185
-260.195	800.000	0.160	-0.475
-259.180	504.505	-0.137	-0.315
-258.165	-200.000	-0.009	0.294
-257.151	35.288	0.155	0.135
-256.136	320.010	0.193	-0.362
-255.122	-200.000	-0.010	0.100
-254.107	800.000	-0.053	0.157
-253.092	178.692	-0.073	-0.106
-252.078	142.048	-0.018	-0.024
-251.063	800.000	0.068	-0.223
-250.049	64.939	0.119	-0.118
-249.034	69.065	0.166	0.169
-248.019	-200.000	0.045	-0.321
-247.005	-92.767	0.177	0.049
-245.990	-200.000	-0.009	0.045
-244.976	112.244	0.216	-0.258
-243.961	101.553	-0.073	-0.084
-242.946	-145.075	0.398	-0.036
-241.932	-95.298	-0.054	0.014
-240.917	-48.420	0.059	-0.028
-239.903	394.147	-0.102	-0.210
-238.888	-200.000	0.050	0.327
-237.873	-71.373	0.277	0.103
-236.859	-26.712	0.333	0.193
-235.844	136.238	-0.069	-0.089
-234.830	87.898	-0.196	-0.215
-233.815	147.242	0.056	0.075
-232.800	245.385	-0.238	0.396
-231.786	47.872	0.254	0.234
-230.771	800.000	0.043	-0.146
-229.757	800.000	0.043	-0.173
-228.742	-85.921	-0.182	0.056
-227.727	200.627	0.215	-0.327
-226.713	-18.528	0.096	-0.059
-225.698	-42.782	0.273	0.137
-224.684	-200.000	0.001	-0.046
-223.669	258.589	0.062	0.105
-222.655	-200.000	0.007	0.172
-221.640	-128.488	-0.165	-0.023
-220.625	42.888	0.139	0.125
-219.611	-200.000	0.022	-0.398
-218.596	-200.000	-0.041	-0.322
-217.582	-200.000	-0.024	-0.241
-216.567	-65.773	0.149	0.059
-215.552	-5.825	0.201	-0.136
-214.538	-200.000	-0.010	0.070
-213.523	530.114	0.181	0.424
-212.509	523.114	0.114	-0.265
-211.494	-200.000	0.015	-0.290
-210.479	800.000	0.056	-0.166
-209.465	90.694	-0.031	-0.034
-208.450	-47.645	-0.240	0.115
-207.436	689.951	0.078	0.201
-206.421	-200.000	-0.028	-0.147
-205.406	14.858	-0.142	-0.110
-204.392	-200.000	0.009	-0.339
-203.377	-106.013	0.154	0.034
-202.363	65.206	0.124	-0.124
-201.348	-108.420	0.508	0.108
-200.333	800.000	0.060	0.208
-199.319	-174.052	0.205	0.006
-198.304	585.000	0.025	0.061
-197.290	486.545	0.089	-0.200
-196.275	8.349	-0.254	-0.188
-195.260	-18.652	0.048	-0.029
-194.246	-200.000	-0.019	-0.101
-193.231	655.784	0.018	-0.046
-192.217	800.000	-0.099	0.275
-191.202	70.568	-0.253	-0.258
-190.187	800.000	-0.145	-0.410
-189.173	225.877	-0.140	0.224
-188.158	549.232	0.092	0.218
-187.144	180.758	0.087	0.127
-186.129	-83.830	-0.168	0.053
-185.114	136.650	0.276	-0.356
-184.100	-30.425	-0.034	0.019
-183.085	146.235	-0.094	0.124
-182.071	-96.210	0.137	-0.036
-181.056	-54.111	0.138	0.062
-180.042	8.698	0.145	-0.108
-179.027	491.483	-0.072	-0.162
-178.012	147.559	-0.212	-0.281
-176.998	122.980	0.107	-0.132
-175.983	175.535	-0.009	0.013
-174.969	8.896	-0.093	-0.069
-173.954	33.909	0.217	-0.186
-172.939	9.713	0.248	-0.186
-171.925	52.949	-0.300	-0.283
-170.910	335.497	0.088	0.169
-169.896	50.299	0.122	0.114
-168.881	-57.884	0.254	0.109
-167.866	-138.660	-0.203	0.022
-166.852	171.796	-0.191	0.271
-165.837	-145.006	0.097	0.009
-164.823	74.985	0.264	-0.274
-163.808	-151.914	0.196	-0.014
-162.793	-200.000	-0.041	-0.269
-161.779	12.992	0.141	0.108
-160.764	-42.456	0.191	-0.096
-159.750	-138.901	-0.007	-0.001
-158.735	64.582	0.086	0.086
-157.720	70.609	-0.118	0.121
-156.706	-200.000	-0.011	0.103
-155.691	-200.000	0.051	0.286
-154.677	800.000	0.061	0.169
-153.662	800.000	0.114	0.323
-152.647	130.008	0.157	-0.199
-151.633	-200.000	0.032	-0.361
-150.618	151.397	0.113	0.152
-149.604	800.000	-0.086	0.275
-148.589	14.521	-0.328	0.252
-147.574	153.302	-0.255	0.344
-146.560	-65.792	0.177	0.070
-145.545	-200.000	-0.160	-0.000
-144.531	-1.835	-0.183	-0.127
-143.516	516.708	0.113	-0.261
-142.502	-200.000	-0.014	-0.085
-141.487	800.000	-0.032	-0.138
-140.472	-73.122	0.187	0.068
-139.458	-107.637	0.203	-0.044
-138.443	-200.000	0.027	-0.199
-137.429	-154.545	0.294	-0.019
-136.414	-200.000	-0.047	0.323
-135.399	-200.000	0.006	0.521
-134.385	52.460	-0.173	0.163
-133.370	65.908	-0.343	-0.342
-132.356	46.047	0.244	-0.222
-131.341	-200.000	0.036	-0.189
-130.326	391.706	-0.096	0.196
-129.312	287.950	-0.066	0.117
-128.297	-52.739	-0.173	0.079
-127.283	19.994	-0.142	-0.112
-126.268	-58.564	0.237	-0.101
-125.253	230.029	-0.033	0.053
-124.239	-200.000	-0.002	-0.115
-123.224	-200.000	-0.024	-0.192
-122.210	5.424	0.183	-0.133
-121.195	38.262	-0.084	-0.073
