DTS Sentinel unit serial number:	SN413079Multiplexer serial number:	ORYXHardware model number:	OX4-SRSoftware version number:	ORYX F/W v4.00 Oryx Data Collector v3.7.2.0data status	okinstallation	princeton_trtdifferential loss correction	single-endedforward channel	channel 3reverse channel	N/Adate	2019/09/19time	15:08:35forward acquisition time	60.00reverse acquisition time	0.00gamma	496.2192k internal	0.2315k external	0.2315temperature offset calibration	1.0009default loss term (dB/km)	0.3790temperature slope calibration	1.0000multiplexer offset coefficient	1.0000multiplexer slope coefficient	1.0000fibre end	0.00T internal ref (°C)	33.37T ext. ref 1 (°C)	1.11T ext. ref 2 (°C)	30.35length (m)	temperature (°C)	Stokes	anti-Stokes-747.200	800.000	-0.089	0.302
-746.185	5.423	0.088	0.066
-745.171	149.503	0.159	-0.219
-744.156	800.000	-0.093	0.295
-743.142	800.000	-0.051	-0.148
-742.127	18.589	-0.281	0.228
-741.112	-49.257	0.080	0.039
-740.098	-93.421	-0.103	-0.029
-739.083	-200.000	0.044	0.424
-738.069	800.000	0.048	-0.163
-737.054	800.000	0.069	0.264
-736.039	-22.191	-0.113	0.069
-735.025	100.409	0.106	0.124
-734.010	99.621	0.088	0.103
-732.996	-64.862	-0.117	0.048
-731.981	250.632	-0.033	0.056
-730.966	50.419	0.126	-0.120
-729.952	-146.814	-0.115	0.010
-728.937	194.629	-0.030	0.046
-727.923	-101.267	0.172	-0.043
-726.908	800.000	0.108	-0.428
-725.894	100.681	-0.196	0.231
-724.879	-29.667	0.093	0.054
-723.864	167.134	-0.162	-0.232
-722.850	-60.602	0.347	-0.149
-721.835	188.289	0.152	0.230
-720.821	-60.725	0.253	0.108
-719.806	-174.719	0.406	-0.012
-718.791	-46.277	-0.137	-0.068
-717.777	681.783	-0.029	0.077
-716.762	111.246	0.131	-0.160
-715.748	89.681	-0.096	-0.108
-714.733	166.363	-0.086	-0.124
-713.718	-200.000	-0.081	-0.468
-712.704	2.635	-0.259	-0.190
-711.689	446.503	0.038	0.084
-710.675	197.734	0.169	-0.261
-709.660	-148.265	0.309	0.026
-708.645	-49.869	-0.102	0.049
-707.631	-52.683	0.174	-0.081
-706.616	800.000	-0.033	-0.107
-705.602	-200.000	0.022	0.232
-704.587	-162.854	-0.251	-0.012
-703.572	-90.750	-0.188	0.055
-702.558	-31.765	-0.108	-0.061
-701.543	-200.000	-0.036	-0.414
-700.529	800.000	0.047	-0.188
-699.514	-200.000	-0.054	-0.338
-698.499	-11.796	0.109	0.073
-697.485	734.559	-0.031	0.083
-696.470	-200.000	-0.009	-0.088
-695.456	-200.000	0.019	-0.235
-694.441	800.000	-0.140	-0.440
-693.426	-171.509	-0.139	-0.005
-692.412	19.608	0.182	0.148
-691.397	39.281	-0.167	-0.151
-690.383	800.000	-0.102	-0.325
-689.368	37.289	0.134	0.120
-688.354	321.827	-0.191	0.367
-687.339	-60.872	0.229	0.098
-686.324	33.960	0.051	0.045
-685.310	-103.813	-0.201	0.048
-684.295	-131.363	-0.090	-0.012
-683.281	-13.940	0.135	-0.088
-682.266	185.894	0.079	0.118
-681.251	667.048	-0.056	-0.147
-680.237	207.144	0.080	-0.125
-679.222	379.283	-0.105	-0.217
-678.208	-99.604	-0.318	-0.081
-677.193	407.692	-0.079	-0.168
-676.178	-108.543	-0.234	-0.051
-675.164	-108.887	-0.099	0.021
-674.149	515.653	0.135	-0.318
-673.135	-40.204	-0.170	0.089
-672.120	-70.365	-0.051	0.020
-671.105	303.331	0.057	0.106
-670.091	-66.945	-0.287	-0.114
-669.076	-200.000	-0.014	0.322
-668.062	43.685	-0.054	0.050
-667.047	36.849	0.155	0.139
-666.032	800.000	0.036	0.125
-665.018	800.000	0.153	0.481
-664.003	-150.382	0.430	0.033
-662.989	-200.000	-0.011	-0.142
-661.974	449.773	-0.067	-0.149
-660.959	423.235	-0.083	-0.181
-659.945	800.000	-0.124	0.422
-658.930	-2.746	-0.107	-0.075
-657.916	-39.743	-0.140	-0.074
-656.901	62.168	-0.050	0.050
-655.886	101.048	0.093	-0.110
-654.872	151.270	0.069	0.095
-653.857	72.932	-0.026	0.028
-652.843	166.702	-0.042	-0.060
-651.828	391.976	0.044	0.092
-650.814	-71.595	0.058	0.022
-649.799	442.057	-0.031	0.068
-648.784	-200.000	-0.033	-0.261
-647.770	206.873	0.061	-0.095
-646.755	61.053	-0.100	0.101
-645.741	42.639	0.135	0.124
-644.726	-93.861	-0.280	-0.078
-643.711	609.216	0.148	-0.372
-642.697	800.000	-0.066	-0.224
-641.682	225.959	0.041	0.067
-640.668	-13.340	-0.145	-0.095
-639.653	749.724	0.097	0.264
-638.638	-200.000	0.051	0.377
-637.624	-4.872	0.287	0.199
-636.609	800.000	0.036	-0.155
-635.595	-200.000	-0.052	0.273
-634.580	607.322	0.154	-0.389
-633.565	149.376	-0.155	-0.211
-632.551	-200.000	-0.044	-0.253
-631.536	-48.309	-0.175	-0.085
-630.522	118.504	-0.140	-0.174
-629.507	-62.888	-0.087	0.036
-628.492	-44.133	0.149	-0.075
-627.478	380.950	-0.116	0.240
-626.463	21.051	-0.059	0.048
-625.449	-200.000	-0.024	0.442
-624.434	447.944	0.145	-0.322
-623.419	83.968	-0.024	-0.027
-622.405	172.045	0.131	0.190
-621.390	-200.000	0.051	0.258
-620.376	162.192	-0.048	0.068
-619.361	-82.515	0.104	0.034
-618.346	60.416	-0.223	0.223
-617.332	302.120	-0.034	0.064
-616.317	-149.066	-0.386	-0.031
-615.303	114.179	0.056	0.068
-614.288	-200.000	0.032	-0.146
-613.273	129.528	-0.112	0.144
-612.259	-168.087	-0.066	-0.003
-611.244	2.182	0.116	-0.085
-610.230	577.151	-0.078	-0.193
-609.215	-33.351	-0.172	0.096
-608.201	800.000	-0.093	0.300
-607.186	105.455	0.263	-0.313
-606.171	54.295	0.255	-0.247
-605.157	-32.178	-0.242	-0.137
-604.142	-178.996	0.226	-0.005
-603.128	62.297	-0.284	0.286
-602.113	96.873	0.135	0.156
-601.098	59.534	0.091	-0.090
-600.084	19.128	-0.243	-0.196
-599.069	-200.000	0.010	0.063
-598.055	-8.648	0.465	-0.315
-597.040	-32.521	-0.246	0.138
-596.025	-174.124	0.340	0.010
-595.011	-109.241	-0.258	-0.055
-593.996	-167.963	-0.370	0.015
-592.982	26.097	0.226	0.190
-591.967	-47.179	-0.040	-0.020
-590.952	232.144	0.074	0.122
-589.938	-62.807	0.319	0.133
-588.923	-106.168	0.353	-0.080
-587.909	-172.164	-0.268	-0.009
-586.894	-200.000	0.011	-0.245
-585.879	-117.426	-0.108	-0.020
-584.865	800.000	0.058	-0.200
-583.850	506.599	0.058	-0.135
-582.836	-200.000	-0.014	-0.279
-581.821	-189.187	-0.489	0.006
-580.806	-65.339	0.056	-0.023
-579.792	-200.000	-0.035	0.235
-578.777	187.446	-0.054	0.082
-577.763	176.227	-0.120	-0.175
-576.748	-123.718	0.172	-0.027
-575.733	492.037	-0.063	0.145
-574.719	-200.000	-0.019	-0.252
-573.704	-77.520	0.061	-0.021
-572.690	17.135	-0.350	0.280
-571.675	34.698	-0.146	-0.129
-570.661	-161.532	-0.191	-0.010
-569.646	531.005	-0.127	0.302
-568.631	-105.519	-0.214	-0.049
-567.617	-200.000	-0.015	0.193
-566.602	-60.373	0.028	-0.012
-565.588	126.902	0.145	0.186
-564.573	681.999	0.170	-0.447
-563.558	30.502	-0.312	-0.268
-562.544	-129.385	-0.240	0.034
-561.529	-200.000	0.007	0.104
-560.515	539.280	0.146	0.349
-559.500	-50.327	-0.385	-0.183
-558.485	-7.967	0.205	-0.139
-557.471	107.737	0.035	-0.042
-556.456	0.811	0.232	-0.167
-555.442	-58.864	-0.245	0.106
-554.427	-2.109	-0.181	-0.128
-553.412	-200.000	0.045	0.254
-552.398	-132.954	0.150	0.019
-551.383	168.642	-0.165	-0.236
-550.369	-6.752	-0.107	0.073
-549.354	34.921	-0.205	-0.181
-548.339	181.516	0.032	0.047
-547.325	-200.000	0.007	0.194
-546.310	135.065	-0.199	0.260
-545.296	-50.263	0.180	-0.085
-544.281	-200.000	-0.009	0.145
-543.266	544.298	-0.063	0.151
-542.252	20.268	0.229	-0.186
-541.237	-65.569	-0.126	-0.051
-540.223	9.808	-0.147	0.112
-539.208	-200.000	0.047	0.236
-538.193	84.076	0.169	-0.186
-537.179	41.565	-0.232	0.212
-536.164	-200.000	-0.018	0.144
-535.150	255.524	-0.145	-0.250
-534.135	800.000	0.031	0.102
-533.121	294.720	0.123	-0.226
-532.106	-96.826	-0.099	0.026
-531.091	-126.628	0.246	0.037
-530.077	-161.429	-0.325	0.017
-529.062	151.749	0.168	-0.231
-528.048	-23.646	-0.104	0.062
-527.033	-12.653	0.258	-0.169
-526.018	87.738	-0.125	0.140
-525.004	-200.000	0.041	0.571
-523.989	800.000	-0.052	0.205
-522.975	-200.000	-0.003	-0.081
-521.960	781.780	0.067	0.184
-520.945	453.629	0.049	-0.109
-519.931	-16.542	0.112	0.071
-518.916	800.000	0.033	0.099
-517.902	-200.000	0.021	0.154
-516.887	540.056	0.010	-0.024
-515.872	497.249	-0.074	-0.172
-514.858	208.004	-0.057	-0.090
-513.843	70.890	-0.113	-0.117
-512.829	-200.000	-0.027	0.223
-511.814	275.007	-0.074	0.132
-510.799	800.000	-0.010	-0.033
-509.785	137.403	-0.168	-0.221
-508.770	-15.465	-0.273	-0.175
-507.756	41.568	-0.226	0.206
-506.741	-200.000	-0.056	-0.266
-505.726	-99.339	0.098	-0.025
-504.712	54.104	-0.271	-0.262
-503.697	-36.965	-0.214	-0.115
-502.683	82.713	-0.113	0.124
-501.668	111.399	0.197	-0.238
-500.653	800.000	-0.163	0.464
-499.639	800.000	-0.149	0.498
-498.624	3.144	0.141	0.103
-497.610	800.000	-0.022	0.090
-496.595	800.000	-0.115	-0.358
-495.581	-19.789	0.258	-0.160
-494.566	60.798	0.304	0.302
-493.551	-200.000	0.055	0.422
-492.537	79.110	-0.139	0.150
-491.522	134.739	0.061	-0.079
-490.508	-200.000	0.028	-0.292
-489.493	27.898	0.094	0.080
-488.478	-200.000	0.029	0.138
-487.464	-85.824	0.101	-0.032
-486.449	-82.008	-0.149	0.049
-485.435	-200.000	-0.050	0.242
-484.420	21.268	-0.198	0.162
-483.405	45.407	-0.327	-0.303
-482.391	-22.193	0.081	-0.049
-481.376	-164.138	0.418	-0.019
-480.362	-51.760	0.127	-0.059
-479.347	-103.488	-0.285	-0.067
-478.332	-83.719	0.152	-0.049
-477.318	-200.000	0.002	0.116
-476.303	23.471	-0.088	-0.073
-475.289	-200.000	-0.010	-0.071
-474.274	250.926	-0.081	-0.137
-473.259	800.000	0.087	-0.330
-472.245	38.705	-0.123	-0.110
-471.230	-200.000	0.057	0.286
-470.216	-200.000	0.018	0.091
-469.201	34.659	-0.284	-0.249
-468.186	74.999	-0.189	-0.199
-467.172	0.101	0.224	0.160
-466.157	190.080	-0.110	-0.165
-465.143	14.825	-0.303	0.237
-464.128	-200.000	0.439	0.001
-463.113	182.360	-0.095	-0.140
-462.099	-200.000	-0.004	0.162
-461.084	706.895	-0.093	0.246
-460.070	121.064	-0.136	0.170
-459.055	141.136	-0.207	-0.275
-458.040	-200.000	-0.059	0.376
-457.026	-58.050	-0.181	-0.079
-456.011	-97.453	0.180	0.047
-454.997	-20.958	-0.244	-0.150
-453.982	145.415	0.035	-0.047
-452.968	65.261	-0.097	-0.099
-451.953	361.468	0.103	0.207
-450.938	-152.059	0.129	0.009
-449.924	-34.919	-0.392	0.215
-448.909	139.097	-0.120	-0.158
-447.895	4.837	0.279	0.205
-446.880	-58.667	-0.058	0.025
-445.865	-110.226	-0.143	0.030
-444.851	-97.725	-0.349	0.091
-443.836	115.177	0.091	0.111
-442.822	78.296	-0.132	0.141
-441.807	-200.000	-0.017	-0.146
-440.792	233.859	-0.168	0.278
-439.778	405.578	-0.040	0.086
-438.763	-51.623	-0.128	-0.060
-437.749	22.817	0.053	-0.044
-436.734	19.885	-0.258	0.209
-435.719	131.600	0.147	0.189
-434.705	86.945	0.290	0.321
-433.690	-200.000	0.016	0.247
-432.676	-21.577	-0.127	0.078
-431.661	-25.428	-0.100	0.059
-430.646	-75.462	-0.181	-0.064
-429.632	-67.042	-0.230	-0.091
-428.617	-75.414	0.519	-0.185
-427.603	422.006	-0.047	0.100
-426.588	307.055	0.167	-0.312
-425.573	800.000	-0.091	-0.260
-424.559	622.465	-0.027	0.068
-423.544	-75.439	-0.082	0.029
-422.530	800.000	0.021	0.076
-421.515	-96.760	-0.067	0.018
-420.500	-39.003	0.282	0.149
-419.486	800.000	-0.010	0.038
-418.471	-123.008	0.299	-0.048
-417.457	-56.048	-0.071	0.032
-416.442	-81.312	-0.260	-0.086
-415.428	800.000	0.035	0.128
-414.413	-63.403	0.313	0.129
-413.398	800.000	-0.035	0.124
-412.384	-12.539	0.022	-0.014
-411.369	-48.291	0.457	0.221
-410.355	-195.469	-0.292	0.002
-409.340	-95.036	-0.121	-0.033
-408.325	197.998	0.126	-0.193
-407.311	443.150	-0.116	-0.255
-406.296	507.184	-0.081	-0.187
-405.282	-90.091	-0.235	-0.068
-404.267	422.607	-0.158	0.339
-403.252	-171.162	-0.284	-0.010
-402.238	55.046	0.139	0.135
-401.223	-89.233	0.454	-0.134
-400.209	154.726	0.288	-0.396
-399.194	-200.000	0.017	-0.092
-398.179	-74.112	-0.180	-0.065
-397.165	674.415	-0.072	-0.186
-396.150	-37.867	-0.197	0.105
-395.136	425.066	-0.192	0.412
-394.121	800.000	0.018	-0.060
-393.106	-200.000	-0.030	-0.469
-392.092	-102.424	-0.161	-0.039
-391.077	42.220	-0.212	-0.193
-390.063	-66.439	-0.261	-0.104
-389.048	-152.818	0.250	0.018
-388.033	424.509	0.109	0.235
-387.019	4.413	0.109	-0.080
-386.004	371.280	0.112	-0.228
-384.990	475.329	0.091	0.206
-383.975	-137.857	-0.269	-0.030
-382.960	-200.000	0.034	0.336
-381.946	16.962	0.146	0.116
-380.931	-200.000	0.020	0.136
-379.917	-200.000	0.012	-0.074
-378.902	20.212	0.259	-0.209
-377.888	142.676	0.241	-0.320
-376.873	-129.824	-0.278	-0.038
-375.858	449.032	0.096	0.212
-374.844	-2.290	0.139	0.098
-373.829	-200.000	0.051	0.244
-372.815	37.036	0.148	-0.131
-371.800	16.023	0.207	0.163
-370.785	464.249	-0.092	0.206
-369.771	-96.384	-0.256	-0.068
-368.756	-200.000	-0.075	-0.353
-367.742	80.490	-0.092	-0.098
-366.727	144.635	0.104	-0.139
-365.712	299.006	-0.084	0.155
-364.698	-162.744	-0.284	-0.014
-363.683	800.000	0.042	-0.166
-362.669	-6.641	0.092	-0.062
-361.654	17.095	0.165	-0.131
-360.639	-69.399	-0.270	-0.104
-359.625	-13.604	-0.207	0.134
-358.610	800.000	0.056	0.214
-357.596	-92.436	-0.165	-0.046
-356.581	-83.435	0.267	0.086
-355.566	317.340	-0.034	-0.065
-354.552	-82.450	-0.001	-0.000
-353.537	152.127	0.200	-0.273
-352.523	24.432	-0.455	-0.375
-351.508	50.368	0.183	-0.173
-350.493	-64.034	0.167	0.068
-349.479	-105.990	0.065	-0.015
-348.464	-200.000	0.007	-0.103
-347.450	28.870	0.169	-0.143
-346.435	618.044	-0.088	-0.221
-345.420	159.131	0.302	-0.419
-344.406	-62.541	0.090	0.037
-343.391	-107.329	-0.228	-0.050
-342.377	15.245	0.225	-0.176
-341.362	-200.000	0.022	-0.125
-340.348	760.907	0.013	0.035
-339.333	-200.000	-0.050	0.308
-338.318	119.505	0.186	0.230
-337.304	43.731	-0.262	0.239
-336.289	-200.000	0.024	-0.214
-335.275	180.189	-0.118	-0.173
-334.260	-200.000	0.058	0.335
-333.245	193.774	0.075	-0.114
-332.231	44.124	-0.211	0.193
-331.216	191.798	0.127	0.191
-330.202	800.000	0.051	-0.159
-329.187	176.789	-0.090	-0.131
-328.172	800.000	0.071	0.286
-327.158	280.005	-0.052	-0.093
-326.143	76.682	0.202	-0.213
-325.129	-86.044	-0.329	0.101
-324.114	-36.974	0.331	0.177
-323.099	-200.000	0.017	0.081
-322.085	800.000	-0.183	0.601
-321.070	-29.612	0.328	0.187
-320.056	-200.000	-0.190	0.001
-319.041	-84.133	0.267	0.084
-318.026	-116.931	-0.209	0.038
-317.012	11.505	0.082	0.063
-315.997	-200.000	0.023	0.309
-314.983	-93.941	0.159	-0.044
-313.968	-41.635	0.324	0.166
-312.953	-76.280	-0.426	-0.150
-311.939	-200.000	0.066	-0.450
-310.924	-54.951	0.215	0.097
-309.910	800.000	0.083	-0.262
-308.895	-73.510	-0.096	0.035
-307.880	-200.000	-0.043	-0.468
-306.866	84.998	0.172	-0.188
-305.851	48.689	0.065	0.060
-304.837	-87.099	-0.163	0.049
-303.822	-7.951	0.221	0.149
-302.807	-135.624	-0.260	-0.031
-301.793	-19.176	-0.050	-0.031
-300.778	356.362	-0.143	-0.284
-299.764	800.000	0.044	0.126
-298.749	-1.035	-0.141	0.099
-297.735	603.336	-0.041	0.102
-296.720	47.329	0.092	-0.085
-295.705	-2.770	0.157	-0.109
-294.691	121.675	-0.124	0.155
-293.676	253.772	-0.293	0.499
-292.662	-53.235	0.133	-0.061
-291.647	-178.697	0.426	-0.010
-290.632	-53.353	0.136	0.062
-289.618	-8.376	-0.159	0.106
-288.603	-7.150	-0.197	-0.133
-287.589	123.080	0.141	-0.176
-286.574	105.750	-0.355	-0.418
-285.559	-200.000	0.029	0.141
-284.545	-146.222	-0.223	0.020
-283.530	-200.000	0.030	0.251
-282.516	-67.020	-0.144	0.056
-281.501	-200.000	0.010	-0.136
-280.486	800.000	-0.006	0.028
-279.472	-91.148	0.272	-0.078
-278.457	-159.980	0.206	0.011
-277.443	233.856	0.014	-0.023
-276.428	61.969	0.235	-0.233
-275.413	70.361	-0.071	0.073
-274.399	800.000	0.019	0.059
-273.384	74.491	-0.060	-0.063
-272.370	23.915	-0.147	-0.121
-271.355	-200.000	-0.084	-0.388
-270.340	49.106	0.165	0.155
-269.326	-180.194	-0.216	0.005
-268.311	24.226	-0.206	0.169
-267.297	-200.000	-0.025	-0.111
-266.282	71.846	-0.077	0.079
-265.267	-47.592	0.385	0.186
-264.253	-97.687	-0.294	-0.076
-263.238	-37.728	-0.098	0.052
-262.224	-16.174	0.180	-0.114
-261.209	10.956	0.243	-0.184
-260.195	-200.000	0.015	0.216
-259.180	800.000	0.064	-0.182
-258.165	-200.000	-0.027	-0.130
-257.151	232.827	0.116	-0.189
-256.136	319.159	0.116	0.219
-255.122	8.920	0.071	0.053
-254.107	287.547	0.111	-0.200
-253.092	0.967	0.402	-0.287
-252.078	800.000	0.018	-0.068
-251.063	18.052	-0.138	0.109
-250.049	-200.000	0.018	-0.334
-249.034	9.577	0.153	-0.115
-248.019	-81.342	-0.021	-0.007
-247.005	-97.001	-0.115	-0.030
-245.990	-200.000	0.033	-0.456
-244.976	800.000	0.034	0.127
-243.961	800.000	-0.066	-0.256
-242.946	-50.688	-0.222	-0.104
-241.932	-80.740	0.260	-0.086
-240.917	-22.641	-0.249	-0.150
-239.903	800.000	-0.066	-0.260
-238.888	508.227	-0.060	-0.138
-237.873	-24.576	0.168	-0.100
-236.859	184.756	0.035	0.051
-235.844	7.307	0.256	0.190
-234.830	542.383	0.074	-0.175
-233.815	485.930	-0.134	0.303
-232.800	-85.060	-0.073	0.023
-231.786	420.721	0.117	-0.249
-230.771	-50.667	0.257	0.120
-229.757	-82.753	0.274	0.088
-228.742	281.353	-0.095	0.170
-227.727	-200.000	-0.005	-0.192
-226.713	-75.763	0.048	-0.017
-225.698	61.447	0.263	-0.259
-224.684	-58.333	-0.245	0.106
-223.669	800.000	0.109	0.340
-222.655	-156.430	-0.228	0.014
-221.640	139.201	0.309	-0.403
-220.625	-79.925	0.078	-0.026
-219.611	69.057	0.045	-0.046
-218.596	-132.946	-0.584	0.074
-217.582	-82.231	-0.092	-0.030
-216.567	48.207	0.199	0.185
-215.552	-171.369	0.168	0.006
-214.538	-178.691	-0.257	0.006
-213.523	76.060	0.054	-0.056
-212.509	-200.000	-0.034	-0.486
-211.494	-127.082	-0.114	-0.017
-210.479	-43.232	0.327	-0.164
-209.465	-49.653	0.220	-0.104
-208.450	-149.727	0.079	0.006
-207.436	-136.930	0.054	-0.006
-206.421	-27.880	0.201	0.116
-205.406	-75.071	0.202	-0.072
-204.392	-128.515	-0.135	0.019
-203.377	-163.421	0.341	0.016
-202.363	188.096	-0.016	0.024
-201.348	-77.007	0.157	0.054
-200.333	18.184	0.436	0.345
-199.319	800.000	0.094	0.372
-198.304	-36.715	0.303	0.161
-197.290	-93.538	-0.159	0.044
-196.275	-187.344	-0.260	0.003
-195.260	-85.693	0.179	0.055
-194.246	17.166	0.149	0.117
-193.231	-200.000	-0.014	-0.312
-192.217	391.891	-0.038	0.079
-191.202	-82.369	0.355	-0.114
-190.187	232.256	-0.096	-0.156
-189.173	800.000	0.023	0.092
-188.158	-109.602	0.347	-0.073
-187.144	83.645	-0.207	0.224
-186.129	647.690	0.102	-0.260
-185.114	-116.496	-0.266	0.049
-184.100	-200.000	0.226	-0.000
-183.085	142.400	0.252	0.331
-182.071	634.476	-0.118	0.296
-181.056	219.526	-0.066	-0.105
-180.042	347.883	0.096	-0.187
-179.027	6.885	-0.113	0.083
-178.012	800.000	-0.062	-0.225
-176.998	-111.165	0.349	-0.071
-175.983	11.177	-0.160	0.121
-174.969	-200.000	-0.025	0.156
-173.954	176.193	0.213	0.306
-172.939	65.555	0.221	0.222
-171.925	-157.444	0.163	0.010
-170.910	-200.000	-0.008	0.193
-169.896	659.613	-0.100	0.255
-168.881	-35.342	0.112	-0.060
-167.866	41.534	0.141	-0.126
-166.852	356.979	-0.048	0.095
-165.837	-85.479	0.133	0.041
-164.823	493.781	-0.072	0.164
-163.808	-71.665	-0.120	-0.044
-162.793	800.000	0.068	0.209
-161.779	27.376	-0.068	0.056
-160.764	69.634	-0.184	-0.188
-159.750	112.040	-0.187	0.224
-158.735	-174.022	-0.166	-0.005
-157.720	-186.785	-0.208	0.003
-156.706	-9.609	-0.142	-0.094
-155.691	-14.806	0.386	-0.245
-154.677	622.029	0.036	-0.090
-153.662	21.711	0.333	0.268
-152.647	800.000	0.046	0.187
-151.633	-47.829	0.132	-0.063
-150.618	-200.000	-0.016	0.081
-149.604	16.285	0.209	-0.164
-148.589	307.811	0.095	-0.175
-147.574	70.418	0.286	-0.293
-146.560	44.421	0.248	0.226
-145.545	-200.000	0.046	0.347
-144.531	800.000	0.069	-0.206
-143.516	-118.971	0.283	-0.049
-142.502	-200.000	0.023	0.190
-141.487	121.140	-0.287	0.354
-140.472	-153.548	0.298	-0.020
-139.458	-170.323	0.083	0.003
-138.443	-46.017	0.156	0.076
-137.429	-200.000	0.045	0.356
-136.414	-200.000	-0.022	0.233
-135.399	-4.966	0.162	0.110
-134.385	-200.000	-0.016	0.117
-133.370	400.203	0.060	-0.124
-132.356	207.078	0.078	0.121
-131.341	-200.000	0.108	-0.477
-130.326	-200.000	0.031	-0.225
-129.312	-106.714	-0.090	0.020
-128.297	-200.000	0.023	0.222
-127.283	800.000	-0.091	0.297
-126.268	-97.788	0.274	-0.070
-125.253	124.280	-0.066	-0.082
-124.239	273.810	0.112	-0.196
-123.224	-80.624	-0.089	-0.029
-122.210	-149.079	-0.128	0.010
-121.195	12.786	0.345	0.263
-120.180	-200.000	0.052	0.305
-119.166	-47.772	0.213	-0.102
