DTS Sentinel unit serial number:	SN413079Multiplexer serial number:	ORYXHardware model number:	OX4-SRSoftware version number:	ORYX F/W v4.00 Oryx Data Collector v3.7.2.0data status	okinstallation	princeton_trtdifferential loss correction	single-endedforward channel	channel 3reverse channel	N/Adate	2019/09/17time	13:44:35forward acquisition time	60.00reverse acquisition time	0.00gamma	496.2192k internal	0.2304k external	0.2304temperature offset calibration	0.9959default loss term (dB/km)	0.3790temperature slope calibration	1.0000multiplexer offset coefficient	1.0000multiplexer slope coefficient	1.0000fibre end	0.00T internal ref (°C)	35.05T ext. ref 1 (°C)	0.40T ext. ref 2 (°C)	32.23length (m)	temperature (°C)	Stokes	anti-Stokes-747.200	-88.413	0.201	0.061
-746.185	-200.000	-0.003	0.405
-745.171	370.161	0.046	-0.094
-744.156	-72.445	0.398	0.150
-743.142	154.298	0.140	0.196
-742.127	-200.000	-0.016	0.287
-741.112	-118.994	-0.395	-0.071
-740.098	198.330	0.084	-0.131
-739.083	-153.472	0.129	0.009
-738.069	253.487	-0.094	0.164
-737.054	38.641	0.277	0.252
-736.039	-200.000	-0.094	0.000
-735.025	624.432	0.099	0.254
-734.010	-200.000	0.005	-0.174
-732.996	800.000	0.047	-0.160
-731.981	-187.113	-0.007	-0.000
-730.966	170.706	0.119	-0.173
-729.952	-200.000	-0.004	-0.470
-728.937	194.554	0.102	0.157
-727.923	-24.388	0.116	-0.070
-726.908	-87.660	-0.401	0.123
-725.894	-200.000	0.002	-0.098
-724.879	800.000	-0.054	0.204
-723.864	-200.000	0.062	-0.365
-722.850	800.000	0.100	0.381
-721.835	-200.000	-0.008	-0.439
-720.821	312.455	-0.088	-0.168
-719.806	-200.000	-0.021	0.533
-718.791	-51.626	-0.098	0.047
-717.777	-200.000	-0.025	-0.120
-716.762	-101.966	-0.103	0.025
-715.748	-112.704	0.061	-0.012
-714.733	198.300	-0.167	0.260
-713.718	800.000	0.076	-0.262
-712.704	697.965	0.086	0.229
-711.689	-83.182	0.179	0.059
-710.675	-74.937	-0.118	-0.043
-709.660	-78.855	-0.179	-0.062
-708.645	-25.745	-0.409	0.245
-707.631	-147.449	-0.253	0.022
-706.616	-53.610	0.314	0.146
-705.602	-79.795	-0.381	0.130
-704.587	-136.741	-0.319	0.037
-703.572	-56.885	0.166	-0.074
-702.558	220.006	0.097	-0.158
-701.543	41.562	0.148	-0.136
-700.529	-72.082	0.038	-0.015
-699.514	-48.087	0.052	0.025
-698.499	-17.747	0.299	-0.191
-697.485	187.089	0.150	-0.227
-696.470	800.000	0.048	-0.186
-695.456	-73.898	0.267	-0.099
-694.441	-82.982	0.209	0.068
-693.426	68.875	-0.105	0.110
-692.412	8.218	-0.221	-0.169
-691.397	119.751	-0.073	-0.092
-690.383	405.867	-0.051	-0.109
-689.368	-66.475	-0.418	0.169
-688.354	-68.999	-0.219	0.086
-687.339	118.112	-0.224	-0.280
-686.324	49.992	0.192	-0.184
-685.310	800.000	-0.034	0.113
-684.295	800.000	-0.045	0.165
-683.281	158.537	-0.086	-0.121
-682.266	530.400	0.020	-0.049
-681.251	85.758	0.026	0.029
-680.237	51.033	-0.164	0.158
-679.222	-42.072	-0.211	0.110
-678.208	57.552	-0.175	0.174
-677.193	-200.000	-0.053	0.334
-676.178	-200.000	-0.026	0.139
-675.164	72.750	-0.178	0.189
-674.149	105.674	-0.091	0.109
-673.135	-200.000	0.050	0.319
-672.120	1.554	-0.227	-0.166
-671.105	75.691	0.089	0.095
-670.091	14.071	-0.295	0.233
-669.076	800.000	0.046	-0.194
-668.062	-10.144	0.143	0.096
-667.047	220.359	0.204	0.333
-666.032	335.064	-0.173	-0.340
-665.018	-153.245	0.506	-0.036
-664.003	-157.329	-0.308	0.019
-662.989	290.559	-0.049	-0.091
-661.974	-116.277	-0.437	0.082
-660.959	-200.000	0.018	-0.099
-659.945	-37.779	-0.288	-0.156
-658.930	-137.273	-0.321	-0.037
-657.916	-200.000	0.008	-0.569
-656.901	-200.000	-0.049	-0.305
-655.886	800.000	-0.087	0.312
-654.872	46.338	0.188	-0.177
-653.857	-145.869	-0.234	-0.021
-652.843	-118.875	0.103	-0.018
-651.828	110.047	-0.155	-0.188
-650.814	17.733	-0.070	0.057
-649.799	-66.876	0.195	-0.078
-648.784	137.727	0.097	-0.128
-647.770	36.323	-0.076	0.068
-646.755	-200.000	0.013	-0.323
-645.741	-32.275	-0.464	-0.263
-644.726	156.828	-0.048	0.067
-643.711	108.420	-0.108	-0.131
-642.697	-36.920	-0.426	0.232
-641.682	-200.000	0.038	-0.386
-640.668	-50.467	0.202	0.097
-639.653	800.000	0.051	0.200
-638.638	-154.849	0.163	-0.011
-637.624	-58.848	-0.457	-0.200
-636.609	187.055	0.053	0.081
-635.595	-200.000	0.000	-0.268
-634.580	-99.964	0.243	0.062
-633.565	-53.213	-0.194	0.090
-632.551	115.704	-0.284	-0.352
-631.536	-104.943	-0.343	-0.080
-630.522	-79.967	-0.303	0.103
-629.507	800.000	-0.042	0.131
-628.492	563.016	-0.097	-0.237
-627.478	82.355	0.147	-0.161
-626.463	1.240	0.319	-0.232
-625.449	42.723	0.120	-0.111
-624.434	-70.055	-0.321	0.124
-623.419	800.000	0.060	0.186
-622.405	168.717	-0.123	-0.177
-621.390	-8.928	0.145	0.099
-620.376	-142.949	0.134	-0.013
-619.361	531.432	-0.047	0.113
-618.346	274.287	0.225	-0.404
-617.332	217.588	-0.166	-0.267
-616.317	-79.091	-0.094	-0.032
-615.303	800.000	0.022	-0.079
-614.288	26.838	0.340	0.289
-613.273	-120.356	0.171	0.030
-612.259	-200.000	0.004	0.053
-611.244	-144.777	0.450	-0.042
-610.230	-178.704	0.207	0.005
-609.215	-118.893	0.175	0.031
-608.201	-20.122	0.243	0.152
-607.186	330.480	0.098	-0.191
-606.171	132.333	-0.036	0.046
-605.157	-129.722	-0.261	-0.036
-604.142	-200.000	-0.013	0.093
-603.128	-20.117	-0.270	-0.168
-602.113	-200.000	-0.045	0.219
-601.098	693.982	0.120	0.320
-600.084	28.159	-0.169	0.144
-599.069	-102.979	-0.035	0.008
-598.055	322.166	-0.066	0.128
-597.040	800.000	-0.013	-0.042
-596.025	-44.618	-0.118	0.060
-595.011	-88.943	0.004	0.001
-593.996	477.440	-0.070	0.160
-592.982	-96.218	0.083	0.022
-591.967	-140.100	0.358	-0.038
-590.952	33.554	-0.470	-0.414
-589.938	-46.014	0.010	0.005
-588.923	-56.160	0.174	0.078
-587.909	98.945	-0.233	0.273
-586.894	1.352	-0.058	0.042
-585.879	-49.515	-0.370	0.178
-584.865	41.956	-0.143	-0.132
-583.850	-200.000	0.008	0.451
-582.836	-62.843	-0.161	-0.068
-581.821	-37.682	0.103	0.055
-580.806	-97.947	-0.082	-0.022
-579.792	560.271	-0.090	0.221
-578.777	-200.000	0.008	-0.411
-577.763	-35.759	-0.336	-0.184
-576.748	-1.462	0.205	0.147
-575.733	109.244	0.084	-0.101
-574.719	800.000	-0.115	-0.408
-573.704	115.456	-0.196	-0.242
-572.690	73.177	-0.072	-0.076
-571.675	184.164	-0.227	-0.339
-570.661	-151.982	-0.095	0.007
-569.646	417.528	-0.042	0.092
-568.631	-85.005	-0.205	0.065
-567.617	45.991	0.110	0.103
-566.602	34.544	-0.215	0.190
-565.588	-200.000	-0.009	-0.087
-564.573	232.392	-0.126	0.209
-563.558	-45.775	0.327	-0.163
-562.544	369.303	-0.109	-0.223
-561.529	800.000	0.045	0.179
-560.515	-142.162	0.336	0.034
-559.500	-171.974	-0.341	0.011
-558.485	355.956	0.075	-0.150
-557.471	-82.766	0.067	-0.022
-556.456	-200.000	-0.012	0.182
-555.442	417.907	0.122	-0.265
-554.427	515.775	0.108	-0.256
-553.412	800.000	0.117	-0.358
-552.398	-94.013	-0.090	-0.025
-551.383	-133.820	-0.176	-0.022
-550.369	-58.931	0.213	-0.093
-549.354	-143.093	0.083	0.008
-548.339	-29.619	-0.238	0.137
-547.325	800.000	-0.031	0.127
-546.310	-26.987	0.178	0.105
-545.296	54.471	0.228	0.222
-544.281	476.248	-0.024	-0.055
-543.266	-200.000	-0.004	-0.263
-542.252	-200.000	-0.016	-0.120
-541.237	-200.000	-0.005	-0.257
-540.223	-22.739	-0.083	-0.051
-539.208	-200.000	0.034	0.319
-538.193	-200.000	0.008	0.187
-537.179	-104.357	0.208	0.049
-536.164	33.460	0.165	-0.145
-535.150	410.111	0.116	-0.249
-534.135	-200.000	-0.057	0.392
-533.121	204.893	-0.175	0.274
-532.106	-200.000	-0.008	0.407
-531.091	-172.683	-0.114	0.004
-530.077	-16.123	0.394	0.253
-529.062	-200.000	0.017	-0.114
-528.048	800.000	-0.093	-0.351
-527.033	178.806	-0.133	0.196
-526.018	-200.000	-0.025	-0.438
-525.004	-166.908	0.438	0.018
-523.989	42.081	-0.201	-0.184
-522.975	800.000	-0.061	-0.186
-521.960	800.000	-0.043	-0.174
-520.945	800.000	0.052	0.190
-519.931	245.968	-0.185	-0.315
-518.916	-200.000	0.022	0.102
-517.902	800.000	0.071	-0.292
-516.887	-23.597	-0.079	-0.048
-515.872	250.369	0.097	0.166
-514.858	-25.634	0.279	-0.166
-513.843	800.000	0.065	0.232
-512.829	11.863	-0.239	0.186
-511.814	208.961	0.137	-0.216
-510.799	37.513	-0.160	0.143
-509.785	311.442	0.035	0.066
-508.770	-103.116	0.351	0.084
-507.756	-58.358	0.322	-0.141
-506.741	0.682	-0.101	-0.073
-505.726	800.000	0.025	0.080
-504.712	70.702	-0.156	-0.163
-503.697	371.199	0.137	0.280
-502.683	-200.000	-0.042	-0.554
-501.668	211.186	-0.104	-0.165
-500.653	49.911	-0.151	-0.144
-499.639	-134.999	-0.261	0.032
-498.624	-200.000	-0.017	-0.184
-497.610	-200.000	-0.036	0.172
-496.595	-92.766	0.152	-0.043
-495.581	407.505	0.173	0.370
-494.566	-132.352	-0.384	-0.050
-493.551	185.413	-0.094	0.141
-492.537	800.000	-0.032	-0.121
-491.522	149.501	0.227	-0.310
-490.508	-75.220	-0.279	-0.100
-489.493	-85.116	-0.300	0.095
-488.478	71.436	0.137	-0.143
-487.464	-63.308	0.369	0.153
-486.449	-77.669	-0.332	0.116
-485.435	-200.000	0.104	0.469
-484.420	234.701	0.060	0.099
-483.405	800.000	0.021	0.087
-482.391	-134.818	-0.160	-0.020
-481.376	96.258	0.202	-0.233
-480.362	-197.651	0.209	-0.001
-479.347	260.314	0.065	-0.113
-478.332	800.000	-0.010	0.037
-477.318	-200.000	-0.008	0.229
-476.303	-200.000	0.026	0.299
-475.289	187.865	-0.071	0.106
-474.274	-165.154	-0.202	-0.009
-473.259	-10.025	0.081	0.055
-472.245	-200.000	0.001	0.107
-471.230	800.000	-0.030	0.120
-470.216	-200.000	0.030	0.158
-469.201	247.558	-0.041	-0.069
-468.186	-45.743	-0.105	-0.053
-467.172	-200.000	-0.002	0.234
-466.157	-66.301	0.106	0.042
-465.143	-200.000	-0.031	0.135
-464.128	800.000	-0.097	0.323
-463.113	-200.000	-0.041	0.373
-462.099	553.297	-0.161	0.391
-461.084	-85.383	-0.204	-0.064
-460.070	231.701	0.201	0.332
-459.055	32.215	0.193	0.167
-458.040	-16.143	-0.240	-0.154
-457.026	-22.441	-0.194	0.118
-456.011	-93.119	0.209	0.059
-454.997	219.438	-0.224	-0.361
-453.982	7.459	-0.061	0.046
-452.968	-37.444	-0.066	0.036
-451.953	-52.430	0.089	0.042
-450.938	-144.042	-0.111	-0.011
-449.924	-200.000	0.312	0.001
-448.909	376.016	0.118	0.243
-447.895	-111.469	-0.176	0.036
-446.880	120.102	-0.184	-0.230
-445.865	141.933	-0.085	0.113
-444.851	622.679	-0.083	-0.209
-443.836	30.337	-0.126	-0.108
-442.822	176.282	-0.264	0.386
-441.807	-74.312	0.110	-0.040
-440.792	41.494	-0.292	-0.266
-439.778	-200.000	0.005	0.035
-438.763	-71.797	-0.112	-0.042
-437.749	-160.411	-0.477	-0.026
-436.734	-85.873	0.427	-0.133
-435.719	225.789	-0.104	-0.169
-434.705	-92.025	0.321	-0.091
-433.690	-200.000	0.046	-0.327
-432.676	-200.000	0.030	0.158
-431.661	-200.000	-0.018	0.160
-430.646	-117.230	-0.101	-0.019
-429.632	127.550	0.233	-0.297
-428.617	58.111	-0.120	0.118
-427.603	29.466	0.135	-0.116
-426.588	-84.614	-0.530	-0.168
-425.573	-23.726	0.144	0.087
-424.559	-36.465	-0.239	0.129
-423.544	-200.000	-0.036	0.227
-422.530	-200.000	-0.016	0.185
-421.515	-83.235	-0.243	0.079
-420.500	800.000	-0.062	-0.237
-419.486	3.141	-0.077	-0.056
-418.471	-157.179	-0.381	-0.023
-417.457	-146.942	0.225	-0.019
-416.442	-29.623	-0.227	-0.130
-415.428	139.663	0.301	-0.399
-414.413	577.241	-0.037	0.090
-413.398	211.986	-0.178	0.282
-412.384	225.519	-0.055	0.090
-411.369	800.000	-0.055	-0.215
-410.355	128.372	0.161	0.206
-409.340	-200.000	0.004	0.316
-408.325	272.061	-0.125	-0.221
-407.311	-200.000	-0.026	-0.114
-406.296	-182.458	0.183	-0.003
-405.282	-81.986	-0.205	-0.067
-404.267	800.000	-0.033	0.091
-403.252	481.149	-0.026	-0.059
-402.238	-200.000	-0.003	-0.207
-401.223	-200.000	-0.002	-0.072
-400.209	-200.000	0.006	0.451
-399.194	546.939	0.079	-0.190
-398.179	69.836	-0.047	0.048
-397.165	-109.567	-0.256	-0.054
-396.150	-55.095	-0.061	0.028
-395.136	112.414	-0.236	-0.287
-394.121	127.766	0.135	0.172
-393.106	452.218	-0.031	-0.069
-392.092	-200.000	0.024	-0.185
-391.077	-150.092	0.289	-0.023
-390.063	28.923	-0.229	0.195
-389.048	165.627	-0.101	0.143
-388.033	-4.793	0.077	-0.053
-387.019	-49.679	0.124	0.059
-386.004	-118.866	-0.107	-0.019
-384.990	800.000	-0.061	-0.180
-383.975	800.000	0.075	-0.274
-382.960	-37.297	0.115	0.062
-381.946	-101.516	-0.395	-0.097
-380.931	623.403	0.184	0.465
-379.917	-116.451	-0.180	-0.033
-378.902	-200.000	-0.022	-0.349
-377.888	101.083	0.186	0.218
-376.873	-200.000	0.044	-0.289
-375.858	371.250	0.187	0.380
-374.844	800.000	0.098	0.412
-373.829	67.821	-0.130	-0.134
-372.815	-163.213	-0.224	-0.011
-371.800	-85.090	0.188	-0.059
-370.785	800.000	-0.086	0.333
-369.771	-9.804	-0.294	0.197
-368.756	-46.749	-0.356	-0.175
-367.742	-200.000	0.009	0.121
-366.727	-200.000	0.031	-0.227
-365.712	-50.775	-0.254	0.120
-364.698	-160.920	0.279	0.015
-363.683	116.478	0.008	-0.010
-362.669	800.000	-0.047	-0.135
-361.654	-76.524	0.089	0.031
-360.639	-128.927	-0.341	0.048
-359.625	-90.616	0.192	0.056
-358.610	410.992	0.051	0.108
-357.596	13.738	-0.196	0.153
-356.581	37.772	0.049	-0.044
-355.566	800.000	-0.038	0.121
-354.552	21.366	0.168	0.137
-353.537	-36.317	-0.228	-0.123
-352.523	39.715	0.141	-0.127
-351.508	198.411	-0.207	-0.317
-350.493	148.240	-0.047	-0.063
-349.479	-52.818	0.135	0.062
-348.464	-3.229	0.183	0.128
-347.450	265.890	-0.260	0.455
-346.435	-125.307	-0.173	0.026
-345.420	-68.188	-0.160	-0.062
-344.406	71.579	0.156	0.163
-343.391	-200.000	0.020	-0.130
-342.377	-3.717	0.197	0.137
-341.362	-183.241	0.161	0.003
-340.348	124.416	0.112	0.141
-339.333	-37.745	-0.075	-0.040
-338.318	13.268	0.312	0.242
-337.304	113.272	0.296	0.359
-336.289	-149.368	-0.125	0.010
-335.275	1.867	0.260	0.188
-334.260	-200.000	0.002	0.080
-333.245	-70.567	0.056	-0.021
-332.231	5.072	0.072	-0.053
-331.216	-114.478	-0.069	-0.013
-330.202	542.124	-0.014	0.035
-329.187	-25.084	0.097	0.058
-328.172	-200.000	-0.004	0.019
-327.158	-160.120	-0.180	-0.010
-326.143	-146.003	-0.269	-0.024
-325.129	80.215	-0.215	-0.232
-324.114	-143.348	-0.192	0.018
-323.099	0.748	-0.095	-0.068
-322.085	87.577	-0.175	-0.194
-321.070	260.256	0.114	-0.197
-320.056	-65.925	0.197	0.079
-319.041	59.986	0.189	-0.187
-318.026	-200.000	0.009	-0.041
-317.012	116.282	0.278	-0.341
-315.997	-91.167	-0.124	-0.036
-314.983	402.428	-0.084	-0.176
-313.968	800.000	0.085	0.351
-312.953	343.613	0.109	-0.214
-311.939	14.416	0.028	-0.022
-310.924	-45.413	-0.130	-0.064
-309.910	-83.519	-0.208	-0.067
-308.895	340.793	-0.065	-0.128
-307.880	-47.000	0.170	-0.083
-306.866	51.214	0.229	0.217
-305.851	-88.512	0.162	-0.048
-304.837	349.575	0.157	0.310
-303.822	171.397	0.049	-0.070
-302.807	-152.656	0.241	-0.017
-301.793	-33.455	-0.091	0.050
-300.778	800.000	0.131	-0.398
-299.764	295.464	0.029	-0.053
-298.749	-200.000	0.046	0.236
-297.735	604.694	-0.132	-0.328
-296.720	492.981	0.077	0.177
-295.705	-140.209	-0.175	0.018
-294.691	-44.874	0.285	0.142
-293.676	-200.000	0.008	0.187
-292.662	-47.424	-0.195	-0.095
-291.647	54.760	0.266	-0.256
-290.632	-104.427	0.208	-0.048
-289.618	799.837	-0.102	-0.283
-288.603	-200.000	-0.019	-0.109
-287.589	-200.000	0.264	0.000
-286.574	22.770	-0.145	-0.119
-285.559	-1.321	0.349	-0.247
-284.545	137.506	0.125	0.164
-283.530	-90.723	0.231	-0.067
-282.516	428.766	0.090	-0.194
-281.501	800.000	-0.101	-0.300
-280.486	69.774	0.147	-0.152
-279.472	800.000	0.072	0.229
-278.457	44.990	-0.077	-0.071
-277.443	-200.000	0.018	-0.120
-276.428	-200.000	0.000	0.103
-275.413	59.571	-0.106	0.104
-274.399	-56.018	-0.205	0.091
-273.384	244.212	-0.174	-0.292
-272.370	-200.000	0.006	0.192
-271.355	80.299	0.238	0.256
-270.340	-200.000	0.003	-0.243
-269.326	-44.257	0.310	0.155
-268.311	-44.112	0.330	0.165
-267.297	-200.000	0.042	0.218
-266.282	20.809	0.167	-0.135
-265.267	-28.726	-0.111	0.064
-264.253	22.927	0.273	0.224
-263.238	-200.000	-0.002	0.292
-262.224	168.136	0.187	0.266
-261.209	378.995	-0.078	-0.160
-260.195	-34.298	0.155	0.085
-259.180	-116.077	0.118	0.022
-258.165	-68.817	-0.247	0.095
-257.151	45.621	0.191	-0.177
-256.136	-107.929	0.017	0.004
-255.122	-59.062	-0.190	-0.082
-254.107	165.319	-0.090	-0.127
-253.092	-120.241	0.340	-0.058
-252.078	48.330	0.140	-0.131
-251.063	-200.000	-0.005	0.029
-250.049	-200.000	-0.009	0.315
-249.034	-112.572	-0.393	-0.078
-248.019	-200.000	0.038	-0.286
-247.005	-72.351	-0.212	-0.078
-245.990	-200.000	-0.008	-0.098
-244.976	-4.613	0.185	0.127
-243.961	25.562	-0.186	0.155
-242.946	-130.148	0.364	-0.050
-241.932	290.650	0.266	-0.482
-240.917	137.669	0.155	-0.203
-239.903	-39.024	0.213	0.112
-238.888	-44.191	0.052	-0.026
-237.873	-200.000	-0.005	-0.128
-236.859	-179.462	0.201	-0.004
-235.844	-32.978	0.158	0.087
-234.830	800.000	0.068	0.201
-233.815	10.500	0.285	0.217
-232.800	122.179	-0.216	-0.269
-231.786	256.053	-0.120	-0.206
-230.771	-200.000	-0.062	-0.368
-229.757	-93.112	-0.042	0.012
-228.742	169.644	-0.198	0.282
-227.727	-200.000	-0.028	0.281
-226.713	-46.239	0.140	0.069
-225.698	-200.000	0.041	-0.254
-224.684	-135.315	-0.375	0.045
-223.669	72.373	0.245	0.255
-222.655	-64.901	-0.415	0.168
-221.640	-200.000	0.045	-0.250
-220.625	675.880	-0.042	-0.109
-219.611	46.053	-0.136	-0.126
-218.596	-60.962	0.183	-0.077
-217.582	800.000	0.014	0.047
-216.567	385.176	0.086	-0.178
-215.552	347.990	0.018	0.036
-214.538	800.000	-0.073	0.215
-213.523	-141.736	0.131	0.013
-212.509	47.848	0.208	-0.194
-211.494	64.112	0.211	0.211
-210.479	-79.261	-0.321	0.108
-209.465	207.756	0.110	0.171
-208.450	-140.682	0.100	0.010
-207.436	800.000	0.042	0.163
-206.421	-200.000	0.022	0.164
-205.406	-200.000	0.027	0.223
-204.392	617.122	0.063	0.157
-203.377	-200.000	0.024	-0.134
-202.363	800.000	-0.107	0.356
-201.348	408.092	-0.101	-0.214
-200.333	800.000	-0.067	-0.197
-199.319	-200.000	-0.028	-0.162
-198.304	-73.625	0.257	0.093
-197.290	800.000	0.071	-0.206
-196.275	-90.579	-0.019	-0.005
-195.260	51.806	-0.020	-0.019
-194.246	-99.355	-0.141	0.036
-193.231	-35.910	0.126	-0.068
-192.217	-106.521	0.313	-0.070
-191.202	-200.000	-0.026	0.425
-190.187	-131.564	-0.108	0.014
-189.173	-110.614	-0.134	0.028
-188.158	-200.000	0.007	0.088
-187.144	-200.000	-0.017	0.359
-186.129	62.846	0.052	-0.052
-185.114	657.184	0.036	-0.093
-184.100	-10.104	0.285	0.189
-183.085	800.000	0.053	0.227
-182.071	-112.375	-0.211	0.042
-181.056	-22.970	0.208	0.125
-180.042	150.905	0.079	0.108
-179.027	148.026	-0.154	0.207
-178.012	-94.262	0.076	-0.021
-176.998	-120.675	-0.151	0.025
-175.983	-58.585	-0.168	0.073
-174.969	-134.752	0.029	-0.004
-173.954	71.809	0.094	0.098
-172.939	89.377	-0.286	-0.317
-171.925	-167.559	-0.186	-0.007
-170.910	-79.703	0.053	-0.018
-169.896	35.792	0.205	-0.180
-168.881	800.000	0.136	-0.531
-167.866	800.000	0.047	-0.140
-166.852	-59.243	-0.209	0.090
-165.837	-62.711	-0.273	-0.113
-164.823	800.000	0.047	-0.178
-163.808	-200.000	0.026	-0.189
-162.793	5.091	0.395	-0.290
-161.779	223.504	-0.052	-0.083
-160.764	-200.000	0.041	0.238
-159.750	-31.073	0.372	-0.209
-158.735	-69.588	0.078	-0.030
-157.720	-151.423	0.136	-0.010
-156.706	800.000	0.038	0.113
-155.691	-25.390	-0.093	0.055
-154.677	800.000	-0.076	0.306
-153.662	800.000	-0.086	0.270
-152.647	-112.852	0.103	0.020
-151.633	-200.000	-0.028	0.312
-150.618	-48.455	-0.036	-0.017
-149.604	-62.673	0.416	-0.172
-148.589	-65.321	-0.187	-0.075
-147.574	-68.273	-0.203	0.079
-146.560	465.875	-0.124	-0.275
-145.545	93.032	-0.195	-0.220
-144.531	-200.000	-0.164	-0.000
-143.516	113.039	-0.120	0.145
-142.502	800.000	0.032	0.132
-141.487	-126.253	-0.127	0.019
-140.472	-167.574	0.154	0.006
-139.458	705.178	-0.092	0.242
-138.443	30.780	-0.205	0.174
-137.429	-127.272	0.113	0.016
-136.414	-46.014	-0.230	-0.113
-135.399	266.404	-0.040	-0.069
-134.385	-200.000	0.009	-0.196
-133.370	255.466	0.062	0.106
-132.356	567.510	-0.112	-0.269
-131.341	-80.637	-0.106	-0.035
-130.326	800.000	-0.063	0.236
-129.312	47.551	0.235	0.218
-128.297	-200.000	0.028	0.208
-127.283	-110.818	-0.195	-0.040
-126.268	53.576	-0.254	-0.242
-125.253	800.000	0.048	-0.133
-124.239	-200.000	-0.007	0.105
-123.224	-200.000	0.002	-0.020
-122.210	-38.510	-0.098	0.051
