DTS Sentinel unit serial number:	SN413079Multiplexer serial number:	ORYXHardware model number:	OX4-SRSoftware version number:	ORYX F/W v4.00 Oryx Data Collector v3.7.2.0data status	okinstallation	princeton_trtdifferential loss correction	single-endedforward channel	channel 3reverse channel	N/Adate	2019/09/18time	01:44:34forward acquisition time	60.00reverse acquisition time	0.00gamma	496.2192k internal	0.2344k external	0.2344temperature offset calibration	0.9945default loss term (dB/km)	0.3790temperature slope calibration	1.0000multiplexer offset coefficient	1.0000multiplexer slope coefficient	1.0000fibre end	0.00T internal ref (°C)	23.00T ext. ref 1 (°C)	0.16T ext. ref 2 (°C)	16.65length (m)	temperature (°C)	Stokes	anti-Stokes-747.200	303.849	-0.170	0.315
-746.185	322.376	0.060	-0.114
-745.171	-103.915	-0.051	0.012
-744.156	-129.776	0.090	0.012
-743.142	800.000	-0.105	0.294
-742.127	800.000	0.155	0.490
-741.112	647.288	-0.073	0.188
-740.098	-200.000	-0.033	0.350
-739.083	-116.441	0.173	0.032
-738.069	326.125	0.109	0.208
-737.054	-200.000	-0.003	0.264
-736.039	800.000	-0.063	-0.222
-735.025	107.964	-0.210	-0.251
-734.010	-132.620	0.159	0.020
-732.996	-200.000	0.073	-0.325
-731.981	-94.160	0.207	-0.057
-730.966	47.650	-0.351	0.327
-729.952	800.000	0.053	0.222
-728.937	510.471	-0.203	-0.473
-727.923	740.436	-0.077	-0.207
-726.908	-9.497	0.146	-0.098
-725.894	-200.000	0.025	-0.333
-724.879	-169.370	0.157	-0.006
-723.864	-200.000	-0.068	0.299
-722.850	-56.855	-0.300	-0.133
-721.835	-55.830	0.164	0.073
-720.821	-200.000	-0.011	0.154
-719.806	-117.669	0.251	0.045
-718.791	-92.755	-0.194	-0.054
-717.777	-136.916	-0.105	-0.012
-716.762	116.961	-0.309	-0.380
-715.748	-200.000	-0.008	0.052
-714.733	-200.000	0.033	0.185
-713.718	800.000	-0.107	0.440
-712.704	-73.188	0.269	-0.098
-711.689	-142.522	-0.064	-0.006
-710.675	-65.632	0.282	-0.113
-709.660	181.465	-0.120	0.176
-708.645	-200.000	0.029	-0.175
-707.631	-35.046	-0.165	-0.090
-706.616	240.836	0.119	-0.198
-705.602	-200.000	0.003	-0.405
-704.587	-13.833	-0.159	-0.103
-703.572	800.000	0.061	0.218
-702.558	-200.000	-0.014	-0.328
-701.543	24.230	-0.181	-0.149
-700.529	-200.000	0.039	-0.187
-699.514	-50.623	-0.203	-0.096
-698.499	649.243	-0.172	-0.441
-697.485	-200.000	-0.015	-0.221
-696.470	-101.784	0.094	0.023
-695.456	-4.539	-0.176	-0.121
-694.441	-58.399	-0.434	-0.188
-693.426	-108.425	-0.247	0.053
-692.412	69.521	-0.145	-0.149
-691.397	-70.744	-0.227	-0.086
-690.383	800.000	0.062	-0.199
-689.368	-107.782	-0.271	0.059
-688.354	58.088	0.047	0.046
-687.339	-200.000	0.004	0.501
-686.324	12.476	-0.130	-0.100
-685.310	170.774	-0.186	0.267
-684.295	516.116	0.047	0.109
-683.281	17.057	0.232	0.184
-682.266	176.365	0.100	0.145
-681.251	65.212	-0.177	0.178
-680.237	-125.137	-0.146	0.022
-679.222	0.230	0.156	0.111
-678.208	468.983	0.059	0.133
-677.193	-200.000	0.003	-0.027
-676.178	-200.000	0.021	-0.121
-675.164	-4.597	0.147	0.101
-674.149	150.947	-0.200	-0.271
-673.135	124.278	-0.101	-0.127
-672.120	284.880	-0.094	0.168
-671.105	-110.499	0.104	0.022
-670.091	-98.935	-0.050	-0.013
-669.076	386.415	-0.100	-0.207
-668.062	-69.934	0.217	0.082
-667.047	-75.863	-0.276	-0.098
-666.032	-89.121	0.323	-0.095
-665.018	445.827	0.082	-0.180
-664.003	-200.000	0.036	0.203
-662.989	-97.977	0.275	-0.071
-661.974	-150.266	0.142	-0.011
-660.959	116.492	-0.116	0.142
-659.945	6.115	0.249	-0.184
-658.930	-200.000	0.043	-0.230
-657.916	-42.328	0.268	0.137
-656.901	192.588	-0.204	-0.308
-655.886	-51.785	-0.167	0.077
-654.872	-200.000	-0.022	0.173
-653.857	65.617	-0.176	-0.178
-652.843	-57.695	0.171	0.075
-651.828	-200.000	0.057	0.399
-650.814	-200.000	-0.018	0.408
-649.799	-33.542	-0.126	0.069
-648.784	-0.587	-0.267	0.189
-647.770	95.209	-0.192	0.218
-646.755	-65.318	0.493	-0.198
-645.741	-134.377	0.186	0.023
-644.726	-116.871	-0.050	0.009
-643.711	-150.914	0.138	0.010
-642.697	-191.825	-0.131	-0.001
-641.682	-200.000	-0.057	-0.266
-640.668	458.539	0.103	0.228
-639.653	-27.712	-0.173	0.100
-638.638	-200.000	0.006	0.094
-637.624	-200.000	0.036	-0.290
-636.609	158.583	0.073	0.101
-635.595	-22.507	-0.072	-0.043
-634.580	-115.753	0.385	0.072
-633.565	39.779	-0.073	-0.065
-632.551	800.000	-0.080	0.253
-631.536	-56.408	-0.445	-0.197
-630.522	-91.018	0.123	0.035
-629.507	2.585	-0.204	0.147
-628.492	800.000	-0.054	-0.151
-627.478	800.000	-0.166	-0.521
-626.463	-200.000	0.013	-0.080
-625.449	800.000	0.079	-0.307
-624.434	235.746	0.160	-0.264
-623.419	-200.000	0.018	0.159
-622.405	300.395	-0.160	0.294
-621.390	-200.000	0.023	-0.164
-620.376	158.982	0.169	-0.235
-619.361	13.262	-0.266	-0.205
-618.346	114.501	0.054	-0.066
-617.332	132.652	-0.141	-0.181
-616.317	13.896	0.245	-0.190
-615.303	19.675	-0.111	0.089
-614.288	419.602	-0.077	-0.163
-613.273	184.169	0.142	0.209
-612.259	72.444	0.093	0.096
-611.244	-42.303	-0.414	-0.210
-610.230	166.766	0.169	-0.239
-609.215	96.084	0.096	-0.109
-608.201	800.000	-0.051	-0.176
-607.186	225.423	0.005	0.008
-606.171	77.667	-0.151	-0.160
-605.157	240.604	-0.107	0.178
-604.142	99.146	0.099	-0.114
-603.128	35.750	0.238	0.208
-602.113	-61.918	-0.291	0.121
-601.098	800.000	0.060	0.226
-600.084	75.397	-0.057	-0.060
-599.069	106.214	-0.122	-0.144
-598.055	178.533	-0.193	0.280
-597.040	-140.738	-0.016	-0.002
-596.025	724.598	0.105	-0.279
-595.011	-139.480	-0.256	0.027
-593.996	800.000	-0.053	0.202
-592.982	-11.367	0.192	0.126
-591.967	-27.049	-0.463	-0.269
-590.952	406.141	0.097	0.204
-589.938	-10.334	0.244	0.161
-588.923	-4.022	-0.136	0.094
-587.909	92.914	0.109	-0.123
-586.894	-152.650	0.050	-0.004
-585.879	-21.333	0.068	0.041
-584.865	800.000	-0.062	0.228
-583.850	-29.922	-0.374	-0.212
-582.836	72.072	-0.156	0.162
-581.821	-194.478	0.101	0.001
-580.806	-87.038	0.176	-0.053
-579.792	187.240	-0.122	0.181
-578.777	-22.253	-0.393	-0.237
-577.763	302.056	0.051	0.095
-576.748	-3.816	0.062	0.043
-575.733	19.293	-0.337	-0.269
-574.719	532.810	0.078	0.183
-573.704	800.000	0.037	-0.154
-572.690	-157.639	0.495	0.029
-571.675	43.732	-0.144	-0.131
-570.661	-35.205	-0.250	0.136
-569.646	-40.174	-0.155	-0.080
-568.631	-141.717	0.385	-0.038
-567.617	800.000	-0.065	-0.206
-566.602	-200.000	0.183	0.001
-565.588	62.057	0.312	-0.309
-564.573	-27.228	-0.178	-0.103
-563.558	132.211	-0.234	-0.300
-562.544	-73.329	-0.074	0.027
-561.529	244.892	0.094	-0.156
-560.515	-123.681	0.325	-0.051
-559.500	161.271	-0.034	-0.047
-558.485	-28.346	-0.135	-0.077
-557.471	753.475	0.075	-0.203
-556.456	303.607	-0.146	-0.269
-555.442	-200.000	0.024	-0.427
-554.427	800.000	-0.074	-0.268
-553.412	-14.385	0.251	0.160
-552.398	10.555	-0.180	0.136
-551.383	-82.470	0.134	0.043
-550.369	9.228	0.169	0.127
-549.354	69.183	0.249	0.254
-548.339	-5.883	0.200	-0.136
-547.325	-138.359	-0.327	0.036
-546.310	-39.957	-0.327	0.169
-545.296	-187.781	0.130	0.002
-544.281	701.199	-0.101	-0.263
-543.266	531.435	0.104	-0.244
-542.252	-117.499	-0.145	-0.026
-541.237	-200.000	-0.038	-0.175
-540.223	-47.730	-0.033	-0.016
-539.208	-27.785	0.211	-0.122
-538.193	-200.000	-0.011	0.195
-537.179	87.077	-0.239	-0.262
-536.164	-105.537	0.233	-0.052
-535.150	-109.567	0.149	-0.031
-534.135	-200.000	-0.051	0.309
-533.121	278.067	0.091	-0.161
-532.106	452.765	-0.111	0.243
-531.091	360.388	-0.195	-0.388
-530.077	-200.000	-0.002	-0.138
-529.062	800.000	0.079	0.258
-528.048	-11.913	-0.366	-0.238
-527.033	219.597	-0.114	0.181
-526.018	-101.280	-0.350	-0.085
-525.004	-200.000	0.021	0.210
-523.989	41.482	-0.042	-0.038
-522.975	-126.962	0.115	-0.017
-521.960	201.199	-0.171	-0.261
-520.945	131.156	-0.111	0.141
-519.931	-54.452	0.285	-0.128
-518.916	124.913	-0.207	0.259
-517.902	42.205	-0.249	0.224
-516.887	-200.000	-0.003	-0.026
-515.872	-161.324	-0.228	-0.012
-514.858	17.814	-0.156	-0.123
-513.843	1.072	0.254	0.181
-512.829	-200.000	-0.103	-0.477
-511.814	103.013	-0.143	-0.166
-510.799	800.000	0.070	-0.304
-509.785	-53.838	0.045	-0.020
-508.770	800.000	0.036	0.127
-507.756	104.467	0.109	-0.127
-506.741	464.252	0.115	-0.255
-505.726	52.847	0.294	0.279
-504.712	446.106	-0.077	0.167
-503.697	114.320	-0.182	0.220
-502.683	-127.877	-0.085	0.012
-501.668	426.599	-0.194	-0.415
-500.653	51.277	-0.274	0.258
-499.639	-46.117	0.288	0.140
-498.624	153.409	0.121	-0.165
-497.610	60.740	0.145	-0.142
-496.595	0.727	0.186	0.132
-495.581	273.913	0.125	0.220
-494.566	22.708	-0.273	-0.221
-493.551	-67.129	-0.112	-0.044
-492.537	171.336	0.235	0.334
-491.522	78.559	0.208	0.221
-490.508	155.703	-0.177	0.242
-489.493	-200.000	0.080	0.355
-488.478	2.420	-0.123	-0.088
-487.464	-129.394	0.107	-0.015
-486.449	613.406	-0.117	0.291
-485.435	-46.848	0.142	0.069
-484.420	800.000	0.050	-0.152
-483.405	101.307	0.053	-0.061
-482.391	-72.357	-0.107	0.039
-481.376	-9.511	0.163	-0.108
-480.362	-109.100	0.177	-0.037
-479.347	-60.955	-0.199	-0.083
-478.332	17.752	0.140	-0.110
-477.318	800.000	-0.162	0.449
-476.303	-200.000	0.084	0.655
-475.289	-39.823	0.308	0.160
-474.274	-79.856	-0.194	0.065
-473.259	-177.066	0.185	-0.005
-472.245	800.000	0.047	0.146
-471.230	454.500	-0.091	-0.199
-470.216	-102.378	0.317	-0.075
-469.201	-71.190	0.257	0.095
-468.186	74.963	0.148	0.154
-467.172	-48.182	-0.236	-0.113
-466.157	-169.180	0.127	0.005
-465.143	20.214	-0.172	-0.138
-464.128	-98.496	0.248	0.063
-463.113	-200.000	0.029	0.132
-462.099	-115.420	-0.198	-0.037
-461.084	99.275	0.048	0.055
-460.070	800.000	-0.113	0.326
-459.055	40.996	-0.152	0.136
-458.040	471.618	-0.032	0.071
-457.026	167.699	0.188	0.265
-456.011	106.433	0.073	-0.085
-454.997	-120.144	0.243	0.041
-453.982	-200.000	0.059	-0.285
-452.968	260.992	-0.207	-0.355
-451.953	-200.000	-0.007	0.134
-450.938	25.957	0.079	-0.065
-449.924	69.490	-0.058	-0.059
-448.909	33.179	-0.087	0.074
-447.895	678.422	0.052	-0.133
-446.880	373.264	0.115	-0.231
-445.865	-200.000	0.013	0.134
-444.851	-17.871	0.100	-0.062
-443.836	-200.000	0.022	-0.221
-442.822	276.037	-0.077	0.135
-441.807	115.758	0.030	0.037
-440.792	-200.000	-0.015	0.073
-439.778	237.018	-0.015	0.024
-438.763	-200.000	-0.019	-0.272
-437.749	-111.456	0.246	0.049
-436.734	128.283	-0.257	-0.323
-435.719	-108.965	0.223	-0.047
-434.705	13.137	-0.328	-0.251
-433.690	312.999	-0.056	0.103
-432.676	-95.919	-0.145	-0.038
-431.661	-200.000	-0.049	-0.301
-430.646	-55.360	-0.275	0.122
-429.632	800.000	-0.100	0.300
-428.617	75.601	-0.286	-0.299
-427.603	-200.000	-0.003	0.145
-426.588	-84.669	-0.275	-0.086
-425.573	800.000	0.044	0.132
-424.559	750.069	0.056	0.150
-423.544	-200.000	-0.022	-0.160
-422.530	-200.000	0.015	0.100
-421.515	44.610	0.146	-0.133
-420.500	64.933	0.057	0.057
-419.486	-200.000	0.011	-0.128
-418.471	-200.000	-0.006	0.579
-417.457	-145.083	0.334	0.030
-416.442	425.177	0.152	-0.322
-415.428	-129.993	-0.538	-0.073
-414.413	224.992	-0.114	-0.182
-413.398	553.684	-0.021	-0.049
-412.384	232.666	0.159	-0.258
-411.369	-74.399	-0.324	0.116
-410.355	173.735	0.180	-0.257
-409.340	84.572	0.071	0.077
-408.325	88.815	0.099	-0.109
-407.311	800.000	-0.034	0.110
-406.296	28.602	-0.147	0.123
-405.282	-200.000	-0.005	-0.048
-404.267	-200.000	-0.014	-0.070
-403.252	-19.790	0.003	-0.002
-402.238	800.000	0.125	-0.399
-401.223	0.512	-0.343	-0.242
-400.209	14.057	0.199	0.153
-399.194	-200.000	-0.033	-0.330
-398.179	492.012	-0.112	0.254
-397.165	-151.899	-0.239	-0.017
-396.150	17.557	0.159	-0.124
-395.136	406.427	0.060	0.125
-394.121	-200.000	0.002	0.086
-393.106	-161.398	0.097	0.005
-392.092	95.874	0.130	-0.147
-391.077	-200.000	0.035	-0.173
-390.063	502.124	-0.013	0.030
-389.048	-200.000	0.024	0.154
-388.033	16.049	0.061	0.048
-387.019	-169.016	0.035	-0.001
-386.004	262.197	-0.055	-0.093
-384.990	-200.000	-0.039	0.212
-383.975	800.000	-0.032	0.119
-382.960	-45.276	-0.280	-0.137
-381.946	-200.000	0.034	0.152
-380.931	142.303	0.096	0.126
-379.917	117.929	-0.163	0.198
-378.902	331.705	-0.123	-0.234
-377.888	800.000	-0.063	-0.253
-376.873	800.000	0.041	-0.153
-375.858	225.128	0.072	-0.115
-374.844	-200.000	-0.085	0.519
-373.829	-95.271	-0.375	0.100
-372.815	-200.000	0.005	0.586
-371.800	572.492	-0.174	0.419
-370.785	-15.680	-0.103	-0.065
-369.771	-167.343	0.292	0.012
-368.756	-0.830	0.188	-0.131
-367.742	-37.518	-0.345	0.182
-366.727	-125.036	0.087	-0.013
-365.712	-123.417	0.110	-0.017
-364.698	-145.013	0.375	0.034
-363.683	424.473	0.165	-0.350
-362.669	-91.947	0.224	-0.063
-361.654	96.857	-0.217	-0.245
-360.639	-55.290	-0.282	-0.125
-359.625	-200.000	0.004	-0.065
-358.610	-110.037	0.040	0.008
-357.596	-113.313	0.261	-0.051
-356.581	-200.000	0.009	-0.076
-355.566	-14.856	-0.082	-0.052
-354.552	44.279	0.280	0.253
-353.537	-70.830	0.104	-0.039
-352.523	17.205	-0.094	0.073
-351.508	800.000	0.041	0.113
-350.493	800.000	-0.057	0.186
-349.479	-86.446	0.160	-0.048
-348.464	298.328	0.054	0.099
-347.450	-43.692	-0.161	-0.080
-346.435	143.526	0.089	-0.117
-345.420	21.289	-0.179	-0.143
-344.406	-200.000	0.032	0.201
-343.391	379.744	-0.063	0.127
-342.377	-107.455	0.064	-0.014
-341.362	7.540	-0.202	0.149
-340.348	403.746	0.135	-0.281
-339.333	-7.164	0.288	-0.193
-338.318	124.022	-0.264	-0.327
-337.304	122.856	0.099	0.123
-336.289	-200.000	-0.017	0.165
-335.275	35.754	-0.047	0.041
-334.260	413.716	0.112	-0.235
-333.245	153.534	0.223	0.301
-332.231	-171.768	0.231	0.007
-331.216	114.108	0.124	0.149
-330.202	22.784	0.243	0.196
-329.187	-54.643	-0.129	-0.058
-328.172	-200.000	0.041	-0.200
-327.158	-179.051	0.202	0.004
-326.143	8.930	0.267	-0.198
-325.129	-31.306	0.133	0.074
-324.114	34.236	-0.071	0.061
-323.099	-91.848	0.057	0.016
-322.085	-58.895	-0.179	0.076
-321.070	-63.983	0.180	-0.072
-320.056	800.000	-0.133	-0.363
-319.041	284.372	-0.117	-0.207
-318.026	-37.459	0.129	0.068
-317.012	28.450	-0.261	0.217
-315.997	10.384	-0.127	0.095
-314.983	-3.026	0.104	0.071
-313.968	-47.272	-0.296	0.142
-312.953	45.256	-0.023	-0.021
-311.939	247.833	0.127	-0.212
-310.924	-160.351	-0.137	-0.007
-309.910	61.902	0.138	0.136
-308.895	-200.000	-0.066	0.378
-307.880	800.000	-0.061	-0.229
-306.866	-25.698	0.252	-0.146
-305.851	-78.083	0.094	-0.032
-304.837	347.111	-0.108	0.209
-303.822	-114.499	-0.171	0.032
-302.807	262.900	0.152	-0.260
-301.793	-1.694	-0.226	0.157
-300.778	520.948	0.153	0.353
-299.764	-200.000	-0.035	0.260
-298.749	84.121	-0.053	-0.057
-297.735	-8.993	-0.423	0.278
-296.720	403.831	0.238	-0.493
-295.705	128.857	0.187	-0.235
-294.691	-200.000	-0.011	-0.367
-293.676	-200.000	-0.043	0.223
-292.662	-10.477	0.208	-0.136
-291.647	313.817	-0.100	-0.185
-290.632	-81.638	-0.077	-0.025
-289.618	-200.000	-0.022	0.105
-288.603	-76.222	-0.032	-0.011
-287.589	800.000	-0.057	0.184
-286.574	534.718	0.040	0.092
-285.559	31.856	-0.106	0.090
-284.545	-23.063	0.085	0.050
-283.530	-200.000	0.037	-0.434
-282.516	-13.699	-0.127	-0.081
-281.501	84.500	-0.295	0.317
-280.486	-185.541	-0.267	-0.004
-279.472	-200.000	0.027	-0.222
-278.457	-106.835	0.386	-0.084
-277.443	-45.917	-0.374	-0.181
-276.428	-200.000	0.055	-0.466
-275.413	533.334	0.059	0.136
-274.399	-200.000	-0.002	-0.050
-273.384	216.569	0.019	0.029
-272.370	-68.067	-0.213	0.082
-271.355	63.544	0.120	0.118
-270.340	-108.128	-0.107	0.023
-269.326	-173.544	0.214	-0.006
-268.311	800.000	0.027	0.115
-267.297	287.633	0.085	-0.151
-266.282	800.000	-0.034	-0.108
-265.267	45.200	0.153	0.138
-264.253	-200.000	0.006	-0.055
-263.238	-144.027	-0.432	0.040
-262.224	74.480	0.100	-0.104
-261.209	-13.127	-0.171	0.109
-260.195	-200.000	-0.063	0.381
-259.180	-69.155	0.150	0.057
-258.165	-134.612	0.218	0.026
-257.151	-101.710	-0.096	0.023
-256.136	-110.780	0.054	-0.011
-255.122	22.756	-0.138	-0.111
-254.107	157.828	-0.168	-0.228
-253.092	-20.251	0.236	0.143
-252.078	800.000	0.063	-0.263
-251.063	19.747	0.159	0.126
-250.049	159.433	0.223	-0.305
-249.034	-200.000	0.023	0.152
-248.019	-139.178	0.143	0.015
-247.005	-17.886	0.209	0.129
-245.990	52.537	0.073	0.068
-244.976	-79.166	-0.034	0.011
-243.961	86.782	-0.224	0.243
-242.946	21.739	-0.131	0.104
-241.932	38.963	-0.054	-0.048
-240.917	-200.000	-0.051	-0.253
-239.903	119.777	0.039	0.047
-238.888	258.479	0.062	0.104
-237.873	-97.975	0.328	-0.083
-236.859	22.188	-0.294	-0.235
-235.844	-102.384	0.338	-0.079
-234.830	437.682	-0.010	-0.020
-233.815	398.347	0.039	-0.081
-232.800	779.743	-0.094	-0.253
-231.786	-49.537	-0.071	-0.033
-230.771	40.997	0.116	0.103
-229.757	800.000	0.196	0.607
-228.742	-200.000	0.012	-0.085
-227.727	82.436	0.131	-0.139
-226.713	-200.000	0.018	-0.106
-225.698	-16.300	-0.309	0.192
-224.684	800.000	-0.058	0.160
-223.669	253.767	-0.142	-0.238
-222.655	-76.687	0.534	-0.184
-221.640	452.807	0.037	0.080
-220.625	-200.000	-0.017	-0.207
-219.611	439.859	0.111	0.238
-218.596	-76.910	0.154	-0.053
-217.582	132.258	-0.186	0.235
-216.567	-83.487	0.342	0.107
-215.552	-200.000	-0.041	0.298
-214.538	73.511	0.184	0.189
-213.523	-180.974	-0.225	-0.004
-212.509	-126.104	-0.361	-0.053
-211.494	-141.474	-0.088	-0.009
-210.479	124.189	0.191	0.235
-209.465	241.950	0.162	0.266
-208.450	-14.890	-0.222	-0.140
-207.436	202.547	0.151	0.228
-206.421	800.000	-0.136	0.375
-205.406	382.361	-0.103	-0.208
-204.392	145.602	0.076	-0.100
-203.377	-95.761	0.354	0.093
-202.363	-50.598	-0.277	0.128
-201.348	800.000	0.059	-0.189
-200.333	-129.113	-0.052	0.007
-199.319	54.711	0.075	0.071
-198.304	508.778	-0.096	0.219
-197.290	-52.250	0.297	0.135
-196.275	-200.000	0.026	0.153
-195.260	-200.000	0.046	-0.433
-194.246	-7.850	0.155	0.103
-193.231	47.314	-0.081	0.074
-192.217	-120.844	0.293	-0.048
-191.202	658.745	0.085	0.214
-190.187	295.035	-0.051	-0.091
-189.173	283.892	0.038	-0.068
-188.158	-200.000	0.020	-0.381
-187.144	558.397	-0.119	0.280
-186.129	-43.095	0.189	-0.094
-185.114	79.929	0.168	0.177
-184.100	-143.471	0.248	-0.023
-183.085	115.258	-0.239	0.285
-182.071	131.804	0.169	0.213
-181.056	800.000	-0.033	0.097
-180.042	-46.994	-0.164	0.079
-179.027	800.000	0.127	0.369
-178.012	800.000	-0.024	0.068
-176.998	498.536	0.081	-0.183
-175.983	527.082	-0.045	0.104
-174.969	30.144	0.105	-0.088
-173.954	800.000	0.034	0.142
-172.939	-171.334	-0.127	0.004
-171.925	-62.354	0.372	0.151
-170.910	184.930	0.293	-0.425
-169.896	-200.000	0.082	0.369
-168.881	416.123	0.077	0.161
-167.866	-14.163	-0.180	-0.114
-166.852	17.326	-0.151	0.118
-165.837	293.827	-0.072	-0.128
-164.823	104.830	-0.062	-0.071
-163.808	-32.225	-0.057	-0.031
-162.793	800.000	0.111	0.367
-161.779	158.615	0.180	0.244
-160.764	70.942	-0.156	0.158
-159.750	-76.536	-0.203	0.070
-158.735	-200.000	0.028	-0.340
-157.720	175.247	-0.202	-0.286
-156.706	-89.276	-0.192	-0.055
-155.691	28.074	-0.320	0.264
-154.677	-200.000	0.013	0.084
-153.662	100.080	0.276	0.313
-152.647	-114.075	0.157	0.030
-151.633	-157.032	-0.436	-0.026
-150.618	800.000	-0.104	0.364
-149.604	-200.000	0.008	0.074
-148.589	153.769	0.237	0.318
-147.574	69.525	-0.071	-0.071
-146.560	194.779	-0.072	0.106
-145.545	25.145	-0.060	-0.049
-144.531	-112.574	-0.159	-0.031
-143.516	362.454	-0.094	-0.185
-142.502	83.463	0.184	0.197
-141.487	-2.416	0.224	-0.154
-140.472	195.405	0.149	0.221
-139.458	800.000	0.051	0.158
-138.443	-84.382	0.133	-0.041
-137.429	-159.327	0.362	-0.020
-136.414	325.272	-0.165	0.308
-135.399	22.877	0.210	0.169
-134.385	-195.311	0.144	0.001
-133.370	161.752	0.119	0.163
-132.356	-1.598	0.346	-0.238
-131.341	65.782	-0.014	0.014
-130.326	133.427	-0.070	0.088
-129.312	-16.454	-0.113	-0.070
-128.297	-30.142	0.236	-0.131
-127.283	10.008	-0.398	0.295
-126.268	-116.178	0.122	-0.022
-125.253	-71.665	0.332	-0.121
-124.239	-200.000	0.042	-0.263
-123.224	160.565	-0.170	0.232
-122.210	58.662	0.112	0.108
-121.195	-200.000	-0.003	-0.069
-120.180	800.000	0.033	0.101
