DTS Sentinel unit serial number:	SN413079Multiplexer serial number:	ORYXHardware model number:	OX4-SRSoftware version number:	ORYX F/W v4.00 Oryx Data Collector v3.7.2.0data status	okinstallation	princeton_trtdifferential loss correction	single-endedforward channel	channel 3reverse channel	N/Adate	2019/09/15time	18:48:35forward acquisition time	60.00reverse acquisition time	0.00gamma	496.2192k internal	0.2288k external	0.2288temperature offset calibration	0.9931default loss term (dB/km)	0.3790temperature slope calibration	1.0000multiplexer offset coefficient	1.0000multiplexer slope coefficient	1.0000fibre end	0.00T internal ref (°C)	43.19T ext. ref 1 (°C)	6.92T ext. ref 2 (°C)	34.37length (m)	temperature (°C)	Stokes	anti-Stokes-747.200	800.000	0.016	0.071
-746.185	407.276	0.102	0.222
-745.171	-200.000	-0.046	0.293
-744.156	-200.000	0.066	0.352
-743.142	13.743	0.089	-0.071
-742.127	-85.579	0.175	0.056
-741.112	800.000	0.088	-0.321
-740.098	-62.045	-0.234	-0.100
-739.083	-200.000	0.029	0.390
-738.069	-200.000	0.011	0.229
-737.054	-200.000	0.033	-0.291
-736.039	50.813	-0.293	0.284
-735.025	-200.000	0.073	0.357
-734.010	-61.649	-0.342	-0.147
-732.996	-89.089	-0.338	-0.102
-731.981	156.242	0.149	-0.211
-730.966	-200.000	-0.027	0.147
-729.952	-110.825	-0.235	-0.050
-728.937	-81.014	-0.284	0.097
-727.923	-200.000	0.028	0.232
-726.908	-200.000	0.012	0.186
-725.894	800.000	-0.031	-0.092
-724.879	68.346	-0.153	-0.161
-723.864	157.264	-0.013	-0.019
-722.850	-74.627	-0.454	0.167
-721.835	288.861	-0.122	0.227
-720.821	-29.961	-0.305	0.178
-719.806	12.756	-0.228	0.181
-718.791	147.613	-0.076	-0.105
-717.777	293.300	0.039	0.073
-716.762	46.450	0.170	-0.162
-715.748	-97.918	-0.313	0.083
-714.733	177.866	0.146	0.217
-713.718	800.000	-0.094	-0.275
-712.704	102.601	-0.172	-0.206
-711.689	123.297	-0.101	-0.129
-710.675	721.110	0.056	-0.154
-709.660	444.284	0.035	-0.078
-708.645	2.568	0.073	0.054
-707.631	260.134	-0.133	0.235
-706.616	236.591	0.141	-0.239
-705.602	800.000	0.127	0.359
-704.587	70.500	0.325	-0.344
-703.572	133.752	-0.200	-0.266
-702.558	148.886	-0.071	-0.098
-701.543	-191.515	-0.038	0.000
-700.529	53.332	-0.148	0.146
-699.514	105.066	-0.177	0.214
-698.499	-102.259	-0.328	0.081
-697.485	-200.000	0.007	0.191
-696.470	84.930	0.283	-0.318
-695.456	-140.450	0.279	0.030
-694.441	242.004	-0.187	0.321
-693.426	268.802	0.249	0.447
-692.412	800.000	-0.109	0.384
-691.397	144.202	-0.036	0.049
-690.383	-200.000	-0.017	0.223
-689.368	-113.950	-0.225	0.045
-688.354	-200.000	-0.030	0.238
-687.339	-38.871	-0.129	0.070
-686.324	195.146	-0.049	-0.076
-685.310	-111.550	0.218	-0.045
-684.295	-200.000	-0.012	0.187
-683.281	-132.873	-0.468	-0.061
-682.266	-200.000	0.013	-0.161
-681.251	-71.511	-0.136	0.052
-680.237	350.653	-0.164	0.332
-679.222	-37.815	0.248	-0.135
-678.208	-39.245	0.132	-0.071
-677.193	28.463	-0.206	-0.178
-676.178	-13.617	-0.214	0.142
-675.164	-13.344	0.103	0.069
-674.149	15.320	0.217	0.174
-673.135	186.448	-0.235	-0.357
-672.120	207.922	0.247	0.395
-671.105	-31.642	-0.118	0.068
-670.091	-35.132	-0.161	-0.090
-669.076	236.056	0.138	0.233
-668.062	-200.000	-0.027	0.126
-667.047	45.909	-0.385	-0.364
-666.032	191.708	0.122	0.188
-665.018	13.900	-0.186	0.148
-664.003	-137.447	0.132	-0.015
-662.989	-72.647	-0.251	-0.095
-661.974	15.141	-0.041	-0.033
-660.959	6.233	-0.158	0.120
-659.945	17.381	0.215	-0.175
-658.930	362.341	-0.034	-0.069
-657.916	-129.997	-0.339	0.047
-656.901	-200.000	-0.012	0.096
-655.886	800.000	0.008	0.029
-654.872	-71.988	0.129	0.049
-653.857	211.767	-0.131	-0.211
-652.843	-128.738	0.273	0.039
-651.828	269.242	0.046	0.082
-650.814	800.000	0.072	-0.216
-649.799	800.000	-0.068	-0.198
-648.784	179.030	-0.035	-0.052
-647.770	-71.849	0.123	-0.047
-646.755	-17.255	-0.170	0.110
-645.741	-126.774	0.101	0.015
-644.726	-200.000	0.044	-0.240
-643.711	-200.000	0.013	-0.381
-642.697	800.000	0.062	-0.242
-641.682	-143.011	0.371	-0.037
-640.668	-200.000	-0.010	-0.125
-639.653	-4.268	-0.186	0.132
-638.638	-157.371	0.081	0.005
-637.624	-106.102	0.306	-0.070
-636.609	-50.011	0.315	-0.152
-635.595	-17.000	0.192	-0.124
-634.580	-105.970	0.214	0.049
-633.565	-48.133	-0.141	0.069
-632.551	-137.474	-0.308	-0.035
-631.536	64.078	-0.160	0.164
-630.522	160.058	-0.232	0.330
-629.507	-114.728	-0.198	0.039
-628.492	-200.000	-0.024	-0.204
-627.478	409.320	0.165	-0.356
-626.463	-200.000	-0.020	0.098
-625.449	-5.742	0.092	0.064
-624.434	800.000	0.028	-0.114
-623.419	-122.991	-0.074	-0.012
-622.405	401.833	-0.122	0.263
-621.390	-131.630	-0.067	-0.009
-620.376	172.927	0.250	-0.367
-619.361	25.663	-0.063	0.054
-618.346	275.448	-0.081	0.147
-617.332	-200.000	0.091	-0.497
-616.317	-200.000	-0.000	0.042
-615.303	800.000	0.020	0.082
-614.288	800.000	0.110	-0.341
-613.273	42.197	0.166	-0.154
-612.259	-156.105	-0.130	-0.008
-611.244	-5.826	-0.384	-0.268
-610.230	-64.854	0.139	0.057
-609.215	183.698	0.090	-0.135
-608.201	2.824	0.140	-0.104
-607.186	422.229	0.045	0.098
-606.171	-153.016	-0.051	0.004
-605.157	-119.836	-0.281	-0.049
-604.142	-200.000	-0.020	-0.149
-603.128	-86.135	-0.103	-0.033
-602.113	104.287	-0.087	0.104
-601.098	85.575	0.166	0.185
-600.084	-200.000	0.003	-0.149
-599.069	-140.308	-0.046	0.005
-598.055	589.611	-0.071	0.178
-597.040	-111.414	0.113	-0.023
-596.025	-200.000	-0.012	-0.072
-595.011	-48.677	-0.060	-0.029
-593.996	140.090	-0.115	-0.155
-592.982	339.617	0.148	-0.295
-591.967	800.000	0.084	-0.243
-590.952	-86.307	0.115	-0.036
-589.938	-200.000	-0.010	-0.295
-588.923	184.016	0.047	-0.070
-587.909	-28.411	-0.110	-0.065
-586.894	38.599	0.135	0.122
-585.879	135.723	-0.125	0.166
-584.865	-200.000	-0.081	-0.382
-583.850	25.413	-0.167	0.142
-582.836	-157.981	-0.139	-0.008
-581.821	-75.585	-0.052	-0.019
-580.806	800.000	-0.083	0.335
-579.792	79.743	0.272	0.297
-578.777	-73.859	-0.162	-0.060
-577.763	-141.521	-0.243	-0.025
-576.748	-200.000	0.059	-0.293
-575.733	88.057	-0.116	-0.131
-574.719	-55.801	-0.151	-0.069
-573.704	73.250	-0.241	-0.257
-572.690	800.000	-0.046	0.173
-571.675	107.352	-0.253	-0.306
-570.661	-200.000	-0.021	-0.215
-569.646	42.273	-0.146	0.135
-568.631	92.307	0.078	-0.090
-567.617	-187.018	-0.059	0.001
-566.602	-200.000	-0.025	0.232
-565.588	-58.888	0.360	0.158
-564.573	56.411	0.311	-0.308
-563.558	-66.193	-0.091	0.037
-562.544	109.672	-0.172	0.210
-561.529	-77.784	0.232	-0.082
-560.515	363.964	0.117	-0.240
-559.500	-37.650	-0.245	-0.133
-558.485	-200.000	0.007	0.080
-557.471	800.000	0.048	-0.186
-556.456	800.000	-0.066	0.195
-555.442	32.995	-0.423	0.373
-554.427	-82.042	-0.175	0.058
-553.412	51.634	-0.125	0.121
-552.398	-57.856	0.214	0.095
-551.383	800.000	0.068	0.206
-550.369	-26.639	-0.125	0.074
-549.354	-89.424	-0.290	0.087
-548.339	62.206	-0.063	-0.064
-547.325	-200.000	0.025	-0.220
-546.310	21.957	-0.030	0.025
-545.296	-129.545	0.160	0.022
-544.281	398.825	-0.097	0.207
-543.266	125.434	-0.067	0.086
-542.252	-110.560	0.229	-0.048
-541.237	13.151	0.079	0.062
-540.223	69.065	0.109	0.114
-539.208	506.213	-0.074	-0.174
-538.193	-200.000	0.012	-0.322
-537.179	800.000	0.108	0.433
-536.164	109.800	0.066	0.080
-535.150	100.343	-0.187	0.221
-534.135	-200.000	0.003	-0.285
-533.121	-200.000	0.014	-0.112
-532.106	51.284	-0.010	-0.010
-531.091	-106.058	-0.409	0.094
-530.077	367.760	0.222	-0.456
-529.062	286.651	0.151	0.277
-528.048	-51.106	-0.078	-0.037
-527.033	193.230	0.164	0.252
-526.018	-114.105	0.293	0.058
-525.004	139.149	-0.179	0.239
-523.989	-200.000	-0.052	-0.402
-522.975	-200.000	-0.000	0.183
-521.960	100.517	-0.208	0.246
-520.945	-112.052	-0.127	-0.026
-519.931	525.179	0.051	0.122
-518.916	429.496	0.098	0.215
-517.902	-200.000	-0.001	-0.208
-516.887	98.380	-0.160	0.187
-515.872	-115.137	-0.396	-0.076
-514.858	-200.000	0.050	0.274
-513.843	267.034	-0.011	-0.020
-512.829	197.414	-0.112	-0.173
-511.814	-58.405	0.320	0.141
-510.799	-63.922	-0.192	0.080
-509.785	325.150	-0.031	-0.061
-508.770	-57.780	-0.121	-0.054
-507.756	-200.000	-0.417	-0.002
-506.741	137.892	0.127	-0.169
-505.726	194.086	0.139	-0.214
-504.712	-119.344	0.248	-0.044
-503.697	-77.385	-0.086	-0.030
-502.683	-84.599	-0.211	-0.068
-501.668	355.425	-0.069	-0.140
-500.653	128.740	-0.051	0.066
-499.639	33.076	0.241	0.212
-498.624	-107.558	0.182	-0.040
-497.610	-200.000	0.024	-0.153
-496.595	38.611	0.200	-0.181
-495.581	-59.017	0.363	-0.159
-494.566	17.046	0.222	-0.179
-493.551	800.000	0.059	-0.173
-492.537	463.602	0.174	-0.396
-491.522	800.000	-0.038	-0.114
-490.508	800.000	0.150	-0.481
-489.493	-125.838	0.294	-0.045
-488.478	-158.007	0.346	-0.021
-487.464	84.551	0.093	0.103
-486.449	368.430	-0.022	-0.044
-485.435	6.595	0.224	-0.169
-484.420	-32.358	-0.205	0.116
-483.405	171.252	0.204	0.297
-482.391	-200.000	0.027	-0.335
-481.376	-200.000	0.041	0.223
-480.362	-93.533	0.084	-0.023
-479.347	-96.022	-0.110	0.030
-478.332	-147.311	-0.240	0.021
-477.318	269.096	-0.055	0.098
-476.303	-134.762	0.150	-0.018
-475.289	-26.089	-0.123	0.074
-474.274	-200.000	0.037	0.262
-473.259	-188.022	-0.088	0.001
-472.245	518.342	0.097	-0.231
-471.230	56.041	0.088	-0.087
-470.216	-34.348	0.207	0.115
-469.201	9.476	-0.065	-0.050
-468.186	28.049	-0.366	0.314
-467.172	194.857	-0.189	0.291
-466.157	-157.398	0.186	0.011
-465.143	-85.991	-0.313	-0.098
-464.128	-105.623	-0.536	-0.123
-463.113	331.398	0.099	-0.194
-462.099	-200.000	0.027	0.135
-461.084	58.480	-0.181	0.180
-460.070	-200.000	-0.039	-0.188
-459.055	771.414	0.106	-0.294
-458.040	-10.612	-0.176	0.118
-457.026	39.942	0.287	0.261
-456.011	-200.000	0.008	-0.252
-454.997	796.479	0.042	-0.118
-453.982	-97.311	0.302	0.080
-452.968	-200.000	-0.009	0.328
-451.953	257.029	0.084	0.147
-450.938	-70.785	-0.226	-0.086
-449.924	-160.235	0.315	0.017
-448.909	181.169	-0.144	0.215
-447.895	800.000	0.042	-0.122
-446.880	42.299	-0.146	0.135
-445.865	-64.372	0.084	0.034
-444.851	42.029	-0.129	-0.118
-443.836	-200.000	-0.068	-0.315
-442.822	800.000	-0.086	0.281
-441.807	-32.495	-0.151	0.086
-440.792	-43.548	-0.277	-0.141
-439.778	0.906	0.101	0.073
-438.763	-17.288	-0.271	0.173
-437.749	800.000	-0.063	-0.279
-436.734	-200.000	-0.034	0.363
-435.719	800.000	-0.028	-0.108
-434.705	-62.865	-0.258	-0.108
-433.690	-40.444	-0.240	-0.126
-432.676	-113.302	-0.220	0.044
-431.661	356.395	0.050	-0.101
-430.646	-200.000	0.019	0.192
-429.632	-39.369	0.280	-0.149
-428.617	-81.428	0.057	-0.019
-427.603	478.215	0.090	-0.207
-426.588	-200.000	0.013	0.134
-425.573	800.000	-0.041	-0.163
-424.559	167.517	-0.100	-0.145
-423.544	-10.716	-0.196	-0.131
-422.530	-103.434	-0.303	-0.072
-421.515	-200.000	-0.010	0.211
-420.500	-3.082	0.106	0.075
-419.486	-145.902	0.305	0.027
-418.471	566.898	-0.057	0.140
-417.457	96.101	-0.330	0.382
-416.442	20.818	0.173	0.142
-415.428	-47.019	-0.183	-0.090
-414.413	-199.361	-0.217	0.001
-413.398	-200.000	0.018	-0.108
-412.384	12.800	-0.097	0.076
-411.369	-111.829	-0.320	0.065
-410.355	303.733	0.109	-0.204
-409.340	-165.093	-0.252	-0.011
-408.325	-200.000	-0.033	0.277
-407.311	-200.000	-0.011	0.085
-406.296	800.000	0.067	0.191
-405.282	45.150	0.308	0.287
-404.267	149.460	0.047	0.064
-403.252	107.976	0.086	0.104
-402.238	256.292	0.044	-0.076
-401.223	-35.395	0.282	0.155
-400.209	519.501	-0.122	-0.290
-399.194	-28.278	-0.046	0.027
-398.179	137.679	0.121	0.160
-397.165	-16.806	0.165	-0.106
-396.150	-145.507	0.119	0.011
-395.136	800.000	-0.087	0.294
-394.121	-200.000	-0.052	-0.258
-393.106	-70.665	-0.106	-0.041
-392.092	-0.078	0.145	0.104
-391.077	-84.538	0.359	-0.115
-390.063	169.078	0.132	0.190
-389.048	-108.668	0.046	0.010
-388.033	100.245	-0.227	-0.266
-387.019	0.304	-0.418	0.302
-386.004	144.639	-0.204	0.275
-384.990	5.673	-0.272	-0.203
-383.975	-164.473	0.144	0.007
-382.960	780.997	0.105	-0.291
-381.946	-21.156	-0.044	0.027
-380.931	-50.291	0.111	0.053
-379.917	98.328	0.115	0.134
-378.902	800.000	0.049	0.203
-377.888	-23.653	-0.034	-0.021
-376.873	-83.974	0.518	0.166
-375.858	28.319	-0.145	-0.124
-374.844	-158.578	0.022	0.001
-373.829	-80.238	-0.244	-0.082
-372.815	-200.000	0.029	0.222
-371.800	-72.043	0.088	-0.033
-370.785	-200.000	-0.041	-0.199
-369.771	-101.925	-0.362	0.088
-368.756	-200.000	0.017	-0.101
-367.742	-40.788	0.163	-0.085
-366.727	-119.402	-0.116	0.020
-365.712	413.223	0.104	0.223
-364.698	-59.141	0.219	0.095
-363.683	-200.000	0.048	-0.323
-362.669	695.398	0.169	-0.449
-361.654	159.933	0.077	-0.108
-360.639	-200.000	-0.005	-0.111
-359.625	-117.339	-0.283	-0.052
-358.610	139.217	0.205	-0.273
-357.596	121.495	-0.170	0.214
-356.581	-117.118	-0.242	0.045
-355.566	-37.405	0.098	-0.053
-354.552	53.442	-0.125	-0.121
-353.537	-73.925	0.089	-0.033
-352.523	-57.957	0.303	0.134
-351.508	800.000	0.076	-0.240
-350.493	-106.337	-0.358	-0.081
-349.479	118.025	0.102	0.127
-348.464	-50.240	-0.076	-0.037
-347.450	-26.032	-0.147	0.087
-346.435	177.001	-0.110	-0.162
-345.420	-157.913	0.096	0.006
-344.406	-115.827	0.259	0.049
-343.391	543.657	-0.142	0.343
-342.377	-200.000	0.016	0.213
-341.362	-42.159	0.139	0.072
-340.348	-200.000	0.040	-0.227
-339.333	74.085	-0.244	-0.258
-338.318	431.572	0.024	0.053
-337.304	321.394	0.058	-0.111
-336.289	800.000	0.062	0.236
-335.275	2.146	0.007	0.005
-334.260	-122.988	-0.336	-0.054
-333.245	-200.000	0.015	0.327
-332.231	70.417	-0.123	0.129
-331.216	206.322	0.121	0.190
-330.202	-200.000	0.053	-0.240
-329.187	-200.000	0.006	0.373
-328.172	800.000	0.029	0.116
-327.158	124.177	-0.187	-0.238
-326.143	24.877	-0.317	-0.265
-325.129	-200.000	-0.077	0.425
-324.114	-119.971	0.154	0.027
-323.099	320.215	-0.113	0.216
-322.085	-163.207	-0.512	-0.025
-321.070	-16.361	-0.270	-0.172
-320.056	-200.000	0.012	-0.169
-319.041	-19.976	-0.190	0.118
-318.026	-200.000	0.042	0.205
-317.012	94.503	0.206	-0.236
-315.997	-71.760	0.119	-0.045
-314.983	-57.279	0.383	0.170
-313.968	-93.643	-0.266	0.074
-312.953	109.719	-0.165	0.199
-311.939	-70.569	0.255	-0.097
-310.924	105.659	0.079	0.094
-309.910	45.375	0.086	0.080
-308.895	229.067	-0.311	0.512
-307.880	126.397	0.079	0.100
-306.866	-200.000	-0.005	-0.233
-305.851	216.456	-0.099	0.159
-304.837	-114.457	-0.069	0.013
-303.822	800.000	-0.073	0.312
-302.807	-200.000	-0.001	0.231
-301.793	91.590	0.219	-0.248
-300.778	29.881	-0.376	-0.323
-299.764	52.994	0.195	-0.188
-298.749	-181.343	-0.163	0.003
-297.735	296.794	0.028	-0.052
-296.720	800.000	0.064	-0.218
-295.705	11.785	-0.228	0.176
-294.691	-126.681	0.233	-0.035
-293.676	130.268	-0.154	0.198
-292.662	800.000	-0.181	-0.523
-291.647	800.000	-0.120	0.384
-290.632	26.937	0.179	-0.151
-289.618	-200.000	0.042	0.190
-288.603	-200.000	-0.028	0.161
-287.589	800.000	0.033	-0.109
-286.574	-154.316	-0.142	0.010
-285.559	47.401	-0.052	-0.049
-284.545	87.083	0.179	-0.200
-283.530	800.000	0.051	-0.143
-282.516	-55.120	0.036	-0.016
-281.501	177.865	-0.269	0.395
-280.486	-21.879	0.287	0.176
-279.472	762.462	0.207	-0.565
-278.457	372.136	-0.250	-0.512
-277.443	-46.393	-0.379	0.187
-276.428	19.803	0.145	-0.118
-275.413	-119.627	0.420	0.073
-274.399	-6.544	-0.281	-0.193
-273.384	12.748	-0.334	-0.260
-272.370	-62.733	-0.165	0.069
-271.355	16.858	-0.035	-0.028
-270.340	-194.446	-0.261	-0.002
-269.326	70.479	0.135	-0.141
-268.311	-200.000	0.110	0.684
-267.297	-139.624	0.154	-0.017
-266.282	81.871	0.258	0.281
-265.267	-5.433	0.154	0.106
-264.253	-200.000	-0.099	-0.474
-263.238	640.090	0.094	0.241
-262.224	135.215	0.273	0.357
-261.209	12.055	-0.333	0.258
-260.195	73.823	-0.265	0.279
-259.180	-117.203	0.296	0.054
-258.165	-154.516	-0.006	0.000
-257.151	-200.000	-0.077	0.468
-256.136	-200.000	-0.017	0.663
-255.122	157.279	-0.155	0.216
-254.107	45.233	-0.034	0.032
-253.092	142.275	-0.114	-0.152
-252.078	253.094	0.056	0.096
-251.063	-200.000	-0.060	-0.333
-250.049	-200.000	0.007	-0.185
-249.034	332.884	-0.118	0.229
-248.019	0.501	-0.353	0.254
-247.005	-200.000	-0.038	0.206
-245.990	-54.351	0.232	-0.106
-244.976	-25.566	0.097	0.058
-243.961	54.746	0.072	0.070
-242.946	-200.000	0.024	0.439
-241.932	-57.121	0.192	0.085
-240.917	649.347	0.043	0.111
-239.903	48.087	0.198	-0.186
-238.888	-44.493	0.472	-0.238
-237.873	-200.000	-0.032	-0.160
-236.859	800.000	-0.056	0.237
-235.844	-200.000	0.010	-0.263
-234.830	20.915	-0.216	0.176
-233.815	158.226	-0.191	-0.266
-232.800	-200.000	-0.058	-0.387
-231.786	800.000	0.063	0.213
-230.771	22.189	-0.090	-0.074
-229.757	-200.000	-0.029	-0.271
-228.742	-52.290	0.092	-0.043
-227.727	-74.278	-0.137	-0.050
-226.713	-200.000	-0.016	-0.189
-225.698	-200.000	0.011	-0.419
-224.684	-200.000	0.018	0.203
-223.669	95.291	-0.064	0.073
-222.655	-154.587	-0.200	-0.013
-221.640	92.569	-0.123	0.140
-220.625	247.149	0.058	-0.098
-219.611	-150.038	0.200	-0.016
-218.596	394.802	0.117	-0.244
-217.582	800.000	0.112	-0.433
-216.567	-200.000	-0.005	-0.039
-215.552	-23.507	0.196	-0.118
-214.538	-51.406	-0.142	-0.066
-213.523	126.332	0.205	-0.260
-212.509	224.356	0.130	-0.211
-211.494	-3.707	0.089	-0.062
-210.479	751.018	-0.056	-0.153
-209.465	25.805	0.167	-0.140
-208.450	-0.067	0.263	-0.188
-207.436	-62.086	-0.060	-0.025
-206.421	169.891	0.113	0.162
-205.406	-200.000	-0.049	0.300
-204.392	-30.858	-0.101	-0.057
-203.377	-200.000	0.065	-0.301
-202.363	31.935	0.099	0.086
-201.348	68.307	0.264	-0.272
-200.333	-67.553	0.118	0.046
-199.319	-200.000	-0.047	0.322
-198.304	83.537	-0.190	0.208
-197.290	-85.394	-0.204	-0.064
-196.275	-143.117	-0.103	-0.010
-195.260	800.000	-0.013	0.040
-194.246	181.369	0.299	-0.441
-193.231	-106.088	0.285	0.064
-192.217	-173.609	-0.288	-0.009
-191.202	-200.000	0.043	-0.275
-190.187	-104.916	0.239	0.055
-189.173	37.536	-0.325	0.290
-188.158	-139.724	0.427	-0.046
-187.144	-59.426	0.371	0.160
-186.129	-200.000	-0.028	0.128
-185.114	-116.434	0.379	-0.070
-184.100	424.712	-0.231	0.499
-183.085	202.148	-0.140	0.217
-182.071	128.707	0.274	0.351
-181.056	-34.800	0.142	0.078
-180.042	57.921	0.113	-0.111
-179.027	88.931	0.112	-0.125
-178.012	-200.000	0.002	-0.062
-176.998	215.379	0.159	0.254
-175.983	165.253	-0.156	0.222
-174.969	40.704	0.060	0.054
-173.954	66.251	0.308	-0.314
-172.939	-200.000	-0.028	0.271
-171.925	-37.993	-0.072	-0.039
-170.910	-89.595	0.247	-0.073
-169.896	-200.000	0.003	-0.061
-168.881	-99.757	0.319	0.080
-167.866	-18.073	-0.163	-0.102
-166.852	254.380	0.011	0.019
-165.837	-113.633	0.262	-0.051
-164.823	-200.000	-0.036	0.335
-163.808	-200.000	0.017	-0.221
-162.793	113.362	0.251	0.305
-161.779	-87.700	0.345	-0.104
-160.764	-139.433	-0.237	0.025
-159.750	-14.771	0.124	-0.080
-158.735	-2.606	0.159	-0.111
-157.720	60.201	0.259	0.256
-156.706	88.071	-0.195	0.217
-155.691	-65.341	0.516	0.208
-154.677	-64.881	0.252	-0.102
-153.662	-26.057	-0.096	0.056
-152.647	-19.563	-0.214	0.133
-151.633	-68.733	-0.508	0.197
-150.618	-200.000	-0.025	0.273
-149.604	-200.000	0.045	0.207
-148.589	-133.442	-0.466	0.059
-147.574	-200.000	0.014	-0.127
-146.560	800.000	-0.092	-0.288
-145.545	800.000	-0.095	0.394
-144.531	-14.442	0.151	-0.097
-143.516	34.464	-0.206	0.180
-142.502	618.270	0.096	0.242
-141.487	-200.000	0.023	-0.209
-140.472	39.917	0.170	0.153
-139.458	-111.388	0.252	-0.052
-138.443	-100.054	-0.563	-0.141
-137.429	-122.209	0.198	0.032
-136.414	-59.099	0.153	0.066
-135.399	-78.391	0.094	-0.032
-134.385	-12.427	-0.337	-0.220
-133.370	800.000	0.026	-0.082
-132.356	140.705	-0.195	0.258
-131.341	386.387	-0.161	0.332
-130.326	-200.000	-0.022	0.169
-129.312	421.869	0.090	0.194
-128.297	-71.341	0.142	0.053
-127.283	-200.000	-0.018	-0.100
-126.268	-200.000	-0.147	0.000
-125.253	-200.000	0.001	0.454
-124.239	-99.619	0.246	-0.062
-123.224	215.768	0.107	-0.170
-122.210	251.775	0.102	0.173
-121.195	7.939	0.098	0.073
