DTS Sentinel unit serial number:	SN413079Multiplexer serial number:	ORYXHardware model number:	OX4-SRSoftware version number:	ORYX F/W v4.00 Oryx Data Collector v3.7.2.0data status	okinstallation	princeton_trtdifferential loss correction	single-endedforward channel	channel 3reverse channel	N/Adate	2019/09/13time	11:44:35forward acquisition time	60.00reverse acquisition time	0.00gamma	496.2192k internal	0.2312k external	0.2312temperature offset calibration	1.0148default loss term (dB/km)	0.3790temperature slope calibration	1.0000multiplexer offset coefficient	1.0000multiplexer slope coefficient	1.0000fibre end	0.00T internal ref (°C)	33.16T ext. ref 1 (°C)	4.52T ext. ref 2 (°C)	30.34length (m)	temperature (°C)	Stokes	anti-Stokes-747.200	-200.000	0.001	-0.035
-746.185	76.824	0.334	0.360
-745.171	800.000	0.058	-0.251
-744.156	-43.661	-0.232	-0.119
-743.142	800.000	-0.057	0.205
-742.127	800.000	-0.074	0.247
-741.112	-200.000	0.009	0.041
-740.098	19.328	-0.317	0.258
-739.083	-134.141	0.369	-0.046
-738.069	800.000	0.087	0.290
-737.054	-81.770	-0.147	-0.049
-736.039	800.000	0.084	-0.279
-735.025	-53.436	0.131	-0.061
-734.010	58.449	-0.312	-0.311
-732.996	153.162	-0.145	-0.201
-731.981	361.640	0.077	0.158
-730.966	703.307	0.072	-0.194
-729.952	800.000	0.015	-0.049
-728.937	484.399	-0.026	0.060
-727.923	321.839	0.042	-0.080
-726.908	-82.343	0.194	-0.064
-725.894	248.664	-0.044	0.076
-724.879	179.843	-0.115	-0.171
-723.864	242.455	-0.333	-0.565
-722.850	0.638	0.232	-0.168
-721.835	-23.508	0.148	0.090
-720.821	284.982	-0.181	-0.330
-719.806	-13.523	0.185	-0.122
-718.791	-200.000	0.086	-0.420
-717.777	-128.361	0.196	-0.028
-716.762	-159.934	-0.257	0.014
-715.748	242.922	-0.136	-0.231
-714.733	-92.053	-0.246	-0.070
-713.718	29.873	0.156	-0.135
-712.704	91.131	-0.115	-0.131
-711.689	-90.834	0.325	-0.095
-710.675	-50.410	0.100	0.048
-709.660	7.853	0.118	-0.089
-708.645	-53.153	0.233	-0.109
-707.631	-152.559	-0.228	-0.017
-706.616	-77.951	-0.149	-0.052
-705.602	-46.455	-0.276	-0.137
-704.587	11.336	-0.113	0.088
-703.572	-165.544	0.199	-0.009
-702.558	391.141	-0.148	-0.312
-701.543	-200.000	-0.022	0.156
-700.529	23.565	-0.303	-0.252
-699.514	-5.206	-0.376	-0.262
-698.499	800.000	-0.103	0.328
-697.485	800.000	-0.053	-0.229
-696.470	14.648	-0.130	0.103
-695.456	-200.000	0.007	-0.215
-694.441	20.471	-0.254	-0.208
-693.426	155.778	-0.093	0.130
-692.412	-71.387	-0.234	-0.089
-691.397	-17.699	-0.267	-0.170
-690.383	-2.804	-0.306	0.217
-689.368	53.020	0.109	-0.106
-688.354	19.120	0.070	-0.057
-687.339	-159.624	0.137	0.008
-686.324	-185.964	-0.337	0.005
-685.310	-200.000	0.013	0.116
-684.295	-200.000	0.017	-0.289
-683.281	578.969	0.150	0.373
-682.266	800.000	0.043	-0.141
-681.251	-2.694	0.125	-0.088
-680.237	-62.377	-0.240	0.101
-679.222	-155.836	0.256	-0.017
-678.208	90.625	-0.229	-0.260
-677.193	-45.869	-0.117	-0.059
-676.178	-0.382	0.063	0.045
-675.164	-200.000	-0.011	-0.096
-674.149	-200.000	0.065	-0.322
-673.135	800.000	-0.054	-0.155
-672.120	49.184	-0.104	-0.099
-671.105	-87.900	-0.442	0.134
-670.091	157.937	-0.046	0.065
-669.076	-200.000	0.157	0.000
-668.062	186.677	-0.065	-0.098
-667.047	800.000	-0.031	-0.124
-666.032	-29.515	0.304	-0.176
-665.018	-90.121	0.295	-0.087
-664.003	-200.000	-0.024	-0.230
-662.989	-28.045	-0.286	-0.167
-661.974	-96.422	-0.289	-0.077
-660.959	182.000	0.076	-0.113
-659.945	453.242	0.091	-0.203
-658.930	-84.550	0.244	-0.078
-657.916	-67.893	-0.154	-0.061
-656.901	-111.165	0.425	0.088
-655.886	487.634	-0.038	-0.087
-654.872	-102.412	0.066	-0.016
-653.857	27.999	0.162	0.138
-652.843	-11.069	-0.293	-0.196
-651.828	-51.881	0.110	-0.052
-650.814	414.767	-0.108	0.232
-649.799	238.226	-0.059	-0.098
-648.784	-146.114	-0.253	0.023
-647.770	-200.000	-0.002	0.115
-646.755	42.926	0.039	-0.036
-645.741	-126.374	-0.104	0.016
-644.726	-48.339	-0.183	-0.089
-643.711	-200.000	0.072	0.469
-642.697	140.191	0.017	-0.022
-641.682	800.000	-0.048	-0.199
-640.668	231.657	-0.095	0.157
-639.653	-87.133	-0.104	0.032
-638.638	0.038	0.092	-0.066
-637.624	-103.988	0.056	-0.013
-636.609	-132.893	-0.171	0.022
-635.595	-136.074	-0.357	-0.042
-634.580	235.753	0.225	0.375
-633.565	54.769	-0.286	0.279
-632.551	22.752	-0.201	0.166
-631.536	-84.520	0.410	-0.131
-630.522	135.272	0.115	0.151
-629.507	-200.000	0.010	-0.143
-628.492	11.821	0.157	-0.122
-627.478	800.000	0.068	0.191
-626.463	800.000	-0.029	0.110
-625.449	-85.765	0.214	-0.067
-624.434	-6.493	0.011	-0.008
-623.419	-200.000	-0.058	0.287
-622.405	-200.000	-0.024	0.235
-621.390	800.000	-0.091	0.396
-620.376	72.208	-0.317	0.333
-619.361	-131.146	-0.033	-0.004
-618.346	255.928	-0.133	-0.231
-617.332	-42.123	0.235	-0.121
-616.317	-200.000	-0.028	-0.169
-615.303	-28.706	-0.317	0.184
-614.288	49.747	0.079	-0.075
-613.273	418.000	-0.118	-0.254
-612.259	-9.300	-0.144	0.097
-611.244	40.133	0.110	0.100
-610.230	-200.000	-0.022	-0.256
-609.215	800.000	-0.132	-0.431
-608.201	-200.000	-0.002	-0.068
-607.186	131.493	-0.088	0.114
-606.171	-47.634	0.070	0.034
-605.157	99.630	-0.126	0.147
-604.142	189.764	-0.040	-0.060
-603.128	-63.339	-0.241	0.100
-602.113	-30.569	-0.106	-0.061
-601.098	-200.000	0.016	-0.098
-600.084	-200.000	-0.016	-0.196
-599.069	-200.000	-0.024	-0.323
-598.055	800.000	-0.020	0.079
-597.040	-200.000	-0.005	0.322
-596.025	28.123	-0.035	0.030
-595.011	-75.858	-0.198	-0.071
-593.996	55.018	-0.115	-0.112
-592.982	-69.915	0.094	-0.036
-591.967	18.626	0.079	-0.064
-590.952	-125.975	-0.085	-0.013
-589.938	800.000	-0.050	0.185
-588.923	35.621	-0.243	-0.215
-587.909	153.843	0.116	-0.161
-586.894	-158.975	-0.109	0.006
-585.879	-200.000	-0.023	0.323
-584.865	155.632	-0.069	0.096
-583.850	-62.490	-0.224	-0.094
-582.836	-200.000	0.024	-0.126
-581.821	426.911	-0.084	-0.183
-580.806	-104.830	-0.244	-0.057
-579.792	94.425	0.183	-0.210
-578.777	800.000	-0.066	-0.187
-577.763	687.089	-0.040	-0.105
-576.748	444.650	0.028	-0.063
-575.733	173.316	0.111	-0.162
-574.719	-188.093	0.207	0.003
-573.704	199.465	0.234	0.361
-572.690	800.000	-0.037	0.157
-571.675	145.341	-0.141	0.190
-570.661	-150.120	-0.057	0.004
-569.646	-75.698	-0.157	-0.056
-568.631	82.988	0.227	-0.249
-567.617	69.653	0.140	-0.145
-566.602	800.000	-0.044	-0.157
-565.588	-55.578	-0.239	0.108
-564.573	163.671	0.052	-0.073
-563.558	-160.272	0.282	-0.015
-562.544	-200.000	0.023	0.129
-561.529	-200.000	0.003	-0.223
-560.515	44.906	0.032	-0.030
-559.500	469.397	0.088	0.200
-558.485	-2.357	0.171	-0.121
-557.471	-200.000	-0.083	-0.388
-556.456	-198.992	-0.406	-0.002
-555.442	-200.000	0.002	0.242
-554.427	-37.896	0.326	0.175
-553.412	-200.000	0.009	0.123
-552.398	-142.032	0.226	0.023
-551.383	110.445	0.253	0.306
-550.369	2.627	-0.063	-0.046
-549.354	144.587	-0.089	-0.120
-548.339	245.602	0.099	0.167
-547.325	-200.000	0.035	0.176
-546.310	41.050	-0.060	0.054
-545.296	177.017	-0.072	-0.105
-544.281	-200.000	0.004	-0.403
-543.266	-108.580	-0.217	-0.047
-542.252	179.154	-0.109	-0.161
-541.237	-200.000	0.002	-0.191
-540.223	-78.802	-0.166	0.057
-539.208	800.000	-0.077	-0.301
-538.193	-66.273	-0.221	-0.089
-537.179	-200.000	-0.021	0.124
-536.164	-0.319	-0.091	0.065
-535.150	-140.750	0.323	-0.034
-534.135	571.944	0.013	-0.032
-533.121	-154.021	0.322	0.022
-532.106	-200.000	-0.009	0.105
-531.091	132.767	-0.183	-0.238
-530.077	-90.600	0.071	-0.021
-529.062	-89.172	0.174	0.052
-528.048	-200.000	0.012	-0.248
-527.033	-78.010	0.200	0.069
-526.018	-114.445	-0.271	-0.052
-525.004	800.000	-0.079	-0.248
-523.989	46.366	0.178	-0.167
-522.975	-200.000	0.011	0.098
-521.960	306.250	0.139	0.259
-520.945	-200.000	-0.060	-0.274
-519.931	-200.000	0.023	-0.158
-518.916	-200.000	0.021	-0.175
-517.902	98.639	0.197	0.229
-516.887	800.000	0.031	-0.094
-515.872	37.607	-0.111	0.099
-514.858	-200.000	0.041	-0.261
-513.843	191.579	-0.070	-0.106
-512.829	-200.000	-0.017	-0.132
-511.814	175.771	0.060	0.087
-510.799	-74.185	-0.118	-0.043
-509.785	-200.000	-0.008	-0.070
-508.770	730.163	-0.011	-0.030
-507.756	646.827	0.115	-0.297
-506.741	-200.000	0.015	0.198
-505.726	-103.140	-0.050	-0.012
-504.712	-54.631	0.185	0.084
-503.697	-84.529	0.467	-0.148
-502.683	800.000	0.044	-0.134
-501.668	800.000	-0.119	0.491
-500.653	-8.050	-0.090	0.061
-499.639	78.419	0.174	-0.186
-498.624	-200.000	-0.039	-0.174
-497.610	-173.975	0.191	0.006
-496.595	297.792	-0.130	-0.241
-495.581	800.000	0.111	-0.342
-494.566	800.000	-0.035	-0.154
-493.551	-60.690	0.446	-0.190
-492.537	436.299	0.120	0.262
-491.522	-200.000	-0.071	-0.436
-490.508	33.207	0.089	-0.077
-489.493	627.926	-0.047	0.120
-488.478	-32.066	0.079	0.045
-487.464	155.033	0.063	-0.087
-486.449	11.104	-0.113	0.087
-485.435	161.560	-0.159	-0.224
-484.420	-200.000	-0.058	-0.328
-483.405	734.488	0.096	0.259
-482.391	426.928	-0.066	0.144
-481.376	108.425	-0.171	0.205
-480.362	-96.109	0.121	-0.032
-479.347	800.000	-0.073	-0.209
-478.332	-200.000	0.018	-0.238
-477.318	-71.281	0.109	0.041
-476.303	37.555	0.195	0.174
-475.289	63.234	-0.174	0.175
-474.274	-200.000	-0.043	-0.198
-473.259	-115.123	0.424	0.081
-472.245	370.851	0.166	-0.338
-471.230	-188.611	-0.095	0.001
-470.216	214.421	-0.035	-0.056
-469.201	111.141	-0.157	0.190
-468.186	737.680	-0.124	0.333
-467.172	-131.646	0.116	-0.015
-466.157	374.718	-0.014	-0.029
-465.143	-111.469	0.240	0.049
-464.128	-112.774	-0.109	0.022
-463.113	69.108	0.006	0.006
-462.099	-110.079	-0.242	0.051
-461.084	800.000	0.067	0.191
-460.070	-123.929	-0.244	-0.039
-459.055	90.920	-0.126	0.142
-458.040	-200.000	-0.033	-0.393
-457.026	17.063	0.115	-0.092
-456.011	292.465	0.123	-0.224
-454.997	800.000	0.116	-0.387
-453.982	-51.820	0.141	-0.066
-452.968	-31.600	0.121	0.068
-451.953	206.560	0.095	0.149
-450.938	800.000	0.145	0.432
-449.924	-143.644	-0.198	-0.019
-448.909	-140.122	0.232	0.024
-447.895	191.547	-0.091	-0.137
-446.880	-82.503	-0.281	-0.092
-445.865	-135.038	-0.208	0.025
-444.851	346.277	-0.107	0.210
-443.836	-5.662	-0.159	-0.109
-442.822	90.934	0.129	0.145
-441.807	-119.257	-0.394	-0.069
-440.792	-200.000	0.083	-0.373
-439.778	-107.273	0.237	0.052
-438.763	233.443	0.010	0.017
-437.749	-26.893	-0.174	-0.102
-436.734	229.159	0.074	0.120
-435.719	-200.000	-0.051	0.270
-434.705	36.446	0.331	0.293
-433.690	51.440	0.158	-0.151
-432.676	278.770	0.061	0.109
-431.661	244.579	-0.110	0.186
-430.646	518.569	-0.176	-0.413
-429.632	-8.646	-0.183	0.123
-428.617	-200.000	-0.006	-0.385
-427.603	-38.845	-0.140	-0.074
-426.588	-56.448	-0.214	-0.095
-425.573	-70.560	0.059	-0.022
-424.559	-52.780	-0.110	0.051
-423.544	258.972	-0.042	0.072
-422.530	800.000	0.025	0.110
-421.515	-173.337	0.169	0.005
-420.500	800.000	-0.065	0.213
-419.486	265.714	0.021	0.036
-418.471	604.798	0.109	0.273
-417.457	-73.548	0.051	0.019
-416.442	299.541	-0.172	0.317
-415.428	800.000	-0.037	-0.116
-414.413	193.273	-0.149	-0.226
-413.398	-0.349	0.117	-0.083
-412.384	153.695	0.090	0.123
-411.369	-64.912	0.039	0.016
-410.355	40.309	-0.240	0.216
-409.340	28.495	-0.300	0.254
-408.325	27.432	0.304	0.256
-407.311	46.652	-0.105	-0.098
-406.296	800.000	-0.053	-0.155
-405.282	26.023	0.061	0.051
-404.267	-47.651	0.183	-0.089
-403.252	-77.273	0.063	0.022
-402.238	415.135	0.170	-0.364
-401.223	28.625	0.244	-0.207
-400.209	110.114	-0.307	0.369
-399.194	-112.518	-0.220	0.044
-398.179	-200.000	0.049	-0.517
-397.165	800.000	0.032	-0.136
-396.150	47.755	0.271	-0.253
-395.136	296.391	-0.134	-0.246
-394.121	800.000	0.004	0.019
-393.106	17.024	0.147	-0.117
-392.092	-125.029	-0.146	0.022
-391.077	-92.441	0.258	0.073
-390.063	82.450	-0.092	-0.100
-389.048	54.563	-0.225	0.217
-388.033	-103.780	-0.189	0.044
-387.019	-200.000	0.019	-0.313
-386.004	164.587	0.159	-0.225
-384.990	283.401	-0.211	-0.380
-383.975	195.730	-0.069	0.105
-382.960	-75.684	-0.261	-0.093
-381.946	219.196	0.047	0.074
-380.931	89.658	-0.169	0.189
-379.917	-111.218	0.187	-0.038
-378.902	-157.609	-0.090	-0.005
-377.888	37.587	0.111	-0.098
-376.873	-200.000	0.002	0.090
-375.858	-70.735	-0.167	-0.063
-374.844	-29.051	-0.041	-0.023
-373.829	-200.000	0.007	0.200
-372.815	-200.000	0.014	-0.205
-371.800	-61.199	0.056	0.023
-370.785	-79.036	-0.154	-0.052
-369.771	-16.615	-0.268	0.170
-368.756	321.206	0.259	-0.492
-367.742	800.000	0.084	-0.235
-366.727	-45.656	0.148	0.073
-365.712	26.567	0.250	0.209
-364.698	54.275	0.082	-0.079
-363.683	179.414	-0.138	0.202
-362.669	-121.641	0.222	-0.037
-361.654	-200.000	0.020	-0.103
-360.639	418.190	0.097	0.208
-359.625	-200.000	-0.009	0.113
-358.610	-48.942	-0.133	0.064
-357.596	-82.979	-0.154	-0.050
-356.581	-99.073	-0.206	0.052
-355.566	800.000	0.064	-0.181
-354.552	-200.000	-0.077	-0.404
-353.537	-43.992	0.073	0.037
-352.523	-77.929	0.326	0.112
-351.508	-117.245	-0.150	-0.027
-350.493	-111.173	0.081	0.017
-349.479	-25.524	-0.229	0.135
-348.464	800.000	-0.016	0.057
-347.450	-159.468	-0.256	0.014
-346.435	-70.952	-0.318	0.120
-345.420	39.004	0.241	-0.215
-344.406	214.607	-0.102	0.161
-343.391	-20.850	0.323	0.198
-342.377	-200.000	0.063	-0.325
-341.362	-200.000	-0.038	-0.430
-340.348	520.007	0.069	0.162
-339.333	217.468	0.182	0.290
-338.318	-98.983	-0.379	0.096
-337.304	104.503	0.068	-0.080
-336.289	-26.076	0.360	0.211
-335.275	-73.066	-0.137	0.050
-334.260	668.880	0.038	-0.097
-333.245	800.000	0.085	-0.321
-332.231	132.763	-0.105	0.136
-331.216	-9.249	0.165	-0.110
-330.202	-53.777	0.185	-0.084
-329.187	-135.232	0.213	0.026
-328.172	800.000	0.067	0.233
-327.158	10.140	0.259	0.197
-326.143	-200.000	-0.018	-0.254
-325.129	-200.000	0.017	0.131
-324.114	-61.213	-0.091	0.038
-323.099	-31.728	-0.191	0.107
-322.085	-200.000	-0.037	0.256
-321.070	257.412	0.159	-0.273
-320.056	223.853	0.347	0.559
-319.041	15.499	0.343	-0.269
-318.026	-19.484	-0.159	-0.098
-317.012	-79.201	0.315	-0.107
-315.997	-200.000	0.009	0.497
-314.983	-116.979	-0.202	-0.037
-313.968	-177.675	-0.192	-0.005
-312.953	-33.663	-0.123	0.068
-311.939	-29.897	0.140	0.080
-310.924	-87.279	-0.249	-0.075
-309.910	-121.164	0.275	-0.046
-308.895	59.908	-0.023	0.023
-307.880	141.539	-0.082	-0.109
-306.866	31.429	0.465	0.399
-305.851	-97.787	-0.119	0.031
-304.837	87.123	-0.186	0.205
-303.822	800.000	0.066	0.206
-302.807	-200.000	0.048	-0.273
-301.793	800.000	0.060	0.202
-300.778	-16.838	-0.098	0.062
-299.764	-110.801	-0.192	-0.040
-298.749	28.970	-0.112	-0.095
-297.735	-200.000	0.039	0.216
-296.720	-157.973	-0.154	0.009
-295.705	-48.660	0.268	-0.128
-294.691	-200.000	-0.029	0.186
-293.676	-106.977	0.171	-0.038
-292.662	414.423	-0.096	0.203
-291.647	-57.573	0.115	0.050
-290.632	-41.496	-0.056	0.028
-289.618	-41.273	-0.189	-0.097
-288.603	44.815	0.043	-0.039
-287.589	455.189	-0.036	0.079
-286.574	-200.000	0.030	0.199
-285.559	115.319	-0.221	0.270
-284.545	-200.000	0.001	0.039
-283.530	-200.000	0.031	0.242
-282.516	-200.000	0.020	0.335
-281.501	289.985	-0.097	0.175
-280.486	150.211	-0.139	-0.188
-279.472	49.680	-0.123	-0.116
-278.457	-87.622	0.535	-0.161
-277.443	-135.074	-0.189	0.023
-276.428	-200.000	0.024	0.156
-275.413	-62.682	0.264	-0.109
-274.399	-45.101	0.178	-0.088
-273.384	-200.000	-0.009	-0.066
-272.370	-200.000	0.069	0.684
-271.355	-59.888	0.128	0.055
-270.340	116.630	0.091	-0.111
-269.326	272.452	-0.183	-0.321
-268.311	-40.489	0.298	-0.154
-267.297	-48.221	0.140	-0.067
-266.282	-48.604	0.160	-0.077
-265.267	380.578	0.171	-0.348
-264.253	800.000	0.044	-0.184
-263.238	-200.000	-0.017	0.370
-262.224	-37.779	-0.036	-0.019
-261.209	800.000	0.115	0.435
-260.195	-200.000	0.081	-0.389
-259.180	197.677	0.098	-0.150
-258.165	527.523	-0.030	0.072
-257.151	-200.000	-0.063	0.000
-256.136	65.253	-0.059	-0.060
-255.122	800.000	-0.027	0.077
-254.107	800.000	-0.153	0.534
-253.092	146.423	-0.127	0.169
-252.078	-61.282	-0.148	-0.062
-251.063	300.478	-0.101	0.186
-250.049	-200.000	-0.025	0.216
-249.034	38.219	0.189	-0.167
-248.019	-181.609	-0.231	-0.004
-247.005	-104.647	-0.154	0.035
-245.990	102.175	0.059	-0.068
-244.976	-99.107	0.186	0.047
-243.961	-66.474	-0.047	-0.019
-242.946	-23.452	0.146	-0.087
-241.932	-158.866	0.408	0.023
-240.917	102.683	-0.070	-0.081
-239.903	46.536	-0.059	-0.054
-238.888	-8.029	0.252	0.169
-237.873	-52.056	-0.167	0.077
-236.859	-200.000	-0.040	-0.198
-235.844	-64.460	0.181	0.073
-234.830	-148.366	0.366	0.030
-233.815	800.000	-0.065	0.198
-232.800	151.213	0.163	0.221
-231.786	194.701	-0.049	0.075
-230.771	800.000	0.042	0.133
-229.757	-93.708	-0.124	-0.034
-228.742	800.000	0.086	0.342
-227.727	-16.308	0.193	0.122
-226.713	800.000	0.153	0.526
-225.698	-157.301	-0.165	0.010
-224.684	63.470	0.110	-0.110
-223.669	170.868	-0.160	-0.229
-222.655	-200.000	0.002	-0.165
-221.640	-61.703	-0.157	0.066
-220.625	800.000	0.054	-0.222
-219.611	-200.000	0.053	-0.254
-218.596	-59.602	-0.325	0.139
-217.582	4.999	0.172	0.126
-216.567	-122.666	0.376	-0.061
-215.552	-200.000	-0.014	0.331
-214.538	100.560	-0.154	0.178
-213.523	51.574	-0.162	0.153
-212.509	8.330	0.027	0.020
-211.494	126.669	0.077	0.097
-210.479	-154.985	0.169	-0.011
-209.465	-34.152	-0.086	0.047
-208.450	-200.000	-0.010	0.210
-207.436	-200.000	0.004	0.158
-206.421	277.895	-0.144	0.256
-205.406	20.639	-0.140	0.112
-204.392	-47.363	0.074	-0.036
-203.377	-27.846	-0.118	-0.068
-202.363	45.235	-0.073	0.067
-201.348	-90.806	0.207	-0.059
-200.333	-200.000	0.024	-0.461
-199.319	198.572	-0.255	-0.388
-198.304	-28.744	-0.234	-0.134
-197.290	507.458	0.070	0.161
-196.275	24.252	0.339	0.278
-195.260	800.000	-0.114	-0.459
-194.246	19.395	-0.306	-0.244
-193.231	-10.419	-0.182	0.120
-192.217	-200.000	0.030	0.225
-191.202	-200.000	-0.011	-0.097
-190.187	184.616	-0.078	-0.114
-189.173	58.136	-0.057	-0.055
-188.158	-39.554	-0.320	-0.167
-187.144	-136.297	0.220	0.026
-186.129	800.000	-0.060	-0.192
-185.114	-117.311	0.323	0.058
-184.100	108.170	0.317	0.376
-183.085	544.208	-0.126	0.298
-182.071	10.027	-0.193	0.145
-181.056	-147.786	-0.245	-0.020
-180.042	200.966	-0.327	0.499
-179.027	89.123	-0.128	-0.141
-178.012	-71.379	0.384	0.143
-176.998	-15.578	-0.165	0.104
-175.983	-109.243	0.194	0.041
-174.969	-90.838	-0.122	-0.035
-173.954	-119.638	0.212	0.036
-172.939	359.573	0.112	0.223
-171.925	-17.560	0.152	-0.095
-170.910	-98.535	0.168	0.043
-169.896	-180.381	0.041	0.001
-168.881	-93.396	-0.422	-0.116
-167.866	123.041	0.103	-0.128
-166.852	-200.000	0.005	-0.294
-165.837	-61.551	0.142	-0.059
-164.823	-183.833	-0.185	0.003
-163.808	118.670	0.102	-0.125
-162.793	172.883	-0.116	-0.165
-161.779	-200.000	0.005	-0.052
-160.764	144.479	-0.110	-0.146
-159.750	-7.728	0.253	-0.170
-158.735	-200.000	0.007	-0.176
-157.720	800.000	0.004	-0.013
-156.706	-98.317	0.046	-0.012
-155.691	-89.231	-0.077	-0.022
-154.677	37.022	-0.281	0.247
-153.662	-54.514	-0.362	0.163
-152.647	-200.000	0.006	-0.214
-151.633	92.689	-0.147	-0.165
-150.618	-200.000	0.028	-0.154
-149.604	-21.123	0.184	0.112
-148.589	26.112	-0.101	-0.084
-147.574	167.000	0.164	0.231
-146.560	83.642	0.297	0.321
-145.545	787.237	-0.148	0.402
-144.531	-113.007	0.203	-0.040
-143.516	-28.286	-0.286	-0.164
-142.502	-124.124	-0.348	-0.054
-141.487	-72.402	-0.153	0.056
-140.472	331.750	-0.146	0.280
-139.458	-200.000	0.012	-0.293
-138.443	90.143	0.130	0.144
-137.429	-141.184	-0.394	-0.040
-136.414	498.412	0.100	-0.229
-135.399	-11.397	0.182	-0.118
-134.385	-17.936	-0.152	0.095
-133.370	280.808	-0.083	0.146
-132.356	112.373	-0.225	0.269
-131.341	-17.374	0.316	-0.197
-130.326	254.070	-0.207	0.350
-129.312	-200.000	-0.001	-0.060
-128.297	27.612	0.026	0.021
-127.283	-70.182	-0.285	0.107
-126.268	-46.143	-0.214	-0.104
-125.253	495.141	0.040	0.090
-124.239	79.929	0.093	-0.099
-123.224	-116.036	0.094	-0.017
-122.210	388.206	0.149	0.305
