DTS Sentinel unit serial number:	SN413079Multiplexer serial number:	ORYXHardware model number:	OX4-SRSoftware version number:	ORYX F/W v4.00 Oryx Data Collector v3.7.2.0data status	okinstallation	princeton_trtdifferential loss correction	single-endedforward channel	channel 3reverse channel	N/Adate	2019/09/15time	21:56:35forward acquisition time	60.00reverse acquisition time	0.00gamma	496.2192k internal	0.2329k external	0.2329temperature offset calibration	0.9940default loss term (dB/km)	0.3790temperature slope calibration	1.0000multiplexer offset coefficient	1.0000multiplexer slope coefficient	1.0000fibre end	0.00T internal ref (°C)	29.95T ext. ref 1 (°C)	8.51T ext. ref 2 (°C)	22.99length (m)	temperature (°C)	Stokes	anti-Stokes-747.200	46.021	0.258	0.241
-746.185	-160.951	-0.281	0.015
-745.171	-200.000	0.005	-0.112
-744.156	161.365	0.135	0.190
-743.142	-116.744	-0.303	-0.056
-742.127	-63.263	-0.071	0.030
-741.112	-53.341	0.312	0.144
-740.098	693.064	-0.099	0.263
-739.083	800.000	0.049	0.162
-738.069	800.000	0.045	0.154
-737.054	-59.287	-0.385	0.167
-736.039	800.000	-0.036	-0.107
-735.025	-24.430	0.109	0.065
-734.010	293.457	-0.205	-0.377
-732.996	800.000	0.088	-0.371
-731.981	135.457	0.093	-0.122
-730.966	318.178	-0.122	-0.233
-729.952	27.440	-0.339	-0.287
-728.937	-195.407	-0.389	-0.003
-727.923	-45.929	-0.083	0.041
-726.908	-43.265	-0.062	0.032
-725.894	-200.000	-0.010	-0.198
-724.879	189.284	0.144	0.217
-723.864	800.000	-0.046	-0.203
-722.850	-141.476	-0.142	0.014
-721.835	95.935	-0.189	-0.217
-720.821	626.339	0.015	-0.039
-719.806	-34.955	-0.134	-0.074
-718.791	800.000	0.137	-0.501
-717.777	147.807	-0.255	0.345
-716.762	29.249	-0.167	0.142
-715.748	657.969	-0.056	-0.145
-714.733	-138.121	-0.097	0.011
-713.718	-200.000	0.004	-0.081
-712.704	-84.173	-0.348	-0.111
-711.689	800.000	-0.028	0.085
-710.675	-109.850	0.120	0.025
-709.660	-200.000	0.034	-0.328
-708.645	194.625	-0.236	-0.360
-707.631	-85.360	0.133	0.042
-706.616	-151.987	-0.163	-0.012
-705.602	800.000	-0.034	-0.129
-704.587	-200.000	-0.030	-0.237
-703.572	145.001	-0.215	-0.290
-702.558	-116.749	-0.118	-0.022
-701.543	85.002	0.081	0.089
-700.529	-200.000	0.062	-0.433
-699.514	115.639	-0.056	-0.068
-698.499	-200.000	0.025	-0.200
-697.485	800.000	-0.064	-0.202
-696.470	-200.000	-0.063	0.383
-695.456	254.478	0.102	-0.175
-694.441	-108.954	-0.441	0.095
-693.426	-200.000	0.002	-0.094
-692.412	-91.749	-0.351	-0.100
-691.397	-145.692	-0.288	0.026
-690.383	22.221	0.186	-0.153
-689.368	-26.169	-0.096	-0.056
-688.354	48.634	0.016	-0.016
-687.339	-69.966	0.202	-0.078
-686.324	-200.000	0.034	-0.226
-685.310	8.768	-0.124	0.094
-684.295	-177.209	0.276	0.007
-683.281	88.859	-0.198	0.222
-682.266	163.182	-0.111	0.156
-681.251	800.000	0.126	-0.374
-680.237	582.893	-0.057	-0.139
-679.222	-70.189	0.228	0.087
-678.208	147.969	-0.201	0.273
-677.193	86.678	-0.091	0.101
-676.178	-55.683	-0.233	0.105
-675.164	96.656	-0.136	0.156
-674.149	129.939	0.126	0.162
-673.135	225.985	-0.141	-0.230
-672.120	-101.099	0.180	0.044
-671.105	-92.662	0.120	0.034
-670.091	800.000	-0.092	-0.272
-669.076	110.052	-0.039	0.047
-668.062	-112.639	-0.098	-0.020
-667.047	-185.649	-0.182	-0.003
-666.032	161.872	-0.047	0.066
-665.018	365.047	0.071	-0.143
-664.003	569.196	0.069	-0.169
-662.989	-103.837	-0.348	0.082
-661.974	800.000	-0.052	-0.177
-660.959	25.819	-0.173	-0.145
-659.945	94.976	-0.068	-0.078
-658.930	12.053	0.140	-0.108
-657.916	167.050	-0.099	0.141
-656.901	800.000	0.028	-0.077
-655.886	-90.879	-0.044	-0.013
-654.872	-172.528	0.277	0.009
-653.857	177.957	-0.139	0.203
-652.843	-90.721	-0.194	-0.056
-651.828	12.139	-0.378	0.292
-650.814	-108.957	-0.186	-0.040
-649.799	-25.263	0.151	-0.090
-648.784	800.000	0.036	0.112
-647.770	-77.119	-0.185	-0.065
-646.755	-68.200	-0.178	-0.069
-645.741	-127.207	0.164	-0.024
-644.726	-200.000	-0.001	-0.165
-643.711	-42.493	0.181	0.092
-642.697	-12.523	-0.164	0.107
-641.682	44.176	-0.081	0.075
-640.668	113.088	0.096	0.117
-639.653	-186.940	0.037	0.001
-638.638	-130.394	0.144	0.020
-637.624	800.000	0.065	-0.275
-636.609	13.332	-0.139	0.108
-635.595	-61.784	-0.206	-0.087
-634.580	-140.561	-0.165	-0.017
-633.565	-102.714	-0.096	0.023
-632.551	-200.000	-0.017	-0.163
-631.536	3.180	0.085	0.062
-630.522	-0.624	-0.085	0.061
-629.507	-116.924	-0.363	0.067
-628.492	136.853	0.154	0.202
-627.478	-12.132	-0.040	-0.026
-626.463	-29.766	0.090	-0.052
-625.449	45.960	-0.229	-0.212
-624.434	78.543	-0.299	-0.320
-623.419	12.803	-0.219	0.170
-622.405	-135.327	-0.138	-0.017
-621.390	380.305	-0.121	0.249
-620.376	-200.000	0.001	0.034
-619.361	-156.577	0.309	-0.019
-618.346	-200.000	-0.044	-0.232
-617.332	-200.000	0.025	-0.343
-616.317	-9.446	-0.363	-0.243
-615.303	11.976	-0.123	-0.095
-614.288	-84.241	0.256	-0.081
-613.273	-123.398	-0.242	0.039
-612.259	-163.958	-0.126	-0.006
-611.244	-200.000	-0.013	0.267
-610.230	-200.000	0.006	-0.222
-609.215	43.271	0.306	-0.280
-608.201	8.591	0.168	-0.127
-607.186	-92.718	-0.058	-0.016
-606.171	-146.098	-0.320	-0.028
-605.157	-36.600	-0.124	0.067
-604.142	-57.916	-0.423	0.185
-603.128	85.669	-0.084	0.093
-602.113	3.268	-0.110	0.080
-601.098	320.992	-0.135	-0.257
-600.084	800.000	0.065	-0.182
-599.069	-50.662	-0.181	-0.085
-598.055	-109.686	-0.127	0.027
-597.040	44.751	-0.101	0.093
-596.025	800.000	0.122	-0.455
-595.011	-145.122	0.201	-0.018
-593.996	90.686	-0.208	0.233
-592.982	305.658	-0.114	-0.213
-591.967	-200.000	-0.039	0.181
-590.952	164.547	0.133	-0.188
-589.938	-52.772	0.048	0.022
-588.923	42.767	0.203	-0.185
-587.909	-200.000	-0.015	-0.251
-586.894	-200.000	-0.087	-0.435
-585.879	-12.477	-0.233	-0.152
-584.865	-62.953	0.304	-0.126
-583.850	-200.000	-0.023	-0.202
-582.836	758.642	0.019	0.052
-581.821	1.646	0.068	0.049
-580.806	-92.721	-0.408	-0.114
-579.792	-16.086	0.383	0.244
-578.777	800.000	-0.031	0.128
-577.763	-156.470	-0.265	0.017
-576.748	-123.717	-0.248	-0.039
-575.733	-200.000	0.033	0.207
-574.719	147.882	0.105	-0.142
-573.704	119.837	-0.172	0.213
-572.690	-1.767	0.059	0.042
-571.675	32.136	-0.311	-0.269
-570.661	-23.937	-0.331	0.198
-569.646	-66.300	0.145	0.058
-568.631	-18.552	0.137	-0.085
-567.617	194.388	0.154	-0.234
-566.602	800.000	0.101	0.285
-565.588	327.590	-0.064	-0.124
-564.573	800.000	-0.133	0.375
-563.558	800.000	-0.102	-0.339
-562.544	19.198	0.270	-0.217
-561.529	178.352	0.077	-0.113
-560.515	99.999	-0.026	-0.030
-559.500	-59.925	-0.265	-0.113
-558.485	-5.109	-0.304	-0.209
-557.471	435.432	0.033	-0.073
-556.456	771.761	-0.021	-0.057
-555.442	39.560	-0.158	-0.142
-554.427	800.000	0.085	-0.338
-553.412	189.931	-0.083	0.124
-552.398	-6.218	0.046	-0.031
-551.383	-131.426	-0.100	0.013
-550.369	-164.653	0.346	-0.016
-549.354	-200.000	-0.029	-0.243
-548.339	53.861	0.114	0.110
-547.325	195.417	-0.178	0.270
-546.310	-145.520	-0.163	0.015
-545.296	800.000	-0.054	-0.151
-544.281	281.094	-0.094	-0.169
-543.266	-7.865	0.131	0.088
-542.252	800.000	-0.009	0.028
-541.237	145.589	0.106	-0.142
-540.223	599.079	-0.100	0.247
-539.208	164.691	-0.190	-0.267
-538.193	-11.883	-0.407	-0.267
-537.179	800.000	-0.015	-0.062
-536.164	800.000	0.057	0.232
-535.150	-53.730	-0.344	0.157
-534.135	-96.886	-0.249	0.065
-533.121	163.880	-0.130	-0.183
-532.106	-40.406	0.113	-0.059
-531.091	800.000	0.047	-0.172
-530.077	800.000	-0.112	-0.479
-529.062	-200.000	0.020	-0.280
-528.048	56.194	0.131	0.127
-527.033	260.391	0.078	-0.135
-526.018	-116.762	0.287	0.053
-525.004	-92.678	0.383	-0.107
-523.989	3.467	0.162	0.118
-522.975	-29.521	-0.211	0.120
-521.960	-85.385	0.182	0.057
-520.945	28.631	0.332	-0.281
-519.931	-180.164	-0.279	-0.006
-518.916	-31.776	0.238	0.133
-517.902	40.397	-0.248	-0.223
-516.887	-72.345	-0.170	0.063
-515.872	-200.000	-0.048	0.263
-514.858	33.968	-0.123	0.107
-513.843	800.000	0.029	-0.103
-512.829	54.644	-0.298	0.286
-511.814	-200.000	0.047	0.248
-510.799	260.582	-0.088	-0.152
-509.785	-26.333	0.168	0.098
-508.770	27.252	-0.205	-0.172
-507.756	-200.000	0.003	-0.288
-506.741	128.975	0.192	-0.245
-505.726	103.357	-0.170	0.199
-504.712	102.721	0.164	-0.191
-503.697	562.149	0.073	0.177
-502.683	-63.933	-0.189	0.077
-501.668	472.604	0.093	0.208
-500.653	46.923	-0.342	0.318
-499.639	-72.707	-0.241	0.088
-498.624	-1.776	0.237	-0.166
-497.610	-103.865	-0.263	-0.061
-496.595	672.029	0.136	-0.352
-495.581	-180.214	-0.110	-0.002
-494.566	93.776	0.048	0.054
-493.551	-200.000	-0.032	-0.187
-492.537	179.127	-0.180	0.263
-491.522	-173.940	-0.245	-0.007
-490.508	-114.636	0.159	-0.030
-489.493	19.314	0.058	-0.046
-488.478	-159.806	0.104	0.006
-487.464	-200.000	0.016	0.153
-486.449	-200.000	0.008	-0.055
-485.435	205.208	0.086	0.133
-484.420	-103.066	-0.269	-0.064
-483.405	-3.223	-0.114	-0.080
-482.391	-179.704	0.238	-0.005
-481.376	0.312	-0.455	0.324
-480.362	117.005	0.273	0.334
-479.347	-37.077	0.234	0.125
-478.332	82.319	0.293	0.316
-477.318	-145.224	0.039	-0.003
-476.303	-13.831	-0.209	0.135
-475.289	-98.269	0.148	-0.038
-474.274	-200.000	0.036	0.243
-473.259	-53.487	0.267	-0.122
-472.245	-13.406	-0.102	0.066
-471.230	58.812	0.192	0.188
-470.216	-64.963	0.062	0.025
-469.201	-152.924	0.477	0.034
-468.186	-10.571	0.231	-0.152
-467.172	47.804	-0.176	-0.163
-466.157	474.238	-0.073	0.165
-465.143	243.144	0.076	-0.127
-464.128	-98.836	0.120	0.030
-463.113	800.000	0.038	-0.132
-462.099	325.040	0.148	-0.282
-461.084	-5.313	0.152	-0.104
-460.070	-200.000	0.047	-0.428
-459.055	437.018	-0.056	-0.122
-458.040	800.000	0.060	0.175
-457.026	800.000	0.102	0.355
-456.011	-200.000	-0.032	-0.170
-454.997	166.550	0.162	0.228
-453.982	182.906	-0.188	-0.277
-452.968	-30.617	0.080	0.045
-451.953	-99.382	0.372	0.093
-450.938	-61.368	0.195	0.082
-449.924	544.668	-0.116	-0.276
-448.909	-85.286	-0.101	0.031
-447.895	-200.000	-0.032	-0.169
-446.880	800.000	-0.029	-0.115
-445.865	-200.000	0.071	-0.327
-444.851	-77.446	-0.213	-0.073
-443.836	-90.109	0.222	0.064
-442.822	44.184	0.269	-0.246
-441.807	160.224	0.089	0.124
-440.792	-57.127	0.275	0.121
-439.778	-200.000	0.003	-0.101
-438.763	101.031	-0.194	0.224
-437.749	-50.459	0.159	0.075
-436.734	67.027	-0.173	0.175
-435.719	6.994	-0.258	0.191
-434.705	192.139	0.232	-0.348
-433.690	800.000	0.040	-0.144
-432.676	-200.000	-0.030	0.251
-431.661	21.045	0.115	-0.093
-430.646	101.243	-0.224	-0.260
-429.632	-200.000	-0.021	-0.094
-428.617	481.471	0.127	0.287
-427.603	231.440	0.212	0.345
-426.588	-3.622	0.177	0.123
-425.573	-200.000	-0.010	0.403
-424.559	487.247	-0.039	0.088
-423.544	800.000	-0.109	-0.329
-422.530	-87.886	-0.051	-0.015
-421.515	54.146	0.018	0.017
-420.500	-85.720	0.031	0.010
-419.486	338.728	0.015	-0.029
-418.471	179.160	0.135	0.196
-417.457	190.693	0.148	0.222
-416.442	-200.000	0.020	0.177
-415.428	-77.901	-0.204	-0.070
-414.413	-16.402	0.174	-0.110
-413.398	156.427	0.075	-0.103
-412.384	800.000	0.070	-0.238
-411.369	-200.000	0.002	0.401
-410.355	-40.545	-0.222	0.114
-409.340	-200.000	-0.019	0.374
-408.325	54.189	-0.364	-0.348
-407.311	163.484	-0.080	0.112
-406.296	360.249	-0.082	0.164
-405.282	81.755	-0.143	-0.154
-404.267	-72.474	0.184	-0.068
-403.252	-200.000	-0.020	0.279
-402.238	-143.056	0.186	0.018
-401.223	-70.157	-0.140	-0.053
-400.209	91.912	0.129	0.145
-399.194	-98.522	0.230	-0.059
-398.179	-177.372	-0.148	0.004
-397.165	800.000	-0.105	0.329
-396.150	800.000	0.088	-0.347
-395.136	-24.219	0.151	0.089
-394.121	45.250	0.155	-0.142
-393.106	-15.397	0.037	0.024
-392.092	-31.210	0.317	0.177
-391.077	-187.961	0.273	-0.004
-390.063	800.000	-0.049	-0.148
-389.048	-159.845	0.230	-0.013
-388.033	-200.000	-0.033	0.156
-387.019	-35.581	0.347	-0.187
-386.004	-142.675	-0.193	-0.019
-384.990	101.356	-0.035	0.040
-383.975	389.196	0.177	-0.365
-382.960	786.559	-0.027	0.073
-381.946	-55.955	-0.072	0.032
-380.931	-5.462	0.059	0.040
-379.917	170.006	0.072	-0.103
-378.902	-200.000	0.039	0.247
-377.888	800.000	-0.026	-0.079
-376.873	-9.794	-0.231	-0.152
-375.858	-45.279	-0.094	-0.046
-374.844	-85.731	0.460	-0.142
-373.829	-137.991	0.223	-0.025
-372.815	-21.372	0.262	0.159
-371.800	605.246	0.113	0.281
-370.785	142.492	-0.166	-0.219
-369.771	253.119	0.279	-0.472
-368.756	580.541	-0.089	0.217
-367.742	84.518	0.051	0.055
-366.727	-200.000	0.009	-0.063
-365.712	-145.536	0.335	0.030
-364.698	800.000	0.028	-0.107
-363.683	-200.000	-0.031	0.165
-362.669	-147.670	-0.161	-0.013
-361.654	-138.134	0.465	-0.051
-360.639	-200.000	0.028	0.139
-359.625	463.659	-0.144	0.319
-358.610	-38.701	0.247	-0.129
-357.596	698.584	-0.121	-0.316
-356.581	332.725	-0.131	0.251
-355.566	-80.264	0.142	-0.047
-354.552	67.254	0.214	-0.217
-353.537	109.841	0.197	0.235
-352.523	178.029	-0.164	0.237
-351.508	124.902	0.235	0.294
-350.493	-65.505	0.125	-0.050
-349.479	86.433	-0.051	0.056
-348.464	-58.948	0.094	0.040
-347.450	-200.000	-0.004	-0.077
-346.435	61.603	0.044	-0.044
-345.420	800.000	0.050	0.197
-344.406	197.001	0.172	-0.261
-343.391	-143.008	-0.355	0.034
-342.377	-4.154	0.164	0.113
-341.362	96.852	0.101	0.114
-340.348	-200.000	0.015	0.167
-339.333	187.355	0.109	0.162
-338.318	60.619	0.228	0.224
-337.304	-200.000	-0.024	-0.180
-336.289	92.256	-0.340	-0.379
-335.275	-1.449	-0.199	0.139
-334.260	-9.642	0.158	0.104
-333.245	-200.000	-0.011	-0.189
-332.231	332.715	0.027	-0.052
-331.216	157.160	-0.131	-0.180
-330.202	-200.000	0.022	0.147
-329.187	-200.000	0.070	-0.428
-328.172	-95.907	0.204	0.054
-327.158	-60.957	-0.050	0.021
-326.143	-106.786	-0.091	0.020
-325.129	10.877	0.181	0.137
-324.114	137.693	-0.158	0.206
-323.099	-200.000	0.047	-0.391
-322.085	-163.177	0.207	-0.010
-321.070	-78.740	0.127	0.043
-320.056	-191.488	-0.233	-0.002
-319.041	800.000	-0.028	-0.083
-318.026	-115.339	0.115	-0.022
-317.012	-149.537	-0.044	0.003
-315.997	178.488	0.171	0.247
-314.983	-200.000	-0.008	-0.170
-313.968	-68.387	0.505	-0.194
-312.953	218.312	-0.182	-0.288
-311.939	-200.000	-0.042	-0.292
-310.924	-2.115	0.102	0.071
-309.910	-195.218	0.127	0.001
-308.895	800.000	-0.065	0.249
-307.880	12.048	-0.156	0.119
-306.866	-37.973	-0.057	0.030
-305.851	-75.831	-0.111	-0.039
-304.837	-200.000	0.057	-0.276
-303.822	389.001	-0.137	-0.281
-302.807	-56.106	-0.123	-0.054
-301.793	800.000	0.088	0.300
-300.778	-45.882	-0.196	-0.096
-299.764	-41.091	-0.121	0.062
-298.749	46.400	-0.140	0.129
-297.735	800.000	0.083	0.250
-296.720	-113.341	-0.375	0.073
-295.705	374.597	-0.035	-0.070
-294.691	-94.442	-0.243	0.066
-293.676	-44.499	-0.107	-0.053
-292.662	-117.895	-0.184	-0.033
-291.647	-15.904	0.177	-0.112
-290.632	-44.249	0.195	0.097
-289.618	325.944	-0.311	-0.589
-288.603	20.271	-0.143	-0.114
-287.589	800.000	0.063	0.271
-286.574	290.497	0.172	-0.310
-285.559	-158.850	0.140	0.008
-284.545	266.846	-0.107	0.185
-283.530	-130.701	0.260	0.035
-282.516	-59.243	0.432	0.184
-281.501	-67.879	-0.056	-0.022
-280.486	514.451	0.055	0.126
-279.472	270.933	0.073	0.126
-278.457	-27.787	0.139	-0.080
-277.443	-73.402	-0.343	0.124
-276.428	-76.204	0.052	0.018
-275.413	146.145	-0.155	-0.206
-274.399	63.416	-0.083	-0.082
-273.384	800.000	-0.077	-0.246
-272.370	-101.757	-0.314	0.075
-271.355	800.000	-0.084	0.262
-270.340	-64.517	-0.241	0.097
-269.326	800.000	0.078	-0.328
-268.311	800.000	-0.119	0.346
-267.297	92.175	0.189	0.210
-266.282	217.542	-0.033	0.052
-265.267	238.275	-0.064	0.104
-264.253	-109.717	-0.209	0.043
-263.238	56.219	0.141	-0.136
-262.224	134.715	-0.136	0.175
-261.209	-16.769	-0.072	-0.045
-260.195	202.555	0.057	0.087
-259.180	-17.231	-0.308	0.192
-258.165	-106.392	0.026	0.006
-257.151	-44.676	-0.093	-0.046
-256.136	-96.157	0.202	-0.053
-255.122	65.127	0.104	-0.104
-254.107	-200.000	-0.014	0.087
-253.092	800.000	-0.103	0.311
-252.078	-193.581	0.272	-0.002
-251.063	-200.000	0.016	0.124
-250.049	0.551	-0.161	0.114
-249.034	-200.000	-0.038	-0.186
-248.019	800.000	0.034	0.109
-247.005	243.444	0.110	0.183
-245.990	778.256	0.049	-0.131
-244.976	709.593	0.061	0.160
-243.961	-200.000	-0.004	0.141
-242.946	271.468	-0.085	0.149
-241.932	-200.000	-0.060	0.394
-240.917	194.531	-0.088	0.132
-239.903	237.568	-0.098	-0.161
-238.888	800.000	-0.092	-0.254
-237.873	210.495	-0.106	-0.165
-236.859	0.919	0.312	-0.220
-235.844	-108.333	0.520	-0.111
-234.830	-196.288	-0.335	0.002
-233.815	-143.453	-0.317	0.030
-232.800	152.182	-0.069	0.093
-231.786	-118.325	-0.221	0.039
-230.771	778.892	0.103	0.277
-229.757	-11.269	0.240	-0.156
-228.742	0.153	0.105	0.074
-227.727	38.836	-0.032	-0.028
-226.713	800.000	0.107	0.405
-225.698	656.718	0.168	0.427
-224.684	447.892	0.094	0.205
-223.669	0.701	0.053	-0.038
-222.655	800.000	-0.076	-0.317
-221.640	800.000	-0.031	-0.123
-220.625	800.000	-0.030	0.128
-219.611	-170.174	-0.146	0.005
-218.596	156.237	0.051	-0.069
-217.582	-28.805	0.110	-0.063
-216.567	-200.000	0.041	0.263
-215.552	800.000	0.034	0.101
-214.538	121.205	-0.238	-0.292
-213.523	-65.296	0.169	-0.067
-212.509	-48.847	-0.028	-0.013
-211.494	-104.531	0.219	-0.050
-210.479	273.727	0.064	0.111
-209.465	87.911	-0.254	0.278
-208.450	-95.913	0.146	0.038
-207.436	-200.000	0.023	-0.141
-206.421	800.000	-0.050	0.165
-205.406	-200.000	-0.059	0.287
-204.392	-190.707	-0.319	-0.003
-203.377	26.369	0.028	0.023
-202.363	800.000	0.030	0.113
-201.348	111.801	0.161	-0.191
-200.333	800.000	-0.081	0.231
-199.319	162.566	0.022	-0.030
-198.304	-31.264	0.143	0.080
-197.290	-113.304	0.177	-0.034
-196.275	-200.000	0.005	-0.096
-195.260	-200.000	-0.020	0.216
-194.246	800.000	-0.062	0.208
-193.231	-147.487	-0.446	-0.037
-192.217	-200.000	0.017	0.134
-191.202	11.533	0.043	0.033
-190.187	-120.696	-0.468	0.078
-189.173	-139.380	0.089	-0.009
-188.158	581.219	-0.143	-0.346
-187.144	14.268	0.052	0.040
-186.129	240.642	-0.085	-0.141
-185.114	-126.123	-0.281	-0.041
-184.100	-10.524	0.198	0.129
-183.085	226.071	0.101	0.162
-182.071	800.000	0.043	-0.126
-181.056	-200.000	0.004	0.113
-180.042	577.800	0.120	-0.290
-179.027	-200.000	-0.003	0.019
-178.012	80.900	-0.213	-0.226
-176.998	53.552	-0.212	-0.201
-175.983	166.413	0.311	0.434
-174.969	-57.621	-0.272	-0.117
-173.954	341.262	0.099	-0.191
-172.939	-98.146	0.154	0.039
-171.925	-38.558	-0.207	0.108
-170.910	209.520	0.107	-0.165
-169.896	-45.874	-0.039	-0.019
-168.881	50.881	-0.154	0.144
-167.866	-103.898	-0.350	0.081
-166.852	13.692	0.146	-0.112
-165.837	672.805	0.091	0.233
-164.823	5.201	0.110	0.080
-163.808	-92.765	0.413	0.114
-162.793	108.203	-0.135	-0.158
-161.779	-200.000	-0.007	-0.107
-160.764	351.470	0.051	-0.099
-159.750	-75.646	0.281	-0.098
-158.735	-122.791	-0.154	0.025
-157.720	189.486	-0.155	0.229
-156.706	-200.000	-0.015	0.310
-155.691	-17.134	0.135	-0.084
-154.677	-60.544	0.112	-0.047
-153.662	372.209	0.128	0.256
-152.647	97.501	0.159	0.180
-151.633	-12.718	-0.057	0.036
-150.618	800.000	0.044	0.174
-149.604	-200.000	-0.019	0.162
-148.589	-200.000	0.018	-0.184
-147.574	-200.000	0.013	-0.200
-146.560	142.174	0.067	0.087
-145.545	-49.290	-0.110	0.052
-144.531	53.771	-0.152	-0.144
-143.516	-97.802	0.334	-0.085
-142.502	-50.919	-0.210	0.097
-141.487	-98.051	0.086	0.022
-140.472	-141.142	-0.327	0.033
-139.458	-120.656	0.214	-0.036
-138.443	235.045	-0.133	-0.216
-137.429	-5.066	0.005	0.003
-136.414	-32.274	0.142	-0.078
-135.399	800.000	0.081	-0.314
-134.385	279.480	0.063	0.110
-133.370	-125.947	-0.220	-0.033
-132.356	-200.000	0.000	-0.016
-131.341	-46.076	-0.301	0.146
-130.326	-129.070	-0.323	0.044
-129.312	800.000	0.034	0.112
-128.297	-147.584	0.239	-0.020
-127.283	91.627	0.227	-0.250
-126.268	82.744	0.231	-0.247
-125.253	-200.000	0.025	0.197
-124.239	42.446	-0.050	-0.044
-123.224	-200.000	0.022	0.124
-122.210	-200.000	0.009	0.082
-121.195	424.156	-0.120	-0.254
