DTS Sentinel unit serial number:	SN413079Multiplexer serial number:	ORYXHardware model number:	OX4-SRSoftware version number:	ORYX F/W v4.00 Oryx Data Collector v3.7.2.0data status	okinstallation	princeton_trtdifferential loss correction	single-endedforward channel	channel 3reverse channel	N/Adate	2019/09/15time	22:48:35forward acquisition time	60.00reverse acquisition time	0.00gamma	496.2192k internal	0.2333k external	0.2333temperature offset calibration	0.9949default loss term (dB/km)	0.3790temperature slope calibration	1.0000multiplexer offset coefficient	1.0000multiplexer slope coefficient	1.0000fibre end	0.00T internal ref (°C)	28.78T ext. ref 1 (°C)	8.88T ext. ref 2 (°C)	22.33length (m)	temperature (°C)	Stokes	anti-Stokes-747.200	91.554	-0.047	0.053
-746.185	290.646	0.077	0.140
-745.171	-104.025	0.113	-0.027
-744.156	-200.000	-0.045	0.508
-743.142	-131.896	-0.093	0.012
-742.127	409.273	-0.089	0.190
-741.112	18.945	0.156	0.126
-740.098	800.000	-0.086	0.340
-739.083	-200.000	0.021	0.302
-738.069	-200.000	-0.057	0.264
-737.054	173.389	-0.097	-0.140
-736.039	-68.882	0.134	-0.052
-735.025	-135.665	0.065	0.008
-734.010	-44.350	-0.154	-0.078
-732.996	-10.372	-0.348	-0.232
-731.981	397.900	-0.188	-0.394
-730.966	-139.660	-0.197	0.021
-729.952	31.095	-0.126	-0.108
-728.937	209.980	-0.160	0.252
-727.923	-200.000	0.011	-0.314
-726.908	-200.000	0.021	0.233
-725.894	530.061	-0.099	0.236
-724.879	-120.246	0.150	0.026
-723.864	408.891	-0.114	-0.242
-722.850	180.437	0.087	-0.129
-721.835	128.187	0.104	-0.133
-720.821	145.986	-0.178	0.240
-719.806	-200.000	-0.024	-0.163
-718.791	258.511	-0.070	-0.121
-717.777	800.000	0.043	-0.166
-716.762	-50.835	-0.483	-0.228
-715.748	250.180	-0.113	0.193
-714.733	-81.980	-0.134	-0.044
-713.718	-200.000	0.000	0.058
-712.704	-27.269	-0.147	-0.086
-711.689	800.000	0.092	-0.301
-710.675	-47.786	0.097	0.047
-709.660	90.495	-0.106	-0.119
-708.645	-43.704	0.128	0.065
-707.631	-101.964	0.161	0.039
-706.616	-42.016	-0.139	0.072
-705.602	-110.561	-0.193	0.040
-704.587	-142.917	-0.268	0.026
-703.572	73.176	-0.354	-0.372
-702.558	-104.827	-0.418	-0.097
-701.543	-29.477	0.309	0.178
-700.529	114.109	-0.388	0.473
-699.514	179.932	0.166	-0.244
-698.499	800.000	-0.117	-0.332
-697.485	-101.144	0.300	-0.074
-696.470	603.805	0.095	0.237
-695.456	-158.171	-0.324	-0.019
-694.441	16.351	0.097	0.077
-693.426	108.392	-0.121	-0.144
-692.412	-88.393	0.258	0.077
-691.397	-200.000	0.026	-0.127
-690.383	-200.000	0.033	-0.411
-689.368	379.489	-0.188	-0.387
-688.354	15.885	0.080	0.063
-687.339	51.866	-0.138	0.132
-686.324	-2.655	0.239	0.168
-685.310	-200.000	-0.004	0.067
-684.295	800.000	0.048	0.158
-683.281	-40.041	0.135	0.070
-682.266	-21.177	0.185	0.113
-681.251	-200.000	-0.012	0.079
-680.237	218.637	0.148	0.236
-679.222	771.127	0.150	0.410
-678.208	58.604	0.284	-0.279
-677.193	-128.319	-0.183	-0.026
-676.178	800.000	-0.108	-0.406
-675.164	176.281	-0.258	-0.376
-674.149	-75.689	-0.367	0.131
-673.135	-95.196	-0.130	-0.035
-672.120	-53.485	-0.382	-0.175
-671.105	-143.239	-0.236	-0.023
-670.091	308.585	0.173	-0.324
-669.076	-41.179	0.098	0.051
-668.062	-101.359	-0.094	-0.023
-667.047	800.000	0.134	-0.411
-666.032	17.165	-0.128	-0.101
-665.018	800.000	-0.039	-0.132
-664.003	-200.000	-0.034	0.150
-662.989	168.455	-0.075	0.107
-661.974	27.280	0.098	0.083
-660.959	585.549	0.177	-0.436
-659.945	212.567	-0.222	-0.351
-658.930	337.670	0.050	0.098
-657.916	376.419	-0.093	-0.191
-656.901	-200.000	-0.007	0.401
-655.886	-200.000	-0.033	0.165
-654.872	-39.140	0.279	0.147
-653.857	478.367	0.155	-0.352
-652.843	-200.000	-0.063	-0.334
-651.828	398.542	0.109	0.228
-650.814	-41.122	0.053	-0.027
-649.799	-95.203	0.071	-0.019
-648.784	-200.000	-0.002	0.182
-647.770	-200.000	-0.017	0.267
-646.755	-71.731	-0.321	-0.120
-645.741	-57.586	0.137	-0.060
-644.726	289.755	-0.061	-0.110
-643.711	159.670	-0.228	0.318
-642.697	-149.435	-0.538	0.043
-641.682	157.150	-0.026	0.036
-640.668	-200.000	0.042	-0.239
-639.653	230.173	0.153	-0.251
-638.638	-141.118	0.256	-0.026
-637.624	10.040	0.059	0.045
-636.609	800.000	-0.048	-0.193
-635.595	800.000	-0.045	0.182
-634.580	-58.373	-0.003	0.001
-633.565	-126.884	0.226	0.033
-632.551	403.133	-0.136	0.287
-631.536	4.445	-0.169	-0.124
-630.522	-4.947	0.013	0.009
-629.507	-186.509	-0.195	-0.003
-628.492	14.570	0.067	-0.052
-627.478	65.238	0.306	-0.309
-626.463	-62.770	0.421	-0.175
-625.449	-97.002	-0.122	-0.032
-624.434	-200.000	-0.066	-0.299
-623.419	-126.887	0.021	-0.003
-622.405	-70.804	0.534	-0.202
-621.390	800.000	0.058	0.237
-620.376	45.098	-0.291	0.268
-619.361	800.000	0.046	-0.144
-618.346	560.906	-0.119	0.289
-617.332	-151.940	-0.222	0.016
-616.317	91.303	-0.069	0.077
-615.303	-68.574	-0.365	0.141
-614.288	19.008	0.120	0.096
-613.273	499.193	-0.080	0.184
-612.259	330.411	0.176	-0.340
-611.244	112.784	0.029	0.035
-610.230	289.735	-0.020	-0.036
-609.215	800.000	0.031	-0.110
-608.201	283.698	0.053	0.095
-607.186	-200.000	0.005	0.222
-606.171	74.636	-0.119	-0.125
-605.157	357.919	-0.148	0.295
-604.142	-200.000	0.020	0.267
-603.128	-9.830	0.074	-0.049
-602.113	-75.539	0.176	-0.063
-601.098	434.257	-0.118	-0.257
-600.084	-70.183	0.253	-0.096
-599.069	-200.000	-0.010	0.087
-598.055	-200.000	-0.059	-0.388
-597.040	-7.293	-0.051	-0.035
-596.025	-200.000	0.011	-0.303
-595.011	40.551	-0.311	-0.280
-593.996	208.949	0.202	-0.315
-592.982	-145.314	0.276	0.025
-591.967	185.295	0.074	0.110
-590.952	-200.000	-0.068	-0.347
-589.938	-108.586	0.255	0.055
-588.923	-166.089	0.226	-0.010
-587.909	-200.000	-0.008	-0.083
-586.894	800.000	0.068	-0.231
-585.879	524.685	-0.079	0.186
-584.865	-200.000	-0.005	0.063
-583.850	245.712	-0.057	0.095
-582.836	85.211	0.162	0.178
-581.821	117.466	-0.236	0.290
-580.806	800.000	0.032	-0.121
-579.792	-200.000	0.020	-0.185
-578.777	13.590	-0.218	0.169
-577.763	45.323	-0.034	-0.032
-576.748	593.103	-0.192	0.474
-575.733	40.029	0.178	-0.160
-574.719	800.000	0.080	-0.234
-573.704	242.299	-0.187	-0.313
-572.690	-106.886	0.123	0.027
-571.675	277.784	0.107	-0.191
-570.661	794.685	-0.063	0.173
-569.646	-200.000	-0.054	-0.331
-568.631	-200.000	-0.057	0.356
-567.617	99.209	-0.060	-0.070
-566.602	266.900	0.144	-0.251
-565.588	129.473	-0.306	0.390
-564.573	-114.098	0.066	-0.013
-563.558	-11.056	0.155	-0.102
-562.544	-20.850	0.022	-0.014
-561.529	40.115	-0.081	-0.073
-560.515	-85.648	-0.046	-0.014
-559.500	54.265	-0.073	-0.070
-558.485	-200.000	0.031	0.299
-557.471	242.522	-0.177	0.296
-556.456	709.401	-0.139	0.368
-555.442	-148.879	0.088	0.007
-554.427	-21.425	-0.267	0.162
-553.412	-111.964	0.085	0.017
-552.398	-117.283	-0.342	0.062
-551.383	-126.585	0.098	0.014
-550.369	-77.995	-0.092	0.031
-549.354	-154.458	0.283	-0.019
-548.339	314.690	-0.175	0.329
-547.325	-200.000	-0.006	0.043
-546.310	-74.100	-0.034	-0.012
-545.296	-24.869	0.073	-0.043
-544.281	-182.010	-0.457	0.009
-543.266	392.890	0.070	0.146
-542.252	-72.895	0.066	0.024
-541.237	-200.000	0.023	0.245
-540.223	36.841	-0.071	-0.062
-539.208	-136.438	-0.246	0.029
-538.193	-200.000	-0.003	-0.136
-537.179	-47.688	0.232	-0.112
-536.164	461.378	0.079	-0.175
-535.150	149.733	-0.062	-0.084
-534.135	-200.000	0.039	-0.187
-533.121	800.000	-0.048	0.169
-532.106	-74.230	0.368	-0.133
-531.091	800.000	0.114	-0.491
-530.077	-200.000	0.009	0.178
-529.062	25.118	0.022	-0.019
-528.048	800.000	0.089	-0.346
-527.033	65.796	0.083	-0.084
-526.018	28.169	-0.226	0.191
-525.004	48.381	-0.158	0.147
-523.989	18.796	0.079	0.063
-522.975	-107.578	0.230	0.050
-521.960	-200.000	0.006	0.201
-520.945	-136.799	0.176	-0.020
-519.931	-29.935	0.325	-0.184
-518.916	530.740	0.037	0.086
-517.902	225.794	-0.050	0.080
-516.887	454.109	0.052	-0.114
-515.872	487.315	0.269	0.611
-514.858	-107.988	-0.082	-0.018
-513.843	800.000	0.055	0.190
-512.829	117.654	0.025	0.031
-511.814	596.299	-0.151	-0.373
-510.799	36.710	-0.244	0.215
-509.785	213.533	-0.037	0.058
-508.770	20.158	0.053	0.043
-507.756	-200.000	-0.010	-0.078
-506.741	-200.000	0.001	-0.014
-505.726	-73.908	0.402	0.145
-504.712	800.000	0.158	-0.458
-503.697	800.000	0.074	0.210
-502.683	-151.847	-0.298	0.022
-501.668	-200.000	0.024	-0.142
-500.653	126.671	-0.051	-0.064
-499.639	44.175	-0.129	-0.118
-498.624	-32.677	-0.187	0.104
-497.610	-200.000	-0.062	0.396
-496.595	-200.000	-0.010	0.166
-495.581	800.000	0.034	0.095
-494.566	-153.268	-0.225	-0.016
-493.551	54.277	-0.123	-0.117
-492.537	128.787	-0.176	0.223
-491.522	-123.604	-0.479	0.076
-490.508	337.335	0.122	0.236
-489.493	83.548	-0.216	0.234
-488.478	416.964	-0.062	-0.132
-487.464	27.521	-0.094	-0.079
-486.449	-35.748	-0.113	-0.061
-485.435	61.209	0.108	-0.107
-484.420	219.500	0.090	0.143
-483.405	96.208	0.066	-0.076
-482.391	28.294	-0.319	0.269
-481.376	84.958	0.059	0.065
-480.362	37.050	-0.082	-0.072
-479.347	-200.000	-0.015	0.102
-478.332	138.590	0.087	0.113
-477.318	70.217	0.197	-0.202
-476.303	-200.000	0.047	0.215
-475.289	445.153	0.147	-0.322
-474.274	-125.545	-0.120	-0.018
-473.259	-200.000	-0.015	0.201
-472.245	-99.216	-0.285	-0.072
-471.230	140.756	0.050	0.066
-470.216	71.627	0.159	-0.164
-469.201	-113.912	0.035	-0.007
-468.186	-78.141	0.110	-0.038
-467.172	-200.000	0.054	-0.261
-466.157	-123.978	0.228	-0.036
-465.143	20.410	-0.235	-0.189
-464.128	132.612	0.167	0.215
-463.113	-200.000	0.008	0.217
-462.099	-172.901	-0.180	-0.006
-461.084	-200.000	-0.013	-0.245
-460.070	-150.945	0.153	0.012
-459.055	42.285	0.262	-0.237
-458.040	-200.000	-0.033	0.154
-457.026	-200.000	0.008	0.123
-456.011	97.572	-0.230	-0.263
-454.997	23.625	-0.184	0.150
-453.982	800.000	0.040	0.121
-452.968	185.018	-0.199	0.294
-451.953	800.000	0.062	-0.266
-450.938	-123.901	0.219	-0.034
-449.924	-22.694	-0.225	0.135
-448.909	33.701	-0.164	-0.142
-447.895	-200.000	-0.042	-0.203
-446.880	-18.145	0.243	-0.151
-445.865	-200.000	0.047	0.268
-444.851	147.457	0.164	0.220
-443.836	-200.000	-0.044	0.315
-442.822	2.758	0.122	-0.088
-441.807	-37.028	-0.141	0.075
-440.792	-61.415	0.388	0.162
-439.778	86.379	-0.234	-0.256
-438.763	270.132	0.166	-0.290
-437.749	-130.601	-0.145	-0.019
-436.734	-38.772	-0.217	0.114
-435.719	-2.814	-0.392	0.272
-434.705	800.000	0.015	-0.058
-433.690	-39.493	0.263	0.137
-432.676	11.792	0.281	-0.214
-431.661	94.224	-0.113	-0.127
-430.646	138.042	-0.086	0.112
-429.632	-200.000	-0.010	-0.247
-428.617	-200.000	0.014	0.137
-427.603	-76.870	0.090	0.031
-426.588	227.998	0.124	0.200
-425.573	-36.926	-0.238	-0.127
-424.559	-200.000	-0.005	-0.038
-423.544	-200.000	-0.017	0.156
-422.530	-150.841	0.152	0.011
-421.515	-200.000	-0.037	0.276
-420.500	800.000	0.071	0.297
-419.486	-41.785	-0.191	-0.097
-418.471	35.312	0.352	0.306
-417.457	202.962	0.256	0.393
-416.442	41.262	0.214	-0.192
-415.428	-200.000	0.026	-0.326
-414.413	800.000	0.163	-0.578
-413.398	-31.768	0.178	0.099
-412.384	698.520	-0.064	-0.168
-411.369	-112.237	0.247	0.049
-410.355	-156.160	-0.229	-0.014
-409.340	-200.000	-0.091	0.476
-408.325	-200.000	0.068	-0.440
-407.311	-44.379	0.102	0.051
-406.296	376.510	0.065	0.132
-405.282	-46.508	-0.205	0.100
-404.267	800.000	0.091	0.306
-403.252	68.205	0.211	-0.215
-402.238	-59.740	-0.206	0.088
-401.223	-200.000	-0.008	-0.241
-400.209	-176.832	-0.299	-0.008
-399.194	7.579	0.223	-0.165
-398.179	8.676	-0.058	0.043
-397.165	-15.217	0.156	-0.099
-396.150	520.584	-0.099	0.231
-395.136	69.605	-0.130	0.133
-394.121	426.338	-0.152	-0.326
-393.106	20.865	-0.144	0.116
-392.092	-200.000	0.004	0.250
-391.077	61.653	-0.171	0.169
-390.063	59.005	0.231	-0.225
-389.048	311.247	-0.072	-0.134
-388.033	568.440	0.099	0.239
-387.019	46.723	-0.229	0.211
-386.004	46.690	0.237	0.218
-384.990	-42.521	0.166	0.084
-383.975	-200.000	-0.020	-0.237
-382.960	196.974	0.096	-0.145
-381.946	-126.802	-0.070	-0.010
-380.931	143.081	0.073	-0.096
-379.917	800.000	0.073	-0.222
-378.902	235.354	-0.037	-0.061
-377.888	800.000	-0.077	-0.285
-376.873	-105.294	-0.283	-0.064
-375.858	-121.265	-0.148	0.025
-374.844	-135.200	0.243	0.029
-373.829	-41.939	-0.404	0.205
-372.815	-110.134	0.092	-0.019
-371.800	-7.066	-0.186	0.125
-370.785	-167.414	-0.136	-0.005
-369.771	800.000	-0.144	0.413
-368.756	-191.522	0.412	0.004
-367.742	800.000	0.035	-0.118
-366.727	466.832	-0.026	-0.059
-365.712	714.624	0.037	0.098
-364.698	442.852	0.083	0.180
-363.683	324.230	0.147	-0.277
-362.669	-66.694	-0.371	-0.146
-361.654	-137.702	-0.353	-0.039
-360.639	-50.075	0.316	-0.148
-359.625	-200.000	0.044	-0.446
-358.610	-200.000	0.074	0.436
-357.596	800.000	-0.056	-0.225
-356.581	-137.958	-0.132	0.015
-355.566	7.288	-0.167	-0.123
-354.552	800.000	0.076	-0.243
-353.537	800.000	0.072	-0.203
-352.523	-185.422	-0.163	0.002
-351.508	717.685	0.061	0.161
-350.493	-87.008	0.284	0.086
-349.479	103.236	0.078	0.090
-348.464	307.211	-0.084	-0.155
-347.450	-41.835	0.033	0.017
-346.435	43.545	0.088	-0.080
-345.420	-50.328	0.185	-0.087
-344.406	-45.363	0.118	0.058
-343.391	96.658	0.046	-0.053
-342.377	-200.000	0.065	-0.337
-341.362	46.580	0.133	-0.123
-340.348	-200.000	-0.034	-0.221
-339.333	-19.685	-0.245	0.150
-338.318	-19.736	0.326	0.200
-337.304	-200.000	0.060	-0.328
-336.289	-91.687	-0.059	0.017
-335.275	-17.226	-0.247	0.154
-334.260	-11.453	0.173	-0.113
-333.245	800.000	-0.177	-0.517
-332.231	-126.483	-0.387	0.057
-331.216	116.890	-0.176	0.214
-330.202	-109.585	0.256	0.053
-329.187	-59.854	-0.118	0.050
-328.172	-200.000	0.000	-0.139
-327.158	-17.996	-0.272	0.169
-326.143	-200.000	0.031	0.196
-325.129	800.000	-0.038	-0.137
-324.114	-170.638	-0.115	0.004
-323.099	98.764	-0.042	-0.048
-322.085	-200.000	-0.008	-0.115
-321.070	-86.533	-0.323	-0.098
-320.056	-200.000	-0.001	-0.084
-319.041	-189.022	0.047	-0.001
-318.026	-200.000	-0.001	0.327
-317.012	-149.455	0.264	-0.021
-315.997	53.613	0.096	-0.091
-314.983	-64.964	-0.273	0.109
-313.968	-21.063	0.211	-0.128
-312.953	-4.228	0.046	-0.031
-311.939	-86.521	0.202	0.061
-310.924	-67.686	0.231	0.090
-309.910	37.607	0.273	-0.240
-308.895	40.329	-0.137	0.122
-307.880	-21.638	0.312	0.188
-306.866	-54.893	-0.079	-0.035
-305.851	-109.651	-0.142	-0.030
-304.837	-76.416	0.105	-0.036
-303.822	71.844	-0.240	-0.246
-302.807	800.000	-0.098	0.359
-301.793	-200.000	-0.018	0.333
-300.778	-169.986	0.156	0.006
-299.764	-77.670	-0.203	-0.069
-298.749	-172.764	-0.227	0.007
-297.735	-93.893	-0.442	0.120
-296.720	-4.626	0.161	-0.110
-295.705	-163.638	0.136	0.006
-294.691	-62.623	-0.149	0.061
-293.676	800.000	-0.051	0.215
-292.662	263.292	-0.029	0.050
-291.647	-106.909	0.266	-0.058
-290.632	-66.430	-0.459	-0.180
-289.618	-200.000	0.037	0.206
-288.603	527.851	-0.059	0.138
-287.589	599.534	-0.091	-0.222
-286.574	320.776	-0.121	-0.227
-285.559	261.794	0.116	-0.199
-284.545	-200.000	-0.037	0.254
-283.530	262.920	0.081	0.138
-282.516	-92.783	0.188	-0.052
-281.501	-1.967	-0.165	0.114
-280.486	11.823	0.190	-0.144
-279.472	-200.000	0.021	0.123
-278.457	-200.000	0.027	-0.278
-277.443	235.860	0.113	0.185
-276.428	-200.000	0.007	0.209
-275.413	-4.053	0.130	-0.089
-274.399	-39.051	0.056	-0.029
-273.384	-86.680	-0.101	-0.030
-272.370	80.270	0.129	0.137
-271.355	29.342	-0.189	-0.159
-270.340	-55.890	0.202	0.089
-269.326	-115.627	-0.534	-0.099
-268.311	800.000	0.054	-0.195
-267.297	-74.619	0.282	0.100
-266.282	-77.648	-0.316	-0.108
-265.267	-38.730	0.205	-0.107
-264.253	-55.822	0.323	-0.142
-263.238	16.764	-0.154	0.120
-262.224	-175.940	0.131	0.003
-261.209	-200.000	-0.107	-0.524
-260.195	41.952	0.225	-0.202
-259.180	-200.000	-0.032	-0.155
-258.165	-200.000	0.023	0.291
-257.151	-200.000	0.001	0.050
-256.136	-200.000	-0.002	0.086
-255.122	-159.501	0.109	-0.006
-254.107	2.038	0.023	0.016
-253.092	51.580	-0.224	-0.210
-252.078	-76.338	0.430	-0.149
-251.063	-53.877	-0.084	-0.038
-250.049	800.000	0.071	-0.196
-249.034	800.000	-0.034	0.144
-248.019	-200.000	-0.038	0.185
-247.005	-200.000	-0.037	0.233
-245.990	800.000	0.162	-0.453
-244.976	127.602	0.204	-0.255
-243.961	117.093	-0.163	0.197
-242.946	306.550	0.067	-0.123
-241.932	135.843	0.193	0.248
-240.917	-131.503	-0.179	0.023
-239.903	37.246	-0.117	0.102
-238.888	-104.851	0.069	0.016
-237.873	-72.545	0.317	0.115
-236.859	-38.954	0.324	-0.168
-235.844	124.238	0.128	-0.158
-234.830	129.645	0.094	0.118
-233.815	-57.128	-0.117	0.051
-232.800	158.134	-0.240	0.328
-231.786	800.000	-0.046	0.198
-230.771	417.879	-0.020	0.043
-229.757	490.683	-0.128	0.289
-228.742	327.129	-0.081	-0.153
-227.727	800.000	0.085	-0.232
-226.713	-150.499	-0.052	0.004
-225.698	595.839	0.065	0.158
-224.684	48.157	-0.040	-0.037
-223.669	87.511	0.174	0.190
-222.655	-3.456	0.206	0.141
-221.640	800.000	0.064	0.253
-220.625	-200.000	-0.049	-0.000
-219.611	137.527	-0.187	-0.242
-218.596	-105.847	-0.095	0.021
-217.582	93.443	-0.147	-0.164
-216.567	377.528	0.121	0.243
-215.552	-2.821	0.190	-0.130
-214.538	-97.797	-0.047	-0.012
-213.523	-106.236	0.211	-0.047
-212.509	-57.464	-0.358	0.155
-211.494	111.074	0.221	-0.262
-210.479	-117.808	0.275	-0.049
-209.465	-116.832	0.180	0.033
-208.450	800.000	0.107	-0.418
-207.436	246.133	-0.046	-0.076
-206.421	-79.652	0.097	0.032
-205.406	-200.000	0.015	-0.107
-204.392	-101.458	-0.252	0.060
-203.377	-200.000	0.007	0.221
-202.363	-126.474	-0.297	0.044
-201.348	-145.277	0.303	-0.027
-200.333	-200.000	0.042	0.272
-199.319	308.211	0.112	-0.206
-198.304	-79.136	-0.310	0.104
-197.290	-200.000	-0.019	-0.266
-196.275	-119.102	-0.297	0.051
-195.260	-115.375	0.326	-0.060
-194.246	158.956	0.231	0.316
-193.231	-200.000	-0.034	0.409
-192.217	-140.088	-0.104	0.011
-191.202	-55.113	-0.248	-0.110
-190.187	-47.756	0.284	0.135
-189.173	-31.523	-0.104	0.058
-188.158	-103.632	-0.267	0.062
-187.144	-35.204	0.097	0.052
-186.129	88.966	0.070	-0.077
-185.114	111.683	-0.084	0.100
-184.100	190.693	0.100	-0.148
-183.085	800.000	-0.063	-0.241
-182.071	84.502	0.098	0.105
-181.056	-100.629	-0.222	-0.054
-180.042	-59.075	0.066	0.028
-179.027	-200.000	-0.012	-0.330
-178.012	-109.235	-0.143	-0.030
-176.998	214.190	-0.156	-0.243
-175.983	-200.000	0.000	0.121
-174.969	-110.822	0.458	0.093
-173.954	-124.195	0.150	0.023
-172.939	92.798	0.190	0.211
-171.925	270.900	0.137	0.238
-170.910	-38.934	0.310	-0.161
-169.896	-200.000	0.020	-0.163
-168.881	-144.584	0.042	-0.004
-167.866	800.000	-0.049	0.153
-166.852	-8.029	-0.400	0.265
-165.837	-174.822	-0.173	-0.005
-164.823	800.000	-0.014	-0.041
-163.808	747.995	0.028	-0.073
-162.793	-161.490	-0.143	-0.007
-161.779	800.000	0.025	-0.071
-160.764	-198.837	-0.362	0.002
-159.750	21.374	0.040	0.032
-158.735	-1.731	-0.393	-0.272
-157.720	626.776	0.084	-0.208
-156.706	-179.594	0.057	0.001
-155.691	516.450	-0.043	-0.098
-154.677	-200.000	-0.004	-0.083
-153.662	-75.280	0.319	-0.112
-152.647	31.243	-0.193	0.163
-151.633	-61.844	0.159	0.065
-150.618	28.167	0.243	-0.201
-149.604	-144.097	0.007	-0.001
-148.589	-144.162	-0.314	0.029
-147.574	66.778	0.088	-0.088
-146.560	800.000	0.153	0.470
-145.545	-200.000	-0.003	0.260
-144.531	60.850	0.205	0.200
-143.516	-155.996	-0.356	-0.022
-142.502	-115.194	-0.218	0.041
-141.487	-110.974	0.219	-0.044
-140.472	128.620	0.090	-0.113
-139.458	-158.617	0.282	0.016
-138.443	0.814	-0.140	0.098
-137.429	47.473	0.117	0.107
-136.414	42.936	-0.242	-0.217
-135.399	-19.966	-0.232	-0.140
-134.385	439.894	0.088	0.189
-133.370	618.541	-0.194	0.479
-132.356	-73.855	0.187	-0.067
-131.341	-99.862	-0.115	-0.028
-130.326	2.879	-0.227	0.162
-129.312	261.263	-0.055	0.093
-128.297	-78.986	0.115	-0.038
-127.283	75.147	-0.187	-0.194
-126.268	-13.128	-0.045	0.029
-125.253	-200.000	0.100	0.465
-124.239	800.000	0.002	-0.006
-123.224	456.377	0.143	-0.311
-122.210	-200.000	-0.329	0.001
-121.195	302.689	0.138	0.250
