DTS Sentinel unit serial number:	SN413079Multiplexer serial number:	ORYXHardware model number:	OX4-SRSoftware version number:	ORYX F/W v4.00 Oryx Data Collector v3.7.2.0data status	okinstallation	princeton_trtdifferential loss correction	single-endedforward channel	channel 3reverse channel	N/Adate	2019/09/13time	19:16:35forward acquisition time	60.00reverse acquisition time	0.00gamma	496.2192k internal	0.2325k external	0.2325temperature offset calibration	1.0093default loss term (dB/km)	0.3790temperature slope calibration	1.0000multiplexer offset coefficient	1.0000multiplexer slope coefficient	1.0000fibre end	0.00T internal ref (°C)	31.25T ext. ref 1 (°C)	3.80T ext. ref 2 (°C)	24.67length (m)	temperature (°C)	Stokes	anti-Stokes-747.200	-157.537	0.437	-0.026
-746.185	115.986	-0.250	0.308
-745.171	-128.221	0.329	0.047
-744.156	-144.467	-0.077	-0.007
-743.142	-149.695	0.268	-0.021
-742.127	-100.374	0.486	0.122
-741.112	27.714	-0.149	-0.127
-740.098	162.601	-0.124	0.175
-739.083	228.060	-0.057	-0.094
-738.069	-48.766	-0.185	0.090
-737.054	116.179	-0.088	0.109
-736.039	-122.216	-0.398	-0.066
-735.025	-117.286	0.079	0.014
-734.010	-134.052	-0.256	-0.032
-732.996	-53.094	0.272	-0.126
-731.981	-177.977	0.212	-0.005
-730.966	177.874	-0.108	0.159
-729.952	-59.397	0.213	-0.093
-728.937	197.263	0.031	-0.048
-727.923	-53.808	-0.240	-0.110
-726.908	-200.000	-0.109	-0.520
-725.894	-4.272	0.119	-0.083
-724.879	381.547	-0.105	0.217
-723.864	-200.000	0.025	-0.133
-722.850	-200.000	0.013	-0.197
-721.835	133.712	0.234	0.306
-720.821	-35.696	0.043	-0.024
-719.806	800.000	0.049	-0.214
-718.791	88.397	-0.205	-0.229
-717.777	-200.000	0.045	-0.482
-716.762	-97.956	-0.741	0.193
-715.748	-107.499	-0.190	-0.042
-714.733	-200.000	0.019	0.087
-713.718	-200.000	0.012	-0.103
-712.704	53.996	0.243	-0.236
-711.689	-200.000	0.001	-0.118
-710.675	800.000	0.086	0.246
-709.660	800.000	0.068	0.239
-708.645	-42.110	0.059	-0.030
-707.631	692.084	-0.064	0.168
-706.616	-109.046	-0.248	-0.053
-705.602	-89.953	0.175	-0.051
-704.587	-80.593	-0.215	0.072
-703.572	-200.000	0.000	-0.053
-702.558	-26.053	-0.418	-0.248
-701.543	-102.728	0.105	-0.025
-700.529	-200.000	-0.011	-0.276
-699.514	-116.704	0.041	-0.008
-698.499	291.208	0.113	0.208
-697.485	-35.096	0.084	-0.046
-696.470	800.000	-0.089	0.309
-695.456	358.187	0.144	-0.289
-694.441	17.439	0.176	0.141
-693.426	-184.951	0.137	0.002
-692.412	624.570	-0.047	0.119
-691.397	270.538	0.099	-0.175
-690.383	-200.000	-0.008	-0.110
-689.368	-26.180	0.172	-0.102
-688.354	-143.516	0.258	-0.025
-687.339	-71.048	-0.227	-0.086
-686.324	800.000	0.130	-0.406
-685.310	429.525	0.115	-0.249
-684.295	800.000	-0.064	0.274
-683.281	-200.000	0.019	0.227
-682.266	-64.927	-0.137	0.056
-681.251	39.142	0.102	0.092
-680.237	642.065	0.014	-0.037
-679.222	583.108	0.073	-0.181
-678.208	-116.589	-0.139	-0.026
-677.193	-184.126	0.242	-0.004
-676.178	60.835	0.166	0.166
-675.164	58.078	-0.136	0.134
-674.149	-6.784	-0.218	0.149
-673.135	-200.000	0.064	0.342
-672.120	9.634	0.155	0.118
-671.105	-37.919	-0.392	-0.210
-670.091	-159.474	0.289	-0.016
-669.076	-176.365	-0.356	0.009
-668.062	83.772	-0.085	0.093
-667.047	-135.936	-0.084	0.010
-666.032	800.000	0.102	-0.340
-665.018	541.270	-0.016	-0.039
-664.003	-180.678	0.131	-0.003
-662.989	-200.000	0.011	-0.159
-661.974	62.007	0.169	-0.169
-660.959	-55.507	0.287	0.129
-659.945	-154.268	0.366	-0.025
-658.930	-124.423	0.307	-0.048
-657.916	69.475	0.139	-0.144
-656.901	187.588	0.258	0.387
-655.886	34.129	0.161	0.141
-654.872	117.842	0.111	-0.137
-653.857	-107.353	-0.091	0.020
-652.843	75.101	0.249	0.264
-651.828	-200.000	0.012	-0.410
-650.814	-200.000	0.012	-0.081
-649.799	800.000	0.024	0.091
-648.784	-55.027	-0.080	-0.036
-647.770	-200.000	0.008	0.036
-646.755	-40.730	-0.130	0.068
-645.741	261.889	-0.116	-0.202
-644.726	20.065	0.348	0.282
-643.711	689.689	-0.102	-0.268
-642.697	-71.088	-0.165	-0.062
-641.682	96.913	0.263	-0.303
-640.668	-55.327	-0.255	-0.115
-639.653	-29.233	-0.067	0.039
-638.638	-39.296	-0.201	0.106
-637.624	-49.171	-0.092	0.044
-636.609	-83.652	0.399	0.128
-635.595	-200.000	0.003	-0.191
-634.580	-52.860	-0.315	0.146
-633.565	-179.012	0.229	0.005
-632.551	-200.000	0.026	0.185
-631.536	-200.000	-0.045	0.314
-630.522	53.951	-0.160	0.155
-629.507	-200.000	-0.029	-0.248
-628.492	-200.000	0.061	0.327
-627.478	37.018	-0.096	0.086
-626.463	32.330	0.154	-0.134
-625.449	-200.000	-0.009	0.095
-624.434	189.494	0.044	0.067
-623.419	305.511	-0.068	-0.127
-622.405	182.863	0.010	-0.014
-621.390	122.532	0.182	0.228
-620.376	-8.873	-0.292	0.197
-619.361	90.521	-0.064	0.072
-618.346	215.194	0.140	-0.223
-617.332	113.089	-0.280	-0.341
-616.317	-200.000	-0.050	-0.263
-615.303	151.636	-0.223	0.306
-614.288	-86.542	-0.269	0.083
-613.273	2.906	-0.310	0.226
-612.259	-138.025	0.136	0.015
-611.244	25.241	-0.154	-0.128
-610.230	-67.454	-0.273	0.108
-609.215	83.168	0.287	-0.314
-608.201	-200.000	-0.005	-0.228
-607.186	17.098	-0.047	0.038
-606.171	-200.000	-0.010	0.119
-605.157	78.859	-0.361	-0.388
-604.142	-200.000	0.052	-0.257
-603.128	-57.967	-0.136	-0.059
-602.113	-177.592	-0.186	0.005
-601.098	-59.074	-0.252	-0.109
-600.084	-79.499	-0.028	-0.010
-599.069	800.000	-0.118	-0.437
-598.055	163.258	-0.117	0.165
-597.040	-200.000	0.287	-0.001
-596.025	514.793	-0.081	0.190
-595.011	238.917	-0.220	-0.366
-593.996	245.281	0.196	0.332
-592.982	-192.385	0.234	0.002
-591.967	-144.612	-0.153	0.014
-590.952	465.656	0.050	0.113
-589.938	-26.980	0.282	0.165
-588.923	-140.580	0.070	-0.007
-587.909	438.725	0.127	-0.278
-586.894	-130.726	0.338	0.046
-585.879	7.857	0.031	-0.023
-584.865	-200.000	-0.022	0.155
-583.850	-27.313	0.154	-0.090
-582.836	81.610	-0.071	0.077
-581.821	-115.506	-0.311	0.059
-580.806	-200.000	0.027	0.428
-579.792	-200.000	-0.011	-0.195
-578.777	-95.338	-0.188	-0.051
-577.763	800.000	0.067	0.199
-576.748	-200.000	-0.018	-0.256
-575.733	278.369	-0.089	-0.159
-574.719	800.000	0.011	0.039
-573.704	667.005	-0.018	-0.047
-572.690	-106.591	0.350	-0.078
-571.675	75.029	-0.071	0.075
-570.661	339.625	-0.071	-0.139
-569.646	253.887	-0.163	0.280
-568.631	6.991	0.042	0.032
-567.617	-200.000	0.005	-0.172
-566.602	-200.000	0.020	0.164
-565.588	800.000	0.023	0.073
-564.573	-37.789	0.079	-0.042
-563.558	-15.373	0.347	0.222
-562.544	-73.983	0.274	0.099
-561.529	-191.115	0.382	0.004
-560.515	150.275	-0.142	0.193
-559.500	-200.000	0.064	0.299
-558.485	337.207	0.027	-0.053
-557.471	274.839	-0.086	-0.152
-556.456	-40.610	-0.300	-0.156
-555.442	-60.683	0.119	-0.051
-554.427	-22.666	-0.383	0.232
-553.412	0.780	0.234	0.168
-552.398	-50.530	0.123	-0.058
-551.383	-133.194	0.197	-0.025
-550.369	-66.360	-0.148	0.059
-549.354	-200.000	-0.002	0.189
-548.339	4.336	-0.112	-0.082
-547.325	22.437	0.081	0.066
-546.310	145.468	-0.098	-0.131
-545.296	273.169	-0.071	-0.125
-544.281	71.130	0.117	0.121
-543.266	-200.000	-0.068	0.527
-542.252	-200.000	0.005	-0.097
-541.237	169.334	-0.054	0.078
-540.223	215.571	0.083	-0.131
-539.208	-70.703	-0.397	-0.150
-538.193	-49.721	0.150	-0.072
-537.179	-26.730	-0.278	-0.163
-536.164	-200.000	0.024	0.308
-535.150	48.577	-0.280	0.263
-534.135	-56.642	-0.017	0.008
-533.121	-200.000	-0.029	0.289
-532.106	-73.770	-0.090	0.033
-531.091	14.621	-0.307	-0.240
-530.077	-120.975	-0.215	0.036
-529.062	-200.000	0.024	0.389
-528.048	-37.085	0.153	0.082
-527.033	31.272	-0.110	0.094
-526.018	-54.102	-0.091	0.042
-525.004	26.400	0.185	-0.155
-523.989	800.000	-0.028	-0.104
-522.975	-127.306	-0.230	-0.034
-521.960	-104.259	-0.197	0.046
-520.945	-56.705	-0.493	-0.218
-519.931	-46.374	0.080	0.039
-518.916	167.475	-0.078	-0.110
-517.902	79.195	0.114	-0.122
-516.887	614.762	0.081	0.203
-515.872	734.879	-0.082	-0.220
-514.858	-200.000	0.053	-0.236
-513.843	800.000	0.033	-0.115
-512.829	24.950	-0.202	-0.168
-511.814	-115.731	0.313	-0.059
-510.799	69.123	-0.115	-0.118
-509.785	-200.000	0.068	-0.360
-508.770	-29.994	0.108	-0.061
-507.756	323.535	-0.141	0.269
-506.741	433.056	-0.033	0.071
-505.726	78.607	-0.198	0.212
-504.712	53.868	-0.118	-0.113
-503.697	-200.000	0.000	0.170
-502.683	176.007	-0.049	-0.071
-501.668	-100.163	0.243	0.060
-500.653	-4.359	-0.254	-0.175
-499.639	-54.527	-0.328	0.148
-498.624	-95.641	-0.069	-0.018
-497.610	-15.922	0.235	-0.150
-496.595	455.188	-0.221	0.490
-495.581	-200.000	0.002	-0.379
-494.566	-200.000	-0.027	0.330
-493.551	-62.610	0.275	0.114
-492.537	-200.000	-0.020	-0.136
-491.522	66.221	0.152	0.154
-490.508	34.648	0.228	-0.199
-489.493	-73.932	-0.119	0.043
-488.478	349.803	0.081	-0.160
-487.464	-77.187	-0.205	0.071
-486.449	-49.299	0.064	0.031
-485.435	565.057	0.137	0.333
-484.420	252.452	-0.079	0.134
-483.405	595.937	0.025	0.061
-482.391	54.897	-0.300	0.289
-481.376	-200.000	-0.038	0.256
-480.362	800.000	-0.069	-0.264
-479.347	92.928	0.297	0.335
-478.332	-166.334	-0.130	0.005
-477.318	67.215	0.395	0.403
-476.303	800.000	-0.079	0.283
-475.289	-200.000	0.003	0.214
-474.274	-76.866	0.062	0.021
-473.259	-38.035	-0.244	-0.129
-472.245	-200.000	0.012	0.208
-471.230	-170.992	0.331	0.011
-470.216	800.000	0.173	-0.479
-469.201	11.442	-0.248	0.190
-468.186	-124.318	-0.287	0.045
-467.172	68.078	-0.088	0.090
-466.157	-200.000	-0.040	0.315
-465.143	-17.938	-0.226	0.141
-464.128	-200.000	0.027	-0.237
-463.113	-200.000	0.027	-0.143
-462.099	104.231	-0.076	-0.089
-461.084	526.220	-0.094	-0.222
-460.070	274.912	0.122	-0.216
-459.055	-200.000	-0.025	-0.110
-458.040	105.994	-0.060	0.071
-457.026	800.000	0.110	-0.312
-456.011	800.000	-0.026	0.084
-454.997	173.534	0.238	0.343
-453.982	249.113	-0.134	0.226
-452.968	800.000	-0.133	-0.454
-451.953	-110.478	-0.128	-0.026
-450.938	-8.076	0.205	0.138
-449.924	75.204	-0.072	0.075
-448.909	607.660	-0.105	0.261
-447.895	133.146	-0.182	0.234
-446.880	-95.064	0.095	0.026
-445.865	-124.295	0.065	-0.010
-444.851	-200.000	-0.017	-0.134
-443.836	-54.740	0.339	-0.153
-442.822	-17.363	-0.178	0.112
-441.807	-152.359	0.420	-0.030
-440.792	175.498	-0.045	-0.065
-439.778	800.000	0.116	0.422
-438.763	-180.337	-0.199	0.004
-437.749	-5.366	0.210	-0.144
-436.734	93.494	-0.211	-0.238
-435.719	-200.000	0.000	-0.135
-434.705	608.540	-0.108	-0.269
-433.690	229.050	0.109	-0.177
-432.676	-159.349	0.407	0.023
-431.661	-200.000	-0.052	-0.263
-430.646	-137.823	0.251	0.028
-429.632	800.000	-0.068	0.223
-428.617	-103.012	0.352	-0.083
-427.603	91.104	0.118	0.132
-426.588	-130.402	-0.087	0.012
-425.573	-46.989	0.072	0.035
-424.559	-88.740	0.328	-0.097
-423.544	-55.994	-0.222	-0.098
-422.530	451.747	-0.073	-0.160
-421.515	800.000	0.088	-0.354
-420.500	-200.000	0.012	0.222
-419.486	-200.000	0.044	0.341
-418.471	-113.420	0.285	-0.056
-417.457	-200.000	0.097	0.509
-416.442	-92.529	0.028	0.008
-415.428	-168.452	0.134	-0.005
-414.413	21.092	-0.297	0.240
-413.398	-132.881	-0.018	-0.002
-412.384	-1.000	0.225	-0.158
-411.369	-76.028	0.205	-0.072
-410.355	180.445	0.090	-0.132
-409.340	42.174	0.159	-0.144
-408.325	-37.254	-0.086	0.046
-407.311	-90.642	-0.188	0.054
-406.296	-135.519	-0.046	-0.006
-405.282	435.015	0.035	0.076
-404.267	75.890	-0.207	0.218
-403.252	306.208	0.040	0.075
-402.238	0.307	-0.086	-0.061
-401.223	-61.713	0.179	-0.075
-400.209	-147.189	-0.154	-0.013
-399.194	-102.041	-0.139	-0.033
-398.179	-49.429	-0.293	-0.139
-397.165	-200.000	-0.014	-0.083
-396.150	-200.000	0.041	-0.349
-395.136	60.342	-0.239	0.235
-394.121	-159.693	-0.457	-0.025
-393.106	-200.000	-0.028	-0.176
-392.092	624.544	0.087	0.219
-391.077	-200.000	0.428	-0.000
-390.063	-43.087	-0.069	-0.035
-389.048	-52.601	-0.129	0.059
-388.033	-11.907	-0.044	0.028
-387.019	13.733	0.158	-0.123
-386.004	-56.254	-0.375	-0.166
-384.990	455.857	0.049	-0.109
-383.975	-200.000	0.019	-0.132
-382.960	800.000	0.032	-0.093
-381.946	-30.319	0.291	0.165
-380.931	-200.000	0.021	0.110
-379.917	-58.443	0.280	-0.121
-378.902	45.578	0.151	0.139
-377.888	-200.000	-0.032	-0.251
-376.873	-174.088	-0.121	0.004
-375.858	-200.000	-0.003	0.151
-374.844	184.391	0.243	-0.359
-373.829	36.162	-0.125	0.109
-372.815	-105.241	-0.010	0.002
-371.800	-10.179	-0.068	-0.045
-370.785	-200.000	-0.013	-0.063
-369.771	-153.349	-0.081	0.006
-368.756	-200.000	0.066	0.324
-367.742	168.818	0.036	0.051
-366.727	-23.490	-0.334	-0.199
-365.712	800.000	-0.087	-0.266
-364.698	-95.879	-0.294	0.078
-363.683	-38.581	-0.115	-0.060
-362.669	-200.000	0.020	0.188
-361.654	161.797	0.270	-0.375
-360.639	-200.000	0.043	-0.315
-359.625	-200.000	-0.022	-0.220
-358.610	40.994	0.041	0.037
-357.596	-108.348	0.081	0.017
-356.581	800.000	0.012	0.033
-355.566	-200.000	0.003	-0.087
-354.552	-122.566	0.297	-0.048
-353.537	681.124	0.065	0.168
-352.523	537.039	-0.057	0.135
-351.508	-163.294	-0.068	0.003
-350.493	-108.011	0.518	-0.112
-349.479	239.554	-0.106	-0.175
-348.464	35.496	-0.064	0.056
-347.450	-88.262	0.079	0.023
-346.435	-65.316	0.248	-0.099
-345.420	291.901	-0.100	-0.181
-344.406	-200.000	0.082	-0.486
-343.391	16.559	-0.121	0.095
-342.377	-32.757	-0.338	0.187
-341.362	7.774	-0.205	-0.152
-340.348	-47.992	-0.084	-0.040
-339.333	14.598	0.136	0.105
-338.318	-200.000	0.011	-0.098
-337.304	-165.097	-0.592	0.026
-336.289	-165.511	0.262	-0.011
-335.275	-101.754	0.160	0.038
-334.260	124.183	0.036	0.044
-333.245	-101.940	-0.319	0.077
-332.231	219.317	-0.143	0.227
-331.216	208.801	0.147	0.229
-330.202	-200.000	0.082	-0.518
-329.187	-188.246	-0.116	0.001
-328.172	272.401	0.051	0.089
-327.158	-128.334	-0.142	0.020
-326.143	182.029	-0.131	-0.191
-325.129	228.072	-0.135	0.218
-324.114	222.135	-0.083	-0.132
-323.099	-43.486	0.417	-0.209
-322.085	-23.200	-0.109	0.065
-321.070	800.000	-0.035	-0.143
-320.056	-152.713	0.172	0.012
-319.041	-14.705	-0.242	0.154
-318.026	800.000	0.072	-0.202
-317.012	-32.222	0.234	-0.129
-315.997	-12.450	-0.095	0.061
-314.983	235.359	0.011	-0.019
-313.968	-117.927	0.161	-0.029
-312.953	443.451	-0.028	0.060
-311.939	-91.099	0.209	-0.060
-310.924	-131.157	-0.024	-0.003
-309.910	3.657	0.176	-0.127
-308.895	-200.000	-0.032	0.304
-307.880	350.689	-0.138	-0.270
-306.866	-52.159	-0.228	0.105
-305.851	-173.963	-0.202	0.006
-304.837	17.922	-0.238	-0.188
-303.822	628.570	-0.144	-0.360
-302.807	-119.133	0.217	0.038
-301.793	-91.029	0.345	-0.098
-300.778	800.000	0.047	-0.185
-299.764	-96.696	-0.317	-0.083
-298.749	-200.000	-0.017	-0.187
-297.735	-71.582	-0.048	-0.018
-296.720	200.871	-0.053	-0.081
-295.705	-56.355	0.280	-0.123
-294.691	-55.971	0.217	0.096
-293.676	276.707	0.084	-0.148
-292.662	-159.460	0.032	0.002
-291.647	-110.860	0.436	-0.089
-290.632	-94.743	0.185	-0.050
-289.618	800.000	0.074	0.259
-288.603	165.122	-0.095	0.132
-287.589	2.195	0.132	0.094
-286.574	-200.000	-0.003	0.094
-285.559	148.994	0.100	-0.134
-284.545	-200.000	-0.034	0.164
-283.530	109.455	-0.142	-0.169
-282.516	239.465	-0.140	0.231
-281.501	72.384	-0.161	-0.166
-280.486	292.804	-0.065	0.117
-279.472	4.600	0.226	0.164
-278.457	800.000	0.090	0.250
-277.443	21.733	0.373	-0.301
-276.428	-51.136	0.166	0.077
-275.413	17.604	-0.298	-0.235
-274.399	-24.546	0.329	-0.194
-273.384	-144.968	0.252	-0.023
-272.370	800.000	-0.023	-0.088
-271.355	33.508	0.207	0.178
-270.340	112.583	0.112	0.134
-269.326	22.775	-0.242	0.196
-268.311	142.982	0.095	0.126
-267.297	123.687	-0.140	0.174
-266.282	7.965	-0.111	-0.083
-265.267	-200.000	-0.022	-0.226
-264.253	-200.000	0.022	0.243
-263.238	-119.219	0.226	-0.039
-262.224	-166.920	-0.201	0.008
-261.209	-91.953	0.092	-0.026
-260.195	62.891	0.117	0.116
-259.180	38.392	0.021	-0.019
-258.165	757.758	0.123	-0.330
-257.151	24.495	-0.070	-0.057
-256.136	112.943	-0.142	-0.170
-255.122	-56.417	-0.206	-0.091
-254.107	-200.000	0.015	-0.210
-253.092	-45.346	0.460	-0.226
-252.078	800.000	-0.098	-0.288
-251.063	515.727	-0.023	-0.054
-250.049	589.998	-0.175	0.426
-249.034	-200.000	0.049	-0.454
-248.019	-72.862	-0.160	-0.058
-247.005	-66.359	-0.275	-0.108
-245.990	-177.085	0.205	-0.005
-244.976	-14.363	0.257	-0.164
-243.961	-48.806	0.282	-0.134
-242.946	-171.439	0.197	0.006
-241.932	-200.000	0.016	-0.154
-240.917	-200.000	0.018	0.114
-239.903	-80.530	-0.298	0.098
-238.888	411.150	0.172	0.361
-237.873	3.993	-0.053	-0.038
-236.859	-200.000	0.023	-0.178
-235.844	-200.000	0.005	-0.068
-234.830	800.000	0.055	-0.193
-233.815	800.000	0.110	-0.327
-232.800	800.000	0.024	0.091
-231.786	223.410	0.093	-0.148
-230.771	-200.000	-0.017	0.084
-229.757	-115.203	0.148	0.028
-228.742	-142.960	-0.087	-0.008
-227.727	704.855	0.079	0.206
-226.713	-62.015	-0.143	-0.059
-225.698	287.289	0.079	-0.141
-224.684	52.061	-0.160	-0.151
-223.669	-138.330	0.260	-0.028
-222.655	-197.070	0.264	-0.002
-221.640	523.507	0.053	0.122
-220.625	800.000	0.076	-0.223
-219.611	-200.000	0.014	0.072
-218.596	-200.000	0.035	-0.184
-217.582	800.000	0.064	0.269
-216.567	800.000	-0.078	0.278
-215.552	-175.498	0.204	0.005
-214.538	-162.876	-0.127	-0.006
-213.523	62.883	-0.084	0.083
-212.509	209.174	0.061	0.095
-211.494	-200.000	0.006	0.097
-210.479	-117.568	-0.307	0.055
-209.465	-141.541	0.351	0.035
-208.450	800.000	-0.081	0.253
-207.436	156.178	0.161	0.220
-206.421	2.249	0.136	-0.097
-205.406	-200.000	0.003	-0.087
-204.392	-200.000	0.080	-0.348
-203.377	6.516	-0.105	-0.077
-202.363	-200.000	-0.063	0.388
-201.348	12.539	-0.142	0.108
-200.333	800.000	-0.058	0.195
-199.319	107.839	0.224	0.264
-198.304	108.706	0.197	0.233
-197.290	-200.000	0.074	0.372
-196.275	20.009	0.140	-0.112
-195.260	101.786	0.110	-0.127
-194.246	458.407	0.101	0.221
-193.231	496.475	0.067	0.152
-192.217	-200.000	-0.003	-0.021
-191.202	800.000	-0.041	0.151
-190.187	-78.517	-0.330	-0.112
-189.173	-124.977	0.161	0.024
-188.158	-154.942	-0.063	0.004
-187.144	-200.000	0.009	0.234
-186.129	-90.398	0.173	0.050
-185.114	-65.904	-0.216	0.085
-184.100	194.459	-0.158	-0.236
-183.085	-200.000	0.006	0.128
-182.071	10.125	-0.356	0.267
-181.056	800.000	0.106	0.418
-180.042	800.000	0.029	0.119
-179.027	159.584	-0.099	0.136
-178.012	135.509	-0.167	-0.214
-176.998	459.810	-0.170	0.373
-175.983	-200.000	0.016	0.152
-174.969	-36.298	0.144	-0.076
-173.954	-135.572	-0.175	-0.021
-172.939	127.040	-0.008	-0.010
-171.925	-174.098	0.105	-0.003
-170.910	-91.767	0.230	-0.065
-169.896	16.995	0.062	0.048
-168.881	800.000	-0.105	-0.335
-167.866	369.754	-0.053	0.106
-166.852	24.253	-0.268	-0.218
-165.837	-64.779	-0.121	0.048
-164.823	-33.081	0.111	-0.061
-163.808	-140.014	-0.282	0.029
-162.793	800.000	-0.059	-0.170
-161.779	425.234	-0.087	0.184
-160.764	-20.948	0.351	-0.212
-159.750	-200.000	-0.060	0.271
-158.735	-115.997	-0.138	-0.025
-157.720	-84.138	-0.014	-0.004
-156.706	695.322	-0.090	-0.232
-155.691	29.821	0.187	-0.157
-154.677	197.395	0.120	-0.180
-153.662	-23.171	0.394	-0.234
-152.647	-200.000	-0.043	0.303
-151.633	800.000	-0.060	0.185
-150.618	262.799	-0.220	-0.377
-149.604	-150.302	0.420	-0.032
-148.589	800.000	-0.028	0.093
-147.574	349.187	-0.082	0.159
-146.560	94.210	0.118	0.133
-145.545	-125.013	-0.137	-0.021
-144.531	562.942	0.050	-0.120
-143.516	-4.201	-0.164	-0.112
-142.502	101.695	0.043	-0.049
-141.487	21.102	0.220	-0.176
-140.472	146.688	0.181	-0.239
-139.458	-200.000	-0.030	0.255
-138.443	-167.937	0.135	-0.005
-137.429	-56.434	0.356	-0.156
-136.414	800.000	-0.038	-0.159
-135.399	-105.923	0.341	0.076
-134.385	59.061	0.195	0.189
-133.370	11.057	-0.139	-0.104
-132.356	150.395	0.175	0.235
-131.341	253.015	-0.118	0.199
-130.326	193.717	-0.131	0.195
-129.312	37.010	0.108	0.094
-128.297	-101.457	-0.258	0.062
-127.283	78.584	-0.251	-0.264
-126.268	-114.510	0.154	0.029
-125.253	-117.827	-0.486	-0.086
-124.239	800.000	0.035	-0.138
-123.224	800.000	-0.077	0.236
-122.210	488.585	-0.190	0.428
