DTS Sentinel unit serial number:	SN413079Multiplexer serial number:	ORYXHardware model number:	OX4-SRSoftware version number:	ORYX F/W v4.00 Oryx Data Collector v3.7.2.0data status	okinstallation	princeton_trtdifferential loss correction	single-endedforward channel	channel 3reverse channel	N/Adate	2019/09/16time	18:00:34forward acquisition time	60.00reverse acquisition time	0.00gamma	496.2192k internal	0.2301k external	0.2301temperature offset calibration	0.9946default loss term (dB/km)	0.3790temperature slope calibration	1.0000multiplexer offset coefficient	1.0000multiplexer slope coefficient	1.0000fibre end	0.00T internal ref (°C)	37.62T ext. ref 1 (°C)	15.65T ext. ref 2 (°C)	31.33length (m)	temperature (°C)	Stokes	anti-Stokes-747.200	81.389	0.071	0.078
-746.185	218.791	-0.033	0.054
-745.171	369.720	-0.084	0.173
-744.156	-20.826	0.187	-0.117
-743.142	40.102	-0.057	0.052
-742.127	-41.876	-0.180	0.094
-741.112	-200.000	-0.013	0.107
-740.098	-124.857	0.163	0.026
-739.083	-147.406	-0.257	0.022
-738.069	-200.000	-0.025	0.382
-737.054	-79.889	-0.160	-0.055
-736.039	19.447	-0.322	0.264
-735.025	800.000	0.048	0.178
-734.010	800.000	0.077	0.318
-732.996	437.704	0.054	-0.119
-731.981	-200.000	0.045	-0.299
-730.966	800.000	0.051	-0.148
-729.952	-60.301	-0.295	0.128
-728.937	-200.000	0.019	-0.096
-727.923	116.348	-0.080	-0.099
-726.908	240.576	0.092	0.157
-725.894	-112.200	-0.116	-0.024
-724.879	339.465	0.028	-0.056
-723.864	800.000	-0.059	-0.261
-722.850	-108.898	0.171	-0.037
-721.835	158.434	-0.163	-0.230
-720.821	-151.761	-0.155	-0.012
-719.806	-125.241	0.214	-0.033
-718.791	-124.046	-0.167	-0.027
-717.777	-39.505	0.053	-0.028
-716.762	-93.504	-0.140	-0.039
-715.748	-165.123	-0.180	-0.008
-714.733	88.772	-0.208	-0.235
-713.718	140.173	0.166	0.223
-712.704	96.714	-0.064	-0.075
-711.689	352.769	-0.062	-0.126
-710.675	800.000	-0.078	0.339
-709.660	-55.660	-0.342	-0.156
-708.645	78.562	0.081	-0.088
-707.631	236.127	-0.103	-0.173
-706.616	596.463	0.088	0.221
-705.602	8.038	-0.191	0.146
-704.587	-22.101	-0.362	-0.224
-703.572	-200.000	0.046	-0.212
-702.558	43.316	0.315	-0.293
-701.543	54.787	-0.104	-0.103
-700.529	-200.000	0.008	-0.364
-699.514	-16.292	-0.220	-0.142
-698.499	-98.435	-0.318	0.083
-697.485	0.590	-0.326	-0.237
-696.470	-200.000	0.030	-0.208
-695.456	2.493	0.068	-0.050
-694.441	-118.183	-0.285	-0.052
-693.426	-15.571	0.227	0.148
-692.412	-118.057	-0.204	0.037
-691.397	-90.653	0.244	-0.072
-690.383	-200.000	-0.003	-0.295
-689.368	495.413	0.133	0.312
-688.354	-142.834	-0.189	0.019
-687.339	397.570	0.039	-0.083
-686.324	63.953	-0.175	-0.179
-685.310	-200.000	-0.006	0.240
-684.295	138.616	-0.078	-0.104
-683.281	-30.525	0.179	0.103
-682.266	-59.981	0.081	-0.035
-681.251	-32.548	-0.108	0.061
-680.237	-113.383	0.106	0.021
-679.222	164.930	-0.052	-0.075
-678.208	-200.000	-0.019	-0.223
-677.193	-35.423	0.045	-0.025
-676.178	800.000	-0.024	-0.102
-675.164	191.894	0.089	-0.137
-674.149	-67.845	0.141	0.056
-673.135	418.909	0.176	0.382
-672.120	-167.678	0.077	0.003
-671.105	-200.000	-0.014	-0.190
-670.091	-200.000	-0.036	-0.193
-669.076	-30.059	0.141	-0.081
-668.062	41.518	0.029	-0.027
-667.047	47.035	0.184	0.174
-666.032	800.000	-0.101	-0.286
-665.018	-57.511	-0.136	-0.060
-664.003	311.627	-0.206	-0.393
-662.989	-172.197	-0.201	0.007
-661.974	-66.822	0.189	-0.076
-660.959	8.384	-0.174	0.133
-659.945	800.000	-0.021	0.085
-658.930	194.365	-0.273	-0.421
-657.916	-85.538	-0.319	0.101
-656.901	-200.000	-0.046	0.269
-655.886	345.676	0.079	-0.158
-654.872	800.000	0.084	-0.265
-653.857	-87.377	-0.311	0.096
-652.843	17.014	-0.171	0.138
-651.828	-172.803	0.257	0.008
-650.814	-107.255	0.109	-0.024
-649.799	7.386	-0.139	0.105
-648.784	470.170	-0.064	-0.146
-647.770	-200.000	0.018	-0.154
-646.755	335.627	0.062	-0.122
-645.741	421.442	-0.070	-0.154
-644.726	800.000	0.013	-0.050
-643.711	6.457	-0.132	-0.100
-642.697	309.149	-0.138	-0.262
-641.682	800.000	0.095	0.328
-640.668	-95.177	0.182	0.050
-639.653	-138.191	-0.054	0.006
-638.638	27.808	0.138	-0.118
-637.624	602.892	-0.072	-0.182
-636.609	51.331	0.103	-0.099
-635.595	-122.057	-0.107	0.018
-634.580	-67.327	-0.220	0.088
-633.565	-51.147	-0.201	0.096
-632.551	135.617	-0.094	0.124
-631.536	-93.163	0.055	0.015
-630.522	-75.239	0.290	0.105
-629.507	-96.613	-0.229	0.061
-628.492	-16.786	0.144	0.092
-627.478	-200.000	-0.009	0.081
-626.463	-108.426	-0.117	-0.026
-625.449	-36.548	-0.193	0.105
-624.434	800.000	0.060	-0.203
-623.419	-47.319	0.346	-0.171
-622.405	209.789	-0.141	-0.224
-621.390	304.826	0.018	0.033
-620.376	-200.000	0.059	0.263
-619.361	-127.945	0.451	0.066
-618.346	-70.902	-0.290	0.111
-617.332	-5.361	0.068	-0.047
-616.317	-178.377	-0.294	-0.007
-615.303	-107.420	0.132	-0.029
-614.288	-41.825	-0.171	0.089
-613.273	-149.115	0.271	0.022
-612.259	-9.771	0.207	0.140
-611.244	-200.000	-0.014	0.099
-610.230	331.310	0.106	-0.207
-609.215	529.653	0.129	0.310
-608.201	-23.520	-0.122	-0.074
-607.186	-162.325	-0.220	0.011
-606.171	279.305	0.035	0.062
-605.157	-131.812	-0.249	0.033
-604.142	-46.162	0.035	0.018
-603.128	-134.250	0.071	0.009
-602.113	-104.419	0.023	-0.005
-601.098	-200.000	0.027	0.222
-600.084	38.035	0.290	-0.261
-599.069	-200.000	0.001	0.024
-598.055	-200.000	0.039	0.174
-597.040	-200.000	0.016	-0.092
-596.025	209.295	-0.227	-0.360
-595.011	-39.516	0.260	0.138
-593.996	-41.498	0.059	-0.031
-592.982	-200.000	-0.048	-0.243
-591.967	39.304	0.280	-0.254
-590.952	284.849	0.016	0.029
-589.938	-136.537	-0.194	-0.023
-588.923	448.222	-0.159	0.356
-587.909	800.000	-0.073	0.271
-586.894	490.919	-0.063	-0.145
-585.879	73.979	0.069	0.074
-584.865	-123.482	-0.285	-0.046
-583.850	800.000	-0.070	0.290
-582.836	-133.671	0.240	0.030
-581.821	-157.760	0.022	-0.001
-580.806	-167.620	-0.137	-0.006
-579.792	117.481	0.291	0.363
-578.777	539.105	-0.090	0.218
-577.763	280.645	0.086	0.156
-576.748	-200.000	-0.006	-0.113
-575.733	-200.000	0.002	-0.118
-574.719	256.574	0.009	0.016
-573.704	-200.000	0.014	0.125
-572.690	-97.540	-0.226	-0.059
-571.675	-79.351	-0.089	0.030
-570.661	112.960	0.089	0.109
-569.646	-108.266	0.238	-0.052
-568.631	-18.502	0.229	-0.144
-567.617	-48.093	0.217	0.106
-566.602	800.000	-0.067	0.231
-565.588	-187.038	0.119	0.002
-564.573	4.235	0.259	0.192
-563.558	-200.000	0.012	-0.088
-562.544	-200.000	0.052	0.469
-561.529	-140.832	-0.358	-0.037
-560.515	613.494	0.105	0.267
-559.500	-200.000	0.006	-0.282
-558.485	-200.000	-0.357	0.000
-557.471	192.066	0.009	0.014
-556.456	70.656	-0.118	0.124
-555.442	-24.152	0.086	-0.052
-554.427	47.192	0.233	-0.219
-553.412	-96.327	-0.324	0.087
-552.398	-172.869	0.268	0.008
-551.383	72.897	0.074	0.078
-550.369	-78.421	-0.107	-0.037
-549.354	-200.000	0.059	0.262
-548.339	71.008	0.147	-0.154
-547.325	-75.466	-0.248	-0.089
-546.310	-95.490	-0.125	0.034
-545.296	-43.792	-0.078	0.040
-544.281	-200.000	-0.015	0.000
-543.266	-158.129	-0.173	0.010
-542.252	190.796	0.183	0.278
-541.237	200.016	0.199	0.308
-540.223	-90.661	-0.262	-0.077
-539.208	-35.015	0.134	0.074
-538.193	-27.798	-0.301	0.176
-537.179	80.999	0.183	-0.200
-536.164	-121.194	-0.041	0.007
-535.150	-123.447	0.184	-0.030
-534.135	-5.843	-0.071	-0.049
-533.121	-119.981	-0.523	0.091
-532.106	-200.000	-0.011	-0.231
-531.091	55.632	0.216	-0.212
-530.077	-2.749	0.336	-0.237
-529.062	-33.948	0.146	0.081
-528.048	640.932	0.067	0.173
-527.033	4.728	-0.106	-0.079
-526.018	-200.000	-0.025	0.150
-525.004	42.017	-0.112	0.102
-523.989	375.994	-0.102	-0.210
-522.975	257.547	-0.159	0.276
-521.960	-160.951	0.265	0.014
-520.945	-101.438	0.325	-0.080
-519.931	800.000	-0.119	-0.379
-518.916	40.054	0.150	0.136
-517.902	397.530	0.042	-0.090
-516.887	491.569	0.040	0.093
-515.872	254.304	-0.107	0.185
-514.858	-200.000	0.001	0.066
-513.843	-164.240	-0.421	-0.020
-512.829	-139.287	-0.129	-0.014
-511.814	91.643	-0.150	-0.171
-510.799	-138.535	-0.229	0.025
-509.785	-200.000	-0.001	-0.039
-508.770	-150.015	0.303	-0.024
-507.756	103.236	0.070	-0.083
-506.741	192.912	0.250	0.382
-505.726	-165.992	-0.092	0.004
-504.712	27.704	0.170	-0.144
-503.697	-55.117	0.262	-0.119
-502.683	283.934	-0.112	0.203
-501.668	-200.000	-0.007	-0.171
-500.653	800.000	-0.055	0.214
-499.639	-157.845	-0.265	-0.016
-498.624	-111.006	0.293	0.061
-497.610	-18.655	-0.259	0.163
-496.595	-125.873	0.118	0.018
-495.581	272.216	-0.264	-0.470
-494.566	40.418	0.043	0.039
-493.551	-22.410	-0.217	0.133
-492.537	800.000	-0.067	0.246
-491.522	-78.141	0.381	0.132
-490.508	-77.893	-0.105	-0.037
-489.493	-82.444	0.339	0.111
-488.478	48.172	-0.096	0.091
-487.464	-131.278	0.607	-0.081
-486.449	439.218	0.056	-0.124
-485.435	10.360	0.085	0.065
-484.420	-200.000	0.024	-0.160
-483.405	-181.625	0.099	-0.002
-482.391	150.793	0.053	-0.073
-481.376	350.670	-0.090	0.180
-480.362	155.605	-0.218	-0.304
-479.347	-194.431	0.328	0.003
-478.332	75.869	0.169	0.181
-477.318	-200.000	-0.029	-0.361
-476.303	-84.353	-0.189	-0.060
-475.289	32.121	0.253	-0.220
-474.274	-68.521	0.051	-0.020
-473.259	-200.000	0.004	-0.023
-472.245	-124.057	0.344	0.055
-471.230	-135.191	-0.165	-0.020
-470.216	-200.000	0.008	-0.211
-469.201	-107.514	0.144	0.032
-468.186	326.731	-0.094	-0.182
-467.172	729.735	0.107	0.288
-466.157	-76.425	-0.284	0.101
-465.143	-25.599	0.047	0.028
-464.128	800.000	-0.044	-0.173
-463.113	-67.253	0.011	-0.004
-462.099	800.000	0.078	-0.253
-461.084	-132.389	0.196	-0.026
-460.070	-60.279	0.051	0.022
-459.055	-80.320	0.460	-0.155
-458.040	-4.167	0.180	0.125
-457.026	126.631	-0.089	0.114
-456.011	-200.000	-0.008	0.068
-454.997	-63.487	-0.158	0.065
-453.982	-200.000	0.008	-0.108
-452.968	6.462	0.208	0.156
-451.953	317.560	0.040	0.077
-450.938	-154.632	-0.070	0.005
-449.924	800.000	0.016	-0.059
-448.909	-83.415	0.253	-0.082
-447.895	251.812	0.130	-0.223
-446.880	-78.601	0.160	-0.055
-445.865	-112.067	-0.144	-0.029
-444.851	105.060	-0.169	-0.201
-443.836	-92.083	0.247	-0.070
-442.822	43.423	-0.201	-0.185
-441.807	-153.870	-0.323	0.022
-440.792	-200.000	0.002	-0.277
-439.778	-123.008	-0.402	-0.065
-438.763	-19.554	0.367	-0.229
-437.749	258.248	-0.074	0.129
-436.734	-64.590	-0.295	0.121
-435.719	0.550	0.168	-0.121
-434.705	107.976	-0.179	-0.215
-433.690	28.184	0.154	-0.131
-432.676	-200.000	0.017	-0.162
-431.661	-39.112	0.072	-0.038
-430.646	-16.107	-0.056	-0.036
-429.632	111.892	0.028	0.035
-428.617	-11.533	0.082	-0.055
-427.603	-153.673	-0.171	-0.012
-426.588	157.634	0.185	-0.257
-425.573	-67.193	0.300	0.119
-424.559	-57.178	0.173	-0.077
-423.544	-200.000	-0.020	0.339
-422.530	-50.529	0.089	0.042
-421.515	-18.971	-0.125	0.078
-420.500	-60.637	-0.161	0.069
-419.486	-131.489	0.177	0.023
-418.471	-7.845	-0.101	0.068
-417.457	138.769	0.133	0.176
-416.442	-31.425	-0.236	-0.134
-415.428	-200.000	0.066	0.454
-414.413	-200.000	-0.030	-0.252
-413.398	800.000	-0.046	0.158
-412.384	-101.346	-0.105	-0.026
-411.369	36.953	-0.183	0.163
-410.355	4.540	0.211	-0.156
-409.340	-200.000	-0.046	0.239
-408.325	-68.532	-0.195	0.076
-407.311	565.678	0.098	-0.239
-406.296	37.843	0.157	-0.140
-405.282	244.889	-0.108	0.183
-404.267	-14.781	-0.136	-0.088
-403.252	-200.000	-0.051	0.259
-402.238	168.475	-0.095	0.136
-401.223	-200.000	0.020	-0.115
-400.209	-59.318	-0.186	-0.080
-399.194	-2.784	0.082	-0.058
-398.179	-174.668	0.187	-0.005
-397.165	74.403	0.177	-0.187
-396.150	-140.173	0.199	0.021
-395.136	246.285	-0.125	-0.212
-394.121	-200.000	-0.001	0.052
-393.106	285.305	-0.061	-0.110
-392.092	-200.000	0.020	0.297
-391.077	-70.548	0.235	-0.090
-390.063	69.362	-0.089	-0.092
-389.048	800.000	0.075	-0.303
-388.033	-200.000	0.001	0.257
-387.019	-152.800	-0.266	0.019
-386.004	447.343	0.122	-0.269
-384.990	-143.539	-0.179	-0.017
-383.975	273.302	-0.109	-0.194
-382.960	28.945	-0.062	-0.053
-381.946	31.170	0.142	-0.123
-380.931	-61.178	0.095	0.040
-379.917	-200.000	0.070	-0.346
-378.902	78.960	-0.191	0.205
-377.888	43.460	-0.179	-0.164
-376.873	-48.499	-0.273	0.132
-375.858	74.212	-0.144	0.152
-374.844	-89.825	-0.080	-0.024
-373.829	56.786	-0.113	0.111
-372.815	157.245	-0.383	-0.532
-371.800	-200.000	0.081	0.444
-370.785	137.406	-0.226	-0.297
-369.771	-200.000	-0.057	-0.335
-368.756	-124.192	-0.110	-0.017
-367.742	650.916	-0.010	0.026
-366.727	-181.730	-0.277	0.005
-365.712	91.166	0.289	0.326
-364.698	-66.304	-0.345	0.138
-363.683	-200.000	0.004	0.182
-362.669	-66.313	0.336	0.134
-361.654	8.351	-0.251	-0.189
-360.639	-110.047	0.107	0.022
-359.625	446.973	-0.080	0.178
-358.610	111.797	-0.211	0.256
-357.596	-200.000	-0.066	-0.309
-356.581	128.435	0.176	-0.225
-355.566	-140.430	-0.286	0.030
-354.552	196.438	-0.099	0.151
-353.537	50.547	-0.182	0.172
-352.523	324.624	-0.168	0.322
-351.508	-27.131	-0.168	-0.099
-350.493	-200.000	0.046	-0.232
-349.479	58.426	-0.131	0.129
-348.464	-24.851	0.103	-0.062
-347.450	84.741	0.149	-0.164
-346.435	101.405	0.028	-0.033
-345.420	292.064	0.034	-0.063
-344.406	-150.246	0.187	-0.015
-343.391	16.416	0.357	-0.283
-342.377	351.941	0.084	-0.168
-341.362	111.226	-0.046	0.055
-340.348	-18.751	-0.140	0.088
-339.333	-101.159	0.315	0.077
-338.318	-35.422	-0.122	-0.066
-337.304	800.000	-0.066	-0.205
-336.289	-200.000	0.054	-0.295
-335.275	-82.356	-0.309	-0.101
-334.260	-145.991	-0.160	-0.014
-333.245	69.182	-0.084	-0.086
-332.231	229.546	-0.091	-0.149
-331.216	34.000	-0.135	-0.118
-330.202	-20.848	-0.224	0.138
-329.187	28.399	-0.069	0.058
-328.172	-85.780	0.294	0.091
-327.158	-199.384	0.109	0.001
-326.143	181.010	0.015	-0.023
-325.129	-46.697	-0.322	-0.158
-324.114	259.402	0.174	0.302
-323.099	221.593	0.081	-0.130
-322.085	127.770	-0.132	0.168
-321.070	43.208	-0.083	-0.076
-320.056	-117.394	0.114	-0.021
-319.041	-11.866	-0.239	-0.157
-318.026	-108.275	-0.074	-0.016
-317.012	-200.000	0.069	0.425
-315.997	9.914	-0.310	0.236
-314.983	800.000	0.029	-0.109
-313.968	-77.900	-0.430	0.149
-312.953	-100.719	0.331	0.082
-311.939	81.261	0.074	0.080
-310.924	678.100	0.077	0.201
-309.910	321.459	-0.066	-0.127
-308.895	-7.884	-0.050	-0.034
-307.880	503.475	-0.036	0.083
-306.866	172.884	-0.266	0.384
-305.851	201.910	-0.179	0.276
-304.837	-148.813	-0.106	0.009
-303.822	-113.107	-0.229	0.045
-302.807	-15.814	0.108	-0.069
-301.793	-200.000	-0.020	0.105
-300.778	-200.000	-0.013	-0.063
-299.764	-103.241	-0.315	-0.075
-298.749	-200.000	-0.033	0.201
-297.735	7.708	-0.103	0.077
-296.720	87.445	-0.075	0.083
-295.705	-200.000	-0.004	0.034
-294.691	96.567	0.284	0.326
-293.676	42.141	-0.116	-0.105
-292.662	639.863	0.039	-0.099
-291.647	-200.000	0.006	-0.064
-290.632	754.292	0.157	0.426
-289.618	53.053	0.153	0.147
-288.603	-150.824	-0.199	-0.015
-287.589	-19.137	0.152	-0.095
-286.574	46.021	-0.203	-0.189
-285.559	-200.000	0.031	0.139
-284.545	-200.000	-0.025	0.279
-283.530	-63.236	0.298	-0.123
-282.516	-28.060	0.143	0.083
-281.501	80.997	-0.183	-0.198
-280.486	-33.782	-0.298	0.164
-279.472	-18.957	0.247	0.154
-278.457	9.482	0.050	0.038
-277.443	-37.229	0.159	-0.085
-276.428	-200.000	-0.027	-0.176
-275.413	545.480	0.115	-0.274
-274.399	-2.419	-0.244	0.171
-273.384	-170.204	0.163	-0.006
-272.370	-102.294	-0.278	0.067
-271.355	-62.050	0.331	0.139
-270.340	-135.626	-0.136	0.016
-269.326	54.822	0.104	-0.100
-268.311	-90.563	-0.179	-0.052
-267.297	22.560	-0.340	-0.279
-266.282	78.198	0.185	0.198
-265.267	-200.000	0.044	0.194
-264.253	62.566	0.029	0.029
-263.238	-200.000	-0.000	0.195
-262.224	-50.589	0.180	-0.085
-261.209	-174.840	0.580	0.016
-260.195	-200.000	-0.033	-0.182
-259.180	-128.297	-0.177	0.025
-258.165	-101.380	-0.144	-0.035
-257.151	800.000	0.020	0.073
-256.136	-24.136	0.293	-0.175
-255.122	-63.122	-0.228	0.094
-254.107	-36.487	0.131	0.070
-253.092	-140.101	0.199	-0.021
-252.078	-51.091	-0.117	-0.055
-251.063	21.192	0.084	0.068
-250.049	800.000	-0.064	-0.215
-249.034	-133.098	-0.439	-0.056
-248.019	-200.000	-0.000	0.052
-247.005	-54.810	-0.059	-0.027
-245.990	123.958	0.246	0.309
-244.976	92.003	-0.133	0.150
-243.961	4.672	0.216	0.159
-242.946	157.599	-0.133	0.184
-241.932	-89.053	0.203	0.060
-240.917	257.588	-0.107	0.183
-239.903	301.079	-0.069	-0.127
-238.888	-71.334	-0.399	-0.150
-237.873	-200.000	-0.012	-0.327
-236.859	-200.000	0.011	0.101
-235.844	-38.180	0.070	-0.037
-234.830	-74.927	0.047	-0.017
-233.815	-75.267	-0.057	-0.020
-232.800	143.240	0.229	-0.304
-231.786	199.463	-0.041	-0.062
-230.771	-170.831	0.156	0.005
-229.757	-187.013	0.216	-0.003
-228.742	492.980	0.127	-0.291
-227.727	-65.655	0.329	-0.132
-226.713	89.179	-0.069	-0.077
-225.698	-51.472	0.303	-0.141
-224.684	-200.000	0.009	-0.092
-223.669	14.037	-0.121	-0.094
-222.655	0.784	0.104	-0.074
-221.640	-200.000	0.001	-0.078
-220.625	-15.106	0.097	0.062
-219.611	-76.799	0.357	0.125
-218.596	-151.904	0.120	0.009
-217.582	-88.949	-0.112	0.033
-216.567	-200.000	-0.007	0.324
-215.552	-57.791	-0.175	-0.077
-214.538	-200.000	0.052	-0.329
-213.523	54.572	0.362	0.349
-212.509	-200.000	-0.023	-0.196
-211.494	113.985	-0.284	0.345
-210.479	111.984	-0.237	0.286
-209.465	-105.894	-0.143	0.032
-208.450	101.773	-0.065	0.075
-207.436	-200.000	0.009	0.048
-206.421	31.313	0.187	-0.160
-205.406	-200.000	0.003	-0.099
-204.392	-23.620	0.323	-0.194
-203.377	-200.000	-0.014	0.201
-202.363	-161.869	0.343	0.017
-201.348	-77.564	-0.162	0.056
-200.333	800.000	0.078	-0.223
-199.319	-15.232	-0.147	-0.094
-198.304	-12.714	0.376	-0.245
-197.290	58.966	-0.234	-0.229
-196.275	-184.238	0.142	-0.002
-195.260	70.144	-0.315	0.325
-194.246	700.894	-0.040	-0.106
-193.231	800.000	0.059	0.247
-192.217	-24.371	0.087	-0.052
-191.202	-118.552	-0.204	0.036
-190.187	413.569	0.026	0.056
-189.173	-7.924	-0.366	0.247
-188.158	15.515	0.137	0.108
-187.144	444.952	0.125	-0.273
-186.129	-61.694	-0.041	-0.017
-185.114	101.730	0.164	-0.191
-184.100	-6.796	-0.269	-0.182
-183.085	184.192	0.059	-0.087
-182.071	294.236	-0.022	0.040
-181.056	-4.738	0.164	0.113
-180.042	84.633	0.173	-0.189
-179.027	87.777	-0.053	0.059
-178.012	6.865	-0.305	0.227
-176.998	-200.000	0.023	-0.149
-175.983	-95.285	-0.063	0.017
-174.969	-200.000	0.006	-0.148
-173.954	-200.000	-0.252	-0.001
-172.939	-44.279	0.422	0.211
-171.925	-200.000	0.001	0.102
-170.910	-70.391	0.088	-0.033
-169.896	-200.000	-0.031	0.167
-168.881	-149.190	-0.138	-0.011
-167.866	47.437	0.119	-0.111
-166.852	43.130	-0.122	-0.111
-165.837	-132.350	-0.164	0.021
-164.823	-200.000	-0.028	-0.178
-163.808	-200.000	0.016	-0.251
-162.793	-200.000	0.006	0.210
-161.779	143.399	-0.176	-0.234
-160.764	-200.000	0.039	-0.178
-159.750	404.964	-0.053	-0.112
-158.735	175.008	-0.178	0.257
-157.720	48.556	0.141	-0.132
-156.706	797.662	-0.100	0.275
-155.691	-125.875	0.302	0.045
-154.677	-91.972	0.250	-0.071
-153.662	-104.460	0.135	0.031
-152.647	-200.000	-0.040	-0.178
-151.633	-200.000	-0.010	-0.118
-150.618	-53.619	0.277	-0.126
-149.604	-75.554	0.514	-0.182
-148.589	-117.347	0.171	0.031
-147.574	450.176	-0.125	-0.275
-146.560	41.785	0.400	0.362
-145.545	-110.372	0.110	0.023
-144.531	-200.000	0.000	0.265
-143.516	-200.000	0.010	-0.298
-142.502	-139.389	-0.201	-0.022
-141.487	155.837	0.031	0.043
-140.472	-25.233	-0.160	0.094
-139.458	548.017	-0.145	0.346
-138.443	-105.966	-0.054	-0.012
-137.429	800.000	-0.098	-0.282
-136.414	-68.713	0.484	-0.186
-135.399	-133.792	0.352	0.044
-134.385	77.638	0.126	0.133
-133.370	-75.950	0.260	0.092
-132.356	-76.345	0.215	0.075
-131.341	-200.000	-0.024	-0.283
-130.326	-65.751	0.136	-0.054
-129.312	-200.000	-0.016	0.131
-128.297	800.000	0.138	0.397
-127.283	-38.567	0.213	0.112
-126.268	-141.210	0.204	0.021
-125.253	-200.000	0.006	0.041
-124.239	-87.457	-0.163	0.049
-123.224	254.066	0.054	0.092
-122.210	13.507	-0.315	0.243
