DTS Sentinel unit serial number:	SN413079Multiplexer serial number:	ORYXHardware model number:	OX4-SRSoftware version number:	ORYX F/W v4.00 Oryx Data Collector v3.7.2.0data status	okinstallation	princeton_trtdifferential loss correction	single-endedforward channel	channel 3reverse channel	N/Adate	2019/09/15time	10:44:35forward acquisition time	60.00reverse acquisition time	0.00gamma	496.2192k internal	0.2308k external	0.2308temperature offset calibration	0.9972default loss term (dB/km)	0.3790temperature slope calibration	1.0000multiplexer offset coefficient	1.0000multiplexer slope coefficient	1.0000fibre end	0.00T internal ref (°C)	34.25T ext. ref 1 (°C)	5.03T ext. ref 2 (°C)	29.54length (m)	temperature (°C)	Stokes	anti-Stokes-747.200	-200.000	-0.037	0.285
-746.185	-200.000	0.022	0.123
-745.171	76.629	0.283	0.305
-744.156	170.907	-0.081	0.118
-743.142	359.191	0.047	0.095
-742.127	-89.695	0.033	0.010
-741.112	71.873	-0.250	0.264
-740.098	282.123	0.027	0.050
-739.083	800.000	-0.054	0.198
-738.069	-200.000	-0.001	0.304
-737.054	-200.000	0.000	-0.263
-736.039	-24.628	-0.197	-0.119
-735.025	219.205	-0.097	-0.158
-734.010	23.677	0.174	0.145
-732.996	-116.814	0.184	0.034
-731.981	68.683	-0.180	0.187
-730.966	-49.031	-0.110	-0.054
-729.952	350.289	-0.121	-0.243
-728.937	-86.941	-0.332	-0.103
-727.923	800.000	-0.071	-0.241
-726.908	-126.148	-0.120	0.018
-725.894	-163.962	-0.360	0.017
-724.879	366.498	0.137	0.280
-723.864	-194.875	-0.374	0.003
-722.850	498.489	-0.054	-0.126
-721.835	-39.328	-0.082	0.044
-720.821	156.808	-0.170	0.239
-719.806	-80.273	-0.377	0.128
-718.791	-43.743	-0.328	0.168
-717.777	800.000	-0.064	0.195
-716.762	800.000	0.125	-0.425
-715.748	-32.217	-0.166	-0.094
-714.733	131.554	0.129	-0.168
-713.718	-158.857	-0.161	0.009
-712.704	-34.856	-0.278	0.154
-711.689	47.610	-0.241	-0.228
-710.675	-48.249	-0.176	-0.086
-709.660	-87.492	-0.312	0.096
-708.645	84.434	-0.173	-0.192
-707.631	482.601	0.064	0.147
-706.616	173.223	0.074	0.109
-705.602	-200.000	0.027	-0.255
-704.587	-68.418	-0.166	-0.065
-703.572	-140.047	-0.483	0.052
-702.558	800.000	-0.020	0.066
-701.543	-17.918	0.124	0.079
-700.529	26.465	0.224	0.190
-699.514	-174.326	-0.244	-0.007
-698.499	-200.000	-0.006	0.030
-697.485	91.291	-0.202	-0.231
-696.470	-151.824	-0.156	0.012
-695.456	-200.000	-0.007	0.190
-694.441	538.137	-0.129	0.311
-693.426	18.043	0.267	-0.216
-692.412	800.000	-0.077	-0.259
-691.397	-150.124	0.348	0.027
-690.383	-72.247	-0.149	-0.056
-689.368	-147.969	0.228	0.019
-688.354	-4.423	-0.307	-0.215
-687.339	-174.648	-0.248	-0.007
-686.324	800.000	-0.038	-0.128
-685.310	-112.094	-0.263	0.054
-684.295	60.475	0.066	-0.066
-683.281	-84.537	0.138	-0.044
-682.266	91.231	-0.293	-0.333
-681.251	18.228	-0.318	0.257
-680.237	-200.000	-0.020	0.321
-679.222	259.995	-0.082	-0.144
-678.208	-64.525	0.258	-0.106
-677.193	-57.869	0.253	-0.112
-676.178	-200.000	0.021	-0.285
-675.164	-163.159	0.130	0.006
-674.149	-2.407	0.376	-0.267
-673.135	13.573	-0.122	-0.096
-672.120	302.105	-0.081	0.153
-671.105	505.809	-0.074	-0.175
-670.091	9.003	-0.036	0.027
-669.076	37.202	-0.297	-0.267
-668.062	-17.728	-0.112	-0.071
-667.047	229.964	0.060	0.100
-666.032	127.535	-0.082	-0.105
-665.018	-200.000	0.023	-0.143
-664.003	-60.436	0.113	0.049
-662.989	-150.339	-0.321	0.025
-661.974	-200.000	-0.005	-0.090
-660.959	-53.504	0.080	-0.037
-659.945	312.555	0.049	-0.093
-658.930	-200.000	0.007	0.041
-657.916	116.591	0.327	-0.406
-656.901	170.943	0.257	-0.374
-655.886	-21.514	0.098	0.060
-654.872	56.278	-0.178	-0.175
-653.857	-200.000	-0.005	-0.161
-652.843	212.976	-0.160	-0.256
-651.828	33.447	-0.052	-0.046
-650.814	476.583	0.041	0.094
-649.799	-15.450	0.366	0.237
-648.784	129.738	-0.057	0.074
-647.770	83.264	-0.106	0.117
-646.755	40.354	-0.163	0.149
-645.741	93.160	-0.277	-0.318
-644.726	-97.375	0.095	-0.025
-643.711	272.796	-0.154	0.275
-642.697	-109.973	-0.148	0.031
-641.682	0.264	0.106	-0.077
-640.668	-64.941	-0.115	-0.047
-639.653	134.542	-0.095	-0.125
-638.638	-200.000	-0.045	-0.236
-637.624	-145.407	0.311	-0.028
-636.609	-61.607	-0.249	0.106
-635.595	-82.946	-0.286	-0.093
-634.580	26.467	0.122	-0.104
-633.565	-200.000	0.007	0.281
-632.551	-200.000	0.092	-0.417
-631.536	-200.000	-0.044	-0.222
-630.522	330.637	0.020	0.039
-629.507	93.032	-0.030	-0.034
-628.492	-123.524	0.002	-0.000
-627.478	29.368	0.031	-0.027
-626.463	-81.302	-0.055	-0.018
-625.449	2.122	-0.335	-0.245
-624.434	-100.915	0.317	-0.079
-623.419	91.351	-0.103	0.117
-622.405	-98.693	-0.009	0.002
-621.390	283.955	-0.088	-0.160
-620.376	-200.000	-0.019	-0.120
-619.361	-92.306	0.306	-0.087
-618.346	-159.295	0.190	0.011
-617.332	800.000	0.046	0.152
-616.317	-73.185	-0.326	-0.121
-615.303	-200.000	0.020	-0.332
-614.288	200.802	0.088	-0.137
-613.273	285.844	-0.081	-0.148
-612.259	-169.241	0.267	-0.010
-611.244	558.982	-0.073	0.179
-610.230	-200.000	0.015	-0.076
-609.215	322.893	-0.108	0.207
-608.201	-73.961	-0.102	-0.038
-607.186	776.911	-0.037	0.101
-606.171	234.288	-0.167	0.278
-605.157	49.083	0.068	-0.065
-604.142	-73.909	-0.101	0.037
-603.128	-82.806	-0.191	0.063
-602.113	1.872	0.204	0.149
-601.098	-97.708	0.077	0.020
-600.084	-51.425	0.257	-0.121
-599.069	-200.000	-0.015	0.217
-598.055	240.719	-0.093	-0.157
-597.040	21.498	-0.194	-0.159
-596.025	-34.853	-0.205	-0.113
-595.011	-200.000	0.008	-0.226
-593.996	-200.000	0.011	0.054
-592.982	-200.000	0.302	0.000
-591.967	-200.000	0.044	0.197
-590.952	-200.000	0.091	0.413
-589.938	337.064	-0.132	0.258
-588.923	457.343	0.098	0.220
-587.909	136.685	-0.094	-0.124
-586.894	-1.924	0.150	0.106
-585.879	136.761	0.037	-0.049
-584.865	-101.292	0.250	-0.062
-583.850	279.974	0.077	0.140
-582.836	-200.000	0.011	0.195
-581.821	-176.858	-0.260	0.007
-580.806	-65.435	-0.372	0.151
-579.792	7.512	-0.107	-0.081
-578.777	166.521	0.284	-0.407
-577.763	-108.911	-0.071	0.015
-576.748	-149.870	0.330	-0.026
-575.733	-200.000	-0.043	0.195
-574.719	-41.393	0.235	0.122
-573.704	-62.682	-0.149	-0.062
-572.690	-74.318	0.053	-0.019
-571.675	127.756	0.092	0.118
-570.661	-10.262	-0.278	-0.187
-569.646	4.974	0.092	-0.068
-568.631	151.612	0.233	0.321
-567.617	-21.050	0.056	-0.034
-566.602	326.573	-0.058	0.112
-565.588	-79.456	-0.258	-0.088
-564.573	-56.607	0.040	-0.018
-563.558	-138.264	-0.109	-0.012
-562.544	534.708	-0.117	0.279
-561.529	14.850	0.094	-0.074
-560.515	374.393	0.140	-0.287
-559.500	143.996	-0.244	-0.329
-558.485	-139.374	0.272	-0.030
-557.471	-14.238	0.148	0.096
-556.456	-115.313	-0.135	-0.026
-555.442	-200.000	-0.041	0.223
-554.427	478.597	-0.072	0.164
-553.412	99.083	0.108	-0.126
-552.398	-200.000	0.007	0.201
-551.383	-30.697	-0.254	-0.145
-550.369	177.298	0.284	-0.417
-549.354	-78.412	-0.264	-0.091
-548.339	-200.000	-0.019	-0.101
-547.325	-98.803	-0.617	-0.158
-546.310	-83.936	-0.226	0.073
-545.296	288.420	0.103	0.189
-544.281	71.373	-0.172	0.180
-543.266	130.723	-0.090	0.116
-542.252	78.158	-0.218	-0.234
-541.237	242.121	0.084	0.141
-540.223	389.393	0.053	0.111
-539.208	-116.591	-0.046	-0.008
-538.193	-57.011	0.180	0.080
-537.179	-92.407	-0.094	-0.027
-536.164	800.000	-0.066	-0.275
-535.150	226.555	0.088	-0.144
-534.135	-200.000	-0.022	-0.389
-533.121	-68.265	0.084	-0.033
-532.106	-63.564	-0.213	0.088
-531.091	800.000	0.051	-0.174
-530.077	195.989	-0.116	-0.178
-529.062	-120.519	0.402	-0.069
-528.048	616.295	-0.108	-0.272
-527.033	141.002	-0.177	0.236
-526.018	-200.000	0.007	0.104
-525.004	26.606	0.022	-0.019
-523.989	13.124	0.202	0.157
-522.975	84.426	-0.109	-0.120
-521.960	108.270	-0.078	0.094
-520.945	-51.953	-0.051	0.024
-519.931	-26.095	0.100	0.059
-518.916	-135.372	-0.388	-0.047
-517.902	-200.000	-0.040	0.193
-516.887	322.485	-0.085	-0.162
-515.872	259.048	0.059	-0.102
-514.858	800.000	0.043	-0.139
-513.843	-72.589	0.223	-0.083
-512.829	-146.269	0.210	0.019
-511.814	-67.246	-0.440	-0.175
-510.799	-75.709	0.251	-0.090
-509.785	518.156	0.052	0.122
-508.770	-135.003	-0.358	-0.044
-507.756	-164.401	0.281	0.013
-506.741	-89.952	-0.151	0.044
-505.726	25.008	0.160	0.134
-504.712	-20.952	0.244	0.150
-503.697	-19.940	-0.288	-0.179
-502.683	-98.022	-0.343	-0.089
-501.668	31.071	-0.184	-0.159
-500.653	-102.796	-0.162	-0.039
-499.639	-54.844	0.243	-0.110
-498.624	182.909	0.273	-0.405
-497.610	-200.000	-0.037	-0.245
-496.595	-200.000	-0.007	0.138
-495.581	292.381	0.143	0.263
-494.566	-14.616	0.074	0.048
-493.551	8.056	0.378	0.286
-492.537	26.277	0.090	0.075
-491.522	442.624	0.158	-0.348
-490.508	-104.964	0.162	-0.037
-489.493	412.049	-0.027	0.058
-488.478	105.741	0.027	-0.032
-487.464	-200.000	-0.004	-0.376
-486.449	27.830	-0.216	0.183
-485.435	-154.640	-0.093	-0.006
-484.420	-200.000	-0.009	0.150
-483.405	-169.465	0.137	-0.005
-482.391	187.085	-0.075	-0.112
-481.376	285.925	-0.065	-0.118
-480.362	-6.704	0.269	0.184
-479.347	74.582	-0.084	-0.089
-478.332	728.995	0.205	0.552
-477.318	127.319	-0.080	-0.102
-476.303	-53.859	0.367	-0.168
-475.289	-200.000	-0.022	-0.245
-474.274	-97.868	0.325	0.085
-473.259	-182.200	0.151	0.003
-472.245	-200.000	-0.012	-0.358
-471.230	800.000	-0.035	-0.116
-470.216	-188.515	0.287	-0.004
-469.201	-97.424	0.113	-0.030
-468.186	-200.000	-0.016	0.298
-467.172	-16.940	-0.182	0.115
-466.157	-200.000	-0.018	0.215
-465.143	38.599	0.285	-0.256
-464.128	-77.198	-0.316	0.111
-463.113	29.601	-0.229	0.196
-462.099	8.773	0.155	0.118
-461.084	-144.138	0.338	0.032
-460.070	-52.006	0.321	0.150
-459.055	99.928	-0.121	-0.140
-458.040	709.668	0.060	-0.159
-457.026	-77.908	-0.142	-0.049
-456.011	-168.483	-0.194	-0.007
-454.997	-9.376	0.103	0.069
-453.982	-43.844	-0.130	-0.066
-452.968	166.765	0.128	0.183
-451.953	-200.000	-0.059	0.392
-450.938	800.000	-0.049	0.169
-449.924	218.978	0.298	-0.479
-448.909	79.747	0.020	-0.022
-447.895	-13.082	0.123	0.080
-446.880	-75.197	-0.053	0.019
-445.865	-144.875	0.071	-0.007
-444.851	-61.155	-0.154	-0.065
-443.836	-200.000	-0.042	0.204
-442.822	-101.454	-0.279	0.068
-441.807	-200.000	0.018	0.170
-440.792	222.039	0.057	0.092
-439.778	-85.603	0.414	0.129
-438.763	800.000	0.061	-0.227
-437.749	800.000	-0.074	-0.224
-436.734	6.510	0.320	0.239
-435.719	2.157	0.221	-0.160
-434.705	-127.855	-0.227	-0.033
-433.690	-127.645	0.193	0.028
-432.676	134.444	0.089	-0.116
-431.661	-88.742	0.274	-0.082
-430.646	707.453	-0.043	-0.115
-429.632	658.799	0.110	0.284
-428.617	-144.971	-0.118	-0.011
-427.603	-200.000	-0.014	0.065
-426.588	173.987	-0.180	-0.261
-425.573	800.000	-0.100	-0.289
-424.559	356.498	0.088	0.176
-423.544	-47.643	0.135	-0.066
-422.530	800.000	0.051	-0.153
-421.515	-200.000	0.010	0.090
-420.500	800.000	0.046	-0.196
-419.486	63.797	0.104	0.105
-418.471	-153.720	-0.426	-0.029
-417.457	-125.907	-0.505	0.076
-416.442	-69.233	-0.290	-0.112
-415.428	800.000	0.024	-0.093
-414.413	-67.707	-0.199	0.078
-413.398	322.872	-0.180	0.345
-412.384	-9.961	-0.213	-0.142
-411.369	-2.850	0.088	0.062
-410.355	-131.886	0.241	0.032
-409.340	-115.907	-0.335	-0.063
-408.325	-2.305	0.142	0.100
-407.311	-48.112	-0.245	-0.119
-406.296	-70.979	-0.276	0.104
-405.282	800.000	-0.036	0.112
-404.267	216.863	-0.144	-0.230
-403.252	153.755	0.177	-0.243
-402.238	-103.043	-0.189	0.045
-401.223	-9.260	-0.162	0.108
-400.209	392.427	0.016	0.033
-399.194	302.493	0.019	0.036
-398.179	-200.000	0.021	-0.172
-397.165	26.133	0.147	0.123
-396.150	-157.475	0.232	0.014
-395.136	310.779	-0.056	-0.106
-394.121	-28.666	-0.264	0.152
-393.106	150.573	-0.182	0.248
-392.092	57.124	0.147	0.143
-391.077	19.829	-0.126	-0.102
-390.063	-200.000	-0.000	0.271
-389.048	-10.070	0.186	-0.124
-388.033	323.418	-0.089	-0.171
-387.019	759.755	-0.027	-0.073
-386.004	-12.070	-0.104	-0.068
-384.990	-117.069	-0.240	0.044
-383.975	126.728	0.080	0.101
-382.960	-27.562	0.362	0.211
-381.946	-124.806	-0.149	0.023
-380.931	-47.512	-0.260	-0.127
-379.917	-200.000	0.019	-0.270
-378.902	163.385	-0.099	-0.140
-377.888	-167.345	0.115	0.005
-376.873	654.702	-0.135	0.347
-375.858	312.254	0.068	0.129
-374.844	251.149	-0.091	-0.156
-373.829	3.528	-0.166	-0.121
-372.815	-38.982	0.199	-0.105
-371.800	-14.302	0.137	0.088
-370.785	1.019	0.232	-0.167
-369.771	102.481	0.090	-0.105
-368.756	-200.000	-0.008	-0.156
-367.742	-130.447	-0.259	-0.035
-366.727	-183.615	0.266	0.005
-365.712	-57.120	0.189	0.084
-364.698	-158.520	-0.269	0.016
-363.683	-57.030	-0.155	0.068
-362.669	22.791	0.134	-0.110
-361.654	-36.545	0.088	0.048
-360.639	-200.000	-0.059	-0.440
-359.625	-200.000	-0.036	0.248
-358.610	-200.000	0.001	-0.100
-357.596	-82.821	-0.350	-0.113
-356.581	-200.000	0.015	-0.092
-355.566	-22.235	0.113	-0.069
-354.552	359.475	0.149	0.299
-353.537	80.778	0.183	0.198
-352.523	280.769	-0.044	0.080
-351.508	800.000	-0.053	0.185
-350.493	-137.295	-0.158	0.018
-349.479	434.541	-0.120	-0.261
-348.464	111.315	-0.188	0.227
-347.450	-160.875	-0.160	-0.008
-346.435	-107.313	0.338	0.074
-345.420	308.366	0.089	0.166
-344.406	-108.791	-0.042	-0.009
-343.391	-34.974	0.126	0.069
-342.377	220.413	0.099	-0.159
-341.362	68.223	0.133	0.136
-340.348	-60.670	-0.079	-0.034
-339.333	108.126	0.059	-0.070
-338.318	-200.000	0.018	-0.256
-337.304	800.000	0.031	-0.108
-336.289	-135.434	-0.089	0.011
-335.275	218.929	-0.146	-0.233
-334.260	-134.514	-0.483	0.059
-333.245	-117.535	-0.279	0.050
-332.231	-25.105	0.164	0.097
-331.216	-51.799	-0.369	-0.172
-330.202	-69.346	0.181	0.070
-329.187	-200.000	-0.008	-0.286
-328.172	456.951	-0.080	-0.177
-327.158	128.679	-0.078	-0.099
-326.143	-62.099	-0.165	-0.069
-325.129	59.332	0.168	0.165
-324.114	800.000	-0.007	-0.030
-323.099	312.513	0.051	-0.096
-322.085	-200.000	-0.067	-0.302
-321.070	-147.970	-0.135	-0.011
-320.056	800.000	0.078	-0.228
-319.041	114.682	-0.271	-0.331
-318.026	-105.866	0.190	-0.043
-317.012	-200.000	-0.020	-0.096
-315.997	-200.000	0.045	0.246
-314.983	-9.929	-0.154	0.102
-313.968	-200.000	-0.007	-0.082
-312.953	739.214	0.075	0.202
-311.939	-23.243	0.102	0.062
-310.924	89.810	0.031	0.034
-309.910	-110.562	0.240	-0.050
-308.895	59.239	-0.113	-0.111
-307.880	-200.000	0.011	0.085
-306.866	-200.000	0.013	0.077
-305.851	800.000	-0.033	0.123
-304.837	204.965	-0.141	0.218
-303.822	-80.975	-0.183	-0.061
-302.807	800.000	-0.118	0.359
-301.793	-200.000	0.007	0.450
-300.778	-13.735	-0.057	0.037
-299.764	-37.859	-0.134	-0.071
-298.749	109.697	0.102	0.122
-297.735	47.630	-0.156	0.145
-296.720	186.858	0.119	0.176
-295.705	-147.692	-0.062	-0.005
-294.691	-200.000	0.082	0.387
-293.676	623.299	-0.031	0.078
-292.662	-176.859	0.159	0.004
-291.647	125.699	0.086	-0.109
-290.632	-200.000	-0.037	0.287
-289.618	32.394	-0.187	-0.161
-288.603	-118.375	-0.094	-0.017
-287.589	201.392	-0.142	0.218
-286.574	38.282	-0.072	0.064
-285.559	783.099	-0.133	-0.363
-284.545	686.636	-0.060	-0.156
-283.530	146.746	0.035	0.047
-282.516	-200.000	-0.008	-0.189
-281.501	-27.054	0.161	0.094
-280.486	-47.545	-0.144	-0.070
-279.472	-154.221	0.203	-0.014
-278.457	800.000	-0.051	-0.176
-277.443	-44.854	0.069	0.035
-276.428	-15.995	0.174	0.111
-275.413	494.957	0.081	0.185
-274.399	-200.000	0.022	0.177
-273.384	-200.000	-0.023	0.185
-272.370	-140.445	0.114	0.012
-271.355	-15.380	-0.226	-0.144
-270.340	262.629	-0.096	0.167
-269.326	-200.000	0.038	0.356
-268.311	-144.467	0.421	0.039
-267.297	-200.000	-0.021	-0.110
-266.282	25.219	-0.030	-0.025
-265.267	373.043	0.035	-0.070
-264.253	800.000	0.040	0.172
-263.238	20.474	0.147	0.119
-262.224	5.353	0.146	-0.107
-261.209	-124.733	-0.191	-0.029
-260.195	-118.160	0.234	0.042
-259.180	-108.877	0.244	0.052
-258.165	796.837	-0.105	0.288
-257.151	800.000	0.065	0.249
-256.136	-82.516	0.232	0.075
-255.122	231.447	-0.110	0.180
-254.107	-200.000	0.036	-0.442
-253.092	-65.010	0.189	-0.076
-252.078	33.106	0.177	-0.153
-251.063	-81.499	-0.222	0.073
-250.049	-200.000	0.068	0.356
-249.034	18.780	0.160	0.127
-248.019	109.439	0.232	-0.276
-247.005	210.756	-0.224	0.351
-245.990	155.462	0.190	0.261
-244.976	-7.629	-0.415	-0.279
-243.961	-200.000	-0.026	-0.128
-242.946	-200.000	0.008	0.059
-241.932	800.000	-0.047	-0.168
-240.917	190.512	0.193	-0.289
-239.903	415.071	-0.210	0.447
-238.888	225.719	0.153	-0.247
-237.873	26.491	0.105	-0.088
-236.859	-55.720	0.065	-0.029
-235.844	426.332	-0.100	-0.215
-234.830	-10.395	-0.090	0.059
-233.815	777.652	0.027	-0.073
-232.800	-27.789	0.154	0.089
-231.786	555.075	0.068	0.162
-230.771	800.000	-0.036	-0.108
-229.757	-67.368	0.338	0.132
-228.742	-20.192	-0.099	0.061
-227.727	-52.512	0.283	0.130
-226.713	42.458	0.021	0.019
-225.698	-200.000	0.013	0.080
-224.684	395.565	0.104	-0.216
-223.669	7.844	-0.283	0.211
-222.655	111.011	-0.217	0.260
-221.640	58.048	0.332	0.323
-220.625	338.520	-0.042	-0.081
-219.611	-86.287	-0.373	-0.114
-218.596	145.553	-0.161	-0.215
-217.582	-30.118	-0.091	-0.052
-216.567	24.302	0.147	0.121
-215.552	-67.446	-0.134	-0.052
-214.538	-200.000	0.012	0.269
-213.523	-87.756	-0.273	-0.082
-212.509	-101.096	0.631	-0.154
-211.494	-76.918	0.036	-0.012
-210.479	-124.291	-0.457	0.071
-209.465	-28.588	-0.064	0.037
-208.450	119.322	-0.065	0.080
-207.436	800.000	0.060	0.196
-206.421	171.030	0.054	0.077
-205.406	-200.000	-0.011	-0.121
-204.392	-29.052	0.322	-0.184
-203.377	54.783	0.117	-0.112
-202.363	800.000	0.055	0.208
-201.348	-200.000	0.013	0.085
-200.333	-200.000	0.013	-0.171
-199.319	575.613	-0.081	-0.196
-198.304	-63.954	0.159	0.065
-197.290	148.942	0.119	-0.161
-196.275	-140.015	0.283	-0.030
-195.260	-54.001	-0.020	0.009
-194.246	-106.832	0.069	0.015
-193.231	-125.774	0.294	-0.044
-192.217	-200.000	-0.006	0.080
-191.202	-200.000	-0.003	0.225
-190.187	800.000	-0.054	-0.236
-189.173	-83.616	0.130	-0.041
-188.158	-33.049	-0.082	0.045
-187.144	-63.714	-0.061	0.025
-186.129	-200.000	0.051	-0.336
-185.114	-5.951	0.266	0.181
-184.100	157.750	0.167	0.230
-183.085	-200.000	0.020	-0.297
-182.071	-41.638	0.099	-0.051
-181.056	38.780	-0.109	-0.096
-180.042	-18.956	-0.167	-0.103
-179.027	-11.129	0.142	0.093
-178.012	3.406	-0.201	0.146
-176.998	-157.845	0.292	-0.017
-175.983	135.870	0.141	0.183
-174.969	-200.000	-0.011	-0.083
-173.954	-200.000	-0.016	-0.115
-172.939	-24.011	0.136	-0.081
-171.925	419.597	-0.075	-0.160
-170.910	-200.000	-0.072	-0.000
-169.896	54.333	-0.216	0.206
-168.881	402.629	-0.172	-0.359
-167.866	-200.000	-0.058	-0.364
-166.852	800.000	0.002	-0.008
-165.837	49.510	-0.075	0.070
-164.823	82.239	0.103	0.111
-163.808	3.765	-0.203	-0.147
-162.793	128.946	0.020	-0.025
-161.779	-78.161	0.446	0.153
-160.764	50.265	0.117	-0.109
-159.750	195.022	0.150	-0.226
-158.735	56.653	-0.349	0.337
-157.720	96.026	0.130	0.147
-156.706	107.580	-0.067	-0.079
-155.691	-200.000	-0.027	0.313
-154.677	800.000	-0.170	0.474
-153.662	296.763	-0.054	0.098
-152.647	132.250	0.025	-0.032
-151.633	800.000	-0.056	-0.177
-150.618	-130.252	-0.267	-0.036
-149.604	-200.000	0.010	-0.073
-148.589	-162.348	0.223	0.011
-147.574	73.734	0.098	0.102
-146.560	9.819	-0.247	0.186
-145.545	-156.080	-0.048	-0.003
-144.531	-200.000	0.018	0.236
-143.516	-12.311	0.170	0.111
-142.502	-200.000	0.013	-0.139
-141.487	146.689	-0.056	-0.074
-140.472	288.564	0.176	0.316
-139.458	-43.751	-0.211	-0.105
-138.443	33.890	-0.094	-0.081
-137.429	12.608	0.188	0.144
-136.414	62.387	-0.115	0.114
-135.399	-179.670	-0.364	0.008
-134.385	-51.701	0.226	0.104
-133.370	-200.000	-0.027	-0.184
-132.356	231.250	-0.139	0.226
-131.341	23.204	-0.259	0.211
-130.326	93.456	0.087	0.098
-129.312	-27.584	-0.127	0.073
-128.297	-200.000	0.008	0.119
-127.283	-50.277	-0.132	0.062
-126.268	198.464	0.140	0.213
-125.253	-70.670	0.424	0.159
-124.239	470.372	-0.075	-0.166
-123.224	-45.135	0.202	-0.100
-122.210	-86.791	-0.185	0.056
-121.195	-88.970	0.284	-0.084
