DTS Sentinel unit serial number:	SN413079Multiplexer serial number:	ORYXHardware model number:	OX4-SRSoftware version number:	ORYX F/W v4.00 Oryx Data Collector v3.7.2.0data status	okinstallation	princeton_trtdifferential loss correction	single-endedforward channel	channel 3reverse channel	N/Adate	2019/09/15time	02:16:34forward acquisition time	60.00reverse acquisition time	0.00gamma	496.2192k internal	0.2321k external	0.2321temperature offset calibration	0.9971default loss term (dB/km)	0.3790temperature slope calibration	1.0000multiplexer offset coefficient	1.0000multiplexer slope coefficient	1.0000fibre end	0.00T internal ref (°C)	31.62T ext. ref 1 (°C)	4.55T ext. ref 2 (°C)	26.20length (m)	temperature (°C)	Stokes	anti-Stokes-747.200	412.354	-0.097	-0.209
-746.185	-56.862	-0.092	0.041
-745.171	-50.409	-0.259	0.124
-744.156	-61.557	0.082	0.035
-743.142	661.010	-0.083	0.215
-742.127	-200.000	0.011	0.071
-741.112	-70.986	0.282	-0.107
-740.098	-200.000	-0.051	0.258
-739.083	1.037	0.223	-0.161
-738.069	-67.589	0.180	-0.071
-737.054	-73.377	-0.139	-0.051
-736.039	-200.000	0.002	-0.659
-735.025	338.365	0.105	0.206
-734.010	-200.000	-0.039	0.437
-732.996	-189.208	-0.341	-0.004
-731.981	86.813	-0.153	0.171
-730.966	-13.953	-0.130	-0.085
-729.952	-97.373	-0.327	0.086
-728.937	522.323	-0.199	-0.473
-727.923	-93.304	0.217	0.061
-726.908	93.837	-0.234	0.267
-725.894	-148.424	-0.236	0.020
-724.879	-200.000	-0.025	0.207
-723.864	800.000	-0.079	-0.223
-722.850	-109.029	-0.301	0.065
-721.835	217.627	0.080	-0.128
-720.821	311.573	-0.083	0.157
-719.806	-134.205	0.291	-0.036
-718.791	104.536	0.128	-0.152
-717.777	98.244	0.135	-0.157
-716.762	-72.610	-0.365	-0.136
-715.748	-47.997	0.015	0.007
-714.733	120.609	-0.271	-0.340
-713.718	519.627	-0.101	-0.240
-712.704	53.286	-0.140	-0.135
-711.689	800.000	-0.041	0.132
-710.675	471.219	0.042	-0.096
-709.660	-70.405	-0.332	0.127
-708.645	83.044	-0.111	0.121
-707.631	244.239	0.196	-0.333
-706.616	-40.648	0.343	-0.179
-705.602	-71.229	-0.131	-0.050
-704.587	205.570	0.157	-0.246
-703.572	-200.000	-0.052	-0.264
-702.558	138.616	0.053	0.070
-701.543	-70.742	0.185	0.070
-700.529	-200.000	0.013	-0.171
-699.514	-154.390	-0.171	-0.012
-698.499	-133.099	-0.084	-0.011
-697.485	-0.649	0.084	-0.060
-696.470	-200.000	-0.057	-0.257
-695.456	-111.012	0.350	-0.073
-694.441	-117.442	0.294	0.054
-693.426	163.822	-0.064	0.091
-692.412	-83.404	-0.225	-0.073
-691.397	-69.107	-0.048	0.019
-690.383	-9.528	-0.159	0.107
-689.368	-68.635	-0.240	0.094
-688.354	-200.000	-0.063	-0.345
-687.339	-101.503	0.300	-0.074
-686.324	-62.002	-0.187	0.079
-685.310	-23.778	-0.215	0.130
-684.295	-134.038	-0.314	-0.039
-683.281	-44.604	0.039	-0.020
-682.266	754.181	0.134	0.364
-681.251	391.963	0.132	-0.277
-680.237	-200.000	0.003	0.047
-679.222	241.787	0.075	0.126
-678.208	800.000	0.124	-0.360
-677.193	797.074	-0.139	-0.387
-676.178	-119.370	0.210	0.037
-675.164	53.334	-0.287	-0.277
-674.149	-190.568	0.663	-0.007
-673.135	-199.261	-0.164	0.001
-672.120	34.971	0.141	0.125
-671.105	391.582	-0.126	0.264
-670.091	-33.844	-0.048	-0.027
-669.076	559.747	-0.063	-0.154
-668.062	-200.000	-0.031	0.278
-667.047	-135.914	0.312	-0.037
-666.032	-103.081	0.132	-0.032
-665.018	28.099	0.115	0.098
-664.003	-60.329	0.259	-0.111
-662.989	-146.337	-0.163	-0.014
-661.974	-57.488	-0.357	-0.158
-660.959	-143.313	-0.388	0.038
-659.945	-200.000	0.038	-0.193
-658.930	73.621	0.201	0.212
-657.916	-34.400	0.290	-0.160
-656.901	-27.628	0.156	0.091
-655.886	-24.027	0.230	0.138
-654.872	-200.000	0.004	0.180
-653.857	89.507	0.127	-0.143
-652.843	-61.742	-0.167	-0.070
-651.828	-157.336	-0.245	0.015
-650.814	429.353	-0.066	-0.143
-649.799	-200.000	0.026	-0.278
-648.784	63.405	0.029	-0.029
-647.770	350.118	0.098	-0.196
-646.755	43.800	-0.303	0.280
-645.741	371.352	-0.152	0.310
-644.726	-161.914	0.379	-0.019
-643.711	-200.000	0.044	-0.214
-642.697	-11.449	0.063	0.042
-641.682	-119.376	-0.324	0.057
-640.668	-44.724	0.174	0.088
-639.653	2.779	-0.197	0.144
-638.638	551.829	0.020	-0.049
-637.624	81.673	0.160	0.174
-636.609	-200.000	-0.031	0.261
-635.595	-195.898	-0.094	-0.001
-634.580	-125.209	-0.277	0.043
-633.565	25.559	0.041	0.034
-632.551	800.000	0.100	0.302
-631.536	-57.122	-0.025	-0.011
-630.522	-200.000	0.018	-0.145
-629.507	15.879	0.215	-0.170
-628.492	-141.543	-0.219	0.022
-627.478	73.419	-0.135	-0.142
-626.463	-200.000	0.011	-0.163
-625.449	-200.000	0.053	0.352
-624.434	36.192	0.097	-0.086
-623.419	25.297	0.182	-0.153
-622.405	451.600	0.034	-0.075
-621.390	41.827	0.222	-0.203
-620.376	-200.000	-0.166	-0.000
-619.361	-168.542	-0.091	0.003
-618.346	32.481	-0.177	-0.154
-617.332	133.448	0.058	-0.076
-616.317	-36.321	-0.231	-0.125
-615.303	-132.822	-0.311	-0.040
-614.288	18.931	0.092	0.074
-613.273	229.508	-0.049	0.080
-612.259	613.669	-0.101	-0.255
-611.244	-158.459	0.529	-0.031
-610.230	131.979	0.045	-0.058
-609.215	-24.690	0.166	-0.099
-608.201	-54.026	-0.206	-0.094
-607.186	71.021	-0.231	0.241
-606.171	123.446	0.181	0.228
-605.157	-51.511	-0.236	-0.111
-604.142	-33.031	0.073	0.041
-603.128	198.869	-0.151	0.232
-602.113	51.915	0.331	-0.316
-601.098	-200.000	-0.028	0.150
-600.084	255.462	0.085	0.147
-599.069	-28.535	-0.254	-0.147
-598.055	15.312	-0.156	0.123
-597.040	74.927	0.165	-0.175
-596.025	-166.463	0.212	-0.009
-595.011	-10.569	0.161	-0.107
-593.996	168.998	-0.132	-0.190
-592.982	-19.810	-0.236	0.146
-591.967	-200.000	0.026	-0.121
-590.952	-94.724	-0.201	0.055
-589.938	14.692	-0.093	0.073
-588.923	61.032	0.059	0.058
-587.909	64.837	-0.087	0.088
-586.894	16.452	-0.341	0.270
-585.879	800.000	0.014	-0.047
-584.865	370.108	0.172	0.349
-583.850	-200.000	0.041	-0.214
-582.836	54.028	-0.150	-0.145
-581.821	-141.564	-0.359	-0.036
-580.806	-82.776	-0.309	0.100
-579.792	-181.464	-0.400	0.008
-578.777	-122.541	0.261	-0.043
-577.763	-144.351	-0.252	0.024
-576.748	800.000	-0.120	-0.399
-575.733	93.641	0.265	-0.301
-574.719	-1.148	0.467	-0.331
-573.704	800.000	-0.054	0.186
-572.690	-200.000	-0.009	-0.375
-571.675	34.866	0.193	-0.169
-570.661	-90.365	-0.195	-0.057
-569.646	-122.512	0.034	0.005
-568.631	115.111	0.200	-0.245
-567.617	-30.249	0.385	0.220
-566.602	-102.818	0.207	-0.049
-565.588	341.099	-0.127	0.248
-564.573	336.119	-0.026	0.051
-563.558	-200.000	0.303	0.000
-562.544	367.956	-0.052	-0.106
-561.529	297.968	0.077	0.141
-560.515	89.618	0.083	-0.093
-559.500	624.086	0.099	-0.249
-558.485	626.412	0.208	0.528
-557.471	156.589	-0.129	-0.179
-556.456	471.435	0.101	0.228
-555.442	-96.792	-0.240	-0.063
-554.427	0.572	0.184	0.132
-553.412	-167.685	-0.172	-0.007
-552.398	50.658	0.109	-0.103
-551.383	478.441	0.069	0.156
-550.369	2.162	0.244	0.177
-549.354	-111.873	-0.086	-0.018
-548.339	256.979	-0.096	0.166
-547.325	24.314	-0.008	-0.007
-546.310	-38.771	0.032	0.017
-545.296	-31.794	0.096	0.054
-544.281	367.138	0.063	0.127
-543.266	-84.240	-0.214	-0.068
-542.252	-108.209	-0.290	0.063
-541.237	-200.000	-0.014	-0.507
-540.223	-107.368	0.296	0.065
-539.208	70.409	0.130	0.134
-538.193	-15.765	-0.165	0.105
-537.179	-50.402	-0.247	-0.117
-536.164	-31.487	0.088	-0.050
-535.150	-159.163	-0.378	0.021
-534.135	-60.256	0.234	0.100
-533.121	-23.773	0.131	0.079
-532.106	-200.000	0.063	-0.415
-531.091	800.000	-0.037	-0.157
-530.077	13.254	-0.168	-0.130
-529.062	128.112	0.192	-0.245
-528.048	70.396	0.219	0.227
-527.033	298.819	-0.036	-0.066
-526.018	-65.525	0.095	-0.038
-525.004	800.000	-0.122	-0.465
-523.989	-200.000	-0.010	-0.409
-522.975	-120.801	0.351	-0.059
-521.960	355.135	-0.066	-0.132
-520.945	189.027	-0.212	-0.318
-519.931	797.907	-0.170	-0.469
-518.916	105.041	0.129	-0.152
-517.902	-28.286	-0.289	-0.167
-516.887	-29.659	-0.108	-0.062
-515.872	-9.245	0.228	0.153
-514.858	501.319	-0.192	0.445
-513.843	-119.382	-0.131	0.023
-512.829	290.039	-0.076	0.139
-511.814	-67.027	-0.227	-0.090
-510.799	-200.000	-0.025	0.198
-509.785	-137.130	-0.229	0.026
-508.770	-200.000	-0.066	0.380
-507.756	54.325	-0.347	-0.334
-506.741	-47.358	-0.076	0.037
-505.726	279.933	-0.182	0.326
-504.712	472.926	0.087	-0.196
-503.697	121.761	0.006	0.008
-502.683	-95.991	-0.040	0.011
-501.668	514.846	-0.121	0.284
-500.653	-200.000	0.004	-0.130
-499.639	-99.236	-0.147	0.037
-498.624	141.058	0.176	-0.233
-497.610	22.470	0.154	-0.126
-496.595	-113.884	-0.514	0.100
-495.581	800.000	0.088	-0.254
-494.566	167.197	-0.233	0.330
-493.551	-148.876	-0.065	0.005
-492.537	230.495	-0.169	0.277
-491.522	800.000	0.081	0.266
-490.508	262.250	-0.213	-0.369
-489.493	800.000	-0.089	-0.344
-488.478	-200.000	0.005	-0.075
-487.464	80.044	0.045	-0.048
-486.449	207.046	0.370	0.577
-485.435	-77.203	0.224	-0.078
-484.420	-30.882	-0.392	0.221
-483.405	-61.191	0.248	0.105
-482.391	202.164	-0.138	0.213
-481.376	-200.000	0.005	0.104
-480.362	-38.088	-0.253	0.134
-479.347	9.665	-0.094	0.072
-478.332	329.955	-0.104	0.200
-477.318	-200.000	0.028	-0.236
-476.303	-87.770	-0.244	-0.074
-475.289	-200.000	-0.004	-0.039
-474.274	800.000	-0.025	-0.101
-473.259	84.552	0.069	0.075
-472.245	154.647	0.236	0.324
-471.230	-62.891	-0.039	-0.016
-470.216	335.672	0.101	0.196
-469.201	-150.795	0.196	-0.015
-468.186	69.748	0.183	0.189
-467.172	-53.286	0.241	0.110
-466.157	-93.621	0.073	0.020
-465.143	-91.916	0.224	-0.063
-464.128	-45.723	0.102	-0.050
-463.113	361.271	0.096	0.193
-462.099	-135.780	0.450	0.053
-461.084	-73.312	0.113	0.041
-460.070	800.000	-0.136	0.390
-459.055	800.000	-0.139	0.493
-458.040	-30.737	-0.159	0.090
-457.026	757.750	-0.108	-0.291
-456.011	156.224	-0.120	0.165
-454.997	800.000	-0.015	-0.043
-453.982	-18.530	0.232	-0.145
-452.968	44.059	-0.113	-0.103
-451.953	-0.726	-0.169	0.120
-450.938	-200.000	0.013	-0.326
-449.924	-200.000	0.003	0.046
-448.909	-80.396	0.211	-0.070
-447.895	98.406	-0.100	-0.115
-446.880	216.030	0.139	0.220
-445.865	400.717	0.125	0.261
-444.851	-200.000	0.015	0.133
-443.836	98.437	0.252	0.290
-442.822	800.000	0.062	0.269
-441.807	-150.856	-0.482	0.036
-440.792	-91.327	0.149	-0.043
-439.778	-200.000	0.002	0.099
-438.763	107.878	0.119	-0.141
-437.749	111.049	0.362	-0.436
-436.734	-54.112	-0.118	-0.054
-435.719	-200.000	0.024	-0.193
-434.705	49.738	-0.233	-0.219
-433.690	75.888	-0.182	-0.192
-432.676	63.544	-0.151	0.151
-431.661	200.748	-0.137	0.211
-430.646	-200.000	-0.031	-0.223
-429.632	-39.592	-0.126	-0.066
-428.617	39.505	-0.198	0.177
-427.603	103.407	-0.113	-0.132
-426.588	703.120	0.044	0.115
-425.573	-200.000	-0.005	-0.100
-424.559	-33.276	-0.045	-0.025
-423.544	-128.056	-0.267	0.038
-422.530	308.187	0.092	-0.172
-421.515	537.786	-0.072	-0.171
-420.500	-32.996	0.384	-0.212
-419.486	800.000	0.039	-0.154
-418.471	-118.391	-0.221	0.039
-417.457	-200.000	-0.014	-0.159
-416.442	-122.180	0.228	-0.037
-415.428	586.674	-0.038	0.094
-414.413	18.209	0.231	0.184
-413.398	-34.542	-0.033	-0.018
-412.384	265.208	0.099	0.173
-411.369	58.155	-0.169	-0.166
-410.355	589.541	0.080	-0.196
-409.340	800.000	-0.059	-0.210
-408.325	-39.486	0.400	-0.209
-407.311	48.096	-0.204	-0.190
-406.296	53.458	-0.105	0.101
-405.282	21.928	0.172	0.140
-404.267	800.000	-0.101	0.321
-403.252	5.869	-0.165	-0.121
-402.238	-33.611	0.089	-0.049
-401.223	-10.635	0.169	-0.111
-400.209	-200.000	0.006	0.179
-399.194	73.524	0.114	-0.119
-398.179	71.826	0.080	-0.083
-397.165	-31.422	-0.226	0.126
-396.150	14.977	0.167	-0.130
-395.136	328.138	0.086	-0.166
-394.121	-200.000	0.052	-0.344
-393.106	189.858	0.097	0.145
-392.092	-36.108	0.294	0.158
-391.077	-119.122	-0.349	-0.061
-390.063	-112.133	-0.155	0.031
-389.048	167.540	0.132	-0.188
-388.033	27.401	-0.288	-0.241
-387.019	-29.874	0.129	-0.073
-386.004	36.893	-0.125	-0.110
-384.990	-119.086	0.195	0.034
-383.975	491.546	0.101	-0.230
-382.960	-29.469	-0.244	-0.139
-381.946	-30.192	-0.164	0.093
-380.931	-98.405	0.368	-0.094
-379.917	190.482	-0.077	-0.115
-378.902	-66.734	0.112	-0.044
-377.888	-17.944	-0.239	-0.149
-376.873	-200.000	-0.023	0.170
-375.858	-200.000	-0.017	-0.288
-374.844	365.671	0.194	0.389
-373.829	109.997	-0.089	0.106
-372.815	-158.394	0.213	0.012
-371.800	-95.360	-0.262	-0.070
-370.785	-200.000	0.068	0.352
-369.771	-134.969	0.246	-0.030
-368.756	-77.244	0.273	-0.094
-367.742	-200.000	-0.027	-0.201
-366.727	101.746	0.144	-0.167
-365.712	24.868	-0.135	0.111
-364.698	-121.201	-0.051	-0.008
-363.683	-135.533	0.190	-0.022
-362.669	-73.655	-0.157	0.057
-361.654	800.000	0.095	0.288
-360.639	-24.081	0.212	-0.126
-359.625	-200.000	-0.010	-0.099
-358.610	39.836	0.381	0.340
-357.596	199.380	0.272	0.415
-356.581	-200.000	0.058	-0.333
-355.566	115.972	-0.155	-0.189
-354.552	-200.000	-0.024	0.273
-353.537	-23.208	-0.163	0.098
-352.523	-200.000	0.027	0.121
-351.508	-200.000	-0.005	0.211
-350.493	39.351	0.240	-0.214
-349.479	579.889	0.047	-0.115
-348.464	2.478	0.029	0.021
-347.450	-125.640	0.047	0.007
-346.435	-115.477	0.213	-0.040
-345.420	27.086	-0.215	-0.179
-344.406	-151.874	0.135	-0.010
-343.391	-70.488	0.280	-0.106
-342.377	287.695	-0.061	-0.110
-341.362	299.465	0.132	-0.241
-340.348	800.000	-0.066	-0.230
-339.333	800.000	-0.128	-0.398
-338.318	144.264	-0.120	-0.159
-337.304	-109.712	0.096	-0.020
-336.289	800.000	-0.089	-0.284
-335.275	668.587	0.022	-0.057
-334.260	-33.368	-0.105	-0.058
-333.245	49.489	0.181	0.170
-332.231	-93.911	-0.046	0.012
-331.216	337.519	0.166	0.322
-330.202	800.000	-0.109	-0.329
-329.187	-12.310	0.181	-0.118
-328.172	-142.719	-0.383	0.037
-327.158	230.554	0.069	-0.112
-326.143	-57.486	-0.044	-0.019
-325.129	-40.573	-0.391	0.202
-324.114	-112.769	0.284	-0.056
-323.099	-166.497	-0.166	-0.007
-322.085	82.068	0.266	0.286
-321.070	24.886	0.074	-0.061
-320.056	-40.279	-0.199	0.103
-319.041	-200.000	-0.031	-0.394
-318.026	-200.000	-0.022	-0.373
-317.012	6.696	0.174	-0.129
-315.997	-57.280	-0.234	0.102
-314.983	-26.950	0.200	-0.116
-313.968	18.798	0.071	0.056
-312.953	-173.456	0.393	-0.012
-311.939	712.018	0.080	0.211
-310.924	-64.368	0.195	0.079
-309.910	213.275	-0.042	-0.066
-308.895	9.354	0.045	0.034
-307.880	45.667	0.161	-0.148
-306.866	220.882	0.040	0.064
-305.851	-148.450	0.435	0.035
-304.837	670.746	-0.142	0.365
-303.822	-102.080	0.137	0.033
-302.807	800.000	0.040	0.136
-301.793	487.913	0.197	0.446
-300.778	-112.789	0.338	0.067
-299.764	-6.039	-0.240	0.163
-298.749	-200.000	-0.012	0.224
-297.735	-64.328	0.482	-0.195
-296.720	-200.000	0.010	0.162
-295.705	-93.273	0.148	-0.041
-294.691	-200.000	0.001	0.103
-293.676	69.413	0.287	0.293
-292.662	-91.031	-0.167	0.048
-291.647	-154.676	0.086	-0.006
-290.632	399.963	0.112	-0.232
-289.618	172.830	0.108	0.154
-288.603	194.964	-0.092	0.139
-287.589	6.328	0.249	-0.183
-286.574	800.000	0.046	-0.133
-285.559	-127.014	-0.112	0.016
-284.545	-33.183	0.235	-0.129
-283.530	-141.723	0.201	0.020
-282.516	-200.000	-0.015	-0.073
-281.501	31.764	-0.225	-0.192
-280.486	25.593	-0.161	-0.133
-279.472	-66.210	-0.274	-0.108
-278.457	-200.000	-0.027	0.323
-277.443	-11.644	-0.386	0.252
-276.428	142.655	-0.142	0.187
-275.413	-200.000	-0.008	0.131
-274.399	-123.957	0.128	0.020
-273.384	296.887	0.239	-0.435
-272.370	-160.350	-0.315	-0.017
-271.355	11.729	0.199	0.151
-270.340	-200.000	0.049	0.245
-269.326	-199.130	-0.192	0.001
-268.311	-88.959	0.470	-0.138
-267.297	-200.000	0.011	0.229
-266.282	118.699	0.306	-0.375
-265.267	277.387	0.206	-0.363
-264.253	-46.457	-0.099	0.048
-263.238	-200.000	0.022	0.143
-262.224	156.344	-0.128	-0.175
-261.209	-99.642	0.159	-0.039
-260.195	-47.036	0.064	0.031
-259.180	84.873	0.044	0.048
-258.165	-84.623	-0.169	0.053
-257.151	-103.387	-0.171	-0.040
-256.136	-94.706	0.192	0.052
-255.122	81.529	-0.107	-0.115
-254.107	-62.065	0.085	0.035
-253.092	425.121	0.068	0.145
-252.078	800.000	0.084	0.249
-251.063	-54.703	-0.191	0.086
-250.049	800.000	-0.045	-0.134
-249.034	-117.837	-0.148	0.026
-248.019	-90.701	-0.185	-0.053
-247.005	61.313	-0.297	0.292
-245.990	-200.000	-0.004	0.375
-244.976	800.000	0.085	0.248
-243.961	800.000	-0.041	-0.171
-242.946	-166.066	-0.140	0.006
-241.932	-200.000	0.034	-0.257
-240.917	178.212	0.108	-0.156
-239.903	-200.000	0.020	-0.118
-238.888	-61.632	0.376	-0.156
-237.873	-60.381	-0.140	0.059
-236.859	-133.547	-0.185	0.023
-235.844	-52.074	0.127	0.059
-234.830	800.000	0.011	0.034
-233.815	-200.000	-0.017	0.316
-232.800	63.166	-0.374	-0.372
-231.786	-116.922	0.195	-0.035
-230.771	-173.810	-0.273	-0.008
-229.757	-163.835	-0.261	0.012
-228.742	86.448	-0.273	-0.298
-227.727	74.750	-0.120	-0.125
-226.713	186.224	-0.049	0.073
-225.698	476.014	-0.120	-0.268
-224.684	-51.023	-0.214	-0.099
-223.669	127.223	0.093	-0.117
-222.655	-30.603	0.080	-0.045
-221.640	-52.224	-0.146	0.067
-220.625	-200.000	-0.008	-0.151
-219.611	545.395	-0.111	-0.263
-218.596	430.642	-0.118	0.253
-217.582	800.000	0.043	-0.150
-216.567	-63.051	-0.242	0.099
-215.552	-134.297	-0.341	-0.041
-214.538	179.286	-0.156	0.227
-213.523	116.741	0.139	-0.169
-212.509	-145.638	-0.198	-0.018
-211.494	-88.774	-0.310	0.091
-210.479	800.000	-0.036	-0.135
-209.465	-200.000	-0.020	-0.323
-208.450	-22.967	0.402	0.240
-207.436	-114.039	-0.383	-0.073
-206.421	-74.154	0.064	-0.023
-205.406	-200.000	-0.037	0.433
-204.392	511.341	0.124	0.287
-203.377	-86.080	-0.087	0.027
-202.363	-104.263	-0.072	-0.016
-201.348	-200.000	0.023	0.310
-200.333	-91.311	-0.415	0.117
-199.319	-50.096	0.018	0.009
-198.304	61.351	0.125	-0.123
-197.290	-34.708	-0.325	0.176
-196.275	-123.374	-0.458	0.072
-195.260	-25.561	0.147	0.086
-194.246	-129.518	0.102	-0.014
-193.231	40.602	0.333	0.297
-192.217	-200.000	0.057	-0.309
-191.202	666.865	0.029	0.074
-190.187	40.055	0.114	0.101
-189.173	373.799	-0.117	0.235
-188.158	214.906	-0.158	0.248
-187.144	-69.664	0.139	0.052
-186.129	-52.618	-0.220	0.101
-185.114	447.221	-0.005	0.010
-184.100	40.127	0.056	0.050
-183.085	-200.000	0.024	0.337
-182.071	-113.997	0.309	0.059
-181.056	-86.601	-0.317	-0.096
-180.042	-29.551	0.065	-0.037
-179.027	-157.359	0.168	-0.010
-178.012	-174.805	0.368	-0.010
-176.998	800.000	-0.036	-0.102
-175.983	44.020	-0.205	0.186
-174.969	90.407	-0.178	-0.197
-173.954	-110.668	0.530	0.108
-172.939	10.314	-0.088	-0.067
-171.925	-45.612	-0.136	0.067
-170.910	-200.000	0.025	0.189
-169.896	42.042	0.311	-0.279
-168.881	11.224	-0.237	0.179
-167.866	129.990	0.090	0.113
-166.852	-62.026	-0.350	0.145
-165.837	-81.542	0.253	0.082
-164.823	-79.842	0.257	0.085
-163.808	-49.737	0.296	0.139
-162.793	-37.630	-0.195	0.103
-161.779	800.000	0.010	-0.033
-160.764	-181.661	-0.509	-0.010
-159.750	-175.436	0.109	0.003
-158.735	800.000	0.042	0.132
-157.720	-200.000	-0.006	-0.255
-156.706	223.188	-0.156	0.249
-155.691	-110.283	0.166	0.034
-154.677	391.554	-0.045	0.093
-153.662	-200.000	0.029	-0.136
-152.647	800.000	-0.107	0.318
-151.633	-22.081	0.326	-0.195
-150.618	231.715	-0.195	0.316
-149.604	0.002	-0.129	-0.091
-148.589	800.000	-0.103	0.341
-147.574	35.518	0.237	0.206
-146.560	800.000	-0.084	0.317
-145.545	-200.000	0.013	0.237
-144.531	474.533	-0.036	0.079
-143.516	800.000	-0.051	-0.148
-142.502	-76.124	0.250	0.087
-141.487	800.000	-0.045	0.134
-140.472	286.361	0.069	-0.123
-139.458	800.000	0.115	-0.391
-138.443	-87.518	0.135	0.040
-137.429	-16.912	0.282	0.176
-136.414	8.733	-0.153	-0.114
-135.399	186.185	0.155	0.227
-134.385	286.228	0.170	0.303
-133.370	168.494	-0.113	0.159
-132.356	-200.000	-0.012	0.499
-131.341	-200.000	-0.050	-0.345
-130.326	-200.000	0.009	0.293
-129.312	-151.337	-0.301	-0.022
-128.297	-112.331	0.402	-0.079
-127.283	-200.000	-0.036	-0.177
-126.268	-76.027	0.347	-0.121
-125.253	295.857	-0.080	-0.144
-124.239	-196.053	0.097	-0.001
-123.224	236.165	-0.097	0.159
-122.210	207.877	-0.075	-0.115
-121.195	800.000	-0.110	-0.324
