DTS Sentinel unit serial number:	SN413079Multiplexer serial number:	ORYXHardware model number:	OX4-SRSoftware version number:	ORYX F/W v4.00 Oryx Data Collector v3.7.2.0data status	okinstallation	princeton_trtdifferential loss correction	single-endedforward channel	channel 3reverse channel	N/Adate	2019/09/14time	23:52:34forward acquisition time	60.00reverse acquisition time	0.00gamma	496.2192k internal	0.2319k external	0.2319temperature offset calibration	0.9979default loss term (dB/km)	0.3790temperature slope calibration	1.0000multiplexer offset coefficient	1.0000multiplexer slope coefficient	1.0000fibre end	0.00T internal ref (°C)	32.25T ext. ref 1 (°C)	4.63T ext. ref 2 (°C)	27.15length (m)	temperature (°C)	Stokes	anti-Stokes-747.200	-200.000	-0.086	-0.471
-746.185	43.822	-0.200	0.186
-745.171	800.000	-0.098	-0.393
-744.156	-200.000	0.012	-0.264
-743.142	127.437	-0.145	0.186
-742.127	-25.529	0.325	-0.194
-741.112	52.634	-0.306	0.296
-740.098	29.386	-0.337	0.290
-739.083	298.190	0.066	0.123
-738.069	-100.414	0.148	0.037
-737.054	7.220	-0.226	-0.170
-736.039	-153.323	0.234	-0.016
-735.025	181.758	0.086	-0.128
-734.010	72.338	-0.046	0.048
-732.996	97.944	0.099	-0.116
-731.981	-95.870	-0.165	-0.045
-730.966	68.266	-0.118	0.122
-729.952	-47.237	-0.178	-0.088
-728.937	468.834	-0.040	-0.091
-727.923	-96.558	-0.273	0.073
-726.908	-157.692	-0.328	0.020
-725.894	84.444	-0.139	-0.153
-724.879	373.237	-0.034	-0.070
-723.864	-24.126	-0.327	-0.198
-722.850	-200.000	0.028	0.250
-721.835	149.786	-0.044	0.060
-720.821	-2.054	0.243	0.172
-719.806	92.445	0.230	-0.262
-718.791	115.015	-0.131	-0.162
-717.777	-20.250	0.178	0.111
-716.762	516.150	-0.180	-0.426
-715.748	-99.100	-0.181	-0.046
-714.733	99.281	-0.045	0.053
-713.718	487.977	-0.108	0.249
-712.704	-34.920	0.478	-0.263
-711.689	-20.141	-0.072	0.045
-710.675	-164.232	0.172	-0.008
-709.660	4.295	-0.139	-0.103
-708.645	39.806	-0.082	-0.074
-707.631	45.363	-0.273	-0.254
-706.616	-200.000	0.013	-0.172
-705.602	392.786	0.146	-0.307
-704.587	800.000	0.034	0.133
-703.572	411.447	-0.018	0.039
-702.558	32.533	-0.103	-0.090
-701.543	24.867	0.194	-0.162
-700.529	200.260	-0.182	0.283
-699.514	800.000	-0.041	-0.176
-698.499	800.000	0.034	-0.106
-697.485	-3.186	0.173	0.122
-696.470	665.345	-0.109	-0.284
-695.456	-37.005	-0.322	-0.174
-694.441	-106.873	0.053	-0.012
-693.426	-194.988	0.311	-0.002
-692.412	-58.900	0.089	0.039
-691.397	800.000	0.060	-0.210
-690.383	32.456	0.207	-0.180
-689.368	-148.938	-0.128	-0.010
-688.354	800.000	-0.113	-0.361
-687.339	-91.656	0.254	-0.073
-686.324	-149.530	0.221	-0.018
-685.310	800.000	0.115	-0.378
-684.295	73.457	-0.239	-0.253
-683.281	-200.000	-0.019	-0.286
-682.266	-38.292	-0.067	0.036
-681.251	76.700	0.005	-0.005
-680.237	-200.000	-0.009	0.165
-679.222	72.234	-0.182	0.191
-678.208	319.260	-0.101	0.194
-677.193	-88.576	-0.346	-0.104
-676.178	-8.805	-0.095	0.064
-675.164	-141.961	-0.225	0.023
-674.149	-97.901	-0.097	0.025
-673.135	-99.978	-0.516	-0.130
-672.120	-131.349	-0.101	0.014
-671.105	800.000	0.036	-0.105
-670.091	1.431	-0.417	0.302
-669.076	-98.352	0.387	-0.100
-668.062	-112.149	-0.013	-0.003
-667.047	47.631	-0.211	-0.198
-666.032	7.315	-0.214	-0.161
-665.018	5.482	-0.315	0.234
-664.003	-19.898	-0.134	0.084
-662.989	-73.092	-0.073	0.027
-661.974	-200.000	-0.015	-0.348
-660.959	-200.000	-0.001	-0.127
-659.945	96.528	-0.098	-0.114
-658.930	72.209	0.090	-0.094
-657.916	800.000	-0.022	0.086
-656.901	-130.166	0.358	0.049
-655.886	-96.151	0.194	0.052
-654.872	16.575	0.094	0.075
-653.857	800.000	-0.044	0.143
-652.843	-128.373	0.144	0.021
-651.828	-91.615	0.071	0.020
-650.814	-104.520	0.294	-0.069
-649.799	20.784	-0.152	0.124
-648.784	480.331	-0.116	-0.265
-647.770	-166.841	-0.322	-0.013
-646.755	117.910	0.079	-0.099
-645.741	-200.000	0.026	-0.280
-644.726	-62.468	-0.031	-0.013
-643.711	6.862	0.134	-0.101
-642.697	-200.000	-0.026	0.243
-641.682	800.000	-0.041	0.154
-640.668	-200.000	0.044	-0.272
-639.653	414.808	-0.108	-0.233
-638.638	-200.000	0.011	0.151
-637.624	-177.277	0.131	-0.003
-636.609	375.951	-0.125	0.257
-635.595	57.600	-0.131	0.129
-634.580	800.000	0.048	0.166
-633.565	-200.000	-0.034	-0.173
-632.551	551.112	-0.065	-0.157
-631.536	0.809	-0.162	-0.117
-630.522	220.972	-0.139	-0.224
-629.507	-130.978	-0.066	-0.009
-628.492	15.565	-0.265	-0.210
-627.478	-200.000	-0.047	-0.444
-626.463	107.608	-0.132	0.158
-625.449	-75.317	0.215	-0.077
-624.434	800.000	0.134	0.374
-623.419	-190.190	-0.279	-0.003
-622.405	-20.095	-0.087	0.054
-621.390	42.222	-0.112	0.103
-620.376	-24.010	-0.203	-0.122
-619.361	-45.994	-0.135	0.067
-618.346	-5.105	0.203	0.140
-617.332	323.045	0.065	0.125
-616.317	13.760	-0.290	-0.226
-615.303	783.832	0.143	0.396
-614.288	-91.066	-0.091	0.026
-613.273	56.563	0.209	-0.204
-612.259	-148.144	-0.139	-0.012
-611.244	145.236	-0.129	-0.174
-610.230	-200.000	0.000	-0.124
-609.215	-200.000	0.038	-0.230
-608.201	-200.000	-0.026	-0.152
-607.186	54.435	-0.279	-0.270
-606.171	664.558	-0.110	0.287
-605.157	-200.000	0.002	0.276
-604.142	172.269	-0.050	0.073
-603.128	20.673	0.141	-0.115
-602.113	-44.845	0.085	0.042
-601.098	75.288	0.341	-0.362
-600.084	-134.401	0.300	-0.037
-599.069	-26.732	0.220	-0.130
-598.055	160.739	-0.105	-0.147
-597.040	274.027	-0.106	-0.188
-596.025	261.135	-0.237	-0.413
-595.011	17.230	0.464	-0.370
-593.996	88.452	0.172	0.192
-592.982	203.020	-0.335	0.521
-591.967	324.910	0.039	-0.075
-590.952	-57.947	0.196	0.086
-589.938	-148.190	0.302	-0.025
-588.923	-52.916	-0.419	-0.194
-587.909	-99.657	0.219	0.055
-586.894	75.392	0.060	-0.063
-585.879	116.171	0.202	0.249
-584.865	-24.958	0.306	-0.183
-583.850	-88.851	-0.385	0.115
-582.836	72.071	0.293	0.307
-581.821	711.521	-0.087	-0.231
-580.806	69.774	0.150	-0.155
-579.792	-88.274	-0.109	-0.033
-578.777	192.444	-0.122	-0.185
-577.763	-106.442	0.092	0.021
-576.748	-52.976	0.068	0.031
-575.733	-74.958	-0.163	-0.059
-574.719	-59.454	0.059	0.026
-573.704	131.428	0.124	-0.160
-572.690	-1.977	0.088	0.062
-571.675	-66.666	0.187	0.075
-570.661	-145.138	-0.312	-0.028
-569.646	258.315	0.060	0.105
-568.631	483.207	-0.026	0.061
-567.617	-200.000	0.039	-0.347
-566.602	96.312	0.145	-0.166
-565.588	43.020	0.172	0.157
-564.573	-75.360	-0.111	0.040
-563.558	800.000	-0.057	-0.168
-562.544	800.000	0.068	0.219
-561.529	-90.402	0.144	-0.042
-560.515	-69.376	-0.220	0.085
-559.500	-129.513	0.113	0.016
-558.485	102.084	-0.048	0.057
-557.471	-58.522	-0.268	0.117
-556.456	800.000	0.045	-0.173
-555.442	-200.000	0.044	-0.302
-554.427	180.799	0.191	-0.282
-553.412	329.160	0.049	0.094
-552.398	33.204	-0.158	0.138
-551.383	-150.995	0.427	-0.032
-550.369	323.094	0.200	-0.382
-549.354	-164.339	0.204	-0.009
-548.339	386.777	-0.054	-0.111
-547.325	800.000	-0.072	-0.247
-546.310	-164.517	0.146	0.007
-545.296	-85.771	0.057	0.018
-544.281	800.000	0.062	0.231
-543.266	-106.483	0.272	-0.061
-542.252	17.967	-0.227	-0.182
-541.237	175.612	0.098	0.143
-540.223	69.591	-0.125	0.129
-539.208	463.667	0.158	-0.355
-538.193	46.099	-0.068	-0.064
-537.179	-200.000	-0.002	-0.038
-536.164	800.000	0.075	-0.270
-535.150	345.064	0.079	0.156
-534.135	-165.508	0.064	-0.003
-533.121	-200.000	-0.016	-0.130
-532.106	79.807	-0.216	0.233
-531.091	215.858	-0.034	0.054
-530.077	-144.463	-0.155	0.014
-529.062	477.790	0.132	-0.300
-528.048	-6.225	-0.062	0.042
-527.033	65.300	-0.205	-0.208
-526.018	-200.000	0.039	0.216
-525.004	-200.000	-0.015	0.369
-523.989	338.365	-0.094	0.183
-522.975	-200.000	-0.030	0.191
-521.960	150.373	0.095	0.130
-520.945	-200.000	-0.000	-0.152
-519.931	800.000	0.073	0.305
-518.916	-105.373	-0.103	-0.023
-517.902	800.000	-0.080	0.247
-516.887	-74.135	0.281	0.102
-515.872	44.845	-0.257	-0.237
-514.858	587.495	-0.120	-0.296
-513.843	-4.271	-0.096	-0.066
-512.829	669.934	0.084	-0.218
-511.814	221.776	-0.193	0.310
-510.799	-104.984	0.477	-0.110
-509.785	40.047	0.162	-0.146
-508.770	-200.000	-0.012	-0.084
-507.756	-72.130	-0.039	-0.014
-506.741	85.051	-0.045	-0.049
-505.726	-49.628	0.407	-0.194
-504.712	14.554	-0.020	0.016
-503.697	220.486	-0.200	0.321
-502.683	47.604	-0.184	-0.172
-501.668	11.712	0.056	-0.043
-500.653	-200.000	-0.039	-0.295
-499.639	-54.678	0.185	-0.084
-498.624	-11.329	0.144	-0.095
-497.610	371.477	0.086	0.175
-496.595	-146.556	0.234	-0.020
-495.581	800.000	-0.045	-0.163
-494.566	-139.837	-0.084	-0.009
-493.551	-200.000	-0.014	-0.085
-492.537	-200.000	0.010	-0.077
-491.522	-62.291	0.153	0.064
-490.508	-59.571	0.181	0.078
-489.493	-200.000	0.016	0.171
-488.478	800.000	-0.055	-0.211
-487.464	193.991	0.034	-0.052
-486.449	800.000	-0.018	-0.064
-485.435	-27.617	0.179	-0.104
-484.420	-150.817	0.101	0.008
-483.405	-57.361	-0.232	0.102
-482.391	-125.588	-0.114	-0.017
-481.376	108.530	-0.100	-0.120
-480.362	-200.000	0.011	-0.148
-479.347	800.000	-0.039	0.135
-478.332	146.341	-0.193	-0.259
-477.318	482.821	-0.049	0.111
-476.303	58.361	-0.175	0.172
-475.289	346.399	-0.112	-0.220
-474.274	-21.337	-0.090	0.055
-473.259	-104.866	0.121	-0.028
-472.245	407.375	-0.030	0.064
-471.230	-7.368	-0.187	-0.127
-470.216	-103.913	0.134	-0.031
-469.201	-115.954	0.253	-0.047
-468.186	-149.983	-0.375	-0.029
-467.172	-147.034	0.026	0.002
-466.157	-62.619	-0.592	0.246
-465.143	158.928	-0.108	-0.150
-464.128	290.042	0.108	0.197
-463.113	-9.368	0.236	0.157
-462.099	-118.491	0.277	0.049
-461.084	-92.174	0.360	-0.102
-460.070	-103.103	0.250	0.059
-459.055	70.514	-0.040	0.042
-458.040	100.488	-0.137	0.160
-457.026	150.751	-0.172	-0.234
-456.011	-13.807	0.150	0.097
-454.997	-80.987	0.112	-0.037
-453.982	-200.000	0.022	0.320
-452.968	671.492	0.060	0.155
-451.953	-48.654	0.314	0.151
-450.938	800.000	0.035	-0.147
-449.924	800.000	-0.044	0.183
-448.909	781.607	0.015	0.040
-447.895	-200.000	-0.032	0.145
-446.880	-139.241	0.193	-0.021
-445.865	107.608	0.087	0.104
-444.851	157.020	-0.197	-0.273
-443.836	19.268	0.093	0.075
-442.822	-33.126	-0.270	-0.149
-441.807	-200.000	0.004	0.029
-440.792	26.674	-0.138	-0.116
-439.778	452.702	-0.062	-0.136
-438.763	91.640	-0.113	-0.127
-437.749	-95.832	-0.159	-0.042
-436.734	-76.024	-0.477	-0.169
-435.719	-29.695	-0.158	0.090
-434.705	130.807	0.030	0.039
-433.690	-90.340	-0.266	-0.077
-432.676	-200.000	-0.011	0.137
-431.661	-200.000	-0.016	-0.120
-430.646	101.476	0.192	-0.223
-429.632	-200.000	0.016	0.088
-428.617	489.239	0.050	0.115
-427.603	123.607	0.139	0.174
-426.588	-200.000	0.029	0.265
-425.573	-200.000	-0.002	0.247
-424.559	166.604	-0.044	-0.063
-423.544	25.732	0.128	0.107
-422.530	-40.380	0.133	-0.069
-421.515	-92.253	0.130	-0.037
-420.500	-54.578	0.356	0.161
-419.486	109.408	-0.191	-0.229
-418.471	-167.405	-0.144	-0.006
-417.457	-200.000	-0.016	0.091
-416.442	-68.690	0.316	0.122
-415.428	-200.000	0.005	0.183
-414.413	-200.000	0.094	-0.418
-413.398	324.405	0.036	-0.068
-412.384	800.000	0.051	-0.211
-411.369	-155.326	-0.116	0.008
-410.355	-154.294	0.280	0.019
-409.340	100.781	-0.141	-0.164
-408.325	-200.000	-0.007	0.080
-407.311	800.000	-0.102	-0.363
-406.296	800.000	0.033	-0.128
-405.282	209.724	0.127	0.199
-404.267	-200.000	0.011	0.434
-403.252	800.000	-0.097	0.369
-402.238	8.396	-0.352	-0.264
-401.223	-138.561	-0.254	0.028
-400.209	13.797	0.229	0.178
-399.194	172.811	-0.074	-0.106
-398.179	-150.513	-0.260	0.020
-397.165	-58.306	0.200	0.087
-396.150	-200.000	-0.007	0.120
-395.136	164.727	-0.111	-0.157
-394.121	-66.388	0.107	-0.042
-393.106	406.214	-0.075	-0.158
-392.092	502.796	-0.108	-0.249
-391.077	-64.107	-0.334	0.136
-390.063	-1.942	0.272	-0.191
-389.048	-200.000	-0.010	-0.241
-388.033	413.449	0.044	0.094
-387.019	-200.000	-0.008	-0.099
-386.004	-200.000	0.015	-0.304
-384.990	44.393	0.178	0.163
-383.975	-200.000	-0.016	-0.120
-382.960	-102.226	0.129	0.031
-381.946	-200.000	0.006	0.152
-380.931	117.967	0.121	-0.149
-379.917	778.080	-0.019	0.053
-378.902	94.354	-0.039	-0.044
-377.888	800.000	-0.064	-0.276
-376.873	-177.682	0.128	0.003
-375.858	60.196	0.196	0.193
-374.844	-34.371	0.047	0.026
-373.829	338.805	-0.077	0.150
-372.815	793.464	0.045	0.123
-371.800	698.441	-0.020	0.051
-370.785	-112.810	-0.343	-0.068
-369.771	800.000	0.077	-0.212
-368.756	158.577	0.121	-0.168
-367.742	800.000	-0.112	-0.333
-366.727	-73.835	-0.271	-0.098
-365.712	133.103	-0.053	0.069
-364.698	569.664	-0.053	0.128
-363.683	90.500	-0.162	0.181
-362.669	-91.148	-0.193	-0.055
-361.654	-97.953	-0.174	-0.045
-360.639	791.422	0.094	0.257
-359.625	38.558	0.171	0.152
-358.610	-2.616	0.210	0.146
-357.596	-200.000	0.017	-0.131
-356.581	-61.516	0.131	0.055
-355.566	665.437	-0.094	-0.242
-354.552	256.704	-0.068	0.117
-353.537	-57.440	-0.166	-0.073
-352.523	-53.361	0.304	0.139
-351.508	-200.000	-0.105	0.579
-350.493	319.119	0.115	0.218
-349.479	-76.042	0.136	0.048
-348.464	453.467	0.044	-0.097
-347.450	-200.000	-0.007	-0.058
-346.435	-108.487	-0.316	-0.068
-345.420	800.000	0.077	-0.323
-344.406	392.371	0.031	-0.064
-343.391	-200.000	0.013	-0.217
-342.377	697.391	-0.047	-0.122
-341.362	79.178	0.163	0.174
-340.348	-148.562	-0.167	0.014
-339.333	-19.664	-0.261	0.161
-338.318	208.396	-0.224	0.349
-337.304	-200.000	0.047	0.218
-336.289	169.146	-0.192	-0.272
-335.275	-53.071	0.130	-0.060
-334.260	-44.050	-0.192	-0.096
-333.245	-176.861	0.406	0.010
-332.231	46.412	-0.111	0.102
-331.216	-21.502	-0.172	0.104
-330.202	800.000	-0.042	0.178
-329.187	-154.925	0.099	-0.007
-328.172	669.661	-0.132	0.339
-327.158	-84.524	0.286	0.090
-326.143	-117.698	0.292	-0.052
-325.129	-113.416	-0.213	-0.042
-324.114	-200.000	-0.004	-0.152
-323.099	-101.860	-0.269	-0.065
-322.085	103.861	-0.054	0.063
-321.070	177.339	-0.098	-0.141
-320.056	201.654	-0.109	-0.168
-319.041	155.914	0.036	0.049
-318.026	800.000	-0.070	0.273
-317.012	800.000	0.077	0.221
-315.997	-200.000	0.066	0.330
-314.983	217.965	-0.063	0.100
-313.968	800.000	-0.024	-0.099
-312.953	348.192	-0.146	-0.286
-311.939	-21.289	0.083	0.051
-310.924	216.043	-0.053	0.083
-309.910	344.511	0.174	0.340
-308.895	800.000	0.063	0.253
-307.880	139.999	-0.194	0.255
-306.866	-101.223	0.314	-0.076
-305.851	222.203	-0.092	-0.148
-304.837	462.516	-0.075	0.166
-303.822	213.200	-0.180	-0.283
-302.807	-88.451	-0.037	-0.011
-301.793	236.309	-0.101	-0.166
-300.778	-6.825	-0.167	-0.113
-299.764	-34.042	0.278	0.152
-298.749	45.333	0.062	-0.056
-297.735	170.994	0.316	0.450
-296.720	76.508	-0.219	0.231
-295.705	-6.300	0.046	-0.031
-294.691	3.343	0.199	0.144
-293.676	16.892	-0.073	0.057
-292.662	-57.526	0.278	0.121
-291.647	120.582	-0.361	0.446
-290.632	104.007	-0.220	0.257
-289.618	-58.207	0.228	-0.099
-288.603	16.961	0.172	0.136
-287.589	-176.492	-0.117	-0.003
-286.574	-200.000	0.003	-0.181
-285.559	800.000	0.037	-0.128
-284.545	-37.558	0.131	-0.069
-283.530	800.000	-0.025	-0.069
-282.516	413.289	-0.106	0.224
-281.501	800.000	0.006	-0.025
-280.486	211.165	0.168	0.263
-279.472	-83.419	-0.082	0.026
-278.457	-83.696	0.145	-0.046
-277.443	-80.897	-0.112	0.037
-276.428	49.721	0.272	-0.254
-275.413	111.603	0.162	-0.194
-274.399	56.638	-0.078	0.075
-273.384	-113.250	-0.233	-0.046
-272.370	800.000	0.068	-0.198
-271.355	233.365	0.206	0.337
-270.340	59.168	0.180	0.176
-269.326	-143.956	-0.150	-0.014
-268.311	-200.000	-0.000	0.084
-267.297	-200.000	-0.005	-0.164
-266.282	501.354	-0.078	-0.179
-265.267	-63.884	0.199	-0.081
-264.253	112.455	-0.142	-0.171
-263.238	28.524	-0.104	0.087
-262.224	-200.000	0.041	0.350
-261.209	-107.055	-0.224	0.049
-260.195	-200.000	0.034	0.227
-259.180	307.764	-0.039	-0.072
-258.165	200.254	-0.070	0.106
-257.151	186.681	-0.157	-0.232
-256.136	17.498	0.171	0.135
-255.122	267.105	0.080	-0.139
-254.107	-18.410	-0.079	-0.049
-253.092	-83.051	-0.692	-0.221
-252.078	-74.041	0.216	-0.078
-251.063	163.686	0.092	-0.129
-250.049	49.277	-0.130	0.121
-249.034	222.404	0.017	0.027
-248.019	255.491	0.085	0.145
-247.005	-200.000	0.021	0.277
-245.990	28.795	0.302	0.254
-244.976	-33.784	-0.242	-0.133
-243.961	-42.615	0.227	-0.114
-242.946	-76.801	0.416	-0.144
-241.932	41.337	0.514	0.461
-240.917	-16.290	-0.145	-0.092
-239.903	73.278	0.216	0.224
-238.888	166.031	0.039	-0.054
-237.873	-96.146	-0.215	0.057
-236.859	-200.000	-0.041	0.184
-235.844	-39.268	-0.245	0.128
-234.830	-175.027	0.280	-0.008
-233.815	209.053	-0.183	-0.284
-232.800	-30.727	0.413	0.231
-231.786	-172.138	0.399	-0.013
-230.771	88.498	0.009	-0.010
-229.757	-200.000	-0.014	-0.113
-228.742	78.504	0.082	0.087
-227.727	-83.648	-0.344	0.109
-226.713	-120.029	0.196	-0.033
-225.698	-38.290	0.016	-0.009
-224.684	112.765	-0.270	0.324
-223.669	339.245	-0.072	-0.139
-222.655	-147.174	0.260	-0.022
-221.640	78.737	-0.154	-0.163
-220.625	548.354	0.048	0.115
-219.611	131.856	-0.149	0.190
-218.596	-33.123	-0.319	0.175
-217.582	5.682	0.108	0.079
-216.567	-113.152	0.081	-0.016
-215.552	111.252	0.139	-0.167
-214.538	-114.920	0.348	-0.066
-213.523	-200.000	0.011	-0.070
-212.509	-108.628	0.197	-0.042
-211.494	109.744	-0.125	-0.148
-210.479	64.159	-0.198	-0.198
-209.465	-95.788	0.080	-0.021
-208.450	-161.439	0.203	0.010
-207.436	-110.299	-0.174	-0.036
-206.421	225.593	-0.156	-0.251
-205.406	12.503	-0.286	-0.219
-204.392	313.460	0.112	0.209
-203.377	-102.012	-0.270	-0.065
-202.363	800.000	-0.093	-0.269
-201.348	-108.162	0.360	0.077
-200.333	750.302	-0.172	-0.461
-199.319	-200.000	0.032	0.347
-198.304	198.698	-0.220	0.333
-197.290	-109.990	0.117	0.024
-196.275	-159.530	0.224	-0.012
-195.260	-41.188	-0.159	-0.081
-194.246	-200.000	0.005	-0.068
-193.231	131.472	-0.166	0.211
-192.217	79.105	0.067	-0.071
-191.202	-200.000	-0.008	-0.155
-190.187	-34.945	0.057	0.031
-189.173	-187.430	-0.122	-0.002
-188.158	-139.761	0.024	0.002
-187.144	-95.772	-0.096	-0.025
-186.129	165.668	0.152	0.212
-185.114	-200.000	-0.016	0.151
-184.100	-200.000	-0.104	0.471
-183.085	-200.000	0.032	0.164
-182.071	-30.982	-0.092	-0.052
-181.056	264.967	-0.052	0.090
-180.042	-200.000	0.016	-0.351
-179.027	163.866	0.067	-0.093
-178.012	103.531	0.025	-0.029
-176.998	448.427	-0.110	-0.241
-175.983	432.905	-0.021	0.044
-174.969	4.630	0.195	-0.142
-173.954	-10.817	-0.065	-0.042
-172.939	800.000	0.054	0.209
-171.925	368.886	0.146	0.292
-170.910	-200.000	-0.022	-0.132
-169.896	-83.284	-0.263	-0.083
-168.881	-5.640	-0.406	0.275
-167.866	-93.889	0.376	-0.102
-166.852	144.496	-0.235	0.311
-165.837	-4.534	0.083	0.057
-164.823	800.000	-0.008	0.026
-163.808	-86.613	0.260	0.079
-162.793	-92.403	-0.053	-0.015
-161.779	73.598	-0.104	-0.107
-160.764	-10.349	0.072	-0.047
-159.750	505.393	0.032	-0.074
-158.735	-185.584	-0.436	0.007
-157.720	280.698	0.093	-0.164
-156.706	-54.765	-0.116	0.052
-155.691	-200.000	-0.006	0.059
-154.677	-200.000	-0.026	0.377
-153.662	667.521	0.074	0.188
-152.647	-200.000	-0.011	-0.217
-151.633	800.000	0.092	-0.341
-150.618	39.479	0.148	-0.131
-149.604	703.018	0.020	0.052
-148.589	-49.045	-0.054	-0.026
-147.574	-104.456	0.198	0.045
-146.560	7.523	0.262	0.193
-145.545	-200.000	0.019	0.424
-144.531	71.981	0.187	-0.193
-143.516	-34.021	0.176	-0.096
-142.502	800.000	-0.157	0.466
-141.487	-152.435	0.216	-0.015
-140.472	230.790	0.047	0.076
-139.458	-45.013	0.371	0.183
-138.443	-112.329	-0.329	-0.065
-137.429	-87.201	0.266	-0.080
-136.414	800.000	0.064	0.268
-135.399	357.654	0.053	-0.105
-134.385	-200.000	-0.040	-0.359
-133.370	-200.000	-0.030	0.141
-132.356	-74.706	-0.028	0.010
-131.341	14.166	0.152	0.117
-130.326	-11.023	-0.164	-0.107
-129.312	608.240	0.036	0.090
-128.297	652.200	-0.081	0.205
-127.283	287.788	0.106	0.190
-126.268	800.000	-0.050	-0.162
-125.253	789.494	-0.023	-0.062
-124.239	-128.870	0.151	-0.021
-123.224	-97.675	0.228	-0.058
-122.210	-164.727	-0.020	0.001
-121.195	-50.491	0.101	-0.047
