DTS Sentinel unit serial number:	SN413079Multiplexer serial number:	ORYXHardware model number:	OX4-SRSoftware version number:	ORYX F/W v4.00 Oryx Data Collector v3.7.2.0data status	okinstallation	princeton_trtdifferential loss correction	single-endedforward channel	channel 3reverse channel	N/Adate	2019/09/19time	15:32:35forward acquisition time	60.00reverse acquisition time	0.00gamma	496.2192k internal	0.2310k external	0.2310temperature offset calibration	1.0007default loss term (dB/km)	0.3790temperature slope calibration	1.0000multiplexer offset coefficient	1.0000multiplexer slope coefficient	1.0000fibre end	0.00T internal ref (°C)	34.16T ext. ref 1 (°C)	1.17T ext. ref 2 (°C)	31.56length (m)	temperature (°C)	Stokes	anti-Stokes-747.200	-7.047	-0.097	0.067
-746.185	800.000	0.056	0.243
-745.171	-94.271	-0.222	-0.062
-744.156	52.966	-0.191	0.186
-743.142	288.789	-0.057	-0.105
-742.127	74.838	-0.179	-0.191
-741.112	800.000	-0.051	0.152
-740.098	800.000	-0.027	0.115
-739.083	171.291	0.060	-0.087
-738.069	800.000	-0.120	0.363
-737.054	-200.000	-0.011	-0.058
-736.039	-48.603	-0.304	0.148
-735.025	-139.089	0.275	-0.030
-734.010	626.755	-0.139	-0.356
-732.996	57.324	0.047	0.046
-731.981	-85.567	0.375	-0.118
-730.966	218.071	-0.137	-0.222
-729.952	800.000	-0.038	-0.114
-728.937	-140.360	-0.191	-0.020
-727.923	661.589	-0.065	-0.169
-726.908	217.294	0.072	-0.116
-725.894	627.646	-0.165	-0.422
-724.879	-200.000	-0.012	0.056
-723.864	263.117	-0.051	-0.090
-722.850	30.797	-0.256	0.222
-721.835	78.785	0.067	0.073
-720.821	-17.425	0.139	-0.089
-719.806	-34.204	-0.138	0.077
-718.791	80.352	-0.211	-0.230
-717.777	-110.398	-0.135	0.028
-716.762	-98.048	0.450	0.118
-715.748	628.833	-0.040	0.103
-714.733	-49.913	0.029	0.014
-713.718	-133.851	-0.088	-0.011
-712.704	-65.431	0.067	0.027
-711.689	-137.296	0.200	-0.023
-710.675	-71.018	0.160	-0.061
-709.660	-200.000	-0.055	-0.318
-708.645	-165.951	-0.313	0.014
-707.631	24.441	-0.235	-0.197
-706.616	18.590	0.074	0.060
-705.602	50.591	-0.032	-0.030
-704.587	388.454	0.104	-0.219
-703.572	800.000	-0.122	-0.369
-702.558	-200.000	-0.010	-0.058
-701.543	-58.590	-0.254	0.112
-700.529	-101.808	0.152	0.037
-699.514	427.319	-0.061	0.132
-698.499	-142.113	-0.192	-0.019
-697.485	124.959	0.157	-0.201
-696.470	-132.085	-0.280	-0.037
-695.456	245.486	0.200	-0.341
-694.441	-91.909	0.106	-0.030
-693.426	357.473	-0.097	-0.196
-692.412	-3.088	-0.240	-0.169
-691.397	201.630	0.240	0.375
-690.383	800.000	0.079	-0.254
-689.368	800.000	-0.119	-0.380
-688.354	-95.229	-0.158	-0.043
-687.339	-29.793	-0.216	-0.125
-686.324	-106.674	-0.369	-0.083
-685.310	161.248	-0.200	-0.283
-684.295	-200.000	-0.015	-0.134
-683.281	-40.315	0.275	-0.145
-682.266	-161.542	0.184	0.010
-681.251	-200.000	0.011	-0.049
-680.237	323.443	-0.069	-0.134
-679.222	101.867	-0.337	-0.398
-678.208	18.070	0.149	0.120
-677.193	94.476	-0.196	0.226
-676.178	-139.893	-0.202	0.022
-675.164	-200.000	-0.044	0.408
-674.149	28.053	0.131	-0.112
-673.135	-118.311	0.131	-0.024
-672.120	91.282	-0.126	-0.144
-671.105	-32.632	-0.108	0.061
-670.091	-144.690	-0.192	0.018
-669.076	-129.267	-0.152	-0.021
-668.062	-146.504	-0.396	-0.035
-667.047	-200.000	0.032	0.172
-666.032	-64.117	-0.064	0.027
-665.018	15.808	-0.293	0.234
-664.003	-175.144	-0.197	-0.006
-662.989	84.780	-0.076	0.084
-661.974	-200.000	0.018	-0.094
-660.959	-200.000	-0.011	-0.067
-659.945	800.000	0.124	-0.468
-658.930	343.455	0.065	0.129
-657.916	-200.000	-0.001	0.434
-656.901	220.227	0.131	0.212
-655.886	-86.818	-0.235	0.073
-654.872	111.653	0.035	0.043
-653.857	-200.000	0.003	0.036
-652.843	-21.611	-0.295	0.182
-651.828	-108.034	0.038	0.008
-650.814	127.986	-0.255	0.328
-649.799	63.609	-0.055	-0.056
-648.784	-200.000	-0.010	-0.291
-647.770	-101.219	-0.238	-0.059
-646.755	-61.956	-0.143	0.061
-645.741	-200.000	0.004	0.030
-644.726	-200.000	0.020	-0.611
-643.711	286.626	0.039	-0.071
-642.697	800.000	0.104	0.309
-641.682	40.592	0.244	0.223
-640.668	239.296	0.078	-0.131
-639.653	-200.000	-0.019	-0.202
-638.638	640.295	0.134	0.344
-637.624	-77.291	-0.444	0.156
-636.609	177.990	-0.201	-0.296
-635.595	-75.635	0.424	-0.152
-634.580	234.022	0.092	0.154
-633.565	-200.000	0.034	0.244
-632.551	138.966	-0.206	-0.273
-631.536	-111.984	0.179	-0.037
-630.522	598.119	-0.101	0.254
-629.507	-200.000	-0.036	-0.186
-628.492	800.000	0.006	0.025
-627.478	425.837	-0.143	0.312
-626.463	3.776	-0.253	0.187
-625.449	-200.000	-0.018	-0.243
-624.434	-24.526	-0.215	0.129
-623.419	-200.000	-0.017	0.101
-622.405	-14.010	0.119	-0.077
-621.390	8.629	0.110	0.084
-620.376	568.167	0.058	-0.142
-619.361	129.426	-0.126	0.163
-618.346	-200.000	0.023	0.232
-617.332	-119.997	-0.149	0.026
-616.317	-200.000	-0.025	-0.205
-615.303	-200.000	0.033	0.165
-614.288	-14.830	-0.195	-0.127
-613.273	40.179	-0.298	0.271
-612.259	329.123	0.024	-0.047
-611.244	-132.582	0.208	0.027
-610.230	348.895	0.126	-0.251
-609.215	685.110	-0.088	-0.231
-608.201	-0.984	0.013	0.009
-607.186	94.689	0.165	-0.189
-606.171	211.668	-0.109	-0.173
-605.157	82.857	-0.009	-0.010
-604.142	-200.000	-0.023	-0.141
-603.128	-200.000	-0.017	0.250
-602.113	96.195	0.144	0.167
-601.098	-31.888	0.319	0.180
-600.084	-200.000	0.002	-0.433
-599.069	27.062	-0.091	0.077
-598.055	800.000	-0.020	-0.064
-597.040	-150.755	0.125	0.010
-596.025	381.533	0.050	0.104
-595.011	-69.138	-0.198	-0.077
-593.996	44.983	-0.202	0.188
-592.982	-94.683	-0.382	0.105
-591.967	235.192	-0.285	0.476
-590.952	6.977	0.159	0.119
-589.938	433.196	-0.080	-0.176
-588.923	56.967	0.264	0.259
-587.909	-200.000	0.012	0.533
-586.894	-147.738	0.113	0.010
-585.879	166.548	0.257	-0.367
-584.865	91.261	0.223	-0.252
-583.850	168.189	0.091	-0.131
-582.836	-200.000	0.010	0.408
-581.821	233.729	-0.168	0.280
-580.806	120.269	0.229	-0.287
-579.792	340.866	0.023	-0.044
-578.777	-146.146	-0.104	-0.009
-577.763	206.934	-0.252	0.397
-576.748	-71.925	0.176	-0.066
-575.733	-23.726	-0.185	0.112
-574.719	-200.000	0.043	0.299
-573.704	76.766	-0.062	0.067
-572.690	-200.000	-0.037	0.221
-571.675	-127.512	0.112	-0.016
-570.661	800.000	-0.022	-0.084
-569.646	-75.829	-0.185	-0.066
-568.631	84.590	0.109	0.120
-567.617	-200.000	-0.006	0.252
-566.602	-75.692	-0.069	0.025
-565.588	581.050	-0.033	-0.081
-564.573	-95.961	0.333	-0.090
-563.558	504.280	-0.169	-0.394
-562.544	554.947	-0.082	-0.199
-561.529	-193.636	0.093	-0.001
-560.515	43.336	0.105	0.097
-559.500	-2.507	-0.111	0.078
-558.485	-200.000	-0.034	-0.177
-557.471	-200.000	0.024	0.120
-556.456	-200.000	0.018	-0.157
-555.442	318.681	-0.022	0.043
-554.427	-78.987	0.152	-0.052
-553.412	43.937	0.234	-0.216
-552.398	24.435	0.206	0.171
-551.383	183.445	-0.029	0.043
-550.369	77.759	-0.247	-0.265
-549.354	128.154	0.094	-0.120
-548.339	-113.444	-0.387	0.076
-547.325	-200.000	0.027	-0.267
-546.310	800.000	-0.066	0.266
-545.296	-133.318	0.087	-0.011
-544.281	-59.113	0.013	-0.006
-543.266	334.660	-0.032	0.063
-542.252	115.163	0.177	0.217
-541.237	800.000	0.101	0.353
-540.223	23.789	-0.095	-0.079
-539.208	778.711	-0.043	0.117
-538.193	164.647	-0.172	0.244
-537.179	-18.068	-0.191	-0.120
-536.164	10.835	-0.394	0.303
-535.150	800.000	-0.032	-0.139
-534.135	-86.849	0.236	0.072
-533.121	8.282	0.154	0.117
-532.106	800.000	0.104	-0.455
-531.091	-200.000	-0.355	-0.000
-530.077	-159.719	-0.295	0.016
-529.062	463.550	-0.060	0.134
-528.048	37.298	0.243	-0.217
-527.033	-200.000	-0.071	0.332
-526.018	442.414	-0.155	0.342
-525.004	800.000	-0.044	0.170
-523.989	31.051	0.108	0.094
-522.975	88.405	-0.116	-0.130
-521.960	50.546	0.334	-0.318
-520.945	-200.000	0.002	0.083
-519.931	-78.195	-0.161	0.056
-518.916	-167.082	0.230	0.009
-517.902	33.981	-0.166	0.145
-516.887	-200.000	-0.031	-0.227
-515.872	-200.000	-0.067	-0.370
-514.858	-102.198	0.230	0.056
-513.843	302.008	0.105	0.195
-512.829	-200.000	-0.000	0.211
-511.814	800.000	-0.082	-0.288
-510.799	-42.627	-0.222	-0.114
-509.785	-200.000	0.039	0.230
-508.770	290.674	-0.127	-0.232
-507.756	187.844	-0.052	0.078
-506.741	800.000	0.069	-0.242
-505.726	-11.622	0.160	-0.106
-504.712	210.951	-0.119	-0.188
-503.697	109.324	0.147	0.177
-502.683	131.128	-0.086	0.111
-501.668	800.000	-0.017	0.055
-500.653	-155.419	-0.069	-0.005
-499.639	24.231	-0.213	0.177
-498.624	-157.996	0.122	0.007
-497.610	74.884	0.128	-0.135
-496.595	50.132	0.142	0.135
-495.581	-64.335	-0.294	-0.121
-494.566	800.000	0.045	-0.188
-493.551	-200.000	-0.000	-0.076
-492.537	331.844	0.031	-0.060
-491.522	309.503	0.123	-0.232
-490.508	82.982	-0.281	0.307
-489.493	800.000	-0.054	0.210
-488.478	-152.799	-0.157	-0.011
-487.464	172.147	-0.099	-0.143
-486.449	-5.319	-0.433	-0.299
-485.435	54.267	0.174	0.168
-484.420	800.000	0.028	-0.104
-483.405	269.810	0.048	-0.085
-482.391	153.312	-0.157	0.215
-481.376	50.742	-0.167	-0.158
-480.362	316.622	0.068	-0.129
-479.347	-200.000	-0.026	-0.446
-478.332	-72.316	0.346	0.129
-477.318	-109.743	-0.089	-0.019
-476.303	-162.836	-0.274	-0.013
-475.289	-83.878	0.169	0.054
-474.274	-13.996	-0.236	-0.153
-473.259	-200.000	0.002	-0.040
-472.245	-2.142	-0.227	-0.160
-471.230	-27.319	-0.100	-0.058
-470.216	-200.000	-0.038	0.261
-469.201	-15.957	-0.112	-0.072
-468.186	-25.708	-0.223	-0.132
-467.172	112.837	-0.094	0.115
-466.157	-57.381	0.180	-0.079
-465.143	-111.775	0.025	0.005
-464.128	-174.372	-0.478	-0.014
-463.113	347.166	-0.051	-0.101
-462.099	-200.000	0.066	-0.313
-461.084	-200.000	-0.021	0.106
-460.070	50.075	0.144	-0.137
-459.055	800.000	0.047	0.187
-458.040	202.214	0.050	0.078
-457.026	-155.485	-0.385	-0.025
-456.011	20.995	-0.182	-0.148
-454.997	423.611	0.053	-0.114
-453.982	800.000	-0.081	-0.345
-452.968	30.942	0.137	-0.118
-451.953	394.810	0.099	0.206
-450.938	73.879	0.190	-0.200
-449.924	-77.690	-0.552	0.192
-448.909	-120.883	-0.316	-0.053
-447.895	-200.000	0.006	-0.115
-446.880	800.000	0.048	-0.161
-445.865	151.893	0.154	0.211
-444.851	-42.955	0.253	-0.129
-443.836	-110.151	-0.222	0.047
-442.822	129.237	0.059	-0.076
-441.807	260.360	-0.111	0.192
-440.792	-200.000	-0.004	-0.092
-439.778	-60.119	0.174	0.075
-438.763	332.941	-0.191	0.370
-437.749	-60.800	-0.272	0.115
-436.734	71.946	-0.128	-0.134
-435.719	-200.000	-0.013	0.225
-434.705	800.000	0.030	-0.125
-433.690	-200.000	0.026	-0.278
-432.676	-200.000	0.025	0.321
-431.661	52.020	0.192	0.183
-430.646	8.013	-0.113	-0.085
-429.632	-34.687	0.314	-0.172
-428.617	-39.470	-0.377	0.198
-427.603	-46.500	-0.145	-0.071
-426.588	-22.739	0.116	0.070
-425.573	-199.363	0.237	-0.001
-424.559	-200.000	0.003	-0.016
-423.544	-94.643	0.304	-0.083
-422.530	244.696	0.064	0.108
-421.515	-4.702	-0.029	0.020
-420.500	293.947	-0.107	-0.196
-419.486	-200.000	0.043	0.242
-418.471	-200.000	0.008	-0.156
-417.457	22.017	0.395	0.323
-416.442	800.000	0.063	-0.200
-415.428	-200.000	0.001	-0.013
-414.413	27.075	-0.114	0.096
-413.398	-200.000	0.029	0.293
-412.384	200.560	0.179	0.276
-411.369	-200.000	-0.001	0.278
-410.355	61.343	-0.087	-0.087
-409.340	-112.118	0.153	0.031
-408.325	800.000	-0.008	-0.032
-407.311	-94.204	0.295	-0.081
-406.296	-102.204	0.245	0.059
-405.282	-200.000	-0.016	-0.097
-404.267	-200.000	-0.052	-0.282
-403.252	-200.000	-0.003	-0.248
-402.238	-68.364	0.111	-0.043
-401.223	325.355	-0.292	-0.559
-400.209	-167.679	-0.521	0.021
-399.194	-99.893	0.036	0.009
-398.179	-136.574	-0.287	-0.033
-397.165	-200.000	-0.014	0.105
-396.150	-27.404	-0.162	0.094
-395.136	-200.000	-0.005	-0.109
-394.121	800.000	0.104	-0.429
-393.106	94.191	-0.112	-0.127
-392.092	-31.511	0.432	-0.243
-391.077	20.485	0.223	-0.180
-390.063	180.135	-0.206	0.302
-389.048	800.000	0.030	0.097
-388.033	800.000	0.066	-0.233
-387.019	-39.648	0.158	0.083
-386.004	800.000	0.046	0.176
-384.990	31.544	0.243	-0.209
-383.975	268.950	0.051	0.089
-382.960	-200.000	0.003	0.132
-381.946	290.918	0.062	-0.112
-380.931	44.064	0.261	0.240
-379.917	394.241	-0.155	-0.323
-378.902	434.214	0.033	0.071
-377.888	-156.666	0.053	-0.003
-376.873	1.975	0.185	-0.133
-375.858	-79.253	0.300	-0.102
-374.844	58.996	0.119	0.117
-373.829	-159.386	-0.373	0.021
-372.815	479.054	-0.100	0.226
-371.800	222.062	0.083	0.134
-370.785	46.634	-0.169	0.157
-369.771	-139.281	-0.440	0.047
-368.756	-200.000	-0.004	-0.037
-367.742	-6.947	0.101	0.069
-366.727	-33.920	0.034	0.019
-365.712	-120.084	-0.076	0.013
-364.698	-200.000	-0.046	-0.315
-363.683	36.538	0.210	0.186
-362.669	-14.951	-0.146	0.094
-361.654	-200.000	-0.010	-0.064
-360.639	-109.966	0.259	0.054
-359.625	9.569	-0.191	0.145
-358.610	-200.000	-0.008	-0.390
-357.596	34.626	-0.124	-0.108
-356.581	11.803	0.076	0.059
-355.566	94.598	0.205	0.233
-354.552	800.000	0.035	-0.122
-353.537	-200.000	0.005	-0.040
-352.523	245.133	-0.213	-0.358
-351.508	-200.000	-0.006	-0.241
-350.493	203.901	0.015	-0.024
-349.479	-160.028	-0.331	0.018
-348.464	-125.740	0.238	0.036
-347.450	-15.893	-0.180	0.114
-346.435	36.171	-0.067	-0.059
-345.420	167.704	0.058	0.082
-344.406	-200.000	-0.005	0.103
-343.391	800.000	0.065	-0.259
-342.377	-200.000	0.058	0.261
-341.362	-115.037	-0.317	-0.060
-340.348	800.000	0.087	0.340
-339.333	800.000	-0.090	0.362
-338.318	186.241	0.056	0.083
-337.304	-200.000	0.007	0.142
-336.289	-75.754	0.137	0.049
-335.275	231.739	-0.060	0.098
-334.260	-200.000	0.023	0.122
-333.245	-41.074	0.215	0.111
-332.231	17.812	0.193	-0.153
-331.216	-200.000	-0.036	-0.172
-330.202	590.569	0.099	0.243
-329.187	800.000	-0.046	-0.152
-328.172	200.393	-0.081	-0.125
-327.158	46.787	0.031	-0.029
-326.143	238.712	0.032	0.052
-325.129	-128.268	-0.353	-0.050
-324.114	-59.399	0.443	0.190
-323.099	17.444	0.040	0.032
-322.085	208.748	0.062	0.096
-321.070	-78.189	-0.317	-0.109
-320.056	-2.254	0.009	-0.006
-319.041	-115.549	0.095	0.018
-318.026	-28.999	-0.370	0.212
-317.012	-82.716	0.134	0.043
-315.997	-109.455	0.107	0.022
-314.983	-116.029	0.245	-0.046
-313.968	-115.976	0.309	-0.057
-312.953	800.000	-0.074	-0.263
-311.939	-174.576	-0.252	-0.007
-310.924	317.287	-0.114	0.216
-309.910	68.651	0.095	0.097
-308.895	122.626	0.087	-0.109
-307.880	-200.000	0.013	0.208
-306.866	-146.692	0.363	0.031
-305.851	323.511	-0.049	0.093
-304.837	-129.451	0.282	-0.039
-303.822	-200.000	-0.026	0.266
-302.807	-71.239	-0.259	0.097
-301.793	-7.098	0.238	-0.161
-300.778	65.542	0.101	0.102
-299.764	175.835	-0.212	0.307
-298.749	-200.000	-0.017	0.414
-297.735	393.052	0.104	-0.216
-296.720	80.167	0.210	0.226
-295.705	-200.000	-0.011	0.144
-294.691	-12.500	-0.143	0.093
-293.676	-148.832	0.201	0.016
-292.662	43.366	-0.197	-0.179
-291.647	-90.156	-0.153	-0.044
-290.632	225.304	0.187	0.302
-289.618	436.765	0.091	0.197
-288.603	-47.500	0.201	0.097
-287.589	-148.246	-0.302	-0.025
-286.574	800.000	-0.040	-0.157
-285.559	113.499	0.070	0.085
-284.545	116.356	0.185	0.226
-283.530	800.000	-0.057	-0.240
-282.516	249.044	-0.106	0.180
-281.501	-95.013	0.191	-0.051
-280.486	25.911	-0.128	-0.106
-279.472	-53.409	0.232	-0.106
-278.457	-21.790	-0.190	0.115
-277.443	800.000	-0.062	-0.198
-276.428	-135.785	-0.188	-0.022
-275.413	219.944	-0.036	0.057
-274.399	-200.000	-0.002	0.209
-273.384	166.435	-0.244	-0.344
-272.370	-200.000	0.040	0.229
-271.355	-200.000	-0.003	0.095
-270.340	62.240	-0.033	-0.033
-269.326	-200.000	-0.000	-0.059
-268.311	-80.405	-0.138	0.046
-267.297	-92.702	-0.075	0.021
-266.282	-64.636	0.209	0.085
-265.267	-19.754	-0.084	0.052
-264.253	-132.068	-0.133	-0.017
-263.238	-200.000	-0.013	-0.162
-262.224	-103.451	-0.039	-0.009
-261.209	-89.210	0.252	0.074
-260.195	-19.149	0.182	-0.112
-259.180	272.896	0.144	0.253
-258.165	89.789	0.104	0.116
-257.151	800.000	0.075	-0.263
-256.136	142.721	0.152	-0.201
-255.122	173.148	-0.174	-0.250
-254.107	800.000	0.092	-0.283
-253.092	-52.204	0.147	-0.068
-252.078	-200.000	-0.020	0.297
-251.063	-141.471	0.245	0.025
-250.049	-49.811	0.096	-0.046
-249.034	-4.412	0.441	-0.304
-248.019	-180.106	0.263	-0.006
-247.005	93.826	-0.351	-0.397
-245.990	-200.000	0.011	-0.271
-244.976	39.350	-0.134	-0.119
-243.961	-197.191	-0.179	0.001
-242.946	-200.000	0.041	0.192
-241.932	794.892	0.045	0.123
-240.917	-200.000	0.031	0.158
-239.903	800.000	-0.130	-0.396
-238.888	52.149	0.170	0.161
-237.873	-43.155	0.099	0.050
-236.859	238.572	-0.214	-0.355
-235.844	-200.000	-0.023	-0.114
-234.830	-200.000	0.023	0.167
-233.815	65.182	0.138	-0.139
-232.800	-200.000	0.026	-0.162
-231.786	54.397	-0.248	0.237
-230.771	25.747	-0.205	-0.170
-229.757	-101.762	0.095	0.023
-228.742	-68.866	-0.100	-0.038
-227.727	174.337	0.106	0.152
-226.713	197.957	-0.099	0.151
-225.698	81.556	0.105	-0.113
-224.684	-19.800	-0.124	0.076
-223.669	-200.000	-0.034	0.279
-222.655	680.817	0.069	0.179
-221.640	800.000	0.120	-0.343
-220.625	-100.307	-0.102	-0.025
-219.611	639.894	0.113	-0.286
-218.596	-11.386	0.337	-0.221
-217.582	-200.000	0.001	0.205
-216.567	-97.799	0.264	-0.068
-215.552	685.836	0.048	0.125
-214.538	-84.014	0.130	0.041
-213.523	-200.000	0.029	0.129
-212.509	-84.677	-0.204	-0.064
-211.494	-99.984	-0.305	0.076
-210.479	-132.901	-0.335	-0.042
-209.465	-200.000	-0.033	-0.195
-208.450	137.377	0.106	0.138
-207.436	20.529	-0.122	-0.098
-206.421	-200.000	0.020	0.104
-205.406	683.485	0.039	0.100
-204.392	-146.967	0.237	0.020
-203.377	572.377	-0.070	0.170
-202.363	-178.423	0.137	-0.003
-201.348	-56.263	-0.118	0.052
-200.333	75.548	-0.204	0.215
-199.319	237.148	-0.050	0.082
-198.304	-200.000	0.081	0.410
-197.290	-200.000	0.009	-0.537
-196.275	-200.000	0.023	-0.178
-195.260	52.148	0.138	0.131
-194.246	-31.307	0.224	0.125
-193.231	226.671	0.094	0.151
-192.217	-126.185	0.071	-0.011
-191.202	285.805	0.118	-0.212
-190.187	-82.033	0.157	-0.051
-189.173	-57.800	-0.190	-0.082
-188.158	-72.806	0.218	-0.080
-187.144	-91.396	0.075	0.021
-186.129	-86.322	0.201	0.062
-185.114	259.543	-0.123	0.211
-184.100	169.760	0.019	-0.026
-183.085	-200.000	0.041	-0.243
-182.071	-200.000	-0.081	0.545
-181.056	-69.049	-0.305	-0.117
-180.042	-138.634	-0.433	-0.047
-179.027	-108.280	0.415	-0.089
-178.012	-146.443	-0.200	0.017
-176.998	800.000	0.057	-0.170
-175.983	82.712	-0.143	-0.154
-174.969	-22.302	0.184	-0.111
-173.954	800.000	0.177	-0.543
-172.939	431.007	-0.139	-0.299
-171.925	800.000	-0.077	-0.307
-170.910	800.000	0.065	0.216
-169.896	295.322	0.212	0.385
-168.881	-93.801	-0.175	-0.048
-167.866	164.165	0.240	-0.336
-166.852	-31.671	0.343	0.191
-165.837	94.636	-0.102	0.115
-164.823	578.108	-0.039	-0.095
-163.808	228.528	-0.036	0.058
-162.793	-107.789	0.223	-0.048
-161.779	800.000	-0.077	0.266
-160.764	-151.430	0.186	-0.014
-159.750	800.000	-0.044	-0.153
-158.735	64.383	0.149	-0.149
-157.720	26.117	-0.303	-0.251
-156.706	64.695	0.111	-0.111
-155.691	256.791	0.073	0.124
-154.677	-11.983	0.100	-0.065
-153.662	-200.000	0.038	0.171
-152.647	-200.000	0.006	0.138
-151.633	-35.750	0.071	0.038
-150.618	-200.000	-0.010	0.089
-149.604	133.451	0.058	0.074
-148.589	50.387	0.177	-0.166
-147.574	790.384	0.042	0.116
-146.560	-71.750	-0.240	0.089
-145.545	92.647	-0.250	0.280
-144.531	-83.496	-0.287	0.091
-143.516	-72.177	-0.094	0.035
-142.502	270.062	0.174	0.303
-141.487	800.000	0.032	-0.113
-140.472	-32.519	-0.264	0.146
-139.458	-96.541	0.166	0.043
-138.443	91.831	0.091	-0.101
-137.429	2.403	0.088	-0.063
-136.414	800.000	-0.092	0.350
-135.399	-200.000	0.012	0.143
-134.385	-96.875	0.181	0.047
-133.370	-200.000	0.015	-0.254
-132.356	669.367	-0.039	-0.101
-131.341	-200.000	0.003	-0.304
-130.326	-200.000	0.002	0.010
-129.312	31.577	0.336	-0.287
-128.297	554.490	-0.106	-0.252
-127.283	-200.000	-0.002	-0.251
-126.268	800.000	0.110	0.319
-125.253	-87.222	0.119	0.036
-124.239	153.633	-0.129	0.175
-123.224	25.188	-0.267	-0.220
-122.210	83.551	0.171	-0.185
-121.195	-200.000	-0.000	-0.016
