DTS Sentinel unit serial number:	SN413079Multiplexer serial number:	ORYXHardware model number:	OX4-SRSoftware version number:	ORYX F/W v4.00 Oryx Data Collector v3.7.2.0data status	okinstallation	princeton_trtdifferential loss correction	single-endedforward channel	channel 3reverse channel	N/Adate	2019/09/16time	04:08:34forward acquisition time	60.00reverse acquisition time	0.00gamma	496.2192k internal	0.2335k external	0.2335temperature offset calibration	0.9954default loss term (dB/km)	0.3790temperature slope calibration	1.0000multiplexer offset coefficient	1.0000multiplexer slope coefficient	1.0000fibre end	0.00T internal ref (°C)	27.42T ext. ref 1 (°C)	10.75T ext. ref 2 (°C)	21.39length (m)	temperature (°C)	Stokes	anti-Stokes-747.200	9.723	-0.118	-0.090
-746.185	-200.000	-0.000	0.216
-745.171	-120.537	-0.016	-0.003
-744.156	171.237	-0.191	0.275
-743.142	-200.000	-0.039	-0.175
-742.127	308.706	0.208	0.390
-741.112	153.628	0.188	-0.258
-740.098	-28.525	-0.200	0.116
-739.083	528.850	-0.078	0.184
-738.069	-200.000	0.042	0.384
-737.054	277.966	0.197	-0.352
-736.039	499.021	0.053	-0.122
-735.025	264.999	0.081	0.142
-734.010	800.000	-0.127	-0.421
-732.996	-160.556	-0.332	-0.018
-731.981	-200.000	0.003	-0.206
-730.966	-46.662	0.276	-0.136
-729.952	800.000	0.069	-0.205
-728.937	-200.000	-0.046	-0.425
-727.923	-200.000	-0.018	-0.138
-726.908	17.742	-0.249	-0.199
-725.894	800.000	-0.086	-0.240
-724.879	-84.666	-0.480	0.152
-723.864	-134.583	0.198	-0.024
-722.850	-36.440	0.172	-0.093
-721.835	52.387	-0.164	-0.157
-720.821	-31.320	-0.082	-0.046
-719.806	-23.527	0.089	0.054
-718.791	-64.274	-0.324	0.132
-717.777	-21.521	-0.270	-0.166
-716.762	2.594	0.085	-0.062
-715.748	17.551	0.196	-0.156
-714.733	79.877	-0.106	0.115
-713.718	-119.875	-0.142	0.024
-712.704	26.702	-0.298	-0.251
-711.689	-43.018	-0.229	-0.117
-710.675	399.554	-0.075	-0.158
-709.660	58.741	0.022	-0.021
-708.645	173.424	-0.088	-0.127
-707.631	91.866	-0.067	0.075
-706.616	518.588	0.043	0.100
-705.602	-200.000	-0.032	-0.160
-704.587	-58.335	0.123	0.054
-703.572	-200.000	0.000	0.395
-702.558	127.989	-0.157	-0.200
-701.543	-94.245	0.058	-0.016
-700.529	-16.160	-0.220	0.140
-699.514	-200.000	0.031	-0.498
-698.499	142.649	0.079	-0.105
-697.485	-148.951	-0.119	0.010
-696.470	-159.786	-0.314	0.017
-695.456	-51.708	-0.207	0.097
-694.441	800.000	-0.138	0.400
-693.426	-96.398	0.302	-0.080
-692.412	-62.789	-0.248	-0.103
-691.397	-200.000	-0.028	-0.242
-690.383	152.911	0.043	0.058
-689.368	728.829	-0.094	-0.251
-688.354	27.321	0.086	0.072
-687.339	800.000	-0.027	0.086
-686.324	-200.000	-0.001	0.048
-685.310	800.000	0.060	-0.209
-684.295	-200.000	0.040	-0.428
-683.281	-95.680	-0.161	0.043
-682.266	61.011	-0.108	0.107
-681.251	504.278	-0.202	-0.468
-680.237	7.179	0.193	-0.144
-679.222	122.714	0.262	-0.328
-678.208	723.879	-0.057	0.153
-677.193	-176.911	-0.329	-0.008
-676.178	-200.000	-0.023	-0.155
-675.164	-200.000	0.070	-0.407
-674.149	251.155	-0.194	0.331
-673.135	201.337	-0.138	-0.212
-672.120	-59.241	0.267	0.115
-671.105	-171.779	-0.234	0.008
-670.091	94.321	-0.188	0.214
-669.076	-27.349	-0.166	-0.097
-668.062	-83.572	-0.092	-0.029
-667.047	-132.977	-0.372	-0.047
-666.032	-78.246	0.218	-0.075
-665.018	84.692	0.182	-0.200
-664.003	742.805	-0.057	-0.154
-662.989	18.910	-0.220	-0.177
-661.974	-200.000	0.012	-0.360
-660.959	-69.494	-0.193	-0.074
-659.945	353.838	0.224	-0.444
-658.930	-37.547	-0.384	0.205
-657.916	-99.219	-0.283	-0.072
-656.901	-15.333	0.125	-0.080
-655.886	-200.000	-0.046	-0.245
-654.872	-200.000	0.041	-0.217
-653.857	-8.815	0.096	0.065
-652.843	-200.000	0.015	-0.235
-651.828	-82.342	-0.434	-0.141
-650.814	328.539	-0.189	0.364
-649.799	-197.636	-0.237	0.001
-648.784	-200.000	-0.000	-0.129
-647.770	-147.502	-0.037	-0.003
-646.755	-33.448	-0.132	-0.073
-645.741	149.996	-0.138	-0.187
-644.726	736.451	0.099	0.267
-643.711	-184.010	-0.240	-0.004
-642.697	47.926	0.269	0.252
-641.682	-76.836	-0.277	0.097
-640.668	800.000	-0.053	0.229
-639.653	105.304	-0.133	0.157
-638.638	632.949	0.127	0.322
-637.624	-200.000	-0.006	0.049
-636.609	800.000	-0.146	0.417
-635.595	589.311	0.111	-0.273
-634.580	-100.594	0.213	-0.053
-633.565	4.994	-0.140	-0.103
-632.551	800.000	-0.094	0.305
-631.536	181.116	0.152	0.223
-630.522	274.256	-0.089	-0.157
-629.507	-105.676	-0.287	0.065
-628.492	10.883	-0.043	0.033
-627.478	129.500	0.090	-0.115
-626.463	-95.929	-0.351	-0.094
-625.449	-200.000	-0.016	-0.167
-624.434	800.000	0.067	-0.222
-623.419	-135.748	-0.121	-0.014
-622.405	-200.000	-0.038	-0.174
-621.390	-59.386	0.342	-0.147
-620.376	134.911	-0.150	0.194
-619.361	485.310	-0.130	0.295
-618.346	131.000	-0.079	-0.102
-617.332	-58.118	0.100	-0.044
-616.317	-80.708	0.193	-0.064
-615.303	-50.348	-0.217	0.102
-614.288	-129.470	-0.306	-0.042
-613.273	-56.884	0.133	-0.059
-612.259	-55.684	0.188	-0.084
-611.244	800.000	0.104	0.286
-610.230	-135.021	0.229	-0.028
-609.215	467.671	-0.148	-0.331
-608.201	-65.718	0.143	0.057
-607.186	211.443	-0.077	0.121
-606.171	-14.815	-0.107	0.069
-605.157	-146.703	-0.259	0.022
-604.142	-67.597	-0.338	-0.132
-603.128	109.850	-0.036	0.043
-602.113	800.000	-0.071	-0.234
-601.098	4.349	-0.245	0.180
-600.084	89.614	-0.065	0.072
-599.069	255.970	-0.189	0.323
-598.055	74.829	-0.162	-0.170
-597.040	-59.831	0.178	0.076
-596.025	-167.559	-0.220	-0.009
-595.011	800.000	0.033	-0.135
-593.996	-54.487	0.077	0.035
-592.982	43.925	-0.254	-0.232
-591.967	-5.586	0.228	0.156
-590.952	-78.317	-0.051	0.018
-589.938	-108.935	-0.402	-0.086
-588.923	-61.268	-0.114	-0.048
-587.909	52.011	-0.108	-0.103
-586.894	287.403	-0.210	0.379
-585.879	65.959	-0.259	0.262
-584.865	-48.969	-0.107	-0.051
-583.850	554.680	0.151	0.363
-582.836	-5.274	0.106	-0.073
-581.821	800.000	-0.024	-0.095
-580.806	-187.865	0.078	0.001
-579.792	-32.633	-0.290	-0.161
-578.777	81.463	0.088	-0.095
-577.763	267.868	-0.094	-0.164
-576.748	-12.125	-0.183	0.119
-575.733	-45.191	-0.148	0.073
-574.719	165.355	-0.081	-0.114
-573.704	73.375	-0.087	0.091
-572.690	362.406	-0.074	0.149
-571.675	101.679	-0.176	0.205
-570.661	-43.170	0.182	0.092
-569.646	-200.000	0.046	0.221
-568.631	-200.000	-0.036	-0.202
-567.617	-49.134	0.165	-0.079
-566.602	-93.121	-0.076	0.021
-565.588	-200.000	0.013	0.180
-564.573	-200.000	-0.020	0.302
-563.558	-81.721	-0.219	-0.072
-562.544	-79.404	0.407	-0.137
-561.529	2.234	-0.137	0.099
-560.515	-65.491	-0.266	0.107
-559.500	44.991	-0.100	0.092
-558.485	327.424	-0.199	-0.381
-557.471	197.822	0.033	-0.050
-556.456	-54.294	0.291	0.132
-555.442	-46.764	-0.700	-0.342
-554.427	-200.000	0.015	0.104
-553.412	11.140	0.265	-0.202
-552.398	112.266	0.032	0.039
-551.383	-24.206	0.091	0.054
-550.369	59.056	-0.129	-0.126
-549.354	-200.000	-0.050	-0.452
-548.339	172.232	0.038	-0.054
-547.325	391.308	-0.078	-0.161
-546.310	800.000	0.092	-0.338
-545.296	800.000	-0.033	0.098
-544.281	118.114	0.134	-0.165
-543.266	21.829	0.321	-0.260
-542.252	800.000	-0.105	-0.368
-541.237	-125.548	-0.201	0.030
-540.223	800.000	-0.056	0.224
-539.208	-17.089	-0.182	0.114
-538.193	251.525	-0.098	-0.166
-537.179	800.000	-0.100	-0.277
-536.164	-48.746	-0.358	-0.171
-535.150	-91.627	0.178	0.051
-534.135	800.000	0.060	0.172
-533.121	40.782	0.100	0.090
-532.106	-200.000	-0.025	-0.455
-531.091	13.907	0.214	-0.166
-530.077	-25.544	-0.248	-0.146
-529.062	369.354	-0.096	-0.194
-528.048	-9.110	0.025	-0.017
-527.033	57.684	-0.199	0.194
-526.018	161.922	-0.097	-0.135
-525.004	395.072	-0.044	-0.091
-523.989	-200.000	-0.008	0.148
-522.975	103.104	0.260	0.303
-521.960	-89.790	-0.293	0.085
-520.945	-7.542	0.112	0.075
-519.931	1.028	-0.450	-0.322
-518.916	165.916	0.173	-0.244
-517.902	-200.000	-0.012	0.080
-516.887	-200.000	0.008	-0.074
-515.872	409.959	-0.085	-0.179
-514.858	-200.000	-0.005	0.227
-513.843	-51.047	0.347	-0.162
-512.829	21.111	0.086	-0.069
-511.814	188.823	-0.177	-0.264
-510.799	-170.896	0.406	-0.014
-509.785	157.237	0.154	-0.212
-508.770	275.896	0.079	0.140
-507.756	-200.000	0.014	0.148
-506.741	64.959	-0.098	-0.099
-505.726	-5.664	0.101	-0.069
-504.712	26.020	-0.169	-0.140
-503.697	-42.980	-0.144	-0.073
-502.683	-200.000	-0.007	0.045
-501.668	-83.805	-0.246	0.078
-500.653	-139.885	0.305	0.032
-499.639	33.283	-0.162	-0.140
-498.624	210.715	-0.075	-0.117
-497.610	94.463	-0.245	0.277
-496.595	-159.303	0.058	0.003
-495.581	248.888	0.059	0.099
-494.566	170.395	0.068	-0.097
-493.551	517.570	-0.166	-0.386
-492.537	-87.294	-0.400	0.121
-491.522	-200.000	0.027	0.220
-490.508	800.000	0.021	-0.081
-489.493	-153.292	0.072	0.005
-488.478	-8.339	-0.162	-0.108
-487.464	48.022	-0.181	0.168
-486.449	-52.409	0.214	-0.099
-485.435	-200.000	0.052	0.508
-484.420	-121.038	0.282	-0.047
-483.405	-200.000	-0.013	-0.310
-482.391	-94.148	-0.063	-0.017
-481.376	81.033	-0.153	-0.164
-480.362	-147.508	0.240	0.020
-479.347	800.000	-0.074	-0.238
-478.332	800.000	-0.113	0.317
-477.318	334.845	0.072	0.138
-476.303	270.527	0.145	-0.254
-475.289	-162.976	0.169	0.008
-474.274	286.046	0.142	-0.254
-473.259	510.208	-0.118	0.272
-472.245	50.391	0.212	0.199
-471.230	8.803	0.298	-0.223
-470.216	-152.688	-0.239	-0.017
-469.201	115.540	0.123	-0.150
-468.186	153.605	0.052	0.071
-467.172	-200.000	-0.036	0.215
-466.157	800.000	0.027	-0.101
-465.143	-200.000	0.026	-0.321
-464.128	800.000	0.083	0.291
-463.113	-157.673	-0.375	0.022
-462.099	-138.825	0.213	0.023
-461.084	800.000	-0.128	0.358
-460.070	-102.070	-0.100	0.024
-459.055	-40.838	0.297	-0.153
-458.040	800.000	-0.101	-0.339
-457.026	-174.017	0.258	0.008
-456.011	-65.440	0.063	-0.025
-454.997	-200.000	0.050	-0.433
-453.982	-145.480	0.307	0.027
-452.968	639.389	-0.017	0.044
-451.953	453.354	0.046	-0.101
-450.938	-175.690	0.404	0.011
-449.924	-147.925	-0.138	-0.011
-448.909	-57.558	0.367	0.160
-447.895	503.860	0.092	-0.210
-446.880	754.580	0.098	0.263
-445.865	-123.275	0.129	0.020
-444.851	675.625	0.086	0.221
-443.836	341.631	-0.061	-0.119
-442.822	-70.426	-0.125	0.047
-441.807	800.000	-0.128	-0.470
-440.792	-200.000	-0.257	0.001
-439.778	800.000	-0.098	-0.353
-438.763	-176.824	0.195	-0.005
-437.749	236.441	-0.095	-0.156
-436.734	35.652	0.113	-0.098
-435.719	-200.000	-0.028	0.126
-434.705	58.603	0.102	0.099
-433.690	-200.000	0.033	-0.228
-432.676	-200.000	0.007	0.069
-431.661	2.264	-0.251	0.180
-430.646	-92.578	-0.267	0.074
-429.632	-54.507	0.477	0.215
-428.617	537.208	0.061	0.144
-427.603	-60.031	0.264	-0.112
-426.588	-200.000	-0.062	0.308
-425.573	-84.221	0.170	0.053
-424.559	800.000	0.150	-0.431
-423.544	695.822	0.119	0.310
-422.530	418.640	0.181	-0.384
-421.515	62.926	-0.286	-0.284
-420.500	-91.436	0.242	0.068
-419.486	-99.891	0.177	0.044
-418.471	-138.787	0.226	0.024
-417.457	227.268	-0.097	0.156
-416.442	670.145	-0.095	0.244
-415.428	594.025	-0.156	-0.382
-414.413	16.854	0.088	-0.069
-413.398	-142.018	-0.216	-0.021
-412.384	-180.785	0.432	0.009
-411.369	800.000	-0.034	-0.144
-410.355	-91.191	0.145	-0.041
-409.340	-200.000	0.031	-0.242
-408.325	661.451	-0.053	0.136
-407.311	720.343	-0.073	-0.191
-406.296	304.591	-0.055	-0.101
-405.282	-133.770	-0.252	0.031
-404.267	166.881	0.035	-0.050
-403.252	348.849	-0.069	-0.134
-402.238	181.070	0.066	-0.096
-401.223	-200.000	-0.051	-0.253
-400.209	450.915	0.137	0.300
-399.194	800.000	-0.073	0.255
-398.179	-20.892	-0.177	0.107
-397.165	220.403	0.145	0.230
-396.150	-200.000	0.053	-0.273
-395.136	259.569	-0.148	-0.253
-394.121	224.720	0.105	0.169
-393.106	-42.924	-0.094	0.047
-392.092	-42.393	0.245	0.124
-391.077	94.182	0.189	0.212
-390.063	-31.704	-0.083	-0.046
-389.048	-74.043	0.087	0.031
-388.033	124.648	-0.136	0.170
-387.019	-200.000	-0.019	0.394
-386.004	535.103	0.075	-0.177
-384.990	123.649	-0.144	0.178
-383.975	-49.427	0.201	-0.095
-382.960	66.356	-0.305	0.307
-381.946	-10.688	-0.047	0.031
-380.931	-47.589	0.220	0.106
-379.917	-200.000	0.006	-0.266
-378.902	152.378	0.130	0.176
-377.888	-200.000	-0.020	-0.134
-376.873	-200.000	0.036	0.288
-375.858	-200.000	0.009	0.175
-374.844	-170.773	0.497	-0.017
-373.829	-200.000	0.055	0.291
-372.815	-200.000	0.035	0.246
-371.800	-66.469	0.256	0.101
-370.785	-12.730	0.271	-0.175
-369.771	800.000	0.066	0.193
-368.756	332.720	0.100	-0.192
-367.742	171.695	0.109	0.155
-366.727	52.168	-0.197	0.186
-365.712	-200.000	0.028	0.566
-364.698	800.000	-0.064	-0.243
-363.683	-128.856	-0.194	-0.027
-362.669	-54.871	-0.261	0.117
-361.654	-5.938	0.051	0.035
-360.639	-22.784	-0.210	-0.126
-359.625	-106.312	-0.047	0.011
-358.610	-29.814	-0.246	0.139
-357.596	-6.967	-0.200	-0.134
-356.581	62.196	-0.193	-0.190
-355.566	231.871	0.258	0.419
-354.552	-74.459	0.228	0.081
-353.537	666.565	0.061	-0.156
-352.523	367.530	0.054	0.109
-351.508	356.749	-0.160	0.316
-350.493	-64.744	0.168	-0.067
-349.479	-17.766	0.079	0.049
-348.464	325.888	0.098	0.186
-347.450	-92.593	0.405	0.112
-346.435	80.724	0.021	0.023
-345.420	-42.656	-0.174	0.087
-344.406	5.986	0.146	-0.107
-343.391	-59.053	-0.193	-0.082
-342.377	-200.000	0.010	-0.183
-341.362	800.000	-0.126	-0.349
-340.348	9.159	-0.104	0.078
-339.333	-148.002	0.241	0.020
-338.318	-109.265	-0.362	0.076
-337.304	657.966	-0.078	-0.199
-336.289	800.000	0.026	-0.076
-335.275	227.630	-0.088	0.142
-334.260	-135.157	-0.471	-0.056
-333.245	-200.000	0.002	-0.093
-332.231	269.039	-0.074	0.129
-331.216	42.178	0.108	0.097
-330.202	-200.000	0.012	0.372
-329.187	41.690	-0.109	-0.097
-328.172	15.084	-0.298	0.230
-327.158	-64.541	0.276	0.111
-326.143	-30.446	0.268	-0.150
-325.129	-106.059	-0.194	0.043
-324.114	22.592	0.305	0.247
-323.099	-200.000	-0.024	-0.279
-322.085	-120.480	0.080	-0.013
-321.070	29.185	-0.029	0.025
-320.056	-103.724	-0.100	-0.023
-319.041	38.996	0.215	-0.190
-318.026	380.775	0.075	-0.152
-317.012	800.000	-0.054	-0.187
-315.997	-84.466	0.197	-0.061
-314.983	-37.015	-0.227	0.120
-313.968	-200.000	-0.033	-0.288
-312.953	149.525	0.224	-0.300
-311.939	281.837	0.025	0.044
-310.924	-11.806	-0.328	-0.213
-309.910	-200.000	-0.044	-0.347
-308.895	800.000	0.084	-0.265
-307.880	-200.000	-0.045	-0.264
-306.866	210.713	0.197	-0.305
-305.851	-200.000	-0.005	-0.115
-304.837	204.016	0.265	-0.405
-303.822	800.000	0.073	-0.279
-302.807	-88.822	-0.133	0.039
-301.793	-68.462	0.137	0.053
-300.778	-153.828	0.208	0.014
-299.764	800.000	-0.046	0.149
-298.749	160.182	-0.051	0.071
-297.735	-69.025	0.155	0.059
-296.720	73.087	0.235	0.242
-295.705	171.236	-0.159	0.225
-294.691	454.292	0.120	0.263
-293.676	40.824	-0.079	-0.071
-292.662	-146.255	-0.191	0.017
-291.647	-200.000	0.040	0.215
-290.632	-200.000	-0.019	-0.222
-289.618	-75.846	0.101	-0.035
-288.603	-200.000	0.085	0.390
-287.589	2.312	0.042	-0.030
-286.574	-100.539	-0.311	0.076
-285.559	186.010	0.098	-0.144
-284.545	65.314	-0.138	0.137
-283.530	-157.585	-0.357	-0.021
-282.516	-17.406	0.104	0.065
-281.501	-35.708	-0.332	-0.177
-280.486	96.953	0.271	0.307
-279.472	-200.000	-0.056	-0.261
-278.457	159.151	-0.251	0.345
-277.443	800.000	-0.029	0.084
-276.428	-200.000	-0.043	0.240
-275.413	737.188	-0.143	-0.379
-274.399	-93.480	-0.085	-0.023
-273.384	204.632	0.214	-0.327
-272.370	120.423	-0.045	-0.055
-271.355	-6.080	-0.274	0.185
-270.340	-190.665	0.101	-0.001
-269.326	800.000	-0.144	0.511
-268.311	-200.000	-0.012	0.122
-267.297	800.000	-0.042	-0.181
-266.282	453.287	-0.082	0.179
-265.267	800.000	0.105	0.287
-264.253	40.892	-0.171	0.152
-263.238	-99.792	0.169	-0.042
-262.224	349.850	0.101	-0.196
-261.209	-149.222	-0.299	0.024
-260.195	15.658	-0.126	-0.098
-259.180	297.100	-0.078	0.142
-258.165	192.829	-0.045	-0.068
-257.151	-66.421	0.170	-0.066
-256.136	30.078	0.071	0.060
-255.122	-200.000	0.026	-0.199
-254.107	-200.000	0.007	0.156
-253.092	163.416	0.039	-0.054
-252.078	122.194	0.241	-0.296
-251.063	103.066	-0.050	0.058
-250.049	-98.446	0.390	0.098
-249.034	314.317	0.173	0.321
-248.019	101.942	-0.184	-0.212
-247.005	-106.791	0.551	-0.120
-245.990	-100.236	-0.251	-0.061
-244.976	-1.907	-0.289	-0.200
-243.961	-16.913	-0.174	0.109
-242.946	800.000	-0.111	-0.355
-241.932	-116.762	-0.297	-0.054
-240.917	800.000	-0.027	0.095
-239.903	800.000	0.134	-0.438
-238.888	34.111	-0.325	0.279
-237.873	-128.917	0.433	0.060
-236.859	800.000	-0.064	0.248
-235.844	-90.443	0.068	0.019
-234.830	-103.761	0.101	0.023
-233.815	-168.882	-0.229	-0.008
-232.800	-87.112	0.176	0.053
-231.786	524.775	0.041	0.095
-230.771	-200.000	0.064	-0.383
-229.757	138.402	0.079	-0.102
-228.742	-200.000	0.024	0.157
-227.727	84.497	0.142	-0.153
-226.713	683.862	-0.069	0.178
-225.698	-23.364	-0.090	-0.053
-224.684	-158.146	-0.255	-0.015
-223.669	-122.803	0.130	-0.021
-222.655	404.087	-0.129	0.267
-221.640	-50.586	-0.200	0.093
-220.625	143.464	0.247	0.324
-219.611	237.275	0.036	-0.059
-218.596	9.650	0.230	0.172
-217.582	-1.236	0.202	-0.140
-216.567	-62.085	0.560	-0.230
-215.552	-119.557	-0.252	-0.043
-214.538	150.603	0.035	-0.047
-213.523	800.000	-0.064	0.244
-212.509	-200.000	0.031	0.221
-211.494	145.192	0.242	0.319
-210.479	141.115	-0.127	-0.166
-209.465	-137.903	0.421	0.046
-208.450	-127.065	0.181	0.026
-207.436	-187.813	0.171	0.002
-206.421	-44.954	0.301	-0.147
-205.406	479.116	-0.156	-0.348
-204.392	-134.770	-0.114	-0.014
-203.377	3.318	-0.156	0.112
-202.363	-124.911	0.115	0.017
-201.348	-200.000	-0.070	-0.338
-200.333	-200.000	0.012	-0.261
-199.319	-134.687	0.205	-0.024
-198.304	800.000	-0.006	-0.019
-197.290	-118.929	-0.294	0.051
-196.275	243.797	0.153	-0.252
-195.260	800.000	-0.094	0.299
-194.246	-123.041	-0.413	0.065
-193.231	59.989	0.198	-0.192
-192.217	-200.000	-0.002	-0.274
-191.202	-49.917	-0.242	0.113
-190.187	-200.000	0.047	-0.242
-189.173	198.793	-0.123	0.185
-188.158	-13.807	0.112	0.071
-187.144	132.234	0.031	0.039
-186.129	8.357	0.254	0.187
-185.114	394.873	-0.113	0.232
-184.100	-43.162	-0.118	-0.059
-183.085	-45.409	0.373	0.182
-182.071	45.954	0.197	0.179
-181.056	40.788	-0.179	0.158
-180.042	150.408	0.074	-0.099
-179.027	-40.716	0.188	0.096
-178.012	17.047	0.176	0.137
-176.998	320.475	0.111	-0.208
-175.983	471.283	-0.165	0.365
-174.969	-15.388	0.296	0.186
-173.954	-134.112	-0.138	-0.017
-172.939	-46.233	-0.165	0.080
-171.925	28.609	0.138	0.115
-170.910	-163.652	-0.476	0.022
-169.896	140.613	-0.075	0.097
-168.881	-86.431	0.429	-0.129
-167.866	-200.000	-0.055	-0.268
-166.852	-200.000	0.035	-0.302
-165.837	-69.941	-0.109	0.041
-164.823	-106.659	0.191	0.042
-163.808	-200.000	0.018	0.224
-162.793	-52.005	-0.194	0.088
-161.779	15.435	0.187	0.144
-160.764	-59.822	0.221	-0.093
-159.750	-55.809	0.329	0.144
-158.735	-200.000	-0.003	0.089
-157.720	-200.000	0.036	0.200
-156.706	367.315	0.113	-0.224
-155.691	-25.625	0.155	0.090
-154.677	-200.000	-0.004	0.104
-153.662	-102.643	-0.051	0.012
-152.647	800.000	-0.028	-0.095
-151.633	-200.000	-0.020	0.252
-150.618	-78.998	0.104	0.035
-149.604	-66.931	0.119	0.046
-148.589	-10.824	0.107	-0.070
-147.574	-126.460	0.118	0.017
-146.560	124.575	0.118	-0.146
-145.545	-177.553	-0.371	0.009
-144.531	340.990	-0.141	-0.270
-143.516	167.554	-0.203	0.283
-142.502	95.361	-0.096	-0.107
-141.487	-155.508	0.232	-0.015
-140.472	54.222	-0.314	0.296
-139.458	429.821	0.041	-0.087
-138.443	-130.174	-0.309	0.041
-137.429	-200.000	-0.035	0.157
-136.414	-36.798	-0.497	-0.262
-135.399	-149.161	-0.160	0.013
-134.385	-142.971	-0.316	-0.030
-133.370	-121.096	-0.129	-0.021
-132.356	-200.000	-0.012	-0.050
-131.341	800.000	-0.052	-0.202
-130.326	-77.585	-0.197	-0.067
-129.312	-129.319	-0.109	0.015
-128.297	800.000	0.068	0.285
-127.283	607.798	0.082	-0.200
-126.268	-70.747	-0.052	0.019
-125.253	387.313	0.152	-0.309
-124.239	800.000	-0.085	-0.325
-123.224	33.262	-0.081	0.069
-122.210	152.464	0.224	0.300
