DTS Sentinel unit serial number:	SN413079Multiplexer serial number:	ORYXHardware model number:	OX4-SRSoftware version number:	ORYX F/W v4.00 Oryx Data Collector v3.7.2.0data status	okinstallation	princeton_trtdifferential loss correction	single-endedforward channel	channel 3reverse channel	N/Adate	2019/09/14time	00:28:34forward acquisition time	60.00reverse acquisition time	0.00gamma	496.2192k internal	0.2340k external	0.2340temperature offset calibration	1.0058default loss term (dB/km)	0.3790temperature slope calibration	1.0000multiplexer offset coefficient	1.0000multiplexer slope coefficient	1.0000fibre end	0.00T internal ref (°C)	26.47T ext. ref 1 (°C)	3.18T ext. ref 2 (°C)	21.22length (m)	temperature (°C)	Stokes	anti-Stokes-747.200	78.437	0.142	0.152
-746.185	-110.716	0.304	-0.063
-745.171	-20.591	0.163	0.101
-744.156	-96.319	0.173	0.046
-743.142	222.359	0.178	-0.288
-742.127	-78.444	-0.120	0.041
-741.112	18.157	-0.224	0.179
-740.098	-200.000	-0.019	0.382
-739.083	2.629	0.379	-0.276
-738.069	-132.355	-0.082	0.011
-737.054	-90.259	0.244	-0.071
-736.039	169.496	-0.116	-0.167
-735.025	344.322	-0.044	0.086
-734.010	257.054	0.095	-0.163
-732.996	-73.229	-0.327	-0.120
-731.981	272.509	0.125	-0.221
-730.966	-18.061	-0.238	0.149
-729.952	-200.000	-0.015	0.186
-728.937	204.439	-0.062	-0.096
-727.923	800.000	0.084	-0.284
-726.908	-200.000	0.014	-0.204
-725.894	-163.739	0.293	-0.014
-724.879	-126.429	0.002	-0.000
-723.864	800.000	-0.038	-0.158
-722.850	-93.417	-0.240	0.067
-721.835	-200.000	0.026	-0.235
-720.821	-200.000	0.003	0.140
-719.806	-200.000	-0.030	0.184
-718.791	800.000	-0.055	0.181
-717.777	82.848	0.174	-0.189
-716.762	-200.000	-0.036	-0.351
-715.748	194.378	-0.164	-0.249
-714.733	-19.594	-0.142	-0.088
-713.718	-171.058	0.270	0.009
-712.704	-200.000	-0.026	0.171
-711.689	-76.478	-0.082	0.029
-710.675	-37.252	0.042	-0.022
-709.660	-61.244	-0.088	-0.037
-708.645	50.474	-0.099	0.093
-707.631	-196.155	-0.106	0.001
-706.616	92.128	-0.138	0.155
-705.602	800.000	0.055	0.159
-704.587	-194.540	0.237	-0.002
-703.572	-47.886	-0.372	-0.180
-702.558	316.675	-0.173	0.327
-701.543	-97.410	-0.158	0.041
-700.529	-141.164	0.390	-0.040
-699.514	343.613	-0.059	-0.117
-698.499	-39.948	0.453	-0.237
-697.485	113.623	0.219	0.266
-696.470	-8.625	-0.120	0.081
-695.456	-67.182	-0.103	-0.041
-694.441	800.000	0.018	-0.076
-693.426	-200.000	-0.019	0.101
-692.412	77.252	-0.172	-0.183
-691.397	36.162	0.124	0.109
-690.383	-16.980	-0.036	-0.023
-689.368	-200.000	-0.002	0.114
-688.354	-36.096	0.243	0.131
-687.339	-28.574	0.181	-0.104
-686.324	-57.862	-0.272	0.119
-685.310	-46.106	-0.389	-0.192
-684.295	-149.910	0.088	0.007
-683.281	203.230	-0.177	0.274
-682.266	667.806	-0.107	-0.278
-681.251	800.000	0.031	0.101
-680.237	-145.863	0.168	-0.015
-679.222	-69.673	-0.345	-0.132
-678.208	-31.675	0.179	-0.100
-677.193	63.813	0.253	-0.254
-676.178	-200.000	0.003	-0.098
-675.164	-129.119	-0.227	0.032
-674.149	96.164	0.135	-0.154
-673.135	77.360	-0.088	-0.094
-672.120	13.231	-0.358	-0.277
-671.105	6.906	-0.160	-0.120
-670.091	31.279	0.324	0.278
-669.076	-93.761	-0.146	-0.040
-668.062	-138.491	0.077	0.008
-667.047	-48.550	0.092	0.044
-666.032	-137.996	0.079	0.009
-665.018	-41.600	-0.226	0.116
-664.003	47.299	0.315	-0.293
-662.989	254.299	0.184	-0.315
-661.974	-47.597	0.180	-0.087
-660.959	-200.000	0.001	0.015
-659.945	42.344	0.131	-0.119
-658.930	-61.860	-0.122	-0.051
-657.916	35.479	0.117	-0.102
-656.901	424.032	0.119	0.256
-655.886	-117.029	-0.306	0.056
-654.872	-123.889	-0.158	0.025
-653.857	800.000	-0.095	-0.272
-652.843	39.135	0.044	0.040
-651.828	-93.938	0.068	0.019
-650.814	95.411	0.320	-0.364
-649.799	-174.643	-0.127	0.004
-648.784	800.000	-0.015	-0.049
-647.770	-71.630	-0.080	0.030
-646.755	-200.000	-0.053	0.290
-645.741	102.021	-0.063	0.074
-644.726	-101.150	-0.121	0.030
-643.711	177.038	-0.217	0.315
-642.697	235.262	-0.055	-0.092
-641.682	119.960	-0.238	0.295
-640.668	231.998	-0.112	-0.183
-639.653	-90.677	0.318	-0.092
-638.638	-69.972	0.118	-0.045
-637.624	-18.848	-0.263	-0.163
-636.609	800.000	0.055	0.209
-635.595	-200.000	0.062	0.432
-634.580	608.193	0.066	-0.165
-633.565	-200.000	0.002	0.017
-632.551	2.543	-0.070	-0.050
-631.536	-177.775	0.066	-0.002
-630.522	-99.587	0.321	-0.080
-629.507	800.000	0.127	-0.433
-628.492	-146.395	-0.114	-0.010
-627.478	-59.543	0.157	0.067
-626.463	1.194	0.355	0.254
-625.449	-178.032	0.479	-0.011
-624.434	465.300	0.119	-0.265
-623.419	-68.466	0.383	0.148
-622.405	23.416	-0.199	-0.163
-621.390	80.914	-0.244	-0.263
-620.376	53.395	-0.141	0.135
-619.361	-169.635	-0.212	-0.008
-618.346	458.851	0.132	-0.293
-617.332	34.595	-0.134	-0.117
-616.317	-59.831	0.107	-0.046
-615.303	4.478	0.039	-0.029
-614.288	-200.000	0.038	-0.316
-613.273	81.433	-0.083	0.089
-612.259	46.027	0.181	-0.167
-611.244	-133.413	0.238	0.030
-610.230	-19.509	0.031	0.019
-609.215	-52.939	0.137	0.063
-608.201	-109.669	-0.192	-0.040
-607.186	-200.000	-0.029	0.223
-606.171	-200.000	0.010	-0.495
-605.157	292.353	0.106	-0.193
-604.142	91.460	-0.268	-0.301
-603.128	164.745	0.039	-0.056
-602.113	-200.000	-0.028	-0.166
-601.098	574.245	0.069	0.168
-600.084	-126.697	0.315	0.046
-599.069	-200.000	0.006	0.035
-598.055	-149.953	0.040	0.003
-597.040	-110.409	-0.105	0.022
-596.025	481.248	0.109	-0.247
-595.011	800.000	0.102	0.324
-593.996	800.000	0.022	0.093
-592.982	-14.423	0.037	-0.024
-591.967	-137.246	0.243	-0.028
-590.952	-24.930	0.093	0.055
-589.938	800.000	-0.024	0.095
-588.923	-200.000	0.034	0.149
-587.909	-132.607	-0.142	-0.018
-586.894	800.000	0.048	0.201
-585.879	315.870	-0.123	-0.231
-584.865	-158.561	0.126	-0.007
-583.850	-20.004	-0.313	-0.192
-582.836	-190.612	0.198	0.002
-581.821	-71.497	0.130	-0.048
-580.806	-96.526	0.239	-0.063
-579.792	59.749	0.086	0.085
-578.777	-131.789	-0.037	0.005
-577.763	58.871	-0.101	0.099
-576.748	412.045	0.063	-0.133
-575.733	-5.612	0.183	-0.125
-574.719	-150.627	-0.214	-0.016
-573.704	-127.539	0.158	-0.023
-572.690	-200.000	-0.025	0.118
-571.675	-200.000	0.051	-0.241
-570.661	-67.817	0.319	-0.124
-569.646	74.887	0.288	-0.301
-568.631	-166.262	0.038	-0.002
-567.617	65.789	0.133	0.134
-566.602	-48.946	0.142	-0.068
-565.588	-91.877	-0.092	-0.026
-564.573	35.449	-0.270	-0.236
-563.558	288.757	-0.142	-0.257
-562.544	417.144	-0.035	-0.074
-561.529	-83.900	0.334	0.106
-560.515	208.258	0.060	-0.094
-559.500	-49.349	0.216	0.103
-558.485	48.697	0.109	0.102
-557.471	212.479	-0.082	0.129
-556.456	-157.598	-0.160	0.010
-555.442	-3.085	-0.183	-0.127
-554.427	-57.841	-0.022	-0.010
-553.412	81.982	-0.187	-0.202
-552.398	800.000	-0.070	-0.287
-551.383	86.762	0.208	-0.229
-550.369	-176.544	0.083	0.002
-549.354	-99.397	-0.040	0.010
-548.339	-69.590	0.093	0.035
-547.325	204.306	-0.130	0.200
-546.310	-200.000	-0.004	-0.114
-545.296	-12.656	-0.120	-0.078
-544.281	800.000	0.052	-0.183
-543.266	146.905	-0.234	-0.314
-542.252	-128.352	0.153	0.022
-541.237	800.000	-0.053	-0.195
-540.223	-102.003	-0.228	-0.055
-539.208	-200.000	0.015	-0.197
-538.193	345.382	-0.223	-0.436
-537.179	-139.410	-0.170	-0.018
-536.164	-200.000	-0.008	0.081
-535.150	511.850	-0.072	-0.166
-534.135	-200.000	0.050	-0.348
-533.121	800.000	-0.082	0.308
-532.106	699.852	-0.031	0.081
-531.091	148.943	-0.045	-0.060
-530.077	-200.000	0.046	-0.248
-529.062	-54.923	-0.107	0.048
-528.048	-99.745	-0.216	0.054
-527.033	27.987	-0.215	-0.180
-526.018	229.756	0.063	-0.102
-525.004	800.000	0.106	-0.345
-523.989	800.000	0.060	-0.212
-522.975	44.701	-0.099	-0.090
-521.960	-200.000	-0.010	0.072
-520.945	-200.000	-0.008	-0.207
-519.931	109.563	-0.174	0.207
-518.916	-23.043	0.261	0.156
-517.902	123.667	0.218	-0.271
-516.887	-28.675	-0.221	-0.126
-515.872	-41.879	-0.155	-0.079
-514.858	294.442	-0.162	-0.294
-513.843	35.620	-0.044	0.038
-512.829	-131.153	-0.183	-0.024
-511.814	-200.000	0.001	0.172
-510.799	-200.000	0.026	0.138
-509.785	-37.724	0.239	0.126
-508.770	-200.000	0.023	0.260
-507.756	100.026	-0.063	0.073
-506.741	-3.024	0.119	0.083
-505.726	-11.368	-0.248	-0.162
-504.712	-23.109	-0.174	0.104
-503.697	-122.647	-0.452	0.073
-502.683	-79.024	0.251	0.085
-501.668	-200.000	0.322	0.000
-500.653	-200.000	-0.006	-0.116
-499.639	68.077	0.072	0.073
-498.624	-42.005	0.159	0.081
-497.610	-56.099	-0.221	0.098
-496.595	-33.047	0.237	-0.130
-495.581	-78.680	-0.283	0.096
-494.566	719.732	-0.055	-0.146
-493.551	-58.836	-0.096	0.041
-492.537	-1.494	-0.041	0.028
-491.522	-28.415	0.143	-0.082
-490.508	-94.733	-0.184	0.050
-489.493	246.974	-0.089	-0.150
-488.478	94.823	-0.141	0.159
-487.464	-155.445	0.167	0.011
-486.449	3.081	0.194	-0.140
-485.435	162.632	-0.069	0.097
-484.420	-147.378	0.130	-0.011
-483.405	800.000	0.072	0.299
-482.391	-200.000	0.031	0.227
-481.376	-200.000	-0.008	0.213
-480.362	-44.380	0.138	-0.069
-479.347	8.435	-0.175	-0.131
-478.332	-101.903	0.202	-0.048
-477.318	-43.778	0.170	0.085
-476.303	82.794	0.233	-0.251
-475.289	-200.000	-0.016	-0.125
-474.274	-125.269	-0.370	0.056
-473.259	-48.154	-0.107	-0.051
-472.245	-200.000	0.006	0.221
-471.230	-47.414	-0.107	-0.052
-470.216	-200.000	-0.014	0.130
-469.201	-129.800	-0.312	0.043
-468.186	-200.000	0.031	-0.226
-467.172	320.330	-0.155	0.292
-466.157	-82.390	-0.438	-0.141
-465.143	421.841	0.088	-0.188
-464.128	-163.900	-0.228	-0.011
-463.113	-200.000	-0.052	0.338
-462.099	-27.207	-0.252	0.145
-461.084	10.606	-0.120	0.091
-460.070	-65.544	0.174	0.069
-459.055	333.884	-0.056	0.108
-458.040	-11.206	0.140	-0.092
-457.026	-23.604	-0.131	0.078
-456.011	150.801	-0.150	0.202
-454.997	-108.409	0.163	0.035
-453.982	-7.591	0.377	-0.253
-452.968	-117.550	-0.105	0.019
-451.953	-13.205	-0.120	0.077
-450.938	-159.381	0.270	-0.015
-449.924	65.627	-0.303	0.304
-448.909	155.907	-0.091	-0.125
-447.895	-200.000	0.042	0.244
-446.880	51.018	-0.184	-0.173
-445.865	-200.000	0.000	0.071
-444.851	213.224	0.045	-0.070
-443.836	-34.663	0.244	-0.132
-442.822	-200.000	-0.019	-0.131
-441.807	-144.947	-0.070	-0.006
-440.792	36.240	0.254	-0.222
-439.778	-200.000	-0.074	0.357
-438.763	-16.220	-0.141	0.088
-437.749	800.000	-0.088	-0.290
-436.734	-200.000	-0.024	-0.273
-435.719	57.224	-0.271	-0.262
-434.705	255.224	0.146	0.248
-433.690	-35.849	0.299	0.160
-432.676	-200.000	-0.000	0.130
-431.661	-200.000	0.043	-0.330
-430.646	46.647	0.171	-0.157
-429.632	-114.079	-0.302	0.058
-428.617	-113.559	0.228	0.044
-427.603	171.349	-0.092	-0.130
-426.588	-200.000	-0.066	0.291
-425.573	4.009	0.104	-0.075
-424.559	-55.228	0.245	0.109
-423.544	445.119	-0.106	0.231
-422.530	-200.000	0.046	-0.311
-421.515	210.160	-0.133	0.206
-420.500	-139.461	0.034	0.004
-419.486	-58.272	-0.160	0.069
-418.471	34.705	-0.166	-0.144
-417.457	-48.985	-0.212	0.101
-416.442	-113.922	0.205	0.039
-415.428	717.068	0.040	-0.104
-414.413	352.392	-0.043	0.084
-413.398	800.000	0.112	0.371
-412.384	-200.000	0.034	-0.422
-411.369	228.682	0.168	-0.271
-410.355	800.000	0.054	-0.149
-409.340	-78.382	0.167	-0.057
-408.325	-56.849	0.131	-0.057
-407.311	-174.422	0.287	-0.008
-406.296	800.000	0.046	0.127
-405.282	-200.000	-0.060	0.304
-404.267	61.089	0.168	0.165
-403.252	-17.812	-0.299	0.186
-402.238	377.132	-0.059	-0.119
-401.223	-192.370	0.159	0.001
-400.209	-135.060	0.051	-0.006
-399.194	78.879	-0.197	0.208
-398.179	-64.413	0.090	-0.036
-397.165	-24.875	0.293	0.172
-396.150	-119.270	0.186	-0.032
-395.136	637.793	-0.093	-0.235
-394.121	-200.000	-0.020	-0.130
-393.106	800.000	0.039	0.125
-392.092	-200.000	0.070	0.422
-391.077	68.628	0.156	-0.158
-390.063	42.770	-0.139	0.126
-389.048	262.007	-0.086	0.148
-388.033	-200.000	0.042	-0.274
-387.019	-97.814	0.449	0.115
-386.004	-96.426	-0.067	0.018
-384.990	402.457	0.014	0.029
-383.975	-35.941	0.167	0.089
-382.960	499.340	-0.147	0.334
-381.946	49.945	-0.095	0.089
-380.931	-200.000	-0.074	0.371
-379.917	-53.461	0.260	0.118
-378.902	800.000	-0.063	0.223
-377.888	-153.308	-0.233	0.016
-376.873	-180.458	0.210	0.004
-375.858	-5.971	-0.169	-0.114
-374.844	-76.090	-0.018	-0.006
-373.829	-128.745	0.261	0.036
-372.815	800.000	0.025	0.087
-371.800	-200.000	-0.020	0.182
-370.785	83.610	0.127	-0.137
-369.771	323.905	-0.164	-0.310
-368.756	-200.000	-0.018	0.147
-367.742	-140.510	0.314	-0.032
-366.727	7.769	0.186	0.138
-365.712	-200.000	-0.024	-0.365
-364.698	800.000	-0.051	-0.178
-363.683	168.611	-0.218	-0.307
-362.669	-29.634	-0.318	-0.179
-361.654	800.000	-0.066	-0.253
-360.639	-5.078	-0.104	-0.071
-359.625	446.843	0.073	-0.159
-358.610	-132.324	-0.408	0.052
-357.596	85.305	0.310	-0.336
-356.581	800.000	0.013	0.055
-355.566	489.547	-0.021	0.048
-354.552	-112.673	0.358	0.070
-353.537	-115.615	0.093	-0.017
-352.523	-5.249	-0.138	-0.093
-351.508	-97.712	-0.072	-0.018
-350.493	-71.949	-0.501	0.184
-349.479	556.304	-0.206	0.490
-348.464	242.003	0.106	0.176
-347.450	107.198	0.083	0.097
-346.435	-200.000	0.036	-0.173
-345.420	185.821	-0.138	0.203
-344.406	-72.899	0.117	0.043
-343.391	-116.639	-0.092	-0.017
-342.377	97.207	0.174	0.197
-341.362	-28.782	-0.180	0.102
-340.348	800.000	-0.056	0.167
-339.333	135.898	0.066	0.085
-338.318	-82.953	-0.112	-0.036
-337.304	613.445	-0.095	0.234
-336.289	-200.000	-0.024	0.198
-335.275	-21.350	-0.042	0.025
-334.260	-95.243	-0.108	0.029
-333.245	-42.399	-0.110	0.055
-332.231	-100.854	0.155	-0.038
-331.216	-63.015	-0.314	-0.128
-330.202	90.550	0.182	-0.201
-329.187	-70.965	0.394	0.146
-328.172	-54.754	0.170	-0.076
-327.158	40.923	-0.118	-0.105
-326.143	800.000	0.004	-0.012
-325.129	164.679	0.116	-0.162
-324.114	-109.394	0.198	-0.041
-323.099	334.726	0.116	0.222
-322.085	134.819	-0.145	0.185
-321.070	-64.024	-0.076	-0.031
-320.056	-50.927	-0.166	0.077
-319.041	799.068	0.080	-0.218
-318.026	-98.516	-0.322	-0.081
-317.012	-48.399	-0.201	0.096
-315.997	800.000	0.067	0.281
-314.983	14.945	-0.252	0.194
-313.968	-127.266	0.160	-0.023
-312.953	27.778	-0.318	-0.264
-311.939	-71.585	-0.077	0.028
-310.924	696.759	-0.091	-0.236
-309.910	-146.327	0.253	0.022
-308.895	-200.000	0.012	0.271
-307.880	10.081	0.236	0.177
-306.866	800.000	0.080	-0.326
-305.851	-14.152	-0.073	0.046
-304.837	-43.349	-0.146	-0.073
-303.822	152.303	-0.139	-0.187
-302.807	211.808	0.153	0.238
-301.793	-86.284	-0.273	0.083
-300.778	-200.000	0.027	0.351
-299.764	-110.467	0.377	-0.077
-298.749	-35.414	0.213	-0.114
-297.735	71.757	0.179	0.184
-296.720	109.983	0.107	0.127
-295.705	2.465	0.410	-0.292
-294.691	-200.000	-0.028	-0.381
-293.676	130.951	0.138	0.175
-292.662	800.000	-0.047	-0.203
-291.647	-90.250	-0.273	0.078
-290.632	-24.379	-0.143	-0.084
-289.618	506.883	-0.105	0.239
-288.603	-200.000	-0.018	0.325
-287.589	662.978	0.034	-0.085
-286.574	214.209	-0.137	0.213
-285.559	-120.564	0.104	-0.017
-284.545	-23.401	0.034	-0.020
-283.530	-200.000	0.041	0.184
-282.516	-200.000	-0.037	-0.197
-281.501	800.000	-0.023	-0.083
-280.486	-55.930	-0.266	-0.117
-279.472	-68.244	-0.406	-0.156
-278.457	-127.514	-0.360	-0.051
-277.443	-147.923	0.421	-0.035
-276.428	-127.435	-0.408	-0.058
-275.413	770.012	-0.112	-0.299
-274.399	-200.000	-0.018	-0.188
-273.384	-83.490	-0.126	0.040
-272.370	-200.000	0.006	0.146
-271.355	-190.377	-0.469	-0.005
-270.340	-200.000	0.058	0.000
-269.326	34.601	0.125	0.107
-268.311	226.244	-0.057	-0.091
-267.297	-137.756	-0.286	0.032
-266.282	800.000	-0.123	-0.443
-265.267	-111.968	0.148	0.029
-264.253	800.000	-0.083	0.248
-263.238	800.000	-0.126	0.481
-262.224	33.747	0.173	0.148
-261.209	23.017	-0.105	-0.085
-260.195	171.617	0.076	0.107
-259.180	469.799	0.067	0.147
-258.165	-200.000	0.056	-0.288
-257.151	104.974	0.060	0.070
-256.136	-21.735	0.014	-0.009
-255.122	21.050	0.271	-0.216
-254.107	800.000	-0.064	0.215
-253.092	-154.258	-0.034	-0.002
-252.078	27.965	0.085	0.071
-251.063	55.271	0.057	-0.054
-250.049	-191.812	0.287	-0.003
-249.034	-156.227	-0.321	-0.020
-248.019	91.091	0.150	-0.165
-247.005	-127.391	0.359	0.051
-245.990	384.198	-0.126	-0.255
-244.976	-187.734	-0.046	-0.001
-243.961	-113.663	-0.381	-0.073
-242.946	-200.000	0.045	0.203
-241.932	-121.870	0.103	-0.017
-240.917	-34.603	-0.179	0.096
-239.903	-39.390	-0.089	-0.046
-238.888	55.680	0.158	-0.151
-237.873	800.000	0.071	-0.201
-236.859	-104.469	0.161	-0.037
-235.844	14.983	0.253	0.195
-234.830	-30.007	0.114	-0.064
-233.815	-93.398	0.309	0.084
-232.800	32.391	0.082	-0.070
-231.786	-181.825	-0.502	-0.009
-230.771	66.291	0.062	0.062
-229.757	-200.000	0.017	-0.122
-228.742	-94.114	0.253	0.068
-227.727	-125.347	-0.171	-0.026
-226.713	-200.000	-0.015	-0.287
-225.698	-105.940	-0.147	0.033
-224.684	-133.197	-0.144	0.018
-223.669	-86.067	-0.280	0.085
-222.655	346.744	0.157	0.303
-221.640	-159.985	-0.393	0.021
-220.625	-141.196	0.105	0.011
-219.611	-42.571	0.011	-0.005
-218.596	77.562	0.235	-0.246
-217.582	77.548	-0.093	0.098
-216.567	54.193	-0.176	0.166
-215.552	-200.000	-0.005	-0.196
-214.538	-11.687	-0.236	-0.152
-213.523	53.479	0.218	-0.206
-212.509	307.147	-0.184	0.337
-211.494	230.781	0.151	-0.243
-210.479	16.580	0.054	0.042
-209.465	-200.000	-0.001	0.509
-208.450	710.059	0.074	0.192
-207.436	107.829	-0.107	0.126
-206.421	-146.429	0.344	0.030
-205.406	24.360	-0.067	0.054
-204.392	196.826	-0.075	-0.113
-203.377	-121.467	-0.136	0.022
-202.363	-200.000	-0.035	-0.182
-201.348	800.000	0.019	0.060
-200.333	210.822	0.045	0.069
-199.319	462.514	-0.037	0.082
-198.304	-103.626	-0.200	-0.046
-197.290	408.707	-0.062	0.128
-196.275	777.274	0.102	0.273
-195.260	-200.000	-0.044	0.316
-194.246	-167.971	-0.170	0.007
-193.231	-19.610	0.411	0.249
-192.217	18.621	-0.164	0.129
-191.202	-66.273	0.280	0.109
-190.187	30.182	-0.315	-0.264
-189.173	303.886	-0.233	0.424
-188.158	-26.879	-0.151	0.086
-187.144	-12.167	0.387	0.248
-186.129	-125.377	0.308	0.046
-185.114	19.315	-0.117	0.092
-184.100	138.360	-0.086	0.111
-183.085	314.039	0.075	-0.139
-182.071	-23.300	-0.106	0.063
-181.056	171.959	0.095	-0.133
-180.042	-16.629	-0.190	0.118
-179.027	-142.957	-0.064	0.006
-178.012	317.330	-0.089	0.165
-176.998	-17.142	-0.054	0.033
-175.983	-182.732	-0.292	0.005
-174.969	-12.225	0.256	0.165
-173.954	303.613	-0.099	-0.181
-172.939	-14.154	0.135	-0.085
-171.925	-200.000	0.022	-0.116
-170.910	-200.000	0.075	-0.324
-169.896	50.977	0.226	0.210
-168.881	-66.634	-0.158	0.061
-167.866	800.000	-0.046	0.151
-166.852	510.999	0.112	-0.255
-165.837	154.096	0.204	-0.274
-164.823	553.682	-0.052	0.122
-163.808	-123.009	0.518	0.082
-162.793	-200.000	0.054	-0.240
-161.779	3.798	-0.120	-0.086
-160.764	-49.109	0.410	0.192
-159.750	-35.238	0.174	0.093
-158.735	196.715	0.128	0.191
-157.720	267.434	-0.030	0.051
-156.706	100.240	0.187	0.212
-155.691	-65.844	-0.241	0.094
-154.677	-110.847	-0.161	0.033
-153.662	15.563	0.129	0.100
-152.647	-9.355	0.102	-0.067
-151.633	359.323	-0.134	-0.263
-150.618	800.000	0.068	0.273
-149.604	-64.159	0.088	-0.035
-148.589	231.335	0.064	-0.102
-147.574	-30.273	0.194	-0.108
-146.560	-145.801	-0.256	-0.022
-145.545	281.455	-0.209	0.366
-144.531	268.976	0.181	0.310
-143.516	-200.000	0.024	0.216
-142.502	800.000	-0.048	-0.165
-141.487	-146.174	-0.091	-0.008
-140.472	-150.000	0.359	-0.027
-139.458	800.000	-0.094	0.288
-138.443	-166.216	0.117	-0.005
-137.429	800.000	0.017	-0.072
-136.414	800.000	-0.079	0.212
-135.399	163.271	0.221	0.304
-134.385	159.207	0.162	-0.220
-133.370	276.874	0.085	0.148
-132.356	-200.000	0.023	0.152
-131.341	-49.145	0.109	0.051
-130.326	-98.952	0.263	0.065
-129.312	-111.104	0.334	-0.067
-128.297	800.000	0.032	0.111
-127.283	-200.000	0.011	-0.246
-126.268	-200.000	0.024	-0.589
-125.253	-84.673	0.064	-0.020
-124.239	-20.194	0.184	-0.111
-123.224	-103.549	0.206	0.047
-122.210	94.881	0.093	-0.104
-121.195	-116.519	-0.335	0.061
