DTS Sentinel unit serial number:	SN413079Multiplexer serial number:	ORYXHardware model number:	OX4-SRSoftware version number:	ORYX F/W v4.00 Oryx Data Collector v3.7.2.0data status	okinstallation	princeton_trtdifferential loss correction	single-endedforward channel	channel 3reverse channel	N/Adate	2019/09/15time	08:24:35forward acquisition time	60.00reverse acquisition time	0.00gamma	496.2192k internal	0.2321k external	0.2321temperature offset calibration	0.9980default loss term (dB/km)	0.3790temperature slope calibration	1.0000multiplexer offset coefficient	1.0000multiplexer slope coefficient	1.0000fibre end	0.00T internal ref (°C)	31.41T ext. ref 1 (°C)	5.00T ext. ref 2 (°C)	28.51length (m)	temperature (°C)	Stokes	anti-Stokes-747.200	-77.810	-0.422	-0.147
-746.185	800.000	-0.061	0.197
-745.171	-57.316	0.332	-0.148
-744.156	800.000	-0.060	0.213
-743.142	-200.000	-0.008	0.066
-742.127	-91.748	-0.272	-0.078
-741.112	-35.520	-0.233	-0.128
-740.098	-200.000	-0.030	0.436
-739.083	-33.048	-0.024	0.013
-738.069	-200.000	-0.043	0.278
-737.054	-64.334	-0.201	0.083
-736.039	-200.000	-0.040	-0.183
-735.025	-200.000	-0.065	0.294
-734.010	-34.094	-0.300	-0.167
-732.996	-115.106	0.075	-0.014
-731.981	-96.144	-0.261	0.070
-730.966	-131.828	-0.121	0.016
-729.952	-111.788	-0.205	0.042
-728.937	87.632	0.130	0.145
-727.923	-90.427	0.142	0.042
-726.908	163.439	-0.247	-0.350
-725.894	437.258	-0.127	-0.281
-724.879	-122.347	-0.406	-0.067
-723.864	-125.722	-0.370	-0.057
-722.850	119.710	0.159	-0.199
-721.835	124.274	-0.415	-0.527
-720.821	114.784	0.091	0.112
-719.806	43.759	-0.116	-0.107
-718.791	503.633	0.017	0.039
-717.777	-200.000	-0.044	-0.205
-716.762	-61.951	-0.115	0.048
-715.748	-200.000	0.024	-0.299
-714.733	41.259	0.286	-0.261
-713.718	-132.539	-0.241	0.031
-712.704	201.855	0.079	-0.124
-711.689	73.861	-0.122	0.129
-710.675	800.000	0.020	0.074
-709.660	-200.000	0.008	-0.191
-708.645	-200.000	0.017	0.129
-707.631	800.000	0.039	-0.169
-706.616	680.470	-0.121	-0.318
-705.602	800.000	-0.032	0.119
-704.587	48.258	-0.104	0.098
-703.572	19.206	0.105	0.085
-702.558	352.503	-0.115	-0.230
-701.543	131.977	-0.170	0.221
-700.529	117.091	0.100	0.124
-699.514	-200.000	-0.065	-0.354
-698.499	-159.948	-0.246	-0.014
-697.485	797.168	-0.171	-0.475
-696.470	800.000	0.021	-0.079
-695.456	-200.000	0.073	-0.373
-694.441	-123.880	-0.199	-0.032
-693.426	-34.682	0.088	-0.049
-692.412	-126.570	-0.270	0.040
-691.397	14.010	0.081	0.063
-690.383	-186.478	0.386	-0.006
-689.368	-37.791	0.355	-0.190
-688.354	-11.215	-0.293	-0.195
-687.339	-12.248	-0.232	0.153
-686.324	-90.651	0.189	0.055
-685.310	-200.000	-0.305	-0.000
-684.295	-76.874	0.215	-0.076
-683.281	549.822	-0.065	-0.158
-682.266	375.048	-0.104	0.214
-681.251	6.315	-0.310	0.232
-680.237	800.000	0.113	-0.392
-679.222	9.308	-0.134	-0.102
-678.208	-33.306	-0.238	0.133
-677.193	-200.000	-0.036	0.209
-676.178	-200.000	-0.028	0.164
-675.164	25.021	0.342	-0.286
-674.149	241.564	0.072	-0.121
-673.135	-36.312	0.210	0.114
-672.120	54.723	-0.016	0.015
-671.105	800.000	-0.053	0.168
-670.091	-99.215	-0.287	0.073
-669.076	-200.000	-0.018	-0.090
-668.062	-96.439	0.209	-0.056
-667.047	-77.763	0.130	0.045
-666.032	-63.005	-0.400	0.166
-665.018	-45.751	0.143	0.071
-664.003	16.728	-0.345	0.275
-662.989	-49.366	-0.186	-0.090
-661.974	800.000	0.144	-0.421
-660.959	-28.379	0.195	0.114
-659.945	800.000	-0.081	0.300
-658.930	144.778	0.110	-0.149
-657.916	1.327	0.320	0.232
-656.901	233.438	0.078	-0.129
-655.886	-1.653	-0.184	-0.131
-654.872	-135.813	-0.363	0.043
-653.857	87.878	-0.103	0.115
-652.843	182.638	0.090	-0.134
-651.828	296.883	0.113	-0.209
-650.814	800.000	0.053	0.177
-649.799	-108.497	-0.224	-0.048
-648.784	72.202	0.142	-0.149
-647.770	-178.595	0.214	-0.005
-646.755	800.000	-0.062	0.272
-645.741	147.140	0.191	-0.259
-644.726	93.310	0.085	0.097
-643.711	-141.048	-0.209	0.022
-642.697	132.708	-0.113	-0.147
-641.682	800.000	0.087	-0.245
-640.668	-114.521	0.173	-0.034
-639.653	-147.516	-0.280	0.024
-638.638	-200.000	0.028	-0.205
-637.624	-99.332	0.306	-0.078
-636.609	301.145	0.097	-0.180
-635.595	-200.000	-0.056	0.252
-634.580	-126.664	0.106	-0.016
-633.565	-200.000	-0.004	-0.040
-632.551	-200.000	0.040	0.183
-631.536	56.053	-0.064	-0.062
-630.522	800.000	-0.086	0.256
-629.507	800.000	-0.061	0.262
-628.492	394.159	-0.166	-0.349
-627.478	219.612	-0.288	-0.464
-626.463	-32.558	0.193	0.108
-625.449	580.108	0.127	-0.314
-624.434	800.000	-0.042	0.124
-623.419	-84.012	-0.263	-0.084
-622.405	12.568	-0.409	0.318
-621.390	247.867	0.160	0.272
-620.376	457.322	0.064	0.143
-619.361	-200.000	0.005	-0.049
-618.346	90.042	-0.024	-0.027
-617.332	-123.091	-0.188	-0.030
-616.317	-170.895	0.333	0.011
-615.303	110.092	-0.075	-0.091
-614.288	30.829	-0.247	0.213
-613.273	-192.816	-0.171	0.002
-612.259	-100.322	0.119	0.030
-611.244	-200.000	0.025	-0.125
-610.230	27.273	0.135	-0.114
-609.215	450.416	-0.084	-0.186
-608.201	53.520	0.084	-0.081
-607.186	137.798	0.169	-0.222
-606.171	338.832	-0.167	-0.327
-605.157	78.667	-0.095	0.102
-604.142	800.000	0.010	0.031
-603.128	-8.250	0.052	0.035
-602.113	800.000	-0.015	-0.047
-601.098	-80.309	-0.146	-0.049
-600.084	43.823	-0.259	-0.239
-599.069	459.831	-0.121	0.270
-598.055	-154.840	-0.485	0.032
-597.040	97.929	-0.156	0.180
-596.025	154.665	-0.154	-0.213
-595.011	442.310	-0.150	-0.329
-593.996	-116.463	0.257	0.048
-592.982	65.881	-0.134	-0.136
-591.967	-155.005	0.276	-0.018
-590.952	-142.323	-0.279	0.028
-589.938	-39.401	0.207	0.109
-588.923	-200.000	-0.016	0.081
-587.909	-75.259	0.155	-0.056
-586.894	800.000	-0.045	0.138
-585.879	-119.228	-0.154	-0.027
-584.865	75.569	-0.249	0.264
-583.850	452.250	-0.063	-0.140
-582.836	36.997	-0.195	-0.173
-581.821	-24.024	-0.040	0.024
-580.806	85.126	0.111	0.122
-579.792	-200.000	-0.010	-0.353
-578.777	-101.734	-0.137	0.033
-577.763	-200.000	-0.019	-0.142
-576.748	-200.000	-0.031	-0.167
-575.733	-167.680	0.223	-0.009
-574.719	-23.632	0.222	-0.134
-573.704	149.208	-0.155	0.211
-572.690	-130.581	-0.111	0.015
-571.675	225.839	-0.178	-0.290
-570.661	156.430	0.260	0.361
-569.646	653.729	0.099	0.254
-568.631	44.559	0.255	0.235
-567.617	-18.785	0.222	-0.139
-566.602	245.499	-0.071	0.121
-565.588	-150.220	-0.212	0.016
-564.573	40.539	-0.302	0.273
-563.558	800.000	0.078	0.233
-562.544	-40.924	-0.068	-0.035
-561.529	14.200	-0.058	0.046
-560.515	-13.878	-0.092	0.059
-559.500	-80.136	-0.382	-0.129
-558.485	-200.000	-0.026	0.212
-557.471	52.494	-0.085	-0.082
-556.456	-200.000	-0.027	0.247
-555.442	89.866	-0.140	0.157
-554.427	50.503	-0.046	0.044
-553.412	217.878	0.120	-0.193
-552.398	102.076	0.190	-0.223
-551.383	25.517	0.242	0.202
-550.369	112.604	-0.038	-0.046
-549.354	800.000	-0.101	-0.417
-548.339	250.047	-0.181	0.308
-547.325	800.000	-0.106	0.378
-546.310	-76.369	-0.208	-0.074
-545.296	-200.000	-0.013	-0.200
-544.281	-50.805	0.135	0.064
-543.266	-200.000	0.007	-0.046
-542.252	-43.302	-0.197	-0.100
-541.237	800.000	0.058	-0.225
-540.223	-40.346	0.220	-0.115
-539.208	-64.613	-0.228	0.093
-538.193	275.505	-0.126	0.224
-537.179	-114.808	-0.179	0.034
-536.164	800.000	-0.050	0.166
-535.150	51.742	-0.167	-0.160
-534.135	88.255	0.041	0.045
-533.121	-49.908	0.237	-0.113
-532.106	14.935	-0.391	0.306
-531.091	-200.000	0.018	0.114
-530.077	-147.629	-0.092	-0.008
-529.062	-200.000	-0.007	0.232
-528.048	455.465	0.137	0.304
-527.033	-121.616	-0.150	0.025
-526.018	-200.000	-0.003	-0.029
-525.004	0.507	-0.136	-0.097
-523.989	402.081	-0.142	0.300
-522.975	-72.514	-0.214	-0.079
-521.960	-200.000	-0.005	0.291
-520.945	800.000	-0.020	0.057
-519.931	-18.405	0.106	0.067
-518.916	-200.000	-0.003	0.187
-517.902	2.946	-0.426	0.310
-516.887	-176.320	-0.381	0.010
-515.872	800.000	0.043	0.132
-514.858	61.758	-0.177	0.177
-513.843	-102.259	0.157	-0.038
-512.829	-200.000	0.070	0.350
-511.814	-56.587	0.332	0.148
-510.799	111.875	-0.132	0.159
-509.785	57.343	0.195	-0.190
-508.770	31.219	-0.043	0.037
-507.756	-200.000	0.017	0.315
-506.741	-13.353	0.262	-0.170
-505.726	-31.336	-0.062	-0.035
-504.712	-200.000	-0.001	-0.186
-503.697	-101.744	0.209	0.051
-502.683	-58.308	-0.207	-0.090
-501.668	-170.686	0.131	0.005
-500.653	249.739	0.071	-0.120
-499.639	-57.579	-0.105	-0.046
-498.624	800.000	0.017	0.047
-497.610	800.000	0.069	0.267
-496.595	672.333	-0.131	-0.341
-495.581	-53.932	-0.156	-0.071
-494.566	800.000	-0.147	-0.423
-493.551	-200.000	-0.034	-0.250
-492.537	-200.000	0.008	-0.148
-491.522	-2.368	-0.183	-0.128
-490.508	591.008	0.056	0.137
-489.493	800.000	-0.044	0.183
-488.478	163.193	-0.106	0.149
-487.464	-77.198	-0.092	0.032
-486.449	-134.125	-0.078	-0.010
-485.435	-39.384	-0.085	-0.045
-484.420	-200.000	-0.102	0.470
-483.405	-200.000	0.009	-0.204
-482.391	-200.000	-0.001	-0.138
-481.376	-161.395	0.205	0.011
-480.362	-74.980	-0.218	0.078
-479.347	152.308	-0.280	0.383
-478.332	23.143	-0.121	0.099
-477.318	204.825	-0.083	-0.129
-476.303	-67.722	-0.109	0.043
-475.289	134.950	-0.207	-0.269
-474.274	-137.459	-0.084	0.010
-473.259	213.046	0.080	0.126
-472.245	679.301	0.024	-0.061
-471.230	800.000	0.011	-0.046
-470.216	-68.307	0.116	0.045
-469.201	145.112	-0.093	-0.124
-468.186	-159.703	0.132	0.007
-467.172	-200.000	0.065	-0.463
-466.157	2.820	-0.094	-0.068
-465.143	-122.637	-0.090	-0.015
-464.128	3.007	-0.202	-0.147
-463.113	-85.818	0.183	0.057
-462.099	77.190	0.035	-0.037
-461.084	-200.000	0.098	0.537
-460.070	-23.306	0.062	-0.037
-459.055	-32.052	0.047	-0.026
-458.040	-29.903	-0.267	-0.152
-457.026	195.007	0.125	0.190
-456.011	13.444	-0.180	0.139
-454.997	-200.000	0.035	-0.319
-453.982	800.000	-0.053	0.173
-452.968	-200.000	-0.049	-0.352
-451.953	544.427	0.070	-0.167
-450.938	-57.809	-0.111	-0.049
-449.924	-200.000	0.062	0.274
-448.909	-174.382	0.317	-0.009
-447.895	-86.949	-0.385	-0.117
-446.880	-200.000	0.004	0.180
-445.865	-33.177	0.367	0.203
-444.851	800.000	0.069	0.288
-443.836	-200.000	-0.219	-0.001
-442.822	-42.534	0.258	-0.132
-441.807	-16.669	0.176	-0.112
-440.792	800.000	0.065	-0.224
-439.778	-90.578	0.457	-0.132
-438.763	116.694	-0.113	-0.139
-437.749	212.711	-0.087	0.137
-436.734	239.946	0.055	-0.092
-435.719	-200.000	0.012	-0.271
-434.705	50.278	0.176	-0.166
-433.690	-65.165	0.185	-0.074
-432.676	369.346	-0.178	-0.360
-431.661	-149.403	0.340	-0.027
-430.646	46.251	0.040	-0.037
-429.632	-200.000	-0.005	0.252
-428.617	81.936	-0.116	-0.126
-427.603	800.000	0.052	0.150
-426.588	-61.663	-0.251	0.105
-425.573	135.237	0.149	0.193
-424.559	-125.188	0.256	0.039
-423.544	-104.576	-0.377	0.087
-422.530	23.669	0.189	0.155
-421.515	-24.860	-0.372	-0.221
-420.500	-120.051	0.365	-0.063
-419.486	-103.266	-0.156	0.037
-418.471	544.645	-0.040	0.096
-417.457	221.663	0.147	0.236
-416.442	-200.000	0.000	0.290
-415.428	-166.153	-0.063	-0.003
-414.413	-48.912	0.264	0.126
-413.398	-200.000	-0.012	0.208
-412.384	257.782	0.048	0.082
-411.369	0.035	-0.263	-0.187
-410.355	42.544	0.290	0.263
-409.340	-200.000	0.123	0.648
-408.325	104.661	0.227	-0.267
-407.311	800.000	0.036	0.106
-406.296	15.491	0.087	-0.068
-405.282	800.000	0.098	0.346
-404.267	800.000	-0.099	0.381
-403.252	-62.705	0.093	-0.038
-402.238	-200.000	0.009	-0.145
-401.223	303.579	-0.143	-0.265
-400.209	-37.614	-0.263	0.140
-399.194	-38.674	-0.082	0.043
-398.179	-15.985	0.349	-0.221
-397.165	38.837	-0.152	-0.135
-396.150	-22.422	-0.148	-0.089
-395.136	800.000	-0.033	0.133
-394.121	25.798	0.155	-0.129
-393.106	-200.000	-0.010	-0.161
-392.092	344.212	0.136	-0.265
-391.077	11.169	0.191	0.146
-390.063	78.632	0.106	0.113
-389.048	-80.850	0.167	-0.055
-388.033	-167.953	-0.310	0.012
-387.019	-188.665	-0.243	0.003
-386.004	-86.384	-0.219	-0.067
-384.990	-200.000	-0.055	0.342
-383.975	202.742	-0.086	0.132
-382.960	44.700	-0.281	0.257
-381.946	800.000	-0.050	0.177
-380.931	576.722	0.101	0.246
-379.917	-200.000	-0.001	-0.088
-378.902	-62.665	-0.042	0.017
-377.888	243.952	-0.079	0.132
-376.873	-79.621	-0.186	-0.062
-375.858	350.860	-0.059	-0.116
-374.844	197.004	-0.194	-0.294
-373.829	9.191	0.348	0.262
-372.815	-136.196	0.121	-0.014
-371.800	252.157	-0.155	-0.263
-370.785	-75.321	0.269	-0.096
-369.771	175.908	0.182	-0.264
-368.756	-153.142	0.161	-0.011
-367.742	-113.474	-0.213	-0.042
-366.727	-66.550	0.348	0.138
-365.712	800.000	-0.032	-0.136
-364.698	-154.284	-0.172	-0.012
-363.683	-146.952	0.251	0.021
-362.669	-69.924	-0.190	0.072
-361.654	800.000	0.059	0.209
-360.639	-200.000	0.012	0.163
-359.625	-33.621	-0.319	-0.175
-358.610	-9.354	-0.284	-0.189
-357.596	-200.000	0.002	0.164
-356.581	-200.000	-0.014	0.391
-355.566	1.487	0.184	-0.132
-354.552	517.498	-0.037	-0.087
-353.537	-96.339	0.171	0.045
-352.523	800.000	-0.123	0.376
-351.508	-107.843	0.235	-0.051
-350.493	-200.000	-0.024	-0.140
-349.479	-11.990	0.339	-0.221
-348.464	91.196	0.329	0.368
-347.450	422.457	0.020	-0.043
-346.435	2.904	-0.054	-0.039
-345.420	-200.000	-0.015	-0.182
-344.406	405.012	-0.095	-0.200
-343.391	38.985	-0.272	-0.242
-342.377	23.311	-0.091	-0.075
-341.362	800.000	0.032	0.127
-340.348	3.080	-0.318	0.230
-339.333	-200.000	-0.029	0.235
-338.318	-85.252	0.150	-0.047
-337.304	-200.000	0.012	-0.153
-336.289	-200.000	-0.028	-0.125
-335.275	800.000	0.157	-0.437
-334.260	-200.000	-0.031	-0.251
-333.245	418.399	0.118	0.250
-332.231	-200.000	-0.056	0.532
-331.216	288.376	0.073	-0.131
-330.202	-134.961	0.262	-0.031
-329.187	800.000	-0.029	0.099
-328.172	-1.051	0.339	-0.239
-327.158	227.156	0.025	0.040
-326.143	92.080	0.239	0.268
-325.129	-24.456	0.158	-0.094
-324.114	-144.486	0.130	-0.012
-323.099	367.381	0.084	-0.168
-322.085	-143.522	0.316	-0.030
-321.070	-26.241	-0.098	-0.057
-320.056	-13.316	-0.151	-0.097
-319.041	273.356	-0.063	0.110
-318.026	312.845	-0.028	0.052
-317.012	8.173	-0.236	0.176
-315.997	38.885	0.134	-0.119
-314.983	-30.653	0.090	-0.051
-313.968	-56.829	0.262	-0.115
-312.953	-114.671	0.072	0.014
-311.939	-200.000	-0.012	-0.178
-310.924	800.000	0.039	0.124
-309.910	115.153	0.126	-0.153
-308.895	-163.804	0.199	-0.009
-307.880	6.386	0.292	-0.216
-306.866	230.108	0.060	-0.097
-305.851	681.305	0.089	-0.231
-304.837	-44.845	-0.153	-0.076
-303.822	-16.549	-0.190	0.119
-302.807	-200.000	-0.035	0.265
-301.793	-101.352	-0.070	-0.017
-300.778	-4.513	0.129	-0.088
-299.764	-99.447	0.154	-0.038
-298.749	-81.033	-0.200	-0.066
-297.735	-200.000	-0.115	-0.655
-296.720	-109.627	-0.229	-0.048
-295.705	-75.232	0.138	-0.049
-294.691	39.066	0.232	0.206
-293.676	30.465	0.251	-0.213
-292.662	-143.460	0.195	-0.018
-291.647	-114.074	-0.201	0.039
-290.632	67.385	0.243	-0.246
-289.618	-16.471	-0.250	-0.157
-288.603	-52.000	-0.191	-0.088
-287.589	204.859	-0.116	-0.179
-286.574	7.194	0.089	0.066
-285.559	800.000	0.077	-0.233
-284.545	800.000	-0.078	-0.213
-283.530	-43.363	0.163	0.082
-282.516	20.715	0.200	0.161
-281.501	-43.572	-0.184	0.092
-280.486	-48.189	-0.134	-0.064
-279.472	-200.000	0.013	0.194
-278.457	-131.865	0.331	0.043
-277.443	74.644	-0.165	0.172
-276.428	-200.000	-0.021	-0.214
-275.413	-71.489	-0.219	0.081
-274.399	-200.000	0.004	0.053
-273.384	-112.155	0.266	0.053
-272.370	29.370	-0.212	0.179
-271.355	121.440	-0.175	0.217
-270.340	251.273	0.130	-0.219
-269.326	800.000	-0.049	0.137
-268.311	164.673	-0.260	-0.364
-267.297	241.745	0.092	-0.153
-266.282	800.000	-0.069	0.215
-265.267	-200.000	-0.016	-0.208
-264.253	-147.227	-0.203	0.017
-263.238	-170.800	0.078	-0.003
-262.224	69.759	0.132	0.135
-261.209	76.728	0.213	0.224
-260.195	484.198	0.038	0.087
-259.180	-0.790	0.445	0.313
-258.165	800.000	0.095	0.266
-257.151	800.000	-0.037	-0.113
-256.136	487.008	0.098	0.222
-255.122	800.000	0.065	-0.201
-254.107	267.573	0.067	-0.115
-253.092	-200.000	-0.030	0.429
-252.078	-26.776	-0.148	-0.086
-251.063	77.472	0.032	-0.034
-250.049	-125.552	-0.292	-0.044
-249.034	-168.986	-0.216	-0.008
-248.019	-85.719	-0.229	0.071
-247.005	-132.725	0.265	0.034
-245.990	-45.184	0.258	-0.127
-244.976	-117.181	-0.143	-0.026
-243.961	66.378	0.289	0.291
-242.946	-200.000	-0.002	0.320
-241.932	111.338	-0.065	-0.078
-240.917	-200.000	0.048	0.417
-239.903	-84.068	-0.248	-0.078
-238.888	-200.000	-0.044	-0.383
-237.873	15.252	0.124	0.096
-236.859	403.726	0.080	0.166
-235.844	47.633	0.137	0.127
-234.830	800.000	0.096	-0.290
-233.815	59.679	-0.086	-0.084
-232.800	411.834	-0.047	0.100
-231.786	121.207	0.213	-0.263
-230.771	-200.000	-0.027	0.307
-229.757	-200.000	-0.021	0.121
-228.742	-115.109	-0.404	0.076
-227.727	-0.345	0.238	0.167
-226.713	261.283	-0.076	0.130
-225.698	745.718	0.041	-0.109
-224.684	-200.000	-0.023	0.229
-223.669	-120.388	0.008	0.001
-222.655	-200.000	-0.058	0.569
-221.640	161.077	-0.110	-0.152
-220.625	208.488	0.079	-0.122
-219.611	-155.737	0.095	-0.006
-218.596	158.581	-0.090	-0.124
-217.582	-24.779	0.114	-0.067
-216.567	-68.081	-0.109	-0.042
-215.552	-140.354	-0.326	0.034
-214.538	78.361	0.320	-0.338
-213.523	-200.000	0.016	-0.160
-212.509	-77.776	-0.226	0.077
-211.494	-27.644	-0.175	-0.101
-210.479	549.174	0.153	-0.362
-209.465	-200.000	-0.026	-0.314
-208.450	778.753	-0.047	0.127
-207.436	189.743	0.163	-0.243
-206.421	-152.880	0.114	-0.008
-205.406	-114.361	0.103	0.020
-204.392	-84.228	0.247	-0.078
-203.377	689.029	0.089	-0.231
-202.363	-124.481	-0.219	-0.034
-201.348	153.742	-0.092	-0.125
-200.333	800.000	0.093	-0.265
-199.319	558.680	-0.051	0.122
-198.304	-92.119	0.213	-0.060
-197.290	147.953	-0.074	-0.098
-196.275	-31.620	0.072	0.040
-195.260	-200.000	-0.002	-0.084
-194.246	-39.511	0.175	0.091
-193.231	201.927	0.189	-0.288
-192.217	0.915	0.263	-0.186
-191.202	14.556	0.037	0.029
-190.187	-31.422	0.390	0.217
-189.173	800.000	0.124	0.415
-188.158	57.946	-0.130	0.126
-187.144	-26.806	0.147	0.085
-186.129	-105.266	0.174	-0.039
-185.114	317.860	-0.118	-0.221
-184.100	-200.000	0.009	-0.133
-183.085	-153.293	0.139	-0.010
-182.071	393.399	-0.136	0.279
-181.056	-123.104	-0.166	-0.026
-180.042	-131.166	0.519	-0.068
-179.027	-200.000	0.072	0.434
-178.012	154.733	-0.017	-0.023
-176.998	-30.428	-0.059	-0.033
-175.983	-119.175	-0.053	0.009
-174.969	-200.000	-0.001	0.137
-173.954	-37.721	0.106	-0.056
-172.939	-90.821	0.263	0.075
-171.925	-51.401	0.255	-0.118
-170.910	81.076	0.080	0.085
-169.896	-200.000	-0.026	-0.343
-168.881	-89.087	-0.321	0.094
-167.866	-200.000	0.040	-0.345
-166.852	43.918	-0.133	-0.121
-165.837	-9.222	0.077	-0.051
-164.823	-200.000	-0.047	-0.332
-163.808	-69.913	0.270	0.102
-162.793	800.000	0.011	0.030
-161.779	93.495	-0.158	0.177
-160.764	800.000	0.074	0.217
-159.750	70.864	-0.345	-0.353
-158.735	-147.578	-0.013	0.001
-157.720	273.176	0.183	-0.320
-156.706	-152.274	-0.180	0.013
-155.691	-177.844	-0.193	-0.005
-154.677	-59.943	-0.096	0.040
-153.662	45.976	0.356	-0.325
-152.647	129.877	-0.071	0.090
-151.633	425.494	-0.088	0.187
-150.618	7.638	0.228	0.168
-149.604	-32.912	0.179	0.098
-148.589	-85.425	-0.145	0.045
-147.574	243.029	0.063	-0.105
-146.560	221.950	-0.106	0.168
-145.545	-131.998	-0.177	-0.023
-144.531	-96.334	0.079	-0.021
-143.516	57.859	-0.113	0.110
-142.502	31.755	-0.195	-0.165
-141.487	9.079	0.046	0.034
-140.472	-200.000	0.022	0.256
-139.458	-200.000	0.022	0.168
-138.443	-200.000	0.032	0.174
-137.429	4.273	0.216	-0.156
-136.414	683.809	0.064	0.164
-135.399	-200.000	-0.003	0.034
-134.385	-200.000	0.029	-0.134
-133.370	-151.289	0.145	-0.011
-132.356	589.033	-0.022	0.054
-131.341	-162.322	-0.200	0.010
-130.326	430.697	0.125	0.268
-129.312	-200.000	0.017	0.312
-128.297	97.546	-0.072	0.082
-127.283	17.152	-0.213	0.166
-126.268	-14.629	0.229	0.145
-125.253	-158.307	0.485	-0.028
-124.239	6.629	-0.101	-0.074
-123.224	-200.000	0.019	0.200
-122.210	-129.153	0.047	-0.006
