DTS Sentinel unit serial number:	SN413079Multiplexer serial number:	ORYXHardware model number:	OX4-SRSoftware version number:	ORYX F/W v4.00 Oryx Data Collector v3.7.2.0data status	okinstallation	princeton_trtdifferential loss correction	single-endedforward channel	channel 3reverse channel	N/Adate	2019/09/13time	20:00:35forward acquisition time	60.00reverse acquisition time	0.00gamma	496.2192k internal	0.2329k external	0.2329temperature offset calibration	1.0068default loss term (dB/km)	0.3790temperature slope calibration	1.0000multiplexer offset coefficient	1.0000multiplexer slope coefficient	1.0000fibre end	0.00T internal ref (°C)	29.80T ext. ref 1 (°C)	3.36T ext. ref 2 (°C)	24.09length (m)	temperature (°C)	Stokes	anti-Stokes-747.200	109.288	0.236	-0.284
-746.185	-125.992	0.148	0.022
-745.171	106.071	-0.474	-0.566
-744.156	800.000	0.044	0.155
-743.142	-143.642	0.099	0.009
-742.127	-200.000	0.014	0.154
-741.112	-30.616	0.066	-0.038
-740.098	800.000	-0.033	-0.098
-739.083	453.445	-0.058	-0.130
-738.069	-125.371	-0.147	0.023
-737.054	227.020	-0.107	0.175
-736.039	-99.915	-0.276	-0.069
-735.025	800.000	0.056	-0.228
-734.010	94.593	0.141	-0.162
-732.996	-82.008	0.333	-0.110
-731.981	800.000	-0.047	0.203
-730.966	130.273	-0.069	0.089
-729.952	-200.000	-0.118	-0.524
-728.937	-49.946	-0.388	-0.185
-727.923	-14.760	-0.115	-0.074
-726.908	-200.000	0.017	0.077
-725.894	-33.906	0.200	0.111
-724.879	-91.543	-0.320	0.092
-723.864	-5.471	-0.230	-0.159
-722.850	48.635	-0.286	-0.270
-721.835	-200.000	-0.038	0.416
-720.821	74.281	-0.106	-0.112
-719.806	296.147	0.112	-0.207
-718.791	122.656	0.110	-0.138
-717.777	489.671	-0.040	0.091
-716.762	-144.045	0.296	-0.028
-715.748	-85.896	-0.063	0.020
-714.733	800.000	-0.024	-0.079
-713.718	459.404	0.162	-0.363
-712.704	-200.000	0.011	-0.059
-711.689	-26.721	0.306	0.180
-710.675	-119.845	-0.301	-0.052
-709.660	229.714	-0.051	0.084
-708.645	322.724	-0.087	0.167
-707.631	-200.000	0.029	0.155
-706.616	-200.000	-0.004	-0.246
-705.602	8.088	0.141	-0.106
-704.587	-200.000	0.025	0.138
-703.572	38.139	-0.218	-0.195
-702.558	-50.289	-0.183	-0.087
-701.543	-156.547	-0.190	-0.012
-700.529	-38.163	-0.199	-0.106
-699.514	43.389	-0.197	-0.181
-698.499	285.631	0.056	-0.102
-697.485	212.846	0.120	0.191
-696.470	-114.699	-0.246	-0.047
-695.456	50.745	-0.271	-0.258
-694.441	21.124	-0.031	0.025
-693.426	98.645	0.184	-0.213
-692.412	-3.374	-0.177	0.124
-691.397	-77.160	-0.239	-0.084
-690.383	-112.270	0.280	-0.056
-689.368	117.794	-0.030	-0.038
-688.354	156.898	0.143	0.199
-687.339	551.978	-0.048	-0.115
-686.324	383.679	0.035	-0.072
-685.310	-200.000	0.007	0.166
-684.295	-106.831	0.092	0.020
-683.281	177.025	0.181	-0.264
-682.266	800.000	0.063	0.196
-681.251	800.000	-0.031	0.118
-680.237	-109.362	-0.006	-0.001
-679.222	-47.316	0.205	-0.100
-678.208	108.746	0.130	0.156
-677.193	152.564	0.176	-0.242
-676.178	-200.000	0.018	0.229
-675.164	-110.076	-0.274	0.058
-674.149	-200.000	-0.020	-0.091
-673.135	-24.655	0.170	-0.102
-672.120	-92.715	0.335	-0.094
-671.105	101.289	0.116	0.135
-670.091	-200.000	0.005	-0.034
-669.076	0.132	0.239	0.171
-668.062	800.000	-0.053	0.219
-667.047	79.434	-0.192	-0.207
-666.032	407.397	-0.166	-0.353
-665.018	-137.190	-0.310	-0.035
-664.003	729.479	-0.097	-0.261
-662.989	800.000	-0.037	0.123
-661.974	-131.973	-0.143	0.019
-660.959	-27.669	0.203	-0.119
-659.945	-30.017	0.020	0.011
-658.930	267.686	0.045	-0.078
-657.916	14.334	-0.439	-0.344
-656.901	73.091	0.082	0.086
-655.886	350.670	-0.031	0.061
-654.872	76.469	-0.038	0.041
-653.857	-147.845	0.258	0.022
-652.843	-146.282	-0.077	0.007
-651.828	362.829	-0.107	0.215
-650.814	-135.467	-0.311	-0.037
-649.799	-200.000	0.143	0.633
-648.784	-153.196	-0.179	0.013
-647.770	160.171	-0.135	-0.188
-646.755	-127.852	-0.324	0.047
-645.741	57.793	-0.154	0.152
-644.726	-113.236	-0.155	0.031
-643.711	-16.217	0.124	0.079
-642.697	-200.000	-0.041	0.216
-641.682	-172.515	-0.498	0.016
-640.668	387.598	-0.149	-0.309
-639.653	-126.547	-0.131	-0.020
-638.638	-98.958	-0.174	-0.044
-637.624	456.070	-0.058	-0.129
-636.609	88.860	0.168	0.187
-635.595	39.434	-0.133	-0.120
-634.580	800.000	0.039	0.143
-633.565	-200.000	0.004	-0.211
-632.551	122.450	0.371	-0.466
-631.536	-99.067	0.200	-0.051
-630.522	372.050	0.074	-0.151
-629.507	-36.114	-0.356	-0.193
-628.492	-149.451	0.261	-0.021
-627.478	800.000	0.025	-0.078
-626.463	270.087	-0.145	0.256
-625.449	-107.043	0.113	-0.025
-624.434	293.582	-0.129	0.236
-623.419	436.299	0.093	0.203
-622.405	-160.189	0.238	-0.013
-621.390	-200.000	-0.012	0.446
-620.376	203.306	0.081	-0.126
-619.361	381.591	0.125	-0.258
-618.346	63.632	0.181	-0.182
-617.332	84.242	-0.153	-0.168
-616.317	140.567	-0.069	-0.092
-615.303	-8.887	-0.243	-0.163
-614.288	126.446	0.047	0.060
-613.273	329.206	-0.022	0.043
-612.259	-62.088	0.269	0.113
-611.244	-51.078	-0.454	-0.213
-610.230	-200.000	-0.004	0.251
-609.215	-61.259	0.027	-0.011
-608.201	-200.000	-0.056	0.258
-607.186	-73.738	0.188	0.068
-606.171	620.405	-0.143	0.361
-605.157	-135.353	-0.123	0.015
-604.142	510.416	0.134	-0.313
-603.128	-56.414	-0.285	0.127
-602.113	-200.000	0.010	-0.211
-601.098	344.232	-0.009	-0.018
-600.084	-79.798	0.212	-0.072
-599.069	-72.288	0.105	-0.039
-598.055	-94.578	-0.144	-0.039
-597.040	-200.000	-0.011	0.187
-596.025	-200.000	-0.011	-0.166
-595.011	16.214	-0.192	-0.152
-593.996	-78.773	0.126	-0.043
-592.982	353.944	0.088	0.174
-591.967	-159.895	0.060	-0.003
-590.952	800.000	0.112	0.361
-589.938	-61.475	0.177	-0.074
-588.923	-5.478	0.274	-0.188
-587.909	145.794	0.271	-0.364
-586.894	13.748	0.090	0.070
-585.879	111.950	0.103	-0.125
-584.865	-200.000	-0.002	-0.036
-583.850	-24.649	0.261	0.156
-582.836	-123.465	-0.053	0.008
-581.821	-35.290	-0.089	0.048
-580.806	-94.673	-0.063	0.017
-579.792	170.547	0.142	-0.204
-578.777	-145.218	-0.320	0.029
-577.763	-13.897	-0.176	0.114
-576.748	153.410	0.183	0.250
-575.733	-200.000	-0.035	-0.392
-574.719	-149.156	0.212	0.017
-573.704	236.389	-0.111	-0.184
-572.690	-75.686	0.299	-0.106
-571.675	59.452	-0.097	-0.096
-570.661	800.000	-0.039	-0.160
-569.646	-35.151	-0.238	0.130
-568.631	-200.000	-0.013	-0.202
-567.617	-200.000	-0.032	0.163
-566.602	-23.743	-0.247	0.148
-565.588	57.076	0.154	0.151
-564.573	155.349	-0.055	0.076
-563.558	-200.000	0.018	0.139
-562.544	-200.000	0.019	-0.110
-561.529	-33.694	-0.071	0.039
-560.515	171.883	-0.108	0.156
-559.500	800.000	0.069	-0.205
-558.485	-200.000	0.026	-0.166
-557.471	-11.706	-0.227	0.149
-556.456	99.628	-0.139	-0.161
-555.442	-33.219	0.186	-0.103
-554.427	-128.481	0.159	0.023
-553.412	-151.214	0.088	-0.007
-552.398	-200.000	0.039	0.181
-551.383	371.182	-0.193	0.391
-550.369	2.238	-0.111	0.080
-549.354	800.000	0.072	-0.301
-548.339	-21.413	-0.130	-0.079
-547.325	-200.000	-0.025	-0.192
-546.310	43.185	0.209	0.191
-545.296	-63.828	-0.037	0.015
-544.281	-68.951	0.191	0.074
-543.266	-119.130	0.182	-0.032
-542.252	77.860	-0.129	-0.138
-541.237	-39.445	-0.106	-0.056
-540.223	800.000	-0.036	-0.105
-539.208	569.758	0.107	0.260
-538.193	40.380	-0.132	-0.118
-537.179	188.227	-0.151	-0.226
-536.164	26.194	-0.163	-0.136
-535.150	-21.219	-0.164	-0.100
-534.135	100.179	-0.036	-0.042
-533.121	800.000	0.029	-0.098
-532.106	-146.903	-0.122	0.010
-531.091	126.641	-0.044	-0.056
-530.077	-7.957	0.178	0.120
-529.062	-185.565	-0.341	0.005
-528.048	20.752	-0.143	-0.116
-527.033	800.000	-0.051	-0.200
-526.018	-119.702	-0.092	0.016
-525.004	-156.960	-0.031	0.002
-523.989	-200.000	-0.008	0.235
-522.975	315.473	0.073	0.137
-521.960	800.000	-0.087	-0.248
-520.945	49.285	-0.234	0.220
-519.931	-200.000	0.047	0.339
-518.916	95.098	-0.185	-0.211
-517.902	41.164	-0.226	0.204
-516.887	189.915	-0.233	0.350
-515.872	800.000	-0.049	-0.189
-514.858	-200.000	-0.012	-0.268
-513.843	800.000	0.007	-0.020
-512.829	31.342	-0.077	-0.066
-511.814	104.814	0.150	0.176
-510.799	-26.540	0.173	0.101
-509.785	74.143	0.147	-0.154
-508.770	-2.872	0.259	0.181
-507.756	-200.000	-0.028	0.137
-506.741	-145.117	0.221	0.020
-505.726	293.423	0.020	0.036
-504.712	134.055	0.116	0.150
-503.697	800.000	-0.095	-0.354
-502.683	-58.685	0.231	-0.100
-501.668	129.725	0.102	0.130
-500.653	-200.000	0.036	-0.623
-499.639	-200.000	-0.004	0.224
-498.624	148.433	0.163	0.219
-497.610	-200.000	-0.004	-0.061
-496.595	-200.000	-0.056	-0.256
-495.581	18.256	-0.068	-0.054
-494.566	203.802	-0.091	-0.141
-493.551	48.148	0.101	-0.094
-492.537	-200.000	-0.052	-0.326
-491.522	-24.105	0.162	0.097
-490.508	-200.000	0.002	-0.027
-489.493	800.000	-0.126	-0.531
-488.478	90.623	0.293	-0.327
-487.464	-200.000	0.006	-0.092
-486.449	74.753	0.094	0.098
-485.435	-200.000	-0.009	0.305
-484.420	-115.438	0.173	0.032
-483.405	107.857	0.146	-0.173
-482.391	-9.553	-0.339	0.226
-481.376	-49.789	0.096	-0.046
-480.362	-180.553	-0.554	0.011
-479.347	800.000	-0.030	0.104
-478.332	800.000	-0.050	0.211
-477.318	-31.963	0.253	-0.141
-476.303	-200.000	0.006	-0.057
-475.289	-200.000	-0.005	0.320
-474.274	-66.134	0.046	-0.018
-473.259	334.577	0.198	-0.383
-472.245	800.000	0.026	0.080
-471.230	-76.560	0.130	0.045
-470.216	-11.051	-0.248	0.163
-469.201	275.599	0.089	-0.157
-468.186	134.193	-0.162	0.209
-467.172	53.956	-0.232	0.222
-466.157	535.836	0.090	0.212
-465.143	-138.596	-0.264	0.029
-464.128	-54.854	0.037	-0.017
-463.113	-12.672	0.144	0.093
-462.099	322.769	-0.119	-0.225
-461.084	-109.787	-0.341	0.071
-460.070	116.828	-0.030	0.036
-459.055	8.565	0.206	0.154
-458.040	-98.062	-0.148	0.038
-457.026	-173.865	-0.103	-0.003
-456.011	-49.189	-0.447	0.213
-454.997	31.796	0.099	0.085
-453.982	407.589	0.050	0.106
-452.968	-200.000	0.004	0.111
-451.953	262.204	-0.108	-0.187
-450.938	18.041	0.087	-0.069
-449.924	601.593	0.166	-0.410
-448.909	92.576	-0.115	0.129
-447.895	-144.646	-0.455	-0.042
-446.880	53.005	0.115	0.109
-445.865	-118.067	-0.260	-0.046
-444.851	-200.000	-0.006	-0.155
-443.836	41.117	0.210	-0.189
-442.822	5.244	-0.280	0.206
-441.807	-63.139	-0.221	0.091
-440.792	356.912	-0.131	0.259
-439.778	-200.000	-0.057	-0.372
-438.763	-115.357	0.297	-0.056
-437.749	-27.460	-0.153	-0.088
-436.734	-120.816	0.187	-0.031
-435.719	-52.353	-0.143	0.066
-434.705	12.367	0.023	0.018
-433.690	-200.000	-0.006	0.070
-432.676	64.157	0.041	0.041
-431.661	-174.201	0.201	-0.006
-430.646	-46.339	0.236	-0.115
-429.632	-169.088	0.073	-0.003
-428.617	-200.000	-0.021	-0.105
-427.603	-91.503	-0.295	0.084
-426.588	-200.000	-0.011	0.067
-425.573	84.513	-0.265	-0.288
-424.559	200.020	-0.100	0.153
-423.544	-51.512	0.055	-0.025
-422.530	218.190	0.009	0.014
-421.515	506.958	0.065	0.149
-420.500	103.648	0.147	-0.172
-419.486	800.000	-0.039	0.132
-418.471	15.683	-0.106	-0.083
-417.457	-200.000	0.026	0.467
-416.442	-169.095	0.174	-0.006
-415.428	418.741	0.199	-0.424
-414.413	-200.000	0.041	-0.214
-413.398	442.824	-0.098	-0.213
-412.384	571.278	-0.172	-0.417
-411.369	-11.338	0.158	0.104
-410.355	-64.382	0.095	-0.038
-409.340	-141.601	0.187	-0.019
-408.325	-35.890	-0.165	0.089
-407.311	-91.145	0.091	-0.026
-406.296	800.000	-0.040	0.111
-405.282	508.266	0.181	0.418
-404.267	126.211	0.097	0.121
-403.252	-200.000	-0.011	-0.073
-402.238	87.100	0.097	-0.107
-401.223	-96.934	0.205	0.054
-400.209	7.708	0.394	-0.293
-399.194	-200.000	0.050	0.222
-398.179	-69.634	0.107	0.041
-397.165	-200.000	0.058	-0.591
-396.150	-200.000	0.001	0.042
-395.136	97.102	-0.147	0.168
-394.121	-200.000	0.056	-0.291
-393.106	-131.168	0.115	-0.015
-392.092	72.815	0.113	0.117
-391.077	-53.262	0.164	0.075
-390.063	-160.954	-0.112	0.006
-389.048	800.000	-0.093	0.376
-388.033	93.459	0.114	-0.128
-387.019	401.592	-0.156	-0.326
-386.004	-148.069	-0.286	0.024
-384.990	302.924	-0.103	-0.189
-383.975	132.442	-0.187	0.239
-382.960	480.356	0.061	-0.136
-381.946	38.491	0.452	-0.400
-380.931	47.549	-0.344	0.318
-379.917	800.000	0.082	0.250
-378.902	-137.963	-0.247	0.027
-377.888	-162.149	0.389	0.019
-376.873	-77.064	0.187	-0.065
-375.858	-200.000	0.008	-0.079
-374.844	-41.143	0.360	0.184
-373.829	-132.062	0.036	0.005
-372.815	520.877	-0.042	0.099
-371.800	751.757	-0.040	-0.108
-370.785	-66.730	0.246	0.097
-369.771	400.725	0.085	0.177
-368.756	-134.680	0.167	-0.020
-367.742	-114.389	-0.129	-0.025
-366.727	-103.416	-0.340	-0.080
-365.712	36.715	-0.216	-0.189
-364.698	389.597	0.034	-0.070
-363.683	-68.375	-0.078	-0.030
-362.669	-87.542	0.097	-0.029
-361.654	473.176	-0.083	0.185
-360.639	22.771	-0.140	-0.114
-359.625	687.931	0.058	0.150
-358.610	-200.000	0.021	-0.136
-357.596	-22.781	0.122	-0.073
-356.581	46.873	0.092	-0.085
-355.566	227.527	0.174	-0.281
-354.552	-60.383	0.173	0.073
-353.537	800.000	-0.135	-0.422
-352.523	800.000	0.060	-0.211
-351.508	-86.625	-0.306	0.093
-350.493	-128.284	-0.026	0.004
-349.479	-200.000	0.043	-0.222
-348.464	-181.320	0.290	-0.006
-347.450	-163.589	0.232	-0.011
-346.435	-200.000	-0.013	0.360
-345.420	-54.987	0.059	-0.026
-344.406	121.704	0.207	-0.256
-343.391	-200.000	-0.012	0.394
-342.377	800.000	-0.076	-0.231
-341.362	-200.000	-0.002	-0.200
-340.348	-27.854	0.261	0.150
-339.333	-200.000	0.038	0.497
-338.318	-62.261	-0.510	0.210
-337.304	800.000	-0.063	-0.265
-336.289	81.515	-0.085	0.091
-335.275	-200.000	-0.017	0.218
-334.260	89.277	-0.191	-0.211
-333.245	-176.516	0.427	0.011
-332.231	-74.233	0.045	0.016
-331.216	-8.884	-0.135	0.090
-330.202	724.150	-0.044	0.117
-329.187	99.597	0.195	0.224
-328.172	124.437	-0.099	0.123
-327.158	-200.000	0.004	0.193
-326.143	18.416	-0.073	-0.058
-325.129	48.102	-0.029	-0.027
-324.114	237.529	-0.095	0.156
-323.099	308.084	-0.118	-0.217
-322.085	-200.000	-0.003	0.074
-321.070	9.312	-0.207	-0.155
-320.056	319.293	0.182	0.342
-319.041	-119.506	-0.197	0.034
-318.026	37.568	0.141	0.124
-317.012	-12.675	0.021	-0.014
-315.997	-80.001	-0.155	-0.051
-314.983	99.748	-0.215	-0.246
-313.968	543.562	0.053	0.125
-312.953	-200.000	-0.073	0.429
-311.939	214.454	0.161	-0.253
-310.924	470.103	-0.083	0.186
-309.910	-47.821	0.150	0.072
-308.895	-139.234	0.202	0.022
-307.880	-22.508	-0.173	0.104
-306.866	-130.813	0.063	-0.008
-305.851	-200.000	0.051	-0.355
-304.837	-14.932	0.318	0.202
-303.822	103.258	-0.071	0.082
-302.807	-200.000	0.013	-0.423
-301.793	273.467	0.043	-0.075
-300.778	67.890	0.125	0.127
-299.764	165.682	0.040	-0.055
-298.749	49.569	-0.116	0.108
-297.735	471.699	0.068	-0.153
-296.720	-96.681	0.262	-0.068
-295.705	-200.000	-0.033	-0.284
-294.691	84.054	0.142	0.153
-293.676	800.000	-0.066	0.257
-292.662	-200.000	0.019	-0.181
-291.647	-25.850	0.196	0.114
-290.632	52.105	0.191	-0.180
-289.618	-25.499	-0.121	0.071
-288.603	78.458	-0.176	-0.186
-287.589	-177.452	-0.372	0.009
-286.574	-86.164	-0.027	-0.008
-285.559	-11.980	0.126	0.082
-284.545	-200.000	-0.048	0.383
-283.530	42.482	-0.168	-0.151
-282.516	800.000	-0.055	-0.158
-281.501	528.989	0.131	0.305
-280.486	-129.542	0.315	0.043
-279.472	-79.590	0.222	-0.074
-278.457	800.000	-0.080	-0.219
-277.443	-101.306	0.210	-0.051
-276.428	617.892	0.081	0.201
-275.413	-63.745	-0.179	-0.073
-274.399	342.135	-0.050	0.096
-273.384	-186.265	0.195	0.003
-272.370	-62.497	-0.073	-0.030
-271.355	88.758	0.196	-0.216
-270.340	-200.000	0.016	-0.202
-269.326	800.000	-0.050	-0.177
-268.311	-3.612	0.056	0.038
-267.297	-200.000	-0.017	0.403
-266.282	-200.000	0.002	0.097
-265.267	800.000	-0.050	0.201
-264.253	-200.000	-0.008	0.119
-263.238	213.971	-0.132	-0.206
-262.224	-66.036	-0.066	-0.026
-261.209	92.311	0.239	0.266
-260.195	682.826	-0.040	0.102
-259.180	1.909	0.183	0.131
-258.165	-76.228	-0.212	0.074
-257.151	-76.802	-0.316	0.109
-256.136	358.413	-0.124	-0.244
-255.122	-123.246	-0.251	0.040
-254.107	-156.176	-0.259	-0.016
-253.092	410.705	0.052	0.110
-252.078	-200.000	-0.028	-0.354
-251.063	473.850	0.118	0.264
-250.049	-200.000	0.004	0.122
-249.034	-149.236	0.045	0.004
-248.019	-89.961	-0.038	-0.011
-247.005	47.207	0.223	0.205
-245.990	215.338	-0.043	-0.067
-244.976	-117.516	-0.229	0.041
-243.961	162.913	-0.176	0.244
-242.946	-200.000	-0.005	-0.141
-241.932	800.000	-0.039	0.152
-240.917	-200.000	-0.001	-0.053
-239.903	-153.662	0.285	0.019
-238.888	8.461	-0.199	-0.147
-237.873	-105.019	-0.087	-0.020
-236.859	-200.000	-0.007	-0.259
-235.844	-80.417	0.390	-0.129
-234.830	-200.000	0.016	0.075
-233.815	7.708	-0.136	-0.100
-232.800	-200.000	0.032	0.195
-231.786	-61.265	0.221	0.092
-230.771	-200.000	-0.026	0.209
-229.757	-145.362	-0.156	-0.014
-228.742	-42.422	0.367	0.185
-227.727	-112.641	0.234	-0.046
-226.713	-200.000	0.005	0.077
-225.698	790.136	0.047	0.128
-224.684	-55.300	-0.384	0.170
-223.669	103.849	0.211	-0.244
-222.655	-24.880	0.078	-0.045
-221.640	-96.756	0.093	0.024
-220.625	-139.040	0.231	0.025
-219.611	-200.000	-0.042	-0.243
-218.596	-34.969	-0.256	-0.138
-217.582	6.961	-0.318	-0.234
-216.567	-2.608	0.116	0.080
-215.552	-200.000	-0.072	-0.451
-214.538	-200.000	-0.018	0.086
-213.523	95.476	0.177	0.200
-212.509	-48.155	0.298	-0.142
-211.494	-82.515	-0.150	-0.048
-210.479	228.140	-0.107	0.171
-209.465	92.123	-0.227	0.252
-208.450	-115.915	0.214	-0.039
-207.436	153.455	0.179	-0.242
-206.421	79.716	-0.274	-0.290
-205.406	-200.000	0.006	-0.109
-204.392	-200.000	0.023	0.263
-203.377	-200.000	-0.007	-0.272
-202.363	-167.703	0.238	0.009
-201.348	-166.254	-0.105	-0.004
-200.333	60.341	0.053	0.052
-199.319	-148.090	0.128	0.010
-198.304	-200.000	-0.025	0.122
-197.290	-200.000	0.045	0.249
-196.275	6.317	-0.061	0.044
-195.260	-124.652	0.268	-0.041
-194.246	219.016	0.134	-0.211
-193.231	0.521	-0.201	0.142
-192.217	-41.867	-0.142	0.072
-191.202	23.135	0.075	0.061
-190.187	-47.616	-0.143	0.069
-189.173	-91.196	-0.341	0.096
-188.158	-33.350	0.247	0.135
-187.144	-147.656	0.180	0.015
-186.129	-22.761	-0.452	-0.269
-185.114	23.097	0.094	-0.076
-184.100	-114.619	0.228	0.043
-183.085	-200.000	-0.059	0.330
-182.071	-29.585	-0.124	-0.070
-181.056	211.553	-0.049	-0.076
-180.042	-189.724	-0.161	-0.002
-179.027	-148.071	-0.362	-0.030
-178.012	-200.000	0.016	-0.263
-176.998	-107.312	0.194	0.042
-175.983	-146.274	0.125	0.011
-174.969	60.168	0.282	-0.275
-173.954	-200.000	0.042	-0.268
-172.939	-200.000	-0.025	0.163
-171.925	308.952	-0.077	0.141
-170.910	-70.928	0.120	0.045
-169.896	800.000	0.014	-0.055
-168.881	35.621	0.155	-0.134
-167.866	-51.833	-0.311	0.143
-166.852	35.437	0.017	0.015
-165.837	-42.251	0.119	-0.060
-164.823	16.640	-0.225	0.175
-163.808	-47.101	-0.102	-0.049
-162.793	-29.160	-0.103	-0.058
-161.779	123.207	0.141	0.173
-160.764	407.524	-0.132	0.275
-159.750	25.216	0.246	0.201
-158.735	-80.841	-0.272	-0.089
-157.720	49.539	0.236	0.219
-156.706	206.281	0.138	0.212
-155.691	-22.738	0.138	0.082
-154.677	-200.000	0.007	-0.087
-153.662	-37.021	-0.136	-0.072
-152.647	604.865	-0.169	0.414
-151.633	-19.643	0.203	-0.124
-150.618	-30.611	0.353	0.197
-149.604	120.998	0.087	0.107
-148.589	-200.000	-0.041	-0.205
-147.574	-200.000	-0.037	-0.219
-146.560	-136.323	0.131	0.015
-145.545	-59.197	-0.237	-0.100
-144.531	-24.564	0.440	-0.258
-143.516	254.433	-0.062	0.105
-142.502	-38.214	0.297	-0.155
-141.487	692.718	-0.108	-0.279
-140.472	-127.937	0.099	-0.014
-139.458	-54.699	-0.214	0.095
-138.443	-124.293	0.378	0.058
-137.429	-63.989	0.140	0.056
-136.414	-200.000	-0.005	0.348
-135.399	-98.035	-0.104	-0.026
-134.385	357.449	0.100	-0.196
-133.370	-44.856	-0.030	-0.015
-132.356	-200.000	-0.004	0.164
-131.341	-200.000	-0.011	-0.177
-130.326	138.190	0.161	0.208
-129.312	-65.377	0.241	0.095
-128.297	-50.836	-0.098	-0.045
-127.283	76.560	-0.181	-0.189
-126.268	-117.604	0.354	-0.063
-125.253	-200.000	-0.035	-0.329
-124.239	93.311	0.227	0.252
-123.224	-23.963	0.196	0.116
-122.210	324.307	0.170	-0.319
