DTS Sentinel unit serial number:	SN413079Multiplexer serial number:	ORYXHardware model number:	OX4-SRSoftware version number:	ORYX F/W v4.00 Oryx Data Collector v3.7.2.0data status	okinstallation	princeton_trtdifferential loss correction	single-endedforward channel	channel 3reverse channel	N/Adate	2019/09/19time	07:32:34forward acquisition time	60.00reverse acquisition time	0.00gamma	496.2192k internal	0.2347k external	0.2347temperature offset calibration	0.9981default loss term (dB/km)	0.3790temperature slope calibration	1.0000multiplexer offset coefficient	1.0000multiplexer slope coefficient	1.0000fibre end	0.00T internal ref (°C)	19.27T ext. ref 1 (°C)	0.56T ext. ref 2 (°C)	13.99length (m)	temperature (°C)	Stokes	anti-Stokes-747.200	469.228	0.219	0.492
-746.185	-30.501	-0.043	0.024
-745.171	24.677	-0.026	-0.022
-744.156	458.247	0.088	0.195
-743.142	-87.352	-0.381	0.115
-742.127	-193.247	0.178	0.002
-741.112	151.928	-0.135	-0.184
-740.098	59.472	-0.368	0.363
-739.083	85.876	0.138	0.152
-738.069	-121.798	-0.241	0.040
-737.054	800.000	0.060	0.260
-736.039	-200.000	0.028	0.125
-735.025	-117.696	0.296	-0.053
-734.010	325.313	-0.088	-0.169
-732.996	12.516	0.241	-0.186
-731.981	41.163	-0.220	-0.199
-730.966	-80.504	-0.136	-0.045
-729.952	-200.000	-0.029	0.258
-728.937	636.239	0.009	0.022
-727.923	-76.876	-0.234	-0.082
-726.908	-81.609	-0.299	-0.098
-725.894	-200.000	0.006	-0.032
-724.879	562.785	-0.042	-0.102
-723.864	-2.738	-0.217	0.151
-722.850	-125.458	-0.165	0.025
-721.835	55.514	0.208	-0.201
-720.821	-175.981	-0.348	0.009
-719.806	800.000	-0.042	-0.146
-718.791	-40.393	-0.111	0.058
-717.777	-139.815	-0.256	0.027
-716.762	689.348	0.063	-0.165
-715.748	800.000	-0.159	0.562
-714.733	-56.197	-0.109	0.048
-713.718	197.225	-0.069	0.105
-712.704	273.402	0.203	0.359
-711.689	-42.171	0.186	-0.095
-710.675	40.684	-0.213	0.192
-709.660	-97.050	-0.064	0.017
-708.645	-200.000	-0.091	-0.404
-707.631	150.619	-0.030	-0.040
-706.616	-149.904	-0.194	0.015
-705.602	394.273	0.134	-0.278
-704.587	-170.910	-0.479	0.016
-703.572	800.000	-0.069	0.282
-702.558	-17.713	-0.033	0.021
-701.543	-200.000	-0.014	-0.281
-700.529	-138.774	0.256	0.028
-699.514	138.350	-0.035	-0.046
-698.499	360.746	0.121	0.241
-697.485	-3.149	0.224	0.156
-696.470	86.355	-0.276	0.304
-695.456	190.891	-0.145	0.217
-694.441	-121.427	-0.169	-0.028
-693.426	-19.364	-0.109	0.067
-692.412	507.000	-0.052	-0.120
-691.397	154.688	-0.080	-0.110
-690.383	33.496	0.123	-0.107
-689.368	103.242	-0.309	0.361
-688.354	-81.351	-0.277	-0.091
-687.339	56.511	0.141	-0.137
-686.324	-200.000	-0.039	-0.259
-685.310	-112.332	-0.346	-0.069
-684.295	54.229	0.208	0.199
-683.281	-200.000	0.011	0.205
-682.266	26.779	0.046	-0.038
-681.251	79.127	-0.141	0.151
-680.237	-58.921	-0.065	-0.028
-679.222	548.070	-0.098	-0.235
-678.208	232.379	-0.235	-0.385
-677.193	-154.938	0.161	-0.011
-676.178	437.291	0.094	-0.204
-675.164	58.514	-0.228	-0.223
-674.149	-166.582	-0.149	-0.006
-673.135	-8.965	-0.294	0.196
-672.120	147.952	-0.082	-0.110
-671.105	-200.000	-0.016	0.302
-670.091	800.000	-0.039	-0.151
-669.076	-200.000	0.003	0.075
-668.062	45.315	-0.191	-0.176
-667.047	-200.000	0.024	0.113
-666.032	-41.933	-0.051	0.026
-665.018	470.202	-0.091	0.204
-664.003	-75.580	-0.366	0.130
-662.989	800.000	-0.126	0.405
-661.974	343.784	0.090	0.175
-660.959	160.167	0.091	-0.126
-659.945	-37.004	0.432	0.230
-658.930	-21.632	-0.190	0.115
-657.916	800.000	0.084	-0.284
-656.901	-200.000	0.020	0.273
-655.886	-178.757	0.207	-0.005
-654.872	800.000	0.031	0.135
-653.857	-148.854	0.245	0.020
-652.843	737.062	-0.200	0.533
-651.828	-196.223	-0.134	0.001
-650.814	-117.217	0.169	0.031
-649.799	-200.000	-0.047	-0.255
-648.784	3.195	-0.373	0.270
-647.770	136.317	-0.051	-0.067
-646.755	-200.000	-0.028	0.305
-645.741	151.421	0.231	-0.313
-644.726	-12.540	0.120	-0.078
-643.711	800.000	0.112	0.330
-642.697	-167.754	0.089	0.003
-641.682	224.174	0.107	-0.172
-640.668	-46.842	-0.338	-0.164
-639.653	146.971	-0.138	-0.185
-638.638	-200.000	-0.077	-0.446
-637.624	-30.831	-0.145	-0.082
-636.609	-87.414	-0.530	-0.160
-635.595	31.425	-0.185	0.158
-634.580	360.505	0.072	0.143
-633.565	257.473	-0.184	-0.315
-632.551	-0.026	0.187	0.132
-631.536	-123.128	-0.118	0.019
-630.522	-62.149	-0.205	0.085
-629.507	618.367	0.042	0.106
-628.492	16.050	0.188	0.148
-627.478	-150.690	-0.311	-0.024
-626.463	-200.000	-0.011	0.187
-625.449	-200.000	0.019	-0.237
-624.434	66.598	0.057	0.058
-623.419	42.779	0.120	0.108
-622.405	-159.892	-0.224	-0.012
-621.390	9.490	-0.105	-0.079
-620.376	800.000	-0.042	0.139
-619.361	372.299	-0.117	0.236
-618.346	-2.947	-0.167	0.116
-617.332	-164.546	-0.230	0.010
-616.317	3.886	0.133	0.097
-615.303	-87.817	0.249	0.074
-614.288	-82.350	-0.125	0.040
-613.273	23.136	0.193	0.158
-612.259	411.241	0.115	-0.243
-611.244	-200.000	-0.069	0.338
-610.230	-92.336	0.180	0.051
-609.215	68.731	-0.092	-0.094
-608.201	800.000	-0.051	-0.153
-607.186	-200.000	-0.016	-0.074
-606.171	667.367	-0.075	-0.192
-605.157	-11.556	-0.187	-0.122
-604.142	545.994	-0.040	0.096
-603.128	-168.295	-0.425	-0.016
-602.113	-31.936	-0.305	0.170
-601.098	645.409	-0.043	-0.110
-600.084	-67.934	0.106	-0.041
-599.069	175.179	-0.146	0.210
-598.055	8.885	-0.246	-0.184
-597.040	-41.701	-0.118	0.060
-596.025	231.958	-0.103	-0.168
-595.011	-37.175	-0.116	0.061
-593.996	800.000	0.020	-0.060
-592.982	7.638	-0.159	0.118
-591.967	-200.000	0.003	0.127
-590.952	-200.000	-0.008	0.068
-589.938	283.161	-0.084	0.150
-588.923	637.207	0.161	-0.407
-587.909	450.627	0.157	-0.345
-586.894	15.750	-0.115	0.089
-585.879	-31.038	-0.085	0.048
-584.865	119.240	-0.124	0.152
-583.850	-200.000	0.036	0.204
-582.836	490.131	0.129	-0.293
-581.821	-165.467	-0.118	0.005
-580.806	-200.000	-0.038	-0.217
-579.792	-153.730	-0.268	-0.018
-578.777	-69.054	0.244	0.093
-577.763	568.518	-0.084	-0.202
-576.748	-81.849	-0.051	0.017
-575.733	37.873	0.137	0.121
-574.719	461.179	0.031	0.069
-573.704	-200.000	0.031	-0.139
-572.690	47.742	-0.300	-0.278
-571.675	533.358	-0.032	0.074
-570.661	-32.692	-0.046	0.025
-569.646	-149.104	0.292	0.023
-568.631	-187.461	-0.087	-0.001
-567.617	-127.143	-0.069	0.010
-566.602	-156.716	-0.082	-0.005
-565.588	624.094	0.101	0.253
-564.573	-200.000	-0.026	-0.199
-563.558	32.490	0.481	-0.413
-562.544	-168.052	-0.241	-0.009
-561.529	-200.000	-0.007	-0.119
-560.515	-76.673	0.063	-0.022
-559.500	-78.076	0.456	-0.156
-558.485	-200.000	-0.013	-0.260
-557.471	279.817	0.110	0.196
-556.456	339.792	0.044	0.085
-555.442	-77.503	0.212	-0.073
-554.427	-200.000	-0.001	-0.192
-553.412	-170.258	0.206	0.007
-552.398	-200.000	-0.018	-0.263
-551.383	-200.000	0.098	-0.505
-550.369	590.277	-0.124	-0.304
-549.354	-200.000	-0.035	-0.259
-548.339	782.502	-0.111	0.301
-547.325	-127.467	0.215	0.031
-546.310	-1.192	0.128	-0.090
-545.296	-200.000	-0.004	-0.099
-544.281	800.000	-0.063	0.215
-543.266	117.428	-0.237	0.289
-542.252	-200.000	-0.022	0.240
-541.237	-200.000	-0.042	-0.205
-540.223	-200.000	0.022	0.261
-539.208	-200.000	0.001	-0.052
-538.193	-48.689	0.232	0.110
-537.179	800.000	0.067	0.264
-536.164	-92.542	-0.144	-0.040
-535.150	-13.381	-0.231	-0.149
-534.135	764.447	0.017	-0.045
-533.121	-1.757	0.355	0.248
-532.106	-51.143	0.089	0.041
-531.091	-200.000	-0.019	0.118
-530.077	-70.796	-0.121	-0.045
-529.062	-92.517	-0.107	-0.030
-528.048	800.000	-0.071	-0.198
-527.033	800.000	-0.029	-0.112
-526.018	125.014	-0.125	-0.156
-525.004	800.000	-0.089	-0.264
-523.989	-169.267	0.113	-0.004
-522.975	617.198	-0.068	0.170
-521.960	72.375	0.168	-0.174
-520.945	-31.140	-0.125	-0.070
-519.931	20.725	-0.283	0.227
-518.916	-146.423	0.112	0.010
-517.902	284.377	0.178	-0.317
-516.887	28.686	0.147	0.123
-515.872	168.032	0.187	-0.263
-514.858	240.367	-0.052	-0.087
-513.843	477.339	0.007	0.015
-512.829	-22.528	0.198	0.119
-511.814	13.344	-0.118	-0.091
-510.799	56.425	0.202	-0.194
-509.785	-200.000	-0.027	0.254
-508.770	-50.327	0.105	-0.049
-507.756	243.219	-0.121	0.201
-506.741	17.724	0.089	-0.070
-505.726	241.761	-0.056	0.093
-504.712	-110.685	-0.266	0.054
-503.697	-1.009	-0.199	-0.139
-502.683	48.693	-0.110	0.102
-501.668	-54.815	0.165	-0.074
-500.653	454.711	0.079	0.174
-499.639	88.799	0.295	0.325
-498.624	-200.000	0.022	-0.392
-497.610	-58.289	0.326	-0.140
-496.595	663.175	-0.078	0.199
-495.581	-138.236	-0.025	0.003
-494.566	-18.798	-0.236	-0.145
-493.551	126.204	0.103	0.129
-492.537	-97.597	-0.347	0.089
-491.522	173.469	0.055	0.079
-490.508	-200.000	0.034	-0.168
-489.493	196.235	-0.117	-0.177
-488.478	-200.000	0.015	-0.215
-487.464	164.601	-0.257	-0.358
-486.449	114.737	-0.305	-0.367
-485.435	-200.000	-0.011	0.096
-484.420	-200.000	0.010	-0.591
-483.405	-200.000	-0.001	0.021
-482.391	-92.214	-0.181	0.051
-481.376	144.994	-0.039	-0.052
-480.362	-200.000	0.012	-0.158
-479.347	800.000	-0.100	-0.363
-478.332	-49.210	0.260	0.123
-477.318	115.909	0.020	-0.024
-476.303	-42.847	0.236	-0.119
-475.289	-200.000	0.005	-0.093
-474.274	-60.736	0.165	0.069
-473.259	155.504	-0.187	0.255
-472.245	-56.858	0.091	-0.040
-471.230	10.833	0.063	0.048
-470.216	800.000	0.026	-0.111
-469.201	-69.299	0.245	0.093
-468.186	-200.000	0.002	0.132
-467.172	-94.008	0.135	-0.037
-466.157	-10.623	-0.028	0.019
-465.143	102.941	0.173	-0.200
-464.128	-107.543	-0.164	0.036
-463.113	401.353	0.169	-0.351
-462.099	-132.110	0.035	0.005
-461.084	-200.000	-0.043	0.273
-460.070	304.292	0.141	0.258
-459.055	5.985	0.145	0.106
-458.040	143.457	0.168	-0.221
-457.026	-159.041	0.108	-0.006
-456.011	19.789	-0.376	0.299
-454.997	-111.705	-0.195	-0.039
-453.982	800.000	0.039	0.116
-452.968	-47.951	0.231	0.111
-451.953	63.325	-0.072	-0.071
-450.938	81.533	0.087	0.093
-449.924	192.054	0.032	-0.048
-448.909	575.265	0.077	-0.186
-447.895	-55.944	-0.382	-0.168
-446.880	-200.000	0.031	0.171
-445.865	104.092	-0.141	0.164
-444.851	800.000	0.094	-0.376
-443.836	800.000	-0.149	-0.596
-442.822	302.794	-0.150	0.274
-441.807	-47.869	-0.210	0.101
-440.792	-200.000	-0.040	0.322
-439.778	-95.083	-0.361	0.096
-438.763	82.873	0.203	-0.218
-437.749	-45.678	0.161	-0.079
-436.734	-70.891	0.142	-0.053
-435.719	-121.347	-0.115	0.019
-434.705	-200.000	0.015	0.097
-433.690	101.326	-0.103	0.118
-432.676	-132.125	0.270	0.035
-431.661	-135.986	-0.250	-0.029
-430.646	-10.141	0.130	0.085
-429.632	485.097	0.068	0.152
-428.617	449.666	-0.134	-0.293
-427.603	-75.095	-0.208	-0.074
-426.588	-73.063	0.603	0.218
-425.573	25.835	-0.334	0.275
-424.559	800.000	-0.018	-0.061
-423.544	-41.896	0.077	0.039
-422.530	-200.000	0.046	-0.234
-421.515	-200.000	0.040	0.191
-420.500	-61.879	0.166	-0.069
-419.486	343.086	-0.104	0.201
-418.471	-107.446	0.255	0.055
-417.457	-36.737	-0.180	-0.096
-416.442	-200.000	-0.040	0.235
-415.428	256.394	-0.201	-0.340
-414.413	800.000	0.076	-0.326
-413.398	-1.741	-0.194	0.135
-412.384	220.197	0.127	0.201
-411.369	22.474	-0.089	0.071
-410.355	-200.000	-0.009	0.094
-409.340	-200.000	-0.002	0.430
-408.325	-102.119	0.299	0.071
-407.311	-44.890	-0.132	-0.065
-406.296	169.105	0.169	-0.238
-405.282	24.017	0.149	0.121
-404.267	351.804	0.129	0.251
-403.252	40.650	0.205	0.182
-402.238	-167.247	-0.403	0.016
-401.223	-200.000	-0.024	-0.333
-400.209	-12.163	0.019	0.012
-399.194	58.107	0.041	0.040
-398.179	394.883	0.092	0.190
-397.165	111.047	-0.210	0.249
-396.150	364.343	0.049	0.097
-395.136	109.054	-0.138	-0.162
-394.121	293.124	0.187	-0.337
-393.106	800.000	0.111	-0.375
-392.092	-11.995	0.351	0.227
-391.077	-179.533	-0.362	0.008
-390.063	800.000	-0.032	0.118
-389.048	-77.996	-0.139	0.047
-388.033	181.680	-0.038	0.054
-387.019	62.766	-0.077	0.075
-386.004	2.204	0.081	0.058
-384.990	-50.046	-0.281	0.131
-383.975	17.727	-0.078	-0.061
-382.960	-200.000	-0.017	0.276
-381.946	-61.809	-0.244	-0.101
-380.931	80.055	0.086	-0.091
-379.917	33.592	0.165	-0.141
-378.902	-200.000	0.070	0.344
-377.888	800.000	-0.043	-0.132
-376.873	-129.098	0.204	-0.028
-375.858	-200.000	0.002	0.092
-374.844	5.698	0.086	-0.063
-373.829	-12.326	0.466	-0.300
-372.815	800.000	0.055	0.204
-371.800	304.905	-0.100	-0.183
-370.785	-100.839	0.363	-0.088
-369.771	101.093	0.148	0.169
-368.756	-12.714	0.252	-0.162
-367.742	-79.179	-0.264	0.088
-366.727	44.853	-0.403	-0.365
-365.712	565.097	-0.149	0.355
-364.698	56.884	-0.089	-0.086
-363.683	-200.000	-0.011	-0.152
-362.669	92.654	-0.256	-0.284
-361.654	-7.553	-0.280	0.186
-360.639	365.227	-0.073	-0.144
-359.625	-106.101	-0.116	-0.026
-358.610	-138.277	0.281	0.031
-357.596	98.958	-0.211	-0.240
-356.581	-102.201	-0.212	-0.050
-355.566	484.022	-0.058	-0.130
-354.552	64.066	-0.140	0.139
-353.537	-86.493	0.177	-0.053
-352.523	-108.264	-0.236	0.050
-351.508	-37.588	0.182	0.096
-350.493	-88.658	0.128	-0.037
-349.479	-59.005	-0.134	0.057
-348.464	544.026	0.066	0.154
-347.450	-200.000	0.010	0.556
-346.435	90.804	-0.138	-0.152
-345.420	-200.000	-0.032	-0.265
-344.406	-24.353	-0.260	0.153
-343.391	100.599	0.076	0.087
-342.377	44.888	0.169	0.153
-341.362	218.658	-0.080	-0.125
-340.348	504.383	0.119	0.271
-339.333	-97.226	0.172	-0.044
-338.318	-125.891	0.286	0.042
-337.304	-200.000	0.003	0.036
-336.289	510.930	0.123	-0.282
-335.275	-28.750	-0.234	-0.132
-334.260	-197.184	-0.297	0.002
-333.245	800.000	-0.092	0.303
-332.231	-39.297	0.287	-0.148
-331.216	-45.729	-0.197	0.096
-330.202	-64.606	0.237	-0.095
-329.187	-151.007	0.110	0.008
-328.172	-57.494	0.242	-0.104
-327.158	800.000	-0.069	-0.216
-326.143	-42.924	-0.153	0.076
-325.129	-144.056	0.198	0.018
-324.114	-87.210	0.235	0.070
-323.099	-51.379	-0.023	-0.011
-322.085	-200.000	0.063	0.357
-321.070	-26.723	0.137	-0.079
-320.056	229.074	-0.164	0.263
-319.041	114.616	0.070	-0.083
-318.026	800.000	-0.101	0.296
-317.012	800.000	-0.042	-0.113
-315.997	356.807	-0.186	-0.363
-314.983	-122.135	0.177	-0.029
-313.968	10.084	0.092	0.068
-312.953	-47.887	-0.427	-0.203
-311.939	-200.000	0.059	-0.268
-310.924	-159.997	0.327	0.018
-309.910	800.000	0.025	0.104
-308.895	80.723	-0.200	0.212
-307.880	80.675	-0.431	-0.457
-306.866	-200.000	-0.010	0.186
-305.851	-87.190	0.359	0.107
-304.837	177.209	0.053	0.076
-303.822	-200.000	-0.006	-0.250
-302.807	527.793	0.088	0.205
-301.793	-57.631	0.335	0.144
-300.778	800.000	0.062	-0.265
-299.764	60.956	-0.043	0.042
-298.749	5.771	0.006	0.004
-297.735	800.000	-0.021	0.085
-296.720	-200.000	0.038	0.000
-295.705	16.242	-0.107	-0.083
-294.691	224.023	-0.097	0.155
-293.676	159.968	-0.086	0.118
-292.662	800.000	0.089	-0.275
-291.647	800.000	0.077	0.254
-290.632	95.086	-0.186	-0.207
-289.618	122.595	0.168	-0.206
-288.603	270.801	0.099	-0.171
-287.589	-159.253	-0.093	0.005
-286.574	43.460	0.151	0.136
-285.559	-20.948	-0.116	0.070
-284.545	420.322	0.054	-0.113
-283.530	-12.419	-0.080	0.051
-282.516	-200.000	-0.047	0.333
-281.501	-111.607	-0.240	-0.048
-280.486	642.439	0.084	0.210
-279.472	-70.197	0.196	-0.073
-278.457	-116.845	-0.257	0.046
-277.443	-29.194	0.130	-0.073
-276.428	197.794	-0.088	0.132
-275.413	800.000	0.112	-0.377
-274.399	-6.184	-0.190	0.127
-273.384	301.494	0.026	0.047
-272.370	800.000	-0.097	0.270
-271.355	-36.232	0.265	-0.140
-270.340	87.074	0.056	-0.061
-269.326	-127.188	-0.036	0.005
-268.311	544.320	0.127	-0.298
-267.297	5.302	-0.291	0.211
-266.282	159.582	-0.116	0.158
-265.267	70.453	0.321	-0.325
-264.253	14.313	-0.236	0.181
-263.238	190.016	0.154	0.227
-262.224	103.929	-0.181	0.208
-261.209	1.398	-0.238	0.168
-260.195	-156.483	-0.117	0.007
-259.180	-15.509	0.259	0.162
-258.165	534.902	-0.088	-0.204
-257.151	38.388	0.272	-0.238
-256.136	-56.458	0.120	0.052
-255.122	420.664	0.052	0.109
-254.107	21.641	0.124	0.099
-253.092	800.000	-0.134	0.375
-252.078	25.567	0.311	-0.254
-251.063	-83.609	0.196	0.061
-250.049	386.748	-0.098	-0.198
-249.034	74.712	0.110	-0.114
-248.019	486.418	-0.074	0.166
-247.005	99.891	0.131	0.148
-245.990	-10.537	0.110	0.071
-244.976	-134.389	-0.260	-0.031
-243.961	6.211	0.351	0.255
-242.946	16.898	0.128	-0.099
-241.932	800.000	-0.066	0.205
-240.917	-200.000	-0.032	0.194
-239.903	-200.000	0.053	-0.362
-238.888	-30.058	0.238	0.133
-237.873	-200.000	-0.006	0.140
-236.859	87.878	-0.041	0.044
-235.844	173.652	0.133	-0.187
-234.830	-146.517	0.063	-0.005
-233.815	-200.000	-0.015	-0.190
-232.800	-51.358	0.187	-0.085
-231.786	448.319	-0.098	0.211
-230.771	152.435	0.148	0.198
-229.757	-90.247	0.046	0.013
-228.742	-28.780	-0.229	0.129
-227.727	-13.169	0.062	-0.040
-226.713	-200.000	-0.007	-0.170
-225.698	-200.000	0.000	-0.043
-224.684	-200.000	0.017	0.146
-223.669	-200.000	-0.007	-0.059
-222.655	-200.000	0.051	0.362
-221.640	45.476	0.073	-0.066
-220.625	-98.502	-0.145	0.036
-219.611	-29.190	0.128	0.072
-218.596	-62.102	0.196	-0.080
-217.582	700.473	-0.033	0.086
-216.567	-200.000	0.013	-0.059
-215.552	-123.054	-0.362	0.057
-214.538	-162.307	-0.111	0.005
-213.523	-200.000	0.025	-0.192
-212.509	-111.663	-0.320	-0.064
-211.494	-52.306	-0.206	-0.094
-210.479	-0.122	0.179	0.125
-209.465	800.000	-0.086	0.295
-208.450	-200.000	0.070	0.354
-207.436	-163.251	-0.056	-0.003
-206.421	-108.998	0.246	0.051
-205.406	-200.000	-0.007	0.160
-204.392	420.682	0.092	-0.193
-203.377	-121.889	0.160	-0.026
-202.363	-104.060	0.266	0.061
-201.348	35.414	-0.054	0.047
-200.333	-111.454	0.085	0.017
-199.319	479.882	0.106	0.235
-198.304	-51.156	0.457	0.210
-197.290	339.092	-0.177	0.337
-196.275	800.000	0.072	-0.200
-195.260	58.819	-0.197	-0.189
-194.246	-69.422	0.256	0.096
-193.231	-109.900	0.234	-0.048
-192.217	84.030	0.040	-0.043
-191.202	-88.539	0.138	0.040
-190.187	-46.290	-0.322	-0.155
-189.173	276.642	-0.143	0.248
-188.158	-200.000	-0.009	-0.121
-187.144	101.080	-0.070	0.080
-186.129	-200.000	0.063	-0.294
-185.114	76.414	0.074	-0.076
-184.100	64.502	-0.207	0.204
-183.085	633.275	0.120	-0.297
-182.071	-89.210	0.260	-0.075
-181.056	276.018	-0.097	0.168
-180.042	404.220	0.109	-0.224
-179.027	800.000	-0.064	-0.240
-178.012	-3.572	0.197	-0.134
-176.998	66.305	-0.174	-0.173
-175.983	42.629	-0.123	-0.110
-174.969	-200.000	-0.083	0.365
-173.954	72.460	0.270	0.275
-172.939	-200.000	0.020	0.293
-171.925	-118.707	-0.226	0.039
-170.910	-103.109	0.083	0.019
-169.896	-135.585	0.366	0.042
-168.881	48.235	-0.336	-0.307
-167.866	-200.000	-0.010	-0.239
-166.852	-200.000	0.029	0.239
-165.837	-200.000	0.046	0.300
-164.823	-4.432	0.213	-0.144
-163.808	-200.000	-0.033	-0.214
-162.793	-200.000	0.043	0.301
-161.779	-200.000	-0.018	-0.149
-160.764	136.108	-0.159	-0.202
-159.750	-200.000	-0.012	0.244
-158.735	-35.648	0.141	0.075
-157.720	648.047	-0.124	0.310
-156.706	74.199	-0.139	0.143
-155.691	800.000	-0.050	0.141
-154.677	-200.000	0.029	-0.166
-153.662	-49.734	0.164	0.076
-152.647	61.095	0.096	0.093
-151.633	-71.780	-0.071	-0.026
-150.618	-63.158	0.046	-0.019
-149.604	-200.000	-0.014	0.129
-148.589	108.944	0.164	0.192
-147.574	800.000	0.045	-0.174
-146.560	316.248	0.158	-0.291
-145.545	-200.000	-0.002	-0.139
-144.531	88.288	0.257	-0.278
-143.516	800.000	0.049	0.197
-142.502	92.200	-0.165	0.182
-141.487	35.923	-0.149	0.128
-140.472	708.979	-0.037	0.094
-139.458	-74.974	0.182	-0.064
-138.443	-32.803	-0.346	-0.188
-137.429	-200.000	0.027	0.118
-136.414	26.395	0.129	0.105
-135.399	800.000	-0.094	-0.328
-134.385	249.667	-0.261	0.432
-133.370	11.210	0.129	-0.096
-132.356	-122.780	-0.529	0.083
-131.341	-70.716	-0.077	0.028
-130.326	-200.000	0.010	0.045
-129.312	-103.052	-0.286	-0.066
-128.297	93.439	0.122	-0.135
-127.283	800.000	0.085	-0.239
-126.268	-65.659	0.298	0.116
-125.253	-0.154	-0.205	0.142
-124.239	800.000	0.074	0.207
-123.224	-120.793	0.372	-0.061
-122.210	-57.970	-0.388	0.165
-121.195	43.092	-0.095	0.084
-120.180	-200.000	-0.005	0.025
