DTS Sentinel unit serial number:	SN413079Multiplexer serial number:	ORYXHardware model number:	OX4-SRSoftware version number:	ORYX F/W v4.00 Oryx Data Collector v3.7.2.0data status	okinstallation	princeton_trtdifferential loss correction	single-endedforward channel	channel 3reverse channel	N/Adate	2019/09/19time	01:32:34forward acquisition time	60.00reverse acquisition time	0.00gamma	496.2192k internal	0.2348k external	0.2348temperature offset calibration	0.9988default loss term (dB/km)	0.3790temperature slope calibration	1.0000multiplexer offset coefficient	1.0000multiplexer slope coefficient	1.0000fibre end	0.00T internal ref (°C)	21.56T ext. ref 1 (°C)	0.69T ext. ref 2 (°C)	15.02length (m)	temperature (°C)	Stokes	anti-Stokes-747.200	-48.810	0.456	0.218
-746.185	85.546	0.136	-0.150
-745.171	-200.000	-0.001	-0.168
-744.156	314.433	0.099	0.186
-743.142	-200.000	-0.010	-0.085
-742.127	800.000	-0.078	0.277
-741.112	-4.260	-0.300	-0.207
-740.098	-200.000	-0.068	0.477
-739.083	-132.373	0.129	0.017
-738.069	-200.000	0.127	0.000
-737.054	800.000	-0.073	-0.227
-736.039	-172.983	-0.321	0.010
-735.025	800.000	-0.056	0.207
-734.010	-21.542	-0.283	0.172
-732.996	-64.323	0.191	-0.078
-731.981	667.421	-0.078	0.202
-730.966	-200.000	0.036	0.281
-729.952	-200.000	-0.080	-0.430
-728.937	-61.903	-0.309	0.129
-727.923	-200.000	0.000	0.164
-726.908	-200.000	-0.017	-0.215
-725.894	-77.429	-0.255	-0.089
-724.879	-197.236	0.187	0.001
-723.864	73.770	-0.071	0.074
-722.850	188.343	-0.134	0.200
-721.835	800.000	-0.127	-0.379
-720.821	-29.676	-0.195	-0.111
-719.806	77.465	-0.113	-0.120
-718.791	800.000	0.117	-0.357
-717.777	-59.771	-0.111	-0.047
-716.762	7.950	0.130	-0.097
-715.748	10.835	0.330	-0.252
-714.733	266.337	-0.098	0.170
-713.718	-71.244	-0.334	-0.125
-712.704	-139.352	-0.241	0.026
-711.689	-156.259	0.464	-0.029
-710.675	15.593	-0.126	-0.099
-709.660	-200.000	-0.012	-0.122
-708.645	-60.110	-0.259	-0.110
-707.631	7.708	-0.266	-0.199
-706.616	301.234	-0.154	-0.285
-705.602	79.335	-0.184	-0.197
-704.587	-36.748	-0.123	-0.066
-703.572	25.550	-0.217	0.180
-702.558	-107.173	0.107	0.023
-701.543	8.868	0.201	-0.151
-700.529	-65.811	0.069	-0.027
-699.514	-58.005	-0.066	0.029
-698.499	127.418	0.214	-0.271
-697.485	800.000	-0.071	0.206
-696.470	-200.000	-0.002	-0.099
-695.456	96.119	-0.042	0.047
-694.441	-165.102	-0.486	-0.022
-693.426	-143.244	0.132	-0.013
-692.412	-200.000	-0.013	0.133
-691.397	-118.210	-0.374	0.066
-690.383	-25.567	0.165	0.097
-689.368	703.044	0.044	0.114
-688.354	-200.000	0.034	-0.328
-687.339	-200.000	-0.019	-0.299
-686.324	-6.142	0.100	-0.068
-685.310	25.690	-0.270	-0.224
-684.295	-200.000	0.020	0.165
-683.281	-173.364	-0.310	-0.009
-682.266	-93.199	-0.181	-0.050
-681.251	-77.174	0.089	-0.031
-680.237	44.852	0.060	0.055
-679.222	-126.187	-0.402	-0.060
-678.208	55.587	-0.155	-0.150
-677.193	-105.471	0.217	0.049
-676.178	-144.095	-0.370	-0.035
-675.164	800.000	-0.088	-0.337
-674.149	-173.957	-0.490	-0.014
-673.135	112.847	0.171	0.207
-672.120	73.447	0.140	-0.146
-671.105	27.910	-0.099	0.083
-670.091	85.500	-0.149	0.163
-669.076	-28.154	0.329	0.189
-668.062	-79.775	0.255	-0.085
-667.047	154.270	-0.021	0.028
-666.032	-200.000	-0.001	0.078
-665.018	720.937	-0.110	0.290
-664.003	-120.594	0.205	0.035
-662.989	-68.065	-0.340	0.132
-661.974	-16.740	0.115	-0.072
-660.959	792.186	0.081	0.223
-659.945	800.000	0.073	0.241
-658.930	-200.000	-0.075	0.386
-657.916	-21.331	0.198	0.120
-656.901	237.578	0.088	-0.146
-655.886	137.521	0.184	-0.239
-654.872	24.591	-0.365	-0.301
-653.857	77.724	-0.165	-0.175
-652.843	-50.682	-0.153	-0.072
-651.828	-47.538	0.247	0.119
-650.814	5.389	0.171	-0.126
-649.799	800.000	0.188	0.627
-648.784	176.599	0.217	0.315
-647.770	284.659	-0.077	0.138
-646.755	381.552	0.163	0.333
-645.741	-200.000	0.011	-0.382
-644.726	-112.088	0.247	0.050
-643.711	800.000	-0.026	-0.103
-642.697	800.000	-0.066	0.233
-641.682	56.676	0.191	0.185
-640.668	-81.765	-0.021	0.007
-639.653	800.000	-0.063	-0.180
-638.638	74.250	0.207	-0.216
-637.624	365.658	0.148	0.296
-636.609	-55.690	0.143	0.063
-635.595	128.553	-0.078	-0.099
-634.580	-77.735	0.149	0.051
-633.565	332.091	-0.210	0.402
-632.551	53.609	0.286	0.273
-631.536	-26.544	-0.133	0.078
-630.522	129.127	-0.130	-0.165
-629.507	403.723	-0.152	-0.318
-628.492	81.949	0.153	-0.164
-627.478	-66.731	-0.172	0.068
-626.463	-200.000	-0.054	-0.361
-625.449	190.566	-0.236	-0.353
-624.434	800.000	-0.066	-0.200
-623.419	321.605	-0.212	-0.402
-622.405	-45.861	-0.413	-0.203
-621.390	-13.166	-0.244	0.158
-620.376	-150.892	-0.264	-0.020
-619.361	-75.339	0.178	-0.063
-618.346	-28.785	0.159	0.091
-617.332	-200.000	-0.046	0.522
-616.317	-63.479	-0.239	0.098
-615.303	-27.570	-0.239	-0.138
-614.288	-200.000	0.003	-0.263
-613.273	595.150	0.100	-0.246
-612.259	-172.312	-0.312	0.010
-611.244	-72.306	-0.133	-0.049
-610.230	-200.000	0.042	0.226
-609.215	551.530	-0.029	0.069
-608.201	-200.000	0.010	-0.045
-607.186	44.760	-0.215	0.197
-606.171	266.823	0.080	-0.140
-605.157	197.448	-0.209	-0.317
-604.142	-23.907	0.032	0.019
-603.128	-110.030	-0.347	-0.072
-602.113	-57.347	0.044	0.019
-601.098	81.779	0.115	-0.123
-600.084	76.067	0.147	-0.154
-599.069	11.154	-0.453	-0.344
-598.055	144.332	-0.158	-0.210
-597.040	-118.054	-0.315	0.056
-596.025	-200.000	0.058	0.288
-595.011	146.644	-0.156	-0.209
-593.996	14.639	0.092	0.071
-592.982	-200.000	-0.054	0.724
-591.967	-29.220	0.298	0.169
-590.952	-88.756	-0.462	-0.136
-589.938	-200.000	0.025	-0.136
-588.923	-142.528	-0.219	0.021
-587.909	320.088	0.049	-0.092
-586.894	84.990	-0.147	-0.160
-585.879	-48.798	0.227	-0.108
-584.865	10.215	-0.264	-0.199
-583.850	22.818	0.087	0.071
-582.836	215.390	-0.199	0.314
-581.821	-75.585	0.136	-0.048
-580.806	-27.383	-0.072	0.042
-579.792	262.544	-0.047	0.081
-578.777	-119.228	-0.101	0.017
-577.763	649.512	-0.011	-0.028
-576.748	194.230	0.181	-0.272
-575.733	536.017	0.033	-0.078
-574.719	150.343	-0.067	-0.091
-573.704	160.407	-0.113	-0.156
-572.690	409.109	-0.040	-0.083
-571.675	-28.579	0.345	0.197
-570.661	77.475	0.075	0.079
-569.646	128.189	0.138	-0.174
-568.631	-163.045	-0.260	0.012
-567.617	-200.000	-0.065	-0.389
-566.602	-200.000	0.019	-0.112
-565.588	-200.000	0.012	0.064
-564.573	4.758	-0.064	-0.047
-563.558	8.882	-0.359	0.268
-562.544	-46.211	-0.159	-0.078
-561.529	800.000	0.066	0.273
-560.515	405.090	-0.085	0.177
-559.500	30.719	0.074	-0.063
-558.485	-121.343	0.454	-0.075
-557.471	0.542	-0.110	0.078
-556.456	-66.117	0.237	-0.094
-555.442	-133.042	-0.114	0.014
-554.427	-135.088	0.094	-0.011
-553.412	-59.116	0.251	-0.108
-552.398	-35.879	-0.104	-0.056
-551.383	-109.091	-0.074	0.016
-550.369	-44.055	0.214	0.107
-549.354	-12.093	-0.250	-0.162
-548.339	-85.374	-0.321	0.099
-547.325	-49.991	-0.113	-0.053
-546.310	-139.607	-0.149	0.016
-545.296	60.605	-0.320	-0.315
-544.281	99.743	0.177	-0.203
-543.266	-120.549	0.057	-0.010
-542.252	-200.000	-0.025	0.180
-541.237	53.453	0.073	0.070
-540.223	169.977	0.134	-0.190
-539.208	-200.000	0.043	0.269
-538.193	-128.800	-0.166	0.023
-537.179	-8.469	-0.144	0.096
-536.164	368.773	0.128	0.257
-535.150	-57.578	-0.242	-0.105
-534.135	-200.000	-0.065	0.463
-533.121	273.603	-0.134	0.234
-532.106	-200.000	-0.006	0.035
-531.091	-38.544	-0.174	-0.091
-530.077	-200.000	-0.003	0.338
-529.062	56.262	0.069	0.067
-528.048	-24.726	0.257	-0.151
-527.033	-4.453	0.098	0.067
-526.018	489.231	0.024	0.055
-525.004	-200.000	0.027	0.278
-523.989	-27.473	-0.277	-0.160
-522.975	-200.000	0.017	-0.233
-521.960	166.997	-0.157	-0.221
-520.945	223.542	0.157	-0.250
-519.931	30.263	0.079	-0.067
-518.916	529.884	-0.050	-0.116
-517.902	-75.733	0.078	-0.027
-516.887	-200.000	-0.006	-0.113
-515.872	-113.243	0.123	-0.024
-514.858	79.418	0.169	-0.180
-513.843	543.173	0.084	-0.198
-512.829	264.131	0.124	0.214
-511.814	-53.522	-0.135	0.061
-510.799	-154.612	-0.108	-0.007
-509.785	-115.970	0.176	-0.032
-508.770	-85.253	-0.310	0.096
-507.756	68.622	0.033	-0.034
-506.741	-131.765	0.376	0.049
-505.726	-50.978	0.108	0.050
-504.712	-55.287	-0.186	0.083
-503.697	-100.301	0.322	-0.079
-502.683	-179.950	0.331	-0.007
-501.668	57.337	-0.226	-0.218
-500.653	58.176	-0.191	0.185
-499.639	-125.460	0.232	0.035
-498.624	-173.635	0.126	-0.004
-497.610	56.293	-0.137	0.131
-496.595	-27.074	-0.120	-0.069
-495.581	100.698	0.176	-0.202
-494.566	388.920	0.044	-0.089
-493.551	-200.000	0.003	0.185
-492.537	-13.052	-0.169	0.109
-491.522	-190.687	-0.126	0.001
-490.508	-200.000	0.041	0.200
-489.493	-200.000	0.011	-0.106
-488.478	287.155	-0.227	-0.406
-487.464	9.249	0.112	0.084
-486.449	-174.685	-0.110	0.003
-485.435	-108.478	0.392	-0.083
-484.420	-54.407	-0.111	-0.050
-483.405	495.933	-0.053	-0.120
-482.391	103.461	0.037	0.042
-481.376	72.313	0.159	-0.164
-480.362	-49.169	-0.259	-0.123
-479.347	-76.744	-0.093	0.032
-478.332	265.915	-0.047	0.082
-477.318	393.250	0.188	-0.387
-476.303	-91.063	-0.084	0.024
-475.289	800.000	0.155	-0.506
-474.274	-9.473	-0.256	-0.169
-473.259	-128.513	0.415	-0.058
-472.245	-200.000	0.011	0.156
-471.230	120.276	0.174	0.214
-470.216	800.000	0.092	-0.330
-469.201	-30.053	0.106	-0.060
-468.186	-14.790	0.322	0.204
-467.172	155.535	0.145	-0.197
-466.157	3.560	0.147	0.106
-465.143	-89.480	0.132	-0.038
-464.128	800.000	0.021	-0.071
-463.113	64.496	0.274	-0.273
-462.099	-13.368	-0.297	-0.191
-461.084	-200.000	-0.029	0.323
-460.070	104.128	-0.178	0.207
-459.055	-56.939	-0.099	-0.043
-458.040	800.000	0.061	0.255
-457.026	-7.956	-0.382	-0.255
-456.011	-79.109	0.537	-0.180
-454.997	-71.393	0.059	0.022
-453.982	-96.524	-0.086	0.022
-452.968	-5.432	0.142	-0.096
-451.953	-77.973	-0.122	-0.042
-450.938	283.588	-0.120	-0.213
-449.924	-200.000	0.025	0.142
-448.909	-127.260	0.282	0.041
-447.895	800.000	-0.036	-0.143
-446.880	48.606	-0.059	0.054
-445.865	-200.000	0.039	0.196
-444.851	723.376	0.022	0.058
-443.836	156.721	-0.066	0.090
-442.822	15.995	-0.133	0.104
-441.807	180.557	-0.134	-0.194
-440.792	800.000	-0.018	0.062
-439.778	95.166	0.096	-0.108
-438.763	-200.000	0.008	-0.073
-437.749	-200.000	0.039	-0.406
-436.734	800.000	-0.057	-0.173
-435.719	-67.616	0.143	0.055
-434.705	-52.867	0.169	-0.077
-433.690	-72.045	0.146	-0.054
-432.676	498.519	0.117	-0.266
-431.661	59.167	-0.233	0.227
-430.646	80.854	-0.196	0.209
-429.632	-25.254	-0.277	-0.162
-428.617	-149.158	0.387	-0.031
-427.603	428.449	-0.134	-0.285
-426.588	-80.456	0.102	-0.034
-425.573	673.446	-0.046	-0.118
-424.559	-54.090	-0.092	-0.041
-423.544	-108.503	0.346	-0.073
-422.530	800.000	-0.066	0.283
-421.515	412.696	0.028	0.058
-420.500	27.242	0.249	-0.206
-419.486	-200.000	-0.020	-0.200
-418.471	-14.667	0.151	0.096
-417.457	-118.702	0.200	0.035
-416.442	-200.000	0.030	0.156
-415.428	174.393	0.109	-0.156
-414.413	-93.440	-0.167	-0.046
-413.398	446.964	0.118	-0.257
-412.384	-91.599	-0.173	0.049
-411.369	47.884	-0.165	-0.152
-410.355	-111.308	-0.337	-0.068
-409.340	15.583	0.174	-0.135
-408.325	18.400	0.291	0.229
-407.311	-155.230	-0.353	-0.023
-406.296	-200.000	0.036	-0.240
-405.282	-103.371	0.073	0.017
-404.267	-200.000	0.013	-0.127
-403.252	334.965	0.090	-0.172
-402.238	-72.535	-0.325	-0.118
-401.223	381.271	0.109	-0.221
-400.209	-189.672	0.105	-0.001
-399.194	70.401	-0.371	0.378
-398.179	-58.003	0.294	0.126
-397.165	22.274	-0.138	-0.111
-396.150	-135.281	-0.364	0.043
-395.136	-133.839	-0.180	-0.022
-394.121	27.190	-0.205	-0.170
-393.106	-200.000	-0.006	0.026
-392.092	-15.814	-0.144	-0.090
-391.077	-36.992	0.134	-0.071
-390.063	575.514	0.134	0.322
-389.048	800.000	0.035	0.111
-388.033	-58.079	-0.301	0.129
-387.019	-79.090	-0.213	0.071
-386.004	5.877	0.167	0.122
-384.990	800.000	-0.029	0.116
-383.975	800.000	-0.037	0.141
-382.960	369.480	0.048	0.095
-381.946	653.359	0.065	0.165
-380.931	91.143	-0.116	-0.128
-379.917	140.657	-0.059	-0.077
-378.902	165.245	0.150	-0.208
-377.888	0.900	-0.158	0.112
-376.873	-126.972	0.148	-0.021
-375.858	223.846	0.037	0.058
-374.844	800.000	0.026	0.108
-373.829	431.191	0.121	0.259
-372.815	343.639	-0.087	-0.168
-371.800	-145.104	-0.215	-0.019
-370.785	140.461	-0.214	0.278
-369.771	473.165	-0.066	-0.146
-368.756	147.604	0.209	-0.278
-367.742	-200.000	-0.003	-0.210
-366.727	-102.888	-0.231	0.054
-365.712	800.000	0.071	-0.198
-364.698	-186.476	0.086	-0.001
-363.683	115.173	0.143	0.172
-362.669	104.378	0.203	-0.235
-361.654	77.859	-0.177	0.186
-360.639	800.000	-0.020	0.064
-359.625	-16.869	-0.369	0.230
-358.610	151.666	-0.208	0.278
-357.596	-107.678	-0.255	-0.055
-356.581	79.354	0.163	-0.172
-355.566	34.007	0.115	-0.098
-354.552	-53.687	0.038	0.017
-353.537	23.305	0.309	0.250
-352.523	139.638	0.046	0.059
-351.508	-138.989	-0.317	-0.034
-350.493	-88.879	0.370	-0.108
-349.479	-200.000	0.016	0.140
-348.464	-80.908	-0.348	0.114
-347.450	-125.055	-0.173	0.026
-346.435	674.443	-0.038	-0.096
-345.420	-200.000	0.018	0.125
-344.406	-200.000	-0.013	-0.064
-343.391	246.897	-0.089	0.148
-342.377	-200.000	0.046	0.384
-341.362	-200.000	-0.069	-0.346
-340.348	-152.664	0.438	-0.031
-339.333	39.385	-0.260	0.229
-338.318	-14.455	0.290	0.183
-337.304	179.997	-0.176	-0.254
-336.289	-6.619	-0.071	-0.047
-335.275	17.369	0.179	-0.140
-334.260	426.770	0.048	0.102
-333.245	-157.675	0.250	0.015
-332.231	-200.000	0.019	-0.086
-331.216	-99.116	0.177	-0.044
-330.202	97.340	0.080	0.090
-329.187	-131.845	-0.457	-0.059
-328.172	-200.000	-0.004	-0.256
-327.158	38.533	0.248	0.217
-326.143	-200.000	0.036	0.234
-325.129	-200.000	-0.028	-0.147
-324.114	556.287	-0.083	0.195
-323.099	391.692	-0.025	-0.052
-322.085	-200.000	0.042	0.271
-321.070	-70.775	0.118	-0.044
-320.056	-197.045	-0.091	0.001
-319.041	262.707	0.106	0.180
-318.026	-139.492	0.265	0.028
-317.012	52.433	-0.123	0.115
-315.997	27.524	-0.212	-0.175
-314.983	-200.000	0.027	-0.180
-313.968	109.227	-0.171	0.202
-312.953	775.309	0.056	-0.149
-311.939	368.248	0.110	-0.219
-310.924	254.853	-0.104	0.175
-309.910	-6.214	0.044	-0.030
-308.895	-200.000	0.017	0.328
-307.880	-200.000	-0.045	-0.253
-306.866	800.000	0.030	0.108
-305.851	17.682	-0.190	-0.149
-304.837	-200.000	-0.045	-0.247
-303.822	-32.859	0.090	0.049
-302.807	-200.000	-0.010	-0.088
-301.793	-200.000	-0.001	0.028
-300.778	397.257	0.107	-0.220
-299.764	-135.222	-0.276	-0.032
-298.749	-200.000	0.031	0.197
-297.735	-144.433	-0.238	0.022
-296.720	-55.163	0.142	0.063
-295.705	800.000	-0.054	0.211
-294.691	-180.628	0.066	0.001
-293.676	-200.000	-0.056	-0.373
-292.662	-90.027	0.188	0.054
-291.647	-112.123	0.199	-0.039
-290.632	662.763	-0.159	-0.404
-289.618	-200.000	-0.014	0.221
-288.603	-59.856	-0.089	0.038
-287.589	-37.288	0.288	0.151
-286.574	-108.134	0.324	-0.069
-285.559	-91.995	-0.292	0.081
-284.545	46.382	0.134	0.122
-283.530	77.591	0.171	0.178
-282.516	-154.283	-0.114	-0.008
-281.501	-200.000	-0.042	0.252
-280.486	800.000	0.057	-0.203
-279.472	66.962	0.120	0.120
-278.457	-74.543	0.218	0.077
-277.443	-200.000	-0.031	-0.199
-276.428	-125.633	0.124	0.018
-275.413	644.157	-0.154	-0.385
-274.399	110.646	-0.104	0.122
-273.384	800.000	-0.087	0.281
-272.370	-19.888	-0.454	-0.275
-271.355	-140.158	0.275	0.028
-270.340	181.521	-0.119	0.171
-269.326	-36.016	-0.190	0.101
-268.311	244.562	-0.040	0.067
-267.297	-31.517	-0.212	0.117
-266.282	800.000	-0.106	-0.368
-265.267	-39.664	0.318	-0.163
-264.253	-200.000	-0.013	0.196
-263.238	-1.670	-0.128	0.089
-262.224	-29.890	-0.208	0.116
-261.209	304.400	0.195	-0.355
-260.195	-172.583	0.345	0.011
-259.180	-200.000	-0.007	0.230
-258.165	-151.682	0.131	0.009
-257.151	49.851	-0.211	0.195
-256.136	73.059	0.209	-0.214
-255.122	-200.000	-0.009	0.074
-254.107	93.146	-0.305	0.338
-253.092	-31.945	0.069	0.038
-252.078	7.775	0.279	-0.205
-251.063	-72.427	-0.180	0.065
-250.049	-200.000	0.007	-0.040
-249.034	224.063	0.101	0.160
-248.019	419.676	0.174	-0.365
-247.005	287.813	-0.029	-0.052
-245.990	130.359	-0.239	0.299
-244.976	88.990	0.276	-0.301
-243.961	168.729	0.344	0.480
-242.946	84.606	0.067	-0.072
-241.932	13.524	0.401	-0.305
-240.917	35.730	0.213	0.183
-239.903	10.410	-0.258	-0.192
-238.888	-10.294	0.166	-0.108
-237.873	-200.000	-0.020	0.122
-236.859	297.875	-0.077	0.139
-235.844	-70.938	-0.329	0.121
-234.830	-200.000	-0.006	0.146
-233.815	651.485	-0.054	0.135
-232.800	-9.054	-0.207	-0.136
-231.786	-46.155	0.272	-0.131
-230.771	-48.907	-0.355	0.167
-229.757	-47.729	0.202	0.096
-228.742	26.679	0.169	-0.139
-227.727	-28.290	0.209	0.118
-226.713	71.023	0.099	-0.100
-225.698	63.506	0.114	-0.112
-224.684	800.000	0.141	0.407
-223.669	188.691	0.155	-0.227
-222.655	800.000	-0.061	0.187
-221.640	-19.618	-0.105	-0.063
-220.625	46.883	0.034	0.031
-219.611	-200.000	0.044	0.269
-218.596	276.082	-0.087	0.151
-217.582	279.367	-0.026	-0.046
-216.567	-47.343	0.138	-0.066
-215.552	335.212	-0.148	0.281
-214.538	67.072	-0.209	0.208
-213.523	-129.508	0.416	-0.056
-212.509	8.136	-0.223	-0.164
-211.494	-37.931	0.406	-0.211
-210.479	-43.885	-0.234	-0.115
-209.465	-140.173	-0.326	0.034
-208.450	516.387	-0.064	0.147
-207.436	-79.785	-0.154	-0.051
-206.421	263.256	0.044	-0.075
-205.406	-29.777	0.137	0.077
-204.392	66.698	-0.183	0.182
-203.377	-200.000	-0.037	-0.327
-202.363	-114.909	-0.586	-0.109
-201.348	134.760	0.321	0.408
-200.333	-200.000	-0.026	0.270
-199.319	-97.485	0.110	-0.028
-198.304	296.181	-0.107	-0.192
-197.290	-200.000	0.004	-0.066
-196.275	-57.750	0.162	-0.069
-195.260	-24.395	0.072	-0.042
-194.246	-82.906	-0.179	-0.057
-193.231	190.136	-0.124	-0.182
-192.217	155.109	0.146	-0.196
-191.202	-198.443	0.160	-0.001
-190.187	169.160	0.097	-0.136
-189.173	-13.123	-0.063	0.040
-188.158	646.475	0.113	0.282
-187.144	-112.685	-0.051	0.010
-186.129	-187.644	0.033	0.000
-185.114	-200.000	-0.048	0.215
-184.100	-200.000	0.022	0.129
-183.085	137.404	-0.038	0.049
-182.071	267.935	0.053	-0.091
-181.056	-200.000	-0.025	0.229
-180.042	-147.190	-0.168	-0.014
-179.027	-119.002	-0.025	-0.004
-178.012	-200.000	0.040	0.000
-176.998	55.967	0.044	-0.042
-175.983	-6.359	0.166	-0.110
-174.969	-153.984	0.071	0.005
-173.954	176.669	0.041	0.059
-172.939	162.279	0.143	-0.195
-171.925	-131.191	0.044	0.006
-170.910	800.000	0.095	0.328
-169.896	-94.927	0.249	0.066
-168.881	253.149	0.031	-0.052
-167.866	-17.465	0.144	0.089
-166.852	-78.360	0.131	-0.044
-165.837	515.657	-0.102	0.233
-164.823	683.749	0.172	0.438
-163.808	280.662	0.204	-0.357
-162.793	-20.652	0.223	0.134
-161.779	292.244	-0.070	0.125
-160.764	-200.000	0.026	0.176
-159.750	-101.487	-0.228	-0.054
-158.735	-200.000	-0.021	-0.176
-157.720	800.000	0.086	-0.239
-156.706	-200.000	0.028	0.343
-155.691	-120.858	0.287	0.047
-154.677	14.150	0.212	0.161
-153.662	-200.000	0.028	0.271
-152.647	-142.344	-0.279	-0.027
-151.633	-200.000	-0.016	0.182
-150.618	617.438	-0.123	0.300
-149.604	-166.602	-0.143	-0.006
-148.589	212.876	-0.123	-0.190
-147.574	800.000	-0.078	0.233
-146.560	-153.944	0.125	-0.008
-145.545	85.030	-0.153	0.164
-144.531	-142.170	0.325	0.031
-143.516	87.523	0.156	0.169
-142.502	45.447	0.114	0.103
-141.487	-104.605	-0.374	0.084
-140.472	14.581	0.068	0.052
-139.458	-109.938	-0.220	-0.045
-138.443	800.000	-0.079	0.217
-137.429	-200.000	-0.096	0.476
-136.414	-200.000	-0.002	-0.287
-135.399	247.988	0.012	0.020
-134.385	85.656	-0.071	-0.076
-133.370	65.083	0.253	0.250
-132.356	128.959	-0.074	0.093
-131.341	-138.848	-0.318	-0.034
-130.326	-99.236	0.108	-0.027
-129.312	-84.903	0.206	-0.063
-128.297	-65.671	-0.206	0.081
-127.283	-0.188	-0.073	-0.051
-126.268	25.194	0.360	-0.292
-125.253	-200.000	0.010	0.315
-124.239	-52.929	-0.144	0.065
-123.224	-170.711	-0.159	-0.005
-122.210	58.031	0.282	0.269
-121.195	453.628	0.030	-0.065
