DTS Sentinel unit serial number:	SN413079Multiplexer serial number:	ORYXHardware model number:	OX4-SRSoftware version number:	ORYX F/W v4.00 Oryx Data Collector v3.7.2.0data status	okinstallation	princeton_trtdifferential loss correction	single-endedforward channel	channel 3reverse channel	N/Adate	2019/09/16time	17:04:35forward acquisition time	60.00reverse acquisition time	0.00gamma	496.2192k internal	0.2296k external	0.2296temperature offset calibration	0.9948default loss term (dB/km)	0.3790temperature slope calibration	1.0000multiplexer offset coefficient	1.0000multiplexer slope coefficient	1.0000fibre end	0.00T internal ref (°C)	39.19T ext. ref 1 (°C)	15.31T ext. ref 2 (°C)	33.42length (m)	temperature (°C)	Stokes	anti-Stokes-747.200	252.587	0.280	0.488
-746.185	-128.432	-0.167	-0.024
-745.171	-200.000	-0.009	0.238
-744.156	-80.418	-0.235	-0.080
-743.142	77.531	0.237	0.257
-742.127	-200.000	-0.025	0.156
-741.112	-200.000	-0.001	-0.044
-740.098	-115.932	0.184	0.035
-739.083	-200.000	-0.031	-0.181
-738.069	-200.000	0.052	0.308
-737.054	-137.115	-0.291	-0.034
-736.039	-200.000	-0.006	0.389
-735.025	-57.180	0.382	-0.172
-734.010	561.492	-0.174	0.430
-732.996	395.204	-0.097	0.206
-731.981	114.774	-0.133	-0.165
-730.966	144.041	-0.302	-0.412
-729.952	-20.793	-0.135	-0.084
-728.937	-200.000	0.367	0.002
-727.923	369.253	0.066	-0.137
-726.908	-152.795	-0.096	-0.007
-725.894	-200.000	-0.047	-0.288
-724.879	88.703	-0.106	0.120
-723.864	800.000	-0.096	0.303
-722.850	-200.000	-0.027	-0.137
-721.835	-69.968	0.298	-0.116
-720.821	236.465	0.058	-0.099
-719.806	1.119	-0.197	-0.145
-718.791	-200.000	0.045	0.344
-717.777	-137.870	0.009	0.001
-716.762	-200.000	-0.059	-0.277
-715.748	-87.868	-0.224	-0.069
-714.733	-59.639	-0.241	-0.106
-713.718	-98.250	-0.286	-0.075
-712.704	123.324	0.186	-0.237
-711.689	-142.767	0.142	0.014
-710.675	-200.000	0.049	-0.464
-709.660	-123.943	-0.199	0.032
-708.645	15.879	-0.152	-0.122
-707.631	17.956	-0.177	-0.144
-706.616	-80.002	0.472	0.162
-705.602	-200.000	-0.037	-0.202
-704.587	-200.000	-0.023	-0.243
-703.572	800.000	-0.068	-0.297
-702.558	-21.765	0.101	-0.062
-701.543	-121.207	-0.355	-0.061
-700.529	-66.964	0.167	0.067
-699.514	68.139	-0.248	-0.259
-698.499	65.070	0.258	-0.266
-697.485	-173.755	0.196	0.006
-696.470	442.486	0.089	0.199
-695.456	94.340	0.237	-0.275
-694.441	8.955	-0.175	-0.134
-693.426	583.115	-0.079	0.198
-692.412	114.997	0.204	0.254
-691.397	204.357	0.060	0.096
-690.383	-113.103	-0.297	0.060
-689.368	-123.238	-0.355	-0.058
-688.354	-64.949	0.125	0.051
-687.339	-5.530	-0.196	0.137
-686.324	20.673	0.105	0.086
-685.310	348.123	-0.131	-0.262
-684.295	154.251	-0.056	0.078
-683.281	242.992	-0.097	-0.165
-682.266	78.138	-0.216	-0.235
-681.251	-200.000	-0.036	0.216
-680.237	-196.999	0.165	0.001
-679.222	-200.000	0.059	-0.271
-678.208	109.385	-0.183	-0.223
-677.193	-200.000	-0.070	0.337
-676.178	11.215	-0.153	-0.119
-675.164	-200.000	-0.042	-0.282
-674.149	200.668	-0.084	0.132
-673.135	-200.000	0.304	0.001
-672.120	202.751	-0.060	-0.095
-671.105	-59.993	0.083	-0.036
-670.091	-200.000	0.008	0.038
-669.076	-39.675	0.030	-0.016
-668.062	10.149	0.127	0.098
-667.047	-87.535	0.216	-0.066
-666.032	210.127	-0.052	-0.083
-665.018	66.844	0.030	0.032
-664.003	-200.000	0.026	-0.119
-662.989	-7.063	0.222	0.153
-661.974	-109.170	-0.263	0.057
-660.959	-200.000	0.001	0.115
-659.945	-200.000	0.025	0.147
-658.930	17.878	0.116	0.094
-657.916	-200.000	0.037	-0.257
-656.901	-53.902	0.385	-0.178
-655.886	-117.455	0.505	-0.093
-654.872	427.099	0.072	0.159
-653.857	168.658	0.222	0.322
-652.843	-16.841	0.361	-0.233
-651.828	-200.000	0.026	0.229
-650.814	-200.000	0.046	-0.408
-649.799	-52.476	0.065	0.031
-648.784	-98.944	-0.219	0.057
-647.770	-90.235	0.183	-0.054
-646.755	100.916	-0.063	0.075
-645.741	-200.000	-0.003	-0.204
-644.726	-97.891	0.109	-0.029
-643.711	7.348	-0.233	-0.177
-642.697	-93.153	-0.033	-0.009
-641.682	-200.000	-0.016	-0.097
-640.668	-200.000	0.024	0.282
-639.653	-200.000	0.015	0.119
-638.638	800.000	-0.044	-0.176
-637.624	497.920	-0.114	-0.268
-636.609	-68.117	-0.356	-0.141
-635.595	-200.000	-0.024	-0.115
-634.580	800.000	0.089	0.336
-633.565	-61.892	-0.129	0.055
-632.551	76.425	-0.247	-0.267
-631.536	-59.117	-0.324	0.142
-630.522	-1.109	0.364	-0.262
-629.507	-29.307	-0.165	0.096
-628.492	-200.000	0.014	0.114
-627.478	800.000	-0.037	0.122
-626.463	-22.861	-0.114	0.070
-625.449	-82.100	0.153	0.051
-624.434	-200.000	-0.047	-0.338
-623.419	-71.131	-0.032	-0.012
-622.405	183.157	-0.158	0.238
-621.390	-48.038	0.294	-0.145
-620.376	-200.000	0.003	-0.242
-619.361	-139.289	-0.063	0.007
-618.346	294.707	-0.028	-0.051
-617.332	168.719	0.233	-0.338
-616.317	284.344	0.105	-0.193
-615.303	-200.000	-0.019	-0.103
-614.288	-200.000	-0.009	-0.251
-613.273	6.283	-0.012	0.009
-612.259	-141.930	-0.155	0.016
-611.244	284.785	-0.078	0.142
-610.230	-200.000	-0.025	-0.111
-609.215	267.318	-0.091	0.162
-608.201	49.175	0.154	0.147
-607.186	88.797	0.018	0.021
-606.171	800.000	-0.084	-0.344
-605.157	-154.058	0.211	0.015
-604.142	514.983	0.144	0.342
-603.128	800.000	-0.036	0.136
-602.113	-200.000	-0.450	-0.002
-601.098	-84.474	-0.238	0.076
-600.084	-25.655	0.144	0.086
-599.069	-11.001	-0.179	-0.120
-598.055	-200.000	0.020	-0.304
-597.040	-169.866	0.165	-0.006
-596.025	-200.000	-0.015	0.356
-595.011	335.483	0.096	0.189
-593.996	795.087	0.154	-0.432
-592.982	800.000	-0.010	-0.037
-591.967	-70.762	0.298	-0.114
-590.952	353.754	0.130	-0.262
-589.938	-100.559	-0.273	-0.069
-588.923	-121.155	-0.426	0.072
-587.909	800.000	0.048	-0.164
-586.894	-31.885	0.189	-0.108
-585.879	379.905	0.088	0.182
-584.865	68.772	0.059	0.062
-583.850	318.917	-0.085	-0.164
-582.836	109.076	0.076	-0.093
-581.821	-200.000	0.032	-0.231
-580.806	-111.860	-0.086	0.018
-579.792	7.017	0.154	-0.117
-578.777	-172.751	-0.235	0.007
-577.763	-35.723	0.307	0.169
-576.748	-36.078	0.152	0.083
-575.733	59.966	-0.319	-0.320
-574.719	-200.000	-0.048	-0.308
-573.704	168.141	0.211	-0.305
-572.690	-200.000	0.017	-0.397
-571.675	800.000	-0.168	-0.484
-570.661	-68.586	0.261	-0.102
-569.646	800.000	-0.030	-0.090
-568.631	36.821	0.076	-0.068
-567.617	-126.470	-0.130	-0.020
-566.602	-19.650	-0.234	0.147
-565.588	-51.526	0.402	-0.191
-564.573	-200.000	0.007	-0.442
-563.558	-11.137	0.210	0.140
-562.544	-122.302	0.267	0.044
-561.529	-200.000	-0.021	0.367
-560.515	-10.532	-0.248	-0.167
-559.500	-200.000	0.011	0.092
-558.485	-200.000	0.009	-0.076
-557.471	-86.680	0.383	-0.119
-556.456	18.818	0.026	-0.021
-555.442	561.892	-0.157	0.385
-554.427	53.207	0.194	0.188
-553.412	-200.000	0.045	0.284
-552.398	800.000	0.037	-0.144
-551.383	16.287	0.083	0.067
-550.369	-200.000	0.037	-0.266
-549.354	-200.000	-0.062	0.443
-548.339	-200.000	0.006	0.128
-547.325	146.389	0.106	-0.144
-546.310	-111.600	0.209	-0.043
-545.296	-81.300	-0.088	-0.029
-544.281	-72.059	-0.173	0.065
-543.266	111.808	0.309	0.378
-542.252	47.319	0.313	0.295
-541.237	197.876	-0.125	0.193
-540.223	77.503	-0.122	-0.132
-539.208	501.239	-0.186	-0.436
-538.193	-105.791	0.320	-0.073
-537.179	106.771	0.154	-0.186
-536.164	-68.519	-0.110	-0.043
-535.150	800.000	0.113	-0.486
-534.135	27.328	0.167	-0.142
-533.121	21.379	0.117	-0.096
-532.106	-200.000	-0.029	0.146
-531.091	-126.854	0.399	0.060
-530.077	-200.000	0.035	0.215
-529.062	246.548	-0.159	0.271
-528.048	-42.019	0.288	-0.149
-527.033	511.769	0.036	-0.086
-526.018	-6.043	0.092	0.064
-525.004	-173.833	-0.228	0.007
-523.989	-42.489	-0.197	-0.102
-522.975	-40.976	-0.151	-0.079
-521.960	-53.309	-0.101	-0.047
-520.945	6.745	0.302	0.228
-519.931	-25.560	-0.127	-0.076
-518.916	-47.431	-0.209	-0.103
-517.902	-6.974	-0.405	0.279
-516.887	485.917	-0.068	0.157
-515.872	7.088	-0.078	0.059
-514.858	-11.488	0.134	-0.089
-513.843	647.281	-0.094	0.242
-512.829	-125.637	-0.310	0.048
-511.814	-200.000	-0.078	-0.417
-510.799	91.194	-0.120	-0.136
-509.785	-200.000	-0.001	-0.145
-508.770	-4.687	0.207	0.145
-507.756	85.502	0.114	0.126
-506.741	204.513	0.074	-0.115
-505.726	-119.180	-0.530	-0.094
-504.712	-67.786	0.187	-0.074
-503.697	161.004	-0.093	-0.132
-502.683	-4.349	0.201	-0.141
-501.668	226.722	-0.272	0.448
-500.653	144.831	0.121	0.164
-499.639	-38.433	0.058	-0.031
-498.624	781.040	0.119	-0.330
-497.610	-14.705	0.095	-0.062
-496.595	13.788	0.062	-0.048
-495.581	-128.221	0.155	0.022
-494.566	73.302	0.062	0.066
-493.551	305.399	-0.170	-0.320
-492.537	800.000	0.070	-0.294
-491.522	-65.079	0.083	-0.034
-490.508	-2.554	0.064	0.046
-489.493	-20.067	0.111	-0.069
-488.478	96.203	-0.255	-0.295
-487.464	253.935	0.048	0.084
-486.449	-163.157	-0.180	0.009
-485.435	339.439	-0.056	-0.111
-484.420	-200.000	0.010	0.137
-483.405	13.350	-0.109	0.085
-482.391	-200.000	0.006	-0.155
-481.376	-46.315	-0.143	-0.071
-480.362	77.737	0.078	0.084
-479.347	14.149	0.053	0.042
-478.332	-139.910	-0.282	0.030
-477.318	93.527	-0.062	-0.071
-476.303	-67.574	0.107	-0.042
-475.289	57.619	-0.116	-0.115
-474.274	138.332	0.158	-0.210
-473.259	-56.139	-0.150	0.068
-472.245	-166.990	0.111	-0.005
-471.230	800.000	-0.080	0.240
-470.216	-200.000	0.043	-0.250
-469.201	800.000	0.052	0.224
-468.186	-164.998	0.075	-0.003
-467.172	800.000	0.086	-0.303
-466.157	163.437	-0.135	-0.192
-465.143	570.440	-0.152	-0.375
-464.128	387.263	0.063	0.133
-463.113	25.539	-0.161	0.135
-462.099	-200.000	-0.005	-0.087
-461.084	-17.524	0.102	-0.065
-460.070	-173.797	0.088	-0.003
-459.055	-50.891	0.129	0.061
-458.040	13.611	-0.175	0.138
-457.026	-65.587	0.430	0.175
-456.011	-104.839	-0.335	-0.078
-454.997	-200.000	0.043	-0.289
-453.982	-63.714	0.266	0.110
-452.968	237.194	-0.139	-0.233
-451.953	-47.578	-0.188	-0.092
-450.938	118.754	-0.102	-0.128
-449.924	-41.239	0.158	0.083
-448.909	52.249	0.247	0.238
-447.895	-87.171	0.168	-0.051
-446.880	-144.964	-0.016	-0.001
-445.865	-17.221	0.259	0.165
-444.851	83.916	-0.130	-0.143
-443.836	378.358	0.080	-0.166
-442.822	-106.100	0.159	0.036
-441.807	800.000	-0.101	-0.307
-440.792	19.615	0.108	0.087
-439.778	146.942	-0.181	-0.246
-438.763	308.539	0.104	0.196
-437.749	-54.294	-0.242	-0.111
-436.734	42.154	-0.358	-0.328
-435.719	-200.000	-0.051	-0.291
-434.705	265.331	-0.142	0.251
-433.690	48.630	-0.175	0.166
-432.676	800.000	0.038	-0.145
-431.661	-93.747	0.203	-0.057
-430.646	208.609	-0.166	-0.263
-429.632	79.370	-0.253	0.274
-428.617	-69.012	-0.080	0.031
-427.603	-200.000	0.016	0.318
-426.588	800.000	-0.106	-0.298
-425.573	453.289	-0.021	-0.047
-424.559	-200.000	0.002	0.086
-423.544	-200.000	0.092	0.482
-422.530	-19.351	-0.293	-0.183
-421.515	-200.000	-0.033	-0.209
-420.500	-105.738	0.136	-0.031
-419.486	351.394	0.111	0.222
-418.471	537.921	-0.021	-0.050
-417.457	-200.000	0.256	0.000
-416.442	800.000	0.024	0.083
-415.428	-81.822	0.015	-0.005
-414.413	-34.107	-0.067	0.037
-413.398	-96.548	0.119	-0.032
-412.384	800.000	-0.029	-0.095
-411.369	-200.000	-0.046	0.244
-410.355	-115.900	0.050	0.009
-409.340	230.817	-0.225	-0.372
-408.325	644.065	-0.102	0.263
-407.311	90.014	-0.165	-0.186
-406.296	-176.654	0.318	0.008
-405.282	109.764	0.175	-0.211
-404.267	-200.000	-0.009	0.078
-403.252	163.679	-0.239	0.339
-402.238	-125.319	0.147	0.023
-401.223	488.327	0.073	0.167
-400.209	-3.590	-0.166	-0.117
-399.194	-154.360	-0.407	-0.028
-398.179	74.771	0.187	0.198
-397.165	290.742	0.062	0.113
-396.150	800.000	0.021	0.067
-395.136	99.455	-0.130	-0.151
-394.121	-44.527	-0.248	-0.125
-393.106	-103.869	0.103	-0.024
-392.092	-200.000	-0.027	-0.252
-391.077	-98.875	-0.205	0.053
-390.063	44.192	-0.087	0.081
-389.048	53.972	-0.111	0.108
-388.033	365.216	0.058	0.118
-387.019	-200.000	-0.029	0.196
-386.004	528.968	0.134	0.318
-384.990	30.408	-0.177	0.152
-383.975	73.887	-0.107	-0.113
-382.960	-68.491	-0.173	-0.068
-381.946	-90.915	0.263	0.076
-380.931	355.015	0.036	-0.073
-379.917	-54.999	0.252	0.115
-378.902	150.147	-0.205	0.280
-377.888	-117.694	0.391	0.071
-376.873	587.382	0.140	0.346
-375.858	-34.820	0.262	0.144
-374.844	-31.993	-0.269	0.152
-373.829	45.259	0.148	-0.137
-372.815	-200.000	-0.001	0.045
-371.800	455.875	-0.084	0.187
-370.785	800.000	0.051	0.212
-369.771	183.598	0.079	-0.118
-368.756	-69.160	0.093	0.036
-367.742	-200.000	0.084	-0.429
-366.727	114.781	0.134	-0.164
-365.712	107.276	0.194	0.232
-364.698	-29.612	0.261	0.150
-363.683	-3.176	0.174	0.122
-362.669	-72.567	0.222	0.082
-361.654	-113.832	-0.263	0.052
-360.639	-98.471	-0.054	0.014
-359.625	-200.000	0.002	-0.201
-358.610	-98.612	-0.283	-0.073
-357.596	-133.913	0.063	-0.008
-356.581	624.492	-0.055	0.139
-355.566	800.000	-0.076	0.320
-354.552	276.060	0.060	0.107
-353.537	-0.892	0.123	0.088
-352.523	516.700	-0.078	0.184
-351.508	-146.687	-0.312	0.027
-350.493	-67.811	-0.201	0.079
-349.479	-200.000	-0.059	0.399
-348.464	-101.992	-0.098	0.024
-347.450	18.095	0.294	-0.236
-346.435	1.771	0.143	0.104
-345.420	38.161	0.078	-0.070
-344.406	398.163	-0.090	-0.190
-343.391	-2.015	0.179	0.127
-342.377	-200.000	-0.007	0.175
-341.362	-36.223	-0.310	-0.168
-340.348	527.823	0.081	0.193
-339.333	-200.000	-0.052	-0.255
-338.318	563.519	-0.085	-0.207
-337.304	800.000	0.022	0.076
-336.289	527.369	-0.098	-0.233
-335.275	35.423	-0.110	-0.097
-334.260	201.819	-0.170	0.263
-333.245	800.000	-0.097	-0.285
-332.231	-200.000	0.056	0.294
-331.216	171.698	-0.238	0.344
-330.202	-28.938	0.021	0.012
-329.187	48.598	-0.221	-0.209
-328.172	-200.000	-0.013	-0.215
-327.158	-200.000	0.069	0.417
-326.143	-77.484	0.147	0.051
-325.129	-7.981	0.084	-0.057
-324.114	-164.219	0.044	-0.002
-323.099	394.523	-0.106	0.223
-322.085	85.589	0.165	-0.182
-321.070	-118.953	-0.049	-0.009
-320.056	147.393	-0.178	0.241
-319.041	-161.763	-0.291	0.015
-318.026	-120.821	-0.038	0.006
-317.012	-200.000	-0.011	0.060
-315.997	180.606	0.075	0.111
-314.983	-151.250	-0.103	0.008
-313.968	800.000	-0.094	-0.274
-312.953	-59.665	0.175	-0.075
-311.939	-200.000	-0.010	-0.195
-310.924	352.850	-0.116	-0.231
-309.910	765.691	-0.090	-0.246
-308.895	-84.788	0.262	0.083
-307.880	-107.748	-0.334	-0.073
-306.866	64.828	-0.188	0.191
-305.851	-200.000	0.012	0.122
-304.837	-200.000	-0.010	0.253
-303.822	94.967	-0.086	-0.099
-302.807	170.297	-0.064	0.092
-301.793	-3.853	-0.077	-0.054
-300.778	800.000	-0.078	-0.278
-299.764	-132.223	-0.114	-0.015
-298.749	-120.341	0.104	-0.018
-297.735	14.228	0.036	0.029
-296.720	800.000	0.074	0.326
-295.705	8.287	0.194	0.146
-294.691	69.399	-0.043	0.044
-293.676	-134.600	-0.369	-0.045
-292.662	-51.813	-0.255	0.119
-291.647	7.091	0.157	0.117
-290.632	-40.110	-0.098	-0.051
-289.618	-8.918	-0.020	0.013
-288.603	-200.000	-0.012	-0.098
-287.589	721.639	-0.081	0.217
-286.574	-92.184	0.234	0.066
-285.559	-60.603	-0.166	-0.071
-284.545	224.825	-0.022	0.036
-283.530	-64.948	-0.275	0.112
-282.516	-92.481	-0.170	0.048
-281.501	-185.648	0.442	0.007
-280.486	102.808	0.216	0.254
-279.472	-90.790	-0.181	-0.052
-278.457	665.634	0.147	-0.380
-277.443	720.008	0.196	0.522
-276.428	58.966	0.045	0.045
-275.413	800.000	0.055	-0.181
-274.399	97.811	0.040	-0.046
-273.384	-100.569	0.180	0.045
-272.370	-120.488	0.298	0.051
-271.355	37.852	0.290	0.259
-270.340	-200.000	0.063	0.306
-269.326	-42.448	0.207	-0.106
-268.311	-170.809	0.085	-0.003
-267.297	-34.018	0.257	-0.142
-266.282	-200.000	0.063	0.353
-265.267	-30.960	-0.199	0.112
-264.253	-123.990	-0.231	-0.036
-263.238	-87.387	0.116	0.035
-262.224	196.193	0.035	0.054
-261.209	205.175	0.202	0.315
-260.195	220.716	0.091	0.147
-259.180	-11.776	0.108	0.071
-258.165	-136.784	-0.078	0.009
-257.151	-200.000	0.036	-0.391
-256.136	270.600	0.016	-0.029
-255.122	800.000	0.061	-0.255
-254.107	-151.968	0.265	-0.019
-253.092	-132.413	0.172	0.022
-252.078	-87.748	0.301	-0.091
-251.063	410.302	-0.043	0.091
-250.049	468.013	0.097	-0.217
-249.034	-158.078	0.358	0.021
-248.019	52.486	-0.228	0.218
-247.005	-8.348	0.044	-0.029
-245.990	102.195	0.180	0.211
-244.976	132.052	0.021	-0.027
-243.961	201.378	0.084	-0.130
-242.946	20.476	-0.068	0.055
-241.932	162.567	0.107	0.151
-240.917	-139.045	-0.142	0.015
-239.903	266.419	0.121	0.213
-238.888	-2.862	-0.327	0.229
-237.873	266.586	-0.112	0.196
-236.859	489.510	0.104	-0.239
-235.844	-158.140	0.170	0.010
-234.830	800.000	0.055	0.175
-233.815	276.466	0.108	0.192
-232.800	-118.653	-0.225	0.040
-231.786	800.000	0.022	0.068
-230.771	274.073	-0.161	-0.285
-229.757	-40.802	0.185	0.096
-228.742	50.676	0.353	-0.335
-227.727	465.459	-0.079	-0.177
-226.713	-94.994	-0.105	0.029
-225.698	-33.584	0.113	0.062
-224.684	-200.000	0.041	0.347
-223.669	-123.278	0.207	0.033
-222.655	384.622	0.115	0.237
-221.640	-200.000	-0.004	-0.171
-220.625	-118.327	-0.449	0.080
-219.611	800.000	-0.012	0.041
-218.596	285.509	-0.062	-0.111
-217.582	216.703	0.090	-0.144
-216.567	-157.383	-0.473	0.029
-215.552	191.079	0.171	-0.258
-214.538	499.770	-0.085	0.196
-213.523	65.955	-0.049	-0.050
-212.509	-200.000	0.001	-0.199
-211.494	-35.416	-0.155	-0.084
-210.479	-119.880	0.111	-0.019
-209.465	236.948	-0.051	0.084
-208.450	180.701	0.100	0.147
-207.436	-84.294	-0.176	0.056
-206.421	-196.193	0.366	0.003
-205.406	73.882	-0.180	-0.189
-204.392	738.151	0.126	0.338
-203.377	720.896	-0.102	0.271
-202.363	32.663	-0.181	-0.157
-201.348	800.000	-0.032	0.134
-200.333	-200.000	0.057	-0.277
-199.319	261.305	-0.008	-0.014
-198.304	800.000	-0.048	-0.152
-197.290	-200.000	0.014	0.432
-196.275	-138.168	0.153	0.017
-195.260	94.712	0.224	0.254
-194.246	-19.098	-0.121	-0.075
-193.231	-109.027	-0.165	0.035
-192.217	800.000	0.067	0.240
-191.202	474.432	0.083	0.186
-190.187	-172.571	0.126	-0.004
-189.173	37.015	-0.106	-0.093
-188.158	-123.921	-0.124	0.020
-187.144	191.130	-0.149	-0.224
-186.129	-12.237	0.280	-0.183
-185.114	-200.000	0.017	0.113
-184.100	590.152	-0.128	0.316
-183.085	49.563	0.215	0.202
-182.071	-200.000	0.023	-0.106
-181.056	216.369	0.117	0.185
-180.042	800.000	0.090	0.266
-179.027	800.000	-0.035	0.138
-178.012	-81.623	0.158	0.052
-176.998	-200.000	-0.012	-0.088
-175.983	-200.000	-0.026	0.280
-174.969	235.997	-0.053	-0.088
-173.954	-200.000	-0.010	-0.152
-172.939	488.922	-0.117	0.268
-171.925	86.145	-0.169	0.186
-170.910	-13.531	-0.282	0.183
-169.896	-30.572	-0.092	-0.052
-168.881	-200.000	0.001	-0.221
-167.866	440.657	-0.077	0.169
-166.852	-72.354	0.176	-0.065
-165.837	125.375	-0.075	0.095
-164.823	-138.104	-0.101	0.011
-163.808	-74.335	0.173	-0.062
-162.793	-200.000	-0.003	0.076
-161.779	-16.636	0.135	-0.085
-160.764	-200.000	-0.022	-0.349
-159.750	-62.260	-0.054	-0.022
-158.735	653.530	-0.119	-0.304
-157.720	800.000	-0.093	0.336
-156.706	-200.000	-0.002	0.045
-155.691	-200.000	0.010	-0.373
-154.677	13.372	-0.312	-0.242
-153.662	800.000	0.045	-0.136
-152.647	-200.000	0.034	-0.258
-151.633	529.648	-0.076	-0.179
-150.618	800.000	0.023	-0.073
-149.604	-27.123	-0.375	0.219
-148.589	800.000	-0.044	0.162
-147.574	-200.000	0.043	-0.226
-146.560	84.138	0.169	-0.184
-145.545	800.000	0.054	0.194
-144.531	-179.190	-0.204	-0.005
-143.516	85.424	0.053	0.059
-142.502	157.265	0.089	-0.123
-141.487	-100.134	-0.240	0.060
-140.472	19.526	-0.312	0.251
-139.458	-72.630	0.162	0.060
-138.443	67.378	0.292	-0.298
-137.429	-118.876	-0.163	0.029
-136.414	-44.860	-0.231	0.115
-135.399	800.000	0.019	0.057
-134.385	87.449	0.095	0.105
-133.370	-24.013	0.357	0.213
-132.356	-20.603	0.056	-0.034
-131.341	-129.134	-0.279	-0.039
-130.326	118.444	0.166	0.205
-129.312	583.825	-0.107	0.263
-128.297	800.000	-0.086	-0.254
-127.283	-18.948	-0.282	-0.175
-126.268	-113.593	0.242	-0.047
-125.253	4.862	-0.146	0.107
-124.239	187.471	0.142	0.211
-123.224	124.239	-0.057	-0.072
-122.210	-149.709	-0.177	0.014
-121.195	-108.219	-0.296	-0.064
