DTS Sentinel unit serial number:	SN413079Multiplexer serial number:	ORYXHardware model number:	OX4-SRSoftware version number:	ORYX F/W v4.00 Oryx Data Collector v3.7.2.0data status	okinstallation	princeton_trtdifferential loss correction	single-endedforward channel	channel 3reverse channel	N/Adate	2019/09/19time	00:44:35forward acquisition time	60.00reverse acquisition time	0.00gamma	496.2192k internal	0.2347k external	0.2347temperature offset calibration	0.9992default loss term (dB/km)	0.3790temperature slope calibration	1.0000multiplexer offset coefficient	1.0000multiplexer slope coefficient	1.0000fibre end	0.00T internal ref (°C)	22.19T ext. ref 1 (°C)	0.73T ext. ref 2 (°C)	15.44length (m)	temperature (°C)	Stokes	anti-Stokes-747.200	-43.479	0.103	0.052
-746.185	-200.000	0.110	0.595
-745.171	48.634	-0.156	-0.146
-744.156	-99.597	0.217	-0.054
-743.142	800.000	0.079	0.299
-742.127	148.954	-0.137	0.186
-741.112	598.383	-0.038	0.094
-740.098	-21.317	0.098	0.060
-739.083	-76.608	0.059	0.021
-738.069	39.408	-0.261	0.234
-737.054	415.106	0.076	0.162
-736.039	-149.391	-0.121	-0.010
-735.025	149.351	0.059	0.080
-734.010	-123.116	0.126	-0.020
-732.996	-56.333	0.175	0.078
-731.981	591.520	-0.097	-0.240
-730.966	-134.660	0.370	0.045
-729.952	12.973	0.097	0.075
-728.937	-135.818	-0.435	0.051
-727.923	-200.000	-0.019	0.175
-726.908	438.828	-0.102	-0.222
-725.894	-138.987	-0.303	0.033
-724.879	32.747	0.239	0.207
-723.864	-55.438	-0.410	-0.184
-722.850	-200.000	0.033	0.146
-721.835	-174.501	-0.169	-0.005
-720.821	319.958	0.027	-0.052
-719.806	-26.704	0.203	0.118
-718.791	-200.000	-0.030	0.138
-717.777	-128.026	-0.152	-0.022
-716.762	-79.910	-0.248	-0.083
-715.748	-135.768	0.152	0.018
-714.733	-155.269	-0.205	0.013
-713.718	169.991	-0.122	0.174
-712.704	-99.483	0.194	0.049
-711.689	-59.745	-0.323	-0.138
-710.675	-172.386	0.118	-0.004
-709.660	-200.000	-0.004	0.592
-708.645	144.041	-0.133	0.177
-707.631	-53.392	-0.210	0.096
-706.616	-123.577	0.222	0.035
-705.602	-31.867	-0.216	0.121
-704.587	-122.513	0.219	0.036
-703.572	-76.420	-0.098	-0.035
-702.558	47.987	-0.224	0.209
-701.543	-50.528	-0.176	-0.083
-700.529	-134.832	-0.292	0.035
-699.514	-158.128	0.121	-0.007
-698.499	800.000	-0.195	-0.577
-697.485	-40.867	-0.425	-0.219
-696.470	181.381	-0.131	0.192
-695.456	-200.000	0.005	-0.416
-694.441	-200.000	0.033	-0.235
-693.426	800.000	0.080	-0.252
-692.412	210.426	0.036	-0.056
-691.397	-89.385	0.180	-0.053
-690.383	-66.087	0.051	0.020
-689.368	299.011	-0.140	-0.257
-688.354	-200.000	-0.028	0.280
-687.339	-184.159	-0.095	-0.002
-686.324	345.359	0.114	-0.223
-685.310	-168.804	-0.472	-0.018
-684.295	-200.000	-0.021	0.395
-683.281	-170.948	-0.115	0.004
-682.266	-77.774	0.387	-0.134
-681.251	-47.421	-0.163	0.079
-680.237	39.663	-0.075	-0.067
-679.222	-200.000	-0.018	0.080
-678.208	727.906	-0.054	-0.144
-677.193	140.755	0.097	0.128
-676.178	19.100	-0.284	0.227
-675.164	195.976	0.095	0.145
-674.149	75.103	-0.187	-0.196
-673.135	90.210	0.181	0.202
-672.120	621.934	-0.040	-0.101
-671.105	-50.216	-0.072	-0.034
-670.091	-73.867	-0.042	-0.015
-669.076	-105.213	0.186	0.042
-668.062	-57.563	0.222	-0.097
-667.047	284.188	-0.057	-0.102
-666.032	312.844	0.136	0.254
-665.018	-120.483	-0.297	-0.050
-664.003	81.875	0.127	0.138
-662.989	-59.153	0.112	0.048
-661.974	-139.197	-0.327	-0.035
-660.959	800.000	0.116	-0.344
-659.945	563.816	-0.088	0.212
-658.930	-190.755	0.037	-0.000
-657.916	91.571	-0.271	-0.303
-656.901	-37.523	0.273	0.145
-655.886	-200.000	-0.001	-0.068
-654.872	104.038	-0.202	0.237
-653.857	-2.765	0.361	0.251
-652.843	-200.000	0.009	-0.427
-651.828	-68.733	-0.373	0.144
-650.814	529.987	-0.069	0.163
-649.799	137.402	-0.136	0.177
-648.784	-200.000	0.018	-0.177
-647.770	107.994	-0.084	0.100
-646.755	-160.831	-0.459	-0.024
-645.741	800.000	0.018	-0.078
-644.726	231.813	0.155	0.253
-643.711	75.994	-0.047	-0.050
-642.697	-15.999	-0.069	0.044
-641.682	-116.303	0.245	0.045
-640.668	800.000	-0.017	0.073
-639.653	45.753	0.132	0.122
-638.638	-200.000	0.013	-0.248
-637.624	-61.706	-0.307	0.128
-636.609	-76.090	-0.431	0.152
-635.595	800.000	-0.069	-0.225
-634.580	155.173	0.107	-0.146
-633.565	-12.935	0.164	-0.107
-632.551	-200.000	-0.017	-0.253
-631.536	-18.959	0.169	0.104
-630.522	-64.710	0.235	-0.095
-629.507	191.407	0.083	-0.124
-628.492	-200.000	-0.019	0.209
-627.478	48.770	-0.096	-0.090
-626.463	-200.000	-0.039	-0.229
-625.449	800.000	-0.074	-0.227
-624.434	266.155	0.087	-0.151
-623.419	45.189	-0.258	-0.237
-622.405	224.986	-0.094	0.151
-621.390	-200.000	0.034	-0.210
-620.376	486.901	0.077	-0.174
-619.361	-56.871	0.036	-0.016
-618.346	-83.547	-0.143	-0.046
-617.332	-109.929	-0.237	0.049
-616.317	-136.022	0.225	0.026
-615.303	-200.000	-0.040	0.230
-614.288	710.062	-0.019	-0.049
-613.273	-200.000	-0.009	0.216
-612.259	143.167	-0.139	0.184
-611.244	-200.000	-0.000	-0.041
-610.230	61.539	0.190	-0.188
-609.215	-33.629	-0.132	-0.073
-608.201	511.035	-0.068	0.159
-607.186	-200.000	0.018	-0.147
-606.171	36.615	-0.254	0.223
-605.157	-188.271	-0.450	-0.006
-604.142	-165.867	0.074	0.003
-603.128	471.134	0.064	0.142
-602.113	592.200	-0.079	-0.195
-601.098	-178.063	-0.171	-0.004
-600.084	-101.307	-0.636	-0.154
-599.069	529.753	-0.178	-0.417
-598.055	800.000	-0.060	0.172
-597.040	-200.000	-0.000	-0.116
-596.025	-17.254	0.152	0.095
-595.011	800.000	-0.010	0.035
-593.996	-178.265	-0.418	-0.010
-592.982	44.491	-0.087	-0.080
-591.967	-200.000	-0.035	-0.222
-590.952	97.603	-0.274	-0.313
-589.938	-35.943	0.368	-0.198
-588.923	71.513	-0.400	-0.413
-587.909	800.000	-0.011	-0.031
-586.894	12.778	-0.203	0.156
-585.879	-18.615	0.127	-0.079
-584.865	-200.000	0.048	0.293
-583.850	800.000	0.040	-0.158
-582.836	-31.872	0.323	-0.180
-581.821	-98.920	0.200	-0.051
-580.806	5.011	-0.169	-0.123
-579.792	-6.120	-0.106	0.072
-578.777	15.956	-0.166	-0.130
-577.763	-35.919	0.326	0.175
-576.748	800.000	0.118	-0.384
-575.733	800.000	0.078	-0.236
-574.719	-77.756	-0.094	0.032
-573.704	-94.600	-0.137	0.037
-572.690	800.000	0.051	0.201
-571.675	516.891	0.095	-0.221
-570.661	180.698	-0.043	0.063
-569.646	13.820	-0.307	-0.237
-568.631	1.690	0.046	0.033
-567.617	73.740	-0.039	0.041
-566.602	15.433	0.118	0.092
-565.588	80.464	-0.047	-0.050
-564.573	-24.103	0.208	0.123
-563.558	-118.726	0.056	0.010
-562.544	-117.557	-0.280	-0.050
-561.529	-200.000	0.014	-0.129
-560.515	800.000	0.063	-0.183
-559.500	-119.754	-0.254	0.044
-558.485	-67.065	0.407	0.159
-557.471	137.613	0.057	-0.074
-556.456	59.071	-0.148	0.145
-555.442	-13.640	-0.328	-0.211
-554.427	68.870	-0.089	0.091
-553.412	-82.388	-0.319	-0.103
-552.398	158.443	0.180	-0.248
-551.383	800.000	-0.101	-0.276
-550.369	-110.087	0.330	0.068
-549.354	-2.326	-0.035	0.025
-548.339	-65.541	0.093	0.037
-547.325	800.000	-0.075	-0.241
-546.310	794.492	-0.100	-0.272
-545.296	-137.712	0.156	0.017
-544.281	82.541	-0.244	-0.263
-543.266	800.000	-0.070	0.277
-542.252	-29.464	-0.154	0.087
-541.237	-200.000	-0.023	-0.100
-540.223	-17.149	-0.121	-0.076
-539.208	-200.000	-0.013	-0.076
-538.193	-53.193	-0.422	-0.192
-537.179	73.572	0.213	-0.221
-536.164	289.272	0.124	-0.222
-535.150	23.309	0.138	0.112
-534.135	-89.463	-0.362	0.106
-533.121	-200.000	-0.028	0.225
-532.106	558.044	0.079	-0.189
-531.091	-104.388	0.216	-0.050
-530.077	141.528	0.220	0.288
-529.062	247.023	-0.058	0.097
-528.048	-200.000	0.010	0.130
-527.033	77.110	0.148	-0.156
-526.018	-125.158	0.346	0.052
-525.004	-84.452	0.194	0.061
-523.989	-118.941	0.156	-0.027
-522.975	421.133	-0.152	-0.324
-521.960	19.499	-0.194	-0.155
-520.945	52.895	-0.219	-0.208
-519.931	2.961	-0.138	0.100
-518.916	409.520	0.033	0.068
-517.902	-137.061	0.178	0.020
-516.887	-93.038	-0.378	0.105
-515.872	-35.385	-0.375	0.202
-514.858	-185.052	0.462	0.007
-513.843	-138.947	-0.067	0.007
-512.829	400.847	0.033	0.069
-511.814	-126.080	-0.310	0.046
-510.799	671.127	-0.120	0.308
-509.785	26.683	-0.100	0.083
-508.770	800.000	-0.119	0.499
-507.756	-200.000	-0.003	0.157
-506.741	-107.825	0.131	0.028
-505.726	289.289	-0.100	-0.179
-504.712	-24.516	-0.313	-0.185
-503.697	-15.124	0.331	0.210
-502.683	36.569	0.189	0.165
-501.668	165.062	0.124	0.173
-500.653	255.699	0.165	0.279
-499.639	-67.046	0.235	0.092
-498.624	-47.264	-0.104	0.050
-497.610	-160.074	0.284	-0.015
-496.595	-18.356	-0.208	-0.129
-495.581	-97.211	0.102	-0.026
-494.566	-2.844	0.176	0.122
-493.551	-3.369	-0.122	-0.084
-492.537	121.469	-0.172	-0.212
-491.522	-137.936	0.378	0.042
-490.508	-200.000	0.018	0.158
-489.493	125.776	0.096	-0.121
-488.478	-87.855	-0.356	0.106
-487.464	-80.778	-0.032	0.011
-486.449	230.034	0.077	-0.125
-485.435	800.000	-0.127	0.377
-484.420	-29.794	-0.147	-0.083
-483.405	-73.216	0.179	-0.065
-482.391	21.976	-0.135	-0.109
-481.376	-200.000	0.037	0.168
-480.362	-102.032	0.334	0.080
-479.347	-200.000	-0.033	-0.231
-478.332	-110.729	-0.162	0.033
-477.318	15.263	0.109	0.085
-476.303	-26.333	0.201	-0.117
-475.289	-200.000	-0.040	0.175
-474.274	-161.040	0.199	-0.010
-473.259	-42.587	0.193	-0.097
-472.245	197.514	-0.178	-0.268
-471.230	48.310	0.211	-0.195
-470.216	-60.522	0.213	0.090
-469.201	-76.524	0.160	0.056
-468.186	30.745	-0.240	0.203
-467.172	773.819	-0.060	-0.161
-466.157	-200.000	-0.013	-0.123
-465.143	-160.858	-0.160	-0.008
-464.128	175.781	-0.305	0.438
-463.113	399.269	0.154	-0.318
-462.099	-106.858	0.272	0.060
-461.084	-200.000	-0.001	0.144
-460.070	264.487	0.184	-0.317
-459.055	-10.543	0.153	0.100
-458.040	-51.468	0.259	-0.120
-457.026	167.894	0.099	-0.140
-456.011	800.000	0.055	-0.166
-454.997	800.000	0.025	0.073
-453.982	-200.000	-0.035	0.175
-452.968	-103.897	0.189	0.044
-451.953	-5.141	-0.081	0.055
-450.938	-200.000	0.109	0.530
-449.924	-1.856	-0.107	0.074
-448.909	21.547	0.177	-0.142
-447.895	548.616	0.025	0.058
-446.880	456.094	-0.081	0.178
-445.865	143.087	0.159	0.209
-444.851	-38.325	-0.352	-0.184
-443.836	800.000	-0.137	0.392
-442.822	800.000	-0.057	0.225
-441.807	-51.868	0.095	0.044
-440.792	-126.535	-0.380	-0.056
-439.778	391.242	0.034	0.070
-438.763	127.701	0.177	0.222
-437.749	47.186	0.044	-0.040
-436.734	-200.000	-0.022	-0.190
-435.719	-200.000	0.045	0.303
-434.705	171.157	-0.064	0.091
-433.690	-45.283	-0.061	0.030
-432.676	-198.686	0.543	-0.003
-431.661	-32.387	0.084	0.046
-430.646	7.686	0.187	-0.139
-429.632	446.844	-0.085	-0.184
-428.617	-90.435	0.051	-0.015
-427.603	73.522	-0.117	0.121
-426.588	-27.570	-0.211	0.121
-425.573	-48.590	-0.162	-0.077
-424.559	-145.916	0.041	-0.004
-423.544	41.135	-0.060	-0.054
-422.530	55.335	-0.091	0.087
-421.515	-186.383	-0.174	-0.002
-420.500	-53.922	-0.169	0.076
-419.486	-182.707	0.245	-0.004
-418.471	800.000	0.032	-0.123
-417.457	-200.000	-0.045	-0.236
-416.442	-17.386	-0.198	-0.123
-415.428	196.727	0.230	0.345
-414.413	-12.221	-0.259	0.167
-413.398	800.000	-0.068	-0.238
-412.384	-199.359	-0.051	0.000
-411.369	-108.586	-0.185	-0.039
-410.355	-177.574	0.193	-0.005
-409.340	-47.581	0.332	0.159
-408.325	75.136	0.158	-0.164
-407.311	76.978	-0.099	-0.104
-406.296	-32.102	0.157	-0.087
-405.282	-99.029	-0.413	-0.103
-404.267	274.462	0.195	0.340
-403.252	236.989	0.212	0.346
-402.238	800.000	-0.081	-0.271
-401.223	137.537	0.058	-0.075
-400.209	-99.645	-0.182	0.045
-399.194	-187.974	-0.528	0.007
-398.179	303.142	-0.078	0.142
-397.165	-143.554	0.133	0.013
-396.150	373.071	-0.138	-0.276
-395.136	15.353	0.352	0.272
-394.121	-112.041	0.324	-0.064
-393.106	-27.978	-0.125	-0.071
-392.092	800.000	-0.037	0.125
-391.077	181.007	-0.134	-0.194
-390.063	-5.327	-0.206	0.140
-389.048	135.852	0.317	0.407
-388.033	-134.627	-0.096	0.012
-387.019	-200.000	-0.081	0.383
-386.004	45.310	-0.088	-0.080
-384.990	14.019	0.162	0.124
-383.975	-169.229	-0.290	-0.011
-382.960	-200.000	-0.019	0.211
-381.946	158.453	-0.022	-0.030
-380.931	300.556	0.124	0.225
-379.917	-200.000	0.010	-0.192
-378.902	800.000	-0.107	-0.349
-377.888	127.905	-0.255	-0.320
-376.873	-200.000	-0.023	-0.182
-375.858	11.754	-0.114	0.086
-374.844	-127.579	-0.109	0.016
-373.829	800.000	0.046	-0.159
-372.815	-200.000	0.010	0.172
-371.800	172.397	-0.085	0.120
-370.785	-97.933	-0.288	-0.073
-369.771	350.733	0.114	0.223
-368.756	-102.565	-0.102	-0.024
-367.742	118.720	-0.230	0.279
-366.727	-79.145	0.358	0.120
-365.712	-110.111	-0.236	0.049
-364.698	130.378	0.178	-0.225
-363.683	-66.871	0.154	-0.060
-362.669	44.916	0.087	0.079
-361.654	40.219	-0.290	0.257
-360.639	800.000	0.036	0.128
-359.625	-132.662	-0.212	-0.027
-358.610	-106.075	0.369	0.082
-357.596	-59.206	0.131	-0.055
-356.581	266.159	0.166	-0.285
-355.566	496.376	0.036	-0.083
-354.552	-142.826	0.348	-0.033
-353.537	-114.092	-0.173	-0.033
-352.523	611.667	0.164	0.404
-351.508	141.373	0.100	-0.130
-350.493	-11.058	0.195	-0.127
-349.479	-2.920	-0.182	-0.125
-348.464	-58.717	0.198	-0.084
-347.450	66.838	0.077	0.077
-346.435	170.554	0.067	0.095
-345.420	-42.354	-0.132	-0.067
-344.406	-24.724	0.042	0.025
-343.391	96.014	-0.116	0.131
-342.377	67.382	-0.094	0.095
-341.362	-46.253	0.228	0.111
-340.348	-102.219	-0.143	-0.034
-339.333	303.239	-0.173	0.316
-338.318	-89.455	-0.076	-0.022
-337.304	-49.900	-0.206	-0.096
-336.289	-10.613	-0.359	0.234
-335.275	-99.812	-0.180	-0.044
-334.260	-35.718	-0.072	0.038
-333.245	-148.955	0.169	-0.013
-332.231	-200.000	-0.049	0.224
-331.216	-77.584	-0.194	-0.066
-330.202	441.669	-0.052	0.113
-329.187	-21.069	-0.218	-0.131
-328.172	-138.766	-0.081	0.009
-327.158	-149.981	-0.013	0.001
-326.143	-102.084	0.159	0.038
-325.129	99.169	-0.167	0.190
-324.114	81.023	0.147	0.156
-323.099	-103.321	0.462	-0.107
-322.085	111.559	-0.161	-0.191
-321.070	-71.148	-0.499	-0.184
-320.056	1.470	0.310	-0.219
-319.041	267.251	0.122	0.209
-318.026	156.591	0.261	-0.355
-317.012	800.000	-0.033	0.138
-315.997	800.000	-0.057	-0.159
-314.983	13.456	-0.071	-0.054
-313.968	-200.000	-0.005	-0.056
-312.953	32.968	0.220	-0.188
-311.939	-200.000	0.207	-0.001
-310.924	-13.810	-0.148	0.094
-309.910	-117.816	0.266	0.047
-308.895	-7.372	0.154	0.102
-307.880	-139.515	-0.176	0.018
-306.866	-113.935	-0.223	-0.042
-305.851	-200.000	-0.008	-0.099
-304.837	800.000	-0.039	-0.166
-303.822	-200.000	0.047	-0.211
-302.807	-200.000	-0.005	-0.056
-301.793	325.078	-0.120	-0.226
-300.778	-74.466	0.500	0.177
-299.764	-109.419	-0.369	-0.077
-298.749	293.754	0.041	0.073
-297.735	204.262	0.152	0.231
-296.720	-22.293	0.170	0.101
-295.705	94.360	-0.100	-0.112
-294.691	677.949	-0.069	-0.177
-293.676	5.549	-0.069	-0.050
-292.662	78.093	0.174	0.182
-291.647	-150.744	0.243	0.018
-290.632	-118.348	0.302	0.053
-289.618	-116.925	-0.069	-0.012
-288.603	390.015	0.036	-0.074
-287.589	64.067	-0.296	0.293
-286.574	0.069	-0.132	-0.092
-285.559	57.490	0.246	-0.236
-284.545	-107.453	-0.365	0.079
-283.530	-52.835	0.204	-0.092
-282.516	24.744	0.137	0.111
-281.501	47.514	-0.091	-0.083
-280.486	800.000	0.056	-0.212
-279.472	-80.410	0.409	-0.134
-278.457	17.357	0.193	-0.150
-277.443	61.087	0.156	-0.152
-276.428	-0.647	0.020	0.014
-275.413	108.741	-0.097	-0.114
-274.399	478.810	0.135	-0.300
-273.384	-23.331	0.161	0.095
-272.370	-77.147	-0.214	-0.073
-271.355	155.070	-0.098	0.133
-270.340	98.505	-0.064	-0.073
-269.326	97.868	0.155	-0.175
-268.311	87.480	-0.285	0.310
-267.297	86.950	-0.125	0.136
-266.282	351.746	0.137	0.267
-265.267	-13.513	-0.198	0.126
-264.253	104.795	0.203	-0.235
-263.238	190.241	-0.082	-0.121
-262.224	82.354	0.194	0.206
-261.209	339.854	0.200	0.383
-260.195	800.000	0.064	-0.212
-259.180	353.339	-0.092	0.178
-258.165	34.680	0.131	-0.112
-257.151	-43.099	0.079	-0.039
-256.136	800.000	0.054	0.188
-255.122	56.618	0.174	-0.166
-254.107	-40.218	0.282	0.144
-253.092	-44.515	0.238	0.117
-252.078	103.862	0.142	0.164
-251.063	391.451	-0.103	-0.210
-250.049	20.152	0.085	0.067
-249.034	-13.892	-0.093	0.059
-248.019	-58.707	-0.256	-0.109
-247.005	468.656	-0.181	-0.399
-245.990	-34.511	0.094	-0.050
-244.976	-56.974	-0.300	0.130
-243.961	139.816	0.202	0.262
-242.946	-87.163	-0.270	-0.081
-241.932	-165.172	0.167	0.007
-240.917	-200.000	-0.016	0.073
-239.903	171.397	0.141	-0.198
-238.888	-171.482	0.244	-0.008
-237.873	337.836	-0.149	0.283
-236.859	800.000	0.147	0.427
-235.844	414.439	0.179	0.373
-234.830	398.442	-0.102	0.209
-233.815	-30.841	0.075	-0.042
-232.800	-200.000	0.072	0.311
-231.786	-75.526	-0.263	0.092
-230.771	-31.345	-0.029	0.016
-229.757	-94.501	-0.371	0.099
-228.742	-200.000	-0.024	-0.223
-227.727	348.643	0.093	-0.179
-226.713	284.990	-0.069	-0.122
-225.698	-41.046	0.255	0.129
-224.684	21.813	0.149	0.119
-223.669	800.000	0.070	0.190
-222.655	-200.000	0.010	-0.053
-221.640	225.164	0.179	0.284
-220.625	800.000	-0.013	0.056
-219.611	25.679	-0.249	-0.203
-218.596	316.658	-0.106	0.196
-217.582	-200.000	-0.006	-0.125
-216.567	141.770	-0.239	0.310
-215.552	-59.766	0.176	-0.074
-214.538	-78.965	-0.301	-0.100
-213.523	-200.000	0.042	-0.267
-212.509	-17.710	0.367	-0.225
-211.494	-23.750	0.228	-0.134
-210.479	24.009	0.163	-0.131
-209.465	-5.760	-0.223	0.149
-208.450	98.375	-0.280	0.316
-207.436	-200.000	0.010	0.069
-206.421	-162.547	-0.146	0.007
-205.406	29.179	0.112	-0.093
-204.392	159.420	0.107	-0.145
-203.377	72.223	0.127	-0.129
-202.363	3.359	0.166	-0.118
-201.348	4.681	-0.135	0.097
-200.333	-93.212	0.401	-0.109
-199.319	800.000	0.065	0.274
-198.304	-142.608	0.159	-0.015
-197.290	800.000	-0.072	0.228
-196.275	800.000	-0.066	0.274
-195.260	-99.557	0.240	0.059
-194.246	212.200	0.081	-0.125
-193.231	67.516	0.066	-0.066
-192.217	-200.000	-0.012	-0.060
-191.202	307.883	0.114	-0.207
-190.187	-200.000	0.038	-0.325
-189.173	-84.381	0.146	-0.045
-188.158	93.076	0.211	0.233
-187.144	-22.615	0.101	0.059
-186.129	148.507	-0.184	0.243
-185.114	82.543	-0.127	-0.134
-184.100	-183.862	-0.176	-0.003
-183.085	-200.000	0.023	-0.210
-182.071	738.045	0.071	-0.187
-181.056	208.445	0.253	0.387
-180.042	139.048	-0.085	0.109
-179.027	-200.000	-0.038	0.229
-178.012	-60.155	0.123	-0.051
-176.998	-32.547	0.273	0.149
-175.983	8.789	-0.116	-0.085
-174.969	-27.391	0.089	-0.051
-173.954	203.972	-0.125	0.190
-172.939	-200.000	-0.025	-0.157
-171.925	140.543	0.073	0.095
-170.910	42.108	0.214	0.190
-169.896	579.379	-0.077	-0.185
-168.881	-95.250	0.119	0.031
-167.866	125.543	0.016	-0.020
-166.852	228.563	-0.112	-0.179
-165.837	76.234	0.145	0.150
-164.823	-44.524	0.113	-0.055
-163.808	27.164	-0.179	-0.147
-162.793	750.289	0.056	-0.147
-161.779	-37.605	0.171	-0.089
-160.764	43.577	-0.198	-0.177
-159.750	-200.000	0.017	-0.163
-158.735	127.679	0.188	-0.233
-157.720	-200.000	-0.006	-0.170
-156.706	-117.081	-0.532	-0.095
-155.691	-200.000	0.063	-0.317
-154.677	-200.000	0.005	0.197
-153.662	23.009	-0.295	0.237
-152.647	-200.000	-0.000	0.016
-151.633	202.374	-0.087	0.131
-150.618	-140.302	-0.293	0.030
-149.604	43.677	-0.361	0.322
-148.589	800.000	0.017	0.060
-147.574	-52.464	0.240	-0.108
-146.560	353.376	0.104	-0.201
-145.545	425.175	-0.097	-0.205
-144.531	800.000	-0.109	0.323
-143.516	-200.000	0.026	0.174
-142.502	-141.191	-0.106	-0.011
-141.487	800.000	0.096	0.322
-140.472	-49.355	0.198	-0.092
-139.458	100.811	0.102	-0.115
-138.443	-112.287	0.184	0.036
-137.429	469.616	-0.196	0.430
-136.414	-200.000	0.045	-0.192
-135.399	800.000	-0.081	-0.229
-134.385	-27.986	-0.246	-0.139
-133.370	800.000	0.039	-0.157
-132.356	-11.997	0.241	-0.154
-131.341	-107.840	-0.269	-0.057
-130.326	99.267	-0.116	0.131
-129.312	-11.267	0.020	0.013
-128.297	15.128	-0.349	0.267
-127.283	-77.186	0.165	0.056
-126.268	-40.279	-0.118	-0.060
-125.253	-127.090	0.320	-0.046
-124.239	267.460	0.074	0.126
-123.224	126.546	0.056	0.069
-122.210	-99.876	0.399	0.097
-121.195	630.814	0.048	0.118
