DTS Sentinel unit serial number:	SN413079Multiplexer serial number:	ORYXHardware model number:	OX4-SRSoftware version number:	ORYX F/W v4.00 Oryx Data Collector v3.7.2.0data status	okinstallation	princeton_trtdifferential loss correction	single-endedforward channel	channel 3reverse channel	N/Adate	2019/09/18time	21:12:34forward acquisition time	60.00reverse acquisition time	0.00gamma	496.2192k internal	0.2345k external	0.2345temperature offset calibration	0.9995default loss term (dB/km)	0.3790temperature slope calibration	1.0000multiplexer offset coefficient	1.0000multiplexer slope coefficient	1.0000fibre end	0.00T internal ref (°C)	25.95T ext. ref 1 (°C)	0.83T ext. ref 2 (°C)	18.07length (m)	temperature (°C)	Stokes	anti-Stokes-747.200	-70.223	0.133	0.051
-746.185	-49.259	-0.121	0.058
-745.171	-115.884	-0.052	-0.010
-744.156	192.281	0.008	-0.012
-743.142	-200.000	0.012	-0.141
-742.127	-28.744	-0.291	0.168
-741.112	800.000	0.081	0.342
-740.098	-200.000	0.072	0.511
-739.083	-200.000	-0.049	0.320
-738.069	-110.568	-0.221	0.046
-737.054	800.000	0.104	-0.321
-736.039	211.368	0.128	-0.202
-735.025	800.000	0.053	0.161
-734.010	-46.778	-0.175	0.086
-732.996	-200.000	0.057	-0.308
-731.981	-61.323	-0.341	0.143
-730.966	308.007	-0.079	-0.148
-729.952	42.768	-0.103	-0.094
-728.937	-68.433	-0.287	0.111
-727.923	800.000	-0.029	0.100
-726.908	-58.872	0.090	0.039
-725.894	211.795	-0.190	-0.299
-724.879	-129.612	-0.242	0.033
-723.864	-200.000	-0.089	0.392
-722.850	800.000	-0.107	0.365
-721.835	798.715	-0.065	-0.179
-720.821	-148.017	0.196	0.016
-719.806	268.419	-0.107	-0.187
-718.791	-38.851	-0.275	-0.145
-717.777	-200.000	-0.034	0.387
-716.762	3.395	0.144	0.105
-715.748	389.529	0.056	0.115
-714.733	75.074	-0.114	0.120
-713.718	305.127	-0.109	-0.203
-712.704	-16.794	0.079	0.050
-711.689	800.000	0.042	0.146
-710.675	206.222	0.151	0.235
-709.660	299.545	0.176	-0.324
-708.645	356.984	0.147	-0.293
-707.631	-132.794	0.274	-0.035
-706.616	-41.819	0.383	-0.196
-705.602	-119.793	-0.169	0.029
-704.587	-8.757	0.379	0.254
-703.572	-200.000	-0.015	0.225
-702.558	-171.662	0.170	0.006
-701.543	-162.173	-0.072	0.004
-700.529	148.260	-0.056	-0.075
-699.514	-93.800	0.187	-0.052
-698.499	-200.000	0.025	0.111
-697.485	-162.409	-0.259	-0.013
-696.470	-130.680	-0.194	-0.026
-695.456	-141.097	-0.052	-0.005
-694.441	-107.472	-0.164	0.036
-693.426	-200.000	-0.106	0.000
-692.412	-141.607	0.308	-0.031
-691.397	-53.627	0.249	0.114
-690.383	800.000	0.069	0.227
-689.368	425.455	-0.036	0.077
-688.354	-84.360	-0.100	-0.031
-687.339	-200.000	0.032	-0.272
-686.324	333.887	0.063	-0.121
-685.310	-115.199	0.325	-0.061
-684.295	-35.268	-0.095	0.052
-683.281	61.846	0.079	0.078
-682.266	42.999	0.208	-0.189
-681.251	800.000	-0.085	-0.286
-680.237	-153.225	-0.323	-0.023
-679.222	328.521	0.197	0.378
-678.208	-143.724	-0.356	-0.034
-677.193	192.357	-0.228	-0.343
-676.178	-24.504	-0.135	-0.080
-675.164	-200.000	-0.016	-0.236
-674.149	-43.636	-0.222	0.112
-673.135	-60.413	-0.217	-0.092
-672.120	-36.616	0.419	-0.225
-671.105	317.724	0.138	0.260
-670.091	16.527	-0.080	-0.063
-669.076	-69.380	-0.151	-0.058
-668.062	-50.008	-0.059	-0.028
-667.047	-200.000	0.063	-0.409
-666.032	576.748	0.120	0.293
-665.018	75.825	-0.234	-0.247
-664.003	36.840	-0.204	-0.180
-662.989	-65.224	-0.412	-0.166
-661.974	380.758	-0.136	-0.278
-660.959	734.156	0.058	0.156
-659.945	131.965	-0.259	0.333
-658.930	800.000	-0.146	-0.484
-657.916	800.000	0.082	-0.285
-656.901	-51.529	-0.161	0.075
-655.886	-124.907	-0.132	0.020
-654.872	95.530	-0.221	-0.252
-653.857	-200.000	-0.031	-0.220
-652.843	-106.891	-0.035	-0.008
-651.828	265.760	-0.106	-0.184
-650.814	354.815	0.084	-0.167
-649.799	219.643	-0.125	0.200
-648.784	-147.489	-0.108	-0.009
-647.770	-156.315	0.225	0.014
-646.755	-200.000	0.024	-0.250
-645.741	-15.166	-0.148	0.094
-644.726	-81.780	-0.062	0.020
-643.711	714.061	-0.030	-0.078
-642.697	117.920	-0.034	-0.042
-641.682	-147.718	0.236	-0.020
-640.668	527.213	-0.134	-0.315
-639.653	24.707	0.362	-0.299
-638.638	800.000	-0.074	-0.208
-637.624	59.893	0.119	-0.117
-636.609	800.000	-0.037	0.138
-635.595	485.186	-0.096	0.217
-634.580	-71.958	-0.076	-0.028
-633.565	266.682	-0.064	0.112
-632.551	123.033	-0.247	0.309
-631.536	800.000	-0.067	0.194
-630.522	-59.602	-0.037	0.016
-629.507	-11.158	0.367	0.241
-628.492	-101.470	0.206	0.050
-627.478	12.871	-0.134	-0.103
-626.463	18.024	0.212	-0.168
-625.449	32.503	-0.139	0.119
-624.434	-90.135	0.185	0.054
-623.419	150.861	-0.168	-0.227
-622.405	-71.537	0.279	-0.104
-621.390	152.096	-0.199	-0.270
-620.376	129.095	0.091	-0.115
-619.361	597.888	0.060	0.148
-618.346	15.705	-0.158	-0.124
-617.332	-109.452	-0.288	-0.061
-616.317	800.000	0.007	-0.028
-615.303	-10.626	-0.150	0.099
-614.288	-200.000	-0.025	-0.133
-613.273	20.255	-0.124	0.100
-612.259	-192.520	-0.074	-0.001
-611.244	-108.422	0.313	-0.067
-610.230	-24.304	0.119	-0.071
-609.215	-92.493	0.143	-0.040
-608.201	-171.976	-0.195	0.006
-607.186	1.887	0.157	0.113
-606.171	87.433	-0.048	0.053
-605.157	-35.839	-0.156	0.084
-604.142	-183.887	0.048	0.001
-603.128	71.464	-0.158	-0.163
-602.113	141.214	0.157	-0.207
-601.098	-110.089	-0.361	-0.075
-600.084	43.137	-0.123	0.112
-599.069	800.000	-0.005	0.022
-598.055	-139.982	-0.102	0.011
-597.040	-200.000	0.022	0.302
-596.025	82.615	-0.129	0.139
-595.011	-8.780	-0.051	0.034
-593.996	-39.119	-0.233	0.122
-592.982	27.618	-0.200	0.167
-591.967	-200.000	0.034	0.398
-590.952	-144.839	0.246	-0.022
-589.938	143.907	-0.029	0.038
-588.923	-200.000	0.004	-0.107
-587.909	336.735	-0.133	-0.258
-586.894	160.170	0.088	-0.122
-585.879	-57.578	0.222	-0.097
-584.865	-84.603	-0.364	-0.114
-583.850	-122.784	-0.240	-0.038
-582.836	-200.000	-0.038	-0.238
-581.821	637.129	0.052	0.130
-580.806	437.532	0.084	-0.183
-579.792	75.809	0.141	-0.148
-578.777	23.802	-0.109	-0.089
-577.763	-135.489	0.101	-0.012
-576.748	-46.740	-0.241	0.117
-575.733	-101.306	0.307	-0.075
-574.719	-200.000	0.045	-0.237
-573.704	41.401	0.208	0.187
-572.690	-56.872	-0.215	0.094
-571.675	52.278	0.244	-0.231
-570.661	-158.604	-0.301	-0.017
-569.646	-160.700	0.212	-0.011
-568.631	-118.827	-0.115	0.020
-567.617	-20.364	-0.142	0.087
-566.602	-200.000	-0.008	-0.065
-565.588	40.527	0.323	-0.289
-564.573	-200.000	-0.021	0.170
-563.558	-200.000	-0.021	0.226
-562.544	52.830	0.105	0.099
-561.529	-200.000	0.000	0.330
-560.515	77.092	0.070	-0.074
-559.500	24.875	0.237	0.195
-558.485	-70.359	-0.158	-0.059
-557.471	14.102	0.329	-0.255
-556.456	-130.454	0.305	0.041
-555.442	132.249	-0.093	-0.119
-554.427	-200.000	0.043	-0.228
-553.412	-103.407	-0.286	-0.067
-552.398	-118.977	-0.396	-0.069
-551.383	338.789	-0.134	-0.259
-550.369	-200.000	0.026	-0.162
-549.354	-90.223	0.059	-0.017
-548.339	255.088	0.081	-0.137
-547.325	230.705	0.044	-0.071
-546.310	12.828	-0.037	0.028
-545.296	-34.877	-0.270	0.146
-544.281	-0.653	0.185	0.130
-543.266	-200.000	0.039	0.187
-542.252	-170.225	0.183	-0.006
-541.237	-99.935	-0.057	-0.014
-540.223	-138.364	0.670	0.073
-539.208	-200.000	0.034	0.396
-538.193	-106.303	0.077	0.017
-537.179	209.751	-0.059	0.092
-536.164	-49.697	-0.086	0.040
-535.150	-200.000	0.005	-0.104
-534.135	-82.078	0.181	-0.059
-533.121	158.879	-0.108	-0.149
-532.106	-103.806	0.065	-0.015
-531.091	182.125	-0.175	-0.255
-530.077	30.853	-0.182	0.155
-529.062	-200.000	0.007	0.222
-528.048	406.674	-0.027	-0.057
-527.033	800.000	-0.106	-0.377
-526.018	60.689	0.175	-0.173
-525.004	103.571	0.056	-0.065
-523.989	101.267	0.119	-0.137
-522.975	41.096	-0.188	-0.169
-521.960	304.816	-0.063	-0.117
-520.945	-93.598	0.173	0.047
-519.931	800.000	0.076	0.310
-518.916	318.904	-0.071	0.134
-517.902	94.299	0.240	0.270
-516.887	800.000	0.096	-0.286
-515.872	-25.684	-0.073	-0.043
-514.858	-99.692	0.109	-0.027
-513.843	444.388	0.059	0.128
-512.829	6.834	-0.180	-0.133
-511.814	-33.896	-0.259	0.141
-510.799	189.958	0.236	0.351
-509.785	-200.000	0.007	-0.147
-508.770	-154.359	0.139	-0.009
-507.756	-200.000	-0.016	0.193
-506.741	-101.955	-0.080	0.019
-505.726	13.447	0.223	0.171
-504.712	800.000	0.042	0.154
-503.697	544.879	-0.087	-0.206
-502.683	-75.831	0.420	-0.148
-501.668	-32.327	-0.183	-0.101
-500.653	800.000	-0.039	-0.112
-499.639	-200.000	-0.069	-0.472
-498.624	-81.295	-0.377	-0.123
-497.610	800.000	0.088	0.350
-496.595	306.720	-0.082	0.152
-495.581	26.236	-0.218	0.180
-494.566	138.974	-0.142	-0.185
-493.551	663.994	-0.090	0.230
-492.537	127.352	-0.134	-0.168
-491.522	-118.149	0.419	-0.074
-490.508	33.837	-0.224	0.193
-489.493	375.880	-0.134	0.272
-488.478	800.000	-0.070	0.239
-487.464	-170.400	-0.257	-0.009
-486.449	638.417	0.125	0.315
-485.435	-200.000	-0.059	-0.274
-484.420	-124.282	-0.243	0.038
-483.405	800.000	-0.029	0.081
-482.391	437.631	0.153	-0.330
-481.376	-111.857	-0.216	0.043
-480.362	-200.000	0.042	0.285
-479.347	-200.000	0.007	-0.258
-478.332	66.328	-0.174	-0.176
-477.318	106.049	0.172	0.202
-476.303	-200.000	-0.030	-0.167
-475.289	-182.404	0.107	-0.002
-474.274	57.296	-0.261	0.252
-473.259	62.033	0.055	-0.055
-472.245	18.746	-0.128	-0.101
-471.230	-200.000	-0.023	-0.231
-470.216	21.538	-0.216	0.174
-469.201	-35.281	-0.163	0.088
-468.186	-200.000	-0.223	-0.000
-467.172	-160.269	-0.291	0.016
-466.157	-24.044	0.100	0.059
-465.143	-200.000	0.049	-0.282
-464.128	494.210	-0.083	-0.188
-463.113	-37.044	-0.198	-0.105
-462.099	218.793	0.116	0.184
-461.084	67.307	-0.076	0.076
-460.070	59.740	0.101	0.099
-459.055	274.861	0.045	0.079
-458.040	483.187	-0.108	-0.244
-457.026	11.142	-0.165	0.125
-456.011	800.000	0.091	0.304
-454.997	270.965	-0.121	-0.210
-453.982	-200.000	0.035	0.234
-452.968	-200.000	0.022	0.154
-451.953	800.000	0.066	-0.203
-450.938	138.153	-0.222	-0.288
-449.924	-101.826	0.111	0.026
-448.909	43.359	-0.161	-0.146
-447.895	273.311	0.209	-0.365
-446.880	198.117	-0.220	0.333
-445.865	-108.917	-0.134	0.028
-444.851	800.000	-0.059	0.189
-443.836	228.109	-0.231	0.372
-442.822	-43.689	0.211	0.105
-441.807	780.548	0.130	0.352
-440.792	-85.943	-0.147	-0.045
-439.778	-142.767	-0.210	0.020
-438.763	-19.687	-0.177	-0.108
-437.749	338.743	0.125	-0.241
-436.734	-52.608	0.242	0.110
-435.719	800.000	-0.061	0.168
-434.705	-200.000	-0.063	0.335
-433.690	-83.013	-0.477	0.152
-432.676	-200.000	0.010	-0.163
-431.661	-200.000	0.100	-0.000
-430.646	-67.003	0.243	0.095
-429.632	509.819	0.140	0.321
-428.617	310.517	-0.028	-0.053
-427.603	126.635	0.062	0.078
-426.588	-10.112	0.110	0.072
-425.573	68.403	0.153	-0.155
-424.559	198.123	-0.073	-0.111
-423.544	-200.000	-0.018	-0.086
-422.530	386.009	0.093	0.190
-421.515	800.000	-0.053	-0.219
-420.500	-200.000	-0.007	-0.231
-419.486	750.197	-0.036	0.095
-418.471	-200.000	-0.011	-0.115
-417.457	800.000	-0.116	0.365
-416.442	-200.000	0.033	0.168
-415.428	800.000	-0.063	-0.240
-414.413	-138.421	0.254	-0.028
-413.398	-77.715	-0.324	0.111
-412.384	739.175	0.096	-0.254
-411.369	421.967	-0.071	0.150
-410.355	-164.838	-0.116	0.005
-409.340	800.000	-0.019	0.062
-408.325	-200.000	-0.004	0.097
-407.311	205.469	-0.017	0.026
-406.296	112.582	-0.243	0.290
-405.282	-123.589	0.408	-0.064
-404.267	712.279	0.101	0.264
-403.252	85.747	-0.102	-0.111
-402.238	151.013	0.298	0.400
-401.223	-102.471	-0.103	-0.024
-400.209	-200.000	0.040	-0.449
-399.194	-131.567	0.150	-0.020
-398.179	-50.932	0.246	-0.114
-397.165	-46.324	-0.287	-0.139
-396.150	800.000	0.055	0.191
-395.136	-200.000	-0.004	-0.100
-394.121	-112.916	0.066	0.013
-393.106	-164.915	-0.099	-0.004
-392.092	800.000	0.091	-0.300
-391.077	26.986	-0.200	-0.165
-390.063	122.055	-0.156	-0.192
-389.048	261.299	0.150	-0.256
-388.033	206.511	-0.056	-0.086
-387.019	339.322	-0.153	-0.295
-386.004	-200.000	-0.020	0.089
-384.990	800.000	0.113	0.352
-383.975	88.382	-0.214	-0.235
-382.960	-98.973	-0.355	0.089
-381.946	-71.730	0.250	0.092
-380.931	800.000	-0.034	-0.143
-379.917	-200.000	0.006	0.059
-378.902	311.949	-0.061	0.114
-377.888	-134.302	-0.168	-0.020
-376.873	-200.000	0.018	-0.228
-375.858	551.550	-0.083	0.197
-374.844	-200.000	-0.029	-0.142
-373.829	26.798	0.228	-0.188
-372.815	305.700	0.152	0.278
-371.800	468.882	0.061	-0.135
-370.785	800.000	-0.049	-0.133
-369.771	-72.112	-0.235	-0.086
-368.756	-200.000	-0.023	0.185
-367.742	-71.456	-0.223	-0.082
-366.727	-137.621	-0.207	-0.023
-365.712	-99.363	-0.200	0.050
-364.698	53.090	0.219	0.207
-363.683	325.681	-0.135	-0.255
-362.669	121.239	-0.050	0.061
-361.654	60.762	0.194	-0.190
-360.639	-2.923	0.340	-0.234
-359.625	-1.614	-0.244	-0.170
-358.610	-54.110	-0.293	-0.131
-357.596	-200.000	0.020	0.117
-356.581	31.940	-0.164	-0.139
-355.566	800.000	0.059	0.218
-354.552	-83.879	-0.214	0.067
-353.537	800.000	-0.032	-0.101
-352.523	358.710	-0.074	-0.146
-351.508	-141.067	0.372	-0.038
-350.493	-200.000	0.039	0.325
-349.479	646.636	0.123	-0.308
-348.464	800.000	0.070	-0.295
-347.450	-200.000	-0.006	0.114
-346.435	-103.666	0.154	0.036
-345.420	565.009	-0.140	-0.334
-344.406	-13.382	-0.118	0.075
-343.391	398.865	-0.069	0.141
-342.377	68.246	0.021	-0.021
-341.362	464.146	0.060	-0.133
-340.348	19.464	0.134	0.106
-339.333	800.000	-0.088	0.285
-338.318	-90.537	0.201	-0.057
-337.304	15.373	-0.078	-0.060
-336.289	800.000	-0.036	-0.114
-335.275	-50.474	0.112	0.052
-334.260	-106.078	-0.366	-0.081
-333.245	-9.216	-0.127	0.083
-332.231	-200.000	0.063	-0.300
-331.216	7.052	0.244	-0.179
-330.202	-140.736	0.231	-0.024
-329.187	-82.225	-0.135	0.043
-328.172	-90.124	0.314	0.090
-327.158	800.000	0.038	0.135
-326.143	-70.755	0.242	0.090
-325.129	-78.656	-0.177	-0.060
-324.114	-200.000	-0.000	0.315
-323.099	-200.000	0.043	-0.274
-322.085	-107.433	-0.263	-0.057
-321.070	488.694	0.054	-0.121
-320.056	-8.530	-0.165	-0.109
-319.041	379.234	0.074	0.150
-318.026	-200.000	0.008	-0.101
-317.012	4.767	0.085	-0.061
-315.997	80.332	-0.042	0.045
-314.983	-2.050	0.192	-0.132
-313.968	68.184	-0.059	-0.060
-312.953	-200.000	-0.016	0.074
-311.939	63.588	0.203	0.200
-310.924	-200.000	0.062	0.287
-309.910	38.350	-0.052	0.045
-308.895	550.426	-0.047	-0.111
-307.880	-200.000	0.033	-0.351
-306.866	-116.910	-0.659	-0.119
-305.851	-200.000	0.005	0.377
-304.837	187.654	-0.085	-0.124
-303.822	105.548	0.150	-0.174
-302.807	-200.000	0.007	-0.162
-301.793	-200.000	-0.030	0.189
-300.778	141.823	0.137	-0.179
-299.764	239.038	0.080	0.131
-298.749	800.000	-0.059	0.190
-297.735	340.117	0.082	-0.157
-296.720	29.597	0.094	-0.079
-295.705	-92.144	-0.213	-0.059
-294.691	-200.000	-0.003	0.081
-293.676	72.933	0.232	-0.239
-292.662	800.000	-0.089	0.384
-291.647	-200.000	-0.021	0.151
-290.632	-75.545	-0.284	-0.099
-289.618	-23.536	0.139	-0.082
-288.603	36.704	-0.074	-0.064
-287.589	177.027	0.140	-0.201
-286.574	800.000	-0.083	0.238
-285.559	533.198	0.207	0.482
-284.545	-88.890	-0.218	0.063
-283.530	107.452	-0.084	-0.098
-282.516	-200.000	-0.015	0.129
-281.501	531.234	-0.080	0.187
-280.486	240.387	0.114	0.188
-279.472	800.000	0.004	-0.016
-278.457	-200.000	-0.028	-0.381
-277.443	-69.140	0.225	-0.085
-276.428	-143.263	-0.107	-0.010
-275.413	74.323	0.088	0.091
-274.399	311.075	-0.076	0.139
-273.384	544.928	0.034	-0.079
-272.370	26.045	-0.066	-0.054
-271.355	368.801	-0.120	-0.238
-270.340	108.870	-0.066	0.078
-269.326	291.873	-0.047	0.084
-268.311	-94.658	0.238	-0.064
-267.297	-200.000	-0.057	-0.259
-266.282	14.457	0.140	0.107
-265.267	-50.985	-0.248	-0.114
-264.253	800.000	-0.083	0.339
-263.238	206.056	-0.094	0.143
-262.224	72.069	0.106	0.108
-261.209	287.378	-0.107	0.189
-260.195	-21.726	-0.025	0.015
-259.180	495.090	-0.118	-0.267
-258.165	47.803	-0.177	-0.163
-257.151	128.302	-0.213	-0.266
-256.136	369.746	0.060	-0.119
-255.122	272.031	-0.136	0.236
-254.107	61.025	-0.073	-0.072
-253.092	254.509	-0.053	-0.090
-252.078	-113.135	0.322	0.062
-251.063	1.048	-0.177	-0.125
-250.049	-200.000	0.000	-0.404
-249.034	-51.833	0.117	-0.053
-248.019	-126.170	0.260	-0.038
-247.005	160.568	-0.073	0.100
-245.990	-70.630	0.347	0.129
-244.976	-200.000	-0.009	-0.233
-243.961	114.477	-0.147	0.175
-242.946	212.522	0.177	0.274
-241.932	55.424	-0.159	0.151
-240.917	-169.460	0.432	-0.016
-239.903	188.864	-0.114	-0.167
-238.888	-113.078	-0.180	0.035
-237.873	-200.000	0.021	0.130
-236.859	-87.715	0.155	-0.046
-235.844	800.000	-0.121	0.356
-234.830	52.148	-0.130	-0.121
-233.815	118.866	0.141	-0.171
-232.800	-157.236	0.450	0.027
-231.786	18.213	0.057	-0.044
-230.771	-73.841	0.184	0.066
-229.757	-127.931	0.221	0.031
-228.742	-65.175	0.194	-0.077
-227.727	51.751	-0.164	0.153
-226.713	104.477	0.180	0.208
-225.698	135.863	0.336	0.429
-224.684	372.181	0.142	0.282
-223.669	138.066	0.133	0.172
-222.655	-133.925	-0.204	-0.025
-221.640	217.313	0.170	0.265
-220.625	-200.000	0.012	-0.096
-219.611	-26.260	0.104	0.060
-218.596	-200.000	0.022	0.252
-217.582	273.709	-0.084	-0.145
-216.567	39.991	0.319	0.281
-215.552	-154.582	0.257	-0.017
-214.538	59.634	-0.121	-0.117
-213.523	173.951	-0.120	-0.170
-212.509	249.898	-0.119	-0.199
-211.494	-81.277	0.296	0.096
-210.479	201.915	-0.030	-0.045
-209.465	5.579	-0.137	0.099
-208.450	-103.327	0.337	-0.078
-207.436	-61.720	-0.139	0.057
-206.421	-117.390	0.235	0.042
-205.406	800.000	0.051	-0.169
-204.392	-57.196	-0.076	0.033
-203.377	-139.883	-0.203	-0.021
-202.363	-200.000	0.001	-0.075
-201.348	27.821	0.175	0.145
-200.333	-200.000	0.022	0.392
-199.319	41.735	-0.129	-0.115
-198.304	573.429	0.056	0.135
-197.290	-165.966	0.081	0.003
-196.275	195.562	-0.044	-0.065
-195.260	33.073	-0.072	0.061
-194.246	-32.923	-0.233	-0.127
-193.231	-41.494	0.264	0.133
-192.217	-81.417	0.147	0.047
-191.202	8.351	0.211	0.155
-190.187	-200.000	-0.060	-0.451
-189.173	800.000	-0.070	-0.221
-188.158	420.877	-0.108	0.228
-187.144	-149.251	0.253	-0.020
-186.129	-73.724	0.091	-0.033
-185.114	-200.000	-0.028	0.202
-184.100	361.165	-0.088	0.174
-183.085	800.000	-0.072	0.211
-182.071	261.099	0.029	0.050
-181.056	-169.912	0.090	-0.003
-180.042	31.234	-0.218	0.183
-179.027	-200.000	0.022	0.171
-178.012	-200.000	-0.021	0.105
-176.998	-172.340	-0.170	0.005
-175.983	-97.604	-0.199	-0.051
-174.969	-24.352	-0.226	-0.132
-173.954	800.000	0.149	-0.444
-172.939	-37.487	0.519	-0.271
-171.925	800.000	0.024	0.076
-170.910	-21.647	0.189	-0.112
-169.896	-100.492	-0.145	0.035
-168.881	172.011	-0.074	0.105
-167.866	-108.282	0.096	-0.020
-166.852	-100.734	-0.129	-0.031
-165.837	-39.367	0.067	-0.034
-164.823	-200.000	0.094	-0.422
-163.808	-182.740	-0.131	-0.002
-162.793	-110.878	0.263	-0.053
-161.779	-118.015	0.036	0.006
-160.764	198.018	-0.150	-0.224
-159.750	-96.540	0.465	0.120
-158.735	-50.915	-0.242	0.111
-157.720	504.530	0.106	0.240
-156.706	-45.023	0.187	-0.091
-155.691	-16.472	0.183	0.114
-154.677	87.340	0.223	0.241
-153.662	388.874	0.041	-0.084
-152.647	-200.000	-0.017	-0.204
-151.633	-200.000	0.053	0.230
-150.618	-133.500	-0.076	0.009
-149.604	-200.000	-0.013	0.157
-148.589	350.332	0.221	0.426
-147.574	774.917	0.152	0.404
-146.560	166.762	0.157	0.218
-145.545	-200.000	-0.016	-0.176
-144.531	745.735	0.046	0.122
-143.516	-90.910	0.223	-0.063
-142.502	395.506	-0.089	-0.182
-141.487	112.426	0.178	-0.211
-140.472	-200.000	0.001	-0.055
-139.458	-4.617	0.149	-0.100
-138.443	-69.338	-0.370	0.139
-137.429	-114.104	0.104	-0.020
-136.414	-76.320	-0.164	-0.056
-135.399	-40.091	-0.021	-0.011
-134.385	138.319	-0.185	0.237
-133.370	-161.799	-0.220	-0.011
-132.356	440.581	0.091	-0.194
-131.341	-200.000	0.000	-0.243
-130.326	69.578	-0.212	0.214
-129.312	-122.780	0.179	-0.028
-128.297	536.798	0.123	0.286
-127.283	477.705	-0.060	-0.132
-126.268	-14.196	0.210	0.132
-125.253	800.000	-0.094	0.277
-124.239	214.332	0.046	0.070
-123.224	-28.197	0.089	0.050
