DTS Sentinel unit serial number:	SN413079Multiplexer serial number:	ORYXHardware model number:	OX4-SRSoftware version number:	ORYX F/W v4.00 Oryx Data Collector v3.7.2.0data status	okinstallation	princeton_trtdifferential loss correction	single-endedforward channel	channel 3reverse channel	N/Adate	2019/09/15time	20:08:34forward acquisition time	60.00reverse acquisition time	0.00gamma	496.2192k internal	0.2317k external	0.2317temperature offset calibration	0.9934default loss term (dB/km)	0.3790temperature slope calibration	1.0000multiplexer offset coefficient	1.0000multiplexer slope coefficient	1.0000fibre end	0.00T internal ref (°C)	35.03T ext. ref 1 (°C)	7.63T ext. ref 2 (°C)	25.94length (m)	temperature (°C)	Stokes	anti-Stokes-747.200	-200.000	-0.022	0.236
-746.185	154.771	0.051	0.070
-745.171	-5.366	-0.100	-0.070
-744.156	-140.690	0.465	-0.049
-743.142	-48.498	-0.246	-0.120
-742.127	-150.958	-0.282	-0.022
-741.112	337.040	-0.082	-0.161
-740.098	-172.160	-0.107	0.003
-739.083	-134.133	-0.296	-0.037
-738.069	-200.000	0.002	0.084
-737.054	-98.609	-0.089	0.023
-736.039	282.681	-0.120	0.218
-735.025	-24.938	0.208	0.125
-734.010	800.000	-0.107	-0.341
-732.996	559.120	0.049	-0.119
-731.981	416.971	-0.083	0.180
-730.966	360.126	0.138	0.280
-729.952	-53.009	-0.211	0.098
-728.937	16.025	-0.068	-0.054
-727.923	-200.000	0.044	-0.595
-726.908	65.828	-0.182	-0.186
-725.894	-27.236	-0.342	-0.202
-724.879	-94.052	0.052	-0.014
-723.864	499.625	-0.193	-0.449
-722.850	-200.000	-0.033	-0.333
-721.835	-200.000	-0.068	-0.328
-720.821	-200.000	0.019	0.097
-719.806	118.813	-0.102	0.127
-718.791	232.789	-0.219	0.364
-717.777	-31.074	0.309	0.177
-716.762	-123.327	-0.250	-0.040
-715.748	453.990	-0.072	0.161
-714.733	-39.067	0.202	-0.107
-713.718	-200.000	-0.012	-0.091
-712.704	-200.000	0.031	-0.185
-711.689	800.000	-0.029	0.122
-710.675	203.120	-0.113	-0.177
-709.660	-200.000	-0.018	-0.132
-708.645	131.405	0.195	0.254
-707.631	-76.196	-0.242	-0.086
-706.616	-106.019	-0.156	-0.035
-705.602	117.969	0.105	0.130
-704.587	-20.921	0.325	-0.201
-703.572	800.000	-0.014	-0.040
-702.558	-138.749	-0.072	0.008
-701.543	800.000	0.082	0.232
-700.529	-200.000	0.041	0.231
-699.514	-66.113	0.204	0.082
-698.499	-51.514	0.342	0.161
-697.485	185.727	-0.032	-0.048
-696.470	-28.732	0.290	0.169
-695.456	235.256	0.087	0.145
-694.441	-109.469	-0.252	0.054
-693.426	-200.000	-0.029	0.141
-692.412	-144.922	-0.341	0.032
-691.397	-200.000	-0.061	-0.352
-690.383	634.364	-0.123	-0.315
-689.368	-200.000	0.002	-0.106
-688.354	800.000	-0.039	0.170
-687.339	493.909	-0.139	0.321
-686.324	-200.000	-0.099	-0.484
-685.310	-58.645	-0.271	-0.119
-684.295	87.235	-0.348	-0.388
-683.281	227.704	-0.227	-0.372
-682.266	-112.514	-0.223	0.045
-681.251	74.799	-0.057	0.061
-680.237	-101.106	0.375	-0.093
-679.222	169.436	0.288	-0.416
-678.208	-61.594	-0.050	0.021
-677.193	-200.000	-0.014	-0.212
-676.178	-79.966	-0.171	-0.058
-675.164	372.398	-0.191	-0.391
-674.149	-200.000	0.120	-0.587
-673.135	-108.891	0.118	-0.025
-672.120	-200.000	-0.010	0.471
-671.105	-93.528	-0.363	-0.101
-670.091	-200.000	0.056	-0.275
-669.076	800.000	0.070	0.309
-668.062	72.982	-0.138	0.146
-667.047	265.588	-0.103	0.181
-666.032	276.931	0.139	0.250
-665.018	-200.000	0.021	-0.247
-664.003	-141.087	-0.288	-0.030
-662.989	116.884	0.236	-0.293
-661.974	34.231	-0.225	-0.198
-660.959	42.102	-0.177	-0.162
-659.945	-134.607	-0.182	0.022
-658.930	-146.231	-0.093	-0.008
-657.916	800.000	-0.086	0.356
-656.901	-100.524	-0.275	0.069
-655.886	-200.000	0.009	0.129
-654.872	-157.564	-0.200	0.012
-653.857	-142.499	0.126	-0.012
-652.843	62.995	0.166	0.168
-651.828	-190.273	0.157	0.002
-650.814	361.486	0.101	-0.205
-649.799	-91.630	-0.091	-0.026
-648.784	192.069	0.108	0.164
-647.770	161.726	0.138	0.195
-646.755	17.186	-0.216	0.173
-645.741	149.616	-0.197	-0.269
-644.726	217.277	-0.044	-0.070
-643.711	-154.586	-0.070	0.005
-642.697	-200.000	-0.040	-0.241
-641.682	40.928	0.132	0.120
-640.668	199.766	-0.265	-0.410
-639.653	131.883	0.210	-0.273
-638.638	77.707	-0.013	0.014
-637.624	-162.390	-0.090	-0.004
-636.609	52.111	-0.188	-0.181
-635.595	-131.627	-0.214	-0.028
-634.580	124.517	0.068	-0.087
-633.565	-104.565	-0.146	0.034
-632.551	-98.923	0.289	-0.074
-631.536	399.652	-0.138	0.293
-630.522	-200.000	0.033	0.194
-629.507	-161.038	0.283	0.015
-628.492	72.811	0.168	-0.177
-627.478	-156.355	-0.328	0.021
-626.463	61.905	-0.217	-0.218
-625.449	207.000	0.145	0.228
-624.434	800.000	0.087	-0.251
-623.419	45.966	0.017	0.016
-622.405	69.590	0.325	-0.337
-621.390	-200.000	-0.011	0.309
-620.376	0.365	0.222	-0.160
-619.361	-200.000	-0.039	-0.299
-618.346	-99.677	-0.216	0.055
-617.332	-55.493	0.103	-0.046
-616.317	-13.838	0.417	0.271
-615.303	532.730	-0.133	0.318
-614.288	800.000	-0.106	0.328
-613.273	218.564	0.208	-0.335
-612.259	626.264	0.116	0.294
-611.244	800.000	0.023	-0.091
-610.230	-159.988	-0.212	-0.012
-609.215	-183.526	0.236	0.004
-608.201	-30.447	0.209	0.119
-607.186	24.641	0.072	0.060
-606.171	-163.300	0.131	0.006
-605.157	-200.000	0.019	-0.254
-604.142	-200.000	-0.013	-0.216
-603.128	800.000	0.067	0.255
-602.113	403.387	0.102	-0.215
-601.098	-116.517	0.178	0.033
-600.084	17.065	0.150	-0.120
-599.069	-36.800	-0.137	-0.074
-598.055	-200.000	0.015	0.303
-597.040	-51.397	-0.200	-0.094
-596.025	571.325	0.097	0.238
-595.011	-112.207	-0.325	0.066
-593.996	209.769	0.137	0.216
-592.982	-112.759	-0.149	-0.030
-591.967	167.945	-0.086	-0.124
-590.952	-3.609	0.171	0.119
-589.938	-35.912	-0.141	-0.077
-588.923	-170.600	0.232	0.008
-587.909	-200.000	0.020	0.103
-586.894	-72.243	0.123	-0.046
-585.879	-115.286	-0.369	0.070
-584.865	-170.002	-0.199	-0.007
-583.850	-99.838	0.194	0.049
-582.836	347.792	0.087	0.172
-581.821	-200.000	0.063	-0.303
-580.806	-73.458	0.113	0.041
-579.792	146.094	0.131	-0.177
-578.777	800.000	0.078	0.294
-577.763	-6.335	-0.412	0.283
-576.748	800.000	-0.046	-0.177
-575.733	-99.580	0.287	-0.072
-574.719	-143.133	-0.172	-0.017
-573.704	-181.400	-0.207	0.004
-572.690	429.669	0.136	0.296
-571.675	-66.147	0.265	0.106
-570.661	101.979	0.241	0.284
-569.646	-35.317	0.184	0.101
-568.631	-200.000	0.022	-0.156
-567.617	287.121	-0.043	-0.078
-566.602	-200.000	-0.077	-0.528
-565.588	-109.447	-0.482	-0.103
-564.573	-102.438	-0.326	0.078
-563.558	-83.464	0.190	-0.061
-562.544	800.000	0.030	0.129
-561.529	126.870	-0.120	0.153
-560.515	14.061	0.312	-0.244
-559.500	12.273	0.049	0.038
-558.485	-200.000	0.036	-0.285
-557.471	247.193	-0.105	-0.178
-556.456	-200.000	-0.021	-0.103
-555.442	337.308	-0.069	0.135
-554.427	14.568	-0.180	-0.142
-553.412	-200.000	-0.048	-0.488
-552.398	-56.240	-0.204	-0.091
-551.383	49.242	-0.292	0.276
-550.369	800.000	0.092	0.285
-549.354	800.000	0.012	-0.044
-548.339	12.531	-0.155	-0.120
-547.325	149.479	0.141	-0.192
-546.310	95.448	-0.272	0.311
-545.296	197.547	0.106	0.163
-544.281	-200.000	-0.048	0.300
-543.266	-200.000	-0.030	0.376
-542.252	0.146	0.064	0.046
-541.237	-200.000	0.009	0.045
-540.223	338.916	0.086	0.168
-539.208	639.420	-0.095	0.242
-538.193	-157.351	0.097	0.006
-537.179	-200.000	-0.033	0.268
-536.164	109.989	-0.070	-0.084
-535.150	646.386	-0.034	0.086
-534.135	800.000	0.070	0.298
-533.121	-76.785	-0.226	-0.079
-532.106	-200.000	-0.006	-0.344
-531.091	100.140	0.128	-0.149
-530.077	215.502	-0.125	-0.198
-529.062	800.000	0.142	-0.463
-528.048	351.051	0.091	0.180
-527.033	277.668	0.086	-0.154
-526.018	291.263	-0.086	-0.158
-525.004	696.769	-0.086	0.227
-523.989	28.736	0.112	0.096
-522.975	177.342	-0.100	-0.146
-521.960	-116.673	-0.152	0.028
-520.945	-38.966	-0.257	0.136
-519.931	304.590	-0.109	-0.202
-518.916	-73.611	-0.113	-0.041
-517.902	78.517	0.137	-0.147
-516.887	55.092	-0.037	0.036
-515.872	-126.755	-0.355	-0.053
-514.858	112.690	-0.249	-0.303
-513.843	-176.186	-0.269	0.007
-512.829	800.000	0.028	0.094
-511.814	-58.170	0.384	0.168
-510.799	-117.052	0.083	-0.015
-509.785	-200.000	-0.035	0.214
-508.770	-200.000	-0.022	-0.207
-507.756	16.414	-0.122	0.097
-506.741	-69.300	0.277	0.107
-505.726	152.678	0.243	0.332
-504.712	-200.000	-0.033	-0.157
-503.697	-14.903	0.064	-0.041
-502.683	-101.844	-0.081	0.020
-501.668	-41.111	0.232	0.120
-500.653	-19.615	-0.187	-0.116
-499.639	327.261	-0.125	0.240
-498.624	170.447	0.133	0.191
-497.610	23.802	0.119	0.099
-496.595	-132.855	-0.186	-0.024
-495.581	-43.996	-0.127	-0.064
-494.566	444.899	0.147	0.323
-493.551	335.889	-0.171	-0.333
-492.537	800.000	0.031	0.096
-491.522	-27.700	0.266	0.154
-490.508	-103.105	-0.127	-0.030
-489.493	79.636	-0.095	0.103
-488.478	-200.000	0.034	-0.160
-487.464	-87.294	-0.188	-0.057
-486.449	-55.045	0.112	-0.050
-485.435	-200.000	0.017	0.180
-484.420	76.183	-0.103	0.109
-483.405	-200.000	-0.093	-0.428
-482.391	37.551	-0.207	-0.184
-481.376	-200.000	-0.030	-0.253
-480.362	-200.000	-0.025	0.198
-479.347	-108.373	0.147	-0.032
-478.332	-54.864	-0.285	-0.129
-477.318	172.702	0.124	-0.179
-476.303	-200.000	0.055	-0.373
-475.289	-200.000	0.048	-0.280
-474.274	800.000	-0.019	0.065
-473.259	-200.000	0.000	-0.134
-472.245	-146.221	-0.152	-0.013
-471.230	258.305	0.300	0.518
-470.216	-19.275	-0.164	0.102
-469.201	138.044	0.090	-0.118
-468.186	-84.029	-0.388	0.123
-467.172	-200.000	0.050	-0.413
-466.157	800.000	-0.069	-0.197
-465.143	-200.000	-0.006	0.189
-464.128	266.616	0.050	-0.087
-463.113	131.049	-0.042	-0.054
-462.099	537.210	-0.053	0.127
-461.084	-58.284	-0.134	-0.058
-460.070	800.000	0.047	0.171
-459.055	-17.922	-0.446	-0.280
-458.040	69.544	-0.362	-0.373
-457.026	589.106	0.095	-0.234
-456.011	-200.000	0.065	-0.311
-454.997	193.013	0.059	-0.089
-453.982	102.233	0.148	-0.173
-452.968	-177.632	-0.157	0.004
-451.953	-95.757	0.263	0.070
-450.938	-56.093	-0.220	-0.098
-449.924	-85.541	0.232	-0.072
-448.909	654.252	0.173	0.445
-447.895	235.905	-0.040	-0.067
-446.880	-9.408	0.158	-0.106
-445.865	-76.984	-0.124	-0.043
-444.851	208.630	0.118	0.184
-443.836	114.064	0.076	0.093
-442.822	800.000	0.034	-0.105
-441.807	-102.543	0.430	0.103
-440.792	800.000	-0.008	-0.032
-439.778	154.599	0.050	0.069
-438.763	15.032	-0.138	-0.108
-437.749	69.458	0.357	0.368
-436.734	-138.429	-0.113	0.012
-435.719	459.703	-0.047	-0.104
-434.705	800.000	0.042	-0.148
-433.690	-88.136	0.196	-0.059
-432.676	-24.223	0.131	-0.078
-431.661	-200.000	-0.038	0.172
-430.646	-200.000	-0.040	0.194
-429.632	508.103	-0.089	0.206
-428.617	-200.000	0.030	-0.240
-427.603	800.000	0.076	0.253
-426.588	295.856	0.091	-0.167
-425.573	-132.217	0.231	-0.030
-424.559	160.878	-0.056	0.078
-423.544	-42.331	-0.183	0.094
-422.530	-96.486	0.144	-0.038
-421.515	44.100	0.070	0.065
-420.500	-7.652	-0.197	0.133
-419.486	-105.783	-0.411	0.093
-418.471	69.383	-0.241	0.248
-417.457	-200.000	-0.012	-0.182
-416.442	-200.000	0.046	-0.204
-415.428	-129.722	0.200	-0.028
-414.413	-37.224	-0.263	0.141
-413.398	424.632	0.130	0.280
-412.384	-200.000	-0.017	-0.112
-411.369	247.018	-0.158	0.266
-410.355	-55.420	0.155	0.070
-409.340	731.174	-0.066	-0.177
-408.325	-0.456	0.149	-0.106
-407.311	800.000	-0.100	0.326
-406.296	432.544	0.071	0.153
-405.282	-118.707	0.104	-0.018
-404.267	167.096	0.167	-0.237
-403.252	-104.520	0.223	-0.051
-402.238	139.829	0.105	-0.139
-401.223	-200.000	-0.033	-0.173
-400.209	-51.466	0.243	0.114
-399.194	800.000	0.025	0.072
-398.179	123.171	0.166	0.208
-397.165	37.683	0.103	-0.091
-396.150	472.140	0.101	-0.228
-395.136	-112.942	-0.072	-0.014
-394.121	-200.000	-0.020	0.163
-393.106	-200.000	0.015	0.306
-392.092	-150.821	0.468	-0.035
-391.077	-8.786	-0.198	0.133
-390.063	-200.000	-0.018	-0.135
-389.048	-152.573	-0.034	-0.002
-388.033	-200.000	0.016	0.175
-387.019	158.517	0.193	-0.267
-386.004	94.143	-0.090	-0.102
-384.990	767.507	0.107	0.291
-383.975	615.692	0.124	0.310
-382.960	-200.000	0.073	-0.321
-381.946	-200.000	-0.034	0.165
-380.931	0.192	-0.390	-0.278
-379.917	800.000	-0.018	0.073
-378.902	800.000	0.025	-0.076
-377.888	-76.474	0.103	-0.036
-376.873	19.726	-0.275	0.221
-375.858	-21.358	-0.218	0.133
-374.844	114.755	0.119	0.144
-373.829	-149.898	0.196	-0.015
-372.815	84.234	0.144	0.158
-371.800	-200.000	-0.040	0.258
-370.785	175.626	-0.011	-0.017
-369.771	-12.427	0.341	-0.222
-368.756	536.482	-0.042	-0.099
-367.742	8.430	-0.208	0.156
-366.727	-200.000	0.025	-0.144
-365.712	72.117	0.047	0.049
-364.698	-200.000	0.021	0.310
-363.683	125.838	0.179	-0.226
-362.669	-119.466	0.142	-0.025
-361.654	-115.012	0.091	0.017
-360.639	-175.550	0.047	0.001
-359.625	7.366	0.143	0.107
-358.610	183.118	0.085	0.125
-357.596	-43.278	-0.409	-0.206
-356.581	-180.394	-0.082	-0.002
-355.566	-95.569	0.178	-0.047
-354.552	-200.000	0.018	-0.252
-353.537	-72.968	0.303	0.111
-352.523	123.537	0.148	0.185
-351.508	-76.433	0.172	-0.060
-350.493	-15.412	-0.068	-0.043
-349.479	-84.959	-0.197	-0.062
-348.464	-41.147	-0.395	0.203
-347.450	-74.548	0.247	0.089
-346.435	280.854	-0.090	-0.160
-345.420	800.000	0.028	-0.093
-344.406	-77.393	-0.028	-0.010
-343.391	-143.321	-0.134	-0.013
-342.377	800.000	0.044	0.147
-341.362	222.593	-0.029	-0.047
-340.348	-89.475	-0.088	0.026
-339.333	-200.000	-0.016	0.176
-338.318	-1.175	0.168	-0.119
-337.304	-63.008	0.347	0.143
-336.289	145.728	-0.093	0.124
-335.275	-108.015	-0.495	-0.107
-334.260	204.337	-0.095	-0.146
-333.245	-84.416	-0.279	0.088
-332.231	-129.471	0.229	0.032
-331.216	-51.847	-0.410	0.190
-330.202	-200.000	-0.021	-0.230
-329.187	721.731	-0.033	-0.088
-328.172	-78.977	-0.214	0.073
-327.158	-146.026	0.191	-0.017
-326.143	-163.759	-0.220	-0.010
-325.129	-200.000	0.063	-0.323
-324.114	-200.000	0.002	-0.013
-323.099	-200.000	0.015	0.171
-322.085	152.640	-0.130	-0.177
-321.070	-83.502	-0.262	-0.084
-320.056	-200.000	0.044	0.319
-319.041	159.083	0.103	0.143
-318.026	6.123	0.268	0.198
-317.012	-45.263	0.173	-0.086
-315.997	112.605	-0.125	0.151
-314.983	142.347	0.193	0.255
-313.968	-84.762	0.080	-0.025
-312.953	-2.135	0.234	-0.164
-311.939	-21.484	0.212	-0.129
-310.924	292.730	-0.164	0.298
-309.910	800.000	0.103	0.294
-308.895	70.984	0.138	0.142
-307.880	302.266	-0.256	-0.471
-306.866	800.000	-0.066	-0.203
-305.851	0.102	-0.097	0.069
-304.837	586.935	-0.122	0.298
-303.822	-200.000	0.015	0.365
-302.807	-200.000	-0.030	0.382
-301.793	331.837	0.139	0.266
-300.778	-3.683	-0.124	-0.086
-299.764	109.736	-0.160	-0.191
-298.749	400.163	-0.103	0.216
-297.735	-200.000	0.066	-0.312
-296.720	573.263	-0.115	0.279
-295.705	1.884	0.129	0.093
-294.691	-150.191	-0.255	-0.020
-293.676	800.000	-0.014	0.041
-292.662	-56.436	-0.064	0.028
-291.647	0.642	-0.228	0.162
-290.632	-200.000	-0.029	-0.435
-289.618	641.050	-0.163	-0.413
-288.603	-200.000	-0.020	-0.195
-287.589	113.913	-0.158	0.191
-286.574	19.483	-0.161	0.129
-285.559	-113.039	0.274	0.054
-284.545	191.942	0.069	-0.104
-283.530	-73.970	0.190	-0.068
-282.516	-65.459	-0.127	0.051
-281.501	-200.000	0.055	-0.283
-280.486	-200.000	-0.032	0.215
-279.472	87.069	-0.032	0.035
-278.457	241.086	0.131	0.217
-277.443	168.394	0.053	0.075
-276.428	95.021	-0.132	-0.150
-275.413	-6.191	-0.086	0.058
-274.399	-108.553	0.244	-0.052
-273.384	-36.268	-0.315	0.169
-272.370	103.605	0.146	-0.170
-271.355	26.859	-0.034	0.029
-270.340	-70.419	-0.504	-0.190
-269.326	-121.799	0.038	-0.006
-268.311	13.418	-0.232	0.179
-267.297	184.685	0.136	-0.200
-266.282	-128.476	-0.277	0.039
-265.267	46.202	0.035	0.032
-264.253	112.002	-0.125	0.150
-263.238	-200.000	-0.005	-0.311
-262.224	491.234	-0.189	-0.429
-261.209	-45.578	0.211	-0.104
-260.195	-200.000	0.002	-0.097
-259.180	558.839	0.188	0.451
-258.165	146.519	0.179	-0.240
-257.151	-74.498	-0.155	0.055
-256.136	-183.220	0.291	-0.005
-255.122	-111.606	-0.128	0.026
-254.107	355.974	-0.041	-0.080
-253.092	-114.320	-0.226	0.043
-252.078	-102.011	-0.166	-0.040
-251.063	292.225	-0.163	-0.295
-250.049	800.000	0.083	0.240
-249.034	303.685	0.083	0.154
-248.019	800.000	0.110	-0.387
-247.005	136.086	0.051	-0.066
-245.990	598.179	-0.095	-0.235
-244.976	-200.000	0.027	0.131
-243.961	-200.000	0.007	0.204
-242.946	-200.000	0.065	-0.387
-241.932	153.029	-0.081	-0.109
-240.917	-200.000	-0.036	0.245
-239.903	82.159	0.325	0.349
-238.888	259.418	0.099	-0.170
-237.873	-200.000	-0.048	-0.241
-236.859	-127.102	-0.235	-0.034
-235.844	-200.000	0.011	0.084
-234.830	-200.000	0.023	-0.333
-233.815	-116.835	-0.162	0.029
-232.800	-173.596	-0.506	0.015
-231.786	226.194	-0.122	-0.197
-230.771	-200.000	0.017	-0.100
-229.757	800.000	-0.068	-0.231
-228.742	800.000	0.061	-0.224
-227.727	172.383	-0.174	0.248
-226.713	589.386	-0.090	0.219
-225.698	-161.399	-0.320	0.016
-224.684	-101.265	0.336	-0.081
-223.669	800.000	-0.084	-0.274
-222.655	-109.961	0.348	-0.072
-221.640	174.477	-0.169	-0.242
-220.625	-84.522	-0.322	0.101
-219.611	-200.000	-0.105	-0.460
-218.596	-3.234	-0.091	-0.063
-217.582	-61.367	-0.131	-0.055
-216.567	-169.687	0.217	-0.008
-215.552	150.020	0.269	0.362
-214.538	10.812	0.058	-0.044
-213.523	-124.989	0.195	0.030
-212.509	-13.279	0.289	-0.186
-211.494	-22.684	-0.107	-0.064
-210.479	-124.892	0.140	0.021
-209.465	624.283	-0.179	0.447
-208.450	352.441	0.075	-0.148
-207.436	-111.950	0.224	0.045
-206.421	395.832	-0.101	-0.210
-205.406	-95.552	-0.027	-0.007
-204.392	24.333	-0.100	-0.082
-203.377	-200.000	0.040	0.191
-202.363	-200.000	-0.013	0.089
-201.348	-35.542	0.296	0.159
-200.333	95.514	-0.141	-0.160
-199.319	-163.961	0.036	-0.002
-198.304	-200.000	-0.025	0.192
-197.290	-173.325	-0.065	-0.002
-196.275	-200.000	-0.034	0.163
-195.260	102.694	0.104	-0.120
-194.246	-134.969	0.221	0.026
-193.231	800.000	0.014	-0.042
-192.217	471.356	-0.102	0.227
-191.202	800.000	-0.093	0.325
-190.187	544.234	0.084	-0.199
-189.173	701.454	-0.032	0.083
-188.158	-164.353	0.351	0.016
-187.144	-78.254	0.336	-0.114
-186.129	190.991	0.216	0.322
-185.114	196.636	0.095	0.144
-184.100	43.720	0.172	-0.156
-183.085	-54.302	0.287	-0.129
-182.071	126.233	-0.059	0.074
-181.056	-200.000	-0.006	-0.073
-180.042	-200.000	-0.016	0.207
-179.027	32.514	-0.235	-0.201
-178.012	-4.216	0.149	0.102
-176.998	-54.959	-0.130	-0.058
-175.983	-72.929	-0.339	0.123
-174.969	244.344	-0.046	0.077
-173.954	-62.773	-0.033	-0.014
-172.939	28.342	0.115	-0.096
-171.925	-87.003	0.330	-0.099
-170.910	154.908	0.040	-0.054
-169.896	-144.370	0.091	0.008
-168.881	-184.692	0.035	0.001
-167.866	-149.098	-0.255	0.020
-166.852	-95.943	0.603	0.159
-165.837	-185.288	0.238	-0.004
-164.823	-32.722	-0.057	-0.031
-163.808	-125.264	-0.048	0.007
-162.793	-11.038	0.174	0.114
-161.779	667.557	0.183	0.468
-160.764	-14.081	0.076	-0.049
-159.750	-200.000	0.026	-0.192
-158.735	18.784	0.046	0.037
-157.720	137.869	-0.113	0.146
-156.706	557.370	-0.080	-0.192
-155.691	-93.574	0.093	-0.025
-154.677	639.295	-0.049	0.122
-153.662	240.826	0.141	-0.233
-152.647	-74.012	-0.348	-0.125
-151.633	-87.649	-0.201	-0.060
-150.618	127.943	-0.099	0.124
-149.604	-101.570	-0.140	0.034
-148.589	105.189	-0.196	-0.229
-147.574	278.255	0.214	0.377
-146.560	-200.000	0.011	0.074
-145.545	7.808	-0.193	-0.143
-144.531	-37.185	-0.271	0.144
-143.516	800.000	0.073	-0.302
-142.502	12.587	-0.266	0.203
-141.487	800.000	0.037	0.134
-140.472	800.000	-0.079	-0.237
-139.458	45.566	0.222	-0.202
-138.443	-200.000	0.033	-0.263
-137.429	-27.275	-0.270	0.155
-136.414	-49.027	-0.084	0.040
-135.399	800.000	-0.066	0.187
-134.385	-200.000	-0.003	0.270
-133.370	262.349	0.105	0.180
-132.356	136.789	-0.108	-0.139
-131.341	-20.078	0.371	-0.226
-130.326	52.010	-0.051	0.048
-129.312	-127.581	-0.265	0.038
-128.297	-1.421	0.115	0.080
-127.283	800.000	-0.051	0.149
-126.268	365.419	-0.111	0.221
-125.253	-145.131	-0.222	0.020
-124.239	393.889	0.024	-0.050
-123.224	287.616	0.231	-0.412
