DTS Sentinel unit serial number:	SN413079Multiplexer serial number:	ORYXHardware model number:	OX4-SRSoftware version number:	ORYX F/W v4.00 Oryx Data Collector v3.7.2.0data status	okinstallation	princeton_trtdifferential loss correction	single-endedforward channel	channel 3reverse channel	N/Adate	2019/09/15time	05:20:35forward acquisition time	60.00reverse acquisition time	0.00gamma	496.2192k internal	0.2325k external	0.2325temperature offset calibration	0.9979default loss term (dB/km)	0.3790temperature slope calibration	1.0000multiplexer offset coefficient	1.0000multiplexer slope coefficient	1.0000fibre end	0.00T internal ref (°C)	30.62T ext. ref 1 (°C)	4.81T ext. ref 2 (°C)	25.58length (m)	temperature (°C)	Stokes	anti-Stokes-747.200	-45.755	-0.132	-0.066
-746.185	24.274	0.305	0.254
-745.171	-165.034	0.408	0.018
-744.156	-143.934	-0.122	0.012
-743.142	534.259	0.066	0.159
-742.127	88.091	0.150	-0.167
-741.112	-200.000	-0.011	0.086
-740.098	-200.000	-0.028	0.216
-739.083	-125.055	-0.177	0.027
-738.069	4.772	-0.153	-0.114
-737.054	-14.770	0.094	0.061
-736.039	143.639	-0.225	0.302
-735.025	-74.698	0.205	0.075
-734.010	384.698	-0.064	0.134
-732.996	800.000	-0.043	-0.148
-731.981	800.000	-0.098	0.286
-730.966	-43.946	-0.207	-0.105
-729.952	586.276	-0.020	-0.050
-728.937	-65.776	-0.257	-0.104
-727.923	-121.955	0.099	-0.016
-726.908	-200.000	-0.023	0.110
-725.894	-60.657	-0.108	0.046
-724.879	-200.000	-0.037	-0.362
-723.864	-200.000	0.010	-0.117
-722.850	631.240	-0.113	-0.289
-721.835	-64.706	-0.223	-0.091
-720.821	63.430	-0.055	0.055
-719.806	583.707	-0.079	0.196
-718.791	-200.000	-0.022	0.178
-717.777	163.889	0.106	0.151
-716.762	-65.319	0.286	-0.116
-715.748	-24.260	-0.203	-0.122
-714.733	-92.490	0.442	-0.125
-713.718	-19.845	-0.235	-0.147
-712.704	800.000	-0.029	-0.099
-711.689	-99.831	-0.248	0.063
-710.675	-80.615	-0.215	-0.072
-709.660	-200.000	-0.002	0.110
-708.645	24.596	0.259	0.216
-707.631	-19.791	-0.048	0.030
-706.616	800.000	0.064	-0.280
-705.602	-200.000	-0.004	-0.050
-704.587	-200.000	0.023	-0.159
-703.572	800.000	-0.030	-0.116
-702.558	104.143	-0.076	-0.091
-701.543	-116.692	-0.089	-0.017
-700.529	800.000	-0.088	-0.351
-699.514	-200.000	0.081	0.447
-698.499	1.587	-0.249	-0.181
-697.485	-156.984	0.179	-0.011
-696.470	-72.492	0.109	-0.041
-695.456	800.000	0.026	-0.114
-694.441	57.172	-0.091	0.090
-693.426	-105.122	0.125	0.029
-692.412	-89.011	-0.125	0.037
-691.397	-87.285	-0.295	0.090
-690.383	326.077	-0.074	0.142
-689.368	-178.830	-0.256	-0.006
-688.354	100.008	0.315	0.368
-687.339	145.494	-0.112	-0.151
-686.324	-93.439	0.238	0.066
-685.310	-101.342	0.194	-0.048
-684.295	800.000	-0.034	0.140
-683.281	-200.000	0.005	-0.284
-682.266	55.739	-0.205	0.200
-681.251	-102.909	0.521	-0.125
-680.237	-100.472	-0.221	-0.055
-679.222	-89.084	0.070	-0.021
-678.208	587.158	0.075	-0.186
-677.193	460.448	-0.218	0.489
-676.178	-72.976	0.243	0.090
-675.164	-71.207	-0.064	0.024
-674.149	800.000	0.045	0.142
-673.135	-200.000	-0.013	-0.324
-672.120	-148.706	0.189	0.015
-671.105	16.035	-0.075	0.059
-670.091	-200.000	-0.027	0.162
-669.076	-85.939	-0.166	0.052
-668.062	-66.288	0.024	-0.010
-667.047	800.000	0.021	-0.068
-666.032	-164.429	-0.231	0.011
-665.018	-200.000	0.008	-0.344
-664.003	32.697	-0.311	-0.271
-662.989	-95.241	0.259	-0.070
-661.974	262.457	0.092	-0.161
-660.959	108.893	-0.199	-0.239
-659.945	-174.200	0.403	-0.012
-658.930	-67.229	0.161	0.064
-657.916	23.066	-0.099	0.082
-656.901	-200.000	0.024	-0.329
-655.886	-78.464	0.017	-0.006
-654.872	-2.293	0.314	0.222
-653.857	670.992	0.147	-0.383
-652.843	-48.468	-0.280	-0.136
-651.828	-11.201	0.070	-0.047
-650.814	43.505	0.185	0.170
-649.799	673.899	-0.047	0.122
-648.784	150.562	0.101	0.139
-647.770	22.668	0.258	-0.212
-646.755	-164.714	-0.201	-0.009
-645.741	208.604	-0.032	-0.050
-644.726	-107.807	0.234	0.051
-643.711	-200.000	0.016	0.078
-642.697	80.480	0.146	0.158
-641.682	82.558	-0.073	-0.080
-640.668	224.805	-0.133	0.217
-639.653	-96.089	-0.212	-0.057
-638.638	-5.735	-0.287	-0.198
-637.624	-119.659	-0.431	-0.075
-636.609	-153.457	0.248	-0.017
-635.595	-171.805	-0.187	0.006
-634.580	-16.833	0.162	0.103
-633.565	167.309	-0.035	0.051
-632.551	-189.504	-0.045	-0.001
-631.536	188.318	0.159	0.239
-630.522	44.352	0.137	0.126
-629.507	-139.927	-0.135	-0.014
-628.492	-200.000	-0.026	-0.160
-627.478	48.322	-0.188	-0.176
-626.463	-158.929	-0.333	0.019
-625.449	-23.055	0.231	-0.140
-624.434	-122.502	0.122	0.020
-623.419	-49.259	0.225	-0.108
-622.405	62.991	0.144	-0.144
-621.390	-77.116	-0.084	-0.029
-620.376	-200.000	-0.046	-0.500
-619.361	-166.529	-0.239	0.010
-618.346	-72.159	0.298	-0.111
-617.332	-39.876	-0.152	-0.080
-616.317	-92.432	-0.085	0.024
-615.303	-73.709	-0.390	-0.143
-614.288	381.041	0.160	-0.330
-613.273	-185.885	0.134	0.002
-612.259	-83.296	0.160	0.052
-611.244	80.069	0.359	0.387
-610.230	25.526	0.230	0.192
-609.215	800.000	0.084	-0.279
-608.201	5.437	-0.177	0.131
-607.186	-60.138	-0.393	0.168
-606.171	800.000	0.098	-0.353
-605.157	-200.000	-0.012	0.088
-604.142	-200.000	0.034	-0.154
-603.128	-200.000	-0.001	0.241
-602.113	-77.472	0.118	-0.041
-601.098	-200.000	-0.035	-0.293
-600.084	-47.549	0.136	-0.066
-599.069	-200.000	-0.006	0.496
-598.055	-28.685	0.140	-0.081
-597.040	-200.000	-0.027	0.241
-596.025	-88.320	0.151	0.045
-595.011	306.219	-0.052	0.098
-593.996	-200.000	-0.032	0.216
-592.982	-200.000	0.012	0.199
-591.967	-48.257	-0.374	-0.181
-590.952	116.684	0.116	0.142
-589.938	295.692	0.156	-0.287
-588.923	72.033	0.105	0.109
-587.909	556.391	-0.177	0.427
-586.894	414.551	-0.084	0.180
-585.879	-142.982	0.430	0.042
-584.865	74.010	-0.211	0.222
-583.850	29.859	-0.060	-0.051
-582.836	-183.981	0.489	0.008
-581.821	7.784	0.029	0.022
-580.806	315.367	0.023	-0.043
-579.792	129.180	-0.204	-0.260
-578.777	800.000	0.080	-0.324
-577.763	165.111	0.228	-0.322
-576.748	228.640	-0.245	-0.401
-575.733	-155.669	-0.257	-0.017
-574.719	-200.000	0.039	0.423
-573.704	-39.313	0.374	0.197
-572.690	-119.184	-0.298	-0.052
-571.675	5.326	-0.330	-0.244
-570.661	-200.000	0.036	-0.327
-569.646	-200.000	0.025	0.185
-568.631	-7.186	0.061	0.042
-567.617	214.557	-0.027	-0.043
-566.602	-38.084	-0.200	0.106
-565.588	-15.001	-0.099	0.064
-564.573	-200.000	-0.022	0.164
-563.558	-26.026	-0.125	0.074
-562.544	-127.147	-0.173	-0.025
-561.529	-25.135	-0.338	0.201
-560.515	-14.576	0.111	-0.072
-559.500	10.336	-0.410	-0.312
-558.485	-155.207	-0.278	0.018
-557.471	-69.690	-0.439	0.168
-556.456	13.560	-0.080	-0.062
-555.442	-200.000	0.026	0.329
-554.427	-93.307	0.089	-0.025
-553.412	544.275	-0.148	0.353
-552.398	800.000	0.021	-0.077
-551.383	428.244	-0.122	-0.264
-550.369	-5.067	0.167	0.115
-549.354	800.000	-0.040	-0.177
-548.339	50.361	0.202	-0.191
-547.325	38.180	0.075	-0.067
-546.310	120.126	-0.230	-0.286
-545.296	-32.029	0.251	0.140
-544.281	-79.178	-0.233	0.079
-543.266	-200.000	0.002	-0.053
-542.252	-200.000	-0.010	0.049
-541.237	39.634	-0.203	0.182
-540.223	-54.937	-0.156	0.070
-539.208	800.000	0.028	-0.081
-538.193	-200.000	0.042	-0.265
-537.179	-75.825	0.220	0.078
-536.164	-200.000	-0.061	-0.323
-535.150	-97.053	0.141	0.037
-534.135	35.620	-0.176	0.155
-533.121	-163.185	-0.199	0.010
-532.106	107.278	0.073	-0.087
-531.091	800.000	0.091	-0.350
-530.077	-126.847	0.358	-0.053
-529.062	-91.723	-0.226	0.064
-528.048	322.692	0.115	-0.220
-527.033	224.318	0.086	0.140
-526.018	-130.203	0.266	0.036
-525.004	467.898	-0.105	0.235
-523.989	-39.390	0.094	0.049
-522.975	331.163	0.054	-0.104
-521.960	-142.230	-0.269	-0.027
-520.945	-200.000	-0.057	0.356
-519.931	800.000	-0.055	-0.168
-518.916	-12.004	-0.152	-0.099
-517.902	-21.837	-0.102	-0.062
-516.887	-200.000	-0.054	-0.384
-515.872	-183.693	-0.134	0.002
-514.858	150.154	0.168	0.228
-513.843	100.120	-0.136	0.158
-512.829	-108.119	0.085	-0.018
-511.814	-131.211	0.320	0.042
-510.799	625.367	-0.103	0.261
-509.785	-103.093	0.169	-0.040
-508.770	477.103	-0.090	0.204
-507.756	-135.111	-0.600	0.072
-506.741	60.271	0.157	-0.155
-505.726	-36.923	-0.071	0.038
-504.712	290.264	-0.118	0.214
-503.697	-29.914	0.197	0.112
-502.683	-106.598	-0.029	-0.006
-501.668	-80.665	0.259	0.086
-500.653	-83.006	-0.057	-0.018
-499.639	-200.000	0.080	-0.465
-498.624	-61.413	-0.134	-0.056
-497.610	207.986	0.155	-0.243
-496.595	-151.774	-0.128	-0.009
-495.581	-114.107	0.316	-0.061
-494.566	725.230	-0.147	-0.391
-493.551	-40.885	-0.117	-0.061
-492.537	-2.438	0.341	0.239
-491.522	-200.000	-0.063	0.313
-490.508	140.994	-0.366	0.483
-489.493	-53.895	-0.236	-0.107
-488.478	68.213	0.214	-0.219
-487.464	-183.114	-0.172	0.003
-486.449	53.814	0.193	-0.185
-485.435	-200.000	0.086	-0.400
-484.420	-54.786	0.124	-0.056
-483.405	-103.522	0.245	0.058
-482.391	84.126	0.122	-0.134
-481.376	-58.355	0.250	0.109
-480.362	-98.622	-0.185	0.047
-479.347	-200.000	0.010	0.119
-478.332	102.358	-0.090	-0.104
-477.318	-79.628	0.084	-0.028
-476.303	-200.000	0.017	-0.093
-475.289	73.002	-0.158	0.165
-474.274	-26.651	-0.253	-0.148
-473.259	800.000	-0.076	0.223
-472.245	-108.675	0.377	-0.081
-471.230	-44.049	0.070	-0.035
-470.216	-93.395	-0.116	-0.032
-469.201	279.765	-0.095	-0.169
-468.186	800.000	-0.115	-0.333
-467.172	-113.697	0.395	-0.077
-466.157	-9.929	-0.301	0.200
-465.143	529.783	-0.050	0.118
-464.128	-5.288	0.239	0.164
-463.113	-200.000	-0.007	-0.317
-462.099	210.157	0.071	-0.111
-461.084	314.360	0.111	0.209
-460.070	-200.000	0.035	0.175
-459.055	-200.000	-0.020	-0.131
-458.040	-1.717	-0.090	-0.063
-457.026	-200.000	0.048	-0.257
-456.011	-75.073	0.222	0.079
-454.997	-91.592	0.142	0.040
-453.982	-86.236	-0.132	0.041
-452.968	-200.000	0.031	0.146
-451.953	-85.469	-0.073	0.023
-450.938	39.894	0.029	0.026
-449.924	-87.673	-0.334	-0.100
-448.909	-111.092	0.151	-0.031
-447.895	-129.079	-0.075	-0.010
-446.880	-190.458	-0.116	0.001
-445.865	-200.000	-0.019	-0.325
-444.851	188.571	0.144	-0.215
-443.836	92.892	0.253	-0.285
-442.822	148.639	0.222	-0.299
-441.807	509.224	-0.082	-0.191
-440.792	-3.980	-0.345	0.239
-439.778	124.532	0.093	0.117
-438.763	-200.000	0.007	0.038
-437.749	377.007	0.085	0.173
-436.734	-154.682	0.064	0.004
-435.719	-166.753	-0.156	0.006
-434.705	139.158	0.071	-0.093
-433.690	-200.000	-0.010	-0.224
-432.676	-200.000	0.001	0.225
-431.661	-200.000	-0.059	0.301
-430.646	152.064	-0.091	-0.124
-429.632	-105.962	0.076	-0.017
-428.617	-81.929	-0.112	-0.037
-427.603	-158.347	-0.160	-0.009
-426.588	359.813	0.114	-0.227
-425.573	80.415	-0.170	0.183
-424.559	-68.582	-0.227	-0.088
-423.544	-135.911	-0.238	0.028
-422.530	-107.235	-0.268	0.059
-421.515	-73.499	-0.403	0.146
-420.500	800.000	0.077	-0.294
-419.486	-113.983	0.162	0.031
-418.471	800.000	-0.013	0.049
-417.457	195.081	-0.017	0.025
-416.442	540.129	-0.127	-0.301
-415.428	-98.535	0.179	-0.045
-414.413	66.162	-0.123	-0.124
-413.398	-131.608	-0.089	0.012
-412.384	-200.000	-0.014	0.197
-411.369	-93.651	-0.362	-0.099
-410.355	-104.119	0.075	0.017
-409.340	-98.597	0.171	0.043
-408.325	-92.302	0.143	0.040
-407.311	87.784	0.254	0.280
-406.296	-200.000	-0.044	0.275
-405.282	-117.742	0.142	0.025
-404.267	-35.262	-0.051	0.028
-403.252	-113.829	0.195	-0.038
-402.238	-31.611	0.122	-0.068
-401.223	705.405	-0.038	0.099
-400.209	88.159	0.211	0.233
-399.194	800.000	0.039	-0.125
-398.179	128.582	0.174	-0.221
-397.165	50.349	0.127	-0.119
-396.150	341.578	-0.063	-0.122
-395.136	-82.525	-0.087	0.028
-394.121	-44.090	0.187	-0.093
-393.106	29.897	0.091	0.077
-392.092	172.331	0.156	0.223
-391.077	800.000	-0.049	-0.186
-390.063	396.309	-0.137	-0.285
-389.048	-32.955	-0.214	0.118
-388.033	-200.000	0.007	0.056
-387.019	-200.000	-0.028	-0.288
-386.004	-3.556	-0.092	-0.064
-384.990	-136.562	0.365	0.042
-383.975	379.323	-0.220	0.449
-382.960	8.696	-0.281	-0.211
-381.946	-200.000	-0.116	0.000
-380.931	527.457	0.094	-0.220
-379.917	298.992	0.086	-0.157
-378.902	100.524	0.166	-0.191
-377.888	-50.747	-0.307	-0.144
-376.873	49.450	-0.158	0.148
-375.858	519.954	0.200	0.466
-374.844	-90.113	-0.175	-0.051
-373.829	-56.431	0.113	-0.050
-372.815	107.469	0.124	0.147
-371.800	749.685	0.178	-0.476
-370.785	-49.892	0.069	-0.033
-369.771	509.414	0.080	-0.184
-368.756	800.000	0.026	-0.088
-367.742	-200.000	-0.018	-0.200
-366.727	203.327	0.148	-0.228
-365.712	-200.000	-0.014	0.138
-364.698	-38.579	-0.154	-0.081
-363.683	-97.109	0.069	-0.018
-362.669	-106.781	0.185	-0.041
-361.654	756.748	0.084	0.226
-360.639	800.000	0.055	-0.168
-359.625	-175.223	-0.235	0.006
-358.610	-15.747	-0.168	-0.106
-357.596	45.702	0.297	0.273
-356.581	86.404	-0.158	0.173
-355.566	-200.000	-0.017	0.167
-354.552	274.320	-0.096	-0.170
-353.537	7.672	0.120	-0.089
-352.523	-48.312	0.337	-0.161
-351.508	274.869	-0.131	0.230
-350.493	41.293	-0.167	0.150
-349.479	41.306	-0.206	-0.185
-348.464	186.955	0.068	-0.101
-347.450	-146.455	-0.223	-0.019
-346.435	267.709	-0.136	0.236
-345.420	800.000	-0.108	-0.366
-344.406	-103.656	0.111	-0.026
-343.391	-20.956	0.357	0.217
-342.377	246.707	-0.301	0.504
-341.362	-92.195	-0.117	0.033
-340.348	-121.901	-0.397	0.065
-339.333	301.798	-0.043	0.080
-338.318	-136.163	0.140	0.016
-337.304	-87.345	0.255	0.077
-336.289	-200.000	-0.011	0.402
-335.275	132.827	0.235	0.302
-334.260	-48.035	0.202	0.097
-333.245	-175.462	0.282	-0.008
-332.231	11.092	0.360	-0.273
-331.216	40.153	-0.251	0.224
-330.202	530.135	-0.016	-0.037
-329.187	23.075	0.046	0.037
-328.172	33.821	-0.143	0.123
-327.158	800.000	-0.057	0.202
-326.143	-70.669	-0.151	0.057
-325.129	174.453	-0.041	0.059
-324.114	71.302	-0.243	0.250
-323.099	276.527	0.105	-0.184
-322.085	800.000	0.060	0.190
-321.070	389.891	0.179	-0.368
-320.056	-200.000	-0.045	-0.489
-319.041	800.000	-0.014	-0.050
-318.026	126.504	0.145	0.182
-317.012	-28.711	0.049	-0.028
-315.997	-200.000	-0.000	0.085
-314.983	-151.958	-0.429	0.031
-313.968	171.933	0.229	0.326
-312.953	82.997	-0.189	0.204
-311.939	-200.000	-0.036	0.322
-310.924	315.876	0.043	-0.080
-309.910	224.783	0.139	-0.223
-308.895	51.243	0.130	0.122
-307.880	-107.094	-0.228	0.050
-306.866	-59.969	0.012	0.005
-305.851	-144.510	-0.140	0.013
-304.837	800.000	-0.028	0.090
-303.822	303.678	0.191	0.351
-302.807	33.423	-0.274	-0.236
-301.793	310.004	0.118	-0.219
-300.778	-82.466	-0.226	0.073
-299.764	620.067	0.070	0.175
-298.749	-74.374	-0.324	0.116
-297.735	36.782	0.265	0.232
-296.720	164.127	0.199	0.278
-295.705	-68.713	-0.191	0.073
-294.691	-57.822	0.145	0.063
-293.676	-175.401	-0.079	0.002
-292.662	-36.813	-0.133	0.071
-291.647	-22.311	0.089	0.053
-290.632	-88.242	0.270	-0.080
-289.618	-116.448	0.337	-0.062
-288.603	305.918	0.106	0.195
-287.589	59.165	0.163	0.159
-286.574	-54.502	-0.251	-0.113
-285.559	-0.971	0.066	0.047
-284.545	-62.870	0.253	0.104
-283.530	-200.000	0.030	-0.410
-282.516	-31.683	-0.044	0.025
-281.501	297.505	-0.071	-0.130
-280.486	-200.000	-0.088	0.437
-279.472	-200.000	-0.002	0.145
-278.457	156.381	0.027	-0.037
-277.443	563.987	-0.047	-0.112
-276.428	800.000	0.012	-0.045
-275.413	800.000	0.128	-0.395
-274.399	800.000	-0.045	-0.149
-273.384	43.890	-0.107	-0.098
-272.370	-200.000	-0.023	0.180
-271.355	134.062	0.123	-0.157
-270.340	-29.052	-0.306	-0.174
-269.326	800.000	-0.037	0.134
-268.311	800.000	-0.097	-0.301
-267.297	-32.197	-0.110	0.061
-266.282	-80.579	0.313	-0.103
-265.267	2.807	-0.033	0.024
-264.253	800.000	0.040	-0.169
-263.238	-98.294	-0.360	0.091
-262.224	-90.109	0.058	-0.017
-261.209	-69.827	-0.193	-0.073
-260.195	372.473	0.041	-0.083
-259.180	800.000	-0.094	0.274
-258.165	-125.099	-0.343	0.052
-257.151	-200.000	-0.017	0.146
-256.136	65.826	-0.137	0.137
-255.122	800.000	-0.098	-0.321
-254.107	-31.011	-0.420	0.235
-253.092	-91.521	0.083	0.023
-252.078	-12.728	0.138	0.089
-251.063	-200.000	0.034	0.566
-250.049	261.447	0.036	-0.061
-249.034	-110.684	0.383	0.078
-248.019	-200.000	0.003	0.245
-247.005	-109.520	0.127	-0.027
-245.990	143.262	-0.344	-0.453
-244.976	-200.000	0.006	-0.261
-243.961	-200.000	-0.009	-0.070
-242.946	-57.345	-0.174	0.076
-241.932	800.000	0.068	0.214
-240.917	800.000	0.072	0.199
-239.903	-200.000	-0.021	0.226
-238.888	-71.793	-0.102	0.037
-237.873	-47.462	0.355	-0.171
-236.859	108.165	0.020	0.023
-235.844	800.000	0.101	-0.301
-234.830	-68.663	-0.125	0.048
-233.815	-200.000	-0.054	-0.259
-232.800	-62.309	-0.107	0.044
-231.786	-110.741	-0.058	0.012
-230.771	78.642	-0.028	-0.030
-229.757	-94.127	0.339	0.092
-228.742	26.538	0.164	0.136
-227.727	-119.341	0.231	0.040
-226.713	552.387	0.069	-0.164
-225.698	362.901	0.091	-0.181
-224.684	-200.000	0.009	0.219
-223.669	800.000	0.050	0.148
-222.655	800.000	0.183	0.515
-221.640	424.342	0.097	0.207
-220.625	110.944	-0.161	-0.192
-219.611	779.741	0.083	-0.225
-218.596	-102.715	-0.140	-0.033
-217.582	-47.639	-0.191	-0.091
-216.567	205.041	0.037	0.056
-215.552	800.000	0.085	0.240
-214.538	-46.006	-0.032	-0.016
-213.523	200.322	-0.097	0.148
-212.509	20.395	0.227	-0.181
-211.494	-137.056	0.178	-0.020
-210.479	109.374	0.166	0.196
-209.465	-200.000	0.033	0.321
-208.450	800.000	0.111	0.351
-207.436	800.000	0.033	0.114
-206.421	800.000	0.093	-0.258
-205.406	-45.300	0.059	-0.029
-204.392	800.000	0.013	0.042
-203.377	-49.287	-0.105	-0.050
-202.363	-23.048	-0.030	0.018
-201.348	-192.173	-0.260	-0.002
-200.333	2.935	0.205	-0.147
-199.319	72.687	-0.151	-0.155
-198.304	-53.880	-0.069	-0.031
-197.290	800.000	-0.072	0.305
-196.275	800.000	-0.026	0.097
-195.260	120.654	0.112	0.138
-194.246	479.956	0.212	-0.474
-193.231	375.083	0.134	-0.269
-192.217	-200.000	-0.001	0.299
-191.202	214.924	-0.116	-0.182
-190.187	-41.948	0.175	-0.089
-189.173	-139.049	-0.379	-0.041
-188.158	548.739	0.084	-0.200
-187.144	238.506	0.147	-0.240
-186.129	22.204	0.141	0.113
-185.114	-107.546	0.158	-0.034
-184.100	800.000	-0.084	-0.279
-183.085	-74.920	-0.030	-0.010
-182.071	304.280	0.148	-0.271
-181.056	-200.000	-0.017	0.108
-180.042	-44.484	-0.128	0.063
-179.027	-200.000	0.058	0.328
-178.012	-119.115	-0.165	0.028
-176.998	-200.000	-0.000	-0.023
-175.983	-146.134	0.255	-0.022
-174.969	-75.393	0.169	0.060
-173.954	-115.984	-0.146	-0.027
-172.939	-12.565	-0.294	0.189
-171.925	-42.778	0.168	0.084
-170.910	82.960	-0.122	-0.131
-169.896	183.002	0.041	-0.059
-168.881	-200.000	0.034	-0.335
-167.866	65.010	0.198	-0.197
-166.852	168.230	0.116	-0.163
-165.837	-200.000	0.085	0.432
-164.823	800.000	0.113	0.451
-163.808	-200.000	0.060	-0.282
-162.793	-200.000	0.022	0.224
-161.779	32.046	-0.235	-0.200
-160.764	-22.958	-0.162	-0.096
-159.750	-200.000	0.016	0.087
-158.735	-70.566	0.373	-0.139
-157.720	-188.168	-0.160	-0.002
-156.706	-1.364	0.280	0.195
-155.691	231.107	-0.078	-0.126
-154.677	-117.248	0.088	-0.016
-153.662	-200.000	0.016	-0.128
-152.647	-117.485	0.282	-0.050
-151.633	-60.970	-0.204	0.085
-150.618	-13.828	0.162	0.103
-149.604	211.408	0.066	0.103
-148.589	304.474	-0.135	-0.247
-147.574	542.376	-0.077	0.181
-146.560	-21.544	0.233	-0.140
-145.545	800.000	-0.073	0.239
-144.531	12.639	-0.025	-0.019
-143.516	351.899	-0.040	0.078
-142.502	-120.645	0.206	0.034
-141.487	350.486	0.119	0.232
-140.472	-200.000	0.047	0.331
-139.458	25.092	-0.165	0.135
-138.443	36.788	-0.139	0.121
-137.429	-47.391	0.324	0.155
-136.414	-200.000	0.055	0.455
-135.399	-5.101	0.178	0.121
-134.385	188.168	-0.217	0.320
-133.370	48.671	0.221	0.204
-132.356	-104.310	-0.311	-0.071
-131.341	-200.000	0.040	0.443
-130.326	800.000	0.022	0.065
-129.312	55.923	-0.104	0.099
-128.297	-153.686	0.419	-0.028
-127.283	-200.000	-0.017	0.585
-126.268	599.384	-0.036	0.089
-125.253	344.425	-0.090	0.173
-124.239	-40.497	-0.057	-0.029
-123.224	-96.120	0.567	0.148
-122.210	273.221	-0.063	-0.109
-121.195	34.040	-0.123	0.106
