DTS Sentinel unit serial number:	SN413079Multiplexer serial number:	ORYXHardware model number:	OX4-SRSoftware version number:	ORYX F/W v4.00 Oryx Data Collector v3.7.2.0data status	okinstallation	princeton_trtdifferential loss correction	single-endedforward channel	channel 3reverse channel	N/Adate	2019/09/15time	18:16:35forward acquisition time	60.00reverse acquisition time	0.00gamma	496.2192k internal	0.2286k external	0.2286temperature offset calibration	0.9921default loss term (dB/km)	0.3790temperature slope calibration	1.0000multiplexer offset coefficient	1.0000multiplexer slope coefficient	1.0000fibre end	0.00T internal ref (°C)	44.50T ext. ref 1 (°C)	6.61T ext. ref 2 (°C)	39.10length (m)	temperature (°C)	Stokes	anti-Stokes-747.200	-200.000	0.038	-0.345
-746.185	-92.420	-0.096	0.028
-745.171	-34.492	-0.225	0.126
-744.156	-200.000	0.045	0.311
-743.142	-26.523	-0.257	-0.155
-742.127	-200.000	-0.035	0.402
-741.112	656.796	0.060	0.158
-740.098	-200.000	-0.009	0.531
-739.083	-200.000	-0.091	0.559
-738.069	31.507	-0.166	0.146
-737.054	-200.000	0.026	-0.226
-736.039	-29.975	-0.193	0.113
-735.025	800.000	0.046	-0.166
-734.010	-77.108	-0.277	-0.099
-732.996	572.424	0.171	-0.427
-731.981	35.613	-0.064	0.058
-730.966	-145.066	-0.255	-0.024
-729.952	800.000	-0.077	-0.297
-728.937	-200.000	0.025	0.136
-727.923	-6.814	-0.071	-0.049
-726.908	-90.466	0.198	0.059
-725.894	800.000	0.086	-0.334
-724.879	25.084	0.171	0.145
-723.864	-200.000	0.015	-0.142
-722.850	-200.000	-0.014	0.191
-721.835	374.256	-0.019	-0.039
-720.821	800.000	-0.118	0.489
-719.806	-2.333	-0.113	0.081
-718.791	-39.867	0.122	0.065
-717.777	-200.000	0.003	0.152
-716.762	800.000	-0.082	0.278
-715.748	-30.700	0.092	-0.053
-714.733	-61.996	-0.244	-0.105
-713.718	-77.545	-0.206	0.073
-712.704	51.538	0.217	-0.212
-711.689	-154.097	-0.151	-0.011
-710.675	-90.218	0.061	-0.018
-709.660	800.000	-0.017	0.056
-708.645	677.466	-0.125	0.334
-707.631	-14.760	-0.132	-0.087
-706.616	-200.000	-0.019	0.220
-705.602	-46.897	-0.373	0.187
-704.587	800.000	-0.085	0.335
-703.572	153.183	0.044	-0.062
-702.558	800.000	-0.058	0.247
-701.543	-80.632	0.099	0.034
-700.529	-61.090	-0.208	0.090
-699.514	30.822	-0.168	-0.148
-698.499	800.000	-0.065	-0.291
-697.485	4.419	-0.134	-0.101
-696.470	127.367	-0.097	-0.126
-695.456	33.834	0.241	0.215
-694.441	-95.988	0.191	0.052
-693.426	800.000	0.046	-0.205
-692.412	-200.000	-0.039	-0.432
-691.397	154.306	-0.103	-0.145
-690.383	69.736	0.168	0.177
-689.368	100.980	-0.012	0.014
-688.354	-200.000	0.000	0.225
-687.339	702.863	-0.164	-0.443
-686.324	-200.000	-0.004	-0.259
-685.310	-200.000	0.019	0.099
-684.295	-144.627	-0.436	0.041
-683.281	-64.498	0.141	-0.059
-682.266	800.000	-0.059	-0.206
-681.251	-5.700	-0.237	-0.166
-680.237	88.885	0.106	-0.120
-679.222	-200.000	-0.062	0.389
-678.208	-200.000	-0.044	0.329
-677.193	14.020	-0.296	0.236
-676.178	17.935	-0.169	-0.137
-675.164	-126.921	0.121	-0.018
-674.149	-66.676	0.199	0.080
-673.135	-200.000	0.027	0.234
-672.120	-85.542	-0.209	-0.067
-671.105	-23.799	-0.286	-0.175
-670.091	-165.125	-0.217	0.010
-669.076	-83.979	-0.287	-0.093
-668.062	82.986	-0.132	-0.147
-667.047	33.704	0.429	-0.382
-666.032	31.762	-0.169	-0.148
-665.018	-108.970	-0.314	0.068
-664.003	66.197	-0.350	0.364
-662.989	-102.069	0.018	0.004
-661.974	-200.000	-0.005	0.022
-660.959	667.485	0.125	-0.330
-659.945	328.251	-0.153	0.300
-658.930	-47.888	-0.231	-0.114
-657.916	-155.561	0.059	0.004
-656.901	63.944	-0.121	-0.124
-655.886	-147.825	0.245	0.021
-654.872	40.317	-0.112	-0.103
-653.857	-124.340	-0.040	-0.006
-652.843	446.012	-0.017	-0.039
-651.828	-200.000	-0.028	-0.499
-650.814	-109.010	0.035	0.008
-649.799	800.000	0.070	0.199
-648.784	368.543	-0.042	0.087
-647.770	58.992	0.082	-0.082
-646.755	191.848	0.054	-0.084
-645.741	58.887	-0.131	-0.132
-644.726	27.052	0.112	-0.096
-643.711	-200.000	-0.006	-0.218
-642.697	154.389	0.093	0.131
-641.682	800.000	0.041	0.165
-640.668	-200.000	-0.033	-0.196
-639.653	175.555	-0.145	-0.215
-638.638	264.066	-0.047	-0.084
-637.624	263.664	-0.046	0.082
-636.609	-67.864	0.251	-0.100
-635.595	-79.956	0.143	-0.049
-634.580	86.552	0.206	-0.232
-633.565	-51.452	0.174	0.083
-632.551	-200.000	0.011	-0.074
-631.536	49.471	0.267	0.257
-630.522	-86.033	0.087	-0.028
-629.507	212.976	0.163	0.263
-628.492	-97.878	-0.146	0.038
-627.478	800.000	0.009	0.039
-626.463	800.000	0.045	0.176
-625.449	257.133	-0.139	0.243
-624.434	800.000	0.061	0.191
-623.419	-200.000	-0.023	-0.161
-622.405	58.994	0.196	-0.197
-621.390	-200.000	-0.094	-0.503
-620.376	-31.905	-0.157	0.090
-619.361	-101.955	0.171	-0.042
-618.346	53.293	-0.083	-0.081
-617.332	-89.610	-0.534	0.160
-616.317	-200.000	0.048	-0.257
-615.303	800.000	-0.144	-0.466
-614.288	-158.341	0.297	-0.018
-613.273	327.723	0.097	0.190
-612.259	-50.766	0.035	-0.017
-611.244	-123.815	0.249	-0.040
-610.230	-27.586	-0.106	-0.063
-609.215	800.000	0.025	0.107
-608.201	190.953	-0.114	0.175
-607.186	-139.635	0.102	-0.011
-606.171	-0.057	-0.100	0.073
-605.157	122.139	0.083	-0.105
-604.142	158.029	0.292	0.413
-603.128	-45.768	0.150	-0.076
-602.113	123.000	-0.049	0.062
-601.098	-122.994	0.055	-0.009
-600.084	83.687	-0.185	-0.206
-599.069	-67.883	0.180	0.072
-598.055	180.441	-0.158	-0.236
-597.040	-126.534	-0.363	-0.055
-596.025	-71.184	-0.162	0.062
-595.011	266.497	-0.222	-0.395
-593.996	66.991	0.227	-0.236
-592.982	-60.308	0.077	-0.033
-591.967	-200.000	0.000	0.055
-590.952	-200.000	0.009	0.196
-589.938	196.516	-0.119	0.185
-588.923	-30.151	0.070	-0.041
-587.909	-200.000	-0.300	0.000
-586.894	188.742	-0.041	-0.062
-585.879	-143.466	-0.117	-0.011
-584.865	-200.000	-0.027	0.193
-583.850	21.691	0.108	-0.089
-582.836	-28.094	0.106	-0.063
-581.821	-200.000	-0.048	-0.221
-580.806	-13.292	-0.038	0.025
-579.792	-200.000	-0.011	-0.156
-578.777	800.000	0.066	0.266
-577.763	79.719	-0.204	-0.223
-576.748	-200.000	-0.013	0.167
-575.733	79.481	-0.081	0.089
-574.719	182.275	-0.106	-0.160
-573.704	-145.771	-0.374	-0.034
-572.690	-200.000	-0.061	0.342
-571.675	38.437	-0.253	0.229
-570.661	38.033	0.062	0.057
-569.646	-200.000	-0.011	0.191
-568.631	800.000	-0.118	0.464
-567.617	522.727	-0.204	0.489
-566.602	57.431	0.124	-0.124
-565.588	-58.208	-0.210	0.093
-564.573	-160.875	-0.256	-0.014
-563.558	75.117	0.068	0.073
-562.544	281.835	-0.051	-0.093
-561.529	-200.000	0.023	-0.131
-560.515	21.798	-0.012	-0.010
-559.500	228.623	0.125	0.207
-558.485	721.327	0.093	0.252
-557.471	84.589	0.132	0.147
-556.456	800.000	0.025	0.112
-555.442	-141.769	0.042	-0.004
-554.427	51.869	0.141	-0.137
-553.412	68.319	-0.027	-0.028
-552.398	10.261	-0.200	-0.155
-551.383	-161.154	0.491	-0.026
-550.369	19.801	0.151	-0.124
-549.354	770.551	0.083	-0.229
-548.339	442.174	-0.105	-0.233
-547.325	250.710	-0.050	-0.086
-546.310	-170.131	0.047	0.002
-545.296	-123.300	-0.375	-0.061
-544.281	-102.692	0.297	-0.072
-543.266	-170.474	0.326	0.012
-542.252	-79.594	-0.056	0.019
-541.237	-200.000	0.039	-0.185
-540.223	-15.159	-0.118	-0.077
-539.208	-97.345	0.184	0.049
-538.193	800.000	-0.088	-0.247
-537.179	-200.000	-0.022	0.343
-536.164	-200.000	-0.035	-0.238
-535.150	-40.173	0.270	0.143
-534.135	-135.737	0.313	0.038
-533.121	-110.714	-0.136	0.029
-532.106	57.840	-0.314	0.312
-531.091	720.695	0.108	-0.293
-530.077	800.000	0.059	0.210
-529.062	-200.000	0.005	-0.166
-528.048	96.305	0.141	-0.165
-527.033	101.662	-0.161	-0.191
-526.018	-74.999	-0.223	0.081
-525.004	23.047	-0.205	0.171
-523.989	-48.781	-0.252	-0.123
-522.975	13.875	-0.250	0.198
-521.960	-179.663	0.090	0.002
-520.945	-79.016	0.215	-0.074
-519.931	-40.476	-0.276	-0.146
-518.916	-71.927	0.076	-0.029
-517.902	-173.361	-0.234	-0.007
-516.887	-33.173	-0.355	0.200
-515.872	18.090	-0.152	0.124
-514.858	35.254	-0.066	0.058
-513.843	-112.637	-0.330	0.067
-512.829	2.145	-0.120	0.088
-511.814	-34.068	-0.214	0.120
-510.799	-200.000	0.016	0.198
-509.785	-43.047	0.233	0.120
-508.770	-46.718	-0.178	-0.089
-507.756	306.582	0.204	-0.387
-506.741	800.000	-0.065	-0.202
-505.726	-200.000	-0.002	-0.046
-504.712	-62.225	-0.164	-0.069
-503.697	800.000	0.041	-0.149
-502.683	-200.000	-0.016	-0.175
-501.668	-200.000	0.026	0.175
-500.653	-83.287	-0.206	-0.067
-499.639	-29.046	-0.183	0.107
-498.624	799.273	0.095	-0.267
-497.610	800.000	0.054	-0.207
-496.595	159.178	0.031	-0.044
-495.581	-32.833	-0.250	-0.141
-494.566	800.000	-0.068	0.243
-493.551	473.306	-0.228	-0.521
-492.537	228.817	-0.096	-0.158
-491.522	-148.258	-0.339	0.028
-490.508	800.000	0.043	-0.183
-489.493	92.795	0.129	0.148
-488.478	-36.452	0.160	0.087
-487.464	-200.000	0.044	0.332
-486.449	348.764	-0.038	0.077
-485.435	164.881	-0.087	0.124
-484.420	28.388	-0.115	-0.099
-483.405	-139.091	0.167	-0.018
-482.391	-152.725	-0.144	0.010
-481.376	-0.321	-0.111	-0.080
-480.362	-200.000	-0.056	0.476
-479.347	1.781	0.038	-0.028
-478.332	-200.000	0.011	0.093
-477.318	33.778	-0.159	-0.140
-476.303	718.972	0.089	-0.240
-475.289	-200.000	0.026	-0.193
-474.274	-48.907	-0.149	0.073
-473.259	-200.000	0.217	0.000
-472.245	103.107	0.170	0.202
-471.230	52.391	0.356	-0.345
-470.216	264.558	0.087	0.153
-469.201	54.561	-0.150	-0.146
-468.186	467.660	0.122	-0.277
-467.172	399.949	0.027	0.057
-466.157	-72.335	-0.214	-0.080
-465.143	-78.915	-0.301	0.104
-464.128	179.782	-0.254	0.378
-463.113	-52.164	-0.135	-0.063
-462.099	-111.618	-0.220	-0.045
-461.084	148.573	-0.143	-0.196
-460.070	489.276	-0.043	-0.100
-459.055	-62.623	-0.304	0.128
-458.040	-18.716	-0.336	0.212
-457.026	81.188	0.112	0.123
-456.011	87.995	0.190	0.214
-454.997	481.403	-0.097	0.224
-453.982	-200.000	-0.075	0.437
-452.968	800.000	-0.055	0.155
-451.953	215.240	-0.107	0.173
-450.938	-200.000	0.007	0.312
-449.924	326.963	-0.221	-0.429
-448.909	271.810	-0.116	-0.207
-447.895	-200.000	-0.006	-0.157
-446.880	289.228	0.077	-0.142
-445.865	199.931	0.108	-0.168
-444.851	269.437	0.146	0.260
-443.836	132.175	0.101	-0.132
-442.822	-200.000	-0.024	0.321
-441.807	49.279	-0.137	0.131
-440.792	-200.000	0.022	-0.201
-439.778	-125.318	-0.047	0.007
-438.763	-200.000	0.006	-0.029
-437.749	-131.581	0.243	0.032
-436.734	-163.216	-0.206	-0.010
-435.719	0.669	0.035	-0.026
-434.705	48.775	-0.048	0.046
-433.690	-181.879	0.068	-0.001
-432.676	90.930	-0.126	-0.144
-431.661	38.763	0.133	-0.120
-430.646	22.512	-0.121	-0.101
-429.632	73.526	0.184	0.195
-428.617	83.329	0.022	0.025
-427.603	-200.000	-0.016	-0.163
-426.588	800.000	-0.041	0.146
-425.573	20.657	-0.263	0.216
-424.559	-91.962	0.161	-0.046
-423.544	800.000	0.041	-0.179
-422.530	-49.510	0.273	-0.132
-421.515	-105.831	0.165	-0.038
-420.500	-200.000	-0.015	0.193
-419.486	32.618	0.113	-0.099
-418.471	-127.451	-0.078	-0.012
-417.457	106.647	-0.212	-0.255
-416.442	-200.000	-0.007	-0.387
-415.428	56.299	0.218	-0.214
-414.413	-11.194	-0.262	0.175
-413.398	34.678	0.197	-0.174
-412.384	-143.556	-0.101	0.010
-411.369	176.846	0.012	-0.017
-410.355	800.000	-0.050	0.170
-409.340	-200.000	0.004	-0.306
-408.325	-55.802	-0.186	-0.084
-407.311	-95.225	0.133	-0.036
-406.296	270.473	-0.104	0.185
-405.282	222.874	-0.091	-0.148
-404.267	71.347	-0.064	0.068
-403.252	-67.037	-0.246	-0.098
-402.238	23.380	0.199	0.165
-401.223	-68.556	0.092	0.036
-400.209	31.859	-0.141	-0.123
-399.194	-26.759	-0.031	-0.019
-398.179	-64.983	0.076	-0.031
-397.165	-12.766	-0.167	0.110
-396.150	800.000	0.085	0.271
-395.136	660.067	0.056	0.146
-394.121	-17.548	-0.355	0.226
-393.106	14.647	0.163	0.129
-392.092	218.174	0.059	0.095
-391.077	-143.210	-0.163	0.016
-390.063	-135.197	0.347	0.042
-389.048	-123.176	0.095	0.015
-388.033	800.000	0.062	-0.245
-387.019	-88.341	0.278	-0.084
-386.004	-87.026	-0.277	-0.085
-384.990	-112.737	-0.239	0.048
-383.975	125.454	0.255	-0.326
-382.960	800.000	0.052	-0.204
-381.946	205.858	0.017	-0.026
-380.931	19.307	0.092	0.075
-379.917	158.539	-0.239	-0.336
-378.902	-200.000	0.024	-0.184
-377.888	-200.000	0.052	0.368
-376.873	71.766	0.069	0.073
-375.858	459.874	-0.165	0.371
-374.844	211.543	-0.117	0.186
-373.829	-26.789	0.263	0.156
-372.815	-65.114	-0.121	0.049
-371.800	106.538	-0.111	-0.133
-370.785	43.261	0.232	0.215
-369.771	-200.000	0.013	0.106
-368.756	800.000	0.066	-0.214
-367.742	-200.000	0.036	-0.249
-366.727	-200.000	-0.013	0.074
-365.712	-200.000	-0.084	0.410
-364.698	-121.288	-0.323	0.054
-363.683	-15.108	0.109	-0.071
-362.669	45.932	0.011	0.011
-361.654	-200.000	-0.003	0.017
-360.639	-71.491	-0.037	-0.014
-359.625	444.714	0.109	-0.243
-358.610	20.106	-0.145	-0.118
-357.596	-116.944	0.115	0.021
-356.581	-35.942	0.239	0.130
-355.566	172.448	-0.129	-0.187
-354.552	-23.743	-0.051	-0.031
-353.537	-38.681	0.175	-0.093
-352.523	-138.794	0.077	0.008
-351.508	-174.859	-0.111	0.003
-350.493	126.591	0.104	0.133
-349.479	464.632	-0.169	-0.381
-348.464	0.217	0.159	-0.115
-347.450	-49.587	0.196	-0.095
-346.435	130.677	0.140	-0.182
-345.420	319.361	0.190	0.365
-344.406	-89.413	-0.276	-0.082
-343.391	-84.926	-0.195	-0.062
-342.377	800.000	0.072	-0.309
-341.362	-78.004	-0.234	-0.081
-340.348	447.740	-0.094	-0.210
-339.333	533.394	0.080	0.190
-338.318	-200.000	0.008	-0.199
-337.304	-200.000	0.009	0.211
-336.289	-134.635	0.130	-0.016
-335.275	41.748	-0.176	-0.161
-334.260	-127.813	-0.417	-0.061
-333.245	800.000	0.089	0.341
-332.231	-200.000	0.060	0.336
-331.216	115.515	0.040	0.049
-330.202	-102.119	0.100	0.024
-329.187	-124.455	-0.150	-0.024
-328.172	-61.275	-0.022	0.009
-327.158	-113.035	0.426	0.085
-326.143	30.916	-0.134	-0.116
-325.129	227.544	0.027	0.044
-324.114	-200.000	-0.026	-0.142
-323.099	150.571	0.172	0.236
-322.085	-81.800	-0.108	0.036
-321.070	-200.000	0.047	-0.477
-320.056	-190.062	0.117	-0.001
-319.041	-200.000	0.002	0.035
-318.026	800.000	-0.032	0.099
-317.012	644.990	-0.071	-0.184
-315.997	70.670	-0.256	0.267
-314.983	-156.687	-0.216	-0.013
-313.968	-92.687	0.209	-0.059
-312.953	-81.381	0.206	-0.068
-311.939	19.829	-0.204	0.166
-310.924	126.421	-0.121	0.155
-309.910	88.579	-0.264	-0.296
-308.895	-48.613	-0.220	0.107
-307.880	-112.318	0.123	-0.025
-306.866	-200.000	-0.038	-0.278
-305.851	-160.809	0.114	-0.006
-304.837	196.439	0.122	0.188
-303.822	-125.742	-0.165	0.025
-302.807	-117.415	0.173	0.032
-301.793	203.834	-0.107	0.166
-300.778	-139.830	-0.289	0.031
-299.764	-117.797	0.211	0.038
-298.749	53.567	0.069	-0.066
-297.735	29.844	0.177	0.152
-296.720	-200.000	-0.041	-0.371
-295.705	-20.516	0.185	-0.114
-294.691	38.170	-0.055	0.049
-293.676	-89.602	-0.108	0.032
-292.662	41.414	0.166	0.152
-291.647	-30.354	-0.261	0.149
-290.632	50.216	-0.127	0.121
-289.618	371.185	-0.073	-0.148
-288.603	20.339	0.076	-0.062
-287.589	-108.435	-0.275	-0.060
-286.574	-200.000	-0.115	0.566
-285.559	41.499	-0.218	-0.199
-284.545	-67.214	0.081	0.032
-283.530	237.085	0.093	-0.155
-282.516	-104.141	-0.120	-0.028
-281.501	32.419	0.132	-0.115
-280.486	16.930	0.097	-0.077
-279.472	-93.820	0.148	0.041
-278.457	52.289	0.023	-0.022
-277.443	-184.705	0.348	-0.006
-276.428	-22.211	-0.119	-0.073
-275.413	221.225	-0.014	0.023
-274.399	535.892	0.096	-0.228
-273.384	-200.000	-0.002	0.145
-272.370	-147.406	0.152	0.013
-271.355	198.953	0.088	-0.136
-270.340	80.596	0.282	-0.306
-269.326	-84.060	0.119	-0.038
-268.311	-28.202	0.103	0.060
-267.297	281.845	-0.034	-0.062
-266.282	-65.067	0.171	0.069
-265.267	19.361	-0.087	0.070
-264.253	11.766	0.093	0.072
-263.238	-2.926	0.094	-0.066
-262.224	-70.429	0.230	0.088
-261.209	-200.000	-0.025	-0.129
-260.195	-200.000	-0.017	-0.129
-259.180	-200.000	-0.040	0.253
-258.165	-166.487	0.340	0.014
-257.151	139.562	0.065	-0.086
-256.136	-78.312	-0.104	0.036
-255.122	255.522	-0.014	-0.024
-254.107	724.817	0.157	0.420
-253.092	604.370	-0.215	0.538
-252.078	681.223	0.069	0.182
-251.063	91.940	0.079	0.090
-250.049	-35.228	0.172	0.094
-249.034	-200.000	0.071	0.383
-248.019	-123.333	0.057	0.009
-247.005	800.000	-0.070	-0.259
-245.990	-98.145	0.182	-0.047
-244.976	8.444	0.077	0.058
-243.961	115.363	0.163	0.200
-242.946	-41.824	-0.121	0.062
-241.932	-200.000	-0.015	-0.313
-240.917	-85.575	-0.249	0.078
-239.903	-200.000	0.066	-0.402
-238.888	-12.426	0.095	-0.063
-237.873	-138.611	-0.027	0.003
-236.859	396.112	0.094	0.197
-235.844	800.000	-0.118	-0.385
-234.830	800.000	-0.053	-0.222
-233.815	176.033	0.105	-0.154
-232.800	-98.507	0.279	-0.072
-231.786	-16.670	0.045	0.029
-230.771	800.000	-0.123	-0.393
-229.757	-42.490	0.039	-0.020
-228.742	-82.253	-0.264	-0.086
-227.727	332.499	0.107	0.209
-226.713	-128.875	0.133	0.019
-225.698	-103.889	-0.220	-0.052
-224.684	-200.000	0.010	-0.250
-223.669	194.273	-0.073	-0.111
-222.655	342.744	0.117	-0.230
-221.640	431.760	-0.040	-0.087
-220.625	286.970	-0.197	0.358
-219.611	-86.773	0.251	0.077
-218.596	-72.631	0.345	-0.128
-217.582	46.406	-0.153	0.143
-216.567	-174.040	-0.211	-0.006
-215.552	-126.498	-0.428	0.064
-214.538	318.047	0.252	0.480
-213.523	800.000	0.135	-0.430
-212.509	-200.000	0.019	-0.302
-211.494	-92.796	-0.196	0.055
-210.479	-200.000	-0.006	0.059
-209.465	-200.000	0.020	-0.106
-208.450	267.930	0.226	0.398
-207.436	375.413	0.044	-0.090
-206.421	795.596	0.089	0.245
-205.406	-188.567	0.282	-0.004
-204.392	-200.000	0.056	-0.389
-203.377	-200.000	-0.021	-0.115
-202.363	-56.391	0.214	-0.095
-201.348	172.670	-0.195	0.282
-200.333	-0.135	0.262	0.187
-199.319	126.183	0.044	0.056
-198.304	-98.567	0.206	0.053
-197.290	622.195	0.108	0.273
-196.275	90.289	0.310	0.349
-195.260	-171.032	-0.319	0.011
-194.246	-200.000	0.017	0.417
-193.231	210.335	0.042	-0.066
-192.217	1.995	0.245	-0.178
-191.202	-91.540	0.256	0.073
-190.187	-85.475	0.196	0.061
-189.173	-200.000	-0.007	0.249
-188.158	-200.000	0.006	0.087
-187.144	-162.825	0.226	-0.011
-186.129	160.564	-0.038	0.053
-185.114	275.431	-0.043	0.076
-184.100	800.000	0.015	-0.043
-183.085	-27.027	0.162	-0.095
-182.071	-118.112	-0.209	-0.037
-181.056	-200.000	0.031	0.166
-180.042	-200.000	0.011	-0.134
-179.027	67.173	0.176	0.180
-178.012	-200.000	-0.004	-0.128
-176.998	-200.000	0.039	-0.342
-175.983	-121.285	0.127	-0.021
-174.969	800.000	0.088	0.245
-173.954	-14.294	0.263	0.170
-172.939	98.910	-0.071	0.082
-171.925	800.000	-0.048	0.177
-170.910	231.906	-0.156	-0.257
-169.896	383.065	-0.039	-0.081
-168.881	800.000	-0.055	-0.188
-167.866	-200.000	-0.015	-0.103
-166.852	5.166	0.267	-0.197
-165.837	-200.000	-0.012	0.184
-164.823	-103.576	0.150	0.035
-163.808	-41.409	0.168	0.087
-162.793	167.749	0.101	0.144
-161.779	-107.536	-0.138	-0.030
-160.764	-200.000	0.033	-0.216
-159.750	241.199	-0.119	0.200
-158.735	-200.000	-0.027	0.142
-157.720	-200.000	0.054	-0.443
-156.706	394.652	-0.153	-0.321
-155.691	36.271	-0.051	-0.045
-154.677	57.888	-0.231	0.227
-153.662	-200.000	0.028	0.245
-152.647	124.528	0.333	0.420
-151.633	-200.000	0.027	0.132
-150.618	206.639	-0.122	0.191
-149.604	-142.001	0.293	0.029
-148.589	-99.557	-0.211	0.053
-147.574	800.000	0.018	-0.062
-146.560	-151.305	0.303	-0.023
-145.545	-143.934	0.105	-0.010
-144.531	329.955	-0.042	0.082
-143.516	800.000	0.132	0.436
-142.502	311.839	-0.174	-0.326
-141.487	139.020	-0.122	-0.161
-140.472	37.628	-0.257	-0.229
-139.458	-111.810	-0.381	-0.077
-138.443	0.436	0.098	-0.070
-137.429	50.106	0.247	-0.234
-136.414	-29.638	0.317	-0.182
-135.399	650.215	-0.049	-0.125
-134.385	-75.020	-0.358	0.128
-133.370	152.302	0.217	-0.297
-132.356	252.573	0.106	0.181
-131.341	800.000	-0.006	0.022
-130.326	-200.000	-0.001	0.055
-129.312	116.577	0.119	-0.146
-128.297	-119.681	0.156	0.027
-127.283	-73.407	-0.174	-0.064
-126.268	99.743	-0.169	0.196
-125.253	-30.896	0.152	-0.086
-124.239	322.947	0.150	0.286
-123.224	-200.000	-0.010	0.339
-122.210	-200.000	0.005	0.042
-121.195	61.024	-0.247	-0.246
