DTS Sentinel unit serial number:	SN413079Multiplexer serial number:	ORYXHardware model number:	OX4-SRSoftware version number:	ORYX F/W v4.00 Oryx Data Collector v3.7.2.0data status	okinstallation	princeton_trtdifferential loss correction	single-endedforward channel	channel 3reverse channel	N/Adate	2019/09/16time	12:00:34forward acquisition time	60.00reverse acquisition time	0.00gamma	496.2192k internal	0.2296k external	0.2296temperature offset calibration	0.9945default loss term (dB/km)	0.3790temperature slope calibration	1.0000multiplexer offset coefficient	1.0000multiplexer slope coefficient	1.0000fibre end	0.00T internal ref (°C)	38.67T ext. ref 1 (°C)	13.16T ext. ref 2 (°C)	35.81length (m)	temperature (°C)	Stokes	anti-Stokes-747.200	800.000	0.089	0.265
-746.185	-173.716	0.152	-0.005
-745.171	-179.018	-0.207	-0.005
-744.156	-24.391	0.213	-0.130
-743.142	-173.930	0.241	0.007
-742.127	-75.033	-0.334	0.122
-741.112	37.256	0.034	-0.030
-740.098	-68.272	-0.351	0.139
-739.083	520.508	0.056	-0.134
-738.069	800.000	-0.011	0.033
-737.054	-200.000	-0.029	-0.344
-736.039	-200.000	0.013	-0.217
-735.025	7.705	0.375	0.287
-734.010	155.878	-0.113	-0.159
-732.996	-57.055	0.303	0.136
-731.981	-107.996	-0.172	0.038
-730.966	-6.099	0.170	-0.118
-729.952	-200.000	-0.013	-0.218
-728.937	-200.000	0.051	-0.302
-727.923	407.626	-0.071	-0.153
-726.908	181.996	-0.129	0.194
-725.894	-1.848	0.116	-0.083
-724.879	-58.164	-0.295	0.131
-723.864	-36.637	0.193	-0.106
-722.850	19.037	-0.155	-0.127
-721.835	128.181	-0.144	0.187
-720.821	-108.974	0.224	0.049
-719.806	-136.256	-0.315	-0.038
-718.791	-41.737	-0.150	0.079
-717.777	-33.411	0.210	0.119
-716.762	8.491	0.187	-0.144
-715.748	115.737	0.146	-0.182
-714.733	233.515	-0.093	0.156
-713.718	139.895	-0.115	0.155
-712.704	254.744	-0.082	-0.143
-711.689	173.225	0.117	0.172
-710.675	450.980	-0.218	-0.490
-709.660	-111.065	0.447	-0.094
-708.645	-158.343	-0.295	-0.018
-707.631	-200.000	0.020	-0.209
-706.616	-92.588	0.087	-0.025
-705.602	31.189	-0.270	0.236
-704.587	-7.026	-0.325	-0.225
-703.572	-200.000	0.026	0.164
-702.558	-122.290	0.070	-0.012
-701.543	-200.000	0.023	-0.123
-700.529	-27.062	-0.188	-0.112
-699.514	-51.602	0.360	0.171
-698.499	592.048	0.041	-0.103
-697.485	671.166	0.107	-0.283
-696.470	522.387	-0.058	0.139
-695.456	70.069	0.052	-0.055
-694.441	-200.000	-0.004	0.065
-693.426	800.000	0.127	0.484
-692.412	-57.424	0.133	-0.060
-691.397	-44.177	-0.174	-0.089
-690.383	38.858	0.230	-0.210
-689.368	-200.000	0.041	-0.231
-688.354	226.293	-0.089	-0.147
-687.339	-77.933	-0.119	0.042
-686.324	414.029	0.055	0.119
-685.310	272.846	-0.190	0.342
-684.295	-26.680	0.147	-0.087
-683.281	-200.000	-0.037	-0.168
-682.266	114.960	-0.130	-0.161
-681.251	289.025	0.191	0.353
-680.237	800.000	-0.071	0.277
-679.222	80.786	0.208	-0.228
-678.208	800.000	-0.121	0.343
-677.193	-200.000	-0.004	-0.379
-676.178	-142.568	-0.273	0.027
-675.164	-92.766	0.197	0.056
-674.149	252.267	0.095	-0.164
-673.135	79.580	-0.132	-0.144
-672.120	126.134	0.164	-0.211
-671.105	-15.979	0.163	-0.106
-670.091	21.479	0.064	0.053
-669.076	6.749	-0.164	-0.124
-668.062	-10.365	-0.447	-0.302
-667.047	-135.194	-0.183	-0.022
-666.032	154.089	-0.158	-0.221
-665.018	-111.136	-0.095	-0.020
-664.003	165.612	-0.191	-0.276
-662.989	122.567	-0.140	0.178
-661.974	87.817	0.108	-0.122
-660.959	-58.729	-0.293	-0.129
-659.945	-200.000	0.014	-0.199
-658.930	358.554	-0.014	0.028
-657.916	786.864	-0.053	0.147
-656.901	-200.000	0.026	0.223
-655.886	-89.779	-0.301	-0.090
-654.872	-59.635	0.370	0.162
-653.857	-100.562	0.289	-0.073
-652.843	56.046	0.130	-0.128
-651.828	-200.000	-0.030	-0.269
-650.814	-64.738	0.355	-0.146
-649.799	-100.557	-0.121	0.030
-648.784	-200.000	-0.002	0.283
-647.770	-181.183	-0.234	0.005
-646.755	-200.000	-0.006	-0.384
-645.741	92.921	-0.100	-0.115
-644.726	266.203	-0.019	-0.034
-643.711	-56.376	-0.237	-0.107
-642.697	-106.073	0.297	-0.068
-641.682	437.865	-0.030	-0.067
-640.668	-200.000	-0.085	0.400
-639.653	83.789	0.128	-0.143
-638.638	102.191	-0.125	0.148
-637.624	-200.000	0.017	-0.373
-636.609	468.650	-0.095	-0.217
-635.595	-3.731	0.265	0.187
-634.580	51.770	0.123	-0.119
-633.565	-138.083	0.411	-0.046
-632.551	197.206	0.106	-0.165
-631.536	-200.000	0.003	-0.135
-630.522	88.331	-0.076	-0.085
-629.507	679.866	-0.063	-0.166
-628.492	217.323	0.146	-0.237
-627.478	-167.934	0.137	0.005
-626.463	227.727	0.102	-0.169
-625.449	-133.673	0.313	-0.040
-624.434	-78.642	0.131	0.046
-623.419	204.382	-0.150	-0.236
-622.405	-200.000	0.007	-0.051
-621.390	34.387	-0.171	0.151
-620.376	-42.952	-0.232	-0.120
-619.361	-90.797	0.190	-0.056
-618.346	168.811	-0.120	0.173
-617.332	-133.358	-0.265	0.034
-616.317	-99.612	0.242	-0.062
-615.303	-44.064	0.446	-0.227
-614.288	139.075	-0.193	-0.257
-613.273	-71.807	-0.259	0.098
-612.259	-55.287	-0.020	-0.009
-611.244	278.779	0.122	0.221
-610.230	-106.004	-0.090	-0.021
-609.215	-81.068	0.202	0.068
-608.201	-43.501	0.072	-0.037
-607.186	49.132	-0.087	-0.083
-606.171	-27.376	0.290	0.171
-605.157	143.801	0.186	0.252
-604.142	-92.585	-0.164	0.047
-603.128	-68.084	-0.165	-0.065
-602.113	-107.023	-0.171	0.038
-601.098	-200.000	0.045	-0.277
-600.084	83.336	-0.063	0.070
-599.069	574.155	-0.096	0.239
-598.055	800.000	0.035	-0.133
-597.040	-200.000	0.024	0.550
-596.025	-11.473	-0.475	0.317
-595.011	-200.000	0.008	0.191
-593.996	-11.839	0.113	-0.075
-592.982	-140.352	0.245	-0.026
-591.967	-107.151	-0.250	0.056
-590.952	11.819	0.180	0.140
-589.938	800.000	-0.038	-0.114
-588.923	138.382	-0.139	-0.185
-587.909	-200.000	0.015	-0.262
-586.894	304.580	-0.125	0.235
-585.879	396.644	0.152	-0.322
-584.865	-111.464	0.220	0.046
-583.850	276.852	-0.257	-0.464
-582.836	-32.069	-0.148	0.084
-581.821	-148.732	0.204	-0.017
-580.806	754.024	0.009	-0.023
-579.792	-200.000	0.010	0.313
-578.777	252.034	-0.188	0.326
-577.763	207.177	-0.112	-0.178
-576.748	332.028	-0.133	-0.260
-575.733	25.422	-0.023	0.020
-574.719	-200.000	0.022	-0.214
-573.704	229.862	0.093	-0.153
-572.690	104.343	0.097	0.116
-571.675	-102.010	0.048	-0.012
-570.661	-32.882	-0.141	0.080
-569.646	-118.810	0.093	-0.017
-568.631	122.995	0.114	-0.145
-567.617	217.527	0.120	-0.194
-566.602	-36.077	0.115	-0.063
-565.588	-200.000	-0.053	-0.289
-564.573	185.167	0.031	-0.047
-563.558	-182.652	-0.327	0.006
-562.544	115.649	0.128	-0.159
-561.529	-84.501	0.100	0.032
-560.515	-109.249	-0.309	-0.066
-559.500	-200.000	0.001	-0.338
-558.485	630.606	0.072	-0.186
-557.471	-200.000	0.016	-0.112
-556.456	-39.334	0.139	-0.074
-555.442	136.509	0.138	0.182
-554.427	-200.000	-0.012	-0.098
-553.412	42.413	0.333	0.308
-552.398	14.995	0.340	-0.270
-551.383	226.864	0.108	-0.177
-550.369	-80.922	0.071	0.024
-549.354	57.015	0.166	0.164
-548.339	120.826	-0.119	0.150
-547.325	534.924	-0.067	0.162
-546.310	348.010	-0.078	0.156
-545.296	27.790	0.178	0.152
-544.281	75.788	-0.128	-0.137
-543.266	17.190	0.087	0.070
-542.252	800.000	-0.063	0.243
-541.237	-151.098	-0.034	-0.003
-540.223	-40.377	0.191	0.101
-539.208	148.462	-0.244	0.334
-538.193	-23.037	-0.123	0.075
-537.179	800.000	-0.034	-0.096
-536.164	-3.718	-0.311	0.219
-535.150	6.322	-0.396	-0.298
-534.135	-84.811	-0.270	0.086
-533.121	25.000	0.137	0.115
-532.106	-79.619	-0.229	0.078
-531.091	-200.000	0.035	-0.450
-530.077	-49.887	-0.219	-0.105
-529.062	105.224	-0.053	0.064
-528.048	-35.782	0.086	-0.047
-527.033	800.000	0.020	-0.077
-526.018	-200.000	0.011	-0.145
-525.004	108.034	0.178	-0.215
-523.989	60.099	0.035	0.035
-522.975	-65.047	-0.225	-0.092
-521.960	321.616	0.139	0.267
-520.945	780.751	-0.126	0.349
-519.931	800.000	-0.069	0.287
-518.916	55.125	0.345	-0.338
-517.902	338.723	-0.105	-0.206
-516.887	-142.282	-0.189	-0.019
-515.872	91.490	-0.028	-0.031
-514.858	-200.000	0.070	0.350
-513.843	79.651	-0.084	0.092
-512.829	-200.000	0.023	-0.425
-511.814	311.087	0.101	-0.192
-510.799	800.000	0.026	0.109
-509.785	-63.078	-0.259	0.108
-508.770	-134.029	-0.239	0.030
-507.756	-79.138	-0.259	0.089
-506.741	-4.095	-0.142	0.100
-505.726	124.447	0.233	0.296
-504.712	-200.000	-0.019	-0.306
-503.697	-200.000	0.012	-0.332
-502.683	301.179	0.097	-0.180
-501.668	125.688	0.022	-0.028
-500.653	800.000	0.031	0.089
-499.639	284.991	0.135	0.246
-498.624	-52.379	-0.237	-0.111
-497.610	615.704	0.090	-0.229
-496.595	103.881	0.203	0.242
-495.581	-90.544	0.231	-0.068
-494.566	800.000	0.058	-0.172
-493.551	-154.641	-0.123	0.008
-492.537	85.486	0.148	0.165
-491.522	-116.547	0.547	0.102
-490.508	-9.868	-0.324	0.218
-489.493	-200.000	0.049	0.315
-488.478	-137.674	0.204	-0.023
-487.464	800.000	0.065	-0.244
-486.449	64.034	-0.363	0.370
-485.435	86.810	0.025	0.027
-484.420	193.206	0.217	-0.332
-483.405	-200.000	-0.032	-0.365
-482.391	-128.569	0.217	0.031
-481.376	203.883	-0.113	-0.176
-480.362	800.000	-0.035	0.113
-479.347	-146.018	0.266	-0.024
-478.332	138.808	-0.075	-0.100
-477.318	-10.682	0.199	-0.133
-476.303	40.198	0.139	0.126
-475.289	-152.813	0.213	-0.015
-474.274	-65.779	-0.246	0.100
-473.259	800.000	-0.070	-0.211
-472.245	-120.296	-0.074	-0.013
-471.230	800.000	0.099	-0.330
-470.216	-84.166	0.082	-0.026
-469.201	349.505	-0.149	0.298
-468.186	315.246	0.131	0.250
-467.172	-200.000	0.011	0.181
-466.157	-11.931	-0.108	-0.072
-465.143	72.569	0.130	-0.137
-464.128	-51.405	0.208	0.098
-463.113	-10.671	-0.333	0.223
-462.099	-200.000	0.164	0.000
-461.084	-99.412	0.172	0.044
-460.070	107.584	0.194	-0.234
-459.055	188.904	-0.057	0.086
-458.040	484.231	0.119	-0.273
-457.026	-82.903	0.197	0.064
-456.011	87.656	0.110	0.123
-454.997	-200.000	-0.318	-0.000
-453.982	64.284	-0.198	-0.202
-452.968	396.265	-0.051	0.107
-451.953	-200.000	0.002	-0.105
-450.938	-63.385	-0.055	-0.023
-449.924	271.818	-0.092	0.165
-448.909	354.903	-0.110	0.221
-447.895	25.440	0.171	-0.144
-446.880	-2.091	-0.252	0.179
-445.865	-34.688	0.079	0.044
-444.851	142.825	-0.015	-0.020
-443.836	-110.717	-0.263	0.055
-442.822	195.134	0.129	0.198
-441.807	-200.000	-0.002	0.252
-440.792	124.263	-0.204	0.258
-439.778	800.000	0.079	-0.245
-438.763	-200.000	0.032	-0.271
-437.749	-18.163	0.303	0.191
-436.734	-200.000	-0.065	0.326
-435.719	-11.552	0.198	0.131
-434.705	184.228	-0.157	0.235
-433.690	-200.000	0.003	0.107
-432.676	-51.324	0.223	-0.105
-431.661	-200.000	0.009	0.058
-430.646	-200.000	-0.008	0.047
-429.632	153.033	0.054	0.075
-428.617	800.000	-0.093	-0.332
-427.603	-129.663	0.328	0.046
-426.588	102.712	-0.104	0.123
-425.573	-85.883	0.104	-0.033
-424.559	56.354	-0.080	0.079
-423.544	-200.000	0.047	-0.305
-422.530	-200.000	-0.038	-0.392
-421.515	-200.000	-0.025	-0.187
-420.500	-154.105	0.175	0.012
-419.486	287.982	0.074	0.135
-418.471	147.629	-0.355	-0.483
-417.457	312.100	0.195	0.370
-416.442	-21.486	-0.284	0.175
-415.428	800.000	0.054	0.168
-414.413	-75.217	0.213	-0.077
-413.398	-65.288	-0.275	0.112
-412.384	107.906	0.155	-0.186
-411.369	-200.000	0.000	-0.021
-410.355	78.651	0.173	0.187
-409.340	13.518	-0.358	-0.280
-408.325	-89.248	0.231	0.069
-407.311	255.272	-0.157	-0.271
-406.296	-200.000	0.009	0.172
-405.282	539.817	0.170	0.408
-404.267	295.414	0.014	-0.025
-403.252	-120.278	-0.122	0.021
-402.238	-106.786	0.440	0.098
-401.223	-200.000	0.001	-0.138
-400.209	-200.000	-0.009	-0.320
-399.194	-26.395	0.111	-0.066
-398.179	-35.552	0.360	-0.197
-397.165	83.868	-0.223	0.245
-396.150	103.699	0.076	-0.090
-395.136	-200.000	-0.024	-0.136
-394.121	-200.000	0.017	-0.176
-393.106	-51.832	-0.156	-0.073
-392.092	-98.114	-0.177	0.046
-391.077	35.887	0.131	0.116
-390.063	800.000	0.062	-0.215
-389.048	-4.195	-0.134	-0.094
-388.033	-17.298	0.113	-0.072
-387.019	-200.000	0.015	0.094
-386.004	-79.432	-0.079	-0.027
-384.990	-124.250	-0.327	-0.052
-383.975	340.625	0.189	0.371
-382.960	-106.430	-0.339	-0.076
-381.946	377.604	0.060	0.123
-380.931	226.239	-0.092	-0.151
-379.917	-200.000	-0.014	0.077
-378.902	-55.939	0.230	0.104
-377.888	-88.300	-0.167	0.050
-376.873	93.541	-0.311	0.355
-375.858	-106.287	0.202	-0.046
-374.844	699.682	-0.074	-0.197
-373.829	86.087	-0.226	-0.251
-372.815	22.640	-0.233	-0.192
-371.800	-200.000	-0.045	0.369
-370.785	219.166	-0.134	0.216
-369.771	-71.551	0.145	-0.055
-368.756	800.000	0.116	0.396
-367.742	-127.539	-0.430	-0.063
-366.727	-90.678	0.455	-0.132
-365.712	-36.514	-0.182	-0.099
-364.698	475.501	0.085	0.194
-363.683	-153.011	0.098	0.007
-362.669	-73.402	0.278	-0.102
-361.654	-200.000	0.013	-0.138
-360.639	-83.448	-0.084	-0.027
-359.625	37.939	-0.258	-0.231
-358.610	-31.261	-0.037	0.021
-357.596	-200.000	-0.028	0.186
-356.581	322.205	-0.064	-0.123
-355.566	359.631	0.010	-0.020
-354.552	77.561	-0.372	0.398
-353.537	38.003	-0.099	-0.089
-352.523	-200.000	0.088	0.419
-351.508	33.437	0.250	0.218
-350.493	756.635	0.019	-0.051
-349.479	-40.435	0.159	-0.083
-348.464	275.338	-0.126	0.225
-347.450	-200.000	0.030	-0.247
-346.435	-200.000	-0.034	0.257
-345.420	-151.648	0.130	0.010
-344.406	177.796	0.057	0.083
-343.391	251.149	-0.124	-0.213
-342.377	-200.000	-0.026	-0.147
-341.362	181.116	-0.093	0.137
-340.348	-15.175	-0.033	0.021
-339.333	5.908	-0.090	0.067
-338.318	94.082	0.042	-0.048
-337.304	800.000	-0.046	0.157
-336.289	-151.072	-0.341	0.026
-335.275	-200.000	-0.003	-0.175
-334.260	38.529	0.227	0.203
-333.245	800.000	0.006	-0.021
-332.231	68.581	0.176	0.182
-331.216	-200.000	0.003	0.069
-330.202	800.000	0.043	-0.161
-329.187	423.723	0.109	-0.235
-328.172	103.277	-0.110	-0.129
-327.158	-200.000	0.051	-0.409
-326.143	-200.000	0.004	-0.218
-325.129	-70.677	0.129	-0.049
-324.114	800.000	-0.015	0.065
-323.099	16.814	-0.065	0.052
-322.085	276.380	-0.049	-0.087
-321.070	-26.798	0.077	0.045
-320.056	11.399	0.162	0.125
-319.041	-200.000	-0.021	-0.169
-318.026	-93.815	0.092	0.025
-317.012	-200.000	-0.007	0.385
-315.997	-152.904	-0.154	0.011
-314.983	-79.695	-0.463	0.157
-313.968	-200.000	-0.019	0.206
-312.953	-46.636	0.162	0.080
-311.939	800.000	0.113	0.325
-310.924	240.106	0.077	-0.128
-309.910	-200.000	0.022	0.177
-308.895	32.795	-0.023	-0.020
-307.880	-102.045	-0.294	-0.071
-306.866	21.997	-0.046	-0.038
-305.851	-200.000	-0.064	0.352
-304.837	-167.060	-0.268	0.011
-303.822	-200.000	0.042	-0.188
-302.807	800.000	-0.071	0.219
-301.793	174.910	0.193	0.281
-300.778	767.876	-0.093	-0.254
-299.764	-7.873	-0.247	-0.167
-298.749	-200.000	-0.007	0.199
-297.735	76.509	0.152	0.162
-296.720	-200.000	-0.057	-0.322
-295.705	-45.976	0.201	0.099
-294.691	-181.473	0.243	-0.005
-293.676	-166.410	-0.211	0.009
-292.662	62.773	0.235	-0.236
-291.647	359.217	0.173	-0.346
-290.632	33.016	-0.165	-0.144
-289.618	-200.000	-0.046	-0.202
-288.603	1.975	0.187	0.135
-287.589	190.973	-0.043	0.065
-286.574	-168.685	0.269	0.010
-285.559	5.304	0.149	0.110
-284.545	419.270	0.025	-0.054
-283.530	22.158	-0.173	-0.142
-282.516	-200.000	-0.010	-0.251
-281.501	-26.488	-0.162	0.095
-280.486	41.920	-0.288	0.262
-279.472	462.191	-0.092	-0.205
-278.457	193.884	0.102	-0.154
-277.443	-90.207	-0.062	0.018
-276.428	-81.705	-0.148	0.049
-275.413	-91.689	0.307	0.088
-274.399	-88.228	-0.352	0.106
-273.384	-100.416	-0.334	-0.083
-272.370	-114.274	0.131	0.025
-271.355	237.097	-0.110	-0.183
-270.340	-83.721	-0.126	0.040
-269.326	800.000	0.192	0.535
-268.311	95.495	-0.112	0.128
-267.297	51.499	-0.167	-0.159
-266.282	800.000	-0.027	0.079
-265.267	-200.000	-0.026	-0.199
-264.253	302.244	-0.076	0.142
-263.238	-85.722	0.228	-0.071
-262.224	62.412	-0.290	0.290
-261.209	99.278	-0.188	0.218
-260.195	800.000	-0.108	0.397
-259.180	-110.629	-0.113	-0.023
-258.165	18.054	-0.233	-0.186
-257.151	488.987	-0.073	0.166
-256.136	800.000	-0.046	-0.195
-255.122	202.509	0.104	-0.161
-254.107	-200.000	-0.030	0.203
-253.092	800.000	0.040	-0.173
-252.078	99.701	-0.132	0.153
-251.063	24.018	0.075	0.062
-250.049	-166.874	0.151	0.006
-249.034	8.847	0.507	-0.383
-248.019	800.000	-0.064	-0.253
-247.005	-22.563	-0.299	-0.181
-245.990	21.763	0.136	-0.111
-244.976	-89.347	0.376	0.111
-243.961	673.783	-0.090	0.234
-242.946	30.230	-0.256	0.219
-241.932	-60.072	0.076	0.032
-240.917	800.000	0.072	-0.223
-239.903	-200.000	-0.008	0.058
-238.888	800.000	0.069	0.267
-237.873	-96.778	-0.312	-0.082
-236.859	-200.000	0.009	0.371
-235.844	-74.686	-0.272	0.098
-234.830	90.832	-0.219	-0.246
-233.815	-200.000	-0.041	-0.257
-232.800	35.617	0.253	-0.223
-231.786	-200.000	-0.044	-0.264
-230.771	65.222	-0.214	-0.217
-229.757	65.455	-0.229	-0.232
-228.742	-121.273	0.215	-0.036
-227.727	-126.296	-0.108	0.016
-226.713	215.097	0.113	-0.179
-225.698	-94.104	-0.219	-0.060
-224.684	-21.646	-0.116	0.071
-223.669	90.335	0.173	0.194
-222.655	-200.000	0.016	0.081
-221.640	-200.000	-0.059	0.328
-220.625	254.676	-0.206	0.353
-219.611	-52.724	0.199	0.092
-218.596	-171.219	0.157	0.005
-217.582	621.959	-0.158	0.397
-216.567	-31.861	0.151	-0.085
-215.552	-200.000	0.036	0.183
-214.538	599.458	0.075	0.186
-213.523	800.000	-0.008	-0.030
-212.509	312.579	-0.163	-0.306
-211.494	-74.207	-0.159	-0.057
-210.479	133.485	-0.043	-0.056
-209.465	-123.118	0.137	-0.022
-208.450	800.000	0.125	0.402
-207.436	-48.980	0.135	0.065
-206.421	47.601	-0.281	0.262
-205.406	746.903	-0.092	0.248
-204.392	800.000	-0.033	-0.138
-203.377	800.000	0.101	-0.316
-202.363	-174.531	-0.139	0.004
-201.348	-47.088	-0.156	-0.076
-200.333	800.000	-0.115	0.344
-199.319	395.208	0.114	0.237
-198.304	-21.625	0.117	-0.071
-197.290	-200.000	-0.017	0.475
-196.275	164.615	0.110	0.155
-195.260	202.147	-0.104	0.161
-194.246	508.498	-0.101	-0.234
-193.231	-36.315	-0.167	-0.090
-192.217	-117.678	0.380	0.068
-191.202	47.002	0.105	-0.097
-190.187	103.567	-0.098	-0.115
-189.173	-200.000	0.010	-0.144
-188.158	-200.000	-0.026	-0.129
-187.144	-110.727	0.083	-0.017
-186.129	-200.000	-0.042	-0.375
-185.114	132.918	0.058	-0.075
-184.100	349.105	-0.106	-0.210
-183.085	-200.000	0.000	0.182
-182.071	-49.280	-0.172	0.082
-181.056	-68.370	0.345	0.134
-180.042	800.000	0.117	0.370
-179.027	-145.840	0.383	-0.034
-178.012	-144.731	0.121	0.011
-176.998	103.734	0.097	0.114
-175.983	349.713	0.066	0.131
-174.969	-122.190	0.241	-0.039
-173.954	-200.000	-0.019	-0.090
-172.939	800.000	-0.030	-0.097
-171.925	-166.680	-0.099	0.004
-170.910	128.373	0.239	-0.304
-169.896	10.157	0.113	-0.085
-168.881	6.736	-0.100	-0.074
-167.866	-200.000	0.112	-0.000
-166.852	100.798	-0.063	0.073
-165.837	-35.123	0.074	0.040
-164.823	347.093	-0.087	-0.171
-163.808	-200.000	0.009	0.119
-162.793	-200.000	-0.002	-0.176
-161.779	158.397	-0.130	0.180
-160.764	376.257	-0.071	-0.146
-159.750	374.563	0.135	-0.275
-158.735	-79.178	0.472	-0.160
-157.720	559.023	-0.098	-0.237
-156.706	59.194	0.188	-0.185
-155.691	184.899	0.149	-0.221
-154.677	750.731	0.071	0.191
-153.662	36.790	0.089	-0.078
-152.647	-200.000	-0.028	0.252
-151.633	-200.000	0.012	0.247
-150.618	-98.184	-0.330	0.085
-149.604	8.588	0.287	0.215
-148.589	-200.000	-0.021	-0.304
-147.574	56.275	-0.196	-0.190
-146.560	-101.019	0.300	0.073
-145.545	-120.178	-0.121	0.021
-144.531	-9.730	-0.210	0.140
-143.516	-200.000	0.002	0.194
-142.502	-75.895	-0.451	-0.160
-141.487	800.000	0.056	-0.219
-140.472	74.881	0.132	0.139
-139.458	-200.000	0.047	0.253
-138.443	490.531	-0.157	0.358
-137.429	800.000	-0.092	0.292
-136.414	3.233	0.224	0.163
-135.399	55.655	-0.053	-0.052
-134.385	-85.663	0.477	-0.148
-133.370	-131.279	-0.137	0.018
-132.356	-82.154	-0.274	0.089
-131.341	-200.000	0.012	-0.069
-130.326	-2.249	0.151	0.106
-129.312	-73.742	-0.196	-0.071
-128.297	-192.718	-0.277	-0.003
-127.283	800.000	0.142	-0.424
-126.268	-32.711	0.042	0.023
-125.253	-97.129	-0.051	0.013
-124.239	-28.019	-0.178	-0.103
-123.224	366.638	0.111	-0.224
-122.210	800.000	0.039	0.113
-121.195	800.000	-0.026	0.096
