DTS Sentinel unit serial number:	SN413079Multiplexer serial number:	ORYXHardware model number:	OX4-SRSoftware version number:	ORYX F/W v4.00 Oryx Data Collector v3.7.2.0data status	okinstallation	princeton_trtdifferential loss correction	single-endedforward channel	channel 3reverse channel	N/Adate	2019/09/17time	19:36:35forward acquisition time	60.00reverse acquisition time	0.00gamma	496.2192k internal	0.2313k external	0.2313temperature offset calibration	0.9954default loss term (dB/km)	0.3790temperature slope calibration	1.0000multiplexer offset coefficient	1.0000multiplexer slope coefficient	1.0000fibre end	0.00T internal ref (°C)	35.89T ext. ref 1 (°C)	0.25T ext. ref 2 (°C)	24.69length (m)	temperature (°C)	Stokes	anti-Stokes-747.200	128.882	-0.042	-0.054
-746.185	293.828	0.110	0.203
-745.171	-135.666	-0.126	-0.015
-744.156	246.365	-0.041	-0.069
-743.142	174.065	-0.148	0.217
-742.127	197.654	0.124	0.192
-741.112	74.493	-0.050	0.053
-740.098	-93.102	-0.082	-0.023
-739.083	-85.387	-0.054	-0.017
-738.069	-144.103	-0.149	-0.014
-737.054	29.034	0.234	0.201
-736.039	-200.000	0.037	0.482
-735.025	800.000	0.029	-0.104
-734.010	-136.699	-0.311	-0.036
-732.996	-200.000	-0.017	-0.315
-731.981	-20.224	-0.372	0.232
-730.966	-103.956	-0.404	0.095
-729.952	59.246	-0.219	0.218
-728.937	-14.391	0.155	0.101
-727.923	-5.090	-0.194	0.136
-726.908	-200.000	-0.073	0.549
-725.894	14.468	-0.054	0.042
-724.879	800.000	-0.048	-0.149
-723.864	-24.672	0.018	-0.011
-722.850	-200.000	0.018	-0.171
-721.835	241.011	0.104	-0.175
-720.821	-200.000	-0.023	0.119
-719.806	-200.000	0.031	-0.182
-718.791	701.318	0.087	0.232
-717.777	-200.000	-0.098	-0.468
-716.762	107.750	0.026	0.031
-715.748	-2.808	-0.204	0.145
-714.733	84.293	0.193	0.214
-713.718	-200.000	-0.059	0.414
-712.704	352.089	0.134	0.270
-711.689	800.000	-0.095	0.294
-710.675	-101.782	0.179	-0.044
-709.660	-200.000	-0.011	-0.361
-708.645	-155.312	-0.203	-0.013
-707.631	-78.376	-0.243	0.084
-706.616	168.611	-0.139	-0.201
-705.602	17.051	0.124	0.100
-704.587	-17.462	-0.143	0.091
-703.572	-83.137	0.199	-0.065
-702.558	182.912	0.074	-0.110
-701.543	280.229	0.023	0.041
-700.529	-171.318	-0.086	0.003
-699.514	47.187	-0.132	-0.124
-698.499	55.926	0.081	0.080
-697.485	-7.395	-0.083	0.057
-696.470	48.847	-0.117	-0.111
-695.456	127.080	-0.182	-0.233
-694.441	-124.248	0.131	0.021
-693.426	-183.467	0.044	-0.001
-692.412	96.712	0.112	0.130
-691.397	-200.000	0.050	-0.266
-690.383	82.079	0.149	-0.164
-689.368	41.752	0.062	-0.057
-688.354	-158.809	-0.085	-0.005
-687.339	-55.767	0.345	-0.156
-686.324	40.149	-0.301	0.274
-685.310	-137.313	-0.433	-0.050
-684.295	82.707	0.090	-0.099
-683.281	385.677	0.106	-0.220
-682.266	-134.452	0.329	-0.041
-681.251	107.469	0.138	-0.167
-680.237	29.350	0.216	0.186
-679.222	-25.565	-0.301	-0.180
-678.208	12.335	-0.176	0.137
-677.193	800.000	0.138	0.486
-676.178	-96.329	0.289	-0.077
-675.164	9.478	-0.073	-0.056
-674.149	-21.705	-0.158	0.097
-673.135	-200.000	-0.047	-0.233
-672.120	-200.000	-0.006	0.109
-671.105	-200.000	-0.008	0.116
-670.091	193.845	0.026	0.040
-669.076	40.512	0.312	0.284
-668.062	-80.072	0.247	-0.084
-667.047	-194.486	0.298	-0.002
-666.032	-200.000	0.243	0.000
-665.018	120.846	-0.176	0.221
-664.003	-11.871	0.282	-0.187
-662.989	182.197	-0.210	-0.313
-661.974	-162.900	-0.216	0.011
-660.959	-38.891	-0.309	0.165
-659.945	302.782	0.106	-0.199
-658.930	620.505	0.092	0.233
-657.916	-29.884	0.223	0.129
-656.901	-157.162	0.142	0.009
-655.886	-138.656	-0.168	-0.019
-654.872	-84.791	-0.335	0.106
-653.857	-123.749	0.220	-0.035
-652.843	98.869	-0.145	0.170
-651.828	193.824	0.039	0.060
-650.814	-200.000	0.023	0.324
-649.799	244.707	0.159	-0.271
-648.784	221.734	-0.118	-0.192
-647.770	-135.905	-0.176	-0.021
-646.755	225.473	0.140	-0.229
-645.741	-200.000	-0.001	-0.236
-644.726	-170.260	-0.051	-0.002
-643.711	-173.905	0.392	0.012
-642.697	-159.461	0.144	0.008
-641.682	800.000	-0.070	0.211
-640.668	195.281	-0.019	-0.029
-639.653	-166.722	0.040	-0.002
-638.638	-25.696	0.366	0.218
-637.624	800.000	0.040	0.152
-636.609	800.000	0.055	-0.154
-635.595	-0.680	-0.381	-0.273
-634.580	160.357	0.171	0.241
-633.565	-120.605	-0.367	-0.063
-632.551	161.715	0.074	-0.105
-631.536	-200.000	-0.016	-0.175
-630.522	125.361	-0.051	-0.065
-629.507	-200.000	-0.041	-0.183
-628.492	-5.457	0.436	-0.302
-627.478	208.751	0.061	0.097
-626.463	396.550	0.117	0.247
-625.449	4.248	0.151	-0.112
-624.434	138.690	0.037	-0.050
-623.419	728.753	0.105	0.284
-622.405	656.111	-0.012	0.032
-621.390	-59.006	0.207	0.090
-620.376	-27.893	-0.119	0.070
-619.361	-200.000	-0.014	-0.088
-618.346	-57.844	-0.218	-0.096
-617.332	-177.504	-0.224	-0.006
-616.317	-161.049	0.030	0.002
-615.303	591.737	0.045	-0.112
-614.288	-200.000	-0.005	0.142
-613.273	-147.214	-0.200	0.017
-612.259	464.807	0.084	-0.191
-611.244	276.266	0.036	0.064
-610.230	207.595	-0.163	-0.256
-609.215	-53.600	0.153	-0.071
-608.201	-200.000	-0.064	0.342
-607.186	158.151	0.084	-0.117
-606.171	166.311	-0.234	0.335
-605.157	-166.940	-0.211	0.009
-604.142	-67.557	0.301	-0.119
-603.128	-146.885	0.112	0.010
-602.113	-49.070	-0.106	-0.051
-601.098	109.526	0.121	-0.147
-600.084	-200.000	0.028	0.148
-599.069	800.000	0.037	0.139
-598.055	92.626	0.149	-0.169
-597.040	-200.000	0.015	0.105
-596.025	-16.824	-0.267	-0.170
-595.011	-41.563	0.112	-0.058
-593.996	-118.167	0.336	-0.060
-592.982	-6.119	-0.202	0.139
-591.967	33.662	-0.051	0.045
-590.952	58.538	-0.033	-0.033
-589.938	183.792	-0.044	0.066
-588.923	-200.000	0.016	-0.112
-587.909	137.550	-0.281	0.371
-586.894	800.000	-0.122	-0.369
-585.879	-162.555	0.411	0.020
-584.865	31.225	0.452	0.391
-583.850	800.000	0.083	0.360
-582.836	800.000	0.060	0.232
-581.821	-63.521	-0.241	0.100
-580.806	-108.954	0.062	-0.013
-579.792	800.000	0.030	0.106
-578.777	-11.831	-0.262	0.173
-577.763	-20.188	-0.090	-0.056
-576.748	-115.074	-0.251	0.048
-575.733	800.000	-0.036	-0.104
-574.719	-181.621	-0.169	-0.003
-573.704	-200.000	0.002	0.246
-572.690	97.853	-0.119	0.138
-571.675	-53.896	-0.332	-0.153
-570.661	-200.000	0.024	0.225
-569.646	-200.000	-0.039	0.175
-568.631	-200.000	-0.013	-0.084
-567.617	-92.382	-0.178	-0.051
-566.602	800.000	0.099	-0.282
-565.588	-200.000	0.019	-0.129
-564.573	328.105	-0.156	-0.302
-563.558	-200.000	0.084	-0.444
-562.544	-200.000	0.005	0.189
-561.529	-60.712	0.341	0.146
-560.515	-144.810	-0.248	-0.023
-559.500	85.305	-0.061	-0.067
-558.485	418.289	-0.130	-0.280
-557.471	-200.000	0.013	-0.065
-556.456	-40.798	-0.097	-0.050
-555.442	94.725	-0.103	-0.118
-554.427	210.189	0.109	-0.172
-553.412	-48.788	-0.109	-0.053
-552.398	66.403	-0.158	-0.162
-551.383	391.761	-0.078	0.164
-550.369	50.209	0.254	-0.242
-549.354	328.169	-0.133	-0.256
-548.339	-200.000	-0.010	0.175
-547.325	-78.921	0.176	0.060
-546.310	800.000	-0.096	-0.293
-545.296	5.603	0.073	-0.054
-544.281	377.397	0.031	0.063
-543.266	-200.000	-0.008	0.053
-542.252	448.722	0.119	-0.263
-541.237	1.408	0.070	-0.050
-540.223	800.000	-0.115	0.427
-539.208	-23.143	-0.203	0.123
-538.193	-200.000	0.076	0.434
-537.179	-15.068	-0.296	0.191
-536.164	800.000	0.105	0.304
-535.150	-200.000	-0.007	-0.169
-534.135	29.864	-0.157	-0.135
-533.121	-68.696	0.426	-0.166
-532.106	26.863	0.262	-0.221
-531.091	-200.000	-0.019	-0.228
-530.077	-200.000	-0.001	-0.054
-529.062	-200.000	0.018	-0.218
-528.048	12.044	-0.206	-0.159
-527.033	271.319	-0.209	-0.369
-526.018	-159.498	-0.108	0.006
-525.004	800.000	-0.062	-0.236
-523.989	333.804	0.178	0.346
-522.975	94.209	-0.312	0.356
-521.960	-105.276	0.278	0.064
-520.945	7.901	0.064	0.049
-519.931	53.046	0.327	0.315
-518.916	-139.194	0.104	-0.011
-517.902	-92.210	0.182	0.052
-516.887	252.562	0.079	0.136
-515.872	63.440	0.254	-0.256
-514.858	-37.798	-0.366	0.196
-513.843	233.409	-0.020	0.033
-512.829	242.790	0.100	0.169
-511.814	-161.731	-0.367	0.019
-510.799	-138.296	0.154	0.017
-509.785	71.069	-0.157	0.163
-508.770	14.088	0.098	0.077
-507.756	246.703	-0.079	0.133
-506.741	-70.004	0.115	-0.044
-505.726	-200.000	0.058	0.495
-504.712	-200.000	0.039	0.327
-503.697	290.582	-0.194	0.355
-502.683	56.295	-0.109	0.107
-501.668	-46.632	0.305	-0.150
-500.653	-107.271	0.283	-0.063
-499.639	176.940	0.208	0.304
-498.624	-200.000	-0.069	-0.388
-497.610	58.825	0.363	0.358
-496.595	800.000	-0.063	0.195
-495.581	-200.000	-0.025	-0.448
-494.566	-200.000	0.005	-0.214
-493.551	18.982	0.062	0.050
-492.537	-200.000	-0.000	-0.197
-491.522	-126.515	-0.235	0.035
-490.508	142.093	-0.064	0.085
-489.493	-40.526	0.132	0.069
-488.478	-200.000	0.196	0.000
-487.464	-200.000	-0.003	-0.351
-486.449	-200.000	0.192	0.000
-485.435	167.324	0.068	-0.098
-484.420	95.818	0.286	-0.328
-483.405	273.537	-0.169	-0.299
-482.391	251.238	-0.020	0.033
-481.376	-200.000	-0.083	-0.432
-480.362	-89.507	0.159	-0.047
-479.347	-63.753	0.408	0.168
-478.332	-23.349	-0.168	-0.101
-477.318	70.551	-0.061	-0.063
-476.303	7.555	-0.103	0.078
-475.289	-148.888	-0.430	-0.035
-474.274	-35.754	-0.234	0.127
-473.259	-200.000	0.028	0.148
-472.245	-76.037	0.165	0.059
-471.230	350.598	-0.071	0.141
-470.216	167.691	-0.137	0.195
-469.201	-200.000	-0.015	0.171
-468.186	115.866	0.337	-0.414
-467.172	-200.000	0.002	-0.201
-466.157	181.974	-0.405	0.599
-465.143	-109.512	0.213	0.045
-464.128	-80.539	0.214	0.071
-463.113	-158.510	-0.281	0.016
-462.099	-2.711	0.160	0.112
-461.084	-200.000	0.099	0.484
-460.070	800.000	-0.044	-0.142
-459.055	45.871	-0.319	-0.296
-458.040	-200.000	-0.018	0.281
-457.026	33.767	-0.169	-0.148
-456.011	-115.704	-0.191	0.036
-454.997	762.346	0.058	-0.158
-453.982	-113.534	-0.176	0.035
-452.968	228.022	0.198	-0.323
-451.953	-71.306	0.323	0.121
-450.938	-58.282	0.259	-0.113
-449.924	71.834	0.258	-0.269
-448.909	800.000	-0.081	-0.309
-447.895	800.000	-0.075	-0.233
-446.880	-40.416	-0.247	0.129
-445.865	-110.165	-0.138	-0.029
-444.851	-200.000	0.018	0.090
-443.836	-11.312	-0.108	0.072
-442.822	-200.000	0.008	0.114
-441.807	-200.000	-0.002	0.102
-440.792	-200.000	0.009	-0.080
-439.778	-57.220	0.323	-0.143
-438.763	-2.885	-0.273	-0.191
-437.749	354.785	-0.045	-0.089
-436.734	754.617	0.052	-0.142
-435.719	-200.000	0.037	-0.313
-434.705	-170.474	0.209	-0.007
-433.690	-200.000	-0.022	0.128
-432.676	91.283	0.172	0.194
-431.661	-200.000	-0.059	0.310
-430.646	800.000	-0.071	-0.234
-429.632	238.733	0.090	-0.149
-428.617	-101.255	0.168	-0.041
-427.603	-200.000	-0.029	-0.146
-426.588	38.883	-0.173	-0.155
-425.573	-64.849	-0.125	-0.051
-424.559	368.208	0.102	-0.207
-423.544	-200.000	0.036	0.214
-422.530	321.071	-0.188	0.358
-421.515	-56.867	0.011	0.005
-420.500	98.018	-0.180	-0.208
-419.486	42.002	-0.038	0.035
-418.471	-200.000	-0.043	0.198
-417.457	189.439	0.253	0.379
-416.442	26.937	0.161	-0.135
-415.428	-78.792	-0.159	-0.054
-414.413	2.195	0.285	-0.206
-413.398	-200.000	0.009	-0.164
-412.384	-113.881	-0.095	-0.019
-411.369	800.000	-0.030	-0.085
-410.355	93.026	0.238	0.270
-409.340	-101.349	0.295	-0.072
-408.325	688.096	0.054	-0.142
-407.311	-110.452	-0.209	0.043
-406.296	655.918	0.130	0.334
-405.282	-140.639	0.224	0.023
-404.267	667.895	0.125	0.323
-403.252	-28.079	0.479	0.277
-402.238	-83.948	0.375	-0.119
-401.223	800.000	0.025	-0.107
-400.209	-200.000	0.018	-0.084
-399.194	201.090	-0.079	0.122
-398.179	293.062	-0.117	-0.214
-397.165	304.156	0.167	-0.309
-396.150	-28.884	0.302	0.174
-395.136	-71.099	0.242	0.091
-394.121	-29.185	-0.175	-0.101
-393.106	-134.745	0.152	-0.018
-392.092	-59.005	-0.292	0.126
-391.077	-38.761	-0.460	0.243
-390.063	254.907	-0.194	-0.332
-389.048	46.665	-0.133	-0.124
-388.033	16.932	-0.092	-0.073
-387.019	-49.209	-0.127	0.061
-386.004	-98.996	-0.284	-0.072
-384.990	-78.624	0.138	-0.047
-383.975	-137.757	0.547	0.061
-382.960	33.529	-0.081	0.070
-381.946	-49.933	-0.460	0.218
-380.931	0.385	0.206	0.147
-379.917	136.035	0.130	-0.169
-378.902	-60.501	0.403	0.171
-377.888	-59.535	-0.137	0.059
-376.873	800.000	0.008	-0.026
-375.858	-81.436	0.227	-0.075
-374.844	12.297	0.082	0.063
-373.829	-40.109	0.329	0.171
-372.815	-54.224	-0.179	-0.081
-371.800	-15.428	0.348	0.223
-370.785	243.705	0.276	0.463
-369.771	-26.294	0.035	0.021
-368.756	800.000	-0.061	0.215
-367.742	-104.649	0.211	-0.049
-366.727	-200.000	-0.027	0.149
-365.712	-200.000	0.017	0.268
-364.698	99.479	-0.171	0.198
-363.683	-200.000	0.018	-0.133
-362.669	408.111	-0.096	-0.203
-361.654	-31.712	0.148	-0.083
-360.639	-11.746	-0.424	0.278
-359.625	-103.822	-0.303	-0.071
-358.610	-24.144	-0.154	-0.092
-357.596	800.000	0.145	0.410
-356.581	-35.426	0.364	0.198
-355.566	-7.756	0.232	-0.157
-354.552	-200.000	-0.001	0.057
-353.537	-30.585	0.323	-0.183
-352.523	-200.000	-0.002	-0.236
-351.508	-200.000	0.119	-0.000
-350.493	22.988	-0.115	0.094
-349.479	672.683	-0.086	0.222
-348.464	-10.398	0.189	0.125
-347.450	-107.967	-0.209	-0.045
-346.435	-192.537	-0.051	-0.000
-345.420	-200.000	-0.003	-0.331
-344.406	-73.817	-0.182	0.066
-343.391	-34.494	0.277	0.152
-342.377	-48.605	-0.203	0.098
-341.362	-200.000	0.034	0.182
-340.348	63.038	0.062	0.062
-339.333	46.576	0.416	0.386
-338.318	800.000	-0.118	0.348
-337.304	-66.596	-0.174	-0.069
-336.289	-126.030	0.203	0.031
-335.275	-72.041	0.150	-0.056
-334.260	286.427	-0.175	-0.316
-333.245	167.206	0.192	-0.272
-332.231	84.886	0.096	0.105
-331.216	-184.784	-0.156	0.002
-330.202	-162.841	0.356	0.017
-329.187	-19.141	-0.303	-0.188
-328.172	-200.000	-0.008	0.057
-327.158	94.803	0.188	0.213
-326.143	449.665	-0.122	-0.268
-325.129	660.409	-0.139	0.358
-324.114	-124.581	-0.111	0.017
-323.099	-169.554	-0.195	0.007
-322.085	279.851	0.156	-0.279
-321.070	92.912	0.042	0.048
-320.056	-97.845	0.380	0.098
-319.041	669.812	-0.027	-0.069
-318.026	-200.000	0.005	0.078
-317.012	398.710	0.090	0.188
-315.997	13.019	-0.322	0.249
-314.983	64.806	-0.326	-0.328
-313.968	-11.759	-0.108	0.071
-312.953	-35.837	-0.313	-0.169
-311.939	-126.503	-0.434	-0.064
-310.924	800.000	0.090	0.259
-309.910	357.586	0.151	-0.300
-308.895	-56.981	0.072	0.032
-307.880	-185.271	-0.257	0.004
-306.866	-200.000	-0.013	0.066
-305.851	148.967	0.043	0.057
-304.837	-200.000	-0.030	0.459
-303.822	-22.910	-0.094	-0.056
-302.807	-62.921	0.086	0.036
-301.793	13.248	-0.063	-0.049
-300.778	-76.818	0.118	-0.041
-299.764	-155.364	-0.400	-0.026
-298.749	-95.618	0.025	0.007
-297.735	57.068	-0.122	-0.118
-296.720	-200.000	0.021	-0.115
-295.705	800.000	-0.038	0.136
-294.691	-0.185	-0.062	0.044
-293.676	354.659	-0.116	0.229
-292.662	66.079	0.147	0.149
-291.647	153.068	0.132	-0.179
-290.632	-200.000	0.004	-0.292
-289.618	-142.087	0.321	-0.032
-288.603	-200.000	0.004	-0.150
-287.589	217.177	-0.129	-0.205
-286.574	-200.000	0.014	-0.063
-285.559	-144.718	-0.225	-0.021
-284.545	43.357	-0.154	-0.140
-283.530	71.178	0.136	-0.141
-282.516	688.225	-0.059	-0.154
-281.501	136.681	0.132	-0.172
-280.486	-174.116	0.378	-0.011
-279.472	800.000	-0.028	-0.112
-278.457	-142.332	-0.295	0.029
-277.443	-200.000	0.039	-0.190
-276.428	3.549	-0.149	-0.108
-275.413	-98.529	-0.244	0.062
-274.399	-77.461	0.358	-0.124
-273.384	53.294	-0.269	-0.257
-272.370	-38.354	-0.103	-0.054
-271.355	-82.456	-0.054	0.017
-270.340	-86.477	-0.117	0.036
-269.326	-122.498	-0.150	-0.024
-268.311	26.067	0.180	0.150
-267.297	46.516	-0.233	0.215
-266.282	171.990	0.077	0.110
-265.267	-200.000	0.029	0.214
-264.253	-200.000	0.004	-0.076
-263.238	800.000	0.103	0.306
-262.224	800.000	0.089	-0.388
-261.209	-3.632	-0.116	-0.080
-260.195	-200.000	0.007	0.099
-259.180	250.426	-0.046	0.078
-258.165	-74.180	-0.181	-0.065
-257.151	51.236	0.026	-0.024
-256.136	-98.306	-0.270	-0.069
-255.122	-16.320	0.128	-0.081
-254.107	-136.166	0.222	-0.026
-253.092	-49.774	-0.322	0.152
-252.078	-115.664	-0.123	-0.023
-251.063	800.000	-0.022	-0.086
-250.049	800.000	-0.053	-0.170
-249.034	733.580	-0.031	0.083
-248.019	784.842	-0.049	-0.132
-247.005	493.729	-0.120	-0.274
-245.990	122.192	0.224	-0.279
-244.976	-31.265	0.118	-0.066
-243.961	-75.111	-0.280	-0.100
-242.946	-34.419	0.193	0.105
-241.932	-200.000	-0.014	-0.114
-240.917	-200.000	0.074	-0.380
-239.903	800.000	0.025	-0.088
-238.888	800.000	0.074	-0.259
-237.873	233.072	0.197	-0.322
-236.859	371.283	-0.142	-0.286
-235.844	8.543	-0.212	-0.159
-234.830	-200.000	-0.031	-0.134
-233.815	-156.761	0.274	-0.017
-232.800	39.512	-0.192	-0.171
-231.786	-125.787	-0.391	-0.059
-230.771	-61.093	0.230	0.097
-229.757	-200.000	0.007	-0.070
-228.742	800.000	0.048	0.162
-227.727	-161.302	-0.352	-0.018
-226.713	72.172	-0.175	0.182
-225.698	-200.000	0.008	0.082
-224.684	-200.000	0.019	0.135
-223.669	66.009	-0.066	-0.067
-222.655	3.902	-0.222	-0.161
-221.640	308.026	0.251	0.465
-220.625	194.311	0.104	-0.157
-219.611	396.290	0.008	-0.017
-218.596	5.781	-0.210	0.154
-217.582	-128.664	-0.156	0.022
-216.567	-200.000	-0.018	0.267
-215.552	344.586	-0.202	0.394
-214.538	-67.600	0.158	-0.062
-213.523	363.559	-0.111	0.221
-212.509	-111.378	0.103	0.021
-211.494	-200.000	0.014	-0.086
-210.479	-162.238	0.087	-0.004
-209.465	-200.000	0.035	-0.175
-208.450	-9.987	0.154	0.102
-207.436	800.000	-0.072	-0.262
-206.421	-200.000	-0.047	-0.280
-205.406	-200.000	0.025	0.300
-204.392	110.423	-0.213	-0.254
-203.377	-200.000	-0.002	-0.028
-202.363	-66.328	0.123	-0.049
-201.348	800.000	0.115	0.333
-200.333	800.000	0.102	0.325
-199.319	3.602	0.327	-0.237
-198.304	800.000	-0.065	-0.235
-197.290	-118.084	0.248	0.044
-196.275	51.636	-0.107	0.101
-195.260	228.730	-0.140	0.227
-194.246	553.383	-0.136	0.325
-193.231	-156.532	-0.375	-0.023
-192.217	40.256	-0.161	0.144
-191.202	508.677	-0.099	-0.227
-190.187	111.216	0.158	-0.189
-189.173	-84.381	-0.237	0.074
-188.158	-56.266	0.234	-0.103
-187.144	69.554	-0.288	0.295
-186.129	145.788	-0.085	-0.113
-185.114	48.067	0.188	0.175
-184.100	800.000	0.040	-0.139
-183.085	164.312	-0.122	0.171
-182.071	-200.000	-0.007	0.190
-181.056	-88.285	-0.185	-0.055
-180.042	418.240	0.055	0.117
-179.027	32.865	-0.092	0.079
-178.012	99.545	0.056	-0.065
-176.998	-119.526	-0.089	0.015
-175.983	-39.178	0.075	-0.039
-174.969	304.148	0.117	-0.215
-173.954	1.333	-0.069	-0.049
-172.939	-134.051	-0.083	0.010
-171.925	800.000	0.021	-0.076
-170.910	412.525	0.031	0.066
-169.896	14.883	-0.072	0.056
-168.881	-147.958	-0.169	-0.014
-167.866	325.051	-0.119	0.226
-166.852	-21.718	0.487	0.294
-165.837	800.000	-0.033	0.112
-164.823	-200.000	-0.008	0.084
-163.808	-124.860	0.256	-0.039
-162.793	-48.184	-0.056	-0.027
-161.779	-200.000	0.013	-0.224
-160.764	-115.859	-0.298	0.055
-159.750	-200.000	0.002	0.075
-158.735	800.000	-0.145	0.482
-157.720	132.231	0.105	-0.133
-156.706	30.894	-0.205	-0.174
-155.691	-104.949	0.322	-0.073
-154.677	764.512	0.096	0.259
-153.662	72.082	-0.138	0.142
-152.647	800.000	0.035	-0.110
-151.633	404.081	-0.182	-0.379
-150.618	131.733	0.075	0.096
-149.604	51.049	0.278	0.262
-148.589	-200.000	-0.007	-0.053
-147.574	-169.428	0.240	0.009
-146.560	275.882	-0.130	0.229
-145.545	800.000	0.040	-0.126
-144.531	-7.531	-0.114	-0.077
-143.516	13.065	0.167	0.128
-142.502	-122.955	-0.042	-0.007
-141.487	137.565	0.203	-0.263
-140.472	-200.000	-0.087	-0.475
-139.458	115.234	-0.178	0.215
-138.443	800.000	-0.009	-0.033
-137.429	-114.208	-0.127	0.024
-136.414	394.308	0.054	-0.112
-135.399	65.972	0.234	-0.235
-134.385	55.249	0.180	-0.173
-133.370	-200.000	-0.006	-0.190
-132.356	-75.397	0.207	-0.073
-131.341	132.890	0.122	-0.156
-130.326	-104.256	-0.391	0.090
-129.312	-200.000	-0.000	0.050
-128.297	-6.749	-0.172	0.116
-127.283	-200.000	-0.002	0.206
-126.268	-66.103	-0.040	-0.016
-125.253	800.000	-0.052	0.195
-124.239	-12.159	-0.305	0.197
-123.224	282.745	-0.086	-0.154
-122.210	-106.157	-0.102	-0.023
