DTS Sentinel unit serial number:	SN413079Multiplexer serial number:	ORYXHardware model number:	OX4-SRSoftware version number:	ORYX F/W v4.00 Oryx Data Collector v3.7.2.0data status	okinstallation	princeton_trtdifferential loss correction	single-endedforward channel	channel 3reverse channel	N/Adate	2019/09/15time	00:16:35forward acquisition time	60.00reverse acquisition time	0.00gamma	496.2192k internal	0.2320k external	0.2320temperature offset calibration	0.9974default loss term (dB/km)	0.3790temperature slope calibration	1.0000multiplexer offset coefficient	1.0000multiplexer slope coefficient	1.0000fibre end	0.00T internal ref (°C)	32.19T ext. ref 1 (°C)	4.59T ext. ref 2 (°C)	27.17length (m)	temperature (°C)	Stokes	anti-Stokes-747.200	800.000	0.069	0.221
-746.185	56.696	-0.303	0.298
-745.171	145.027	-0.281	-0.380
-744.156	196.313	-0.147	-0.226
-743.142	-102.101	0.159	-0.039
-742.127	118.568	-0.173	0.216
-741.112	60.353	-0.110	-0.110
-740.098	-92.767	-0.074	-0.021
-739.083	-135.312	0.277	-0.034
-738.069	-126.812	-0.158	0.024
-737.054	-2.438	-0.231	0.164
-736.039	309.239	0.153	0.290
-735.025	-142.797	0.205	-0.020
-734.010	139.416	-0.188	-0.250
-732.996	-78.595	-0.630	0.218
-731.981	-200.000	0.191	0.001
-730.966	800.000	-0.058	-0.231
-729.952	-35.970	-0.097	-0.053
-728.937	151.259	-0.308	-0.424
-727.923	-66.379	0.210	-0.084
-726.908	-74.331	-0.148	-0.054
-725.894	-200.000	0.017	0.217
-724.879	120.468	-0.116	0.145
-723.864	-82.215	-0.213	0.070
-722.850	-97.857	-0.113	0.029
-721.835	378.666	-0.064	0.133
-720.821	-20.870	0.143	-0.089
-719.806	55.611	0.146	0.143
-718.791	184.595	0.057	0.086
-717.777	-23.090	-0.184	-0.112
-716.762	30.770	0.119	-0.103
-715.748	-200.000	-0.062	0.361
-714.733	-24.339	-0.397	-0.239
-713.718	-200.000	-0.020	-0.094
-712.704	-173.948	-0.129	0.004
-711.689	-28.290	-0.188	-0.110
-710.675	-29.469	0.073	-0.042
-709.660	-55.196	-0.119	0.054
-708.645	-91.348	0.185	-0.053
-707.631	-11.555	0.130	-0.086
-706.616	-98.466	-0.342	-0.088
-705.602	611.500	0.078	-0.196
-704.587	-96.620	0.224	-0.060
-703.572	2.904	-0.181	0.132
-702.558	12.368	0.138	-0.108
-701.543	642.985	-0.053	0.137
-700.529	121.076	-0.077	-0.096
-699.514	259.436	-0.103	-0.180
-698.499	86.578	0.133	-0.148
-697.485	-102.875	-0.290	0.070
-696.470	-39.594	0.238	-0.126
-695.456	-128.252	-0.226	0.032
-694.441	-149.373	-0.277	0.022
-693.426	-113.198	0.219	0.043
-692.412	-136.527	0.417	0.049
-691.397	-150.240	-0.106	0.008
-690.383	800.000	-0.025	0.107
-689.368	82.797	-0.051	-0.056
-688.354	586.523	0.068	-0.169
-687.339	-78.760	0.338	-0.116
-686.324	762.533	-0.057	0.155
-685.310	-200.000	-0.006	-0.325
-684.295	618.172	-0.102	-0.258
-683.281	800.000	0.079	0.283
-682.266	-200.000	0.018	0.189
-681.251	-147.890	0.026	-0.002
-680.237	800.000	0.056	-0.166
-679.222	43.933	0.165	-0.152
-678.208	-75.856	0.301	0.108
-677.193	-200.000	-0.003	-0.237
-676.178	-79.842	-0.274	-0.093
-675.164	-138.747	0.170	0.019
-674.149	-200.000	0.022	-0.226
-673.135	-200.000	-0.004	-0.240
-672.120	28.870	0.469	-0.401
-671.105	270.164	-0.019	0.033
-670.091	139.950	-0.121	-0.161
-669.076	56.807	-0.114	-0.112
-668.062	-5.905	0.085	0.059
-667.047	114.862	-0.171	0.211
-666.032	-96.926	0.186	0.049
-665.018	81.352	-0.146	-0.159
-664.003	-72.517	-0.473	0.176
-662.989	-200.000	-0.039	0.292
-661.974	89.350	-0.112	0.126
-660.959	73.209	-0.143	0.151
-659.945	-91.043	0.136	-0.039
-658.930	800.000	0.043	-0.177
-657.916	221.973	-0.023	-0.037
-656.901	800.000	-0.066	-0.263
-655.886	-200.000	0.005	0.174
-654.872	-85.096	-0.102	0.032
-653.857	-200.000	0.080	-0.379
-652.843	605.842	-0.049	-0.122
-651.828	129.965	0.207	-0.267
-650.814	-5.469	0.116	0.081
-649.799	-113.679	-0.216	-0.042
-648.784	-111.405	0.348	0.072
-647.770	-54.246	-0.407	-0.186
-646.755	-61.241	0.159	-0.068
-645.741	94.821	-0.077	0.089
-644.726	4.083	0.324	0.239
-643.711	77.865	0.320	-0.344
-642.697	-200.000	-0.059	-0.319
-641.682	-200.000	-0.019	-0.303
-640.668	-68.609	0.321	0.125
-639.653	-135.677	-0.216	0.026
-638.638	58.070	0.286	-0.282
-637.624	-200.000	-0.016	-0.081
-636.609	330.781	-0.185	-0.359
-635.595	131.509	0.098	-0.126
-634.580	-200.000	-0.039	0.188
-633.565	-99.315	0.148	0.038
-632.551	-200.000	0.033	-0.239
-631.536	-153.017	0.232	0.016
-630.522	28.032	-0.059	-0.050
-629.507	800.000	0.053	-0.195
-628.492	121.314	-0.078	-0.098
-627.478	118.139	-0.147	-0.183
-626.463	800.000	0.060	0.210
-625.449	-200.000	-0.004	0.086
-624.434	161.791	-0.081	-0.115
-623.419	240.005	0.025	0.041
-622.405	-86.258	-0.264	0.082
-621.390	765.573	0.041	0.113
-620.376	346.550	-0.012	-0.024
-619.361	348.874	0.143	0.284
-618.346	-200.000	-0.018	-0.235
-617.332	249.068	0.032	-0.055
-616.317	70.372	0.167	-0.173
-615.303	-28.733	0.167	0.097
-614.288	252.155	-0.106	-0.182
-613.273	-200.000	0.019	-0.109
-612.259	-13.974	0.180	-0.117
-611.244	800.000	-0.051	-0.149
-610.230	-8.506	0.297	-0.201
-609.215	-54.415	0.045	0.020
-608.201	-91.135	-0.349	-0.101
-607.186	-111.431	0.117	-0.024
-606.171	11.084	0.131	-0.101
-605.157	-30.382	-0.118	0.068
-604.142	-180.752	-0.355	-0.007
-603.128	-37.209	-0.354	0.190
-602.113	800.000	-0.093	0.286
-601.098	-124.987	-0.163	-0.025
-600.084	106.186	-0.089	-0.107
-599.069	-43.880	-0.063	0.032
-598.055	-131.036	0.312	0.042
-597.040	80.404	0.093	0.100
-596.025	11.702	0.187	-0.144
-595.011	-175.067	-0.142	0.004
-593.996	-94.545	-0.325	-0.089
-592.982	-182.518	-0.242	-0.004
-591.967	800.000	-0.044	0.145
-590.952	-98.565	0.204	0.052
-589.938	-51.822	-0.219	-0.103
-588.923	-93.038	-0.203	0.057
-587.909	14.129	-0.186	-0.145
-586.894	-149.319	0.245	-0.020
-585.879	400.866	0.051	0.108
-584.865	360.785	-0.225	-0.454
-583.850	-200.000	0.036	0.266
-582.836	75.139	-0.075	0.080
-581.821	-159.780	-0.502	0.028
-580.806	-138.124	0.377	0.042
-579.792	-200.000	0.026	-0.195
-578.777	-77.506	-0.048	-0.017
-577.763	-50.387	0.123	-0.058
-576.748	-200.000	0.038	0.228
-575.733	21.382	0.245	-0.200
-574.719	-76.174	-0.442	0.157
-573.704	187.987	0.054	0.081
-572.690	266.501	-0.087	0.154
-571.675	23.716	-0.166	0.138
-570.661	-200.000	0.044	-0.487
-569.646	66.431	0.156	0.159
-568.631	108.603	0.062	-0.074
-567.617	-117.629	0.149	-0.027
-566.602	-200.000	0.039	0.199
-565.588	-85.007	-0.032	-0.010
-564.573	-92.023	-0.233	0.066
-563.558	-9.012	0.094	0.063
-562.544	516.109	0.098	-0.229
-561.529	542.082	0.047	0.113
-560.515	375.538	0.266	-0.544
-559.500	523.614	0.085	0.201
-558.485	-132.033	0.173	-0.023
-557.471	-20.115	-0.086	0.053
-556.456	11.892	0.053	-0.041
-555.442	199.545	-0.086	0.132
-554.427	295.338	-0.052	0.095
-553.412	99.324	-0.178	0.206
-552.398	-59.264	0.311	0.135
-551.383	502.200	-0.064	-0.148
-550.369	800.000	0.045	-0.131
-549.354	218.799	0.068	-0.108
-548.339	73.430	0.169	0.178
-547.325	-148.181	0.184	0.015
-546.310	800.000	0.078	-0.256
-545.296	-69.970	0.135	0.052
-544.281	8.560	-0.137	-0.103
-543.266	-200.000	0.005	0.217
-542.252	-200.000	0.006	-0.173
-541.237	-200.000	0.016	-0.247
-540.223	137.408	0.140	-0.184
-539.208	-2.759	0.291	-0.204
-538.193	10.143	0.256	-0.195
-537.179	-19.912	-0.166	0.103
-536.164	800.000	0.073	-0.238
-535.150	136.534	-0.065	-0.086
-534.135	-133.607	-0.136	-0.017
-533.121	800.000	0.103	0.402
-532.106	-200.000	-0.042	-0.362
-531.091	-5.685	0.045	0.031
-530.077	-200.000	-0.035	0.202
-529.062	-200.000	-0.019	-0.156
-528.048	-1.112	-0.082	-0.058
-527.033	601.885	0.045	-0.113
-526.018	-200.000	0.002	-0.042
-525.004	-169.027	-0.238	0.009
-523.989	230.997	0.154	0.253
-522.975	364.143	-0.211	-0.426
-521.960	-86.916	-0.137	-0.042
-520.945	288.748	-0.098	0.178
-519.931	-200.000	-0.066	0.388
-518.916	100.550	-0.102	0.119
-517.902	-200.000	0.012	0.132
-516.887	-200.000	0.021	-0.287
-515.872	-171.748	-0.073	-0.002
-514.858	-67.584	0.359	0.141
-513.843	315.685	-0.064	0.122
-512.829	-59.421	0.215	-0.092
-511.814	8.657	-0.112	-0.085
-510.799	30.326	-0.197	0.169
-509.785	80.816	-0.062	-0.066
-508.770	-76.326	0.185	0.065
-507.756	-81.626	-0.142	-0.047
-506.741	-200.000	-0.002	-0.112
-505.726	-200.000	-0.028	0.154
-504.712	28.023	-0.266	-0.225
-503.697	-200.000	-0.008	0.042
-502.683	-119.837	0.063	-0.011
-501.668	-56.747	0.310	-0.138
-500.653	-91.278	0.119	-0.034
-499.639	-115.722	0.177	-0.033
-498.624	-200.000	-0.011	-0.077
-497.610	78.289	0.202	0.216
-496.595	124.930	0.185	0.234
-495.581	-177.109	-0.333	-0.008
-494.566	-7.522	0.152	-0.103
-493.551	210.604	0.023	-0.036
-492.537	175.082	-0.047	-0.068
-491.522	-9.521	-0.078	-0.052
-490.508	800.000	0.039	0.115
-489.493	-109.428	-0.208	0.044
-488.478	-117.171	0.055	-0.010
-487.464	-103.964	-0.086	0.020
-486.449	386.029	-0.050	0.104
-485.435	-200.000	-0.039	0.301
-484.420	270.983	-0.032	-0.056
-483.405	-200.000	0.036	-0.161
-482.391	217.727	0.092	0.147
-481.376	63.456	-0.183	0.184
-480.362	-99.255	-0.404	0.102
-479.347	132.366	-0.250	0.322
-478.332	160.767	0.096	0.134
-477.318	177.720	0.225	0.329
-476.303	-200.000	0.000	0.060
-475.289	-133.484	-0.227	0.028
-474.274	-200.000	0.001	0.045
-473.259	800.000	0.029	-0.090
-472.245	72.335	-0.220	0.230
-471.230	5.453	-0.154	0.113
-470.216	-7.565	-0.287	-0.194
-469.201	800.000	-0.031	-0.114
-468.186	-200.000	0.025	-0.281
-467.172	16.856	0.136	0.108
-466.157	-109.632	-0.207	0.044
-465.143	461.310	-0.065	-0.145
-464.128	-118.018	-0.140	0.025
-463.113	-95.798	0.257	-0.069
-462.099	95.682	0.106	-0.121
-461.084	-200.000	0.055	-0.391
-460.070	324.929	-0.041	-0.079
-459.055	-10.543	-0.311	0.206
-458.040	19.943	-0.186	0.150
-457.026	-200.000	0.030	0.176
-456.011	32.716	0.382	0.330
-454.997	-200.000	0.034	0.470
-453.982	78.838	-0.060	0.064
-452.968	-195.108	-0.310	0.002
-451.953	-80.764	-0.246	0.082
-450.938	-164.952	0.328	0.015
-449.924	800.000	0.039	-0.137
-448.909	-148.477	-0.012	0.001
-447.895	-200.000	-0.033	-0.219
-446.880	-133.882	0.294	-0.037
-445.865	-12.796	-0.193	-0.126
-444.851	499.038	0.101	-0.233
-443.836	-45.694	-0.126	0.062
-442.822	68.631	0.105	-0.107
-441.807	-200.000	-0.025	-0.239
-440.792	-87.102	-0.139	0.042
-439.778	-200.000	0.018	0.252
-438.763	162.577	-0.145	0.203
-437.749	183.032	-0.097	-0.144
-436.734	-11.605	-0.250	-0.164
-435.719	-59.163	0.024	-0.010
-434.705	-200.000	-0.012	-0.166
-433.690	-200.000	-0.009	-0.184
-432.676	291.066	-0.062	-0.112
-431.661	756.333	-0.078	-0.211
-430.646	211.140	-0.090	0.142
-429.632	-200.000	0.037	0.214
-428.617	360.883	0.039	0.078
-427.603	-26.331	0.061	0.036
-426.588	800.000	-0.023	-0.091
-425.573	148.644	-0.343	-0.462
-424.559	87.071	0.005	0.006
-423.544	228.887	-0.051	0.082
-422.530	47.904	0.278	-0.260
-421.515	-71.631	0.245	0.091
-420.500	-106.515	-0.146	0.032
-419.486	800.000	0.072	0.243
-418.471	-200.000	-0.012	0.245
-417.457	-200.000	-0.016	0.167
-416.442	800.000	0.059	0.191
-415.428	-125.011	-0.199	-0.031
-414.413	-125.632	-0.103	0.016
-413.398	-28.813	0.077	-0.044
-412.384	-200.000	-0.012	-0.275
-411.369	145.825	-0.081	0.109
-410.355	-67.338	0.040	0.016
-409.340	306.837	0.145	0.270
-408.325	-200.000	0.007	0.230
-407.311	-200.000	0.070	0.313
-406.296	-16.633	0.348	0.220
-405.282	-165.651	0.257	0.011
-404.267	88.076	0.165	-0.182
-403.252	-11.732	0.212	0.139
-402.238	66.775	-0.042	-0.043
-401.223	39.614	0.071	0.063
-400.209	-59.711	0.162	0.069
-399.194	-12.279	-0.239	-0.156
-398.179	-16.042	-0.247	-0.157
-397.165	-46.750	0.275	0.134
-396.150	-200.000	-0.051	0.511
-395.136	60.543	-0.121	-0.120
-394.121	-117.463	-0.144	-0.026
-393.106	-200.000	-0.012	-0.152
-392.092	800.000	0.075	-0.320
-391.077	-75.582	-0.331	-0.117
-390.063	-22.964	-0.161	0.097
-389.048	800.000	0.083	0.233
-388.033	-200.000	-0.006	0.307
-387.019	-124.673	0.265	0.041
-386.004	-16.613	-0.330	0.208
-384.990	-96.706	0.044	-0.012
-383.975	113.112	0.134	-0.162
-382.960	115.045	-0.179	-0.217
-381.946	200.830	0.198	-0.304
-380.931	-125.322	-0.089	0.014
-379.917	-200.000	0.041	0.285
-378.902	-130.077	-0.275	-0.037
-377.888	-81.453	-0.394	-0.129
-376.873	-134.483	0.158	0.019
-375.858	-41.060	0.160	-0.082
-374.844	-123.530	0.223	0.035
-373.829	-77.248	0.111	0.038
-372.815	-43.294	-0.161	-0.081
-371.800	231.580	0.137	0.224
-370.785	56.537	0.059	-0.057
-369.771	-107.804	0.167	-0.036
-368.756	309.239	0.054	0.101
-367.742	150.062	0.224	-0.303
-366.727	86.434	0.178	0.195
-365.712	92.486	-0.135	-0.151
-364.698	193.644	-0.052	-0.078
-363.683	419.736	-0.029	0.063
-362.669	-126.841	-0.085	0.012
-361.654	103.174	-0.164	-0.192
-360.639	800.000	-0.075	0.248
-359.625	-76.933	0.350	0.122
-358.610	-126.905	-0.389	-0.057
-357.596	1.060	-0.129	0.092
-356.581	-125.185	0.225	0.034
-355.566	32.434	-0.204	0.175
-354.552	384.595	0.013	-0.027
-353.537	-21.922	0.049	-0.029
-352.523	-35.767	-0.338	-0.182
-351.508	-40.593	-0.159	-0.082
-350.493	-77.161	-0.026	-0.009
-349.479	-148.946	0.033	0.003
-348.464	-200.000	-0.008	0.410
-347.450	-68.356	0.367	-0.142
-346.435	800.000	0.035	-0.130
-345.420	-181.492	0.381	0.007
-344.406	-200.000	0.002	-0.159
-343.391	-34.259	0.138	0.075
-342.377	-29.849	-0.081	0.046
-341.362	-200.000	0.051	-0.400
-340.348	-138.114	-0.156	-0.017
-339.333	-145.805	-0.176	0.016
-338.318	-200.000	0.006	0.209
-337.304	-200.000	-0.025	0.146
-336.289	286.104	-0.064	-0.114
-335.275	-16.015	-0.034	-0.021
-334.260	1.587	-0.255	-0.183
-333.245	236.865	-0.114	-0.188
-332.231	180.387	0.231	0.337
-331.216	-200.000	-0.020	-0.217
-330.202	800.000	-0.023	-0.098
-329.187	-200.000	-0.033	0.166
-328.172	-84.947	-0.340	0.106
-327.158	-69.343	-0.363	-0.139
-326.143	-115.052	0.145	-0.027
-325.129	-40.191	-0.225	-0.117
-324.114	196.357	0.223	0.337
-323.099	160.267	0.076	0.105
-322.085	794.171	0.068	-0.185
-321.070	-200.000	0.024	-0.307
-320.056	168.339	-0.092	0.130
-319.041	-200.000	0.011	-0.172
-318.026	-134.557	-0.373	-0.045
-317.012	97.212	-0.288	-0.329
-315.997	-200.000	0.015	0.232
-314.983	-62.038	0.136	-0.056
-313.968	-105.425	0.253	0.057
-312.953	136.080	-0.135	0.175
-311.939	-141.641	-0.040	0.004
-310.924	-6.612	-0.149	0.101
-309.910	296.971	0.130	-0.238
-308.895	-100.288	0.090	-0.022
-307.880	-146.087	0.081	-0.007
-306.866	-106.646	-0.129	-0.029
-305.851	-1.330	0.160	-0.112
-304.837	12.361	-0.130	0.100
-303.822	22.533	0.188	-0.152
-302.807	427.442	-0.059	-0.127
-301.793	-4.250	0.234	0.161
-300.778	800.000	-0.015	0.067
-299.764	674.152	0.111	0.286
-298.749	800.000	-0.139	0.426
-297.735	-96.654	-0.262	-0.069
-296.720	201.316	-0.171	-0.262
-295.705	-106.595	0.309	0.068
-294.691	800.000	0.064	0.176
-293.676	800.000	-0.109	0.389
-292.662	119.653	0.087	0.107
-291.647	-33.438	0.105	-0.058
-290.632	-200.000	0.011	-0.215
-289.618	202.740	0.133	0.204
-288.603	207.216	0.146	0.226
-287.589	232.898	0.101	0.166
-286.574	-147.085	-0.110	0.009
-285.559	-174.320	0.119	0.003
-284.545	475.712	0.091	-0.203
-283.530	-200.000	-0.013	-0.209
-282.516	-200.000	0.007	0.092
-281.501	399.761	0.114	-0.237
-280.486	-66.300	-0.157	-0.062
-279.472	424.485	0.149	-0.317
-278.457	95.075	0.258	-0.291
-277.443	83.779	-0.253	-0.274
-276.428	437.301	-0.095	0.205
-275.413	243.694	-0.049	-0.082
-274.399	-144.904	-0.134	-0.012
-273.384	-101.785	0.441	0.106
-272.370	124.415	-0.160	0.200
-271.355	-51.899	0.181	-0.084
-270.340	-82.013	-0.177	-0.057
-269.326	498.686	-0.023	0.053
-268.311	-104.466	0.101	-0.023
-267.297	48.260	0.088	-0.082
-266.282	604.285	-0.100	0.247
-265.267	-200.000	0.041	-0.189
-264.253	-57.378	-0.101	0.044
-263.238	30.829	-0.267	-0.227
-262.224	-187.868	0.205	0.003
-261.209	-93.279	0.122	-0.034
-260.195	258.124	-0.091	0.155
-259.180	800.000	0.106	-0.305
-258.165	-148.288	0.207	0.017
-257.151	-0.713	-0.027	-0.019
-256.136	57.377	0.062	-0.060
-255.122	-21.704	-0.126	-0.076
-254.107	-97.051	0.305	-0.079
-253.092	28.476	0.072	-0.060
-252.078	-122.636	0.019	-0.003
-251.063	-97.887	0.342	0.088
-250.049	-6.304	0.136	0.092
-249.034	625.277	0.048	-0.121
-248.019	39.373	-0.162	0.144
-247.005	98.409	0.079	0.090
-245.990	243.654	-0.064	-0.107
-244.976	-147.725	-0.316	-0.026
-243.961	-135.402	-0.022	0.003
-242.946	490.079	-0.087	0.196
-241.932	-166.901	0.197	-0.008
-240.917	51.417	0.309	-0.291
-239.903	800.000	0.060	0.208
-238.888	113.965	-0.095	-0.115
-237.873	-62.210	0.553	0.229
-236.859	-89.133	0.228	-0.067
-235.844	-200.000	-0.014	0.206
-234.830	189.649	0.086	0.128
-233.815	-200.000	0.390	-0.001
-232.800	5.553	-0.181	0.132
-231.786	-135.858	-0.351	0.041
-230.771	-35.018	0.099	-0.053
-229.757	625.329	0.059	-0.147
-228.742	-106.031	-0.120	-0.027
-227.727	17.349	0.276	-0.217
-226.713	-145.612	0.227	0.020
-225.698	238.457	-0.055	-0.091
-224.684	800.000	0.078	0.238
-223.669	-121.092	0.142	0.024
-222.655	-190.671	0.322	0.003
-221.640	166.740	-0.043	0.060
-220.625	29.607	-0.144	0.122
-219.611	-96.587	-0.201	-0.053
-218.596	64.662	-0.139	-0.139
-217.582	601.048	0.109	-0.269
-216.567	-84.941	0.235	0.073
-215.552	43.137	-0.165	0.149
-214.538	800.000	-0.061	-0.218
-213.523	-200.000	-0.001	0.239
-212.509	-200.000	0.016	0.271
-211.494	-200.000	-0.018	0.324
-210.479	-128.497	0.020	-0.003
-209.465	-42.180	0.048	-0.024
-208.450	-15.738	-0.036	0.023
-207.436	-11.205	0.043	-0.028
-206.421	-200.000	0.077	0.459
-205.406	201.344	-0.058	-0.088
-204.392	77.266	0.087	0.091
-203.377	800.000	-0.049	0.140
-202.363	-81.663	-0.224	0.073
-201.348	-110.591	0.163	0.033
-200.333	158.000	0.166	0.227
-199.319	-147.265	0.255	0.021
-198.304	-57.147	-0.365	0.159
-197.290	-200.000	0.016	-0.396
-196.275	165.273	0.252	-0.353
-195.260	800.000	-0.068	-0.197
-194.246	241.260	-0.107	-0.177
-193.231	173.874	0.178	0.254
-192.217	-71.481	-0.142	0.053
-191.202	-117.686	0.074	-0.013
-190.187	7.754	-0.349	0.259
-189.173	95.652	0.082	0.093
-188.158	800.000	-0.058	-0.204
-187.144	-0.465	0.065	0.045
-186.129	666.974	0.119	0.305
-185.114	800.000	-0.073	-0.264
-184.100	-23.079	-0.222	0.132
-183.085	-44.718	0.179	-0.089
-182.071	310.679	0.094	0.174
-181.056	800.000	0.137	0.589
-180.042	-200.000	0.009	0.161
-179.027	-100.550	0.113	-0.028
-178.012	-99.441	-0.263	-0.066
-176.998	210.333	0.154	0.239
-175.983	-64.325	-0.247	0.099
-174.969	62.745	-0.008	-0.007
-173.954	375.829	-0.090	-0.181
-172.939	41.999	-0.202	-0.181
-171.925	-200.000	0.003	-0.143
-170.910	77.563	-0.130	0.137
-169.896	146.748	-0.116	-0.154
-168.881	-12.291	-0.395	-0.255
-167.866	-93.275	-0.248	-0.068
-166.852	800.000	0.110	0.405
-165.837	463.361	0.057	0.125
-164.823	-85.541	-0.077	0.024
-163.808	-200.000	-0.018	-0.230
-162.793	800.000	-0.118	-0.357
-161.779	-200.000	0.051	0.305
-160.764	800.000	-0.143	0.545
-159.750	69.821	-0.165	0.168
-158.735	-200.000	0.039	-0.180
-157.720	-200.000	-0.019	0.090
-156.706	-200.000	0.027	-0.168
-155.691	-200.000	0.011	-0.096
-154.677	800.000	0.030	-0.120
-153.662	-200.000	0.057	-0.342
-152.647	-200.000	-0.019	0.223
-151.633	-120.731	0.166	-0.028
-150.618	232.190	-0.052	0.084
-149.604	800.000	-0.029	0.124
-148.589	53.254	0.329	0.311
-147.574	-152.122	0.196	-0.014
-146.560	-78.973	-0.385	-0.130
-145.545	-12.143	-0.522	0.338
-144.531	-200.000	-0.044	0.217
-143.516	-151.014	0.161	0.012
-142.502	4.389	0.159	-0.115
-141.487	-6.586	-0.193	0.130
-140.472	85.625	-0.172	0.187
-139.458	22.188	0.248	0.200
-138.443	101.185	0.069	0.079
-137.429	186.008	-0.139	-0.205
-136.414	-200.000	-0.037	0.246
-135.399	254.583	0.108	-0.182
-134.385	-47.537	-0.363	-0.174
-133.370	-136.662	-0.341	0.039
-132.356	800.000	-0.039	-0.123
-131.341	-200.000	-0.001	0.343
-130.326	34.620	-0.244	0.210
-129.312	121.690	-0.177	-0.218
-128.297	-57.675	0.327	0.141
-127.283	122.238	0.050	-0.062
-126.268	762.577	0.181	0.486
-125.253	-91.777	-0.075	-0.021
-124.239	-68.672	-0.361	0.138
-123.224	-90.961	0.298	0.085
-122.210	-200.000	0.023	0.162
