DTS Sentinel unit serial number:	SN413079Multiplexer serial number:	ORYXHardware model number:	OX4-SRSoftware version number:	ORYX F/W v4.00 Oryx Data Collector v3.7.2.0data status	okinstallation	princeton_trtdifferential loss correction	single-endedforward channel	channel 3reverse channel	N/Adate	2019/09/15time	18:40:35forward acquisition time	60.00reverse acquisition time	0.00gamma	496.2192k internal	0.2287k external	0.2287temperature offset calibration	0.9931default loss term (dB/km)	0.3790temperature slope calibration	1.0000multiplexer offset coefficient	1.0000multiplexer slope coefficient	1.0000fibre end	0.00T internal ref (°C)	43.67T ext. ref 1 (°C)	6.84T ext. ref 2 (°C)	36.93length (m)	temperature (°C)	Stokes	anti-Stokes-747.200	-99.090	0.213	-0.055
-746.185	-92.582	-0.269	0.078
-745.171	142.214	-0.195	0.265
-744.156	259.620	0.065	0.115
-743.142	-169.197	-0.311	0.012
-742.127	800.000	0.137	0.420
-741.112	342.867	-0.070	0.140
-740.098	-200.000	0.089	0.445
-739.083	-115.120	0.275	0.053
-738.069	-200.000	-0.012	0.531
-737.054	-4.349	-0.111	-0.079
-736.039	-137.799	-0.356	0.041
-735.025	225.274	-0.120	0.199
-734.010	98.529	-0.309	0.366
-732.996	-200.000	-0.011	-0.160
-731.981	-200.000	-0.018	0.119
-730.966	281.766	0.093	0.172
-729.952	-55.780	-0.267	0.123
-728.937	217.230	-0.156	0.255
-727.923	-200.000	0.023	0.128
-726.908	-58.472	0.112	0.050
-725.894	-196.328	0.193	0.001
-724.879	800.000	0.039	0.138
-723.864	2.363	-0.105	-0.078
-722.850	214.013	0.074	-0.121
-721.835	-200.000	-0.004	-0.324
-720.821	391.737	0.097	-0.206
-719.806	-71.122	-0.088	0.034
-718.791	-14.985	0.194	-0.128
-717.777	-31.897	0.024	0.014
-716.762	788.945	0.024	0.067
-715.748	-200.000	-0.030	0.172
-714.733	800.000	0.094	0.306
-713.718	-200.000	-0.025	-0.229
-712.704	-52.693	-0.244	0.115
-711.689	-174.885	0.097	-0.003
-710.675	800.000	-0.033	-0.132
-709.660	78.901	-0.179	0.196
-708.645	457.814	0.074	-0.169
-707.631	248.363	-0.108	-0.187
-706.616	564.869	-0.056	0.139
-705.602	-132.623	0.052	-0.007
-704.587	512.094	-0.096	-0.230
-703.572	-200.000	-0.005	0.091
-702.558	800.000	-0.048	0.197
-701.543	45.518	0.276	-0.261
-700.529	800.000	0.027	-0.101
-699.514	245.574	0.106	-0.183
-698.499	-51.748	0.121	-0.058
-697.485	-83.826	0.391	0.128
-696.470	-200.000	-0.004	0.117
-695.456	-200.000	0.012	0.108
-694.441	-30.942	-0.140	0.081
-693.426	-200.000	-0.037	0.221
-692.412	190.893	-0.039	-0.061
-691.397	416.318	0.145	0.317
-690.383	399.186	0.098	-0.210
-689.368	-200.000	0.024	-0.176
-688.354	-102.416	-0.267	-0.065
-687.339	87.382	-0.126	-0.143
-686.324	-200.000	-0.017	-0.429
-685.310	-97.155	-0.290	-0.078
-684.295	-200.000	0.018	-0.274
-683.281	116.019	-0.209	0.262
-682.266	-120.862	0.245	-0.042
-681.251	-76.710	-0.218	-0.078
-680.237	800.000	-0.024	-0.070
-679.222	194.625	0.178	0.277
-678.208	47.201	-0.054	0.051
-677.193	-200.000	0.019	-0.253
-676.178	-27.905	-0.036	-0.021
-675.164	322.337	0.046	-0.090
-674.149	-93.509	-0.138	0.039
-673.135	4.867	0.306	0.230
-672.120	1.700	-0.301	-0.222
-671.105	-200.000	0.037	0.240
-670.091	72.914	0.098	-0.105
-669.076	149.529	0.167	-0.231
-668.062	-200.000	-0.029	-0.187
-667.047	-128.645	-0.296	-0.043
-666.032	30.062	-0.185	-0.162
-665.018	516.611	0.134	-0.321
-664.003	253.863	0.222	0.388
-662.989	800.000	-0.098	-0.327
-661.974	-153.280	-0.327	-0.023
-660.959	-88.734	-0.051	0.016
-659.945	800.000	0.045	0.166
-658.930	538.856	-0.035	0.086
-657.916	581.756	0.121	0.303
-656.901	-118.693	0.243	0.044
-655.886	-68.219	0.106	0.042
-654.872	-83.506	0.134	0.044
-653.857	-63.467	-0.169	-0.071
-652.843	800.000	-0.027	0.117
-651.828	-91.135	-0.079	0.023
-650.814	-154.313	-0.328	0.023
-649.799	18.749	0.128	-0.105
-648.784	72.915	0.145	0.155
-647.770	119.853	-0.163	0.207
-646.755	83.361	0.066	0.073
-645.741	-110.165	-0.302	0.064
-644.726	477.750	-0.074	0.171
-643.711	-126.733	0.109	-0.017
-642.697	198.794	-0.161	0.252
-641.682	125.164	-0.205	0.264
-640.668	26.151	0.142	-0.121
-639.653	-131.591	-0.379	0.051
-638.638	-37.388	-0.035	-0.019
-637.624	-200.000	0.006	-0.379
-636.609	704.620	0.137	-0.370
-635.595	30.257	-0.288	-0.251
-634.580	-200.000	0.014	-0.172
-633.565	-99.898	-0.159	-0.041
-632.551	-200.000	0.019	0.095
-631.536	44.430	0.268	-0.251
-630.522	-200.000	-0.039	0.176
-629.507	800.000	-0.013	-0.051
-628.492	41.402	0.082	-0.076
-627.478	-105.941	0.316	-0.073
-626.463	-137.117	0.083	0.010
-625.449	-200.000	-0.024	-0.192
-624.434	288.899	-0.073	-0.134
-623.419	-128.347	0.361	0.052
-622.405	-200.000	-0.020	-0.220
-621.390	-200.000	-0.221	-0.000
-620.376	268.890	-0.101	0.180
-619.361	-22.144	-0.196	0.121
-618.346	-189.769	-0.244	0.003
-617.332	-1.574	-0.212	-0.152
-616.317	-200.000	0.035	-0.192
-615.303	-200.000	-0.017	-0.129
-614.288	800.000	-0.023	-0.082
-613.273	25.558	-0.168	0.143
-612.259	-31.449	0.170	0.097
-611.244	-62.662	-0.064	0.027
-610.230	222.632	-0.078	-0.128
-609.215	100.654	-0.046	-0.054
-608.201	-200.000	0.082	-0.424
-607.186	-200.000	-0.023	-0.178
-606.171	345.054	0.050	0.100
-605.157	-37.185	-0.242	0.132
-604.142	-138.249	0.166	0.019
-603.128	-155.799	0.247	-0.016
-602.113	643.376	-0.065	0.168
-601.098	-81.514	-0.161	-0.054
-600.084	-200.000	0.029	0.320
-599.069	-152.590	0.172	0.013
-598.055	-34.812	-0.121	0.067
-597.040	-97.620	0.256	-0.068
-596.025	-59.450	0.137	-0.060
-595.011	-23.242	-0.151	-0.093
-593.996	9.128	0.156	0.120
-592.982	371.533	-0.057	-0.117
-591.967	-200.000	-0.024	-0.317
-590.952	-30.874	0.254	-0.147
-589.938	-1.809	-0.218	0.156
-588.923	800.000	0.043	-0.138
-587.909	-43.823	-0.138	-0.071
-586.894	161.646	-0.170	0.242
-585.879	-101.831	-0.260	0.064
-584.865	800.000	0.039	-0.135
-583.850	-200.000	0.031	0.263
-582.836	196.364	-0.112	-0.174
-581.821	-58.814	-0.134	-0.059
-580.806	64.515	0.131	-0.135
-579.792	116.956	0.144	0.181
-578.777	113.477	0.112	0.139
-577.763	201.505	-0.140	-0.219
-576.748	108.780	-0.094	-0.114
-575.733	-78.027	-0.068	-0.024
-574.719	81.046	0.024	-0.026
-573.704	800.000	-0.124	-0.360
-572.690	23.725	-0.179	-0.150
-571.675	-42.669	0.067	-0.035
-570.661	-85.296	0.107	-0.034
-569.646	800.000	-0.058	-0.195
-568.631	21.988	0.138	-0.115
-567.617	320.778	-0.174	-0.336
-566.602	14.050	0.243	0.192
-565.588	800.000	-0.084	-0.373
-564.573	-42.949	0.123	0.063
-563.558	-57.238	0.377	0.169
-562.544	-200.000	0.037	0.226
-561.529	-200.000	0.005	-0.293
-560.515	35.959	-0.099	-0.089
-559.500	800.000	-0.078	-0.345
-558.485	800.000	0.050	-0.162
-557.471	-125.819	-0.130	0.020
-556.456	-64.336	-0.219	-0.091
-555.442	-29.358	0.362	-0.211
-554.427	389.115	0.165	-0.347
-553.412	-77.649	-0.406	-0.143
-552.398	800.000	0.089	0.306
-551.383	232.087	-0.103	0.171
-550.369	506.318	-0.112	0.264
-549.354	159.011	-0.151	-0.214
-548.339	-100.530	-0.185	0.047
-547.325	383.713	0.124	-0.260
-546.310	-200.000	0.003	0.017
-545.296	-74.543	0.226	0.083
-544.281	-41.868	0.464	-0.242
-543.266	214.595	-0.240	-0.387
-542.252	309.491	-0.159	-0.303
-541.237	-173.321	0.177	-0.005
-540.223	-49.057	0.054	-0.026
-539.208	-200.000	-0.101	0.486
-538.193	256.144	-0.129	-0.226
-537.179	-200.000	-0.023	-0.173
-536.164	-200.000	-0.030	-0.204
-535.150	-80.660	-0.186	-0.063
-534.135	-140.165	-0.317	-0.034
-533.121	-135.713	0.198	0.024
-532.106	213.250	-0.097	0.155
-531.091	-42.927	0.101	0.052
-530.077	-171.854	0.278	-0.009
-529.062	800.000	0.053	0.208
-528.048	554.987	-0.074	-0.180
-527.033	-132.308	0.106	0.014
-526.018	-200.000	0.020	-0.120
-525.004	340.384	-0.077	0.154
-523.989	50.697	0.087	-0.084
-522.975	-200.000	0.012	0.228
-521.960	800.000	-0.088	0.267
-520.945	3.269	0.103	0.076
-519.931	-198.528	-0.325	0.002
-518.916	-80.178	-0.107	-0.036
-517.902	9.454	0.130	0.100
-516.887	-200.000	0.034	-0.193
-515.872	-158.709	0.171	-0.010
-514.858	-142.519	0.178	-0.018
-513.843	-75.933	0.065	0.023
-512.829	81.823	-0.306	-0.337
-511.814	-52.526	0.109	-0.051
-510.799	-56.826	-0.289	0.130
-509.785	17.769	0.226	0.182
-508.770	129.959	0.076	0.099
-507.756	-117.639	-0.229	0.042
-506.741	86.293	-0.177	0.198
-505.726	800.000	0.094	0.315
-504.712	269.148	0.106	0.189
-503.697	-200.000	0.017	0.129
-502.683	800.000	-0.019	-0.067
-501.668	-33.733	-0.171	-0.096
-500.653	674.006	0.174	0.458
-499.639	-102.056	0.311	-0.076
-498.624	467.332	0.016	0.035
-497.610	-200.000	-0.026	-0.521
-496.595	-144.890	-0.081	-0.008
-495.581	-200.000	0.031	0.176
-494.566	-200.000	0.033	0.267
-493.551	76.505	0.340	-0.366
-492.537	-148.961	-0.295	-0.024
-491.522	274.584	0.048	0.087
-490.508	183.085	0.168	-0.253
-489.493	-66.355	-0.122	-0.049
-488.478	-200.000	-0.011	-0.099
-487.464	5.017	0.060	-0.045
-486.449	-200.000	0.028	-0.166
-485.435	-200.000	0.062	0.344
-484.420	-39.937	0.283	0.150
-483.405	-200.000	-0.035	0.198
-482.391	-200.000	0.023	0.220
-481.376	226.033	-0.072	0.118
-480.362	-134.520	-0.125	-0.016
-479.347	-200.000	-0.012	-0.101
-478.332	105.622	-0.116	0.139
-477.318	-7.043	-0.174	0.120
-476.303	157.215	0.233	0.328
-475.289	49.225	0.158	-0.151
-474.274	-127.061	-0.373	-0.056
-473.259	800.000	-0.082	0.295
-472.245	89.192	-0.084	-0.095
-471.230	117.673	0.112	0.139
-470.216	-100.624	0.217	-0.054
-469.201	-200.000	0.014	0.337
-468.186	129.759	0.224	0.290
-467.172	39.956	-0.220	0.200
-466.157	-129.723	-0.214	-0.030
-465.143	33.122	0.125	-0.110
-464.128	101.275	-0.146	0.172
-463.113	-200.000	-0.001	-0.286
-462.099	-141.376	0.140	-0.014
-461.084	228.148	-0.045	0.075
-460.070	314.337	-0.082	0.157
-459.055	224.673	-0.099	0.162
-458.040	-167.851	-0.386	-0.015
-457.026	200.169	0.070	0.110
-456.011	136.753	-0.065	0.087
-454.997	-200.000	-0.017	0.080
-453.982	-188.779	-0.229	0.003
-452.968	800.000	0.085	0.296
-451.953	-129.976	-0.053	-0.007
-450.938	-200.000	-0.136	0.000
-449.924	-25.601	0.157	0.094
-448.909	221.736	0.180	0.293
-447.895	-140.634	0.081	0.008
-446.880	702.777	-0.073	0.196
-445.865	-64.349	0.180	0.074
-444.851	-152.642	-0.048	-0.003
-443.836	-112.715	-0.178	-0.036
-442.822	800.000	-0.095	0.379
-441.807	39.131	0.061	-0.055
-440.792	171.916	-0.128	-0.187
-439.778	-200.000	0.056	-0.378
-438.763	800.000	0.042	-0.121
-437.749	54.979	-0.142	-0.139
-436.734	-20.295	0.247	-0.154
-435.719	178.515	-0.052	0.076
-434.705	-152.179	-0.231	-0.017
-433.690	-57.823	0.263	0.117
-432.676	291.299	0.070	-0.129
-431.661	-24.292	0.083	0.050
-430.646	-200.000	-0.059	-0.307
-429.632	-1.486	0.114	-0.081
-428.617	41.022	0.130	0.119
-427.603	742.860	-0.167	0.455
-426.588	2.418	-0.076	-0.056
-425.573	-200.000	-0.040	0.183
-424.559	-41.319	0.256	0.134
-423.544	-76.803	0.383	-0.136
-422.530	52.118	0.115	-0.111
-421.515	-132.289	0.306	0.040
-420.500	-52.025	0.140	-0.066
-419.486	-74.177	0.239	-0.088
-418.471	-200.000	0.003	0.233
-417.457	-1.963	-0.309	0.220
-416.442	75.952	-0.105	-0.113
-415.428	-200.000	-0.082	-0.398
-414.413	-134.210	0.072	0.009
-413.398	-200.000	0.038	-0.281
-412.384	800.000	0.052	0.214
-411.369	-33.549	-0.558	0.312
-410.355	-200.000	-0.014	-0.066
-409.340	-104.377	-0.125	0.029
-408.325	113.725	-0.084	-0.103
-407.311	169.308	0.059	-0.085
-406.296	14.648	-0.356	0.282
-405.282	-3.613	-0.187	0.132
-404.267	-71.864	-0.015	0.006
-403.252	-152.389	-0.196	0.014
-402.238	-107.194	0.268	-0.060
-401.223	-13.762	-0.081	0.053
-400.209	800.000	0.094	0.300
-399.194	800.000	0.071	0.234
-398.179	-89.921	-0.229	0.068
-397.165	-68.509	0.196	0.077
-396.150	234.485	-0.141	-0.236
-395.136	-200.000	-0.023	-0.202
-394.121	14.797	-0.160	-0.126
-393.106	108.616	-0.126	-0.152
-392.092	343.612	0.032	0.063
-391.077	-200.000	0.028	0.201
-390.063	-49.347	0.036	-0.018
-389.048	-40.483	0.130	0.068
-388.033	-81.732	0.227	0.075
-387.019	-200.000	-0.030	0.175
-386.004	-200.000	0.029	0.182
-384.990	157.988	-0.125	0.176
-383.975	-105.395	-0.215	0.049
-382.960	718.101	-0.041	-0.111
-381.946	502.054	0.189	-0.441
-380.931	766.416	-0.100	0.275
-379.917	691.688	0.119	0.315
-378.902	370.710	0.070	-0.144
-377.888	17.297	0.194	-0.155
-376.873	-115.523	0.151	-0.029
-375.858	327.962	-0.078	-0.152
-374.844	-200.000	0.000	0.010
-373.829	312.303	-0.255	0.484
-372.815	-200.000	0.023	0.257
-371.800	-152.845	-0.113	-0.008
-370.785	800.000	0.154	-0.582
-369.771	134.276	-0.049	0.064
-368.756	188.907	-0.143	-0.216
-367.742	-91.633	0.176	0.051
-366.727	50.954	-0.202	-0.193
-365.712	359.892	0.080	-0.162
-364.698	70.289	0.168	0.176
-363.683	-40.029	0.291	0.154
-362.669	32.110	-0.184	0.161
-361.654	800.000	-0.032	0.100
-360.639	99.261	0.031	0.036
-359.625	-200.000	-0.016	0.131
-358.610	800.000	0.052	0.171
-357.596	15.961	0.167	0.133
-356.581	-200.000	-0.032	-0.167
-355.566	159.823	-0.115	0.161
-354.552	235.694	0.116	-0.193
-353.537	-114.402	-0.181	0.035
-352.523	-93.022	0.362	0.102
-351.508	-93.372	-0.333	-0.093
-350.493	-200.000	-0.027	0.195
-349.479	-37.515	-0.145	-0.078
-348.464	-63.200	0.211	0.088
-347.450	800.000	-0.086	0.313
-346.435	-51.058	0.233	-0.110
-345.420	-200.000	0.031	-0.294
-344.406	-200.000	0.036	0.256
-343.391	53.567	0.142	-0.138
-342.377	-200.000	0.001	-0.150
-341.362	-165.927	0.150	0.006
-340.348	-27.293	0.359	0.211
-339.333	-54.782	0.210	0.096
-338.318	457.513	0.030	-0.068
-337.304	-200.000	-0.052	0.292
-336.289	-200.000	-0.007	0.238
-335.275	-54.455	0.178	0.081
-334.260	522.025	-0.086	-0.203
-333.245	19.644	0.387	-0.314
-332.231	58.927	0.162	-0.161
-331.216	741.587	0.031	0.085
-330.202	-157.579	-0.275	0.017
-329.187	800.000	-0.034	0.135
-328.172	800.000	0.090	-0.261
-327.158	11.447	-0.065	0.050
-326.143	59.273	0.076	-0.076
-325.129	200.184	-0.080	0.124
-324.114	-200.000	0.002	-0.043
-323.099	-100.452	0.185	-0.046
-322.085	-150.915	0.217	-0.017
-321.070	800.000	-0.055	0.178
-320.056	-141.896	-0.097	0.010
-319.041	-104.043	0.349	-0.082
-318.026	-155.535	-0.494	-0.032
-317.012	44.324	0.148	-0.137
-315.997	800.000	-0.042	-0.124
-314.983	-109.065	0.417	0.090
-313.968	-143.632	0.204	0.020
-312.953	-89.897	-0.039	-0.012
-311.939	-147.934	-0.353	-0.030
-310.924	-100.047	0.112	-0.028
-309.910	509.242	0.155	0.364
-308.895	-0.496	-0.124	0.089
-307.880	-156.420	0.348	-0.022
-306.866	-103.954	-0.323	0.076
-305.851	-85.358	0.412	0.130
-304.837	-200.000	0.030	-0.185
-303.822	439.413	-0.057	0.125
-302.807	140.047	-0.121	0.160
-301.793	-200.000	0.024	0.288
-300.778	-200.000	0.032	-0.315
-299.764	33.608	0.192	0.168
-298.749	800.000	0.025	-0.101
-297.735	-100.214	0.398	-0.100
-296.720	-164.904	-0.369	-0.017
-295.705	240.930	0.040	0.067
-294.691	96.308	0.052	-0.060
-293.676	-143.601	-0.130	0.012
-292.662	40.251	0.131	0.119
-291.647	-43.666	0.400	-0.203
-290.632	-200.000	0.005	-0.058
-289.618	387.491	-0.050	0.104
-288.603	15.820	-0.153	-0.121
-287.589	-121.547	-0.124	-0.021
-286.574	59.934	0.141	0.140
-285.559	121.276	0.121	-0.152
-284.545	618.641	-0.075	0.189
-283.530	34.360	-0.217	0.191
-282.516	-200.000	0.002	-0.017
-281.501	-200.000	0.011	0.053
-280.486	65.456	0.156	0.159
-279.472	-22.072	0.128	-0.078
-278.457	-17.376	-0.216	-0.137
-277.443	-31.119	0.357	0.203
-276.428	73.224	-0.130	0.137
-275.413	40.670	0.029	-0.027
-274.399	78.219	-0.300	-0.322
-273.384	-200.000	0.007	-0.242
-272.370	800.000	0.082	-0.288
-271.355	593.775	-0.136	-0.338
-270.340	800.000	-0.094	-0.319
-269.326	33.976	-0.362	-0.317
-268.311	383.363	0.085	-0.175
-267.297	800.000	0.052	-0.152
-266.282	-117.054	0.285	0.052
-265.267	-74.384	-0.287	0.104
-264.253	341.661	0.198	0.390
-263.238	800.000	-0.024	0.083
-262.224	69.462	0.172	-0.178
-261.209	332.109	0.044	0.085
-260.195	201.983	-0.199	0.308
-259.180	-200.000	-0.003	-0.212
-258.165	-157.371	-0.160	-0.010
-257.151	272.038	-0.059	-0.104
-256.136	-1.855	-0.275	0.195
-255.122	68.511	-0.289	0.298
-254.107	-200.000	-0.008	0.356
-253.092	-174.928	-0.383	-0.011
-252.078	-200.000	0.012	-0.391
-251.063	-116.361	0.160	-0.030
-250.049	-166.010	-0.226	-0.010
-249.034	219.771	0.231	0.371
-248.019	-113.376	0.191	-0.038
-247.005	800.000	0.048	0.160
-245.990	-200.000	-0.018	-0.099
-244.976	-3.833	-0.083	0.058
-243.961	307.606	-0.036	0.067
-242.946	800.000	-0.157	-0.438
-241.932	4.252	-0.110	-0.081
-240.917	800.000	-0.078	-0.275
-239.903	113.555	-0.089	-0.109
-238.888	-146.318	0.458	0.040
-237.873	-136.577	0.061	0.007
-236.859	144.055	-0.169	-0.227
-235.844	-7.299	0.310	-0.211
-234.830	78.387	-0.108	-0.116
-233.815	412.480	-0.175	-0.375
-232.800	116.105	-0.183	-0.225
-231.786	185.879	0.134	-0.200
-230.771	800.000	-0.019	-0.054
-229.757	13.552	-0.043	0.033
-228.742	800.000	-0.039	0.132
-227.727	-68.119	0.283	0.111
-226.713	-200.000	-0.008	-0.147
-225.698	109.493	-0.088	-0.106
-224.684	-200.000	0.039	0.230
-223.669	-200.000	-0.018	-0.211
-222.655	79.926	-0.087	0.094
-221.640	333.725	-0.080	0.155
-220.625	-33.322	0.085	0.047
-219.611	420.231	0.078	-0.167
-218.596	22.192	0.122	-0.100
-217.582	-83.149	-0.024	-0.008
-216.567	-119.871	0.155	-0.027
-215.552	-200.000	-0.020	0.295
-214.538	800.000	0.084	-0.286
-213.523	398.719	0.104	0.218
-212.509	800.000	-0.067	0.218
-211.494	52.976	-0.240	-0.230
-210.479	-162.670	0.153	-0.008
-209.465	-200.000	0.025	0.181
-208.450	105.680	0.053	-0.063
-207.436	-200.000	0.033	0.154
-206.421	-200.000	0.001	-0.217
-205.406	60.627	-0.038	0.037
-204.392	-200.000	0.007	-0.131
-203.377	312.110	0.019	0.036
-202.363	-200.000	0.013	-0.091
-201.348	336.348	-0.080	-0.157
-200.333	800.000	-0.033	-0.145
-199.319	-46.908	0.120	0.059
-198.304	377.731	-0.039	-0.080
-197.290	576.666	-0.128	0.315
-196.275	-27.994	0.140	-0.082
-195.260	-200.000	0.024	-0.285
-194.246	800.000	0.071	-0.225
-193.231	-6.930	0.165	0.113
-192.217	-200.000	0.009	0.074
-191.202	-171.287	-0.034	0.001
-190.187	-179.232	-0.127	0.003
-189.173	800.000	-0.009	-0.028
-188.158	109.459	0.343	0.413
-187.144	-200.000	0.024	-0.207
-186.129	211.718	-0.179	-0.282
-185.114	-80.913	-0.258	-0.086
-184.100	188.683	-0.119	-0.179
-183.085	-78.801	-0.128	0.044
-182.071	15.231	0.134	-0.106
-181.056	408.691	0.183	0.388
-180.042	-103.817	-0.260	0.061
-179.027	800.000	-0.036	-0.145
-178.012	-83.512	0.254	0.081
-176.998	-200.000	0.030	-0.141
-175.983	113.852	0.171	0.209
-174.969	-39.052	-0.237	-0.125
-173.954	59.070	0.105	-0.103
-172.939	800.000	-0.061	0.180
-171.925	26.143	-0.144	0.121
-170.910	89.611	0.193	-0.216
-169.896	-97.541	-0.207	-0.054
-168.881	80.870	-0.178	-0.193
-167.866	136.273	-0.120	0.156
-166.852	800.000	-0.072	0.228
-165.837	744.726	-0.121	0.325
-164.823	-100.941	0.157	-0.039
-163.808	28.031	-0.332	0.281
-162.793	-200.000	0.072	0.436
-161.779	-107.605	0.246	0.054
-160.764	479.093	-0.054	-0.124
-159.750	-11.940	0.040	0.026
-158.735	-98.833	-0.207	0.053
-157.720	-200.000	-0.039	0.219
-156.706	-136.510	0.111	-0.013
-155.691	185.156	-0.160	0.238
-154.677	445.098	0.019	0.041
-153.662	-57.157	0.142	-0.063
-152.647	11.013	0.065	-0.049
-151.633	-5.520	-0.095	0.065
-150.618	160.669	-0.118	-0.165
-149.604	420.707	0.017	-0.036
-148.589	377.111	0.051	0.105
-147.574	-136.239	-0.214	-0.025
-146.560	-67.968	0.037	0.014
-145.545	509.036	-0.025	0.059
-144.531	800.000	-0.098	0.278
-143.516	-88.467	0.050	0.015
-142.502	800.000	-0.046	0.131
-141.487	-200.000	0.013	0.097
-140.472	-7.876	0.066	0.044
-139.458	-82.634	-0.222	-0.072
-138.443	-200.000	-0.014	-0.128
-137.429	800.000	0.020	0.071
-136.414	-6.102	0.129	0.088
-135.399	43.968	-0.110	-0.101
-134.385	-200.000	0.017	0.163
-133.370	66.552	-0.266	0.271
-132.356	262.846	0.097	0.169
-131.341	424.633	-0.128	-0.276
-130.326	-153.718	0.169	-0.012
-129.312	800.000	-0.173	0.570
-128.297	-6.261	0.128	0.087
-127.283	-144.091	-0.057	-0.005
-126.268	-71.023	0.250	-0.094
-125.253	-200.000	0.018	0.319
-124.239	800.000	-0.051	-0.180
-123.224	66.412	0.078	0.079
-122.210	-172.208	0.095	0.003
