DTS Sentinel unit serial number:	SN413079Multiplexer serial number:	ORYXHardware model number:	OX4-SRSoftware version number:	ORYX F/W v4.00 Oryx Data Collector v3.7.2.0data status	okinstallation	princeton_trtdifferential loss correction	single-endedforward channel	channel 3reverse channel	N/Adate	2019/09/19time	09:16:35forward acquisition time	60.00reverse acquisition time	0.00gamma	496.2192k internal	0.2346k external	0.2346temperature offset calibration	0.9968default loss term (dB/km)	0.3790temperature slope calibration	1.0000multiplexer offset coefficient	1.0000multiplexer slope coefficient	1.0000fibre end	0.00T internal ref (°C)	22.19T ext. ref 1 (°C)	0.61T ext. ref 2 (°C)	19.35length (m)	temperature (°C)	Stokes	anti-Stokes-747.200	160.124	-0.029	0.041
-746.185	-95.973	-0.295	0.079
-745.171	-40.703	-0.206	0.107
-744.156	130.268	-0.235	0.301
-743.142	-167.101	0.191	0.008
-742.127	251.272	-0.121	0.206
-741.112	800.000	0.118	0.398
-740.098	-112.517	-0.196	0.039
-739.083	-119.667	-0.072	0.012
-738.069	-200.000	0.007	-0.171
-737.054	-69.252	-0.269	-0.103
-736.039	-200.000	-0.001	0.049
-735.025	-200.000	0.030	0.151
-734.010	455.584	0.109	0.241
-732.996	583.103	0.043	0.106
-731.981	-200.000	-0.007	0.117
-730.966	800.000	-0.063	-0.239
-729.952	-109.965	-0.070	0.015
-728.937	-41.501	0.310	-0.160
-727.923	-37.193	0.077	-0.041
-726.908	-200.000	-0.056	-0.300
-725.894	150.580	0.201	-0.273
-724.879	800.000	0.071	0.223
-723.864	136.213	-0.039	-0.051
-722.850	67.227	-0.207	0.211
-721.835	65.559	0.110	0.111
-720.821	29.629	0.233	-0.198
-719.806	223.111	0.079	0.127
-718.791	800.000	-0.055	-0.200
-717.777	123.352	-0.098	0.123
-716.762	-141.533	0.309	-0.031
-715.748	115.927	0.190	-0.232
-714.733	768.067	-0.054	0.146
-713.718	-140.343	0.102	-0.011
-712.704	342.735	0.103	-0.201
-711.689	77.342	-0.183	0.195
-710.675	800.000	-0.097	-0.357
-709.660	113.454	-0.177	0.214
-708.645	126.788	-0.026	-0.033
-707.631	-163.231	0.351	0.017
-706.616	-136.075	-0.142	0.017
-705.602	472.400	0.051	0.114
-704.587	370.695	-0.076	-0.153
-703.572	-44.963	-0.211	0.105
-702.558	-95.769	0.019	0.005
-701.543	465.337	-0.065	-0.144
-700.529	371.528	-0.116	-0.236
-699.514	428.575	0.081	0.176
-698.499	800.000	-0.074	0.295
-697.485	800.000	-0.013	-0.051
-696.470	-35.929	-0.252	-0.136
-695.456	55.909	0.090	0.087
-694.441	-50.022	0.052	0.025
-693.426	-35.815	-0.174	-0.094
-692.412	140.559	-0.193	0.254
-691.397	-49.403	0.072	0.034
-690.383	-75.544	0.255	0.090
-689.368	-50.282	0.222	0.105
-688.354	153.131	0.105	0.143
-687.339	-119.166	-0.128	-0.022
-686.324	-200.000	-0.019	-0.380
-685.310	130.895	0.126	-0.162
-684.295	-88.806	-0.182	-0.054
-683.281	-23.577	-0.179	-0.107
-682.266	686.745	0.100	0.261
-681.251	-72.034	-0.205	-0.076
-680.237	31.039	-0.053	0.045
-679.222	-52.010	-0.250	0.116
-678.208	-24.912	0.082	0.049
-677.193	69.227	-0.157	-0.161
-676.178	-34.488	-0.073	0.040
-675.164	47.791	0.154	0.143
-674.149	-200.000	-0.023	-0.328
-673.135	265.271	0.080	0.138
-672.120	-108.374	-0.393	0.085
-671.105	-120.264	-0.341	-0.058
-670.091	18.293	0.276	0.220
-669.076	800.000	0.039	0.159
-668.062	5.161	-0.173	-0.127
-667.047	-1.374	0.072	-0.051
-666.032	203.843	-0.076	0.117
-665.018	16.732	-0.158	0.125
-664.003	-200.000	-0.023	0.275
-662.989	-200.000	0.011	0.361
-661.974	-163.570	-0.234	0.011
-660.959	37.242	0.108	0.096
-659.945	800.000	0.037	-0.112
-658.930	-72.150	0.228	0.084
-657.916	-200.000	-0.010	0.147
-656.901	4.625	0.091	-0.067
-655.886	-200.000	0.003	0.013
-654.872	800.000	0.088	0.299
-653.857	797.240	0.104	-0.287
-652.843	107.314	0.209	-0.247
-651.828	12.438	0.154	0.119
-650.814	411.867	0.076	-0.161
-649.799	-147.690	-0.295	0.025
-648.784	-79.623	0.242	-0.081
-647.770	64.542	-0.088	0.088
-646.755	800.000	0.093	0.357
-645.741	-50.703	0.115	-0.054
-644.726	-200.000	-0.015	-0.232
-643.711	24.299	-0.171	-0.141
-642.697	3.256	0.263	0.191
-641.682	18.425	-0.026	0.021
-640.668	-72.643	-0.273	-0.100
-639.653	-200.000	0.036	-0.246
-638.638	344.224	0.104	-0.203
-637.624	-199.612	0.196	-0.001
-636.609	-140.418	-0.215	0.022
-635.595	800.000	-0.091	-0.262
-634.580	22.110	0.236	0.192
-633.565	229.348	0.045	0.074
-632.551	612.509	0.100	-0.250
-631.536	-200.000	0.033	-0.182
-630.522	70.914	-0.097	-0.100
-629.507	664.904	0.082	-0.212
-628.492	-37.675	-0.446	0.237
-627.478	-200.000	0.002	-0.178
-626.463	-18.139	0.161	-0.101
-625.449	800.000	-0.083	-0.282
-624.434	-118.506	-0.342	-0.060
-623.419	10.303	-0.070	-0.053
-622.405	300.100	0.133	0.245
-621.390	-200.000	0.016	0.073
-620.376	236.079	-0.122	-0.201
-619.361	81.572	0.099	0.106
-618.346	-95.687	0.196	0.052
-617.332	712.424	-0.049	-0.130
-616.317	300.879	-0.150	0.275
-615.303	-75.103	-0.142	-0.050
-614.288	-36.938	-0.195	-0.104
-613.273	-159.594	0.154	0.008
-612.259	-23.318	0.221	0.132
-611.244	800.000	-0.059	0.250
-610.230	-66.526	-0.158	0.062
-609.215	-109.934	-0.153	0.032
-608.201	-191.767	-0.087	-0.001
-607.186	-11.152	-0.165	-0.108
-606.171	-200.000	0.081	-0.431
-605.157	443.395	-0.071	0.154
-604.142	558.709	0.098	-0.235
-603.128	7.790	0.196	0.146
-602.113	-200.000	-0.079	0.348
-601.098	96.068	0.067	-0.076
-600.084	-101.165	0.109	-0.027
-599.069	-200.000	0.022	0.244
-598.055	36.208	0.175	0.154
-597.040	-200.000	-0.062	0.469
-596.025	224.450	0.255	-0.410
-595.011	-84.147	-0.255	-0.081
-593.996	14.346	-0.166	-0.129
-592.982	-35.656	-0.191	0.103
-591.967	-200.000	0.034	0.154
-590.952	800.000	-0.110	0.323
-589.938	309.922	-0.097	0.180
-588.923	206.997	0.103	0.159
-587.909	-200.000	0.004	-0.114
-586.894	-150.435	-0.177	0.014
-585.879	750.820	-0.139	-0.373
-584.865	154.967	0.110	0.150
-583.850	364.895	0.103	-0.206
-582.836	337.743	0.074	0.142
-581.821	-200.000	0.025	-0.132
-580.806	131.589	-0.140	0.179
-579.792	-102.761	-0.193	0.046
-578.777	-178.478	-0.066	0.002
-577.763	-161.212	0.166	-0.009
-576.748	-115.231	-0.099	-0.019
-575.733	-200.000	0.011	-0.172
-574.719	-2.123	0.118	-0.082
-573.704	92.849	-0.220	-0.246
-572.690	-200.000	-0.040	-0.317
-571.675	-40.179	0.223	0.115
-570.661	-200.000	0.027	-0.260
-569.646	115.702	-0.022	0.027
-568.631	345.735	-0.030	-0.058
-567.617	182.854	-0.164	-0.241
-566.602	-200.000	0.014	-0.226
-565.588	-102.529	0.141	0.033
-564.573	195.218	-0.138	-0.208
-563.558	54.577	0.133	0.128
-562.544	-118.595	-0.117	0.021
-561.529	-5.854	-0.351	-0.238
-560.515	-157.928	0.216	0.013
-559.500	32.690	0.304	0.261
-558.485	-65.169	-0.087	0.035
-557.471	98.049	0.100	-0.114
-556.456	-65.131	-0.204	0.082
-555.442	-19.660	-0.289	0.177
-554.427	-200.000	0.042	0.226
-553.412	-200.000	-0.010	0.065
-552.398	-121.228	-0.034	-0.006
-551.383	559.786	0.091	0.217
-550.369	-168.119	0.189	0.007
-549.354	-50.257	0.272	-0.128
-548.339	800.000	-0.098	0.328
-547.325	-200.000	0.020	-0.092
-546.310	-111.288	-0.133	-0.027
-545.296	247.541	0.171	-0.287
-544.281	-200.000	0.062	-0.356
-543.266	408.281	0.050	0.104
-542.252	-200.000	0.015	-0.417
-541.237	800.000	0.079	-0.269
-540.223	-200.000	-0.016	0.313
-539.208	-114.104	0.092	-0.018
-538.193	-120.432	-0.432	-0.073
-537.179	81.523	-0.147	-0.158
-536.164	432.564	-0.037	0.080
-535.150	-106.830	0.085	-0.019
-534.135	138.378	-0.080	-0.104
-533.121	28.322	0.257	0.215
-532.106	-78.690	-0.275	0.093
-531.091	476.200	0.065	-0.146
-530.077	494.744	-0.078	0.177
-529.062	-65.198	0.398	-0.159
-528.048	356.604	0.089	0.176
-527.033	623.246	-0.049	0.123
-526.018	-200.000	0.054	0.240
-525.004	-200.000	0.017	0.154
-523.989	193.150	0.161	-0.242
-522.975	100.243	0.213	-0.245
-521.960	800.000	0.063	0.246
-520.945	74.180	0.120	-0.125
-519.931	-90.335	-0.434	-0.125
-518.916	-66.790	-0.059	0.023
-517.902	505.046	0.046	-0.105
-516.887	-1.468	0.194	0.136
-515.872	-33.507	-0.204	-0.112
-514.858	-200.000	-0.023	0.125
-513.843	322.028	0.273	-0.516
-512.829	42.904	0.070	0.063
-511.814	-200.000	-0.015	0.119
-510.799	-200.000	0.031	-0.180
-509.785	-200.000	-0.076	0.355
-508.770	-117.090	-0.163	-0.030
-507.756	-65.290	-0.040	-0.016
-506.741	-174.278	-0.242	-0.007
-505.726	-10.832	-0.152	0.100
-504.712	800.000	-0.054	-0.230
-503.697	180.314	0.133	0.193
-502.683	800.000	0.144	0.469
-501.668	314.649	-0.028	0.052
-500.653	-124.799	-0.138	0.021
-499.639	22.650	-0.101	-0.082
-498.624	-200.000	-0.009	-0.125
-497.610	-98.071	-0.136	-0.035
-496.595	187.146	-0.317	0.468
-495.581	-54.198	0.112	-0.051
-494.566	86.578	-0.135	0.147
-493.551	-159.542	0.295	0.016
-492.537	-157.329	0.340	-0.020
-491.522	13.091	-0.140	-0.107
-490.508	-41.975	-0.146	0.074
-489.493	-6.089	-0.135	0.091
-488.478	-19.083	0.321	0.197
-487.464	163.757	0.113	-0.158
-486.449	35.567	0.134	-0.117
-485.435	-101.626	-0.323	0.078
-484.420	-200.000	0.037	-0.217
-483.405	-200.000	0.035	-0.248
-482.391	280.795	0.031	-0.056
-481.376	330.271	0.033	-0.063
-480.362	-200.000	0.016	-0.086
-479.347	-200.000	0.034	-0.215
-478.332	-12.609	-0.351	0.227
-477.318	19.501	-0.158	-0.125
-476.303	136.053	-0.015	-0.019
-475.289	800.000	-0.034	-0.109
-474.274	-200.000	-0.003	-0.162
-473.259	-58.430	0.195	0.084
-472.245	800.000	0.088	-0.297
-471.230	800.000	-0.086	0.267
-470.216	-128.359	-0.441	0.062
-469.201	80.031	0.218	-0.232
-468.186	-200.000	0.006	-0.102
-467.172	136.443	-0.087	0.112
-466.157	60.069	0.126	-0.123
-465.143	-19.096	0.061	0.037
-464.128	178.909	0.123	0.178
-463.113	-59.921	0.259	0.109
-462.099	800.000	0.082	0.264
-461.084	714.968	-0.128	-0.335
-460.070	66.547	-0.089	-0.089
-459.055	800.000	0.081	-0.249
-458.040	-85.362	-0.158	0.049
-457.026	-200.000	-0.015	0.087
-456.011	-23.864	-0.256	-0.152
-454.997	-17.514	-0.282	0.175
-453.982	-37.078	-0.297	0.157
-452.968	172.331	0.132	0.188
-451.953	54.880	0.081	-0.077
-450.938	-52.111	0.142	-0.065
-449.924	103.558	-0.067	0.078
-448.909	-19.762	-0.077	0.047
-447.895	-46.751	0.153	-0.074
-446.880	389.517	0.172	-0.353
-445.865	625.072	-0.086	-0.215
-444.851	78.702	0.121	-0.128
-443.836	295.195	-0.075	-0.136
-442.822	711.260	-0.056	-0.146
-441.807	-93.373	0.263	-0.072
-440.792	-52.495	0.067	0.031
-439.778	-200.000	-0.040	0.527
-438.763	-200.000	-0.036	0.368
-437.749	-70.414	-0.202	-0.076
-436.734	40.715	-0.103	0.091
-435.719	39.112	-0.164	0.145
-434.705	-47.194	0.402	0.194
-433.690	-64.534	-0.110	0.044
-432.676	21.843	0.062	-0.050
-431.661	-125.820	-0.141	-0.021
-430.646	-200.000	0.147	-0.001
-429.632	230.626	-0.127	0.206
-428.617	-100.004	-0.329	0.081
-427.603	783.113	-0.043	0.116
-426.588	33.852	0.202	0.174
-425.573	182.502	0.140	0.204
-424.559	-200.000	-0.112	-0.571
-423.544	-133.898	0.296	0.036
-422.530	20.641	0.122	0.098
-421.515	222.645	-0.029	-0.046
-420.500	174.791	-0.182	0.260
-419.486	44.065	0.048	0.043
-418.471	221.159	0.073	0.115
-417.457	312.533	-0.086	-0.159
-416.442	104.343	0.211	-0.245
-415.428	-54.566	0.292	0.131
-414.413	-172.477	0.061	-0.002
-413.398	-200.000	0.025	-0.226
-412.384	-93.474	-0.273	0.075
-411.369	16.021	0.160	-0.125
-410.355	13.918	-0.033	0.025
-409.340	-71.598	0.664	0.245
-408.325	-74.899	0.221	-0.078
-407.311	-2.555	-0.129	-0.089
-406.296	24.179	-0.265	0.216
-405.282	89.154	-0.230	0.253
-404.267	12.200	-0.263	-0.200
-403.252	580.013	0.104	0.252
-402.238	270.031	-0.177	0.306
-401.223	-65.662	-0.057	0.022
-400.209	292.084	-0.083	-0.149
-399.194	-77.132	0.200	-0.069
-398.179	-26.295	0.188	0.109
-397.165	-154.031	-0.044	-0.003
-396.150	-22.160	0.102	0.061
-395.136	-103.381	0.274	0.064
-394.121	19.609	-0.059	0.047
-393.106	187.975	0.026	0.039
-392.092	800.000	-0.062	-0.250
-391.077	-200.000	0.006	0.140
-390.063	-145.231	0.211	-0.019
-389.048	-200.000	-0.049	-0.367
-388.033	292.306	0.028	-0.050
-387.019	-125.526	-0.212	0.032
-386.004	-59.348	0.130	-0.055
-384.990	238.947	0.205	-0.335
-383.975	271.704	-0.143	-0.249
-382.960	-200.000	0.015	0.153
-381.946	-41.351	0.151	0.077
-380.931	-6.546	-0.148	0.099
-379.917	-129.489	0.341	0.047
-378.902	19.425	0.282	0.223
-377.888	-198.337	0.006	0.000
-376.873	215.374	-0.089	0.140
-375.858	-113.816	-0.053	0.010
-374.844	-57.383	-0.313	-0.136
-373.829	-64.778	0.344	-0.137
-372.815	-200.000	0.028	-0.147
-371.800	163.196	0.089	0.124
-370.785	-200.000	-0.021	-0.216
-369.771	-64.260	-0.214	-0.086
-368.756	800.000	0.130	0.389
-367.742	-140.467	0.374	0.038
-366.727	800.000	0.065	-0.196
-365.712	-53.459	0.150	-0.068
-364.698	-200.000	0.021	-0.344
-363.683	308.313	0.183	0.336
-362.669	800.000	-0.061	0.185
-361.654	800.000	0.019	-0.056
-360.639	800.000	-0.063	0.202
-359.625	-200.000	-0.000	-0.249
-358.610	-9.623	-0.223	0.146
-357.596	-34.496	0.240	0.130
-356.581	231.462	-0.156	-0.252
-355.566	-200.000	0.032	0.189
-354.552	-81.671	-0.360	-0.116
-353.537	-111.338	0.312	-0.063
-352.523	-200.000	0.017	0.165
-351.508	-180.754	-0.187	0.004
-350.493	-200.000	-0.051	0.393
-349.479	800.000	-0.050	-0.159
-348.464	389.910	-0.068	-0.139
-347.450	-115.169	0.162	-0.030
-346.435	132.006	0.109	0.138
-345.420	-50.232	0.149	0.070
-344.406	119.126	0.166	0.202
-343.391	117.777	0.127	0.153
-342.377	-23.065	-0.266	0.158
-341.362	-200.000	-0.009	0.260
-340.348	-105.685	0.196	0.044
-339.333	-200.000	0.008	-0.310
-338.318	-31.631	-0.226	-0.125
-337.304	-94.273	0.375	0.101
-336.289	45.061	-0.070	0.064
-335.275	211.690	-0.167	0.258
-334.260	260.690	-0.074	0.125
-333.245	-107.757	-0.207	-0.045
-332.231	-28.058	0.223	0.127
-331.216	10.068	0.095	-0.071
-330.202	202.243	0.048	-0.072
-329.187	-59.782	-0.264	0.111
-328.172	-200.000	-0.027	-0.219
-327.158	-62.363	0.303	0.124
-326.143	-200.000	0.021	-0.158
-325.129	-200.000	-0.010	-0.111
-324.114	-131.768	-0.012	-0.002
-323.099	-112.081	-0.080	0.016
-322.085	-151.237	-0.158	0.012
-321.070	-27.751	-0.348	-0.199
-320.056	-90.895	-0.116	0.033
-319.041	-9.735	-0.299	0.196
-318.026	-106.654	0.198	0.043
-317.012	-14.078	0.087	-0.055
-315.997	60.354	-0.123	0.119
-314.983	169.154	0.053	0.075
-313.968	-200.000	-0.004	0.120
-312.953	-72.624	-0.193	0.070
-311.939	-125.599	0.259	-0.039
-310.924	497.737	-0.053	-0.119
-309.910	-84.228	-0.050	-0.016
-308.895	607.714	0.144	-0.353
-307.880	-71.548	0.107	-0.039
-306.866	29.244	-0.339	0.283
-305.851	800.000	-0.082	0.288
-304.837	800.000	0.109	0.324
-303.822	-161.112	0.116	0.006
-302.807	-116.596	0.242	0.044
-301.793	313.471	0.121	0.224
-300.778	-17.393	-0.320	0.198
-299.764	-200.000	0.024	-0.111
-298.749	43.929	-0.110	0.099
-297.735	527.152	0.077	0.179
-296.720	-27.048	0.148	-0.085
-295.705	-100.024	-0.176	-0.043
-294.691	-36.421	-0.339	-0.180
-293.676	-100.886	0.213	0.052
-292.662	626.288	-0.117	-0.289
-291.647	222.899	0.174	-0.275
-290.632	-51.962	0.135	0.062
-289.618	68.626	-0.271	-0.273
-288.603	-200.000	0.002	0.355
-287.589	800.000	0.104	0.313
-286.574	800.000	-0.068	0.215
-285.559	373.043	0.197	0.394
-284.545	0.755	0.289	0.203
-283.530	-25.000	-0.241	0.140
-282.516	-189.888	0.364	0.004
-281.501	-118.357	-0.233	0.041
-280.486	28.720	0.115	0.095
-279.472	33.242	0.159	0.135
-278.457	133.669	-0.066	0.083
-277.443	-200.000	-0.067	-0.320
-276.428	19.238	0.122	-0.096
-275.413	-200.000	-0.003	0.199
-274.399	21.454	0.074	0.059
-273.384	800.000	-0.080	-0.328
-272.370	-200.000	-0.034	-0.476
-271.355	-44.955	0.175	-0.086
-270.340	42.537	-0.116	0.104
-269.326	-93.903	-0.222	0.060
-268.311	103.121	-0.110	0.127
-267.297	-65.784	-0.198	-0.078
-266.282	-200.000	-0.007	-0.234
-265.267	-24.702	0.162	0.095
-264.253	457.130	-0.106	0.232
-263.238	-200.000	-0.001	0.047
-262.224	-52.133	0.075	0.034
-261.209	-200.000	0.040	0.412
-260.195	-116.746	-0.206	-0.037
-259.180	-200.000	0.064	0.320
-258.165	-22.112	0.075	-0.045
-257.151	-200.000	0.079	-0.345
-256.136	-200.000	0.097	-0.458
-255.122	-78.721	-0.475	0.159
-254.107	-107.586	0.241	-0.052
-253.092	-200.000	0.020	0.102
-252.078	-104.364	0.172	-0.039
-251.063	-31.084	-0.213	-0.118
-250.049	-76.874	-0.141	-0.049
-249.034	46.829	0.196	-0.179
-248.019	800.000	-0.027	0.076
-247.005	-200.000	-0.043	0.402
-245.990	56.264	0.334	0.318
-244.976	329.559	-0.103	-0.195
-243.961	800.000	-0.038	-0.131
-242.946	-83.919	0.144	0.045
-241.932	-101.513	0.269	-0.064
-240.917	560.314	0.128	-0.303
-239.903	-56.925	-0.129	0.056
-238.888	-10.304	-0.248	-0.162
-237.873	151.397	-0.186	0.248
-236.859	59.190	-0.252	0.243
-235.844	-57.925	0.112	-0.048
-234.830	-75.975	-0.257	-0.089
-233.815	-90.723	-0.075	0.021
-232.800	-200.000	0.043	0.201
-231.786	186.636	-0.110	-0.160
-230.771	-200.000	0.024	-0.511
-229.757	-140.902	0.199	-0.020
-228.742	11.702	-0.163	-0.122
-227.727	-134.367	-0.253	0.030
-226.713	-200.000	0.025	0.149
-225.698	-100.503	0.150	0.036
-224.684	242.244	-0.171	-0.280
-223.669	-200.000	-0.012	0.131
-222.655	485.720	-0.153	-0.342
-221.640	33.405	-0.138	-0.118
-220.625	-200.000	0.008	-0.110
-219.611	800.000	0.078	-0.243
-218.596	-142.400	-0.110	0.011
-217.582	-200.000	-0.061	-0.296
-216.567	396.188	0.146	-0.299
-215.552	-74.257	0.153	0.054
-214.538	84.985	-0.101	-0.109
-213.523	6.827	0.085	0.062
-212.509	-115.256	0.144	0.027
-211.494	-9.833	-0.153	0.100
-210.479	-132.729	0.155	-0.019
-209.465	-64.320	-0.280	-0.112
-208.450	201.975	0.197	-0.297
-207.436	-62.663	0.131	-0.053
-206.421	-144.066	-0.136	0.013
-205.406	126.086	0.349	0.432
-204.392	800.000	-0.081	0.266
-203.377	-13.338	-0.244	0.155
-202.363	78.524	-0.060	0.063
-201.348	-33.827	-0.013	0.007
-200.333	-52.003	0.076	-0.035
-199.319	-200.000	0.012	-0.109
-198.304	73.601	0.123	-0.127
-197.290	-122.252	0.174	-0.028
-196.275	-132.562	-0.192	0.024
-195.260	-124.764	-0.089	0.014
-194.246	482.201	0.157	-0.349
-193.231	-173.762	0.427	-0.012
-192.217	-91.279	-0.234	-0.065
-191.202	52.773	0.185	-0.174
-190.187	-17.428	-0.100	-0.062
-189.173	6.056	-0.006	0.004
-188.158	-86.588	-0.336	0.101
-187.144	800.000	0.079	-0.285
-186.129	-145.957	0.257	0.022
-185.114	-200.000	0.053	0.251
-184.100	800.000	-0.050	0.175
-183.085	1.200	0.066	0.047
-182.071	-159.429	-0.177	0.010
-181.056	-140.211	-0.359	-0.037
-180.042	295.247	-0.185	0.332
-179.027	800.000	0.019	0.057
-178.012	-165.456	0.378	-0.016
-176.998	-55.499	-0.372	0.163
-175.983	-142.643	0.404	0.039
-174.969	81.174	-0.180	-0.190
-173.954	-200.000	-0.045	-0.236
-172.939	-170.589	0.187	-0.006
-171.925	-53.283	0.400	0.179
-170.910	532.544	-0.090	-0.209
-169.896	65.642	0.153	-0.151
-168.881	-25.378	-0.071	0.041
-167.866	-134.657	-0.108	0.013
-166.852	-200.000	-0.019	0.184
-165.837	-11.811	0.258	-0.166
-164.823	-102.095	0.249	0.059
-163.808	-147.562	-0.396	-0.033
-162.793	-59.215	-0.265	0.112
-161.779	-200.000	-0.002	-0.191
-160.764	124.360	0.079	-0.098
-159.750	126.661	0.059	0.073
-158.735	-200.000	-0.001	-0.046
-157.720	800.000	0.049	0.138
-156.706	-200.000	0.053	-0.399
-155.691	-133.676	0.350	-0.043
-154.677	94.081	0.070	0.077
-153.662	800.000	-0.126	0.527
-152.647	800.000	-0.030	0.128
-151.633	-90.402	-0.222	-0.063
-150.618	-200.000	0.017	0.181
-149.604	-83.502	0.203	-0.064
-148.589	-13.684	0.131	0.083
-147.574	114.352	-0.222	0.264
-146.560	-75.221	0.318	-0.111
-145.545	-39.301	0.023	-0.012
-144.531	800.000	-0.055	-0.160
-143.516	652.605	0.077	0.194
-142.502	69.093	0.252	0.253
-141.487	-166.902	0.164	0.007
-140.472	800.000	-0.121	0.411
-139.458	800.000	0.033	0.119
-138.443	-89.877	-0.299	-0.085
-137.429	387.004	0.103	-0.209
-136.414	-123.836	0.253	-0.039
-135.399	-200.000	-0.004	-0.098
-134.385	-200.000	-0.033	0.323
-133.370	-166.804	-0.322	0.013
-132.356	38.461	0.179	-0.156
-131.341	800.000	0.022	0.067
-130.326	-87.177	-0.107	-0.032
-129.312	800.000	0.027	0.094
-128.297	-168.078	0.136	-0.005
-127.283	-200.000	-0.028	-0.161
-126.268	-200.000	0.012	-0.112
-125.253	-200.000	0.001	0.192
-124.239	-200.000	-0.007	0.155
-123.224	-145.860	0.199	0.017
-122.210	-61.359	0.250	0.103
-121.195	-29.420	-0.348	0.194
