DTS Sentinel unit serial number:	SN413079Multiplexer serial number:	ORYXHardware model number:	OX4-SRSoftware version number:	ORYX F/W v4.00 Oryx Data Collector v3.7.2.0data status	okinstallation	princeton_trtdifferential loss correction	single-endedforward channel	channel 3reverse channel	N/Adate	2019/09/18time	04:20:35forward acquisition time	60.00reverse acquisition time	0.00gamma	496.2192k internal	0.2343k external	0.2343temperature offset calibration	0.9944default loss term (dB/km)	0.3790temperature slope calibration	1.0000multiplexer offset coefficient	1.0000multiplexer slope coefficient	1.0000fibre end	0.00T internal ref (°C)	23.37T ext. ref 1 (°C)	0.18T ext. ref 2 (°C)	17.58length (m)	temperature (°C)	Stokes	anti-Stokes-747.200	-64.546	-0.139	0.057
-746.185	-3.782	0.105	0.073
-745.171	588.442	0.055	-0.136
-744.156	-17.947	0.179	0.113
-743.142	47.042	-0.241	0.225
-742.127	-117.276	-0.214	-0.039
-741.112	124.559	-0.147	0.185
-740.098	-200.000	-0.007	0.285
-739.083	236.971	0.338	0.561
-738.069	588.448	0.105	0.260
-737.054	120.093	-0.298	-0.370
-736.039	-8.023	-0.038	-0.026
-735.025	105.828	0.063	0.075
-734.010	467.145	-0.099	-0.223
-732.996	45.227	-0.201	-0.186
-731.981	-200.000	-0.019	0.339
-730.966	-76.460	0.284	0.100
-729.952	378.403	-0.107	0.220
-728.937	-13.371	-0.173	0.113
-727.923	135.825	-0.059	0.077
-726.908	-129.973	-0.478	-0.065
-725.894	112.829	0.070	0.084
-724.879	-3.383	0.133	-0.093
-723.864	-109.679	-0.114	0.024
-722.850	-80.191	-0.329	0.110
-721.835	-200.000	-0.009	0.152
-720.821	-5.778	0.189	-0.129
-719.806	-44.342	0.164	-0.082
-718.791	194.950	-0.349	-0.529
-717.777	85.191	-0.255	0.280
-716.762	-57.124	0.109	-0.048
-715.748	-27.132	-0.228	-0.133
-714.733	800.000	-0.042	0.126
-713.718	-191.404	0.040	0.000
-712.704	-65.637	-0.188	-0.075
-711.689	10.423	-0.121	0.092
-710.675	-72.116	0.403	-0.150
-709.660	44.706	0.112	0.103
-708.645	-87.269	-0.065	0.020
-707.631	24.076	0.067	-0.055
-706.616	446.588	0.066	-0.146
-705.602	-62.832	-0.240	-0.099
-704.587	382.490	-0.145	0.297
-703.572	32.703	-0.099	0.086
-702.558	58.461	0.205	-0.201
-701.543	-200.000	0.001	-0.074
-700.529	221.967	0.096	-0.154
-699.514	369.464	0.219	0.443
-698.499	-83.304	-0.274	0.088
-697.485	-158.501	-0.071	0.004
-696.470	-102.883	0.216	0.051
-695.456	-43.765	-0.398	-0.200
-694.441	-73.825	0.125	-0.045
-693.426	8.445	-0.194	0.146
-692.412	373.260	-0.072	-0.146
-691.397	-200.000	0.056	0.278
-690.383	-35.831	0.301	-0.163
-689.368	425.508	0.156	-0.335
-688.354	-200.000	0.038	0.209
-687.339	189.237	-0.043	0.064
-686.324	-200.000	-0.007	0.169
-685.310	329.821	0.078	0.149
-684.295	-75.733	-0.185	0.065
-683.281	174.986	-0.048	0.070
-682.266	4.638	-0.033	0.024
-681.251	22.833	0.334	0.274
-680.237	3.124	-0.123	0.089
-679.222	265.542	-0.067	0.116
-678.208	-124.411	-0.289	-0.045
-677.193	-143.338	0.070	-0.007
-676.178	6.611	-0.313	-0.232
-675.164	-65.618	-0.063	0.025
-674.149	-77.230	0.060	-0.021
-673.135	-118.097	-0.245	-0.044
-672.120	190.474	-0.049	0.073
-671.105	520.191	-0.045	-0.105
-670.091	-200.000	0.025	-0.292
-669.076	-53.177	-0.174	0.080
-668.062	-136.364	-0.235	0.027
-667.047	-148.359	-0.077	0.006
-666.032	43.716	-0.063	-0.057
-665.018	240.760	-0.201	0.335
-664.003	-200.000	-0.001	0.299
-662.989	-20.062	-0.353	0.217
-661.974	634.865	0.096	-0.242
-660.959	138.066	0.098	0.128
-659.945	-200.000	-0.014	-0.098
-658.930	-200.000	0.013	-0.178
-657.916	304.286	0.178	-0.330
-656.901	-121.859	0.161	0.027
-655.886	-30.096	0.076	-0.043
-654.872	-173.911	-0.301	0.009
-653.857	138.710	0.046	0.060
-652.843	496.911	0.055	0.125
-651.828	800.000	0.078	-0.264
-650.814	-126.435	-0.343	-0.051
-649.799	-77.704	0.125	0.043
-648.784	228.875	-0.065	0.106
-647.770	-42.060	-0.446	-0.228
-646.755	276.020	-0.021	0.036
-645.741	245.251	0.135	0.226
-644.726	784.537	0.021	-0.057
-643.711	28.076	0.088	-0.074
-642.697	124.745	-0.089	-0.111
-641.682	-73.075	-0.261	-0.095
-640.668	136.852	0.071	-0.092
-639.653	-200.000	0.009	-0.068
-638.638	-136.189	0.099	0.012
-637.624	-200.000	-0.035	-0.382
-636.609	-86.410	-0.248	0.076
-635.595	800.000	0.055	0.208
-634.580	510.169	0.171	-0.397
-633.565	-200.000	0.325	-0.001
-632.551	-42.792	-0.186	-0.094
-631.536	-200.000	-0.038	-0.272
-630.522	-200.000	-0.005	-0.066
-629.507	45.279	-0.126	0.116
-628.492	-200.000	-0.025	-0.284
-627.478	215.965	-0.110	0.174
-626.463	-114.669	-0.123	-0.023
-625.449	-123.453	-0.349	-0.055
-624.434	6.511	-0.084	0.062
-623.419	800.000	0.014	-0.042
-622.405	-181.246	0.123	-0.002
-621.390	260.532	0.087	-0.149
-620.376	658.802	-0.093	-0.239
-619.361	-4.632	-0.226	0.156
-618.346	233.545	-0.063	0.104
-617.332	800.000	-0.093	-0.373
-616.317	-129.658	-0.415	0.057
-615.303	94.029	0.134	-0.152
-614.288	-103.786	-0.143	0.033
-613.273	-156.353	0.115	-0.007
-612.259	800.000	-0.036	-0.132
-611.244	116.229	0.132	0.161
-610.230	-13.679	-0.199	0.128
-609.215	318.510	0.097	0.184
-608.201	255.432	-0.049	0.083
-607.186	-26.872	0.029	-0.017
-606.171	-101.503	0.064	0.016
-605.157	-200.000	-0.084	-0.450
-604.142	305.234	0.077	-0.143
-603.128	222.542	0.081	0.129
-602.113	-12.134	-0.382	-0.249
-601.098	-200.000	-0.003	0.034
-600.084	-156.413	-0.123	-0.008
-599.069	7.220	-0.199	0.148
-598.055	-107.831	0.315	0.068
-597.040	98.581	0.042	0.048
-596.025	-142.221	0.278	0.027
-595.011	625.836	-0.083	-0.210
-593.996	63.575	0.083	0.083
-592.982	-180.034	-0.165	0.003
-591.967	554.012	0.088	0.210
-590.952	-200.000	0.082	-0.469
-589.938	244.312	-0.125	-0.209
-588.923	481.005	0.177	0.401
-587.909	-111.449	-0.186	-0.038
-586.894	-75.919	-0.082	-0.029
-585.879	12.306	-0.158	0.121
-584.865	-12.664	0.102	-0.066
-583.850	367.145	-0.047	-0.095
-582.836	348.101	-0.052	-0.102
-581.821	-36.706	0.263	-0.141
-580.806	-103.153	0.130	-0.031
-579.792	53.062	-0.271	0.258
-578.777	116.452	-0.227	0.277
-577.763	-147.731	0.103	0.009
-576.748	-65.380	-0.177	-0.071
-575.733	-200.000	0.100	-0.533
-574.719	60.178	0.121	0.119
-573.704	371.556	-0.090	0.182
-572.690	478.460	-0.075	-0.168
-571.675	-112.186	-0.224	0.045
-570.661	-200.000	0.396	-0.001
-569.646	-126.533	-0.225	0.033
-568.631	800.000	-0.060	0.171
-567.617	-11.405	-0.152	-0.099
-566.602	162.818	0.179	0.250
-565.588	79.406	-0.131	-0.140
-564.573	124.115	-0.064	-0.080
-563.558	-111.257	-0.155	0.032
-562.544	112.841	-0.231	-0.279
-561.529	135.181	-0.066	-0.086
-560.515	74.774	0.198	0.207
-559.500	-200.000	-0.005	-0.182
-558.485	-31.708	0.197	-0.110
-557.471	-133.219	-0.191	0.024
-556.456	-185.812	0.034	-0.001
-555.442	-69.592	-0.097	0.037
-554.427	627.811	0.100	-0.250
-553.412	-1.099	-0.047	0.033
-552.398	-64.373	0.279	-0.113
-551.383	800.000	-0.017	0.049
-550.369	400.280	-0.180	0.375
-549.354	24.659	0.229	0.188
-548.339	-29.705	0.261	0.148
-547.325	-200.000	0.001	0.052
-546.310	800.000	0.044	-0.134
-545.296	-134.803	-0.324	0.039
-544.281	-29.820	-0.102	0.058
-543.266	92.485	0.019	-0.021
-542.252	800.000	0.135	-0.573
-541.237	-200.000	0.009	-0.060
-540.223	105.561	0.059	0.070
-539.208	-45.131	0.250	0.123
-538.193	800.000	-0.013	0.051
-537.179	40.460	0.189	0.169
-536.164	130.017	-0.132	0.168
-535.150	-135.411	0.380	0.045
-534.135	655.827	-0.031	-0.078
-533.121	-46.578	-0.347	0.169
-532.106	143.750	-0.180	-0.239
-531.091	-51.456	0.119	0.055
-530.077	236.144	0.113	0.186
-529.062	-67.886	-0.117	-0.045
-528.048	800.000	-0.037	-0.139
-527.033	345.996	0.128	0.250
-526.018	338.911	0.079	0.153
-525.004	-63.197	0.173	-0.071
-523.989	-53.740	-0.076	0.034
-522.975	261.301	0.105	0.180
-521.960	800.000	0.115	0.407
-520.945	207.115	0.071	0.111
-519.931	800.000	-0.034	-0.141
-518.916	285.321	0.272	-0.486
-517.902	-19.296	0.265	-0.163
-516.887	-81.598	-0.418	0.136
-515.872	90.400	-0.083	-0.092
-514.858	-134.581	-0.180	0.022
-513.843	-200.000	-0.043	0.235
-512.829	-118.749	-0.182	0.032
-511.814	251.406	0.045	-0.076
-510.799	-22.480	-0.327	-0.197
-509.785	-200.000	0.024	-0.278
-508.770	-159.426	-0.194	-0.011
-507.756	-53.737	-0.112	0.051
-506.741	-200.000	0.092	-0.500
-505.726	135.551	-0.315	-0.407
-504.712	144.726	0.272	-0.361
-503.697	637.483	-0.117	-0.295
-502.683	800.000	0.067	0.282
-501.668	-69.377	0.251	-0.095
-500.653	236.010	-0.071	0.117
-499.639	-63.918	0.205	-0.083
-498.624	-200.000	-0.010	0.536
-497.610	45.191	0.054	0.050
-496.595	-70.177	0.252	-0.095
-495.581	-200.000	-0.037	-0.229
-494.566	11.451	-0.157	0.119
-493.551	-67.336	0.316	-0.123
-492.537	-132.760	-0.161	0.020
-491.522	-23.697	0.248	0.148
-490.508	-199.829	-0.395	-0.002
-489.493	-165.557	0.060	0.003
-488.478	-31.863	0.122	-0.068
-487.464	-32.988	0.131	0.072
-486.449	-16.895	-0.213	-0.134
-485.435	103.793	0.160	0.186
-484.420	57.128	0.082	0.080
-483.405	73.836	-0.062	-0.065
-482.391	10.158	-0.027	0.020
-481.376	57.204	-0.021	-0.020
-480.362	-4.498	0.196	-0.134
-479.347	-149.290	-0.091	-0.007
-478.332	76.073	0.249	-0.261
-477.318	46.961	0.173	0.159
-476.303	-157.440	-0.313	0.019
-475.289	-66.816	0.158	0.062
-474.274	89.744	-0.364	-0.402
-473.259	800.000	-0.017	-0.069
-472.245	9.792	0.188	0.141
-471.230	238.017	0.006	-0.009
-470.216	5.392	-0.317	0.232
-469.201	-122.195	-0.270	-0.044
-468.186	16.574	0.059	-0.047
-467.172	-147.726	-0.178	0.015
-466.157	224.407	0.119	0.190
-465.143	-108.178	0.048	-0.010
-464.128	-58.540	-0.188	-0.081
-463.113	208.552	0.161	0.250
-462.099	180.922	-0.138	0.200
-461.084	800.000	-0.033	-0.134
-460.070	-34.657	-0.017	0.009
-459.055	47.550	-0.355	-0.328
-458.040	10.028	-0.168	0.126
-457.026	177.688	-0.097	-0.140
-456.011	800.000	-0.094	-0.300
-454.997	-39.431	0.234	-0.121
-453.982	210.274	-0.109	-0.169
-452.968	-30.109	-0.199	-0.112
-451.953	765.594	0.090	0.243
-450.938	-71.267	-0.168	0.062
-449.924	-200.000	0.005	-0.311
-448.909	-200.000	0.008	-0.210
-447.895	-140.635	0.234	0.024
-446.880	-200.000	0.024	-0.137
-445.865	-154.128	-0.150	0.010
-444.851	-121.773	-0.408	0.067
-443.836	-155.243	-0.297	0.019
-442.822	128.724	0.097	0.122
-441.807	-76.364	0.072	-0.025
-440.792	-99.469	0.156	-0.039
-439.778	56.073	-0.142	0.137
-438.763	-42.754	0.101	0.051
-437.749	-140.976	0.305	0.031
-436.734	-53.690	-0.188	0.085
-435.719	-138.899	0.055	0.006
-434.705	236.685	0.038	0.062
-433.690	-200.000	0.014	-0.174
-432.676	-8.789	-0.213	-0.141
-431.661	-80.679	0.411	0.135
-430.646	-200.000	0.008	0.267
-429.632	-125.138	0.154	-0.023
-428.617	-117.563	0.262	-0.047
-427.603	-200.000	0.040	0.205
-426.588	800.000	0.098	-0.333
-425.573	-200.000	0.088	0.435
-424.559	-200.000	-0.066	0.291
-423.544	-138.330	-0.253	-0.028
-422.530	172.666	-0.154	-0.219
-421.515	-96.526	0.185	0.048
-420.500	-200.000	-0.040	-0.446
-419.486	-79.907	-0.313	-0.104
-418.471	-200.000	-0.027	0.313
-417.457	58.914	-0.056	-0.054
-416.442	110.375	-0.226	-0.268
-415.428	-66.180	-0.097	-0.038
-414.413	-15.673	0.221	0.139
-413.398	-197.660	-0.067	0.000
-412.384	-51.288	0.270	0.125
-411.369	357.704	0.133	-0.263
-410.355	-200.000	-0.074	0.345
-409.340	335.615	-0.098	-0.188
-408.325	-131.338	-0.271	0.035
-407.311	125.643	-0.027	-0.033
-406.296	800.000	0.040	0.115
-405.282	-98.942	0.304	0.076
-404.267	-53.178	-0.496	0.225
-403.252	702.768	0.066	-0.171
-402.238	203.669	-0.149	0.228
-401.223	-200.000	-0.017	-0.375
-400.209	-200.000	-0.013	0.242
-399.194	97.359	-0.132	0.149
-398.179	-26.560	0.143	0.083
-397.165	168.655	0.082	0.116
-396.150	-32.302	-0.100	0.055
-395.136	-79.116	0.420	-0.141
-394.121	-46.107	-0.198	-0.096
-393.106	-113.785	-0.058	0.011
-392.092	-24.110	-0.291	0.172
-391.077	-36.723	0.052	0.027
-390.063	-173.371	-0.335	0.010
-389.048	-136.628	0.158	-0.018
-388.033	-49.393	-0.399	-0.188
-387.019	77.541	0.190	-0.199
-386.004	-143.464	0.154	0.014
-384.990	-164.608	0.275	0.012
-383.975	-151.944	0.188	-0.014
-382.960	280.552	-0.210	-0.371
-381.946	85.246	-0.221	0.239
-380.931	-110.504	-0.152	0.031
-379.917	34.789	-0.276	0.239
-378.902	-200.000	-0.004	0.020
-377.888	-200.000	-0.008	0.355
-376.873	6.166	0.121	-0.089
-375.858	800.000	-0.045	0.126
-374.844	285.753	-0.028	-0.051
-373.829	667.334	-0.146	-0.374
-372.815	103.566	0.045	0.052
-371.800	254.961	-0.038	0.064
-370.785	129.341	0.229	-0.289
-369.771	-200.000	0.010	0.140
-368.756	-165.158	0.074	0.003
-367.742	800.000	0.047	0.147
-366.727	-9.151	0.055	-0.036
-365.712	74.156	0.156	0.162
-364.698	-83.967	0.286	0.090
-363.683	800.000	0.160	-0.464
-362.669	456.105	-0.042	0.092
-361.654	-200.000	0.014	-0.236
-360.639	27.521	0.214	0.178
-359.625	-63.948	0.316	0.127
-358.610	-13.533	-0.250	0.160
-357.596	800.000	0.048	0.148
-356.581	-50.782	-0.204	0.095
-355.566	178.389	0.239	0.344
-354.552	-200.000	0.030	-0.244
-353.537	-200.000	0.290	0.000
-352.523	-41.609	0.247	-0.125
-351.508	-200.000	-0.083	-0.416
-350.493	-200.000	-0.058	0.334
-349.479	-59.811	0.664	-0.280
-348.464	-200.000	0.037	0.179
-347.450	-200.000	0.004	0.025
-346.435	91.033	0.242	0.268
-345.420	-200.000	0.035	0.219
-344.406	-25.626	-0.280	-0.163
-343.391	135.626	-0.313	-0.402
-342.377	139.496	-0.319	0.413
-341.362	456.075	-0.128	0.281
-340.348	-81.915	-0.044	0.014
-339.333	182.440	-0.218	0.317
-338.318	-189.206	0.314	0.004
-337.304	-97.475	-0.125	-0.032
-336.289	-84.809	0.194	-0.060
-335.275	275.165	-0.123	-0.215
-334.260	-200.000	0.000	-0.138
-333.245	-200.000	0.049	0.282
-332.231	-110.727	0.325	-0.066
-331.216	273.879	-0.207	-0.361
-330.202	-126.662	0.209	0.031
-329.187	-200.000	0.002	-0.303
-328.172	-200.000	-0.025	-0.275
-327.158	137.472	0.157	-0.202
-326.143	-163.857	-0.220	-0.010
-325.129	86.719	-0.272	-0.296
-324.114	-60.124	0.190	-0.080
-323.099	-200.000	0.047	-0.308
-322.085	380.640	0.058	-0.117
-321.070	-10.879	-0.220	-0.143
-320.056	52.897	0.243	-0.228
-319.041	800.000	-0.100	-0.300
-318.026	-163.962	-0.158	0.007
-317.012	800.000	-0.057	0.171
-315.997	-22.000	-0.063	-0.038
-314.983	168.184	0.238	-0.334
-313.968	459.755	0.036	-0.080
-312.953	-97.666	0.331	-0.084
-311.939	27.984	0.302	-0.250
-310.924	-43.025	0.189	0.094
-309.910	-148.580	0.221	-0.018
-308.895	-125.763	-0.075	-0.011
-307.880	-105.366	-0.100	-0.022
-306.866	185.959	-0.100	-0.146
-305.851	52.786	-0.206	0.194
-304.837	-200.000	-0.038	-0.271
-303.822	-82.646	-0.129	-0.041
-302.807	-124.309	-0.029	-0.005
-301.793	-200.000	-0.058	0.361
-300.778	-200.000	0.019	0.395
-299.764	654.575	0.133	0.336
-298.749	-200.000	0.074	0.376
-297.735	108.693	0.194	0.228
-296.720	-1.932	-0.300	-0.208
-295.705	-105.089	0.353	0.079
-294.691	-48.829	-0.383	-0.181
-293.676	-64.471	-0.264	-0.106
-292.662	-200.000	-0.063	0.278
-291.647	106.315	0.207	-0.242
-290.632	23.284	-0.169	-0.137
-289.618	-200.000	-0.036	0.268
-288.603	-41.857	0.625	0.315
-287.589	-150.362	0.096	0.007
-286.574	-200.000	0.046	0.522
-285.559	800.000	-0.111	0.346
-284.545	-104.795	0.141	0.032
-283.530	-128.178	-0.191	-0.027
-282.516	-200.000	0.212	-0.001
-281.501	69.403	0.142	0.144
-280.486	-40.181	0.285	-0.146
-279.472	290.051	0.088	0.156
-278.457	800.000	-0.037	-0.105
-277.443	486.075	-0.093	0.208
-276.428	789.542	-0.040	0.109
-275.413	554.528	0.043	0.102
-274.399	116.940	-0.104	0.125
-273.384	-79.869	0.316	0.105
-272.370	290.282	0.080	0.142
-271.355	-162.317	-0.278	0.014
-270.340	107.224	-0.099	-0.116
-269.326	156.240	0.147	-0.200
-268.311	27.969	-0.132	0.110
-267.297	171.122	-0.177	-0.249
-266.282	-77.347	-0.095	0.032
-265.267	-89.348	0.049	-0.014
-264.253	224.210	0.128	0.204
-263.238	-179.484	-0.239	0.005
-262.224	-184.586	0.313	-0.005
-261.209	24.577	0.111	0.090
-260.195	-200.000	-0.010	0.109
-259.180	98.740	0.197	0.224
-258.165	548.477	0.133	0.313
-257.151	104.202	0.412	-0.476
-256.136	-7.225	-0.101	0.067
-255.122	-72.614	-0.133	-0.048
-254.107	-63.899	-0.234	0.094
-253.092	-44.627	0.212	-0.104
-252.078	-4.762	0.149	-0.101
-251.063	77.548	0.200	-0.209
-250.049	-3.662	-0.129	-0.088
-249.034	92.413	0.092	0.102
-248.019	800.000	-0.019	-0.055
-247.005	-200.000	-0.000	0.046
-245.990	211.293	-0.081	-0.125
-244.976	24.906	0.107	-0.087
-243.961	-74.993	0.132	0.046
-242.946	-59.213	-0.229	0.097
-241.932	11.560	0.364	-0.274
-240.917	-153.935	-0.304	-0.020
-239.903	-200.000	0.061	0.277
-238.888	-161.259	-0.141	-0.007
-237.873	-0.455	0.211	-0.147
-236.859	602.893	-0.068	0.167
-235.844	121.339	0.152	0.186
-234.830	800.000	-0.045	0.136
-233.815	-21.838	0.090	0.054
-232.800	-72.273	-0.339	0.123
-231.786	-200.000	0.011	0.263
-230.771	83.517	0.123	0.131
-229.757	-2.723	-0.202	-0.139
-228.742	-70.143	-0.292	0.109
-227.727	-133.396	0.146	0.018
-226.713	180.246	0.203	-0.293
-225.698	-200.000	-0.015	0.119
-224.684	267.873	-0.189	0.326
-223.669	33.262	0.027	-0.023
-222.655	24.150	0.236	0.191
-221.640	-0.536	0.069	-0.048
-220.625	-61.134	-0.176	-0.073
-219.611	389.236	0.101	0.204
-218.596	169.399	-0.266	0.373
-217.582	-82.263	-0.083	0.026
-216.567	-200.000	-0.036	-0.254
-215.552	-125.012	-0.387	0.058
-214.538	800.000	0.129	-0.408
-213.523	-200.000	0.066	-0.287
-212.509	-200.000	0.007	0.245
-211.494	800.000	-0.080	0.263
-210.479	123.421	-0.111	-0.137
-209.465	720.207	-0.049	0.129
-208.450	800.000	0.051	0.167
-207.436	-165.898	0.175	-0.007
-206.421	-200.000	0.002	-0.010
-205.406	-1.387	-0.127	0.088
-204.392	105.359	-0.080	-0.093
-203.377	115.132	0.097	0.116
-202.363	-200.000	-0.026	-0.278
-201.348	-200.000	-0.013	0.117
-200.333	340.395	0.092	0.175
-199.319	42.141	-0.322	-0.287
-198.304	116.615	0.096	-0.116
-197.290	-200.000	-0.008	-0.038
-196.275	189.331	-0.115	0.169
-195.260	-79.427	0.086	0.029
-194.246	86.051	0.301	0.325
-193.231	-139.040	-0.120	-0.013
-192.217	-17.135	0.244	0.151
-191.202	488.983	0.130	0.292
-190.187	42.641	0.119	-0.107
-189.173	-110.819	0.090	0.018
-188.158	-83.297	0.269	-0.085
-187.144	-26.463	-0.164	0.094
-186.129	-163.913	0.269	0.012
-185.114	-200.000	0.041	0.187
-184.100	800.000	-0.073	-0.222
-183.085	-200.000	0.038	0.213
-182.071	121.743	-0.200	0.245
-181.056	-143.307	0.298	-0.028
-180.042	702.068	0.136	-0.351
-179.027	-200.000	0.012	-0.053
-178.012	800.000	-0.045	-0.148
-176.998	-36.934	-0.356	0.187
-175.983	584.197	0.028	-0.067
-174.969	197.238	-0.098	0.147
-173.954	-181.062	-0.101	-0.002
-172.939	-127.020	0.209	-0.030
-171.925	31.801	-0.126	0.106
-170.910	-82.518	0.343	-0.109
-169.896	14.172	-0.031	0.023
-168.881	-31.325	-0.156	0.086
-167.866	-150.008	0.362	0.028
-166.852	-146.609	-0.228	-0.019
-165.837	111.382	-0.087	0.102
-164.823	-44.065	0.193	0.095
-163.808	131.691	0.213	0.268
-162.793	63.985	0.155	-0.152
-161.779	-106.802	-0.173	0.038
-160.764	197.365	0.056	0.083
-159.750	99.204	0.311	0.352
-158.735	-155.187	-0.431	0.028
-157.720	-200.000	-0.016	-0.205
-156.706	529.691	0.054	-0.124
-155.691	309.080	-0.142	0.259
-154.677	239.854	0.163	-0.266
-153.662	-1.960	-0.181	-0.125
-152.647	-109.327	0.089	0.018
-151.633	-94.016	-0.053	-0.014
-150.618	42.466	0.041	-0.037
-149.604	88.344	-0.196	0.213
-148.589	800.000	-0.060	-0.224
-147.574	-146.952	0.149	-0.013
-146.560	-80.682	0.115	-0.037
-145.545	-80.050	-0.269	0.088
-144.531	77.961	0.099	0.103
-143.516	-74.102	0.204	0.072
-142.502	-65.006	0.137	0.054
-141.487	95.755	-0.268	-0.299
-140.472	178.876	-0.173	0.248
-139.458	-200.000	0.036	0.175
-138.443	800.000	0.037	-0.149
-137.429	-200.000	-0.013	0.277
-136.414	-113.291	0.225	0.043
-135.399	-1.103	0.170	-0.117
-134.385	505.879	-0.184	0.418
-133.370	-77.382	-0.145	0.049
-132.356	338.816	-0.225	-0.428
-131.341	89.944	0.179	-0.196
-130.326	173.432	0.072	0.102
-129.312	629.173	0.174	0.429
-128.297	-200.000	-0.069	0.326
-127.283	-147.836	-0.156	0.013
-126.268	36.083	-0.275	0.237
-125.253	-128.048	-0.137	-0.019
-124.239	342.646	0.134	0.255
-123.224	62.199	0.142	-0.138
-122.210	317.170	0.141	0.261
-121.195	-200.000	-0.018	-0.082
