DTS Sentinel unit serial number:	SN413079Multiplexer serial number:	ORYXHardware model number:	OX4-SRSoftware version number:	ORYX F/W v4.00 Oryx Data Collector v3.7.2.0data status	okinstallation	princeton_trtdifferential loss correction	single-endedforward channel	channel 3reverse channel	N/Adate	2019/09/15time	00:12:34forward acquisition time	60.00reverse acquisition time	0.00gamma	496.2192k internal	0.2320k external	0.2320temperature offset calibration	0.9975default loss term (dB/km)	0.3790temperature slope calibration	1.0000multiplexer offset coefficient	1.0000multiplexer slope coefficient	1.0000fibre end	0.00T internal ref (°C)	32.19T ext. ref 1 (°C)	4.59T ext. ref 2 (°C)	27.20length (m)	temperature (°C)	Stokes	anti-Stokes-747.200	-2.847	0.281	0.199
-746.185	479.331	0.051	0.116
-745.171	48.017	-0.096	-0.091
-744.156	800.000	-0.063	-0.214
-743.142	357.149	0.010	0.021
-742.127	280.643	-0.145	-0.262
-741.112	-145.361	-0.285	0.026
-740.098	85.904	0.091	0.102
-739.083	800.000	0.078	0.291
-738.069	18.930	0.336	0.273
-737.054	800.000	-0.073	0.289
-736.039	-108.772	0.234	0.051
-735.025	8.798	-0.238	0.181
-734.010	-49.721	-0.141	-0.068
-732.996	800.000	0.107	-0.325
-731.981	-179.681	-0.096	-0.002
-730.966	171.313	-0.074	-0.107
-729.952	-200.000	0.052	-0.324
-728.937	-29.043	-0.285	-0.165
-727.923	800.000	0.038	-0.123
-726.908	31.214	0.180	-0.156
-725.894	187.136	-0.106	0.159
-724.879	38.283	0.123	-0.110
-723.864	-70.329	-0.350	0.134
-722.850	-180.046	0.154	0.003
-721.835	-200.000	-0.002	-0.149
-720.821	-200.000	0.025	-0.327
-719.806	-200.000	-0.003	-0.164
-718.791	-109.138	-0.327	0.070
-717.777	800.000	0.085	0.278
-716.762	-165.723	-0.154	0.007
-715.748	146.393	-0.025	-0.034
-714.733	60.097	-0.064	-0.064
-713.718	16.829	0.277	-0.221
-712.704	-200.000	0.007	-0.285
-711.689	167.922	-0.024	0.035
-710.675	-200.000	0.013	-0.256
-709.660	-36.231	0.203	-0.110
-708.645	-181.182	0.596	-0.012
-707.631	544.469	0.073	-0.177
-706.616	92.550	0.187	-0.213
-705.602	2.199	-0.354	-0.259
-704.587	172.662	-0.129	-0.187
-703.572	214.562	-0.111	-0.178
-702.558	-200.000	0.188	-0.000
-701.543	-89.392	0.361	0.107
-700.529	130.874	0.208	-0.269
-699.514	-200.000	0.001	-0.005
-698.499	800.000	-0.070	0.246
-697.485	211.057	-0.078	0.125
-696.470	-142.565	-0.281	0.028
-695.456	-85.062	0.417	0.132
-694.441	18.573	-0.249	-0.201
-693.426	-96.786	0.264	0.070
-692.412	172.575	0.019	0.027
-691.397	95.752	0.142	0.163
-690.383	800.000	-0.079	-0.295
-689.368	-200.000	0.011	0.066
-688.354	-200.000	-0.009	-0.103
-687.339	-200.000	0.017	-0.186
-686.324	266.393	0.105	-0.185
-685.310	101.344	0.094	-0.110
-684.295	-124.050	-0.274	-0.043
-683.281	-200.000	0.082	-0.426
-682.266	76.231	-0.114	-0.122
-681.251	800.000	0.010	0.037
-680.237	-163.342	-0.272	0.013
-679.222	45.116	0.216	0.201
-678.208	358.035	0.095	-0.191
-677.193	-139.094	-0.245	-0.027
-676.178	-48.664	-0.267	0.129
-675.164	800.000	-0.085	0.238
-674.149	-2.641	-0.337	-0.238
-673.135	-200.000	-0.039	0.417
-672.120	26.577	0.026	0.022
-671.105	-123.699	-0.073	-0.012
-670.091	203.297	0.124	-0.193
-669.076	800.000	0.018	0.060
-668.062	800.000	-0.050	-0.148
-667.047	-62.791	-0.254	0.106
-666.032	35.583	-0.060	-0.053
-665.018	2.993	0.199	0.146
-664.003	-200.000	0.026	-0.240
-662.989	-97.216	0.397	-0.105
-661.974	-51.488	-0.136	0.064
-660.959	-92.802	0.208	0.059
-659.945	-200.000	-0.029	0.243
-658.930	-200.000	-0.059	0.334
-657.916	782.556	0.056	0.156
-656.901	-118.283	0.592	-0.106
-655.886	-2.318	0.152	-0.107
-654.872	-88.861	0.198	0.059
-653.857	25.338	0.097	0.081
-652.843	800.000	0.056	0.173
-651.828	4.653	-0.277	0.205
-650.814	193.445	-0.193	-0.294
-649.799	9.375	0.137	-0.104
-648.784	265.114	-0.045	-0.079
-647.770	68.481	0.175	0.181
-646.755	-27.420	-0.118	0.069
-645.741	624.899	0.044	0.112
-644.726	-64.223	-0.400	0.164
-643.711	-20.776	0.106	0.066
-642.697	572.345	-0.101	-0.248
-641.682	-54.444	0.156	0.071
-640.668	-189.623	-0.180	-0.002
-639.653	-200.000	-0.019	0.101
-638.638	-8.636	-0.127	-0.086
-637.624	520.865	0.043	-0.102
-636.609	188.313	-0.092	-0.139
-635.595	679.989	0.020	-0.053
-634.580	-59.797	0.154	0.066
-633.565	114.178	0.222	0.272
-632.551	800.000	0.085	-0.304
-631.536	16.186	-0.279	-0.221
-630.522	-200.000	-0.022	-0.200
-629.507	-50.956	0.346	-0.164
-628.492	-20.314	-0.104	-0.065
-627.478	800.000	0.053	-0.171
-626.463	627.426	0.024	0.062
-625.449	156.334	-0.104	0.145
-624.434	413.781	0.054	0.115
-623.419	-32.575	-0.135	0.076
-622.405	41.695	0.049	0.044
-621.390	1.358	0.109	0.079
-620.376	-200.000	-0.048	-0.483
-619.361	12.899	0.070	0.054
-618.346	-118.128	0.209	-0.038
-617.332	-200.000	-0.035	0.361
-616.317	-136.678	0.033	0.004
-615.303	294.587	-0.116	-0.214
-614.288	147.400	0.057	0.077
-613.273	236.512	-0.058	0.096
-612.259	-152.230	0.499	0.036
-611.244	6.447	0.164	0.123
-610.230	-200.000	0.024	-0.184
-609.215	-200.000	-0.046	-0.283
-608.201	-200.000	-0.004	-0.236
-607.186	31.028	0.096	-0.083
-606.171	-79.006	0.185	-0.063
-605.157	-99.172	0.164	-0.042
-604.142	316.433	-0.167	-0.316
-603.128	217.100	-0.122	0.195
-602.113	143.191	-0.063	0.084
-601.098	-144.721	0.439	-0.041
-600.084	7.346	0.236	-0.177
-599.069	800.000	0.071	-0.305
-598.055	800.000	-0.121	-0.449
-597.040	43.242	0.243	0.223
-596.025	44.526	0.235	0.217
-595.011	800.000	-0.045	-0.165
-593.996	167.199	-0.112	0.160
-592.982	-13.759	-0.192	0.125
-591.967	-23.996	0.145	-0.087
-590.952	367.773	-0.029	-0.058
-589.938	37.089	0.132	0.117
-588.923	24.486	-0.231	-0.192
-587.909	43.091	0.132	0.121
-586.894	-96.894	-0.352	0.093
-585.879	-200.000	0.004	0.114
-584.865	11.244	-0.154	0.118
-583.850	-200.000	0.012	-0.198
-582.836	498.005	0.050	0.116
-581.821	-68.055	0.240	0.094
-580.806	-197.803	-0.236	-0.001
-579.792	-116.226	-0.369	0.069
-578.777	-114.373	-0.237	-0.046
-577.763	-200.000	0.051	-0.250
-576.748	355.506	-0.162	-0.325
-575.733	-101.654	0.174	0.042
-574.719	-85.042	0.195	-0.061
-573.704	-200.000	-0.055	-0.250
-572.690	800.000	-0.025	-0.090
-571.675	-142.932	0.261	-0.025
-570.661	29.531	-0.187	-0.160
-569.646	800.000	0.027	0.106
-568.631	800.000	-0.073	-0.228
-567.617	-104.071	-0.288	-0.067
-566.602	227.430	-0.270	-0.441
-565.588	206.024	-0.241	-0.377
-564.573	-200.000	0.025	-0.162
-563.558	511.862	-0.196	-0.459
-562.544	109.079	-0.148	0.178
-561.529	-200.000	0.030	0.143
-560.515	-22.146	0.321	-0.196
-559.500	145.335	-0.125	-0.167
-558.485	800.000	-0.043	0.169
-557.471	-7.214	-0.152	-0.103
-556.456	143.773	0.164	0.219
-555.442	-60.063	-0.247	0.106
-554.427	28.997	-0.151	0.129
-553.412	800.000	-0.055	0.206
-552.398	-200.000	-0.015	-0.101
-551.383	189.034	0.128	-0.193
-550.369	-69.113	0.188	0.073
-549.354	800.000	0.134	0.496
-548.339	-143.665	-0.178	0.017
-547.325	344.045	-0.085	0.167
-546.310	415.133	0.118	0.253
-545.296	800.000	-0.100	0.295
-544.281	91.661	-0.078	-0.088
-543.266	-94.554	-0.103	0.028
-542.252	-19.359	-0.164	0.102
-541.237	153.642	-0.083	-0.114
-540.223	477.595	-0.057	-0.130
-539.208	93.788	-0.111	-0.126
-538.193	68.979	-0.273	-0.282
-537.179	-147.323	0.270	0.023
-536.164	800.000	-0.060	0.223
-535.150	-4.331	-0.266	-0.184
-534.135	101.810	0.336	0.393
-533.121	800.000	0.070	0.273
-532.106	-200.000	-0.028	-0.152
-531.091	527.963	0.067	-0.158
-530.077	800.000	-0.086	0.307
-529.062	-150.336	-0.234	0.018
-528.048	-44.122	0.084	-0.043
-527.033	189.712	0.076	-0.115
-526.018	-113.820	0.302	-0.059
-525.004	-113.143	-0.287	0.057
-523.989	800.000	0.087	0.324
-522.975	-77.661	0.144	0.050
-521.960	-13.118	0.118	-0.077
-520.945	261.457	-0.103	0.179
-519.931	283.303	0.018	0.033
-518.916	290.390	-0.123	-0.225
-517.902	800.000	0.039	-0.151
-516.887	-40.600	-0.078	-0.041
-515.872	165.222	0.209	0.295
-514.858	-200.000	0.047	0.397
-513.843	-200.000	0.010	0.061
-512.829	-200.000	0.051	-0.286
-511.814	445.108	-0.023	0.051
-510.799	-140.060	0.052	-0.006
-509.785	-164.852	0.124	-0.006
-508.770	-200.000	-0.017	-0.088
-507.756	-118.528	0.136	-0.024
-506.741	-10.495	0.249	-0.165
-505.726	-4.249	-0.250	0.173
-504.712	-23.211	0.141	-0.085
-503.697	-98.260	0.024	0.006
-502.683	39.819	0.196	-0.176
-501.668	-200.000	0.029	0.155
-500.653	-142.687	0.218	0.021
-499.639	-45.539	-0.427	-0.212
-498.624	-153.347	0.051	-0.004
-497.610	192.772	0.052	0.079
-496.595	221.007	0.052	0.084
-495.581	-119.764	-0.147	-0.025
-494.566	718.379	0.100	0.266
-493.551	-73.855	0.012	0.004
-492.537	-200.000	-0.053	-0.419
-491.522	-200.000	0.009	-0.063
-490.508	-182.266	-0.206	0.004
-489.493	699.776	-0.025	-0.065
-488.478	-130.720	0.263	0.035
-487.464	353.350	0.054	0.107
-486.449	-41.077	-0.053	-0.027
-485.435	-142.223	-0.109	-0.011
-484.420	-133.869	0.420	-0.052
-483.405	-97.822	0.262	0.068
-482.391	222.992	0.248	0.400
-481.376	-64.942	-0.268	0.108
-480.362	267.980	0.054	0.094
-479.347	800.000	-0.088	0.275
-478.332	-200.000	0.005	0.049
-477.318	300.106	0.139	-0.257
-476.303	27.088	-0.219	0.184
-475.289	-67.658	-0.100	-0.039
-474.274	70.446	0.177	0.184
-473.259	-109.623	-0.030	-0.006
-472.245	-148.032	-0.361	-0.030
-471.230	-90.430	0.310	-0.090
-470.216	385.600	-0.055	0.113
-469.201	331.944	-0.131	0.253
-468.186	-200.000	-0.063	0.345
-467.172	-153.477	-0.232	-0.016
-466.157	800.000	0.044	0.174
-465.143	-98.846	0.303	-0.077
-464.128	642.703	-0.066	0.168
-463.113	66.149	-0.159	-0.162
-462.099	444.354	0.033	0.073
-461.084	-148.175	0.154	-0.013
-460.070	800.000	-0.007	0.027
-459.055	-165.408	0.327	-0.014
-458.040	133.741	-0.072	0.093
-457.026	-18.300	-0.232	-0.145
-456.011	90.541	-0.160	0.179
-454.997	427.778	0.130	-0.280
-453.982	113.402	0.086	-0.104
-452.968	-58.715	-0.207	-0.090
-451.953	34.841	-0.094	0.082
-450.938	233.044	-0.047	-0.077
-449.924	117.016	0.156	0.191
-448.909	10.053	-0.067	0.051
-447.895	800.000	0.074	0.264
-446.880	-80.098	0.098	0.033
-445.865	409.030	-0.060	-0.127
-444.851	-200.000	0.033	0.198
-443.836	2.324	0.183	-0.132
-442.822	800.000	0.111	-0.344
-441.807	-35.225	-0.248	-0.135
-440.792	249.861	0.033	-0.056
-439.778	-200.000	-0.014	0.167
-438.763	7.488	0.120	0.089
-437.749	-80.701	-0.264	-0.088
-436.734	-81.958	0.218	-0.071
-435.719	-165.134	-0.140	0.006
-434.705	-140.560	-0.297	-0.031
-433.690	-105.707	-0.180	0.041
-432.676	-200.000	-0.097	-0.484
-431.661	87.328	0.208	-0.230
-430.646	-57.040	-0.119	0.053
-429.632	796.307	0.126	-0.346
-428.617	109.252	0.027	-0.033
-427.603	418.486	0.042	0.090
-426.588	-139.842	0.219	0.023
-425.573	247.385	0.172	0.290
-424.559	543.322	-0.028	-0.067
-423.544	-43.319	-0.338	-0.171
-422.530	-53.748	0.225	-0.103
-421.515	-51.360	-0.026	0.012
-420.500	-107.014	-0.288	-0.064
-419.486	800.000	0.031	0.101
-418.471	-98.501	0.223	0.057
-417.457	800.000	-0.078	-0.318
-416.442	-121.178	-0.044	-0.007
-415.428	-115.909	-0.514	-0.096
-414.413	-102.110	-0.332	0.080
-413.398	-200.000	-0.031	-0.203
-412.384	-117.576	-0.170	0.031
-411.369	800.000	0.118	0.414
-410.355	95.501	0.147	0.167
-409.340	40.293	-0.230	-0.206
-408.325	-22.420	0.150	-0.091
-407.311	282.290	-0.015	-0.027
-406.296	268.630	0.138	-0.241
-405.282	64.570	0.077	0.078
-404.267	-16.374	-0.094	-0.059
-403.252	-72.571	-0.152	0.056
-402.238	-157.710	0.269	-0.016
-401.223	-200.000	0.006	0.170
-400.209	800.000	-0.077	0.276
-399.194	-113.776	0.239	-0.046
-398.179	-200.000	0.037	-0.355
-397.165	-3.657	0.223	-0.154
-396.150	800.000	-0.049	-0.140
-395.136	-47.547	0.098	-0.048
-394.121	-200.000	0.003	-0.446
-393.106	-34.365	0.202	0.110
-392.092	372.594	0.057	0.115
-391.077	-23.041	0.230	0.138
-390.063	78.870	-0.071	-0.076
-389.048	-200.000	-0.098	0.462
-388.033	-25.736	-0.088	-0.052
-387.019	-104.632	-0.055	-0.013
-386.004	-48.970	0.119	0.057
-384.990	-200.000	0.036	-0.308
-383.975	179.412	0.028	-0.041
-382.960	-51.987	-0.249	-0.115
-381.946	54.180	-0.106	0.101
-380.931	283.029	-0.089	0.159
-379.917	94.737	-0.111	-0.126
-378.902	-135.601	0.126	0.015
-377.888	-58.927	-0.179	-0.077
-376.873	143.461	0.125	0.165
-375.858	800.000	-0.111	-0.319
-374.844	-200.000	0.001	-0.024
-373.829	0.382	-0.187	0.133
-372.815	103.892	0.117	0.137
-371.800	-157.440	-0.056	-0.003
-370.785	53.209	-0.138	0.132
-369.771	90.223	-0.066	-0.074
-368.756	39.654	0.171	0.153
-367.742	800.000	0.058	-0.196
-366.727	-40.746	-0.463	0.239
-365.712	-200.000	0.042	0.328
-364.698	52.692	-0.204	-0.194
-363.683	-27.178	0.109	0.063
-362.669	731.080	0.036	0.097
-361.654	86.212	-0.246	0.270
-360.639	202.340	0.097	0.149
-359.625	-122.758	0.060	0.010
-358.610	178.786	-0.215	0.313
-357.596	-72.799	-0.224	-0.082
-356.581	-49.637	0.243	-0.115
-355.566	-200.000	0.002	-0.237
-354.552	-200.000	0.005	-0.044
-353.537	332.067	-0.147	0.283
-352.523	-126.558	0.181	0.027
-351.508	-6.607	-0.240	-0.163
-350.493	-67.844	-0.158	0.062
-349.479	-200.000	0.042	0.190
-348.464	4.970	0.234	0.171
-347.450	313.706	0.064	-0.119
-346.435	86.410	-0.073	-0.080
-345.420	-200.000	-0.079	0.396
-344.406	78.899	-0.279	-0.297
-343.391	93.136	-0.094	-0.106
-342.377	800.000	0.079	0.300
-341.362	-13.777	0.024	0.016
-340.348	-39.745	-0.164	-0.085
-339.333	800.000	-0.068	0.189
-338.318	21.153	-0.204	0.165
-337.304	-150.174	-0.086	-0.007
-336.289	212.556	0.107	0.168
-335.275	800.000	0.036	-0.128
-334.260	-16.300	0.123	-0.078
-333.245	-162.768	0.209	-0.010
-332.231	-115.503	-0.249	0.047
-331.216	800.000	-0.030	-0.103
-330.202	-62.942	0.120	-0.049
-329.187	97.707	0.182	-0.208
-328.172	67.092	0.353	0.358
-327.158	-83.351	-0.140	-0.045
-326.143	-58.062	-0.048	-0.021
-325.129	800.000	-0.064	0.258
-324.114	53.473	0.067	0.064
-323.099	-53.679	0.093	-0.042
-322.085	-135.633	0.230	-0.027
-321.070	-119.457	0.458	0.079
-320.056	-132.206	-0.152	0.020
-319.041	-49.137	0.036	0.017
-318.026	526.027	0.057	-0.134
-317.012	4.138	-0.217	0.158
-315.997	52.370	-0.249	-0.236
-314.983	-90.962	0.458	0.131
-313.968	98.523	0.148	-0.170
-312.953	-62.883	0.121	0.050
-311.939	-200.000	-0.007	-0.140
-310.924	39.988	-0.212	0.190
-309.910	-200.000	0.033	-0.233
-308.895	82.013	-0.125	0.134
-307.880	739.993	-0.060	-0.160
-306.866	167.803	0.247	0.349
-305.851	-200.000	-0.017	-0.314
-304.837	253.701	-0.162	0.276
-303.822	81.265	-0.200	0.215
-302.807	800.000	-0.091	0.307
-301.793	-179.637	-0.248	-0.005
-300.778	800.000	0.069	-0.191
-299.764	131.318	0.179	0.228
-298.749	-62.963	-0.184	-0.075
-297.735	87.060	-0.074	-0.081
-296.720	34.231	-0.144	-0.125
-295.705	-59.127	0.217	0.093
-294.691	-200.000	0.030	0.312
-293.676	752.036	-0.057	-0.154
-292.662	-6.519	0.023	-0.016
-291.647	-73.659	0.277	0.100
-290.632	193.952	0.031	0.046
-289.618	689.283	-0.069	0.180
-288.603	800.000	-0.047	0.193
-287.589	261.732	-0.115	0.198
-286.574	-141.013	0.079	0.008
-285.559	-200.000	0.032	-0.170
-284.545	-68.497	-0.376	0.145
-283.530	-143.622	0.237	0.022
-282.516	800.000	-0.092	0.341
-281.501	-68.582	0.202	0.078
-280.486	-34.495	0.146	-0.080
-279.472	-91.210	-0.045	-0.013
-278.457	800.000	-0.166	-0.507
-277.443	-200.000	0.020	-0.137
-276.428	-200.000	0.036	0.160
-275.413	-117.009	0.032	-0.006
-274.399	-156.977	0.287	-0.017
-273.384	279.957	0.068	0.120
-272.370	-52.951	0.098	0.045
-271.355	-13.945	0.224	-0.144
-270.340	-200.000	-0.029	-0.273
-269.326	56.129	-0.062	0.060
-268.311	-143.840	-0.419	-0.039
-267.297	-27.716	-0.115	-0.066
-266.282	800.000	0.056	0.165
-265.267	291.395	0.084	-0.152
-264.253	229.637	0.141	-0.228
-263.238	632.941	-0.022	-0.054
-262.224	579.911	0.067	0.163
-261.209	-33.614	0.080	-0.044
-260.195	-108.751	-0.325	-0.069
-259.180	800.000	-0.105	-0.293
-258.165	302.780	0.148	0.271
-257.151	-200.000	-0.001	-0.024
-256.136	-121.612	-0.171	-0.028
-255.122	517.326	0.076	-0.176
-254.107	-131.433	0.195	-0.026
-253.092	-61.270	0.015	-0.006
-252.078	-71.805	0.032	0.012
-251.063	-200.000	0.020	0.140
-250.049	16.853	0.275	0.216
-249.034	-200.000	0.014	-0.099
-248.019	51.138	0.203	-0.191
-247.005	-200.000	0.045	-0.266
-245.990	308.333	-0.143	-0.265
-244.976	-1.266	0.220	-0.154
-243.961	-94.937	0.216	-0.058
-242.946	253.552	0.119	-0.201
-241.932	-34.024	-0.329	0.179
-240.917	0.737	0.141	0.100
-239.903	-73.361	0.200	-0.072
-238.888	-200.000	0.004	-0.139
-237.873	-132.124	-0.060	0.008
-236.859	-86.483	-0.259	-0.079
-235.844	-200.000	0.015	0.197
-234.830	5.390	0.168	0.123
-233.815	-39.091	0.247	-0.129
-232.800	-200.000	0.025	-0.192
-231.786	32.113	-0.132	-0.113
-230.771	114.978	-0.250	-0.303
-229.757	118.017	-0.021	-0.026
-228.742	800.000	0.068	0.273
-227.727	-23.073	-0.266	0.159
-226.713	-93.544	0.155	-0.043
-225.698	-112.865	0.438	-0.086
-224.684	342.440	0.084	-0.162
-223.669	546.279	-0.146	-0.346
-222.655	-200.000	-0.019	0.146
-221.640	-101.057	-0.244	0.059
-220.625	-120.268	0.219	-0.037
-219.611	605.056	0.034	0.085
-218.596	1.080	0.174	0.124
-217.582	116.373	-0.072	0.087
-216.567	-148.773	0.029	0.002
-215.552	252.456	0.135	0.227
-214.538	-67.726	-0.155	-0.060
-213.523	-97.709	-0.207	-0.053
-212.509	-163.122	-0.410	0.020
-211.494	434.787	-0.055	-0.119
-210.479	7.208	-0.031	0.023
-209.465	-108.743	-0.203	-0.043
-208.450	618.568	0.007	0.017
-207.436	-65.388	0.187	0.074
-206.421	-35.052	-0.141	0.076
-205.406	92.650	-0.243	-0.272
-204.392	26.605	-0.169	-0.140
-203.377	-200.000	0.030	0.187
-202.363	-200.000	0.069	0.394
-201.348	-55.574	-0.086	0.038
-200.333	800.000	-0.012	-0.043
-199.319	472.897	0.164	0.367
-198.304	-0.771	-0.108	0.076
-197.290	45.014	0.215	0.196
-196.275	390.239	0.074	0.152
-195.260	-56.937	-0.201	0.088
-194.246	-138.647	-0.325	-0.035
-193.231	-31.090	0.341	0.191
-192.217	800.000	-0.094	0.312
-191.202	-200.000	-0.004	0.172
-190.187	-200.000	-0.077	0.355
-189.173	-200.000	-0.056	-0.268
-188.158	54.116	-0.121	0.115
-187.144	-143.064	0.294	-0.028
-186.129	-200.000	0.002	0.011
-185.114	-200.000	-0.017	-0.164
-184.100	800.000	0.067	0.204
-183.085	-29.913	0.066	-0.037
-182.071	-14.743	0.198	0.126
-181.056	-96.562	0.118	0.031
-180.042	-8.226	0.144	-0.096
-179.027	498.103	-0.153	-0.349
-178.012	191.431	0.097	-0.145
-176.998	-111.644	-0.009	0.002
-175.983	129.273	-0.166	0.209
-174.969	337.213	-0.069	0.133
-173.954	-200.000	0.030	-0.159
-172.939	-25.023	-0.268	-0.157
-171.925	137.533	-0.206	-0.267
-170.910	-200.000	0.010	-0.452
-169.896	56.753	-0.184	0.177
-168.881	570.432	0.083	0.199
-167.866	-121.380	0.397	0.065
-166.852	-135.226	-0.365	0.043
-165.837	17.355	0.066	0.052
-164.823	-82.477	-0.327	-0.105
-163.808	91.536	-0.133	0.148
-162.793	-194.595	0.556	0.004
-161.779	-200.000	-0.035	-0.250
-160.764	800.000	0.043	-0.137
-159.750	800.000	0.011	0.031
-158.735	311.085	0.189	-0.350
-157.720	356.396	0.059	-0.116
-156.706	155.028	0.127	-0.173
-155.691	3.869	0.404	0.292
-154.677	-91.544	0.147	0.041
-153.662	-94.579	-0.228	0.061
-152.647	-200.000	0.101	0.485
-151.633	800.000	-0.030	-0.096
-150.618	-130.039	0.534	-0.072
-149.604	351.090	0.048	0.094
-148.589	-147.280	-0.185	-0.016
-147.574	258.267	-0.128	0.218
-146.560	800.000	-0.081	-0.289
-145.545	-120.133	-0.121	-0.020
-144.531	-79.916	-0.116	-0.039
-143.516	0.096	0.277	0.195
-142.502	114.437	-0.262	0.316
-141.487	-134.119	-0.147	-0.018
-140.472	-200.000	0.012	0.178
-139.458	318.085	-0.058	0.109
-138.443	344.139	0.140	0.271
-137.429	-85.266	-0.201	0.062
-136.414	-89.831	0.143	-0.041
-135.399	162.790	0.085	-0.117
-134.385	-44.040	-0.069	0.034
-133.370	-164.926	-0.279	-0.012
-132.356	-45.445	0.293	0.143
-131.341	-200.000	-0.007	-0.153
-130.326	-19.815	-0.217	0.132
-129.312	-200.000	-0.004	-0.264
-128.297	-200.000	0.013	-0.390
-127.283	-200.000	0.016	0.099
-126.268	-200.000	-0.010	-0.047
-125.253	170.161	-0.122	0.172
-124.239	-200.000	0.030	-0.131
-123.224	252.225	0.069	0.116
-122.210	-167.556	0.171	0.007
-121.195	-200.000	-0.052	0.354
