DTS Sentinel unit serial number:	SN413079Multiplexer serial number:	ORYXHardware model number:	OX4-SRSoftware version number:	ORYX F/W v4.00 Oryx Data Collector v3.7.2.0data status	okinstallation	princeton_trtdifferential loss correction	single-endedforward channel	channel 3reverse channel	N/Adate	2019/09/14time	18:40:34forward acquisition time	60.00reverse acquisition time	0.00gamma	496.2192k internal	0.2304k external	0.2304temperature offset calibration	1.0023default loss term (dB/km)	0.3790temperature slope calibration	1.0000multiplexer offset coefficient	1.0000multiplexer slope coefficient	1.0000fibre end	0.00T internal ref (°C)	36.28T ext. ref 1 (°C)	4.94T ext. ref 2 (°C)	30.02length (m)	temperature (°C)	Stokes	anti-Stokes-747.200	237.189	-0.118	0.198
-746.185	114.299	-0.259	0.321
-745.171	-117.078	0.332	0.062
-744.156	212.038	0.190	0.305
-743.142	-149.729	0.327	-0.026
-742.127	-200.000	0.040	0.317
-741.112	-46.627	-0.130	-0.065
-740.098	-200.000	-0.017	0.413
-739.083	-38.991	-0.169	0.091
-738.069	-164.279	0.162	-0.008
-737.054	-41.122	0.086	-0.045
-736.039	29.944	-0.253	-0.219
-735.025	282.080	0.120	0.219
-734.010	-200.000	0.068	-0.399
-732.996	800.000	0.032	0.091
-731.981	-200.000	0.059	-0.315
-730.966	74.287	-0.037	0.040
-729.952	21.308	-0.147	-0.121
-728.937	800.000	-0.061	0.260
-727.923	477.527	-0.105	0.242
-726.908	-79.149	0.211	0.073
-725.894	122.882	0.042	-0.054
-724.879	-78.088	-0.217	0.076
-723.864	91.430	-0.115	0.132
-722.850	316.346	0.200	-0.384
-721.835	-95.381	-0.189	-0.052
-720.821	-34.630	0.256	0.142
-719.806	-134.437	-0.100	-0.012
-718.791	-64.752	0.167	-0.069
-717.777	-90.590	-0.163	-0.048
-716.762	88.141	-0.104	0.118
-715.748	76.769	-0.184	0.198
-714.733	131.612	0.102	0.133
-713.718	148.565	0.054	-0.074
-712.704	0.519	0.005	0.003
-711.689	140.856	0.087	0.116
-710.675	8.800	-0.076	0.058
-709.660	2.034	0.172	-0.126
-708.645	288.632	0.181	0.333
-707.631	-200.000	-0.008	-0.214
-706.616	-200.000	-0.062	-0.303
-705.602	800.000	-0.126	-0.362
-704.587	-25.367	-0.087	-0.052
-703.572	400.440	-0.028	0.060
-702.558	9.157	-0.332	0.255
-701.543	-179.519	-0.300	0.007
-700.529	-34.916	-0.226	-0.126
-699.514	-200.000	-0.020	0.089
-698.499	-92.086	-0.222	0.064
-697.485	800.000	0.089	0.267
-696.470	-54.563	-0.272	-0.125
-695.456	716.954	0.081	-0.218
-694.441	131.841	-0.111	0.144
-693.426	800.000	0.098	0.418
-692.412	-81.641	-0.120	-0.040
-691.397	-7.461	-0.163	-0.112
-690.383	-200.000	0.008	0.357
-689.368	531.363	0.010	-0.025
-688.354	-51.512	-0.376	-0.178
-687.339	94.422	0.147	0.170
-686.324	-101.919	-0.110	-0.027
-685.310	626.099	0.058	0.148
-684.295	800.000	0.063	-0.265
-683.281	-200.000	0.054	-0.249
-682.266	-23.441	0.189	-0.115
-681.251	-119.190	-0.137	0.024
-680.237	-79.070	-0.020	-0.007
-679.222	17.340	-0.164	0.132
-678.208	-200.000	0.005	0.252
-677.193	2.471	-0.165	0.121
-676.178	-154.008	0.130	0.009
-675.164	73.284	-0.189	-0.201
-674.149	322.160	-0.121	-0.234
-673.135	447.064	-0.158	-0.354
-672.120	-179.143	-0.213	-0.005
-671.105	15.334	0.151	-0.120
-670.091	-200.000	0.039	0.256
-669.076	504.919	0.119	-0.279
-668.062	-23.825	0.178	-0.108
-667.047	-14.759	-0.277	-0.180
-666.032	-63.831	0.168	-0.070
-665.018	-46.923	-0.179	-0.089
-664.003	-200.000	0.001	0.091
-662.989	800.000	0.151	0.432
-661.974	-97.998	-0.244	0.064
-660.959	183.344	-0.088	0.132
-659.945	-101.558	-0.085	-0.021
-658.930	743.665	-0.056	-0.152
-657.916	-91.061	-0.191	-0.056
-656.901	22.296	-0.190	-0.157
-655.886	800.000	-0.062	0.233
-654.872	-46.934	-0.117	-0.058
-653.857	168.398	0.110	-0.159
-652.843	-153.320	0.411	-0.029
-651.828	3.780	0.123	0.091
-650.814	-169.707	-0.072	0.003
-649.799	-110.086	-0.421	0.089
-648.784	373.027	0.059	0.122
-647.770	39.338	0.186	0.169
-646.755	47.992	0.128	0.122
-645.741	214.333	0.113	0.181
-644.726	800.000	-0.032	0.134
-643.711	-200.000	-0.009	-0.073
-642.697	800.000	-0.126	-0.364
-641.682	-96.055	-0.059	0.016
-640.668	800.000	-0.042	0.135
-639.653	-200.000	-0.030	0.174
-638.638	-120.186	-0.287	0.050
-637.624	-24.813	-0.210	0.126
-636.609	0.832	0.312	-0.227
-635.595	-159.842	-0.217	-0.012
-634.580	-200.000	-0.026	-0.502
-633.565	800.000	-0.023	0.080
-632.551	41.837	-0.174	0.160
-631.536	-46.302	0.199	-0.099
-630.522	351.082	0.100	-0.201
-629.507	290.451	-0.053	0.098
-628.492	800.000	-0.083	0.319
-627.478	138.995	0.082	0.109
-626.463	-169.666	0.093	-0.003
-625.449	-200.000	-0.056	-0.250
-624.434	75.561	-0.189	0.202
-623.419	55.047	0.134	-0.132
-622.405	-64.514	0.190	-0.078
-621.390	-35.655	0.211	-0.116
-620.376	-109.202	-0.085	-0.018
-619.361	-79.278	-0.113	0.039
-618.346	-38.060	0.226	-0.121
-617.332	-200.000	-0.029	-0.160
-616.317	5.119	0.073	0.054
-615.303	-43.348	-0.201	-0.103
-614.288	800.000	0.071	0.229
-613.273	785.340	0.127	0.353
-612.259	800.000	0.051	-0.219
-611.244	204.758	-0.214	0.336
-610.230	-46.027	-0.379	0.189
-609.215	37.736	0.174	-0.157
-608.201	429.605	0.083	-0.183
-607.186	170.914	-0.044	0.064
-606.171	800.000	-0.029	0.120
-605.157	-92.370	-0.102	-0.029
-604.142	-91.777	-0.151	-0.043
-603.128	-200.000	-0.023	-0.180
-602.113	59.781	-0.201	0.201
-601.098	-200.000	-0.051	0.261
-600.084	800.000	-0.017	-0.060
-599.069	-74.049	0.086	-0.031
-598.055	-130.588	0.039	-0.005
-597.040	-200.000	-0.019	-0.464
-596.025	-21.898	0.039	0.024
-595.011	-179.496	0.238	-0.005
-593.996	724.699	-0.172	0.464
-592.982	-131.345	0.042	-0.006
-591.967	-200.000	-0.059	0.417
-590.952	-144.980	-0.319	0.029
-589.938	-200.000	0.014	-0.280
-588.923	-200.000	0.043	-0.208
-587.909	-40.791	0.300	-0.157
-586.894	49.704	-0.345	-0.329
-585.879	28.697	0.050	-0.043
-584.865	-92.227	-0.158	0.045
-583.850	469.470	0.025	-0.057
-582.836	-100.280	-0.254	-0.064
-581.821	503.259	0.049	0.114
-580.806	-71.707	-0.339	-0.128
-579.792	161.444	0.043	0.061
-578.777	284.288	0.048	0.087
-577.763	-30.489	-0.335	-0.192
-576.748	800.000	-0.018	0.068
-575.733	53.075	0.093	-0.090
-574.719	800.000	0.072	0.246
-573.704	-95.098	-0.182	0.050
-572.690	-200.000	-0.031	0.254
-571.675	259.973	0.154	0.268
-570.661	375.779	-0.008	-0.016
-569.646	15.179	-0.206	0.163
-568.631	254.049	0.095	0.163
-567.617	800.000	0.024	-0.107
-566.602	254.532	-0.123	0.213
-565.588	-200.000	0.042	0.251
-564.573	27.144	0.090	-0.077
-563.558	-14.521	0.321	0.208
-562.544	-200.000	-0.072	0.327
-561.529	-92.147	-0.562	0.160
-560.515	269.491	0.161	0.287
-559.500	160.823	0.257	0.363
-558.485	40.614	-0.181	-0.164
-557.471	175.544	0.279	0.409
-556.456	15.482	-0.206	-0.163
-555.442	-129.552	-0.333	0.047
-554.427	105.547	-0.298	-0.356
-553.412	800.000	-0.038	0.134
-552.398	-103.544	-0.161	0.038
-551.383	32.288	-0.164	-0.143
-550.369	-49.742	0.111	-0.053
-549.354	-200.000	-0.015	0.462
-548.339	-71.339	0.110	-0.042
-547.325	84.662	0.166	0.184
-546.310	-125.088	0.228	-0.035
-545.296	-23.552	-0.113	-0.069
-544.281	-109.085	0.273	0.059
-543.266	26.890	0.167	-0.142
-542.252	-128.583	-0.028	-0.004
-541.237	-143.825	0.382	-0.036
-540.223	-153.759	-0.287	0.020
-539.208	-122.099	-0.105	0.017
-538.193	800.000	-0.053	-0.185
-537.179	159.139	-0.181	0.255
-536.164	-200.000	0.007	0.069
-535.150	98.138	-0.082	0.095
-534.135	1.060	0.248	-0.180
-533.121	-200.000	-0.033	-0.471
-532.106	574.080	-0.197	-0.486
-531.091	800.000	-0.093	-0.374
-530.077	195.220	0.193	-0.296
-529.062	-34.440	0.097	0.054
-528.048	790.781	-0.065	0.181
-527.033	90.126	0.066	0.074
-526.018	-80.975	-0.300	-0.100
-525.004	213.249	0.139	-0.221
-523.989	314.540	0.075	0.143
-522.975	-200.000	-0.002	-0.046
-521.960	-112.638	-0.062	-0.012
-520.945	52.336	0.188	0.181
-519.931	-54.700	-0.144	-0.065
-518.916	800.000	0.074	-0.240
-517.902	-105.411	-0.186	-0.043
-516.887	-40.647	-0.317	0.166
-515.872	-131.325	-0.183	0.025
-514.858	-35.097	-0.219	0.120
-513.843	-72.234	-0.049	-0.018
-512.829	-32.552	-0.201	-0.113
-511.814	47.880	0.111	0.105
-510.799	-7.774	-0.052	-0.035
-509.785	-187.515	0.117	-0.002
-508.770	-15.705	-0.252	0.162
-507.756	687.329	0.049	0.130
-506.741	-103.777	0.122	-0.029
-505.726	800.000	0.046	0.181
-504.712	282.292	-0.140	0.253
-503.697	80.228	0.057	-0.062
-502.683	-200.000	-0.064	0.333
-501.668	-200.000	0.004	-0.053
-500.653	-2.461	-0.115	-0.081
-499.639	-93.630	-0.223	-0.062
-498.624	-200.000	-0.052	0.246
-497.610	40.815	0.061	-0.055
-496.595	-200.000	0.011	0.160
-495.581	-185.086	-0.238	0.004
-494.566	800.000	-0.010	0.035
-493.551	-87.622	0.175	-0.053
-492.537	-111.049	0.139	-0.029
-491.522	-48.013	0.171	0.083
-490.508	-200.000	0.042	-0.261
-489.493	240.278	0.029	-0.049
-488.478	-20.912	0.165	-0.102
-487.464	-66.895	-0.127	-0.051
-486.449	-60.863	0.049	-0.021
-485.435	-53.573	-0.188	0.087
-484.420	125.263	0.075	0.095
-483.405	203.270	0.230	-0.359
-482.391	77.037	-0.150	0.160
-481.376	-88.043	0.112	-0.034
-480.362	76.646	-0.115	0.122
-479.347	-58.482	0.140	-0.061
-478.332	800.000	0.086	-0.284
-477.318	28.405	-0.144	0.122
-476.303	800.000	0.157	-0.499
-475.289	-200.000	0.022	0.216
-474.274	-200.000	0.025	0.115
-473.259	-73.188	0.181	-0.067
-472.245	224.879	0.048	0.078
-471.230	-200.000	-0.060	0.391
-470.216	-200.000	0.010	-0.178
-469.201	800.000	0.004	0.011
-468.186	800.000	-0.081	-0.237
-467.172	10.415	0.394	-0.302
-466.157	201.374	0.144	-0.224
-465.143	273.165	-0.224	0.399
-464.128	-101.462	0.240	0.059
-463.113	6.409	-0.085	-0.064
-462.099	1.124	0.117	0.085
-461.084	-65.097	0.060	-0.024
-460.070	-172.530	-0.233	0.007
-459.055	-200.000	0.014	0.252
-458.040	2.418	-0.251	0.183
-457.026	-200.000	-0.001	0.438
-456.011	-180.516	-0.172	-0.004
-454.997	382.526	-0.131	-0.271
-453.982	10.634	0.213	0.163
-452.968	61.209	0.147	-0.147
-451.953	82.477	-0.143	0.156
-450.938	-200.000	-0.011	0.258
-449.924	-68.100	-0.092	-0.036
-448.909	-147.798	-0.443	0.037
-447.895	35.239	0.174	0.153
-446.880	-113.351	-0.164	0.032
-445.865	-39.420	-0.130	-0.068
-444.851	106.547	0.193	-0.231
-443.836	534.372	-0.109	-0.260
-442.822	475.024	0.125	0.284
-441.807	-200.000	-0.016	-0.217
-440.792	800.000	0.097	0.393
-439.778	74.033	-0.133	0.141
-438.763	800.000	-0.050	-0.213
-437.749	-96.481	0.402	-0.107
-436.734	14.102	-0.041	0.032
-435.719	-78.685	0.120	0.041
-434.705	101.422	-0.222	-0.261
-433.690	36.550	0.221	-0.196
-432.676	126.008	0.010	-0.012
-431.661	458.261	-0.053	0.118
-430.646	-101.777	0.248	-0.060
-429.632	-186.208	0.082	-0.001
-428.617	-200.000	-0.001	0.028
-427.603	63.685	0.088	0.089
-426.588	56.247	-0.337	0.329
-425.573	6.733	-0.079	0.059
-424.559	-200.000	0.040	-0.235
-423.544	40.350	0.050	0.045
-422.530	-107.356	0.047	-0.010
-421.515	-145.196	-0.288	-0.026
-420.500	157.283	-0.092	0.127
-419.486	-26.244	-0.141	-0.084
-418.471	419.870	-0.067	-0.145
-417.457	-113.809	0.145	0.028
-416.442	-200.000	0.016	0.162
-415.428	-141.087	0.128	0.013
-414.413	-32.486	-0.105	-0.059
-413.398	800.000	0.029	0.125
-412.384	800.000	-0.038	0.114
-411.369	800.000	0.007	0.028
-410.355	-200.000	0.014	-0.142
-409.340	-92.089	-0.307	-0.087
-408.325	130.165	-0.053	0.069
-407.311	-2.750	0.094	0.066
-406.296	343.218	0.029	0.057
-405.282	-200.000	-0.029	-0.233
-404.267	380.317	-0.122	-0.251
-403.252	-200.000	0.025	0.272
-402.238	467.568	0.082	0.184
-401.223	-200.000	0.036	-0.217
-400.209	800.000	-0.125	-0.373
-399.194	-200.000	0.002	-0.081
-398.179	-9.290	0.282	-0.189
-397.165	17.981	-0.156	-0.125
-396.150	800.000	0.080	-0.256
-395.136	-0.803	0.324	-0.230
-394.121	-200.000	-0.025	-0.116
-393.106	77.059	-0.153	0.164
-392.092	-57.141	-0.135	-0.060
-391.077	254.770	-0.116	-0.199
-390.063	-6.845	0.107	-0.073
-389.048	48.482	0.172	0.162
-388.033	-137.468	-0.291	-0.033
-387.019	800.000	-0.049	-0.160
-386.004	800.000	-0.029	0.085
-384.990	-100.895	0.379	0.093
-383.975	0.489	0.107	-0.076
-382.960	41.283	-0.154	-0.140
-381.946	29.161	0.074	-0.063
-380.931	-200.000	-0.043	-0.303
-379.917	800.000	0.076	0.235
-378.902	-61.030	0.297	0.126
-377.888	-41.087	0.138	0.072
-376.873	800.000	-0.122	-0.425
-375.858	74.421	0.222	-0.234
-374.844	-102.425	0.078	0.019
-373.829	-98.420	-0.303	0.078
-372.815	78.805	-0.156	0.167
-371.800	-93.675	0.341	0.095
-370.785	-52.491	0.039	-0.018
-369.771	-200.000	0.021	0.129
-368.756	153.111	-0.126	0.173
-367.742	212.276	-0.177	-0.280
-366.727	-131.722	-0.089	0.012
-365.712	-15.992	-0.062	-0.039
-364.698	-200.000	0.052	-0.249
-363.683	800.000	0.018	0.063
-362.669	800.000	0.069	0.264
-361.654	621.577	0.070	-0.176
-360.639	-45.009	0.093	-0.047
-359.625	96.849	-0.025	-0.029
-358.610	-113.517	-0.240	0.047
-357.596	29.636	0.171	0.146
-356.581	800.000	0.075	0.265
-355.566	507.755	0.110	-0.256
-354.552	-95.660	0.131	0.035
-353.537	132.587	0.073	-0.094
-352.523	-50.010	0.087	-0.041
-351.508	-200.000	-0.015	-0.111
-350.493	800.000	0.046	0.199
-349.479	-200.000	0.009	0.092
-348.464	134.397	0.229	-0.298
-347.450	-33.872	-0.131	-0.072
-346.435	800.000	-0.121	0.394
-345.420	65.711	-0.129	-0.131
-344.406	-95.621	0.344	-0.092
-343.391	-147.231	-0.076	-0.006
-342.377	-200.000	-0.012	-0.419
-341.362	800.000	0.027	0.116
-340.348	25.250	-0.238	0.198
-339.333	-60.062	-0.257	0.110
-338.318	140.659	-0.354	-0.468
-337.304	-105.412	0.151	-0.034
-336.289	-84.006	0.203	-0.065
-335.275	-3.254	0.176	-0.123
-334.260	95.093	0.120	0.137
-333.245	-2.235	0.154	0.109
-332.231	43.023	-0.149	-0.136
-331.216	430.695	-0.029	0.063
-330.202	-200.000	-0.015	0.174
-329.187	-200.000	-0.043	0.220
-328.172	73.317	-0.118	-0.124
-327.158	370.106	0.060	0.122
-326.143	136.407	0.156	0.204
-325.129	185.946	-0.110	-0.164
-324.114	-114.856	0.354	0.068
-323.099	21.245	0.096	0.078
-322.085	523.405	-0.087	-0.204
-321.070	-200.000	-0.004	0.147
-320.056	35.457	0.047	0.041
-319.041	134.797	0.190	-0.247
-318.026	-27.469	0.207	0.120
-317.012	122.945	0.083	0.105
-315.997	180.035	-0.227	-0.334
-314.983	5.063	-0.230	-0.169
-313.968	-4.806	0.211	0.145
-312.953	-200.000	-0.012	0.193
-311.939	-110.157	0.179	0.037
-310.924	-5.458	0.119	-0.082
-309.910	-4.171	0.170	-0.118
-308.895	-183.120	-0.114	-0.002
-307.880	-4.032	-0.118	-0.082
-306.866	-152.339	0.067	0.005
-305.851	-92.818	-0.167	-0.047
-304.837	-200.000	0.003	-0.076
-303.822	800.000	0.027	0.106
-302.807	192.950	-0.056	0.085
-301.793	800.000	-0.099	0.285
-300.778	-71.569	0.059	-0.022
-299.764	18.470	0.156	-0.125
-298.749	588.592	0.073	-0.179
-297.735	-111.704	-0.102	-0.021
-296.720	39.505	0.179	-0.161
-295.705	179.934	-0.098	0.143
-294.691	800.000	0.097	0.359
-293.676	68.226	0.054	-0.056
-292.662	800.000	-0.072	0.251
-291.647	-183.372	0.042	0.001
-290.632	68.532	0.306	-0.314
-289.618	800.000	0.038	0.116
-288.603	-94.118	0.189	-0.052
-287.589	-30.803	-0.210	0.118
-286.574	-161.701	0.310	-0.016
-285.559	-48.187	0.188	-0.091
-284.545	800.000	0.105	0.322
-283.530	65.833	-0.254	-0.257
-282.516	62.627	-0.154	-0.154
-281.501	309.354	0.135	-0.252
-280.486	107.661	0.241	-0.287
-279.472	-200.000	-0.021	-0.276
-278.457	17.328	0.344	0.273
-277.443	35.599	-0.152	0.133
-276.428	479.397	0.013	0.030
-275.413	-106.792	-0.221	0.049
-274.399	-83.921	0.190	0.061
-273.384	267.446	0.073	0.128
-272.370	-127.609	0.364	0.053
-271.355	-61.095	-0.316	-0.133
-270.340	-51.829	-0.068	-0.032
-269.326	-25.514	-0.114	-0.067
-268.311	800.000	-0.082	-0.275
-267.297	-3.634	-0.178	-0.124
-266.282	-35.430	-0.114	-0.062
-265.267	440.029	-0.101	0.219
-264.253	800.000	0.106	-0.378
-263.238	-200.000	-0.307	0.001
-262.224	-7.983	0.213	0.143
-261.209	-86.649	-0.334	0.102
-260.195	-61.911	0.167	0.070
-259.180	-200.000	-0.001	-0.022
-258.165	197.588	0.177	0.270
-257.151	-119.306	0.069	-0.012
-256.136	-71.076	-0.186	-0.070
-255.122	485.575	0.100	0.227
-254.107	800.000	-0.068	0.209
-253.092	56.441	0.297	0.289
-252.078	800.000	-0.093	0.399
-251.063	800.000	0.020	0.058
-250.049	800.000	0.154	-0.502
-249.034	139.431	-0.037	-0.049
-248.019	493.927	0.032	0.073
-247.005	316.430	0.048	0.091
-245.990	-4.275	-0.142	0.098
-244.976	569.595	0.100	-0.243
-243.961	87.184	0.140	-0.154
-242.946	154.881	-0.033	0.046
-241.932	-200.000	-0.037	-0.362
-240.917	-153.749	0.162	-0.011
-239.903	104.419	0.215	-0.253
-238.888	-84.262	-0.202	0.064
-237.873	-100.092	-0.260	0.065
-236.859	-99.472	-0.155	0.039
-235.844	-125.592	-0.279	-0.042
-234.830	-160.457	-0.172	-0.009
-233.815	-88.006	0.296	-0.089
-232.800	4.820	0.154	-0.113
-231.786	-75.433	-0.244	0.087
-230.771	-139.823	-0.048	0.005
-229.757	124.034	0.083	0.104
-228.742	39.222	-0.340	-0.304
-227.727	-23.341	0.270	0.162
-226.713	-79.733	-0.108	0.036
-225.698	-55.139	-0.444	0.199
-224.684	-200.000	0.001	0.262
-223.669	-200.000	0.031	0.379
-222.655	-87.191	0.202	0.061
-221.640	94.262	-0.073	-0.083
-220.625	672.661	-0.112	-0.289
-219.611	70.844	0.066	0.068
-218.596	-111.660	0.170	-0.034
-217.582	244.259	0.087	0.145
-216.567	-133.878	0.298	0.037
-215.552	-89.009	-0.168	-0.049
-214.538	800.000	-0.090	0.277
-213.523	-76.276	0.179	0.063
-212.509	-200.000	0.011	-0.260
-211.494	-43.055	-0.201	-0.102
-210.479	38.940	0.078	0.069
-209.465	800.000	0.087	0.309
-208.450	566.065	0.086	0.208
-207.436	286.369	0.059	0.105
-206.421	30.778	0.136	-0.116
-205.406	115.518	0.133	-0.162
-204.392	800.000	0.079	0.220
-203.377	800.000	-0.045	0.156
-202.363	514.494	-0.099	-0.231
-201.348	445.059	-0.077	-0.169
-200.333	296.439	0.078	-0.143
-199.319	-200.000	-0.020	0.430
-198.304	-55.573	0.097	-0.043
-197.290	-200.000	0.013	-0.273
-196.275	126.026	0.295	0.371
-195.260	-83.774	0.190	-0.060
-194.246	150.655	0.314	0.425
-193.231	-200.000	-0.010	0.080
-192.217	800.000	-0.094	0.362
-191.202	313.000	-0.114	0.213
-190.187	-78.612	0.164	-0.056
-189.173	-200.000	-0.017	0.074
-188.158	800.000	0.096	-0.393
-187.144	-28.018	0.248	0.143
-186.129	800.000	0.105	-0.386
-185.114	277.040	-0.150	-0.266
-184.100	-114.041	0.277	-0.053
-183.085	-64.231	0.103	0.042
-182.071	17.358	-0.167	-0.132
-181.056	-147.866	0.076	0.006
-180.042	424.906	0.103	0.221
-179.027	353.262	-0.074	0.147
-178.012	234.299	-0.199	-0.326
-176.998	318.241	0.035	-0.066
-175.983	601.769	0.260	-0.644
-174.969	-74.221	0.429	0.155
-173.954	21.764	-0.219	-0.178
-172.939	800.000	0.056	-0.163
-171.925	-35.881	0.152	0.082
-170.910	2.297	0.130	0.094
-169.896	25.911	-0.087	-0.072
-168.881	68.307	-0.054	0.055
-167.866	114.668	-0.212	-0.257
-166.852	-44.546	-0.310	-0.154
-165.837	-54.345	-0.367	-0.166
-164.823	-175.902	-0.097	0.003
-163.808	141.658	-0.011	-0.014
-162.793	-88.949	0.332	0.098
-161.779	137.993	-0.082	-0.107
-160.764	-140.031	-0.276	0.029
-159.750	85.217	-0.062	0.067
-158.735	-124.026	-0.440	-0.069
-157.720	-200.000	0.002	0.203
-156.706	800.000	-0.066	-0.224
-155.691	-100.010	0.238	-0.059
-154.677	80.469	-0.106	0.114
-153.662	234.500	0.106	0.173
-152.647	-200.000	0.057	-0.370
-151.633	-57.042	0.137	-0.060
-150.618	482.563	-0.078	0.176
-149.604	304.497	-0.076	-0.140
-148.589	-110.905	0.391	-0.080
-147.574	-123.606	-0.336	0.053
-146.560	-200.000	-0.095	0.424
-145.545	-144.750	0.148	0.013
-144.531	-200.000	-0.033	0.180
-143.516	311.269	-0.068	0.128
-142.502	-97.361	0.358	-0.093
-141.487	-91.208	-0.344	0.098
-140.472	16.139	0.148	-0.116
-139.458	90.392	-0.096	0.107
-138.443	170.094	0.085	0.121
-137.429	140.019	0.097	-0.127
-136.414	-200.000	-0.050	-0.272
-135.399	213.253	0.121	-0.190
-134.385	-200.000	-0.020	0.158
-133.370	800.000	0.086	0.280
-132.356	25.013	-0.179	-0.147
-131.341	3.442	-0.090	0.065
-130.326	-10.348	-0.160	-0.106
-129.312	-100.948	-0.303	-0.074
-128.297	-200.000	-0.028	0.143
-127.283	38.142	0.122	-0.108
-126.268	497.158	-0.064	-0.146
-125.253	-55.608	-0.226	-0.100
-124.239	-200.000	0.016	-0.079
-123.224	-200.000	0.017	0.076
-122.210	-164.009	0.281	0.013
-121.195	707.009	0.040	0.104
-120.180	-200.000	0.002	-0.043
