DTS Sentinel unit serial number:	SN413079Multiplexer serial number:	ORYXHardware model number:	OX4-SRSoftware version number:	ORYX F/W v4.00 Oryx Data Collector v3.7.2.0data status	okinstallation	princeton_trtdifferential loss correction	single-endedforward channel	channel 3reverse channel	N/Adate	2019/09/14time	06:12:35forward acquisition time	60.00reverse acquisition time	0.00gamma	496.2192k internal	0.2338k external	0.2338temperature offset calibration	1.0058default loss term (dB/km)	0.3790temperature slope calibration	1.0000multiplexer offset coefficient	1.0000multiplexer slope coefficient	1.0000fibre end	0.00T internal ref (°C)	26.69T ext. ref 1 (°C)	3.41T ext. ref 2 (°C)	20.80length (m)	temperature (°C)	Stokes	anti-Stokes-747.200	-100.734	-0.085	-0.021
-746.185	-82.028	-0.084	-0.027
-745.171	-200.000	-0.009	-0.052
-744.156	602.339	-0.010	0.024
-743.142	-125.423	-0.499	0.076
-742.127	-72.918	-0.109	-0.040
-741.112	-8.619	-0.321	-0.216
-740.098	84.652	-0.233	0.256
-739.083	-89.533	0.564	0.166
-738.069	-110.449	-0.310	0.065
-737.054	800.000	-0.056	0.212
-736.039	237.193	-0.207	0.343
-735.025	130.975	-0.134	0.173
-734.010	-200.000	0.034	-0.159
-732.996	-11.340	0.059	-0.039
-731.981	-95.465	-0.240	0.064
-730.966	-62.790	0.132	-0.055
-729.952	-107.521	-0.149	-0.033
-728.937	-109.574	-0.272	-0.058
-727.923	304.794	-0.256	-0.476
-726.908	136.430	-0.051	0.066
-725.894	120.296	0.020	-0.025
-724.879	-87.639	0.142	0.043
-723.864	-200.000	-0.072	0.416
-722.850	158.738	-0.014	-0.020
-721.835	58.403	-0.290	0.285
-720.821	464.770	0.069	-0.154
-719.806	303.787	-0.096	-0.179
-718.791	-200.000	-0.028	-0.303
-717.777	-200.000	-0.034	-0.457
-716.762	-143.160	0.062	-0.006
-715.748	-200.000	0.008	-0.081
-714.733	140.087	0.116	-0.153
-713.718	-172.025	-0.193	-0.006
-712.704	800.000	-0.017	0.070
-711.689	361.554	-0.138	0.277
-710.675	-200.000	0.006	0.332
-709.660	242.332	-0.136	0.229
-708.645	-23.037	-0.130	-0.079
-707.631	-200.000	0.014	-0.265
-706.616	-140.694	0.085	-0.009
-705.602	345.928	-0.197	0.388
-704.587	310.457	0.123	-0.230
-703.572	-63.886	-0.304	-0.125
-702.558	-37.467	0.268	0.144
-701.543	61.650	0.139	-0.138
-700.529	-200.000	-0.025	-0.148
-699.514	532.878	0.053	-0.126
-698.499	5.359	0.069	0.051
-697.485	24.068	0.110	0.091
-696.470	-200.000	0.010	0.097
-695.456	-200.000	0.031	0.166
-694.441	129.210	0.161	-0.205
-693.426	-138.243	-0.144	0.016
-692.412	221.849	-0.187	0.301
-691.397	267.650	-0.138	0.242
-690.383	410.860	-0.079	0.167
-689.368	-44.975	-0.189	-0.094
-688.354	-42.182	-0.029	-0.015
-687.339	210.634	0.084	0.132
-686.324	-26.677	-0.118	-0.069
-685.310	800.000	-0.055	0.212
-684.295	-200.000	-0.010	-0.137
-683.281	-98.340	-0.223	-0.057
-682.266	-119.537	-0.112	0.019
-681.251	-200.000	0.003	-0.321
-680.237	-104.673	0.141	0.033
-679.222	-200.000	-0.044	-0.248
-678.208	800.000	-0.061	0.257
-677.193	-200.000	-0.022	0.169
-676.178	-200.000	0.006	-0.038
-675.164	-89.499	-0.087	0.025
-674.149	203.909	0.104	0.161
-673.135	-82.080	-0.290	-0.095
-672.120	-200.000	-0.013	-0.089
-671.105	114.754	-0.070	-0.085
-670.091	141.332	-0.139	0.184
-669.076	519.359	-0.023	0.054
-668.062	-16.032	-0.268	0.171
-667.047	-200.000	0.001	0.276
-666.032	30.120	-0.084	0.071
-665.018	800.000	0.069	-0.242
-664.003	-63.335	0.072	-0.030
-662.989	800.000	0.117	-0.492
-661.974	-110.224	0.249	0.052
-660.959	513.210	-0.032	0.075
-659.945	800.000	-0.010	0.031
-658.930	-200.000	-0.057	0.255
-657.916	-23.191	-0.184	0.110
-656.901	-200.000	-0.087	-0.389
-655.886	-82.672	0.130	-0.042
-654.872	68.929	0.092	0.094
-653.857	59.929	-0.138	-0.136
-652.843	-117.964	-0.129	-0.023
-651.828	-55.040	-0.375	-0.169
-650.814	-200.000	-0.013	-0.353
-649.799	-53.507	-0.256	0.117
-648.784	-200.000	-0.020	0.363
-647.770	171.545	0.061	-0.087
-646.755	634.574	-0.130	-0.329
-645.741	25.428	0.031	0.026
-644.726	447.592	-0.116	-0.255
-643.711	-197.964	-0.227	-0.001
-642.697	-7.165	-0.312	0.211
-641.682	-73.212	0.023	0.008
-640.668	-78.790	0.398	-0.136
-639.653	-104.211	-0.166	0.039
-638.638	-1.498	-0.126	0.089
-637.624	338.846	-0.070	0.136
-636.609	-155.988	0.175	0.011
-635.595	-44.615	-0.231	-0.115
-634.580	30.854	-0.223	-0.191
-633.565	-42.067	0.081	0.042
-632.551	-20.910	0.183	0.112
-631.536	143.653	0.063	0.084
-630.522	-76.262	-0.170	-0.060
-629.507	160.664	0.175	0.245
-628.492	300.623	0.116	0.213
-627.478	663.248	-0.009	-0.023
-626.463	-200.000	-0.041	-0.296
-625.449	206.542	-0.067	-0.105
-624.434	-200.000	0.012	-0.085
-623.419	165.677	-0.067	0.095
-622.405	-124.239	-0.203	0.032
-621.390	-98.545	0.260	0.066
-620.376	-81.341	0.389	-0.128
-619.361	82.595	-0.143	-0.155
-618.346	-141.639	-0.059	-0.006
-617.332	-200.000	0.010	-0.043
-616.317	-200.000	-0.060	-0.283
-615.303	-54.172	-0.382	-0.173
-614.288	161.187	0.133	0.186
-613.273	-200.000	-0.034	0.214
-612.259	-109.455	0.282	0.059
-611.244	-87.639	-0.065	-0.020
-610.230	-138.457	-0.241	-0.026
-609.215	-200.000	-0.016	-0.237
-608.201	-100.554	0.227	-0.056
-607.186	-45.280	-0.272	-0.135
-606.171	-18.551	-0.135	0.084
-605.157	9.449	0.132	0.100
-604.142	-54.753	-0.217	-0.098
-603.128	-200.000	-0.017	-0.226
-602.113	-69.180	-0.112	-0.043
-601.098	-81.460	0.524	0.172
-600.084	-1.250	-0.157	0.111
-599.069	75.954	-0.036	-0.038
-598.055	-111.687	0.132	-0.027
-597.040	422.265	0.050	0.108
-596.025	371.957	0.115	0.233
-595.011	-200.000	0.017	-0.147
-593.996	-137.976	-0.228	0.025
-592.982	-64.688	0.120	-0.049
-591.967	-200.000	0.043	-0.205
-590.952	800.000	-0.086	-0.283
-589.938	-200.000	0.014	-0.100
-588.923	53.767	-0.076	-0.072
-587.909	79.441	0.158	-0.169
-586.894	800.000	-0.034	0.145
-585.879	800.000	0.110	-0.323
-584.865	-72.873	0.052	0.019
-583.850	-99.832	0.211	-0.053
-582.836	-200.000	0.046	-0.200
-581.821	270.535	0.136	-0.238
-580.806	37.092	0.140	-0.124
-579.792	-18.141	0.300	0.187
-578.777	-200.000	0.005	-0.263
-577.763	17.700	-0.027	0.022
-576.748	77.641	-0.175	-0.185
-575.733	800.000	-0.015	0.059
-574.719	800.000	0.048	0.158
-573.704	-200.000	-0.062	0.307
-572.690	16.149	-0.156	-0.123
-571.675	42.471	-0.221	0.200
-570.661	-200.000	-0.001	-0.189
-569.646	717.731	-0.034	-0.090
-568.631	-20.653	-0.231	0.142
-567.617	76.284	-0.256	0.270
-566.602	-200.000	0.004	0.042
-565.588	-29.857	-0.151	-0.086
-564.573	95.961	0.251	-0.285
-563.558	-17.102	0.129	0.081
-562.544	-110.026	-0.091	0.019
-561.529	23.531	-0.080	-0.065
-560.515	-56.379	-0.473	0.209
-559.500	-200.000	-0.059	0.315
-558.485	125.072	0.165	-0.207
-557.471	-138.738	-0.379	-0.041
-556.456	-116.788	0.123	0.023
-555.442	800.000	-0.041	-0.169
-554.427	-200.000	-0.014	-0.139
-553.412	-148.436	-0.229	-0.019
-552.398	-112.127	0.131	0.026
-551.383	-84.071	-0.074	-0.023
-550.369	-134.672	0.164	0.020
-549.354	281.682	0.076	0.135
-548.339	-80.883	0.144	0.048
-547.325	112.921	-0.300	0.362
-546.310	800.000	0.092	0.347
-545.296	-24.534	0.240	0.142
-544.281	-192.666	-0.144	0.001
-543.266	448.314	-0.095	0.208
-542.252	662.704	-0.062	-0.160
-541.237	-30.158	0.215	-0.122
-540.223	-83.711	0.206	-0.066
-539.208	68.627	-0.288	-0.294
-538.193	-75.892	-0.369	0.130
-537.179	636.778	-0.011	-0.028
-536.164	39.114	0.243	-0.217
-535.150	-87.977	-0.418	-0.125
-534.135	64.777	0.060	-0.060
-533.121	43.763	0.077	0.070
-532.106	-95.816	0.085	-0.023
-531.091	800.000	-0.140	-0.407
-530.077	800.000	-0.068	-0.288
-529.062	600.908	-0.023	0.056
-528.048	-152.154	0.444	-0.032
-527.033	-0.432	0.085	0.060
-526.018	193.779	0.208	0.314
-525.004	-75.980	-0.110	0.039
-523.989	-200.000	0.034	-0.181
-522.975	-74.435	-0.218	-0.078
-521.960	258.586	0.082	-0.141
-520.945	-161.913	-0.203	0.010
-519.931	91.865	0.137	0.154
-518.916	-22.273	-0.186	0.112
-517.902	-155.752	0.254	0.016
-516.887	-147.087	-0.075	-0.006
-515.872	46.478	-0.141	-0.130
-514.858	73.970	-0.119	0.124
-513.843	800.000	-0.009	0.039
-512.829	760.584	0.136	0.366
-511.814	-130.605	0.153	0.020
-510.799	371.972	0.167	-0.337
-509.785	800.000	0.117	0.348
-508.770	65.006	-0.025	0.025
-507.756	113.891	0.065	-0.079
-506.741	73.113	-0.197	-0.205
-505.726	-75.067	0.292	0.104
-504.712	-200.000	-0.008	-0.249
-503.697	-104.274	-0.289	0.067
-502.683	-28.854	-0.149	-0.085
-501.668	27.776	0.173	-0.144
-500.653	-117.040	0.277	-0.050
-499.639	-119.870	-0.067	0.011
-498.624	800.000	0.067	-0.274
-497.610	-151.153	-0.203	0.015
-496.595	-178.283	-0.205	-0.005
-495.581	261.776	0.027	-0.047
-494.566	29.578	0.167	0.141
-493.551	249.925	-0.141	-0.237
-492.537	191.615	0.080	-0.119
-491.522	318.211	-0.181	0.341
-490.508	-53.802	0.443	-0.201
-489.493	13.350	-0.122	0.094
-488.478	-89.096	-0.287	-0.084
-487.464	-90.929	0.167	-0.048
-486.449	18.103	0.212	-0.168
-485.435	55.454	0.247	-0.238
-484.420	-86.019	-0.112	0.034
-483.405	-44.822	0.129	-0.064
-482.391	-72.994	0.070	0.025
-481.376	63.722	0.093	0.093
-480.362	-196.061	-0.196	-0.001
-479.347	243.991	0.120	0.200
-478.332	-200.000	0.024	0.201
-477.318	-81.648	0.563	-0.183
-476.303	51.753	0.250	0.236
-475.289	-200.000	0.019	0.156
-474.274	-72.553	0.148	0.054
-473.259	81.432	0.260	-0.279
-472.245	105.365	0.126	-0.148
-471.230	3.316	-0.169	-0.122
-470.216	-30.728	0.094	-0.053
-469.201	42.422	-0.080	-0.072
-468.186	800.000	-0.048	-0.187
-467.172	-21.941	0.083	-0.050
-466.157	-200.000	-0.036	0.175
-465.143	-62.470	-0.064	0.027
-464.128	-124.742	0.304	0.047
-463.113	-50.777	0.222	-0.104
-462.099	5.122	0.101	-0.074
-461.084	33.621	0.322	0.278
-460.070	15.980	0.304	0.237
-459.055	800.000	-0.066	0.217
-458.040	-200.000	-0.081	0.361
-457.026	6.308	-0.025	0.019
-456.011	-79.591	-0.182	-0.061
-454.997	-200.000	-0.045	-0.213
-453.982	-22.554	-0.231	-0.138
-452.968	98.273	0.025	0.029
-451.953	-49.797	-0.190	0.090
-450.938	10.251	0.131	0.099
-449.924	-200.000	-0.061	0.395
-448.909	-200.000	0.030	-0.254
-447.895	20.655	0.160	0.129
-446.880	445.503	0.076	0.165
-445.865	300.088	-0.070	-0.128
-444.851	-200.000	-0.042	-0.240
-443.836	305.375	-0.128	0.236
-442.822	44.461	-0.273	0.248
-441.807	-151.725	0.206	-0.015
-440.792	-200.000	0.043	-0.194
-439.778	17.399	0.152	0.119
-438.763	-200.000	-0.006	-0.155
-437.749	-4.684	-0.134	-0.092
-436.734	470.866	0.050	0.111
-435.719	-200.000	0.001	0.158
-434.705	-17.147	0.125	-0.078
-433.690	-200.000	-0.036	-0.466
-432.676	-200.000	0.055	0.295
-431.661	-175.890	0.442	0.012
-430.646	-14.719	-0.227	-0.145
-429.632	-34.868	0.249	0.135
-428.617	143.031	-0.116	0.153
-427.603	-200.000	-0.016	-0.208
-426.588	714.881	-0.027	-0.072
-425.573	-118.886	-0.275	-0.048
-424.559	-101.139	-0.190	0.046
-423.544	524.513	0.147	0.341
-422.530	-78.462	-0.339	-0.115
-421.515	800.000	0.113	0.360
-420.500	11.535	-0.163	0.124
-419.486	39.420	0.053	0.047
-418.471	-118.219	0.150	-0.026
-417.457	172.228	0.087	0.124
-416.442	800.000	-0.090	-0.324
-415.428	-17.810	0.097	0.060
-414.413	400.135	0.170	-0.353
-413.398	-138.083	-0.206	0.023
-412.384	-79.805	-0.415	0.138
-411.369	-200.000	0.025	-0.218
-410.355	342.095	0.059	0.114
-409.340	-200.000	-0.064	0.367
-408.325	47.582	-0.257	-0.238
-407.311	-85.526	0.280	-0.086
-406.296	38.739	-0.126	0.112
-405.282	-200.000	0.035	0.317
-404.267	-17.765	0.240	0.149
-403.252	-200.000	0.032	-0.414
-402.238	373.823	0.061	0.123
-401.223	792.909	-0.073	-0.199
-400.209	-200.000	0.039	-0.285
-399.194	388.220	0.050	-0.102
-398.179	-200.000	-0.012	-0.260
-397.165	-200.000	-0.081	-0.386
-396.150	-112.114	-0.190	-0.038
-395.136	-42.830	0.038	-0.019
-394.121	-86.525	-0.117	0.035
-393.106	-152.863	0.618	-0.043
-392.092	-200.000	-0.020	-0.126
-391.077	-13.941	0.153	0.098
-390.063	-20.266	0.268	-0.163
-389.048	-139.106	-0.113	-0.012
-388.033	8.308	-0.374	0.278
-387.019	-144.959	0.255	-0.023
-386.004	-33.620	-0.067	-0.036
-384.990	291.518	0.152	0.273
-383.975	800.000	0.070	-0.197
-382.960	-123.637	-0.112	0.018
-381.946	167.178	-0.092	-0.129
-380.931	-29.357	-0.027	-0.015
-379.917	469.589	-0.026	0.059
-378.902	91.594	0.106	-0.118
-377.888	123.215	0.212	0.262
-376.873	800.000	-0.085	0.267
-375.858	519.128	0.061	-0.141
-374.844	-80.019	0.217	-0.072
-373.829	106.156	0.099	-0.116
-372.815	37.244	-0.182	-0.159
-371.800	-106.091	0.210	-0.047
-370.785	800.000	0.049	-0.142
-369.771	-141.319	-0.133	0.013
-368.756	800.000	-0.063	-0.190
-367.742	306.836	-0.090	0.166
-366.727	-200.000	-0.003	0.134
-365.712	-177.388	-0.158	0.004
-364.698	26.611	0.174	0.144
-363.683	5.709	-0.191	-0.140
-362.669	-172.749	0.083	-0.003
-361.654	-161.434	0.236	-0.012
-360.639	800.000	-0.040	0.117
-359.625	-200.000	0.009	0.187
-358.610	275.391	-0.223	-0.391
-357.596	-137.353	0.160	-0.018
-356.581	-200.000	0.003	-0.027
-355.566	62.622	0.227	0.224
-354.552	291.584	0.028	-0.050
-353.537	-200.000	0.046	-0.384
-352.523	362.426	0.081	0.161
-351.508	-200.000	0.010	-0.213
-350.493	-18.361	0.094	-0.058
-349.479	119.741	0.118	-0.145
-348.464	-84.864	-0.124	0.039
-347.450	-154.769	-0.297	0.019
-346.435	-106.412	0.077	-0.017
-345.420	-200.000	0.046	0.223
-344.406	-200.000	-0.043	-0.294
-343.391	-131.610	-0.163	0.021
-342.377	-200.000	-0.011	0.263
-341.362	49.578	-0.156	0.145
-340.348	-130.112	0.067	0.009
-339.333	121.534	-0.252	-0.310
-338.318	66.566	-0.177	-0.178
-337.304	-10.898	-0.209	0.136
-336.289	-135.096	-0.123	-0.015
-335.275	-110.436	0.107	0.022
-334.260	97.682	-0.237	-0.269
-333.245	-200.000	0.051	-0.222
-332.231	248.540	0.139	-0.232
-331.216	105.207	-0.056	-0.065
-330.202	-94.674	0.160	-0.043
-329.187	36.743	-0.091	-0.080
-328.172	21.373	-0.251	-0.202
-327.158	20.962	0.136	-0.109
-326.143	-165.909	0.194	-0.008
-325.129	46.799	-0.044	-0.040
-324.114	-48.368	0.531	0.252
-323.099	800.000	-0.069	0.196
-322.085	357.622	0.047	-0.092
-321.070	800.000	-0.059	-0.164
-320.056	129.969	-0.124	0.157
-319.041	76.982	0.146	0.153
-318.026	288.137	0.066	-0.117
-317.012	5.032	-0.348	0.253
-315.997	169.400	0.057	0.081
-314.983	-113.439	-0.189	-0.037
-313.968	-200.000	0.009	0.099
-312.953	63.628	-0.328	0.324
-311.939	51.054	-0.217	0.203
-310.924	143.648	-0.138	-0.182
-309.910	-200.000	-0.062	0.418
-308.895	-86.327	0.275	0.083
-307.880	-117.028	-0.042	0.008
-306.866	-144.433	-0.071	0.007
-305.851	-125.358	0.262	-0.039
-304.837	800.000	0.039	0.141
-303.822	85.801	0.154	0.167
-302.807	-200.000	-0.034	0.168
-301.793	-2.712	-0.118	-0.082
-300.778	22.714	-0.129	0.104
-299.764	309.705	-0.103	0.190
-298.749	-137.922	0.327	-0.036
-297.735	105.926	-0.202	0.236
-296.720	-155.734	0.298	0.019
-295.705	-26.639	-0.563	0.325
-294.691	-78.298	0.369	0.125
-293.676	-89.605	-0.327	-0.095
-292.662	-110.042	-0.288	0.059
-291.647	-13.785	-0.273	0.174
-290.632	-200.000	-0.010	0.357
-289.618	176.316	-0.055	-0.079
-288.603	-175.382	0.258	0.007
-287.589	65.782	0.023	0.023
-286.574	-45.446	-0.077	0.038
-285.559	800.000	-0.036	-0.111
-284.545	800.000	0.041	-0.138
-283.530	708.974	0.047	0.122
-282.516	-200.000	-0.041	0.190
-281.501	14.621	0.196	-0.151
-280.486	-56.224	-0.233	0.102
-279.472	-60.134	-0.048	0.020
-278.457	-200.000	0.010	0.069
-277.443	-121.652	0.322	0.053
-276.428	-200.000	0.010	-0.281
-275.413	441.293	0.039	-0.085
-274.399	63.755	0.134	-0.132
-273.384	16.193	-0.270	-0.210
-272.370	228.950	-0.066	-0.107
-271.355	2.560	-0.024	-0.017
-270.340	30.950	-0.188	0.159
-269.326	138.298	-0.056	0.073
-268.311	-75.429	0.105	0.037
-267.297	52.728	0.254	-0.240
-266.282	409.897	0.114	0.239
-265.267	-41.249	0.308	-0.157
-264.253	290.656	0.103	-0.184
-263.238	773.741	-0.063	0.171
-262.224	-127.874	-0.103	0.015
-261.209	800.000	-0.019	0.067
-260.195	-162.024	-0.308	0.015
-259.180	40.447	0.052	0.047
-258.165	-160.060	-0.185	0.010
-257.151	-23.649	-0.216	0.128
-256.136	-93.230	-0.088	-0.024
-255.122	-58.491	0.215	0.092
-254.107	333.070	-0.171	0.325
-253.092	-200.000	-0.108	-0.511
-252.078	198.388	0.046	0.069
-251.063	-68.430	-0.208	-0.079
-250.049	332.259	0.065	-0.123
-249.034	-54.806	0.130	0.058
-248.019	33.766	-0.155	0.133
-247.005	800.000	0.014	-0.048
-245.990	-200.000	-0.206	0.001
-244.976	97.768	-0.253	0.287
-243.961	-137.845	0.141	0.016
-242.946	-55.384	0.268	-0.119
-241.932	-200.000	-0.019	0.393
-240.917	-77.147	-0.298	0.102
-239.903	394.626	-0.082	-0.168
-238.888	-200.000	0.023	-0.291
-237.873	800.000	-0.035	0.145
-236.859	-200.000	-0.045	-0.288
-235.844	800.000	0.054	0.179
-234.830	-200.000	0.024	-0.232
-233.815	-130.856	0.160	0.021
-232.800	800.000	0.073	0.227
-231.786	-51.518	-0.227	0.104
-230.771	761.506	-0.061	-0.163
-229.757	496.555	-0.068	0.153
-228.742	800.000	0.049	0.169
-227.727	482.722	0.074	-0.166
-226.713	116.341	0.013	0.016
-225.698	-109.271	0.100	0.021
-224.684	-200.000	0.015	-0.084
-223.669	-151.215	0.175	0.013
-222.655	-200.000	0.033	0.159
-221.640	125.032	0.069	-0.085
-220.625	-200.000	0.031	0.228
-219.611	-140.461	-0.298	0.031
-218.596	-200.000	0.035	0.170
-217.582	-151.568	-0.172	-0.012
-216.567	231.508	0.092	-0.148
-215.552	-200.000	0.031	-0.162
-214.538	51.413	-0.020	-0.018
-213.523	-90.850	-0.302	0.086
-212.509	-200.000	-0.084	0.459
-211.494	168.554	-0.040	0.056
-210.479	-75.052	0.128	-0.045
-209.465	65.806	0.048	-0.048
-208.450	800.000	-0.055	0.170
-207.436	12.943	-0.333	-0.253
-206.421	218.653	-0.013	-0.020
-205.406	-25.006	-0.356	0.207
-204.392	-8.378	0.236	-0.156
-203.377	-200.000	0.011	0.247
-202.363	87.842	0.165	0.180
-201.348	-16.283	0.383	0.239
-200.333	-125.851	-0.192	0.028
-199.319	-200.000	-0.006	-0.071
-198.304	-114.004	0.198	0.038
-197.290	110.060	0.349	0.411
-196.275	-32.203	-0.032	-0.018
-195.260	-200.000	0.075	-0.368
-194.246	35.635	-0.122	-0.105
-193.231	242.912	0.188	0.310
-192.217	-46.031	0.174	-0.084
-191.202	-22.184	-0.133	-0.079
-190.187	-145.130	-0.224	0.020
-189.173	17.109	0.098	-0.076
-188.158	-200.000	0.015	0.103
-187.144	-55.162	0.379	-0.167
-186.129	-63.168	0.290	0.118
-185.114	-200.000	0.003	0.083
-184.100	800.000	-0.159	-0.476
-183.085	-120.652	0.170	-0.028
-182.071	291.155	-0.118	0.210
-181.056	707.264	-0.058	-0.150
-180.042	-165.192	-0.150	0.006
-179.027	37.120	-0.040	-0.035
-178.012	-200.000	-0.101	-0.455
-176.998	-102.857	0.187	-0.044
-175.983	64.021	0.065	-0.065
-174.969	-34.408	0.163	0.087
-173.954	141.696	-0.015	0.019
-172.939	-75.945	-0.093	0.032
-171.925	142.575	0.144	0.187
-170.910	-200.000	-0.036	0.242
-169.896	-200.000	-0.008	0.140
-168.881	-79.961	0.194	-0.064
-167.866	-103.972	-0.137	-0.031
-166.852	-200.000	-0.012	-0.324
-165.837	-118.883	0.235	0.040
-164.823	239.474	-0.248	0.404
-163.808	177.364	0.011	0.015
-162.793	80.041	0.208	0.219
-161.779	68.046	0.090	-0.090
-160.764	800.000	-0.043	-0.146
-159.750	-34.777	-0.089	-0.048
-158.735	52.343	-0.112	0.105
-157.720	-200.000	-0.006	0.226
-156.706	-19.138	-0.096	-0.059
-155.691	58.033	0.085	-0.082
-154.677	-149.155	0.212	-0.017
-153.662	-157.991	-0.219	-0.013
-152.647	-143.631	0.092	0.009
-151.633	18.476	-0.158	-0.123
-150.618	44.758	0.189	-0.171
-149.604	781.666	0.099	-0.266
-148.589	-200.000	-0.010	0.086
-147.574	800.000	-0.065	-0.195
-146.560	800.000	0.103	0.292
-145.545	-200.000	0.003	0.090
-144.531	5.659	-0.135	-0.098
-143.516	-58.672	0.140	-0.060
-142.502	46.147	0.100	-0.091
-141.487	-6.885	-0.125	-0.083
-140.472	226.152	-0.074	-0.118
-139.458	135.740	0.142	0.182
-138.443	88.910	-0.176	0.192
-137.429	-200.000	0.063	0.422
-136.414	-123.211	-0.058	-0.009
-135.399	-200.000	-0.018	0.196
-134.385	382.811	0.071	0.142
-133.370	49.592	-0.190	0.176
-132.356	-95.275	-0.321	-0.085
-131.341	-123.068	0.234	0.037
-130.326	92.010	-0.054	-0.060
-129.312	-74.103	0.126	-0.045
-128.297	-170.825	-0.277	0.009
-127.283	65.360	-0.160	-0.159
-126.268	-80.320	-0.276	-0.090
-125.253	-99.128	-0.160	-0.040
-124.239	-200.000	-0.024	0.203
-123.224	32.963	-0.246	0.208
-122.210	800.000	-0.195	0.541
