DTS Sentinel unit serial number:	SN413079Multiplexer serial number:	ORYXHardware model number:	OX4-SRSoftware version number:	ORYX F/W v4.00 Oryx Data Collector v3.7.2.0data status	okinstallation	princeton_trtdifferential loss correction	single-endedforward channel	channel 3reverse channel	N/Adate	2019/09/12time	11:18:11forward acquisition time	60.00reverse acquisition time	0.00gamma	496.2192k internal	0.2295k external	0.2295temperature offset calibration	1.0037default loss term (dB/km)	0.3790temperature slope calibration	1.0000multiplexer offset coefficient	1.0000multiplexer slope coefficient	1.0000fibre end	0.00T internal ref (°C)	39.00T ext. ref 1 (°C)	1.96T ext. ref 2 (°C)	36.35length (m)	temperature (°C)	Stokes	anti-Stokes-747.200	-64.747	-0.120	0.050
-746.185	12.316	-0.151	0.119
-745.171	-200.000	0.052	0.386
-744.156	-138.059	0.433	-0.049
-743.142	-42.139	-0.172	-0.090
-742.127	800.000	0.044	0.190
-741.112	514.348	0.031	-0.074
-740.098	-200.000	0.144	0.743
-739.083	-200.000	-0.045	0.359
-738.069	-200.000	0.060	0.304
-737.054	-133.744	0.111	0.014
-736.039	347.555	0.079	-0.160
-735.025	-92.019	-0.209	0.060
-734.010	407.640	-0.080	0.173
-732.996	-56.419	-0.076	-0.034
-731.981	-145.941	-0.180	-0.016
-730.966	-147.421	0.085	-0.007
-729.952	800.000	-0.065	-0.219
-728.937	126.633	-0.027	0.035
-727.923	-113.028	-0.141	-0.028
-726.908	-200.000	0.008	-0.037
-725.894	449.666	0.250	0.563
-724.879	-68.633	-0.411	-0.162
-723.864	-64.673	0.248	0.103
-722.850	-198.399	-0.085	-0.000
-721.835	-88.459	0.170	0.052
-720.821	-0.940	0.205	-0.148
-719.806	63.201	0.120	-0.122
-718.791	571.383	0.071	-0.177
-717.777	74.065	0.038	0.041
-716.762	-200.000	0.014	-0.192
-715.748	800.000	-0.111	-0.321
-714.733	-156.524	0.560	0.036
-713.718	128.888	-0.088	-0.114
-712.704	122.773	0.070	-0.089
-711.689	800.000	-0.058	-0.207
-710.675	-200.000	-0.003	0.152
-709.660	-200.000	-0.053	-0.310
-708.645	-67.299	0.336	-0.135
-707.631	357.212	0.115	0.234
-706.616	140.717	-0.154	-0.208
-705.602	486.218	0.088	-0.205
-704.587	97.435	-0.089	-0.104
-703.572	-100.777	0.403	0.101
-702.558	101.783	0.160	0.190
-701.543	117.451	-0.094	-0.118
-700.529	800.000	-0.030	0.107
-699.514	35.398	0.155	-0.138
-698.499	-200.000	0.015	0.209
-697.485	275.689	-0.066	0.120
-696.470	800.000	0.044	-0.165
-695.456	156.165	0.082	0.116
-694.441	207.768	0.184	-0.293
-693.426	-200.000	0.003	0.014
-692.412	-111.061	-0.159	-0.033
-691.397	201.907	-0.102	-0.160
-690.383	-84.725	-0.276	-0.089
-689.368	219.199	0.222	0.362
-688.354	-200.000	-0.019	-0.358
-687.339	66.208	-0.068	0.070
-686.324	107.748	-0.225	-0.273
-685.310	138.972	-0.072	-0.096
-684.295	-200.000	0.043	-0.244
-683.281	-200.000	0.028	-0.131
-682.266	87.788	0.076	0.086
-681.251	595.895	0.120	0.304
-680.237	800.000	-0.098	0.320
-679.222	-6.679	0.316	0.219
-678.208	-136.780	0.136	0.016
-677.193	83.208	-0.095	0.105
-676.178	-43.978	0.083	-0.043
-675.164	120.552	-0.206	-0.261
-674.149	800.000	0.050	-0.198
-673.135	46.366	0.067	0.063
-672.120	-200.000	0.036	0.254
-671.105	32.050	0.296	0.260
-670.091	163.744	0.085	0.121
-669.076	91.473	0.113	-0.130
-668.062	-122.400	-0.297	0.049
-667.047	-105.403	-0.151	0.035
-666.032	-200.000	-0.005	0.235
-665.018	40.344	0.099	-0.090
-664.003	800.000	-0.032	0.126
-662.989	-90.298	-0.208	0.061
-661.974	-200.000	0.037	0.211
-660.959	490.937	-0.067	0.157
-659.945	610.001	0.032	-0.082
-658.930	4.502	0.219	-0.164
-657.916	24.645	-0.088	-0.074
-656.901	84.372	-0.107	0.119
-655.886	-20.828	-0.141	-0.088
-654.872	-200.000	-0.016	-0.312
-653.857	800.000	-0.010	0.041
-652.843	91.648	0.001	0.002
-651.828	218.846	0.121	0.198
-650.814	133.789	0.085	0.111
-649.799	553.898	0.091	0.223
-648.784	-134.202	-0.233	-0.029
-647.770	-200.000	-0.026	-0.175
-646.755	130.840	-0.191	-0.250
-645.741	-200.000	-0.029	0.172
-644.726	-0.206	-0.207	-0.150
-643.711	-200.000	-0.021	-0.147
-642.697	-4.885	0.236	-0.165
-641.682	-35.950	-0.076	0.042
-640.668	-22.987	0.137	-0.084
-639.653	118.643	-0.053	0.066
-638.638	800.000	-0.038	0.116
-637.624	-91.715	-0.207	0.060
-636.609	-200.000	0.110	-0.559
-635.595	-200.000	-0.044	-0.228
-634.580	-28.444	0.293	-0.172
-633.565	103.642	0.143	-0.171
-632.551	-200.000	0.074	-0.349
-631.536	-84.763	0.197	0.063
-630.522	64.420	-0.152	-0.156
-629.507	35.202	-0.249	-0.222
-628.492	332.122	0.234	-0.460
-627.478	0.629	0.210	-0.153
-626.463	-151.857	0.088	0.007
-625.449	8.179	0.159	-0.122
-624.434	37.391	-0.174	-0.157
-623.419	-200.000	-0.007	0.188
-622.405	139.451	0.119	-0.160
-621.390	-114.728	-0.196	0.038
-620.376	789.111	0.041	0.116
-619.361	-56.399	0.092	-0.042
-618.346	170.254	-0.066	0.095
-617.332	-11.817	-0.127	0.085
-616.317	318.621	0.058	0.111
-615.303	-147.321	-0.243	-0.021
-614.288	70.137	-0.060	0.063
-613.273	-200.000	0.084	0.434
-612.259	800.000	-0.026	0.085
-611.244	-78.200	-0.186	0.065
-610.230	-20.144	-0.106	-0.067
-609.215	9.385	-0.131	-0.101
-608.201	330.436	0.127	-0.249
-607.186	-15.340	0.090	-0.059
-606.171	-10.261	-0.101	-0.068
-605.157	72.964	-0.151	-0.161
-604.142	-73.104	-0.261	-0.097
-603.128	-77.902	-0.310	-0.109
-602.113	151.104	-0.042	-0.058
-601.098	-200.000	-0.054	-0.240
-600.084	-200.000	-0.004	0.049
-599.069	717.687	0.078	0.210
-598.055	4.684	-0.226	0.168
-597.040	800.000	0.040	0.166
-596.025	69.593	-0.018	-0.019
-595.011	39.783	-0.357	0.326
-593.996	800.000	-0.050	0.170
-592.982	800.000	-0.119	-0.392
-591.967	457.561	0.062	-0.139
-590.952	153.928	-0.087	0.121
-589.938	-117.566	0.035	0.006
-588.923	-200.000	0.002	0.181
-587.909	-130.751	0.063	0.009
-586.894	237.717	0.164	-0.277
-585.879	425.852	0.026	0.057
-584.865	-191.301	-0.277	-0.003
-583.850	453.647	-0.095	0.214
-582.836	4.993	0.260	-0.194
-581.821	-125.795	-0.040	0.006
-580.806	401.474	-0.018	0.039
-579.792	-200.000	0.006	-0.107
-578.777	800.000	0.040	0.139
-577.763	-162.903	0.303	-0.015
-576.748	-60.746	0.196	0.084
-575.733	-111.855	-0.213	0.044
-574.719	157.803	0.040	-0.057
-573.704	97.191	0.091	-0.107
-572.690	131.647	0.113	-0.147
-571.675	-141.950	-0.431	0.044
-570.661	-68.221	-0.180	-0.071
-569.646	-136.171	-0.114	-0.014
-568.631	-34.044	-0.183	0.102
-567.617	-126.139	-0.103	0.016
-566.602	-124.450	-0.357	0.056
-565.588	42.438	0.321	0.296
-564.573	-17.774	-0.173	0.110
-563.558	800.000	0.058	0.212
-562.544	-103.885	-0.306	-0.072
-561.529	-200.000	-0.069	-0.327
-560.515	93.021	0.203	0.233
-559.500	-90.959	-0.215	0.063
-558.485	-200.000	0.008	0.191
-557.471	104.169	-0.116	0.138
-556.456	-8.783	-0.425	-0.289
-555.442	32.263	-0.156	-0.137
-554.427	88.858	-0.037	-0.042
-553.412	12.100	-0.129	0.101
-552.398	800.000	-0.058	0.165
-551.383	-119.921	0.269	-0.047
-550.369	80.832	-0.035	-0.038
-549.354	0.135	0.237	-0.172
-548.339	194.594	0.240	-0.370
-547.325	-147.144	-0.344	-0.030
-546.310	-28.380	-0.114	-0.066
-545.296	800.000	0.088	0.377
-544.281	-165.069	0.183	0.008
-543.266	20.709	0.406	0.334
-542.252	173.932	0.244	0.357
-541.237	-57.323	-0.150	-0.067
-540.223	-18.379	-0.096	-0.061
-539.208	-200.000	-0.059	-0.326
-538.193	-82.574	-0.237	0.078
-537.179	75.397	-0.177	0.189
-536.164	-79.825	0.077	0.026
-535.150	-19.120	-0.181	0.114
-534.135	-200.000	-0.024	0.213
-533.121	202.700	0.038	0.060
-532.106	14.815	0.194	-0.154
-531.091	-133.339	-0.230	0.029
-530.077	71.426	0.238	-0.250
-529.062	-47.439	-0.149	0.073
-528.048	24.451	0.232	0.194
-527.033	-8.730	0.063	0.043
-526.018	139.610	0.163	0.218
-525.004	-73.462	-0.166	0.061
-523.989	277.832	0.228	0.411
-522.975	-144.630	-0.288	0.027
-521.960	-65.979	-0.295	-0.119
-520.945	-127.391	-0.201	-0.030
-519.931	-45.439	-0.204	0.103
-518.916	-128.415	0.190	-0.027
-517.902	71.383	-0.084	-0.089
-516.887	-57.924	0.150	0.066
-515.872	314.371	0.058	-0.111
-514.858	-3.295	-0.133	-0.094
-513.843	504.335	0.181	0.424
-512.829	-88.199	-0.062	-0.019
-511.814	-59.193	-0.178	-0.078
-510.799	147.805	0.107	0.146
-509.785	344.010	0.118	-0.235
-508.770	-200.000	0.039	0.273
-507.756	800.000	-0.109	-0.346
-506.741	-200.000	-0.011	-0.172
-505.726	4.784	-0.108	0.080
-504.712	85.902	-0.336	0.375
-503.697	-200.000	-0.018	-0.127
-502.683	-12.184	0.045	-0.030
-501.668	800.000	-0.050	0.147
-500.653	-3.441	-0.079	0.056
-499.639	21.012	0.040	-0.033
-498.624	42.281	0.199	0.183
-497.610	125.581	-0.029	0.037
-496.595	-20.808	-0.241	0.150
-495.581	-99.625	-0.177	0.045
-494.566	-200.000	-0.003	-0.208
-493.551	-200.000	0.392	0.002
-492.537	-85.057	0.104	0.033
-491.522	-138.996	-0.072	-0.008
-490.508	-45.516	-0.436	0.218
-489.493	-200.000	-0.009	0.102
-488.478	-137.971	0.108	0.012
-487.464	-58.285	-0.022	-0.010
-486.449	-156.429	-0.090	0.006
-485.435	-150.178	0.168	0.013
-484.420	170.419	-0.164	0.238
-483.405	-87.670	0.122	0.037
-482.391	90.319	-0.126	0.143
-481.376	170.662	0.207	0.300
-480.362	3.475	0.332	-0.245
-479.347	-200.000	-0.010	-0.072
-478.332	800.000	-0.110	-0.436
-477.318	104.439	0.083	0.099
-476.303	-54.748	-0.102	-0.047
-475.289	-200.000	-0.084	-0.372
-474.274	457.263	0.087	0.197
-473.259	179.641	-0.137	0.203
-472.245	72.891	0.319	-0.337
-471.230	97.745	0.235	-0.273
-470.216	-200.000	-0.016	0.078
-469.201	-86.748	0.201	-0.062
-468.186	-121.554	-0.056	0.009
-467.172	-200.000	-0.046	-0.208
-466.157	-200.000	0.011	-0.358
-465.143	-123.502	-0.240	-0.039
-464.128	39.920	-0.200	-0.181
-463.113	800.000	-0.022	-0.081
-462.099	-119.196	-0.448	0.079
-461.084	800.000	0.091	0.255
-460.070	-134.261	0.194	0.024
-459.055	-193.373	0.174	-0.002
-458.040	-100.146	-0.221	0.056
-457.026	434.016	-0.053	0.117
-456.011	-182.031	-0.409	-0.008
-454.997	386.080	-0.098	-0.205
-453.982	-65.928	0.243	0.098
-452.968	-30.018	0.200	0.115
-451.953	-55.255	-0.361	0.164
-450.938	-200.000	0.028	-0.182
-449.924	800.000	-0.060	0.198
-448.909	-200.000	-0.036	-0.447
-447.895	80.946	0.177	0.193
-446.880	223.315	-0.049	0.079
-445.865	59.655	-0.141	-0.141
-444.851	91.563	0.085	0.097
-443.836	38.169	0.174	-0.156
-442.822	315.214	0.048	0.091
-441.807	58.417	0.247	-0.245
-440.792	-72.321	-0.043	0.016
-439.778	311.665	-0.089	0.169
-438.763	-71.032	0.123	0.047
-437.749	-200.000	-0.005	-0.037
-436.734	10.835	0.174	0.134
-435.719	-91.488	-0.413	0.119
-434.705	701.143	0.200	-0.533
-433.690	-21.497	-0.205	-0.126
-432.676	-77.457	-0.110	-0.038
-431.661	-80.746	-0.176	0.059
-430.646	-200.000	-0.027	0.192
-429.632	483.462	0.182	0.417
-428.617	-5.714	-0.282	-0.195
-427.603	137.670	-0.196	-0.259
-426.588	16.611	0.176	0.140
-425.573	30.543	-0.127	-0.110
-424.559	186.202	-0.011	-0.017
-423.544	-200.000	0.024	0.169
-422.530	23.686	-0.228	0.189
-421.515	91.541	0.105	-0.119
-420.500	470.057	0.037	-0.084
-419.486	-200.000	0.012	0.225
-418.471	-193.021	0.498	-0.005
-417.457	-97.805	-0.126	0.033
-416.442	112.654	0.129	0.158
-415.428	64.952	-0.238	0.242
-414.413	-104.901	0.282	-0.065
-413.398	-91.072	0.140	-0.041
-412.384	395.569	-0.119	-0.250
-411.369	-7.872	-0.430	0.293
-410.355	-160.785	0.146	0.008
-409.340	-39.059	0.383	-0.203
-408.325	-55.225	0.194	0.088
-407.311	82.177	-0.121	0.132
-406.296	120.858	-0.160	-0.201
-405.282	-40.398	0.272	-0.142
-404.267	800.000	0.022	0.078
-403.252	-72.013	0.241	0.091
-402.238	-46.887	0.192	-0.095
-401.223	290.120	0.126	0.231
-400.209	800.000	0.076	0.310
-399.194	-192.272	0.290	-0.003
-398.179	-186.824	-0.396	0.006
-397.165	-82.116	-0.201	-0.066
-396.150	800.000	0.094	0.379
-395.136	24.084	0.175	0.145
-394.121	-53.200	0.265	-0.123
-393.106	-200.000	0.003	0.107
-392.092	-106.454	-0.066	0.015
-391.077	-136.777	0.160	0.019
-390.063	-57.574	-0.111	-0.049
-389.048	256.825	0.153	-0.264
-388.033	214.101	0.017	-0.028
-387.019	498.734	-0.108	-0.251
-386.004	-82.697	0.144	-0.047
-384.990	49.112	-0.112	-0.106
-383.975	-97.843	-0.133	0.035
-382.960	-200.000	-0.010	-0.062
-381.946	-17.654	0.119	0.075
-380.931	800.000	-0.015	-0.061
-379.917	-200.000	-0.029	0.255
-378.902	800.000	-0.073	-0.317
-377.888	-200.000	-0.003	-0.354
-376.873	-55.432	0.389	-0.176
-375.858	189.562	-0.137	-0.206
-374.844	34.536	0.156	-0.137
-373.829	430.024	-0.039	-0.085
-372.815	-106.392	-0.121	-0.027
-371.800	372.130	-0.049	-0.100
-370.785	-32.644	0.134	0.075
-369.771	253.156	0.119	-0.204
-368.756	24.042	0.372	-0.309
-367.742	-174.115	-0.496	-0.015
-366.727	216.904	-0.014	-0.022
-365.712	-200.000	0.025	0.262
-364.698	68.060	-0.057	-0.059
-363.683	-55.600	0.144	-0.065
-362.669	-200.000	0.010	0.156
-361.654	-88.559	0.127	-0.038
-360.639	-23.049	-0.303	-0.184
-359.625	154.801	-0.078	-0.108
-358.610	57.898	0.159	0.156
-357.596	-7.469	0.085	0.058
-356.581	382.843	0.011	0.023
-355.566	39.045	-0.206	-0.185
-354.552	-122.891	-0.201	-0.033
-353.537	800.000	0.094	0.370
-352.523	75.410	-0.071	-0.075
-351.508	-200.000	0.027	-0.183
-350.493	-200.000	0.026	0.194
-349.479	72.264	0.183	-0.192
-348.464	-15.628	-0.267	0.171
-347.450	-127.758	-0.277	-0.040
-346.435	6.703	0.165	-0.124
-345.420	-66.374	0.315	0.126
-344.406	-120.172	0.465	0.080
-343.391	5.660	-0.175	-0.130
-342.377	120.654	0.106	-0.133
-341.362	179.713	0.089	-0.132
-340.348	800.000	-0.059	-0.215
-339.333	-200.000	0.058	-0.306
-338.318	-11.588	-0.160	-0.106
-337.304	-39.468	-0.151	-0.080
-336.289	148.153	0.294	0.399
-335.275	30.550	-0.153	0.132
-334.260	800.000	0.013	0.040
-333.245	451.065	0.068	0.150
-332.231	57.880	0.068	-0.067
-331.216	-200.000	-0.010	0.066
-330.202	-108.853	0.244	0.053
-329.187	-48.763	-0.186	-0.090
-328.172	-10.504	-0.238	-0.159
-327.158	-200.000	-0.002	0.175
-326.143	232.394	-0.104	0.172
-325.129	767.457	-0.054	-0.147
-324.114	-200.000	-0.065	0.383
-323.099	-200.000	-0.058	0.372
-322.085	-200.000	0.022	0.100
-321.070	125.573	0.136	0.173
-320.056	-200.000	-0.075	-0.460
-319.041	800.000	-0.218	0.689
-318.026	-50.986	0.107	0.050
-317.012	47.145	0.111	-0.104
-315.997	800.000	0.028	-0.103
-314.983	99.835	-0.180	-0.209
-313.968	-124.435	0.187	-0.029
-312.953	361.736	0.084	-0.170
-311.939	-200.000	0.025	-0.158
-310.924	441.350	-0.110	0.242
-309.910	800.000	-0.008	0.023
-308.895	-137.548	-0.074	-0.008
-307.880	-33.019	-0.351	-0.196
-306.866	-141.733	0.161	0.016
-305.851	231.088	-0.126	0.208
-304.837	444.922	0.067	-0.147
-303.822	-129.308	0.226	-0.032
-302.807	95.859	-0.091	0.105
-301.793	210.828	-0.208	0.328
-300.778	-7.390	0.066	0.045
-299.764	-200.000	0.002	0.059
-298.749	-24.413	0.133	0.080
-297.735	-65.185	0.298	0.121
-296.720	-166.295	-0.132	0.006
-295.705	108.597	-0.026	-0.031
-294.691	-38.351	-0.041	-0.022
-293.676	-110.322	-0.244	0.051
-292.662	800.000	0.092	-0.313
-291.647	128.386	-0.122	0.156
-290.632	-81.221	0.328	-0.109
-289.618	-186.411	-0.079	-0.001
-288.603	-2.187	-0.129	-0.091
-287.589	215.537	-0.096	0.152
-286.574	800.000	-0.022	0.092
-285.559	-84.417	-0.342	-0.108
-284.545	-33.250	-0.252	0.140
-283.530	542.352	-0.036	0.086
-282.516	-171.873	0.088	-0.003
-281.501	143.956	-0.066	0.088
-280.486	-136.324	-0.395	-0.046
-279.472	-104.829	-0.191	-0.044
-278.457	257.098	-0.023	0.040
-277.443	-114.878	0.116	-0.022
-276.428	58.199	-0.160	-0.157
-275.413	177.799	-0.093	0.136
-274.399	323.664	-0.197	-0.378
-273.384	-161.018	0.411	-0.022
-272.370	-166.306	-0.198	-0.008
-271.355	445.392	0.056	-0.123
-270.340	97.105	-0.158	-0.181
-269.326	263.352	0.075	0.131
-268.311	-200.000	-0.014	-0.352
-267.297	-200.000	-0.041	-0.221
-266.282	321.653	0.128	0.244
-265.267	2.923	-0.266	0.194
-264.253	23.088	-0.186	-0.153
-263.238	674.687	-0.069	-0.180
-262.224	-200.000	0.030	-0.152
-261.209	-194.121	0.049	-0.000
-260.195	43.640	-0.238	0.219
-259.180	-31.342	0.347	0.196
-258.165	-39.081	0.173	-0.091
-257.151	-1.343	0.099	-0.070
-256.136	-200.000	0.014	-0.214
-255.122	265.763	-0.077	0.134
-254.107	189.121	0.052	-0.078
-253.092	10.271	-0.090	-0.068
-252.078	115.150	0.183	0.224
-251.063	800.000	0.017	0.067
-250.049	-119.263	-0.205	0.036
-249.034	338.121	-0.053	0.104
-248.019	-17.403	0.250	0.158
-247.005	-6.134	-0.206	0.141
-245.990	107.500	-0.263	0.314
-244.976	2.073	0.299	0.217
-243.961	5.991	-0.043	0.032
-242.946	800.000	-0.049	-0.136
-241.932	80.342	0.056	-0.060
-240.917	-31.217	0.068	-0.039
-239.903	687.297	0.140	0.367
-238.888	95.008	0.095	0.109
-237.873	200.579	0.119	0.184
-236.859	-164.457	0.262	-0.012
-235.844	800.000	-0.030	-0.120
-234.830	114.151	-0.087	0.107
-233.815	-200.000	-0.005	-0.072
-232.800	-14.934	0.170	0.109
-231.786	-27.597	0.233	0.136
-230.771	-159.525	0.324	-0.018
-229.757	14.170	0.040	-0.031
-228.742	-200.000	0.004	-0.560
-227.727	282.494	0.142	-0.256
-226.713	800.000	-0.052	-0.207
-225.698	93.991	0.151	-0.172
-224.684	-158.956	-0.148	-0.008
-223.669	-200.000	0.012	-0.155
-222.655	-200.000	0.012	0.068
-221.640	137.575	0.045	0.059
-220.625	-55.333	0.187	0.084
-219.611	56.862	0.122	0.119
-218.596	-200.000	-0.019	-0.193
-217.582	71.698	0.157	0.163
-216.567	-90.266	0.199	0.058
-215.552	38.821	0.089	-0.079
-214.538	137.979	0.101	-0.133
-213.523	733.703	-0.087	0.234
-212.509	-200.000	0.033	0.149
-211.494	800.000	0.034	0.121
-210.479	194.756	0.070	-0.106
-209.465	-200.000	-0.002	0.150
-208.450	-200.000	0.001	-0.372
-207.436	11.232	-0.049	0.038
-206.421	372.039	-0.072	-0.147
-205.406	-200.000	-0.029	-0.157
-204.392	-25.885	0.046	0.027
-203.377	-200.000	-0.059	-0.286
-202.363	128.545	0.201	-0.257
-201.348	-157.406	0.240	-0.014
-200.333	-104.625	-0.131	0.030
-199.319	435.758	-0.052	0.114
-198.304	-15.514	0.335	-0.214
-197.290	65.451	-0.054	0.054
-196.275	-200.000	-0.000	0.206
-195.260	-200.000	0.031	-0.160
-194.246	-200.000	-0.003	0.191
-193.231	694.317	0.038	-0.100
-192.217	-163.045	0.223	-0.011
-191.202	18.483	-0.041	-0.032
-190.187	-47.952	-0.159	0.077
-189.173	-99.219	0.200	0.051
-188.158	-104.866	0.430	-0.099
-187.144	-200.000	0.002	-0.079
-186.129	-84.619	-0.193	-0.061
-185.114	800.000	0.063	-0.229
-184.100	800.000	-0.091	0.356
-183.085	-63.375	-0.237	0.097
-182.071	800.000	-0.057	-0.200
-181.056	-200.000	-0.034	-0.353
-180.042	-146.807	0.386	0.033
-179.027	-63.548	-0.093	0.038
-178.012	-70.686	0.133	-0.050
-176.998	57.952	0.174	0.171
-175.983	-21.766	-0.104	0.063
-174.969	-200.000	-0.047	0.321
-173.954	108.986	0.235	0.281
-172.939	-200.000	-0.001	-0.046
-171.925	-75.806	0.174	0.062
-170.910	-49.881	0.113	-0.054
-169.896	22.577	-0.100	-0.081
-168.881	-159.885	0.291	0.016
-167.866	-55.604	-0.025	-0.011
-166.852	-200.000	-0.002	0.254
-165.837	-135.503	0.351	-0.042
-164.823	-57.565	0.190	0.083
-163.808	100.885	0.047	-0.054
-162.793	-200.000	0.080	0.415
-161.779	-200.000	-0.024	0.393
-160.764	-6.060	-0.258	0.176
-159.750	72.613	0.110	0.115
-158.735	259.944	-0.037	0.064
-157.720	-54.851	0.333	0.150
-156.706	101.847	0.108	0.126
-155.691	121.395	0.147	-0.183
-154.677	3.966	0.030	0.022
-153.662	-59.751	-0.209	-0.089
-152.647	800.000	-0.105	-0.306
-151.633	570.664	-0.149	0.363
-150.618	77.860	0.117	-0.124
-149.604	687.066	-0.075	-0.197
-148.589	-200.000	0.009	0.109
-147.574	-200.000	0.014	0.215
-146.560	33.466	-0.191	0.166
-145.545	-200.000	-0.008	-0.101
-144.531	-200.000	0.048	0.212
-143.516	-105.044	0.119	-0.027
-142.502	37.331	0.292	0.258
-141.487	-62.398	-0.126	-0.052
-140.472	-61.824	0.387	0.162
-139.458	-116.007	-0.166	-0.031
-138.443	-200.000	-0.036	-0.322
-137.429	-200.000	-0.027	0.122
-136.414	800.000	0.039	0.159
-135.399	-66.382	-0.295	-0.117
-134.385	46.414	0.120	0.111
-133.370	321.992	0.117	0.223
-132.356	-119.896	0.287	-0.049
-131.341	161.540	0.065	0.090
-130.326	59.380	0.276	-0.271
-129.312	-69.756	0.388	-0.148
-128.297	-152.392	0.479	0.034
-127.283	800.000	0.066	0.189
-126.268	-40.004	0.173	0.090
-125.253	74.012	-0.061	0.064
-124.239	-58.287	0.169	-0.073
-123.224	800.000	0.049	0.179
-122.210	-80.315	0.063	0.021
-121.195	323.662	-0.036	0.069
-120.180	800.000	0.074	0.225
