DTS Sentinel unit serial number:	SN413079Multiplexer serial number:	ORYXHardware model number:	OX4-SRSoftware version number:	ORYX F/W v4.00 Oryx Data Collector v3.7.2.0data status	okinstallation	princeton_trtdifferential loss correction	single-endedforward channel	channel 3reverse channel	N/Adate	2019/09/13time	16:48:35forward acquisition time	60.00reverse acquisition time	0.00gamma	496.2192k internal	0.2305k external	0.2305temperature offset calibration	1.0142default loss term (dB/km)	0.3790temperature slope calibration	1.0000multiplexer offset coefficient	1.0000multiplexer slope coefficient	1.0000fibre end	0.00T internal ref (°C)	34.94T ext. ref 1 (°C)	4.93T ext. ref 2 (°C)	29.98length (m)	temperature (°C)	Stokes	anti-Stokes-747.200	800.000	-0.026	0.113
-746.185	-144.524	-0.328	-0.031
-745.171	-200.000	0.029	-0.206
-744.156	32.014	0.155	0.136
-743.142	70.583	-0.133	-0.140
-742.127	-2.647	-0.169	-0.121
-741.112	396.532	0.088	-0.187
-740.098	-200.000	0.013	0.180
-739.083	300.916	0.093	0.174
-738.069	-200.000	0.068	0.332
-737.054	-159.419	0.116	-0.007
-736.039	58.778	-0.106	-0.106
-735.025	248.494	0.170	-0.293
-734.010	-127.462	-0.350	-0.052
-732.996	133.305	-0.140	-0.184
-731.981	33.311	0.041	0.036
-730.966	89.105	-0.137	-0.155
-729.952	-121.260	0.079	-0.013
-728.937	-24.872	-0.213	-0.129
-727.923	800.000	-0.059	-0.259
-726.908	-86.137	-0.163	0.051
-725.894	707.458	0.032	-0.085
-724.879	40.988	-0.101	0.092
-723.864	-200.000	0.034	-0.281
-722.850	-24.920	-0.217	0.131
-721.835	-91.774	0.151	0.044
-720.821	25.087	-0.118	-0.099
-719.806	-102.189	-0.307	-0.075
-718.791	9.493	0.062	0.047
-717.777	-200.000	0.048	-0.349
-716.762	64.603	-0.386	0.396
-715.748	-98.182	-0.340	0.089
-714.733	-99.815	0.119	0.030
-713.718	96.636	0.202	0.235
-712.704	-200.000	0.010	-0.082
-711.689	-200.000	0.002	-0.121
-710.675	7.727	0.282	-0.215
-709.660	-134.316	0.082	-0.010
-708.645	-200.000	0.041	0.220
-707.631	-106.211	-0.258	0.059
-706.616	-86.950	0.271	-0.084
-705.602	24.167	0.140	0.118
-704.587	92.372	-0.062	-0.071
-703.572	360.297	0.139	0.282
-702.558	-7.013	-0.086	0.060
-701.543	-53.278	-0.117	0.054
-700.529	-123.356	-0.261	0.042
-699.514	30.274	-0.132	-0.115
-698.499	-22.458	-0.306	-0.188
-697.485	-77.820	-0.124	-0.043
-696.470	-200.000	-0.042	-0.522
-695.456	109.578	0.136	-0.166
-694.441	-115.582	-0.332	-0.063
-693.426	-93.226	-0.155	-0.044
-692.412	-52.828	0.402	0.188
-691.397	-149.034	-0.125	0.010
-690.383	67.844	-0.114	0.118
-689.368	-100.580	0.165	-0.041
-688.354	-200.000	-0.019	-0.350
-687.339	349.972	-0.167	-0.335
-686.324	-194.449	-0.519	-0.004
-685.310	175.487	-0.165	0.242
-684.295	86.045	0.101	-0.113
-683.281	-200.000	0.044	-0.314
-682.266	232.637	-0.071	0.118
-681.251	-81.579	-0.281	-0.094
-680.237	-200.000	-0.007	-0.164
-679.222	681.283	-0.083	0.220
-678.208	91.785	-0.124	0.142
-677.193	338.039	0.142	-0.281
-676.178	-15.252	0.122	0.079
-675.164	-85.402	0.329	0.104
-674.149	-3.135	-0.188	-0.133
-673.135	-77.611	0.237	-0.083
-672.120	-75.124	0.092	-0.033
-671.105	-155.051	-0.042	-0.003
-670.091	-200.000	0.001	0.120
-669.076	341.615	-0.113	0.225
-668.062	-36.737	-0.411	-0.224
-667.047	-15.915	-0.195	-0.126
-666.032	-125.960	-0.207	0.032
-665.018	-200.000	-0.000	0.009
-664.003	-200.000	-0.059	0.311
-662.989	320.761	-0.147	-0.283
-661.974	105.426	-0.147	-0.176
-660.959	-38.708	0.170	0.091
-659.945	-116.429	-0.262	-0.049
-658.930	-115.712	-0.073	0.014
-657.916	800.000	0.029	-0.091
-656.901	569.262	-0.010	-0.024
-655.886	-200.000	0.003	-0.097
-654.872	-128.922	-0.176	0.025
-653.857	-200.000	0.018	0.217
-652.843	-112.561	-0.316	0.064
-651.828	-131.379	0.193	0.026
-650.814	-76.115	-0.095	0.034
-649.799	-49.623	0.283	-0.137
-648.784	40.198	0.106	-0.097
-647.770	-200.000	-0.008	-0.079
-646.755	-127.798	0.250	0.037
-645.741	-83.112	-0.196	-0.064
-644.726	529.581	-0.083	0.198
-643.711	800.000	-0.194	-0.555
-642.697	54.246	-0.136	-0.132
-641.682	800.000	0.103	-0.304
-640.668	-200.000	0.065	-0.351
-639.653	-200.000	-0.063	-0.324
-638.638	-14.628	0.097	-0.063
-637.624	-7.216	0.088	0.060
-636.609	-200.000	-0.077	-0.409
-635.595	-58.634	0.353	0.155
-634.580	231.510	-0.183	0.305
-633.565	-86.260	-0.302	0.094
-632.551	391.132	0.082	0.172
-631.536	91.409	-0.083	0.095
-630.522	706.671	0.123	-0.328
-629.507	-64.930	0.188	-0.077
-628.492	-18.277	-0.101	0.064
-627.478	493.924	0.189	0.439
-626.463	800.000	-0.051	0.174
-625.449	-140.602	-0.232	-0.024
-624.434	-63.226	0.261	-0.109
-623.419	-99.780	-0.200	-0.051
-622.405	-24.837	0.164	-0.098
-621.390	228.532	0.039	0.065
-620.376	16.620	0.079	0.063
-619.361	259.928	0.100	-0.174
-618.346	-161.485	-0.265	-0.014
-617.332	-161.456	0.448	-0.023
-616.317	46.983	-0.233	0.219
-615.303	36.932	0.168	-0.150
-614.288	520.553	-0.045	0.108
-613.273	-200.000	-0.039	0.268
-612.259	-12.027	0.214	0.142
-611.244	-200.000	-0.064	-0.343
-610.230	11.203	0.132	0.102
-609.215	24.480	-0.224	-0.188
-608.201	480.684	0.065	0.148
-607.186	180.759	0.276	0.410
-606.171	-200.000	0.002	-0.061
-605.157	253.071	0.084	-0.146
-604.142	-47.591	0.173	-0.085
-603.128	125.007	0.045	0.057
-602.113	-86.131	-0.189	0.059
-601.098	695.245	-0.039	0.105
-600.084	-200.000	-0.037	-0.216
-599.069	515.798	0.016	-0.037
-598.055	-46.200	-0.124	0.062
-597.040	-47.771	0.007	0.004
-596.025	23.395	0.113	-0.094
-595.011	1.678	0.084	-0.061
-593.996	-82.428	0.270	0.089
-592.982	-200.000	0.021	-0.114
-591.967	-167.389	0.157	-0.006
-590.952	-63.552	0.078	0.032
-589.938	800.000	-0.057	-0.196
-588.923	92.511	0.351	-0.400
-587.909	508.702	-0.048	0.112
-586.894	800.000	0.019	0.071
-585.879	-71.052	-0.279	0.106
-584.865	57.109	0.184	-0.181
-583.850	-200.000	-0.002	-0.060
-582.836	-200.000	0.034	0.182
-581.821	-147.760	-0.093	0.008
-580.806	753.952	0.087	-0.238
-579.792	-74.760	0.175	0.064
-578.777	252.500	-0.086	-0.148
-577.763	-144.743	0.283	-0.026
-576.748	-17.721	-0.400	-0.254
-575.733	267.894	0.106	0.188
-574.719	70.202	0.069	0.072
-573.704	-64.875	-0.190	0.078
-572.690	-88.454	-0.029	-0.009
-571.675	-200.000	0.071	0.337
-570.661	310.290	-0.079	0.150
-569.646	-37.947	-0.110	-0.059
-568.631	5.155	-0.231	0.172
-567.617	0.669	-0.212	0.153
-566.602	71.485	0.109	-0.114
-565.588	365.752	-0.103	-0.211
-564.573	392.058	0.076	-0.159
-563.558	-81.367	0.169	-0.056
-562.544	-3.763	-0.308	-0.216
-561.529	-200.000	0.064	-0.283
-560.515	-153.767	-0.117	0.008
-559.500	-200.000	-0.011	-0.079
-558.485	152.336	-0.067	-0.093
-557.471	-83.337	-0.180	0.059
-556.456	-94.694	0.413	-0.113
-555.442	-154.383	0.335	0.023
-554.427	6.198	-0.083	0.062
-553.412	83.001	0.083	-0.091
-552.398	-67.532	-0.270	-0.107
-551.383	254.076	0.219	-0.379
-550.369	317.482	-0.110	-0.211
-549.354	-130.334	-0.105	0.014
-548.339	-65.201	-0.390	0.159
-547.325	166.139	0.070	0.100
-546.310	-148.080	-0.184	0.015
-545.296	-200.000	-0.016	-0.336
-544.281	-92.566	-0.172	0.049
-543.266	83.259	0.122	-0.135
-542.252	-200.000	0.006	0.216
-541.237	59.572	0.174	-0.173
-540.223	800.000	0.041	0.141
-539.208	102.692	0.007	0.009
-538.193	10.955	-0.283	0.218
-537.179	-79.204	-0.220	0.075
-536.164	-128.723	0.111	-0.016
-535.150	800.000	0.064	-0.230
-534.135	203.495	-0.103	-0.161
-533.121	-200.000	-0.015	0.245
-532.106	-64.587	0.153	-0.063
-531.091	198.552	-0.205	-0.317
-530.077	327.523	0.037	-0.071
-529.062	14.515	0.094	0.074
-528.048	800.000	0.101	-0.317
-527.033	3.324	-0.301	-0.221
-526.018	800.000	0.057	0.244
-525.004	800.000	-0.010	0.038
-523.989	-200.000	-0.013	0.071
-522.975	121.465	0.024	-0.030
-521.960	800.000	0.048	0.172
-520.945	-97.538	-0.090	-0.023
-519.931	800.000	0.052	-0.167
-518.916	600.853	0.069	0.174
-517.902	249.452	-0.126	0.216
-516.887	-200.000	-0.017	0.202
-515.872	47.024	0.252	0.236
-514.858	608.247	-0.083	0.208
-513.843	436.271	-0.065	0.142
-512.829	95.356	0.083	-0.096
-511.814	800.000	0.096	0.373
-510.799	222.688	-0.213	-0.345
-509.785	114.238	0.067	-0.083
-508.770	-8.591	-0.134	0.090
-507.756	281.098	-0.130	0.234
-506.741	-200.000	-0.027	-0.122
-505.726	-200.000	0.006	-0.142
-504.712	800.000	0.061	-0.226
-503.697	139.106	0.134	-0.177
-502.683	8.307	0.195	0.148
-501.668	77.132	0.134	0.144
-500.653	800.000	0.091	-0.313
-499.639	800.000	-0.035	-0.124
-498.624	-200.000	0.044	-0.290
-497.610	-85.681	-0.238	-0.075
-496.595	800.000	0.090	0.289
-495.581	-61.489	0.057	-0.024
-494.566	96.091	-0.158	-0.182
-493.551	536.788	0.027	0.064
-492.537	26.978	0.200	-0.169
-491.522	-200.000	0.026	0.144
-490.508	36.653	-0.206	0.183
-489.493	37.922	0.048	-0.043
-488.478	-65.478	-0.215	-0.087
-487.464	50.100	0.228	-0.216
-486.449	-200.000	-0.003	-0.239
-485.435	335.125	-0.131	-0.255
-484.420	112.946	0.097	0.119
-483.405	110.034	-0.156	-0.188
-482.391	-75.496	0.463	0.166
-481.376	800.000	0.090	0.306
-480.362	-200.000	0.036	0.183
-479.347	-200.000	-0.040	0.185
-478.332	515.891	0.009	0.021
-477.318	800.000	-0.139	-0.386
-476.303	-97.041	-0.255	-0.067
-475.289	197.584	-0.124	0.190
-474.274	34.365	0.194	0.170
-473.259	-117.595	0.088	0.016
-472.245	40.554	0.064	-0.058
-471.230	-123.437	-0.509	-0.082
-470.216	-200.000	0.017	0.099
-469.201	57.766	0.391	0.385
-468.186	106.247	-0.138	-0.164
-467.172	257.276	0.073	-0.126
-466.157	1.361	-0.112	-0.081
-465.143	-30.199	-0.217	0.124
-464.128	-118.951	-0.430	0.076
-463.113	800.000	0.009	0.035
-462.099	-5.535	0.173	0.120
-461.084	460.179	0.087	0.194
-460.070	-200.000	0.031	-0.190
-459.055	584.097	0.114	-0.282
-458.040	-196.996	0.226	0.001
-457.026	-43.876	-0.103	-0.052
-456.011	800.000	-0.083	-0.277
-454.997	263.005	0.104	0.182
-453.982	-40.180	0.114	0.060
-452.968	800.000	-0.037	0.140
-451.953	601.108	-0.109	-0.272
-450.938	479.648	-0.044	-0.100
-449.924	121.286	0.243	0.304
-448.909	-11.643	-0.023	-0.015
-447.895	113.012	0.113	-0.138
-446.880	-27.262	-0.125	0.073
-445.865	-18.607	-0.117	0.073
-444.851	59.323	-0.223	-0.221
-443.836	184.540	0.094	0.140
-442.822	394.996	-0.022	0.047
-441.807	-16.844	-0.131	0.083
-440.792	789.819	0.059	0.164
-439.778	-70.614	0.269	0.102
-438.763	800.000	-0.022	-0.072
-437.749	800.000	0.112	-0.319
-436.734	-62.893	0.192	-0.080
-435.719	-91.131	-0.329	-0.095
-434.705	11.916	-0.063	-0.049
-433.690	-200.000	-0.023	0.156
-432.676	-100.736	-0.436	0.108
-431.661	149.068	0.136	0.186
-430.646	-62.264	0.148	-0.062
-429.632	-108.946	-0.194	-0.042
-428.617	203.382	0.109	-0.169
-427.603	156.189	-0.135	0.188
-426.588	-113.547	-0.442	-0.087
-425.573	-105.480	-0.237	-0.054
-424.559	2.268	-0.363	-0.264
-423.544	695.563	-0.186	0.491
-422.530	-86.707	0.269	-0.083
-421.515	29.849	-0.160	-0.137
-420.500	-145.094	-0.094	0.009
-419.486	-11.522	0.145	0.096
-418.471	-75.362	0.125	-0.045
-417.457	-88.328	-0.265	-0.080
-416.442	235.667	0.101	0.168
-415.428	476.653	-0.017	0.038
-414.413	-144.523	0.324	0.030
-413.398	61.470	-0.252	0.251
-412.384	-72.962	-0.359	0.133
-411.369	-50.216	0.261	-0.124
-410.355	363.092	-0.070	-0.141
-409.340	58.448	0.155	-0.152
-408.325	-132.362	0.227	0.029
-407.311	-192.812	-0.064	0.001
-406.296	-200.000	-0.014	0.061
-405.282	156.417	-0.235	0.326
-404.267	800.000	-0.115	-0.321
-403.252	800.000	-0.024	-0.077
-402.238	800.000	-0.067	-0.246
-401.223	76.131	0.231	0.246
-400.209	-200.000	0.013	-0.386
-399.194	117.677	-0.114	-0.141
-398.179	800.000	-0.061	-0.170
-397.165	-116.396	-0.125	0.023
-396.150	800.000	-0.030	0.099
-395.136	24.831	0.129	-0.107
-394.121	800.000	-0.049	0.199
-393.106	-28.568	0.218	0.126
-392.092	45.994	-0.232	-0.215
-391.077	-71.375	-0.089	0.033
-390.063	-8.012	0.249	0.169
-389.048	-132.725	-0.023	-0.003
-388.033	-102.952	0.142	0.034
-387.019	169.270	-0.063	0.091
-386.004	342.600	-0.199	-0.391
-384.990	66.721	-0.104	-0.106
-383.975	449.036	0.067	-0.148
-382.960	-200.000	0.098	-0.482
-381.946	800.000	0.040	-0.121
-380.931	-128.865	0.153	-0.022
-379.917	294.228	-0.016	-0.029
-378.902	-21.083	-0.078	-0.048
-377.888	254.417	0.098	-0.169
-376.873	286.976	0.100	-0.181
-375.858	-200.000	0.009	0.273
-374.844	552.401	0.080	0.192
-373.829	262.054	0.232	0.403
-372.815	200.627	0.046	0.071
-371.800	-200.000	-0.007	-0.096
-370.785	4.119	-0.191	0.140
-369.771	377.393	-0.088	-0.180
-368.756	15.664	-0.260	0.205
-367.742	-200.000	-0.003	0.437
-366.727	101.111	-0.080	-0.093
-365.712	60.467	0.223	0.221
-364.698	-76.434	0.292	-0.103
-363.683	306.249	-0.156	0.290
-362.669	-60.535	-0.154	0.066
-361.654	-200.000	0.039	0.224
-360.639	34.236	-0.222	-0.195
-359.625	-200.000	0.043	0.232
-358.610	-119.513	-0.315	-0.055
-357.596	800.000	-0.157	0.660
-356.581	114.900	0.194	-0.237
-355.566	301.294	0.091	-0.168
-354.552	27.858	-0.282	0.238
-353.537	-77.967	-0.058	-0.020
-352.523	-200.000	0.039	0.184
-351.508	-137.746	0.409	0.046
-350.493	800.000	0.068	0.244
-349.479	-18.826	-0.367	0.229
-348.464	171.525	0.166	0.239
-347.450	-200.000	0.002	0.099
-346.435	-67.902	-0.202	0.079
-345.420	78.813	-0.055	0.059
-344.406	-200.000	0.012	-0.084
-343.391	-74.643	-0.260	0.094
-342.377	-124.546	-0.191	0.030
-341.362	64.908	0.081	-0.082
-340.348	-120.360	0.103	-0.018
-339.333	-107.559	0.361	0.079
-338.318	62.303	0.156	0.156
-337.304	-38.236	0.516	0.274
-336.289	302.865	0.047	-0.087
-335.275	-159.619	-0.186	0.010
-334.260	800.000	0.084	-0.309
-333.245	311.261	0.024	-0.045
-332.231	199.255	-0.073	0.112
-331.216	94.801	0.159	-0.181
-330.202	-8.710	-0.139	-0.093
-329.187	-73.309	-0.455	-0.167
-328.172	-177.300	0.192	-0.005
-327.158	139.908	0.035	0.046
-326.143	-4.324	0.057	0.039
-325.129	46.881	0.136	0.127
-324.114	226.553	-0.156	-0.254
-323.099	145.818	0.123	-0.164
-322.085	583.463	0.093	-0.228
-321.070	-112.653	0.159	-0.032
-320.056	732.579	0.075	0.201
-319.041	800.000	0.026	-0.084
-318.026	-200.000	-0.001	0.275
-317.012	331.386	-0.056	0.108
-315.997	-200.000	-0.056	-0.308
-314.983	103.488	-0.103	-0.121
-313.968	-87.247	0.067	-0.020
-312.953	-43.598	-0.422	-0.213
-311.939	-20.083	0.133	0.082
-310.924	800.000	-0.019	0.053
-309.910	-200.000	0.004	-0.075
-308.895	-52.563	-0.026	-0.012
-307.880	-200.000	0.014	0.433
-306.866	-153.084	-0.542	-0.038
-305.851	-200.000	-0.047	-0.318
-304.837	800.000	-0.043	-0.188
-303.822	800.000	-0.081	-0.312
-302.807	-107.068	0.043	-0.009
-301.793	605.347	-0.106	0.265
-300.778	16.714	0.209	-0.165
-299.764	-200.000	-0.060	-0.353
-298.749	-125.433	-0.118	-0.018
-297.735	385.414	-0.023	0.047
-296.720	504.688	-0.020	-0.047
-295.705	-138.859	0.158	0.017
-294.691	-149.748	0.360	0.028
-293.676	362.793	-0.087	-0.174
-292.662	-200.000	-0.002	-0.273
-291.647	-200.000	0.019	0.083
-290.632	-72.855	-0.079	-0.029
-289.618	-200.000	-0.019	-0.305
-288.603	-149.199	0.211	0.017
-287.589	-200.000	-0.010	0.169
-286.574	-200.000	-0.097	0.489
-285.559	-79.328	-0.204	0.069
-284.545	180.664	0.168	0.247
-283.530	-44.331	0.193	-0.097
-282.516	97.566	0.240	0.276
-281.501	800.000	0.092	0.388
-280.486	-9.097	-0.133	0.089
-279.472	-200.000	0.046	-0.252
-278.457	1.527	0.218	0.157
-277.443	44.639	-0.264	0.243
-276.428	123.898	0.052	0.065
-275.413	5.876	0.129	0.095
-274.399	10.762	0.213	-0.163
-273.384	-74.482	0.291	-0.105
-272.370	10.707	0.207	-0.157
-271.355	800.000	-0.081	-0.263
-270.340	410.634	-0.109	0.232
-269.326	30.333	0.308	0.263
-268.311	-200.000	0.061	-0.298
-267.297	-30.044	-0.134	-0.076
-266.282	448.385	-0.081	-0.178
-265.267	79.671	-0.200	0.215
-264.253	132.878	-0.086	-0.111
-263.238	-19.323	-0.053	-0.033
-262.224	-128.530	0.100	0.014
-261.209	-152.585	-0.150	-0.011
-260.195	800.000	-0.012	-0.036
-259.180	-200.000	-0.029	-0.170
-258.165	165.347	0.149	-0.210
-257.151	32.277	0.088	-0.076
-256.136	-71.899	-0.122	-0.045
-255.122	-200.000	0.008	0.463
-254.107	9.820	-0.276	0.209
-253.092	-200.000	0.020	-0.206
-252.078	598.736	0.063	0.157
-251.063	-46.676	-0.356	0.174
-250.049	100.224	0.073	0.084
-249.034	-200.000	-0.013	0.104
-248.019	-104.594	0.154	-0.035
-247.005	33.487	-0.256	0.222
-245.990	167.414	-0.041	0.059
-244.976	260.830	0.242	-0.418
-243.961	135.819	0.206	-0.267
-242.946	3.967	0.112	0.081
-241.932	-25.126	0.144	0.085
-240.917	-6.007	-0.225	-0.154
-239.903	-135.561	-0.255	0.030
-238.888	476.031	0.160	0.362
-237.873	34.756	0.086	0.075
-236.859	-14.581	-0.174	-0.112
-235.844	-36.918	-0.376	-0.201
-234.830	-91.486	0.066	0.019
-233.815	578.591	-0.200	0.488
-232.800	-200.000	-0.014	0.063
-231.786	523.153	-0.114	0.267
-230.771	-200.000	0.022	-0.200
-229.757	133.670	0.101	0.130
-228.742	-200.000	-0.014	0.192
-227.727	-200.000	0.028	0.203
-226.713	33.117	-0.130	-0.112
-225.698	43.587	-0.152	-0.138
-224.684	243.914	0.044	0.073
-223.669	266.504	-0.110	0.191
-222.655	-83.115	0.176	0.057
-221.640	800.000	-0.033	0.136
-220.625	27.795	0.290	-0.243
-219.611	800.000	0.084	-0.283
-218.596	-200.000	-0.042	-0.284
-217.582	29.325	-0.039	0.033
-216.567	-36.081	-0.090	-0.049
-215.552	184.533	0.155	0.229
-214.538	-70.513	0.159	0.060
-213.523	-200.000	-0.002	-0.205
-212.509	-37.241	-0.192	0.103
-211.494	118.673	0.361	-0.444
-210.479	265.986	-0.069	-0.120
-209.465	800.000	0.065	-0.222
-208.450	-110.007	0.083	0.017
-207.436	-36.987	0.185	0.099
-206.421	16.173	-0.275	0.216
-205.406	-200.000	0.021	0.166
-204.392	54.949	0.027	-0.026
-203.377	-200.000	0.027	0.234
-202.363	800.000	-0.027	0.112
-201.348	-24.713	0.258	-0.153
-200.333	-149.281	-0.340	-0.027
-199.319	-148.046	0.313	0.026
-198.304	60.150	0.149	0.147
-197.290	391.355	0.141	-0.291
-196.275	-133.561	-0.242	-0.030
-195.260	3.864	-0.266	-0.193
-194.246	-185.756	0.150	-0.002
-193.231	16.292	-0.406	0.319
-192.217	-200.000	0.025	0.297
-191.202	800.000	-0.069	-0.260
-190.187	-109.914	0.111	0.023
-189.173	96.687	-0.234	0.267
-188.158	121.381	0.118	0.147
-187.144	177.258	-0.103	-0.149
-186.129	33.834	0.093	-0.081
-185.114	94.119	-0.037	-0.042
-184.100	182.287	-0.030	-0.045
-183.085	-200.000	0.039	0.271
-182.071	-30.382	-0.109	0.062
-181.056	800.000	-0.045	-0.167
-180.042	16.317	-0.058	0.045
-179.027	-135.506	0.185	-0.022
-178.012	-43.432	0.274	-0.138
-176.998	-200.000	-0.034	0.216
-175.983	-150.368	-0.198	0.015
-174.969	17.966	-0.307	0.243
-173.954	72.565	0.167	0.174
-172.939	-18.984	0.348	-0.216
-171.925	-1.856	0.286	-0.200
-170.910	-200.000	-0.021	0.165
-169.896	-12.571	0.308	0.200
-168.881	30.700	0.069	0.058
-167.866	186.794	-0.104	0.154
-166.852	-200.000	-0.025	-0.253
-165.837	-200.000	-0.050	0.339
-164.823	-2.903	0.319	0.222
-163.808	800.000	0.045	-0.150
-162.793	-46.058	-0.190	0.093
-161.779	-37.921	-0.046	-0.025
-160.764	-200.000	-0.007	0.075
-159.750	-89.839	0.333	0.097
-158.735	-143.374	0.232	0.022
-157.720	368.495	-0.074	0.149
-156.706	330.689	-0.143	0.273
-155.691	204.769	0.197	-0.303
-154.677	-2.944	-0.485	-0.337
-153.662	-36.830	-0.099	-0.053
-152.647	-163.466	0.256	0.012
-151.633	-200.000	-0.026	0.243
-150.618	-132.869	0.464	-0.059
-149.604	-143.724	-0.441	-0.042
-148.589	58.778	0.121	-0.119
-147.574	295.578	-0.061	0.111
-146.560	-54.599	0.090	0.041
-145.545	66.212	-0.169	-0.171
-144.531	-33.685	-0.204	0.112
-143.516	-49.011	-0.223	-0.106
-142.502	37.902	-0.151	-0.134
-141.487	201.307	0.252	-0.386
-140.472	-125.892	-0.255	-0.038
-139.458	800.000	0.116	0.362
-138.443	43.869	-0.311	0.283
-137.429	800.000	0.050	0.166
-136.414	-200.000	-0.005	-0.222
-135.399	185.190	-0.099	-0.146
-134.385	-47.672	0.168	-0.081
-133.370	376.854	0.131	0.266
-132.356	-87.622	0.386	0.116
-131.341	67.899	0.082	0.084
-130.326	379.378	-0.041	0.083
-129.312	-149.911	0.346	0.027
-128.297	103.362	0.085	0.099
-127.283	253.814	-0.172	-0.292
-126.268	406.681	0.038	0.081
-125.253	-105.217	0.098	0.022
-124.239	-141.036	-0.541	-0.055
-123.224	-41.931	0.107	0.054
-122.210	-90.436	0.388	-0.112
-121.195	12.023	0.120	0.092
-120.180	-113.055	-0.249	0.049
