DTS Sentinel unit serial number:	SN413079Multiplexer serial number:	ORYXHardware model number:	OX4-SRSoftware version number:	ORYX F/W v4.00 Oryx Data Collector v3.7.2.0data status	okinstallation	princeton_trtdifferential loss correction	single-endedforward channel	channel 3reverse channel	N/Adate	2019/09/17time	22:32:35forward acquisition time	60.00reverse acquisition time	0.00gamma	496.2192k internal	0.2344k external	0.2344temperature offset calibration	0.9951default loss term (dB/km)	0.3790temperature slope calibration	1.0000multiplexer offset coefficient	1.0000multiplexer slope coefficient	1.0000fibre end	0.00T internal ref (°C)	25.28T ext. ref 1 (°C)	0.18T ext. ref 2 (°C)	18.62length (m)	temperature (°C)	Stokes	anti-Stokes-747.200	44.680	-0.306	0.282
-746.185	-125.523	-0.212	-0.032
-745.171	-86.971	0.205	-0.062
-744.156	800.000	-0.091	0.269
-743.142	-179.986	0.135	-0.003
-742.127	-200.000	-0.020	0.330
-741.112	35.993	0.270	0.238
-740.098	-200.000	0.049	0.318
-739.083	89.179	0.067	0.075
-738.069	-200.000	-0.003	-0.053
-737.054	438.253	-0.155	-0.338
-736.039	68.117	-0.317	-0.325
-735.025	42.191	0.121	-0.110
-734.010	-181.969	-0.227	-0.004
-732.996	-200.000	0.037	-0.255
-731.981	382.012	-0.168	-0.345
-730.966	-69.614	0.147	0.056
-729.952	-95.380	-0.128	-0.034
-728.937	626.767	0.160	0.403
-727.923	87.023	-0.405	-0.448
-726.908	800.000	0.083	-0.304
-725.894	-125.391	-0.189	-0.029
-724.879	725.944	-0.031	0.082
-723.864	-200.000	0.034	-0.221
-722.850	-114.717	-0.446	0.085
-721.835	1.074	0.084	-0.060
-720.821	-200.000	0.007	-0.220
-719.806	-47.439	-0.297	0.145
-718.791	-114.561	0.240	-0.046
-717.777	-119.722	0.478	0.082
-716.762	-45.217	-0.277	0.138
-715.748	-200.000	0.010	0.071
-714.733	-41.943	0.171	-0.088
-713.718	695.525	0.107	-0.281
-712.704	-25.365	0.077	0.046
-711.689	56.301	-0.125	0.121
-710.675	-139.902	-0.028	0.003
-709.660	800.000	-0.092	0.326
-708.645	-200.000	-0.043	0.264
-707.631	-200.000	-0.010	0.424
-706.616	-200.000	-0.042	-0.349
-705.602	-38.924	-0.250	0.132
-704.587	28.168	-0.142	-0.119
-703.572	-59.536	-0.334	-0.143
-702.558	-200.000	0.064	-0.301
-701.543	623.456	0.066	0.167
-700.529	-200.000	0.020	-0.140
-699.514	-58.150	0.087	-0.038
-698.499	-200.000	0.010	-0.072
-697.485	192.540	0.182	0.275
-696.470	-134.036	-0.274	-0.034
-695.456	-104.677	0.125	0.029
-694.441	-156.012	-0.240	-0.015
-693.426	338.720	-0.014	-0.028
-692.412	-200.000	0.047	0.213
-691.397	521.045	-0.086	-0.202
-690.383	-52.066	0.158	-0.073
-689.368	-80.233	0.173	-0.058
-688.354	-200.000	0.091	-0.404
-687.339	163.267	-0.081	-0.113
-686.324	285.150	0.170	0.307
-685.310	-104.019	0.251	-0.059
-684.295	-50.421	-0.187	-0.088
-683.281	160.321	-0.101	-0.141
-682.266	-167.286	0.281	-0.011
-681.251	-121.260	-0.172	-0.029
-680.237	83.544	-0.044	-0.047
-679.222	191.372	0.240	-0.361
-678.208	258.965	0.079	-0.136
-677.193	-109.076	0.076	0.016
-676.178	800.000	-0.114	-0.349
-675.164	169.991	-0.044	-0.063
-674.149	159.529	-0.161	0.224
-673.135	118.578	0.154	0.189
-672.120	537.050	0.060	0.142
-671.105	-116.223	0.094	-0.017
-670.091	264.723	-0.088	-0.152
-669.076	-64.112	-0.307	0.125
-668.062	800.000	-0.135	-0.388
-667.047	39.632	0.175	0.157
-666.032	62.149	-0.099	-0.098
-665.018	-12.334	-0.183	-0.120
-664.003	-23.055	-0.168	-0.101
-662.989	235.813	0.218	-0.360
-661.974	-71.136	-0.027	-0.010
-660.959	-4.052	0.270	-0.186
-659.945	-30.290	0.113	0.064
-658.930	-106.401	0.030	0.007
-657.916	-132.623	-0.128	0.016
-656.901	131.513	0.203	-0.260
-655.886	-75.869	0.159	0.056
-654.872	-200.000	-0.019	0.266
-653.857	552.215	-0.091	-0.217
-652.843	54.354	-0.252	0.242
-651.828	17.832	0.217	-0.172
-650.814	-12.484	-0.100	-0.065
-649.799	-18.936	-0.149	0.092
-648.784	-124.466	0.387	0.060
-647.770	-200.000	0.001	-0.154
-646.755	338.217	0.129	-0.250
-645.741	119.175	0.045	0.056
-644.726	-42.209	0.273	0.139
-643.711	126.454	0.260	-0.328
-642.697	650.664	-0.180	-0.459
-641.682	-47.515	-0.194	-0.094
-640.668	-200.000	0.017	-0.104
-639.653	800.000	-0.070	0.238
-638.638	108.528	-0.154	-0.184
-637.624	195.179	0.223	0.337
-636.609	-105.382	-0.215	0.049
-635.595	-119.468	0.358	-0.062
-634.580	175.324	0.151	0.219
-633.565	-55.003	-0.186	-0.084
-632.551	84.196	-0.180	-0.196
-631.536	-122.126	-0.136	-0.022
-630.522	-91.896	0.365	-0.103
-629.507	-35.116	0.128	-0.070
-628.492	73.242	-0.109	0.113
-627.478	-118.060	-0.152	-0.027
-626.463	-93.407	-0.138	-0.038
-625.449	28.313	0.006	0.005
-624.434	394.773	0.022	0.045
-623.419	-35.711	-0.196	-0.106
-622.405	-111.761	-0.227	-0.046
-621.390	-77.551	-0.283	0.098
-620.376	129.896	-0.100	0.128
-619.361	-8.553	-0.143	0.096
-618.346	-98.434	-0.434	-0.111
-617.332	709.069	-0.137	-0.360
-616.317	-179.245	0.228	0.005
-615.303	-200.000	-0.005	-0.259
-614.288	800.000	0.109	0.360
-613.273	726.012	-0.117	-0.310
-612.259	-51.165	0.231	-0.108
-611.244	-200.000	0.011	0.183
-610.230	391.105	-0.199	-0.411
-609.215	-109.119	0.288	-0.061
-608.201	37.830	-0.116	-0.103
-607.186	758.199	0.100	-0.269
-606.171	-35.115	-0.232	-0.126
-605.157	-51.361	-0.113	0.053
-604.142	4.730	0.149	0.109
-603.128	66.156	-0.042	-0.042
-602.113	356.288	0.161	-0.319
-601.098	468.338	0.178	-0.398
-600.084	800.000	-0.036	0.140
-599.069	800.000	-0.093	-0.306
-598.055	-200.000	-0.027	0.153
-597.040	63.202	-0.059	-0.059
-596.025	37.135	-0.212	-0.187
-595.011	-59.454	-0.279	-0.119
-593.996	800.000	0.028	0.078
-592.982	800.000	0.058	-0.222
-591.967	-49.500	0.060	0.028
-590.952	-83.209	-0.238	-0.076
-589.938	201.642	-0.112	-0.171
-588.923	-154.713	-0.327	-0.022
-587.909	149.127	0.267	-0.359
-586.894	463.706	0.116	0.257
-585.879	-17.003	-0.326	0.205
-584.865	800.000	0.078	0.338
-583.850	110.694	0.019	-0.023
-582.836	-91.631	-0.279	-0.079
-581.821	-78.034	-0.047	-0.016
-580.806	-200.000	0.013	-0.181
-579.792	-127.201	-0.221	-0.032
-578.777	54.146	-0.089	-0.086
-577.763	-9.466	-0.152	-0.101
-576.748	-182.547	0.306	0.006
-575.733	-6.267	0.103	-0.070
-574.719	-58.214	-0.128	0.055
-573.704	-200.000	-0.023	0.129
-572.690	-200.000	0.037	-0.177
-571.675	662.277	-0.021	0.053
-570.661	-51.246	0.068	-0.032
-569.646	-38.559	-0.073	0.038
-568.631	-135.384	0.264	-0.031
-567.617	85.443	-0.082	-0.090
-566.602	-142.735	-0.315	-0.031
-565.588	54.815	0.203	0.195
-564.573	-135.552	0.321	0.038
-563.558	-200.000	-0.032	-0.164
-562.544	-17.800	0.249	0.156
-561.529	64.361	-0.129	-0.129
-560.515	586.775	0.136	-0.331
-559.500	-137.542	0.245	0.027
-558.485	-200.000	-0.049	-0.237
-557.471	-79.165	0.129	0.043
-556.456	800.000	-0.059	-0.181
-555.442	736.866	0.017	-0.044
-554.427	-108.572	-0.239	-0.051
-553.412	-97.938	-0.064	0.016
-552.398	-126.010	0.084	0.013
-551.383	-200.000	0.032	0.282
-550.369	196.521	0.130	-0.196
-549.354	49.462	-0.224	-0.209
-548.339	-76.745	-0.168	0.058
-547.325	-200.000	-0.005	0.137
-546.310	638.454	-0.148	0.373
-545.296	-200.000	-0.047	0.238
-544.281	320.413	0.164	0.309
-543.266	112.246	-0.089	0.106
-542.252	101.643	0.095	0.110
-541.237	448.277	-0.015	-0.033
-540.223	184.117	-0.092	0.135
-539.208	-28.053	0.052	0.030
-538.193	-200.000	-0.008	0.189
-537.179	251.358	-0.067	0.113
-536.164	-121.094	0.413	0.069
-535.150	-134.057	-0.345	-0.042
-534.135	522.369	0.047	0.110
-533.121	310.714	0.063	-0.117
-532.106	35.811	0.186	-0.162
-531.091	87.802	-0.188	0.207
-530.077	-41.071	-0.618	-0.317
-529.062	-200.000	0.027	-0.189
-528.048	-8.679	-0.259	0.173
-527.033	265.557	-0.165	-0.285
-526.018	-132.071	0.285	0.037
-525.004	-200.000	0.014	-0.340
-523.989	28.461	0.129	0.108
-522.975	782.851	-0.015	-0.042
-521.960	32.815	0.085	0.073
-520.945	-190.915	0.513	-0.005
-519.931	-73.684	-0.183	0.066
-518.916	105.162	0.090	-0.105
-517.902	-26.993	-0.235	0.136
-516.887	93.774	-0.054	-0.060
-515.872	-96.262	-0.206	0.054
-514.858	800.000	-0.112	0.428
-513.843	23.133	-0.129	0.105
-512.829	-200.000	-0.000	0.078
-511.814	-61.103	-0.054	-0.023
-510.799	-48.858	0.118	0.056
-509.785	800.000	-0.044	0.148
-508.770	13.020	0.101	-0.078
-507.756	-198.539	-0.307	0.002
-506.741	200.486	0.167	-0.255
-505.726	800.000	0.064	0.200
-504.712	477.727	0.095	-0.212
-503.697	-90.137	-0.178	-0.051
-502.683	-34.047	-0.060	0.033
-501.668	-73.639	-0.079	0.028
-500.653	-58.417	0.162	-0.070
-499.639	-70.420	0.182	0.069
-498.624	46.905	-0.165	0.152
-497.610	-200.000	-0.010	0.200
-496.595	800.000	0.091	-0.309
-495.581	-200.000	0.013	0.217
-494.566	-131.946	0.208	0.027
-493.551	-200.000	-0.057	-0.328
-492.537	61.344	-0.211	-0.208
-491.522	-200.000	0.008	-0.282
-490.508	306.076	0.101	-0.187
-489.493	144.449	-0.015	0.020
-488.478	638.109	0.116	-0.293
-487.464	-200.000	-0.050	0.366
-486.449	-66.620	0.098	0.039
-485.435	-157.092	-0.370	-0.022
-484.420	216.842	-0.086	-0.136
-483.405	800.000	0.104	0.349
-482.391	-147.034	0.058	0.005
-481.376	-66.512	-0.215	-0.085
-480.362	-28.654	-0.028	0.016
-479.347	152.387	0.198	0.268
-478.332	-91.630	0.073	0.021
-477.318	140.854	-0.123	0.160
-476.303	0.358	0.197	0.139
-475.289	-124.040	-0.045	-0.007
-474.274	-190.809	-0.028	-0.000
-473.259	29.923	-0.268	-0.226
-472.245	800.000	0.051	-0.181
-471.230	-45.718	-0.216	0.106
-470.216	307.359	0.121	0.223
-469.201	-128.744	0.150	-0.021
-468.186	-200.000	0.012	0.380
-467.172	124.478	-0.174	0.217
-466.157	299.416	0.058	-0.106
-465.143	132.785	-0.109	-0.139
-464.128	-11.970	0.164	-0.106
-463.113	2.579	-0.287	-0.206
-462.099	39.525	-0.314	0.278
-461.084	-4.813	0.236	0.161
-460.070	-200.000	-0.031	0.207
-459.055	278.495	-0.150	-0.265
-458.040	30.317	0.343	-0.290
-457.026	800.000	-0.104	-0.320
-456.011	-47.113	0.163	-0.079
-454.997	72.699	-0.082	0.085
-453.982	800.000	-0.026	0.089
-452.968	109.319	-0.138	-0.164
-451.953	35.546	0.167	0.146
-450.938	70.225	-0.183	0.187
-449.924	369.574	0.056	-0.112
-448.909	-200.000	0.004	0.164
-447.895	369.712	0.010	-0.021
-446.880	-200.000	0.059	-0.335
-445.865	800.000	-0.023	-0.081
-444.851	-33.800	-0.147	-0.080
-443.836	-200.000	0.019	-0.239
-442.822	528.107	0.034	0.078
-441.807	54.219	-0.028	-0.027
-440.792	16.616	-0.243	0.190
-439.778	146.682	-0.053	-0.071
-438.763	-44.744	0.055	-0.027
-437.749	601.259	0.014	0.035
-436.734	-43.012	0.253	0.127
-435.719	23.648	-0.171	0.139
-434.705	157.935	0.193	-0.265
-433.690	129.484	-0.167	-0.211
-432.676	-143.562	0.105	0.010
-431.661	73.770	0.062	-0.064
-430.646	-200.000	0.015	-0.213
-429.632	-29.068	-0.155	-0.088
-428.617	-22.542	0.350	0.209
-427.603	153.706	-0.167	0.226
-426.588	3.279	0.190	-0.137
-425.573	-200.000	-0.019	0.285
-424.559	800.000	0.053	0.144
-423.544	-116.109	0.229	0.042
-422.530	-159.945	-0.202	0.011
-421.515	151.970	-0.131	0.177
-420.500	-98.225	-0.214	-0.054
-419.486	-106.023	-0.097	0.022
-418.471	800.000	-0.023	-0.094
-417.457	179.615	-0.189	-0.273
-416.442	466.528	-0.050	-0.110
-415.428	37.201	0.140	0.123
-414.413	-200.000	0.006	0.036
-413.398	-154.727	0.161	-0.011
-412.384	-65.503	0.242	-0.096
-411.369	-106.581	0.161	-0.035
-410.355	-109.381	-0.281	0.059
-409.340	-200.000	0.026	-0.155
-408.325	58.505	0.165	0.160
-407.311	-200.000	-0.029	0.141
-406.296	632.602	-0.045	-0.113
-405.282	255.150	-0.097	0.164
-404.267	11.512	0.282	0.213
-403.252	800.000	-0.138	0.390
-402.238	264.134	0.044	0.076
-401.223	800.000	0.039	-0.139
-400.209	800.000	-0.022	0.073
-399.194	167.982	0.059	-0.083
-398.179	-200.000	-0.016	-0.104
-397.165	50.772	-0.023	-0.022
-396.150	-25.647	-0.220	0.128
-395.136	-114.710	0.024	-0.004
-394.121	63.406	-0.124	-0.122
-393.106	58.849	-0.267	0.259
-392.092	-83.058	0.285	-0.090
-391.077	71.932	0.116	-0.120
-390.063	-2.484	-0.136	-0.094
-389.048	-168.024	-0.131	0.005
-388.033	-50.515	0.252	-0.117
-387.019	-200.000	0.028	-0.140
-386.004	-71.045	-0.106	0.039
-384.990	-13.226	0.240	0.154
-383.975	136.257	-0.164	0.211
-382.960	-88.982	-0.116	-0.034
-381.946	-122.613	0.222	-0.036
-380.931	-153.028	0.286	0.020
-379.917	-200.000	0.015	-0.168
-378.902	149.712	0.159	0.213
-377.888	-200.000	-0.008	-0.174
-376.873	-72.935	-0.284	-0.103
-375.858	-79.217	-0.244	0.082
-374.844	-200.000	0.069	-0.335
-373.829	38.597	-0.022	-0.020
-372.815	-66.423	0.225	-0.088
-371.800	-200.000	0.045	0.353
-370.785	-162.460	-0.307	0.015
-369.771	-200.000	0.005	-0.037
-368.756	-100.297	0.317	0.078
-367.742	-200.000	0.000	-0.233
-366.727	-39.354	0.052	0.027
-365.712	-170.170	0.155	-0.005
-364.698	-151.299	0.073	-0.005
-363.683	-92.036	-0.134	-0.037
-362.669	108.103	-0.112	0.132
-361.654	125.114	0.278	-0.346
-360.639	10.800	0.133	0.100
-359.625	-200.000	0.024	0.294
-358.610	-200.000	0.009	0.094
-357.596	-120.858	0.220	0.036
-356.581	-15.280	-0.035	0.022
-355.566	18.627	-0.161	-0.127
-354.552	-200.000	0.014	0.152
-353.537	141.715	0.079	0.103
-352.523	302.082	-0.114	0.208
-351.508	-64.121	0.330	0.133
-350.493	200.947	0.111	0.168
-349.479	-73.575	0.273	0.098
-348.464	-55.285	0.257	0.114
-347.450	-137.710	0.166	0.018
-346.435	305.283	-0.173	0.318
-345.420	-96.328	0.102	-0.027
-344.406	-200.000	0.027	-0.218
-343.391	258.374	-0.165	0.280
-342.377	-200.000	-0.023	-0.242
-341.362	311.973	-0.111	0.206
-340.348	-77.363	0.522	0.179
-339.333	-82.872	0.165	0.053
-338.318	316.053	0.105	0.196
-337.304	91.434	-0.199	0.220
-336.289	526.111	-0.163	0.378
-335.275	800.000	0.067	-0.192
-334.260	-200.000	0.018	-0.133
-333.245	619.903	0.113	0.280
-332.231	-2.446	0.241	-0.166
-331.216	-200.000	0.017	-0.269
-330.202	-200.000	-0.035	-0.400
-329.187	-91.059	-0.049	0.014
-328.172	125.509	-0.060	0.074
-327.158	59.510	0.142	0.138
-326.143	424.308	-0.074	-0.156
-325.129	489.694	-0.070	0.157
-324.114	800.000	-0.070	-0.195
-323.099	20.317	-0.202	0.161
-322.085	-122.798	-0.381	-0.061
-321.070	114.512	0.105	0.126
-320.056	169.392	0.015	0.022
-319.041	98.066	-0.253	-0.287
-318.026	-96.588	0.392	-0.102
-317.012	34.905	0.220	-0.189
-315.997	-23.402	-0.350	0.207
-314.983	130.065	0.041	0.051
-313.968	60.979	-0.077	0.075
-312.953	161.138	-0.281	-0.387
-311.939	47.531	0.094	0.086
-310.924	-106.110	-0.121	-0.027
-309.910	46.631	-0.041	0.038
-308.895	-12.350	0.120	-0.077
-307.880	-81.433	-0.409	0.133
-306.866	62.075	-0.093	0.092
-305.851	-86.053	0.308	-0.094
-304.837	250.983	0.017	0.028
-303.822	800.000	-0.048	0.155
-302.807	-52.648	0.191	-0.087
-301.793	-170.257	0.244	0.008
-300.778	30.973	0.096	0.081
-299.764	-118.237	-0.099	0.017
-298.749	800.000	-0.103	0.291
-297.735	53.397	0.164	0.154
-296.720	368.814	-0.106	-0.212
-295.705	-70.058	0.288	-0.108
-294.691	-133.072	0.314	0.039
-293.676	8.417	-0.026	0.019
-292.662	800.000	0.120	0.375
-291.647	-139.304	0.261	-0.028
-290.632	-81.840	0.120	-0.039
-289.618	-200.000	-0.026	0.234
-288.603	-200.000	0.017	-0.105
-287.589	-71.452	0.197	0.073
-286.574	184.196	0.078	-0.114
-285.559	132.110	-0.258	-0.327
-284.545	-3.595	0.041	-0.028
-283.530	-197.339	-0.072	0.000
-282.516	149.362	0.110	0.146
-281.501	67.879	0.203	0.204
-280.486	-182.665	0.327	-0.006
-279.472	-200.000	-0.058	0.291
-278.457	-200.000	0.063	0.365
-277.443	203.205	0.161	-0.245
-276.428	-137.845	-0.117	-0.013
-275.413	-25.955	0.095	-0.055
-274.399	190.255	0.214	-0.316
-273.384	-11.635	0.054	-0.035
-272.370	126.560	-0.152	0.189
-271.355	-200.000	-0.000	0.317
-270.340	767.611	0.057	-0.152
-269.326	4.433	-0.049	0.036
-268.311	-69.109	0.215	-0.081
-267.297	34.006	-0.144	0.123
-266.282	-200.000	-0.073	0.375
-265.267	800.000	-0.091	0.285
-264.253	-17.204	0.045	0.028
-263.238	118.445	0.176	0.213
-262.224	-53.489	0.198	-0.089
-261.209	-20.800	-0.235	-0.142
-260.195	-200.000	-0.002	0.191
-259.180	-113.695	-0.155	0.030
-258.165	347.177	-0.082	-0.158
-257.151	-200.000	0.015	0.237
-256.136	98.147	0.169	0.192
-255.122	-200.000	-0.086	-0.373
-254.107	800.000	0.091	0.263
-253.092	-83.116	-0.174	0.055
-252.078	261.136	0.142	0.241
-251.063	-26.200	-0.062	0.036
-250.049	800.000	0.029	-0.102
-249.034	752.573	-0.106	-0.282
-248.019	-200.000	-0.003	0.050
-247.005	-71.150	0.109	-0.040
-245.990	-110.814	-0.160	0.032
-244.976	638.575	-0.166	0.416
-243.961	106.128	0.123	0.143
-242.946	-30.416	-0.359	-0.200
-241.932	-58.946	-0.243	-0.103
-240.917	45.800	-0.135	-0.123
-239.903	41.969	-0.140	-0.124
-238.888	-200.000	0.007	0.150
-237.873	358.187	0.050	-0.098
-236.859	-57.189	0.167	0.072
-235.844	70.719	0.163	0.165
-234.830	128.191	0.090	0.112
-233.815	-117.120	0.078	-0.014
-232.800	73.523	0.104	-0.107
-231.786	800.000	0.141	-0.413
-230.771	37.933	0.251	-0.219
-229.757	-85.239	-0.273	0.084
-228.742	-79.596	-0.240	0.079
-227.727	-200.000	0.012	-0.222
-226.713	-200.000	0.014	-0.149
-225.698	-97.545	-0.222	-0.057
-224.684	-114.441	0.023	0.004
-223.669	0.856	0.253	0.178
-222.655	-200.000	-0.008	0.189
-221.640	76.365	0.183	0.190
-220.625	164.107	0.048	-0.066
-219.611	-30.488	0.313	0.174
-218.596	115.140	-0.237	0.284
-217.582	16.956	0.309	-0.240
-216.567	-200.000	-0.013	-0.241
-215.552	755.564	-0.063	0.168
-214.538	62.955	-0.145	-0.142
-213.523	362.537	-0.233	0.459
-212.509	66.443	0.198	0.198
-211.494	28.626	-0.091	0.075
-210.479	141.346	-0.049	-0.063
-209.465	387.482	-0.043	0.087
-208.450	800.000	0.077	-0.282
-207.436	-134.214	0.216	0.026
-206.421	-200.000	0.075	-0.405
-205.406	-14.381	-0.186	-0.117
-204.392	364.262	-0.027	-0.054
-203.377	-101.633	-0.055	0.013
-202.363	39.570	0.178	0.157
-201.348	-200.000	0.045	-0.434
-200.333	445.793	-0.092	0.198
-199.319	361.887	-0.105	-0.206
-198.304	-200.000	0.042	0.412
-197.290	800.000	-0.027	0.088
-196.275	15.294	0.196	0.151
-195.260	-200.000	-0.039	-0.231
-194.246	70.501	0.082	0.083
-193.231	202.158	0.122	-0.184
-192.217	-30.964	0.133	-0.074
-191.202	5.688	-0.161	-0.117
-190.187	-28.313	-0.231	-0.131
-189.173	-132.369	-0.087	-0.011
-188.158	-133.748	-0.269	-0.033
-187.144	335.683	-0.138	0.262
-186.129	-5.423	-0.145	0.098
-185.114	800.000	0.027	-0.092
-184.100	621.572	-0.140	0.345
-183.085	-118.134	0.326	-0.057
-182.071	249.750	0.108	-0.179
-181.056	800.000	-0.032	-0.090
-180.042	800.000	0.122	-0.433
-179.027	296.126	0.067	0.120
-178.012	28.090	0.084	-0.069
-176.998	-25.018	-0.114	0.066
-175.983	-200.000	0.005	-0.213
-174.969	-133.224	-0.147	0.018
-173.954	17.522	-0.098	-0.076
-172.939	9.667	-0.022	-0.016
-171.925	-161.335	-0.149	0.008
-170.910	18.110	-0.085	0.066
-169.896	-74.169	-0.358	0.127
-168.881	-146.081	0.023	0.002
-167.866	-97.940	-0.354	0.089
-166.852	122.987	0.068	0.083
-165.837	355.649	0.030	0.059
-164.823	-96.871	-0.027	0.007
-163.808	-200.000	0.020	0.293
-162.793	-146.200	0.146	0.013
-161.779	130.917	0.092	0.116
-160.764	-200.000	-0.018	-0.216
-159.750	335.105	0.085	0.162
-158.735	-29.953	0.205	0.114
-157.720	222.770	-0.074	-0.117
-156.706	-84.792	-0.150	-0.046
-155.691	-39.290	0.056	0.029
-154.677	51.754	0.259	-0.241
-153.662	-200.000	-0.028	-0.195
-152.647	-119.173	-0.102	-0.017
-151.633	101.291	0.020	0.023
-150.618	-82.981	0.433	0.137
-149.604	-200.000	0.003	0.026
-148.589	39.342	-0.055	0.048
-147.574	-200.000	0.074	0.362
-146.560	316.036	-0.074	0.137
-145.545	21.308	0.154	0.123
-144.531	3.970	-0.236	0.169
-143.516	13.942	0.158	0.120
-142.502	6.474	-0.197	0.143
-141.487	800.000	-0.036	-0.137
-140.472	115.319	0.167	0.199
-139.458	-1.176	-0.089	-0.062
-138.443	3.440	0.224	-0.160
-137.429	344.682	-0.051	-0.099
-136.414	56.618	0.031	-0.029
-135.399	26.870	-0.090	0.074
-134.385	36.596	-0.197	-0.170
-133.370	648.543	-0.092	0.229
-132.356	-121.941	0.393	-0.063
-131.341	140.870	-0.217	0.281
-130.326	-200.000	-0.013	0.148
-129.312	-18.429	0.171	0.104
-128.297	800.000	0.051	0.208
-127.283	101.158	0.164	0.186
-126.268	51.426	-0.227	0.211
-125.253	-52.760	-0.149	0.067
-124.239	-185.998	0.047	0.001
-123.224	7.676	-0.217	-0.159
-122.210	800.000	0.067	0.275
-121.195	96.416	0.165	-0.185
-120.180	-60.442	0.099	0.041
