DTS Sentinel unit serial number:	SN413079Multiplexer serial number:	ORYXHardware model number:	OX4-SRSoftware version number:	ORYX F/W v4.00 Oryx Data Collector v3.7.2.0data status	okinstallation	princeton_trtdifferential loss correction	single-endedforward channel	channel 3reverse channel	N/Adate	2019/09/12time	18:41:03forward acquisition time	15.00reverse acquisition time	0.00gamma	496.2192k internal	0.2317k external	0.2317temperature offset calibration	1.0097default loss term (dB/km)	0.3790temperature slope calibration	1.0000multiplexer offset coefficient	1.0000multiplexer slope coefficient	1.0000fibre end	0.00T internal ref (°C)	33.06T ext. ref 1 (°C)	2.97T ext. ref 2 (°C)	27.63length (m)	temperature (°C)	Stokes	anti-Stokes-747.200	-82.716	-0.757	-0.248
-746.185	8.384	-0.734	0.559
-745.171	800.000	0.171	0.518
-744.156	-200.000	-0.125	0.941
-743.142	-48.706	-0.346	-0.168
-742.127	-200.000	0.017	0.618
-741.112	207.256	-0.221	0.349
-740.098	-36.921	-0.065	0.035
-739.083	337.555	0.255	-0.501
-738.069	36.599	0.204	0.182
-737.054	614.230	-0.089	0.226
-736.039	27.585	0.398	-0.339
-735.025	-11.164	-0.426	0.284
-734.010	-45.989	-0.212	-0.106
-732.996	-200.000	0.008	0.275
-731.981	-129.512	-1.153	-0.162
-730.966	-200.000	-0.060	0.459
-729.952	7.107	-0.362	0.273
-728.937	73.060	0.283	-0.299
-727.923	-200.000	-0.071	0.429
-726.908	-179.671	-0.394	0.009
-725.894	166.792	0.474	-0.680
-724.879	-116.749	1.000	-0.186
-723.864	-144.541	0.522	0.049
-722.850	-200.000	0.062	-0.299
-721.835	223.330	-0.271	-0.443
-720.821	26.998	-0.637	0.541
-719.806	800.000	0.197	0.638
-718.791	800.000	-0.155	-0.514
-717.777	-95.544	-0.422	0.115
-716.762	-111.505	-0.334	-0.069
-715.748	398.956	-0.410	0.867
-714.733	-200.000	0.077	0.600
-713.718	800.000	0.155	-0.514
-712.704	-18.807	-0.530	0.334
-711.689	99.637	0.557	0.652
-710.675	-48.354	-0.466	-0.227
-709.660	14.961	0.661	0.523
-708.645	-129.502	0.528	0.074
-707.631	731.015	0.049	0.132
-706.616	284.200	-0.257	0.467
-705.602	43.529	-0.188	0.174
-704.587	800.000	-0.118	0.459
-703.572	-96.113	-0.510	-0.137
-702.558	-200.000	0.128	-1.011
-701.543	489.216	0.309	-0.713
-700.529	-61.208	-1.156	0.492
-699.514	-115.883	-0.555	-0.105
-698.499	-94.570	0.757	-0.208
-697.485	48.182	-0.146	-0.138
-696.470	91.767	0.496	-0.564
-695.456	-200.000	0.053	-0.469
-694.441	-60.717	0.580	-0.248
-693.426	-31.600	0.383	0.218
-692.412	620.102	0.078	-0.197
-691.397	-200.000	-0.032	0.344
-690.383	171.080	-0.282	0.408
-689.368	72.605	0.201	0.211
-688.354	-50.660	-1.083	-0.515
-687.339	-200.000	0.018	0.480
-686.324	-119.716	-0.739	-0.129
-685.310	2.938	-0.485	-0.356
-684.295	-71.966	0.250	-0.094
-683.281	125.032	-0.085	0.108
-682.266	-53.305	0.972	0.450
-681.251	-112.622	-0.648	0.130
-680.237	700.256	-0.029	-0.077
-679.222	411.907	0.393	0.842
-678.208	191.385	-0.585	0.889
-677.193	-200.000	-0.096	-0.444
-676.178	-120.943	0.471	0.080
-675.164	1.032	-0.474	-0.343
-674.149	-200.000	0.057	0.261
-673.135	528.268	0.171	-0.407
-672.120	-200.000	0.046	-0.504
-671.105	-80.380	0.241	0.081
-670.091	-200.000	0.060	-0.526
-669.076	767.638	0.143	-0.394
-668.062	30.720	-0.206	0.178
-667.047	-200.000	0.105	0.551
-666.032	163.327	-0.456	0.647
-665.018	81.586	-0.582	0.636
-664.003	414.935	-0.023	0.050
-662.989	-89.055	0.431	0.129
-661.974	-200.000	0.123	0.952
-660.959	-36.717	-0.490	0.266
-659.945	-200.000	-0.079	-0.633
-658.930	-53.242	0.411	-0.190
-657.916	-26.670	-0.720	0.425
-656.901	-146.185	0.563	0.050
-655.886	-100.066	0.532	-0.134
-654.872	800.000	0.076	-0.255
-653.857	137.677	-0.300	0.396
-652.843	-200.000	-0.560	-0.003
-651.828	-99.294	0.451	0.115
-650.814	-41.623	-0.429	-0.223
-649.799	29.521	-0.281	-0.241
-648.784	4.229	-0.434	0.321
-647.770	-88.023	-0.256	0.078
-646.755	-186.954	0.206	0.003
-645.741	-47.408	0.082	0.040
-644.726	-76.672	-0.548	-0.194
-643.711	-90.837	0.494	0.144
-642.697	5.215	0.249	0.185
-641.682	-41.348	0.232	0.120
-640.668	-58.812	-0.507	0.221
-639.653	202.814	-0.208	-0.324
-638.638	-200.000	0.115	0.753
-637.624	-62.682	0.968	0.405
-636.609	227.849	-0.408	0.669
-635.595	218.191	-0.146	0.236
-634.580	338.038	0.307	0.601
-633.565	94.461	-0.252	-0.289
-632.551	98.362	-0.283	-0.328
-631.536	435.824	0.356	0.781
-630.522	-197.961	-0.683	0.004
-629.507	-114.828	-0.420	0.081
-628.492	152.291	0.350	0.482
-627.478	-47.915	-0.333	0.162
-626.463	-117.171	0.562	0.103
-625.449	-172.996	-0.741	-0.023
-624.434	-18.016	-0.207	0.131
-623.419	-113.189	-0.116	-0.023
-622.405	-200.000	-0.137	-0.632
-621.390	191.596	0.307	-0.466
-620.376	-130.541	-0.930	-0.127
-619.361	4.000	0.244	-0.180
-618.346	-33.411	-0.632	-0.352
-617.332	-81.681	-0.319	-0.105
-616.317	-137.866	0.312	-0.035
-615.303	-200.000	-0.041	-0.437
-614.288	-54.191	0.689	0.315
-613.273	108.641	-0.266	0.320
-612.259	786.875	-0.347	-0.959
-611.244	2.616	0.288	0.210
-610.230	368.298	-0.369	0.752
-609.215	800.000	0.075	-0.314
-608.201	-139.682	-0.927	-0.099
-607.186	207.750	-0.216	0.340
-606.171	-57.221	0.743	-0.329
-605.157	71.695	0.475	-0.497
-604.142	37.815	-0.236	-0.211
-603.128	284.070	0.057	-0.104
-602.113	-16.173	-0.358	-0.229
-601.098	119.372	-0.332	-0.413
-600.084	117.725	0.198	-0.246
-599.069	-200.000	-0.025	-0.299
-598.055	-200.000	0.094	-0.802
-597.040	-191.499	0.315	0.003
-596.025	-52.616	-0.167	-0.078
-595.011	250.242	-0.581	0.993
-593.996	-54.885	0.717	-0.326
-592.982	-79.572	-0.449	0.153
-591.967	-156.686	0.193	-0.012
-590.952	800.000	-0.155	0.651
-589.938	-117.070	0.301	-0.055
-588.923	288.298	0.288	-0.524
-587.909	22.697	-0.061	0.051
-586.894	-45.106	-0.264	0.132
-585.879	-200.000	0.092	0.604
-584.865	11.177	0.797	-0.614
-583.850	-200.000	0.008	-0.272
-582.836	-97.057	-0.509	0.134
-581.821	-36.278	-0.210	-0.114
-580.806	105.717	0.189	0.225
-579.792	-78.730	0.332	0.114
-578.777	-95.174	-0.501	0.136
-577.763	785.665	0.070	-0.192
-576.748	-200.000	0.005	0.617
-575.733	310.639	-0.540	1.017
-574.719	-46.388	0.307	0.152
-573.704	-200.000	0.097	0.795
-572.690	-200.000	0.005	0.025
-571.675	167.206	-0.360	0.514
-570.661	312.751	0.481	0.908
-569.646	47.704	0.161	0.151
-568.631	-72.971	-0.382	-0.141
-567.617	32.609	0.292	-0.254
-566.602	-200.000	0.060	-0.317
-565.588	-35.458	-0.031	0.017
-564.573	-146.513	-0.171	-0.015
-563.558	730.689	0.137	0.368
-562.544	29.650	0.358	-0.306
-561.529	11.754	0.157	-0.121
-560.515	121.284	-0.306	-0.383
-559.500	800.000	0.160	-0.689
-558.485	-66.442	0.577	-0.230
-557.471	-98.735	0.724	0.185
-556.456	800.000	-0.101	-0.342
-555.442	10.572	-0.404	-0.309
-554.427	-133.113	-1.142	0.145
-553.412	-102.714	0.184	-0.044
-552.398	-156.146	0.228	0.014
-551.383	353.304	0.289	0.576
-550.369	-78.476	-0.353	-0.121
-549.354	176.168	0.085	-0.124
-548.339	-43.512	-0.878	0.445
-547.325	-142.096	0.340	0.034
-546.310	571.404	-0.368	0.900
-545.296	34.364	0.313	-0.274
-544.281	118.845	-0.381	-0.473
-543.266	177.456	-0.191	0.280
-542.252	308.235	0.311	0.583
-541.237	-200.000	0.150	-0.910
-540.223	136.114	0.249	-0.326
-539.208	576.142	0.069	0.169
-538.193	-114.132	0.676	0.131
-537.179	-136.273	-0.195	-0.023
-536.164	-200.000	0.023	-0.350
-535.150	-81.669	0.270	0.089
-534.135	-200.000	-0.103	-0.466
-533.121	-97.672	0.270	-0.070
-532.106	33.819	0.386	0.338
-531.091	-200.000	0.034	-0.434
-530.077	199.615	0.073	0.112
-529.062	-34.916	-0.418	0.229
-528.048	-77.454	0.590	0.206
-527.033	172.417	-0.111	-0.160
-526.018	-200.000	0.029	-0.308
-525.004	-14.982	-0.509	-0.327
-523.989	-168.049	-0.383	0.015
-522.975	26.618	0.413	0.347
-521.960	57.220	0.279	-0.273
-520.945	800.000	-0.056	0.209
-519.931	-39.850	-0.318	-0.167
-518.916	-43.296	-0.809	-0.411
-517.902	-5.694	0.340	-0.234
-516.887	-158.452	-0.425	0.025
-515.872	-200.000	0.053	0.385
-514.858	-183.196	-0.498	-0.009
-513.843	125.362	-0.541	0.685
-512.829	143.511	0.134	0.180
-511.814	676.028	0.117	-0.306
-510.799	10.976	0.335	0.257
-509.785	258.232	-0.450	0.777
-508.770	-138.299	-0.727	0.081
-507.756	-200.000	-0.008	0.319
-506.741	-200.000	-0.042	-0.382
-505.726	800.000	-0.242	0.687
-504.712	-200.000	0.074	-0.379
-503.697	-104.277	0.664	0.155
-502.683	26.707	-0.429	-0.361
-501.668	23.898	0.056	0.046
-500.653	194.590	0.273	-0.415
-499.639	-40.601	-0.967	0.503
-498.624	-34.890	0.052	-0.029
-497.610	-123.291	0.949	-0.152
-496.595	289.272	0.474	0.862
-495.581	-85.400	-0.730	-0.228
-494.566	-200.000	-0.049	-0.392
-493.551	182.781	-0.296	-0.437
-492.537	-96.174	0.081	-0.021
-491.522	-191.338	1.099	0.011
-490.508	355.291	-0.094	-0.186
-489.493	-136.853	-0.481	0.055
-488.478	-122.692	0.742	-0.120
-487.464	-200.000	0.057	-0.333
-486.449	77.319	-0.431	-0.460
-485.435	350.170	0.076	0.150
-484.420	-6.131	-0.623	0.427
-483.405	-30.941	-0.370	-0.210
-482.391	77.880	-0.435	-0.465
-481.376	-58.949	-0.899	-0.389
-480.362	297.994	0.423	0.780
-479.347	-200.000	-0.033	-0.405
-478.332	353.756	-0.259	-0.516
-477.318	22.483	-0.274	0.224
-476.303	-91.614	-0.080	-0.023
-475.289	75.721	0.530	0.561
-474.274	-95.556	0.227	-0.061
-473.259	391.009	0.365	0.760
-472.245	-200.000	0.037	0.393
-471.230	-200.000	0.047	0.379
-470.216	-122.852	-0.488	0.079
-469.201	-14.042	-0.531	-0.343
-468.186	323.148	0.225	0.429
-467.172	74.337	0.071	0.075
-466.157	-169.082	-0.343	0.013
-465.143	-200.000	-0.029	0.370
-464.128	-200.000	0.023	-0.383
-463.113	-200.000	-0.073	-0.544
-462.099	-200.000	0.035	0.187
-461.084	-200.000	-0.101	0.512
-460.070	-41.904	-0.557	-0.286
-459.055	800.000	0.127	0.540
-458.040	-16.084	0.990	0.630
-457.026	8.520	0.235	-0.177
-456.011	800.000	-0.112	0.415
-454.997	-200.000	-0.003	-0.958
-453.982	-64.120	0.420	-0.171
-452.968	-32.244	0.244	0.136
-451.953	-110.051	0.354	0.074
-450.938	437.815	-0.090	0.197
-449.924	-68.937	0.249	0.096
-448.909	90.286	0.024	-0.027
-447.895	-200.000	-0.008	-0.532
-446.880	-200.000	-0.093	-0.584
-445.865	260.048	-0.065	-0.113
-444.851	177.371	0.226	-0.329
-443.836	63.428	0.525	-0.526
-442.822	-107.213	1.040	-0.229
-441.807	-30.192	0.373	-0.212
-440.792	6.276	-0.116	0.086
-439.778	-200.000	-0.075	-0.828
-438.763	37.038	-0.667	-0.591
-437.749	354.172	-0.080	0.160
-436.734	-152.680	-0.196	-0.014
-435.719	-112.539	-0.372	-0.074
-434.705	6.992	0.295	-0.220
-433.690	57.544	-0.205	-0.201
-432.676	-83.489	0.436	0.140
-431.661	268.126	-0.288	0.504
-430.646	-150.774	-0.406	-0.031
-429.632	107.913	0.560	0.668
-428.617	99.342	-0.270	0.312
-427.603	-89.970	0.883	0.258
-426.588	-200.000	0.014	-0.068
-425.573	-200.000	0.027	-0.350
-424.559	53.971	-0.360	0.346
-423.544	276.025	0.193	0.343
-422.530	800.000	0.119	-0.380
-421.515	43.463	0.408	0.373
-420.500	-3.416	-0.749	-0.521
-419.486	707.900	-0.061	0.161
-418.471	-200.000	0.120	1.316
-417.457	-42.617	-0.296	-0.151
-416.442	8.303	-0.464	0.348
-415.428	-50.979	0.511	-0.240
-414.413	143.366	0.243	-0.323
-413.398	-170.651	-0.498	0.017
-412.384	-151.488	-0.444	0.033
-411.369	78.726	0.413	0.441
-410.355	-104.762	0.322	-0.074
-409.340	91.110	-0.437	-0.489
-408.325	-89.879	-0.150	0.044
-407.311	5.995	-0.586	0.434
-406.296	35.616	-0.590	-0.518
-405.282	55.208	0.560	-0.540
-404.267	-163.384	-0.629	-0.030
-403.252	111.071	-0.300	-0.361
-402.238	800.000	-0.101	0.290
-401.223	-0.975	-0.687	0.485
-400.209	-17.783	-0.608	-0.381
-399.194	-158.118	-0.838	0.049
-398.179	-200.000	0.100	0.574
-397.165	35.708	0.289	0.254
-396.150	441.952	-0.212	0.464
-395.136	-62.687	0.569	-0.236
-394.121	53.838	-0.348	-0.334
-393.106	-200.000	-0.023	-0.849
-392.092	620.942	0.381	0.956
-391.077	-40.740	-0.199	0.103
-390.063	-200.000	0.074	0.448
-389.048	692.045	-0.217	0.568
-388.033	-110.299	-0.576	-0.120
-387.019	-200.000	-0.203	1.166
-386.004	791.342	0.129	0.355
-384.990	-200.000	-0.003	-0.431
-383.975	-93.287	0.555	-0.154
-382.960	-70.542	0.697	-0.263
-381.946	338.647	0.126	0.245
-380.931	-105.579	-0.220	-0.050
-379.917	-116.966	1.578	0.288
-378.902	-200.000	0.036	-0.189
-377.888	-159.407	0.810	-0.045
-376.873	800.000	-0.091	-0.265
-375.858	-74.954	-0.117	-0.042
-374.844	79.198	-0.696	0.744
-373.829	-31.573	0.560	0.314
-372.815	800.000	0.256	0.733
-371.800	498.111	-0.465	1.069
-370.785	-136.953	-0.293	-0.034
-369.771	107.891	-0.737	-0.876
-368.756	37.086	-0.189	0.167
-367.742	-150.450	0.358	0.027
-366.727	800.000	-0.120	0.393
-365.712	800.000	-0.129	0.404
-364.698	-200.000	-0.009	0.264
-363.683	29.149	0.452	-0.382
-362.669	-200.000	-0.130	0.931
-361.654	800.000	0.243	0.716
-360.639	119.051	-0.264	-0.325
-359.625	-200.000	-0.107	0.524
-358.610	800.000	-0.015	0.050
-357.596	353.961	-0.230	0.456
-356.581	-120.571	-0.501	-0.085
-355.566	800.000	-0.145	-0.629
-354.552	58.028	0.320	-0.312
-353.537	100.648	0.676	-0.783
-352.523	-111.440	-0.567	0.115
-351.508	800.000	-0.062	-0.255
-350.493	-195.365	0.193	0.001
-349.479	173.447	0.243	0.350
-348.464	447.442	0.088	0.194
-347.450	-22.886	-0.512	-0.308
-346.435	10.079	-0.524	0.397
-345.420	-107.595	0.481	-0.105
-344.406	217.709	0.472	-0.749
-343.391	-67.628	-0.585	-0.229
-342.377	101.403	-0.235	-0.272
-341.362	-54.999	-0.910	0.408
-340.348	355.320	-0.338	0.670
-339.333	-138.556	0.117	-0.013
-338.318	100.406	-0.054	0.062
-337.304	53.562	-0.334	-0.320
-336.289	246.512	0.488	-0.820
-335.275	236.916	-0.478	0.789
-334.260	-20.453	-0.631	-0.387
-333.245	252.142	0.208	0.353
-332.231	375.743	0.141	-0.287
-331.216	-200.000	0.051	-0.766
-330.202	-72.462	0.079	-0.029
-329.187	0.997	0.112	-0.080
-328.172	-200.000	-0.044	-0.551
-327.158	-200.000	0.167	-0.782
-326.143	-200.000	0.090	0.795
-325.129	-61.208	0.262	0.110
-324.114	466.047	-0.164	-0.365
-323.099	-163.561	-0.825	-0.039
-322.085	-61.912	-0.203	0.084
-321.070	-114.527	0.365	-0.070
-320.056	800.000	0.062	0.186
-319.041	-43.093	0.732	-0.370
-318.026	-72.070	0.587	-0.217
-317.012	800.000	-0.110	-0.470
-315.997	-111.230	0.796	0.162
-314.983	-200.000	-0.008	-0.580
-313.968	1.546	0.966	-0.692
-312.953	-200.000	0.043	-0.344
-311.939	-200.000	0.011	-0.304
-310.924	-73.676	0.558	-0.202
-309.910	148.130	0.628	0.844
-308.895	-92.064	0.379	0.107
-307.880	-55.638	0.810	-0.361
-306.866	10.715	0.398	0.302
-305.851	193.749	0.146	0.220
-304.837	147.859	0.406	0.544
-303.822	-90.104	-0.767	0.222
-302.807	-59.662	-0.768	0.327
-301.793	-55.760	0.740	-0.329
-300.778	800.000	-0.140	0.578
-299.764	81.215	-0.406	-0.436
-298.749	800.000	-0.307	1.048
-297.735	263.319	0.105	-0.181
-296.720	-200.000	-0.109	0.639
-295.705	-92.654	0.359	-0.100
-294.691	-76.040	-0.587	-0.206
-293.676	-122.178	0.214	0.035
-292.662	800.000	-0.105	0.390
-291.647	-200.000	-0.203	-1.040
-290.632	101.655	-0.238	-0.276
-289.618	-116.487	-0.327	-0.060
-288.603	122.189	0.439	-0.545
-287.589	-56.998	0.232	0.102
-286.574	734.178	-0.119	0.316
-285.559	-200.000	0.195	-0.915
-284.545	20.235	0.683	-0.548
-283.530	-83.543	-0.593	0.189
-282.516	-127.695	0.421	-0.060
-281.501	317.338	0.134	0.253
-280.486	43.902	-0.185	-0.168
-279.472	-173.395	-0.285	-0.009
-278.457	-59.654	-0.642	-0.274
-277.443	378.371	-0.566	1.150
-276.428	-155.536	-0.272	-0.017
-275.413	-15.078	0.368	0.235
-274.399	-158.160	-0.137	0.008
-273.384	-11.071	0.288	-0.189
-272.370	19.652	0.175	0.140
-271.355	212.537	0.128	0.201
-270.340	-84.044	-0.621	0.196
-269.326	-140.643	0.634	0.065
-268.311	427.361	0.246	0.528
-267.297	253.658	0.346	0.588
-266.282	-83.446	0.438	-0.139
-265.267	-131.446	0.630	0.083
-264.253	762.255	0.126	0.341
-263.238	679.577	-0.150	0.388
-262.224	52.390	-0.262	-0.248
-261.209	-84.321	-0.246	0.077
-260.195	-162.894	-1.132	-0.055
-259.180	-44.358	0.349	-0.174
-258.165	-55.965	0.454	0.201
-257.151	-111.364	-0.821	0.166
-256.136	169.725	0.674	-0.957
-255.122	-27.869	0.535	0.308
-254.107	183.954	0.157	0.230
-253.092	-119.460	0.512	-0.088
-252.078	-192.340	-0.709	0.007
-251.063	187.836	-0.070	0.104
-250.049	-114.311	-0.939	-0.180
-249.034	147.056	0.108	0.145
-248.019	342.852	0.150	-0.291
-247.005	223.124	0.284	-0.454
-245.990	800.000	-0.230	0.935
-244.976	-200.000	0.066	0.653
-243.961	800.000	0.067	0.256
-242.946	-4.247	-0.169	-0.116
-241.932	130.921	0.220	0.280
-240.917	194.616	-0.350	-0.526
-239.903	59.912	0.416	0.408
-238.888	-200.000	0.040	-0.533
-237.873	-117.794	-0.577	-0.103
-236.859	-34.041	-0.344	0.188
-235.844	800.000	0.059	-0.189
-234.830	631.621	0.153	-0.384
-233.815	-23.802	0.143	-0.085
-232.800	113.360	0.536	-0.646
-231.786	29.682	-0.430	0.363
-230.771	202.965	0.316	0.485
-229.757	-105.336	0.606	-0.137
-228.742	-45.759	0.510	-0.250
-227.727	-148.858	0.682	0.055
-226.713	-148.186	-0.748	-0.061
-225.698	-200.000	0.017	-1.123
-224.684	-109.184	0.509	0.107
-223.669	-79.791	0.180	0.060
-222.655	-17.142	-0.440	-0.275
-221.640	800.000	0.080	-0.299
-220.625	-10.916	0.291	0.191
-219.611	-200.000	-0.023	0.300
-218.596	-35.717	-0.477	-0.256
-217.582	-49.609	-0.479	-0.226
-216.567	-59.827	0.365	0.155
-215.552	570.642	0.274	-0.662
-214.538	650.806	0.244	-0.620
-213.523	205.764	0.484	-0.746
-212.509	-162.135	-0.427	0.021
-211.494	-117.768	-0.371	-0.066
-210.479	479.095	0.133	0.300
-209.465	-102.782	0.507	0.120
-208.450	-200.000	0.035	0.710
-207.436	800.000	0.023	0.078
-206.421	12.378	-0.820	-0.626
-205.406	800.000	0.171	-0.646
-204.392	12.049	-0.421	0.321
-203.377	92.319	0.218	-0.243
-202.363	800.000	0.188	0.524
-201.348	-150.144	-0.780	0.060
-200.333	800.000	0.231	-0.766
-199.319	510.725	0.247	-0.570
-198.304	71.665	0.316	-0.325
-197.290	-200.000	-0.001	-0.025
-196.275	-47.833	-0.709	0.340
-195.260	1.743	0.720	0.514
-194.246	-89.969	-0.248	-0.072
-193.231	-61.752	0.396	-0.164
-192.217	-100.376	0.326	-0.080
-191.202	-200.000	0.040	-0.762
-190.187	163.913	0.358	0.499
-189.173	39.529	-0.476	0.423
-188.158	625.305	0.102	0.254
-187.144	611.766	-0.127	0.314
-186.129	800.000	0.083	-0.350
-185.114	86.424	-0.349	0.381
-184.100	-64.880	0.237	0.095
-183.085	-200.000	0.058	-0.525
-182.071	800.000	-0.296	-0.858
-181.056	168.349	0.330	-0.465
-180.042	632.886	0.162	-0.406
-179.027	-147.968	0.783	-0.064
-178.012	-22.602	-0.180	-0.108
-176.998	27.750	0.349	0.291
-175.983	-23.929	-1.340	0.794
-174.969	800.000	-0.108	-0.441
-173.954	30.045	0.019	0.016
-172.939	-200.000	-0.102	0.483
-171.925	172.581	-0.451	0.643
-170.910	-130.930	0.861	0.114
-169.896	-200.000	0.011	0.309
-168.881	202.434	0.550	-0.841
-167.866	800.000	0.036	-0.102
-166.852	117.783	0.419	-0.511
-165.837	-113.242	-0.253	0.049
-164.823	-200.000	0.063	-0.500
-163.808	628.969	-0.207	-0.518
-162.793	800.000	-0.075	0.209
-161.779	-33.521	0.374	0.204
-160.764	-200.000	-0.049	-0.487
-159.750	-27.320	0.573	0.330
-158.735	-2.886	0.847	-0.586
-157.720	800.000	-0.245	-0.680
-156.706	-102.562	-0.578	0.137
-155.691	-88.396	0.269	0.079
-154.677	800.000	0.138	0.396
-153.662	-39.404	0.320	0.166
-152.647	-200.000	0.025	-0.469
-151.633	-200.000	-0.026	-0.332
-150.618	-89.381	0.615	0.179
-149.604	-83.367	-0.264	-0.084
-148.589	-156.756	1.056	0.064
-147.574	800.000	-0.248	-0.777
-146.560	126.305	0.393	-0.491
-145.545	32.123	0.079	0.068
-144.531	-65.942	-0.338	0.133
-143.516	126.091	0.287	-0.358
-142.502	800.000	0.322	0.952
-141.487	-200.000	0.080	0.688
-140.472	-36.222	-0.508	0.271
-139.458	-93.180	-0.951	0.261
-138.443	-200.000	-0.160	-0.888
-137.429	-172.724	0.299	-0.009
-136.414	88.253	-0.515	0.565
-135.399	-200.000	-0.004	0.222
-134.385	-119.377	0.653	0.112
-133.370	-200.000	0.082	1.104
-132.356	439.883	-0.297	-0.641
-131.341	-200.000	0.122	0.588
-130.326	-99.135	-0.864	0.216
-129.312	-31.536	0.155	-0.086
-128.297	800.000	-0.086	0.246
-127.283	-200.000	0.065	-0.455
-126.268	115.560	0.345	-0.416
-125.253	-39.948	-0.291	0.150
-124.239	-34.160	-0.111	0.060
-123.224	-200.000	-0.009	0.332
-122.210	280.249	0.418	-0.739
-121.195	-8.154	-0.239	0.159
