DTS Sentinel unit serial number:	SN413079Multiplexer serial number:	ORYXHardware model number:	OX4-SRSoftware version number:	ORYX F/W v4.00 Oryx Data Collector v3.7.2.0data status	okinstallation	princeton_trtdifferential loss correction	single-endedforward channel	channel 3reverse channel	N/Adate	2019/09/15time	05:44:35forward acquisition time	60.00reverse acquisition time	0.00gamma	496.2192k internal	0.2325k external	0.2325temperature offset calibration	0.9978default loss term (dB/km)	0.3790temperature slope calibration	1.0000multiplexer offset coefficient	1.0000multiplexer slope coefficient	1.0000fibre end	0.00T internal ref (°C)	30.62T ext. ref 1 (°C)	4.81T ext. ref 2 (°C)	25.74length (m)	temperature (°C)	Stokes	anti-Stokes-747.200	-132.555	-0.124	-0.016
-746.185	24.304	-0.201	0.167
-745.171	-89.390	0.345	0.102
-744.156	-106.279	-0.135	-0.031
-743.142	214.035	-0.157	-0.251
-742.127	-114.209	-0.297	-0.058
-741.112	-200.000	-0.015	0.220
-740.098	-48.137	-0.173	-0.084
-739.083	-34.749	0.196	0.108
-738.069	-146.729	-0.234	-0.020
-737.054	800.000	-0.030	0.104
-736.039	-6.785	-0.150	-0.103
-735.025	-200.000	-0.001	0.439
-734.010	345.185	-0.122	-0.242
-732.996	-200.000	-0.110	-0.649
-731.981	10.623	-0.154	-0.119
-730.966	449.536	0.038	-0.085
-729.952	90.267	-0.094	0.106
-728.937	-134.679	-0.048	0.006
-727.923	340.314	0.060	-0.118
-726.908	-177.527	-0.275	0.007
-725.894	553.072	0.129	-0.312
-724.879	107.343	0.140	-0.168
-723.864	800.000	-0.023	-0.076
-722.850	800.000	0.070	0.213
-721.835	62.804	-0.078	-0.079
-720.821	164.359	-0.139	0.198
-719.806	167.461	0.145	-0.208
-718.791	154.868	0.073	-0.101
-717.777	-7.109	0.203	-0.139
-716.762	-88.128	0.485	0.147
-715.748	-103.393	-0.500	0.119
-714.733	-200.000	-0.011	-0.103
-713.718	-2.403	-0.097	0.069
-712.704	800.000	0.025	-0.091
-711.689	-31.485	-0.135	-0.076
-710.675	43.118	-0.037	0.034
-709.660	-22.321	0.114	-0.069
-708.645	-50.326	-0.276	0.131
-707.631	586.762	-0.066	0.163
-706.616	-200.000	0.059	0.319
-705.602	-27.393	0.050	0.029
-704.587	132.176	0.169	-0.219
-703.572	-200.000	-0.001	0.278
-702.558	12.465	0.047	0.037
-701.543	366.401	-0.181	0.368
-700.529	-200.000	0.089	-0.514
-699.514	-200.000	-0.088	-0.399
-698.499	-63.281	0.091	-0.038
-697.485	800.000	-0.067	0.236
-696.470	112.765	0.084	0.102
-695.456	-0.109	0.125	0.090
-694.441	143.080	0.125	-0.167
-693.426	-86.385	-0.124	0.038
-692.412	34.280	-0.178	-0.156
-691.397	-44.924	-0.018	0.009
-690.383	-66.149	0.414	-0.166
-689.368	13.818	0.053	-0.042
-688.354	278.915	0.076	-0.136
-687.339	44.125	-0.131	0.121
-686.324	-88.154	-0.150	0.045
-685.310	-129.987	-0.164	-0.023
-684.295	201.497	-0.130	0.202
-683.281	687.719	-0.094	-0.248
-682.266	-109.700	0.241	0.051
-681.251	-200.000	0.008	-0.148
-680.237	51.133	-0.340	-0.325
-679.222	67.701	0.236	0.243
-678.208	245.818	0.228	0.386
-677.193	308.131	0.150	-0.281
-676.178	-18.127	-0.160	0.101
-675.164	319.899	-0.084	0.161
-674.149	-32.393	-0.350	0.196
-673.135	-40.917	-0.070	-0.036
-672.120	26.079	0.033	0.028
-671.105	408.579	-0.076	0.161
-670.091	178.456	-0.075	-0.110
-669.076	-108.432	-0.322	0.070
-668.062	141.934	-0.219	-0.292
-667.047	204.524	0.175	-0.273
-666.032	-200.000	-0.043	0.213
-665.018	8.834	0.152	-0.116
-664.003	12.701	-0.227	0.177
-662.989	-86.482	-0.046	-0.014
-661.974	214.176	-0.114	-0.182
-660.959	-200.000	0.051	0.360
-659.945	335.814	-0.062	-0.121
-658.930	-18.243	0.147	-0.092
-657.916	800.000	-0.057	0.160
-656.901	-102.100	-0.307	-0.074
-655.886	465.542	-0.026	-0.059
-654.872	-200.000	0.071	-0.372
-653.857	-200.000	-0.009	-0.158
-652.843	601.969	0.068	-0.170
-651.828	-58.410	-0.175	-0.076
-650.814	-200.000	0.042	0.401
-649.799	82.288	-0.055	-0.060
-648.784	453.989	-0.041	0.092
-647.770	-137.551	-0.046	-0.005
-646.755	48.414	-0.058	0.054
-645.741	800.000	0.033	-0.125
-644.726	-200.000	0.034	0.171
-643.711	-200.000	-0.001	-0.383
-642.697	782.991	0.078	-0.215
-641.682	-129.252	-0.173	-0.024
-640.668	296.832	-0.111	-0.204
-639.653	-11.444	0.238	0.157
-638.638	107.137	-0.174	-0.207
-637.624	-6.409	-0.259	0.178
-636.609	74.184	0.122	0.129
-635.595	-41.408	-0.050	0.026
-634.580	616.183	0.119	-0.300
-633.565	-145.933	0.293	0.026
-632.551	507.237	-0.005	0.011
-631.536	410.722	0.075	0.160
-630.522	612.189	-0.116	0.290
-629.507	-88.128	-0.133	0.040
-628.492	-200.000	-0.023	-0.130
-627.478	-200.000	0.043	0.225
-626.463	-200.000	-0.020	0.143
-625.449	-112.249	0.273	0.055
-624.434	-189.457	0.054	0.001
-623.419	-42.253	0.381	0.195
-622.405	48.281	0.077	-0.072
-621.390	-139.321	0.208	-0.022
-620.376	800.000	-0.039	-0.164
-619.361	-200.000	-0.053	0.264
-618.346	355.049	-0.134	-0.268
-617.332	-200.000	0.021	0.106
-616.317	-37.549	-0.294	0.157
-615.303	88.943	-0.233	-0.260
-614.288	132.821	-0.135	-0.175
-613.273	-76.740	0.148	0.052
-612.259	391.611	-0.110	-0.230
-611.244	37.441	-0.174	-0.155
-610.230	54.760	-0.125	-0.121
-609.215	-200.000	-0.008	-0.317
-608.201	22.235	-0.136	-0.112
-607.186	459.493	0.070	-0.155
-606.171	-159.739	0.305	-0.017
-605.157	9.888	0.102	-0.078
-604.142	-8.064	0.081	0.055
-603.128	104.906	-0.166	0.196
-602.113	-167.561	-0.329	-0.013
-601.098	343.135	-0.126	-0.249
-600.084	490.293	0.077	0.177
-599.069	-26.826	0.203	0.119
-598.055	69.046	0.078	0.081
-597.040	68.335	0.212	-0.218
-596.025	-200.000	-0.023	0.177
-595.011	-99.901	-0.062	0.016
-593.996	-82.942	0.309	-0.100
-592.982	320.736	-0.080	-0.152
-591.967	-200.000	-0.055	-0.313
-590.952	91.606	-0.159	-0.179
-589.938	140.003	-0.185	0.244
-588.923	-12.214	-0.201	0.132
-587.909	30.338	0.056	-0.048
-586.894	-200.000	0.026	-0.264
-585.879	-47.503	-0.309	0.150
-584.865	236.468	-0.178	-0.296
-583.850	-200.000	-0.014	-0.239
-582.836	-131.800	-0.186	0.024
-581.821	378.439	-0.090	-0.185
-580.806	-40.079	-0.287	0.150
-579.792	-109.534	0.136	0.029
-578.777	-200.000	0.021	-0.156
-577.763	344.911	-0.140	0.276
-576.748	459.013	0.108	-0.241
-575.733	-99.172	-0.157	0.040
-574.719	800.000	0.031	-0.087
-573.704	1.278	0.162	-0.117
-572.690	690.081	0.154	-0.403
-571.675	64.492	-0.118	0.120
-570.661	-106.950	-0.296	-0.066
-569.646	-136.672	0.385	0.045
-568.631	800.000	0.069	-0.271
-567.617	-200.000	-0.003	0.201
-566.602	-200.000	-0.023	-0.138
-565.588	-200.000	-0.051	-0.323
-564.573	-108.960	0.111	0.024
-563.558	-21.138	-0.269	0.165
-562.544	-200.000	0.008	-0.104
-561.529	800.000	-0.033	0.093
-560.515	-22.855	0.265	0.160
-559.500	-200.000	0.020	0.204
-558.485	-144.024	0.305	-0.029
-557.471	-124.683	0.090	-0.014
-556.456	800.000	0.043	-0.150
-555.442	200.444	-0.081	0.125
-554.427	-200.000	0.010	0.051
-553.412	-42.040	-0.253	0.130
-552.398	-145.704	-0.608	0.054
-551.383	47.720	0.237	-0.221
-550.369	24.014	0.245	-0.202
-549.354	239.359	-0.158	-0.263
-548.339	-101.384	0.134	-0.033
-547.325	-33.004	0.312	-0.173
-546.310	93.779	-0.115	-0.130
-545.296	66.105	-0.097	-0.098
-544.281	-23.070	-0.244	0.147
-543.266	800.000	-0.119	-0.358
-542.252	-75.597	-0.138	-0.049
-541.237	173.726	-0.162	0.234
-540.223	-200.000	0.029	-0.196
-539.208	-83.220	0.102	0.033
-538.193	800.000	-0.139	-0.452
-537.179	-200.000	-0.029	0.171
-536.164	72.566	0.017	-0.018
-535.150	-62.693	-0.271	0.112
-534.135	199.984	0.243	0.374
-533.121	800.000	-0.084	0.280
-532.106	-90.298	-0.167	-0.049
-531.091	114.884	-0.195	-0.238
-530.077	800.000	-0.102	0.308
-529.062	149.252	0.156	0.211
-528.048	800.000	-0.038	-0.154
-527.033	148.873	0.095	0.128
-526.018	563.459	-0.118	0.285
-525.004	-29.517	0.337	0.193
-523.989	-89.307	-0.246	-0.072
-522.975	-38.201	-0.220	-0.117
-521.960	-82.909	0.101	-0.033
-520.945	800.000	0.017	0.052
-519.931	211.375	0.116	0.183
-518.916	-26.095	0.192	-0.113
-517.902	271.789	0.146	-0.257
-516.887	-200.000	0.194	-0.001
-515.872	467.513	0.139	0.312
-514.858	-89.610	0.132	-0.039
-513.843	25.652	-0.375	0.312
-512.829	68.081	0.192	0.196
-511.814	-98.995	0.171	0.043
-510.799	-200.000	-0.012	-0.143
-509.785	-31.797	0.222	0.124
-508.770	-117.170	-0.171	0.031
-507.756	-7.606	-0.100	-0.068
-506.741	29.880	-0.194	0.165
-505.726	254.724	0.166	-0.285
-504.712	93.590	-0.024	-0.027
-503.697	353.482	0.048	-0.096
-502.683	-53.125	-0.254	0.117
-501.668	-200.000	0.026	-0.130
-500.653	-198.488	0.123	-0.001
-499.639	312.060	0.028	0.053
-498.624	-107.707	-0.183	-0.040
-497.610	-178.674	0.150	-0.003
-496.595	-200.000	-0.060	-0.283
-495.581	-156.493	-0.240	0.015
-494.566	110.941	-0.260	-0.313
-493.551	437.589	0.096	-0.208
-492.537	800.000	-0.092	-0.334
-491.522	-94.700	0.325	0.088
-490.508	185.551	0.080	-0.119
-489.493	-46.931	0.193	0.094
-488.478	-200.000	0.002	-0.130
-487.464	-200.000	-0.003	-0.067
-486.449	-40.665	-0.080	-0.041
-485.435	800.000	0.062	-0.216
-484.420	-200.000	0.024	-0.425
-483.405	-200.000	0.016	-0.361
-482.391	-54.485	-0.279	0.126
-481.376	-85.602	0.376	-0.117
-480.362	-83.160	0.121	-0.039
-479.347	-31.977	0.176	-0.098
-478.332	109.735	-0.140	-0.168
-477.318	437.408	-0.177	-0.385
-476.303	-51.678	0.408	-0.190
-475.289	223.934	-0.029	0.047
-474.274	127.866	0.152	-0.193
-473.259	124.807	0.197	-0.247
-472.245	38.360	0.146	0.130
-471.230	-29.505	0.031	-0.018
-470.216	266.109	0.074	0.128
-469.201	-9.786	-0.061	0.041
-468.186	-89.569	0.302	0.089
-467.172	-137.540	0.370	0.042
-466.157	135.435	-0.028	-0.036
-465.143	-64.734	-0.048	0.019
-464.128	-132.992	-0.102	0.013
-463.113	-27.018	0.379	-0.221
-462.099	-13.433	0.231	0.149
-461.084	-46.049	-0.441	-0.217
-460.070	301.694	0.189	0.349
-459.055	41.884	0.233	0.211
-458.040	480.752	-0.105	0.238
-457.026	-59.620	0.108	-0.046
-456.011	-121.385	0.088	-0.015
-454.997	571.596	0.063	-0.152
-453.982	-200.000	0.001	-0.267
-452.968	-200.000	0.004	-0.290
-451.953	-200.000	-0.027	-0.162
-450.938	-129.365	-0.093	0.013
-449.924	183.623	-0.083	-0.123
-448.909	44.289	0.102	-0.093
-447.895	800.000	-0.095	-0.348
-446.880	-200.000	-0.033	-0.201
-445.865	26.625	-0.322	-0.269
-444.851	-200.000	0.189	0.001
-443.836	460.077	0.037	0.081
-442.822	-74.801	0.210	0.075
-441.807	-124.276	-0.217	0.034
-440.792	197.322	-0.166	0.253
-439.778	567.745	-0.065	-0.157
-438.763	-83.808	-0.047	0.015
-437.749	56.857	-0.118	0.115
-436.734	-200.000	0.017	-0.158
-435.719	-200.000	-0.015	-0.070
-434.705	67.095	-0.280	-0.284
-433.690	743.986	0.085	0.227
-432.676	-44.236	-0.233	0.116
-431.661	30.092	-0.147	-0.125
-430.646	-45.141	0.296	-0.147
-429.632	-24.621	0.094	-0.056
-428.617	-121.560	-0.344	-0.057
-427.603	32.127	-0.331	0.285
-426.588	122.581	0.130	0.162
-425.573	-86.324	-0.339	-0.104
-424.559	800.000	-0.042	-0.117
-423.544	-200.000	0.026	0.173
-422.530	295.403	0.042	-0.077
-421.515	51.915	0.064	-0.061
-420.500	800.000	0.090	0.360
-419.486	50.516	0.101	-0.095
-418.471	41.905	-0.334	0.302
-417.457	192.057	0.152	0.229
-416.442	-200.000	-0.018	0.204
-415.428	-32.619	-0.333	-0.184
-414.413	50.577	0.209	-0.197
-413.398	-200.000	-0.007	-0.044
-412.384	-200.000	0.009	0.188
-411.369	-200.000	-0.035	-0.000
-410.355	800.000	0.045	0.125
-409.340	26.952	0.019	0.016
-408.325	-59.242	0.173	-0.074
-407.311	-81.409	-0.115	0.038
-406.296	-83.305	-0.181	-0.058
-405.282	381.349	0.100	-0.205
-404.267	35.140	0.198	0.173
-403.252	-200.000	0.045	-0.207
-402.238	679.895	0.165	0.429
-401.223	800.000	0.024	-0.082
-400.209	222.418	-0.023	0.037
-399.194	-132.430	0.198	0.025
-398.179	-129.996	0.273	-0.037
-397.165	-109.570	0.325	-0.068
-396.150	144.436	0.048	-0.064
-395.136	30.837	-0.111	-0.095
-394.121	220.260	-0.200	0.320
-393.106	12.604	0.260	0.200
-392.092	800.000	-0.047	0.196
-391.077	-28.932	-0.029	0.017
-390.063	-200.000	0.101	0.440
-389.048	-141.730	0.492	0.049
-388.033	-69.558	0.062	0.024
-387.019	22.700	0.149	0.122
-386.004	493.540	-0.148	0.337
-384.990	-200.000	0.011	-0.117
-383.975	-33.516	0.266	-0.146
-382.960	800.000	0.056	0.202
-381.946	-68.967	-0.129	0.049
-380.931	-21.136	0.097	0.059
-379.917	-110.358	-0.180	-0.037
-378.902	-77.006	-0.234	-0.081
-377.888	337.597	-0.064	-0.124
-376.873	-129.598	-0.302	-0.041
-375.858	-137.803	-0.165	-0.018
-374.844	162.086	0.129	-0.180
-373.829	800.000	0.074	0.273
-372.815	-200.000	0.074	0.374
-371.800	-4.407	-0.122	0.084
-370.785	11.472	0.225	-0.172
-369.771	-200.000	-0.003	-0.335
-368.756	54.766	0.141	0.135
-367.742	-200.000	0.015	-0.067
-366.727	-94.646	-0.131	0.035
-365.712	-96.258	-0.061	0.016
-364.698	-54.297	-0.077	0.035
-363.683	-65.681	-0.395	-0.158
-362.669	-122.828	-0.168	-0.027
-361.654	-200.000	-0.030	0.183
-360.639	42.757	0.194	0.176
-359.625	16.038	-0.210	-0.164
-358.610	-200.000	0.005	-0.306
-357.596	-4.439	0.243	-0.167
-356.581	800.000	0.058	-0.192
-355.566	408.398	0.068	-0.142
-354.552	-93.354	-0.049	0.014
-353.537	194.474	0.084	0.127
-352.523	-200.000	0.047	-0.209
-351.508	-66.617	-0.066	-0.026
-350.493	-33.721	-0.124	-0.068
-349.479	800.000	-0.051	0.213
-348.464	200.450	0.195	0.298
-347.450	-200.000	0.028	0.295
-346.435	463.187	-0.096	0.213
-345.420	800.000	0.107	0.407
-344.406	-19.855	0.073	-0.045
-343.391	104.790	0.120	-0.140
-342.377	-69.421	-0.064	0.024
-341.362	-82.047	-0.166	-0.054
-340.348	624.177	0.089	0.222
-339.333	800.000	0.012	-0.039
-338.318	-200.000	0.046	-0.212
-337.304	1.526	-0.205	-0.147
-336.289	-200.000	0.026	0.148
-335.275	-110.874	0.123	0.025
-334.260	-200.000	-0.040	0.391
-333.245	-135.725	-0.082	-0.010
-332.231	-139.506	-0.246	0.026
-331.216	78.961	-0.145	-0.154
-330.202	-61.989	0.069	-0.029
-329.187	308.823	-0.077	0.144
-328.172	92.010	0.168	0.188
-327.158	378.166	0.137	0.279
-326.143	-200.000	0.001	0.286
-325.129	-98.344	-0.258	-0.066
-324.114	-200.000	0.021	-0.501
-323.099	538.847	0.076	0.179
-322.085	-130.021	0.346	0.047
-321.070	-200.000	-0.039	0.179
-320.056	-126.973	0.229	-0.033
-319.041	-61.700	0.149	-0.062
-318.026	57.638	-0.112	-0.108
-317.012	-75.237	-0.159	0.056
-315.997	800.000	-0.097	0.281
-314.983	-200.000	0.017	0.156
-313.968	-88.120	-0.057	-0.017
-312.953	53.411	-0.319	-0.303
-311.939	151.409	0.167	-0.226
-310.924	-7.422	0.028	0.019
-309.910	-7.938	-0.053	-0.035
-308.895	-121.734	0.307	0.050
-307.880	-66.330	-0.148	-0.058
-306.866	4.309	0.140	0.102
-305.851	190.258	0.187	0.279
-304.837	-200.000	-0.018	0.096
-303.822	459.670	-0.090	-0.199
-302.807	202.525	0.033	0.051
-301.793	-200.000	-0.004	-0.161
-300.778	-114.783	-0.534	-0.101
-299.764	-62.529	-0.318	-0.131
-298.749	32.142	-0.071	-0.061
-297.735	33.698	0.089	0.077
-296.720	110.846	-0.119	-0.142
-295.705	-22.714	-0.089	-0.053
-294.691	800.000	0.090	0.299
-293.676	92.068	-0.201	-0.224
-292.662	24.518	-0.120	-0.099
-291.647	-200.000	-0.015	-0.111
-290.632	-62.354	0.256	-0.106
-289.618	-65.705	0.171	-0.068
-288.603	117.019	0.109	0.132
-287.589	800.000	-0.031	-0.088
-286.574	-150.373	-0.279	0.021
-285.559	198.015	-0.104	0.158
-284.545	-200.000	-0.004	0.021
-283.530	800.000	0.107	-0.344
-282.516	-57.844	0.210	-0.091
-281.501	611.816	-0.077	0.191
-280.486	-200.000	-0.067	0.340
-279.472	-106.489	-0.250	0.055
-278.457	-14.762	-0.143	-0.091
-277.443	-80.746	0.074	0.024
-276.428	-200.000	-0.039	0.182
-275.413	-56.551	0.246	-0.108
-274.399	-55.242	0.117	0.052
-273.384	-61.599	-0.164	-0.068
-272.370	51.178	0.091	-0.086
-271.355	186.339	0.124	-0.183
-270.340	-200.000	-0.025	-0.136
-269.326	-39.761	0.215	-0.111
-268.311	-54.228	-0.097	-0.043
-267.297	-200.000	-0.007	0.137
-266.282	47.682	-0.090	0.083
-265.267	-127.955	0.338	0.048
-264.253	519.765	0.115	0.267
-263.238	24.878	-0.096	0.079
-262.224	800.000	-0.025	0.089
-261.209	-10.095	-0.243	-0.160
-260.195	97.897	-0.208	-0.237
-259.180	-170.612	-0.146	-0.005
-258.165	56.279	-0.162	-0.156
-257.151	66.452	-0.167	0.168
-256.136	-200.000	-0.026	0.188
-255.122	501.133	-0.029	-0.066
-254.107	-200.000	0.020	-0.306
-253.092	-200.000	0.001	0.247
-252.078	3.925	0.141	0.102
-251.063	65.521	0.032	0.032
-250.049	-105.919	0.404	-0.090
-249.034	-137.496	0.409	0.046
-248.019	-35.195	0.115	0.062
-247.005	-139.582	0.585	-0.062
-245.990	134.395	-0.086	-0.110
-244.976	800.000	0.045	-0.142
-243.961	174.239	0.077	-0.109
-242.946	-109.115	-0.334	-0.070
-241.932	387.080	-0.149	0.305
-240.917	87.643	0.107	-0.117
-239.903	-126.556	0.198	-0.029
-238.888	-200.000	0.055	-0.251
-237.873	800.000	0.099	-0.345
-236.859	800.000	0.008	0.025
-235.844	-31.051	-0.239	0.133
-234.830	-29.772	0.175	0.099
-233.815	-200.000	0.045	-0.222
-232.800	154.997	0.090	-0.123
-231.786	783.772	0.093	0.252
-230.771	-200.000	-0.028	0.191
-229.757	1.794	-0.121	0.087
-228.742	-200.000	-0.005	-0.530
-227.727	423.595	-0.194	0.411
-226.713	-109.803	0.287	-0.060
-225.698	-200.000	-0.078	-0.402
-224.684	-200.000	0.014	0.275
-223.669	-200.000	0.006	0.121
-222.655	-16.686	-0.149	0.093
-221.640	78.791	-0.109	-0.115
-220.625	-200.000	0.045	0.311
-219.611	-200.000	-0.003	-0.224
-218.596	-63.864	0.097	0.039
-217.582	-67.971	-0.185	0.071
-216.567	-45.209	-0.197	0.097
-215.552	-5.815	-0.044	-0.030
-214.538	-200.000	0.015	-0.079
-213.523	219.257	0.018	0.029
-212.509	-107.130	-0.234	0.051
-211.494	-58.062	-0.202	-0.087
-210.479	-130.338	-0.299	0.040
-209.465	230.849	-0.246	0.397
-208.450	-128.867	0.270	0.038
-207.436	66.312	0.101	0.101
-206.421	-45.907	-0.088	-0.043
-205.406	239.787	0.129	-0.212
-204.392	-20.973	0.266	0.161
-203.377	127.153	0.215	0.270
-202.363	-91.786	-0.026	-0.007
-201.348	29.758	-0.173	-0.146
-200.333	-200.000	-0.006	0.333
-199.319	636.979	-0.067	-0.169
-198.304	-54.223	-0.174	0.078
-197.290	-200.000	-0.032	0.185
-196.275	-109.404	-0.093	-0.020
-195.260	-133.998	-0.208	-0.025
-194.246	96.639	0.214	0.243
-193.231	-200.000	-0.017	0.209
-192.217	-106.987	0.415	0.091
-191.202	-121.143	-0.102	-0.017
-190.187	800.000	-0.051	0.176
-189.173	-175.702	-0.068	-0.002
-188.158	-42.163	0.240	0.121
-187.144	-110.103	0.456	-0.094
-186.129	-200.000	-0.004	0.262
-185.114	-200.000	-0.005	0.106
-184.100	-60.795	-0.412	0.172
-183.085	-200.000	-0.027	-0.293
-182.071	86.543	-0.065	0.071
-181.056	800.000	0.042	0.179
-180.042	373.142	-0.020	0.041
-179.027	56.793	-0.077	0.074
-178.012	649.441	0.151	0.381
-176.998	-200.000	0.011	0.066
-175.983	13.476	-0.110	0.084
-174.969	800.000	0.146	0.401
-173.954	-59.813	-0.174	-0.073
-172.939	160.384	0.189	-0.260
-171.925	800.000	0.069	0.222
-170.910	-200.000	0.018	0.324
-169.896	-200.000	-0.039	0.252
-168.881	13.154	0.250	0.191
-167.866	143.708	-0.152	-0.200
-166.852	176.070	-0.157	0.224
-165.837	-66.157	-0.161	-0.063
-164.823	-84.291	-0.211	0.066
-163.808	32.595	-0.163	0.139
-162.793	800.000	0.109	0.339
-161.779	487.334	0.117	-0.264
-160.764	-30.798	0.192	0.107
-159.750	-56.772	-0.054	0.024
-158.735	-61.958	-0.153	-0.063
-157.720	-200.000	-0.006	0.084
-156.706	-68.231	-0.478	-0.183
-155.691	562.229	0.066	0.157
-154.677	519.263	0.048	-0.110
-153.662	417.204	0.014	-0.030
-152.647	-158.721	0.351	0.020
-151.633	-78.274	0.348	0.118
-150.618	137.536	0.084	-0.109
-149.604	195.482	-0.095	-0.142
-148.589	-81.961	-0.099	-0.032
-147.574	92.911	0.131	0.146
-146.560	5.481	0.331	-0.241
-145.545	-113.131	0.277	0.054
-144.531	284.811	0.064	0.113
-143.516	-16.729	0.174	-0.109
-142.502	-200.000	0.041	0.180
-141.487	-42.827	0.155	0.077
-140.472	-6.579	-0.242	0.163
-139.458	103.922	0.133	0.154
-138.443	234.076	-0.137	0.222
-137.429	395.417	0.087	0.179
-136.414	95.713	0.092	-0.103
-135.399	-153.629	-0.359	-0.024
-134.385	111.293	0.240	0.285
-133.370	-200.000	0.035	-0.199
-132.356	-77.676	0.172	-0.059
-131.341	-200.000	0.013	0.291
-130.326	226.508	-0.225	-0.359
-129.312	-21.166	-0.366	-0.221
-128.297	-131.331	-0.190	-0.025
-127.283	10.461	0.150	-0.112
-126.268	-16.411	-0.148	-0.093
-125.253	584.223	-0.132	-0.319
-124.239	-68.305	-0.221	0.085
-123.224	665.280	0.016	0.041
-122.210	92.363	0.070	-0.078
