DTS Sentinel unit serial number:	SN413079Multiplexer serial number:	ORYXHardware model number:	OX4-SRSoftware version number:	ORYX F/W v4.00 Oryx Data Collector v3.7.2.0data status	okinstallation	princeton_trtdifferential loss correction	single-endedforward channel	channel 3reverse channel	N/Adate	2019/09/16time	02:08:35forward acquisition time	60.00reverse acquisition time	0.00gamma	496.2192k internal	0.2335k external	0.2335temperature offset calibration	0.9950default loss term (dB/km)	0.3790temperature slope calibration	1.0000multiplexer offset coefficient	1.0000multiplexer slope coefficient	1.0000fibre end	0.00T internal ref (°C)	27.50T ext. ref 1 (°C)	10.14T ext. ref 2 (°C)	22.45length (m)	temperature (°C)	Stokes	anti-Stokes-747.200	-34.258	0.171	0.094
-746.185	-70.899	0.151	0.057
-745.171	800.000	-0.084	-0.278
-744.156	-54.390	-0.299	-0.136
-743.142	90.482	0.082	0.093
-742.127	341.718	0.042	0.082
-741.112	346.469	-0.042	0.083
-740.098	32.017	0.100	0.087
-739.083	-112.848	-0.384	0.077
-738.069	-14.959	0.257	0.165
-737.054	-138.596	-0.419	-0.046
-736.039	-54.725	-0.279	0.127
-735.025	800.000	0.079	0.277
-734.010	-200.000	-0.030	0.346
-732.996	-58.021	-0.315	0.138
-731.981	713.895	-0.086	-0.229
-730.966	-200.000	-0.041	0.205
-729.952	-83.642	-0.162	-0.052
-728.937	-124.610	-0.287	0.045
-727.923	-1.838	-0.102	0.072
-726.908	410.985	0.097	-0.206
-725.894	504.562	-0.153	0.355
-724.879	-163.099	-0.306	0.015
-723.864	-200.000	-0.016	-0.077
-722.850	-200.000	-0.041	0.257
-721.835	12.852	0.105	-0.081
-720.821	-57.704	-0.142	0.062
-719.806	-200.000	-0.001	-0.085
-718.791	45.573	-0.186	-0.172
-717.777	54.649	0.044	0.043
-716.762	-52.116	0.018	-0.009
-715.748	138.536	0.191	-0.252
-714.733	-200.000	-0.008	-0.066
-713.718	78.480	-0.272	-0.292
-712.704	-55.727	0.177	-0.080
-711.689	278.946	0.225	-0.403
-710.675	-200.000	0.014	-0.187
-709.660	-166.057	0.138	0.006
-708.645	95.784	-0.131	0.150
-707.631	-175.313	-0.096	0.003
-706.616	-12.735	-0.114	-0.075
-705.602	-37.315	-0.187	-0.100
-704.587	69.472	-0.057	0.059
-703.572	-51.339	-0.152	0.071
-702.558	-200.000	-0.007	0.307
-701.543	-200.000	-0.059	0.374
-700.529	-200.000	-0.003	0.334
-699.514	-110.792	0.358	-0.074
-698.499	800.000	0.055	-0.237
-697.485	-83.419	0.220	-0.071
-696.470	-200.000	-0.033	-0.255
-695.456	337.503	-0.050	-0.097
-694.441	-200.000	-0.019	0.246
-693.426	-200.000	-0.020	-0.277
-692.412	664.001	-0.127	-0.328
-691.397	145.981	-0.228	-0.307
-690.383	800.000	-0.053	-0.217
-689.368	-200.000	-0.016	-0.081
-688.354	-151.850	0.220	0.016
-687.339	331.570	0.141	0.272
-686.324	-200.000	-0.003	-0.155
-685.310	-65.403	0.218	0.088
-684.295	-24.396	-0.091	-0.054
-683.281	-166.033	-0.087	-0.004
-682.266	2.998	0.148	0.108
-681.251	-76.125	-0.041	0.015
-680.237	-78.733	-0.163	-0.056
-679.222	216.506	0.088	-0.141
-678.208	-138.192	0.123	-0.014
-677.193	-200.000	-0.010	0.193
-676.178	67.560	0.098	-0.100
-675.164	-134.952	-0.231	0.028
-674.149	38.231	0.207	0.185
-673.135	57.755	-0.099	-0.097
-672.120	-64.966	-0.377	-0.153
-671.105	-32.868	0.123	-0.068
-670.091	-200.000	-0.028	-0.225
-669.076	65.896	0.041	0.042
-668.062	-72.501	-0.383	-0.142
-667.047	22.408	0.176	-0.144
-666.032	-46.446	-0.227	-0.112
-665.018	141.308	0.211	-0.280
-664.003	800.000	0.081	0.264
-662.989	7.376	0.329	-0.246
-661.974	800.000	-0.095	-0.292
-660.959	-135.377	-0.258	0.031
-659.945	17.008	-0.160	-0.127
-658.930	-200.000	-0.019	-0.138
-657.916	-200.000	-0.042	-0.296
-656.901	800.000	0.041	-0.148
-655.886	210.088	-0.118	-0.185
-654.872	198.589	-0.103	-0.157
-653.857	329.167	0.026	0.051
-652.843	-42.085	-0.156	-0.080
-651.828	417.765	-0.037	-0.078
-650.814	184.391	0.124	0.184
-649.799	34.802	-0.067	0.059
-648.784	800.000	0.147	-0.432
-647.770	394.765	-0.093	-0.195
-646.755	-200.000	0.009	-0.095
-645.741	-29.208	-0.337	-0.193
-644.726	-137.154	-0.251	-0.029
-643.711	-164.960	0.226	-0.010
-642.697	84.872	-0.100	0.110
-641.682	-87.568	-0.205	0.062
-640.668	278.254	-0.139	0.247
-639.653	302.078	0.095	0.175
-638.638	-132.242	-0.068	-0.009
-637.624	98.735	0.095	0.110
-636.609	800.000	-0.013	0.055
-635.595	800.000	-0.098	-0.381
-634.580	-71.072	-0.130	0.049
-633.565	-125.639	-0.207	-0.031
-632.551	110.178	-0.080	0.096
-631.536	-95.960	0.174	0.046
-630.522	-18.206	0.198	-0.124
-629.507	194.664	-0.116	-0.176
-628.492	-30.270	0.166	0.094
-627.478	-80.000	-0.238	0.080
-626.463	35.844	0.159	-0.140
-625.449	-38.856	0.226	-0.119
-624.434	-115.475	0.068	-0.013
-623.419	1.040	-0.299	0.215
-622.405	-115.240	-0.368	0.070
-621.390	-141.215	-0.179	0.018
-620.376	-95.406	0.209	-0.056
-619.361	12.353	0.135	-0.104
-618.346	-11.196	0.240	0.158
-617.332	-34.751	-0.282	0.154
-616.317	8.000	-0.066	0.050
-615.303	-136.625	-0.029	0.003
-614.288	-14.088	-0.111	-0.072
-613.273	-108.581	0.247	0.053
-612.259	-93.997	-0.329	-0.090
-611.244	-200.000	-0.016	0.084
-610.230	59.247	-0.116	-0.114
-609.215	-200.000	-0.023	0.357
-608.201	-62.572	-0.167	0.069
-607.186	-82.739	0.066	-0.021
-606.171	-55.996	-0.353	0.157
-605.157	800.000	-0.041	-0.178
-604.142	-102.116	0.221	0.053
-603.128	-110.068	-0.138	0.029
-602.113	-31.467	-0.018	-0.010
-601.098	-165.958	-0.260	0.011
-600.084	-124.965	-0.243	-0.037
-599.069	512.446	0.084	0.196
-598.055	52.229	-0.114	-0.108
-597.040	291.878	-0.172	-0.314
-596.025	-15.139	0.021	0.013
-595.011	-155.108	-0.288	-0.019
-593.996	-9.682	0.462	0.308
-592.982	-15.916	0.110	0.070
-591.967	-200.000	-0.006	0.219
-590.952	-200.000	-0.014	0.082
-589.938	-135.189	-0.097	-0.012
-588.923	-200.000	0.020	-0.403
-587.909	-87.763	-0.324	0.098
-586.894	-121.667	-0.089	0.015
-585.879	-64.099	-0.131	0.054
-584.865	-27.338	-0.153	0.089
-583.850	71.252	-0.080	0.083
-582.836	-200.000	-0.010	-0.108
-581.821	-116.361	-0.152	0.028
-580.806	-108.715	0.193	0.041
-579.792	800.000	-0.084	0.277
-578.777	-64.051	0.216	0.088
-577.763	-2.081	0.274	-0.192
-576.748	-200.000	0.001	-0.072
-575.733	79.119	-0.091	0.097
-574.719	-86.760	-0.076	-0.023
-573.704	283.174	0.101	0.181
-572.690	800.000	0.035	0.141
-571.675	632.982	0.097	-0.246
-570.661	49.810	-0.356	0.335
-569.646	295.722	-0.060	0.109
-568.631	-21.772	0.283	0.172
-567.617	-200.000	-0.010	-0.055
-566.602	1.585	0.211	-0.151
-565.588	-30.964	-0.275	0.155
-564.573	141.105	0.139	0.183
-563.558	89.316	0.122	0.136
-562.544	380.605	-0.033	0.067
-561.529	1.236	0.430	0.308
-560.515	-200.000	0.002	0.261
-559.500	66.647	-0.074	0.075
-558.485	77.851	-0.164	0.174
-557.471	366.583	0.072	0.146
-556.456	-101.871	-0.099	0.024
-555.442	25.958	-0.120	-0.100
-554.427	-79.666	-0.100	-0.034
-553.412	68.054	-0.132	0.135
-552.398	264.191	-0.066	-0.114
-551.383	743.970	-0.117	-0.313
-550.369	-14.316	0.064	0.041
-549.354	-87.973	0.079	-0.024
-548.339	-96.554	-0.313	-0.082
-547.325	800.000	0.055	0.175
-546.310	223.226	0.204	-0.328
-545.296	800.000	0.071	-0.254
-544.281	800.000	0.038	-0.161
-543.266	388.794	-0.106	0.219
-542.252	-200.000	0.051	-0.469
-541.237	-108.602	0.126	0.027
-540.223	418.810	0.065	-0.138
-539.208	-200.000	-0.033	0.214
-538.193	-103.064	-0.454	0.107
-537.179	-47.176	0.101	-0.049
-536.164	-200.000	-0.038	0.203
-535.150	-200.000	0.010	-0.196
-534.135	-52.726	0.309	0.142
-533.121	800.000	0.082	0.245
-532.106	-200.000	-0.020	-0.296
-531.091	678.293	0.132	-0.342
-530.077	-97.971	-0.325	-0.084
-529.062	-200.000	-0.003	0.130
-528.048	800.000	-0.075	-0.224
-527.033	-72.137	-0.179	0.066
-526.018	191.135	-0.092	0.138
-525.004	665.519	-0.079	0.202
-523.989	403.782	-0.083	0.174
-522.975	75.114	0.106	-0.111
-521.960	-83.427	0.068	-0.022
-520.945	187.589	-0.142	0.211
-519.931	-31.652	0.288	-0.161
-518.916	800.000	-0.049	0.175
-517.902	-200.000	0.049	0.256
-516.887	-25.780	0.293	0.172
-515.872	365.457	-0.131	-0.263
-514.858	316.573	0.174	-0.327
-513.843	-78.591	0.328	-0.112
-512.829	14.577	-0.106	0.082
-511.814	-200.000	0.005	-0.064
-510.799	800.000	-0.052	0.169
-509.785	-19.292	0.170	-0.105
-508.770	-200.000	-0.031	-0.318
-507.756	-84.651	-0.136	-0.043
-506.741	-194.169	-0.130	-0.001
-505.726	-21.609	0.281	-0.170
-504.712	-200.000	-0.022	-0.187
-503.697	-27.204	0.311	-0.181
-502.683	-200.000	-0.037	-0.289
-501.668	10.005	-0.170	-0.129
-500.653	-102.264	0.256	-0.061
-499.639	-35.646	-0.263	0.142
-498.624	-90.914	0.471	0.135
-497.610	-72.969	-0.362	-0.132
-496.595	469.921	0.018	0.041
-495.581	72.168	-0.135	-0.139
-494.566	-85.216	-0.252	-0.079
-493.551	-158.797	-0.109	0.006
-492.537	800.000	-0.063	0.199
-491.522	-104.770	0.229	0.053
-490.508	-158.713	0.284	-0.016
-489.493	-99.311	-0.072	-0.018
-488.478	-200.000	-0.053	-0.308
-487.464	556.169	0.047	-0.113
-486.449	800.000	-0.047	0.184
-485.435	-16.544	-0.053	0.033
-484.420	-23.906	0.336	-0.200
-483.405	40.479	-0.110	-0.098
-482.391	140.299	0.146	-0.192
-481.376	-147.940	-0.224	-0.019
-480.362	-51.113	-0.334	0.156
-479.347	-200.000	-0.008	0.251
-478.332	-16.304	-0.168	-0.106
-477.318	-144.210	-0.232	-0.022
-476.303	352.494	0.025	-0.048
-475.289	138.463	-0.183	0.239
-474.274	-200.000	0.042	-0.239
-473.259	-142.414	-0.040	-0.004
-472.245	172.540	-0.180	0.257
-471.230	152.180	-0.210	-0.285
-470.216	-200.000	0.010	0.072
-469.201	146.614	-0.067	-0.089
-468.186	-83.641	0.332	0.105
-467.172	-200.000	0.063	0.311
-466.157	750.334	0.121	-0.324
-465.143	-43.932	0.256	0.128
-464.128	-105.037	-0.002	0.000
-463.113	127.024	0.166	-0.210
-462.099	800.000	0.072	0.200
-461.084	-166.535	-0.286	0.012
-460.070	800.000	0.060	0.230
-459.055	-96.231	0.271	-0.072
-458.040	800.000	-0.135	-0.390
-457.026	161.730	0.154	0.215
-456.011	800.000	0.091	-0.391
-454.997	800.000	0.087	0.250
-453.982	-62.967	-0.397	0.163
-452.968	800.000	0.039	-0.165
-451.953	52.961	0.162	-0.154
-450.938	-59.602	0.342	0.146
-449.924	800.000	-0.059	-0.215
-448.909	207.377	0.147	0.227
-447.895	800.000	-0.042	-0.180
-446.880	-43.309	0.164	0.082
-445.865	800.000	0.029	0.124
-444.851	-105.246	-0.314	-0.071
-443.836	204.068	-0.053	0.081
-442.822	265.637	-0.108	-0.188
-441.807	800.000	0.039	0.167
-440.792	800.000	-0.148	0.410
-439.778	-111.724	0.279	0.056
-438.763	-92.890	-0.223	-0.062
-437.749	18.245	0.385	-0.305
-436.734	-200.000	0.001	-0.102
-435.719	30.445	-0.148	0.126
-434.705	800.000	0.128	0.454
-433.690	-200.000	-0.047	0.543
-432.676	-83.724	-0.037	0.012
-431.661	-114.288	0.116	-0.022
-430.646	38.077	0.173	-0.153
-429.632	86.508	0.164	0.180
-428.617	-73.963	0.201	-0.072
-427.603	-200.000	0.036	0.346
-426.588	-8.817	0.040	-0.026
-425.573	-200.000	0.003	0.134
-424.559	10.631	0.343	0.259
-423.544	190.147	-0.124	-0.184
-422.530	-200.000	0.012	0.312
-421.515	-31.196	-0.124	0.070
-420.500	800.000	0.013	-0.052
-419.486	-181.274	-0.077	-0.002
-418.471	-5.867	-0.090	-0.061
-417.457	-52.467	-0.248	0.114
-416.442	800.000	0.053	-0.171
-415.428	-123.480	0.203	0.032
-414.413	313.369	-0.222	0.413
-413.398	298.687	0.099	-0.180
-412.384	-77.213	0.249	0.086
-411.369	-40.161	-0.246	-0.127
-410.355	-109.953	0.352	-0.073
-409.340	-63.260	0.095	0.039
-408.325	97.362	-0.075	-0.085
-407.311	76.627	-0.094	-0.099
-406.296	-128.591	0.194	0.027
-405.282	-200.000	0.051	-0.277
-404.267	611.017	0.093	-0.231
-403.252	-200.000	0.025	-0.176
-402.238	117.872	-0.234	-0.286
-401.223	90.797	-0.191	-0.212
-400.209	-109.517	0.242	0.051
-399.194	-50.440	-0.032	0.015
-398.179	-88.975	-0.124	0.036
-397.165	-23.697	0.319	0.190
-396.150	800.000	-0.005	-0.019
-395.136	-200.000	0.016	0.167
-394.121	85.260	-0.060	0.066
-393.106	432.208	-0.190	-0.407
-392.092	-200.000	0.033	0.147
-391.077	-200.000	0.003	0.142
-390.063	174.769	0.066	0.095
-389.048	-200.000	-0.025	-0.360
-388.033	800.000	0.050	-0.165
-387.019	-200.000	0.008	-0.042
-386.004	800.000	0.131	-0.397
-384.990	-104.443	-0.069	-0.016
-383.975	-200.000	-0.012	-0.199
-382.960	-151.482	-0.259	-0.019
-381.946	-126.455	-0.061	-0.009
-380.931	-75.268	0.037	0.013
-379.917	-200.000	0.000	-0.256
-378.902	253.828	-0.180	0.304
-377.888	570.847	0.035	-0.084
-376.873	-200.000	-0.012	-0.116
-375.858	-57.267	0.198	0.086
-374.844	-29.668	0.209	-0.118
-373.829	-38.528	0.093	-0.049
-372.815	181.080	-0.210	0.306
-371.800	-105.007	0.116	-0.026
-370.785	800.000	-0.064	-0.250
-369.771	-121.909	0.250	-0.041
-368.756	-17.100	-0.276	0.173
-367.742	-200.000	0.006	0.230
-366.727	800.000	-0.071	0.220
-365.712	146.230	0.223	-0.297
-364.698	800.000	0.017	0.070
-363.683	-92.048	0.382	-0.107
-362.669	-130.409	0.299	-0.040
-361.654	-200.000	-0.009	0.095
-360.639	-17.374	0.073	-0.046
-359.625	124.724	0.060	0.075
-358.610	-200.000	-0.132	0.000
-357.596	-200.000	-0.027	0.249
-356.581	800.000	-0.037	0.139
-355.566	-186.882	0.064	0.001
-354.552	92.505	-0.216	0.242
-353.537	296.199	-0.009	-0.017
-352.523	-200.000	0.008	-0.184
-351.508	-200.000	-0.025	0.288
-350.493	-65.728	-0.034	-0.014
-349.479	-62.293	0.201	0.083
-348.464	45.800	-0.247	0.225
-347.450	-200.000	-0.084	0.455
-346.435	93.885	0.242	0.272
-345.420	149.318	0.316	-0.423
-344.406	211.797	0.042	-0.066
-343.391	-78.137	-0.103	0.035
-342.377	-200.000	-0.039	-0.288
-341.362	-55.140	0.055	0.024
-340.348	-200.000	0.010	-0.170
-339.333	13.575	-0.198	0.152
-338.318	-159.866	0.388	0.021
-337.304	35.908	0.208	0.181
-336.289	257.981	-0.099	-0.168
-335.275	-103.738	-0.261	0.060
-334.260	-113.684	0.182	-0.035
-333.245	393.075	-0.129	-0.264
-332.231	-200.000	-0.028	-0.174
-331.216	-200.000	0.004	0.143
-330.202	95.577	0.191	-0.216
-329.187	83.549	-0.049	-0.053
-328.172	544.931	0.032	0.075
-327.158	394.624	0.101	-0.207
-326.143	-200.000	-0.018	-0.108
-325.129	-79.517	-0.076	-0.025
-324.114	-103.110	0.209	0.049
-323.099	800.000	0.098	0.298
-322.085	-200.000	0.019	0.163
-321.070	315.479	0.112	-0.210
-320.056	110.570	0.080	-0.095
-319.041	765.328	-0.070	0.189
-318.026	-200.000	0.002	0.058
-317.012	-126.873	-0.094	-0.014
-315.997	-200.000	0.062	-0.280
-314.983	-92.949	0.384	0.106
-313.968	800.000	-0.075	-0.222
-312.953	39.467	-0.229	0.203
-311.939	115.500	0.146	0.177
-310.924	-200.000	0.017	0.256
-309.910	-58.132	0.166	-0.071
-308.895	800.000	0.078	-0.290
-307.880	-97.995	0.121	-0.031
-306.866	-135.518	-0.381	-0.045
-305.851	-101.721	0.224	0.054
-304.837	48.993	0.179	0.166
-303.822	54.315	-0.179	-0.170
-302.807	-1.557	0.054	-0.037
-301.793	-200.000	-0.018	0.103
-300.778	-111.514	0.163	-0.033
-299.764	-200.000	0.002	0.162
-298.749	-55.400	0.212	0.094
-297.735	800.000	-0.051	-0.200
-296.720	800.000	-0.048	0.189
-295.705	298.582	0.116	0.211
-294.691	69.698	-0.075	-0.076
-293.676	800.000	0.074	0.268
-292.662	-69.621	0.187	0.071
-291.647	800.000	-0.070	0.218
-290.632	7.786	-0.292	0.216
-289.618	283.852	-0.048	0.085
-288.603	-200.000	-0.006	-0.120
-287.589	-79.139	0.144	0.048
-286.574	257.469	-0.209	-0.354
-285.559	800.000	-0.072	-0.216
-284.545	-137.489	-0.134	-0.015
-283.530	-170.127	-0.220	0.008
-282.516	-200.000	-0.016	-0.126
-281.501	-84.581	0.116	0.036
-280.486	126.907	-0.182	0.228
-279.472	-32.457	0.214	-0.118
-278.457	-49.990	-0.022	0.010
-277.443	-27.066	0.153	0.088
-276.428	-122.629	0.417	-0.067
-275.413	-12.432	0.097	-0.062
-274.399	25.878	0.335	-0.276
-273.384	800.000	-0.063	-0.214
-272.370	287.239	-0.350	0.623
-271.355	800.000	-0.133	0.387
-270.340	-49.048	-0.210	-0.099
-269.326	-149.019	0.417	-0.033
-268.311	296.373	0.058	0.105
-267.297	370.428	0.011	0.022
-266.282	-48.464	0.301	-0.143
-265.267	-200.000	0.175	-0.000
-264.253	-24.033	0.140	-0.082
-263.238	151.480	0.129	0.173
-262.224	107.162	0.194	0.227
-261.209	-47.770	-0.020	0.009
-260.195	-30.178	0.289	0.162
-259.180	-117.531	0.244	0.043
-258.165	-200.000	0.037	-0.262
-257.151	295.456	0.205	-0.370
-256.136	24.970	0.174	-0.142
-255.122	-23.346	-0.070	-0.042
-254.107	213.041	0.253	0.393
-253.092	-123.569	0.153	-0.024
-252.078	-200.000	-0.074	-0.372
-251.063	-200.000	0.021	-0.310
-250.049	375.855	0.098	-0.198
-249.034	800.000	0.106	-0.310
-248.019	-49.710	-0.024	-0.011
-247.005	270.462	0.120	0.208
-245.990	312.489	-0.015	-0.029
-244.976	800.000	0.048	0.136
-243.961	25.364	-0.307	-0.251
-242.946	53.813	0.114	-0.108
-241.932	145.258	-0.104	-0.137
-240.917	-88.644	-0.102	-0.030
-239.903	407.990	-0.041	0.086
-238.888	-200.000	0.024	-0.180
-237.873	366.636	-0.158	-0.314
-236.859	-19.502	-0.203	0.124
-235.844	242.141	0.086	0.142
-234.830	634.750	0.079	0.197
-233.815	17.175	-0.138	-0.108
-232.800	177.412	0.091	-0.130
-231.786	-162.008	-0.344	-0.017
-230.771	800.000	-0.205	0.608
-229.757	7.303	-0.115	0.085
-228.742	-47.997	-0.178	-0.085
-227.727	-126.149	0.085	0.013
-226.713	150.601	0.365	-0.488
-225.698	-96.015	0.335	0.088
-224.684	-44.940	-0.307	0.151
-223.669	-200.000	-0.023	0.302
-222.655	-7.877	0.033	-0.022
-221.640	800.000	-0.042	0.155
-220.625	-118.477	-0.213	-0.037
-219.611	800.000	0.044	-0.137
-218.596	-9.296	-0.151	-0.100
-217.582	-200.000	0.016	-0.322
-216.567	-162.122	0.030	-0.002
-215.552	489.233	-0.066	0.148
-214.538	-90.891	-0.433	-0.123
-213.523	-91.287	-0.146	-0.041
-212.509	-62.686	-0.099	-0.040
-211.494	-188.521	0.291	-0.004
-210.479	-149.927	0.083	0.006
-209.465	111.558	-0.104	-0.123
-208.450	146.744	0.038	-0.050
-207.436	215.698	-0.094	-0.147
-206.421	800.000	-0.081	0.258
-205.406	-140.260	-0.426	-0.044
-204.392	547.622	-0.168	0.396
-203.377	-200.000	0.008	0.116
-202.363	164.959	-0.133	-0.184
-201.348	441.221	0.073	-0.157
-200.333	28.377	-0.068	-0.057
-199.319	-104.764	-0.101	0.023
-198.304	76.860	-0.110	-0.115
-197.290	65.792	0.298	-0.297
-196.275	326.163	-0.063	-0.119
-195.260	59.327	0.032	0.031
-194.246	124.882	-0.049	0.061
-193.231	265.689	-0.115	0.197
-192.217	464.763	-0.073	-0.161
-191.202	-200.000	-0.021	0.131
-190.187	-133.271	0.131	0.016
-189.173	18.569	-0.240	-0.189
-188.158	-200.000	-0.061	-0.355
-187.144	58.183	0.193	0.186
-186.129	19.544	-0.156	0.124
-185.114	57.243	-0.031	0.029
-184.100	-200.000	-0.010	0.291
-183.085	800.000	0.023	0.064
-182.071	800.000	-0.123	-0.362
-181.056	347.033	0.096	-0.186
-180.042	-65.606	-0.271	0.107
-179.027	178.270	0.065	0.093
-178.012	-140.375	-0.203	-0.021
-176.998	591.496	0.060	0.146
-175.983	800.000	0.064	0.263
-174.969	164.013	0.253	0.351
-173.954	-88.409	-0.074	-0.022
-172.939	800.000	-0.070	-0.199
-171.925	-107.003	0.180	-0.039
-170.910	17.814	-0.133	-0.104
-169.896	-18.927	-0.106	-0.065
-168.881	-139.265	-0.144	0.015
-167.866	-53.725	0.105	0.047
-166.852	-40.998	-0.227	0.115
-165.837	-98.317	-0.392	-0.099
-164.823	-148.366	-0.241	-0.019
-163.808	-47.570	0.302	0.144
-162.793	4.047	-0.107	0.077
-161.779	-37.425	-0.523	0.274
-160.764	201.550	0.024	-0.037
-159.750	213.105	0.120	-0.185
-158.735	800.000	0.054	-0.161
-157.720	-37.967	-0.066	0.034
-156.706	-82.320	-0.187	0.060
-155.691	-107.099	0.596	-0.129
-154.677	216.098	0.100	0.155
-153.662	-179.999	0.290	0.006
-152.647	147.568	-0.083	-0.110
-151.633	56.203	-0.119	-0.114
-150.618	397.423	-0.035	0.071
-149.604	-140.550	0.122	-0.012
-148.589	136.719	-0.239	0.306
-147.574	-200.000	-0.022	0.215
-146.560	-195.631	-0.186	0.001
-145.545	618.254	0.029	0.071
-144.531	-88.889	0.408	0.119
-143.516	-200.000	0.037	-0.261
-142.502	65.981	-0.401	0.399
-141.487	-191.290	-0.264	0.003
-140.472	-139.977	0.325	-0.034
-139.458	34.003	0.212	0.181
-138.443	677.478	0.034	0.088
-137.429	156.130	-0.188	-0.254
-136.414	10.312	-0.294	-0.219
-135.399	-15.938	0.304	-0.190
-134.385	7.403	-0.085	-0.062
-133.370	-0.878	-0.068	-0.047
-132.356	295.341	0.156	0.281
-131.341	-16.967	-0.386	0.239
-130.326	800.000	-0.115	-0.465
-129.312	-86.608	0.279	-0.084
-128.297	123.892	-0.249	0.307
-127.283	482.783	-0.034	0.076
-126.268	25.162	-0.212	-0.173
-125.253	-4.695	-0.248	-0.168
-124.239	800.000	-0.008	0.024
-123.224	-200.000	0.037	-0.525
