DTS Sentinel unit serial number:	SN413079Multiplexer serial number:	ORYXHardware model number:	OX4-SRSoftware version number:	ORYX F/W v4.00 Oryx Data Collector v3.7.2.0data status	okinstallation	princeton_trtdifferential loss correction	single-endedforward channel	channel 3reverse channel	N/Adate	2019/09/18time	02:40:35forward acquisition time	60.00reverse acquisition time	0.00gamma	496.2192k internal	0.2344k external	0.2344temperature offset calibration	0.9948default loss term (dB/km)	0.3790temperature slope calibration	1.0000multiplexer offset coefficient	1.0000multiplexer slope coefficient	1.0000fibre end	0.00T internal ref (°C)	22.77T ext. ref 1 (°C)	0.17T ext. ref 2 (°C)	16.69length (m)	temperature (°C)	Stokes	anti-Stokes-747.200	-40.263	0.458	-0.239
-746.185	-55.681	-0.266	-0.119
-745.171	54.965	0.205	0.198
-744.156	-94.573	-0.199	0.054
-743.142	0.220	0.315	-0.225
-742.127	-120.210	-0.243	0.042
-741.112	211.637	-0.215	-0.339
-740.098	274.858	0.128	0.227
-739.083	262.179	0.195	0.338
-738.069	73.453	-0.143	0.149
-737.054	98.678	-0.162	0.187
-736.039	10.861	-0.413	-0.315
-735.025	-63.332	-0.192	0.079
-734.010	-86.615	-0.236	0.072
-732.996	-34.218	-0.270	-0.148
-731.981	800.000	-0.131	0.453
-730.966	-123.558	-0.311	0.049
-729.952	-184.110	-0.338	0.006
-728.937	-200.000	0.077	-0.342
-727.923	-119.565	-0.364	-0.063
-726.908	-61.164	-0.319	-0.134
-725.894	-106.247	0.244	-0.055
-724.879	-25.112	0.090	0.053
-723.864	-85.055	-0.241	-0.076
-722.850	-103.384	0.060	0.014
-721.835	111.451	-0.178	-0.214
-720.821	-200.000	0.061	-0.317
-719.806	-83.537	-0.168	0.054
-718.791	413.151	0.005	-0.012
-717.777	299.448	0.062	-0.115
-716.762	198.860	0.100	0.154
-715.748	-200.000	-0.034	-0.281
-714.733	800.000	0.017	-0.066
-713.718	800.000	-0.081	0.226
-712.704	-73.083	0.063	-0.023
-711.689	-200.000	0.054	-0.587
-710.675	-200.000	-0.007	-0.376
-709.660	-84.999	-0.059	-0.019
-708.645	-29.311	-0.147	-0.084
-707.631	800.000	0.003	-0.012
-706.616	800.000	0.024	-0.086
-705.602	-4.835	-0.349	0.241
-704.587	115.817	0.127	-0.156
-703.572	-176.329	0.296	0.008
-702.558	-57.303	-0.147	-0.065
-701.543	91.460	-0.044	0.050
-700.529	10.465	0.121	-0.092
-699.514	-123.692	-0.357	-0.057
-698.499	28.995	0.238	-0.201
-697.485	-107.533	-0.260	0.057
-696.470	-73.826	-0.210	-0.076
-695.456	103.949	-0.186	-0.219
-694.441	-16.281	-0.176	-0.112
-693.426	-167.325	-0.129	0.005
-692.412	-88.363	0.362	0.108
-691.397	-200.000	0.021	-0.130
-690.383	-65.626	-0.248	-0.099
-689.368	64.799	-0.032	0.032
-688.354	-44.760	0.051	-0.025
-687.339	-78.123	0.224	-0.077
-686.324	169.143	0.111	0.158
-685.310	800.000	-0.120	0.340
-684.295	-200.000	-0.036	0.186
-683.281	-169.313	0.177	0.007
-682.266	-45.787	-0.167	-0.083
-681.251	478.540	-0.040	-0.090
-680.237	-200.000	-0.014	-0.225
-679.222	-200.000	-0.000	0.375
-678.208	-140.483	0.074	-0.008
-677.193	-79.452	0.171	-0.058
-676.178	-95.968	-0.300	0.080
-675.164	758.815	-0.163	0.440
-674.149	487.658	-0.118	-0.269
-673.135	78.630	-0.150	0.160
-672.120	-200.000	-0.025	-0.137
-671.105	-20.589	-0.097	0.060
-670.091	-200.000	0.032	-0.463
-669.076	-200.000	-0.027	-0.230
-668.062	73.615	-0.135	-0.141
-667.047	-148.749	-0.194	-0.016
-666.032	158.192	0.262	-0.363
-665.018	-169.543	-0.111	-0.004
-664.003	-200.000	-0.051	0.241
-662.989	25.318	0.055	0.046
-661.974	113.523	-0.181	-0.219
-660.959	-200.000	0.011	-0.383
-659.945	-62.145	0.093	0.039
-658.930	143.267	0.050	-0.066
-657.916	-39.806	-0.224	-0.117
-656.901	800.000	-0.116	-0.407
-655.886	212.391	-0.198	-0.311
-654.872	-200.000	-0.003	0.376
-653.857	-200.000	-0.039	0.201
-652.843	100.670	-0.080	-0.093
-651.828	-113.101	0.165	0.032
-650.814	-98.380	-0.184	-0.047
-649.799	174.802	0.080	0.115
-648.784	-200.000	0.039	0.253
-647.770	153.449	0.063	0.086
-646.755	-119.917	0.108	0.019
-645.741	87.779	0.241	-0.266
-644.726	-108.800	0.569	-0.121
-643.711	-150.803	0.188	-0.014
-642.697	-14.510	-0.209	-0.134
-641.682	132.172	-0.114	0.147
-640.668	-59.912	-0.071	-0.030
-639.653	800.000	0.063	0.227
-638.638	-183.942	-0.089	-0.001
-637.624	-70.329	0.276	0.104
-636.609	-200.000	-0.009	-0.091
-635.595	-113.289	-0.254	0.050
-634.580	-200.000	-0.004	0.090
-633.565	390.223	0.150	0.309
-632.551	418.122	-0.170	-0.361
-631.536	-100.905	0.096	0.023
-630.522	564.458	-0.047	-0.115
-629.507	-107.063	0.518	0.114
-628.492	63.299	0.227	-0.227
-627.478	800.000	-0.034	-0.101
-626.463	-200.000	-0.033	0.235
-625.449	170.702	-0.116	-0.166
-624.434	-23.719	-0.350	0.209
-623.419	66.934	-0.161	0.164
-622.405	-200.000	0.042	-0.204
-621.390	-123.678	-0.225	0.035
-620.376	-116.958	0.030	-0.006
-619.361	-76.233	-0.085	0.030
-618.346	-81.033	0.097	0.032
-617.332	800.000	-0.034	0.112
-616.317	204.754	0.062	0.095
-615.303	-200.000	0.021	-0.309
-614.288	-200.000	-0.031	-0.220
-613.273	-59.223	-0.102	0.044
-612.259	13.987	-0.198	-0.153
-611.244	800.000	-0.019	0.063
-610.230	85.705	-0.100	0.109
-609.215	-92.681	-0.095	-0.026
-608.201	800.000	-0.032	-0.122
-607.186	-49.513	-0.126	0.060
-606.171	-200.000	0.002	-0.129
-605.157	-108.378	-0.314	0.067
-604.142	800.000	-0.032	-0.138
-603.128	-200.000	-0.014	-0.081
-602.113	241.905	-0.132	-0.220
-601.098	180.049	-0.214	-0.312
-600.084	800.000	-0.056	0.214
-599.069	110.645	-0.069	-0.083
-598.055	78.413	0.109	0.115
-597.040	141.860	0.062	-0.082
-596.025	-200.000	0.034	0.390
-595.011	-167.345	-0.060	0.002
-593.996	-200.000	0.005	-0.446
-592.982	-101.832	0.121	0.029
-591.967	-45.094	-0.259	-0.128
-590.952	-200.000	0.023	0.142
-589.938	18.283	0.284	-0.226
-588.923	-200.000	-0.002	0.072
-587.909	-200.000	-0.019	-0.356
-586.894	3.387	-0.356	0.258
-585.879	-200.000	-0.012	0.160
-584.865	66.473	0.212	0.215
-583.850	-200.000	0.000	0.120
-582.836	-88.667	0.331	-0.098
-581.821	-16.437	-0.039	-0.024
-580.806	-101.895	0.332	0.080
-579.792	727.062	-0.058	0.155
-578.777	800.000	0.089	0.299
-577.763	302.493	-0.098	-0.180
-576.748	800.000	0.088	-0.246
-575.733	-200.000	0.001	-0.161
-574.719	-65.969	-0.276	-0.110
-573.704	-105.598	-0.039	-0.009
-572.690	37.288	-0.131	0.115
-571.675	-85.258	0.263	0.082
-570.661	-66.235	-0.404	0.160
-569.646	89.193	0.202	0.223
-568.631	214.080	0.093	-0.147
-567.617	-53.838	0.020	-0.009
-566.602	136.304	-0.152	0.197
-565.588	-200.000	-0.070	0.588
-564.573	-14.911	0.097	0.062
-563.558	371.630	-0.056	0.114
-562.544	205.216	-0.105	-0.161
-561.529	-1.175	-0.246	0.173
-560.515	57.037	0.422	-0.409
-559.500	-67.024	-0.191	0.075
-558.485	-53.689	-0.146	-0.066
-557.471	-200.000	0.019	0.087
-556.456	603.640	-0.040	-0.098
-555.442	-16.402	0.140	-0.088
-554.427	347.950	-0.080	0.156
-553.412	32.604	-0.266	0.229
-552.398	406.845	0.036	-0.075
-551.383	-15.389	0.095	0.060
-550.369	-86.529	0.248	0.076
-549.354	361.598	-0.097	0.193
-548.339	-43.340	-0.170	0.085
-547.325	800.000	0.071	0.255
-546.310	298.102	0.114	-0.209
-545.296	-93.056	-0.025	-0.007
-544.281	766.492	0.091	0.244
-543.266	2.985	0.172	-0.124
-542.252	-50.762	-0.261	-0.122
-541.237	454.836	0.094	0.207
-540.223	-193.353	-0.200	-0.002
-539.208	-200.000	-0.009	-0.249
-538.193	-59.437	-0.109	-0.047
-537.179	86.205	0.072	0.078
-536.164	-169.052	-0.023	-0.001
-535.150	-188.454	0.214	0.003
-534.135	41.823	-0.430	0.387
-533.121	-145.171	-0.287	-0.026
-532.106	137.348	-0.319	-0.414
-531.091	211.722	0.061	0.095
-530.077	27.895	-0.307	0.257
-529.062	-102.155	-0.284	0.068
-528.048	-200.000	0.017	0.135
-527.033	800.000	-0.003	0.009
-526.018	424.679	-0.021	-0.044
-525.004	-23.708	-0.216	0.128
-523.989	158.316	-0.168	-0.232
-522.975	-200.000	-0.037	-0.449
-521.960	-13.659	0.104	-0.067
-520.945	-23.334	0.215	0.128
-519.931	235.633	0.075	-0.123
-518.916	800.000	-0.029	-0.112
-517.902	116.832	0.193	0.235
-516.887	-200.000	0.010	-0.255
-515.872	-200.000	0.011	0.252
-514.858	-8.067	0.081	0.054
-513.843	-96.833	0.200	0.052
-512.829	800.000	-0.074	-0.251
-511.814	800.000	-0.058	-0.247
-510.799	31.976	-0.125	0.107
-509.785	-102.822	0.412	0.097
-508.770	765.373	0.059	0.159
-507.756	-109.051	-0.093	0.020
-506.741	-65.402	-0.112	0.044
-505.726	-143.489	0.358	0.034
-504.712	101.883	-0.114	-0.132
-503.697	800.000	-0.081	0.331
-502.683	800.000	-0.032	-0.128
-501.668	-57.955	-0.139	0.060
-500.653	4.046	0.370	-0.268
-499.639	96.029	-0.058	-0.066
-498.624	-47.790	0.196	0.094
-497.610	18.083	-0.042	-0.033
-496.595	-131.364	0.249	-0.033
-495.581	-200.000	0.044	-0.197
-494.566	21.939	0.151	0.122
-493.551	-118.780	-0.113	-0.020
-492.537	800.000	-0.035	-0.098
-491.522	157.467	0.059	-0.081
-490.508	-114.364	0.142	0.027
-489.493	-33.967	-0.314	0.171
-488.478	-16.582	0.338	0.212
-487.464	800.000	0.070	-0.251
-486.449	-13.017	-0.083	-0.053
-485.435	139.921	0.119	0.156
-484.420	-200.000	0.005	0.245
-483.405	-200.000	0.025	0.148
-482.391	-200.000	0.041	0.417
-481.376	-111.178	-0.148	-0.030
-480.362	800.000	0.047	0.194
-479.347	141.792	0.051	0.066
-478.332	-16.859	0.175	0.110
-477.318	-200.000	-0.029	0.288
-476.303	96.003	0.061	-0.069
-475.289	-106.976	-0.328	-0.072
-474.274	-101.229	0.164	0.040
-473.259	75.460	-0.199	0.208
-472.245	280.112	-0.257	-0.455
-471.230	87.825	-0.085	0.093
-470.216	6.355	-0.204	-0.150
-469.201	-200.000	0.020	0.117
-468.186	-36.975	-0.173	0.092
-467.172	-6.931	0.345	0.232
-466.157	342.537	0.096	-0.186
-465.143	36.709	-0.152	-0.133
-464.128	-45.025	0.152	0.075
-463.113	800.000	0.026	-0.104
-462.099	-81.195	-0.358	-0.117
-461.084	800.000	0.069	-0.224
-460.070	-200.000	0.048	-0.231
-459.055	800.000	-0.066	0.200
-458.040	-61.759	-0.221	-0.092
-457.026	153.169	-0.063	-0.085
-456.011	-122.588	0.353	0.057
-454.997	37.441	0.324	-0.285
-453.982	-200.000	-0.023	0.216
-452.968	-72.039	0.104	0.038
-451.953	88.174	0.134	-0.147
-450.938	474.167	0.083	0.185
-449.924	800.000	0.023	-0.069
-448.909	243.230	-0.067	-0.110
-447.895	103.774	-0.021	-0.024
-446.880	-200.000	0.028	-0.178
-445.865	401.469	-0.141	-0.294
-444.851	-155.630	0.040	0.003
-443.836	-69.942	0.071	0.027
-442.822	-76.237	0.095	0.033
-441.807	266.380	0.119	0.206
-440.792	102.695	-0.104	0.121
-439.778	539.197	-0.023	-0.053
-438.763	-163.101	-0.436	0.021
-437.749	297.181	0.241	-0.438
-436.734	800.000	-0.035	0.135
-435.719	552.639	-0.005	0.012
-434.705	54.348	0.035	0.033
-433.690	-200.000	-0.017	-0.084
-432.676	-94.611	0.150	0.040
-431.661	-139.997	-0.068	-0.007
-430.646	-102.736	-0.188	0.044
-429.632	-200.000	0.002	0.196
-428.617	526.973	0.107	-0.249
-427.603	800.000	0.073	-0.216
-426.588	-147.801	0.144	0.012
-425.573	-3.311	-0.172	0.118
-424.559	-13.956	0.184	0.118
-423.544	-49.921	0.272	-0.127
-422.530	-10.324	-0.164	0.108
-421.515	-141.861	-0.384	-0.038
-420.500	18.313	-0.061	-0.048
-419.486	800.000	-0.022	0.084
-418.471	18.284	0.172	0.136
-417.457	-200.000	-0.051	-0.381
-416.442	-101.048	0.219	-0.053
-415.428	-119.617	-0.165	-0.028
-414.413	-38.519	-0.180	0.094
-413.398	-29.965	-0.210	-0.118
-412.384	83.564	-0.152	0.163
-411.369	-200.000	-0.002	-0.203
-410.355	50.538	0.059	-0.055
-409.340	-185.924	-0.163	-0.002
-408.325	-49.327	-0.047	-0.022
-407.311	800.000	-0.027	-0.074
-406.296	-89.328	0.133	0.039
-405.282	-200.000	0.056	0.279
-404.267	268.852	0.164	-0.284
-403.252	47.123	-0.279	-0.256
-402.238	-60.930	0.112	0.047
-401.223	142.110	-0.112	0.147
-400.209	-137.003	0.259	-0.029
-399.194	17.902	0.371	-0.292
-398.179	-35.960	-0.094	-0.050
-397.165	220.916	-0.163	-0.258
-396.150	-200.000	-0.012	-0.395
-395.136	-200.000	0.000	-0.114
-394.121	-14.460	0.107	0.068
-393.106	-131.302	0.200	-0.026
-392.092	800.000	0.079	-0.217
-391.077	-200.000	-0.025	0.155
-390.063	80.927	-0.111	0.119
-389.048	-200.000	0.061	0.378
-388.033	800.000	-0.046	-0.127
-387.019	-59.468	-0.231	0.098
-386.004	-176.941	-0.368	-0.009
-384.990	107.060	-0.081	0.094
-383.975	-19.463	-0.211	-0.129
-382.960	496.862	-0.096	0.219
-381.946	800.000	0.146	0.496
-380.931	653.008	-0.018	-0.044
-379.917	14.798	-0.177	-0.137
-378.902	-108.411	0.354	-0.075
-377.888	117.117	-0.189	0.229
-376.873	800.000	0.017	-0.063
-375.858	-163.352	-0.105	0.005
-374.844	-108.589	-0.255	0.054
-373.829	-7.301	-0.221	-0.148
-372.815	-200.000	0.024	-0.121
-371.800	-29.577	0.135	-0.076
-370.785	120.016	0.183	-0.224
-369.771	17.413	-0.211	0.165
-368.756	232.564	-0.184	0.299
-367.742	-200.000	-0.016	-0.167
-366.727	800.000	0.033	-0.118
-365.712	-200.000	0.087	0.398
-364.698	-55.380	0.151	-0.067
-363.683	-114.175	0.285	-0.054
-362.669	800.000	-0.085	-0.256
-361.654	242.991	-0.142	0.234
-360.639	-67.136	0.282	0.110
-359.625	-42.197	0.172	0.087
-358.610	60.615	-0.262	-0.256
-357.596	288.784	-0.059	0.106
-356.581	37.413	0.069	-0.060
-355.566	800.000	0.089	-0.300
-354.552	-137.939	-0.435	-0.048
-353.537	84.356	0.075	-0.080
-352.523	66.464	0.009	0.009
-351.508	-11.807	-0.293	-0.189
-350.493	-200.000	0.013	-0.211
-349.479	-156.709	0.278	0.017
-348.464	91.485	-0.127	-0.141
-347.450	800.000	-0.039	0.119
-346.435	200.701	-0.242	-0.367
-345.420	-40.408	0.309	0.158
-344.406	-200.000	0.023	0.137
-343.391	-16.161	0.151	-0.095
-342.377	-200.000	0.017	0.168
-341.362	800.000	-0.151	0.479
-340.348	31.238	-0.152	0.129
-339.333	-27.703	0.261	-0.149
-338.318	62.038	0.405	-0.397
-337.304	-200.000	-0.043	0.214
-336.289	197.945	0.132	0.198
-335.275	34.836	0.066	0.057
-334.260	421.357	0.016	0.034
-333.245	800.000	0.034	0.099
-332.231	57.888	-0.050	-0.048
-331.216	441.806	0.083	-0.178
-330.202	-200.000	0.015	0.102
-329.187	231.708	-0.136	-0.220
-328.172	-42.273	0.287	-0.144
-327.158	585.428	0.137	-0.331
-326.143	-93.807	-0.233	-0.063
-325.129	227.145	0.052	-0.084
-324.114	173.346	-0.137	0.194
-323.099	-200.000	0.044	0.299
-322.085	-48.137	-0.170	0.081
-321.070	239.602	-0.121	-0.199
-320.056	-105.975	-0.039	0.009
-319.041	717.907	-0.057	-0.149
-318.026	17.837	0.206	-0.161
-317.012	48.794	0.182	-0.168
-315.997	-142.210	-0.389	0.038
-314.983	-200.000	0.034	-0.312
-313.968	-92.977	-0.204	-0.056
-312.953	-28.144	-0.109	0.062
-311.939	48.070	0.122	-0.112
-310.924	44.547	0.279	-0.252
-309.910	-97.767	-0.340	-0.086
-308.895	161.744	0.072	-0.099
-307.880	-200.000	0.026	-0.162
-306.866	-37.922	-0.297	-0.156
-305.851	-85.991	-0.418	0.127
-304.837	-180.188	0.212	-0.004
-303.822	-43.514	0.245	0.121
-302.807	-19.449	-0.194	-0.118
-301.793	-200.000	-0.060	0.265
-300.778	58.448	0.162	0.157
-299.764	752.258	-0.082	0.218
-298.749	-200.000	-0.019	-0.117
-297.735	38.191	-0.186	0.163
-296.720	-134.231	0.176	-0.021
-295.705	-86.869	0.144	-0.043
-294.691	6.851	-0.169	-0.124
-293.676	198.206	-0.112	-0.169
-292.662	191.939	0.166	-0.246
-291.647	-50.589	0.186	-0.086
-290.632	509.767	-0.220	-0.503
-289.618	-55.495	0.204	0.090
-288.603	-200.000	-0.028	-0.238
-287.589	77.446	-0.147	0.154
-286.574	-48.235	-0.217	-0.103
-285.559	-65.716	-0.201	0.079
-284.545	800.000	-0.124	-0.421
-283.530	-200.000	0.021	-0.190
-282.516	15.466	-0.048	0.037
-281.501	800.000	0.133	0.478
-280.486	50.004	-0.278	0.258
-279.472	-200.000	-0.029	0.584
-278.457	-104.735	0.186	0.042
-277.443	-136.022	0.529	0.061
-276.428	-200.000	0.029	0.168
-275.413	-191.173	0.295	-0.003
-274.399	-86.037	0.248	-0.075
-273.384	-196.795	-0.089	0.001
-272.370	35.074	-0.125	0.107
-271.355	109.383	0.055	0.064
-270.340	72.681	0.258	0.264
-269.326	300.202	-0.126	-0.229
-268.311	75.472	-0.274	-0.284
-267.297	-86.116	0.387	0.117
-266.282	6.759	0.054	0.039
-265.267	-110.206	0.017	-0.003
-264.253	-19.123	0.200	0.122
-263.238	-200.000	0.045	0.328
-262.224	47.238	0.080	0.073
-261.209	-140.452	0.145	0.015
-260.195	-47.682	-0.267	0.127
-259.180	-200.000	-0.020	-0.112
-258.165	-74.270	-0.134	-0.048
-257.151	332.325	0.155	-0.293
-256.136	-13.125	-0.047	-0.030
-255.122	67.813	-0.105	0.105
-254.107	-5.964	0.350	-0.235
-253.092	-15.682	0.322	0.201
-252.078	-74.223	-0.081	0.029
-251.063	375.475	-0.135	0.269
-250.049	-113.695	-0.052	-0.010
-249.034	-113.301	0.186	-0.036
-248.019	-200.000	-0.042	0.286
-247.005	-36.195	0.185	-0.098
-245.990	-188.697	0.291	-0.004
-244.976	-53.003	-0.367	0.166
-243.961	266.706	0.187	-0.320
-242.946	-131.057	-0.076	0.010
-241.932	160.788	0.106	0.146
-240.917	167.641	0.287	-0.401
-239.903	-200.000	0.037	-0.275
-238.888	6.744	-0.291	-0.213
-237.873	-200.000	0.036	0.180
-236.859	-200.000	-0.001	0.195
-235.844	-2.550	-0.025	-0.017
-234.830	324.041	0.110	-0.206
-233.815	167.307	0.117	0.163
-232.800	-118.772	-0.336	-0.058
-231.786	-22.887	0.229	-0.136
-230.771	82.552	-0.281	0.300
-229.757	800.000	0.047	0.130
-228.742	-154.054	0.134	-0.009
-227.727	-151.745	0.435	-0.031
-226.713	205.208	0.175	0.267
-225.698	39.779	-0.172	0.151
-224.684	-50.978	0.269	-0.124
-223.669	-200.000	0.059	-0.315
-222.655	75.772	0.071	-0.073
-221.640	-187.391	-0.184	0.002
-220.625	800.000	0.059	0.164
-219.611	81.480	-0.221	0.235
-218.596	120.589	0.188	-0.229
-217.582	94.911	-0.141	0.157
-216.567	-58.056	0.219	0.094
-215.552	-200.000	-0.009	0.202
-214.538	-200.000	0.014	0.066
-213.523	-3.488	0.054	0.037
-212.509	-107.435	0.102	0.022
-211.494	-65.688	0.118	0.046
-210.479	-63.864	0.191	-0.077
-209.465	29.238	-0.028	-0.023
-208.450	212.869	-0.071	0.110
-207.436	152.789	0.063	0.084
-206.421	-183.386	0.208	0.004
-205.406	264.538	0.082	-0.139
-204.392	-129.028	-0.325	0.045
-203.377	-164.658	-0.553	0.025
-202.363	-106.346	-0.231	0.051
-201.348	93.228	0.133	-0.148
-200.333	175.528	0.176	0.250
-199.319	794.924	0.134	0.360
-198.304	-87.743	-0.057	0.017
-197.290	217.717	-0.152	-0.237
-196.275	39.157	-0.160	-0.140
-195.260	-200.000	0.022	0.098
-194.246	-14.064	-0.139	0.088
-193.231	800.000	0.094	-0.313
-192.217	162.637	0.121	-0.166
-191.202	800.000	0.107	0.307
-190.187	-86.593	-0.166	0.050
-189.173	459.362	0.112	0.245
-188.158	800.000	0.070	-0.228
-187.144	194.257	0.037	0.055
-186.129	57.133	-0.179	0.171
-185.114	-200.000	-0.002	-0.091
-184.100	-200.000	0.034	0.306
-183.085	616.158	-0.108	0.265
-182.071	422.207	0.062	0.130
-181.056	-17.844	-0.108	-0.067
-180.042	800.000	-0.025	0.082
-179.027	234.930	-0.073	0.119
-178.012	241.150	0.119	-0.195
-176.998	-153.826	-0.417	-0.028
-175.983	-200.000	-0.010	-0.255
-174.969	502.279	0.006	-0.014
-173.954	800.000	0.026	-0.096
-172.939	-183.191	0.046	0.001
-171.925	117.811	0.158	0.190
-170.910	-99.671	0.269	-0.066
-169.896	-7.874	-0.102	0.067
-168.881	144.745	0.070	-0.091
-167.866	-89.692	-0.379	0.109
-166.852	93.141	0.208	-0.230
-165.837	72.628	0.094	0.095
-164.823	-166.305	-0.109	0.004
-163.808	-141.878	0.279	0.027
-162.793	41.703	-0.223	-0.198
-161.779	-92.290	-0.285	-0.079
-160.764	-35.464	0.052	-0.027
-159.750	138.149	0.229	0.293
-158.735	-162.093	0.316	-0.016
-157.720	567.662	-0.053	0.126
-156.706	19.390	-0.207	-0.163
-155.691	257.960	0.069	0.117
-154.677	-4.636	0.104	-0.071
-153.662	-200.000	0.009	0.069
-152.647	-51.786	-0.110	0.050
-151.633	-200.000	0.026	-0.223
-150.618	124.170	-0.132	0.162
-149.604	-189.165	0.256	-0.003
-148.589	184.712	-0.056	-0.081
-147.574	274.470	-0.055	-0.096
-146.560	-92.204	0.299	-0.082
-145.545	363.016	-0.158	0.309
-144.531	-200.000	0.011	-0.070
-143.516	154.377	0.260	-0.348
-142.502	533.078	0.060	-0.139
-141.487	71.986	-0.127	0.130
-140.472	-81.597	-0.213	0.068
-139.458	-61.370	0.144	-0.059
-138.443	-200.000	0.007	-0.272
-137.429	-94.655	-0.093	0.025
-136.414	800.000	-0.030	0.082
-135.399	-41.419	0.071	0.036
-134.385	-200.000	0.080	-0.382
-133.370	-75.212	-0.167	-0.058
-132.356	-7.865	-0.202	0.133
-131.341	-147.300	-0.414	0.034
-130.326	-150.998	-0.184	0.014
-129.312	-200.000	0.011	-0.233
-128.297	-77.474	-0.065	0.022
-127.283	-200.000	-0.050	0.336
-126.268	-127.476	0.171	0.024
-125.253	-200.000	-0.038	-0.179
-124.239	-39.687	0.134	-0.068
-123.224	-56.110	0.207	-0.090
-122.210	128.408	0.114	-0.142
