DTS Sentinel unit serial number:	SN413079Multiplexer serial number:	ORYXHardware model number:	OX4-SRSoftware version number:	ORYX F/W v4.00 Oryx Data Collector v3.7.2.0data status	okinstallation	princeton_trtdifferential loss correction	single-endedforward channel	channel 3reverse channel	N/Adate	2019/09/19time	02:24:34forward acquisition time	60.00reverse acquisition time	0.00gamma	496.2192k internal	0.2348k external	0.2348temperature offset calibration	0.9993default loss term (dB/km)	0.3790temperature slope calibration	1.0000multiplexer offset coefficient	1.0000multiplexer slope coefficient	1.0000fibre end	0.00T internal ref (°C)	21.06T ext. ref 1 (°C)	0.68T ext. ref 2 (°C)	14.65length (m)	temperature (°C)	Stokes	anti-Stokes-747.200	-109.966	0.254	0.053
-746.185	-8.825	-0.259	0.174
-745.171	-130.688	0.129	-0.017
-744.156	33.842	-0.226	-0.197
-743.142	-71.870	0.399	0.149
-742.127	800.000	0.039	0.169
-741.112	-82.552	0.204	0.066
-740.098	60.207	-0.161	0.159
-739.083	-85.849	0.159	0.049
-738.069	205.351	0.167	-0.259
-737.054	-90.421	-0.169	0.049
-736.039	-35.292	-0.320	0.174
-735.025	362.754	-0.043	0.085
-734.010	143.745	0.064	0.085
-732.996	84.536	-0.234	-0.256
-731.981	566.743	-0.081	0.197
-730.966	800.000	0.077	-0.318
-729.952	-69.495	-0.009	-0.003
-728.937	-90.013	-0.226	-0.066
-727.923	220.843	0.141	-0.225
-726.908	78.622	-0.153	-0.163
-725.894	800.000	-0.018	0.064
-724.879	-200.000	-0.003	-0.583
-723.864	54.213	-0.035	0.034
-722.850	339.209	-0.203	-0.395
-721.835	270.220	0.175	-0.307
-720.821	-72.137	-0.207	-0.077
-719.806	-152.192	-0.342	0.025
-718.791	800.000	-0.062	-0.171
-717.777	-200.000	-0.017	-0.160
-716.762	-200.000	-0.000	0.184
-715.748	-91.736	-0.167	-0.047
-714.733	-61.669	-0.095	0.040
-713.718	21.728	0.122	0.099
-712.704	146.870	-0.058	-0.078
-711.689	15.815	-0.150	-0.118
-710.675	347.193	-0.044	0.086
-709.660	-178.715	0.266	0.006
-708.645	-200.000	-0.005	0.188
-707.631	-145.434	-0.140	0.013
-706.616	-49.547	0.081	-0.038
-705.602	191.391	0.137	0.206
-704.587	-200.000	0.085	-0.552
-703.572	-200.000	-0.030	-0.217
-702.558	583.602	-0.052	-0.128
-701.543	800.000	-0.064	-0.271
-700.529	-78.642	-0.158	0.054
-699.514	-94.361	0.130	0.035
-698.499	-35.006	-0.347	-0.189
-697.485	-143.847	0.203	-0.019
-696.470	121.442	0.059	0.073
-695.456	-200.000	-0.035	-0.217
-694.441	800.000	-0.117	-0.502
-693.426	-97.079	-0.096	-0.025
-692.412	65.629	-0.068	-0.068
-691.397	800.000	0.033	0.118
-690.383	-200.000	0.027	-0.214
-689.368	59.752	0.200	0.197
-688.354	-119.899	0.299	-0.051
-687.339	68.519	-0.146	-0.149
-686.324	-117.783	-0.180	0.032
-685.310	-126.889	0.211	-0.031
-684.295	-158.446	0.236	0.014
-683.281	-42.307	-0.091	-0.046
-682.266	25.349	0.219	0.181
-681.251	800.000	0.040	-0.132
-680.237	81.429	-0.143	-0.154
-679.222	-103.960	-0.428	0.100
-678.208	-200.000	-0.031	-0.143
-677.193	-200.000	-0.198	0.000
-676.178	-200.000	0.023	-0.229
-675.164	-200.000	-0.017	0.290
-674.149	-16.996	-0.238	0.150
-673.135	17.031	0.153	0.121
-672.120	-112.507	0.244	-0.049
-671.105	800.000	0.039	-0.137
-670.091	384.445	-0.211	0.434
-669.076	-51.262	-0.157	0.073
-668.062	158.811	-0.158	-0.218
-667.047	482.395	-0.146	0.330
-666.032	-103.304	-0.146	0.034
-665.018	219.287	-0.131	-0.209
-664.003	-200.000	0.020	-0.296
-662.989	530.865	0.208	-0.489
-661.974	-19.281	-0.145	-0.090
-660.959	-61.770	-0.321	-0.134
-659.945	800.000	0.048	-0.152
-658.930	144.359	-0.312	0.415
-657.916	-72.003	0.599	0.222
-656.901	-118.713	-0.145	-0.026
-655.886	-105.348	-0.201	0.046
-654.872	-162.529	0.166	-0.008
-653.857	-63.698	-0.194	0.079
-652.843	155.807	-0.057	-0.078
-651.828	62.880	-0.098	-0.097
-650.814	-140.546	0.196	0.020
-649.799	51.181	0.116	0.109
-648.784	143.101	-0.163	0.216
-647.770	-55.828	0.126	-0.056
-646.755	-45.522	-0.096	-0.047
-645.741	800.000	0.065	-0.252
-644.726	334.815	0.063	0.121
-643.711	79.116	0.154	0.164
-642.697	-200.000	0.015	0.073
-641.682	-200.000	-0.001	-0.017
-640.668	800.000	-0.074	0.216
-639.653	516.833	-0.181	0.420
-638.638	-44.047	0.229	-0.115
-637.624	270.829	-0.080	-0.140
-636.609	19.463	-0.397	-0.317
-635.595	-28.495	0.307	-0.176
-634.580	800.000	0.040	-0.128
-633.565	-62.685	-0.044	-0.018
-632.551	148.002	-0.150	0.201
-631.536	-167.864	-0.239	-0.009
-630.522	-39.222	0.226	-0.118
-629.507	71.740	0.122	-0.126
-628.492	-20.649	0.239	0.146
-627.478	-157.943	0.467	0.027
-626.463	-49.715	0.048	-0.023
-625.449	-92.855	-0.188	-0.052
-624.434	-97.234	-0.242	-0.063
-623.419	-195.379	-0.118	0.001
-622.405	416.402	-0.102	0.217
-621.390	54.921	-0.070	0.067
-620.376	54.943	-0.212	0.204
-619.361	-80.818	-0.520	-0.172
-618.346	98.544	-0.037	0.043
-617.332	-192.562	0.223	0.002
-616.317	-200.000	-0.030	0.188
-615.303	454.799	-0.138	-0.304
-614.288	-55.086	-0.195	-0.087
-613.273	-135.447	-0.276	0.033
-612.259	408.560	0.136	-0.286
-611.244	661.087	-0.040	-0.104
-610.230	-200.000	0.046	-0.269
-609.215	-35.428	-0.312	0.168
-608.201	100.420	-0.059	-0.068
-607.186	-69.906	0.179	0.068
-606.171	303.093	0.141	-0.259
-605.157	-20.247	0.088	0.054
-604.142	-184.911	-0.293	-0.005
-603.128	191.103	0.091	0.136
-602.113	173.449	-0.183	0.263
-601.098	-16.438	0.193	0.121
-600.084	-104.177	0.121	-0.028
-599.069	-30.207	0.379	0.214
-598.055	46.599	0.076	-0.070
-597.040	300.391	-0.114	0.210
-596.025	-24.891	0.297	-0.175
-595.011	123.787	0.101	-0.127
-593.996	-200.000	-0.009	-0.147
-592.982	-41.756	0.527	-0.269
-591.967	-124.054	-0.335	-0.052
-590.952	-200.000	-0.074	-0.393
-589.938	-199.496	-0.372	0.002
-588.923	52.029	0.124	-0.117
-587.909	-200.000	-0.010	0.225
-586.894	410.040	0.073	0.153
-585.879	797.015	-0.116	-0.318
-584.865	36.607	0.056	0.049
-583.850	-200.000	-0.038	0.174
-582.836	489.304	-0.016	0.037
-581.821	-26.898	-0.276	0.160
-580.806	32.451	-0.158	0.136
-579.792	-28.758	0.349	0.199
-578.777	-65.658	0.203	0.081
-577.763	98.618	-0.264	-0.302
-576.748	-93.601	0.068	-0.019
-575.733	65.206	0.098	0.098
-574.719	205.428	-0.123	-0.189
-573.704	-22.131	-0.320	-0.192
-572.690	-64.659	-0.074	0.030
-571.675	-200.000	0.054	-0.428
-570.661	51.905	-0.174	0.164
-569.646	-13.694	0.177	0.114
-568.631	-200.000	-0.000	-0.065
-567.617	-200.000	0.072	0.339
-566.602	207.640	-0.079	0.122
-565.588	-45.905	-0.357	-0.175
-564.573	800.000	0.041	-0.114
-563.558	-70.593	-0.115	0.043
-562.544	-45.219	-0.317	0.156
-561.529	-149.667	0.091	-0.007
-560.515	800.000	0.076	-0.304
-559.500	-200.000	0.005	0.203
-558.485	210.389	0.073	-0.113
-557.471	56.912	-0.084	-0.082
-556.456	462.889	0.148	-0.327
-555.442	800.000	-0.023	-0.071
-554.427	-36.906	-0.109	-0.058
-553.412	-142.501	-0.111	0.011
-552.398	-5.842	-0.061	-0.042
-551.383	20.432	0.305	-0.245
-550.369	-12.134	-0.193	0.125
-549.354	40.783	0.147	0.131
-548.339	61.754	0.156	0.154
-547.325	1.241	-0.229	-0.163
-546.310	-6.517	-0.079	-0.053
-545.296	206.591	0.077	0.119
-544.281	440.136	0.044	0.095
-543.266	21.781	0.244	-0.197
-542.252	-59.104	0.038	0.016
-541.237	-90.089	-0.294	0.085
-540.223	-52.298	-0.284	-0.130
-539.208	35.812	0.222	-0.194
-538.193	-175.085	-0.209	0.006
-537.179	-21.228	0.223	-0.135
-536.164	22.147	0.114	0.092
-535.150	165.057	-0.206	0.289
-534.135	-98.801	-0.314	-0.079
-533.121	113.385	0.282	0.339
-532.106	99.587	-0.048	0.055
-531.091	259.745	-0.041	0.071
-530.077	800.000	-0.056	-0.199
-529.062	-27.673	-0.253	-0.145
-528.048	-200.000	-0.021	-0.273
-527.033	304.257	-0.171	-0.315
-526.018	35.969	-0.321	0.280
-525.004	324.152	-0.124	0.235
-523.989	390.988	0.027	0.056
-522.975	-61.204	0.244	0.102
-521.960	800.000	-0.046	-0.178
-520.945	140.972	0.167	0.219
-519.931	-200.000	0.000	0.042
-518.916	72.214	0.129	0.133
-517.902	-40.870	0.138	-0.070
-516.887	800.000	-0.035	0.101
-515.872	800.000	-0.047	0.131
-514.858	-72.902	-0.164	0.060
-513.843	-200.000	-0.019	-0.261
-512.829	-200.000	-0.039	-0.343
-511.814	198.268	0.187	-0.283
-510.799	-99.928	0.238	-0.059
-509.785	-200.000	-0.011	0.050
-508.770	-84.201	-0.089	-0.028
-507.756	433.188	0.008	-0.018
-506.741	288.355	-0.143	-0.256
-505.726	42.775	-0.039	-0.035
-504.712	163.391	0.069	0.095
-503.697	800.000	0.006	-0.023
-502.683	669.576	-0.075	-0.191
-501.668	-27.506	0.214	-0.123
-500.653	-90.699	0.431	-0.123
-499.639	-25.983	-0.162	0.094
-498.624	-25.881	0.220	0.128
-497.610	-200.000	-0.063	0.277
-496.595	-200.000	-0.033	0.221
-495.581	160.699	-0.037	0.051
-494.566	-78.697	-0.403	0.136
-493.551	-136.849	0.088	-0.010
-492.537	-200.000	0.023	0.320
-491.522	-200.000	-0.074	0.381
-490.508	-200.000	0.046	0.289
-489.493	-83.789	-0.122	-0.038
-488.478	-200.000	0.081	0.582
-487.464	-200.000	-0.003	0.259
-486.449	-200.000	0.042	0.199
-485.435	584.207	-0.083	-0.201
-484.420	-166.678	-0.094	0.004
-483.405	-77.388	-0.257	0.088
-482.391	91.545	-0.106	0.118
-481.376	273.568	0.113	0.197
-480.362	-149.323	-0.070	0.005
-479.347	-111.517	0.243	0.049
-478.332	799.680	0.044	-0.121
-477.318	297.310	-0.071	0.129
-476.303	800.000	-0.075	-0.318
-475.289	17.038	-0.161	-0.126
-474.274	69.996	0.150	-0.153
-473.259	-39.473	-0.049	0.026
-472.245	196.785	0.165	-0.248
-471.230	-127.251	-0.115	-0.017
-470.216	-90.470	0.264	-0.075
-469.201	87.674	-0.123	-0.135
-468.186	497.001	-0.036	0.082
-467.172	-138.785	-0.114	0.012
-466.157	-70.593	0.103	-0.039
-465.143	13.079	0.162	-0.124
-464.128	181.797	-0.233	-0.339
-463.113	-19.020	0.099	-0.061
-462.099	733.381	0.040	-0.106
-461.084	320.559	-0.129	0.243
-460.070	-200.000	-0.011	-0.112
-459.055	128.556	-0.056	-0.071
-458.040	-175.456	0.154	-0.004
-457.026	3.474	0.156	-0.112
-456.011	800.000	-0.069	0.270
-454.997	-74.241	0.289	0.103
-453.982	27.288	-0.069	-0.057
-452.968	-9.622	-0.197	-0.130
-451.953	111.895	-0.088	0.105
-450.938	800.000	-0.148	0.425
-449.924	94.474	-0.120	0.135
-448.909	417.396	0.041	-0.087
-447.895	-66.108	0.227	-0.090
-446.880	396.766	-0.058	0.119
-445.865	-33.728	0.122	0.066
-444.851	-200.000	-0.025	-0.404
-443.836	-13.250	-0.171	-0.109
-442.822	-101.409	0.303	0.073
-441.807	-120.887	-0.142	0.024
-440.792	21.248	-0.152	-0.121
-439.778	42.847	0.094	0.085
-438.763	-190.437	0.195	-0.002
-437.749	-6.139	0.254	-0.171
-436.734	-96.312	-0.080	0.021
-435.719	177.219	-0.025	-0.036
-434.705	592.900	-0.091	-0.221
-433.690	-97.690	-0.271	0.069
-432.676	800.000	-0.049	0.196
-431.661	-200.000	0.049	-0.315
-430.646	-108.579	-0.103	0.022
-429.632	81.850	0.221	-0.236
-428.617	-71.547	-0.130	-0.048
-427.603	800.000	0.070	-0.209
-426.588	-157.439	-0.395	-0.023
-425.573	-22.219	0.285	0.171
-424.559	113.206	-0.125	0.149
-423.544	800.000	-0.041	0.152
-422.530	-183.007	0.161	-0.003
-421.515	800.000	0.095	0.291
-420.500	-92.233	0.356	0.099
-419.486	-79.159	-0.198	-0.066
-418.471	276.479	-0.164	-0.287
-417.457	-200.000	0.009	-0.064
-416.442	-5.152	-0.072	0.049
-415.428	36.326	-0.142	-0.124
-414.413	126.169	0.146	0.182
-413.398	55.524	0.117	-0.112
-412.384	440.828	-0.062	0.134
-411.369	-200.000	-0.066	0.291
-410.355	-55.044	0.250	0.111
-409.340	149.145	0.105	0.140
-408.325	-9.044	-0.131	0.087
-407.311	-184.775	0.161	-0.003
-406.296	-200.000	0.010	0.159
-405.282	412.630	-0.182	0.381
-404.267	303.383	-0.181	0.330
-403.252	484.282	-0.224	0.502
-402.238	569.988	-0.077	0.185
-401.223	-30.527	0.205	0.114
-400.209	-89.309	0.113	0.033
-399.194	104.847	0.084	0.098
-398.179	-51.974	0.215	0.099
-397.165	-200.000	-0.016	-0.227
-396.150	800.000	0.012	0.037
-395.136	284.809	-0.121	-0.215
-394.121	117.066	-0.119	-0.144
-393.106	-116.725	0.312	-0.057
-392.092	66.532	0.205	0.206
-391.077	-79.378	-0.333	-0.111
-390.063	50.641	0.207	-0.193
-389.048	-200.000	-0.012	-0.120
-388.033	-133.419	-0.298	-0.037
-387.019	-143.044	-0.188	0.018
-386.004	27.275	0.185	0.153
-384.990	800.000	0.059	0.182
-383.975	530.646	-0.059	-0.138
-382.960	-200.000	0.008	-0.137
-381.946	-92.522	0.381	0.105
-380.931	-70.905	-0.251	0.093
-379.917	-62.734	0.231	0.094
-378.902	796.750	0.028	-0.076
-377.888	-88.133	-0.243	-0.072
-376.873	-64.066	0.389	-0.156
-375.858	-52.058	-0.311	0.142
-374.844	-83.875	0.303	0.095
-373.829	-43.357	-0.171	0.085
-372.815	217.840	0.186	0.292
-371.800	-200.000	-0.016	-0.195
-370.785	70.960	0.202	-0.206
-369.771	-200.000	-0.047	0.322
-368.756	-67.889	-0.319	-0.122
-367.742	-132.687	0.221	0.028
-366.727	-200.000	-0.065	-0.292
-365.712	-129.295	0.117	-0.016
-364.698	-135.729	-0.167	-0.019
-363.683	353.772	0.112	-0.219
-362.669	-105.823	0.195	0.043
-361.654	362.390	-0.039	0.077
-360.639	728.519	0.089	0.234
-359.625	713.249	0.038	-0.100
-358.610	-51.729	0.161	0.074
-357.596	-52.525	-0.194	0.088
-356.581	-46.650	-0.179	-0.086
-355.566	-150.835	0.263	-0.020
-354.552	-194.956	0.334	-0.003
-353.537	378.998	0.096	0.193
-352.523	-23.346	-0.151	0.089
-351.508	-76.576	-0.115	0.040
-350.493	-185.301	0.244	0.004
-349.479	291.339	0.126	0.225
-348.464	-200.000	-0.083	0.406
-347.450	-92.367	0.161	-0.045
-346.435	87.822	-0.187	-0.204
-345.420	49.690	-0.082	-0.076
-344.406	-20.673	-0.120	0.072
-343.391	-0.240	-0.142	-0.099
-342.377	-35.481	0.152	0.081
-341.362	107.515	-0.292	-0.341
-340.348	-200.000	-0.302	0.001
-339.333	74.650	0.209	0.216
-338.318	-60.173	-0.094	-0.039
-337.304	157.118	0.100	-0.136
-336.289	-85.743	0.333	-0.102
-335.275	-119.420	0.354	0.060
-334.260	341.576	0.098	0.188
-333.245	-119.974	0.233	0.039
-332.231	-5.279	-0.131	-0.088
-331.216	131.572	-0.093	0.118
-330.202	344.171	0.071	-0.137
-329.187	-200.000	0.085	0.401
-328.172	-40.362	0.306	-0.157
-327.158	76.913	-0.171	0.178
-326.143	-135.344	-0.394	-0.046
-325.129	62.847	0.209	0.205
-324.114	-114.027	0.222	-0.042
-323.099	57.887	-0.387	0.372
-322.085	89.909	0.164	-0.180
-321.070	-200.000	0.022	0.101
-320.056	-53.318	-0.238	-0.107
-319.041	301.321	0.073	-0.133
-318.026	-31.422	0.213	-0.118
-317.012	800.000	0.044	0.146
-315.997	52.631	0.306	-0.287
-314.983	-74.644	-0.325	0.115
-313.968	-200.000	-0.026	0.270
-312.953	-99.345	-0.116	-0.029
-311.939	-200.000	-0.012	0.154
-310.924	-79.473	0.369	-0.123
-309.910	-200.000	0.057	-0.284
-308.895	5.978	0.143	-0.104
-307.880	-63.233	0.008	0.003
-306.866	431.500	-0.130	0.278
-305.851	-200.000	-0.015	0.252
-304.837	49.926	0.250	0.232
-303.822	800.000	-0.188	0.628
-302.807	800.000	-0.027	-0.106
-301.793	-162.766	-0.226	-0.011
-300.778	-31.764	0.239	0.132
-299.764	466.655	0.079	0.174
-298.749	-100.865	-0.381	-0.092
-297.735	318.435	-0.214	-0.398
-296.720	7.579	-0.213	-0.156
-295.705	-200.000	-0.019	0.553
-294.691	-200.000	-0.040	-0.207
-293.676	-142.827	0.247	0.024
-292.662	-200.000	0.004	-0.153
-291.647	-97.350	0.144	0.037
-290.632	-145.396	0.162	0.014
-289.618	107.069	-0.120	-0.139
-288.603	-86.431	-0.075	0.023
-287.589	-55.374	-0.104	0.046
-286.574	-200.000	-0.017	0.171
-285.559	39.251	0.112	0.098
-284.545	-45.428	-0.249	-0.121
-283.530	258.413	0.130	-0.220
-282.516	-200.000	-0.045	0.444
-281.501	-3.999	0.016	0.011
-280.486	-37.264	-0.070	0.037
-279.472	-200.000	0.006	0.044
-278.457	-200.000	-0.030	-0.428
-277.443	-84.628	-0.178	0.055
-276.428	-0.285	0.033	-0.023
-275.413	800.000	-0.065	-0.182
-274.399	-200.000	-0.031	0.285
-273.384	-127.566	0.147	-0.021
-272.370	-200.000	-0.022	-0.129
-271.355	267.769	0.077	-0.132
-270.340	800.000	0.015	0.045
-269.326	-65.874	-0.263	0.103
-268.311	628.874	0.065	0.162
-267.297	-127.187	-0.091	0.013
-266.282	-200.000	-0.010	-0.122
-265.267	41.213	0.117	-0.104
-264.253	80.180	0.151	-0.160
-263.238	-107.839	0.351	0.075
-262.224	-123.407	-0.122	0.019
-261.209	-200.000	-0.028	-0.121
-260.195	-122.285	-0.233	0.037
-259.180	-23.416	-0.029	0.017
-258.165	-200.000	-0.084	-0.539
-257.151	134.647	0.222	-0.282
-256.136	800.000	-0.072	-0.210
-255.122	177.614	0.113	-0.161
-254.107	-31.020	-0.269	-0.149
-253.092	-35.710	-0.282	0.150
-252.078	-200.000	0.003	0.024
-251.063	-56.144	0.201	-0.088
-250.049	-160.305	0.146	0.008
-249.034	-115.286	-0.235	-0.043
-248.019	-166.109	-0.188	0.008
-247.005	263.011	-0.101	0.171
-245.990	800.000	0.051	-0.164
-244.976	250.958	0.214	0.356
-243.961	182.081	0.114	-0.165
-242.946	138.121	0.044	-0.057
-241.932	800.000	-0.063	0.217
-240.917	-74.084	0.193	-0.069
-239.903	-109.901	0.160	0.033
-238.888	-124.185	0.172	0.026
-237.873	800.000	0.048	-0.146
-236.859	25.130	-0.087	-0.071
-235.844	-123.064	-0.523	0.082
-234.830	12.941	0.363	-0.275
-233.815	-11.235	-0.171	-0.110
-232.800	-84.707	0.350	-0.108
-231.786	-57.113	0.263	0.113
-230.771	-200.000	-0.010	-0.217
-229.757	-4.251	-0.077	0.052
-228.742	-84.153	-0.222	0.069
-227.727	-54.427	0.325	0.144
-226.713	71.464	0.192	-0.195
-225.698	165.748	0.126	-0.174
-224.684	-200.000	0.000	-0.065
-223.669	181.337	0.309	-0.445
-222.655	61.026	0.103	0.100
-221.640	-79.198	-0.320	-0.106
-220.625	-200.000	-0.035	0.179
-219.611	546.993	-0.058	0.136
-218.596	91.530	-0.209	-0.230
-217.582	-200.000	-0.024	-0.215
-216.567	-3.883	0.090	-0.061
-215.552	-81.414	-0.068	0.022
-214.538	795.479	-0.030	-0.082
-213.523	7.475	0.214	-0.156
-212.509	-37.904	-0.121	-0.063
-211.494	-200.000	-0.038	-0.404
-210.479	-21.021	-0.340	0.204
-209.465	110.446	0.133	0.156
-208.450	-130.887	-0.380	-0.050
-207.436	34.270	0.240	-0.205
-206.421	-152.610	-0.350	0.024
-205.406	134.305	-0.181	-0.229
-204.392	-21.524	0.043	-0.026
-203.377	37.476	0.074	-0.064
-202.363	-65.607	0.076	0.030
-201.348	800.000	0.039	-0.108
-200.333	-200.000	-0.012	-0.218
-199.319	-200.000	0.005	0.030
-198.304	124.953	0.065	-0.081
-197.290	-45.179	-0.277	-0.135
-196.275	-0.505	-0.046	0.032
-195.260	800.000	-0.115	-0.329
-194.246	199.643	0.158	-0.238
-193.231	19.096	0.173	0.136
-192.217	50.648	-0.072	-0.066
-191.202	50.154	-0.061	0.057
-190.187	-127.936	0.282	0.040
-189.173	47.625	0.135	0.124
-188.158	719.842	-0.084	0.219
-187.144	-200.000	0.021	-0.163
-186.129	104.849	0.130	0.149
-185.114	110.606	-0.059	0.069
-184.100	-200.000	-0.069	0.337
-183.085	28.334	-0.143	-0.118
-182.071	-200.000	-0.008	0.188
-181.056	-129.731	0.247	-0.033
-180.042	114.300	0.146	0.173
-179.027	168.132	0.184	-0.256
-178.012	3.805	-0.267	0.190
-176.998	-11.142	-0.068	0.044
-175.983	107.944	-0.034	-0.040
-174.969	-100.295	0.507	0.123
-173.954	204.289	-0.207	0.313
-172.939	-69.231	0.392	0.147
-171.925	-143.196	-0.019	0.002
-170.910	617.012	-0.088	0.215
-169.896	-200.000	0.023	-0.173
-168.881	-31.222	-0.204	-0.112
-167.866	328.004	0.028	-0.052
-166.852	568.806	-0.045	-0.106
-165.837	-108.511	-0.276	-0.058
-164.823	-24.547	0.110	0.064
-163.808	-13.630	-0.094	-0.059
-162.793	163.923	0.093	0.128
-161.779	733.368	-0.022	0.058
-160.764	-67.989	0.259	-0.098
-159.750	189.481	-0.191	-0.280
-158.735	255.173	-0.087	0.145
-157.720	-43.412	0.120	-0.059
-156.706	275.227	0.121	-0.209
-155.691	-200.000	0.025	-0.216
-154.677	-53.612	0.060	0.027
-153.662	-200.000	0.075	0.372
-152.647	206.671	-0.290	0.441
-151.633	670.692	0.103	-0.260
-150.618	-200.000	0.010	0.136
-149.604	16.120	0.080	-0.062
-148.589	-200.000	-0.040	-0.320
-147.574	-200.000	-0.014	0.240
-146.560	130.855	-0.144	-0.181
-145.545	800.000	-0.020	-0.080
-144.531	-143.567	0.404	0.037
-143.516	-161.375	0.070	0.004
-142.502	30.450	0.315	-0.262
-141.487	25.523	0.308	-0.250
-140.472	245.290	-0.093	-0.152
-139.458	800.000	-0.079	-0.312
-138.443	-17.724	0.311	-0.191
-137.429	340.200	-0.134	-0.256
-136.414	28.105	0.457	-0.377
-135.399	12.956	0.140	-0.106
-134.385	447.015	-0.083	0.178
-133.370	23.537	-0.175	0.141
-132.356	800.000	-0.111	-0.311
-131.341	-12.525	0.131	0.084
-130.326	725.134	-0.040	0.103
-129.312	-55.641	-0.332	0.145
-128.297	-164.111	-0.234	-0.011
-127.283	129.535	-0.117	0.145
-126.268	800.000	0.071	-0.199
-125.253	-136.899	0.208	-0.023
-124.239	-27.059	0.228	0.130
-123.224	-134.002	0.334	-0.040
-122.210	-41.894	0.173	0.087
