DTS Sentinel unit serial number:	SN413079Multiplexer serial number:	ORYXHardware model number:	OX4-SRSoftware version number:	ORYX F/W v4.00 Oryx Data Collector v3.7.2.0data status	okinstallation	princeton_trtdifferential loss correction	single-endedforward channel	channel 3reverse channel	N/Adate	2019/09/19time	04:24:35forward acquisition time	60.00reverse acquisition time	0.00gamma	496.2192k internal	0.2346k external	0.2346temperature offset calibration	0.9991default loss term (dB/km)	0.3790temperature slope calibration	1.0000multiplexer offset coefficient	1.0000multiplexer slope coefficient	1.0000fibre end	0.00T internal ref (°C)	20.19T ext. ref 1 (°C)	0.62T ext. ref 2 (°C)	13.36length (m)	temperature (°C)	Stokes	anti-Stokes-747.200	-13.252	0.338	0.219
-746.185	-100.011	-0.170	-0.042
-745.171	390.234	-0.209	0.433
-744.156	-49.396	-0.254	-0.121
-743.142	-200.000	0.044	0.351
-742.127	-200.000	0.018	0.182
-741.112	25.984	0.118	-0.098
-740.098	420.042	-0.097	0.207
-739.083	290.138	0.255	0.463
-738.069	-35.837	-0.022	0.012
-737.054	800.000	0.034	0.141
-736.039	41.266	-0.119	-0.108
-735.025	33.775	0.193	0.168
-734.010	-200.000	0.045	-0.433
-732.996	800.000	0.108	-0.361
-731.981	800.000	0.129	0.438
-730.966	-200.000	-0.011	0.118
-729.952	-26.584	-0.121	0.071
-728.937	-200.000	0.026	-0.392
-727.923	-84.578	-0.299	0.094
-726.908	92.468	-0.315	-0.356
-725.894	-200.000	0.002	0.088
-724.879	230.696	0.086	0.141
-723.864	-22.123	-0.268	0.162
-722.850	21.722	0.244	-0.199
-721.835	-82.573	-0.053	0.017
-720.821	32.894	0.206	-0.179
-719.806	31.461	-0.232	0.199
-718.791	253.022	-0.085	0.146
-717.777	110.560	-0.044	0.053
-716.762	800.000	-0.057	-0.167
-715.748	1.019	0.221	-0.158
-714.733	59.488	-0.097	0.096
-713.718	-200.000	0.013	0.125
-712.704	462.436	-0.176	-0.392
-711.689	-200.000	0.080	-0.590
-710.675	77.448	-0.087	-0.093
-709.660	-200.000	-0.002	0.202
-708.645	-77.753	-0.274	-0.095
-707.631	157.560	0.359	-0.497
-706.616	-110.960	-0.209	-0.043
-705.602	21.817	-0.150	-0.122
-704.587	800.000	0.068	0.198
-703.572	-200.000	0.004	0.124
-702.558	97.146	0.064	0.074
-701.543	800.000	-0.043	0.169
-700.529	41.948	0.369	-0.334
-699.514	-110.804	-0.059	-0.012
-698.499	27.507	0.226	-0.190
-697.485	-164.074	-0.161	-0.007
-696.470	563.649	-0.082	0.198
-695.456	-69.983	-0.168	-0.064
-694.441	-200.000	-0.053	-0.461
-693.426	-97.649	0.257	-0.066
-692.412	800.000	-0.069	-0.255
-691.397	-110.177	-0.126	0.026
-690.383	595.149	0.174	-0.430
-689.368	61.623	-0.152	-0.151
-688.354	-113.081	0.384	0.076
-687.339	-200.000	-0.033	-0.149
-686.324	800.000	0.042	0.158
-685.310	770.338	0.074	-0.201
-684.295	-200.000	-0.005	0.205
-683.281	126.658	0.076	0.096
-682.266	-123.162	-0.284	-0.045
-681.251	55.920	-0.202	-0.195
-680.237	-154.962	0.425	0.028
-679.222	-200.000	0.005	0.416
-678.208	800.000	0.068	0.283
-677.193	-129.036	-0.186	-0.026
-676.178	-88.973	0.368	0.109
-675.164	101.692	-0.135	0.157
-674.149	20.774	-0.157	-0.127
-673.135	-4.631	-0.140	0.097
-672.120	800.000	0.090	-0.301
-671.105	800.000	0.051	-0.184
-670.091	-130.650	-0.188	0.025
-669.076	-42.438	0.194	0.099
-668.062	-57.285	0.181	0.079
-667.047	296.564	0.052	-0.095
-666.032	146.997	0.159	0.213
-665.018	315.299	-0.130	-0.244
-664.003	-74.063	-0.149	-0.054
-662.989	71.981	0.171	-0.177
-661.974	-192.070	-0.077	-0.001
-660.959	-11.968	-0.208	0.136
-659.945	93.482	0.358	0.404
-658.930	216.357	0.181	-0.286
-657.916	-200.000	0.038	-0.440
-656.901	136.040	-0.078	-0.102
-655.886	280.773	0.028	-0.051
-654.872	140.206	0.197	-0.259
-653.857	-117.515	0.037	-0.007
-652.843	-46.181	-0.115	0.056
-651.828	768.656	0.021	0.058
-650.814	-200.000	0.048	-0.235
-649.799	99.318	-0.197	-0.227
-648.784	351.732	0.060	-0.117
-647.770	-178.121	0.327	0.008
-646.755	-200.000	0.004	-0.235
-645.741	291.399	0.121	-0.218
-644.726	-155.007	0.292	0.019
-643.711	800.000	-0.121	0.354
-642.697	8.657	-0.122	-0.091
-641.682	-200.000	-0.002	0.185
-640.668	87.419	0.147	0.162
-639.653	-62.998	0.407	0.167
-638.638	66.712	-0.217	0.220
-637.624	17.311	0.177	0.140
-636.609	32.891	-0.075	-0.064
-635.595	-117.286	-0.400	-0.072
-634.580	65.879	0.130	0.131
-633.565	800.000	0.052	0.179
-632.551	-200.000	0.069	-0.329
-631.536	-200.000	0.001	0.042
-630.522	43.359	-0.052	0.047
-629.507	-80.217	-0.301	0.100
-628.492	-200.000	0.006	-0.241
-627.478	567.498	-0.108	-0.260
-626.463	33.162	0.055	0.047
-625.449	800.000	-0.055	0.211
-624.434	-94.934	0.147	0.040
-623.419	-117.354	0.227	0.041
-622.405	-52.586	-0.094	0.043
-621.390	-41.760	0.161	0.082
-620.376	-7.791	-0.135	0.091
-619.361	800.000	0.050	-0.174
-618.346	800.000	0.022	-0.062
-617.332	132.021	0.116	-0.148
-616.317	-99.979	-0.048	0.012
-615.303	-200.000	-0.001	0.043
-614.288	-91.152	0.170	0.048
-613.273	-200.000	-0.009	-0.054
-612.259	651.933	-0.108	0.275
-611.244	-200.000	0.017	0.119
-610.230	495.275	-0.046	-0.106
-609.215	-33.890	0.216	-0.118
-608.201	82.005	-0.126	-0.135
-607.186	468.145	0.025	-0.056
-606.171	-200.000	-0.060	-0.305
-605.157	169.462	0.097	-0.138
-604.142	48.376	0.232	0.216
-603.128	-37.740	0.137	-0.072
-602.113	20.647	-0.208	-0.167
-601.098	800.000	-0.111	0.458
-600.084	112.167	-0.134	-0.161
-599.069	-200.000	-0.008	-0.125
-598.055	53.271	-0.180	0.172
-597.040	103.193	0.167	0.195
-596.025	-97.910	-0.139	0.036
-595.011	800.000	-0.030	0.117
-593.996	800.000	-0.121	0.450
-592.982	48.092	0.038	-0.035
-591.967	306.191	-0.199	0.368
-590.952	-200.000	0.025	0.167
-589.938	800.000	-0.062	0.194
-588.923	-200.000	-0.033	-0.384
-587.909	-200.000	0.031	-0.410
-586.894	-84.969	0.102	0.032
-585.879	-115.452	-0.103	-0.019
-584.865	301.886	0.091	-0.167
-583.850	-189.386	0.074	0.001
-582.836	-93.542	0.096	0.026
-581.821	-89.665	0.100	-0.029
-580.806	-200.000	-0.138	0.000
-579.792	166.609	0.165	-0.233
-578.777	-200.000	-0.018	0.210
-577.763	-167.171	-0.312	0.013
-576.748	-200.000	-0.024	0.212
-575.733	-200.000	0.038	-0.183
-574.719	60.728	0.229	0.226
-573.704	800.000	-0.050	0.184
-572.690	768.731	0.040	-0.107
-571.675	188.046	0.116	-0.172
-570.661	18.858	-0.162	-0.129
-569.646	120.376	-0.100	-0.123
-568.631	3.132	-0.093	0.067
-567.617	87.834	-0.148	0.163
-566.602	187.667	0.152	0.226
-565.588	82.060	-0.194	0.208
-564.573	22.108	-0.228	-0.185
-563.558	117.956	-0.344	-0.421
-562.544	78.040	0.197	0.208
-561.529	-129.281	0.152	-0.021
-560.515	38.054	0.185	0.163
-559.500	800.000	0.069	0.212
-558.485	109.879	0.067	0.080
-557.471	800.000	0.054	-0.151
-556.456	-111.183	0.113	-0.023
-555.442	-200.000	-0.029	-0.335
-554.427	24.182	-0.148	0.121
-553.412	345.119	0.095	-0.186
-552.398	-200.000	-0.018	-0.398
-551.383	27.997	0.044	-0.037
-550.369	-154.762	0.034	-0.002
-549.354	129.826	-0.080	0.101
-548.339	-200.000	-0.044	0.421
-547.325	29.886	-0.218	-0.184
-546.310	800.000	0.024	-0.098
-545.296	235.877	-0.189	0.309
-544.281	-134.833	-0.048	-0.006
-543.266	-165.956	-0.247	0.011
-542.252	192.813	0.126	0.190
-541.237	50.451	-0.085	0.080
-540.223	-153.266	0.289	-0.020
-539.208	29.909	-0.124	-0.105
-538.193	90.835	-0.192	0.214
-537.179	372.754	-0.012	-0.025
-536.164	72.086	0.010	0.010
-535.150	-20.566	-0.098	0.060
-534.135	-106.910	-0.174	-0.038
-533.121	-107.439	-0.251	0.055
-532.106	98.345	-0.239	-0.273
-531.091	-98.377	0.217	0.055
-530.077	-200.000	-0.019	0.174
-529.062	20.503	0.280	-0.225
-528.048	-122.973	0.024	-0.004
-527.033	-104.106	-0.138	-0.032
-526.018	65.403	0.151	-0.152
-525.004	281.294	0.126	-0.224
-523.989	-154.277	0.118	-0.008
-522.975	-200.000	-0.001	0.380
-521.960	-200.000	-0.039	-0.193
-520.945	-200.000	0.017	-0.358
-519.931	-16.428	-0.195	-0.123
-518.916	800.000	-0.059	-0.166
-517.902	47.143	-0.128	-0.118
-516.887	256.825	-0.114	-0.193
-515.872	55.935	-0.215	-0.207
-514.858	150.404	-0.194	-0.261
-513.843	-200.000	-0.054	0.330
-512.829	-88.577	-0.283	-0.084
-511.814	-200.000	0.046	-0.225
-510.799	-173.590	-0.116	-0.003
-509.785	800.000	0.037	0.124
-508.770	-68.510	0.101	-0.039
-507.756	495.034	0.109	-0.248
-506.741	192.681	0.148	0.222
-505.726	-66.403	-0.218	0.086
-504.712	-112.122	-0.050	0.010
-503.697	638.794	0.054	0.137
-502.683	-189.652	0.401	0.005
-501.668	11.947	-0.044	-0.034
-500.653	195.490	-0.146	0.220
-499.639	-123.877	0.248	0.039
-498.624	202.334	-0.166	0.254
-497.610	268.094	-0.124	0.215
-496.595	614.340	-0.080	-0.198
-495.581	-89.976	0.203	-0.059
-494.566	-200.000	0.012	0.087
-493.551	-110.418	0.022	0.005
-492.537	-187.954	-0.141	-0.002
-491.522	-56.010	-0.089	0.039
-490.508	187.932	-0.058	0.086
-489.493	800.000	0.087	0.339
-488.478	-15.224	0.105	-0.066
-487.464	-133.264	0.421	0.053
-486.449	335.680	0.161	0.310
-485.435	-53.796	0.211	-0.095
-484.420	-89.539	0.159	0.046
-483.405	800.000	0.036	-0.127
-482.391	-47.284	-0.177	-0.085
-481.376	35.301	-0.176	0.153
-480.362	27.346	-0.309	-0.257
-479.347	394.272	-0.050	-0.103
-478.332	57.807	0.178	-0.173
-477.318	-74.307	-0.280	-0.100
-476.303	-162.507	0.278	0.014
-475.289	10.148	0.194	-0.146
-474.274	51.037	0.140	-0.131
-473.259	-109.071	-0.173	0.036
-472.245	552.136	0.194	0.462
-471.230	-39.008	-0.107	-0.056
-470.216	-62.053	0.170	0.070
-469.201	-38.729	-0.206	-0.107
-468.186	50.433	-0.100	0.093
-467.172	237.348	-0.065	0.107
-466.157	-155.898	0.055	-0.003
-465.143	-94.615	-0.325	-0.088
-464.128	-107.780	-0.208	0.045
-463.113	-42.399	0.200	0.101
-462.099	800.000	0.088	0.332
-461.084	-149.910	-0.127	0.010
-460.070	-25.739	-0.223	-0.130
-459.055	-200.000	-0.028	0.211
-458.040	-73.261	0.227	-0.082
-457.026	8.495	0.321	0.239
-456.011	-200.000	-0.007	-0.060
-454.997	-55.240	0.189	0.084
-453.982	195.908	-0.081	0.122
-452.968	-16.111	0.140	-0.088
-451.953	117.880	-0.431	-0.524
-450.938	-33.775	-0.320	-0.174
-449.924	-200.000	-0.004	0.109
-448.909	800.000	-0.032	0.119
-447.895	-39.568	0.249	-0.129
-446.880	-163.857	-0.189	0.009
-445.865	183.398	-0.105	-0.153
-444.851	532.406	0.211	-0.494
-443.836	131.357	-0.043	0.055
-442.822	-200.000	-0.037	-0.349
-441.807	-144.273	0.365	0.034
-440.792	800.000	-0.090	0.338
-439.778	-200.000	0.001	0.223
-438.763	-34.525	-0.258	-0.139
-437.749	553.443	0.036	0.086
-436.734	-50.496	0.116	0.054
-435.719	119.542	0.017	0.021
-434.705	121.807	0.115	0.142
-433.690	13.836	0.105	-0.081
-432.676	-200.000	0.005	0.234
-431.661	-200.000	-0.035	0.205
-430.646	-74.291	-0.111	0.040
-429.632	441.109	0.060	0.129
-428.617	61.640	-0.071	-0.070
-427.603	-82.797	0.084	0.027
-426.588	-23.012	0.255	0.152
-425.573	-12.908	0.124	0.079
-424.559	-200.000	-0.015	0.070
-423.544	-187.166	0.343	-0.005
-422.530	-164.208	-0.085	-0.004
-421.515	-5.342	-0.479	0.325
-420.500	-52.033	0.330	0.151
-419.486	-95.991	-0.076	-0.020
-418.471	-200.000	0.084	-0.379
-417.457	-34.282	-0.158	0.086
-416.442	-71.669	-0.223	-0.082
-415.428	40.928	0.075	-0.067
-414.413	17.822	-0.045	0.035
-413.398	800.000	-0.094	0.385
-412.384	-152.716	0.386	0.027
-411.369	378.572	0.149	0.301
-410.355	368.667	0.134	0.267
-409.340	-129.996	-0.301	0.041
-408.325	800.000	0.039	-0.113
-407.311	-97.372	-0.471	-0.121
-406.296	662.356	0.074	-0.188
-405.282	95.738	-0.218	0.245
-404.267	106.295	0.283	0.330
-403.252	6.836	0.147	-0.108
-402.238	123.678	0.130	-0.161
-401.223	-200.000	0.008	-0.078
-400.209	-63.375	-0.275	0.112
-399.194	-200.000	-0.025	0.117
-398.179	42.419	-0.308	0.277
-397.165	-117.100	-0.059	0.011
-396.150	-12.695	-0.047	0.030
-395.136	-78.878	0.108	0.036
-394.121	-200.000	-0.036	-0.199
-393.106	-33.165	-0.249	0.136
-392.092	-84.571	0.153	0.047
-391.077	-139.692	0.455	0.048
-390.063	106.011	-0.188	0.219
-389.048	-200.000	0.036	0.179
-388.033	-161.836	0.172	0.009
-387.019	-99.679	0.339	-0.084
-386.004	-83.921	0.273	0.086
-384.990	-156.682	-0.178	-0.011
-383.975	57.256	-0.181	-0.174
-382.960	557.834	0.069	-0.165
-381.946	-2.299	-0.197	-0.136
-380.931	6.261	-0.170	-0.124
-379.917	-200.000	-0.040	0.177
-378.902	-197.035	0.391	0.002
-377.888	-150.793	0.151	0.011
-376.873	334.252	-0.091	-0.174
-375.858	550.397	-0.074	-0.175
-374.844	-22.241	0.144	-0.086
-373.829	55.649	-0.027	-0.026
-372.815	800.000	0.068	-0.242
-371.800	-200.000	0.035	-0.160
-370.785	-156.258	0.250	-0.015
-369.771	-52.719	0.186	0.084
-368.756	800.000	-0.011	0.043
-367.742	-69.588	0.194	0.073
-366.727	-107.436	0.119	0.026
-365.712	205.061	-0.148	-0.226
-364.698	-149.619	-0.127	0.010
-363.683	230.627	-0.149	-0.240
-362.669	-200.000	0.012	-0.265
-361.654	-151.770	0.088	-0.006
-360.639	84.743	-0.195	-0.211
-359.625	-200.000	-0.032	0.146
-358.610	-44.169	0.292	0.144
-357.596	1.867	-0.061	0.043
-356.581	174.463	0.080	0.114
-355.566	115.040	0.248	0.298
-354.552	-200.000	-0.027	-0.140
-353.537	-105.659	-0.298	0.066
-352.523	207.409	0.120	0.185
-351.508	-89.904	-0.028	-0.008
-350.493	-172.155	0.228	0.007
-349.479	48.776	-0.026	-0.024
-348.464	-200.000	-0.010	0.215
-347.450	-200.000	-0.054	-0.238
-346.435	282.195	-0.083	-0.146
-345.420	-132.048	0.258	-0.033
-344.406	50.190	-0.220	0.205
-343.391	22.508	0.142	0.114
-342.377	-150.566	0.238	0.018
-341.362	718.360	0.037	0.096
-340.348	-59.186	-0.139	-0.059
-339.333	14.119	-0.187	-0.144
-338.318	-117.001	0.153	-0.027
-337.304	85.286	-0.135	-0.146
-336.289	-113.279	0.103	-0.020
-335.275	-41.072	0.074	0.038
-334.260	194.157	-0.039	0.058
-333.245	-48.657	-0.177	0.084
-332.231	-132.393	0.375	0.048
-331.216	522.600	-0.077	-0.177
-330.202	121.861	-0.063	-0.077
-329.187	-200.000	-0.058	-0.322
-328.172	124.995	0.060	-0.074
-327.158	259.137	-0.133	-0.226
-326.143	-200.000	0.031	-0.152
-325.129	-70.464	0.097	-0.036
-324.114	181.430	0.248	-0.359
-323.099	-65.112	-0.325	-0.129
-322.085	-57.532	-0.076	0.033
-321.070	-200.000	0.015	-0.149
-320.056	-149.449	-0.384	0.030
-319.041	-29.834	0.201	-0.113
-318.026	-158.898	0.320	0.018
-317.012	-103.785	0.063	-0.015
-315.997	-58.261	0.085	-0.036
-314.983	800.000	-0.056	-0.176
-313.968	-39.385	-0.384	0.198
-312.953	55.086	-0.181	-0.172
-311.939	4.496	-0.188	0.136
-310.924	-156.972	-0.296	0.018
-309.910	-102.475	0.589	0.139
-308.895	492.094	0.060	-0.134
-307.880	-200.000	0.012	-0.166
-306.866	2.523	0.311	0.221
-305.851	100.525	-0.130	-0.148
-304.837	17.021	0.046	-0.035
-303.822	-72.701	-0.144	0.052
-302.807	22.615	-0.140	0.112
-301.793	-131.135	-0.308	-0.040
-300.778	-200.000	0.047	0.281
-299.764	377.985	0.169	0.340
-298.749	147.996	0.205	-0.272
-297.735	51.928	-0.221	-0.207
-296.720	-49.367	0.240	0.112
-295.705	-16.152	0.199	-0.124
-294.691	-200.000	0.019	0.148
-293.676	214.189	0.069	0.107
-292.662	-127.096	-0.161	-0.023
-291.647	-22.483	0.209	-0.124
-290.632	-42.033	-0.337	0.169
-289.618	71.702	-0.241	-0.246
-288.603	82.059	-0.080	-0.085
-287.589	5.880	-0.185	0.134
-286.574	-186.972	0.229	0.003
-285.559	444.811	0.122	0.264
-284.545	-149.981	-0.196	0.015
-283.530	-200.000	0.032	-0.190
-282.516	-38.599	0.222	0.115
-281.501	-70.252	-0.316	0.118
-280.486	-32.982	0.127	-0.069
-279.472	202.906	0.156	0.237
-278.457	-129.480	-0.225	-0.031
-277.443	-72.563	-0.112	-0.041
-276.428	-64.597	0.140	0.056
-275.413	154.970	0.158	-0.213
-274.399	-24.227	-0.056	-0.033
-273.384	278.108	-0.033	-0.057
-272.370	800.000	-0.050	0.145
-271.355	32.847	0.280	-0.238
-270.340	279.221	-0.133	0.232
-269.326	109.936	0.273	0.322
-268.311	112.824	0.255	-0.303
-267.297	444.119	0.110	-0.236
-266.282	144.552	0.001	-0.001
-265.267	-50.594	0.421	0.195
-264.253	127.112	-0.066	0.082
-263.238	54.736	0.051	-0.048
-262.224	-117.220	0.047	-0.008
-261.209	-120.291	-0.065	-0.011
-260.195	-44.599	-0.153	0.075
-259.180	-200.000	-0.015	0.268
-258.165	-130.938	-0.293	0.038
-257.151	-200.000	0.005	-0.231
-256.136	-15.507	-0.162	-0.102
-255.122	-146.111	-0.248	0.021
-254.107	-63.877	0.050	-0.020
-253.092	800.000	-0.043	-0.123
-252.078	17.646	0.114	-0.089
-251.063	116.615	-0.119	0.143
-250.049	-154.225	-0.123	-0.008
-249.034	98.503	-0.490	-0.554
-248.019	-200.000	0.011	-0.117
-247.005	141.188	-0.091	-0.118
-245.990	-128.987	-0.150	0.021
-244.976	-200.000	-0.060	-0.372
-243.961	202.879	0.047	0.072
-242.946	-122.977	-0.310	0.049
-241.932	-61.646	0.327	-0.134
-240.917	10.844	0.195	-0.146
-239.903	-73.696	0.407	-0.145
-238.888	124.073	-0.141	0.174
-237.873	800.000	0.038	-0.128
-236.859	-200.000	0.009	-0.146
-235.844	17.162	0.193	0.150
-234.830	37.740	-0.084	-0.073
-233.815	-66.964	0.189	-0.073
-232.800	-179.806	0.163	-0.003
-231.786	800.000	0.070	0.195
-230.771	800.000	0.048	-0.170
-229.757	-56.633	-0.161	-0.070
-228.742	27.261	0.063	0.052
-227.727	-87.514	-0.283	0.084
-226.713	-94.241	0.239	-0.064
-225.698	89.174	-0.199	0.218
-224.684	-35.951	0.091	-0.048
-223.669	-6.271	-0.282	-0.189
-222.655	83.894	0.110	0.117
-221.640	-159.643	0.271	-0.015
-220.625	549.039	-0.079	0.184
-219.611	-57.812	-0.257	-0.110
-218.596	-200.000	-0.035	0.253
-217.582	-8.695	-0.233	-0.153
-216.567	800.000	0.085	-0.263
-215.552	-100.440	-0.210	-0.051
-214.538	6.639	0.242	0.176
-213.523	459.222	-0.049	0.108
-212.509	-12.842	0.220	0.140
-211.494	-11.795	-0.243	0.156
-210.479	-72.362	0.323	-0.117
-209.465	-70.896	-0.207	0.076
-208.450	-108.547	-0.024	-0.005
-207.436	-51.878	0.143	-0.065
-206.421	-64.113	-0.282	0.113
-205.406	-103.736	-0.258	-0.059
-204.392	335.644	-0.067	0.128
-203.377	301.691	0.100	-0.181
-202.363	-49.144	-0.346	-0.162
-201.348	116.945	-0.018	0.021
-200.333	-47.572	0.177	0.084
-199.319	-109.848	-0.109	0.022
-198.304	35.040	-0.167	0.143
-197.290	351.974	0.143	-0.276
-196.275	142.310	-0.114	0.148
-195.260	-200.000	-0.023	-0.431
-194.246	-170.475	-0.077	0.003
-193.231	284.163	0.125	-0.219
-192.217	800.000	0.063	0.187
-191.202	-66.751	-0.080	-0.031
-190.187	225.116	0.035	-0.056
-189.173	282.831	-0.220	0.387
-188.158	324.973	0.095	-0.177
-187.144	-19.604	-0.137	0.083
-186.129	800.000	-0.058	0.227
-185.114	186.810	0.093	-0.136
-184.100	255.693	0.056	-0.094
-183.085	-200.000	0.025	0.138
-182.071	153.184	0.104	-0.139
-181.056	-200.000	-0.006	0.046
-180.042	-82.174	-0.286	0.091
-179.027	-200.000	0.175	0.001
-178.012	2.831	0.261	0.185
-176.998	57.642	0.209	0.199
-175.983	157.356	-0.358	0.485
-174.969	800.000	0.062	-0.211
-173.954	359.144	0.055	-0.108
-172.939	-200.000	0.039	0.206
-171.925	284.641	0.056	-0.098
-170.910	-130.845	-0.217	0.028
-169.896	-200.000	-0.043	0.332
-168.881	-200.000	0.047	-0.268
-167.866	-11.475	0.267	0.172
-166.852	-200.000	0.046	-0.250
-165.837	-34.328	0.143	-0.077
-164.823	-200.000	-0.082	0.510
-163.808	-39.709	0.193	0.099
-162.793	-200.000	0.002	0.181
-161.779	-97.025	0.390	-0.100
-160.764	-200.000	-0.046	-0.213
-159.750	-159.747	-0.088	0.005
-158.735	800.000	-0.009	0.030
-157.720	-20.374	-0.180	0.108
-156.706	-200.000	-0.007	0.127
-155.691	62.986	0.091	-0.089
-154.677	-11.200	0.180	-0.116
-153.662	800.000	-0.030	-0.113
-152.647	490.292	-0.038	-0.084
-151.633	-200.000	0.035	-0.232
-150.618	-60.652	-0.273	0.113
-149.604	-200.000	-0.007	-0.414
-148.589	0.422	-0.228	-0.159
-147.574	-73.532	-0.230	-0.082
-146.560	409.210	0.166	0.343
-145.545	-52.104	-0.342	-0.155
-144.531	258.704	0.061	0.103
-143.516	498.539	0.178	0.401
-142.502	800.000	-0.054	0.210
-141.487	-16.219	0.162	0.100
-140.472	72.714	-0.262	-0.267
-139.458	228.048	-0.251	0.398
-138.443	0.169	-0.076	0.053
-137.429	134.261	-0.227	0.288
-136.414	-187.956	0.199	-0.003
-135.399	18.453	0.119	0.093
-134.385	-113.945	0.178	-0.034
-133.370	265.333	0.046	-0.078
-132.356	-200.000	-0.082	-0.392
-131.341	-200.000	-0.004	-0.164
-130.326	-147.611	0.233	0.019
-129.312	-175.534	0.100	0.003
-128.297	-200.000	0.045	-0.222
-127.283	187.809	0.147	-0.214
-126.268	23.870	-0.260	0.209
-125.253	72.448	0.266	0.271
-124.239	-111.250	0.115	-0.023
-123.224	744.895	0.027	0.071
-122.210	27.951	-0.140	0.115
-121.195	-200.000	-0.003	0.150
