DTS Sentinel unit serial number:	SN413079Multiplexer serial number:	ORYXHardware model number:	OX4-SRSoftware version number:	ORYX F/W v4.00 Oryx Data Collector v3.7.2.0data status	okinstallation	princeton_trtdifferential loss correction	single-endedforward channel	channel 3reverse channel	N/Adate	2019/09/14time	13:08:34forward acquisition time	60.00reverse acquisition time	0.00gamma	496.2192k internal	0.2293k external	0.2293temperature offset calibration	1.0065default loss term (dB/km)	0.3790temperature slope calibration	1.0000multiplexer offset coefficient	1.0000multiplexer slope coefficient	1.0000fibre end	0.00T internal ref (°C)	37.94T ext. ref 1 (°C)	4.87T ext. ref 2 (°C)	33.73length (m)	temperature (°C)	Stokes	anti-Stokes-747.200	29.572	-0.185	-0.161
-746.185	-200.000	-0.008	0.570
-745.171	-10.712	-0.379	-0.257
-744.156	406.009	0.092	0.199
-743.142	-56.523	-0.167	-0.076
-742.127	-163.111	-0.224	0.011
-741.112	-64.197	-0.230	0.096
-740.098	-192.647	0.072	-0.001
-739.083	-99.828	-0.027	0.007
-738.069	-200.000	-0.043	0.319
-737.054	58.574	-0.112	0.112
-736.039	18.019	0.069	-0.056
-735.025	-200.000	0.004	-0.057
-734.010	221.117	-0.120	-0.197
-732.996	67.582	-0.115	-0.121
-731.981	578.996	0.038	0.096
-730.966	-200.000	-0.028	0.201
-729.952	146.696	-0.140	-0.192
-728.937	-200.000	0.024	0.123
-727.923	800.000	0.054	-0.178
-726.908	53.268	-0.054	-0.053
-725.894	-200.000	-0.003	-0.411
-724.879	-139.449	0.281	-0.031
-723.864	-200.000	0.032	-0.246
-722.850	800.000	-0.046	-0.146
-721.835	-200.000	0.063	-0.386
-720.821	-16.860	-0.161	0.104
-719.806	38.571	-0.106	0.096
-718.791	693.242	0.070	-0.186
-717.777	-93.652	-0.107	0.030
-716.762	-180.259	-0.313	-0.007
-715.748	-200.000	-0.053	-0.353
-714.733	-200.000	-0.003	0.168
-713.718	-57.731	-0.342	-0.153
-712.704	-164.305	0.200	-0.009
-711.689	95.692	-0.027	-0.031
-710.675	-138.299	0.512	0.058
-709.660	-143.079	0.104	0.010
-708.645	-200.000	-0.010	-0.159
-707.631	-141.463	-0.351	-0.036
-706.616	-55.195	-0.310	-0.142
-705.602	800.000	0.073	0.232
-704.587	-111.992	0.291	0.060
-703.572	800.000	-0.067	0.196
-702.558	11.147	-0.356	0.278
-701.543	-128.407	0.268	0.039
-700.529	-59.370	0.111	0.049
-699.514	-63.918	0.030	0.013
-698.499	-19.269	-0.088	-0.056
-697.485	800.000	-0.105	-0.419
-696.470	-200.000	-0.029	0.134
-695.456	4.913	0.376	-0.282
-694.441	-129.070	0.204	0.029
-693.426	55.511	-0.040	0.039
-692.412	113.371	0.275	-0.341
-691.397	-123.413	0.117	-0.019
-690.383	2.179	0.086	-0.063
-689.368	-200.000	-0.001	-0.273
-688.354	200.209	-0.129	-0.203
-687.339	8.270	0.147	-0.113
-686.324	800.000	0.032	-0.136
-685.310	176.995	0.013	0.020
-684.295	-133.948	-0.157	-0.020
-683.281	-65.045	0.282	0.116
-682.266	-200.000	-0.041	-0.450
-681.251	116.156	0.188	0.235
-680.237	-54.444	-0.048	-0.022
-679.222	-200.000	0.011	0.185
-678.208	-200.000	0.010	-0.102
-677.193	-200.000	-0.061	-0.304
-676.178	-130.304	-0.092	0.013
-675.164	800.000	-0.049	0.204
-674.149	-73.631	-0.392	-0.146
-673.135	39.011	0.008	-0.008
-672.120	800.000	-0.114	-0.364
-671.105	-67.493	0.115	-0.046
-670.091	324.913	-0.133	-0.258
-669.076	46.141	-0.270	-0.255
-668.062	110.494	-0.237	-0.290
-667.047	-200.000	-0.025	-0.204
-666.032	-25.198	0.244	-0.147
-665.018	52.178	0.217	-0.211
-664.003	-134.886	-0.009	-0.001
-662.989	-98.962	0.504	0.130
-661.974	33.444	-0.150	-0.132
-660.959	104.600	0.084	-0.101
-659.945	96.440	-0.088	-0.102
-658.930	-67.560	-0.244	-0.098
-657.916	189.540	0.101	-0.155
-656.901	-87.630	0.122	-0.037
-655.886	-44.051	-0.097	-0.050
-654.872	657.178	-0.039	0.102
-653.857	-87.390	-0.118	0.037
-652.843	44.612	0.127	0.119
-651.828	421.951	-0.180	-0.395
-650.814	-200.000	0.003	0.039
-649.799	35.933	0.123	0.110
-648.784	-200.000	0.021	-0.371
-647.770	800.000	-0.022	-0.097
-646.755	800.000	0.040	-0.168
-645.741	-200.000	-0.041	-0.205
-644.726	-4.378	-0.069	-0.048
-643.711	651.433	-0.021	-0.054
-642.697	44.355	0.345	0.322
-641.682	268.749	-0.074	0.133
-640.668	-73.817	0.348	-0.129
-639.653	-157.679	0.037	-0.002
-638.638	720.317	-0.098	0.265
-637.624	-122.549	0.139	0.023
-636.609	169.707	-0.131	-0.190
-635.595	85.760	0.373	0.418
-634.580	17.311	-0.217	-0.175
-633.565	-118.636	-0.050	0.009
-632.551	-200.000	-0.037	-0.357
-631.536	76.082	0.087	0.094
-630.522	106.085	0.295	-0.356
-629.507	-133.275	0.319	-0.041
-628.492	136.338	-0.140	0.186
-627.478	-200.000	-0.028	-0.288
-626.463	-49.219	-0.285	0.138
-625.449	162.041	0.145	-0.207
-624.434	-14.490	-0.043	-0.028
-623.419	-200.000	-0.028	0.313
-622.405	57.395	-0.073	-0.073
-621.390	0.245	-0.073	0.053
-620.376	800.000	-0.054	-0.225
-619.361	800.000	0.103	0.299
-618.346	-163.613	-0.329	-0.016
-617.332	18.161	-0.179	-0.145
-616.317	77.310	0.069	-0.074
-615.303	212.962	-0.115	0.185
-614.288	121.059	-0.223	0.283
-613.273	396.228	-0.163	0.347
-612.259	155.081	-0.237	0.331
-611.244	-200.000	0.006	0.138
-610.230	-200.000	0.013	0.086
-609.215	83.532	0.256	0.284
-608.201	-84.480	0.359	0.115
-607.186	561.082	0.061	-0.151
-606.171	800.000	-0.056	-0.230
-605.157	-200.000	-0.008	-0.134
-604.142	-143.431	0.173	-0.017
-603.128	84.920	0.201	-0.225
-602.113	-59.835	-0.233	0.102
-601.098	100.862	0.116	-0.137
-600.084	-200.000	0.022	-0.207
-599.069	-105.730	-0.297	-0.068
-598.055	49.574	-0.154	-0.147
-597.040	800.000	-0.052	-0.157
-596.025	-141.519	0.256	0.026
-595.011	800.000	0.090	-0.263
-593.996	-83.538	0.314	-0.102
-592.982	-66.564	0.247	0.100
-591.967	256.981	-0.029	-0.051
-590.952	148.111	0.202	0.277
-589.938	-200.000	0.017	0.145
-588.923	-200.000	-0.031	-0.223
-587.909	103.083	-0.294	0.350
-586.894	-72.270	-0.398	0.150
-585.879	17.195	0.325	-0.262
-584.865	7.870	0.188	0.143
-583.850	486.104	-0.064	0.149
-582.836	-77.459	0.047	-0.017
-581.821	-200.000	0.033	0.279
-580.806	383.568	0.015	0.031
-579.792	249.522	-0.182	0.314
-578.777	-163.597	-0.198	-0.010
-577.763	-56.849	-0.094	0.042
-576.748	-90.143	0.368	0.109
-575.733	-79.161	0.029	0.010
-574.719	-85.118	-0.191	-0.061
-573.704	65.053	-0.330	-0.339
-572.690	-200.000	0.017	-0.135
-571.675	-200.000	-0.011	0.150
-570.661	-124.578	0.460	0.073
-569.646	-39.115	-0.257	0.137
-568.631	800.000	-0.103	-0.296
-567.617	800.000	0.061	0.171
-566.602	131.053	-0.143	0.187
-565.588	-200.000	-0.068	0.316
-564.573	18.179	-0.027	0.022
-563.558	58.199	0.062	-0.061
-562.544	-53.025	0.089	0.042
-561.529	-105.899	0.191	0.044
-560.515	-90.429	-0.076	-0.022
-559.500	-0.768	0.371	-0.267
-558.485	-200.000	-0.077	0.344
-557.471	109.288	0.252	0.307
-556.456	25.492	0.209	0.176
-555.442	-200.000	0.015	-0.205
-554.427	-200.000	0.023	-0.203
-553.412	-56.647	-0.027	-0.012
-552.398	-57.574	-0.247	-0.110
-551.383	216.957	-0.066	0.107
-550.369	453.991	-0.154	-0.346
-549.354	188.680	-0.109	-0.165
-548.339	9.127	-0.054	-0.042
-547.325	-92.342	-0.188	0.054
-546.310	800.000	0.037	-0.133
-545.296	-200.000	0.041	-0.238
-544.281	144.088	-0.098	-0.132
-543.266	5.927	0.191	0.143
-542.252	107.370	0.212	-0.256
-541.237	349.764	-0.174	-0.349
-540.223	-200.000	0.026	0.174
-539.208	-130.035	-0.150	-0.021
-538.193	122.053	0.279	0.354
-537.179	-173.354	0.196	-0.006
-536.164	800.000	-0.062	-0.273
-535.150	27.176	0.043	-0.037
-534.135	416.098	0.057	-0.123
-533.121	-102.637	0.221	-0.054
-532.106	-28.436	0.135	0.079
-531.091	-154.965	-0.464	-0.031
-530.077	800.000	-0.039	-0.155
-529.062	122.213	0.243	-0.308
-528.048	-107.161	0.217	0.048
-527.033	-6.087	0.294	-0.204
-526.018	-74.380	0.116	-0.042
-525.004	-61.201	0.067	-0.029
-523.989	95.238	-0.222	-0.256
-522.975	800.000	-0.065	-0.206
-521.960	800.000	0.052	0.161
-520.945	113.484	-0.206	0.253
-519.931	-200.000	-0.028	0.151
-518.916	-65.671	-0.032	0.013
-517.902	-200.000	-0.047	-0.391
-516.887	220.237	-0.065	0.106
-515.872	-200.000	0.033	0.269
-514.858	7.118	0.125	0.095
-513.843	4.843	0.124	-0.092
-512.829	-7.034	0.105	-0.072
-511.814	53.948	0.248	-0.241
-510.799	202.338	0.122	0.190
-509.785	-98.631	0.090	-0.023
-508.770	-62.558	0.192	0.081
-507.756	52.159	0.061	-0.059
-506.741	76.799	0.253	0.272
-505.726	-90.417	0.101	0.030
-504.712	-131.601	0.202	0.027
-503.697	800.000	0.046	0.138
-502.683	239.868	-0.119	0.201
-501.668	-200.000	-0.008	0.160
-500.653	-200.000	0.018	-0.296
-499.639	-93.740	0.233	0.065
-498.624	-147.114	0.275	0.024
-497.610	13.417	-0.157	-0.124
-496.595	800.000	0.065	-0.186
-495.581	-59.131	0.075	-0.033
-494.566	49.713	-0.084	-0.080
-493.551	151.428	-0.150	-0.207
-492.537	217.291	0.009	0.014
-491.522	-2.303	-0.219	-0.156
-490.508	-200.000	-0.024	-0.174
-489.493	800.000	-0.051	0.184
-488.478	-21.454	0.122	-0.075
-487.464	-19.994	0.048	0.030
-486.449	-83.997	0.344	0.111
-485.435	-94.451	-0.196	-0.054
-484.420	174.335	-0.147	0.215
-483.405	-17.953	-0.210	-0.133
-482.391	82.400	-0.200	-0.220
-481.376	-116.060	0.360	0.068
-480.362	321.505	-0.218	-0.421
-479.347	419.292	0.039	-0.085
-478.332	369.582	-0.133	0.272
-477.318	242.895	0.266	-0.450
-476.303	-200.000	0.032	-0.232
-475.289	-118.537	-0.214	0.038
-474.274	-200.000	-0.004	0.353
-473.259	168.145	0.106	0.153
-472.245	-195.883	0.301	-0.002
-471.230	-81.109	0.037	0.012
-470.216	-200.000	-0.028	-0.127
-469.201	-200.000	0.007	-0.185
-468.186	-148.346	-0.183	-0.015
-467.172	-12.685	-0.117	0.077
-466.157	273.571	-0.095	0.169
-465.143	-200.000	0.010	0.398
-464.128	-59.069	-0.129	-0.056
-463.113	45.930	-0.242	-0.227
-462.099	342.748	-0.104	0.205
-461.084	800.000	-0.051	0.190
-460.070	-126.659	-0.207	-0.031
-459.055	-200.000	0.084	0.381
-458.040	-54.960	-0.117	-0.053
-457.026	157.606	-0.043	-0.060
-456.011	-134.260	0.177	0.022
-454.997	-116.458	-0.175	0.033
-453.982	800.000	-0.018	0.073
-452.968	-97.786	0.194	0.051
-451.953	800.000	0.064	0.269
-450.938	-27.765	0.197	0.116
-449.924	605.787	0.049	-0.123
-448.909	-200.000	0.021	0.108
-447.895	-200.000	-0.029	-0.401
-446.880	-200.000	0.005	0.040
-445.865	-54.863	0.211	0.096
-444.851	-200.000	-0.030	-0.236
-443.836	-135.858	-0.187	0.022
-442.822	-100.730	0.186	0.046
-441.807	49.445	0.125	0.119
-440.792	-200.000	0.009	-0.119
-439.778	174.784	-0.188	-0.275
-438.763	34.552	0.252	-0.222
-437.749	664.595	-0.065	0.169
-436.734	-200.000	0.004	-0.214
-435.719	-24.140	-0.134	-0.081
-434.705	-200.000	0.037	-0.166
-433.690	-78.108	-0.098	0.034
-432.676	-200.000	0.028	0.141
-431.661	-190.276	-0.115	-0.001
-430.646	-200.000	-0.052	0.249
-429.632	-183.804	-0.358	0.006
-428.617	9.311	-0.367	-0.280
-427.603	-120.563	-0.123	-0.021
-426.588	800.000	-0.028	-0.084
-425.573	415.992	-0.106	0.228
-424.559	-118.951	-0.159	0.028
-423.544	-200.000	-0.037	0.197
-422.530	-5.077	0.062	0.043
-421.515	-30.165	0.093	-0.053
-420.500	-200.000	0.026	-0.235
-419.486	-75.358	0.115	-0.041
-418.471	71.334	0.108	-0.113
-417.457	-200.000	-0.037	-0.229
-416.442	-98.885	0.117	-0.030
-415.428	-7.371	0.346	0.237
-414.413	-62.616	-0.354	0.148
-413.398	-50.729	0.196	-0.093
-412.384	-33.201	0.199	-0.111
-411.369	-70.327	-0.168	-0.064
-410.355	-200.000	-0.008	0.123
-409.340	47.151	-0.150	0.141
-408.325	172.343	0.059	0.086
-407.311	-57.245	0.034	0.015
-406.296	-90.230	-0.323	0.095
-405.282	-4.788	0.196	-0.137
-404.267	-200.000	0.014	-0.082
-403.252	285.408	-0.141	-0.256
-402.238	-76.787	-0.462	-0.163
-401.223	-35.703	0.085	0.047
-400.209	-59.944	-0.150	0.065
-399.194	310.238	-0.038	0.072
-398.179	-133.482	0.042	0.005
-397.165	28.235	0.189	0.161
-396.150	-200.000	0.020	-0.265
-395.136	25.249	-0.162	0.136
-394.121	-200.000	0.029	-0.347
-393.106	12.162	0.328	-0.255
-392.092	138.952	-0.199	-0.263
-391.077	-200.000	0.039	-0.281
-390.063	-78.478	0.323	-0.112
-389.048	-200.000	0.072	0.428
-388.033	508.971	0.186	0.436
-387.019	93.312	-0.046	-0.053
-386.004	131.930	-0.129	-0.167
-384.990	176.272	0.030	-0.044
-383.975	312.640	0.023	-0.043
-382.960	800.000	-0.040	-0.119
-381.946	-11.418	-0.382	0.254
-380.931	-15.333	0.126	0.081
-379.917	-200.000	-0.032	0.204
-378.902	-171.679	-0.244	-0.008
-377.888	-200.000	0.006	-0.212
-376.873	108.150	0.124	-0.149
-375.858	-200.000	-0.011	0.050
-374.844	44.861	0.053	-0.049
-373.829	12.083	-0.123	-0.095
-372.815	-142.667	-0.085	-0.008
-371.800	-151.100	-0.334	0.025
-370.785	800.000	0.134	-0.470
-369.771	-78.761	0.114	-0.039
-368.756	-200.000	0.036	0.217
-367.742	520.571	0.094	0.223
-366.727	74.015	0.196	0.207
-365.712	264.220	0.146	0.257
-364.698	-77.890	0.405	0.141
-363.683	191.166	-0.121	0.184
-362.669	-200.000	0.000	0.074
-361.654	104.498	-0.052	-0.062
-360.639	284.566	-0.112	0.203
-359.625	-52.266	-0.055	0.025
-358.610	-110.291	-0.142	-0.030
-357.596	-200.000	-0.206	-0.000
-356.581	-121.348	-0.356	0.060
-355.566	-40.452	0.068	0.035
-354.552	-46.419	0.187	-0.092
-353.537	-83.736	-0.116	-0.037
-352.523	45.846	-0.211	0.196
-351.508	800.000	0.091	0.319
-350.493	56.522	-0.109	-0.107
-349.479	800.000	0.022	0.077
-348.464	-42.348	0.178	-0.091
-347.450	-15.178	0.176	0.113
-346.435	-95.767	0.021	-0.006
-345.420	-60.941	0.312	0.133
-344.406	281.249	0.119	-0.215
-343.391	-200.000	0.026	-0.124
-342.377	174.328	0.146	-0.212
-341.362	-200.000	0.047	-0.351
-340.348	-91.020	0.278	-0.080
-339.333	800.000	0.066	0.266
-338.318	800.000	-0.027	-0.095
-337.304	338.197	-0.103	-0.201
-336.289	-17.176	-0.253	0.160
-335.275	-152.215	0.157	-0.011
-334.260	800.000	0.071	-0.216
-333.245	-157.556	-0.233	0.014
-332.231	-45.858	-0.017	0.009
-331.216	384.308	0.056	-0.117
-330.202	-200.000	-0.072	0.325
-329.187	-5.840	-0.366	-0.252
-328.172	-134.218	0.148	0.018
-327.158	-200.000	-0.053	-0.373
-326.143	-200.000	0.020	-0.140
-325.129	-59.664	-0.182	-0.078
-324.114	-34.333	-0.098	-0.054
-323.099	697.580	0.146	-0.386
-322.085	-104.740	0.328	0.076
-321.070	-28.241	-0.155	-0.090
-320.056	-200.000	-0.054	0.247
-319.041	-53.891	0.291	0.133
-318.026	-39.652	-0.069	-0.037
-317.012	800.000	0.023	0.097
-315.997	56.902	-0.179	0.176
-314.983	-200.000	0.020	0.237
-313.968	35.828	-0.245	-0.217
-312.953	210.740	-0.094	-0.149
-311.939	800.000	-0.079	0.311
-310.924	-70.652	0.245	0.093
-309.910	-186.161	0.026	-0.000
-308.895	100.776	-0.093	-0.108
-307.880	22.621	-0.275	0.226
-306.866	-200.000	-0.038	0.227
-305.851	11.244	0.219	-0.169
-304.837	53.031	-0.189	0.182
-303.822	-61.653	-0.063	-0.026
-302.807	132.259	-0.118	-0.152
-301.793	800.000	-0.076	-0.266
-300.778	-152.716	-0.274	-0.020
-299.764	-118.636	0.185	-0.033
-298.749	51.294	0.230	-0.220
-297.735	-68.045	0.282	-0.111
-296.720	-200.000	0.003	-0.013
-295.705	-122.197	-0.128	0.021
-294.691	-36.936	0.309	-0.167
-293.676	-18.982	0.148	0.093
-292.662	338.307	0.102	-0.199
-291.647	446.683	0.075	0.166
-290.632	595.569	-0.043	0.106
-289.618	24.548	-0.188	0.156
-288.603	-40.757	0.168	-0.087
-287.589	59.045	-0.131	0.129
-286.574	-7.771	0.057	0.039
-285.559	167.341	0.123	-0.176
-284.545	-186.836	-0.209	0.003
-283.530	-81.305	-0.563	0.187
-282.516	-195.502	-0.236	0.002
-281.501	-200.000	-0.015	-0.193
-280.486	-64.933	0.319	0.130
-279.472	129.593	0.177	-0.227
-278.457	208.637	-0.060	0.095
-277.443	46.663	0.231	0.216
-276.428	800.000	0.008	-0.031
-275.413	-129.188	0.212	-0.030
-274.399	-20.189	-0.198	0.122
-273.384	-191.198	-0.239	-0.002
-272.370	800.000	0.110	-0.358
-271.355	-200.000	-0.001	-0.019
-270.340	-200.000	-0.070	-0.000
-269.326	256.901	-0.191	-0.330
-268.311	128.902	-0.029	-0.038
-267.297	44.325	-0.096	-0.089
-266.282	150.262	-0.283	-0.385
-265.267	116.236	0.128	-0.157
-264.253	-88.628	0.190	-0.057
-263.238	-200.000	-0.026	-0.205
-262.224	360.629	0.142	-0.285
-261.209	-57.158	0.165	0.073
-260.195	-62.328	0.289	-0.121
-259.180	-158.952	0.259	-0.015
-258.165	462.617	-0.031	0.069
-257.151	-92.131	-0.047	-0.013
-256.136	253.193	0.165	0.282
-255.122	188.023	-0.068	0.102
-254.107	94.985	0.199	-0.228
-253.092	-61.265	0.012	-0.005
-252.078	46.669	0.066	0.062
-251.063	-200.000	0.022	0.152
-250.049	138.309	-0.089	0.117
-249.034	-178.838	-0.440	-0.010
-248.019	530.463	-0.107	0.253
-247.005	-200.000	0.051	0.471
-245.990	-63.250	0.115	-0.048
-244.976	-200.000	-0.016	-0.266
-243.961	-200.000	-0.042	0.237
-242.946	-78.390	-0.181	0.062
-241.932	443.070	0.042	0.093
-240.917	131.359	-0.061	-0.079
-239.903	175.944	-0.254	0.369
-238.888	202.377	0.090	-0.139
-237.873	607.455	0.210	0.526
-236.859	525.464	0.098	0.231
-235.844	82.877	-0.171	0.186
-234.830	-1.677	0.036	0.026
-233.815	-151.401	-0.153	0.011
-232.800	-114.243	-0.107	0.021
-231.786	-8.791	-0.251	0.169
-230.771	800.000	-0.069	-0.254
-229.757	-200.000	0.044	-0.196
-228.742	-200.000	0.012	0.560
-227.727	800.000	0.068	0.237
-226.713	30.763	0.270	-0.231
-225.698	-52.274	-0.539	-0.251
-224.684	800.000	0.012	0.050
-223.669	-200.000	0.023	0.311
-222.655	217.573	0.157	-0.251
-221.640	9.288	-0.084	-0.063
-220.625	164.453	0.102	-0.145
-219.611	686.618	-0.093	-0.242
-218.596	-200.000	-0.036	0.223
-217.582	800.000	0.159	0.485
-216.567	-200.000	0.012	0.239
-215.552	-48.766	-0.118	-0.057
-214.538	-133.865	-0.297	-0.037
-213.523	800.000	0.082	0.247
-212.509	800.000	-0.106	-0.343
-211.494	-67.001	0.224	0.088
-210.479	450.407	-0.078	-0.172
-209.465	800.000	-0.115	0.365
-208.450	-200.000	0.026	-0.233
-207.436	-200.000	0.037	0.175
-206.421	-32.955	0.098	0.055
-205.406	-22.991	0.172	-0.104
-204.392	150.674	-0.251	0.342
-203.377	190.558	-0.076	0.114
-202.363	392.924	-0.197	0.410
-201.348	-98.142	0.201	-0.052
-200.333	-100.384	0.148	-0.037
-199.319	-170.328	0.060	-0.002
-198.304	-200.000	0.035	-0.193
-197.290	99.946	-0.120	0.140
-196.275	-127.101	-0.219	0.032
-195.260	261.271	-0.140	0.242
-194.246	-82.360	0.255	0.083
-193.231	635.360	-0.097	-0.245
-192.217	-137.839	-0.191	-0.021
-191.202	800.000	0.099	0.289
-190.187	-127.880	0.274	-0.040
-189.173	-39.552	0.221	0.116
-188.158	-43.285	0.200	0.101
-187.144	-45.904	0.241	-0.119
-186.129	522.571	0.209	0.492
-185.114	-4.798	0.024	-0.016
-184.100	-49.814	0.070	-0.033
-183.085	-54.313	0.164	-0.075
-182.071	426.394	-0.100	0.217
-181.056	160.560	-0.109	-0.153
-180.042	800.000	-0.072	-0.202
-179.027	800.000	0.077	-0.246
-178.012	-151.304	-0.049	-0.004
-176.998	-62.607	0.299	0.124
-175.983	40.931	0.098	-0.088
-174.969	800.000	-0.074	0.321
-173.954	-12.537	0.201	0.131
-172.939	131.048	-0.037	0.048
-171.925	-200.000	-0.049	-0.231
-170.910	-85.148	-0.326	0.102
-169.896	143.774	-0.025	-0.034
-168.881	-21.487	-0.377	-0.230
-167.866	26.589	-0.137	-0.115
-166.852	-93.046	-0.153	-0.043
-165.837	154.377	-0.244	0.335
-164.823	-6.339	0.120	0.082
-163.808	-157.426	0.442	0.027
-162.793	65.648	-0.215	-0.217
-161.779	9.480	-0.352	0.266
-160.764	-102.414	-0.226	0.054
-159.750	-172.720	-0.234	0.007
-158.735	-34.233	-0.288	-0.158
-157.720	-200.000	0.023	0.252
-156.706	375.457	-0.071	0.144
-155.691	-90.851	0.229	-0.066
-154.677	556.381	-0.070	-0.168
-153.662	-81.491	0.207	-0.068
-152.647	-200.000	0.011	-0.222
-151.633	51.370	-0.358	-0.340
-150.618	212.338	0.260	-0.410
-149.604	-31.705	0.110	0.062
-148.589	-200.000	-0.034	-0.255
-147.574	149.869	0.102	0.138
-146.560	590.219	0.001	-0.003
-145.545	-100.191	0.072	0.018
-144.531	-68.825	0.119	-0.046
-143.516	800.000	-0.031	0.102
-142.502	-58.243	-0.134	-0.058
-141.487	-52.617	0.250	-0.115
-140.472	322.704	0.130	0.248
-139.458	144.935	0.124	0.166
-138.443	-7.903	0.085	0.058
-137.429	567.758	-0.010	-0.025
-136.414	18.341	-0.069	0.055
-135.399	-40.432	-0.187	-0.097
-134.385	232.171	0.051	-0.084
-133.370	57.259	-0.042	0.041
-132.356	-200.000	0.024	0.308
-131.341	-23.793	0.040	-0.024
-130.326	317.307	0.027	0.052
-129.312	365.248	0.058	0.117
-128.297	-127.056	0.246	-0.036
-127.283	-200.000	-0.000	0.013
-126.268	98.625	-0.082	0.095
-125.253	-200.000	-0.024	0.165
-124.239	800.000	0.084	0.268
-123.224	60.537	0.160	0.158
-122.210	288.425	-0.092	-0.166
