DTS Sentinel unit serial number:	SN413079Multiplexer serial number:	ORYXHardware model number:	OX4-SRSoftware version number:	ORYX F/W v4.00 Oryx Data Collector v3.7.2.0data status	okinstallation	princeton_trtdifferential loss correction	single-endedforward channel	channel 3reverse channel	N/Adate	2019/09/15time	11:40:35forward acquisition time	60.00reverse acquisition time	0.00gamma	496.2192k internal	0.2306k external	0.2306temperature offset calibration	0.9977default loss term (dB/km)	0.3790temperature slope calibration	1.0000multiplexer offset coefficient	1.0000multiplexer slope coefficient	1.0000fibre end	0.00T internal ref (°C)	34.31T ext. ref 1 (°C)	5.00T ext. ref 2 (°C)	29.72length (m)	temperature (°C)	Stokes	anti-Stokes-747.200	-59.172	-0.180	0.079
-746.185	69.610	0.087	0.091
-745.171	-200.000	0.030	0.141
-744.156	-200.000	0.051	0.291
-743.142	-100.533	0.396	0.100
-742.127	-144.339	0.298	-0.028
-741.112	-69.176	-0.172	0.067
-740.098	-200.000	0.012	0.133
-739.083	-200.000	-0.001	-0.076
-738.069	-84.981	-0.120	-0.038
-737.054	800.000	0.062	0.224
-736.039	-86.438	-0.083	-0.026
-735.025	-200.000	0.098	0.516
-734.010	-163.540	-0.261	0.013
-732.996	55.496	-0.108	-0.107
-731.981	185.060	0.077	-0.117
-730.966	-200.000	0.083	-0.510
-729.952	-188.715	-0.262	-0.003
-728.937	313.881	0.104	-0.198
-727.923	-200.000	-0.003	-0.270
-726.908	99.230	-0.084	0.099
-725.894	48.827	-0.123	0.117
-724.879	260.092	-0.164	-0.288
-723.864	21.921	-0.113	-0.094
-722.850	-151.006	-0.193	0.015
-721.835	466.131	-0.160	-0.365
-720.821	-89.796	0.036	-0.011
-719.806	-47.753	-0.293	-0.144
-718.791	-79.174	-0.128	0.044
-717.777	330.247	-0.049	0.096
-716.762	141.029	-0.098	0.131
-715.748	243.862	-0.232	-0.395
-714.733	97.652	-0.118	-0.138
-713.718	198.300	0.065	0.102
-712.704	25.539	-0.225	0.191
-711.689	-200.000	0.015	-0.087
-710.675	61.689	0.164	0.166
-709.660	550.785	-0.099	-0.242
-708.645	26.601	-0.062	-0.053
-707.631	158.697	-0.272	-0.383
-706.616	765.209	0.100	-0.276
-705.602	-200.000	-0.016	-0.193
-704.587	63.970	-0.241	-0.246
-703.572	90.460	0.079	-0.090
-702.558	-15.001	0.058	0.038
-701.543	248.901	-0.089	-0.153
-700.529	261.566	0.080	0.140
-699.514	-89.341	0.180	-0.054
-698.499	-32.804	-0.169	-0.095
-697.485	-100.799	0.058	0.015
-696.470	-49.374	0.232	0.113
-695.456	-13.194	-0.211	0.139
-694.441	601.485	-0.068	-0.171
-693.426	618.838	-0.045	0.116
-692.412	-200.000	-0.002	-0.327
-691.397	-56.982	-0.103	-0.046
-690.383	-200.000	-0.024	-0.121
-689.368	-75.131	-0.266	-0.096
-688.354	-33.068	0.276	-0.156
-687.339	-26.427	-0.081	-0.048
-686.324	-31.877	-0.172	0.098
-685.310	-200.000	-0.026	0.139
-684.295	-141.430	-0.347	-0.036
-683.281	-46.356	0.199	-0.099
-682.266	-8.905	0.140	0.095
-681.251	13.108	0.224	-0.176
-680.237	76.119	0.115	0.124
-679.222	4.508	-0.147	-0.110
-678.208	800.000	-0.118	-0.342
-677.193	28.877	-0.098	-0.085
-676.178	-200.000	-0.046	0.328
-675.164	-123.106	-0.372	0.061
-674.149	-52.317	-0.259	-0.121
-673.135	157.385	-0.181	-0.254
-672.120	93.345	0.119	-0.136
-671.105	-103.731	0.283	0.067
-670.091	-49.567	0.123	-0.060
-669.076	-149.119	-0.175	-0.014
-668.062	800.000	0.153	-0.450
-667.047	-121.568	-0.386	-0.065
-666.032	221.944	0.106	0.173
-665.018	-10.869	0.265	-0.177
-664.003	-99.301	-0.193	-0.049
-662.989	66.092	0.012	-0.012
-661.974	-66.813	0.188	-0.076
-660.959	20.968	-0.098	0.080
-659.945	800.000	-0.096	0.298
-658.930	47.440	0.198	-0.187
-657.916	-141.600	0.243	0.025
-656.901	44.813	0.269	-0.251
-655.886	800.000	-0.083	-0.317
-654.872	-200.000	0.000	0.012
-653.857	-111.559	0.222	-0.046
-652.843	-115.439	-0.102	-0.019
-651.828	-141.833	-0.142	-0.014
-650.814	800.000	-0.037	-0.108
-649.799	307.283	0.208	-0.392
-648.784	-69.481	0.228	0.089
-647.770	167.807	-0.092	-0.132
-646.755	30.436	-0.241	-0.209
-645.741	-110.972	-0.328	0.068
-644.726	-14.237	-0.121	-0.079
-643.711	151.201	0.085	0.117
-642.697	131.514	0.362	-0.471
-641.682	-200.000	0.046	-0.231
-640.668	-33.696	-0.142	-0.079
-639.653	-200.000	-0.016	-0.218
-638.638	-44.462	0.176	-0.089
-637.624	58.852	-0.182	0.181
-636.609	192.505	0.180	0.275
-635.595	212.797	-0.081	-0.130
-634.580	-150.649	0.111	0.009
-633.565	121.355	0.083	-0.105
-632.551	-163.284	0.071	-0.003
-631.536	738.798	0.110	0.298
-630.522	574.262	-0.175	0.432
-629.507	143.821	0.113	-0.153
-628.492	-145.341	0.221	-0.020
-627.478	-200.000	0.010	0.212
-626.463	-74.595	-0.109	-0.040
-625.449	580.483	-0.025	-0.062
-624.434	-30.855	-0.277	-0.159
-623.419	-29.562	-0.031	-0.018
-622.405	-200.000	0.076	0.339
-621.390	-48.001	0.085	0.041
-620.376	800.000	-0.016	0.068
-619.361	-52.129	-0.054	-0.025
-618.346	48.221	-0.067	-0.064
-617.332	-200.000	-0.023	0.137
-616.317	-200.000	-0.006	0.047
-615.303	-5.221	-0.208	0.145
-614.288	-158.472	0.355	-0.021
-613.273	-51.947	-0.266	0.125
-612.259	-152.425	0.075	0.005
-611.244	146.570	0.058	-0.079
-610.230	-200.000	0.018	0.370
-609.215	-88.411	-0.321	-0.097
-608.201	70.542	0.052	-0.054
-607.186	800.000	-0.028	-0.123
-606.171	-200.000	0.004	0.233
-605.157	144.630	-0.270	-0.364
-604.142	-200.000	-0.067	0.381
-603.128	154.988	-0.284	-0.395
-602.113	-200.000	-0.037	-0.330
-601.098	-200.000	0.012	-0.090
-600.084	-123.013	-0.342	-0.056
-599.069	-37.661	-0.146	0.079
-598.055	-145.599	-0.139	-0.013
-597.040	-53.882	-0.386	-0.178
-596.025	45.411	-0.190	0.177
-595.011	300.821	0.059	-0.110
-593.996	650.847	0.086	0.222
-592.982	-10.291	0.160	0.107
-591.967	18.315	0.298	-0.241
-590.952	433.506	-0.103	-0.226
-589.938	-151.633	0.258	0.019
-588.923	800.000	0.056	-0.229
-587.909	-49.989	-0.137	-0.066
-586.894	-27.946	-0.109	-0.064
-585.879	-200.000	-0.066	0.335
-584.865	-131.374	-0.406	0.054
-583.850	800.000	0.101	-0.304
-582.836	-74.110	-0.148	-0.054
-581.821	130.816	-0.059	0.077
-580.806	800.000	-0.012	-0.040
-579.792	33.010	0.081	-0.071
-578.777	-68.637	-0.138	-0.054
-577.763	-200.000	0.027	-0.278
-576.748	42.741	-0.113	-0.104
-575.733	-164.966	0.516	-0.023
-574.719	-200.000	-0.073	-0.495
-573.704	-200.000	0.017	-0.229
-572.690	102.228	-0.152	-0.179
-571.675	-63.980	0.166	0.068
-570.661	6.110	-0.194	-0.145
-569.646	270.638	-0.084	0.150
-568.631	-73.984	0.196	-0.072
-567.617	-14.212	0.451	-0.294
-566.602	-80.364	-0.240	0.081
-565.588	-10.529	-0.263	0.176
-564.573	45.379	0.074	-0.069
-563.558	59.086	-0.152	0.151
-562.544	-200.000	0.025	0.289
-561.529	96.526	-0.101	-0.116
-560.515	800.000	0.061	-0.192
-559.500	284.371	0.023	-0.042
-558.485	-109.118	-0.138	-0.030
-557.471	580.538	0.097	-0.240
-556.456	-59.224	-0.334	-0.145
-555.442	396.237	-0.142	0.299
-554.427	-1.985	0.076	0.054
-553.412	-169.607	-0.299	0.011
-552.398	226.372	-0.138	0.226
-551.383	10.700	0.108	0.083
-550.369	-200.000	0.028	0.141
-549.354	662.666	0.033	-0.085
-548.339	-49.505	0.296	0.142
-547.325	10.190	0.143	-0.110
-546.310	351.749	0.102	0.203
-545.296	-37.171	-0.363	-0.196
-544.281	-200.000	0.043	0.242
-543.266	800.000	-0.064	-0.239
-542.252	12.983	-0.151	0.118
-541.237	482.458	-0.071	0.162
-540.223	-200.000	-0.015	0.087
-539.208	-55.800	-0.276	-0.125
-538.193	314.041	0.083	-0.159
-537.179	161.847	-0.360	-0.509
-536.164	800.000	-0.060	0.234
-535.150	117.222	0.083	0.103
-534.135	-69.435	0.317	-0.123
-533.121	-200.000	-0.046	-0.433
-532.106	-92.495	-0.123	-0.035
-531.091	-54.701	0.042	0.019
-530.077	-200.000	-0.033	-0.201
-529.062	-102.374	-0.029	0.007
-528.048	483.328	-0.069	0.157
-527.033	95.023	-0.217	0.249
-526.018	-62.738	-0.390	0.163
-525.004	74.770	0.104	0.110
-523.989	8.671	0.108	-0.082
-522.975	109.329	0.079	-0.095
-521.960	88.711	-0.144	-0.161
-520.945	-127.296	0.261	-0.038
-519.931	800.000	0.070	0.294
-518.916	800.000	0.070	0.237
-517.902	-52.985	-0.434	0.201
-516.887	-41.974	0.100	0.052
-515.872	-89.861	-0.201	0.059
-514.858	27.277	-0.103	-0.087
-513.843	-6.748	0.075	-0.051
-512.829	-21.427	-0.192	0.118
-511.814	800.000	0.063	-0.240
-510.799	-200.000	0.016	-0.144
-509.785	-20.474	0.120	-0.074
-508.770	362.103	0.037	-0.075
-507.756	-120.468	-0.156	0.027
-506.741	-73.726	0.197	-0.072
-505.726	291.748	0.091	-0.167
-504.712	8.826	0.152	0.116
-503.697	800.000	0.025	0.104
-502.683	-68.927	0.053	0.020
-501.668	523.348	-0.082	-0.193
-500.653	77.048	0.087	-0.093
-499.639	-127.509	0.087	0.013
-498.624	190.327	0.126	0.191
-497.610	115.592	-0.297	-0.365
-496.595	-200.000	-0.013	0.225
-495.581	-181.463	0.349	-0.007
-494.566	61.146	0.062	0.062
-493.551	-200.000	0.026	0.204
-492.537	88.696	-0.288	-0.322
-491.522	-126.914	-0.150	0.022
-490.508	-129.100	0.107	0.015
-489.493	-3.294	-0.160	-0.112
-488.478	81.927	0.083	0.091
-487.464	657.451	-0.062	-0.161
-486.449	-107.460	-0.231	-0.051
-485.435	-136.739	0.250	-0.029
-484.420	-93.029	0.323	-0.091
-483.405	142.392	0.110	0.147
-482.391	118.292	-0.097	0.120
-481.376	-17.222	-0.154	-0.097
-480.362	-200.000	0.014	0.287
-479.347	369.992	-0.098	0.199
-478.332	800.000	-0.062	0.175
-477.318	-6.373	0.173	-0.119
-476.303	3.369	0.171	-0.125
-475.289	53.627	0.116	0.112
-474.274	-143.373	0.094	-0.009
-473.259	61.132	0.145	0.144
-472.245	800.000	-0.041	0.175
-471.230	245.731	-0.102	-0.173
-470.216	-151.948	-0.361	0.027
-469.201	-11.011	0.581	0.386
-468.186	-200.000	-0.052	0.326
-467.172	-116.215	0.344	0.064
-466.157	-200.000	-0.016	-0.242
-465.143	64.418	0.211	0.214
-464.128	324.630	0.030	0.057
-463.113	95.692	-0.081	0.093
-462.099	-95.384	-0.057	-0.015
-461.084	710.434	0.147	0.392
-460.070	-121.400	0.248	-0.042
-459.055	493.188	-0.033	-0.077
-458.040	777.367	0.039	0.106
-457.026	190.025	0.026	-0.040
-456.011	-131.737	-0.399	-0.053
-454.997	299.155	0.230	-0.426
-453.982	-144.904	0.319	0.029
-452.968	-64.943	0.163	0.066
-451.953	800.000	-0.029	0.109
-450.938	44.607	0.383	0.354
-449.924	98.232	-0.264	0.306
-448.909	136.155	-0.230	-0.302
-447.895	-200.000	0.030	-0.582
-446.880	800.000	0.130	-0.385
-445.865	1.356	0.052	0.038
-444.851	800.000	-0.054	0.223
-443.836	800.000	-0.082	-0.262
-442.822	156.004	-0.132	0.182
-441.807	800.000	0.039	-0.158
-440.792	800.000	0.080	0.244
-439.778	79.272	0.123	0.132
-438.763	410.153	0.147	-0.313
-437.749	-159.363	-0.464	0.026
-436.734	-200.000	0.012	-0.395
-435.719	56.443	-0.195	-0.191
-434.705	-200.000	-0.036	-0.500
-433.690	32.293	0.117	0.102
-432.676	417.315	-0.127	0.272
-431.661	800.000	-0.106	0.298
-430.646	-146.758	0.148	-0.013
-429.632	-67.738	-0.190	0.075
-428.617	-200.000	0.016	0.253
-427.603	149.676	0.070	0.095
-426.588	-25.151	-0.264	-0.157
-425.573	10.401	0.127	-0.097
-424.559	-57.804	0.240	0.105
-423.544	800.000	0.045	0.147
-422.530	-160.757	0.269	-0.014
-421.515	-200.000	-0.011	-0.055
-420.500	-200.000	0.025	0.188
-419.486	173.694	0.113	0.163
-418.471	-164.507	0.436	-0.020
-417.457	-136.343	-0.215	0.025
-416.442	-102.651	0.162	-0.039
-415.428	-28.631	0.026	-0.015
-414.413	800.000	-0.024	-0.080
-413.398	-179.978	-0.394	0.008
-412.384	800.000	-0.125	-0.464
-411.369	-200.000	0.006	-0.549
-410.355	800.000	-0.068	-0.237
-409.340	-200.000	-0.003	-0.056
-408.325	183.320	-0.088	-0.130
-407.311	-200.000	0.001	-0.045
-406.296	800.000	0.077	-0.332
-405.282	-126.834	-0.225	-0.033
-404.267	-150.637	-0.253	0.019
-403.252	-8.967	0.113	-0.076
-402.238	344.960	-0.031	0.061
-401.223	-35.699	0.303	0.165
-400.209	-90.380	-0.197	0.057
-399.194	-94.870	0.210	0.057
-398.179	5.475	0.117	0.087
-397.165	118.957	0.189	0.234
-396.150	364.963	0.076	0.153
-395.136	345.739	-0.167	0.329
-394.121	184.133	-0.053	0.078
-393.106	53.682	0.248	-0.239
-392.092	30.779	-0.350	0.301
-391.077	-200.000	-0.009	0.098
-390.063	-90.579	-0.067	-0.019
-389.048	20.815	-0.071	-0.058
-388.033	207.388	-0.031	0.049
-387.019	800.000	0.053	-0.150
-386.004	800.000	0.038	0.140
-384.990	-200.000	-0.012	0.483
-383.975	162.699	0.125	0.176
-382.960	-108.465	-0.382	-0.082
-381.946	-113.860	-0.460	0.090
-380.931	-200.000	-0.010	0.258
-379.917	-200.000	-0.010	-0.168
-378.902	800.000	0.027	0.095
-377.888	185.531	-0.079	0.118
-376.873	-77.538	-0.225	-0.078
-375.858	271.834	0.089	-0.156
-374.844	-60.005	0.124	-0.053
-373.829	-193.471	-0.434	-0.004
-372.815	133.030	-0.230	-0.298
-371.800	-56.315	0.137	0.061
-370.785	-31.030	-0.154	-0.087
-369.771	-83.214	-0.239	0.077
-368.756	10.469	0.082	-0.063
-367.742	-53.427	-0.322	0.148
-366.727	136.478	-0.060	0.079
-365.712	-53.476	0.325	0.149
-364.698	-200.000	0.031	-0.277
-363.683	31.392	0.206	0.178
-362.669	-200.000	-0.019	-0.136
-361.654	-200.000	0.031	0.180
-360.639	267.576	0.222	-0.389
-359.625	-128.924	0.121	-0.017
-358.610	-68.167	0.040	-0.015
-357.596	-200.000	-0.003	-0.026
-356.581	-36.100	0.204	0.110
-355.566	41.572	0.076	-0.069
-354.552	800.000	0.063	-0.199
-353.537	-58.151	0.263	-0.115
-352.523	-93.522	0.288	0.080
-351.508	-60.138	-0.103	0.044
-350.493	-173.979	0.378	-0.011
-349.479	-200.000	-0.012	0.121
-348.464	-36.033	0.201	0.109
-347.450	75.428	-0.215	0.228
-346.435	800.000	-0.054	0.192
-345.420	-152.545	-0.119	-0.009
-344.406	-146.356	-0.262	0.023
-343.391	-41.359	0.071	0.036
-342.377	800.000	0.100	0.408
-341.362	393.459	-0.132	-0.274
-340.348	705.391	-0.043	-0.114
-339.333	95.922	-0.301	-0.344
-338.318	-76.236	-0.277	-0.098
-337.304	220.727	0.276	-0.444
-336.289	213.280	-0.172	0.272
-335.275	800.000	-0.040	0.143
-334.260	-24.950	0.048	0.029
-333.245	-17.652	0.147	0.093
-332.231	235.728	0.152	-0.251
-331.216	800.000	-0.038	-0.120
-330.202	-92.464	0.157	0.044
-329.187	-112.165	0.416	-0.084
-328.172	-200.000	0.014	-0.211
-327.158	-200.000	0.003	-0.106
-326.143	147.273	0.206	0.277
-325.129	-200.000	-0.001	-0.023
-324.114	415.028	-0.032	-0.069
-323.099	7.925	0.193	0.144
-322.085	168.052	-0.038	0.054
-321.070	76.947	-0.044	-0.047
-320.056	166.084	-0.160	-0.227
-319.041	467.675	0.060	-0.134
-318.026	117.079	0.247	0.304
-317.012	-154.484	-0.072	0.005
-315.997	150.754	0.200	-0.272
-314.983	141.271	0.170	0.225
-313.968	-23.780	0.094	0.056
-312.953	153.295	0.102	0.139
-311.939	800.000	0.074	0.320
-310.924	76.066	-0.083	-0.088
-309.910	-200.000	0.011	0.397
-308.895	221.350	-0.121	0.194
-307.880	190.096	0.243	-0.365
-306.866	-61.928	0.344	0.144
-305.851	-13.347	0.450	0.292
-304.837	800.000	-0.035	-0.134
-303.822	157.215	0.153	0.212
-302.807	261.081	-0.081	0.140
-301.793	-54.693	0.314	0.142
-300.778	-200.000	0.066	0.801
-299.764	-80.253	0.156	-0.052
-298.749	189.148	0.144	0.215
-297.735	66.798	0.095	0.096
-296.720	-48.149	0.030	0.014
-295.705	-85.611	0.046	0.014
-294.691	800.000	-0.088	-0.277
-293.676	294.191	-0.131	-0.239
-292.662	-143.393	-0.070	-0.007
-291.647	193.598	-0.081	-0.123
-290.632	-166.019	-0.255	-0.011
-289.618	-180.584	0.426	-0.009
-288.603	-14.102	0.115	-0.074
-287.589	28.098	-0.119	0.101
-286.574	-63.558	-0.313	0.128
-285.559	800.000	-0.051	-0.142
-284.545	800.000	-0.057	0.157
-283.530	32.898	-0.118	-0.102
-282.516	65.430	-0.089	-0.090
-281.501	-91.835	-0.302	-0.086
-280.486	27.342	-0.369	0.310
-279.472	26.981	-0.136	-0.114
-278.457	800.000	0.076	-0.266
-277.443	-70.863	0.200	-0.075
-276.428	36.032	0.203	0.179
-275.413	-61.429	-0.214	0.090
-274.399	-200.000	-0.017	-0.131
-273.384	696.485	-0.073	0.193
-272.370	-24.477	0.129	0.077
-271.355	51.109	-0.191	0.181
-270.340	-200.000	0.022	0.199
-269.326	717.733	-0.080	-0.212
-268.311	50.208	-0.014	-0.013
-267.297	18.050	-0.140	0.112
-266.282	800.000	-0.013	-0.047
-265.267	691.485	0.089	0.232
-264.253	72.016	0.116	-0.120
-263.238	163.228	-0.060	-0.084
-262.224	377.602	-0.275	-0.561
-261.209	61.804	-0.109	0.108
-260.195	102.133	0.156	0.182
-259.180	289.112	-0.066	0.119
-258.165	-118.812	0.276	0.048
-257.151	-65.106	0.339	0.137
-256.136	-57.951	0.164	-0.072
-255.122	346.608	-0.095	0.187
-254.107	100.703	0.118	0.137
-253.092	45.405	-0.044	0.040
-252.078	-121.249	0.246	0.041
-251.063	385.690	0.059	0.122
-250.049	46.849	0.313	0.290
-249.034	520.311	0.090	0.210
-248.019	-200.000	-0.038	-0.208
-247.005	124.135	-0.126	-0.158
-245.990	-131.183	-0.080	0.011
-244.976	525.970	-0.086	0.202
-243.961	152.426	-0.053	-0.072
-242.946	182.611	0.021	-0.031
-241.932	3.612	-0.302	0.220
-240.917	119.833	0.057	0.071
-239.903	-69.249	-0.231	-0.088
-238.888	46.523	0.137	-0.126
-237.873	52.978	-0.147	-0.140
-236.859	-12.710	0.129	-0.084
-235.844	61.466	-0.023	0.023
-234.830	-31.469	-0.115	-0.064
-233.815	-163.397	0.248	0.012
-232.800	800.000	0.087	-0.357
-231.786	800.000	-0.060	-0.198
-230.771	-13.938	-0.367	0.236
-229.757	60.266	-0.209	-0.206
-228.742	51.766	0.342	-0.324
-227.727	109.587	-0.105	0.125
-226.713	99.771	0.026	0.030
-225.698	-200.000	-0.010	0.131
-224.684	-200.000	0.006	-0.036
-223.669	-116.822	-0.044	0.008
-222.655	480.598	0.135	0.306
-221.640	800.000	0.123	0.341
-220.625	-200.000	0.065	-0.300
-219.611	362.984	0.132	0.263
-218.596	455.080	-0.196	-0.432
-217.582	-200.000	0.020	0.105
-216.567	-63.570	-0.281	-0.115
-215.552	-173.499	0.204	-0.006
-214.538	-97.419	0.243	-0.063
-213.523	169.083	-0.115	-0.163
-212.509	-6.478	-0.223	-0.152
-211.494	219.958	0.069	-0.111
-210.479	800.000	-0.022	0.093
-209.465	248.137	-0.083	0.140
-208.450	-50.589	-0.263	-0.123
-207.436	-33.454	0.114	0.063
-206.421	93.641	0.180	-0.203
-205.406	-200.000	-0.029	-0.129
-204.392	369.610	0.023	-0.045
-203.377	149.926	-0.021	0.028
-202.363	-175.208	-0.243	-0.007
-201.348	45.520	-0.076	0.070
-200.333	-133.276	0.196	0.025
-199.319	53.837	-0.114	-0.109
-198.304	-200.000	0.002	-0.094
-197.290	-8.716	-0.165	-0.110
-196.275	-146.274	-0.068	0.006
-195.260	149.256	-0.255	0.344
-194.246	-175.274	-0.109	-0.003
-193.231	-66.239	0.267	0.106
-192.217	-200.000	0.020	-0.224
-191.202	536.505	-0.153	-0.362
-190.187	321.919	-0.243	-0.461
-189.173	-200.000	0.044	-0.229
-188.158	-200.000	-0.004	-0.145
-187.144	-60.866	0.379	0.159
-186.129	-39.407	-0.151	0.079
-185.114	233.418	0.135	-0.221
-184.100	237.008	-0.099	0.163
-183.085	-109.938	0.537	0.112
-182.071	-200.000	0.072	0.383
-181.056	-117.386	0.242	0.044
-180.042	800.000	-0.087	0.267
-179.027	19.343	0.205	0.164
-178.012	800.000	0.029	-0.121
-176.998	52.199	-0.085	-0.080
-175.983	-52.534	0.075	0.035
-174.969	-66.999	0.142	0.056
-173.954	-200.000	0.043	-0.252
-172.939	311.068	-0.081	-0.151
-171.925	55.993	0.160	-0.155
-170.910	81.192	0.165	0.177
-169.896	88.719	-0.141	0.156
-168.881	-107.598	-0.222	-0.048
-167.866	-29.321	-0.212	-0.121
-166.852	125.898	0.168	0.211
-165.837	513.663	-0.018	-0.043
-164.823	-69.911	0.281	0.107
-163.808	98.689	0.041	-0.047
-162.793	-12.018	-0.181	-0.118
-161.779	353.610	0.015	0.029
-160.764	-61.464	-0.186	0.078
-159.750	-93.908	-0.172	0.047
-158.735	-200.000	0.001	-0.126
-157.720	-19.480	-0.071	0.044
-156.706	-120.986	0.438	0.073
-155.691	113.952	-0.232	0.281
-154.677	-31.017	0.170	0.095
-153.662	188.945	-0.192	0.286
-152.647	-200.000	0.069	0.313
-151.633	-200.000	0.039	-0.189
-150.618	109.770	0.106	0.127
-149.604	355.418	-0.069	0.136
-148.589	110.443	-0.007	0.008
-147.574	-68.132	-0.137	0.053
-146.560	38.156	0.344	0.304
-145.545	157.740	0.106	0.146
-144.531	189.487	-0.154	-0.229
-143.516	-44.657	-0.301	0.150
-142.502	-21.484	-0.291	0.176
-141.487	-10.528	-0.135	0.089
-140.472	800.000	-0.059	0.209
-139.458	800.000	-0.080	-0.317
-138.443	-200.000	0.018	0.144
-137.429	190.401	-0.119	-0.178
-136.414	-200.000	0.007	0.070
-135.399	800.000	0.066	-0.266
-134.385	-62.779	0.397	-0.163
-133.370	-106.966	0.250	-0.055
-132.356	-200.000	-0.032	0.193
-131.341	-85.042	-0.138	-0.043
-130.326	-174.924	-0.168	0.005
-129.312	97.439	-0.028	0.032
-128.297	-135.078	0.230	-0.027
-127.283	800.000	0.027	0.079
-126.268	-44.869	-0.126	0.062
-125.253	-73.317	-0.202	-0.073
-124.239	80.512	0.193	-0.206
-123.224	602.729	-0.108	-0.268
-122.210	-200.000	0.003	0.025
-121.195	117.602	0.064	0.079
