DTS Sentinel unit serial number:	SN413079Multiplexer serial number:	ORYXHardware model number:	OX4-SRSoftware version number:	ORYX F/W v4.00 Oryx Data Collector v3.7.2.0data status	okinstallation	princeton_trtdifferential loss correction	single-endedforward channel	channel 3reverse channel	N/Adate	2019/09/14time	18:32:35forward acquisition time	60.00reverse acquisition time	0.00gamma	496.2192k internal	0.2302k external	0.2302temperature offset calibration	1.0017default loss term (dB/km)	0.3790temperature slope calibration	1.0000multiplexer offset coefficient	1.0000multiplexer slope coefficient	1.0000fibre end	0.00T internal ref (°C)	36.52T ext. ref 1 (°C)	4.91T ext. ref 2 (°C)	30.33length (m)	temperature (°C)	Stokes	anti-Stokes-747.200	181.514	0.064	-0.096
-746.185	129.275	-0.039	-0.051
-745.171	-81.660	-0.164	0.055
-744.156	-200.000	-0.015	-0.172
-743.142	89.764	-0.102	-0.116
-742.127	-200.000	0.014	0.143
-741.112	20.482	-0.349	-0.288
-740.098	-11.151	0.127	0.085
-739.083	-151.427	-0.318	-0.024
-738.069	-33.342	-0.196	0.110
-737.054	226.832	-0.119	0.197
-736.039	800.000	-0.046	-0.168
-735.025	83.413	0.147	0.163
-734.010	72.687	-0.058	0.062
-732.996	203.553	-0.028	-0.044
-731.981	800.000	0.025	0.094
-730.966	-72.672	0.150	0.056
-729.952	-159.149	0.133	0.008
-728.937	-157.129	0.382	-0.024
-727.923	-70.428	-0.288	0.111
-726.908	800.000	0.039	-0.161
-725.894	-160.808	-0.224	0.012
-724.879	-36.445	-0.347	-0.190
-723.864	-87.839	0.164	0.050
-722.850	-23.683	0.199	0.122
-721.835	23.601	-0.126	-0.105
-720.821	-52.833	-0.230	0.108
-719.806	-200.000	-0.014	-0.166
-718.791	3.056	-0.226	-0.167
-717.777	162.435	0.210	0.300
-716.762	-165.418	0.328	0.015
-715.748	-200.000	0.003	-0.256
-714.733	-131.725	-0.041	-0.005
-713.718	382.640	0.074	-0.155
-712.704	-145.153	0.075	0.007
-711.689	-60.647	0.025	-0.011
-710.675	42.077	-0.213	-0.197
-709.660	800.000	-0.122	0.369
-708.645	-113.457	-0.229	-0.046
-707.631	-115.294	-0.315	0.061
-706.616	33.690	-0.283	-0.250
-705.602	800.000	0.110	0.435
-704.587	-200.000	-0.091	-0.565
-703.572	-159.528	0.177	-0.010
-702.558	-10.180	-0.158	0.107
-701.543	676.080	0.106	-0.281
-700.529	199.683	-0.274	-0.427
-699.514	-83.848	-0.155	-0.050
-698.499	-106.510	0.273	0.062
-697.485	162.336	0.124	-0.177
-696.470	215.295	0.119	0.193
-695.456	800.000	-0.104	0.306
-694.441	800.000	-0.032	0.093
-693.426	-200.000	-0.007	-0.265
-692.412	184.109	-0.243	-0.367
-691.397	3.939	0.161	-0.120
-690.383	-30.905	-0.492	-0.283
-689.368	36.377	0.127	-0.114
-688.354	-200.000	-0.017	-0.116
-687.339	0.459	-0.277	-0.202
-686.324	87.195	-0.107	0.121
-685.310	86.162	-0.170	0.190
-684.295	-200.000	0.058	-0.313
-683.281	130.644	0.146	0.190
-682.266	-188.380	0.239	0.003
-681.251	69.273	-0.142	-0.149
-680.237	-64.210	0.165	0.069
-679.222	-102.915	0.254	-0.061
-678.208	133.582	-0.071	0.093
-677.193	172.854	-0.081	-0.118
-676.178	17.170	0.046	-0.037
-675.164	-113.009	0.095	-0.019
-674.149	-134.494	-0.234	0.029
-673.135	140.595	-0.031	-0.042
-672.120	-57.462	-0.119	0.053
-671.105	-29.556	-0.157	-0.091
-670.091	7.311	0.257	-0.195
-669.076	-34.385	0.270	-0.151
-668.062	800.000	-0.062	-0.191
-667.047	-200.000	-0.013	-0.089
-666.032	577.784	-0.025	-0.062
-665.018	800.000	-0.072	0.227
-664.003	-114.915	-0.301	-0.058
-662.989	-99.672	-0.294	0.075
-661.974	-93.411	0.086	0.024
-660.959	800.000	-0.073	0.241
-659.945	-94.558	-0.165	0.046
-658.930	279.933	0.113	0.206
-657.916	-132.763	0.210	-0.027
-656.901	186.092	0.060	0.091
-655.886	-115.996	0.106	0.020
-654.872	183.062	-0.152	-0.229
-653.857	164.656	-0.136	0.195
-652.843	256.242	0.205	0.357
-651.828	321.763	0.023	0.045
-650.814	-161.881	0.108	0.006
-649.799	-186.378	0.167	-0.002
-648.784	101.509	-0.265	0.313
-647.770	193.281	-0.111	0.171
-646.755	-200.000	-0.058	0.411
-645.741	5.417	-0.317	0.237
-644.726	800.000	-0.017	-0.071
-643.711	-200.000	-0.007	-0.225
-642.697	-200.000	0.006	-0.042
-641.682	-115.274	-0.241	0.046
-640.668	800.000	-0.069	0.211
-639.653	-52.342	0.164	-0.077
-638.638	743.262	0.074	0.202
-637.624	-200.000	0.037	-0.189
-636.609	-41.029	0.162	-0.085
-635.595	210.364	0.135	-0.215
-634.580	85.665	-0.126	-0.141
-633.565	118.162	-0.144	0.180
-632.551	-97.043	-0.077	-0.021
-631.536	298.421	-0.060	-0.112
-630.522	-200.000	0.011	-0.116
-629.507	23.663	0.248	-0.207
-628.492	-144.708	-0.166	0.016
-627.478	-36.498	-0.139	0.076
-626.463	-200.000	-0.032	-0.312
-625.449	129.746	0.161	-0.208
-624.434	66.618	-0.093	-0.096
-623.419	-170.356	-0.232	0.008
-622.405	-200.000	-0.016	-0.162
-621.390	-160.379	-0.107	-0.006
-620.376	-100.128	0.231	-0.058
-619.361	420.778	-0.074	0.160
-618.346	-155.184	0.061	0.004
-617.332	103.952	-0.100	-0.119
-616.317	289.203	-0.147	0.270
-615.303	92.305	-0.285	0.326
-614.288	155.072	0.170	0.237
-613.273	-123.249	0.267	0.043
-612.259	800.000	0.067	-0.235
-611.244	800.000	0.071	-0.302
-610.230	-200.000	-0.007	0.036
-609.215	800.000	0.079	-0.281
-608.201	-124.356	-0.045	-0.007
-607.186	373.454	-0.069	-0.143
-606.171	-26.296	-0.248	-0.148
-605.157	-200.000	-0.310	-0.001
-604.142	-38.711	0.092	-0.049
-603.128	-57.160	-0.145	-0.065
-602.113	701.925	0.029	-0.078
-601.098	-200.000	-0.032	0.147
-600.084	-81.742	-0.118	0.039
-599.069	-25.720	-0.187	0.112
-598.055	-24.841	0.044	0.026
-597.040	42.105	0.016	-0.015
-596.025	-200.000	-0.007	0.182
-595.011	32.280	0.138	-0.121
-593.996	800.000	-0.069	0.259
-592.982	-119.645	-0.066	-0.012
-591.967	-200.000	0.033	-0.159
-590.952	-91.951	-0.505	-0.145
-589.938	-200.000	0.020	-0.159
-588.923	-110.453	-0.316	-0.066
-587.909	23.616	0.150	-0.125
-586.894	409.938	0.075	-0.162
-585.879	52.687	0.255	-0.247
-584.865	158.487	-0.109	0.154
-583.850	390.485	0.113	-0.236
-582.836	55.468	0.155	-0.152
-581.821	496.135	-0.018	-0.042
-580.806	195.686	0.152	0.234
-579.792	-200.000	0.036	-0.357
-578.777	-200.000	-0.014	-0.129
-577.763	-86.886	-0.287	-0.089
-576.748	-200.000	-0.034	0.222
-575.733	-200.000	0.049	-0.316
-574.719	-200.000	-0.034	0.327
-573.704	19.958	0.120	0.098
-572.690	-136.163	0.173	-0.021
-571.675	-16.431	-0.088	0.057
-570.661	-93.943	-0.117	-0.033
-569.646	685.184	0.079	0.208
-568.631	-62.944	0.200	-0.084
-567.617	128.477	0.076	0.098
-566.602	800.000	-0.085	0.343
-565.588	-50.476	0.260	-0.124
-564.573	-34.065	-0.274	-0.152
-563.558	111.494	-0.072	0.088
-562.544	-87.289	0.200	0.062
-561.529	-86.205	0.187	-0.058
-560.515	800.000	-0.016	-0.067
-559.500	407.797	-0.056	-0.119
-558.485	-119.222	-0.214	0.038
-557.471	88.809	0.069	0.078
-556.456	-200.000	-0.037	0.234
-555.442	68.456	0.090	0.093
-554.427	-56.556	-0.049	-0.022
-553.412	-200.000	-0.042	0.250
-552.398	-177.207	0.157	0.004
-551.383	-152.957	0.067	0.005
-550.369	65.373	-0.216	-0.221
-549.354	162.389	0.146	0.208
-548.339	-74.600	-0.093	-0.034
-547.325	93.581	0.076	-0.087
-546.310	72.586	-0.148	-0.156
-545.296	-89.273	0.257	0.077
-544.281	-73.997	0.118	0.043
-543.266	59.592	0.130	-0.130
-542.252	-141.798	0.068	-0.007
-541.237	-42.250	0.292	0.151
-540.223	800.000	0.055	0.202
-539.208	107.865	-0.112	-0.135
-538.193	70.585	0.112	0.117
-537.179	79.802	-0.043	-0.047
-536.164	206.710	0.202	-0.319
-535.150	800.000	0.076	-0.227
-534.135	-25.147	0.083	-0.050
-533.121	-4.886	-0.117	-0.081
-532.106	-62.763	-0.130	-0.054
-531.091	31.072	-0.058	0.051
-530.077	15.739	0.231	-0.184
-529.062	800.000	0.085	-0.247
-528.048	147.460	0.234	-0.319
-527.033	-119.167	-0.093	0.016
-526.018	284.020	-0.070	0.127
-525.004	-200.000	-0.027	0.288
-523.989	800.000	-0.071	-0.265
-522.975	-33.408	-0.049	-0.027
-521.960	-152.725	-0.174	-0.013
-520.945	-171.713	-0.521	-0.017
-519.931	800.000	0.012	0.040
-518.916	-80.308	0.093	0.031
-517.902	-85.544	0.255	0.080
-516.887	-180.539	-0.090	-0.002
-515.872	78.360	0.107	0.115
-514.858	30.721	0.135	-0.117
-513.843	-200.000	-0.002	0.242
-512.829	153.045	0.057	0.078
-511.814	489.634	0.077	0.177
-510.799	-56.094	0.159	0.071
-509.785	800.000	-0.013	-0.049
-508.770	251.660	0.064	0.111
-507.756	-118.437	0.316	0.057
-506.741	-105.527	0.098	-0.022
-505.726	30.900	0.128	-0.111
-504.712	-127.519	-0.191	0.028
-503.697	800.000	0.112	0.346
-502.683	-59.992	-0.229	0.099
-501.668	-200.000	0.014	0.170
-500.653	17.653	0.123	0.098
-499.639	-2.809	0.264	0.187
-498.624	-15.736	-0.141	0.091
-497.610	-200.000	-0.016	0.099
-496.595	-20.801	-0.045	0.028
-495.581	-47.191	0.283	0.139
-494.566	-200.000	0.014	-0.153
-493.551	-7.486	-0.034	0.023
-492.537	-122.676	0.266	0.043
-491.522	-96.737	0.299	0.079
-490.508	3.591	0.084	-0.062
-489.493	257.671	-0.116	0.201
-488.478	-153.853	-0.207	0.014
-487.464	238.284	0.028	0.047
-486.449	359.548	-0.127	-0.256
-485.435	235.606	0.047	0.078
-484.420	11.659	-0.087	0.067
-483.405	-200.000	-0.012	-0.181
-482.391	-81.503	0.365	-0.121
-481.376	-43.756	-0.383	0.194
-480.362	-200.000	-0.005	0.160
-479.347	-200.000	-0.008	-0.300
-478.332	58.189	0.149	0.147
-477.318	45.403	-0.140	0.130
-476.303	74.501	0.075	0.079
-475.289	75.321	0.136	-0.145
-474.274	745.298	-0.076	0.206
-473.259	-120.612	0.226	-0.039
-472.245	-154.246	0.388	-0.026
-471.230	-94.417	0.138	0.038
-470.216	-44.134	-0.203	-0.103
-469.201	800.000	-0.075	-0.227
-468.186	-82.350	-0.355	0.116
-467.172	-100.854	0.383	-0.095
-466.157	-200.000	-0.017	-0.217
-465.143	-97.018	0.240	0.063
-464.128	2.542	0.050	0.036
-463.113	30.084	-0.378	0.325
-462.099	683.922	-0.034	0.089
-461.084	2.553	0.251	0.183
-460.070	-200.000	-0.016	-0.090
-459.055	356.915	-0.098	-0.198
-458.040	-45.122	0.121	0.061
-457.026	800.000	0.068	0.221
-456.011	5.825	0.137	0.102
-454.997	225.469	0.074	0.121
-453.982	-200.000	-0.050	-0.250
-452.968	-200.000	-0.027	-0.277
-451.953	108.809	0.029	-0.035
-450.938	800.000	0.059	0.221
-449.924	-13.480	0.067	-0.044
-448.909	25.360	0.315	-0.264
-447.895	40.287	0.278	-0.252
-446.880	118.488	0.104	0.129
-445.865	729.806	0.042	-0.114
-444.851	-200.000	0.040	-0.235
-443.836	800.000	-0.052	-0.196
-442.822	-81.312	0.059	0.020
-441.807	-200.000	-0.100	-0.447
-440.792	-200.000	-0.043	-0.274
-439.778	353.974	-0.064	-0.129
-438.763	66.339	-0.088	-0.090
-437.749	220.633	0.226	0.365
-436.734	280.772	-0.100	0.180
-435.719	-70.023	-0.044	0.017
-434.705	221.859	-0.048	0.078
-433.690	256.192	-0.134	0.231
-432.676	435.707	0.216	0.472
-431.661	-200.000	0.002	-0.075
-430.646	800.000	-0.071	0.230
-429.632	800.000	-0.062	0.202
-428.617	-36.212	-0.436	0.237
-427.603	-200.000	0.034	0.301
-426.588	-200.000	-0.036	0.216
-425.573	-67.197	0.227	-0.090
-424.559	-13.723	0.185	-0.120
-423.544	-13.026	-0.269	0.176
-422.530	-87.216	0.127	-0.039
-421.515	156.708	-0.181	0.252
-420.500	-194.324	-0.281	-0.002
-419.486	800.000	0.028	-0.114
-418.471	75.535	-0.090	0.096
-417.457	800.000	-0.050	0.145
-416.442	-141.094	0.096	0.010
-415.428	-200.000	-0.042	-0.220
-414.413	60.973	0.142	-0.142
-413.398	366.552	0.123	0.250
-412.384	-77.899	-0.059	-0.021
-411.369	35.942	-0.109	0.096
-410.355	420.583	-0.134	-0.288
-409.340	134.620	0.243	-0.317
-408.325	51.108	-0.252	-0.241
-407.311	-200.000	0.007	-0.147
-406.296	800.000	-0.086	-0.312
-405.282	-145.760	-0.087	-0.008
-404.267	-200.000	-0.018	-0.160
-403.252	-117.774	0.059	0.011
-402.238	-24.836	0.205	-0.123
-401.223	-137.620	0.225	0.025
-400.209	-68.003	-0.055	-0.022
-399.194	78.289	-0.257	-0.276
-398.179	-96.649	0.076	-0.020
-397.165	127.024	0.190	0.242
-396.150	-90.015	0.121	0.036
-395.136	346.294	0.153	0.303
-394.121	800.000	-0.066	-0.259
-393.106	392.327	-0.073	-0.153
-392.092	81.394	0.040	-0.043
-391.077	-138.127	0.051	0.006
-390.063	236.735	-0.176	-0.293
-389.048	-98.901	0.220	-0.056
-388.033	16.995	-0.289	0.230
-387.019	255.826	-0.031	-0.054
-386.004	-200.000	-0.030	0.185
-384.990	119.740	-0.116	0.145
-383.975	64.989	-0.268	-0.272
-382.960	-2.356	-0.209	0.147
-381.946	-200.000	-0.009	-0.103
-380.931	135.078	-0.061	-0.080
-379.917	-200.000	-0.017	-0.381
-378.902	31.731	-0.159	0.138
-377.888	-35.834	-0.207	0.113
-376.873	302.818	-0.118	0.219
-375.858	266.053	-0.088	-0.154
-374.844	-125.281	-0.533	-0.082
-373.829	-45.517	-0.286	0.142
-372.815	-100.241	-0.095	0.024
-371.800	-200.000	0.035	-0.176
-370.785	238.869	0.135	0.225
-369.771	800.000	0.115	0.359
-368.756	474.272	-0.105	-0.238
-367.742	-120.740	-0.065	-0.011
-366.727	-164.024	-0.081	-0.004
-365.712	-14.447	0.030	0.020
-364.698	10.881	-0.107	0.082
-363.683	-200.000	-0.022	0.222
-362.669	-200.000	0.015	0.101
-361.654	1.845	0.332	0.240
-360.639	-107.807	-0.214	-0.047
-359.625	-112.537	-0.178	-0.036
-358.610	186.009	0.105	0.156
-357.596	800.000	0.057	0.183
-356.581	-77.379	0.263	-0.092
-355.566	-50.695	0.447	-0.211
-354.552	595.703	-0.042	-0.104
-353.537	538.399	0.033	-0.079
-352.523	-41.785	-0.201	-0.104
-351.508	632.153	0.064	-0.164
-350.493	-133.858	-0.171	0.021
-349.479	45.416	-0.242	-0.224
-348.464	-9.372	-0.164	-0.110
-347.450	163.951	0.089	0.125
-346.435	-200.000	0.005	0.062
-345.420	360.808	0.051	0.101
-344.406	800.000	-0.055	-0.162
-343.391	-97.179	0.060	-0.016
-342.377	-49.997	0.195	-0.093
-341.362	-146.696	-0.134	0.012
-340.348	244.376	-0.054	-0.091
-339.333	32.715	0.166	0.144
-338.318	42.061	0.084	0.077
-337.304	-136.942	0.143	-0.016
-336.289	441.042	0.075	0.165
-335.275	-167.818	0.385	0.015
-334.260	-155.447	-0.303	0.020
-333.245	471.961	-0.017	-0.037
-332.231	-27.180	-0.077	-0.045
-331.216	16.682	-0.156	-0.124
-330.202	107.068	0.100	0.120
-329.187	435.544	-0.141	0.308
-328.172	-200.000	-0.009	0.248
-327.158	157.897	0.091	0.127
-326.143	-99.152	0.150	0.038
-325.129	374.212	-0.047	-0.095
-324.114	48.322	0.232	0.218
-323.099	30.052	0.101	0.086
-322.085	154.705	-0.066	0.090
-321.070	770.592	0.045	-0.122
-320.056	-174.130	0.176	-0.005
-319.041	183.220	-0.311	0.460
-318.026	111.063	0.200	0.241
-317.012	800.000	-0.031	0.116
-315.997	-144.722	0.057	-0.005
-314.983	85.099	0.102	-0.113
-313.968	-200.000	-0.025	0.234
-312.953	-200.000	0.091	0.456
-311.939	520.986	-0.093	0.218
-310.924	-120.743	0.159	-0.027
-309.910	-200.000	0.005	-0.147
-308.895	194.157	-0.072	-0.109
-307.880	-2.546	0.233	-0.163
-306.866	655.307	-0.049	-0.127
-305.851	-197.980	0.438	-0.003
-304.837	-200.000	-0.051	0.364
-303.822	-200.000	-0.001	0.169
-302.807	-27.360	0.529	0.308
-301.793	-200.000	0.002	-0.216
-300.778	-122.708	0.415	-0.067
-299.764	800.000	-0.105	0.303
-298.749	110.600	0.146	-0.176
-297.735	-200.000	-0.031	0.207
-296.720	55.288	-0.306	0.297
-295.705	86.348	-0.097	0.107
-294.691	206.798	-0.024	0.038
-293.676	233.577	0.168	0.276
-292.662	-56.570	-0.033	-0.015
-291.647	-194.618	-0.311	-0.002
-290.632	-200.000	0.013	-0.227
-289.618	-82.264	-0.267	-0.087
-288.603	-45.941	-0.396	-0.196
-287.589	-200.000	0.040	-0.291
-286.574	-183.446	-0.226	-0.004
-285.559	-200.000	-0.039	0.178
-284.545	-200.000	0.003	0.207
-283.530	-200.000	0.029	-0.265
-282.516	-79.264	0.102	-0.035
-281.501	800.000	0.027	-0.098
-280.486	79.385	0.120	-0.129
-279.472	253.664	-0.133	0.228
-278.457	-173.619	-0.132	0.004
-277.443	10.190	0.041	-0.031
-276.428	-36.563	0.311	0.167
-275.413	-191.488	-0.331	0.003
-274.399	-200.000	-0.072	-0.344
-273.384	-128.340	0.153	-0.022
-272.370	-136.209	0.225	0.026
-271.355	-200.000	-0.013	0.105
-270.340	-172.088	-0.117	-0.004
-269.326	551.912	-0.032	-0.076
-268.311	800.000	-0.032	-0.134
-267.297	110.051	0.161	-0.193
-266.282	42.752	-0.106	-0.096
-265.267	705.593	-0.124	-0.328
-264.253	54.147	0.062	-0.059
-263.238	204.833	0.195	0.303
-262.224	-200.000	-0.038	-0.210
-261.209	-114.305	-0.276	-0.053
-260.195	800.000	-0.054	-0.157
-259.180	25.636	-0.065	-0.054
-258.165	246.981	-0.073	0.123
-257.151	-56.272	0.309	-0.137
-256.136	-200.000	-0.184	-0.000
-255.122	800.000	-0.115	-0.350
-254.107	127.429	-0.218	0.277
-253.092	107.458	-0.148	-0.176
-252.078	42.609	-0.218	0.198
-251.063	130.798	-0.027	0.035
-250.049	-19.968	-0.120	0.074
-249.034	-146.006	0.073	0.006
-248.019	-126.062	-0.163	-0.024
-247.005	-38.233	-0.285	0.151
-245.990	26.846	0.183	-0.154
-244.976	176.244	0.042	0.061
-243.961	-29.763	-0.252	0.144
-242.946	800.000	-0.024	-0.089
-241.932	-16.023	0.208	0.132
-240.917	-137.266	-0.233	0.026
-239.903	345.823	-0.111	-0.218
-238.888	-101.577	0.168	-0.041
-237.873	-41.307	0.194	-0.100
-236.859	606.211	0.077	0.193
-235.844	-58.150	-0.228	0.099
-234.830	-144.705	0.114	0.010
-233.815	-14.529	0.225	-0.145
-232.800	-200.000	0.203	-0.001
-231.786	-89.517	0.229	-0.067
-230.771	-110.491	-0.348	0.072
-229.757	575.367	0.075	-0.182
-228.742	800.000	0.051	-0.167
-227.727	-23.634	0.115	-0.069
-226.713	10.353	-0.062	-0.047
-225.698	-193.285	-0.281	0.002
-224.684	-44.736	0.058	0.029
-223.669	178.969	0.045	0.066
-222.655	800.000	-0.070	0.194
-221.640	412.060	0.173	0.367
-220.625	172.653	-0.183	0.262
-219.611	731.690	0.078	0.209
-218.596	-200.000	-0.002	-0.242
-217.582	753.587	0.050	-0.134
-216.567	19.698	0.090	-0.072
-215.552	-144.711	-0.231	0.021
-214.538	-119.621	-0.136	-0.023
-213.523	747.660	0.039	-0.104
-212.509	-119.583	-0.072	-0.012
-211.494	684.803	-0.051	-0.134
-210.479	800.000	-0.016	0.069
-209.465	272.594	-0.150	0.264
-208.450	800.000	0.079	0.312
-207.436	101.750	0.106	0.124
-206.421	704.439	0.090	0.238
-205.406	-146.495	-0.173	-0.015
-204.392	800.000	0.093	-0.266
-203.377	-32.217	-0.179	-0.100
-202.363	46.651	-0.299	0.277
-201.348	118.917	0.163	0.202
-200.333	64.169	0.125	0.125
-199.319	-200.000	0.013	-0.162
-198.304	-39.367	0.118	-0.062
-197.290	-92.019	0.170	0.048
-196.275	-174.585	-0.148	0.004
-195.260	118.639	-0.191	-0.235
-194.246	-111.174	-0.200	-0.041
-193.231	-174.609	-0.211	-0.006
-192.217	329.686	-0.049	-0.095
-191.202	258.892	-0.115	-0.198
-190.187	-15.412	-0.029	0.019
-189.173	220.302	0.208	0.333
-188.158	-31.238	0.231	0.130
-187.144	-200.000	-0.005	-0.027
-186.129	-144.687	0.238	0.022
-185.114	43.302	-0.089	-0.081
-184.100	-122.644	0.135	-0.022
-183.085	-20.412	0.319	-0.196
-182.071	800.000	0.063	-0.221
-181.056	140.438	0.041	-0.053
-180.042	-134.538	-0.418	-0.051
-179.027	-43.027	-0.194	0.098
-178.012	267.004	0.083	0.145
-176.998	70.501	0.235	-0.242
-175.983	800.000	0.079	-0.230
-174.969	-28.122	0.116	-0.067
-173.954	-111.573	0.202	-0.041
-172.939	84.636	0.080	-0.088
-171.925	-200.000	0.040	-0.183
-170.910	-88.027	0.086	0.026
-169.896	3.249	-0.253	-0.183
-168.881	-133.938	0.152	0.019
-167.866	713.109	-0.069	-0.181
-166.852	800.000	-0.055	-0.229
-165.837	-93.358	0.171	-0.047
-164.823	16.857	0.067	-0.052
-163.808	256.276	0.027	0.046
-162.793	13.547	0.159	0.123
-161.779	800.000	0.111	-0.378
-160.764	506.367	0.108	-0.249
-159.750	-126.869	0.177	0.026
-158.735	500.947	-0.104	0.239
-157.720	-38.162	-0.283	-0.150
-156.706	15.961	-0.089	0.070
-155.691	-162.858	0.179	0.009
-154.677	-86.083	-0.214	0.066
-153.662	-63.500	-0.164	-0.067
-152.647	-135.640	-0.281	0.033
-151.633	-136.507	0.181	-0.021
-150.618	800.000	0.100	-0.312
-149.604	-155.296	0.123	0.008
-148.589	20.262	-0.182	-0.146
-147.574	369.104	0.169	-0.341
-146.560	725.205	0.060	-0.158
-145.545	277.907	0.113	-0.201
-144.531	800.000	-0.096	-0.382
-143.516	79.858	0.087	-0.093
-142.502	-200.000	-0.032	-0.208
-141.487	-47.315	-0.065	-0.032
-140.472	472.114	-0.078	-0.175
-139.458	-122.660	-0.230	-0.037
-138.443	-46.066	0.169	0.083
-137.429	201.372	-0.056	0.086
-136.414	-200.000	-0.042	0.310
-135.399	-200.000	0.051	-0.293
-134.385	-200.000	0.002	0.139
-133.370	83.615	0.147	0.160
-132.356	-200.000	-0.018	0.098
-131.341	-125.448	-0.256	0.039
-130.326	-200.000	0.008	0.123
-129.312	210.680	-0.269	0.421
-128.297	-68.854	0.558	-0.214
-127.283	105.831	-0.228	-0.269
-126.268	171.990	-0.090	-0.129
-125.253	-17.149	0.267	-0.168
-124.239	-139.106	0.140	-0.015
-123.224	23.268	0.079	-0.065
-122.210	800.000	0.071	-0.231
