DTS Sentinel unit serial number:	SN413079Multiplexer serial number:	ORYXHardware model number:	OX4-SRSoftware version number:	ORYX F/W v4.00 Oryx Data Collector v3.7.2.0data status	okinstallation	princeton_trtdifferential loss correction	single-endedforward channel	channel 3reverse channel	N/Adate	2019/09/18time	21:56:34forward acquisition time	60.00reverse acquisition time	0.00gamma	496.2192k internal	0.2345k external	0.2345temperature offset calibration	0.9993default loss term (dB/km)	0.3790temperature slope calibration	1.0000multiplexer offset coefficient	1.0000multiplexer slope coefficient	1.0000fibre end	0.00T internal ref (°C)	24.62T ext. ref 1 (°C)	0.81T ext. ref 2 (°C)	18.26length (m)	temperature (°C)	Stokes	anti-Stokes-747.200	139.265	-0.282	-0.371
-746.185	-116.443	-0.328	0.061
-745.171	220.449	0.211	-0.338
-744.156	-200.000	0.001	0.060
-743.142	800.000	0.002	-0.008
-742.127	-200.000	0.007	0.172
-741.112	-74.335	-0.317	-0.114
-740.098	11.033	-0.149	-0.114
-739.083	162.027	0.325	0.456
-738.069	338.652	0.214	-0.417
-737.054	-200.000	0.028	0.143
-736.039	345.988	0.134	-0.263
-735.025	-103.943	-0.205	-0.048
-734.010	-179.735	0.192	0.004
-732.996	16.722	0.153	-0.121
-731.981	-101.730	0.333	0.081
-730.966	-60.882	-0.137	-0.058
-729.952	54.179	-0.129	0.124
-728.937	-68.849	-0.130	0.050
-727.923	-5.670	-0.242	-0.166
-726.908	-13.328	-0.381	0.247
-725.894	-16.889	-0.191	-0.121
-724.879	156.632	0.033	-0.045
-723.864	685.000	-0.078	-0.203
-722.850	-112.099	0.013	-0.003
-721.835	171.485	-0.092	0.132
-720.821	-124.174	-0.096	-0.015
-719.806	800.000	-0.063	0.215
-718.791	-200.000	-0.008	-0.102
-717.777	17.807	0.177	-0.140
-716.762	-110.543	-0.300	0.062
-715.748	-14.963	0.184	-0.118
-714.733	-69.324	-0.330	-0.126
-713.718	409.715	-0.137	-0.290
-712.704	33.621	0.212	0.184
-711.689	-71.636	0.112	-0.042
-710.675	-200.000	-0.037	0.202
-709.660	-200.000	-0.015	-0.219
-708.645	86.336	-0.201	0.221
-707.631	99.435	-0.114	-0.131
-706.616	-190.421	-0.207	0.002
-705.602	-146.277	-0.200	0.017
-704.587	10.034	0.042	-0.032
-703.572	119.784	0.220	-0.272
-702.558	-16.363	0.366	0.232
-701.543	-174.281	-0.194	0.006
-700.529	800.000	-0.039	-0.113
-699.514	-12.950	0.081	-0.052
-698.499	-34.723	0.059	-0.032
-697.485	-142.236	-0.096	0.009
-696.470	91.857	-0.173	0.194
-695.456	-200.000	0.010	0.181
-694.441	800.000	-0.044	-0.124
-693.426	640.190	0.079	-0.201
-692.412	-55.458	0.160	0.072
-691.397	181.937	-0.169	0.249
-690.383	10.768	-0.195	0.149
-689.368	515.671	0.091	-0.213
-688.354	227.384	0.046	-0.075
-687.339	800.000	-0.150	-0.571
-686.324	60.330	0.352	-0.348
-685.310	-70.149	-0.183	-0.070
-684.295	-153.879	0.626	0.043
-683.281	-123.948	-0.205	-0.032
-682.266	77.560	-0.151	-0.160
-681.251	-161.381	0.164	0.008
-680.237	-51.914	-0.105	0.049
-679.222	-85.738	0.199	0.062
-678.208	-118.095	-0.085	0.015
-677.193	-100.618	0.150	0.037
-676.178	-200.000	0.030	-0.216
-675.164	85.229	0.179	-0.197
-674.149	-99.611	0.321	-0.081
-673.135	-100.423	0.283	0.070
-672.120	-53.456	0.166	0.076
-671.105	-26.340	-0.144	0.084
-670.091	94.956	-0.160	-0.182
-669.076	-200.000	-0.054	-0.313
-668.062	448.692	0.168	0.370
-667.047	349.434	0.075	-0.148
-666.032	84.655	0.150	0.164
-665.018	-72.281	-0.384	-0.142
-664.003	800.000	0.069	0.256
-662.989	-111.397	-0.230	0.047
-661.974	-200.000	-0.018	-0.201
-660.959	138.941	-0.110	0.145
-659.945	268.690	-0.117	0.205
-658.930	-200.000	0.041	0.334
-657.916	-200.000	-0.016	0.094
-656.901	-10.842	0.269	-0.177
-655.886	-200.000	0.012	-0.219
-654.872	-120.758	-0.317	-0.053
-653.857	-128.727	-0.108	-0.015
-652.843	-53.614	0.204	-0.093
-651.828	2.641	0.176	0.127
-650.814	219.769	-0.164	0.261
-649.799	-104.443	0.240	-0.055
-648.784	-200.000	0.009	0.200
-647.770	102.162	0.075	-0.087
-646.755	0.462	0.036	-0.025
-645.741	-73.802	-0.314	0.114
-644.726	186.698	-0.101	-0.150
-643.711	-200.000	-0.019	-0.170
-642.697	13.752	-0.317	0.245
-641.682	-46.797	0.102	-0.050
-640.668	-103.825	-0.119	-0.028
-639.653	800.000	-0.018	-0.066
-638.638	-117.704	0.080	-0.014
-637.624	175.771	-0.120	-0.173
-636.609	-65.894	0.049	0.020
-635.595	800.000	0.073	-0.306
-634.580	291.362	-0.031	-0.057
-633.565	-91.176	-0.246	-0.070
-632.551	-200.000	0.001	0.387
-631.536	-200.000	0.007	-0.046
-630.522	-111.575	-0.106	-0.022
-629.507	-23.988	0.145	-0.086
-628.492	-92.008	-0.057	-0.016
-627.478	-30.551	0.389	-0.220
-626.463	-88.294	0.080	0.024
-625.449	-200.000	-0.018	-0.223
-624.434	-200.000	-0.004	0.094
-623.419	11.571	0.103	0.079
-622.405	800.000	0.063	0.246
-621.390	-4.940	0.220	0.151
-620.376	-200.000	-0.009	0.169
-619.361	-27.784	-0.221	-0.128
-618.346	-75.532	-0.108	-0.038
-617.332	40.621	-0.179	-0.161
-616.317	0.615	-0.138	0.099
-615.303	800.000	-0.020	0.081
-614.288	-200.000	0.299	0.000
-613.273	-200.000	-0.001	0.107
-612.259	111.530	-0.213	0.256
-611.244	-131.144	0.272	0.036
-610.230	419.461	-0.123	-0.263
-609.215	-200.000	-0.080	0.417
-608.201	-200.000	0.020	-0.197
-607.186	-129.916	-0.232	-0.032
-606.171	-22.740	-0.328	-0.197
-605.157	75.268	-0.269	0.283
-604.142	800.000	0.035	0.138
-603.128	-29.802	0.191	0.108
-602.113	-113.199	0.363	0.071
-601.098	-200.000	0.030	-0.199
-600.084	-167.167	-0.250	0.010
-599.069	95.767	-0.180	-0.204
-598.055	21.673	0.091	-0.074
-597.040	-85.415	0.024	-0.007
-596.025	-104.289	0.292	0.067
-595.011	377.023	-0.076	-0.155
-593.996	786.408	-0.128	-0.348
-592.982	177.552	-0.123	0.179
-591.967	-90.148	0.156	0.045
-590.952	-127.121	-0.361	0.053
-589.938	7.219	-0.297	-0.220
-588.923	800.000	-0.075	-0.323
-587.909	-99.005	-0.303	0.077
-586.894	-200.000	0.000	-0.123
-585.879	-200.000	0.033	-0.337
-584.865	-34.779	0.189	0.103
-583.850	35.881	0.038	-0.033
-582.836	800.000	0.017	-0.048
-581.821	-41.225	0.180	-0.092
-580.806	-117.509	-0.106	0.019
-579.792	-200.000	-0.059	-0.331
-578.777	356.118	0.098	0.194
-577.763	800.000	0.041	-0.173
-576.748	-85.531	-0.273	0.085
-575.733	259.502	0.093	-0.160
-574.719	137.262	-0.049	-0.064
-573.704	317.765	0.065	-0.122
-572.690	-200.000	-0.008	-0.064
-571.675	-200.000	-0.015	-0.245
-570.661	-200.000	0.090	0.406
-569.646	800.000	-0.012	0.044
-568.631	-109.796	-0.425	0.089
-567.617	53.455	0.168	0.160
-566.602	258.411	-0.150	-0.256
-565.588	480.995	0.188	0.425
-564.573	152.215	0.196	0.266
-563.558	-116.260	-0.420	-0.077
-562.544	-54.174	-0.254	0.115
-561.529	-200.000	0.048	0.500
-560.515	160.481	-0.150	-0.207
-559.500	-61.422	0.198	0.083
-558.485	-200.000	-0.017	0.170
-557.471	-106.558	-0.345	-0.076
-556.456	800.000	0.092	0.279
-555.442	-175.737	0.356	-0.010
-554.427	703.950	-0.098	-0.258
-553.412	-200.000	0.007	0.068
-552.398	-200.000	-0.051	-0.512
-551.383	-46.559	-0.186	-0.091
-550.369	-200.000	-0.061	0.303
-549.354	290.992	0.181	0.327
-548.339	119.635	-0.197	0.243
-547.325	139.820	0.127	-0.167
-546.310	800.000	0.089	-0.258
-545.296	29.397	0.123	0.104
-544.281	283.703	-0.027	0.048
-543.266	-118.135	-0.378	-0.067
-542.252	800.000	-0.047	0.156
-541.237	316.845	0.065	-0.122
-540.223	-144.865	0.326	-0.030
-539.208	522.565	-0.054	-0.127
-538.193	-200.000	0.019	-0.281
-537.179	16.200	-0.107	0.084
-536.164	-161.597	0.198	-0.010
-535.150	417.818	0.108	0.228
-534.135	-143.403	0.147	-0.014
-533.121	-85.088	-0.240	-0.074
-532.106	-134.372	-0.051	0.006
-531.091	-9.612	0.269	-0.178
-530.077	-106.741	0.427	0.094
-529.062	121.951	-0.054	0.067
-528.048	800.000	0.045	-0.143
-527.033	-18.939	-0.109	0.067
-526.018	25.352	0.140	-0.116
-525.004	-200.000	-0.001	-0.443
-523.989	-200.000	-0.003	-0.184
-522.975	202.321	-0.072	-0.110
-521.960	-99.925	0.205	-0.051
-520.945	-128.900	0.155	0.022
-519.931	-1.029	0.134	-0.094
-518.916	-200.000	0.009	-0.461
-517.902	383.526	0.118	0.240
-516.887	222.188	-0.040	0.064
-515.872	561.976	0.170	-0.407
-514.858	67.634	0.202	0.205
-513.843	-26.743	-0.145	0.084
-512.829	42.299	-0.067	0.061
-511.814	-124.070	-0.270	0.042
-510.799	150.214	0.105	0.142
-509.785	-200.000	0.045	0.198
-508.770	-200.000	-0.020	0.128
-507.756	304.573	-0.068	-0.126
-506.741	-168.259	0.089	-0.003
-505.726	-114.163	0.141	0.027
-504.712	309.265	-0.175	-0.324
-503.697	47.742	-0.046	-0.043
-502.683	518.706	-0.096	-0.223
-501.668	59.572	-0.066	0.065
-500.653	231.208	-0.163	-0.264
-499.639	160.914	0.086	-0.119
-498.624	-35.645	-0.164	0.088
-497.610	100.294	-0.144	-0.166
-496.595	-200.000	0.055	-0.312
-495.581	800.000	0.058	0.240
-494.566	62.270	-0.290	-0.287
-493.551	-200.000	-0.021	0.101
-492.537	226.727	0.183	0.294
-491.522	479.407	-0.055	0.125
-490.508	97.461	0.111	0.126
-489.493	-4.010	0.044	0.030
-488.478	212.530	-0.089	-0.139
-487.464	-27.104	-0.158	0.091
-486.449	-139.594	0.410	-0.043
-485.435	171.996	0.037	0.053
-484.420	29.520	-0.153	-0.129
-483.405	10.029	-0.155	0.117
-482.391	-200.000	0.030	-0.260
-481.376	57.584	-0.199	0.193
-480.362	-167.211	0.322	-0.013
-479.347	-187.228	-0.086	-0.001
-478.332	150.404	0.062	0.083
-477.318	-57.506	-0.158	0.069
-476.303	-101.010	-0.076	-0.018
-475.289	118.525	0.403	0.492
-474.274	389.463	-0.110	0.227
-473.259	-200.000	-0.007	-0.255
-472.245	97.769	-0.195	-0.222
-471.230	-200.000	0.022	-0.137
-470.216	68.826	0.144	-0.146
-469.201	-41.653	-0.175	0.089
-468.186	43.146	0.022	-0.020
-467.172	31.819	-0.198	0.168
-466.157	66.917	0.128	-0.129
-465.143	797.308	-0.023	0.063
-464.128	-11.746	0.327	-0.212
-463.113	-200.000	-0.018	0.182
-462.099	-94.420	-0.366	-0.099
-461.084	-140.702	0.247	0.025
-460.070	-62.627	-0.333	-0.137
-459.055	-200.000	0.024	-0.206
-458.040	147.694	-0.010	-0.014
-457.026	170.352	-0.223	-0.315
-456.011	87.284	0.113	-0.124
-454.997	20.308	-0.121	-0.096
-453.982	-55.763	0.201	0.089
-452.968	-200.000	-0.005	-0.294
-451.953	-36.451	0.174	0.093
-450.938	-143.376	-0.147	-0.014
-449.924	40.657	-0.273	0.244
-448.909	-6.908	0.218	-0.147
-447.895	-2.987	0.151	-0.104
-446.880	800.000	-0.041	0.125
-445.865	48.222	-0.130	-0.121
-444.851	368.219	0.095	-0.191
-443.836	525.157	-0.019	-0.045
-442.822	-10.949	-0.244	0.160
-441.807	-200.000	-0.009	0.059
-440.792	195.681	-0.234	0.352
-439.778	667.322	-0.041	-0.105
-438.763	99.990	-0.279	0.320
-437.749	-61.208	-0.354	0.148
-436.734	32.272	0.328	0.280
-435.719	107.762	0.052	0.061
-434.705	60.016	-0.168	-0.164
-433.690	-31.001	0.251	0.140
-432.676	348.283	0.219	0.427
-431.661	-176.940	0.047	0.001
-430.646	-57.732	0.122	-0.053
-429.632	202.326	0.164	-0.250
-428.617	-200.000	0.004	0.017
-427.603	16.301	0.140	0.109
-426.588	489.481	0.118	-0.266
-425.573	294.184	-0.091	-0.165
-424.559	3.460	0.294	-0.212
-423.544	-200.000	-0.016	-0.074
-422.530	12.681	-0.040	0.031
-421.515	-200.000	-0.001	0.294
-420.500	616.285	-0.043	0.107
-419.486	43.867	0.216	0.195
-418.471	-71.335	-0.164	-0.061
-417.457	340.504	0.065	0.125
-416.442	319.602	-0.076	-0.142
-415.428	83.213	0.131	0.141
-414.413	-130.376	0.244	0.033
-413.398	-38.778	-0.132	-0.069
-412.384	-126.392	0.330	-0.049
-411.369	207.129	0.208	0.320
-410.355	-30.399	0.346	0.194
-409.340	258.062	-0.232	0.395
-408.325	800.000	0.061	0.179
-407.311	350.734	-0.125	-0.244
-406.296	-73.393	-0.396	0.143
-405.282	-105.483	0.175	0.039
-404.267	-90.376	0.217	-0.062
-403.252	-171.920	0.152	0.005
-402.238	172.087	-0.077	0.110
-401.223	-200.000	-0.082	-0.396
-400.209	207.123	-0.101	0.156
-399.194	38.323	-0.345	0.303
-398.179	10.118	0.276	-0.207
-397.165	0.857	-0.081	-0.058
-396.150	-106.249	-0.573	0.127
-395.136	-200.000	-0.047	-0.392
-394.121	773.833	0.099	-0.268
-393.106	-74.652	0.139	-0.049
-392.092	610.849	0.077	0.190
-391.077	50.324	0.121	0.113
-390.063	-200.000	-0.082	-0.479
-389.048	38.901	-0.116	-0.102
-388.033	-200.000	-0.107	-0.474
-387.019	-112.310	-0.206	0.041
-386.004	-200.000	-0.016	-0.089
-384.990	-71.783	0.116	0.043
-383.975	142.533	-0.223	-0.292
-382.960	-20.152	-0.178	0.108
-381.946	-97.270	-0.189	-0.049
-380.931	-200.000	-0.015	-0.229
-379.917	-81.644	-0.160	-0.052
-378.902	-101.053	0.217	-0.052
-377.888	800.000	0.067	0.234
-376.873	-133.663	-0.118	0.015
-375.858	800.000	0.028	-0.112
-374.844	406.166	-0.039	0.081
-373.829	153.271	0.174	-0.235
-372.815	-22.926	-0.169	-0.101
-371.800	45.716	-0.282	-0.257
-370.785	11.201	-0.135	0.102
-369.771	294.437	0.067	-0.120
-368.756	-129.426	-0.253	0.035
-367.742	800.000	0.045	0.123
-366.727	-162.867	0.293	0.014
-365.712	-39.697	0.339	0.175
-364.698	-59.292	-0.271	-0.115
-363.683	-200.000	-0.012	0.167
-362.669	88.537	-0.049	-0.053
-361.654	800.000	0.098	0.320
-360.639	-200.000	-0.024	0.366
-359.625	-59.060	0.193	-0.082
-358.610	-200.000	0.048	0.357
-357.596	800.000	0.125	-0.350
-356.581	-200.000	-0.015	-0.156
-355.566	-200.000	-0.010	-0.312
-354.552	-193.919	0.163	-0.001
-353.537	65.737	-0.103	0.102
-352.523	-50.413	-0.356	-0.166
-351.508	-72.273	0.144	0.053
-350.493	-96.555	0.260	0.067
-349.479	172.208	0.207	-0.293
-348.464	-67.062	-0.392	-0.152
-347.450	-200.000	-0.008	0.264
-346.435	-51.558	-0.238	0.109
-345.420	-85.885	0.137	0.042
-344.406	23.752	0.135	0.109
-343.391	402.150	-0.031	-0.063
-342.377	789.419	0.049	0.132
-341.362	-76.276	-0.087	0.030
-340.348	-127.030	-0.093	-0.014
-339.333	800.000	0.069	0.231
-338.318	361.455	0.031	0.062
-337.304	-24.353	-0.207	-0.122
-336.289	-165.184	0.242	-0.011
-335.275	15.026	-0.126	0.097
-334.260	19.999	0.108	0.086
-333.245	-116.168	-0.080	0.015
-332.231	800.000	-0.086	0.265
-331.216	-200.000	-0.011	0.248
-330.202	-200.000	-0.061	-0.399
-329.187	-98.596	0.046	-0.012
-328.172	132.926	-0.063	-0.079
-327.158	800.000	0.044	-0.132
-326.143	-72.879	-0.070	-0.025
-325.129	-175.298	0.171	0.005
-324.114	576.362	0.096	0.230
-323.099	118.904	0.254	-0.309
-322.085	17.990	-0.228	0.179
-321.070	-72.053	-0.105	-0.038
-320.056	45.778	0.096	0.087
-319.041	800.000	-0.029	-0.099
-318.026	519.955	-0.033	0.075
-317.012	79.612	0.141	0.149
-315.997	301.536	-0.099	0.180
-314.983	-200.000	0.019	0.190
-313.968	-46.963	0.143	0.069
-312.953	-200.000	0.019	-0.292
-311.939	-32.302	-0.119	0.065
-310.924	-174.429	-0.179	0.005
-309.910	136.543	0.145	-0.186
-308.895	-52.976	-0.334	-0.151
-307.880	-0.006	-0.049	-0.034
-306.866	800.000	-0.062	-0.197
-305.851	-102.042	0.026	-0.006
-304.837	98.338	-0.258	0.293
-303.822	0.010	-0.166	0.117
-302.807	-140.723	0.252	-0.026
-301.793	-200.000	0.035	0.175
-300.778	800.000	0.098	0.268
-299.764	13.719	0.035	0.027
-298.749	800.000	0.060	-0.175
-297.735	-200.000	0.008	0.188
-296.720	451.945	-0.027	0.059
-295.705	-125.390	0.221	-0.033
-294.691	-82.666	0.159	0.051
-293.676	29.603	0.149	-0.124
-292.662	800.000	0.070	0.216
-291.647	-200.000	-0.020	-0.111
-290.632	60.217	-0.165	0.161
-289.618	-200.000	0.007	0.042
-288.603	82.574	0.161	0.172
-287.589	637.996	-0.044	0.110
-286.574	-200.000	-0.033	0.232
-285.559	-200.000	-0.012	0.177
-284.545	-200.000	0.198	0.000
-283.530	83.609	0.143	-0.153
-282.516	429.398	0.117	0.249
-281.501	800.000	-0.032	-0.123
-280.486	800.000	0.054	-0.201
-279.472	-173.131	0.118	-0.004
-278.457	800.000	-0.089	-0.265
-277.443	43.265	0.277	-0.249
-276.428	-164.696	0.177	-0.008
-275.413	-130.531	0.193	0.026
-274.399	41.376	-0.164	0.146
-273.384	-200.000	-0.010	0.066
-272.370	-182.649	0.192	0.003
-271.355	-83.780	-0.246	0.077
-270.340	-109.629	0.321	-0.066
-269.326	-193.907	0.128	-0.001
-268.311	84.560	0.097	-0.105
-267.297	2.823	-0.085	0.061
-266.282	800.000	-0.078	-0.219
-265.267	-200.000	-0.040	-0.304
-264.253	-45.780	0.206	-0.100
-263.238	43.176	-0.050	-0.044
-262.224	-200.000	-0.024	-0.218
-261.209	-58.269	0.088	-0.038
-260.195	-0.240	0.075	-0.052
-259.180	56.542	-0.190	-0.182
-258.165	-64.739	-0.303	-0.120
-257.151	-153.841	-0.360	0.024
-256.136	800.000	-0.057	-0.209
-255.122	-124.119	-0.108	0.017
-254.107	-200.000	-0.017	-0.361
-253.092	-199.553	0.207	-0.001
-252.078	28.992	0.064	-0.054
-251.063	-125.758	0.212	-0.031
-250.049	-7.536	-0.365	0.242
-249.034	-88.835	0.231	0.067
-248.019	-129.558	0.231	0.031
-247.005	30.141	0.153	0.128
-245.990	279.204	0.205	-0.358
-244.976	219.789	-0.324	-0.509
-243.961	-200.000	0.047	-0.270
-242.946	-99.644	0.054	0.013
-241.932	-151.977	0.076	-0.005
-240.917	25.346	0.227	-0.185
-239.903	-147.827	-0.548	-0.045
-238.888	-200.000	-0.068	0.354
-237.873	411.412	0.088	0.183
-236.859	-200.000	-0.019	0.088
-235.844	-6.960	0.254	-0.169
-234.830	183.021	0.115	0.167
-233.815	-200.000	-0.012	0.145
-232.800	217.296	0.163	0.255
-231.786	53.509	-0.220	0.207
-230.771	-200.000	0.019	-0.129
-229.757	22.555	0.097	0.077
-228.742	-74.070	-0.093	-0.033
-227.727	507.024	0.086	0.195
-226.713	800.000	-0.060	0.252
-225.698	-200.000	0.005	-0.053
-224.684	80.959	0.109	0.116
-223.669	800.000	0.072	0.232
-222.655	800.000	0.057	-0.199
-221.640	-200.000	-0.052	-0.255
-220.625	-156.234	0.128	-0.008
-219.611	-165.647	0.341	-0.015
-218.596	-200.000	-0.026	-0.174
-217.582	196.489	0.202	0.302
-216.567	-161.435	0.120	-0.006
-215.552	-200.000	-0.010	0.121
-214.538	-118.102	-0.094	-0.016
-213.523	165.582	0.041	0.057
-212.509	-131.837	0.304	0.039
-211.494	-200.000	0.014	0.275
-210.479	800.000	-0.085	0.277
-209.465	-200.000	0.003	-0.114
-208.450	-114.479	-0.144	-0.027
-207.436	-120.629	-0.169	0.028
-206.421	-18.591	-0.196	-0.120
-205.406	10.122	-0.112	0.083
-204.392	-35.114	-0.301	-0.161
-203.377	-110.960	0.086	0.017
-202.363	800.000	-0.022	0.073
-201.348	800.000	0.058	0.228
-200.333	-114.815	0.323	-0.060
-199.319	800.000	-0.012	-0.047
-198.304	-200.000	-0.016	-0.119
-197.290	-141.674	-0.226	0.022
-196.275	-28.564	-0.173	0.098
-195.260	-200.000	0.081	0.367
-194.246	-127.065	0.193	0.028
-193.231	32.888	-0.239	0.203
-192.217	-200.000	-0.010	0.261
-191.202	-143.704	0.083	0.008
-190.187	-200.000	-0.008	0.043
-189.173	11.657	-0.266	0.200
-188.158	109.778	0.296	0.347
-187.144	-82.021	-0.043	-0.014
-186.129	8.116	-0.196	-0.144
-185.114	-43.526	0.179	-0.088
-184.100	97.227	-0.119	-0.134
-183.085	-200.000	0.015	-0.077
-182.071	536.409	-0.029	0.067
-181.056	99.574	-0.048	-0.054
-180.042	784.328	0.097	-0.260
-179.027	265.115	-0.105	0.180
-178.012	170.243	0.089	-0.124
-176.998	98.336	-0.087	-0.098
-175.983	-75.632	0.292	0.101
-174.969	-98.109	-0.173	0.044
-173.954	-65.107	0.112	0.044
-172.939	-107.211	-0.166	-0.036
-171.925	-200.000	-0.005	0.289
-170.910	800.000	-0.052	0.155
-169.896	-26.794	-0.095	0.054
-168.881	-11.772	0.087	-0.056
-167.866	252.829	-0.094	0.157
-166.852	671.732	0.125	0.318
-165.837	363.176	0.066	0.129
-164.823	87.441	0.046	0.049
-163.808	-54.262	0.102	-0.045
-162.793	74.889	-0.079	0.081
-161.779	-20.395	0.226	-0.136
-160.764	-32.440	0.039	-0.021
-159.750	800.000	0.079	-0.261
-158.735	704.532	-0.078	0.201
-157.720	487.315	-0.054	0.121
-156.706	-119.439	0.112	0.019
-155.691	-76.292	-0.102	0.035
-154.677	649.066	-0.138	-0.344
-153.662	152.641	0.165	0.220
-152.647	-160.103	0.217	-0.012
-151.633	-111.481	-0.237	0.047
-150.618	88.795	-0.334	0.363
-149.604	-25.040	0.343	0.199
-148.589	-131.466	0.190	0.024
-147.574	-200.000	0.023	-0.444
-146.560	77.646	-0.170	0.177
-145.545	108.794	0.090	0.105
-144.531	-155.359	0.190	0.012
-143.516	-83.670	0.225	0.070
-142.502	200.702	-0.057	-0.085
-141.487	-59.356	0.223	-0.094
-140.472	448.424	-0.030	0.064
-139.458	-80.163	0.294	-0.096
-138.443	-92.228	0.160	0.044
-137.429	800.000	0.030	-0.084
-136.414	800.000	0.060	0.235
-135.399	-200.000	0.019	0.119
-134.385	490.386	0.090	0.201
-133.370	-130.610	0.252	0.033
-132.356	36.367	0.026	0.023
-131.341	-177.818	0.012	0.000
-130.326	-11.611	0.144	-0.092
-129.312	236.502	-0.109	-0.177
-128.297	247.709	-0.051	-0.085
-127.283	-200.000	-0.088	0.495
-126.268	16.150	0.192	0.148
-125.253	-200.000	-0.048	-0.461
-124.239	-73.913	-0.189	0.067
-123.224	-130.344	0.403	0.053
-122.210	-200.000	0.004	0.280
