DTS Sentinel unit serial number:	SN413079Multiplexer serial number:	ORYXHardware model number:	OX4-SRSoftware version number:	ORYX F/W v4.00 Oryx Data Collector v3.7.2.0data status	okinstallation	princeton_trtdifferential loss correction	single-endedforward channel	channel 3reverse channel	N/Adate	2019/09/15time	02:24:35forward acquisition time	60.00reverse acquisition time	0.00gamma	496.2192k internal	0.2322k external	0.2322temperature offset calibration	0.9969default loss term (dB/km)	0.3790temperature slope calibration	1.0000multiplexer offset coefficient	1.0000multiplexer slope coefficient	1.0000fibre end	0.00T internal ref (°C)	31.56T ext. ref 1 (°C)	4.54T ext. ref 2 (°C)	26.07length (m)	temperature (°C)	Stokes	anti-Stokes-747.200	26.715	0.112	0.095
-746.185	298.360	0.142	0.263
-745.171	-170.430	0.066	0.002
-744.156	237.066	-0.077	0.130
-743.142	-119.577	-0.439	0.077
-742.127	-9.288	-0.243	-0.164
-741.112	249.079	-0.118	0.203
-740.098	112.550	0.183	0.224
-739.083	117.915	0.179	-0.223
-738.069	43.198	-0.122	0.113
-737.054	-3.800	-0.476	0.334
-736.039	-70.672	-0.212	0.081
-735.025	495.978	0.100	-0.232
-734.010	108.382	0.116	-0.140
-732.996	-188.962	-0.160	-0.002
-731.981	6.130	-0.172	-0.129
-730.966	-41.066	0.145	-0.076
-729.952	-166.190	-0.081	-0.003
-728.937	800.000	0.060	0.187
-727.923	-55.663	-0.364	-0.165
-726.908	800.000	0.039	0.130
-725.894	-200.000	0.016	-0.077
-724.879	50.455	-0.102	0.098
-723.864	649.082	-0.074	-0.191
-722.850	-24.745	-0.141	-0.085
-721.835	-124.450	0.229	0.036
-720.821	-120.435	-0.055	-0.009
-719.806	789.196	-0.009	-0.026
-718.791	0.587	0.171	-0.123
-717.777	162.367	-0.147	-0.208
-716.762	-171.102	0.035	-0.001
-715.748	-44.459	-0.212	-0.107
-714.733	117.372	0.114	-0.142
-713.718	-135.409	0.014	-0.002
-712.704	-96.083	-0.052	-0.014
-711.689	483.503	-0.038	0.086
-710.675	-51.513	0.317	-0.149
-709.660	28.935	-0.114	0.098
-708.645	-63.665	0.227	-0.094
-707.631	-134.053	0.179	0.022
-706.616	-57.804	-0.250	-0.110
-705.602	790.489	-0.118	-0.329
-704.587	-16.119	-0.288	-0.185
-703.572	-200.000	0.018	0.196
-702.558	-160.037	-0.248	0.014
-701.543	188.331	-0.115	0.174
-700.529	171.459	-0.058	-0.084
-699.514	-4.317	-0.326	-0.227
-698.499	-124.678	0.221	-0.035
-697.485	4.111	-0.067	0.050
-696.470	-57.466	0.304	0.134
-695.456	800.000	0.090	-0.320
-694.441	-36.008	0.337	0.184
-693.426	261.865	-0.116	-0.202
-692.412	-181.149	0.191	0.004
-691.397	-161.902	0.169	-0.009
-690.383	629.003	0.074	0.188
-689.368	-3.747	-0.374	-0.262
-688.354	-200.000	-0.020	0.135
-687.339	800.000	-0.059	0.226
-686.324	-140.449	-0.206	-0.022
-685.310	-200.000	0.060	-0.296
-684.295	134.040	-0.288	0.376
-683.281	-107.985	0.077	-0.017
-682.266	-83.209	0.299	-0.097
-681.251	-200.000	0.033	0.332
-680.237	-121.448	-0.313	-0.053
-679.222	342.903	0.062	-0.121
-678.208	760.424	0.059	-0.162
-677.193	117.621	0.059	0.073
-676.178	24.290	-0.045	-0.038
-675.164	347.349	0.087	-0.173
-674.149	597.264	0.076	0.191
-673.135	-17.599	-0.286	0.181
-672.120	-131.087	-0.394	-0.053
-671.105	-84.644	0.170	-0.054
-670.091	-127.424	0.198	0.029
-669.076	456.274	-0.067	-0.150
-668.062	213.665	-0.137	-0.218
-667.047	-34.629	-0.229	-0.126
-666.032	-135.985	-0.213	-0.025
-665.018	800.000	0.045	-0.137
-664.003	800.000	-0.089	0.378
-662.989	-200.000	-0.020	0.128
-661.974	800.000	-0.048	0.145
-660.959	85.903	-0.147	0.163
-659.945	800.000	-0.093	0.339
-658.930	800.000	-0.105	-0.373
-657.916	251.650	0.262	-0.450
-656.901	-143.067	0.043	-0.004
-655.886	-200.000	0.083	0.488
-654.872	-200.000	0.054	0.533
-653.857	-74.917	-0.062	0.022
-652.843	-200.000	0.067	-0.378
-651.828	4.045	-0.179	-0.132
-650.814	14.827	-0.265	0.209
-649.799	-52.936	0.213	0.099
-648.784	-4.882	0.183	-0.127
-647.770	48.398	0.222	-0.209
-646.755	-95.353	-0.158	0.043
-645.741	-33.844	-0.114	0.063
-644.726	-200.000	0.031	0.383
-643.711	251.713	-0.139	-0.238
-642.697	800.000	0.045	0.188
-641.682	10.028	0.355	0.271
-640.668	53.707	-0.014	0.013
-639.653	-200.000	-0.008	0.260
-638.638	136.474	0.111	-0.146
-637.624	513.987	-0.103	0.241
-636.609	800.000	-0.076	-0.230
-635.595	-130.823	0.273	-0.037
-634.580	-39.511	-0.430	-0.227
-633.565	800.000	0.105	-0.297
-632.551	-2.848	0.051	-0.036
-631.536	-13.309	0.150	0.098
-630.522	170.300	-0.177	-0.256
-629.507	-200.000	0.017	0.128
-628.492	-151.667	0.204	-0.015
-627.478	800.000	-0.154	-0.553
-626.463	159.376	-0.109	-0.153
-625.449	-195.840	-0.306	0.002
-624.434	13.484	-0.131	-0.102
-623.419	-61.072	0.075	0.032
-622.405	-42.605	0.236	0.121
-621.390	244.022	0.041	-0.069
-620.376	272.715	-0.207	0.368
-619.361	-75.520	-0.140	0.050
-618.346	-73.587	0.019	-0.007
-617.332	406.590	-0.101	0.214
-616.317	-19.433	-0.248	0.155
-615.303	-10.012	-0.246	-0.165
-614.288	77.542	-0.126	0.135
-613.273	-200.000	-0.021	-0.229
-612.259	-200.000	-0.036	0.178
-611.244	320.327	0.023	0.044
-610.230	-200.000	-0.005	-0.303
-609.215	-145.162	0.180	0.016
-608.201	-200.000	0.027	-0.236
-607.186	-45.308	0.042	-0.021
-606.171	45.727	0.122	0.113
-605.157	-82.243	-0.276	-0.090
-604.142	60.920	0.166	0.165
-603.128	77.036	-0.147	0.157
-602.113	-60.263	0.224	0.096
-601.098	-91.505	-0.641	-0.184
-600.084	800.000	0.046	-0.135
-599.069	-200.000	-0.017	0.168
-598.055	800.000	-0.051	-0.157
-597.040	-200.000	0.076	0.437
-596.025	151.867	-0.138	0.189
-595.011	772.596	0.143	-0.392
-593.996	-200.000	-0.038	-0.229
-592.982	-13.243	0.170	-0.111
-591.967	155.923	-0.155	-0.215
-590.952	-97.329	-0.206	0.054
-589.938	-57.855	0.360	0.158
-588.923	-200.000	0.050	0.311
-587.909	17.189	-0.211	0.168
-586.894	-22.720	0.342	0.208
-585.879	12.969	0.124	-0.096
-584.865	79.553	-0.193	-0.208
-583.850	-126.055	0.394	-0.059
-582.836	-88.024	-0.388	0.117
-581.821	-168.447	0.092	0.004
-580.806	-109.992	-0.128	-0.027
-579.792	211.094	-0.044	-0.069
-578.777	-200.000	-0.057	0.263
-577.763	-51.900	0.033	0.015
-576.748	-156.705	0.014	0.001
-575.733	-120.397	0.067	-0.011
-574.719	109.614	-0.166	0.199
-573.704	117.729	0.178	0.220
-572.690	143.794	-0.147	0.197
-571.675	255.738	-0.260	-0.448
-570.661	-200.000	-0.007	-0.134
-569.646	-95.259	0.157	-0.042
-568.631	-41.870	0.101	0.052
-567.617	-40.289	-0.164	0.085
-566.602	-53.037	-0.041	0.019
-565.588	-200.000	0.063	0.316
-564.573	73.639	0.026	0.027
-563.558	-200.000	-0.020	0.455
-562.544	374.387	0.124	0.252
-561.529	-200.000	-0.029	0.205
-560.515	98.291	0.170	-0.196
-559.500	-7.650	0.327	0.222
-558.485	291.883	0.111	0.203
-557.471	227.950	-0.095	0.156
-556.456	-138.960	0.197	0.021
-555.442	386.590	-0.065	-0.135
-554.427	203.015	0.073	-0.113
-553.412	479.394	0.155	0.352
-552.398	-52.790	0.201	0.093
-551.383	-89.118	-0.283	-0.084
-550.369	-9.107	0.041	-0.027
-549.354	-82.858	0.425	-0.138
-548.339	-25.550	0.174	0.103
-547.325	124.406	0.111	-0.140
-546.310	-16.171	-0.121	-0.077
-545.296	-200.000	-0.034	-0.550
-544.281	-200.000	0.034	0.173
-543.266	-160.365	-0.067	-0.004
-542.252	0.743	-0.169	-0.121
-541.237	-165.361	-0.137	0.006
-540.223	781.172	-0.108	-0.295
-539.208	800.000	-0.073	-0.232
-538.193	800.000	0.091	-0.305
-537.179	-39.883	0.182	-0.095
-536.164	244.862	-0.108	-0.182
-535.150	29.582	0.113	-0.096
-534.135	158.477	-0.063	0.087
-533.121	800.000	-0.036	-0.115
-532.106	-66.892	-0.316	-0.125
-531.091	589.140	-0.049	0.121
-530.077	22.686	0.163	-0.134
-529.062	720.953	-0.059	-0.158
-528.048	-105.828	0.142	-0.032
-527.033	26.327	0.120	0.100
-526.018	770.968	-0.043	-0.117
-525.004	-80.027	-0.083	-0.028
-523.989	-89.054	-0.093	0.028
-522.975	333.970	0.104	-0.201
-521.960	-100.056	-0.157	-0.039
-520.945	-189.540	0.099	0.001
-519.931	800.000	-0.089	0.253
-518.916	-71.051	-0.070	0.026
-517.902	-200.000	0.042	-0.202
-516.887	-200.000	-0.009	-0.129
-515.872	-52.242	0.264	0.123
-514.858	23.985	-0.259	-0.214
-513.843	60.816	0.038	-0.038
-512.829	-93.149	0.103	-0.029
-511.814	-200.000	-0.042	-0.238
-510.799	129.242	-0.181	-0.231
-509.785	-149.267	-0.091	0.007
-508.770	260.679	0.184	0.318
-507.756	-200.000	-0.019	-0.186
-506.741	-128.325	-0.280	0.040
-505.726	-200.000	-0.031	0.176
-504.712	512.389	0.087	-0.203
-503.697	-46.885	0.109	-0.053
-502.683	-116.724	-0.389	0.071
-501.668	208.407	0.052	-0.081
-500.653	-36.644	0.129	0.070
-499.639	25.129	-0.392	0.326
-498.624	-59.180	-0.500	0.216
-497.610	-17.270	0.364	0.230
-496.595	159.292	-0.220	0.306
-495.581	127.045	-0.106	0.134
-494.566	-200.000	0.003	-0.191
-493.551	-73.104	0.114	0.042
-492.537	142.440	-0.102	-0.135
-491.522	455.463	0.148	0.328
-490.508	-109.557	-0.352	0.074
-489.493	-102.187	0.145	0.035
-488.478	-61.402	0.182	-0.077
-487.464	176.831	-0.079	-0.115
-486.449	-119.760	-0.320	0.055
-485.435	69.016	-0.086	-0.088
-484.420	-17.031	-0.113	-0.071
-483.405	-182.831	0.339	-0.006
-482.391	-62.254	-0.113	0.047
-481.376	-140.518	-0.197	-0.020
-480.362	0.948	-0.015	0.011
-479.347	309.240	0.121	-0.226
-478.332	-107.996	0.326	0.071
-477.318	-200.000	-0.008	-0.168
-476.303	-200.000	0.015	0.182
-475.289	-42.141	0.244	-0.125
-474.274	-3.341	-0.174	-0.121
-473.259	288.398	-0.072	-0.130
-472.245	106.632	0.106	0.125
-471.230	-127.396	-0.222	-0.032
-470.216	25.367	-0.216	-0.179
-469.201	-200.000	-0.015	0.101
-468.186	143.296	-0.086	-0.115
-467.172	97.159	-0.126	-0.145
-466.157	-32.073	-0.135	0.075
-465.143	-200.000	0.041	-0.203
-464.128	800.000	-0.051	-0.184
-463.113	-10.724	-0.049	0.032
-462.099	-58.313	0.161	0.070
-461.084	800.000	0.106	-0.413
-460.070	657.279	0.163	-0.418
-459.055	-200.000	0.001	0.280
-458.040	800.000	-0.046	-0.137
-457.026	-110.794	-0.114	0.023
-456.011	800.000	-0.117	-0.448
-454.997	-108.623	0.289	0.062
-453.982	141.383	-0.091	-0.120
-452.968	-89.179	0.179	-0.053
-451.953	-110.904	0.181	-0.037
-450.938	-110.440	0.024	-0.005
-449.924	800.000	0.090	0.334
-448.909	-28.207	0.095	0.055
-447.895	277.367	0.134	0.238
-446.880	293.833	-0.134	0.245
-445.865	-200.000	-0.009	-0.089
-444.851	755.026	-0.044	0.118
-443.836	706.019	0.113	0.297
-442.822	-95.130	0.044	0.012
-441.807	609.512	-0.062	0.153
-440.792	80.287	0.065	0.070
-439.778	255.690	-0.051	0.087
-438.763	800.000	0.010	0.035
-437.749	62.814	-0.094	-0.093
-436.734	-200.000	-0.033	-0.159
-435.719	800.000	-0.042	0.137
-434.705	-66.742	0.198	0.078
-433.690	-200.000	-0.015	0.168
-432.676	-40.291	-0.325	0.169
-431.661	31.878	-0.254	-0.219
-430.646	197.977	-0.228	0.348
-429.632	75.524	0.207	-0.218
-428.617	-55.198	-0.430	-0.193
-427.603	-200.000	-0.036	0.295
-426.588	-49.733	-0.146	0.069
-425.573	-200.000	0.062	0.297
-424.559	-200.000	-0.044	0.427
-423.544	268.671	0.137	-0.241
-422.530	-118.589	-0.097	-0.017
-421.515	-200.000	-0.039	-0.282
-420.500	98.805	-0.009	0.010
-419.486	-162.483	-0.234	0.012
-418.471	-106.698	0.172	0.038
-417.457	-53.523	0.170	-0.077
-416.442	-200.000	-0.045	-0.298
-415.428	-22.763	-0.270	0.163
-414.413	-200.000	-0.008	0.126
-413.398	0.058	-0.025	0.018
-412.384	8.157	0.128	0.096
-411.369	-200.000	-0.029	-0.164
-410.355	695.325	-0.003	0.007
-409.340	-85.052	-0.411	0.128
-408.325	24.169	0.222	-0.183
-407.311	-10.473	-0.205	0.135
-406.296	145.094	-0.160	-0.214
-405.282	-200.000	0.023	-0.334
-404.267	737.925	0.092	-0.246
-403.252	800.000	-0.083	-0.300
-402.238	655.558	0.078	-0.199
-401.223	314.337	-0.147	-0.276
-400.209	-28.279	0.391	-0.225
-399.194	-108.935	0.231	0.049
-398.179	334.622	-0.078	0.150
-397.165	-200.000	-0.013	0.264
-396.150	27.955	0.145	-0.122
-395.136	470.415	-0.054	-0.122
-394.121	-70.599	-0.146	-0.055
-393.106	-30.463	-0.209	0.118
-392.092	574.067	0.077	-0.187
-391.077	199.921	0.090	0.138
-390.063	16.064	0.030	-0.024
-389.048	-99.092	-0.270	0.068
-388.033	800.000	0.032	0.107
-387.019	301.105	-0.122	-0.225
-386.004	-117.848	0.122	-0.022
-384.990	-200.000	0.013	0.286
-383.975	138.614	-0.149	0.195
-382.960	-105.602	0.313	0.071
-381.946	-54.163	0.351	-0.159
-380.931	-88.319	-0.217	0.065
-379.917	44.146	-0.184	0.168
-378.902	-94.200	-0.103	0.028
-377.888	800.000	0.075	-0.246
-376.873	-200.000	0.028	-0.289
-375.858	800.000	0.029	-0.105
-374.844	-64.699	-0.073	0.029
-373.829	30.717	0.234	-0.199
-372.815	800.000	0.056	0.178
-371.800	468.841	0.030	0.066
-370.785	-5.828	-0.166	-0.113
-369.771	-80.315	-0.057	0.019
-368.756	-21.876	0.228	0.138
-367.742	-12.046	0.183	0.120
-366.727	-200.000	0.033	0.224
-365.712	115.954	0.137	0.167
-364.698	-71.066	-0.120	-0.045
-363.683	800.000	-0.045	-0.144
-362.669	244.647	0.093	0.155
-361.654	-47.043	-0.070	0.034
-360.639	132.302	0.045	-0.057
-359.625	-200.000	-0.039	0.288
-358.610	150.810	-0.099	0.135
-357.596	-91.079	0.182	-0.052
-356.581	218.820	0.137	-0.218
-355.566	-200.000	-0.061	-0.323
-354.552	-53.602	0.297	0.135
-353.537	-35.183	0.209	-0.113
-352.523	-85.975	0.169	-0.052
-351.508	48.706	0.186	-0.173
-350.493	800.000	-0.069	-0.216
-349.479	-182.544	0.400	-0.007
-348.464	-105.529	-0.078	-0.018
-347.450	-122.703	0.216	0.035
-346.435	-132.065	-0.267	0.035
-345.420	-94.340	-0.181	0.049
-344.406	-80.242	-0.333	-0.111
-343.391	800.000	-0.022	-0.081
-342.377	-88.294	0.129	0.039
-341.362	15.081	0.181	0.141
-340.348	198.114	0.123	-0.187
-339.333	177.021	0.106	-0.154
-338.318	-84.009	-0.007	0.002
-337.304	-200.000	0.008	0.232
-336.289	2.938	-0.069	0.050
-335.275	76.964	0.161	0.170
-334.260	-200.000	-0.002	0.047
-333.245	386.379	-0.019	0.039
-332.231	-190.046	-0.090	0.001
-331.216	-132.103	0.209	-0.027
-330.202	102.783	0.183	0.212
-329.187	-120.032	-0.194	0.033
-328.172	-11.687	0.014	0.009
-327.158	-135.319	-0.097	0.012
-326.143	28.142	0.177	0.149
-325.129	-109.047	0.149	-0.031
-324.114	-61.862	-0.218	-0.090
-323.099	120.712	0.116	-0.143
-322.085	-200.000	-0.005	0.228
-321.070	-200.000	-0.004	0.049
-320.056	504.764	-0.114	0.262
-319.041	-200.000	-0.051	0.228
-318.026	129.780	-0.146	-0.186
-317.012	-146.931	-0.297	0.025
-315.997	-106.355	0.346	0.077
-314.983	182.872	0.120	0.177
-313.968	-103.496	-0.320	0.075
-312.953	258.822	-0.099	-0.169
-311.939	-62.471	0.523	0.216
-310.924	800.000	-0.079	0.323
-309.910	225.708	0.210	0.338
-308.895	18.954	0.192	0.153
-307.880	-31.388	-0.216	-0.121
-306.866	-200.000	-0.029	-0.154
-305.851	363.650	-0.072	-0.144
-304.837	-155.230	0.351	-0.023
-303.822	3.178	-0.112	-0.081
-302.807	-111.502	-0.298	-0.060
-301.793	17.373	-0.307	0.242
-300.778	-80.469	0.492	-0.163
-299.764	800.000	0.034	0.130
-298.749	-200.000	-0.009	0.218
-297.735	-53.161	-0.312	0.142
-296.720	-36.401	0.139	0.075
-295.705	-200.000	0.014	0.271
-294.691	-118.642	-0.458	0.080
-293.676	282.481	0.196	-0.350
-292.662	800.000	-0.115	-0.324
-291.647	-52.976	-0.248	-0.113
-290.632	-200.000	-0.005	0.052
-289.618	-157.593	-0.190	-0.011
-288.603	308.405	-0.078	-0.144
-287.589	402.464	-0.077	0.161
-286.574	38.878	-0.166	-0.147
-285.559	-38.326	0.476	-0.250
-284.545	-200.000	0.018	-0.129
-283.530	-57.723	-0.142	0.062
-282.516	-100.011	0.591	-0.146
-281.501	13.138	0.312	-0.240
-280.486	-2.745	-0.139	-0.096
-279.472	495.473	0.166	0.378
-278.457	45.468	-0.062	0.057
-277.443	-100.448	-0.110	0.027
-276.428	101.563	0.288	-0.334
-275.413	123.588	0.132	0.164
-274.399	33.751	0.263	-0.227
-273.384	-166.315	-0.125	-0.005
-272.370	800.000	-0.013	-0.039
-271.355	-200.000	-0.011	-0.481
-270.340	-64.267	-0.170	0.068
-269.326	-82.426	0.190	0.061
-268.311	2.365	0.186	-0.133
-267.297	-200.000	0.013	-0.328
-266.282	-63.504	-0.158	-0.064
-265.267	443.443	0.054	0.118
-264.253	-129.911	-0.132	-0.018
-263.238	-159.849	0.223	0.012
-262.224	-11.908	0.164	0.106
-261.209	413.099	0.110	0.233
-260.195	-200.000	0.010	-0.042
-259.180	22.877	0.337	0.274
-258.165	-200.000	-0.066	0.316
-257.151	-71.079	-0.318	0.118
-256.136	-24.519	-0.138	0.082
-255.122	-200.000	-0.030	0.214
-254.107	-147.823	-0.413	0.034
-253.092	-40.698	0.094	0.048
-252.078	-200.000	-0.050	-0.379
-251.063	-114.771	0.365	-0.069
-250.049	42.086	-0.157	0.141
-249.034	-200.000	-0.001	0.120
-248.019	-190.450	-0.154	-0.002
-247.005	62.771	0.219	-0.217
-245.990	-83.110	-0.132	0.042
-244.976	68.480	0.109	0.110
-243.961	82.915	-0.050	-0.054
-242.946	-94.277	-0.167	0.045
-241.932	154.326	-0.161	0.218
-240.917	37.988	0.205	0.180
-239.903	-121.101	-0.164	-0.027
-238.888	-200.000	0.017	-0.283
-237.873	-146.611	-0.412	-0.035
-236.859	-200.000	0.015	0.086
-235.844	-192.567	-0.239	0.002
-234.830	391.858	0.107	-0.221
-233.815	166.175	0.233	0.327
-232.800	-200.000	0.053	0.374
-231.786	180.368	-0.168	0.244
-230.771	-200.000	-0.003	-0.400
-229.757	270.139	-0.032	0.056
-228.742	48.412	0.069	-0.064
-227.727	-122.699	0.160	0.026
-226.713	24.996	0.132	0.109
-225.698	-10.281	0.211	-0.139
-224.684	-200.000	-0.016	-0.134
-223.669	139.587	-0.143	-0.187
-222.655	29.554	-0.126	-0.106
-221.640	-113.289	-0.143	0.028
-220.625	-6.389	-0.121	-0.082
-219.611	684.300	0.040	-0.105
-218.596	391.164	-0.121	0.248
-217.582	72.466	0.110	0.114
-216.567	14.499	0.145	0.112
-215.552	800.000	-0.118	0.401
-214.538	-21.904	0.178	0.107
-213.523	-133.094	-0.191	0.024
-212.509	-200.000	-0.018	-0.420
-211.494	-64.598	0.171	0.069
-210.479	-9.351	0.126	-0.083
-209.465	-200.000	-0.055	-0.406
-208.450	251.253	-0.047	0.080
-207.436	-54.782	-0.276	-0.123
-206.421	195.920	0.087	-0.131
-205.406	39.122	0.209	-0.185
-204.392	-120.783	0.217	0.036
-203.377	-48.900	0.065	-0.031
-202.363	9.196	0.256	0.191
-201.348	-200.000	0.031	0.183
-200.333	95.003	0.265	0.299
-199.319	419.640	-0.108	0.229
-198.304	15.079	0.133	0.103
-197.290	223.063	0.161	0.257
-196.275	326.960	0.074	0.141
-195.260	447.627	0.066	-0.143
-194.246	-105.107	0.297	-0.067
-193.231	-129.640	-0.276	-0.038
-192.217	521.293	0.061	0.142
-191.202	-98.729	-0.266	-0.067
-190.187	-200.000	-0.012	-0.172
-189.173	18.375	0.127	0.100
-188.158	-70.158	-0.243	-0.092
-187.144	-10.237	-0.097	-0.064
-186.129	-200.000	0.007	-0.062
-185.114	13.971	-0.317	0.244
-184.100	19.769	0.214	0.170
-183.085	800.000	0.011	0.030
-182.071	64.938	-0.218	-0.218
-181.056	-96.779	0.202	-0.053
-180.042	194.373	0.177	0.265
-179.027	-19.045	-0.291	-0.179
-178.012	-41.316	-0.354	-0.180
-176.998	800.000	-0.050	-0.170
-175.983	-107.964	-0.173	-0.037
-174.969	-96.257	0.227	0.060
-173.954	468.127	0.056	-0.124
-172.939	800.000	-0.090	0.304
-171.925	-38.597	0.150	0.078
-170.910	-131.344	-0.465	-0.061
-169.896	100.274	-0.135	-0.155
-168.881	34.989	-0.059	-0.051
-167.866	-52.866	0.055	0.025
-166.852	800.000	0.032	-0.098
-165.837	360.905	-0.064	0.127
-164.823	-142.927	0.311	0.030
-163.808	-200.000	0.010	-0.276
-162.793	800.000	0.093	0.272
-161.779	-174.246	0.330	0.009
-160.764	800.000	-0.023	0.066
-159.750	-200.000	0.015	-0.119
-158.735	198.407	-0.140	0.212
-157.720	87.252	0.236	0.258
-156.706	30.334	-0.085	0.071
-155.691	-92.314	0.110	-0.031
-154.677	-13.028	0.405	-0.260
-153.662	212.096	-0.133	-0.207
-152.647	-8.308	0.096	0.064
-151.633	-18.564	-0.385	-0.237
-150.618	463.630	0.097	0.214
-149.604	28.821	0.155	0.130
-148.589	-162.321	0.049	-0.002
-147.574	-200.000	0.035	-0.266
-146.560	66.401	-0.102	-0.102
-145.545	-32.900	-0.305	-0.167
-144.531	-129.422	-0.143	-0.020
-143.516	23.716	-0.152	0.124
-142.502	517.768	-0.084	0.194
-141.487	29.918	-0.234	-0.197
-140.472	800.000	-0.065	-0.272
-139.458	-74.895	-0.313	0.111
-138.443	117.522	0.065	-0.079
-137.429	-106.008	0.017	0.004
-136.414	56.053	0.032	0.031
-135.399	-200.000	-0.020	-0.195
-134.385	-126.490	-0.134	-0.020
-133.370	-200.000	-0.024	0.199
-132.356	104.502	0.131	-0.152
-131.341	-144.206	-0.071	-0.007
-130.326	547.247	0.044	-0.105
-129.312	45.086	-0.280	-0.254
-128.297	-113.200	0.201	0.039
-127.283	-183.663	-0.262	0.004
-126.268	-20.851	0.180	0.109
-125.253	254.734	0.043	0.073
-124.239	800.000	0.048	-0.164
-123.224	234.238	-0.171	0.277
-122.210	115.640	0.102	0.123
