DTS Sentinel unit serial number:	SN413079Multiplexer serial number:	ORYXHardware model number:	OX4-SRSoftware version number:	ORYX F/W v4.00 Oryx Data Collector v3.7.2.0data status	okinstallation	princeton_trtdifferential loss correction	single-endedforward channel	channel 3reverse channel	N/Adate	2019/09/16time	19:16:35forward acquisition time	60.00reverse acquisition time	0.00gamma	496.2192k internal	0.2313k external	0.2313temperature offset calibration	0.9935default loss term (dB/km)	0.3790temperature slope calibration	1.0000multiplexer offset coefficient	1.0000multiplexer slope coefficient	1.0000fibre end	0.00T internal ref (°C)	35.00T ext. ref 1 (°C)	0.05T ext. ref 2 (°C)	28.17length (m)	temperature (°C)	Stokes	anti-Stokes-747.200	800.000	-0.049	-0.205
-746.185	98.250	-0.114	0.134
-745.171	70.465	-0.078	0.082
-744.156	-200.000	-0.020	0.138
-743.142	-57.589	0.207	-0.092
-742.127	-200.000	-0.051	0.489
-741.112	-138.170	-0.143	-0.016
-740.098	-23.654	-0.107	-0.065
-739.083	-52.932	0.150	-0.070
-738.069	800.000	-0.052	-0.155
-737.054	-200.000	0.018	-0.133
-736.039	-200.000	-0.053	-0.675
-735.025	-58.512	0.143	-0.063
-734.010	-163.616	-0.222	-0.011
-732.996	-5.392	-0.288	-0.200
-731.981	-112.718	-0.181	-0.036
-730.966	-76.381	0.188	-0.067
-729.952	85.291	-0.102	0.114
-728.937	183.137	0.240	-0.359
-727.923	61.581	-0.273	0.276
-726.908	-200.000	-0.027	-0.181
-725.894	95.682	-0.048	-0.055
-724.879	-160.161	-0.197	0.011
-723.864	486.696	-0.049	0.114
-722.850	-200.000	-0.010	0.230
-721.835	-57.643	0.098	0.043
-720.821	-94.133	0.452	0.126
-719.806	-200.000	0.004	-0.055
-718.791	-44.259	-0.196	-0.099
-717.777	42.476	0.231	0.213
-716.762	234.871	-0.154	0.257
-715.748	-200.000	-0.006	-0.071
-714.733	-135.178	0.172	-0.021
-713.718	-200.000	-0.051	0.313
-712.704	-87.861	0.376	-0.115
-711.689	-16.488	0.074	-0.047
-710.675	-200.000	-0.024	0.199
-709.660	49.746	-0.182	-0.174
-708.645	102.508	-0.097	-0.115
-707.631	60.994	-0.253	0.254
-706.616	-200.000	0.029	-0.184
-705.602	-3.557	-0.082	-0.058
-704.587	145.974	-0.150	-0.204
-703.572	3.535	0.294	-0.217
-702.558	-200.000	-0.066	0.376
-701.543	-173.966	-0.245	0.007
-700.529	498.011	0.099	0.230
-699.514	607.607	0.097	-0.245
-698.499	-9.857	-0.278	-0.187
-697.485	-1.193	0.038	-0.027
-696.470	121.980	-0.113	-0.143
-695.456	18.814	-0.160	-0.130
-694.441	-137.393	0.367	-0.042
-693.426	-118.362	-0.074	0.013
-692.412	42.321	-0.095	-0.087
-691.397	-143.064	0.427	0.042
-690.383	-38.106	0.023	-0.012
-689.368	-126.369	-0.129	-0.019
-688.354	800.000	-0.021	0.078
-687.339	85.940	-0.139	0.155
-686.324	-194.985	0.284	0.002
-685.310	-118.473	-0.084	-0.015
-684.295	-200.000	0.014	-0.093
-683.281	-38.184	0.159	-0.085
-682.266	88.081	0.172	0.193
-681.251	-64.645	0.303	0.124
-680.237	-42.378	0.163	-0.084
-679.222	113.875	-0.117	0.144
-678.208	-200.000	-0.013	-0.175
-677.193	96.321	0.215	0.249
-676.178	-79.300	-0.181	0.062
-675.164	30.769	-0.265	-0.230
-674.149	25.515	0.209	0.176
-673.135	800.000	0.069	0.241
-672.120	31.204	0.318	-0.276
-671.105	221.160	-0.123	0.199
-670.091	-2.950	-0.046	-0.032
-669.076	-200.000	0.010	0.143
-668.062	800.000	-0.072	0.254
-667.047	-200.000	0.015	0.198
-666.032	-196.261	-0.088	-0.001
-665.018	-58.626	0.146	0.064
-664.003	22.386	-0.123	0.102
-662.989	-100.819	0.417	0.104
-661.974	-81.346	0.225	-0.075
-660.959	73.076	-0.162	0.171
-659.945	91.031	0.082	0.093
-658.930	-34.416	0.088	-0.049
-657.916	246.441	-0.142	-0.241
-656.901	-4.849	-0.061	-0.043
-655.886	-200.000	-0.031	-0.190
-654.872	-139.812	-0.135	0.014
-653.857	800.000	-0.017	0.051
-652.843	13.925	-0.207	-0.163
-651.828	93.362	0.052	0.059
-650.814	-136.258	0.274	0.032
-649.799	3.745	0.014	0.010
-648.784	11.872	-0.237	0.184
-647.770	-83.465	0.082	0.027
-646.755	-145.992	0.154	-0.014
-645.741	-10.979	-0.139	-0.092
-644.726	6.309	-0.283	-0.212
-643.711	-49.878	-0.084	-0.040
-642.697	-93.426	0.205	-0.058
-641.682	321.636	-0.088	-0.169
-640.668	-33.966	-0.221	-0.123
-639.653	-68.504	-0.065	0.026
-638.638	35.846	0.167	0.149
-637.624	64.184	0.118	0.120
-636.609	-131.322	0.336	0.045
-635.595	-200.000	0.009	-0.156
-634.580	-200.000	0.028	0.163
-633.565	-107.536	-0.170	-0.038
-632.551	-200.000	0.017	0.545
-631.536	-200.000	-0.029	0.177
-630.522	-200.000	0.063	0.565
-629.507	-110.618	0.045	0.009
-628.492	325.695	0.083	-0.160
-627.478	38.393	-0.050	-0.045
-626.463	47.295	0.115	0.108
-625.449	-189.589	-0.214	0.002
-624.434	-137.573	0.428	-0.049
-623.419	800.000	0.079	-0.240
-622.405	332.992	0.119	0.232
-621.390	-37.037	0.158	0.086
-620.376	112.662	0.171	0.210
-619.361	46.933	0.170	-0.159
-618.346	251.238	-0.196	-0.337
-617.332	-14.684	-0.119	0.077
-616.317	246.418	-0.040	-0.069
-615.303	-111.570	0.312	-0.064
-614.288	-138.859	-0.331	0.036
-613.273	-7.959	-0.180	0.123
-612.259	-99.189	-0.127	-0.032
-611.244	-146.995	-0.194	-0.017
-610.230	25.838	0.126	0.106
-609.215	327.109	-0.147	-0.285
-608.201	-47.896	0.223	0.109
-607.186	-43.858	-0.135	-0.069
-606.171	-200.000	-0.020	-0.106
-605.157	604.478	0.113	-0.283
-604.142	-132.047	0.138	0.018
-603.128	133.361	-0.067	0.087
-602.113	-101.499	0.350	0.086
-601.098	92.894	-0.171	0.195
-600.084	47.325	0.140	0.132
-599.069	74.329	-0.086	0.091
-598.055	468.164	0.033	-0.074
-597.040	-200.000	0.001	-0.094
-596.025	-30.981	-0.121	-0.069
-595.011	-181.676	-0.329	-0.006
-593.996	30.389	-0.326	-0.281
-592.982	-105.547	-0.525	-0.120
-591.967	-117.418	0.360	-0.066
-590.952	-62.335	0.036	0.015
-589.938	3.159	0.043	-0.031
-588.923	-200.000	0.020	-0.113
-587.909	-200.000	-0.028	0.145
-586.894	-70.359	0.254	-0.097
-585.879	-200.000	0.025	-0.364
-584.865	-117.844	-0.180	0.033
-583.850	800.000	-0.033	-0.127
-582.836	-200.000	-0.017	0.185
-581.821	4.755	0.131	-0.097
-580.806	63.210	-0.232	0.234
-579.792	-200.000	-0.113	0.523
-578.777	800.000	0.088	0.320
-577.763	107.005	-0.121	-0.144
-576.748	276.892	-0.152	0.273
-575.733	-117.284	-0.074	-0.014
-574.719	-7.111	0.126	0.086
-573.704	-200.000	-0.017	0.292
-572.690	-3.808	-0.068	0.047
-571.675	-127.700	-0.267	-0.039
-570.661	-9.159	-0.271	-0.183
-569.646	85.968	0.038	0.042
-568.631	-200.000	0.015	-0.177
-567.617	22.557	-0.095	0.078
-566.602	401.879	0.022	0.047
-565.588	-34.873	-0.232	-0.127
-564.573	800.000	0.045	0.127
-563.558	-137.271	0.274	0.031
-562.544	-36.917	0.044	-0.024
-561.529	-149.909	0.130	-0.010
-560.515	-200.000	-0.003	-0.151
-559.500	372.556	-0.097	0.199
-558.485	746.935	-0.100	-0.272
-557.471	-34.406	-0.181	-0.100
-556.456	-124.849	-0.150	-0.023
-555.442	-200.000	0.006	0.226
-554.427	-141.346	0.320	0.033
-553.412	-200.000	0.049	-0.383
-552.398	284.003	-0.257	-0.464
-551.383	-90.612	0.140	0.041
-550.369	-3.274	0.344	0.241
-549.354	-99.135	-0.271	0.069
-548.339	-104.340	0.142	0.033
-547.325	-30.541	0.198	0.113
-546.310	800.000	-0.065	-0.251
-545.296	-120.166	0.220	-0.038
-544.281	10.416	-0.102	-0.078
-543.266	160.538	-0.065	0.092
-542.252	-59.881	0.326	-0.140
-541.237	9.907	-0.297	0.226
-540.223	51.933	-0.203	0.195
-539.208	-200.000	-0.007	-0.071
-538.193	-200.000	-0.067	-0.436
-537.179	224.131	-0.240	0.391
-536.164	-200.000	-0.010	0.497
-535.150	434.833	0.069	0.152
-534.135	-47.657	-0.315	0.154
-533.121	507.633	-0.086	0.200
-532.106	-200.000	0.021	0.230
-531.091	800.000	0.114	-0.395
-530.077	-94.039	-0.314	-0.087
-529.062	-200.000	-0.002	0.237
-528.048	201.184	-0.017	0.026
-527.033	356.745	0.186	0.374
-526.018	-57.534	0.045	0.020
-525.004	357.126	0.142	-0.286
-523.989	1.198	-0.076	-0.055
-522.975	11.176	-0.126	-0.097
-521.960	-51.054	0.241	0.114
-520.945	606.024	-0.080	-0.200
-519.931	-90.826	-0.161	0.047
-518.916	-4.013	0.214	-0.149
-517.902	-95.396	-0.043	-0.012
-516.887	76.967	-0.172	-0.183
-515.872	-200.000	-0.025	-0.189
-514.858	15.778	-0.122	-0.097
-513.843	800.000	0.062	0.264
-512.829	390.242	0.077	-0.161
-511.814	323.484	-0.060	-0.115
-510.799	4.143	0.052	0.038
-509.785	-11.666	-0.417	-0.275
-508.770	56.736	0.138	0.135
-507.756	-200.000	-0.031	0.207
-506.741	75.537	-0.176	-0.186
-505.726	-179.659	-0.157	-0.003
-504.712	273.769	0.162	-0.288
-503.697	733.885	0.110	0.296
-502.683	80.659	-0.033	-0.035
-501.668	-110.346	0.207	-0.043
-500.653	800.000	0.062	-0.225
-499.639	-200.000	-0.069	-0.347
-498.624	23.053	0.230	0.189
-497.610	37.808	-0.053	0.047
-496.595	109.024	0.166	0.199
-495.581	-45.544	-0.189	0.094
-494.566	22.400	-0.188	0.154
-493.551	-119.013	0.208	-0.037
-492.537	800.000	0.044	-0.161
-491.522	800.000	0.035	0.106
-490.508	-200.000	0.025	-0.285
-489.493	181.790	0.044	-0.064
-488.478	165.288	0.087	-0.123
-487.464	-22.112	-0.215	-0.131
-486.449	27.601	-0.214	-0.181
-485.435	484.792	-0.169	-0.387
-484.420	-50.187	0.104	-0.049
-483.405	285.197	-0.087	0.157
-482.391	-122.940	-0.144	-0.023
-481.376	-37.589	-0.290	0.155
-480.362	401.891	0.059	0.125
-479.347	89.933	-0.151	0.169
-478.332	75.793	0.037	-0.040
-477.318	180.936	-0.048	-0.071
-476.303	-200.000	-0.001	0.173
-475.289	-80.072	-0.327	0.110
-474.274	-200.000	-0.022	-0.098
-473.259	-117.221	-0.264	-0.048
-472.245	191.409	-0.114	-0.172
-471.230	-24.048	0.347	-0.208
-470.216	-45.839	-0.166	-0.082
-469.201	-26.658	-0.162	0.095
-468.186	-14.323	0.147	-0.095
-467.172	209.287	-0.135	-0.212
-466.157	-156.070	-0.064	0.004
-465.143	-178.796	0.410	-0.009
-464.128	183.536	0.125	-0.186
-463.113	-99.374	0.038	-0.010
-462.099	-149.320	-0.132	0.011
-461.084	-147.566	0.121	0.010
-460.070	157.455	0.102	-0.142
-459.055	268.365	0.213	0.374
-458.040	800.000	-0.061	-0.184
-457.026	99.134	0.180	-0.208
-456.011	-102.441	-0.100	-0.024
-454.997	85.959	0.284	0.313
-453.982	-85.360	0.150	-0.047
-452.968	800.000	0.016	0.049
-451.953	67.917	-0.193	-0.198
-450.938	407.853	0.017	-0.036
-449.924	-69.992	-0.092	0.035
-448.909	-63.752	0.125	-0.051
-447.895	-90.677	-0.314	0.091
-446.880	-200.000	0.008	-0.144
-445.865	162.159	0.068	0.095
-444.851	-200.000	0.088	-0.480
-443.836	118.721	0.084	-0.104
-442.822	46.815	0.098	-0.092
-441.807	54.938	0.047	0.045
-440.792	-58.235	0.154	-0.067
-439.778	19.227	0.208	0.167
-438.763	-200.000	0.035	-0.212
-437.749	28.302	0.088	0.075
-436.734	-139.626	0.126	0.013
-435.719	99.800	-0.223	-0.258
-434.705	800.000	-0.089	0.286
-433.690	-127.310	-0.155	0.023
-432.676	-200.000	-0.002	-0.151
-431.661	28.775	-0.180	0.152
-430.646	743.021	-0.038	-0.103
-429.632	-12.270	0.244	-0.160
-428.617	800.000	-0.136	0.382
-427.603	-200.000	-0.006	0.179
-426.588	-200.000	-0.026	-0.139
-425.573	-34.046	-0.100	0.055
-424.559	-200.000	-0.031	-0.218
-423.544	93.003	0.151	0.170
-422.530	-200.000	-0.062	-0.645
-421.515	112.581	-0.136	-0.165
-420.500	-73.790	0.378	0.138
-419.486	-105.289	0.077	0.018
-418.471	67.037	-0.274	0.279
-417.457	-0.312	0.140	0.100
-416.442	111.628	0.057	-0.068
-415.428	-12.602	-0.305	-0.199
-414.413	-1.213	0.236	-0.167
-413.398	-200.000	-0.008	0.054
-412.384	-113.210	0.159	0.031
-411.369	395.341	-0.024	0.050
-410.355	-200.000	0.013	0.187
-409.340	-61.948	-0.349	0.146
-408.325	-200.000	0.021	0.203
-407.311	316.097	0.174	-0.330
-406.296	114.315	0.187	0.228
-405.282	77.583	0.224	0.238
-404.267	-200.000	-0.006	-0.191
-403.252	208.275	0.059	-0.092
-402.238	-8.237	0.219	0.148
-401.223	174.553	-0.243	-0.351
-400.209	480.373	0.071	0.160
-399.194	-200.000	0.019	-0.087
-398.179	-127.115	-0.556	0.082
-397.165	-111.360	-0.282	-0.058
-396.150	800.000	-0.030	0.106
-395.136	254.232	0.083	0.143
-394.121	206.617	-0.049	-0.076
-393.106	-200.000	0.048	-0.267
-392.092	-200.000	0.011	-0.299
-391.077	116.942	0.065	0.080
-390.063	106.772	0.164	0.195
-389.048	-137.444	0.516	-0.058
-388.033	746.486	-0.040	0.108
-387.019	-98.799	-0.028	-0.007
-386.004	128.477	0.185	-0.236
-384.990	-200.000	0.035	-0.184
-383.975	238.472	0.055	-0.091
-382.960	162.292	-0.145	0.203
-381.946	785.464	0.078	0.215
-380.931	-111.146	0.100	-0.021
-379.917	303.785	-0.112	0.208
-378.902	800.000	-0.031	-0.131
-377.888	800.000	0.025	-0.109
-376.873	-56.734	-0.213	-0.094
-375.858	-200.000	-0.026	-0.151
-374.844	257.851	0.020	-0.035
-373.829	54.183	-0.090	-0.087
-372.815	333.003	0.036	0.070
-371.800	-101.468	0.168	0.041
-370.785	-99.827	-0.258	0.065
-369.771	800.000	-0.068	-0.272
-368.756	-98.699	-0.286	-0.073
-367.742	78.514	-0.097	0.104
-366.727	-200.000	0.007	0.073
-365.712	800.000	-0.072	-0.240
-364.698	-200.000	-0.106	-0.541
-363.683	-61.013	0.394	0.166
-362.669	-67.258	-0.239	0.094
-361.654	305.713	-0.107	0.199
-360.639	-47.319	0.103	0.050
-359.625	-88.717	0.320	-0.095
-358.610	312.175	0.037	-0.069
-357.596	-123.203	0.147	-0.023
-356.581	207.305	0.119	-0.185
-355.566	42.022	0.078	0.070
-354.552	240.650	-0.152	-0.253
-353.537	-16.370	0.174	0.110
-352.523	-101.739	0.193	-0.047
-351.508	137.435	0.077	0.101
-350.493	-200.000	0.013	0.214
-349.479	9.098	0.134	-0.101
-348.464	-200.000	0.047	-0.242
-347.450	-104.465	0.372	0.086
-346.435	-97.125	0.146	0.038
-345.420	237.411	-0.123	-0.204
-344.406	-54.448	0.153	0.069
-343.391	-61.344	0.285	-0.120
-342.377	429.190	-0.082	0.176
-341.362	-27.656	0.126	0.073
-340.348	800.000	0.017	-0.053
-339.333	-110.448	0.037	-0.008
-338.318	447.453	0.126	-0.278
-337.304	-197.176	-0.236	-0.002
-336.289	-87.153	0.148	-0.045
-335.275	-190.527	-0.259	0.003
-334.260	800.000	0.087	-0.374
-333.245	76.622	-0.045	0.047
-332.231	-151.399	-0.337	-0.025
-331.216	800.000	-0.051	0.169
-330.202	74.924	0.161	-0.169
-329.187	-4.774	-0.103	-0.071
-328.172	-145.392	0.215	0.019
-327.158	684.659	0.123	-0.320
-326.143	-200.000	-0.025	0.224
-325.129	-158.531	-0.149	0.009
-324.114	448.952	-0.061	-0.134
-323.099	-98.861	-0.239	0.060
-322.085	-18.430	0.284	0.177
-321.070	800.000	0.041	-0.128
-320.056	396.357	0.131	0.273
-319.041	-55.246	-0.108	-0.048
-318.026	-76.832	0.088	-0.031
-317.012	563.887	-0.131	0.316
-315.997	-28.559	-0.063	0.036
-314.983	-200.000	0.056	0.331
-313.968	-81.809	0.297	0.097
-312.953	-135.808	-0.507	0.060
-311.939	312.527	-0.051	0.096
-310.924	800.000	0.060	-0.239
-309.910	155.581	-0.249	-0.342
-308.895	-96.042	-0.151	0.040
-307.880	800.000	0.031	0.108
-306.866	96.629	0.118	-0.134
-305.851	340.666	0.155	-0.302
-304.837	-67.689	0.141	0.055
-303.822	-184.547	-0.158	0.003
-302.807	800.000	-0.036	-0.140
-301.793	-10.902	-0.188	0.124
-300.778	98.961	-0.035	0.040
-299.764	-136.426	0.243	-0.028
-298.749	193.137	0.084	0.127
-297.735	199.387	-0.150	0.230
-296.720	74.968	0.173	0.182
-295.705	54.756	0.124	0.119
-294.691	-2.741	-0.209	0.146
-293.676	-95.689	-0.071	-0.019
-292.662	-148.598	0.264	0.021
-291.647	295.061	-0.125	0.228
-290.632	313.657	0.058	0.109
-289.618	181.560	0.013	0.019
-288.603	-83.738	0.116	0.037
-287.589	-32.621	-0.428	0.238
-286.574	153.825	0.032	-0.043
-285.559	-89.388	0.140	0.041
-284.545	-161.919	-0.141	0.007
-283.530	-200.000	-0.024	0.191
-282.516	-112.214	0.154	0.031
-281.501	800.000	-0.038	-0.125
-280.486	-200.000	-0.005	0.163
-279.472	800.000	-0.068	0.202
-278.457	289.947	0.050	0.090
-277.443	-187.296	0.250	-0.003
-276.428	-200.000	0.027	-0.133
-275.413	-200.000	-0.049	-0.351
-274.399	-106.926	-0.074	0.016
-273.384	-51.473	-0.351	0.163
-272.370	800.000	-0.017	0.057
-271.355	578.580	-0.034	0.083
-270.340	-2.496	0.282	-0.196
-269.326	-200.000	0.024	0.130
-268.311	58.956	-0.264	0.259
-267.297	-200.000	0.014	0.393
-266.282	800.000	-0.109	0.436
-265.267	72.514	0.335	0.348
-264.253	-77.004	-0.197	0.068
-263.238	-200.000	0.052	-0.285
-262.224	-66.231	0.005	-0.002
-261.209	-39.119	0.086	0.045
-260.195	379.989	0.140	0.285
-259.180	8.929	-0.238	-0.179
-258.165	-200.000	0.007	-0.092
-257.151	270.768	0.107	-0.187
-256.136	-34.129	0.109	0.060
-255.122	268.188	-0.214	0.373
-254.107	103.154	0.226	0.264
-253.092	-97.955	-0.170	-0.044
-252.078	-200.000	0.004	0.121
-251.063	-200.000	0.046	-0.213
-250.049	125.094	0.234	-0.293
-249.034	-83.840	-0.084	0.027
-248.019	-140.514	0.173	0.018
-247.005	-134.027	-0.133	0.016
-245.990	161.968	-0.136	0.189
-244.976	-200.000	-0.010	-0.101
-243.961	-200.000	-0.004	0.083
-242.946	800.000	-0.021	0.091
-241.932	46.618	0.154	-0.142
-240.917	1.773	0.096	-0.069
-239.903	-58.464	0.051	-0.022
-238.888	-200.000	-0.042	0.242
-237.873	14.832	0.287	-0.223
-236.859	67.626	-0.130	0.132
-235.844	-179.440	0.266	-0.006
-234.830	529.987	0.067	0.158
-233.815	-56.854	0.101	-0.044
-232.800	25.584	0.176	0.146
-231.786	-104.996	0.330	-0.075
-230.771	-27.944	-0.118	0.068
-229.757	24.668	-0.102	-0.084
-228.742	31.923	0.203	-0.174
-227.727	314.764	-0.179	-0.334
-226.713	-110.143	0.429	0.089
-225.698	-35.707	-0.080	-0.043
-224.684	686.149	0.095	-0.247
-223.669	5.752	-0.224	-0.165
-222.655	-138.107	0.186	-0.021
-221.640	-137.293	-0.469	0.053
-220.625	-168.443	0.207	0.008
-219.611	-122.066	-0.182	0.030
-218.596	-158.485	0.091	0.005
-217.582	-91.525	-0.120	-0.034
-216.567	76.692	0.119	-0.126
-215.552	197.975	-0.153	0.232
-214.538	192.805	-0.100	0.151
-213.523	-63.304	0.430	-0.176
-212.509	53.524	-0.184	0.175
-211.494	-72.485	-0.145	0.053
-210.479	179.315	-0.117	0.170
-209.465	-90.153	0.323	0.093
-208.450	253.638	0.200	-0.339
-207.436	216.460	0.144	0.228
-206.421	-127.306	-0.244	0.035
-205.406	-40.284	0.297	-0.154
-204.392	-200.000	0.018	-0.166
-203.377	-200.000	-0.040	-0.212
-202.363	44.607	-0.089	0.081
-201.348	-92.732	0.551	0.153
-200.333	269.273	0.092	-0.161
-199.319	42.696	-0.327	0.296
-198.304	78.028	-0.105	0.111
-197.290	480.319	0.108	0.242
-196.275	-200.000	0.007	0.336
-195.260	175.775	-0.079	-0.113
-194.246	17.017	-0.167	-0.131
-193.231	262.525	0.137	0.236
-192.217	-76.941	-0.124	-0.043
-191.202	800.000	-0.040	-0.141
-190.187	-200.000	0.015	0.141
-189.173	-200.000	-0.006	0.069
-188.158	-57.245	0.173	0.076
-187.144	-170.581	0.246	-0.008
-186.129	121.600	0.140	0.173
-185.114	529.189	-0.083	0.195
-184.100	-63.108	-0.060	0.025
-183.085	302.460	-0.034	-0.062
-182.071	157.016	-0.133	-0.182
-181.056	-19.550	0.173	-0.106
-180.042	-42.140	-0.322	0.164
-179.027	434.918	-0.028	-0.060
-178.012	-46.064	0.437	-0.214
-176.998	-74.773	-0.057	0.020
-175.983	800.000	-0.053	-0.181
-174.969	495.128	0.113	0.258
-173.954	-200.000	0.015	0.148
-172.939	578.918	0.124	0.302
-171.925	800.000	0.058	-0.187
-170.910	162.609	-0.089	-0.123
-169.896	-119.821	-0.364	0.062
-168.881	145.867	0.170	0.226
-167.866	63.745	-0.163	0.163
-166.852	-200.000	-0.041	-0.235
-165.837	-46.308	-0.166	0.081
-164.823	-73.855	0.235	-0.085
-163.808	2.546	-0.258	-0.185
-162.793	-49.835	-0.254	-0.120
-161.779	-27.683	0.208	-0.119
-160.764	234.404	-0.290	-0.473
-159.750	443.011	-0.093	0.202
-158.735	-106.382	0.019	0.004
-157.720	-119.382	-0.201	-0.035
-156.706	800.000	0.039	-0.122
-155.691	-200.000	0.037	0.345
-154.677	-78.331	-0.368	-0.125
-153.662	336.569	0.077	-0.148
-152.647	-70.308	-0.185	0.070
-151.633	-15.850	0.132	-0.083
-150.618	-97.671	0.452	-0.116
-149.604	38.517	0.137	-0.121
-148.589	241.127	0.115	0.191
-147.574	155.841	0.134	0.183
-146.560	-31.471	0.345	-0.192
-145.545	-117.435	-0.107	-0.019
-144.531	516.574	0.068	0.158
-143.516	388.187	0.064	0.131
-142.502	-60.530	0.377	-0.159
-141.487	34.007	-0.058	0.050
-140.472	-200.000	-0.009	-0.261
-139.458	29.854	-0.265	-0.223
-138.443	-200.000	-0.033	-0.230
-137.429	-101.269	0.424	0.103
-136.414	110.939	0.204	-0.243
-135.399	800.000	-0.038	-0.148
-134.385	591.326	-0.150	0.366
-133.370	-200.000	-0.014	0.239
-132.356	-110.256	-0.152	0.031
-131.341	-200.000	-0.017	-0.093
-130.326	44.119	0.106	0.096
-129.312	-200.000	-0.007	-0.134
-128.297	-200.000	0.085	0.000
-127.283	-200.000	0.015	-0.203
-126.268	800.000	0.065	-0.186
-125.253	309.211	0.035	-0.064
-124.239	-59.151	-0.152	-0.065
-123.224	-120.634	0.246	0.041
-122.210	61.665	0.126	-0.124
-121.195	-1.101	0.214	0.150
