DTS Sentinel unit serial number:	SN413079Multiplexer serial number:	ORYXHardware model number:	OX4-SRSoftware version number:	ORYX F/W v4.00 Oryx Data Collector v3.7.2.0data status	okinstallation	princeton_trtdifferential loss correction	single-endedforward channel	channel 3reverse channel	N/Adate	2019/09/15time	09:16:35forward acquisition time	60.00reverse acquisition time	0.00gamma	496.2192k internal	0.2311k external	0.2311temperature offset calibration	0.9975default loss term (dB/km)	0.3790temperature slope calibration	1.0000multiplexer offset coefficient	1.0000multiplexer slope coefficient	1.0000fibre end	0.00T internal ref (°C)	33.31T ext. ref 1 (°C)	4.97T ext. ref 2 (°C)	30.50length (m)	temperature (°C)	Stokes	anti-Stokes-747.200	700.896	-0.127	-0.339
-746.185	154.193	-0.046	0.065
-745.171	292.318	0.084	-0.155
-744.156	180.750	0.343	0.512
-743.142	800.000	0.030	-0.109
-742.127	-158.621	0.067	-0.004
-741.112	-200.000	0.025	0.122
-740.098	-181.248	-0.138	0.003
-739.083	-133.535	0.275	-0.035
-738.069	800.000	-0.020	0.081
-737.054	-20.643	0.046	0.029
-736.039	491.579	-0.071	0.164
-735.025	-200.000	0.047	0.000
-734.010	108.760	-0.192	-0.232
-732.996	800.000	0.062	-0.218
-731.981	301.263	0.200	-0.375
-730.966	-12.106	0.280	-0.186
-729.952	10.392	0.168	-0.130
-728.937	-89.052	-0.181	-0.054
-727.923	428.561	0.143	0.312
-726.908	800.000	-0.110	0.341
-725.894	535.868	0.145	-0.350
-724.879	370.721	0.220	-0.453
-723.864	-5.508	0.078	0.055
-722.850	-200.000	0.035	-0.220
-721.835	155.411	-0.280	-0.390
-720.821	-69.521	0.265	-0.103
-719.806	203.583	-0.049	0.077
-718.791	-200.000	0.002	0.167
-717.777	-37.732	0.033	-0.018
-716.762	800.000	0.045	-0.176
-715.748	-181.012	-0.148	-0.003
-714.733	160.080	0.103	-0.146
-713.718	-200.000	-0.083	0.375
-712.704	800.000	0.020	0.071
-711.689	-36.814	0.215	0.117
-710.675	315.895	-0.075	-0.144
-709.660	44.799	-0.288	-0.268
-708.645	-161.286	0.212	0.011
-707.631	800.000	-0.076	0.294
-706.616	-130.417	-0.363	-0.050
-705.602	800.000	-0.051	0.208
-704.587	342.912	-0.165	-0.327
-703.572	-138.880	0.184	0.020
-702.558	-103.783	0.372	-0.088
-701.543	-34.552	-0.078	0.043
-700.529	6.586	-0.086	0.065
-699.514	-89.064	0.115	-0.034
-698.499	-200.000	-0.001	-0.059
-697.485	-33.705	0.381	0.213
-696.470	-119.760	0.162	-0.028
-695.456	192.011	-0.128	0.196
-694.441	-108.709	-0.036	0.008
-693.426	800.000	0.066	-0.197
-692.412	-123.085	-0.423	-0.069
-691.397	-200.000	0.009	-0.258
-690.383	-200.000	0.001	0.329
-689.368	-88.861	-0.183	0.055
-688.354	147.221	0.072	-0.099
-687.339	473.588	0.010	-0.024
-686.324	-92.676	-0.267	-0.076
-685.310	72.006	-0.178	-0.187
-684.295	-19.051	-0.272	-0.171
-683.281	-200.000	-0.021	-0.194
-682.266	27.640	0.213	-0.181
-681.251	-200.000	0.010	-0.353
-680.237	46.804	0.200	-0.188
-679.222	-179.477	-0.125	0.003
-678.208	-200.000	0.030	0.233
-677.193	-128.928	-0.158	0.022
-676.178	232.439	-0.062	0.103
-675.164	-60.139	0.097	-0.042
-674.149	478.957	-0.127	0.291
-673.135	800.000	0.047	0.147
-672.120	-38.543	-0.162	0.087
-671.105	-65.087	0.299	-0.122
-670.091	-200.000	-0.037	0.201
-669.076	44.368	-0.242	0.224
-668.062	-25.959	-0.104	0.062
-667.047	-94.504	0.096	0.026
-666.032	366.438	-0.201	-0.411
-665.018	255.745	-0.125	0.217
-664.003	-200.000	0.044	0.201
-662.989	-92.607	0.253	-0.072
-661.974	-108.224	-0.159	-0.035
-660.959	-60.714	-0.094	0.040
-659.945	320.050	-0.073	-0.140
-658.930	-163.967	-0.175	0.008
-657.916	800.000	-0.098	0.412
-656.901	5.720	-0.290	0.217
-655.886	-85.292	-0.248	-0.078
-654.872	-104.811	-0.132	-0.031
-653.857	53.319	0.177	-0.172
-652.843	800.000	0.058	0.218
-651.828	39.039	-0.211	0.191
-650.814	-50.117	-0.065	0.031
-649.799	4.609	-0.251	-0.186
-648.784	-169.526	-0.264	0.010
-647.770	58.388	0.159	-0.157
-646.755	-132.809	-0.213	-0.027
-645.741	-162.531	-0.054	0.003
-644.726	-181.795	-0.089	0.002
-643.711	-31.385	-0.318	0.181
-642.697	191.078	-0.085	-0.129
-641.682	-131.676	-0.368	0.049
-640.668	217.405	0.174	0.281
-639.653	-200.000	0.002	0.125
-638.638	800.000	-0.123	0.394
-637.624	-108.918	-0.223	0.048
-636.609	-200.000	0.031	0.166
-635.595	-200.000	0.012	0.300
-634.580	-200.000	0.016	0.278
-633.565	-169.936	-0.119	0.004
-632.551	-171.330	0.115	-0.004
-631.536	694.095	-0.050	0.133
-630.522	-9.117	-0.169	0.115
-629.507	-137.131	-0.211	-0.024
-628.492	-20.455	0.104	-0.065
-627.478	-10.058	0.171	-0.115
-626.463	-15.120	0.170	-0.110
-625.449	51.554	0.313	-0.300
-624.434	-200.000	0.007	-0.364
-623.419	160.616	0.084	0.119
-622.405	216.466	0.108	0.174
-621.390	21.079	0.206	-0.169
-620.376	-200.000	-0.037	0.402
-619.361	800.000	-0.045	0.165
-618.346	-200.000	-0.012	0.171
-617.332	434.251	0.066	0.144
-616.317	-102.743	-0.136	-0.033
-615.303	753.959	0.037	-0.100
-614.288	-38.644	-0.314	-0.167
-613.273	170.227	-0.119	0.172
-612.259	-58.182	-0.114	-0.050
-611.244	-200.000	-0.028	0.252
-610.230	313.355	0.029	-0.056
-609.215	147.500	0.147	0.200
-608.201	7.856	0.169	-0.128
-607.186	-164.770	0.128	0.006
-606.171	-97.010	-0.033	0.009
-605.157	679.915	0.126	0.331
-604.142	50.141	0.358	-0.341
-603.128	-71.305	-0.044	0.016
-602.113	-133.792	0.255	-0.032
-601.098	-200.000	0.024	0.138
-600.084	-94.941	0.223	-0.061
-599.069	22.029	-0.301	-0.248
-598.055	-200.000	-0.003	-0.125
-597.040	770.248	-0.080	-0.220
-596.025	-109.720	-0.137	-0.029
-595.011	92.821	-0.110	-0.125
-593.996	-56.606	0.076	-0.034
-592.982	-200.000	-0.008	0.121
-591.967	28.213	0.174	-0.148
-590.952	-6.255	0.199	0.137
-589.938	170.090	-0.026	-0.037
-588.923	-200.000	-0.036	0.246
-587.909	-200.000	-0.017	-0.138
-586.894	704.697	-0.118	0.314
-585.879	22.398	-0.083	0.068
-584.865	800.000	0.034	-0.138
-583.850	-181.533	0.231	0.005
-582.836	354.176	-0.071	-0.142
-581.821	586.242	-0.067	-0.167
-580.806	226.100	-0.024	0.040
-579.792	-26.722	-0.076	-0.045
-578.777	188.310	0.089	-0.134
-577.763	23.347	-0.220	-0.183
-576.748	220.373	0.095	-0.153
-575.733	178.140	-0.129	-0.190
-574.719	-200.000	0.050	0.314
-573.704	-88.230	-0.181	0.055
-572.690	213.873	0.097	0.154
-571.675	-115.502	-0.204	0.039
-570.661	144.147	0.045	-0.060
-569.646	67.220	-0.105	0.108
-568.631	-200.000	-0.056	-0.368
-567.617	-192.972	0.207	0.002
-566.602	-200.000	0.009	-0.196
-565.588	338.983	0.045	-0.089
-564.573	800.000	-0.002	-0.007
-563.558	-0.898	0.095	0.068
-562.544	18.434	-0.025	0.020
-561.529	175.783	0.106	-0.155
-560.515	-200.000	-0.007	0.064
-559.500	-79.653	0.370	0.126
-558.485	135.445	-0.105	0.138
-557.471	-45.752	0.036	0.018
-556.456	43.576	0.169	0.156
-555.442	28.279	-0.445	0.379
-554.427	-177.341	-0.011	-0.000
-553.412	800.000	-0.120	0.338
-552.398	43.758	0.083	0.076
-551.383	-200.000	-0.001	0.173
-550.369	688.436	0.010	0.027
-549.354	800.000	0.068	-0.221
-548.339	800.000	-0.131	-0.385
-547.325	16.928	-0.106	0.084
-546.310	280.926	-0.123	0.222
-545.296	343.472	-0.208	0.411
-544.281	800.000	-0.095	-0.410
-543.266	538.105	0.123	0.294
-542.252	75.984	-0.069	0.074
-541.237	-127.769	0.293	-0.043
-540.223	212.495	0.037	0.058
-539.208	47.014	0.137	0.128
-538.193	90.206	0.217	0.245
-537.179	-200.000	-0.033	0.188
-536.164	-3.637	-0.061	0.043
-535.150	623.127	0.019	0.048
-534.135	-200.000	0.002	-0.068
-533.121	-67.696	-0.164	0.064
-532.106	-2.536	-0.058	-0.041
-531.091	44.468	-0.103	-0.096
-530.077	-104.915	-0.343	0.079
-529.062	-200.000	0.023	0.282
-528.048	-33.056	0.087	-0.048
-527.033	398.914	0.098	0.207
-526.018	14.625	0.129	0.101
-525.004	-125.706	-0.243	-0.037
-523.989	-200.000	-0.063	-0.280
-522.975	-200.000	-0.016	0.189
-521.960	-200.000	-0.008	-0.191
-520.945	-67.091	-0.286	0.114
-519.931	-200.000	-0.009	-0.142
-518.916	260.813	-0.031	0.055
-517.902	800.000	0.030	-0.087
-516.887	-140.659	-0.351	0.037
-515.872	-102.841	-0.356	0.085
-514.858	16.457	0.126	-0.100
-513.843	109.814	-0.140	0.169
-512.829	800.000	-0.134	-0.442
-511.814	-63.806	-0.079	0.032
-510.799	-91.010	-0.233	-0.067
-509.785	47.555	0.133	-0.125
-508.770	-148.618	-0.420	-0.034
-507.756	800.000	-0.098	-0.291
-506.741	-200.000	0.017	0.294
-505.726	-130.477	0.446	0.061
-504.712	-162.755	-0.138	0.007
-503.697	-200.000	-0.003	-0.054
-502.683	-200.000	-0.001	0.075
-501.668	-200.000	-0.011	-0.100
-500.653	-10.462	0.291	0.194
-499.639	-128.073	-0.021	0.003
-498.624	-62.975	-0.405	-0.168
-497.610	-140.209	-0.160	-0.017
-496.595	-128.991	0.317	0.045
-495.581	24.144	-0.146	-0.121
-494.566	-200.000	-0.035	0.294
-493.551	38.650	-0.254	-0.228
-492.537	-109.613	-0.130	-0.027
-491.522	-112.181	-0.175	-0.035
-490.508	-71.180	-0.389	0.147
-489.493	-65.584	-0.360	-0.145
-488.478	-49.464	0.331	-0.159
-487.464	-33.799	-0.083	-0.046
-486.449	-153.176	0.410	0.029
-485.435	54.332	-0.071	0.068
-484.420	72.873	0.226	-0.237
-483.405	-111.604	-0.191	-0.039
-482.391	-75.060	0.082	0.030
-481.376	6.384	-0.085	0.063
-480.362	30.499	-0.165	0.142
-479.347	-173.727	0.297	-0.009
-478.332	-104.816	-0.097	0.022
-477.318	-3.881	0.175	-0.122
-476.303	-200.000	0.006	-0.107
-475.289	96.375	-0.161	-0.186
-474.274	2.537	-0.319	-0.232
-473.259	-176.010	-0.116	-0.003
-472.245	-200.000	0.080	0.386
-471.230	509.896	-0.162	0.377
-470.216	800.000	-0.088	-0.290
-469.201	117.473	0.061	0.075
-468.186	-120.281	0.331	-0.057
-467.172	-1.982	0.217	-0.153
-466.157	-179.657	-0.447	0.010
-465.143	-175.573	0.250	-0.007
-464.128	-40.229	-0.117	0.061
-463.113	183.161	0.032	0.047
-462.099	800.000	-0.013	0.055
-461.084	-67.392	0.232	-0.091
-460.070	800.000	-0.108	-0.330
-459.055	209.551	0.093	-0.147
-458.040	-40.478	0.078	-0.041
-457.026	562.391	-0.081	0.198
-456.011	-58.510	0.168	-0.073
-454.997	16.198	0.277	0.219
-453.982	-94.285	-0.247	-0.068
-452.968	167.719	-0.122	-0.175
-451.953	-109.460	0.172	-0.037
-450.938	-162.612	-0.343	0.017
-449.924	-115.561	0.113	-0.021
-448.909	212.816	0.088	0.140
-447.895	344.529	0.047	0.092
-446.880	22.346	0.185	0.152
-445.865	-200.000	0.026	0.196
-444.851	-81.701	-0.152	-0.050
-443.836	132.757	-0.130	0.169
-442.822	-56.547	-0.160	0.071
-441.807	56.360	0.171	-0.167
-440.792	-132.336	-0.231	0.030
-439.778	800.000	0.119	0.334
-438.763	-200.000	-0.049	-0.373
-437.749	-200.000	0.021	-0.364
-436.734	50.619	0.112	0.106
-435.719	-138.639	-0.143	0.016
-434.705	-79.111	0.307	-0.105
-433.690	141.195	-0.075	-0.099
-432.676	-27.850	-0.155	-0.090
-431.661	69.319	0.086	0.089
-430.646	201.179	-0.145	0.223
-429.632	-200.000	0.051	0.224
-428.617	-200.000	-0.024	-0.343
-427.603	-200.000	0.032	-0.210
-426.588	42.197	-0.220	0.200
-425.573	-111.157	-0.064	0.013
-424.559	446.252	-0.047	0.103
-423.544	538.475	-0.103	0.246
-422.530	183.286	0.108	-0.160
-421.515	53.617	-0.243	-0.234
-420.500	-143.310	0.228	-0.022
-419.486	-92.281	0.162	-0.046
-418.471	423.712	-0.171	-0.368
-417.457	-200.000	-0.023	-0.248
-416.442	-200.000	-0.001	-0.263
-415.428	-131.208	-0.269	-0.036
-414.413	-91.616	0.394	0.112
-413.398	-145.592	-0.137	0.012
-412.384	25.052	-0.185	-0.154
-411.369	-132.830	-0.367	0.047
-410.355	-200.000	0.006	-0.118
-409.340	-142.810	0.243	0.024
-408.325	-200.000	-0.003	-0.050
-407.311	273.334	0.127	-0.224
-406.296	25.574	0.216	-0.180
-405.282	-78.409	0.146	0.050
-404.267	-200.000	-0.015	0.125
-403.252	800.000	-0.066	0.226
-402.238	-7.840	0.196	-0.132
-401.223	-106.173	0.455	-0.102
-400.209	110.048	-0.223	-0.269
-399.194	-36.534	-0.286	-0.154
-398.179	-118.526	-0.197	0.035
-397.165	-83.031	0.057	0.018
-396.150	42.061	-0.146	-0.133
-395.136	-10.717	0.152	0.101
-394.121	-72.311	0.114	0.042
-393.106	800.000	-0.028	-0.111
-392.092	-54.757	0.133	0.060
-391.077	800.000	-0.034	0.140
-390.063	388.407	-0.052	0.107
-389.048	145.099	0.093	-0.125
-388.033	343.601	-0.067	-0.131
-387.019	-160.538	0.112	-0.006
-386.004	800.000	0.087	0.262
-384.990	532.706	-0.156	0.369
-383.975	-168.893	0.221	-0.008
-382.960	-115.042	0.103	-0.020
-381.946	-200.000	-0.037	0.377
-380.931	227.084	-0.048	0.077
-379.917	250.263	0.131	0.222
-378.902	9.131	-0.187	-0.141
-377.888	209.830	0.101	0.159
-376.873	-200.000	-0.032	-0.199
-375.858	-200.000	0.001	0.058
-374.844	-70.355	0.064	0.024
-373.829	-29.720	0.110	-0.063
-372.815	-200.000	-0.013	-0.095
-371.800	-133.437	-0.271	0.034
-370.785	-38.234	0.111	0.059
-369.771	532.151	-0.077	-0.182
-368.756	-41.735	-0.228	0.117
-367.742	-200.000	0.041	-0.247
-366.727	-95.025	0.139	-0.038
-365.712	800.000	-0.157	0.438
-364.698	800.000	-0.028	-0.104
-363.683	44.289	0.136	0.125
-362.669	61.249	0.159	-0.158
-361.654	-66.175	-0.090	0.036
-360.639	-40.083	-0.290	-0.151
-359.625	634.727	0.045	-0.115
-358.610	-165.024	-0.251	-0.011
-357.596	800.000	0.085	0.247
-356.581	800.000	-0.067	-0.290
-355.566	-200.000	0.030	-0.165
-354.552	-1.466	0.137	-0.096
-353.537	-39.001	0.165	-0.087
-352.523	-12.342	0.214	-0.140
-351.508	-97.312	-0.229	-0.060
-350.493	415.810	0.059	0.126
-349.479	-26.213	0.191	0.112
-348.464	489.744	0.110	0.251
-347.450	547.481	0.074	-0.177
-346.435	22.336	0.369	-0.301
-345.420	318.334	-0.116	0.219
-344.406	-131.764	0.323	0.042
-343.391	88.980	0.043	-0.048
-342.377	-26.352	0.290	-0.170
-341.362	-114.366	0.139	-0.027
-340.348	22.959	-0.273	-0.224
-339.333	-200.000	-0.003	0.201
-338.318	800.000	-0.015	-0.054
-337.304	87.360	0.182	-0.202
-336.289	135.949	0.155	-0.202
-335.275	-71.491	-0.155	0.058
-334.260	-17.470	0.259	0.162
-333.245	-102.606	-0.236	0.056
-332.231	-200.000	0.002	0.161
-331.216	-60.794	-0.109	0.046
-330.202	-183.244	0.172	-0.003
-329.187	-42.326	-0.140	0.071
-328.172	178.009	-0.115	0.168
-327.158	-44.308	-0.287	0.143
-326.143	-29.596	0.204	-0.116
-325.129	-200.000	-0.025	0.112
-324.114	-200.000	0.048	0.246
-323.099	44.536	0.251	-0.230
-322.085	800.000	0.096	0.372
-321.070	800.000	0.042	0.147
-320.056	97.714	-0.083	0.095
-319.041	-200.000	-0.050	-0.258
-318.026	35.728	0.316	-0.277
-317.012	73.839	0.091	0.095
-315.997	29.290	-0.153	0.130
-314.983	-44.546	-0.104	0.052
-313.968	87.586	0.049	0.054
-312.953	-54.297	0.119	0.054
-311.939	-95.475	-0.189	0.051
-310.924	143.628	-0.155	0.206
-309.910	-64.594	0.123	0.050
-308.895	-110.072	0.249	0.052
-307.880	800.000	-0.065	0.187
-306.866	-32.128	-0.216	0.120
-305.851	191.550	0.100	-0.151
-304.837	9.388	0.216	-0.163
-303.822	-74.033	-0.093	-0.034
-302.807	-200.000	0.044	0.329
-301.793	21.776	0.177	-0.144
-300.778	57.116	0.172	0.168
-299.764	-40.588	0.313	0.162
-298.749	93.877	0.056	-0.063
-297.735	100.693	-0.310	-0.359
-296.720	262.300	0.146	0.252
-295.705	800.000	0.044	0.182
-294.691	91.882	-0.296	0.333
-293.676	-2.168	-0.229	-0.161
-292.662	-33.970	0.147	0.081
-291.647	13.999	-0.188	-0.146
-290.632	-79.016	0.215	-0.073
-289.618	545.313	0.039	0.093
-288.603	-200.000	0.021	-0.159
-287.589	-157.662	-0.203	-0.012
-286.574	209.563	-0.112	0.174
-285.559	577.466	-0.112	-0.274
-284.545	-82.193	-0.081	-0.026
-283.530	187.350	0.175	0.260
-282.516	-200.000	-0.010	-0.157
-281.501	-200.000	-0.023	-0.140
-280.486	-61.481	0.051	-0.021
-279.472	146.614	-0.141	0.188
-278.457	-110.928	0.355	-0.073
-277.443	101.753	-0.115	-0.133
-276.428	311.725	0.115	0.214
-275.413	-38.362	0.126	0.067
-274.399	-200.000	0.125	-0.001
-273.384	800.000	0.066	-0.196
-272.370	-200.000	0.021	0.183
-271.355	-123.675	0.138	-0.022
-270.340	-187.759	0.158	-0.002
-269.326	-73.969	-0.179	-0.065
-268.311	-20.523	-0.113	0.069
-267.297	-200.000	0.004	0.082
-266.282	-118.337	-0.062	-0.011
-265.267	-13.941	-0.113	-0.072
-264.253	417.020	0.217	0.463
-263.238	-10.791	0.112	0.074
-262.224	800.000	-0.067	-0.239
-261.209	-16.582	-0.222	0.140
-260.195	-137.211	0.127	-0.014
-259.180	-35.838	0.143	-0.077
-258.165	706.064	0.118	0.311
-257.151	-121.190	0.155	0.026
-256.136	797.102	-0.148	-0.406
-255.122	-200.000	0.019	-0.311
-254.107	800.000	0.090	-0.319
-253.092	-121.767	0.393	-0.065
-252.078	171.261	0.045	0.064
-251.063	-131.673	0.236	-0.031
-250.049	85.083	0.112	0.123
-249.034	-200.000	-0.067	0.315
-248.019	12.133	-0.248	0.190
-247.005	-43.579	-0.177	0.089
-245.990	6.782	0.028	-0.021
-244.976	-79.946	-0.060	-0.020
-243.961	32.476	0.272	-0.234
-242.946	-88.877	-0.198	0.059
-241.932	-200.000	0.012	-0.085
-240.917	170.418	0.173	0.246
-239.903	265.753	-0.072	-0.124
-238.888	163.551	-0.041	0.058
-237.873	800.000	-0.036	0.107
-236.859	-87.325	0.222	-0.067
-235.844	193.308	0.086	0.130
-234.830	-17.633	-0.264	0.165
-233.815	227.919	0.119	-0.193
-232.800	211.316	-0.300	0.470
-231.786	-159.017	0.076	-0.004
-230.771	81.723	0.245	-0.264
-229.757	-155.577	-0.192	-0.012
-228.742	-34.376	-0.399	-0.217
-227.727	-45.269	0.021	-0.010
-226.713	800.000	-0.022	-0.080
-225.698	-65.988	-0.340	-0.135
-224.684	27.387	-0.196	0.164
-223.669	-200.000	-0.025	-0.112
-222.655	-93.122	-0.275	0.076
-221.640	-146.352	-0.189	0.016
-220.625	174.877	-0.138	0.198
-219.611	255.178	-0.155	-0.263
-218.596	368.666	-0.037	-0.075
-217.582	-96.647	-0.362	0.095
-216.567	-148.731	0.198	0.016
-215.552	-200.000	0.024	0.303
-214.538	80.480	-0.112	-0.120
-213.523	226.355	-0.165	-0.265
-212.509	-87.848	0.090	0.027
-211.494	-36.572	0.072	0.038
-210.479	767.287	-0.050	0.136
-209.465	30.864	0.187	-0.160
-208.450	-107.678	0.144	0.031
-207.436	-1.620	0.088	0.062
-206.421	18.676	0.311	-0.248
-205.406	-200.000	-0.031	-0.376
-204.392	-200.000	0.020	-0.117
-203.377	58.864	0.049	-0.048
-202.363	53.522	0.206	-0.197
-201.348	180.926	-0.070	-0.102
-200.333	-22.064	-0.333	-0.201
-199.319	-140.510	0.325	0.034
-198.304	800.000	0.127	-0.380
-197.290	-200.000	-0.005	0.036
-196.275	-149.463	0.362	-0.029
-195.260	-200.000	-0.037	-0.205
-194.246	21.779	0.226	-0.183
-193.231	71.255	-0.050	-0.052
-192.217	136.558	-0.236	-0.306
-191.202	94.081	0.134	0.151
-190.187	-200.000	0.019	-0.289
-189.173	-141.059	0.111	-0.011
-188.158	80.667	0.055	-0.059
-187.144	-114.787	-0.180	-0.034
-186.129	800.000	-0.096	-0.284
-185.114	160.215	-0.138	-0.191
-184.100	101.777	0.073	0.085
-183.085	338.936	0.070	0.135
-182.071	451.393	0.094	0.207
-181.056	-43.771	0.202	-0.101
-180.042	-32.827	0.113	0.062
-179.027	800.000	-0.046	-0.127
-178.012	800.000	-0.056	0.228
-176.998	438.107	0.126	0.272
-175.983	800.000	0.052	0.188
-174.969	-11.556	-0.136	0.089
-173.954	48.372	0.339	0.315
-172.939	-200.000	0.001	0.028
-171.925	109.829	-0.187	-0.222
-170.910	433.494	0.126	0.272
-169.896	214.855	-0.165	0.260
-168.881	-32.854	0.290	-0.160
-167.866	-64.422	0.199	0.080
-166.852	207.048	-0.056	0.087
-165.837	47.086	0.203	-0.187
-164.823	84.643	0.111	-0.120
-163.808	-45.972	0.298	-0.146
-162.793	-52.597	0.220	-0.101
-161.779	-200.000	0.025	-0.183
-160.764	800.000	0.038	0.113
-159.750	-12.605	-0.180	0.117
-158.735	4.880	0.220	0.161
-157.720	86.508	0.134	-0.147
-156.706	37.381	0.082	0.072
-155.691	76.890	-0.100	0.105
-154.677	2.266	-0.221	-0.158
-153.662	-118.459	0.059	-0.010
-152.647	-200.000	-0.024	-0.265
-151.633	-9.687	-0.235	0.156
-150.618	163.325	-0.149	0.207
-149.604	-72.516	0.222	0.082
-148.589	266.522	0.118	0.204
-147.574	252.016	-0.159	-0.268
-146.560	302.101	-0.045	0.083
-145.545	120.147	-0.024	-0.029
-144.531	800.000	0.067	-0.184
-143.516	-200.000	0.035	-0.334
-142.502	-119.965	0.283	0.048
-141.487	-161.609	0.194	-0.010
-140.472	473.947	0.109	-0.245
-139.458	800.000	-0.013	-0.056
-138.443	-25.263	-0.108	-0.063
-137.429	56.472	-0.058	0.056
-136.414	632.608	-0.094	-0.235
-135.399	-87.237	0.294	0.089
-134.385	545.456	-0.117	0.276
-133.370	-200.000	-0.041	0.202
-132.356	-36.487	0.288	-0.154
-131.341	-200.000	-0.124	-0.545
-130.326	-200.000	0.001	0.081
-129.312	10.758	0.160	-0.121
-128.297	-26.216	0.228	-0.133
-127.283	479.688	0.061	-0.138
-126.268	-200.000	0.018	-0.194
-125.253	-86.980	-0.350	-0.106
-124.239	597.572	-0.036	-0.089
-123.224	-34.511	0.371	-0.201
-122.210	-200.000	-0.025	0.149
-121.195	800.000	0.076	-0.295
