DTS Sentinel unit serial number:	SN413079Multiplexer serial number:	ORYXHardware model number:	OX4-SRSoftware version number:	ORYX F/W v4.00 Oryx Data Collector v3.7.2.0data status	okinstallation	princeton_trtdifferential loss correction	single-endedforward channel	channel 3reverse channel	N/Adate	2019/09/14time	19:00:35forward acquisition time	60.00reverse acquisition time	0.00gamma	496.2192k internal	0.2307k external	0.2307temperature offset calibration	1.0016default loss term (dB/km)	0.3790temperature slope calibration	1.0000multiplexer offset coefficient	1.0000multiplexer slope coefficient	1.0000fibre end	0.00T internal ref (°C)	35.62T ext. ref 1 (°C)	4.86T ext. ref 2 (°C)	29.48length (m)	temperature (°C)	Stokes	anti-Stokes-747.200	-1.042	0.189	0.136
-746.185	800.000	-0.048	0.198
-745.171	151.515	0.155	0.214
-744.156	-134.997	-0.190	-0.023
-743.142	-75.302	0.260	-0.094
-742.127	-42.080	0.216	-0.113
-741.112	38.938	0.213	-0.193
-740.098	-75.278	-0.388	0.141
-739.083	-200.000	-0.015	0.149
-738.069	427.724	-0.130	0.285
-737.054	-200.000	-0.026	0.206
-736.039	-131.017	-0.529	0.072
-735.025	-119.563	0.228	-0.040
-734.010	-44.318	-0.228	-0.116
-732.996	-24.316	-0.256	0.155
-731.981	-200.000	-0.012	0.247
-730.966	534.064	-0.075	0.180
-729.952	67.690	-0.065	-0.067
-728.937	-200.000	-0.005	-0.073
-727.923	320.467	-0.019	-0.037
-726.908	394.994	0.094	-0.199
-725.894	-200.000	-0.015	-0.087
-724.879	457.538	-0.059	-0.133
-723.864	69.870	0.216	-0.226
-722.850	136.530	-0.232	0.307
-721.835	-38.262	-0.363	0.195
-720.821	681.301	0.077	-0.204
-719.806	-200.000	-0.030	-0.147
-718.791	800.000	-0.065	-0.216
-717.777	-92.613	0.116	-0.033
-716.762	7.561	0.304	-0.231
-715.748	4.829	0.074	0.055
-714.733	-36.363	-0.022	0.012
-713.718	-200.000	0.026	0.128
-712.704	800.000	0.086	0.343
-711.689	81.631	0.154	-0.169
-710.675	-200.000	0.002	-0.210
-709.660	-200.000	-0.014	0.170
-708.645	-93.938	0.170	0.048
-707.631	800.000	-0.067	0.194
-706.616	73.102	0.088	-0.094
-705.602	-200.000	0.006	-0.357
-704.587	12.814	0.406	0.319
-703.572	131.270	-0.055	-0.072
-702.558	-200.000	-0.035	0.494
-701.543	800.000	-0.045	0.133
-700.529	-76.978	-0.227	0.081
-699.514	342.898	0.127	0.252
-698.499	589.763	-0.031	0.077
-697.485	354.199	0.065	0.132
-696.470	-200.000	0.044	-0.324
-695.456	181.271	-0.163	0.243
-694.441	626.969	0.087	0.222
-693.426	-200.000	-0.016	-0.441
-692.412	23.330	0.039	-0.032
-691.397	72.600	-0.223	0.236
-690.383	-200.000	-0.037	0.196
-689.368	300.918	-0.103	0.193
-688.354	227.184	0.206	-0.340
-687.339	-200.000	0.014	-0.167
-686.324	800.000	0.027	0.078
-685.310	-21.656	0.166	-0.103
-684.295	-33.228	0.283	-0.159
-683.281	599.891	-0.148	0.372
-682.266	173.143	0.166	0.242
-681.251	-125.225	0.142	-0.022
-680.237	267.908	-0.178	0.316
-679.222	-105.553	-0.120	-0.028
-678.208	-150.407	-0.128	-0.010
-677.193	-200.000	0.032	0.409
-676.178	-169.333	-0.123	0.005
-675.164	-200.000	0.031	0.183
-674.149	72.989	-0.039	-0.042
-673.135	43.042	-0.275	-0.254
-672.120	53.693	-0.190	-0.185
-671.105	-200.000	0.020	-0.092
-670.091	800.000	-0.012	0.047
-669.076	601.818	-0.054	-0.136
-668.062	-200.000	0.012	0.278
-667.047	68.633	0.072	0.074
-666.032	528.614	0.075	-0.180
-665.018	-2.980	-0.135	-0.096
-664.003	115.728	0.049	-0.060
-662.989	-91.964	-0.385	-0.111
-661.974	212.106	0.197	-0.315
-660.959	30.962	-0.284	-0.247
-659.945	-21.369	-0.510	-0.316
-658.930	-131.626	0.324	-0.043
-657.916	-150.010	-0.144	0.011
-656.901	158.218	0.146	0.205
-655.886	800.000	0.016	0.069
-654.872	720.972	0.078	-0.209
-653.857	9.831	-0.214	-0.164
-652.843	247.310	-0.265	0.454
-651.828	-40.565	-0.090	0.048
-650.814	-100.993	0.322	0.080
-649.799	-200.000	0.004	0.317
-648.784	-76.558	0.057	-0.020
-647.770	441.918	-0.045	0.100
-646.755	-98.792	0.127	0.033
-645.741	-164.897	-0.148	-0.007
-644.726	-200.000	-0.013	-0.238
-643.711	-46.173	0.395	0.197
-642.697	6.934	0.169	-0.128
-641.682	238.247	0.124	0.209
-640.668	-122.889	0.236	0.038
-639.653	-200.000	0.048	-0.255
-638.638	-27.648	-0.235	-0.138
-637.624	800.000	-0.036	0.157
-636.609	-46.141	0.064	0.032
-635.595	-52.188	0.387	0.182
-634.580	7.102	-0.296	-0.224
-633.565	-73.092	-0.128	0.047
-632.551	-200.000	-0.027	0.171
-631.536	39.192	-0.095	0.086
-630.522	800.000	0.070	-0.216
-629.507	2.811	-0.175	-0.128
-628.492	19.065	0.171	-0.138
-627.478	100.139	-0.041	-0.048
-626.463	-111.109	0.367	0.076
-625.449	-200.000	-0.005	-0.231
-624.434	405.399	-0.056	0.120
-623.419	-200.000	0.022	0.239
-622.405	-36.571	0.153	0.084
-621.390	29.165	-0.077	-0.066
-620.376	95.580	-0.191	-0.221
-619.361	-119.748	0.246	0.043
-618.346	624.781	0.063	-0.161
-617.332	-74.706	-0.318	0.116
-616.317	37.564	-0.241	0.216
-615.303	399.325	-0.089	-0.188
-614.288	-200.000	0.001	-0.371
-613.273	16.199	-0.109	-0.087
-612.259	672.132	0.083	0.217
-611.244	136.935	-0.266	-0.352
-610.230	-200.000	-0.042	0.462
-609.215	-200.000	0.018	-0.092
-608.201	-149.647	0.027	0.002
-607.186	-154.486	0.156	-0.011
-606.171	0.448	-0.041	-0.029
-605.157	190.565	0.245	0.372
-604.142	800.000	0.058	-0.163
-603.128	-40.313	-0.202	0.106
-602.113	-144.786	-0.287	-0.027
-601.098	-43.275	-0.136	0.070
-600.084	-158.195	0.190	-0.011
-599.069	158.388	0.079	-0.111
-598.055	50.942	0.172	0.165
-597.040	800.000	-0.061	-0.169
-596.025	-86.418	0.156	0.049
-595.011	137.412	0.137	-0.182
-593.996	-88.619	-0.427	-0.128
-592.982	-92.559	-0.203	0.058
-591.967	-143.110	-0.204	0.020
-590.952	-64.909	-0.234	-0.096
-589.938	-12.198	-0.046	-0.030
-588.923	-200.000	-0.060	0.279
-587.909	-45.555	0.381	-0.191
-586.894	-37.096	-0.101	-0.055
-585.879	165.374	0.160	-0.228
-584.865	-200.000	-0.052	0.341
-583.850	-175.191	0.258	-0.007
-582.836	14.561	-0.130	0.102
-581.821	-200.000	-0.060	-0.268
-580.806	100.765	0.111	-0.130
-579.792	114.748	0.243	-0.299
-578.777	-200.000	-0.070	-0.341
-577.763	-200.000	-0.014	-0.243
-576.748	-81.598	-0.195	-0.065
-575.733	-92.690	-0.278	-0.079
-574.719	8.217	0.252	-0.191
-573.704	377.433	-0.051	0.104
-572.690	390.139	-0.074	0.155
-571.675	44.508	0.059	0.055
-570.661	2.383	-0.197	0.144
-569.646	20.400	-0.233	-0.190
-568.631	-200.000	0.003	-0.299
-567.617	-97.420	-0.405	0.106
-566.602	-33.805	0.228	-0.127
-565.588	280.267	-0.027	-0.049
-564.573	27.200	-0.252	-0.214
-563.558	-111.266	0.350	-0.072
-562.544	157.007	0.137	0.190
-561.529	-153.828	0.310	-0.021
-560.515	-162.919	-0.502	-0.025
-559.500	114.492	-0.154	-0.190
-558.485	130.774	-0.119	-0.154
-557.471	-115.134	-0.064	0.012
-556.456	57.308	0.105	-0.103
-555.442	-102.214	0.235	-0.057
-554.427	262.400	-0.046	0.081
-553.412	241.324	-0.037	0.063
-552.398	800.000	-0.069	-0.276
-551.383	115.562	0.168	-0.207
-550.369	648.238	0.059	0.151
-549.354	197.845	0.233	-0.359
-548.339	-191.481	0.294	-0.003
-547.325	244.504	-0.193	-0.326
-546.310	-127.634	-0.165	-0.024
-545.296	-104.272	-0.192	-0.045
-544.281	-200.000	0.014	0.274
-543.266	-200.000	-0.015	-0.090
-542.252	13.145	0.030	0.024
-541.237	558.109	0.050	0.121
-540.223	31.448	0.072	-0.062
-539.208	-200.000	0.052	0.240
-538.193	321.092	-0.169	-0.325
-537.179	-189.313	-0.144	-0.002
-536.164	-107.678	0.325	-0.072
-535.150	800.000	0.062	0.242
-534.135	-200.000	-0.056	0.288
-533.121	-82.172	-0.209	0.069
-532.106	-0.213	-0.210	0.151
-531.091	15.102	0.225	0.178
-530.077	-32.413	0.275	0.154
-529.062	-200.000	-0.022	0.191
-528.048	-35.157	0.129	-0.071
-527.033	-12.250	0.147	-0.097
-526.018	58.258	-0.065	-0.065
-525.004	-200.000	0.005	0.110
-523.989	-21.072	-0.305	0.188
-522.975	690.591	0.055	-0.145
-521.960	406.792	0.119	0.254
-520.945	17.287	-0.167	-0.134
-519.931	307.253	-0.128	0.240
-518.916	-200.000	-0.006	0.097
-517.902	-200.000	-0.074	-0.338
-516.887	286.852	-0.187	0.340
-515.872	800.000	-0.055	0.213
-514.858	16.856	-0.040	0.032
-513.843	-200.000	0.092	-0.423
-512.829	144.125	-0.180	-0.242
-511.814	105.381	-0.039	0.046
-510.799	-3.495	-0.218	-0.153
-509.785	800.000	0.080	0.273
-508.770	-122.477	-0.129	-0.021
-507.756	-200.000	0.063	-0.423
-506.741	324.244	-0.149	-0.287
-505.726	2.471	-0.339	0.247
-504.712	-200.000	-0.004	0.161
-503.697	800.000	0.110	-0.414
-502.683	-200.000	0.018	-0.101
-501.668	45.035	-0.115	-0.107
-500.653	-10.349	-0.242	0.161
-499.639	-155.218	0.346	-0.023
-498.624	84.442	0.017	-0.018
-497.610	-200.000	0.026	0.119
-496.595	172.612	0.087	-0.126
-495.581	-117.823	0.400	-0.072
-494.566	145.883	-0.025	-0.034
-493.551	-196.552	0.047	-0.000
-492.537	-200.000	0.033	0.303
-491.522	-183.386	-0.475	-0.008
-490.508	119.454	-0.133	0.166
-489.493	333.305	0.095	0.184
-488.478	51.461	-0.252	0.241
-487.464	-156.035	0.314	0.020
-486.449	-42.417	0.159	0.082
-485.435	21.729	-0.401	-0.329
-484.420	-200.000	-0.011	-0.158
-483.405	214.738	0.109	-0.174
-482.391	69.875	-0.187	-0.194
-481.376	38.304	-0.165	-0.148
-480.362	17.838	0.076	-0.061
-479.347	-87.532	-0.284	-0.086
-478.332	-5.412	-0.246	0.170
-477.318	-155.166	-0.156	-0.010
-476.303	67.474	-0.245	-0.252
-475.289	-81.951	0.047	0.015
-474.274	-200.000	-0.000	0.075
-473.259	-39.399	-0.076	0.040
-472.245	-71.147	0.340	0.128
-471.230	34.352	0.208	-0.183
-470.216	800.000	-0.041	0.165
-469.201	-200.000	-0.004	-0.482
-468.186	-200.000	0.076	-0.341
-467.172	800.000	-0.033	0.094
-466.157	-200.000	-0.065	-0.445
-465.143	-200.000	0.039	0.240
-464.128	-99.970	-0.052	-0.013
-463.113	275.728	0.151	0.269
-462.099	58.552	0.180	0.178
-461.084	279.634	0.084	-0.151
-460.070	-51.911	-0.229	0.107
-459.055	54.435	-0.161	-0.156
-458.040	-200.000	0.030	-0.237
-457.026	102.834	0.130	-0.153
-456.011	-58.857	0.117	-0.051
-454.997	-10.110	-0.080	0.053
-453.982	107.089	0.120	0.143
-452.968	-83.673	-0.031	-0.010
-451.953	272.632	-0.173	-0.308
-450.938	457.586	-0.083	-0.185
-449.924	-200.000	0.045	0.311
-448.909	47.049	-0.164	-0.154
-447.895	2.309	0.362	-0.263
-446.880	11.141	-0.228	-0.175
-445.865	606.525	-0.042	0.104
-444.851	89.976	0.156	0.175
-443.836	-46.881	0.280	-0.138
-442.822	-129.652	0.123	-0.017
-441.807	616.445	0.110	0.277
-440.792	108.716	0.069	-0.083
-439.778	24.250	0.205	-0.170
-438.763	-35.110	0.181	0.099
-437.749	-200.000	0.091	-0.410
-436.734	119.080	-0.208	-0.258
-435.719	-200.000	-0.024	0.148
-434.705	-200.000	0.027	0.151
-433.690	-146.265	-0.184	0.016
-432.676	-35.582	-0.100	-0.055
-431.661	800.000	-0.099	-0.338
-430.646	-19.629	0.266	-0.165
-429.632	-74.047	0.190	0.069
-428.617	77.672	-0.163	0.174
-427.603	-200.000	-0.021	-0.366
-426.588	-40.862	0.112	-0.058
-425.573	421.879	-0.082	-0.178
-424.559	706.949	0.042	0.111
-423.544	38.541	-0.408	0.366
-422.530	800.000	0.093	0.356
-421.515	-200.000	0.007	-0.278
-420.500	-85.115	-0.121	0.038
-419.486	498.040	-0.080	0.185
-418.471	530.484	-0.028	-0.067
-417.457	534.239	-0.047	-0.111
-416.442	-72.824	-0.158	-0.058
-415.428	-98.100	0.232	-0.060
-414.413	5.494	-0.133	-0.099
-413.398	-200.000	0.009	-0.299
-412.384	78.944	-0.079	0.085
-411.369	-7.317	0.306	-0.208
-410.355	-192.880	0.307	0.003
-409.340	295.357	-0.053	0.097
-408.325	-170.229	0.167	0.006
-407.311	-200.000	-0.013	0.069
-406.296	800.000	0.117	0.330
-405.282	-170.093	0.268	0.010
-404.267	173.967	0.047	-0.069
-403.252	-88.988	-0.247	-0.073
-402.238	686.025	0.035	0.091
-401.223	36.483	0.189	0.168
-400.209	800.000	-0.068	-0.221
-399.194	-44.889	0.153	0.076
-398.179	-200.000	-0.028	0.279
-397.165	-200.000	-0.017	0.125
-396.150	-164.510	0.217	0.010
-395.136	-200.000	-0.009	0.095
-394.121	67.659	0.164	0.168
-393.106	-156.293	0.223	-0.014
-392.092	9.291	-0.315	-0.239
-391.077	214.423	0.150	0.239
-390.063	161.156	0.108	0.151
-389.048	-200.000	0.050	0.306
-388.033	498.454	0.187	-0.433
-387.019	279.730	0.052	-0.093
-386.004	706.064	-0.060	-0.157
-384.990	-13.712	-0.074	-0.048
-383.975	-80.030	0.047	0.016
-382.960	-112.693	-0.231	-0.046
-381.946	-14.428	-0.077	-0.049
-380.931	-200.000	0.005	0.105
-379.917	112.970	-0.146	-0.177
-378.902	-33.713	0.209	0.115
-377.888	800.000	0.132	0.387
-376.873	-72.527	-0.096	0.036
-375.858	800.000	0.051	-0.147
-374.844	-69.138	0.123	-0.048
-373.829	-61.014	-0.142	0.060
-372.815	-188.763	0.188	-0.002
-371.800	225.403	-0.218	0.354
-370.785	-158.474	-0.178	0.010
-369.771	112.232	-0.085	-0.104
-368.756	-20.667	-0.573	0.352
-367.742	26.006	0.112	0.093
-366.727	-112.544	-0.240	0.048
-365.712	-80.799	0.162	-0.054
-364.698	-200.000	-0.010	-0.082
-363.683	-165.149	-0.197	0.009
-362.669	-65.269	-0.156	0.063
-361.654	-200.000	0.071	-0.368
-360.639	-200.000	-0.004	-0.193
-359.625	126.614	0.154	0.196
-358.610	-26.120	0.201	-0.119
-357.596	-200.000	0.011	-0.089
-356.581	117.050	-0.135	0.166
-355.566	142.165	0.101	0.134
-354.552	-115.314	-0.175	-0.033
-353.537	52.475	0.250	-0.239
-352.523	-200.000	0.012	-0.160
-351.508	800.000	0.064	-0.203
-350.493	-115.903	-0.357	0.067
-349.479	800.000	-0.033	0.138
-348.464	22.828	-0.252	0.207
-347.450	-200.000	0.004	0.042
-346.435	800.000	0.100	-0.359
-345.420	-200.000	0.001	-0.069
-344.406	613.963	-0.096	0.240
-343.391	-67.911	-0.167	0.065
-342.377	-97.718	0.302	0.078
-341.362	-4.798	-0.556	0.384
-340.348	238.878	-0.031	0.052
-339.333	-52.119	-0.121	-0.056
-338.318	56.518	-0.074	0.072
-337.304	0.319	-0.268	0.191
-336.289	-200.000	-0.023	-0.131
-335.275	-102.973	0.071	-0.017
-334.260	800.000	-0.058	0.163
-333.245	-200.000	0.027	0.338
-332.231	90.208	-0.131	0.146
-331.216	145.686	-0.186	0.249
-330.202	18.696	-0.025	-0.020
-329.187	-56.235	0.171	-0.076
-328.172	-144.083	-0.403	-0.038
-327.158	16.121	0.211	0.166
-326.143	-101.472	0.198	-0.048
-325.129	751.349	-0.100	0.271
-324.114	163.631	0.074	-0.105
-323.099	43.150	-0.264	-0.241
-322.085	22.991	0.263	0.216
-321.070	800.000	0.022	-0.074
-320.056	-72.990	-0.081	-0.030
-319.041	233.646	-0.166	-0.274
-318.026	-96.469	-0.152	0.040
-317.012	-152.853	0.345	0.024
-315.997	800.000	0.049	-0.172
-314.983	800.000	-0.026	-0.100
-313.968	-200.000	0.039	-0.225
-312.953	-200.000	-0.004	0.028
-311.939	800.000	-0.029	0.105
-310.924	-105.285	0.220	0.050
-309.910	340.760	-0.093	0.181
-308.895	428.872	0.113	-0.244
-307.880	-200.000	-0.008	-0.095
-306.866	124.406	0.162	-0.203
-305.851	800.000	-0.090	0.266
-304.837	306.404	-0.166	-0.308
-303.822	-6.781	-0.114	-0.077
-302.807	-91.200	0.445	0.127
-301.793	-200.000	-0.109	0.534
-300.778	-17.390	-0.196	0.123
-299.764	-98.449	-0.280	0.072
-298.749	-120.515	-0.405	0.069
-297.735	145.056	0.124	0.165
-296.720	77.186	0.168	0.178
-295.705	23.362	0.199	0.163
-294.691	800.000	-0.037	0.105
-293.676	99.659	0.096	-0.111
-292.662	-149.562	-0.165	0.013
-291.647	-31.857	-0.042	0.024
-290.632	206.811	-0.050	-0.078
-289.618	-200.000	-0.006	0.049
-288.603	244.011	0.093	-0.155
-287.589	-163.228	0.129	-0.006
-286.574	471.076	0.046	0.103
-285.559	150.148	-0.260	0.353
-284.545	465.598	0.131	0.293
-283.530	-118.367	-0.127	0.023
-282.516	295.796	-0.113	0.206
-281.501	-106.838	-0.195	0.043
-280.486	-0.124	0.185	-0.131
-279.472	-200.000	0.020	0.198
-278.457	34.596	-0.175	0.152
-277.443	418.633	-0.143	-0.305
-276.428	-120.669	-0.119	0.020
-275.413	209.198	0.166	0.260
-274.399	-104.193	0.219	-0.051
-273.384	529.061	0.027	-0.064
-272.370	-123.547	-0.289	-0.046
-271.355	-200.000	0.003	-0.243
-270.340	-107.546	0.331	0.072
-269.326	37.484	0.076	0.067
-268.311	-102.743	0.605	0.144
-267.297	102.235	-0.183	0.213
-266.282	-24.929	0.376	-0.223
-265.267	-200.000	0.022	-0.316
-264.253	166.450	-0.097	0.137
-263.238	-26.148	-0.173	0.101
-262.224	172.249	0.142	-0.203
-261.209	-200.000	0.039	-0.177
-260.195	124.284	0.119	-0.149
-259.180	80.572	-0.195	0.210
-258.165	-83.068	-0.298	0.096
-257.151	-76.924	0.157	-0.055
-256.136	199.227	-0.127	-0.195
-255.122	215.601	-0.092	0.146
-254.107	-200.000	-0.017	0.251
-253.092	135.986	-0.163	-0.212
-252.078	-96.249	0.126	-0.033
-251.063	-168.883	-0.196	-0.007
-250.049	-52.932	0.026	-0.012
-249.034	115.939	0.289	0.353
-248.019	7.817	0.363	-0.271
-247.005	34.725	-0.123	-0.107
-245.990	-78.830	-0.159	-0.054
-244.976	800.000	0.119	0.374
-243.961	-57.293	0.064	0.028
-242.946	-1.047	-0.147	0.104
-241.932	379.549	0.100	0.204
-240.917	800.000	0.139	-0.384
-239.903	-59.400	0.181	-0.078
-238.888	378.358	0.020	-0.040
-237.873	-67.959	0.367	0.143
-236.859	-14.382	0.153	0.098
-235.844	253.743	0.107	-0.182
-234.830	0.126	-0.170	-0.121
-233.815	-107.443	-0.360	-0.079
-232.800	-200.000	-0.005	0.171
-231.786	18.716	-0.196	0.156
-230.771	-109.023	0.353	0.075
-229.757	-87.677	0.152	0.046
-228.742	-112.663	-0.130	0.026
-227.727	-145.270	0.163	0.015
-226.713	119.579	0.176	0.217
-225.698	-65.103	0.181	0.073
-224.684	177.623	0.064	0.093
-223.669	61.906	-0.084	-0.084
-222.655	-51.654	-0.186	0.086
-221.640	-163.964	0.153	0.007
-220.625	-99.354	-0.158	0.040
-219.611	545.088	-0.093	0.220
-218.596	-200.000	0.032	-0.468
-217.582	-67.284	-0.231	-0.090
-216.567	39.154	0.138	0.123
-215.552	-45.650	-0.051	-0.025
-214.538	-17.836	0.227	0.142
-213.523	-191.598	-0.182	-0.002
-212.509	-45.527	0.112	0.055
-211.494	-150.985	-0.104	0.008
-210.479	627.952	-0.043	-0.108
-209.465	121.120	0.222	-0.275
-208.450	46.457	0.071	0.066
-207.436	17.368	-0.036	-0.029
-206.421	-87.780	0.296	-0.089
-205.406	389.912	-0.117	-0.242
-204.392	-32.895	0.043	0.024
-203.377	-200.000	-0.003	0.065
-202.363	-107.324	-0.200	-0.044
-201.348	78.696	-0.154	-0.164
-200.333	-34.974	0.320	0.174
-199.319	-49.498	-0.196	-0.093
-198.304	800.000	-0.068	0.217
-197.290	98.379	-0.177	0.203
-196.275	51.999	-0.112	-0.106
-195.260	-200.000	0.015	-0.125
-194.246	35.921	0.057	-0.050
-193.231	800.000	0.132	0.498
-192.217	-200.000	0.135	-0.000
-191.202	722.716	0.057	-0.151
-190.187	-37.411	0.201	0.107
-189.173	800.000	-0.021	-0.059
-188.158	-105.075	-0.163	-0.037
-187.144	487.596	-0.061	-0.139
-186.129	33.799	0.099	-0.085
-185.114	-21.818	0.305	0.185
-184.100	-51.020	0.223	-0.104
-183.085	82.357	0.199	0.215
-182.071	478.771	-0.121	0.272
-181.056	111.957	-0.149	-0.179
-180.042	-82.494	0.191	0.062
-179.027	-200.000	0.011	0.489
-178.012	62.086	0.386	0.383
-176.998	800.000	0.103	0.296
-175.983	312.068	0.280	0.522
-174.969	-200.000	0.013	0.366
-173.954	-39.890	-0.358	-0.186
-172.939	67.220	-0.094	-0.096
-171.925	-1.938	0.133	-0.093
-170.910	-197.670	0.126	-0.001
-169.896	-143.761	0.177	0.017
-168.881	-76.369	-0.120	-0.042
-167.866	637.308	0.004	-0.009
-166.852	5.560	0.123	0.090
-165.837	-200.000	0.034	-0.150
-164.823	-200.000	0.001	0.204
-163.808	-130.650	-0.188	0.025
-162.793	800.000	0.049	-0.151
-161.779	-49.079	-0.141	-0.067
-160.764	-33.912	-0.218	-0.120
-159.750	-31.354	-0.097	-0.054
-158.735	3.347	0.171	-0.124
-157.720	-100.367	-0.190	-0.047
-156.706	36.009	-0.192	0.168
-155.691	163.908	-0.039	0.055
-154.677	624.018	0.041	-0.102
-153.662	-4.834	0.316	-0.216
-152.647	607.736	0.078	-0.193
-151.633	-105.465	0.262	0.059
-150.618	321.504	-0.071	0.134
-149.604	800.000	0.052	0.215
-148.589	128.436	0.258	0.326
-147.574	1.009	-0.282	0.201
-146.560	-131.307	-0.349	-0.046
-145.545	-19.728	0.228	0.140
-144.531	160.439	-0.073	-0.101
-143.516	-73.120	-0.205	0.074
-142.502	138.276	0.053	-0.069
-141.487	217.649	-0.024	0.037
-140.472	-105.825	0.269	-0.060
-139.458	258.285	0.087	0.149
-138.443	-41.633	0.107	-0.055
-137.429	-59.536	0.186	0.079
-136.414	-200.000	0.015	-0.081
-135.399	800.000	0.096	0.308
-134.385	-61.441	-0.142	-0.059
-133.370	-139.580	-0.079	0.008
-132.356	-9.266	0.117	-0.078
-131.341	-45.779	0.235	0.115
-130.326	800.000	0.014	0.049
-129.312	340.644	0.042	-0.082
-128.297	18.051	0.250	-0.198
-127.283	313.249	0.163	0.305
-126.268	626.528	0.067	0.167
-125.253	643.505	-0.067	0.170
-124.239	800.000	-0.029	-0.109
-123.224	9.955	0.207	0.156
-122.210	-94.335	-0.270	-0.073
-121.195	800.000	0.034	0.139
