DTS Sentinel unit serial number:	SN413079Multiplexer serial number:	ORYXHardware model number:	OX4-SRSoftware version number:	ORYX F/W v4.00 Oryx Data Collector v3.7.2.0data status	okinstallation	princeton_trtdifferential loss correction	single-endedforward channel	channel 3reverse channel	N/Adate	2019/09/19time	04:40:34forward acquisition time	60.00reverse acquisition time	0.00gamma	496.2192k internal	0.2347k external	0.2347temperature offset calibration	0.9991default loss term (dB/km)	0.3790temperature slope calibration	1.0000multiplexer offset coefficient	1.0000multiplexer slope coefficient	1.0000fibre end	0.00T internal ref (°C)	20.00T ext. ref 1 (°C)	0.61T ext. ref 2 (°C)	12.93length (m)	temperature (°C)	Stokes	anti-Stokes-747.200	-137.277	0.296	-0.034
-746.185	-87.780	-0.284	0.085
-745.171	-157.281	0.210	0.013
-744.156	-200.000	0.066	0.292
-743.142	-105.930	0.236	-0.053
-742.127	-8.552	-0.326	-0.219
-741.112	-22.349	0.067	0.040
-740.098	800.000	-0.095	0.303
-739.083	-3.257	-0.287	0.200
-738.069	48.144	0.309	0.289
-737.054	6.348	-0.089	-0.066
-736.039	-46.463	-0.186	-0.091
-735.025	-56.779	0.178	0.079
-734.010	416.038	0.084	-0.179
-732.996	-54.847	-0.384	-0.173
-731.981	-62.894	-0.207	-0.085
-730.966	641.218	-0.152	-0.387
-729.952	298.880	0.128	-0.236
-728.937	-200.000	-0.012	0.185
-727.923	-85.160	-0.446	0.139
-726.908	-34.757	-0.217	-0.118
-725.894	366.340	-0.153	-0.308
-724.879	800.000	-0.049	0.172
-723.864	800.000	0.049	-0.173
-722.850	126.185	0.099	-0.125
-721.835	-139.613	-0.356	0.038
-720.821	-152.631	0.190	-0.014
-719.806	-167.041	0.497	-0.020
-718.791	56.334	-0.205	0.199
-717.777	-27.211	0.039	-0.023
-716.762	-22.535	0.076	0.046
-715.748	800.000	-0.036	0.106
-714.733	16.157	-0.333	-0.262
-713.718	-172.445	-0.152	0.005
-712.704	15.337	-0.213	-0.167
-711.689	155.781	-0.167	-0.229
-710.675	800.000	-0.053	0.228
-709.660	800.000	0.044	0.187
-708.645	800.000	0.043	-0.121
-707.631	-200.000	-0.027	-0.386
-706.616	152.214	0.131	-0.178
-705.602	800.000	-0.018	-0.074
-704.587	-55.909	0.104	0.046
-703.572	198.288	-0.086	-0.131
-702.558	-44.837	0.282	0.140
-701.543	-54.502	0.279	0.126
-700.529	-82.707	-0.028	0.009
-699.514	-200.000	0.014	-0.104
-698.499	125.424	0.293	-0.369
-697.485	-80.779	-0.241	0.080
-696.470	-168.977	0.078	0.003
-695.456	558.015	0.130	-0.313
-694.441	82.379	-0.162	0.175
-693.426	-200.000	-0.017	0.098
-692.412	236.498	-0.101	-0.167
-691.397	763.362	-0.102	0.275
-690.383	-83.718	-0.132	0.042
-689.368	346.763	0.106	-0.209
-688.354	-1.670	-0.061	0.043
-687.339	-55.929	0.298	0.133
-686.324	-63.909	0.130	-0.053
-685.310	-200.000	-0.024	-0.286
-684.295	-200.000	0.018	-0.224
-683.281	-52.703	-0.189	0.087
-682.266	-60.120	-0.204	0.087
-681.251	171.685	0.137	0.197
-680.237	28.337	-0.190	-0.160
-679.222	-133.458	-0.188	-0.024
-678.208	-88.327	-0.346	0.103
-677.193	-200.000	-0.013	0.095
-676.178	-200.000	-0.020	0.121
-675.164	-200.000	-0.024	-0.107
-674.149	-200.000	-0.041	-0.283
-673.135	-200.000	0.007	0.389
-672.120	-145.013	-0.110	-0.010
-671.105	12.992	0.100	0.077
-670.091	227.669	0.121	-0.196
-669.076	469.943	-0.045	0.101
-668.062	-200.000	-0.022	-0.163
-667.047	-138.600	-0.075	-0.008
-666.032	762.949	0.018	-0.049
-665.018	-200.000	-0.028	-0.147
-664.003	618.705	-0.110	-0.274
-662.989	236.669	-0.172	0.283
-661.974	-173.736	-0.142	-0.004
-660.959	263.414	-0.083	0.145
-659.945	-72.081	-0.165	0.061
-658.930	-169.036	-0.102	-0.004
-657.916	390.671	-0.078	-0.162
-656.901	-200.000	0.004	-0.162
-655.886	219.377	-0.129	0.205
-654.872	800.000	-0.094	-0.314
-653.857	639.287	0.108	-0.274
-652.843	35.267	0.105	-0.092
-651.828	-35.795	-0.257	-0.138
-650.814	-103.603	0.397	0.093
-649.799	-14.065	0.216	-0.139
-648.784	385.455	-0.112	-0.230
-647.770	101.688	0.265	0.308
-646.755	-105.374	0.271	0.061
-645.741	-200.000	0.067	0.360
-644.726	-52.255	0.322	0.148
-643.711	-200.000	-0.065	0.402
-642.697	71.564	0.267	-0.277
-641.682	800.000	0.085	0.360
-640.668	98.908	0.113	-0.129
-639.653	800.000	0.046	-0.180
-638.638	591.926	0.078	-0.192
-637.624	-200.000	-0.037	-0.454
-636.609	-71.517	0.269	0.100
-635.595	527.156	-0.184	0.432
-634.580	-84.622	-0.046	0.014
-633.565	-61.622	-0.280	-0.117
-632.551	95.680	-0.075	-0.085
-631.536	150.882	0.233	-0.316
-630.522	-146.836	0.357	-0.031
-629.507	195.095	-0.178	-0.270
-628.492	-31.980	-0.380	-0.212
-627.478	800.000	-0.037	-0.136
-626.463	-187.297	0.259	-0.003
-625.449	800.000	-0.037	-0.108
-624.434	-49.761	0.388	0.183
-623.419	-200.000	-0.021	-0.171
-622.405	126.400	0.173	0.217
-621.390	-22.368	0.104	-0.063
-620.376	-200.000	-0.006	0.074
-619.361	49.042	-0.280	-0.261
-618.346	55.847	0.215	-0.207
-617.332	-200.000	-0.049	-0.335
-616.317	-200.000	-0.029	-0.323
-615.303	-101.973	0.254	0.061
-614.288	-200.000	0.039	-0.263
-613.273	-15.139	-0.225	0.143
-612.259	-200.000	-0.020	-0.095
-611.244	357.104	0.225	0.446
-610.230	-67.618	0.245	0.095
-609.215	-127.630	-0.481	-0.069
-608.201	-35.693	0.325	-0.175
-607.186	-159.738	0.399	0.022
-606.171	-200.000	0.040	0.230
-605.157	157.502	-0.272	0.374
-604.142	800.000	-0.029	0.102
-603.128	39.625	-0.067	-0.060
-602.113	155.345	-0.150	-0.205
-601.098	358.249	-0.132	-0.262
-600.084	-200.000	0.011	0.105
-599.069	8.281	-0.064	0.048
-598.055	39.090	-0.208	0.185
-597.040	-46.175	-0.161	0.079
-596.025	800.000	0.070	0.195
-595.011	-64.280	-0.054	0.022
-593.996	103.008	-0.067	-0.079
-592.982	-93.894	0.130	0.036
-591.967	204.440	-0.118	0.182
-590.952	-73.952	0.356	-0.128
-589.938	800.000	-0.072	-0.263
-588.923	-131.526	-0.162	-0.021
-587.909	74.904	0.107	0.112
-586.894	2.949	-0.196	-0.141
-585.879	-200.000	-0.041	-0.229
-584.865	800.000	0.083	-0.348
-583.850	59.798	0.142	-0.139
-582.836	-200.000	0.023	-0.392
-581.821	164.455	-0.173	0.242
-580.806	-39.444	-0.052	-0.027
-579.792	-30.105	0.081	-0.046
-578.777	-114.235	-0.469	0.090
-577.763	-200.000	-0.029	0.240
-576.748	-173.292	-0.380	0.011
-575.733	-117.625	-0.352	0.063
-574.719	-200.000	0.013	0.076
-573.704	272.270	0.077	0.136
-572.690	495.784	0.096	0.219
-571.675	88.872	0.139	-0.154
-570.661	-6.551	-0.249	0.169
-569.646	-84.203	-0.285	0.090
-568.631	-4.686	0.381	-0.261
-567.617	-200.000	0.033	0.000
-566.602	-200.000	0.087	0.508
-565.588	-57.956	0.222	0.096
-564.573	-25.076	0.147	0.087
-563.558	-29.979	-0.094	0.053
-562.544	-200.000	0.021	0.157
-561.529	-4.659	-0.313	0.214
-560.515	-74.588	0.308	0.110
-559.500	-104.294	0.150	-0.034
-558.485	5.750	0.278	-0.204
-557.471	237.137	0.136	0.224
-556.456	-44.483	-0.237	-0.118
-555.442	215.678	0.110	-0.173
-554.427	-10.329	0.186	-0.122
-553.412	800.000	0.021	-0.087
-552.398	-27.820	-0.318	-0.183
-551.383	-186.708	0.239	-0.003
-550.369	405.677	-0.060	0.126
-549.354	-48.113	0.082	0.039
-548.339	476.660	-0.072	-0.162
-547.325	149.258	-0.076	0.102
-546.310	273.743	0.151	0.265
-545.296	-200.000	-0.022	0.168
-544.281	-149.512	0.190	-0.015
-543.266	10.891	0.316	0.239
-542.252	14.160	-0.109	-0.084
-541.237	-141.499	-0.311	-0.031
-540.223	-89.798	0.141	-0.041
-539.208	-18.031	-0.211	-0.131
-538.193	-150.658	-0.091	-0.007
-537.179	-200.000	0.017	-0.118
-536.164	-116.216	-0.516	-0.095
-535.150	-159.251	0.246	0.014
-534.135	-2.718	-0.162	-0.112
-533.121	154.439	-0.209	-0.285
-532.106	-17.252	0.092	-0.058
-531.091	800.000	0.111	0.327
-530.077	-33.126	0.115	0.063
-529.062	-5.433	-0.096	-0.065
-528.048	142.260	-0.083	0.110
-527.033	75.592	-0.183	-0.192
-526.018	-200.000	-0.014	0.099
-525.004	-124.951	0.127	-0.019
-523.989	287.017	0.152	-0.272
-522.975	59.672	0.084	0.082
-521.960	-200.000	-0.026	0.219
-520.945	-49.255	-0.255	-0.121
-519.931	-96.473	-0.375	0.098
-518.916	-200.000	-0.051	-0.360
-517.902	-129.009	-0.475	-0.066
-516.887	800.000	-0.100	-0.286
-515.872	-62.613	0.277	0.114
-514.858	800.000	-0.082	0.319
-513.843	-200.000	-0.038	-0.196
-512.829	508.771	0.052	-0.120
-511.814	150.569	0.080	-0.107
-510.799	-7.508	-0.081	0.054
-509.785	232.530	-0.153	0.249
-508.770	79.814	0.173	-0.184
-507.756	-128.919	0.281	-0.039
-506.741	-7.820	-0.272	-0.182
-505.726	204.746	-0.089	0.137
-504.712	164.344	0.043	0.060
-503.697	-50.312	-0.305	0.143
-502.683	-145.922	0.276	-0.024
-501.668	-145.566	0.166	0.015
-500.653	-68.474	-0.235	0.090
-499.639	229.588	-0.232	0.376
-498.624	234.544	-0.205	0.334
-497.610	-147.227	0.270	-0.023
-496.595	-1.287	0.353	-0.247
-495.581	78.968	-0.181	-0.192
-494.566	-200.000	-0.026	-0.398
-493.551	800.000	-0.126	0.441
-492.537	-200.000	-0.049	-0.252
-491.522	309.883	-0.068	0.127
-490.508	800.000	-0.103	-0.284
-489.493	13.543	0.202	-0.155
-488.478	0.593	-0.172	0.122
-487.464	-108.262	0.352	0.075
-486.449	-75.556	-0.140	-0.049
-485.435	-200.000	-0.013	-0.356
-484.420	-97.279	-0.324	0.084
-483.405	800.000	-0.003	-0.008
-482.391	33.697	0.251	-0.216
-481.376	-200.000	-0.028	0.194
-480.362	49.871	-0.091	-0.085
-479.347	-25.795	0.222	-0.129
-478.332	-75.174	0.266	-0.094
-477.318	-73.382	0.219	-0.079
-476.303	-200.000	0.016	0.119
-475.289	-200.000	0.008	-0.052
-474.274	-200.000	0.018	0.191
-473.259	-30.246	0.008	-0.004
-472.245	-40.035	0.208	0.107
-471.230	124.138	0.182	0.226
-470.216	-91.107	0.083	0.024
-469.201	-85.318	0.248	0.076
-468.186	-50.211	0.132	-0.062
-467.172	-93.784	-0.287	-0.078
-466.157	-92.321	-0.087	-0.024
-465.143	800.000	-0.082	0.295
-464.128	-101.051	-0.252	-0.061
-463.113	-125.858	0.185	-0.028
-462.099	800.000	0.033	0.114
-461.084	800.000	0.056	0.184
-460.070	800.000	-0.114	-0.457
-459.055	-129.881	0.271	-0.037
-458.040	-200.000	-0.038	-0.238
-457.026	-200.000	0.013	0.396
-456.011	192.270	-0.105	-0.157
-454.997	-64.775	0.378	0.151
-453.982	-200.000	0.041	0.315
-452.968	-22.312	-0.167	-0.100
-451.953	150.229	-0.064	0.086
-450.938	-200.000	-0.002	-0.095
-449.924	-4.750	-0.175	0.119
-448.909	-86.103	-0.505	0.154
-447.895	-200.000	-0.042	0.197
-446.880	-147.700	0.114	0.009
-445.865	48.191	-0.122	-0.113
-444.851	-116.818	0.197	0.036
-443.836	-90.381	0.230	-0.066
-442.822	714.307	-0.098	-0.256
-441.807	276.491	-0.125	0.220
-440.792	-57.687	0.345	0.149
-439.778	18.780	-0.070	0.056
-438.763	-200.000	0.013	-0.074
-437.749	800.000	-0.066	0.202
-436.734	460.553	-0.126	-0.278
-435.719	288.318	-0.016	0.028
-434.705	-86.700	-0.073	-0.022
-433.690	-148.312	0.151	-0.012
-432.676	-14.861	-0.267	-0.169
-431.661	-159.811	-0.296	0.016
-430.646	-16.430	-0.202	-0.126
-429.632	-125.439	-0.075	0.011
-428.617	281.996	0.119	0.211
-427.603	800.000	0.088	-0.300
-426.588	160.620	-0.056	-0.077
-425.573	174.094	0.034	-0.048
-424.559	-200.000	-0.062	-0.359
-423.544	-104.865	-0.362	-0.082
-422.530	-22.362	-0.162	-0.097
-421.515	147.441	0.106	-0.140
-420.500	800.000	-0.031	0.101
-419.486	-46.594	-0.201	-0.097
-418.471	751.293	-0.074	-0.197
-417.457	-144.903	-0.114	-0.010
-416.442	150.788	-0.194	-0.260
-415.428	183.547	0.067	0.098
-414.413	746.221	-0.057	-0.152
-413.398	800.000	0.021	-0.090
-412.384	-54.801	-0.300	0.134
-411.369	-200.000	-0.005	0.054
-410.355	6.386	-0.267	-0.195
-409.340	28.907	-0.182	0.152
-408.325	115.373	0.171	-0.206
-407.311	-200.000	-0.001	0.135
-406.296	-71.551	-0.127	-0.047
-405.282	-200.000	-0.007	0.197
-404.267	-200.000	0.011	0.170
-403.252	503.692	0.128	0.292
-402.238	38.118	0.081	0.071
-401.223	-152.513	0.360	0.025
-400.209	18.798	0.164	-0.130
-399.194	-46.608	-0.138	0.067
-398.179	-2.972	-0.189	-0.130
-397.165	-30.309	-0.053	-0.030
-396.150	654.828	0.033	0.084
-395.136	46.807	-0.130	-0.119
-394.121	8.753	0.140	0.104
-393.106	800.000	-0.048	0.165
-392.092	-90.645	0.361	-0.103
-391.077	195.751	-0.214	0.321
-390.063	4.181	0.199	0.144
-389.048	0.510	-0.141	0.099
-388.033	-60.345	0.405	-0.170
-387.019	255.614	0.010	-0.018
-386.004	-200.000	0.005	-0.163
-384.990	800.000	-0.026	0.111
-383.975	19.650	-0.386	0.306
-382.960	-95.455	0.374	-0.099
-381.946	-146.367	0.221	-0.019
-380.931	112.635	-0.194	-0.232
-379.917	-89.688	0.192	0.055
-378.902	51.167	0.149	-0.140
-377.888	16.973	-0.137	0.107
-376.873	800.000	0.076	0.281
-375.858	-26.485	-0.067	-0.039
-374.844	405.737	-0.066	0.137
-373.829	93.652	-0.061	-0.068
-372.815	-200.000	0.015	-0.077
-371.800	125.161	0.273	-0.339
-370.785	94.944	0.173	0.194
-369.771	-97.885	-0.208	0.053
-368.756	1.913	-0.017	-0.012
-367.742	430.529	-0.048	0.102
-366.727	366.762	0.055	0.109
-365.712	-29.981	0.234	0.131
-364.698	81.504	-0.211	-0.225
-363.683	-64.637	0.386	-0.154
-362.669	396.105	-0.101	-0.207
-361.654	24.623	-0.191	-0.156
-360.639	630.017	0.084	-0.209
-359.625	38.529	-0.113	-0.099
-358.610	77.059	-0.318	-0.333
-357.596	503.688	-0.030	-0.067
-356.581	146.084	0.023	0.031
-355.566	-28.360	-0.180	-0.102
-354.552	800.000	0.087	0.330
-353.537	800.000	0.071	0.195
-352.523	21.357	0.252	-0.201
-351.508	106.096	-0.161	0.188
-350.493	166.935	0.131	0.182
-349.479	-200.000	0.009	-0.128
-348.464	434.366	-0.051	0.109
-347.450	-55.195	0.213	0.094
-346.435	335.479	0.153	0.291
-345.420	-66.566	0.115	0.045
-344.406	-200.000	0.076	0.364
-343.391	-200.000	0.001	-0.239
-342.377	800.000	0.061	-0.229
-341.362	-4.406	-0.496	0.337
-340.348	-10.909	-0.156	0.101
-339.333	40.348	-0.069	0.061
-338.318	-75.859	0.030	-0.011
-337.304	-34.309	-0.113	0.061
-336.289	-73.750	0.299	0.107
-335.275	-173.824	-0.216	0.006
-334.260	269.274	-0.186	0.321
-333.245	800.000	0.081	0.251
-332.231	46.519	-0.150	0.137
-331.216	-116.464	-0.205	-0.037
-330.202	196.062	0.029	0.044
-329.187	800.000	0.133	-0.544
-328.172	800.000	-0.046	0.143
-327.158	-11.979	-0.375	-0.242
-326.143	800.000	0.063	-0.198
-325.129	-179.142	-0.247	0.005
-324.114	-91.897	-0.115	-0.032
-323.099	-69.350	-0.279	0.105
-322.085	65.257	0.292	0.290
-321.070	159.728	0.064	0.087
-320.056	20.003	-0.093	-0.074
-319.041	-200.000	-0.029	0.152
-318.026	-111.006	-0.153	0.031
-317.012	800.000	-0.055	-0.182
-315.997	-200.000	-0.034	0.242
-314.983	42.182	0.191	0.170
-313.968	-48.042	-0.336	-0.160
-312.953	-200.000	-0.033	0.359
-311.939	-54.944	-0.180	-0.080
-310.924	36.193	0.311	0.270
-309.910	35.916	-0.246	0.212
-308.895	57.055	-0.198	0.190
-307.880	-200.000	0.070	0.365
-306.866	59.936	0.090	0.087
-305.851	56.479	0.035	0.034
-304.837	-118.725	-0.338	0.059
-303.822	-150.667	0.290	0.022
-302.807	-168.776	-0.242	-0.009
-301.793	136.072	0.184	-0.236
-300.778	800.000	0.041	-0.155
-299.764	444.186	0.050	0.108
-298.749	-55.598	0.198	-0.087
-297.735	-200.000	0.026	-0.178
-296.720	-138.738	-0.089	0.010
-295.705	-200.000	-0.039	-0.224
-294.691	-200.000	0.097	-0.438
-293.676	-31.285	-0.221	0.122
-292.662	-200.000	0.008	0.223
-291.647	-181.058	0.419	-0.008
-290.632	93.182	-0.169	-0.188
-289.618	172.855	-0.090	-0.128
-288.603	800.000	-0.060	0.245
-287.589	-82.946	-0.227	0.072
-286.574	452.032	0.116	-0.251
-285.559	-200.000	-0.074	-0.388
-284.545	-200.000	0.018	-0.285
-283.530	-148.886	-0.298	-0.024
-282.516	-100.765	0.327	0.079
-281.501	640.523	-0.018	0.046
-280.486	-26.699	-0.314	-0.180
-279.472	-141.201	0.620	-0.062
-278.457	-122.600	-0.124	0.020
-277.443	800.000	0.067	0.212
-276.428	-200.000	-0.021	0.210
-275.413	229.456	-0.021	-0.033
-274.399	-127.006	0.102	0.015
-273.384	-26.425	-0.156	0.090
-272.370	-105.760	0.378	-0.084
-271.355	800.000	0.064	0.269
-270.340	800.000	-0.115	0.375
-269.326	-96.458	0.377	-0.098
-268.311	766.823	0.098	-0.262
-267.297	107.419	0.190	0.222
-266.282	800.000	0.068	-0.196
-265.267	-74.095	0.216	-0.077
-264.253	-156.104	-0.171	-0.011
-263.238	63.774	0.220	0.217
-262.224	33.924	0.116	-0.099
-261.209	-200.000	-0.035	0.162
-260.195	-19.643	0.276	-0.167
-259.180	-200.000	-0.032	0.266
-258.165	-130.263	0.242	0.032
-257.151	-200.000	-0.014	-0.179
-256.136	148.829	0.104	0.138
-255.122	800.000	0.071	-0.295
-254.107	-40.632	-0.171	0.087
-253.092	21.400	-0.118	-0.094
-252.078	158.322	0.066	0.090
-251.063	441.949	0.097	-0.207
-250.049	444.610	0.137	0.294
-249.034	-51.439	-0.423	-0.194
-248.019	-181.184	0.156	-0.003
-247.005	-125.354	-0.327	-0.049
-245.990	-4.726	0.266	-0.180
-244.976	-33.466	-0.297	-0.161
-243.961	545.625	-0.098	-0.228
-242.946	800.000	0.011	-0.036
-241.932	-54.571	-0.056	-0.025
-240.917	266.768	0.093	-0.159
-239.903	-200.000	0.002	0.258
-238.888	774.916	0.126	0.336
-237.873	-39.540	0.255	-0.131
-236.859	183.658	0.143	-0.207
-235.844	381.596	0.007	-0.014
-234.830	786.917	-0.049	-0.132
-233.815	94.282	-0.157	-0.175
-232.800	800.000	-0.063	0.175
-231.786	89.974	-0.105	-0.115
-230.771	800.000	0.063	-0.188
-229.757	-200.000	0.088	0.473
-228.742	-180.899	-0.371	-0.007
-227.727	354.273	0.136	0.264
-226.713	45.569	0.147	0.133
-225.698	-67.272	0.060	-0.023
-224.684	-200.000	-0.005	-0.045
-223.669	800.000	0.073	0.295
-222.655	-200.000	0.016	0.111
-221.640	58.122	0.117	0.112
-220.625	12.542	0.461	0.348
-219.611	-90.566	-0.181	-0.051
-218.596	376.077	0.119	-0.239
-217.582	-102.894	-0.123	0.029
-216.567	103.092	-0.155	-0.177
-215.552	224.459	0.066	0.105
-214.538	800.000	-0.045	0.156
-213.523	-200.000	-0.004	-0.269
-212.509	24.089	-0.150	0.121
-211.494	-57.606	0.136	0.059
-210.479	490.562	0.126	-0.282
-209.465	-72.519	-0.138	-0.050
-208.450	106.344	-0.111	0.129
-207.436	-200.000	-0.029	0.130
-206.421	69.068	-0.192	0.193
-205.406	36.826	0.097	0.084
-204.392	4.789	-0.295	0.212
-203.377	-80.626	0.233	0.076
-202.363	574.907	-0.174	-0.415
-201.348	800.000	-0.053	-0.195
-200.333	113.785	-0.171	-0.204
-199.319	-200.000	0.022	-0.144
-198.304	42.497	0.221	-0.196
-197.290	35.721	0.063	0.055
-196.275	-4.801	-0.280	0.189
-195.260	-200.000	0.075	-0.460
-194.246	-200.000	0.055	-0.238
-193.231	-34.196	-0.335	0.180
-192.217	-200.000	0.002	0.084
-191.202	-65.926	-0.187	0.073
-190.187	-200.000	-0.031	0.272
-189.173	800.000	-0.106	0.434
-188.158	450.922	-0.136	-0.293
-187.144	130.659	0.109	-0.137
-186.129	-200.000	0.044	0.208
-185.114	230.089	0.242	0.386
-184.100	-200.000	-0.012	-0.149
-183.085	-117.657	0.159	-0.028
-182.071	-109.250	0.480	-0.100
-181.056	-200.000	-0.003	-0.072
-180.042	746.547	0.057	0.150
-179.027	800.000	0.035	-0.107
-178.012	-200.000	-0.011	-0.199
-176.998	-29.735	0.236	0.131
-175.983	-200.000	0.040	0.190
-174.969	-101.134	-0.241	-0.058
-173.954	-133.036	-0.119	-0.015
-172.939	-26.036	-0.189	0.109
-171.925	-119.482	0.342	0.058
-170.910	640.305	-0.075	0.187
-169.896	-91.997	0.084	-0.023
-168.881	-200.000	-0.038	-0.240
-167.866	-91.582	0.317	-0.088
-166.852	242.783	0.183	0.299
-165.837	347.835	0.121	0.233
-164.823	-25.119	0.167	0.096
-163.808	-107.781	-0.254	-0.054
-162.793	-130.471	0.109	-0.014
-161.779	11.116	-0.204	0.152
-160.764	-200.000	0.014	-0.275
-159.750	-200.000	-0.040	-0.190
-158.735	-38.834	-0.255	-0.131
-157.720	135.676	-0.142	0.181
-156.706	-182.503	0.194	-0.003
-155.691	-119.646	-0.294	-0.050
-154.677	86.147	0.122	-0.131
-153.662	-14.810	0.217	-0.136
-152.647	161.095	0.305	-0.416
-151.633	-89.280	-0.217	0.063
-150.618	-62.103	0.209	-0.085
-149.604	800.000	0.016	0.051
-148.589	-200.000	-0.009	0.082
-147.574	-105.447	-0.127	0.028
-146.560	2.442	-0.231	-0.163
-145.545	-200.000	0.041	-0.177
-144.531	28.945	0.396	-0.328
-143.516	2.463	-0.082	-0.058
-142.502	-200.000	-0.007	-0.115
-141.487	78.320	0.274	0.286
-140.472	28.634	0.115	-0.095
-139.458	5.747	0.140	0.101
-138.443	7.238	0.146	0.107
-137.429	52.029	0.080	-0.074
-136.414	412.968	0.047	0.097
-135.399	1.047	0.347	0.243
-134.385	175.765	0.104	0.147
-133.370	46.674	0.194	0.176
-132.356	-60.333	0.063	0.026
-131.341	-41.598	-0.101	-0.050
-130.326	-13.808	0.286	-0.181
-129.312	202.132	-0.093	-0.140
-128.297	616.793	-0.045	0.111
-127.283	-200.000	-0.016	-0.340
-126.268	800.000	0.062	-0.178
-125.253	45.647	0.178	-0.161
-124.239	70.768	0.135	-0.137
-123.224	196.514	0.161	-0.240
-122.210	-139.936	-0.366	0.038
-121.195	39.234	0.078	0.068
