DTS Sentinel unit serial number:	SN413079Multiplexer serial number:	ORYXHardware model number:	OX4-SRSoftware version number:	ORYX F/W v4.00 Oryx Data Collector v3.7.2.0data status	okinstallation	princeton_trtdifferential loss correction	single-endedforward channel	channel 3reverse channel	N/Adate	2019/09/14time	03:32:35forward acquisition time	60.00reverse acquisition time	0.00gamma	496.2192k internal	0.2339k external	0.2339temperature offset calibration	1.0053default loss term (dB/km)	0.3790temperature slope calibration	1.0000multiplexer offset coefficient	1.0000multiplexer slope coefficient	1.0000fibre end	0.00T internal ref (°C)	26.62T ext. ref 1 (°C)	3.28T ext. ref 2 (°C)	21.57length (m)	temperature (°C)	Stokes	anti-Stokes-747.200	800.000	0.032	-0.105
-746.185	343.049	0.119	-0.233
-745.171	-200.000	0.060	0.295
-744.156	-134.056	-0.188	0.023
-743.142	-200.000	-0.056	0.261
-742.127	-148.029	-0.313	-0.026
-741.112	22.806	0.118	-0.097
-740.098	-28.752	-0.508	0.293
-739.083	-168.578	-0.049	0.002
-738.069	216.498	-0.132	0.211
-737.054	350.179	-0.068	0.134
-736.039	111.119	-0.071	-0.085
-735.025	-145.727	-0.183	-0.016
-734.010	-200.000	0.030	-0.199
-732.996	-58.403	0.158	0.069
-731.981	67.815	-0.351	-0.360
-730.966	-158.421	0.226	0.013
-729.952	-200.000	0.056	0.322
-728.937	-200.000	-0.010	-0.098
-727.923	32.572	-0.271	0.235
-726.908	193.487	0.027	-0.041
-725.894	454.571	0.101	-0.225
-724.879	-95.621	-0.292	0.078
-723.864	-64.877	0.167	-0.068
-722.850	423.183	-0.071	0.154
-721.835	-68.573	0.024	-0.009
-720.821	-126.925	-0.225	0.033
-719.806	17.940	0.125	-0.100
-718.791	-84.706	-0.199	-0.063
-717.777	-160.315	0.423	0.023
-716.762	-130.842	-0.298	-0.040
-715.748	-200.000	0.032	0.297
-714.733	800.000	0.067	0.273
-713.718	-168.610	-0.206	0.008
-712.704	-98.988	0.084	-0.021
-711.689	34.142	0.148	-0.129
-710.675	-159.830	-0.325	-0.018
-709.660	396.665	-0.071	0.149
-708.645	649.904	-0.089	-0.227
-707.631	-11.881	-0.302	0.198
-706.616	164.405	-0.187	-0.264
-705.602	262.190	0.121	0.210
-704.587	-139.974	0.199	0.021
-703.572	-62.249	-0.299	-0.125
-702.558	-200.000	0.044	-0.541
-701.543	-80.593	-0.014	-0.005
-700.529	-61.566	-0.217	-0.091
-699.514	699.689	-0.156	0.411
-698.499	50.207	0.052	-0.049
-697.485	-181.969	0.476	-0.009
-696.470	522.708	0.035	-0.081
-695.456	-149.337	-0.056	-0.004
-694.441	117.683	-0.096	-0.118
-693.426	127.118	0.060	-0.077
-692.412	76.330	-0.140	-0.149
-691.397	40.000	-0.202	-0.181
-690.383	12.984	-0.159	0.123
-689.368	-200.000	-0.019	0.300
-688.354	-79.682	-0.051	-0.017
-687.339	-96.668	-0.558	-0.147
-686.324	-60.608	0.078	0.033
-685.310	-200.000	0.005	0.230
-684.295	191.800	-0.154	-0.232
-683.281	-16.027	-0.365	0.232
-682.266	800.000	0.045	0.151
-681.251	-29.300	-0.018	-0.011
-680.237	277.744	-0.104	0.186
-679.222	-16.159	-0.120	-0.076
-678.208	584.658	0.064	-0.158
-677.193	-200.000	0.029	0.322
-676.178	282.800	0.239	-0.429
-675.164	278.989	-0.038	-0.067
-674.149	-47.180	0.196	0.095
-673.135	45.643	-0.168	-0.155
-672.120	136.434	-0.113	-0.147
-671.105	33.258	-0.121	-0.105
-670.091	462.913	-0.069	-0.153
-669.076	499.780	0.086	-0.197
-668.062	-135.073	-0.153	-0.018
-667.047	-22.908	0.059	-0.035
-666.032	244.654	-0.113	0.190
-665.018	478.723	-0.046	-0.104
-664.003	-79.092	-0.390	0.133
-662.989	-14.546	-0.100	0.064
-661.974	-66.537	-0.213	-0.084
-660.959	-200.000	-0.005	0.052
-659.945	800.000	0.080	-0.236
-658.930	-125.265	-0.254	-0.039
-657.916	800.000	-0.060	0.185
-656.901	-114.445	0.054	-0.010
-655.886	361.952	0.121	0.242
-654.872	-66.937	0.109	0.043
-653.857	150.422	-0.201	0.273
-652.843	-117.992	-0.422	-0.075
-651.828	-163.383	0.182	0.009
-650.814	-15.334	-0.346	0.221
-649.799	-69.504	0.189	0.072
-648.784	387.711	0.126	-0.261
-647.770	-51.577	-0.250	-0.116
-646.755	214.029	-0.275	-0.434
-645.741	385.449	0.105	-0.216
-644.726	61.485	0.218	-0.217
-643.711	-142.773	-0.214	0.021
-642.697	-200.000	0.003	-0.370
-641.682	94.075	-0.139	0.158
-640.668	-103.640	-0.194	-0.046
-639.653	-200.000	0.033	0.264
-638.638	93.369	0.190	-0.215
-637.624	-156.572	0.326	-0.020
-636.609	800.000	-0.068	0.190
-635.595	-200.000	-0.008	0.240
-634.580	702.026	0.079	-0.209
-633.565	-37.242	0.308	-0.164
-632.551	-166.685	-0.061	-0.003
-631.536	-91.235	0.082	0.023
-630.522	-200.000	-0.040	-0.238
-629.507	800.000	0.031	-0.113
-628.492	-49.786	0.250	0.118
-627.478	-200.000	-0.008	0.073
-626.463	663.500	-0.107	-0.277
-625.449	-10.865	0.055	0.036
-624.434	800.000	-0.015	0.052
-623.419	387.063	0.059	0.122
-622.405	-3.114	0.169	-0.118
-621.390	292.184	-0.198	0.360
-620.376	-200.000	-0.053	0.256
-619.361	169.977	-0.150	-0.214
-618.346	-187.356	-0.111	0.001
-617.332	57.594	-0.199	0.194
-616.317	-200.000	0.031	-0.348
-615.303	-151.948	-0.394	-0.029
-614.288	268.009	-0.129	-0.226
-613.273	65.625	0.025	-0.026
-612.259	-168.129	0.153	0.006
-611.244	581.163	0.180	-0.441
-610.230	638.301	-0.064	0.164
-609.215	-139.806	0.088	-0.009
-608.201	800.000	0.053	0.165
-607.186	-200.000	-0.025	-0.383
-606.171	8.465	0.184	0.138
-605.157	-103.396	0.034	0.008
-604.142	-146.006	0.155	0.014
-603.128	-82.934	0.426	0.137
-602.113	-5.578	-0.187	-0.128
-601.098	104.568	0.179	0.210
-600.084	341.506	-0.190	0.370
-599.069	-45.506	-0.181	0.089
-598.055	528.809	-0.177	0.417
-597.040	338.361	-0.104	0.201
-596.025	-200.000	0.021	0.130
-595.011	536.802	0.080	-0.189
-593.996	121.536	-0.156	-0.194
-592.982	126.835	-0.107	-0.135
-591.967	44.125	0.160	-0.146
-590.952	-148.366	0.423	-0.035
-589.938	458.271	-0.128	0.283
-588.923	-200.000	-0.007	-0.084
-587.909	40.462	-0.340	0.306
-586.894	-106.725	0.158	-0.035
-585.879	-200.000	0.315	-0.001
-584.865	-200.000	0.015	0.301
-583.850	-200.000	0.000	0.104
-582.836	-24.869	-0.185	0.109
-581.821	-83.021	0.050	-0.016
-580.806	105.915	-0.090	-0.106
-579.792	-68.999	0.227	0.087
-578.777	-12.887	0.099	-0.064
-577.763	-200.000	-0.006	0.253
-576.748	36.604	0.129	0.113
-575.733	-102.019	-0.141	0.034
-574.719	-189.717	-0.331	-0.004
-573.704	-20.114	0.061	-0.037
-572.690	800.000	0.047	-0.138
-571.675	-91.907	0.253	-0.071
-570.661	431.628	0.098	-0.212
-569.646	800.000	-0.035	0.122
-568.631	24.139	-0.219	-0.180
-567.617	101.169	0.230	-0.266
-566.602	-93.051	-0.138	0.038
-565.588	-200.000	-0.021	0.310
-564.573	108.875	-0.155	-0.184
-563.558	-23.585	0.379	0.227
-562.544	526.295	-0.091	-0.213
-561.529	702.735	0.093	0.243
-560.515	-200.000	0.095	0.432
-559.500	-52.842	0.461	0.211
-558.485	93.295	0.305	-0.343
-557.471	400.854	0.059	-0.123
-556.456	-200.000	-0.044	0.293
-555.442	113.127	-0.208	0.251
-554.427	-200.000	-0.036	-0.269
-553.412	-179.570	0.293	-0.006
-552.398	-180.575	0.098	0.002
-551.383	-200.000	0.026	0.178
-550.369	152.149	0.065	0.089
-549.354	-38.144	0.161	-0.085
-548.339	-99.353	0.349	-0.088
-547.325	233.880	0.125	0.204
-546.310	-87.197	0.276	-0.083
-545.296	-79.099	-0.117	0.040
-544.281	337.049	0.221	-0.428
-543.266	211.804	-0.134	-0.209
-542.252	-21.093	-0.141	-0.086
-541.237	-47.133	-0.120	0.058
-540.223	575.651	0.165	-0.400
-539.208	-132.636	-0.114	-0.015
-538.193	800.000	0.026	0.080
-537.179	-187.187	-0.317	-0.004
-536.164	131.592	-0.028	0.036
-535.150	-200.000	-0.010	-0.108
-534.135	-26.367	0.140	0.082
-533.121	5.598	-0.105	0.077
-532.106	-200.000	-0.076	0.505
-531.091	-0.855	0.047	0.033
-530.077	-46.618	0.301	0.147
-529.062	-200.000	-0.013	-0.175
-528.048	142.029	-0.010	-0.013
-527.033	-200.000	0.007	0.184
-526.018	50.323	0.165	0.155
-525.004	-200.000	0.022	-0.282
-523.989	-124.601	0.326	0.050
-522.975	562.038	-0.150	0.360
-521.960	-197.419	0.227	-0.001
-520.945	-99.953	0.261	-0.065
-519.931	800.000	0.116	0.344
-518.916	-103.912	-0.233	-0.054
-517.902	-70.408	-0.280	-0.105
-516.887	800.000	-0.058	0.223
-515.872	125.230	-0.161	0.202
-514.858	262.201	-0.141	0.242
-513.843	-62.787	-0.214	-0.088
-512.829	-123.666	0.103	0.016
-511.814	-22.668	0.235	0.141
-510.799	-25.172	-0.146	0.086
-509.785	-29.821	-0.173	-0.098
-508.770	-87.395	0.126	0.038
-507.756	235.091	0.227	-0.372
-506.741	12.535	-0.097	-0.074
-505.726	800.000	0.056	0.231
-504.712	264.933	0.215	0.372
-503.697	-4.844	-0.043	0.029
-502.683	-20.105	0.116	-0.071
-501.668	243.067	-0.059	0.099
-500.653	30.025	0.052	-0.044
-499.639	-200.000	-0.022	-0.282
-498.624	45.705	-0.206	0.189
-497.610	225.355	0.137	0.221
-496.595	50.063	-0.097	-0.091
-495.581	-123.884	0.142	0.022
-494.566	49.042	-0.137	-0.128
-493.551	192.126	-0.385	-0.576
-492.537	-200.000	0.032	-0.263
-491.522	58.182	-0.216	0.210
-490.508	-123.919	0.428	0.067
-489.493	-182.055	-0.186	-0.003
-488.478	-45.621	-0.311	-0.153
-487.464	-111.583	0.203	-0.041
-486.449	-200.000	-0.027	-0.289
-485.435	-7.685	0.058	0.039
-484.420	4.295	-0.212	-0.154
-483.405	-200.000	0.060	-0.437
-482.391	371.258	-0.097	-0.195
-481.376	71.535	-0.182	0.188
-480.362	-29.265	-0.024	0.014
-479.347	-198.516	0.329	0.002
-478.332	97.347	0.187	0.213
-477.318	344.583	0.088	0.171
-476.303	-83.715	-0.158	0.050
-475.289	-26.680	0.140	0.081
-474.274	-155.388	-0.339	0.022
-473.259	800.000	-0.055	-0.231
-472.245	14.156	0.076	-0.059
-471.230	-200.000	-0.001	0.013
-470.216	-59.928	0.165	-0.070
-469.201	-34.706	0.178	0.097
-468.186	358.820	0.123	-0.245
-467.172	-144.157	-0.314	0.029
-466.157	368.573	-0.099	-0.198
-465.143	-200.000	-0.088	-0.537
-464.128	126.942	-0.062	0.078
-463.113	-5.609	-0.210	0.143
-462.099	-122.138	0.184	-0.030
-461.084	-143.088	-0.345	-0.033
-460.070	-30.068	-0.496	-0.280
-459.055	129.772	-0.135	0.172
-458.040	-200.000	-0.026	-0.168
-457.026	47.436	-0.090	0.083
-456.011	145.121	0.119	0.158
-454.997	112.502	-0.243	-0.292
-453.982	-200.000	0.011	0.282
-452.968	-180.513	-0.170	-0.003
-451.953	-200.000	0.042	-0.548
-450.938	100.229	-0.008	0.009
-449.924	-50.984	-0.153	-0.071
-448.909	-120.684	-0.210	-0.035
-447.895	-184.871	0.179	0.003
-446.880	800.000	-0.042	-0.150
-445.865	239.376	-0.150	-0.248
-444.851	800.000	-0.053	-0.228
-443.836	227.329	0.142	-0.229
-442.822	-102.954	-0.167	0.039
-441.807	114.535	-0.197	0.238
-440.792	-139.284	0.384	0.041
-439.778	-200.000	-0.011	0.220
-438.763	-200.000	-0.017	-0.398
-437.749	-35.820	-0.279	0.150
-436.734	-124.249	0.318	0.049
-435.719	-200.000	-0.046	-0.254
-434.705	-200.000	0.014	-0.160
-433.690	418.811	0.126	-0.267
-432.676	-79.760	-0.316	-0.106
-431.661	87.607	0.175	-0.192
-430.646	140.838	-0.084	0.111
-429.632	28.162	0.362	0.303
-428.617	-76.183	-0.181	-0.063
-427.603	-107.765	0.272	0.059
-426.588	-44.394	0.217	0.108
-425.573	-151.005	0.187	0.014
-424.559	-200.000	-0.010	0.251
-423.544	-200.000	-0.001	0.034
-422.530	-44.959	-0.125	-0.062
-421.515	14.842	-0.205	-0.159
-420.500	150.320	-0.253	-0.340
-419.486	-44.955	0.200	-0.099
-418.471	455.379	-0.075	0.164
-417.457	800.000	-0.020	0.064
-416.442	22.332	-0.026	0.021
-415.428	800.000	-0.047	0.198
-414.413	-94.406	0.474	-0.128
-413.398	-200.000	-0.056	0.298
-412.384	-200.000	0.016	-0.130
-411.369	-157.208	0.234	-0.014
-410.355	9.956	-0.210	-0.158
-409.340	-200.000	-0.024	0.236
-408.325	251.133	0.183	0.307
-407.311	-200.000	0.004	0.201
-406.296	153.655	-0.202	-0.274
-405.282	49.838	0.049	0.046
-404.267	45.324	-0.216	-0.198
-403.252	378.201	-0.184	0.372
-402.238	800.000	-0.149	0.528
-401.223	142.502	0.035	0.046
-400.209	29.829	-0.320	0.270
-399.194	800.000	0.024	0.066
-398.179	84.118	0.246	0.266
-397.165	51.969	-0.198	0.186
-396.150	-85.511	0.180	-0.055
-395.136	-200.000	-0.009	0.548
-394.121	-98.661	0.245	-0.062
-393.106	-103.518	0.309	-0.072
-392.092	-200.000	0.004	-0.187
-391.077	-97.595	-0.096	0.025
-390.063	-42.267	0.158	-0.080
-389.048	-37.596	-0.267	0.141
-388.033	396.541	0.095	0.196
-387.019	293.107	-0.172	-0.310
-386.004	-16.665	-0.488	0.305
-384.990	209.849	0.148	0.230
-383.975	-44.268	0.223	-0.110
-382.960	2.155	-0.188	-0.134
-381.946	-54.602	0.406	-0.182
-380.931	488.489	0.045	-0.102
-379.917	-134.695	0.188	0.023
-378.902	-0.819	-0.040	0.028
-377.888	-78.255	-0.261	0.089
-376.873	-151.498	-0.283	-0.021
-375.858	800.000	-0.117	-0.326
-374.844	-108.176	-0.429	0.092
-373.829	-200.000	0.015	-0.088
-372.815	-70.792	-0.186	0.069
-371.800	19.689	0.240	0.191
-370.785	78.989	-0.125	0.132
-369.771	214.179	-0.170	-0.266
-368.756	-37.517	0.108	-0.057
-367.742	94.836	0.196	0.221
-366.727	-200.000	0.014	-0.101
-365.712	-200.000	-0.009	0.210
-364.698	-25.034	-0.210	-0.123
-363.683	310.687	0.038	0.070
-362.669	800.000	-0.090	-0.318
-361.654	-33.776	-0.324	0.177
-360.639	-200.000	0.033	-0.421
-359.625	111.187	0.051	-0.061
-358.610	-148.662	-0.428	0.034
-357.596	-13.795	-0.147	0.094
-356.581	-98.017	-0.258	-0.066
-355.566	170.260	-0.126	0.178
-354.552	679.705	0.033	-0.086
-353.537	-147.395	0.226	0.019
-352.523	-97.074	0.197	0.051
-351.508	800.000	-0.071	0.223
-350.493	-200.000	0.017	0.106
-349.479	507.390	0.070	0.161
-348.464	-61.990	-0.260	0.107
-347.450	-200.000	0.007	0.230
-346.435	45.200	-0.078	0.071
-345.420	450.419	0.043	-0.094
-344.406	-134.283	0.424	0.051
-343.391	-3.932	0.154	0.106
-342.377	-37.004	-0.202	0.107
-341.362	-103.098	-0.156	-0.037
-340.348	-200.000	-0.001	-0.347
-339.333	-200.000	0.055	0.265
-338.318	78.113	0.217	0.228
-337.304	134.663	0.021	-0.027
-336.289	-81.419	-0.144	-0.047
-335.275	-200.000	0.013	0.076
-334.260	-91.945	0.332	0.093
-333.245	-200.000	-0.094	-0.489
-332.231	-200.000	0.007	0.146
-331.216	-78.044	0.463	-0.157
-330.202	-200.000	0.003	0.068
-329.187	294.600	0.084	-0.152
-328.172	-8.640	-0.172	0.114
-327.158	-200.000	0.009	-0.050
-326.143	-200.000	-0.041	-0.201
-325.129	-119.484	-0.591	-0.101
-324.114	800.000	-0.072	-0.280
-323.099	11.687	-0.123	0.093
-322.085	103.179	0.100	-0.116
-321.070	123.530	-0.081	0.101
-320.056	94.166	-0.096	-0.107
-319.041	49.829	-0.178	-0.165
-318.026	-200.000	-0.003	-0.216
-317.012	-37.113	-0.076	-0.040
-315.997	-99.050	0.271	-0.068
-314.983	29.556	0.078	-0.065
-313.968	-200.000	-0.022	-0.177
-312.953	319.385	-0.122	0.227
-311.939	31.481	0.203	0.172
-310.924	-200.000	-0.039	0.230
-309.910	800.000	0.035	0.109
-308.895	719.584	-0.068	-0.177
-307.880	800.000	-0.133	0.390
-306.866	-101.439	0.601	0.144
-305.851	71.744	-0.072	-0.074
-304.837	-43.667	0.370	-0.184
-303.822	55.100	0.139	-0.132
-302.807	621.970	0.081	-0.202
-301.793	491.748	-0.040	0.090
-300.778	134.455	-0.096	-0.123
-299.764	102.013	-0.149	0.171
-298.749	117.527	-0.159	-0.193
-297.735	-51.676	0.128	0.059
-296.720	-71.770	0.189	0.070
-295.705	280.819	-0.187	-0.329
-294.691	657.624	-0.127	0.323
-293.676	-72.787	-0.101	-0.036
-292.662	-144.274	0.311	-0.029
-291.647	-200.000	-0.033	0.492
-290.632	-58.156	-0.138	0.059
-289.618	-200.000	0.043	-0.296
-288.603	-81.119	-0.052	-0.017
-287.589	-6.448	-0.319	0.214
-286.574	-128.268	-0.117	-0.016
-285.559	-200.000	-0.054	0.325
-284.545	-200.000	0.043	0.259
-283.530	129.708	0.181	0.228
-282.516	-88.211	-0.173	-0.051
-281.501	100.183	0.087	-0.100
-280.486	-16.334	-0.262	-0.164
-279.472	15.200	0.204	0.157
-278.457	-143.266	-0.023	0.002
-277.443	72.719	-0.139	-0.143
-276.428	-200.000	-0.014	0.135
-275.413	800.000	-0.059	0.201
-274.399	-61.137	0.094	-0.039
-273.384	29.895	0.036	0.030
-272.370	-92.027	-0.293	0.082
-271.355	-200.000	0.082	-0.439
-270.340	800.000	0.053	0.147
-269.326	800.000	-0.121	0.451
-268.311	-36.629	0.163	0.086
-267.297	89.344	-0.271	0.298
-266.282	62.054	0.146	-0.144
-265.267	-92.647	-0.119	0.033
-264.253	-200.000	0.015	-0.114
-263.238	-144.067	-0.063	0.006
-262.224	382.071	-0.197	0.399
-261.209	-142.872	0.364	-0.035
-260.195	-200.000	-0.005	-0.042
-259.180	-52.151	0.204	-0.093
-258.165	524.499	-0.099	0.229
-257.151	-200.000	0.029	-0.171
-256.136	-47.772	0.478	-0.228
-255.122	3.036	0.234	-0.168
-254.107	399.468	0.048	0.100
-253.092	800.000	-0.092	-0.265
-252.078	615.975	0.105	-0.259
-251.063	159.141	-0.202	0.277
-250.049	-140.198	0.267	0.028
-249.034	383.332	0.053	-0.107
-248.019	-99.691	0.152	0.038
-247.005	222.116	0.099	0.157
-245.990	1.567	-0.031	0.022
-244.976	256.309	-0.132	0.223
-243.961	389.102	-0.087	0.177
-242.946	-137.648	-0.094	0.010
-241.932	800.000	-0.048	-0.174
-240.917	256.538	-0.176	-0.297
-239.903	-136.768	0.450	-0.051
-238.888	-200.000	0.005	-0.062
-237.873	-27.676	-0.309	0.176
-236.859	426.036	-0.045	-0.096
-235.844	-10.406	0.146	0.095
-234.830	-100.390	0.232	-0.056
-233.815	630.886	0.123	-0.306
-232.800	-57.538	-0.165	-0.071
-231.786	-12.324	-0.073	0.047
-230.771	44.334	0.314	0.283
-229.757	184.867	0.040	-0.059
-228.742	-200.000	-0.030	0.190
-227.727	105.629	-0.175	0.203
-226.713	-14.869	-0.299	0.188
-225.698	-123.794	-0.099	0.015
-224.684	-26.335	-0.027	0.016
-223.669	-63.772	0.059	-0.024
-222.655	-99.701	0.226	0.056
-221.640	0.621	-0.150	-0.105
-220.625	-70.447	-0.354	0.132
-219.611	800.000	-0.121	0.409
-218.596	-128.037	0.097	0.014
-217.582	251.668	0.102	0.170
-216.567	-103.913	-0.076	-0.017
-215.552	236.257	0.153	0.248
-214.538	370.144	0.067	0.133
-213.523	457.178	-0.131	0.286
-212.509	-79.972	0.347	-0.114
-211.494	182.536	-0.116	0.168
-210.479	456.528	0.162	-0.354
-209.465	-200.000	-0.014	0.212
-208.450	534.132	0.053	-0.124
-207.436	101.946	-0.109	0.124
-206.421	106.625	0.133	-0.155
-205.406	-89.215	-0.270	-0.078
-204.392	-132.235	0.241	-0.031
-203.377	-138.645	-0.225	-0.024
-202.363	-88.116	0.223	-0.066
-201.348	141.509	0.142	-0.185
-200.333	-65.208	-0.155	0.061
-199.319	-140.077	0.446	-0.046
-198.304	447.143	0.131	-0.283
-197.290	-200.000	-0.021	-0.134
-196.275	-78.013	0.147	-0.050
-195.260	-130.408	-0.099	-0.013
-194.246	443.406	-0.035	0.076
-193.231	-28.980	-0.179	0.101
-192.217	107.299	0.180	-0.210
-191.202	243.531	-0.177	-0.291
-190.187	800.000	0.039	0.118
-189.173	455.507	0.063	-0.137
-188.158	800.000	-0.043	-0.149
-187.144	71.714	-0.164	0.168
-186.129	486.914	-0.105	-0.236
-185.114	22.697	-0.200	0.161
-184.100	99.105	0.174	-0.197
-183.085	-106.511	0.201	-0.044
-182.071	-57.176	0.410	-0.177
-181.056	-81.976	0.075	-0.024
-180.042	-200.000	-0.022	0.101
-179.027	23.939	0.131	-0.106
-178.012	60.659	0.225	0.218
-176.998	800.000	-0.170	-0.469
-175.983	800.000	-0.101	-0.370
-174.969	800.000	0.033	-0.110
-173.954	-135.967	-0.269	0.031
-172.939	-200.000	-0.022	0.148
-171.925	-80.085	0.111	0.036
-170.910	-110.046	-0.356	-0.073
-169.896	329.926	0.069	0.130
-168.881	-200.000	0.004	-0.263
-167.866	-31.788	-0.104	-0.057
-166.852	6.439	-0.204	0.149
-165.837	20.001	-0.096	0.076
-164.823	-200.000	0.011	0.218
-163.808	-200.000	0.016	-0.218
-162.793	17.439	0.191	-0.149
-161.779	37.577	-0.162	0.141
-160.764	-200.000	0.057	0.362
-159.750	-200.000	-0.041	0.232
-158.735	-65.886	-0.218	0.086
-157.720	-151.683	0.250	-0.018
-156.706	-137.069	0.194	-0.022
-155.691	800.000	-0.040	-0.135
-154.677	-200.000	0.026	-0.208
-153.662	800.000	0.077	-0.300
-152.647	48.568	-0.251	-0.230
-151.633	-181.959	-0.223	0.004
-150.618	-200.000	0.009	0.066
-149.604	741.466	0.106	0.279
-148.589	-200.000	-0.012	-0.149
-147.574	30.277	-0.185	-0.155
-146.560	-72.968	0.107	-0.039
-145.545	28.487	-0.237	-0.196
-144.531	-86.732	-0.337	0.101
-143.516	193.533	-0.120	0.178
-142.502	-117.561	0.318	-0.056
-141.487	-200.000	-0.042	-0.449
-140.472	292.672	0.162	0.289
-139.458	-102.484	0.107	0.025
-138.443	-200.000	0.046	0.323
-137.429	176.281	0.100	0.143
-136.414	147.011	-0.052	-0.069
-135.399	-200.000	0.011	-0.049
-134.385	-131.364	-0.336	0.044
-133.370	800.000	0.028	-0.118
-132.356	800.000	-0.045	0.132
-131.341	30.233	-0.092	0.077
-130.326	-200.000	0.059	-0.264
-129.312	-110.697	-0.026	-0.005
-128.297	-200.000	-0.007	0.335
-127.283	63.657	-0.237	-0.233
-126.268	-7.627	0.125	-0.083
-125.253	-6.594	0.326	-0.218
-124.239	136.716	-0.065	-0.083
-123.224	-101.648	0.219	-0.052
