DTS Sentinel unit serial number:	SN413079Multiplexer serial number:	ORYXHardware model number:	OX4-SRSoftware version number:	ORYX F/W v4.00 Oryx Data Collector v3.7.2.0data status	okinstallation	princeton_trtdifferential loss correction	single-endedforward channel	channel 3reverse channel	N/Adate	2019/09/13time	00:52:35forward acquisition time	60.00reverse acquisition time	0.00gamma	496.2192k internal	0.2332k external	0.2332temperature offset calibration	1.0116default loss term (dB/km)	0.3790temperature slope calibration	1.0000multiplexer offset coefficient	1.0000multiplexer slope coefficient	1.0000fibre end	0.00T internal ref (°C)	28.14T ext. ref 1 (°C)	3.64T ext. ref 2 (°C)	22.61length (m)	temperature (°C)	Stokes	anti-Stokes-747.200	800.000	0.065	-0.198
-746.185	-125.308	0.180	0.028
-745.171	747.642	-0.125	0.340
-744.156	97.655	-0.210	0.242
-743.142	-21.638	-0.212	0.130
-742.127	19.665	0.386	0.312
-741.112	800.000	0.127	0.475
-740.098	766.348	-0.032	-0.089
-739.083	309.743	0.155	0.291
-738.069	-200.000	-0.105	0.581
-737.054	282.193	0.069	0.125
-736.039	-5.809	-0.104	-0.072
-735.025	242.858	0.070	0.118
-734.010	-200.000	-0.027	-0.179
-732.996	-22.388	-0.188	0.114
-731.981	-200.000	-0.007	-0.236
-730.966	-102.558	-0.390	0.094
-729.952	79.744	-0.205	-0.221
-728.937	185.268	-0.177	-0.264
-727.923	414.328	-0.124	-0.266
-726.908	-87.894	-0.509	-0.154
-725.894	-146.727	0.292	-0.025
-724.879	-64.057	-0.287	0.118
-723.864	-142.851	0.118	-0.012
-722.850	463.711	-0.050	0.111
-721.835	68.203	-0.133	-0.136
-720.821	733.569	-0.075	0.202
-719.806	800.000	-0.028	-0.118
-718.791	53.639	-0.164	0.158
-717.777	413.635	-0.018	0.039
-716.762	-38.065	-0.099	-0.053
-715.748	-200.000	-0.011	-0.052
-714.733	570.728	0.044	0.109
-713.718	387.140	-0.108	-0.224
-712.704	-200.000	-0.077	-0.475
-711.689	-132.116	-0.157	0.021
-710.675	-70.821	-0.393	0.149
-709.660	-39.406	-0.171	-0.090
-708.645	248.553	0.049	-0.084
-707.631	43.695	-0.234	-0.215
-706.616	228.520	-0.202	0.330
-705.602	12.796	0.271	-0.210
-704.587	179.545	-0.134	0.198
-703.572	-112.776	0.067	-0.013
-702.558	241.586	0.159	-0.267
-701.543	-115.856	-0.226	0.043
-700.529	12.547	0.075	-0.058
-699.514	-152.846	-0.197	0.014
-698.499	800.000	-0.068	-0.255
-697.485	-60.080	0.061	0.026
-696.470	800.000	0.026	-0.116
-695.456	-69.380	0.230	-0.089
-694.441	-64.191	0.110	-0.045
-693.426	594.599	0.025	0.062
-692.412	-200.000	0.059	0.405
-691.397	530.119	-0.072	-0.171
-690.383	695.685	-0.069	0.182
-689.368	611.788	-0.139	0.349
-688.354	22.072	-0.133	0.109
-687.339	-143.096	-0.238	0.023
-686.324	54.748	0.202	-0.196
-685.310	234.768	0.065	0.108
-684.295	-162.697	0.167	-0.008
-683.281	-200.000	0.047	0.329
-682.266	23.888	-0.072	0.060
-681.251	479.390	0.066	0.151
-680.237	316.193	-0.172	0.325
-679.222	800.000	-0.043	0.169
-678.208	800.000	-0.066	0.221
-677.193	-200.000	0.013	-0.246
-676.178	15.949	0.093	0.073
-675.164	62.436	-0.109	0.109
-674.149	48.611	0.015	-0.014
-673.135	78.785	0.349	-0.375
-672.120	-153.250	-0.179	-0.013
-671.105	-200.000	-0.047	-0.240
-670.091	-88.559	0.181	-0.054
-669.076	-104.948	-0.094	-0.022
-668.062	237.865	-0.071	-0.119
-667.047	130.941	0.103	-0.133
-666.032	792.557	-0.039	0.108
-665.018	69.801	0.281	-0.291
-664.003	-11.955	-0.128	-0.084
-662.989	-80.258	-0.275	0.092
-661.974	-200.000	-0.008	-0.112
-660.959	-175.508	-0.241	0.007
-659.945	-55.131	0.261	0.118
-658.930	65.734	-0.160	-0.162
-657.916	-81.171	-0.161	0.053
-656.901	-160.902	0.155	0.008
-655.886	-126.924	-0.336	0.050
-654.872	-150.876	-0.308	0.023
-653.857	-200.000	0.010	0.302
-652.843	-94.619	0.240	0.065
-651.828	-1.498	0.126	0.089
-650.814	-19.421	0.164	-0.102
-649.799	-118.519	-0.246	0.044
-648.784	-49.816	-0.432	-0.206
-647.770	-95.197	0.164	0.044
-646.755	83.434	0.050	0.054
-645.741	-200.000	0.095	-0.456
-644.726	-184.956	-0.186	-0.003
-643.711	-200.000	0.053	0.270
-642.697	195.746	0.129	-0.197
-641.682	-122.670	-0.081	0.013
-640.668	-200.000	0.025	0.266
-639.653	253.153	0.122	-0.208
-638.638	800.000	-0.094	0.270
-637.624	8.145	-0.210	-0.158
-636.609	-5.828	0.038	0.026
-635.595	181.930	-0.036	-0.053
-634.580	18.727	0.187	0.150
-633.565	-200.000	0.020	0.347
-632.551	-76.563	0.106	-0.037
-631.536	800.000	0.059	-0.206
-630.522	46.540	0.302	0.280
-629.507	800.000	-0.043	-0.178
-628.492	119.188	0.022	-0.027
-627.478	-200.000	-0.007	0.102
-626.463	173.738	-0.079	-0.115
-625.449	375.627	0.165	-0.337
-624.434	218.861	-0.087	-0.139
-623.419	133.264	-0.102	0.132
-622.405	-60.000	-0.225	-0.096
-621.390	-87.786	-0.157	-0.047
-620.376	81.444	0.142	0.154
-619.361	-128.609	0.381	0.054
-618.346	139.913	-0.165	-0.217
-617.332	-7.936	-0.129	0.087
-616.317	-155.365	0.261	0.017
-615.303	-133.439	-0.316	-0.040
-614.288	64.509	0.259	-0.261
-613.273	-131.692	-0.415	-0.055
-612.259	-41.536	0.153	-0.079
-611.244	58.387	0.109	0.107
-610.230	-200.000	0.052	-0.312
-609.215	154.163	0.275	-0.377
-608.201	-200.000	-0.001	0.129
-607.186	-15.327	0.333	0.213
-606.171	95.199	0.100	0.114
-605.157	149.217	0.170	0.230
-604.142	-130.215	-0.126	0.017
-603.128	-131.648	-0.178	-0.023
-602.113	329.373	0.064	0.122
-601.098	-198.804	-0.221	-0.001
-600.084	-200.000	-0.041	-0.473
-599.069	-116.291	-0.135	-0.025
-598.055	-134.697	0.180	0.022
-597.040	-85.693	-0.142	0.044
-596.025	-84.911	-0.080	0.025
-595.011	-31.631	0.209	0.117
-593.996	-173.091	-0.329	0.010
-592.982	800.000	0.087	-0.290
-591.967	-43.303	-0.163	-0.083
-590.952	800.000	-0.072	-0.264
-589.938	800.000	-0.062	0.253
-588.923	-200.000	-0.065	-0.487
-587.909	-130.646	-0.287	0.039
-586.894	161.486	0.214	-0.299
-585.879	348.847	0.201	0.396
-584.865	709.893	0.056	-0.147
-583.850	-36.831	-0.253	0.136
-582.836	-131.550	-0.159	0.021
-581.821	-139.449	-0.070	0.007
-580.806	-12.820	-0.084	0.055
-579.792	800.000	-0.047	-0.163
-578.777	-83.269	-0.310	-0.099
-577.763	-200.000	0.030	0.331
-576.748	17.700	0.062	0.049
-575.733	800.000	-0.024	0.096
-574.719	124.865	-0.106	-0.133
-573.704	-194.921	-0.325	-0.002
-572.690	-84.518	0.166	0.052
-571.675	89.986	0.132	0.148
-570.661	-200.000	0.009	-0.121
-569.646	65.119	0.194	0.196
-568.631	29.074	0.066	-0.056
-567.617	-200.000	0.007	-0.061
-566.602	-135.417	-0.279	-0.033
-565.588	-164.593	0.265	-0.012
-564.573	-200.000	-0.009	0.112
-563.558	-11.839	0.234	-0.153
-562.544	-17.083	0.398	-0.251
-561.529	-22.714	-0.217	-0.131
-560.515	-200.000	-0.026	-0.331
-559.500	800.000	0.102	0.368
-558.485	95.361	-0.327	-0.372
-557.471	-77.434	0.241	0.084
-556.456	-66.953	-0.057	0.023
-555.442	114.505	-0.285	-0.347
-554.427	330.677	0.082	-0.158
-553.412	-200.000	0.041	-0.260
-552.398	-20.354	-0.148	0.091
-551.383	61.580	-0.308	0.306
-550.369	-200.000	-0.004	0.142
-549.354	-122.815	-0.217	-0.035
-548.339	171.819	0.118	-0.169
-547.325	34.988	-0.300	0.262
-546.310	160.929	0.314	-0.438
-545.296	74.073	0.180	0.189
-544.281	-149.575	-0.247	-0.019
-543.266	-102.496	0.604	-0.144
-542.252	176.795	0.062	0.090
-541.237	-0.634	-0.156	-0.110
-540.223	-157.718	0.161	-0.010
-539.208	-121.428	-0.251	-0.042
-538.193	327.531	0.055	0.105
-537.179	0.765	0.296	-0.211
-536.164	212.626	0.080	0.126
-535.150	-97.584	0.099	-0.026
-534.135	-34.667	0.049	-0.027
-533.121	57.704	-0.241	0.235
-532.106	22.772	-0.226	-0.185
-531.091	800.000	0.056	-0.218
-530.077	204.632	0.136	0.211
-529.062	160.942	0.051	0.071
-528.048	-39.163	-0.344	-0.181
-527.033	-140.525	0.317	0.033
-526.018	-200.000	-0.013	-0.084
-525.004	-46.603	0.066	-0.032
-523.989	324.699	0.056	0.107
-522.975	-10.919	0.151	-0.100
-521.960	-39.566	0.171	0.089
-520.945	545.339	0.036	-0.087
-519.931	436.738	-0.182	-0.395
-518.916	-200.000	0.025	0.157
-517.902	-122.850	-0.161	-0.026
-516.887	-22.471	-0.208	0.126
-515.872	370.781	-0.131	0.265
-514.858	-200.000	-0.056	0.255
-513.843	-200.000	0.001	0.366
-512.829	421.883	0.093	0.199
-511.814	-200.000	-0.074	-0.336
-510.799	-11.259	0.177	0.116
-509.785	-192.313	-0.154	0.001
-508.770	-7.293	-0.180	0.121
-507.756	-77.358	0.172	-0.060
-506.741	-122.640	0.173	-0.028
-505.726	78.459	-0.243	0.258
-504.712	-200.000	0.067	0.356
-503.697	-59.027	-0.201	0.086
-502.683	220.859	0.136	0.218
-501.668	-132.797	-0.446	0.057
-500.653	800.000	-0.031	0.119
-499.639	-88.167	0.229	-0.068
-498.624	-104.002	0.109	-0.025
-497.610	30.368	0.197	-0.167
-496.595	-200.000	-0.042	-0.222
-495.581	267.618	-0.064	0.112
-494.566	-88.909	0.249	-0.074
-493.551	-116.035	-0.124	-0.023
-492.537	-69.354	0.266	-0.102
-491.522	-119.770	-0.164	0.028
-490.508	-53.530	0.092	0.042
-489.493	-13.392	0.104	0.067
-488.478	-200.000	0.015	0.391
-487.464	-70.165	-0.314	-0.119
-486.449	39.763	-0.143	0.128
-485.435	800.000	-0.040	0.157
-484.420	-200.000	0.039	-0.204
-483.405	629.575	0.083	-0.208
-482.391	-200.000	0.060	-0.302
-481.376	800.000	-0.043	-0.122
-480.362	-14.449	0.223	0.143
-479.347	-136.837	0.340	-0.039
-478.332	-144.290	-0.157	-0.015
-477.318	-200.000	0.028	-0.215
-476.303	-128.376	0.159	0.022
-475.289	88.866	0.072	-0.080
-474.274	-51.805	0.020	-0.009
-473.259	800.000	-0.151	-0.457
-472.245	-200.000	0.001	-0.033
-471.230	18.562	-0.178	0.141
-470.216	-11.640	-0.240	-0.157
-469.201	92.981	-0.197	-0.222
-468.186	-73.361	0.089	0.033
-467.172	384.272	-0.043	-0.089
-466.157	800.000	0.081	-0.330
-465.143	112.040	-0.153	-0.184
-464.128	91.883	0.182	-0.203
-463.113	234.609	0.189	-0.310
-462.099	148.577	0.109	0.147
-461.084	-200.000	-0.011	0.071
-460.070	-140.231	0.183	0.019
-459.055	-200.000	0.036	0.193
-458.040	-200.000	-0.016	-0.096
-457.026	119.224	-0.139	-0.171
-456.011	-105.201	0.029	-0.007
-454.997	-200.000	0.022	-0.197
-453.982	800.000	0.077	-0.249
-452.968	-15.499	-0.243	0.154
-451.953	-175.348	0.241	0.007
-450.938	-192.105	0.299	-0.003
-449.924	12.215	0.085	-0.065
-448.909	-99.994	0.361	0.090
-447.895	114.444	-0.122	0.148
-446.880	-152.726	0.307	-0.022
-445.865	-106.697	0.259	0.057
-444.851	106.230	-0.041	-0.049
-443.836	-8.148	-0.068	0.045
-442.822	6.945	-0.324	-0.240
-441.807	372.029	-0.178	-0.359
-440.792	-56.619	-0.108	0.047
-439.778	182.635	-0.163	0.239
-438.763	-44.467	0.191	0.095
-437.749	250.566	-0.142	-0.240
-436.734	-94.812	0.205	0.055
-435.719	32.958	0.145	-0.125
-434.705	-129.216	-0.291	0.040
-433.690	-200.000	0.008	0.076
-432.676	-124.712	-0.147	0.023
-431.661	227.782	0.162	0.263
-430.646	555.574	-0.097	0.233
-429.632	-75.579	-0.510	-0.180
-428.617	719.835	-0.069	0.184
-427.603	85.373	-0.306	-0.334
-426.588	800.000	-0.041	-0.142
-425.573	-24.880	0.267	0.158
-424.559	-32.880	0.125	0.069
-423.544	203.316	-0.130	-0.200
-422.530	-65.200	-0.202	-0.081
-421.515	268.573	-0.061	0.106
-420.500	299.305	0.042	0.078
-419.486	-61.411	0.339	-0.142
-418.471	69.089	0.339	-0.346
-417.457	117.456	0.147	-0.180
-416.442	-35.381	-0.143	0.077
-415.428	-200.000	0.012	-0.226
-414.413	114.034	0.110	0.132
-413.398	-28.988	-0.312	0.178
-412.384	-122.044	0.309	0.050
-411.369	-200.000	0.024	-0.364
-410.355	-98.615	-0.252	0.064
-409.340	93.124	-0.144	-0.162
-408.325	221.687	-0.115	-0.184
-407.311	481.722	0.178	-0.401
-406.296	23.362	-0.075	0.061
-405.282	-200.000	0.027	0.372
-404.267	800.000	0.132	-0.387
-403.252	-98.162	-0.097	-0.025
-402.238	140.775	-0.076	-0.100
-401.223	-4.853	-0.153	-0.105
-400.209	-103.152	0.145	0.034
-399.194	272.953	0.160	0.281
-398.179	-4.970	0.042	-0.029
-397.165	26.441	0.181	0.150
-396.150	-200.000	0.007	0.197
-395.136	-200.000	0.042	0.389
-394.121	61.273	0.138	-0.137
-393.106	-6.617	0.130	0.088
-392.092	362.308	-0.152	0.303
-391.077	-152.504	-0.246	-0.018
-390.063	-200.000	-0.028	-0.138
-389.048	-64.629	0.205	0.082
-388.033	-71.658	0.289	0.107
-387.019	-116.983	0.246	-0.045
-386.004	426.917	-0.044	0.094
-384.990	-116.257	-0.212	0.039
-383.975	414.575	-0.146	-0.309
-382.960	-147.353	-0.418	-0.035
-381.946	20.252	-0.082	0.066
-380.931	163.775	0.143	-0.200
-379.917	8.183	-0.291	0.216
-378.902	-97.905	-0.170	-0.043
-377.888	652.039	-0.006	0.016
-376.873	800.000	0.033	-0.098
-375.858	454.682	0.157	0.346
-374.844	31.798	-0.175	0.149
-373.829	282.628	-0.121	-0.216
-372.815	338.570	-0.071	0.136
-371.800	-155.762	0.360	0.023
-370.785	-40.061	-0.316	0.163
-369.771	-63.944	-0.029	0.012
-368.756	90.599	-0.153	0.170
-367.742	344.940	0.031	-0.060
-366.727	73.319	-0.077	-0.080
-365.712	800.000	0.054	-0.233
-364.698	-200.000	0.019	-0.120
-363.683	362.408	0.178	0.353
-362.669	-124.709	-0.413	0.063
-361.654	-136.314	0.259	-0.030
-360.639	-200.000	-0.011	0.063
-359.625	57.787	-0.095	-0.092
-358.610	101.523	0.127	0.147
-357.596	-200.000	0.014	0.232
-356.581	-81.392	0.187	0.061
-355.566	-175.517	0.087	0.002
-354.552	216.373	-0.167	-0.263
-353.537	159.621	0.144	-0.199
-352.523	-78.489	-0.066	-0.022
-351.508	-37.401	-0.381	0.201
-350.493	-47.992	-0.321	0.154
-349.479	-50.264	-0.302	0.142
-348.464	-200.000	0.026	-0.324
-347.450	-62.028	-0.210	-0.087
-346.435	-51.732	-0.027	-0.012
-345.420	723.496	-0.012	0.032
-344.406	241.719	-0.139	0.231
-343.391	27.170	0.091	-0.075
-342.377	195.999	0.163	0.246
-341.362	-103.887	-0.340	0.079
-340.348	-118.282	0.111	0.020
-339.333	51.068	-0.123	-0.116
-338.318	-149.587	-0.209	0.016
-337.304	-87.134	0.589	-0.177
-336.289	142.270	0.278	-0.366
-335.275	736.260	0.022	-0.060
-334.260	769.227	-0.074	0.200
-333.245	-13.199	-0.149	-0.096
-332.231	185.049	0.064	0.093
-331.216	247.036	-0.038	0.064
-330.202	-118.410	-0.181	0.032
-329.187	195.827	0.106	0.159
-328.172	123.701	-0.329	-0.409
-327.158	205.758	0.181	-0.279
-326.143	62.377	-0.082	0.081
-325.129	259.288	-0.035	-0.059
-324.114	775.469	-0.019	0.052
-323.099	-73.357	-0.477	0.173
-322.085	-200.000	0.001	-0.138
-321.070	-114.589	-0.155	0.029
-320.056	800.000	0.038	0.147
-319.041	679.753	-0.165	0.426
-318.026	602.609	0.023	0.058
-317.012	630.261	0.208	0.521
-315.997	-40.124	-0.234	0.121
-314.983	516.830	-0.176	0.407
-313.968	-101.264	0.005	-0.001
-312.953	-66.147	-0.324	0.128
-311.939	75.594	0.129	0.135
-310.924	202.069	-0.195	0.298
-309.910	435.011	0.056	0.120
-308.895	-164.813	0.213	0.009
-307.880	-142.980	-0.162	0.015
-306.866	-45.953	0.071	0.035
-305.851	298.265	-0.130	-0.237
-304.837	-27.018	-0.190	-0.109
-303.822	-1.773	-0.075	0.052
-302.807	261.350	-0.023	0.040
-301.793	800.000	-0.016	-0.054
-300.778	138.075	0.122	0.158
-299.764	-54.608	-0.316	-0.141
-298.749	-118.118	0.332	0.059
-297.735	-81.075	0.246	-0.080
-296.720	37.554	0.039	-0.034
-295.705	-200.000	-0.022	0.159
-294.691	-46.787	-0.430	0.208
-293.676	29.537	0.155	0.130
-292.662	-114.168	-0.208	0.040
-291.647	-21.164	0.139	0.084
-290.632	240.636	-0.229	0.378
-289.618	-64.682	-0.259	-0.104
-288.603	-100.359	0.532	-0.130
-287.589	651.859	-0.085	0.216
-286.574	75.870	-0.109	0.114
-285.559	-200.000	-0.048	-0.210
-284.545	139.847	0.145	-0.188
-283.530	-200.000	-0.004	-0.272
-282.516	157.151	-0.145	0.198
-281.501	-81.094	-0.191	-0.063
-280.486	-69.390	-0.333	-0.126
-279.472	-54.970	-0.255	-0.114
-278.457	185.821	0.096	-0.142
-277.443	-25.605	0.222	0.130
-276.428	-16.724	0.044	0.028
-275.413	319.255	-0.098	0.184
-274.399	452.174	-0.094	0.205
-273.384	-200.000	-0.044	0.207
-272.370	-132.952	0.343	-0.043
-271.355	-49.068	-0.060	0.029
-270.340	800.000	-0.064	0.248
-269.326	800.000	0.076	-0.245
-268.311	-200.000	-0.032	0.172
-267.297	-200.000	-0.040	-0.241
-266.282	-200.000	-0.008	-0.050
-265.267	-75.144	-0.247	0.087
-264.253	-200.000	-0.002	0.116
-263.238	-47.418	0.201	-0.097
-262.224	-200.000	-0.007	-0.050
-261.209	533.080	0.126	-0.295
-260.195	42.208	0.042	0.038
-259.180	39.743	0.276	-0.245
-258.165	-54.942	-0.158	0.071
-257.151	800.000	0.024	-0.083
-256.136	-200.000	0.044	-0.340
-255.122	50.563	-0.071	0.066
-254.107	320.387	0.126	-0.235
-253.092	229.061	0.123	-0.197
-252.078	63.754	-0.311	0.308
-251.063	-123.777	0.356	0.056
-250.049	-182.900	0.502	0.009
-249.034	121.427	0.181	0.222
-248.019	7.110	0.071	-0.052
-247.005	-109.110	0.175	0.037
-245.990	-2.075	0.058	0.040
-244.976	71.862	0.288	-0.295
-243.961	7.254	0.275	0.203
-242.946	237.675	-0.047	-0.076
-241.932	800.000	-0.048	-0.137
-240.917	59.261	0.112	-0.109
-239.903	214.605	0.104	0.163
-238.888	51.945	0.069	0.065
-237.873	-200.000	0.004	-0.131
-236.859	210.791	-0.125	0.194
-235.844	35.409	0.132	-0.115
-234.830	395.632	-0.152	0.312
-233.815	-24.756	0.368	-0.215
-232.800	800.000	0.053	-0.146
-231.786	91.037	0.114	0.126
-230.771	64.324	0.182	-0.181
-229.757	-137.574	0.203	0.023
-228.742	761.960	-0.093	-0.248
-227.727	-173.013	0.323	-0.010
-226.713	-154.313	-0.343	0.023
-225.698	5.445	0.248	0.181
-224.684	-88.088	-0.191	-0.057
-223.669	-102.895	-0.339	-0.079
-222.655	365.663	0.076	-0.150
-221.640	-84.518	0.254	0.079
-220.625	259.075	0.082	0.140
-219.611	-60.598	0.152	-0.064
-218.596	-78.972	0.297	0.100
-217.582	2.013	0.240	-0.171
-216.567	-34.964	0.117	-0.063
-215.552	-200.000	-0.012	0.206
-214.538	389.747	0.084	-0.172
-213.523	12.173	-0.169	0.128
-212.509	602.268	-0.073	0.179
-211.494	800.000	-0.060	0.203
-210.479	-58.545	0.083	0.036
-209.465	-78.236	0.356	0.121
-208.450	-102.623	-0.274	-0.064
-207.436	-200.000	-0.008	-0.210
-206.421	-200.000	-0.005	-0.117
-205.406	-62.130	0.157	0.065
-204.392	-91.355	-0.125	0.035
-203.377	20.101	0.263	0.209
-202.363	800.000	0.086	-0.260
-201.348	-200.000	0.032	-0.144
-200.333	116.197	-0.098	-0.118
-199.319	-200.000	0.000	-0.036
-198.304	-200.000	0.038	0.290
-197.290	800.000	-0.068	-0.189
-196.275	-15.070	0.224	-0.142
-195.260	-2.514	-0.219	0.151
-194.246	-192.589	0.274	-0.002
-193.231	251.336	0.126	0.211
-192.217	-200.000	-0.007	-0.172
-191.202	-110.725	0.223	0.045
-190.187	800.000	-0.124	-0.372
-189.173	-38.209	-0.138	-0.072
-188.158	157.265	-0.153	-0.208
-187.144	221.631	0.169	-0.267
-186.129	110.383	-0.158	0.187
-185.114	-2.686	-0.272	0.188
-184.100	800.000	-0.101	0.322
-183.085	-156.651	0.425	-0.026
-182.071	-97.045	-0.190	0.049
-181.056	-200.000	-0.015	-0.109
-180.042	800.000	0.051	0.178
-179.027	651.692	-0.116	0.293
-178.012	240.424	-0.009	0.014
-176.998	492.989	-0.080	0.180
-175.983	-200.000	0.017	-0.097
-174.969	-200.000	-0.026	0.185
-173.954	-53.776	-0.318	0.143
-172.939	-200.000	0.044	0.204
-171.925	-135.689	-0.293	0.034
-170.910	800.000	-0.040	0.115
-169.896	34.773	-0.105	0.090
-168.881	7.422	-0.292	-0.215
-167.866	22.327	0.279	0.224
-166.852	-104.780	-0.014	0.003
-165.837	33.735	0.281	0.240
-164.823	14.012	-0.093	0.071
-163.808	59.129	-0.346	-0.335
-162.793	-200.000	0.048	-0.296
-161.779	-134.448	0.432	-0.052
-160.764	-200.000	0.003	0.247
-159.750	-3.821	0.154	-0.105
-158.735	230.668	0.184	0.296
-157.720	795.397	0.046	0.125
-156.706	54.162	0.158	0.149
-155.691	-200.000	-0.034	0.298
-154.677	33.642	-0.193	0.165
-153.662	-63.857	0.147	-0.059
-152.647	22.370	0.077	0.062
-151.633	-200.000	0.048	0.313
-150.618	117.690	-0.043	-0.052
-149.604	1.858	-0.124	0.088
-148.589	800.000	-0.037	-0.122
-147.574	66.251	0.122	-0.122
-146.560	-102.671	-0.152	0.036
-145.545	41.448	-0.121	-0.107
-144.531	-67.381	0.096	0.037
-143.516	-129.099	0.332	0.046
-142.502	-200.000	0.009	-0.067
-141.487	133.223	-0.080	0.102
-140.472	86.400	0.139	0.150
-139.458	-49.013	0.184	0.086
-138.443	89.151	0.291	-0.319
-137.429	27.811	-0.129	0.107
-136.414	-200.000	0.039	-0.200
-135.399	227.067	0.097	0.154
-134.385	81.071	0.100	0.106
-133.370	120.744	-0.066	0.081
-132.356	-103.548	0.155	0.036
-131.341	-200.000	0.048	0.247
-130.326	-87.374	-0.318	0.095
-129.312	-74.425	0.241	-0.085
-128.297	-98.570	-0.279	0.070
-127.283	25.329	0.271	0.221
-126.268	0.127	-0.251	0.176
-125.253	52.433	-0.243	-0.228
-124.239	-200.000	0.034	0.197
-123.224	-138.047	-0.102	-0.011
-122.210	-74.940	-0.194	-0.068
-121.195	27.684	0.100	0.082
-120.180	692.438	-0.051	-0.132
