DTS Sentinel unit serial number:	SN413079Multiplexer serial number:	ORYXHardware model number:	OX4-SRSoftware version number:	ORYX F/W v4.00 Oryx Data Collector v3.7.2.0data status	okinstallation	princeton_trtdifferential loss correction	single-endedforward channel	channel 3reverse channel	N/Adate	2019/09/16time	05:12:35forward acquisition time	60.00reverse acquisition time	0.00gamma	496.2192k internal	0.2336k external	0.2336temperature offset calibration	0.9958default loss term (dB/km)	0.3790temperature slope calibration	1.0000multiplexer offset coefficient	1.0000multiplexer slope coefficient	1.0000fibre end	0.00T internal ref (°C)	27.19T ext. ref 1 (°C)	11.05T ext. ref 2 (°C)	22.22length (m)	temperature (°C)	Stokes	anti-Stokes-747.200	71.664	-0.053	-0.056
-746.185	0.519	-0.141	-0.101
-745.171	-116.255	0.311	-0.058
-744.156	-200.000	0.025	0.279
-743.142	-75.871	-0.224	-0.080
-742.127	11.576	-0.157	0.121
-741.112	228.603	-0.098	-0.161
-740.098	473.244	0.043	-0.097
-739.083	566.020	-0.030	-0.074
-738.069	-77.411	0.067	0.023
-737.054	-200.000	0.019	-0.312
-736.039	-84.278	-0.199	-0.063
-735.025	401.996	0.067	-0.141
-734.010	-46.699	0.291	-0.143
-732.996	800.000	-0.017	0.065
-731.981	-99.763	-0.329	-0.083
-730.966	-46.705	-0.233	-0.114
-729.952	-200.000	0.039	0.182
-728.937	-200.000	0.008	-0.366
-727.923	-200.000	-0.003	0.252
-726.908	800.000	-0.103	0.358
-725.894	16.079	0.066	-0.052
-724.879	800.000	0.092	0.312
-723.864	-200.000	-0.007	0.182
-722.850	179.205	0.101	-0.148
-721.835	135.217	0.118	-0.154
-720.821	469.709	-0.095	-0.215
-719.806	92.814	-0.066	-0.075
-718.791	-30.918	0.152	-0.086
-717.777	-138.172	0.122	-0.014
-716.762	262.164	0.172	-0.300
-715.748	-72.742	0.124	-0.046
-714.733	297.865	-0.127	0.233
-713.718	237.657	0.286	-0.475
-712.704	800.000	-0.082	-0.257
-711.689	-45.460	-0.175	-0.087
-710.675	800.000	-0.043	-0.131
-709.660	-126.474	0.151	-0.023
-708.645	800.000	-0.064	-0.261
-707.631	89.224	-0.197	0.220
-706.616	800.000	-0.070	0.194
-705.602	27.733	0.201	-0.169
-704.587	-200.000	-0.021	0.182
-703.572	157.128	-0.193	-0.268
-702.558	338.920	0.055	0.108
-701.543	177.298	0.131	-0.191
-700.529	557.353	0.192	-0.465
-699.514	-27.840	-0.233	0.135
-698.499	-200.000	-0.038	-0.210
-697.485	243.696	0.069	0.116
-696.470	628.512	-0.196	-0.496
-695.456	-108.224	0.377	0.082
-694.441	706.954	-0.090	-0.239
-693.426	315.273	0.131	-0.247
-692.412	55.460	0.073	0.071
-691.397	-99.989	0.430	0.108
-690.383	-154.221	0.175	0.012
-689.368	-105.782	0.169	-0.038
-688.354	7.291	0.147	0.110
-687.339	800.000	-0.032	-0.131
-686.324	-63.123	0.249	0.103
-685.310	160.882	0.108	0.151
-684.295	316.925	-0.090	-0.171
-683.281	-108.985	0.177	-0.038
-682.266	90.201	-0.059	-0.066
-681.251	-200.000	0.001	0.080
-680.237	269.901	-0.111	0.195
-679.222	-34.290	0.147	0.081
-678.208	800.000	-0.060	0.226
-677.193	3.164	-0.165	-0.120
-676.178	-3.422	-0.259	-0.180
-675.164	800.000	0.101	-0.341
-674.149	279.365	0.118	-0.212
-673.135	283.407	-0.213	-0.384
-672.120	112.918	-0.146	-0.177
-671.105	-200.000	-0.045	-0.284
-670.091	64.964	0.146	-0.148
-669.076	-23.446	-0.125	-0.075
-668.062	-27.019	-0.239	-0.140
-667.047	451.027	-0.073	-0.161
-666.032	-200.000	-0.003	0.148
-665.018	-96.940	-0.383	-0.101
-664.003	-200.000	0.028	0.149
-662.989	-200.000	0.046	0.413
-661.974	-187.171	-0.315	0.004
-660.959	686.102	0.056	-0.146
-659.945	665.665	-0.042	0.109
-658.930	183.590	-0.132	0.196
-657.916	2.295	0.113	0.082
-656.901	531.883	0.011	-0.026
-655.886	-21.925	0.153	-0.093
-654.872	-200.000	0.016	-0.210
-653.857	714.791	-0.016	0.042
-652.843	107.670	-0.084	0.100
-651.828	-65.438	-0.100	-0.040
-650.814	800.000	-0.022	-0.083
-649.799	515.777	0.122	-0.286
-648.784	-132.547	0.560	0.072
-647.770	233.419	0.147	0.242
-646.755	126.543	0.104	-0.132
-645.741	19.349	-0.103	-0.083
-644.726	-200.000	-0.015	0.229
-643.711	-200.000	-0.216	-0.001
-642.697	-200.000	0.012	-0.075
-641.682	54.334	-0.251	0.242
-640.668	-31.541	0.255	-0.143
-639.653	71.844	-0.184	-0.191
-638.638	-200.000	-0.032	0.204
-637.624	377.781	-0.107	-0.219
-636.609	-117.000	0.071	0.013
-635.595	213.631	0.129	0.205
-634.580	677.186	-0.040	0.103
-633.565	-200.000	0.058	0.328
-632.551	-85.567	-0.074	0.023
-631.536	-65.241	0.111	0.045
-630.522	-200.000	-0.030	-0.134
-629.507	282.256	0.152	-0.273
-628.492	-49.528	-0.280	0.133
-627.478	-121.527	-0.171	0.028
-626.463	554.665	0.118	-0.284
-625.449	562.994	-0.082	0.198
-624.434	30.784	-0.136	-0.117
-623.419	-136.904	0.164	0.019
-622.405	519.225	-0.074	0.174
-621.390	111.626	0.071	0.085
-620.376	-128.081	-0.190	0.027
-619.361	16.325	0.140	-0.111
-618.346	-166.912	-0.189	0.008
-617.332	347.059	0.085	-0.166
-616.317	-200.000	0.035	-0.334
-615.303	293.489	-0.189	-0.345
-614.288	-10.899	-0.083	-0.055
-613.273	20.931	0.097	0.079
-612.259	800.000	-0.072	-0.242
-611.244	-200.000	-0.013	-0.074
-610.230	212.505	-0.203	-0.320
-609.215	338.579	-0.083	0.161
-608.201	-86.876	-0.168	0.051
-607.186	38.860	0.077	-0.069
-606.171	-54.347	-0.224	-0.102
-605.157	-30.361	-0.210	-0.119
-604.142	70.436	0.174	0.180
-603.128	-171.607	-0.135	-0.004
-602.113	-88.844	-0.083	0.025
-601.098	-28.337	-0.107	-0.062
-600.084	14.183	0.083	0.065
-599.069	-34.296	0.182	-0.100
-598.055	80.653	-0.159	-0.171
-597.040	257.702	-0.100	0.172
-596.025	-79.045	-0.095	0.032
-595.011	-200.000	-0.013	0.273
-593.996	524.272	0.025	-0.059
-592.982	-200.000	0.398	0.001
-591.967	286.601	0.104	0.187
-590.952	800.000	-0.070	-0.226
-589.938	-76.508	0.130	0.046
-588.923	-65.611	-0.099	-0.040
-587.909	38.556	0.144	0.128
-586.894	-50.676	0.332	0.156
-585.879	-192.380	-0.431	0.004
-584.865	16.006	-0.164	0.129
-583.850	-171.237	-0.635	-0.021
-582.836	99.221	0.185	-0.213
-581.821	48.555	-0.050	0.047
-580.806	-200.000	0.008	0.116
-579.792	-200.000	0.052	0.239
-578.777	7.923	-0.140	0.105
-577.763	357.946	0.184	-0.367
-576.748	517.359	-0.092	-0.214
-575.733	99.355	-0.247	0.285
-574.719	-187.337	0.110	0.001
-573.704	-40.296	-0.372	-0.193
-572.690	800.000	0.050	0.183
-571.675	101.532	-0.298	-0.346
-570.661	6.050	-0.105	-0.078
-569.646	-200.000	-0.035	0.279
-568.631	-200.000	0.002	-0.098
-567.617	-200.000	-0.008	0.074
-566.602	-7.279	0.124	-0.084
-565.588	144.313	-0.035	0.046
-564.573	-125.830	0.282	-0.042
-563.558	800.000	0.032	-0.101
-562.544	800.000	-0.012	-0.041
-561.529	-200.000	0.040	-0.438
-560.515	735.369	-0.133	-0.356
-559.500	79.798	-0.035	-0.037
-558.485	-200.000	-0.020	0.147
-557.471	-75.402	-0.110	0.039
-556.456	-189.523	-0.179	0.002
-555.442	118.926	-0.107	0.132
-554.427	-148.063	0.072	0.006
-553.412	-106.435	0.167	-0.037
-552.398	-114.143	-0.087	-0.017
-551.383	-111.283	0.223	0.045
-550.369	-200.000	0.061	-0.413
-549.354	-53.286	-0.319	0.146
-548.339	800.000	-0.013	0.051
-547.325	-126.429	-0.337	0.050
-546.310	-72.205	0.231	0.085
-545.296	-123.514	0.235	-0.037
-544.281	-62.638	-0.094	0.039
-543.266	-200.000	0.006	0.239
-542.252	800.000	-0.051	0.156
-541.237	-59.422	-0.291	0.125
-540.223	46.066	0.103	-0.095
-539.208	-200.000	-0.031	-0.554
-538.193	800.000	0.065	-0.278
-537.179	-40.896	0.277	0.143
-536.164	151.428	-0.187	-0.254
-535.150	-106.695	0.137	0.030
-534.135	84.285	-0.246	-0.268
-533.121	800.000	-0.075	-0.319
-532.106	-200.000	-0.012	0.077
-531.091	390.367	0.026	0.053
-530.077	619.127	-0.020	-0.049
-529.062	-168.961	0.138	-0.005
-528.048	-116.097	-0.081	-0.015
-527.033	800.000	0.045	-0.191
-526.018	-150.624	0.291	0.022
-525.004	200.507	-0.178	0.273
-523.989	-45.947	-0.078	-0.039
-522.975	693.993	-0.078	0.205
-521.960	-56.329	0.204	-0.090
-520.945	-200.000	-0.013	-0.270
-519.931	-71.572	0.180	-0.067
-518.916	57.479	0.055	-0.054
-517.902	-200.000	-0.089	0.503
-516.887	496.208	0.050	-0.115
-515.872	13.062	0.260	0.200
-514.858	-48.048	-0.184	-0.088
-513.843	3.295	0.054	0.039
-512.829	-105.816	0.192	0.043
-511.814	9.252	-0.063	-0.047
-510.799	-5.082	-0.070	0.048
-509.785	-105.560	0.304	-0.069
-508.770	-99.362	-0.278	-0.070
-507.756	800.000	0.077	-0.225
-506.741	478.578	0.081	-0.182
-505.726	-200.000	0.029	-0.211
-504.712	-200.000	0.047	0.209
-503.697	584.699	-0.135	0.330
-502.683	-200.000	0.068	-0.335
-501.668	-200.000	0.032	-0.152
-500.653	-200.000	0.015	-0.325
-499.639	800.000	0.067	-0.257
-498.624	-32.753	-0.122	-0.067
-497.610	165.797	-0.085	0.120
-496.595	-200.000	-0.089	0.000
-495.581	-122.507	-0.121	0.020
-494.566	55.652	0.210	0.203
-493.551	-200.000	-0.014	0.114
-492.537	-86.075	-0.208	0.064
-491.522	-17.847	0.275	0.171
-490.508	3.395	-0.385	-0.279
-489.493	300.809	-0.161	-0.295
-488.478	-18.949	-0.201	0.124
-487.464	-77.859	-0.157	-0.054
-486.449	-200.000	0.001	-0.181
-485.435	163.662	-0.135	-0.189
-484.420	-7.430	-0.198	-0.133
-483.405	54.096	-0.150	-0.144
-482.391	648.962	-0.110	0.280
-481.376	800.000	0.031	0.094
-480.362	285.296	0.071	0.128
-479.347	-200.000	0.054	-0.408
-478.332	-154.768	0.445	-0.029
-477.318	-200.000	0.014	-0.301
-476.303	-15.835	0.082	-0.052
-475.289	800.000	-0.057	0.218
-474.274	-78.034	0.270	-0.092
-473.259	655.798	-0.086	-0.219
-472.245	800.000	-0.036	-0.154
-471.230	122.444	0.219	-0.272
-470.216	-129.819	0.087	0.012
-469.201	-2.255	0.181	-0.126
-468.186	95.887	-0.088	-0.099
-467.172	229.648	0.037	0.060
-466.157	-106.133	0.295	0.066
-465.143	170.970	0.070	0.099
-464.128	-200.000	0.053	0.236
-463.113	-8.798	0.321	-0.214
-462.099	617.089	0.064	-0.160
-461.084	-200.000	-0.055	0.280
-460.070	-142.496	0.250	0.024
-459.055	-145.192	-0.242	-0.022
-458.040	-59.623	-0.143	-0.061
-457.026	124.016	-0.204	-0.254
-456.011	251.596	-0.032	0.055
-454.997	99.732	0.092	-0.106
-453.982	50.424	0.072	0.068
-452.968	77.137	-0.300	0.316
-451.953	-200.000	0.022	0.109
-450.938	-149.290	0.026	-0.002
-449.924	157.015	-0.032	-0.045
-448.909	-45.885	-0.241	0.118
-447.895	81.369	-0.090	0.096
-446.880	-61.608	0.400	0.167
-445.865	-101.185	-0.404	-0.098
-444.851	65.749	-0.119	0.119
-443.836	270.214	0.036	-0.063
-442.822	-200.000	-0.055	0.320
-441.807	2.591	-0.106	0.076
-440.792	22.352	-0.191	0.155
-439.778	347.130	0.149	-0.292
-438.763	-77.259	-0.147	0.051
-437.749	-153.455	0.279	-0.019
-436.734	-200.000	-0.002	0.315
-435.719	87.226	0.159	0.175
-434.705	-200.000	0.021	-0.239
-433.690	-200.000	-0.043	-0.420
-432.676	432.217	-0.089	-0.191
-431.661	-71.814	-0.356	-0.132
-430.646	-146.443	-0.113	-0.010
-429.632	-200.000	-0.030	-0.241
-428.617	15.989	-0.180	0.141
-427.603	800.000	-0.025	-0.075
-426.588	3.889	-0.215	-0.156
-425.573	800.000	0.012	-0.047
-424.559	-84.664	0.307	-0.096
-423.544	-200.000	-0.014	0.474
-422.530	-148.507	-0.119	-0.010
-421.515	-67.024	0.043	0.017
-420.500	0.162	-0.232	-0.164
-419.486	16.984	0.175	0.137
-418.471	-71.133	-0.323	0.120
-417.457	568.893	-0.045	-0.109
-416.442	605.931	0.086	0.211
-415.428	800.000	0.081	0.272
-414.413	-100.313	-0.268	-0.066
-413.398	484.600	-0.070	-0.158
-412.384	19.468	0.147	-0.117
-411.369	37.795	0.106	0.094
-410.355	-200.000	-0.045	-0.508
-409.340	-200.000	-0.053	0.287
-408.325	-26.348	0.089	-0.052
-407.311	63.541	-0.097	-0.096
-406.296	-93.696	0.266	-0.073
-405.282	241.369	-0.096	0.158
-404.267	-200.000	-0.027	0.143
-403.252	-200.000	0.004	-0.117
-402.238	-58.502	0.072	0.031
-401.223	-82.124	0.093	-0.030
-400.209	57.005	-0.075	0.073
-399.194	134.003	-0.254	-0.326
-398.179	182.123	0.048	0.071
-397.165	88.534	-0.127	0.139
-396.150	-114.001	-0.178	-0.034
-395.136	800.000	0.061	-0.228
-394.121	-59.960	-0.380	0.161
-393.106	-200.000	0.019	-0.160
-392.092	-10.174	0.058	-0.038
-391.077	800.000	-0.101	-0.381
-390.063	125.605	-0.122	0.152
-389.048	-108.344	0.072	0.015
-388.033	-17.187	0.229	0.143
-387.019	-200.000	-0.060	0.700
-386.004	-68.619	0.104	-0.040
-384.990	-51.772	0.112	-0.052
-383.975	-179.087	0.234	0.005
-382.960	353.549	-0.171	-0.336
-381.946	355.899	0.159	-0.313
-380.931	-200.000	0.028	-0.137
-379.917	-1.315	-0.159	-0.111
-378.902	-30.473	0.133	-0.075
-377.888	800.000	-0.034	0.135
-376.873	-161.659	0.188	0.010
-375.858	-141.205	0.260	-0.026
-374.844	17.254	0.091	0.072
-373.829	-88.795	0.315	0.093
-372.815	18.941	-0.150	0.119
-371.800	-161.615	0.088	0.004
-370.785	-52.180	-0.164	0.075
-369.771	-108.778	-0.516	0.109
-368.756	800.000	0.006	0.024
-367.742	-200.000	-0.008	0.269
-366.727	165.319	-0.152	0.213
-365.712	-117.051	0.193	0.035
-364.698	6.497	0.162	-0.119
-363.683	160.129	-0.063	0.087
-362.669	-118.202	0.142	-0.025
-361.654	-106.263	-0.318	0.071
-360.639	-43.448	0.175	0.088
-359.625	-132.852	0.177	-0.022
-358.610	17.335	0.302	-0.237
-357.596	391.544	0.069	-0.142
-356.581	141.384	0.180	0.236
-355.566	-187.290	0.155	-0.002
-354.552	207.378	-0.189	0.292
-353.537	55.845	0.079	0.076
-352.523	-108.694	0.448	0.095
-351.508	-125.361	-0.381	-0.058
-350.493	95.827	-0.204	-0.230
-349.479	133.285	-0.123	-0.157
-348.464	496.791	-0.189	-0.431
-347.450	164.527	0.169	0.236
-346.435	-128.308	0.118	0.017
-345.420	98.773	0.160	0.183
-344.406	-200.000	-0.001	0.192
-343.391	-87.160	-0.259	-0.078
-342.377	-13.735	-0.327	-0.209
-341.362	-200.000	0.014	0.376
-340.348	-55.450	-0.380	0.169
-339.333	694.372	-0.193	0.500
-338.318	-128.372	-0.317	0.045
-337.304	-143.682	-0.225	0.021
-336.289	79.986	0.209	0.223
-335.275	54.088	-0.211	0.201
-334.260	-200.000	0.005	0.334
-333.245	-134.560	-0.322	-0.039
-332.231	-102.012	-0.129	-0.031
-331.216	-100.242	0.374	0.092
-330.202	800.000	0.101	0.332
-329.187	304.473	-0.143	0.263
-328.172	-162.734	-0.111	0.005
-327.158	62.043	0.198	-0.195
-326.143	800.000	0.065	-0.232
-325.129	-16.736	-0.228	-0.143
-324.114	-200.000	-0.027	0.278
-323.099	116.805	0.111	0.135
-322.085	-10.375	0.166	0.109
-321.070	105.719	0.043	-0.050
-320.056	-91.749	0.359	-0.101
-319.041	336.322	0.075	0.143
-318.026	-5.956	-0.164	-0.111
-317.012	14.850	0.137	0.106
-315.997	114.532	0.096	0.115
-314.983	-153.261	-0.135	-0.009
-313.968	-78.025	0.066	-0.022
-312.953	121.195	-0.203	-0.250
-311.939	538.488	0.116	0.273
-310.924	-102.344	0.106	0.025
-309.910	-30.319	-0.168	-0.094
-308.895	-65.910	-0.390	-0.154
-307.880	-145.114	0.175	-0.016
-306.866	167.508	0.126	0.176
-305.851	635.341	-0.044	0.110
-304.837	98.966	0.038	-0.044
-303.822	-114.342	-0.029	-0.005
-302.807	-200.000	-0.027	0.170
-301.793	-34.376	0.103	0.056
-300.778	-77.106	0.115	0.040
-299.764	800.000	0.136	-0.377
-298.749	-11.962	0.217	0.140
-297.735	54.040	-0.250	0.237
-296.720	-23.418	-0.179	0.106
-295.705	15.812	-0.385	0.299
-294.691	213.262	-0.115	0.179
-293.676	4.506	-0.032	-0.023
-292.662	178.190	-0.116	-0.167
-291.647	-139.231	0.394	0.042
-290.632	-118.323	-0.178	0.031
-289.618	11.548	-0.208	0.157
-288.603	800.000	-0.076	0.226
-287.589	129.139	0.166	-0.209
-286.574	-57.983	0.136	0.058
-285.559	219.435	0.133	-0.210
-284.545	-200.000	0.033	-0.286
-283.530	-200.000	-0.027	-0.136
-282.516	174.242	0.090	0.128
-281.501	49.006	-0.222	-0.206
-280.486	-72.827	0.307	0.112
-279.472	-200.000	-0.003	-0.018
-278.457	-45.628	-0.435	0.213
-277.443	-54.102	0.342	0.153
-276.428	800.000	0.072	0.260
-275.413	-55.237	0.070	0.031
-274.399	46.447	-0.148	-0.136
-273.384	-5.768	-0.283	-0.191
-272.370	-200.000	0.065	-0.394
-271.355	-200.000	0.000	0.138
-270.340	-200.000	0.014	0.182
-269.326	16.197	0.171	-0.133
-268.311	-42.477	0.122	0.061
-267.297	-30.440	0.288	0.161
-266.282	310.926	-0.174	-0.321
-265.267	133.647	-0.080	-0.101
-264.253	800.000	0.076	-0.218
-263.238	31.424	0.342	0.289
-262.224	800.000	-0.028	0.102
-261.209	73.390	0.195	0.201
-260.195	-44.171	-0.125	-0.062
-259.180	132.703	-0.107	0.136
-258.165	-200.000	0.002	0.079
-257.151	-200.000	0.002	-0.047
-256.136	16.574	0.157	-0.122
-255.122	-47.458	0.402	-0.192
-254.107	-200.000	0.019	-0.086
-253.092	107.690	-0.105	0.123
-252.078	-43.060	0.122	-0.061
-251.063	-51.695	0.223	0.102
-250.049	564.391	0.077	-0.184
-249.034	140.862	-0.157	0.204
-248.019	-43.187	-0.346	0.172
-247.005	-73.584	0.437	0.157
-245.990	800.000	0.030	0.119
-244.976	52.494	0.178	0.167
-243.961	132.510	-0.062	0.079
-242.946	-200.000	0.002	0.474
-241.932	59.412	0.134	0.131
-240.917	-131.737	-0.127	0.016
-239.903	-7.462	0.326	0.218
-238.888	61.730	-0.101	-0.099
-237.873	74.811	0.200	-0.207
-236.859	11.091	-0.202	0.152
-235.844	726.853	0.038	0.100
-234.830	-49.063	-0.182	-0.086
-233.815	-29.708	0.129	-0.072
-232.800	348.141	0.109	0.212
-231.786	-131.156	-0.114	0.015
-230.771	217.431	-0.177	-0.278
-229.757	-200.000	0.056	-0.286
-228.742	-65.203	0.200	-0.079
-227.727	-22.891	0.466	0.277
-226.713	-46.012	-0.300	-0.146
-225.698	-50.488	-0.230	-0.107
-224.684	251.482	0.148	0.248
-223.669	-126.828	0.094	0.014
-222.655	6.107	0.171	-0.125
-221.640	-200.000	-0.002	-0.193
-220.625	800.000	-0.121	0.400
-219.611	-22.412	0.210	0.125
-218.596	-183.404	0.318	-0.005
-217.582	265.415	-0.098	-0.169
-216.567	-145.462	-0.265	0.023
-215.552	484.434	0.134	-0.299
-214.538	11.759	-0.171	-0.129
-213.523	112.212	0.121	0.144
-212.509	-35.530	-0.299	0.160
-211.494	19.350	-0.142	-0.112
-210.479	-42.128	-0.300	0.151
-209.465	-53.645	-0.303	0.136
-208.450	-200.000	-0.009	-0.073
-207.436	-200.000	-0.028	-0.356
-206.421	-33.736	0.125	-0.068
-205.406	336.663	-0.045	0.086
-204.392	-148.983	0.154	0.012
-203.377	-200.000	0.053	0.242
-202.363	-35.558	0.030	-0.016
-201.348	0.478	0.189	0.133
-200.333	800.000	0.105	-0.306
-199.319	-45.808	0.232	0.113
-198.304	-103.933	0.208	-0.048
-197.290	41.767	0.245	0.218
-196.275	299.286	-0.071	0.129
-195.260	4.373	0.266	0.192
-194.246	55.809	0.127	-0.121
-193.231	-100.926	0.299	0.072
-192.217	-200.000	0.009	0.342
-191.202	-33.747	0.087	-0.047
-190.187	-159.465	0.148	-0.008
-189.173	-8.417	0.249	-0.164
-188.158	-85.788	0.387	0.118
-187.144	-200.000	0.002	-0.103
-186.129	72.332	0.098	-0.100
-185.114	-35.954	-0.317	0.169
-184.100	-200.000	0.012	-0.127
-183.085	44.650	-0.149	0.135
-182.071	-200.000	0.012	-0.241
-181.056	-81.725	-0.122	0.039
-180.042	-200.000	0.030	0.277
-179.027	-70.428	-0.163	-0.061
-178.012	-89.137	-0.050	-0.015
-176.998	175.954	-0.104	0.148
-175.983	-168.626	-0.074	-0.003
-174.969	239.670	-0.072	-0.117
-173.954	-93.196	0.277	0.076
-172.939	-200.000	-0.009	-0.264
-171.925	-157.759	0.329	0.019
-170.910	212.385	0.027	0.042
-169.896	-200.000	0.010	0.108
-168.881	-141.070	-0.140	-0.014
-167.866	5.718	-0.275	-0.199
-166.852	-200.000	-0.000	-0.159
-165.837	247.250	-0.093	-0.155
-164.823	-200.000	0.068	0.298
-163.808	94.361	0.185	0.206
-162.793	648.027	0.081	-0.204
-161.779	161.499	-0.128	-0.175
-160.764	-82.584	0.173	-0.055
-159.750	800.000	0.075	-0.251
-158.735	206.440	0.083	0.127
-157.720	-200.000	-0.015	0.103
-156.706	-138.155	-0.146	0.016
-155.691	800.000	0.027	-0.113
-154.677	800.000	0.134	-0.426
-153.662	35.994	0.151	0.130
-152.647	800.000	-0.103	0.290
-151.633	-119.456	0.143	-0.024
-150.618	1.571	-0.110	-0.078
-149.604	-137.371	0.430	-0.048
-148.589	-200.000	0.024	0.152
-147.574	-200.000	-0.049	0.422
-146.560	588.440	0.105	0.254
-145.545	-109.173	0.350	-0.073
-144.531	-42.989	0.359	-0.179
-143.516	-64.504	-0.459	0.183
-142.502	-72.928	0.180	0.065
-141.487	163.287	0.178	-0.246
-140.472	-194.390	0.207	-0.002
-139.458	253.522	0.094	-0.158
-138.443	41.154	0.361	0.320
-137.429	-30.164	0.213	-0.119
-136.414	-21.212	-0.258	-0.154
-135.399	-200.000	-0.036	-0.222
-134.385	-188.503	0.340	0.004
-133.370	42.165	-0.066	0.059
-132.356	800.000	-0.057	0.194
-131.341	-110.642	-0.336	-0.068
-130.326	-0.320	-0.133	-0.093
-129.312	-123.154	0.293	-0.046
-128.297	-152.851	0.395	-0.027
-127.283	800.000	-0.103	-0.313
-126.268	-41.710	-0.235	-0.118
-125.253	800.000	-0.010	-0.029
-124.239	-128.029	0.393	-0.055
-123.224	-98.017	0.408	-0.103
-122.210	359.315	0.128	0.250
-121.195	-43.033	0.065	-0.032
