DTS Sentinel unit serial number:	SN413079Multiplexer serial number:	ORYXHardware model number:	OX4-SRSoftware version number:	ORYX F/W v4.00 Oryx Data Collector v3.7.2.0data status	okinstallation	princeton_trtdifferential loss correction	single-endedforward channel	channel 3reverse channel	N/Adate	2019/09/17time	06:04:35forward acquisition time	60.00reverse acquisition time	0.00gamma	496.2192k internal	0.2328k external	0.2328temperature offset calibration	0.9950default loss term (dB/km)	0.3790temperature slope calibration	1.0000multiplexer offset coefficient	1.0000multiplexer slope coefficient	1.0000fibre end	0.00T internal ref (°C)	28.69T ext. ref 1 (°C)	0.14T ext. ref 2 (°C)	22.26length (m)	temperature (°C)	Stokes	anti-Stokes-747.200	-76.465	-0.058	-0.021
-746.185	154.360	-0.072	-0.100
-745.171	-130.399	0.386	0.053
-744.156	256.703	-0.161	-0.278
-743.142	-200.000	0.080	0.433
-742.127	-144.365	-0.265	-0.025
-741.112	-72.177	0.273	-0.102
-740.098	-83.226	0.125	-0.040
-739.083	471.831	-0.048	0.109
-738.069	-159.270	-0.253	0.014
-737.054	-84.143	0.103	-0.033
-736.039	-138.396	0.118	0.013
-735.025	800.000	-0.008	0.026
-734.010	33.520	0.051	0.045
-732.996	-200.000	0.022	0.102
-731.981	-97.204	-0.166	-0.044
-730.966	-72.919	0.249	-0.092
-729.952	-120.320	0.160	-0.027
-728.937	-200.000	-0.233	0.001
-727.923	-29.843	-0.119	0.068
-726.908	-118.613	-0.357	0.063
-725.894	225.276	0.074	-0.120
-724.879	152.544	-0.129	-0.178
-723.864	800.000	-0.025	0.073
-722.850	-89.149	-0.395	0.118
-721.835	-86.400	0.345	-0.107
-720.821	800.000	-0.049	-0.161
-719.806	800.000	0.072	-0.234
-718.791	800.000	-0.006	0.026
-717.777	-42.725	0.060	0.031
-716.762	11.013	-0.169	-0.130
-715.748	-200.000	0.006	0.062
-714.733	-200.000	0.024	0.107
-713.718	344.804	-0.090	-0.177
-712.704	-200.000	-0.025	-0.173
-711.689	-200.000	0.018	0.100
-710.675	599.555	0.139	-0.347
-709.660	756.561	0.029	0.079
-708.645	-154.316	0.080	-0.005
-707.631	76.399	0.139	0.149
-706.616	800.000	-0.074	0.242
-705.602	-27.729	0.210	-0.123
-704.587	-14.444	-0.206	0.134
-703.572	-80.015	-0.272	-0.092
-702.558	314.555	0.064	-0.122
-701.543	136.863	0.069	-0.090
-700.529	129.682	-0.167	-0.215
-699.514	-76.318	0.179	-0.063
-698.499	77.376	0.065	0.069
-697.485	130.968	0.117	0.151
-696.470	-18.990	-0.135	0.085
-695.456	-200.000	-0.001	-0.138
-694.441	-200.000	0.236	0.001
-693.426	-200.000	0.036	-0.182
-692.412	39.476	0.175	0.158
-691.397	-8.457	-0.166	-0.112
-690.383	38.396	-0.089	-0.080
-689.368	-200.000	0.213	0.000
-688.354	-28.220	0.107	0.062
-687.339	-45.486	-0.142	0.071
-686.324	-70.265	0.146	-0.056
-685.310	67.716	0.346	-0.356
-684.295	173.084	-0.088	0.128
-683.281	1.552	0.048	0.035
-682.266	79.060	0.073	0.078
-681.251	-157.799	-0.175	-0.010
-680.237	63.102	0.269	-0.271
-679.222	800.000	-0.084	0.243
-678.208	740.068	-0.029	-0.078
-677.193	337.603	0.112	-0.219
-676.178	-61.404	0.198	-0.084
-675.164	93.346	-0.056	0.064
-674.149	52.700	-0.249	-0.239
-673.135	-33.840	0.283	-0.157
-672.120	-200.000	-0.026	-0.234
-671.105	-168.502	0.036	-0.001
-670.091	91.315	0.308	-0.348
-669.076	55.763	0.170	0.165
-668.062	280.003	-0.173	0.310
-667.047	-200.000	-0.036	0.394
-666.032	800.000	0.040	-0.147
-665.018	-136.453	0.067	0.008
-664.003	595.704	0.094	-0.233
-662.989	158.298	-0.114	0.159
-661.974	-50.606	0.190	-0.090
-660.959	29.643	0.104	-0.089
-659.945	405.085	0.121	0.256
-658.930	163.457	-0.055	0.078
-657.916	73.840	0.164	-0.172
-656.901	-35.863	0.147	-0.080
-655.886	29.589	0.103	0.088
-654.872	62.413	-0.313	0.313
-653.857	800.000	-0.058	-0.219
-652.843	-157.672	0.086	0.005
-651.828	403.997	0.123	-0.260
-650.814	-200.000	-0.038	-0.268
-649.799	126.762	0.163	-0.208
-648.784	61.267	0.114	0.114
-647.770	-200.000	-0.061	-0.462
-646.755	25.475	-0.301	-0.252
-645.741	-200.000	-0.084	-0.599
-644.726	40.735	0.174	-0.157
-643.711	-16.159	0.205	0.131
-642.697	50.988	-0.116	0.111
-641.682	36.552	-0.162	-0.143
-640.668	-5.872	-0.305	-0.210
-639.653	693.769	0.076	0.199
-638.638	-84.860	-0.376	-0.118
-637.624	8.010	0.318	-0.239
-636.609	13.877	-0.289	0.225
-635.595	153.993	-0.117	0.161
-634.580	-57.137	0.335	0.148
-633.565	536.832	-0.097	-0.232
-632.551	-71.898	0.241	0.090
-631.536	-11.371	-0.107	0.071
-630.522	191.437	-0.010	0.016
-629.507	129.546	0.071	-0.091
-628.492	-40.289	0.491	-0.256
-627.478	27.431	-0.067	-0.056
-626.463	0.665	-0.152	-0.109
-625.449	-119.591	0.129	-0.022
-624.434	59.808	-0.168	-0.166
-623.419	-1.120	0.199	-0.141
-622.405	800.000	-0.039	-0.155
-621.390	390.805	0.193	-0.401
-620.376	113.733	-0.086	-0.105
-619.361	-59.845	-0.142	0.061
-618.346	-75.184	0.062	0.022
-617.332	3.905	0.300	-0.220
-616.317	-95.607	-0.241	-0.065
-615.303	800.000	0.020	0.059
-614.288	208.839	-0.156	-0.245
-613.273	-3.073	-0.165	0.115
-612.259	-8.741	0.122	-0.082
-611.244	-200.000	0.027	-0.233
-610.230	-11.992	-0.182	-0.119
-609.215	800.000	-0.092	0.388
-608.201	-124.693	-0.093	-0.014
-607.186	172.454	-0.185	-0.267
-606.171	144.418	0.075	-0.100
-605.157	754.602	-0.080	-0.217
-604.142	156.708	-0.064	-0.089
-603.128	-90.232	0.170	0.050
-602.113	169.876	-0.198	0.283
-601.098	371.939	-0.140	0.284
-600.084	27.750	0.228	0.193
-599.069	197.022	0.137	0.209
-598.055	65.491	-0.147	0.149
-597.040	-200.000	-0.014	0.116
-596.025	-42.914	-0.122	-0.062
-595.011	486.443	0.054	0.123
-593.996	31.007	0.093	-0.079
-592.982	-90.036	-0.182	-0.053
-591.967	2.156	0.189	-0.137
-590.952	-200.000	-0.023	0.160
-589.938	800.000	-0.031	-0.099
-588.923	-48.227	-0.289	0.140
-587.909	721.948	-0.100	0.267
-586.894	441.812	0.156	0.341
-585.879	-72.718	0.034	0.012
-584.865	680.611	-0.176	-0.459
-583.850	724.098	0.071	-0.189
-582.836	-69.045	0.034	-0.013
-581.821	800.000	-0.067	-0.198
-580.806	800.000	-0.044	-0.155
-579.792	-15.272	0.151	0.097
-578.777	-77.270	-0.305	0.106
-577.763	-138.082	0.053	0.006
-576.748	-200.000	-0.009	-0.080
-575.733	280.584	0.013	0.023
-574.719	403.248	-0.117	-0.246
-573.704	800.000	-0.083	-0.282
-572.690	30.117	-0.212	0.181
-571.675	83.066	-0.150	0.163
-570.661	93.215	0.282	0.319
-569.646	62.534	-0.073	0.073
-568.631	800.000	0.040	0.154
-567.617	-114.740	0.387	-0.074
-566.602	-191.695	-0.097	0.001
-565.588	-81.948	0.034	-0.011
-564.573	800.000	-0.045	-0.132
-563.558	800.000	-0.057	0.193
-562.544	65.592	-0.039	0.040
-561.529	635.179	-0.140	-0.356
-560.515	-150.268	0.180	-0.014
-559.500	196.810	-0.090	-0.137
-558.485	-129.478	-0.259	0.036
-557.471	15.760	-0.266	-0.209
-556.456	103.495	-0.221	-0.259
-555.442	-88.050	-0.090	-0.027
-554.427	800.000	-0.047	-0.178
-553.412	225.650	-0.297	-0.482
-552.398	-200.000	0.016	0.314
-551.383	-200.000	-0.004	-0.076
-550.369	-95.418	-0.269	0.072
-549.354	-65.735	-0.203	0.081
-548.339	-131.367	-0.146	0.019
-547.325	-23.811	0.111	-0.066
-546.310	531.305	0.072	-0.171
-545.296	-200.000	0.071	-0.333
-544.281	-0.345	0.186	-0.132
-543.266	-75.607	-0.362	-0.128
-542.252	-140.202	0.299	0.031
-541.237	23.845	-0.320	0.264
-540.223	137.380	-0.240	-0.314
-539.208	448.917	0.106	-0.233
-538.193	530.126	-0.077	-0.181
-537.179	-200.000	-0.013	-0.476
-536.164	-200.000	0.021	-0.321
-535.150	800.000	0.027	0.103
-534.135	93.991	-0.140	0.158
-533.121	135.629	-0.042	-0.055
-532.106	223.924	0.089	0.144
-531.091	153.454	0.182	0.249
-530.077	-32.333	0.102	-0.057
-529.062	43.001	-0.023	0.021
-528.048	-200.000	0.040	0.220
-527.033	800.000	0.053	-0.208
-526.018	-200.000	0.023	0.194
-525.004	-31.043	0.214	0.120
-523.989	324.222	-0.030	0.057
-522.975	-128.287	0.118	0.017
-521.960	79.121	0.037	0.040
-520.945	330.657	0.048	-0.092
-519.931	-82.945	0.029	-0.009
-518.916	440.399	0.041	-0.089
-517.902	59.291	-0.169	0.166
-516.887	-200.000	-0.052	0.248
-515.872	800.000	-0.031	-0.088
-514.858	83.067	0.233	0.253
-513.843	800.000	0.123	0.348
-512.829	800.000	-0.015	0.050
-511.814	-134.174	-0.207	-0.025
-510.799	274.773	0.031	-0.054
-509.785	800.000	-0.068	-0.248
-508.770	-120.569	-0.075	0.013
-507.756	-100.692	-0.306	0.075
-506.741	-155.495	0.139	-0.009
-505.726	-9.365	0.306	0.204
-504.712	98.718	-0.077	-0.089
-503.697	800.000	0.104	-0.309
-502.683	-72.799	0.284	-0.104
-501.668	734.880	-0.122	-0.326
-500.653	17.998	-0.115	0.091
-499.639	270.929	0.103	-0.181
-498.624	57.691	0.104	0.102
-497.610	-1.472	0.243	-0.171
-496.595	-37.848	0.233	-0.123
-495.581	23.254	0.073	-0.060
-494.566	-140.938	-0.289	-0.030
-493.551	-50.918	-0.067	0.031
-492.537	173.478	0.062	0.089
-491.522	74.319	0.192	-0.202
-490.508	-200.000	0.044	0.254
-489.493	-83.863	-0.371	-0.118
-488.478	-64.970	0.379	0.153
-487.464	-184.797	-0.201	-0.003
-486.449	-33.356	-0.186	-0.103
-485.435	715.739	-0.040	0.106
-484.420	-113.760	0.144	0.028
-483.405	107.194	-0.230	0.273
-482.391	-122.971	-0.274	0.044
-481.376	29.995	-0.096	0.081
-480.362	127.979	-0.134	0.171
-479.347	-38.953	0.124	-0.065
-478.332	-65.714	0.115	-0.046
-477.318	326.554	0.062	-0.119
-476.303	-12.678	0.253	0.165
-475.289	-11.051	0.100	0.066
-474.274	116.155	-0.252	0.307
-473.259	-17.460	0.130	0.082
-472.245	9.299	0.161	-0.121
-471.230	-44.217	0.044	-0.022
-470.216	-200.000	0.008	-0.177
-469.201	69.847	-0.151	-0.155
-468.186	-13.043	0.023	-0.015
-467.172	-54.562	-0.126	-0.057
-466.157	-87.674	0.268	0.081
-465.143	-150.406	-0.197	0.015
-464.128	166.975	0.014	-0.020
-463.113	-77.131	0.509	0.177
-462.099	-2.412	-0.204	0.143
-461.084	136.402	0.116	0.150
-460.070	-200.000	0.017	-0.271
-459.055	80.931	0.064	-0.069
-458.040	-200.000	-0.010	-0.234
-457.026	42.152	0.247	-0.224
-456.011	800.000	0.045	-0.188
-454.997	-30.626	-0.193	-0.109
-453.982	171.320	-0.239	0.341
-452.968	-105.295	-0.281	-0.064
-451.953	106.786	-0.045	0.053
-450.938	800.000	-0.063	0.185
-449.924	775.703	0.037	-0.101
-448.909	79.265	0.148	-0.158
-447.895	-200.000	0.058	0.330
-446.880	800.000	-0.084	-0.304
-445.865	3.411	-0.179	-0.130
-444.851	800.000	0.080	0.271
-443.836	-138.770	-0.105	0.011
-442.822	800.000	0.039	0.157
-441.807	195.855	0.185	0.280
-440.792	-200.000	0.077	-0.388
-439.778	-85.418	0.187	0.058
-438.763	-200.000	0.039	0.396
-437.749	-140.647	-0.350	-0.036
-436.734	-28.635	0.172	0.099
-435.719	-101.258	-0.182	0.044
-434.705	-200.000	0.041	0.347
-433.690	378.318	0.067	-0.136
-432.676	19.728	0.094	-0.075
-431.661	62.653	0.151	0.150
-430.646	-36.501	-0.253	-0.136
-429.632	104.843	0.116	-0.136
-428.617	15.029	0.120	0.093
-427.603	-200.000	-0.042	0.616
-426.588	117.697	0.112	0.138
-425.573	-41.762	-0.057	-0.029
-424.559	541.016	-0.087	0.207
-423.544	3.762	-0.040	0.029
-422.530	-113.873	0.183	0.035
-421.515	-51.845	-0.252	0.117
-420.500	-66.191	-0.329	-0.130
-419.486	-200.000	-0.001	0.167
-418.471	556.775	0.096	0.230
-417.457	-149.546	-0.233	-0.018
-416.442	81.138	0.103	-0.111
-415.428	-17.767	-0.239	-0.149
-414.413	25.458	0.123	-0.102
-413.398	29.327	0.245	-0.207
-412.384	-99.709	0.169	-0.042
-411.369	157.324	0.065	-0.090
-410.355	1.839	0.231	0.165
-409.340	-83.928	-0.094	0.030
-408.325	217.088	-0.114	-0.180
-407.311	-200.000	-0.015	-0.467
-406.296	532.042	0.156	-0.367
-405.282	-40.429	0.106	0.055
-404.267	-200.000	-0.079	0.572
-403.252	-122.406	0.101	0.016
-402.238	719.444	-0.015	-0.040
-401.223	37.506	0.161	-0.142
-400.209	-59.821	0.205	-0.087
-399.194	21.062	0.018	0.015
-398.179	25.711	-0.415	0.343
-397.165	-200.000	-0.005	-0.023
-396.150	-94.817	-0.327	-0.088
-395.136	28.883	-0.103	0.086
-394.121	-200.000	-0.032	-0.248
-393.106	800.000	-0.096	-0.289
-392.092	-24.969	0.175	0.103
-391.077	-200.000	0.000	0.217
-390.063	466.254	-0.008	0.017
-389.048	800.000	-0.039	-0.121
-388.033	-37.223	0.085	0.045
-387.019	443.144	0.023	0.050
-386.004	-49.300	-0.267	0.127
-384.990	2.412	-0.198	0.142
-383.975	-200.000	0.012	-0.210
-382.960	-200.000	-0.017	0.250
-381.946	-200.000	0.026	-0.312
-380.931	-84.743	0.193	0.060
-379.917	-54.030	0.078	0.035
-378.902	4.639	-0.087	0.064
-377.888	359.388	0.049	0.098
-376.873	173.986	-0.395	0.567
-375.858	171.302	0.157	0.223
-374.844	-200.000	0.008	-0.072
-373.829	500.958	0.089	0.204
-372.815	800.000	-0.032	0.136
-371.800	357.067	0.183	0.363
-370.785	34.856	-0.195	-0.169
-369.771	7.377	-0.120	-0.089
-368.756	-36.997	0.144	-0.077
-367.742	-200.000	-0.028	-0.688
-366.727	-43.015	0.298	0.150
-365.712	800.000	-0.073	0.240
-364.698	-63.846	0.159	0.065
-363.683	-37.188	0.279	0.148
-362.669	214.520	0.160	-0.252
-361.654	-200.000	-0.021	0.101
-360.639	15.681	-0.277	0.216
-359.625	-200.000	0.001	-0.038
-358.610	-155.616	-0.232	0.015
-357.596	-130.537	0.112	0.015
-356.581	4.868	0.144	0.105
-355.566	-200.000	0.065	-0.326
-354.552	298.117	-0.106	-0.194
-353.537	-129.436	-0.333	0.046
-352.523	476.099	0.028	0.063
-351.508	-200.000	0.042	-0.191
-350.493	545.995	0.053	-0.126
-349.479	-15.972	-0.072	0.046
-348.464	3.503	0.255	0.185
-347.450	-194.796	0.221	-0.002
-346.435	-91.741	-0.127	-0.036
-345.420	-200.000	-0.007	-0.216
-344.406	800.000	-0.093	0.303
-343.391	325.220	0.149	0.282
-342.377	-200.000	0.013	-0.193
-341.362	-200.000	-0.028	-0.266
-340.348	313.931	0.100	-0.186
-339.333	-4.633	-0.149	-0.102
-338.318	-52.480	0.234	-0.108
-337.304	-9.968	0.238	-0.157
-336.289	800.000	-0.087	-0.255
-335.275	102.885	0.256	-0.298
-334.260	800.000	0.078	0.282
-333.245	-118.785	0.163	0.028
-332.231	-183.175	-0.141	0.002
-331.216	-0.570	0.106	-0.075
-330.202	-200.000	-0.012	-0.115
-329.187	800.000	0.052	-0.222
-328.172	-200.000	0.024	-0.161
-327.158	-200.000	-0.023	0.485
-326.143	800.000	0.016	-0.049
-325.129	134.552	-0.144	0.185
-324.114	800.000	-0.027	0.118
-323.099	421.880	0.151	-0.322
-322.085	-101.403	-0.023	0.006
-321.070	404.895	0.012	-0.026
-320.056	14.461	-0.085	-0.066
-319.041	778.905	0.041	0.110
-318.026	-129.183	0.370	0.051
-317.012	188.273	-0.092	0.136
-315.997	240.685	0.148	0.244
-314.983	-88.759	-0.180	-0.053
-313.968	252.293	0.100	0.169
-312.953	-200.000	-0.007	0.173
-311.939	800.000	0.041	0.136
-310.924	99.722	-0.245	0.281
-309.910	3.431	0.211	0.152
-308.895	168.962	-0.109	-0.154
-307.880	185.110	0.080	-0.118
-306.866	497.044	-0.151	-0.345
-305.851	658.239	0.054	-0.137
-304.837	-39.384	-0.038	-0.020
-303.822	158.449	0.066	0.090
-302.807	393.141	-0.070	0.143
-301.793	-81.511	-0.048	-0.016
-300.778	53.315	0.261	0.248
-299.764	-200.000	-0.030	-0.138
-298.749	-19.437	-0.418	-0.256
-297.735	318.669	0.117	0.219
-296.720	-7.278	-0.260	0.174
-295.705	-80.860	0.205	0.067
-294.691	-200.000	-0.034	0.295
-293.676	0.979	0.121	0.086
-292.662	800.000	-0.127	0.365
-291.647	-71.447	0.292	-0.108
-290.632	-200.000	0.001	-0.109
-289.618	222.313	0.117	-0.187
-288.603	73.944	-0.254	-0.263
-287.589	-74.312	-0.147	0.053
-286.574	-129.627	0.146	0.020
-285.559	-97.083	-0.124	0.032
-284.545	63.695	-0.383	-0.381
-283.530	-192.067	-0.211	0.002
-282.516	12.647	-0.175	0.134
-281.501	23.207	0.147	0.120
-280.486	-143.796	0.159	0.015
-279.472	-24.005	0.245	0.145
-278.457	800.000	-0.030	-0.123
-277.443	26.833	0.273	-0.226
-276.428	69.227	-0.072	-0.073
-275.413	590.264	-0.133	0.325
-274.399	-33.128	-0.096	0.053
-273.384	-64.065	-0.259	-0.105
-272.370	192.585	0.070	-0.104
-271.355	800.000	-0.047	0.160
-270.340	-46.530	0.141	0.069
-269.326	-35.903	0.098	0.053
-268.311	-60.998	0.117	0.049
-267.297	-121.172	-0.111	0.018
-266.282	14.665	0.250	0.193
-265.267	-200.000	0.053	0.371
-264.253	-200.000	0.008	0.273
-263.238	276.348	-0.247	0.434
-262.224	-113.134	-0.073	-0.014
-261.209	-66.273	0.226	-0.089
-260.195	800.000	-0.020	0.063
-259.180	-98.457	0.109	0.028
-258.165	385.538	0.114	0.233
-257.151	31.186	0.069	0.059
-256.136	-144.045	0.041	-0.004
-255.122	-55.082	0.268	-0.119
-254.107	800.000	0.046	0.129
-253.092	-27.418	0.253	0.146
-252.078	-23.933	-0.257	0.152
-251.063	10.396	-0.173	-0.130
-250.049	-59.609	-0.254	0.108
-249.034	-15.584	-0.109	-0.069
-248.019	-7.458	-0.242	0.162
-247.005	-86.283	0.185	0.056
-245.990	800.000	-0.095	-0.392
-244.976	-200.000	-0.010	-0.075
-243.961	-112.268	0.245	-0.049
-242.946	4.050	0.124	-0.089
-241.932	-128.617	0.162	0.023
-240.917	62.113	0.111	0.109
-239.903	302.324	-0.075	0.138
-238.888	-46.386	-0.058	0.028
-237.873	103.628	-0.221	0.257
-236.859	-196.020	-0.098	0.001
-235.844	-109.494	0.466	0.097
-234.830	-200.000	0.001	-0.310
-233.815	-200.000	0.048	-0.373
-232.800	139.665	-0.052	-0.067
-231.786	326.694	0.086	0.163
-230.771	-200.000	0.004	0.229
-229.757	-53.017	-0.050	-0.023
-228.742	-95.247	-0.081	0.021
-227.727	7.630	0.183	0.136
-226.713	-161.018	0.190	-0.010
-225.698	551.262	0.185	-0.439
-224.684	35.408	-0.063	-0.055
-223.669	800.000	-0.047	0.145
-222.655	800.000	0.114	0.342
-221.640	-200.000	-0.030	-0.152
-220.625	111.735	0.174	0.208
-219.611	800.000	0.010	0.038
-218.596	-200.000	0.034	0.277
-217.582	54.726	-0.188	0.179
-216.567	15.920	0.206	0.160
-215.552	8.996	0.181	0.135
-214.538	-73.248	0.183	-0.066
-213.523	-200.000	0.013	0.209
-212.509	-86.407	-0.306	-0.093
-211.494	-141.154	-0.175	0.018
-210.479	-0.147	-0.288	-0.202
-209.465	34.037	0.260	0.223
-208.450	-94.886	-0.247	-0.066
-207.436	528.058	-0.180	0.419
-206.421	-111.727	0.168	0.033
-205.406	441.026	-0.121	0.260
-204.392	800.000	0.145	-0.407
-203.377	160.902	0.284	-0.392
-202.363	-42.340	0.035	0.018
-201.348	800.000	0.013	-0.040
-200.333	-3.538	-0.310	-0.213
-199.319	-200.000	0.006	0.044
-198.304	-200.000	-0.025	0.193
-197.290	-44.794	0.102	0.050
-196.275	800.000	0.046	-0.135
-195.260	-200.000	0.000	0.059
-194.246	-200.000	0.005	0.190
-193.231	-53.063	0.110	0.050
-192.217	104.518	0.121	0.140
-191.202	76.923	0.229	-0.239
-190.187	800.000	0.008	-0.021
-189.173	-200.000	0.038	0.299
-188.158	-128.339	-0.306	-0.043
-187.144	427.721	0.185	0.393
-186.129	-200.000	0.032	-0.256
-185.114	-142.740	0.192	-0.018
-184.100	-144.778	0.298	-0.027
-183.085	-34.671	-0.465	0.251
-182.071	800.000	0.037	0.115
-181.056	-200.000	0.015	0.120
-180.042	126.362	0.090	-0.112
-179.027	-29.900	0.165	-0.093
-178.012	-200.000	-0.023	-0.145
-176.998	-200.000	-0.004	0.030
-175.983	621.101	-0.078	-0.195
-174.969	800.000	0.039	-0.141
-173.954	-200.000	-0.001	0.116
-172.939	-40.295	0.177	-0.091
-171.925	-100.354	0.259	0.063
-170.910	-200.000	-0.014	-0.088
-169.896	-200.000	-0.055	0.248
-168.881	26.635	0.228	-0.188
-167.866	607.713	-0.098	-0.241
-166.852	-50.930	-0.281	-0.130
-165.837	-128.102	-0.042	0.006
-164.823	-100.135	0.140	0.034
-163.808	-200.000	-0.018	-0.403
-162.793	96.891	-0.120	-0.136
-161.779	-70.862	-0.152	-0.056
-160.764	539.130	-0.045	-0.105
-159.750	579.472	0.066	0.158
-158.735	-67.281	-0.283	0.110
-157.720	64.158	0.048	0.048
-156.706	-38.422	0.134	0.070
-155.691	-166.329	-0.123	-0.005
-154.677	-84.301	-0.095	-0.030
-153.662	-39.587	-0.313	0.162
-152.647	76.579	0.086	-0.090
-151.633	-49.764	-0.193	0.090
-150.618	65.867	-0.120	-0.120
-149.604	-156.835	0.234	0.014
-148.589	800.000	-0.079	0.291
-147.574	-159.332	-0.376	0.021
-146.560	3.921	0.190	-0.137
-145.545	-57.192	0.055	-0.024
-144.531	24.072	-0.267	-0.217
-143.516	-200.000	0.007	0.075
-142.502	-116.277	0.323	-0.059
-141.487	612.818	-0.007	0.018
-140.472	35.217	-0.110	-0.095
-139.458	-200.000	0.022	0.114
-138.443	-200.000	0.036	0.305
-137.429	203.177	0.071	-0.108
-136.414	195.509	-0.184	-0.275
-135.399	228.538	0.148	-0.237
-134.385	-200.000	0.022	-0.386
-133.370	-62.119	0.147	-0.060
-132.356	415.087	-0.120	0.251
-131.341	49.964	-0.070	0.065
-130.326	220.187	0.101	-0.159
-129.312	-200.000	-0.029	0.233
-128.297	146.253	0.150	0.199
-127.283	-42.349	0.240	0.120
-126.268	-37.421	0.224	0.118
-125.253	108.861	-0.146	-0.172
-124.239	-78.283	-0.481	0.162
-123.224	-200.000	0.022	0.292
-122.210	-78.620	-0.216	0.073
-121.195	-63.952	-0.178	-0.071
-120.180	-88.866	-0.501	-0.146
-119.166	-116.689	-0.248	-0.045
