DTS Sentinel unit serial number:	SN413079Multiplexer serial number:	ORYXHardware model number:	OX4-SRSoftware version number:	ORYX F/W v4.00 Oryx Data Collector v3.7.2.0data status	okinstallation	princeton_trtdifferential loss correction	single-endedforward channel	channel 3reverse channel	N/Adate	2019/09/16time	01:04:35forward acquisition time	60.00reverse acquisition time	0.00gamma	496.2192k internal	0.2338k external	0.2338temperature offset calibration	0.9950default loss term (dB/km)	0.3790temperature slope calibration	1.0000multiplexer offset coefficient	1.0000multiplexer slope coefficient	1.0000fibre end	0.00T internal ref (°C)	27.31T ext. ref 1 (°C)	9.76T ext. ref 2 (°C)	21.54length (m)	temperature (°C)	Stokes	anti-Stokes-747.200	146.068	0.086	-0.116
-746.185	800.000	-0.093	0.286
-745.171	9.957	0.092	0.070
-744.156	-72.367	-0.586	0.218
-743.142	-144.360	-0.141	-0.013
-742.127	397.347	0.236	0.494
-741.112	733.687	-0.051	0.138
-740.098	-200.000	0.009	0.059
-739.083	-173.851	0.292	-0.009
-738.069	120.696	-0.012	0.015
-737.054	125.933	0.218	-0.277
-736.039	-200.000	0.006	0.083
-735.025	800.000	-0.117	0.469
-734.010	-114.081	-0.426	-0.083
-732.996	32.431	0.369	-0.320
-731.981	484.032	0.024	0.054
-730.966	586.069	0.024	-0.059
-729.952	-128.490	-0.275	-0.039
-728.937	371.611	0.027	-0.054
-727.923	49.891	-0.188	-0.178
-726.908	-200.000	0.023	-0.206
-725.894	48.112	-0.038	-0.036
-724.879	-104.416	-0.241	-0.056
-723.864	-200.000	0.036	-0.261
-722.850	-55.902	-0.260	0.116
-721.835	106.136	0.225	-0.267
-720.821	41.100	0.157	0.142
-719.806	-57.913	0.157	0.069
-718.791	-200.000	0.006	0.250
-717.777	-129.849	-0.251	0.035
-716.762	-200.000	0.017	0.371
-715.748	800.000	-0.097	-0.354
-714.733	-135.628	0.312	0.037
-713.718	269.635	-0.135	0.238
-712.704	644.256	-0.080	0.205
-711.689	12.908	-0.058	0.045
-710.675	-90.678	0.189	0.055
-709.660	-129.129	-0.228	-0.032
-708.645	299.864	-0.096	0.177
-707.631	-15.400	0.355	-0.227
-706.616	-200.000	0.016	-0.107
-705.602	685.237	-0.080	-0.210
-704.587	800.000	-0.059	0.191
-703.572	7.759	-0.170	-0.128
-702.558	800.000	0.070	-0.195
-701.543	-130.816	0.205	0.028
-700.529	800.000	-0.090	0.278
-699.514	101.499	-0.197	0.230
-698.499	585.586	0.029	0.071
-697.485	-164.561	-0.356	-0.016
-696.470	-200.000	0.139	-0.001
-695.456	800.000	-0.047	0.175
-694.441	800.000	0.100	-0.284
-693.426	174.079	0.165	-0.238
-692.412	-33.768	0.166	0.092
-691.397	142.919	0.230	-0.307
-690.383	800.000	0.014	0.041
-689.368	-50.099	0.107	0.051
-688.354	232.647	-0.079	0.131
-687.339	-153.411	-0.177	0.012
-686.324	-63.203	0.174	0.072
-685.310	-139.932	-0.251	0.027
-684.295	-134.466	-0.319	0.039
-683.281	-66.862	0.189	-0.075
-682.266	147.900	0.131	-0.177
-681.251	-143.227	0.057	-0.006
-680.237	-73.714	0.279	-0.102
-679.222	18.038	-0.342	-0.273
-678.208	-1.110	-0.115	0.081
-677.193	28.174	-0.241	0.204
-676.178	55.574	0.206	0.200
-675.164	351.566	0.053	0.105
-674.149	-75.975	-0.236	0.083
-673.135	800.000	0.114	-0.326
-672.120	-20.242	-0.172	-0.106
-671.105	16.811	-0.069	0.054
-670.091	740.516	0.114	0.307
-669.076	-19.311	0.250	0.155
-668.062	800.000	0.116	0.335
-667.047	800.000	-0.112	-0.344
-666.032	-200.000	-0.017	0.099
-665.018	-200.000	0.010	-0.064
-664.003	-106.793	-0.061	0.014
-662.989	260.986	0.048	0.084
-661.974	536.919	-0.221	0.525
-660.959	-150.589	-0.118	0.009
-659.945	62.697	0.162	-0.162
-658.930	-56.652	0.221	-0.098
-657.916	737.155	-0.034	-0.092
-656.901	512.572	-0.111	-0.257
-655.886	236.348	-0.055	-0.090
-654.872	-114.550	-0.185	0.035
-653.857	800.000	0.044	-0.128
-652.843	-200.000	0.012	0.076
-651.828	-17.361	-0.110	-0.069
-650.814	49.191	-0.040	0.038
-649.799	191.815	0.105	-0.158
-648.784	-89.771	0.234	-0.069
-647.770	-1.827	-0.234	0.165
-646.755	166.434	0.087	0.123
-645.741	-200.000	0.021	-0.167
-644.726	575.843	-0.097	0.238
-643.711	253.585	-0.116	-0.197
-642.697	-200.000	-0.076	-0.496
-641.682	-200.000	-0.013	-0.195
-640.668	-67.541	-0.236	-0.092
-639.653	-128.672	-0.201	-0.028
-638.638	-40.471	0.270	0.140
-637.624	-156.963	-0.125	-0.008
-636.609	800.000	0.120	-0.334
-635.595	354.786	0.125	0.248
-634.580	-54.313	-0.119	0.054
-633.565	-94.944	0.105	0.028
-632.551	-23.080	0.202	0.121
-631.536	-38.078	-0.208	0.110
-630.522	103.981	-0.198	-0.233
-629.507	800.000	0.013	0.038
-628.492	-62.710	-0.223	-0.092
-627.478	528.923	-0.065	0.154
-626.463	800.000	-0.023	0.094
-625.449	-47.330	0.168	0.082
-624.434	-200.000	-0.011	-0.086
-623.419	-59.188	0.078	-0.034
-622.405	175.981	-0.208	-0.302
-621.390	-200.000	0.034	-0.171
-620.376	-19.038	0.270	0.168
-619.361	-47.492	0.184	-0.089
-618.346	76.655	-0.146	-0.155
-617.332	800.000	0.017	0.050
-616.317	50.099	-0.168	0.159
-615.303	91.709	-0.102	-0.114
-614.288	800.000	0.085	-0.287
-613.273	235.353	-0.061	-0.101
-612.259	-36.982	0.288	-0.154
-611.244	92.333	-0.424	0.477
-610.230	-46.694	-0.171	-0.084
-609.215	-85.109	0.019	0.006
-608.201	-200.000	-0.043	0.267
-607.186	41.820	0.260	0.235
-606.171	-45.338	0.033	0.017
-605.157	-200.000	0.006	0.074
-604.142	-87.417	-0.173	-0.052
-603.128	-200.000	-0.120	0.000
-602.113	70.528	0.238	0.246
-601.098	-62.639	0.078	0.032
-600.084	-200.000	0.007	0.098
-599.069	800.000	0.053	0.200
-598.055	-102.513	-0.179	0.043
-597.040	35.276	0.090	0.079
-596.025	-19.503	0.193	-0.120
-595.011	800.000	-0.040	-0.141
-593.996	800.000	-0.081	0.253
-592.982	-55.315	-0.139	0.062
-591.967	-17.102	0.157	-0.099
-590.952	-160.739	0.175	0.009
-589.938	-161.546	0.248	0.013
-588.923	608.593	-0.142	0.352
-587.909	78.478	0.358	0.382
-586.894	-124.315	-0.234	0.036
-585.879	5.592	-0.187	0.138
-584.865	-14.417	-0.140	0.090
-583.850	-71.121	0.084	-0.031
-582.836	180.162	0.220	-0.321
-581.821	-137.946	0.238	0.027
-580.806	442.060	-0.099	0.216
-579.792	118.507	-0.242	0.297
-578.777	68.172	0.280	0.286
-577.763	548.170	0.089	-0.212
-576.748	14.720	-0.236	-0.184
-575.733	650.080	0.041	-0.105
-574.719	-85.261	-0.171	-0.053
-573.704	-45.543	-0.123	0.061
-572.690	800.000	0.033	-0.122
-571.675	-105.886	-0.224	-0.050
-570.661	-127.117	-0.140	-0.020
-569.646	426.943	-0.090	0.193
-568.631	44.458	-0.145	0.133
-567.617	-61.955	0.211	-0.088
-566.602	-21.165	-0.104	0.063
-565.588	-200.000	0.004	-0.219
-564.573	-112.904	-0.251	0.050
-563.558	800.000	0.052	0.164
-562.544	718.464	-0.129	0.340
-561.529	800.000	-0.047	0.164
-560.515	-101.357	-0.129	-0.031
-559.500	104.790	0.166	-0.194
-558.485	-200.000	0.066	-0.399
-557.471	-139.990	-0.266	-0.028
-556.456	800.000	0.123	-0.362
-555.442	6.028	-0.236	0.174
-554.427	677.986	-0.039	-0.100
-553.412	129.353	0.116	-0.147
-552.398	-48.319	0.214	-0.103
-551.383	-39.943	-0.137	0.071
-550.369	800.000	0.145	-0.591
-549.354	800.000	-0.051	-0.164
-548.339	-108.163	-0.110	-0.024
-547.325	-6.011	-0.148	-0.101
-546.310	-178.200	-0.262	-0.006
-545.296	163.216	0.101	0.141
-544.281	-80.276	0.348	0.116
-543.266	-200.000	-0.021	-0.381
-542.252	-79.707	0.405	0.136
-541.237	-67.313	-0.095	-0.037
-540.223	374.368	0.018	-0.037
-539.208	573.178	0.125	0.303
-538.193	800.000	-0.062	-0.207
-537.179	47.851	-0.194	0.180
-536.164	147.824	-0.082	-0.110
-535.150	-200.000	0.005	0.173
-534.135	128.273	-0.211	-0.268
-533.121	800.000	0.127	-0.373
-532.106	-200.000	-0.011	0.323
-531.091	-200.000	0.041	-0.356
-530.077	184.383	-0.082	0.121
-529.062	-64.632	0.172	-0.069
-528.048	34.045	0.195	-0.169
-527.033	-156.359	-0.362	0.023
-526.018	-35.453	0.100	-0.054
-525.004	-200.000	-0.021	0.184
-523.989	-110.702	-0.146	-0.030
-522.975	667.112	0.060	0.155
-521.960	380.739	0.053	-0.107
-520.945	-32.112	0.171	0.095
-519.931	800.000	-0.029	0.100
-518.916	-131.265	0.299	-0.039
-517.902	-200.000	0.039	-0.372
-516.887	800.000	0.051	0.216
-515.872	254.673	0.091	0.155
-514.858	-200.000	-0.040	0.380
-513.843	800.000	0.053	-0.173
-512.829	101.364	-0.199	0.231
-511.814	-43.871	0.151	0.076
-510.799	-166.975	0.156	0.006
-509.785	-172.698	-0.064	0.002
-508.770	800.000	0.020	-0.063
-507.756	-139.009	0.204	-0.022
-506.741	-119.950	0.210	-0.036
-505.726	-200.000	0.027	0.192
-504.712	61.068	-0.295	0.291
-503.697	-200.000	0.028	0.135
-502.683	12.373	-0.154	-0.118
-501.668	69.747	0.170	0.174
-500.653	49.341	-0.140	0.130
-499.639	430.670	-0.115	0.248
-498.624	-53.226	-0.394	-0.180
-497.610	132.491	-0.101	-0.129
-496.595	-100.920	0.056	-0.014
-495.581	-1.859	-0.094	-0.066
-494.566	-200.000	0.030	-0.134
-493.551	47.118	-0.196	-0.182
-492.537	10.131	-0.130	-0.098
-491.522	1.299	-0.053	0.038
-490.508	55.649	-0.142	-0.136
-489.493	-153.236	-0.223	-0.015
-488.478	-143.561	-0.052	-0.005
-487.464	-200.000	0.010	-0.190
-486.449	229.954	-0.166	-0.270
-485.435	160.764	-0.085	-0.118
-484.420	778.730	-0.054	-0.146
-483.405	-200.000	-0.012	0.254
-482.391	145.486	0.302	0.402
-481.376	800.000	-0.057	0.191
-480.362	653.349	-0.027	-0.070
-479.347	800.000	0.060	-0.242
-478.332	-110.249	0.106	-0.022
-477.318	800.000	-0.024	-0.071
-476.303	-124.275	-0.069	-0.011
-475.289	201.288	-0.132	0.202
-474.274	242.645	-0.064	0.106
-473.259	93.835	0.243	-0.273
-472.245	597.861	0.070	-0.173
-471.230	-113.847	-0.290	-0.056
-470.216	-161.507	0.332	-0.017
-469.201	-41.234	0.152	-0.078
-468.186	141.045	-0.070	0.092
-467.172	-200.000	0.075	0.394
-466.157	572.337	-0.041	0.100
-465.143	-141.472	-0.044	-0.004
-464.128	800.000	-0.141	-0.396
-463.113	503.823	0.135	0.309
-462.099	28.419	0.203	0.171
-461.084	-63.687	-0.315	-0.128
-460.070	45.744	-0.222	-0.204
-459.055	-92.053	0.307	-0.086
-458.040	-38.109	0.120	0.063
-457.026	800.000	-0.098	-0.322
-456.011	-200.000	0.011	-0.368
-454.997	-162.106	-0.219	-0.011
-453.982	115.383	-0.143	0.173
-452.968	-35.348	-0.344	0.186
-451.953	117.472	0.213	0.260
-450.938	18.518	-0.192	0.152
-449.924	-133.266	0.112	-0.014
-448.909	619.872	0.061	0.153
-447.895	143.471	0.049	0.065
-446.880	18.149	0.338	-0.267
-445.865	-200.000	-0.047	0.208
-444.851	-141.152	-0.108	0.011
-443.836	53.632	-0.092	-0.088
-442.822	800.000	-0.115	-0.340
-441.807	-37.433	-0.031	-0.016
-440.792	-32.560	0.110	-0.061
-439.778	800.000	0.029	0.102
-438.763	800.000	0.103	-0.302
-437.749	365.334	-0.032	0.065
-436.734	-200.000	0.024	-0.237
-435.719	110.616	0.187	-0.222
-434.705	-165.940	0.246	-0.010
-433.690	-171.373	-0.326	0.011
-432.676	-165.803	0.259	0.011
-431.661	-77.737	-0.338	0.116
-430.646	673.520	0.062	0.159
-429.632	54.904	0.149	-0.143
-428.617	68.698	0.323	-0.329
-427.603	85.106	-0.155	0.168
-426.588	-21.730	-0.112	0.068
-425.573	619.192	0.046	-0.114
-424.559	-159.601	0.069	-0.004
-423.544	-135.877	0.487	0.057
-422.530	470.796	-0.097	0.217
-421.515	-200.000	0.033	-0.255
-420.500	-94.226	-0.052	0.014
-419.486	-200.000	0.051	0.243
-418.471	92.328	0.150	-0.167
-417.457	-33.229	0.076	-0.042
-416.442	8.106	0.185	0.138
-415.428	-19.450	-0.160	-0.098
-414.413	659.247	0.061	0.156
-413.398	2.171	0.213	-0.152
-412.384	-200.000	0.017	0.385
-411.369	-153.189	-0.163	-0.011
-410.355	-200.000	0.111	-0.000
-409.340	68.594	-0.175	0.178
-408.325	157.922	-0.143	0.197
-407.311	43.024	0.187	0.169
-406.296	-66.383	-0.114	-0.045
-405.282	-130.882	-0.330	0.044
-404.267	241.289	0.116	0.192
-403.252	-169.690	0.276	0.010
-402.238	288.425	0.181	-0.325
-401.223	222.826	0.076	0.121
-400.209	-200.000	-0.034	-0.160
-399.194	-200.000	0.050	0.257
-398.179	-111.408	0.183	-0.037
-397.165	278.622	0.038	0.067
-396.150	-25.872	-0.184	0.107
-395.136	-77.990	-0.416	-0.142
-394.121	800.000	-0.059	-0.173
-393.106	38.971	0.319	-0.282
-392.092	190.734	0.178	0.266
-391.077	-200.000	0.046	-0.281
-390.063	800.000	-0.013	-0.050
-389.048	-200.000	0.000	0.147
-388.033	67.448	-0.271	0.274
-387.019	213.920	-0.201	0.315
-386.004	11.256	0.098	-0.074
-384.990	800.000	-0.037	0.118
-383.975	800.000	-0.108	-0.386
-382.960	-5.995	0.363	-0.246
-381.946	13.185	0.003	-0.002
-380.931	-200.000	0.070	0.362
-379.917	-2.128	0.206	0.143
-378.902	-21.462	-0.158	0.095
-377.888	796.924	0.122	-0.332
-376.873	164.826	0.111	0.155
-375.858	155.896	0.107	0.146
-374.844	79.365	-0.171	0.181
-373.829	800.000	-0.087	-0.375
-372.815	-129.991	-0.098	-0.013
-371.800	71.867	0.304	0.313
-370.785	-200.000	-0.019	-0.212
-369.771	-44.041	0.301	0.150
-368.756	113.650	0.047	-0.056
-367.742	-116.916	-0.178	0.032
-366.727	427.872	-0.039	-0.084
-365.712	-200.000	0.012	0.201
-364.698	643.457	0.028	-0.069
-363.683	-200.000	0.038	0.246
-362.669	-45.452	0.031	0.015
-361.654	-102.813	-0.413	0.097
-360.639	-200.000	-0.030	-0.133
-359.625	-27.813	0.138	-0.079
-358.610	-70.752	-0.212	0.079
-357.596	-200.000	-0.020	0.560
-356.581	-200.000	0.018	-0.087
-355.566	-114.558	0.251	0.048
-354.552	153.847	0.117	-0.158
-353.537	-200.000	-0.001	0.163
-352.523	32.007	-0.196	-0.167
-351.508	-118.532	0.222	-0.039
-350.493	97.747	-0.287	-0.326
-349.479	-200.000	0.050	-0.244
-348.464	-200.000	-0.015	-0.253
-347.450	-200.000	0.009	0.271
-346.435	432.256	-0.092	-0.196
-345.420	3.692	-0.200	-0.144
-344.406	-200.000	-0.075	-0.442
-343.391	-110.440	0.113	0.023
-342.377	-13.841	-0.088	0.056
-341.362	-4.576	-0.102	0.070
-340.348	220.960	0.064	0.101
-339.333	800.000	-0.046	-0.191
-338.318	-200.000	-0.053	-0.265
-337.304	603.143	0.035	-0.087
-336.289	-200.000	0.068	0.308
-335.275	-200.000	-0.015	-0.151
-334.260	800.000	0.105	0.329
-333.245	800.000	-0.114	0.404
-332.231	73.214	-0.062	0.064
-331.216	10.479	-0.047	-0.035
-330.202	-31.992	0.143	-0.079
-329.187	91.147	0.096	-0.107
-328.172	-200.000	-0.010	-0.225
-327.158	-200.000	-0.081	-0.488
-326.143	143.249	-0.120	-0.158
-325.129	727.066	0.079	-0.207
-324.114	-200.000	0.013	0.088
-323.099	-51.744	-0.408	-0.188
-322.085	-79.183	-0.274	-0.092
-321.070	-200.000	-0.022	-0.255
-320.056	800.000	-0.032	-0.096
-319.041	-8.518	0.130	-0.086
-318.026	126.631	0.168	-0.210
-317.012	-200.000	0.020	-0.153
-315.997	30.156	-0.234	-0.197
-314.983	-200.000	0.049	0.359
-313.968	-66.747	0.281	0.110
-312.953	-126.128	-0.113	-0.017
-311.939	-86.303	0.110	-0.033
-310.924	-192.794	0.190	0.002
-309.910	45.902	0.197	-0.180
-308.895	-124.767	-0.358	0.055
-307.880	-10.472	0.038	0.025
-306.866	-168.864	0.362	-0.013
-305.851	142.233	0.055	0.072
-304.837	-28.712	0.051	0.029
-303.822	-47.186	-0.187	0.090
-302.807	-200.000	-0.035	0.194
-301.793	800.000	0.091	0.332
-300.778	3.178	0.065	0.047
-299.764	253.106	-0.087	0.146
-298.749	-92.640	0.084	-0.023
-297.735	148.075	0.219	0.292
-296.720	-29.700	-0.164	0.092
-295.705	-142.734	0.207	-0.020
-294.691	-149.806	-0.254	0.020
-293.676	723.133	-0.136	-0.357
-292.662	-162.326	-0.050	-0.002
-291.647	-200.000	-0.008	0.064
-290.632	797.612	-0.051	0.139
-289.618	-29.236	0.291	-0.164
-288.603	-63.955	0.110	0.044
-287.589	542.480	-0.071	-0.166
-286.574	259.298	0.240	-0.408
-285.559	79.614	0.057	0.060
-284.545	73.877	-0.129	-0.133
-283.530	-200.000	-0.360	0.001
-282.516	17.441	-0.096	0.075
-281.501	-117.056	0.121	0.022
-280.486	419.481	-0.008	-0.016
-279.472	55.408	-0.172	-0.164
-278.457	800.000	0.046	0.143
-277.443	531.763	0.105	-0.245
-276.428	105.457	-0.167	0.194
-275.413	-200.000	-0.021	0.189
-274.399	-200.000	0.001	0.039
-273.384	142.763	0.236	0.309
-272.370	-186.715	-0.026	-0.000
-271.355	-8.435	-0.258	-0.171
-270.340	-200.000	0.008	0.052
-269.326	800.000	-0.067	0.186
-268.311	-176.083	-0.299	-0.008
-267.297	-20.530	-0.248	0.150
-266.282	-200.000	-0.027	0.233
-265.267	-200.000	0.037	0.172
-264.253	-140.832	0.083	-0.008
-263.238	800.000	0.050	-0.189
-262.224	-142.193	0.346	-0.034
-261.209	-200.000	0.016	-0.269
-260.195	35.083	0.060	-0.052
-259.180	328.621	-0.251	0.475
-258.165	-16.165	0.213	0.133
-257.151	-200.000	0.084	0.523
-256.136	352.633	0.109	0.213
-255.122	109.601	0.254	0.300
-254.107	-13.093	0.266	0.170
-253.092	800.000	0.099	-0.309
-252.078	-60.961	0.132	-0.055
-251.063	-140.547	0.157	-0.016
-250.049	800.000	0.026	-0.094
-249.034	-158.351	0.146	-0.008
-248.019	138.058	-0.116	0.150
-247.005	65.197	-0.235	0.234
-245.990	302.122	-0.255	0.464
-244.976	-93.657	0.216	-0.059
-243.961	800.000	0.063	-0.212
-242.946	28.905	-0.200	-0.167
-241.932	378.979	-0.134	0.270
-240.917	170.326	0.228	0.321
-239.903	195.185	-0.126	0.188
-238.888	339.496	0.084	0.161
-237.873	33.160	0.146	-0.125
-236.859	-42.479	-0.116	-0.058
-235.844	-36.544	-0.177	0.094
-234.830	-200.000	0.038	-0.375
-233.815	-106.560	0.178	-0.039
-232.800	42.404	-0.174	0.156
-231.786	118.792	-0.024	0.029
-230.771	-200.000	-0.002	0.250
-229.757	40.824	-0.198	-0.176
-228.742	-117.645	0.073	0.013
-227.727	15.877	0.186	0.144
-226.713	-92.630	-0.025	-0.007
-225.698	-200.000	-0.010	-0.129
-224.684	800.000	0.015	-0.055
-223.669	-52.944	-0.238	-0.108
-222.655	-200.000	-0.008	-0.164
-221.640	-39.730	-0.204	-0.105
-220.625	21.580	0.147	0.118
-219.611	-58.110	-0.043	-0.018
-218.596	-132.253	0.220	0.028
-217.582	-110.453	-0.137	0.028
-216.567	-177.109	0.195	-0.005
-215.552	618.653	0.070	-0.174
-214.538	-125.244	0.070	-0.011
-213.523	-120.416	-0.071	-0.012
-212.509	20.804	0.097	0.077
-211.494	19.494	-0.311	-0.246
-210.479	8.957	-0.198	0.146
-209.465	-200.000	0.010	-0.109
-208.450	-83.013	0.229	0.072
-207.436	-77.884	0.248	-0.084
-206.421	-166.534	0.108	0.004
-205.406	-20.010	0.077	0.047
-204.392	514.108	-0.077	-0.177
-203.377	-200.000	-0.100	0.000
-202.363	-200.000	0.013	-0.286
-201.348	800.000	-0.032	-0.089
-200.333	205.067	-0.063	0.095
-199.319	187.688	-0.077	0.113
-198.304	-45.863	0.242	-0.117
-197.290	800.000	-0.026	0.090
-196.275	-121.453	-0.126	-0.021
-195.260	-200.000	0.047	-0.213
-194.246	-67.990	-0.075	0.029
-193.231	618.989	-0.130	0.320
-192.217	528.402	0.091	0.210
-191.202	36.300	0.251	-0.218
-190.187	-108.525	0.291	-0.061
-189.173	76.754	-0.153	-0.159
-188.158	135.187	0.029	0.037
-187.144	-115.928	-0.120	-0.022
-186.129	-97.978	-0.079	-0.020
-185.114	27.410	-0.247	-0.204
-184.100	-140.274	-0.362	0.037
-183.085	-200.000	0.012	-0.101
-182.071	-200.000	-0.027	-0.134
-181.056	26.605	0.213	-0.175
-180.042	-64.964	-0.280	-0.111
-179.027	-170.647	0.150	-0.005
-178.012	45.437	0.168	0.152
-176.998	-46.438	-0.177	-0.085
-175.983	800.000	-0.059	0.174
-174.969	59.813	0.142	-0.138
-173.954	800.000	-0.058	0.221
-172.939	361.871	-0.053	-0.103
-171.925	103.734	0.105	0.121
-170.910	469.006	-0.067	0.148
-169.896	75.182	-0.221	-0.228
-168.881	-200.000	0.032	0.273
-167.866	-200.000	0.016	-0.292
-166.852	-84.311	0.203	0.063
-165.837	-38.323	0.267	0.138
-164.823	-40.655	0.099	-0.050
-163.808	402.014	-0.034	-0.069
-162.793	-81.251	-0.113	-0.037
-161.779	-200.000	0.048	-0.268
-160.764	-200.000	0.017	0.224
-159.750	115.430	0.060	0.072
-158.735	215.681	0.176	-0.274
-157.720	-48.251	0.102	0.048
-156.706	59.431	0.167	0.162
-155.691	-165.976	-0.275	0.012
-154.677	223.957	0.095	0.150
-153.662	-160.980	-0.319	0.016
-152.647	97.398	0.111	0.125
-151.633	-141.018	0.236	-0.024
-150.618	-200.000	-0.014	0.105
-149.604	-64.471	0.242	0.096
-148.589	800.000	-0.035	0.144
-147.574	47.794	0.099	0.091
-146.560	-24.762	-0.052	0.030
-145.545	144.001	-0.072	-0.094
-144.531	-163.505	-0.289	0.013
-143.516	-37.404	-0.269	0.141
-142.502	579.286	-0.101	0.241
-141.487	-200.000	0.003	-0.118
-140.472	-32.468	-0.288	-0.157
-139.458	-200.000	-0.062	0.288
-138.443	677.994	-0.145	-0.369
-137.429	173.689	0.077	0.109
-136.414	-200.000	-0.016	-0.149
-135.399	10.639	0.250	0.187
-134.385	36.467	0.360	0.311
-133.370	19.885	0.131	0.103
-132.356	161.380	0.320	-0.438
-131.341	-138.825	0.221	-0.024
-130.326	300.210	0.156	0.281
-129.312	-91.391	0.072	0.020
-128.297	-50.165	-0.119	0.055
-127.283	-200.000	-0.006	-0.344
-126.268	552.499	0.040	0.094
-125.253	-200.000	-0.059	0.281
-124.239	-17.275	-0.116	0.071
-123.224	153.312	0.055	-0.073
-122.210	-42.802	0.268	0.134
-121.195	158.877	-0.170	-0.231
