DTS Sentinel unit serial number:	SN413079Multiplexer serial number:	ORYXHardware model number:	OX4-SRSoftware version number:	ORYX F/W v4.00 Oryx Data Collector v3.7.2.0data status	okinstallation	princeton_trtdifferential loss correction	single-endedforward channel	channel 3reverse channel	N/Adate	2019/09/13time	03:16:35forward acquisition time	60.00reverse acquisition time	0.00gamma	496.2192k internal	0.2334k external	0.2334temperature offset calibration	1.0144default loss term (dB/km)	0.3790temperature slope calibration	1.0000multiplexer offset coefficient	1.0000multiplexer slope coefficient	1.0000fibre end	0.00T internal ref (°C)	27.37T ext. ref 1 (°C)	4.09T ext. ref 2 (°C)	22.10length (m)	temperature (°C)	Stokes	anti-Stokes-747.200	-200.000	-0.015	0.163
-746.185	210.294	-0.242	0.381
-745.171	-136.396	-0.209	0.024
-744.156	-57.059	-0.171	0.076
-743.142	198.738	-0.019	-0.029
-742.127	-56.145	-0.400	0.179
-741.112	-79.235	-0.139	0.047
-740.098	211.798	0.129	0.204
-739.083	281.416	0.144	0.260
-738.069	271.719	-0.153	-0.271
-737.054	-61.298	0.192	0.081
-736.039	-134.052	0.251	0.031
-735.025	410.528	-0.144	-0.307
-734.010	800.000	0.127	-0.352
-732.996	568.671	-0.111	0.270
-731.981	584.201	-0.081	-0.200
-730.966	-40.992	-0.441	0.229
-729.952	-90.424	-0.186	0.054
-728.937	374.282	-0.021	-0.042
-727.923	-200.000	-0.001	0.189
-726.908	82.207	-0.298	-0.324
-725.894	-161.727	-0.221	-0.011
-724.879	-190.844	-0.154	-0.002
-723.864	623.103	-0.083	0.211
-722.850	737.787	0.066	0.177
-721.835	-68.423	-0.263	0.103
-720.821	109.251	-0.081	0.098
-719.806	-49.620	-0.340	-0.163
-718.791	244.279	0.035	-0.059
-717.777	95.184	-0.040	-0.045
-716.762	-200.000	-0.063	-0.437
-715.748	-143.869	0.362	-0.034
-714.733	-100.169	-0.342	-0.085
-713.718	-20.575	-0.248	0.153
-712.704	153.027	0.149	-0.204
-711.689	34.956	0.141	-0.124
-710.675	223.883	0.341	-0.552
-709.660	800.000	-0.055	0.206
-708.645	135.735	-0.089	0.117
-707.631	800.000	0.098	0.307
-706.616	-33.081	0.061	-0.034
-705.602	219.416	0.224	-0.360
-704.587	249.333	-0.112	0.190
-703.572	683.016	0.007	0.018
-702.558	63.764	-0.142	-0.143
-701.543	800.000	-0.045	0.198
-700.529	-37.980	-0.229	0.122
-699.514	-127.895	-0.165	0.024
-698.499	-200.000	0.008	0.186
-697.485	107.655	0.147	-0.176
-696.470	-131.043	0.129	-0.017
-695.456	322.514	0.067	-0.128
-694.441	526.858	-0.047	0.110
-693.426	-76.214	0.244	0.086
-692.412	392.139	-0.048	-0.100
-691.397	-200.000	0.000	-0.093
-690.383	71.108	0.211	-0.219
-689.368	125.862	0.091	0.115
-688.354	61.086	0.087	0.086
-687.339	75.850	0.160	0.169
-686.324	-42.710	-0.131	0.067
-685.310	-200.000	0.013	-0.446
-684.295	25.872	-0.184	-0.154
-683.281	-7.229	0.368	0.250
-682.266	-102.164	-0.272	-0.066
-681.251	-160.124	0.313	0.017
-680.237	15.048	0.184	0.145
-679.222	-82.596	-0.317	0.103
-678.208	160.817	0.102	-0.143
-677.193	352.121	0.112	0.222
-676.178	-14.174	-0.109	0.070
-675.164	800.000	-0.062	-0.172
-674.149	144.823	-0.096	-0.129
-673.135	-72.234	-0.197	0.073
-672.120	-200.000	-0.015	-0.322
-671.105	386.988	-0.134	-0.277
-670.091	0.465	0.082	-0.059
-669.076	-117.706	-0.338	-0.061
-668.062	-200.000	0.031	-0.281
-667.047	-179.016	-0.244	-0.006
-666.032	133.152	-0.146	-0.188
-665.018	-200.000	0.007	-0.033
-664.003	195.387	-0.067	0.102
-662.989	-107.879	0.233	-0.051
-661.974	-29.014	0.025	-0.014
-660.959	181.492	0.186	-0.275
-659.945	532.326	-0.106	0.252
-658.930	245.448	0.111	0.187
-657.916	-163.427	0.174	0.008
-656.901	-98.888	-0.140	0.036
-655.886	25.220	-0.275	-0.229
-654.872	800.000	-0.044	-0.179
-653.857	-131.137	-0.197	0.026
-652.843	-35.776	-0.107	0.058
-651.828	-200.000	0.039	-0.234
-650.814	-107.366	-0.140	0.031
-649.799	332.113	-0.160	-0.310
-648.784	-68.650	0.208	0.080
-647.770	507.799	0.064	0.148
-646.755	261.504	0.114	0.197
-645.741	-200.000	0.042	0.239
-644.726	-95.439	-0.187	-0.050
-643.711	-200.000	0.058	0.402
-642.697	-200.000	-0.022	0.315
-641.682	23.345	0.224	0.184
-640.668	706.781	-0.163	0.430
-639.653	800.000	0.063	0.207
-638.638	-173.948	0.167	-0.005
-637.624	69.406	0.229	-0.236
-636.609	-45.017	0.274	-0.137
-635.595	308.902	0.091	-0.171
-634.580	-108.850	-0.138	0.030
-633.565	463.646	0.038	0.084
-632.551	-124.161	0.117	-0.018
-631.536	800.000	-0.032	-0.094
-630.522	800.000	-0.058	0.172
-629.507	-13.229	-0.251	-0.163
-628.492	94.618	0.260	0.296
-627.478	484.020	0.092	0.209
-626.463	26.216	0.111	-0.093
-625.449	-200.000	-0.058	-0.265
-624.434	110.410	0.242	-0.290
-623.419	-38.501	-0.239	0.126
-622.405	800.000	-0.039	0.109
-621.390	315.037	0.078	0.147
-620.376	480.954	0.102	-0.232
-619.361	-200.000	0.002	-0.106
-618.346	-200.000	0.000	-0.163
-617.332	-90.820	-0.184	0.053
-616.317	156.877	-0.076	-0.104
-615.303	48.866	-0.085	-0.080
-614.288	10.139	0.176	-0.134
-613.273	-65.896	0.110	0.044
-612.259	-200.000	0.042	0.203
-611.244	-48.526	-0.239	0.115
-610.230	-108.497	-0.447	-0.096
-609.215	-22.594	-0.262	-0.159
-608.201	78.466	-0.254	-0.271
-607.186	-87.452	-0.299	-0.091
-606.171	-93.602	0.213	-0.059
-605.157	130.097	0.068	0.087
-604.142	220.961	-0.100	-0.160
-603.128	-170.997	-0.013	0.000
-602.113	-52.237	-0.127	-0.059
-601.098	-54.884	0.155	0.070
-600.084	-200.000	0.008	0.237
-599.069	800.000	-0.038	-0.129
-598.055	466.701	-0.092	-0.207
-597.040	-49.638	-0.131	-0.062
-596.025	258.640	-0.094	-0.162
-595.011	-26.521	0.151	-0.088
-593.996	-40.228	-0.312	0.162
-592.982	63.569	0.232	-0.232
-591.967	196.946	-0.108	-0.164
-590.952	35.516	-0.084	-0.073
-589.938	184.963	-0.057	-0.085
-588.923	-107.400	-0.069	0.015
-587.909	-54.898	-0.419	-0.189
-586.894	39.677	0.192	-0.172
-585.879	223.885	-0.031	0.050
-584.865	-200.000	0.009	-0.199
-583.850	-146.135	0.061	-0.005
-582.836	31.011	-0.072	-0.061
-581.821	219.510	-0.012	0.019
-580.806	51.586	0.245	-0.232
-579.792	62.106	-0.031	0.031
-578.777	357.309	-0.047	0.093
-577.763	202.610	0.170	0.261
-576.748	-200.000	0.020	0.354
-575.733	365.870	0.139	0.280
-574.719	-200.000	0.001	0.247
-573.704	-200.000	0.031	0.265
-572.690	586.689	0.049	0.121
-571.675	-200.000	0.008	0.271
-570.661	-66.316	0.309	0.123
-569.646	561.813	-0.143	-0.345
-568.631	-38.401	-0.210	0.111
-567.617	51.040	-0.395	0.374
-566.602	-163.148	0.157	-0.008
-565.588	356.501	0.147	0.292
-564.573	-123.121	-0.207	0.033
-563.558	-59.115	0.141	-0.061
-562.544	30.096	0.022	-0.018
-561.529	-173.121	-0.232	0.007
-560.515	-5.303	-0.063	-0.043
-559.500	800.000	-0.050	0.153
-558.485	800.000	-0.120	0.342
-557.471	-6.373	0.424	0.289
-556.456	800.000	-0.113	0.483
-555.442	-200.000	0.045	0.231
-554.427	-172.274	0.307	-0.010
-553.412	374.923	-0.199	-0.405
-552.398	-74.607	0.099	-0.035
-551.383	800.000	-0.051	0.162
-550.369	442.268	0.093	0.202
-549.354	637.411	-0.115	0.293
-548.339	48.977	-0.141	0.132
-547.325	-99.015	0.188	0.047
-546.310	-200.000	0.036	0.164
-545.296	4.248	-0.139	0.102
-544.281	-135.923	-0.234	-0.027
-543.266	-132.487	-0.399	0.051
-542.252	-86.940	0.121	0.037
-541.237	-76.205	-0.028	-0.010
-540.223	-130.004	-0.318	-0.043
-539.208	-18.389	-0.184	-0.115
-538.193	800.000	-0.067	0.219
-537.179	-66.449	-0.090	-0.035
-536.164	-102.914	0.172	0.041
-535.150	800.000	0.022	0.064
-534.135	308.358	0.118	-0.220
-533.121	15.967	0.280	0.220
-532.106	-200.000	0.040	-0.300
-531.091	-200.000	0.005	0.064
-530.077	-59.582	-0.087	0.037
-529.062	-28.588	0.134	0.077
-528.048	-200.000	-0.002	-0.211
-527.033	-140.434	0.407	0.042
-526.018	-181.916	-0.156	-0.003
-525.004	-200.000	-0.022	-0.193
-523.989	185.820	0.084	0.125
-522.975	800.000	0.026	-0.106
-521.960	800.000	0.043	-0.153
-520.945	-195.553	-0.429	-0.003
-519.931	-123.771	0.297	-0.047
-518.916	-69.807	0.300	-0.114
-517.902	800.000	-0.148	-0.416
-516.887	800.000	-0.063	-0.228
-515.872	-171.975	-0.330	-0.011
-514.858	-118.990	-0.275	0.048
-513.843	128.425	-0.057	0.073
-512.829	-92.366	-0.305	0.085
-511.814	100.693	-0.066	0.076
-510.799	-200.000	0.019	-0.360
-509.785	78.477	-0.254	-0.271
-508.770	46.378	0.138	-0.127
-507.756	-52.482	0.271	-0.125
-506.741	-75.466	0.159	-0.056
-505.726	-200.000	-0.071	0.324
-504.712	186.921	0.029	-0.043
-503.697	206.892	-0.124	0.192
-502.683	-127.763	0.269	-0.039
-501.668	-84.178	0.117	-0.037
-500.653	9.632	-0.180	-0.136
-499.639	-7.651	0.397	0.267
-498.624	-124.616	-0.142	0.022
-497.610	-136.231	-0.276	0.032
-496.595	-116.012	-0.155	-0.029
-495.581	-19.728	-0.337	0.207
-494.566	-5.288	0.166	-0.113
-493.551	-57.522	0.175	0.076
-492.537	547.646	0.066	0.158
-491.522	-143.195	-0.167	-0.016
-490.508	-160.447	-0.178	-0.010
-489.493	22.380	0.237	-0.193
-488.478	-108.675	0.076	-0.016
-487.464	344.344	-0.036	-0.071
-486.449	-200.000	0.039	-0.176
-485.435	-131.267	0.298	-0.039
-484.420	-5.365	0.017	-0.012
-483.405	4.820	-0.184	0.135
-482.391	-200.000	0.007	0.055
-481.376	230.277	-0.157	0.256
-480.362	98.282	-0.219	-0.251
-479.347	198.413	-0.309	-0.471
-478.332	-58.706	-0.093	0.040
-477.318	-200.000	-0.003	-0.175
-476.303	-200.000	0.032	-0.369
-475.289	91.573	-0.133	0.149
-474.274	-200.000	0.018	0.492
-473.259	-104.168	-0.135	-0.031
-472.245	39.836	-0.036	0.032
-471.230	197.945	0.179	-0.272
-470.216	-107.047	0.272	-0.060
-469.201	55.602	-0.246	-0.237
-468.186	-41.862	0.295	0.150
-467.172	272.582	0.092	-0.161
-466.157	-9.735	-0.249	0.165
-465.143	-85.368	-0.468	0.145
-464.128	-169.146	0.024	0.001
-463.113	-101.416	0.061	-0.015
-462.099	-22.731	0.238	0.143
-461.084	513.160	0.157	0.364
-460.070	800.000	-0.096	0.273
-459.055	293.296	-0.036	-0.066
-458.040	98.164	-0.107	-0.123
-457.026	-152.650	0.096	0.007
-456.011	254.212	-0.139	-0.236
-454.997	257.977	-0.139	-0.237
-453.982	491.346	0.115	-0.262
-452.968	-40.009	-0.052	0.027
-451.953	460.601	-0.158	0.350
-450.938	800.000	0.060	-0.181
-449.924	-200.000	-0.035	0.174
-448.909	-200.000	-0.063	-0.479
-447.895	-200.000	0.006	-0.230
-446.880	-80.554	-0.256	0.085
-445.865	-200.000	-0.012	0.180
-444.851	468.464	0.141	0.313
-443.836	460.262	0.063	0.140
-442.822	311.691	0.086	0.160
-441.807	17.912	-0.280	-0.221
-440.792	-76.558	0.265	-0.092
-439.778	404.594	-0.017	-0.035
-438.763	-200.000	0.030	0.203
-437.749	-20.923	0.099	-0.060
-436.734	-200.000	-0.019	0.136
-435.719	-200.000	0.007	-0.105
-434.705	800.000	0.022	0.061
-433.690	-78.258	-0.242	-0.083
-432.676	496.060	0.127	0.289
-431.661	-94.190	-0.138	0.037
-430.646	-36.991	0.184	-0.098
-429.632	265.021	0.153	-0.265
-428.617	111.180	-0.097	-0.117
-427.603	-200.000	-0.052	-0.236
-426.588	111.151	-0.217	-0.259
-425.573	514.212	-0.048	-0.112
-424.559	-200.000	0.002	0.051
-423.544	-60.331	0.114	0.048
-422.530	-146.146	-0.226	-0.020
-421.515	-102.770	0.188	0.045
-420.500	-200.000	0.024	-0.268
-419.486	211.186	0.185	-0.289
-418.471	656.781	0.089	0.228
-417.457	-9.079	-0.107	0.071
-416.442	-159.541	-0.135	-0.007
-415.428	140.615	-0.112	0.147
-414.413	-59.654	0.216	0.092
-413.398	-129.620	-0.359	-0.049
-412.384	-70.403	-0.184	0.069
-411.369	-28.144	-0.094	0.054
-410.355	-66.444	-0.063	0.025
-409.340	599.733	0.060	0.148
-408.325	-101.510	0.127	-0.031
-407.311	168.661	0.033	-0.047
-406.296	35.419	0.128	-0.111
-405.282	177.197	0.121	-0.174
-404.267	-122.986	-0.228	-0.036
-403.252	800.000	-0.088	-0.267
-402.238	-200.000	-0.001	-0.371
-401.223	-197.662	0.271	-0.002
-400.209	36.879	0.183	-0.160
-399.194	-200.000	0.020	0.093
-398.179	48.635	-0.047	-0.044
-397.165	-70.247	-0.053	-0.020
-396.150	94.312	-0.037	-0.042
-395.136	-27.556	-0.233	-0.134
-394.121	152.738	-0.185	0.250
-393.106	216.866	-0.060	0.094
-392.092	-37.809	-0.260	0.137
-391.077	415.181	-0.039	0.082
-390.063	62.199	0.101	0.100
-389.048	-52.290	0.264	-0.121
-388.033	-86.625	0.223	-0.068
-387.019	800.000	0.072	0.218
-386.004	-200.000	-0.018	0.256
-384.990	-166.253	0.227	0.009
-383.975	-37.320	0.250	0.133
-382.960	-22.682	-0.116	-0.069
-381.946	-46.040	0.054	0.027
-380.931	-200.000	-0.045	0.313
-379.917	-38.262	0.057	-0.030
-378.902	-11.697	-0.214	-0.139
-377.888	-121.354	0.258	-0.043
-376.873	-100.496	0.103	0.025
-375.858	-74.690	0.265	-0.094
-374.844	-200.000	-0.046	0.206
-373.829	-48.933	0.488	-0.231
-372.815	-111.950	-0.199	-0.040
-371.800	-48.785	-0.136	-0.065
-370.785	118.428	0.113	0.139
-369.771	483.427	-0.068	0.153
-368.756	228.902	-0.072	0.116
-367.742	114.328	-0.052	0.063
-366.727	144.353	0.132	-0.175
-365.712	-176.285	-0.178	-0.005
-364.698	-170.236	0.319	-0.011
-363.683	-46.672	0.032	0.016
-362.669	-200.000	-0.029	0.177
-361.654	-200.000	-0.026	0.137
-360.639	35.402	-0.087	-0.075
-359.625	388.070	-0.019	-0.039
-358.610	202.921	0.205	-0.313
-357.596	64.907	0.144	0.144
-356.581	800.000	-0.015	-0.065
-355.566	397.790	0.029	-0.060
-354.552	165.483	-0.067	0.093
-353.537	406.115	0.025	0.052
-352.523	202.491	-0.016	-0.024
-351.508	-89.313	-0.161	-0.047
-350.493	-200.000	-0.005	-0.094
-349.479	-200.000	-0.043	-0.266
-348.464	149.208	0.226	-0.302
-347.450	-130.096	-0.300	0.041
-346.435	800.000	-0.086	-0.236
-345.420	47.168	-0.175	0.161
-344.406	-116.416	0.359	-0.066
-343.391	-88.543	0.229	-0.067
-342.377	-200.000	0.024	-0.248
-341.362	-134.534	-0.251	0.030
-340.348	2.374	-0.314	-0.225
-339.333	-121.872	0.308	-0.050
-338.318	-70.234	0.423	-0.159
-337.304	-200.000	0.012	-0.057
-336.289	-117.945	-0.400	0.071
-335.275	-164.527	-0.089	0.004
-334.260	-6.966	-0.143	-0.096
-333.245	800.000	-0.063	-0.256
-332.231	35.784	0.186	0.161
-331.216	-200.000	-0.006	0.427
-330.202	-200.000	-0.025	0.261
-329.187	436.900	0.156	-0.336
-328.172	-145.149	-0.150	0.013
-327.158	800.000	-0.021	0.089
-326.143	800.000	-0.071	-0.271
-325.129	91.908	-0.200	-0.222
-324.114	282.591	-0.126	0.223
-323.099	77.098	0.219	0.230
-322.085	-126.413	-0.163	0.024
-321.070	-109.327	-0.120	-0.025
-320.056	-200.000	0.059	0.291
-319.041	332.753	0.117	0.223
-318.026	800.000	0.062	-0.180
-317.012	-103.618	0.312	-0.072
-315.997	59.008	-0.174	-0.169
-314.983	-44.247	0.271	0.134
-313.968	-64.893	0.164	-0.066
-312.953	-25.616	0.127	0.074
-311.939	-200.000	0.024	-0.281
-310.924	-88.844	-0.246	0.072
-309.910	22.438	0.252	0.204
-308.895	465.110	0.055	0.121
-307.880	800.000	-0.023	-0.078
-306.866	-200.000	0.062	-0.565
-305.851	800.000	0.007	-0.023
-304.837	-151.626	-0.086	0.006
-303.822	350.285	-0.043	0.084
-302.807	199.621	-0.127	0.193
-301.793	3.718	-0.114	-0.082
-300.778	-56.158	0.250	-0.110
-299.764	-108.608	0.175	-0.037
-298.749	277.299	0.103	0.181
-297.735	396.820	0.076	0.157
-296.720	-200.000	0.020	0.206
-295.705	-22.128	-0.040	-0.024
-294.691	675.321	-0.023	-0.060
-293.676	154.042	0.107	0.145
-292.662	-200.000	0.011	0.094
-291.647	-200.000	0.011	-0.309
-290.632	-98.622	0.221	0.056
-289.618	-200.000	0.024	-0.202
-288.603	727.472	0.065	-0.170
-287.589	-149.042	-0.124	-0.010
-286.574	800.000	-0.069	0.288
-285.559	-31.918	0.123	0.068
-284.545	800.000	-0.007	-0.021
-283.530	104.267	0.218	-0.253
-282.516	-200.000	-0.024	0.350
-281.501	800.000	-0.062	-0.201
-280.486	-200.000	-0.016	-0.231
-279.472	-46.739	-0.231	-0.112
-278.457	-200.000	-0.046	-0.211
-277.443	39.400	-0.308	0.272
-276.428	32.115	0.037	-0.032
-275.413	184.284	0.133	0.195
-274.399	-179.677	0.333	0.007
-273.384	-168.285	0.023	0.001
-272.370	684.041	-0.071	-0.183
-271.355	769.455	0.109	0.294
-270.340	38.778	0.104	-0.092
-269.326	-200.000	-0.004	0.119
-268.311	-23.492	-0.143	-0.085
-267.297	245.042	-0.140	0.233
-266.282	-154.939	-0.098	-0.006
-265.267	74.005	0.058	0.060
-264.253	-200.000	-0.006	0.204
-263.238	-39.650	-0.293	-0.151
-262.224	-72.147	-0.185	0.068
-261.209	326.225	0.081	-0.154
-260.195	258.874	0.158	-0.268
-259.180	-25.016	-0.150	0.088
-258.165	29.960	-0.093	-0.078
-257.151	-122.956	0.193	0.031
-256.136	-200.000	0.046	0.373
-255.122	-52.401	0.521	-0.238
-254.107	-146.860	0.131	0.011
-253.092	800.000	0.082	0.267
-252.078	-112.532	0.243	0.048
-251.063	-161.042	-0.336	-0.017
-250.049	-200.000	0.008	0.094
-249.034	381.163	-0.028	0.056
-248.019	31.101	0.178	-0.151
-247.005	800.000	-0.073	-0.216
-245.990	-200.000	0.047	-0.235
-244.976	37.815	-0.093	0.081
-243.961	-151.781	-0.566	0.041
-242.946	-42.147	-0.399	0.201
-241.932	-7.404	0.051	-0.034
-240.917	-200.000	-0.011	0.460
-239.903	-28.170	-0.070	0.040
-238.888	-114.561	-0.317	-0.060
-237.873	-103.540	-0.081	-0.019
-236.859	4.891	0.213	-0.155
-235.844	292.045	-0.190	-0.341
-234.830	-120.905	-0.152	-0.025
-233.815	-9.312	0.083	-0.055
-232.800	265.111	-0.052	-0.089
-231.786	218.913	0.170	-0.267
-230.771	-200.000	0.017	0.156
-229.757	-10.109	0.124	0.081
-228.742	-90.927	0.217	-0.061
-227.727	-113.931	-0.366	-0.070
-226.713	2.433	-0.211	-0.150
-225.698	-124.467	0.205	-0.031
-224.684	-200.000	0.007	0.121
-223.669	-13.161	0.201	0.129
-222.655	-32.355	0.073	0.040
-221.640	465.103	0.050	-0.111
-220.625	-3.032	0.142	-0.098
-219.611	322.916	0.052	0.097
-218.596	-4.295	0.307	0.209
-217.582	800.000	0.036	0.146
-216.567	-89.123	0.277	0.081
-215.552	69.491	-0.160	-0.162
-214.538	-13.404	-0.311	-0.198
-213.523	136.243	-0.144	-0.185
-212.509	800.000	-0.126	-0.364
-211.494	76.598	0.066	0.069
-210.479	800.000	-0.022	-0.074
-209.465	371.365	0.198	-0.396
-208.450	96.124	-0.277	-0.312
-207.436	-200.000	-0.001	-0.084
-206.421	24.522	0.102	-0.083
-205.406	130.416	-0.049	0.062
-204.392	800.000	0.026	-0.101
-203.377	800.000	-0.040	0.122
-202.363	-200.000	-0.067	0.299
-201.348	-200.000	-0.017	0.171
-200.333	201.679	-0.132	0.201
-199.319	173.860	-0.158	0.224
-198.304	-29.682	0.003	0.002
-197.290	14.972	-0.188	-0.145
-196.275	-172.467	0.166	0.005
-195.260	800.000	0.065	0.182
-194.246	257.577	0.108	-0.183
-193.231	-200.000	-0.013	-0.157
-192.217	800.000	-0.010	0.032
-191.202	-4.564	-0.189	-0.129
-190.187	19.078	0.101	0.079
-189.173	-128.828	0.401	0.056
-188.158	-58.102	0.199	0.085
-187.144	800.000	0.064	-0.183
-186.129	-132.745	0.217	-0.027
-185.114	536.184	-0.069	-0.161
-184.100	-200.000	0.006	-0.033
-183.085	800.000	0.046	0.128
-182.071	-76.121	0.329	0.114
-181.056	-200.000	-0.002	0.239
-180.042	-146.126	-0.283	0.024
-179.027	-48.693	-0.089	0.042
-178.012	-134.064	0.287	-0.035
-176.998	60.388	-0.247	0.241
-175.983	559.687	0.020	0.048
-174.969	392.775	0.083	-0.170
-173.954	79.668	0.358	0.377
-172.939	-31.704	-0.135	0.075
-171.925	3.674	0.019	-0.014
-170.910	1.029	-0.212	-0.149
-169.896	-92.195	0.117	-0.032
-168.881	800.000	-0.030	0.106
-167.866	-200.000	0.042	-0.329
-166.852	44.019	0.186	-0.168
-165.837	385.778	-0.215	-0.437
-164.823	67.038	0.189	-0.190
-163.808	-30.977	-0.229	-0.127
-162.793	-180.783	-0.096	-0.002
-161.779	-200.000	0.039	0.485
-160.764	-189.818	0.119	-0.001
-159.750	-109.635	0.368	0.076
-158.735	325.671	0.186	-0.349
-157.720	-131.352	0.403	0.052
-156.706	800.000	-0.062	0.248
-155.691	-67.894	0.200	0.077
-154.677	-100.642	-0.240	0.058
-153.662	80.976	-0.137	0.145
-152.647	800.000	0.109	0.445
-151.633	204.990	-0.196	0.298
-150.618	149.459	-0.036	-0.048
-149.604	126.375	0.223	0.277
-148.589	-170.473	-0.143	0.005
-147.574	-200.000	0.005	-0.121
-146.560	172.200	-0.108	0.153
-145.545	-200.000	0.026	-0.247
-144.531	-200.000	-0.013	-0.228
-143.516	800.000	0.080	0.332
-142.502	-135.376	-0.224	-0.026
-141.487	-146.829	0.207	0.018
-140.472	-200.000	-0.003	-0.279
-139.458	-133.865	-0.215	-0.026
-138.443	409.820	0.106	0.221
-137.429	395.126	-0.184	-0.376
-136.414	99.884	0.127	-0.145
-135.399	554.103	0.136	-0.322
-134.385	603.333	0.005	-0.013
-133.370	-200.000	0.012	0.108
-132.356	127.782	-0.075	-0.094
-131.341	-129.403	-0.176	0.024
-130.326	-26.174	-0.299	-0.173
-129.312	-77.840	0.254	-0.086
-128.297	-200.000	-0.022	-0.211
-127.283	-2.268	-0.138	0.095
-126.268	298.283	-0.104	0.188
-125.253	-200.000	0.015	-0.335
-124.239	-51.236	0.136	0.062
-123.224	-116.304	-0.369	0.067
