DTS Sentinel unit serial number:	SN413079Multiplexer serial number:	ORYXHardware model number:	OX4-SRSoftware version number:	ORYX F/W v4.00 Oryx Data Collector v3.7.2.0data status	okinstallation	princeton_trtdifferential loss correction	single-endedforward channel	channel 3reverse channel	N/Adate	2019/09/12time	19:55:04forward acquisition time	15.00reverse acquisition time	0.00gamma	496.2192k internal	0.2322k external	0.2322temperature offset calibration	1.0119default loss term (dB/km)	0.3790temperature slope calibration	1.0000multiplexer offset coefficient	1.0000multiplexer slope coefficient	1.0000fibre end	0.00T internal ref (°C)	31.81T ext. ref 1 (°C)	3.41T ext. ref 2 (°C)	26.39length (m)	temperature (°C)	Stokes	anti-Stokes-747.200	-27.641	0.553	0.324
-746.185	-107.061	0.662	0.148
-745.171	40.833	0.189	0.172
-744.156	800.000	0.121	-0.430
-743.142	800.000	-0.139	0.578
-742.127	-200.000	-0.017	0.517
-741.112	-200.000	-0.138	-1.232
-740.098	499.318	-0.086	-0.200
-739.083	-200.000	0.011	0.444
-738.069	-182.682	1.020	0.019
-737.054	462.390	0.056	-0.126
-736.039	23.500	0.553	-0.460
-735.025	-145.891	0.619	0.055
-734.010	202.893	-0.347	0.541
-732.996	418.697	-0.251	-0.541
-731.981	-58.822	-0.744	0.325
-730.966	-65.235	-0.636	-0.259
-729.952	-85.377	1.009	0.318
-728.937	52.690	-0.519	-0.501
-727.923	800.000	0.121	-0.484
-726.908	-124.111	-0.270	0.043
-725.894	-200.000	0.089	0.568
-724.879	105.098	-0.471	-0.561
-723.864	30.697	-0.109	-0.094
-722.850	-95.902	0.169	-0.046
-721.835	264.269	-0.167	-0.293
-720.821	800.000	0.260	0.957
-719.806	-24.377	-0.151	0.091
-718.791	50.804	-0.463	-0.442
-717.777	51.802	0.093	-0.089
-716.762	11.705	0.735	-0.569
-715.748	800.000	0.054	0.193
-714.733	21.023	-0.043	0.035
-713.718	-200.000	-0.065	-0.534
-712.704	272.886	0.252	-0.450
-711.689	-200.000	0.018	-0.342
-710.675	-73.601	-0.604	0.222
-709.660	335.279	-0.041	0.080
-708.645	-49.298	-1.099	-0.529
-707.631	-130.197	0.946	-0.130
-706.616	146.842	0.354	-0.480
-705.602	423.070	0.221	0.480
-704.587	603.582	-0.181	0.455
-703.572	-200.000	0.008	-0.849
-702.558	173.804	-0.133	0.193
-701.543	72.874	-0.470	-0.495
-700.529	-111.806	-0.494	0.101
-699.514	-79.184	-0.647	-0.221
-698.499	25.464	-0.304	0.255
-697.485	-200.000	0.077	0.883
-696.470	800.000	-0.106	0.347
-695.456	-165.887	-0.197	0.009
-694.441	28.626	0.910	-0.776
-693.426	800.000	0.075	-0.327
-692.412	544.960	-0.043	-0.105
-691.397	-200.000	0.046	-0.835
-690.383	447.979	0.193	-0.427
-689.368	36.397	0.636	0.565
-688.354	-200.000	-0.068	0.736
-687.339	358.901	-0.425	-0.856
-686.324	800.000	0.054	-0.164
-685.310	473.358	0.230	0.522
-684.295	-15.103	-0.408	0.263
-683.281	800.000	0.135	0.559
-682.266	-18.233	0.449	-0.283
-681.251	-55.637	-0.428	0.193
-680.237	-200.000	0.038	-0.884
-679.222	-73.746	-0.205	-0.075
-678.208	211.893	0.305	0.484
-677.193	-5.339	-0.563	-0.389
-676.178	-179.594	0.461	-0.010
-675.164	97.165	0.202	-0.234
-674.149	43.654	-0.753	0.694
-673.135	-97.173	0.669	-0.176
-672.120	75.704	0.502	0.534
-671.105	800.000	-0.099	-0.423
-670.091	75.932	0.187	0.199
-669.076	-144.030	0.408	-0.039
-668.062	106.672	-0.495	-0.591
-667.047	647.217	-0.211	0.543
-666.032	175.438	-0.069	-0.100
-665.018	-10.445	0.488	0.326
-664.003	-39.109	-0.554	0.293
-662.989	27.554	-0.389	0.329
-661.974	-7.442	-1.108	-0.755
-660.959	-200.000	-0.147	-0.752
-659.945	17.439	-0.411	0.329
-658.930	76.137	-0.307	-0.327
-657.916	54.910	-0.458	-0.445
-656.901	-200.000	-0.011	-0.062
-655.886	-200.000	-0.029	-0.332
-654.872	-79.140	0.522	0.178
-653.857	2.867	-0.589	-0.430
-652.843	-123.628	1.396	-0.223
-651.828	146.875	-0.216	-0.293
-650.814	800.000	0.081	0.321
-649.799	-56.017	0.386	0.173
-648.784	129.705	0.176	-0.226
-647.770	80.536	0.152	-0.165
-646.755	70.074	0.798	-0.828
-645.741	67.950	-0.453	-0.466
-644.726	-200.000	0.065	-0.301
-643.711	-200.000	0.076	0.468
-642.697	-158.216	-1.155	-0.068
-641.682	173.263	0.274	0.397
-640.668	308.084	-0.478	0.897
-639.653	-75.023	0.160	0.058
-638.638	88.252	0.593	-0.662
-637.624	109.447	-0.414	-0.499
-636.609	499.894	-0.173	-0.401
-635.595	-82.317	0.450	-0.147
-634.580	201.887	0.082	0.127
-633.565	467.673	0.105	-0.237
-632.551	-109.623	0.744	-0.158
-631.536	-85.837	-0.165	-0.051
-630.522	3.262	-0.623	0.456
-629.507	-81.410	-0.403	0.133
-628.492	26.380	-0.309	-0.260
-627.478	-141.237	0.383	0.039
-626.463	-82.748	0.513	0.167
-625.449	679.998	-0.299	-0.782
-624.434	-104.546	-0.482	-0.112
-623.419	474.285	0.263	-0.596
-622.405	-112.642	-0.596	-0.119
-621.390	102.395	-0.283	-0.333
-620.376	-74.984	0.610	-0.220
-619.361	38.315	0.719	0.644
-618.346	-137.822	-0.367	-0.041
-617.332	740.270	0.099	0.267
-616.317	-200.000	0.064	-0.338
-615.303	-72.162	0.522	-0.195
-614.288	-106.682	-0.216	-0.048
-613.273	-95.826	-0.511	-0.137
-612.259	70.076	-0.886	-0.920
-611.244	269.120	-0.091	0.160
-610.230	297.773	0.344	0.636
-609.215	289.320	0.306	0.557
-608.201	-59.904	-0.518	-0.223
-607.186	-137.391	0.304	0.035
-606.171	206.096	0.615	-0.961
-605.157	-200.000	0.015	-0.229
-604.142	210.404	0.273	-0.431
-603.128	-109.742	0.428	0.090
-602.113	16.046	0.146	0.116
-601.098	800.000	0.050	0.174
-600.084	-126.376	-0.572	-0.086
-599.069	88.956	0.284	0.317
-598.055	203.312	-0.330	-0.513
-597.040	258.831	0.240	0.415
-596.025	800.000	0.265	0.755
-595.011	50.563	-0.361	-0.343
-593.996	-155.703	-0.441	-0.028
-592.982	176.949	0.109	0.159
-591.967	184.573	-0.555	-0.826
-590.952	-61.178	-0.065	-0.027
-589.938	527.159	0.152	0.361
-588.923	19.456	-0.464	0.375
-587.909	-115.950	1.018	-0.191
-586.894	-200.000	-0.073	-0.775
-585.879	55.551	0.794	0.771
-584.865	-200.000	-0.035	0.287
-583.850	800.000	-0.075	0.293
-582.836	-200.000	-0.010	0.648
-581.821	316.599	-0.281	-0.532
-580.806	-118.937	-0.575	-0.101
-579.792	-200.000	0.094	0.422
-578.777	271.765	0.491	-0.869
-577.763	-16.663	-0.304	0.193
-576.748	446.689	0.080	0.178
-575.733	135.313	0.312	0.407
-574.719	167.474	-0.298	-0.424
-573.704	-156.344	0.425	0.027
-572.690	-116.063	0.232	0.043
-571.675	800.000	-0.096	0.395
-570.661	-200.000	-0.077	-0.443
-569.646	-200.000	-0.003	0.336
-568.631	-104.158	-0.359	-0.084
-567.617	-143.926	-0.234	0.022
-566.602	800.000	0.034	-0.140
-565.588	333.023	0.406	-0.787
-564.573	7.735	-0.198	0.149
-563.558	-99.552	0.156	0.039
-562.544	-200.000	0.049	-0.321
-561.529	-77.699	0.475	0.165
-560.515	55.643	-0.898	0.872
-559.500	-94.100	-0.932	-0.256
-558.485	-167.249	0.408	0.017
-557.471	64.928	-0.607	-0.615
-556.456	-200.000	-0.044	-0.731
-555.442	19.477	0.208	0.168
-554.427	-128.627	1.095	-0.155
-553.412	-142.386	-0.596	-0.059
-552.398	163.481	-0.523	0.737
-551.383	-70.057	-0.297	0.113
-550.369	25.731	-0.392	0.327
-549.354	-45.885	0.407	0.201
-548.339	800.000	-0.055	0.229
-547.325	65.330	0.308	-0.312
-546.310	-200.000	0.096	-0.425
-545.296	-113.191	-0.179	-0.035
-544.281	-90.396	0.745	-0.216
-543.266	800.000	-0.095	-0.299
-542.252	-102.908	0.169	-0.040
-541.237	-103.134	0.872	-0.207
-540.223	-114.765	-0.922	0.176
-539.208	-200.000	0.096	0.690
-538.193	119.965	0.276	0.343
-537.179	44.778	-0.857	-0.790
-536.164	-24.644	-0.346	0.206
-535.150	-106.709	-0.506	0.113
-534.135	67.499	0.295	-0.302
-533.121	129.662	0.382	-0.489
-532.106	469.805	-0.350	0.787
-531.091	11.559	0.540	0.414
-530.077	227.979	-0.010	-0.017
-529.062	-136.133	0.528	0.062
-528.048	800.000	-0.065	0.207
-527.033	95.804	0.174	-0.199
-526.018	-22.275	-0.731	0.444
-525.004	50.583	-0.616	-0.584
-523.989	373.763	0.241	-0.491
-522.975	800.000	-0.039	-0.112
-521.960	375.812	-0.422	0.861
-520.945	-88.603	0.377	-0.113
-519.931	-10.680	-0.221	-0.146
-518.916	55.495	-0.164	0.159
-517.902	-133.598	0.478	0.060
-516.887	49.738	-0.373	0.352
-515.872	465.400	0.223	0.499
-514.858	-40.064	-0.207	-0.108
-513.843	116.563	-0.745	0.914
-512.829	-200.000	-0.042	-0.767
-511.814	-200.000	-0.027	-0.177
-510.799	635.312	0.049	-0.124
-509.785	54.316	0.412	0.397
-508.770	800.000	-0.090	-0.303
-507.756	746.028	-0.184	-0.497
-506.741	-50.523	-0.299	0.141
-505.726	101.305	-0.335	0.390
-504.712	800.000	0.018	0.077
-503.697	84.592	0.701	0.768
-502.683	-116.326	-0.542	-0.100
-501.668	-49.603	0.387	0.184
-500.653	628.043	-0.237	0.598
-499.639	9.536	0.765	-0.580
-498.624	-30.046	0.632	0.360
-497.610	431.529	-0.306	0.663
-496.595	493.486	0.442	1.014
-495.581	230.546	-0.356	-0.583
-494.566	118.654	-0.528	0.652
-493.551	-159.056	-0.094	-0.005
-492.537	437.117	0.073	-0.160
-491.522	46.245	-0.347	-0.322
-490.508	18.420	-0.823	-0.658
-489.493	-99.794	0.477	-0.119
-488.478	-200.000	0.224	1.297
-487.464	800.000	-0.201	0.590
-486.449	-200.000	-0.015	-0.521
-485.435	-200.000	0.015	-0.302
-484.420	800.000	0.135	-0.579
-483.405	-153.335	-1.240	-0.086
-482.391	298.027	0.313	0.576
-481.376	-98.339	0.310	0.080
-480.362	60.442	0.150	0.148
-479.347	1.322	-0.373	-0.268
-478.332	199.304	-0.246	0.376
-477.318	-125.684	-0.391	0.059
-476.303	800.000	-0.038	0.108
-475.289	-200.000	-0.071	-0.460
-474.274	-21.776	-0.770	0.468
-473.259	-78.263	-0.238	0.082
-472.245	-32.524	-0.422	0.235
-471.230	202.479	-0.177	-0.273
-470.216	300.895	0.316	0.583
-469.201	-200.000	0.001	0.333
-468.186	800.000	-0.239	-0.918
-467.172	289.498	0.131	0.237
-466.157	-35.981	0.690	-0.373
-465.143	800.000	0.137	0.542
-464.128	-60.940	-0.169	-0.072
-463.113	-32.762	0.537	0.298
-462.099	176.280	0.102	0.149
-461.084	-152.518	0.515	0.037
-460.070	-152.207	-1.158	0.084
-459.055	-57.380	0.481	0.211
-458.040	114.377	-0.426	0.519
-457.026	157.084	0.305	-0.422
-456.011	-49.407	-0.703	-0.335
-454.997	-200.000	0.029	-0.324
-453.982	603.741	0.139	-0.346
-452.968	-112.929	0.473	0.093
-451.953	-99.805	-0.259	-0.065
-450.938	-200.000	0.007	-0.416
-449.924	-139.217	0.558	-0.060
-448.909	112.714	0.236	-0.286
-447.895	-26.036	-0.239	-0.140
-446.880	-200.000	0.125	0.690
-445.865	-169.025	0.195	-0.007
-444.851	-195.966	0.481	-0.003
-443.836	35.174	-0.689	0.603
-442.822	-18.578	-0.523	0.326
-441.807	-141.911	0.477	0.048
-440.792	-200.000	-0.111	-0.714
-439.778	-72.181	-0.400	-0.148
-438.763	398.964	-0.049	-0.102
-437.749	236.735	0.178	-0.295
-436.734	-23.231	0.248	-0.149
-435.719	-121.075	-0.060	-0.010
-434.705	-17.617	-0.176	-0.110
-433.690	467.555	-0.277	-0.619
-432.676	124.955	-0.322	-0.405
-431.661	664.503	-0.181	0.467
-430.646	-118.755	-0.902	0.159
-429.632	-87.125	-0.596	0.181
-428.617	66.253	-0.491	0.497
-427.603	92.255	0.340	-0.382
-426.588	42.003	-0.215	0.194
-425.573	-200.000	0.016	-0.581
-424.559	-5.865	-0.689	-0.470
-423.544	-108.106	0.274	0.059
-422.530	209.627	0.129	-0.201
-421.515	800.000	-0.072	-0.205
-420.500	800.000	0.209	-0.682
-419.486	-167.076	0.226	-0.009
-418.471	74.095	0.275	0.287
-417.457	-200.000	0.017	-0.153
-416.442	-117.463	0.374	-0.067
-415.428	-200.000	0.047	-0.668
-414.413	-48.424	0.707	-0.340
-413.398	-149.207	0.779	-0.062
-412.384	143.404	-0.398	0.528
-411.369	-132.036	0.223	0.029
-410.355	800.000	-0.165	-0.478
-409.340	-200.000	-0.417	0.002
-408.325	757.160	0.295	0.797
-407.311	800.000	0.166	0.695
-406.296	-4.152	0.302	0.208
-405.282	800.000	0.100	0.346
-404.267	282.562	0.249	-0.446
-403.252	-158.655	0.258	-0.015
-402.238	539.795	-0.468	1.109
-401.223	-84.249	0.541	0.171
-400.209	-54.120	1.011	0.458
-399.194	-9.459	0.547	-0.364
-398.179	-44.363	-0.211	-0.105
-397.165	800.000	0.305	0.942
-396.150	800.000	-0.235	-0.746
-395.136	-77.832	-0.239	0.082
-394.121	112.108	-0.430	-0.517
-393.106	-138.194	-0.362	-0.040
-392.092	23.905	-1.089	-0.894
-391.077	237.957	-0.520	-0.860
-390.063	-150.687	-0.761	-0.058
-389.048	-78.501	0.926	0.316
-388.033	294.730	-0.164	-0.300
-387.019	3.091	0.403	-0.292
-386.004	9.059	0.196	-0.148
-384.990	308.532	-0.113	0.210
-383.975	-200.000	0.010	0.114
-382.960	608.420	0.317	0.789
-381.946	-30.935	0.421	-0.237
-380.931	-112.327	-0.430	-0.086
-379.917	45.632	-0.354	-0.326
-378.902	-18.471	1.111	-0.691
-377.888	229.270	-0.288	-0.468
-376.873	800.000	-0.126	-0.396
-375.858	128.340	0.457	-0.580
-374.844	-51.571	-0.693	0.322
-373.829	14.918	-0.200	-0.156
-372.815	-94.813	0.369	0.100
-371.800	-200.000	-0.019	0.254
-370.785	-200.000	-0.061	-0.413
-369.771	7.183	0.315	0.234
-368.756	4.243	0.365	0.266
-367.742	567.397	-0.429	-1.036
-366.727	-89.659	-0.148	0.043
-365.712	89.846	0.275	0.306
-364.698	800.000	0.138	0.431
-363.683	-200.000	0.103	0.476
-362.669	-200.000	0.594	0.002
-361.654	53.972	0.224	-0.214
-360.639	181.698	0.328	-0.481
-359.625	-115.807	-0.513	0.095
-358.610	56.395	0.242	0.234
-357.596	-40.163	0.433	-0.224
-356.581	101.796	-0.537	-0.623
-355.566	-121.906	0.541	0.089
-354.552	243.412	0.281	0.469
-353.537	-116.598	-0.607	0.111
-352.523	-200.000	0.005	0.195
-351.508	95.366	0.267	0.303
-350.493	46.555	-0.529	0.489
-349.479	-200.000	0.018	-0.319
-348.464	575.464	-0.307	0.746
-347.450	-200.000	0.133	-0.587
-346.435	187.442	0.384	0.570
-345.420	-87.554	-0.328	0.099
-344.406	63.446	0.943	-0.941
-343.391	-16.794	-0.222	0.140
-342.377	-127.563	-0.639	-0.092
-341.362	-147.931	0.425	0.035
-340.348	-44.797	0.646	-0.320
-339.333	-15.989	0.319	0.202
-338.318	-200.000	0.006	0.588
-337.304	-83.580	0.295	0.094
-336.289	800.000	-0.176	0.563
-335.275	-0.477	0.546	0.386
-334.260	-200.000	-0.091	0.660
-333.245	116.614	-0.445	0.542
-332.231	-200.000	-0.019	-0.410
-331.216	-200.000	-0.043	-1.001
-330.202	118.198	-0.181	-0.222
-329.187	-85.326	-0.405	-0.126
-328.172	-27.837	-0.702	0.404
-327.158	-141.051	-0.893	0.091
-326.143	120.863	0.324	0.400
-325.129	86.869	0.581	0.637
-324.114	690.047	0.250	-0.649
-323.099	4.069	-0.884	0.643
-322.085	-45.371	0.500	0.246
-321.070	97.970	0.754	0.862
-320.056	-131.969	1.186	-0.154
-319.041	-51.795	0.202	-0.093
-318.026	-116.325	0.232	0.043
-317.012	311.144	0.119	0.221
-315.997	77.923	-0.228	0.241
-314.983	10.952	0.290	-0.220
-313.968	58.443	0.118	-0.115
-312.953	-26.282	0.483	-0.282
-311.939	74.157	-0.572	0.596
-310.924	-200.000	-0.005	0.441
-309.910	25.140	0.372	-0.306
-308.895	25.484	-0.260	0.215
-307.880	450.913	-0.208	0.456
-306.866	-139.865	0.563	0.059
-305.851	800.000	0.199	-0.761
-304.837	-101.323	-0.174	-0.042
-303.822	453.241	0.306	0.673
-302.807	29.687	0.780	0.659
-301.793	-25.951	1.113	0.651
-300.778	218.621	0.105	-0.166
-299.764	-145.792	-1.128	0.100
-298.749	-5.585	-0.119	-0.081
-297.735	-0.532	-0.098	0.069
-296.720	79.166	-0.227	-0.241
-295.705	-52.252	-0.276	0.127
-294.691	23.987	0.417	0.342
-293.676	151.734	0.422	0.571
-292.662	800.000	-0.057	-0.202
-291.647	-34.227	-0.966	-0.527
-290.632	-95.857	-0.768	0.203
-289.618	334.124	0.268	-0.514
-288.603	578.916	0.210	0.510
-287.589	29.318	-0.199	0.168
-286.574	-125.240	-0.416	-0.063
-285.559	70.102	-0.508	-0.521
-284.545	-87.579	0.850	0.255
-283.530	4.596	-0.238	0.174
-282.516	35.066	-0.097	-0.084
-281.501	-164.513	1.111	0.050
-280.486	193.396	0.173	-0.259
-279.472	348.479	-0.291	0.568
-278.457	1.648	0.704	-0.503
-277.443	588.653	0.287	-0.702
-276.428	276.032	-0.362	-0.638
-275.413	-200.000	-0.023	0.450
-274.399	-200.000	0.047	-0.644
-273.384	-43.229	-0.642	0.322
-272.370	-79.265	0.722	-0.243
-271.355	-43.263	-0.310	0.156
-270.340	48.684	-0.504	0.469
-269.326	409.133	-0.029	0.061
-268.311	-16.154	-0.401	0.252
-267.297	19.587	-0.910	-0.725
-266.282	456.182	0.345	0.759
-265.267	-47.196	-0.331	-0.160
-264.253	-6.242	0.832	0.563
-263.238	504.978	0.108	0.249
-262.224	59.850	-0.725	-0.710
-261.209	244.668	-0.487	-0.812
-260.195	-199.934	-0.379	0.002
-259.180	-102.582	1.110	-0.263
-258.165	-82.038	0.725	-0.235
-257.151	-156.628	-0.597	0.037
-256.136	550.206	0.183	0.435
-255.122	-22.372	-0.713	0.428
-254.107	70.160	-0.340	-0.348
-253.092	800.000	-0.274	0.931
-252.078	-2.979	-0.831	0.575
-251.063	26.812	0.416	0.346
-250.049	-122.389	-1.025	0.166
-249.034	85.260	0.483	-0.525
-248.019	800.000	-0.070	0.297
-247.005	140.290	0.379	-0.495
-245.990	-200.000	-0.085	-0.395
-244.976	-70.643	0.359	-0.135
-243.961	800.000	0.130	-0.400
-242.946	132.637	0.636	0.812
-241.932	-133.303	0.429	-0.054
-240.917	109.665	0.065	0.078
-239.903	128.052	0.312	-0.393
-238.888	800.000	0.104	-0.376
-237.873	-37.218	0.247	0.131
-236.859	-200.000	0.010	0.454
-235.844	-162.651	0.255	0.012
-234.830	131.009	-0.493	-0.626
-233.815	-8.846	0.331	-0.220
-232.800	497.372	-0.183	-0.418
-231.786	-153.469	-0.253	0.017
-230.771	113.318	-0.075	0.090
-229.757	115.903	-0.168	-0.204
-228.742	4.468	-0.124	-0.090
-227.727	-51.033	-0.283	0.132
-226.713	-159.861	-0.572	0.031
-225.698	376.788	0.222	-0.449
-224.684	800.000	0.277	-0.819
-223.669	-127.118	0.369	-0.054
-222.655	73.258	-0.184	0.191
-221.640	11.897	0.368	0.280
-220.625	61.238	0.233	-0.229
-219.611	-200.000	0.008	0.167
-218.596	33.874	0.283	0.243
-217.582	-40.710	-0.213	-0.109
-216.567	-147.728	-0.484	0.040
-215.552	-135.203	0.571	-0.068
-214.538	60.835	0.457	0.449
-213.523	800.000	0.053	-0.209
-212.509	-11.498	0.585	-0.381
-211.494	54.794	0.666	-0.636
-210.479	-39.567	-0.202	0.105
-209.465	266.801	-0.169	0.293
-208.450	38.971	0.455	-0.402
-207.436	121.690	0.268	0.331
-206.421	653.256	-0.126	0.320
-205.406	52.619	0.182	-0.172
-204.392	287.221	0.164	-0.293
-203.377	21.974	-0.352	0.284
-202.363	286.267	-0.237	0.422
-201.348	-82.361	0.066	0.021
-200.333	-200.000	-0.057	-0.366
-199.319	-161.764	-0.424	-0.021
-198.304	179.090	0.069	-0.100
-197.290	13.039	-0.824	-0.631
-196.275	-83.387	-0.369	-0.117
-195.260	35.863	0.718	-0.624
-194.246	347.211	0.222	-0.432
-193.231	-148.230	-0.289	-0.024
-192.217	-77.568	-0.970	0.332
-191.202	168.233	-0.599	0.843
-190.187	-11.591	0.431	0.280
-189.173	-200.000	0.119	0.991
-188.158	-154.760	0.554	-0.036
-187.144	129.932	-0.181	-0.229
-186.129	181.007	-0.263	-0.382
-185.114	800.000	0.317	1.077
-184.100	-120.255	-0.408	0.069
-183.085	1.258	-0.152	-0.108
-182.071	52.155	0.492	-0.463
-181.056	41.291	-0.668	-0.597
-180.042	-68.471	1.039	-0.398
-179.027	440.254	-0.043	0.092
-178.012	37.359	0.608	0.532
-176.998	175.266	0.604	-0.865
-175.983	336.342	-0.354	0.680
-174.969	-200.000	-0.023	0.247
-173.954	27.302	0.240	0.200
-172.939	642.274	0.468	-1.178
-171.925	429.224	-0.176	0.376
-170.910	91.884	0.167	0.185
-169.896	-40.649	-0.554	-0.284
-168.881	-72.818	-0.332	0.121
-167.866	181.205	-0.419	0.608
-166.852	579.705	-0.050	0.120
-165.837	299.429	0.351	0.639
-164.823	-131.573	-0.842	-0.109
-163.808	-200.000	0.002	-0.549
-162.793	-92.753	-0.577	-0.159
-161.779	23.159	-0.405	0.328
-160.764	-200.000	-0.007	0.061
-159.750	-200.000	0.067	-0.535
-158.735	24.218	0.260	-0.212
-157.720	-179.966	-0.384	0.008
-156.706	122.407	-0.380	-0.468
-155.691	-146.875	0.740	0.063
-154.677	-200.000	-0.070	0.427
-153.662	-57.050	-0.579	0.252
-152.647	83.146	0.212	0.228
-151.633	-139.866	0.393	0.041
-150.618	-54.492	-0.344	-0.154
-149.604	18.348	-0.354	0.279
-148.589	-39.990	-0.165	0.085
-147.574	14.057	-0.702	0.539
-146.560	86.445	-0.446	-0.485
-145.545	48.548	-0.258	-0.238
-144.531	-66.769	0.975	0.381
-143.516	-200.000	0.006	0.494
-142.502	14.748	-0.178	0.137
-141.487	-140.913	-0.635	-0.064
-140.472	-53.022	-0.869	-0.394
-139.458	105.047	0.292	-0.340
-138.443	-200.000	-0.081	0.384
-137.429	-51.832	0.249	0.114
-136.414	-50.134	-0.673	0.314
-135.399	263.356	-0.261	0.448
-134.385	48.440	-0.373	-0.344
-133.370	-36.424	0.397	-0.211
-132.356	102.438	-0.365	0.421
-131.341	73.847	0.505	0.522
-130.326	-90.056	0.247	-0.071
-129.312	-174.293	-0.676	0.019
-128.297	-200.000	0.017	0.294
-127.283	212.260	-0.068	-0.106
-126.268	162.863	-0.274	0.379
-125.253	221.531	0.085	-0.134
-124.239	139.151	-0.011	-0.014
-123.224	180.777	0.255	0.369
-122.210	593.052	-0.349	0.849
-121.195	-200.000	0.003	-0.331
-120.180	-43.604	-0.497	-0.247
